%OpenBCI Raw EEG Data
%Number of channels = 8
%Sample Rate = 250 Hz
%Board = OpenBCI_GUI$BoardCytonSerial
Sample Index, EXG Channel 0, EXG Channel 1, EXG Channel 2, EXG Channel 3, EXG Channel 4, EXG Channel 5, EXG Channel 6, EXG Channel 7, Accel Channel 0, Accel Channel 1, Accel Channel 2, Other, Other, Other, Other, Other, Other, Other, Analog Channel 0, Analog Channel 1, Analog Channel 2, Timestamp, Other, Timestamp (Formatted)
180.0, -187500.02235174447, 187500.0, 2725.3034979466797, 50345.695059978374, 187500.0, 187500.0, -187500.02235174447, 34562.904782641504, 0.0, 0.0, 0.0, 192.0, 0.0, 0.0, 0.0, 0.0, 0.0, 0.0, 0.0, 0.0, 0.0, 1.6989583048400636E9, 0.0, 2023-11-02 16:51:44.840
181.0, -187500.02235174447, 187500.0, 2723.291840945702, 50326.60667021354, 187500.0, 187500.0, -187500.02235174447, 34558.88146863955, 0.0, 0.0, 0.0, 192.0, 0.0, 0.0, 0.0, 0.0, 0.0, 0.0, 0.0, 0.0, 0.0, 1.698958304840089E9, 0.0, 2023-11-02 16:51:44.840
182.0, -187500.02235174447, 187500.0, 2726.935175291917, 50313.977934596296, 187500.0, 187500.0, -187500.02235174447, 34561.34016052964, 0.0, 0.0, 0.0, 192.0, 0.0, 0.0, 0.0, 0.0, 0.0, 0.0, 0.0, 0.0, 0.0, 1.6989583048401E9, 0.0, 2023-11-02 16:51:44.840
183.0, -187500.02235174447, 187500.0, 2720.833149055618, 50333.692173205876, 187500.0, 187500.0, -187500.02235174447, 34555.23813429334, 0.0, 0.0, 0.0, 192.0, 0.0, 0.0, 0.0, 0.0, 0.0, 0.0, 0.0, 0.0, 0.0, 1.6989583048401103E9, 0.0, 2023-11-02 16:51:44.840
184.0, -187500.02235174447, 187500.0, 2718.508567632266, 50347.97493791282, 187500.0, 187500.0, -187500.02235174447, 34553.02531159226, 0.0, 0.0, 0.0, 192.0, 0.0, 0.0, 0.0, 0.0, 0.0, 0.0, 0.0, 0.0, 0.0, 1.6989583048401215E9, 0.0, 2023-11-02 16:51:44.840
185.0, -187500.02235174447, 187500.0, 2719.5814513661207, 50333.62511797251, 187500.0, 187500.0, -187500.02235174447, 34551.63950343603, 0.0, 0.0, 0.0, 192.0, 0.0, 0.0, 0.0, 0.0, 0.0, 0.0, 0.0, 0.0, 0.0, 1.698958304840132E9, 0.0, 2023-11-02 16:51:44.840
186.0, -187500.02235174447, 187500.0, 2721.5037013892775, 50316.548385208655, 187500.0, 187500.0, -187500.02235174447, 34551.728910413854, 0.0, 0.0, 0.0, 192.0, 0.0, 0.0, 0.0, 0.0, 0.0, 0.0, 0.0, 0.0, 0.0, 1.6989583048401427E9, 0.0, 2023-11-02 16:51:44.840
187.0, -187500.02235174447, 187500.0, 2719.6038031105763, 50327.97012662532, 187500.0, 187500.0, -187500.02235174447, 34549.33727375713, -0.094, 0.98, 0.032, 192.0, 253.0, 16.0, 30.0, 160.0, 1.0, 0.0, 0.0, 0.0, 0.0, 1.6989583048401537E9, 0.0, 2023-11-02 16:51:44.840
188.0, -187500.02235174447, 187500.0, 2713.7252943188305, 50345.51624602274, 187500.0, 187500.0, -187500.02235174447, 34543.65993066549, -0.094, 0.98, 0.032, 192.0, 0.0, 0.0, 0.0, 0.0, 0.0, 0.0, 0.0, 0.0, 0.0, 1.6989583048401663E9, 0.0, 2023-11-02 16:51:44.840
189.0, -187500.02235174447, 187500.0, 2710.841919284096, 50331.43464701589, 187500.0, 187500.0, -187500.02235174447, 34541.089480053124, -0.094, 0.98, 0.032, 192.0, 0.0, 0.0, 0.0, 0.0, 0.0, 0.0, 0.0, 0.0, 0.0, 1.6989583048401773E9, 0.0, 2023-11-02 16:51:44.840
190.0, -187500.02235174447, 187500.0, 2715.3122681751574, 50304.00905656923, 187500.0, 187500.0, -187500.02235174447, 34543.65993066549, -0.094, 0.98, 0.032, 192.0, 0.0, 0.0, 0.0, 0.0, 0.0, 0.0, 0.0, 0.0, 0.0, 1.6989583048401873E9, 0.0, 2023-11-02 16:51:44.840
191.0, -187500.02235174447, 187500.0, 2715.066398986149, 50310.37930373899, 187500.0, 187500.0, -187500.02235174447, 34542.67645390945, -0.094, 0.98, 0.032, 192.0, 0.0, 0.0, 0.0, 0.0, 0.0, 0.0, 0.0, 0.0, 0.0, 1.6989583048401968E9, 0.0, 2023-11-02 16:51:44.840
192.0, -187500.02235174447, 187500.0, 2708.070302971638, 50333.42395227242, 187500.0, 187500.0, -187500.02235174447, 34535.34508172811, -0.094, 0.98, 0.032, 192.0, 0.0, 0.0, 0.0, 0.0, 0.0, 0.0, 0.0, 0.0, 0.0, 1.6989583048402066E9, 0.0, 2023-11-02 16:51:44.840
193.0, -187500.02235174447, 187500.0, 2703.0188087247384, 50325.46673124632, 187500.0, 187500.0, -187500.02235174447, 34531.12060202606, -0.094, 0.98, 0.032, 192.0, 0.0, 0.0, 0.0, 0.0, 0.0, 0.0, 0.0, 0.0, 0.0, 1.6989583048402164E9, 0.0, 2023-11-02 16:51:44.840
194.0, -187500.02235174447, 187500.0, 2705.9915907372942, 50303.22674551329, 187500.0, 187500.0, -187500.02235174447, 34534.76393637228, -0.094, 0.98, 0.032, 192.0, 0.0, 0.0, 0.0, 0.0, 0.0, 0.0, 0.0, 0.0, 0.0, 1.6989583048402328E9, 0.0, 2023-11-02 16:51:44.840
195.0, -187500.02235174447, 187500.0, 2706.326866904124, 50305.171347280906, 187500.0, 187500.0, -187500.02235174447, 34533.98162531634, -0.094, 0.98, 0.032, 192.0, 0.0, 0.0, 0.0, 0.0, 0.0, 0.0, 0.0, 0.0, 0.0, 1.6989583048402436E9, 0.0, 2023-11-02 16:51:44.840
196.0, -187500.02235174447, 187500.0, 2705.2986866591796, 50328.215995814324, 187500.0, 187500.0, -187500.02235174447, 34532.506410182286, -0.094, 0.98, 0.032, 192.0, 0.0, 0.0, 0.0, 0.0, 0.0, 0.0, 0.0, 0.0, 0.0, 1.6989583048404026E9, 0.0, 2023-11-02 16:51:44.840
197.0, -187500.02235174447, 187500.0, 2710.0149047392497, 50332.999269127766, 187500.0, 187500.0, -187500.02235174447, 34537.15557302899, -0.08600000000000001, 0.976, 0.04, 192.0, 253.0, 80.0, 30.0, 128.0, 1.0, 64.0, 0.0, 0.0, 0.0, 1.6989583048404129E9, 0.0, 2023-11-02 16:51:44.840
198.0, -187500.02235174447, 187500.0, 2711.512471617755, 50323.03039110069, 187500.0, 187500.0, -187500.02235174447, 34537.22262826236, -0.08600000000000001, 0.976, 0.04, 192.0, 0.0, 0.0, 0.0, 0.0, 0.0, 0.0, 0.0, 0.0, 0.0, 1.6989583048404236E9, 0.0, 2023-11-02 16:51:44.840
199.0, -187500.02235174447, 187500.0, 2719.5590996216656, 50316.704847419845, 187500.0, 187500.0, -187500.02235174447, 34545.6045324331, -0.08600000000000001, 0.976, 0.04, 192.0, 0.0, 0.0, 0.0, 0.0, 0.0, 0.0, 0.0, 0.0, 0.0, 1.6989583048404348E9, 0.0, 2023-11-02 16:51:44.840
200.0, -187500.02235174447, 187500.0, 2724.990573524305, 50339.50362676426, 187500.0, 187500.0, -187500.02235174447, 34549.158459801496, -0.08600000000000001, 0.976, 0.04, 192.0, 0.0, 0.0, 0.0, 0.0, 0.0, 0.0, 0.0, 0.0, 0.0, 1.6989583048404448E9, 0.0, 2023-11-02 16:51:44.840
201.0, -187500.02235174447, 187500.0, 2723.6271171125313, 50351.6853274924, 187500.0, 187500.0, -187500.02235174447, 34546.632712678045, -0.08600000000000001, 0.976, 0.04, 192.0, 0.0, 0.0, 0.0, 0.0, 0.0, 0.0, 0.0, 0.0, 0.0, 1.6989583048404553E9, 0.0, 2023-11-02 16:51:44.840
202.0, -187500.02235174447, 187500.0, 2722.0177915117492, 50344.35395531106, 187500.0, 187500.0, -187500.02235174447, 34545.17984928845, -0.08600000000000001, 0.976, 0.04, 192.0, 0.0, 0.0, 0.0, 0.0, 0.0, 0.0, 0.0, 0.0, 0.0, 1.6989583048404672E9, 0.0, 2023-11-02 16:51:44.840
203.0, -187500.02235174447, 187500.0, 2716.385151909012, 50332.88751040548, 187500.0, 187500.0, -187500.02235174447, 34539.5025061968, -0.08600000000000001, 0.976, 0.04, 192.0, 0.0, 0.0, 0.0, 0.0, 0.0, 0.0, 0.0, 0.0, 0.0, 1.6989583048404768E9, 0.0, 2023-11-02 16:51:44.840
204.0, -187500.02235174447, 187500.0, 2718.5309193767216, 50347.796123957174, 187500.0, 187500.0, -187500.02235174447, 34542.16236378698, -0.08600000000000001, 0.976, 0.04, 192.0, 0.0, 0.0, 0.0, 0.0, 0.0, 0.0, 0.0, 0.0, 0.0, 1.6989583048404865E9, 0.0, 2023-11-02 16:51:44.840
205.0, -187500.02235174447, 187500.0, 2725.482311902322, 50362.74944099777, 187500.0, 187500.0, -187500.02235174447, 34546.92328535596, -0.08600000000000001, 0.976, 0.04, 192.0, 0.0, 0.0, 0.0, 0.0, 0.0, 0.0, 0.0, 0.0, 0.0, 1.6989583048405008E9, 0.0, 2023-11-02 16:51:44.840
206.0, -187500.02235174447, 187500.0, 2730.287936960213, 50346.276205334216, 187500.0, 187500.0, -187500.02235174447, 34551.14776505801, -0.08600000000000001, 0.976, 0.04, 192.0, 0.0, 0.0, 0.0, 0.0, 0.0, 0.0, 0.0, 0.0, 0.0, 1.6989583048405108E9, 0.0, 2023-11-02 16:51:44.840
207.0, -187500.02235174447, 187500.0, 2729.3268119486347, 50338.96718489733, 187500.0, 187500.0, -187500.02235174447, 34548.26439002328, -0.092, 0.98, 0.034, 192.0, 253.0, 32.0, 30.0, 160.0, 1.0, 16.0, 0.0, 0.0, 0.0, 1.6989583048405206E9, 0.0, 2023-11-02 16:51:44.840
208.0, -187500.02235174447, 187500.0, 2735.5182451627547, 50356.17802812791, 187500.0, 187500.0, -187500.02235174447, 34554.03114009275, -0.092, 0.98, 0.034, 192.0, 0.0, 0.0, 0.0, 0.0, 0.0, 0.0, 0.0, 0.0, 0.0, 1.698958304840531E9, 0.0, 2023-11-02 16:51:44.840
209.0, -187500.02235174447, 187500.0, 2731.673745116442, 50381.81547901815, 187500.0, 187500.0, -187500.02235174447, 34551.43833773593, -0.092, 0.98, 0.034, 192.0, 0.0, 0.0, 0.0, 0.0, 0.0, 0.0, 0.0, 0.0, 0.0, 1.698958304840541E9, 0.0, 2023-11-02 16:51:44.840
210.0, -187500.02235174447, 187500.0, 2731.9643177943612, 50370.8407724906, 187500.0, 187500.0, -187500.02235174447, 34552.846497636616, -0.092, 0.98, 0.034, 192.0, 0.0, 0.0, 0.0, 0.0, 0.0, 0.0, 0.0, 0.0, 0.0, 1.6989583048405569E9, 0.0, 2023-11-02 16:51:44.840
211.0, -187500.02235174447, 187500.0, 2733.752457350786, 50362.32475785312, 187500.0, 187500.0, -187500.02235174447, 34555.37224476007, -0.092, 0.98, 0.034, 192.0, 0.0, 0.0, 0.0, 0.0, 0.0, 0.0, 0.0, 0.0, 0.0, 1.698958304840593E9, 0.0, 2023-11-02 16:51:44.840
212.0, -187500.02235174447, 187500.0, 2733.2830707172243, 50375.82521150413, 187500.0, 187500.0, -187500.02235174447, 34553.964084859384, -0.092, 0.98, 0.034, 192.0, 0.0, 0.0, 0.0, 0.0, 0.0, 0.0, 0.0, 0.0, 0.0, 1.698958304840603E9, 0.0, 2023-11-02 16:51:44.840
213.0, -187500.02235174447, 187500.0, 2739.7203731203526, 50394.60067684659, 187500.0, 187500.0, -187500.02235174447, 34560.535497729245, -0.092, 0.98, 0.034, 192.0, 0.0, 0.0, 0.0, 0.0, 0.0, 0.0, 0.0, 0.0, 0.0, 1.698958304840613E9, 0.0, 2023-11-02 16:51:44.840
214.0, -187500.02235174447, 187500.0, 2749.063402302671, 50398.46752863735, 187500.0, 187500.0, -187500.02235174447, 34569.78911993374, -0.092, 0.98, 0.034, 192.0, 0.0, 0.0, 0.0, 0.0, 0.0, 0.0, 0.0, 0.0, 0.0, 1.698958304840626E9, 0.0, 2023-11-02 16:51:44.840
215.0, -187500.02235174447, 187500.0, 2748.8622366025734, 50390.376197144535, 187500.0, 187500.0, -187500.02235174447, 34570.660837967494, -0.092, 0.98, 0.034, 192.0, 0.0, 0.0, 0.0, 0.0, 0.0, 0.0, 0.0, 0.0, 0.0, 1.698958304840636E9, 0.0, 2023-11-02 16:51:44.840
216.0, -187500.02235174447, 187500.0, 2742.156713265981, 50401.708531583376, 187500.0, 187500.0, -187500.02235174447, 34567.19631757693, -0.092, 0.98, 0.034, 192.0, 0.0, 0.0, 0.0, 0.0, 0.0, 0.0, 0.0, 0.0, 0.0, 1.6989583048406458E9, 0.0, 2023-11-02 16:51:44.840
217.0, -187500.02235174447, 187500.0, 2734.802989340185, 50416.05835152369, 187500.0, 187500.0, -187500.02235174447, 34559.32850352866, -0.09, 0.98, 0.04, 192.0, 253.0, 48.0, 30.0, 160.0, 1.0, 64.0, 0.0, 0.0, 0.0, 1.6989583048406556E9, 0.0, 2023-11-02 16:51:44.840
218.0, -187500.02235174447, 187500.0, 2739.0721725311487, 50407.430578163934, 187500.0, 187500.0, -187500.02235174447, 34563.01654136378, -0.09, 0.98, 0.04, 192.0, 0.0, 0.0, 0.0, 0.0, 0.0, 0.0, 0.0, 0.0, 0.0, 1.698958304840666E9, 0.0, 2023-11-02 16:51:44.840
219.0, -187500.02235174447, 187500.0, 2735.026506784738, 50391.51613611176, 187500.0, 187500.0, -187500.02235174447, 34559.5073174843, -0.09, 0.98, 0.04, 192.0, 0.0, 0.0, 0.0, 0.0, 0.0, 0.0, 0.0, 0.0, 0.0, 1.6989583048406758E9, 0.0, 2023-11-02 16:51:44.840
220.0, -187500.02235174447, 187500.0, 2735.5629486516655, 50397.573458859144, 187500.0, 187500.0, -187500.02235174447, 34561.13899482954, -0.09, 0.98, 0.04, 192.0, 0.0, 0.0, 0.0, 0.0, 0.0, 0.0, 0.0, 0.0, 0.0, 1.6989583048406858E9, 0.0, 2023-11-02 16:51:44.840
221.0, -187500.02235174447, 187500.0, 2734.1994922398917, 50416.28186896824, 187500.0, 187500.0, -187500.02235174447, 34560.17786981796, -0.09, 0.98, 0.04, 192.0, 0.0, 0.0, 0.0, 0.0, 0.0, 0.0, 0.0, 0.0, 0.0, 1.6989583048406959E9, 0.0, 2023-11-02 16:51:44.840
222.0, -187500.02235174447, 187500.0, 2736.4346666854226, 50407.229412463836, 187500.0, 187500.0, -187500.02235174447, 34560.06611109568, -0.09, 0.98, 0.04, 192.0, 0.0, 0.0, 0.0, 0.0, 0.0, 0.0, 0.0, 0.0, 0.0, 1.6989583048407056E9, 0.0, 2023-11-02 16:51:44.840
223.0, -187500.02235174447, 187500.0, 2731.2937654607017, 50384.20711567487, 187500.0, 187500.0, -187500.02235174447, 34552.22064879187, -0.09, 0.98, 0.04, 192.0, 0.0, 0.0, 0.0, 0.0, 0.0, 0.0, 0.0, 0.0, 0.0, 1.698958304840717E9, 0.0, 2023-11-02 16:51:44.840
224.0, -187500.02235174447, 187500.0, 2733.0148497837604, 50368.44913583388, 187500.0, 187500.0, -187500.02235174447, 34552.37711100306, -0.09, 0.98, 0.04, 192.0, 0.0, 0.0, 0.0, 0.0, 0.0, 0.0, 0.0, 0.0, 0.0, 1.6989583048407269E9, 0.0, 2023-11-02 16:51:44.840
225.0, -187500.02235174447, 187500.0, 2734.2665474732576, 50391.24791517829, 187500.0, 187500.0, -187500.02235174447, 34552.64533193652, -0.09, 0.98, 0.04, 192.0, 0.0, 0.0, 0.0, 0.0, 0.0, 0.0, 0.0, 0.0, 0.0, 1.6989583048407364E9, 0.0, 2023-11-02 16:51:44.840
226.0, -187500.02235174447, 187500.0, 2733.4618846728667, 50402.15556647248, 187500.0, 187500.0, -187500.02235174447, 34551.61715169158, -0.09, 0.98, 0.04, 192.0, 0.0, 0.0, 0.0, 0.0, 0.0, 0.0, 0.0, 0.0, 0.0, 1.6989583048407557E9, 0.0, 2023-11-02 16:51:44.840
227.0, -187500.02235174447, 187500.0, 2736.993460296805, 50390.01856923325, 187500.0, 187500.0, -187500.02235174447, 34554.12054707057, -0.092, 0.974, 0.036000000000000004, 192.0, 253.0, 32.0, 30.0, 112.0, 1.0, 32.0, 0.0, 0.0, 0.0, 1.6989583048407652E9, 0.0, 2023-11-02 16:51:44.840
228.0, -187500.02235174447, 187500.0, 2738.7815998532296, 50387.13519419852, 187500.0, 187500.0, -187500.02235174447, 34554.85815463759, -0.092, 0.974, 0.036000000000000004, 192.0, 0.0, 0.0, 0.0, 0.0, 0.0, 0.0, 0.0, 0.0, 0.0, 1.6989583048407757E9, 0.0, 2023-11-02 16:51:44.840
229.0, -187500.02235174447, 187500.0, 2737.4404951859115, 50407.587040375125, 187500.0, 187500.0, -187500.02235174447, 34554.32171277067, -0.092, 0.974, 0.036000000000000004, 192.0, 0.0, 0.0, 0.0, 0.0, 0.0, 0.0, 0.0, 0.0, 0.0, 1.698958304840786E9, 0.0, 2023-11-02 16:51:44.840
230.0, -187500.02235174447, 187500.0, 2734.4900649178107, 50422.2497847378, 187500.0, 187500.0, -187500.02235174447, 34552.06418658068, -0.092, 0.974, 0.036000000000000004, 192.0, 0.0, 0.0, 0.0, 0.0, 0.0, 0.0, 0.0, 0.0, 0.0, 1.6989583048407967E9, 0.0, 2023-11-02 16:51:44.840
231.0, -187500.02235174447, 187500.0, 2732.4337044279223, 50407.94466828641, 187500.0, 187500.0, -187500.02235174447, 34550.56661970218, -0.092, 0.974, 0.036000000000000004, 192.0, 0.0, 0.0, 0.0, 0.0, 0.0, 0.0, 0.0, 0.0, 0.0, 1.6989583048408074E9, 0.0, 2023-11-02 16:51:44.840
232.0, -187500.02235174447, 187500.0, 2731.0031927827827, 50395.87472628054, 187500.0, 187500.0, -187500.02235174447, 34550.32075051317, -0.092, 0.974, 0.036000000000000004, 192.0, 0.0, 0.0, 0.0, 0.0, 0.0, 0.0, 0.0, 0.0, 0.0, 1.698958304840818E9, 0.0, 2023-11-02 16:51:44.840
233.0, -187500.02235174447, 187500.0, 2729.4385706709113, 50407.51998514176, 187500.0, 187500.0, -187500.02235174447, 34547.884410367544, -0.092, 0.974, 0.036000000000000004, 192.0, 0.0, 0.0, 0.0, 0.0, 0.0, 0.0, 0.0, 0.0, 0.0, 1.6989583048408287E9, 0.0, 2023-11-02 16:51:44.840
234.0, -187500.02235174447, 187500.0, 2727.203396225381, 50423.92616557195, 187500.0, 187500.0, -187500.02235174447, 34542.899971354, -0.092, 0.974, 0.036000000000000004, 192.0, 0.0, 0.0, 0.0, 0.0, 0.0, 0.0, 0.0, 0.0, 0.0, 1.6989583048408391E9, 0.0, 2023-11-02 16:51:44.840
235.0, -187500.02235174447, 187500.0, 2724.63294561302, 50415.81248233467, 187500.0, 187500.0, -187500.02235174447, 34539.41309921898, -0.092, 0.974, 0.036000000000000004, 192.0, 0.0, 0.0, 0.0, 0.0, 0.0, 0.0, 0.0, 0.0, 0.0, 1.6989583048408499E9, 0.0, 2023-11-02 16:51:44.840
236.0, -187500.02235174447, 187500.0, 2730.4443991714, 50392.20904018987, 187500.0, 187500.0, -187500.02235174447, 34544.41988997697, -0.092, 0.974, 0.036000000000000004, 192.0, 0.0, 0.0, 0.0, 0.0, 0.0, 0.0, 0.0, 0.0, 0.0, 1.6989583048408604E9, 0.0, 2023-11-02 16:51:44.840
237.0, -187500.02235174447, 187500.0, 2732.0537247721822, 50405.3965694185, 187500.0, 187500.0, -187500.02235174447, 34545.91745685547, -0.09, 0.976, 0.04, 192.0, 253.0, 48.0, 30.0, 128.0, 1.0, 64.0, 0.0, 0.0, 0.0, 1.6989583048408709E9, 0.0, 2023-11-02 16:51:44.840
238.0, -187500.02235174447, 187500.0, 2732.701925361386, 50424.39555220551, 187500.0, 187500.0, -187500.02235174447, 34546.38684348903, -0.09, 0.976, 0.04, 192.0, 0.0, 0.0, 0.0, 0.0, 0.0, 0.0, 0.0, 0.0, 0.0, 1.698958304840882E9, 0.0, 2023-11-02 16:51:44.840
239.0, -187500.02235174447, 187500.0, 2729.4609224153664, 50409.531642142734, 187500.0, 187500.0, -187500.02235174447, 34542.4529364649, -0.09, 0.976, 0.04, 192.0, 0.0, 0.0, 0.0, 0.0, 0.0, 0.0, 0.0, 0.0, 0.0, 1.6989583048408923E9, 0.0, 2023-11-02 16:51:44.840
240.0, -187500.02235174447, 187500.0, 2731.15965499397, 50393.93012451293, 187500.0, 187500.0, -187500.02235174447, 34543.79404113222, -0.09, 0.976, 0.04, 192.0, 0.0, 0.0, 0.0, 0.0, 0.0, 0.0, 0.0, 0.0, 0.0, 1.698958304840902E9, 0.0, 2023-11-02 16:51:44.840
241.0, -187500.02235174447, 187500.0, 2738.8486550865955, 50402.78141531723, 187500.0, 187500.0, -187500.02235174447, 34551.46068948039, -0.09, 0.976, 0.04, 192.0, 0.0, 0.0, 0.0, 0.0, 0.0, 0.0, 0.0, 0.0, 0.0, 1.698958304840917E9, 0.0, 2023-11-02 16:51:44.840
242.0, -187500.02235174447, 187500.0, 2738.647489386498, 50433.13508428754, 187500.0, 187500.0, -187500.02235174447, 34550.27604702426, -0.09, 0.976, 0.04, 192.0, 0.0, 0.0, 0.0, 0.0, 0.0, 0.0, 0.0, 0.0, 0.0, 1.698958304840954E9, 0.0, 2023-11-02 16:51:44.840
243.0, -187500.02235174447, 187500.0, 2739.8544835870844, 50430.51993018627, 187500.0, 187500.0, -187500.02235174447, 34548.733776656845, -0.09, 0.976, 0.04, 192.0, 0.0, 0.0, 0.0, 0.0, 0.0, 0.0, 0.0, 0.0, 0.0, 1.6989583048409913E9, 0.0, 2023-11-02 16:51:44.840
244.0, -187500.02235174447, 187500.0, 2740.837960343118, 50411.74446484381, 187500.0, 187500.0, -187500.02235174447, 34549.85136387961, -0.09, 0.976, 0.04, 192.0, 0.0, 0.0, 0.0, 0.0, 0.0, 0.0, 0.0, 0.0, 0.0, 1.6989583048410037E9, 0.0, 2023-11-02 16:51:44.841
245.0, -187500.02235174447, 187500.0, 2737.73106786383, 50408.92814504244, 187500.0, 187500.0, -187500.02235174447, 34548.04087257873, -0.09, 0.976, 0.04, 192.0, 0.0, 0.0, 0.0, 0.0, 0.0, 0.0, 0.0, 0.0, 0.0, 1.6989583048410141E9, 0.0, 2023-11-02 16:51:44.841
246.0, -187500.02235174447, 187500.0, 2736.9264050634392, 50438.343040745625, 187500.0, 187500.0, -187500.02235174447, 34547.12445105606, -0.09, 0.976, 0.04, 192.0, 0.0, 0.0, 0.0, 0.0, 0.0, 0.0, 0.0, 0.0, 0.0, 1.698958304841042E9, 0.0, 2023-11-02 16:51:44.841
247.0, -187500.02235174447, 187500.0, 2737.932233563928, 50441.98637509184, 187500.0, 187500.0, -187500.02235174447, 34547.99616908982, -0.082, 0.978, 0.036000000000000004, 192.0, 253.0, 112.0, 30.0, 144.0, 1.0, 32.0, 0.0, 0.0, 0.0, 1.6989583048410523E9, 0.0, 2023-11-02 16:51:44.841
248.0, -187500.02235174447, 187500.0, 2736.1440940075036, 50420.931031814944, 187500.0, 187500.0, -187500.02235174447, 34546.31978825567, -0.082, 0.978, 0.036000000000000004, 192.0, 0.0, 0.0, 0.0, 0.0, 0.0, 0.0, 0.0, 0.0, 0.0, 1.6989583048410633E9, 0.0, 2023-11-02 16:51:44.841
249.0, -187500.02235174447, 187500.0, 2738.714544619864, 50414.62783987854, 187500.0, 187500.0, -187500.02235174447, 34549.67254992396, -0.082, 0.978, 0.036000000000000004, 192.0, 0.0, 0.0, 0.0, 0.0, 0.0, 0.0, 0.0, 0.0, 0.0, 1.6989583048410745E9, 0.0, 2023-11-02 16:51:44.841
250.0, -187500.02235174447, 187500.0, 2744.548349922699, 50434.54324418822, 187500.0, 187500.0, -187500.02235174447, 34557.36155001659, -0.082, 0.978, 0.036000000000000004, 192.0, 0.0, 0.0, 0.0, 0.0, 0.0, 0.0, 0.0, 0.0, 0.0, 1.6989583048410847E9, 0.0, 2023-11-02 16:51:44.841
251.0, -187500.02235174447, 187500.0, 2747.074097046149, 50447.08257282765, 187500.0, 187500.0, -187500.02235174447, 34558.233268050346, -0.082, 0.978, 0.036000000000000004, 192.0, 0.0, 0.0, 0.0, 0.0, 0.0, 0.0, 0.0, 0.0, 0.0, 1.6989583048410952E9, 0.0, 2023-11-02 16:51:44.841
252.0, -187500.02235174447, 187500.0, 2743.9895563113164, 50432.93391858744, 187500.0, 187500.0, -187500.02235174447, 34553.047663336714, -0.082, 0.978, 0.036000000000000004, 192.0, 0.0, 0.0, 0.0, 0.0, 0.0, 0.0, 0.0, 0.0, 0.0, 1.6989583048411057E9, 0.0, 2023-11-02 16:51:44.841
253.0, -187500.02235174447, 187500.0, 2743.6542801444866, 50422.27213648226, 187500.0, 187500.0, -187500.02235174447, 34551.57244820266, -0.082, 0.978, 0.036000000000000004, 192.0, 0.0, 0.0, 0.0, 0.0, 0.0, 0.0, 0.0, 0.0, 0.0, 1.6989583048411157E9, 0.0, 2023-11-02 16:51:44.841
254.0, -187500.02235174447, 187500.0, 2743.9895563113164, 50431.43635170894, 187500.0, 187500.0, -187500.02235174447, 34551.661855180486, -0.082, 0.978, 0.036000000000000004, 192.0, 0.0, 0.0, 0.0, 0.0, 0.0, 0.0, 0.0, 0.0, 0.0, 1.698958304841126E9, 0.0, 2023-11-02 16:51:44.841
255.0, -187500.02235174447, 187500.0, 2750.2033412698916, 50446.4567239829, 187500.0, 187500.0, -187500.02235174447, 34557.048625594216, -0.082, 0.978, 0.036000000000000004, 192.0, 0.0, 0.0, 0.0, 0.0, 0.0, 0.0, 0.0, 0.0, 0.0, 1.6989583048411365E9, 0.0, 2023-11-02 16:51:44.841
0.0, -187500.02235174447, 187500.0, 2754.316062249668, 50431.57046217567, 187500.0, 187500.0, -187500.02235174447, 34562.52480298577, -0.082, 0.978, 0.036000000000000004, 192.0, 0.0, 0.0, 0.0, 0.0, 0.0, 0.0, 0.0, 0.0, 0.0, 1.6989583048411467E9, 0.0, 2023-11-02 16:51:44.841
1.0, -187500.02235174447, 187500.0, 2752.63968141552, 50419.2993544697, 187500.0, 187500.0, -187500.02235174447, 34559.68613143994, -0.092, 0.976, 0.04, 192.0, 253.0, 32.0, 30.0, 128.0, 1.0, 64.0, 0.0, 0.0, 0.0, 1.6989583048411665E9, 0.0, 2023-11-02 16:51:44.841
2.0, -187500.02235174447, 187500.0, 2748.772829624752, 50434.61029942159, 187500.0, 187500.0, -187500.02235174447, 34556.333369771644, -0.092, 0.976, 0.04, 192.0, 0.0, 0.0, 0.0, 0.0, 0.0, 0.0, 0.0, 0.0, 0.0, 1.698958304841178E9, 0.0, 2023-11-02 16:51:44.841
3.0, -187500.02235174447, 187500.0, 2749.644547658509, 50453.94455837543, 187500.0, 187500.0, -187500.02235174447, 34559.17204131747, -0.092, 0.976, 0.04, 192.0, 0.0, 0.0, 0.0, 0.0, 0.0, 0.0, 0.0, 0.0, 0.0, 1.698958304841189E9, 0.0, 2023-11-02 16:51:44.841
4.0, -187500.02235174447, 187500.0, 2752.1702947819585, 50443.46159022589, 187500.0, 187500.0, -187500.02235174447, 34562.36834077458, -0.092, 0.976, 0.04, 192.0, 0.0, 0.0, 0.0, 0.0, 0.0, 0.0, 0.0, 0.0, 0.0, 1.698958304841199E9, 0.0, 2023-11-02 16:51:44.841
5.0, -187500.02235174447, 187500.0, 2745.509474934277, 50428.10594178509, 187500.0, 187500.0, -187500.02235174447, 34554.947561615416, -0.092, 0.976, 0.04, 192.0, 0.0, 0.0, 0.0, 0.0, 0.0, 0.0, 0.0, 0.0, 0.0, 1.6989583048412094E9, 0.0, 2023-11-02 16:51:44.841
6.0, -187500.02235174447, 187500.0, 2740.5026841762883, 50430.87755809755, 187500.0, 187500.0, -187500.02235174447, 34549.426680734956, -0.092, 0.976, 0.04, 192.0, 0.0, 0.0, 0.0, 0.0, 0.0, 0.0, 0.0, 0.0, 0.0, 1.6989583048412204E9, 0.0, 2023-11-02 16:51:44.841
7.0, -187500.02235174447, 187500.0, 2737.1722742524476, 50436.01845932227, 187500.0, 187500.0, -187500.02235174447, 34545.023387077264, -0.092, 0.976, 0.04, 192.0, 0.0, 0.0, 0.0, 0.0, 0.0, 0.0, 0.0, 0.0, 0.0, 1.698958304841231E9, 0.0, 2023-11-02 16:51:44.841
8.0, -187500.02235174447, 187500.0, 2743.9448528224057, 50426.876595840055, 187500.0, 187500.0, -187500.02235174447, 34549.51608771278, -0.092, 0.976, 0.04, 192.0, 0.0, 0.0, 0.0, 0.0, 0.0, 0.0, 0.0, 0.0, 0.0, 1.6989583048412414E9, 0.0, 2023-11-02 16:51:44.841
9.0, -187500.02235174447, 187500.0, 2748.2810912467353, 50424.93199407244, 187500.0, 187500.0, -187500.02235174447, 34553.22647729236, -0.092, 0.976, 0.04, 192.0, 0.0, 0.0, 0.0, 0.0, 0.0, 0.0, 0.0, 0.0, 0.0, 1.6989583048412523E9, 0.0, 2023-11-02 16:51:44.841
10.0, -187500.02235174447, 187500.0, 2744.3248324781457, 50433.515063943276, 187500.0, 187500.0, -187500.02235174447, 34548.376148745556, -0.092, 0.976, 0.04, 192.0, 0.0, 0.0, 0.0, 0.0, 0.0, 0.0, 0.0, 0.0, 0.0, 1.698958304841266E9, 0.0, 2023-11-02 16:51:44.841
11.0, -187500.02235174447, 187500.0, 2742.000251054794, 50451.687032185444, 187500.0, 187500.0, -187500.02235174447, 34546.833878378144, -0.088, 0.978, 0.034, 192.0, 253.0, 64.0, 30.0, 144.0, 1.0, 16.0, 0.0, 0.0, 0.0, 1.698958304841277E9, 0.0, 2023-11-02 16:51:44.841
12.0, -187500.02235174447, 187500.0, 2743.810742355674, 50444.73563965984, 187500.0, 187500.0, -187500.02235174447, 34547.660892922984, -0.088, 0.978, 0.034, 192.0, 0.0, 0.0, 0.0, 0.0, 0.0, 0.0, 0.0, 0.0, 0.0, 1.6989583048412888E9, 0.0, 2023-11-02 16:51:44.841
13.0, -187500.02235174447, 187500.0, 2740.860312087573, 50432.956270331895, 187500.0, 187500.0, -187500.02235174447, 34544.822221377166, -0.088, 0.978, 0.034, 192.0, 0.0, 0.0, 0.0, 0.0, 0.0, 0.0, 0.0, 0.0, 0.0, 1.6989583048413007E9, 0.0, 2023-11-02 16:51:44.841
14.0, -187500.02235174447, 187500.0, 2738.1557510084813, 50433.023325565264, 187500.0, 187500.0, -187500.02235174447, 34542.81056437619, -0.088, 0.978, 0.034, 192.0, 0.0, 0.0, 0.0, 0.0, 0.0, 0.0, 0.0, 0.0, 0.0, 1.698958304841312E9, 0.0, 2023-11-02 16:51:44.841
15.0, -187500.02235174447, 187500.0, 2745.487123189822, 50457.498485743825, 187500.0, 187500.0, -187500.02235174447, 34551.08070982465, -0.088, 0.978, 0.034, 192.0, 0.0, 0.0, 0.0, 0.0, 0.0, 0.0, 0.0, 0.0, 0.0, 1.6989583048413239E9, 0.0, 2023-11-02 16:51:44.841
16.0, -187500.02235174447, 187500.0, 2738.2675097307574, 50470.909532417005, 187500.0, 187500.0, -187500.02235174447, 34544.822221377166, -0.088, 0.978, 0.034, 192.0, 0.0, 0.0, 0.0, 0.0, 0.0, 0.0, 0.0, 0.0, 0.0, 1.6989583048413498E9, 0.0, 2023-11-02 16:51:44.841
17.0, -187500.02235174447, 187500.0, 2736.4570184298777, 50443.39453499253, 187500.0, 187500.0, -187500.02235174447, 34543.347006243115, -0.088, 0.978, 0.034, 192.0, 0.0, 0.0, 0.0, 0.0, 0.0, 0.0, 0.0, 0.0, 0.0, 1.6989583048413658E9, 0.0, 2023-11-02 16:51:44.841
18.0, -187500.02235174447, 187500.0, 2738.938062064417, 50438.27598551226, 187500.0, 187500.0, -187500.02235174447, 34545.425718477454, -0.088, 0.978, 0.034, 192.0, 0.0, 0.0, 0.0, 0.0, 0.0, 0.0, 0.0, 0.0, 0.0, 1.6989583048413787E9, 0.0, 2023-11-02 16:51:44.841
19.0, -187500.02235174447, 187500.0, 2741.3296987211347, 50467.33325330416, 187500.0, 187500.0, -187500.02235174447, 34547.16915454497, -0.088, 0.978, 0.034, 192.0, 0.0, 0.0, 0.0, 0.0, 0.0, 0.0, 0.0, 0.0, 0.0, 1.69895830484139E9, 0.0, 2023-11-02 16:51:44.841
20.0, -187500.02235174447, 187500.0, 2741.866140588062, 50476.922151675484, 187500.0, 187500.0, -187500.02235174447, 34547.92911385645, -0.088, 0.978, 0.034, 192.0, 0.0, 0.0, 0.0, 0.0, 0.0, 0.0, 0.0, 0.0, 0.0, 1.698958304841401E9, 0.0, 2023-11-02 16:51:44.841
21.0, -187500.02235174447, 187500.0, 2743.0731347886485, 50457.073802599174, 187500.0, 187500.0, -187500.02235174447, 34548.42085223447, -0.096, 0.974, 0.034, 192.0, 253.0, 0.0, 30.0, 112.0, 1.0, 16.0, 0.0, 0.0, 0.0, 1.6989583048414156E9, 0.0, 2023-11-02 16:51:44.841
22.0, -187500.02235174447, 187500.0, 2743.0284312997383, 50454.10102058662, 187500.0, 187500.0, -187500.02235174447, 34546.31978825567, -0.096, 0.974, 0.034, 192.0, 0.0, 0.0, 0.0, 0.0, 0.0, 0.0, 0.0, 0.0, 0.0, 1.698958304841427E9, 0.0, 2023-11-02 16:51:44.841
23.0, -187500.02235174447, 187500.0, 2745.5988819120985, 50467.623825982075, 187500.0, 187500.0, -187500.02235174447, 34547.3032650117, -0.096, 0.974, 0.034, 192.0, 0.0, 0.0, 0.0, 0.0, 0.0, 0.0, 0.0, 0.0, 0.0, 1.6989583048414388E9, 0.0, 2023-11-02 16:51:44.841
24.0, -187500.02235174447, 187500.0, 2754.6960419054085, 50481.817183711195, 187500.0, 187500.0, -187500.02235174447, 34555.23813429334, -0.096, 0.974, 0.034, 192.0, 0.0, 0.0, 0.0, 0.0, 0.0, 0.0, 0.0, 0.0, 0.0, 1.6989583048414502E9, 0.0, 2023-11-02 16:51:44.841
25.0, -187500.02235174447, 187500.0, 2746.06826854566, 50477.10096563113, 187500.0, 187500.0, -187500.02235174447, 34547.48207896735, -0.096, 0.974, 0.034, 192.0, 0.0, 0.0, 0.0, 0.0, 0.0, 0.0, 0.0, 0.0, 0.0, 1.698958304841466E9, 0.0, 2023-11-02 16:51:44.841
26.0, -187500.02235174447, 187500.0, 2739.832131842629, 50464.002843380316, 187500.0, 187500.0, -187500.02235174447, 34542.40823297599, -0.096, 0.974, 0.034, 192.0, 0.0, 0.0, 0.0, 0.0, 0.0, 0.0, 0.0, 0.0, 0.0, 1.6989583048414788E9, 0.0, 2023-11-02 16:51:44.841
27.0, -187500.02235174447, 187500.0, 2737.0158120412602, 50468.58495099365, 187500.0, 187500.0, -187500.02235174447, 34540.24011376382, -0.096, 0.974, 0.034, 192.0, 0.0, 0.0, 0.0, 0.0, 0.0, 0.0, 0.0, 0.0, 0.0, 1.6989583048414912E9, 0.0, 2023-11-02 16:51:44.841
28.0, -187500.02235174447, 187500.0, 2736.1664457519587, 50485.237000612855, 187500.0, 187500.0, -187500.02235174447, 34540.79890737521, -0.096, 0.974, 0.034, 192.0, 0.0, 0.0, 0.0, 0.0, 0.0, 0.0, 0.0, 0.0, 0.0, 1.6989583048415084E9, 0.0, 2023-11-02 16:51:44.841
29.0, -187500.02235174447, 187500.0, 2728.1198177480483, 50476.586875508656, 187500.0, 187500.0, -187500.02235174447, 34532.03702354873, -0.096, 0.974, 0.034, 192.0, 0.0, 0.0, 0.0, 0.0, 0.0, 0.0, 0.0, 0.0, 0.0, 1.698958304841523E9, 0.0, 2023-11-02 16:51:44.841
30.0, -187500.02235174447, 187500.0, 2729.282108459724, 50459.5101427448, 187500.0, 187500.0, -187500.02235174447, 34533.37812821605, -0.096, 0.974, 0.034, 192.0, 0.0, 0.0, 0.0, 0.0, 0.0, 0.0, 0.0, 0.0, 0.0, 1.698958304841539E9, 0.0, 2023-11-02 16:51:44.841
31.0, -187500.02235174447, 187500.0, 2721.4589979003667, 50467.40030853752, 187500.0, 187500.0, -187500.02235174447, 34524.12450601155, -0.088, 0.972, 0.036000000000000004, 192.0, 253.0, 64.0, 30.0, 96.0, 1.0, 32.0, 0.0, 0.0, 0.0, 1.6989583048415923E9, 0.0, 2023-11-02 16:51:44.841
32.0, -187500.02235174447, 187500.0, 2724.700000846386, 50482.95712267842, 187500.0, 187500.0, -187500.02235174447, 34526.493790923814, -0.088, 0.972, 0.036000000000000004, 192.0, 0.0, 0.0, 0.0, 0.0, 0.0, 0.0, 0.0, 0.0, 0.0, 1.6989583048416061E9, 0.0, 2023-11-02 16:51:44.841
33.0, -187500.02235174447, 187500.0, 2726.264622958258, 50482.62184651159, 187500.0, 187500.0, -187500.02235174447, 34526.58319790163, -0.088, 0.972, 0.036000000000000004, 192.0, 0.0, 0.0, 0.0, 0.0, 0.0, 0.0, 0.0, 0.0, 0.0, 1.6989583048416188E9, 0.0, 2023-11-02 16:51:44.841
34.0, -187500.02235174447, 187500.0, 2728.231576470325, 50467.64617772653, 187500.0, 187500.0, -187500.02235174447, 34527.611378146576, -0.088, 0.972, 0.036000000000000004, 192.0, 0.0, 0.0, 0.0, 0.0, 0.0, 0.0, 0.0, 0.0, 0.0, 1.6989583048416307E9, 0.0, 2023-11-02 16:51:44.841
35.0, -187500.02235174447, 187500.0, 2725.549367135688, 50477.14566912004, 187500.0, 187500.0, -187500.02235174447, 34524.79505834521, -0.088, 0.972, 0.036000000000000004, 192.0, 0.0, 0.0, 0.0, 0.0, 0.0, 0.0, 0.0, 0.0, 0.0, 1.6989583048416467E9, 0.0, 2023-11-02 16:51:44.841
36.0, -187500.02235174447, 187500.0, 2729.3938671820006, 50494.02123618379, 187500.0, 187500.0, -187500.02235174447, 34528.661910135976, -0.088, 0.972, 0.036000000000000004, 192.0, 0.0, 0.0, 0.0, 0.0, 0.0, 0.0, 0.0, 0.0, 0.0, 1.6989583048416607E9, 0.0, 2023-11-02 16:51:44.841
37.0, -187500.02235174447, 187500.0, 2728.4103904259673, 50492.61307628311, 187500.0, 187500.0, -187500.02235174447, 34528.036061291226, -0.088, 0.972, 0.036000000000000004, 192.0, 0.0, 0.0, 0.0, 0.0, 0.0, 0.0, 0.0, 0.0, 0.0, 1.6989583048416755E9, 0.0, 2023-11-02 16:51:44.841
38.0, -187500.02235174447, 187500.0, 2714.1499774634813, 50472.47415452888, 187500.0, 187500.0, -187500.02235174447, 34514.602662873585, -0.088, 0.972, 0.036000000000000004, 192.0, 0.0, 0.0, 0.0, 0.0, 0.0, 0.0, 0.0, 0.0, 0.0, 1.6989583048416896E9, 0.0, 2023-11-02 16:51:44.841
39.0, -187500.02235174447, 187500.0, 2708.1150064605486, 50461.72296544588, 187500.0, 187500.0, -187500.02235174447, 34509.77468607124, -0.088, 0.972, 0.036000000000000004, 192.0, 0.0, 0.0, 0.0, 0.0, 0.0, 0.0, 0.0, 0.0, 0.0, 1.6989583048417091E9, 0.0, 2023-11-02 16:51:44.841
40.0, -187500.02235174447, 187500.0, 2714.4629018858554, 50478.21855285389, 187500.0, 187500.0, -187500.02235174447, 34516.32374719665, -0.088, 0.972, 0.036000000000000004, 192.0, 0.0, 0.0, 0.0, 0.0, 0.0, 0.0, 0.0, 0.0, 0.0, 1.6989583048417256E9, 0.0, 2023-11-02 16:51:44.841
41.0, -187500.02235174447, 187500.0, 2716.0498757421824, 50488.83563147016, 187500.0, 187500.0, -187500.02235174447, 34518.71538385336, -0.084, 0.974, 0.034, 192.0, 253.0, 96.0, 30.0, 112.0, 1.0, 16.0, 0.0, 0.0, 0.0, 1.698958304841751E9, 0.0, 2023-11-02 16:51:44.841
42.0, -187500.02235174447, 187500.0, 2713.233555940814, 50474.6646254855, 187500.0, 187500.0, -187500.02235174447, 34515.63084311853, -0.084, 0.974, 0.034, 192.0, 0.0, 0.0, 0.0, 0.0, 0.0, 0.0, 0.0, 0.0, 0.0, 1.6989583048417728E9, 0.0, 2023-11-02 16:51:44.841
43.0, -187500.02235174447, 187500.0, 2713.322962918635, 50467.40030853752, 187500.0, 187500.0, -187500.02235174447, 34517.039003019214, -0.084, 0.974, 0.034, 192.0, 0.0, 0.0, 0.0, 0.0, 0.0, 0.0, 0.0, 0.0, 0.0, 1.6989583048417883E9, 0.0, 2023-11-02 16:51:44.841
44.0, -187500.02235174447, 187500.0, 2714.3064396746686, 50487.15925063602, 187500.0, 187500.0, -187500.02235174447, 34519.989433287315, -0.084, 0.974, 0.034, 192.0, 0.0, 0.0, 0.0, 0.0, 0.0, 0.0, 0.0, 0.0, 0.0, 1.6989583048418117E9, 0.0, 2023-11-02 16:51:44.841
45.0, -187500.02235174447, 187500.0, 2711.87009952904, 50494.065939672706, 187500.0, 187500.0, -187500.02235174447, 34517.66485186396, -0.084, 0.974, 0.034, 192.0, 0.0, 0.0, 0.0, 0.0, 0.0, 0.0, 0.0, 0.0, 0.0, 1.6989583048418329E9, 0.0, 2023-11-02 16:51:44.841
46.0, -187500.02235174447, 187500.0, 2710.1713669504365, 50476.34100631965, 187500.0, 187500.0, -187500.02235174447, 34515.854360563084, -0.084, 0.974, 0.034, 192.0, 0.0, 0.0, 0.0, 0.0, 0.0, 0.0, 0.0, 0.0, 0.0, 1.6989583048418548E9, 0.0, 2023-11-02 16:51:44.841
47.0, -187500.02235174447, 187500.0, 2704.5834308366098, 50462.50527650181, 187500.0, 187500.0, -187500.02235174447, 34511.048735505196, -0.084, 0.974, 0.034, 192.0, 0.0, 0.0, 0.0, 0.0, 0.0, 0.0, 0.0, 0.0, 0.0, 1.698958304842243E9, 0.0, 2023-11-02 16:51:44.842
48.0, -187500.02235174447, 187500.0, 2705.835128526107, 50479.82787845467, 187500.0, 187500.0, -187500.02235174447, 34512.45689540588, -0.084, 0.974, 0.034, 192.0, 0.0, 0.0, 0.0, 0.0, 0.0, 0.0, 0.0, 0.0, 0.0, 1.6989583048422594E9, 0.0, 2023-11-02 16:51:44.842
49.0, -187500.02235174447, 187500.0, 2710.640753583998, 50491.3166751047, 187500.0, 187500.0, -187500.02235174447, 34515.63084311853, -0.084, 0.974, 0.034, 192.0, 0.0, 0.0, 0.0, 0.0, 0.0, 0.0, 0.0, 0.0, 0.0, 1.6989583048422737E9, 0.0, 2023-11-02 16:51:44.842
50.0, -187500.02235174447, 187500.0, 2714.932288519417, 50477.92798017598, 187500.0, 187500.0, -187500.02235174447, 34519.63180537603, -0.09, 0.982, 0.03, 192.0, 253.0, 48.0, 30.0, 176.0, 0.0, 240.0, 0.0, 0.0, 0.0, 1.698958304842284E9, 0.0, 2023-11-02 16:51:44.842
51.0, -187500.02235174447, 187500.0, 2705.7233698038303, 50458.79488692223, 187500.0, 187500.0, -187500.02235174447, 34510.15466572698, -0.09, 0.982, 0.03, 192.0, 0.0, 0.0, 0.0, 0.0, 0.0, 0.0, 0.0, 0.0, 0.0, 1.698958304842296E9, 0.0, 2023-11-02 16:51:44.842
52.0, -187500.02235174447, 187500.0, 2702.571773835632, 50458.0125758663, 187500.0, 187500.0, -187500.02235174447, 34505.55020636919, -0.09, 0.982, 0.03, 192.0, 0.0, 0.0, 0.0, 0.0, 0.0, 0.0, 0.0, 0.0, 0.0, 1.6989583048423133E9, 0.0, 2023-11-02 16:51:44.842
53.0, -187500.02235174447, 187500.0, 2700.940096490395, 50467.75793644881, 187500.0, 187500.0, -187500.02235174447, 34503.67265983494, -0.09, 0.982, 0.03, 192.0, 0.0, 0.0, 0.0, 0.0, 0.0, 0.0, 0.0, 0.0, 0.0, 1.6989583048423233E9, 0.0, 2023-11-02 16:51:44.842
54.0, -187500.02235174447, 187500.0, 2707.6232680825315, 50445.89793037152, 187500.0, 187500.0, -187500.02235174447, 34511.98750877232, -0.09, 0.982, 0.03, 192.0, 0.0, 0.0, 0.0, 0.0, 0.0, 0.0, 0.0, 0.0, 0.0, 1.698958304842334E9, 0.0, 2023-11-02 16:51:44.842
55.0, -187500.02235174447, 187500.0, 2703.0411604691935, 50418.8523195806, 187500.0, 187500.0, -187500.02235174447, 34509.48411339332, -0.09, 0.982, 0.03, 192.0, 0.0, 0.0, 0.0, 0.0, 0.0, 0.0, 0.0, 0.0, 0.0, 1.6989583048423443E9, 0.0, 2023-11-02 16:51:44.842
56.0, -187500.02235174447, 187500.0, 2699.509584845255, 50415.56661314567, 187500.0, 187500.0, -187500.02235174447, 34508.053601748186, -0.09, 0.982, 0.03, 192.0, 0.0, 0.0, 0.0, 0.0, 0.0, 0.0, 0.0, 0.0, 0.0, 1.6989583048423543E9, 0.0, 2023-11-02 16:51:44.842
57.0, -187500.02235174447, 187500.0, 2695.0168842097387, 50419.79109284772, 187500.0, 187500.0, -187500.02235174447, 34503.002107501285, -0.09, 0.982, 0.03, 192.0, 0.0, 0.0, 0.0, 0.0, 0.0, 0.0, 0.0, 0.0, 0.0, 1.6989583048423643E9, 0.0, 2023-11-02 16:51:44.842
58.0, -187500.02235174447, 187500.0, 2697.8108522666516, 50399.20513620438, 187500.0, 187500.0, -187500.02235174447, 34504.119694724046, -0.09, 0.982, 0.03, 192.0, 0.0, 0.0, 0.0, 0.0, 0.0, 0.0, 0.0, 0.0, 0.0, 1.6989583048423753E9, 0.0, 2023-11-02 16:51:44.842
59.0, -187500.02235174447, 187500.0, 2698.0790732001155, 50362.92825495342, 187500.0, 187500.0, -187500.02235174447, 34505.080819735624, -0.09, 0.982, 0.03, 192.0, 0.0, 0.0, 0.0, 0.0, 0.0, 0.0, 0.0, 0.0, 0.0, 1.6989583048423853E9, 0.0, 2023-11-02 16:51:44.842
60.0, -187500.02235174447, 187500.0, 2691.440605096889, 50340.956490153854, 187500.0, 187500.0, -187500.02235174447, 34499.82815978863, -0.094, 0.98, 0.038, 192.0, 253.0, 16.0, 30.0, 160.0, 1.0, 48.0, 0.0, 0.0, 0.0, 1.6989583048423953E9, 0.0, 2023-11-02 16:51:44.842
61.0, -187500.02235174447, 187500.0, 2692.289971386191, 50344.91274892244, 187500.0, 187500.0, -187500.02235174447, 34504.186749957415, -0.094, 0.98, 0.038, 192.0, 0.0, 0.0, 0.0, 0.0, 0.0, 0.0, 0.0, 0.0, 0.0, 1.6989583048424065E9, 0.0, 2023-11-02 16:51:44.842
62.0, -187500.02235174447, 187500.0, 2694.413387109445, 50333.04397261667, 187500.0, 187500.0, -187500.02235174447, 34508.9923750153, -0.094, 0.98, 0.038, 192.0, 0.0, 0.0, 0.0, 0.0, 0.0, 0.0, 0.0, 0.0, 0.0, 1.698958304842471E9, 0.0, 2023-11-02 16:51:44.842
63.0, -187500.02235174447, 187500.0, 2697.542631333188, 50294.04017854216, 187500.0, 187500.0, -187500.02235174447, 34512.38984017251, -0.094, 0.98, 0.038, 192.0, 0.0, 0.0, 0.0, 0.0, 0.0, 0.0, 0.0, 0.0, 0.0, 1.6989583048424814E9, 0.0, 2023-11-02 16:51:44.842
64.0, -187500.02235174447, 187500.0, 2699.5319365897103, 50275.152954477424, 187500.0, 187500.0, -187500.02235174447, 34516.79313383021, -0.094, 0.98, 0.038, 192.0, 0.0, 0.0, 0.0, 0.0, 0.0, 0.0, 0.0, 0.0, 0.0, 1.6989583048424935E9, 0.0, 2023-11-02 16:51:44.842
65.0, -187500.02235174447, 187500.0, 2700.493061601289, 50284.116004004005, 187500.0, 187500.0, -187500.02235174447, 34520.72704085434, -0.094, 0.98, 0.038, 192.0, 0.0, 0.0, 0.0, 0.0, 0.0, 0.0, 0.0, 0.0, 0.0, 1.698958304842504E9, 0.0, 2023-11-02 16:51:44.842
66.0, -187500.02235174447, 187500.0, 2701.230669168314, 50281.50084990273, 187500.0, 187500.0, -187500.02235174447, 34522.850456577595, -0.094, 0.98, 0.038, 192.0, 0.0, 0.0, 0.0, 0.0, 0.0, 0.0, 0.0, 0.0, 0.0, 1.6989583048425136E9, 0.0, 2023-11-02 16:51:44.842
67.0, -187500.02235174447, 187500.0, 2700.515413345744, 50256.66806181289, 187500.0, 187500.0, -187500.02235174447, 34524.97387230085, -0.094, 0.98, 0.038, 192.0, 0.0, 0.0, 0.0, 0.0, 0.0, 0.0, 0.0, 0.0, 0.0, 1.6989583048425243E9, 0.0, 2023-11-02 16:51:44.842
68.0, -187500.02235174447, 187500.0, 2696.737968532797, 50247.414439608394, 187500.0, 187500.0, -187500.02235174447, 34521.107020510084, -0.094, 0.98, 0.038, 192.0, 0.0, 0.0, 0.0, 0.0, 0.0, 0.0, 0.0, 0.0, 0.0, 1.6989583048425353E9, 0.0, 2023-11-02 16:51:44.842
69.0, -187500.02235174447, 187500.0, 2696.268581899236, 50254.29877690063, 187500.0, 187500.0, -187500.02235174447, 34520.39176468751, -0.094, 0.98, 0.038, 192.0, 0.0, 0.0, 0.0, 0.0, 0.0, 0.0, 0.0, 0.0, 0.0, 1.6989583048425467E9, 0.0, 2023-11-02 16:51:44.842
70.0, -187500.02235174447, 187500.0, 2699.800157523174, 50259.6631955699, 187500.0, 187500.0, -187500.02235174447, 34524.3480234561, -0.088, 0.978, 0.038, 192.0, 253.0, 64.0, 30.0, 144.0, 1.0, 48.0, 0.0, 0.0, 0.0, 1.6989583048425562E9, 0.0, 2023-11-02 16:51:44.842
71.0, -187500.02235174447, 187500.0, 2702.907050002462, 50247.52619833067, 187500.0, 187500.0, -187500.02235174447, 34529.287758980725, -0.088, 0.978, 0.038, 192.0, 0.0, 0.0, 0.0, 0.0, 0.0, 0.0, 0.0, 0.0, 0.0, 1.6989583048425665E9, 0.0, 2023-11-02 16:51:44.842
72.0, -187500.02235174447, 187500.0, 2697.4755760998223, 50233.53400630165, 187500.0, 187500.0, -187500.02235174447, 34525.82323859015, -0.088, 0.978, 0.038, 192.0, 0.0, 0.0, 0.0, 0.0, 0.0, 0.0, 0.0, 0.0, 0.0, 1.6989583048425772E9, 0.0, 2023-11-02 16:51:44.842
73.0, -187500.02235174447, 187500.0, 2699.7554540342635, 50248.599082064524, 187500.0, 187500.0, -187500.02235174447, 34527.99135780232, -0.088, 0.978, 0.038, 192.0, 0.0, 0.0, 0.0, 0.0, 0.0, 0.0, 0.0, 0.0, 0.0, 1.6989583048425872E9, 0.0, 2023-11-02 16:51:44.842
74.0, -187500.02235174447, 187500.0, 2709.4784628723223, 50269.028576496676, 187500.0, 187500.0, -187500.02235174447, 34535.83682010613, -0.088, 0.978, 0.038, 192.0, 0.0, 0.0, 0.0, 0.0, 0.0, 0.0, 0.0, 0.0, 0.0, 1.6989583048425992E9, 0.0, 2023-11-02 16:51:44.842
75.0, -187500.02235174447, 187500.0, 2713.0100384962607, 50270.23557069726, 187500.0, 187500.0, -187500.02235174447, 34536.46266895088, -0.088, 0.978, 0.038, 192.0, 0.0, 0.0, 0.0, 0.0, 0.0, 0.0, 0.0, 0.0, 0.0, 1.6989583048426096E9, 0.0, 2023-11-02 16:51:44.842
76.0, -187500.02235174447, 187500.0, 2714.9546402638725, 50259.32791940307, 187500.0, 187500.0, -187500.02235174447, 34536.417965461966, -0.088, 0.978, 0.038, 192.0, 0.0, 0.0, 0.0, 0.0, 0.0, 0.0, 0.0, 0.0, 0.0, 1.6989583048426206E9, 0.0, 2023-11-02 16:51:44.842
77.0, -187500.02235174447, 187500.0, 2716.541614120199, 50271.48726838676, 187500.0, 187500.0, -187500.02235174447, 34537.22262826236, -0.088, 0.978, 0.038, 192.0, 0.0, 0.0, 0.0, 0.0, 0.0, 0.0, 0.0, 0.0, 0.0, 1.6989583048426778E9, 0.0, 2023-11-02 16:51:44.842
78.0, -187500.02235174447, 187500.0, 2710.4395878839005, 50288.27342847269, 187500.0, 187500.0, -187500.02235174447, 34530.56180841468, -0.088, 0.978, 0.038, 192.0, 0.0, 0.0, 0.0, 0.0, 0.0, 0.0, 0.0, 0.0, 0.0, 1.6989583048426876E9, 0.0, 2023-11-02 16:51:44.842
79.0, -187500.02235174447, 187500.0, 2711.1324919620147, 50272.60485560952, 187500.0, 187500.0, -187500.02235174447, 34530.29358748121, -0.088, 0.978, 0.038, 192.0, 0.0, 0.0, 0.0, 0.0, 0.0, 0.0, 0.0, 0.0, 0.0, 1.6989583048426976E9, 0.0, 2023-11-02 16:51:44.842
80.0, -187500.02235174447, 187500.0, 2702.7282360468193, 50248.44261985333, 187500.0, 187500.0, -187500.02235174447, 34521.91168331047, -0.09, 0.972, 0.036000000000000004, 192.0, 253.0, 48.0, 30.0, 96.0, 1.0, 32.0, 0.0, 0.0, 0.0, 1.6989583048427072E9, 0.0, 2023-11-02 16:51:44.842
81.0, -187500.02235174447, 187500.0, 2694.7933667651855, 50249.359041376, 187500.0, 187500.0, -187500.02235174447, 34513.57448262865, -0.09, 0.972, 0.036000000000000004, 192.0, 0.0, 0.0, 0.0, 0.0, 0.0, 0.0, 0.0, 0.0, 0.0, 1.6989583048427176E9, 0.0, 2023-11-02 16:51:44.842
82.0, -187500.02235174447, 187500.0, 2702.6164773245428, 50259.573788592075, 187500.0, 187500.0, -187500.02235174447, 34521.41994493246, -0.09, 0.972, 0.036000000000000004, 192.0, 0.0, 0.0, 0.0, 0.0, 0.0, 0.0, 0.0, 0.0, 0.0, 1.6989583048427277E9, 0.0, 2023-11-02 16:51:44.842
83.0, -187500.02235174447, 187500.0, 2698.5931633225878, 50267.10632647352, 187500.0, 187500.0, -187500.02235174447, 34519.40828793148, -0.09, 0.972, 0.036000000000000004, 192.0, 0.0, 0.0, 0.0, 0.0, 0.0, 0.0, 0.0, 0.0, 0.0, 1.6989583048427372E9, 0.0, 2023-11-02 16:51:44.842
84.0, -187500.02235174447, 187500.0, 2696.514451088244, 50249.739021031746, 187500.0, 187500.0, -187500.02235174447, 34516.48020940783, -0.09, 0.972, 0.036000000000000004, 192.0, 0.0, 0.0, 0.0, 0.0, 0.0, 0.0, 0.0, 0.0, 0.0, 1.6989583048427467E9, 0.0, 2023-11-02 16:51:44.842
85.0, -187500.02235174447, 187500.0, 2693.608724309054, 50261.1607624484, 187500.0, 187500.0, -187500.02235174447, 34512.7474680838, -0.09, 0.972, 0.036000000000000004, 192.0, 0.0, 0.0, 0.0, 0.0, 0.0, 0.0, 0.0, 0.0, 0.0, 1.6989583048427577E9, 0.0, 2023-11-02 16:51:44.842
86.0, -187500.02235174447, 187500.0, 2687.8866777284957, 50287.49111741676, 187500.0, 187500.0, -187500.02235174447, 34507.15953196997, -0.09, 0.972, 0.036000000000000004, 192.0, 0.0, 0.0, 0.0, 0.0, 0.0, 0.0, 0.0, 0.0, 0.0, 1.6989583048427677E9, 0.0, 2023-11-02 16:51:44.842
87.0, -187500.02235174447, 187500.0, 2685.6291515385096, 50289.68158837338, 187500.0, 187500.0, -187500.02235174447, 34504.477322635335, -0.09, 0.972, 0.036000000000000004, 192.0, 0.0, 0.0, 0.0, 0.0, 0.0, 0.0, 0.0, 0.0, 0.0, 1.6989583048427775E9, 0.0, 2023-11-02 16:51:44.842
88.0, -187500.02235174447, 187500.0, 2689.227782395814, 50267.4639543848, 187500.0, 187500.0, -187500.02235174447, 34506.779552314234, -0.09, 0.972, 0.036000000000000004, 192.0, 0.0, 0.0, 0.0, 0.0, 0.0, 0.0, 0.0, 0.0, 0.0, 1.6989583048427892E9, 0.0, 2023-11-02 16:51:44.842
89.0, -187500.02235174447, 187500.0, 2691.2617911412467, 50258.545608347136, 187500.0, 187500.0, -187500.02235174447, 34508.031250003725, -0.09, 0.972, 0.036000000000000004, 192.0, 0.0, 0.0, 0.0, 0.0, 0.0, 0.0, 0.0, 0.0, 0.0, 1.6989583048428013E9, 0.0, 2023-11-02 16:51:44.842
90.0, -187500.02235174447, 187500.0, 2690.8818114855067, 50280.49502140225, 187500.0, 187500.0, -187500.02235174447, 34505.68431683592, -0.092, 0.982, 0.032, 192.0, 253.0, 32.0, 30.0, 176.0, 1.0, 0.0, 0.0, 0.0, 0.0, 1.6989583048428123E9, 0.0, 2023-11-02 16:51:44.842
91.0, -187500.02235174447, 187500.0, 2693.5863725645986, 50297.28118148818, 187500.0, 187500.0, -187500.02235174447, 34507.67362209244, -0.092, 0.982, 0.032, 192.0, 0.0, 0.0, 0.0, 0.0, 0.0, 0.0, 0.0, 0.0, 0.0, 1.6989583048428223E9, 0.0, 2023-11-02 16:51:44.842
92.0, -187500.02235174447, 187500.0, 2700.850689512574, 50287.42406218339, 187500.0, 187500.0, -187500.02235174447, 34514.11092449557, -0.092, 0.982, 0.032, 192.0, 0.0, 0.0, 0.0, 0.0, 0.0, 0.0, 0.0, 0.0, 0.0, 1.6989583048428323E9, 0.0, 2023-11-02 16:51:44.842
93.0, -187500.02235174447, 187500.0, 2696.737968532797, 50279.69035860185, 187500.0, 187500.0, -187500.02235174447, 34509.3947064155, -0.092, 0.982, 0.032, 192.0, 0.0, 0.0, 0.0, 0.0, 0.0, 0.0, 0.0, 0.0, 0.0, 1.698958304842856E9, 0.0, 2023-11-02 16:51:44.842
94.0, -187500.02235174447, 187500.0, 2694.703959787364, 50279.42213766839, 187500.0, 187500.0, -187500.02235174447, 34507.15953196997, -0.092, 0.982, 0.032, 192.0, 0.0, 0.0, 0.0, 0.0, 0.0, 0.0, 0.0, 0.0, 0.0, 1.6989583048428657E9, 0.0, 2023-11-02 16:51:44.842
95.0, -187500.02235174447, 187500.0, 2697.3638173775457, 50283.73602434827, 187500.0, 187500.0, -187500.02235174447, 34508.657098848475, -0.092, 0.982, 0.032, 192.0, 0.0, 0.0, 0.0, 0.0, 0.0, 0.0, 0.0, 0.0, 0.0, 1.6989583048428776E9, 0.0, 2023-11-02 16:51:44.842
96.0, -187500.02235174447, 187500.0, 2699.509584845255, 50275.68939634436, 187500.0, 187500.0, -187500.02235174447, 34510.22172096035, -0.092, 0.982, 0.032, 192.0, 0.0, 0.0, 0.0, 0.0, 0.0, 0.0, 0.0, 0.0, 0.0, 1.6989583048428876E9, 0.0, 2023-11-02 16:51:44.842
97.0, -187500.02235174447, 187500.0, 2693.966352220339, 50267.4639543848, 187500.0, 187500.0, -187500.02235174447, 34504.03028774623, -0.092, 0.982, 0.032, 192.0, 0.0, 0.0, 0.0, 0.0, 0.0, 0.0, 0.0, 0.0, 0.0, 1.6989583048428984E9, 0.0, 2023-11-02 16:51:44.842
98.0, -187500.02235174447, 187500.0, 2684.511564315744, 50274.34829167704, 187500.0, 187500.0, -187500.02235174447, 34493.63672657451, -0.092, 0.982, 0.032, 192.0, 0.0, 0.0, 0.0, 0.0, 0.0, 0.0, 0.0, 0.0, 0.0, 1.6989583048429105E9, 0.0, 2023-11-02 16:51:44.842
99.0, -187500.02235174447, 187500.0, 2680.4882503137887, 50283.78072783718, 187500.0, 187500.0, -187500.02235174447, 34490.37337188404, -0.092, 0.982, 0.032, 192.0, 0.0, 0.0, 0.0, 0.0, 0.0, 0.0, 0.0, 0.0, 0.0, 1.6989583048429227E9, 0.0, 2023-11-02 16:51:44.842
100.0, -187500.02235174447, 187500.0, 2682.2763898702133, 50265.362890406, 187500.0, 187500.0, -187500.02235174447, 34492.094456207094, -0.09, 0.978, 0.034, 192.0, 253.0, 48.0, 30.0, 144.0, 1.0, 16.0, 0.0, 0.0, 0.0, 1.6989583048429425E9, 0.0, 2023-11-02 16:51:44.842
101.0, -187500.02235174447, 187500.0, 2685.29387537168, 50246.90034948592, 187500.0, 187500.0, -187500.02235174447, 34494.754313797275, -0.09, 0.978, 0.034, 192.0, 0.0, 0.0, 0.0, 0.0, 0.0, 0.0, 0.0, 0.0, 0.0, 1.6989583048429563E9, 0.0, 2023-11-02 16:51:44.842
102.0, -187500.02235174447, 187500.0, 2679.035386924194, 50271.80019280913, 187500.0, 187500.0, -187500.02235174447, 34490.30631665067, -0.09, 0.978, 0.034, 192.0, 0.0, 0.0, 0.0, 0.0, 0.0, 0.0, 0.0, 0.0, 0.0, 1.6989583048429666E9, 0.0, 2023-11-02 16:51:44.842
103.0, -187500.02235174447, 187500.0, 2676.040253167183, 50282.99841678124, 187500.0, 187500.0, -187500.02235174447, 34486.41711311544, -0.09, 0.978, 0.034, 192.0, 0.0, 0.0, 0.0, 0.0, 0.0, 0.0, 0.0, 0.0, 0.0, 1.698958304842977E9, 0.0, 2023-11-02 16:51:44.842
104.0, -187500.02235174447, 187500.0, 2682.5669625481323, 50270.36968116399, 187500.0, 187500.0, -187500.02235174447, 34491.043924217694, -0.09, 0.978, 0.034, 192.0, 0.0, 0.0, 0.0, 0.0, 0.0, 0.0, 0.0, 0.0, 0.0, 1.6989583048429863E9, 0.0, 2023-11-02 16:51:44.842
105.0, -187500.02235174447, 187500.0, 2685.1374131604925, 50250.32016638758, 187500.0, 187500.0, -187500.02235174447, 34493.72613355233, -0.09, 0.978, 0.034, 192.0, 0.0, 0.0, 0.0, 0.0, 0.0, 0.0, 0.0, 0.0, 0.0, 1.6989583048429973E9, 0.0, 2023-11-02 16:51:44.842
106.0, -187500.02235174447, 187500.0, 2691.9546952193614, 50266.59223635105, 187500.0, 187500.0, -187500.02235174447, 34501.72805806733, -0.09, 0.978, 0.034, 192.0, 0.0, 0.0, 0.0, 0.0, 0.0, 0.0, 0.0, 0.0, 0.0, 1.6989583048430085E9, 0.0, 2023-11-02 16:51:44.843
107.0, -187500.02235174447, 187500.0, 2683.841011982085, 50300.3210187341, 187500.0, 187500.0, -187500.02235174447, 34495.53662485321, -0.09, 0.978, 0.034, 192.0, 0.0, 0.0, 0.0, 0.0, 0.0, 0.0, 0.0, 0.0, 0.0, 1.6989583048430183E9, 0.0, 2023-11-02 16:51:44.843
108.0, -187500.02235174447, 187500.0, 2679.750642746764, 50292.296742474646, 187500.0, 187500.0, -187500.02235174447, 34490.37337188404, -0.09, 0.978, 0.034, 192.0, 0.0, 0.0, 0.0, 0.0, 0.0, 0.0, 0.0, 0.0, 0.0, 1.6989583048430429E9, 0.0, 2023-11-02 16:51:44.843
109.0, -187500.02235174447, 187500.0, 2675.1461833889707, 50270.213218952806, 187500.0, 187500.0, -187500.02235174447, 34485.455988103866, -0.09, 0.978, 0.034, 192.0, 0.0, 0.0, 0.0, 0.0, 0.0, 0.0, 0.0, 0.0, 0.0, 1.6989583048430524E9, 0.0, 2023-11-02 16:51:44.843
110.0, -187500.02235174447, 187500.0, 2682.3657968480347, 50275.242361455246, 187500.0, 187500.0, -187500.02235174447, 34491.669773062444, -0.088, 0.984, 0.034, 192.0, 253.0, 64.0, 30.0, 192.0, 1.0, 16.0, 0.0, 0.0, 0.0, 1.6989583048430624E9, 0.0, 2023-11-02 16:51:44.843
111.0, -187500.02235174447, 187500.0, 2686.567924805632, 50311.027504328194, 187500.0, 187500.0, -187500.02235174447, 34495.58132834212, -0.088, 0.984, 0.034, 192.0, 0.0, 0.0, 0.0, 0.0, 0.0, 0.0, 0.0, 0.0, 0.0, 1.698958304843073E9, 0.0, 2023-11-02 16:51:44.843
112.0, -187500.02235174447, 187500.0, 2682.7681282482304, 50313.24032702927, 187500.0, 187500.0, -187500.02235174447, 34489.501653850275, -0.088, 0.984, 0.034, 192.0, 0.0, 0.0, 0.0, 0.0, 0.0, 0.0, 0.0, 0.0, 0.0, 1.6989583048430824E9, 0.0, 2023-11-02 16:51:44.843
113.0, -187500.02235174447, 187500.0, 2686.970256205828, 50288.25107672824, 187500.0, 187500.0, -187500.02235174447, 34490.26161316176, -0.088, 0.984, 0.034, 192.0, 0.0, 0.0, 0.0, 0.0, 0.0, 0.0, 0.0, 0.0, 0.0, 1.6989583048430922E9, 0.0, 2023-11-02 16:51:44.843
114.0, -187500.02235174447, 187500.0, 2687.6631602839425, 50282.640788869954, 187500.0, 187500.0, -187500.02235174447, 34490.68629630641, -0.088, 0.984, 0.034, 192.0, 0.0, 0.0, 0.0, 0.0, 0.0, 0.0, 0.0, 0.0, 0.0, 1.698958304843102E9, 0.0, 2023-11-02 16:51:44.843
115.0, -187500.02235174447, 187500.0, 2685.3609306050457, 50303.986704824776, 187500.0, 187500.0, -187500.02235174447, 34489.434598616914, -0.088, 0.984, 0.034, 192.0, 0.0, 0.0, 0.0, 0.0, 0.0, 0.0, 0.0, 0.0, 0.0, 1.6989583048431127E9, 0.0, 2023-11-02 16:51:44.843
116.0, -187500.02235174447, 187500.0, 2687.260828883747, 50313.95558285184, 187500.0, 187500.0, -187500.02235174447, 34491.0886277066, -0.088, 0.984, 0.034, 192.0, 0.0, 0.0, 0.0, 0.0, 0.0, 0.0, 0.0, 0.0, 0.0, 1.6989583048431282E9, 0.0, 2023-11-02 16:51:44.843
117.0, -187500.02235174447, 187500.0, 2680.622360780521, 50303.137338535475, 187500.0, 187500.0, -187500.02235174447, 34482.75142702478, -0.088, 0.984, 0.034, 192.0, 0.0, 0.0, 0.0, 0.0, 0.0, 0.0, 0.0, 0.0, 0.0, 1.6989583048431377E9, 0.0, 2023-11-02 16:51:44.843
118.0, -187500.02235174447, 187500.0, 2677.426061323412, 50292.25203898574, 187500.0, 187500.0, -187500.02235174447, 34478.21402290035, -0.088, 0.984, 0.034, 192.0, 0.0, 0.0, 0.0, 0.0, 0.0, 0.0, 0.0, 0.0, 0.0, 1.6989583048431492E9, 0.0, 2023-11-02 16:51:44.843
119.0, -187500.02235174447, 187500.0, 2675.749680489264, 50307.540632193166, 187500.0, 187500.0, -187500.02235174447, 34475.598868799076, -0.088, 0.984, 0.034, 192.0, 0.0, 0.0, 0.0, 0.0, 0.0, 0.0, 0.0, 0.0, 0.0, 1.6989583048431602E9, 0.0, 2023-11-02 16:51:44.843
120.0, -187500.02235174447, 187500.0, 2678.9012764574622, 50327.321926036115, 187500.0, 187500.0, -187500.02235174447, 34475.42005484344, -0.09, 0.978, 0.036000000000000004, 192.0, 253.0, 48.0, 30.0, 144.0, 1.0, 32.0, 0.0, 0.0, 0.0, 1.6989583048431702E9, 0.0, 2023-11-02 16:51:44.843
121.0, -187500.02235174447, 187500.0, 2680.734119502797, 50314.96141135233, 187500.0, 187500.0, -187500.02235174447, 34474.32481936512, -0.09, 0.978, 0.036000000000000004, 192.0, 0.0, 0.0, 0.0, 0.0, 0.0, 0.0, 0.0, 0.0, 0.0, 1.698958304843181E9, 0.0, 2023-11-02 16:51:44.843
122.0, -187500.02235174447, 187500.0, 2681.4940788142776, 50303.65142865794, 187500.0, 187500.0, -187500.02235174447, 34475.24124088779, -0.09, 0.978, 0.036000000000000004, 192.0, 0.0, 0.0, 0.0, 0.0, 0.0, 0.0, 0.0, 0.0, 0.0, 1.698958304843191E9, 0.0, 2023-11-02 16:51:44.843
123.0, -187500.02235174447, 187500.0, 2677.426061323412, 50317.15188230895, 187500.0, 187500.0, -187500.02235174447, 34472.69314201989, -0.09, 0.978, 0.036000000000000004, 192.0, 0.0, 0.0, 0.0, 0.0, 0.0, 0.0, 0.0, 0.0, 0.0, 1.698958304843211E9, 0.0, 2023-11-02 16:51:44.843
124.0, -187500.02235174447, 187500.0, 2681.5611340476435, 50330.65233595995, 187500.0, 187500.0, -187500.02235174447, 34478.30342987817, -0.09, 0.978, 0.036000000000000004, 192.0, 0.0, 0.0, 0.0, 0.0, 0.0, 0.0, 0.0, 0.0, 0.0, 1.6989583048432212E9, 0.0, 2023-11-02 16:51:44.843
125.0, -187500.02235174447, 187500.0, 2679.258904368747, 50317.82243464261, 187500.0, 187500.0, -187500.02235174447, 34476.80586299967, -0.09, 0.978, 0.036000000000000004, 192.0, 0.0, 0.0, 0.0, 0.0, 0.0, 0.0, 0.0, 0.0, 0.0, 1.6989583048432312E9, 0.0, 2023-11-02 16:51:44.843
126.0, -187500.02235174447, 187500.0, 2676.733157245297, 50293.52608841969, 187500.0, 187500.0, -187500.02235174447, 34475.71062752135, -0.09, 0.978, 0.036000000000000004, 192.0, 0.0, 0.0, 0.0, 0.0, 0.0, 0.0, 0.0, 0.0, 0.0, 1.698958304843241E9, 0.0, 2023-11-02 16:51:44.843
127.0, -187500.02235174447, 187500.0, 2675.0791281556044, 50296.18594600987, 187500.0, 187500.0, -187500.02235174447, 34472.71549376434, -0.09, 0.978, 0.036000000000000004, 192.0, 0.0, 0.0, 0.0, 0.0, 0.0, 0.0, 0.0, 0.0, 0.0, 1.6989583048432505E9, 0.0, 2023-11-02 16:51:44.843
128.0, -187500.02235174447, 187500.0, 2680.376491591512, 50311.183966539385, 187500.0, 187500.0, -187500.02235174447, 34476.62704904402, -0.09, 0.978, 0.036000000000000004, 192.0, 0.0, 0.0, 0.0, 0.0, 0.0, 0.0, 0.0, 0.0, 0.0, 1.6989583048432603E9, 0.0, 2023-11-02 16:51:44.843
129.0, -187500.02235174447, 187500.0, 2681.1140991585376, 50310.401655483445, 187500.0, 187500.0, -187500.02235174447, 34478.66105778945, -0.09, 0.978, 0.036000000000000004, 192.0, 0.0, 0.0, 0.0, 0.0, 0.0, 0.0, 0.0, 0.0, 0.0, 1.6989583048432724E9, 0.0, 2023-11-02 16:51:44.843
130.0, -187500.02235174447, 187500.0, 2683.4610323263446, 50290.396844195944, 187500.0, 187500.0, -187500.02235174447, 34481.56678456865, -0.084, 0.974, 0.034, 192.0, 253.0, 96.0, 30.0, 112.0, 1.0, 16.0, 0.0, 0.0, 0.0, 1.6989583048432825E9, 0.0, 2023-11-02 16:51:44.843
131.0, -187500.02235174447, 187500.0, 2684.7127300158418, 50300.0751495451, 187500.0, 187500.0, -187500.02235174447, 34484.24899390328, -0.084, 0.974, 0.034, 192.0, 0.0, 0.0, 0.0, 0.0, 0.0, 0.0, 0.0, 0.0, 0.0, 1.698958304843294E9, 0.0, 2023-11-02 16:51:44.843
132.0, -187500.02235174447, 187500.0, 2682.7904799926855, 50318.649449187455, 187500.0, 187500.0, -187500.02235174447, 34483.60079331408, -0.084, 0.974, 0.034, 192.0, 0.0, 0.0, 0.0, 0.0, 0.0, 0.0, 0.0, 0.0, 0.0, 1.698958304843306E9, 0.0, 2023-11-02 16:51:44.843
133.0, -187500.02235174447, 187500.0, 2676.9343229453953, 50310.78163513919, 187500.0, 187500.0, -187500.02235174447, 34475.86708973254, -0.084, 0.974, 0.034, 192.0, 0.0, 0.0, 0.0, 0.0, 0.0, 0.0, 0.0, 0.0, 0.0, 1.6989583048433175E9, 0.0, 2023-11-02 16:51:44.843
134.0, -187500.02235174447, 187500.0, 2676.5766950341103, 50279.42213766839, 187500.0, 187500.0, -187500.02235174447, 34472.939011208895, -0.084, 0.974, 0.034, 192.0, 0.0, 0.0, 0.0, 0.0, 0.0, 0.0, 0.0, 0.0, 0.0, 1.6989583048433309E9, 0.0, 2023-11-02 16:51:44.843
135.0, -187500.02235174447, 187500.0, 2680.3094363581463, 50279.19862022384, 187500.0, 187500.0, -187500.02235174447, 34475.55416531017, -0.084, 0.974, 0.034, 192.0, 0.0, 0.0, 0.0, 0.0, 0.0, 0.0, 0.0, 0.0, 0.0, 1.6989583048433435E9, 0.0, 2023-11-02 16:51:44.843
136.0, -187500.02235174447, 187500.0, 2676.755508989753, 50301.23744025677, 187500.0, 187500.0, -187500.02235174447, 34471.195575141384, -0.084, 0.974, 0.034, 192.0, 0.0, 0.0, 0.0, 0.0, 0.0, 0.0, 0.0, 0.0, 0.0, 1.6989583048433545E9, 0.0, 2023-11-02 16:51:44.843
137.0, -187500.02235174447, 187500.0, 2676.2190671228254, 50303.539669935664, 187500.0, 187500.0, -187500.02235174447, 34469.11686290704, -0.084, 0.974, 0.034, 192.0, 0.0, 0.0, 0.0, 0.0, 0.0, 0.0, 0.0, 0.0, 0.0, 1.6989583048433647E9, 0.0, 2023-11-02 16:51:44.843
138.0, -187500.02235174447, 187500.0, 2676.420232822923, 50278.304550445624, 187500.0, 187500.0, -187500.02235174447, 34469.07215941813, -0.084, 0.974, 0.034, 192.0, 0.0, 0.0, 0.0, 0.0, 0.0, 0.0, 0.0, 0.0, 0.0, 1.6989583048433864E9, 0.0, 2023-11-02 16:51:44.843
139.0, -187500.02235174447, 187500.0, 2682.00816893675, 50270.548495119634, 187500.0, 187500.0, -187500.02235174447, 34474.749502509774, -0.084, 0.974, 0.034, 192.0, 0.0, 0.0, 0.0, 0.0, 0.0, 0.0, 0.0, 0.0, 0.0, 1.698958304843398E9, 0.0, 2023-11-02 16:51:44.843
140.0, -187500.02235174447, 187500.0, 2681.6281892810093, 50293.03435004167, 187500.0, 187500.0, -187500.02235174447, 34474.72715076532, -0.088, 0.976, 0.03, 192.0, 253.0, 64.0, 30.0, 128.0, 0.0, 240.0, 0.0, 0.0, 0.0, 1.698958304843408E9, 0.0, 2023-11-02 16:51:44.843
141.0, -187500.02235174447, 187500.0, 2680.331788102602, 50301.170385023404, 187500.0, 187500.0, -187500.02235174447, 34474.6377437875, -0.088, 0.976, 0.03, 192.0, 0.0, 0.0, 0.0, 0.0, 0.0, 0.0, 0.0, 0.0, 0.0, 1.6989583048434184E9, 0.0, 2023-11-02 16:51:44.843
142.0, -187500.02235174447, 187500.0, 2678.677759012909, 50289.59218139556, 187500.0, 187500.0, -187500.02235174447, 34473.83308098711, -0.088, 0.976, 0.03, 192.0, 0.0, 0.0, 0.0, 0.0, 0.0, 0.0, 0.0, 0.0, 0.0, 1.6989583048434317E9, 0.0, 2023-11-02 16:51:44.843
143.0, -187500.02235174447, 187500.0, 2682.030520681205, 50285.41240518241, 187500.0, 187500.0, -187500.02235174447, 34477.275249633225, -0.088, 0.976, 0.03, 192.0, 0.0, 0.0, 0.0, 0.0, 0.0, 0.0, 0.0, 0.0, 0.0, 1.6989583048434448E9, 0.0, 2023-11-02 16:51:44.843
144.0, -187500.02235174447, 187500.0, 2680.1753258914146, 50309.99932408325, 187500.0, 187500.0, -187500.02235174447, 34477.02938044422, -0.088, 0.976, 0.03, 192.0, 0.0, 0.0, 0.0, 0.0, 0.0, 0.0, 0.0, 0.0, 0.0, 1.6989583048434553E9, 0.0, 2023-11-02 16:51:44.843
145.0, -187500.02235174447, 187500.0, 2675.9284944449064, 50322.695114933864, 187500.0, 187500.0, -187500.02235174447, 34472.00023794177, -0.088, 0.976, 0.03, 192.0, 0.0, 0.0, 0.0, 0.0, 0.0, 0.0, 0.0, 0.0, 0.0, 1.6989583048434746E9, 0.0, 2023-11-02 16:51:44.843
146.0, -187500.02235174447, 187500.0, 2681.874058470018, 50307.94296359336, 187500.0, 187500.0, -187500.02235174447, 34476.18001415492, -0.088, 0.976, 0.03, 192.0, 0.0, 0.0, 0.0, 0.0, 0.0, 0.0, 0.0, 0.0, 0.0, 1.698958304843487E9, 0.0, 2023-11-02 16:51:44.843
147.0, -187500.02235174447, 187500.0, 2681.449375325367, 50303.22674551329, 187500.0, 187500.0, -187500.02235174447, 34475.84473798809, -0.088, 0.976, 0.03, 192.0, 0.0, 0.0, 0.0, 0.0, 0.0, 0.0, 0.0, 0.0, 0.0, 1.698958304843498E9, 0.0, 2023-11-02 16:51:44.843
148.0, -187500.02235174447, 187500.0, 2679.393014835479, 50312.010981084226, 187500.0, 187500.0, -187500.02235174447, 34472.20140364187, -0.088, 0.976, 0.03, 192.0, 0.0, 0.0, 0.0, 0.0, 0.0, 0.0, 0.0, 0.0, 0.0, 1.69895830484351E9, 0.0, 2023-11-02 16:51:44.843
149.0, -187500.02235174447, 187500.0, 2676.487288056289, 50328.506568492245, 187500.0, 187500.0, -187500.02235174447, 34471.77672049722, -0.088, 0.976, 0.03, 192.0, 0.0, 0.0, 0.0, 0.0, 0.0, 0.0, 0.0, 0.0, 0.0, 1.69895830484352E9, 0.0, 2023-11-02 16:51:44.843
150.0, -187500.02235174447, 187500.0, 2669.647654252965, 50315.855481130544, 187500.0, 187500.0, -187500.02235174447, 34465.317066349635, -0.088, 0.98, 0.034, 192.0, 253.0, 64.0, 30.0, 160.0, 1.0, 16.0, 0.0, 0.0, 0.0, 1.698958304843531E9, 0.0, 2023-11-02 16:51:44.843
151.0, -187500.02235174447, 187500.0, 2672.128697887504, 50296.74473962125, 187500.0, 187500.0, -187500.02235174447, 34465.00414192726, -0.088, 0.98, 0.034, 192.0, 0.0, 0.0, 0.0, 0.0, 0.0, 0.0, 0.0, 0.0, 0.0, 1.6989583048435411E9, 0.0, 2023-11-02 16:51:44.843
152.0, -187500.02235174447, 187500.0, 2673.7156717438306, 50305.52897519219, 187500.0, 187500.0, -187500.02235174447, 34466.233487872305, -0.088, 0.98, 0.034, 192.0, 0.0, 0.0, 0.0, 0.0, 0.0, 0.0, 0.0, 0.0, 0.0, 1.6989583048435512E9, 0.0, 2023-11-02 16:51:44.843
153.0, -187500.02235174447, 187500.0, 2676.867267712029, 50325.26556554623, 187500.0, 187500.0, -187500.02235174447, 34469.72036000733, -0.088, 0.98, 0.034, 192.0, 0.0, 0.0, 0.0, 0.0, 0.0, 0.0, 0.0, 0.0, 0.0, 1.698958304843561E9, 0.0, 2023-11-02 16:51:44.843
154.0, -187500.02235174447, 187500.0, 2683.595142793077, 50321.35401026655, 187500.0, 187500.0, -187500.02235174447, 34474.66009553195, -0.088, 0.98, 0.034, 192.0, 0.0, 0.0, 0.0, 0.0, 0.0, 0.0, 0.0, 0.0, 0.0, 1.698958304843594E9, 0.0, 2023-11-02 16:51:44.843
155.0, -187500.02235174447, 187500.0, 2679.8624014690404, 50301.34919897905, 187500.0, 187500.0, -187500.02235174447, 34469.519194307235, -0.088, 0.98, 0.034, 192.0, 0.0, 0.0, 0.0, 0.0, 0.0, 0.0, 0.0, 0.0, 0.0, 1.698958304843604E9, 0.0, 2023-11-02 16:51:44.843
156.0, -187500.02235174447, 187500.0, 2684.4668608268335, 50308.27823976019, 187500.0, 187500.0, -187500.02235174447, 34471.84377573059, -0.088, 0.98, 0.034, 192.0, 0.0, 0.0, 0.0, 0.0, 0.0, 0.0, 0.0, 0.0, 0.0, 1.6989583048436153E9, 0.0, 2023-11-02 16:51:44.843
157.0, -187500.02235174447, 187500.0, 2681.9858171922942, 50334.742705195276, 187500.0, 187500.0, -187500.02235174447, 34468.84864197357, -0.088, 0.98, 0.034, 192.0, 0.0, 0.0, 0.0, 0.0, 0.0, 0.0, 0.0, 0.0, 0.0, 1.698958304843628E9, 0.0, 2023-11-02 16:51:44.843
158.0, -187500.02235174447, 187500.0, 2685.249171882769, 50329.93708013739, 187500.0, 187500.0, -187500.02235174447, 34470.77089199673, -0.088, 0.98, 0.034, 192.0, 0.0, 0.0, 0.0, 0.0, 0.0, 0.0, 0.0, 0.0, 0.0, 1.6989583048436415E9, 0.0, 2023-11-02 16:51:44.843
159.0, -187500.02235174447, 187500.0, 2682.298741614669, 50315.76607415272, 187500.0, 187500.0, -187500.02235174447, 34468.58042104011, -0.088, 0.98, 0.034, 192.0, 0.0, 0.0, 0.0, 0.0, 0.0, 0.0, 0.0, 0.0, 0.0, 1.6989583048436573E9, 0.0, 2023-11-02 16:51:44.843
160.0, -187500.02235174447, 187500.0, 2684.511564315744, 50312.703885162344, 187500.0, 187500.0, -187500.02235174447, 34471.21792688584, -0.09, 0.978, 0.032, 192.0, 253.0, 48.0, 30.0, 144.0, 1.0, 0.0, 0.0, 0.0, 0.0, 1.6989583048436692E9, 0.0, 2023-11-02 16:51:44.843
161.0, -187500.02235174447, 187500.0, 2686.255000383258, 50339.59303374208, 187500.0, 187500.0, -187500.02235174447, 34473.073121675625, -0.09, 0.978, 0.032, 192.0, 0.0, 0.0, 0.0, 0.0, 0.0, 0.0, 0.0, 0.0, 0.0, 1.698958304843681E9, 0.0, 2023-11-02 16:51:44.843
162.0, -187500.02235174447, 187500.0, 2683.572791048621, 50343.01285064374, 187500.0, 187500.0, -187500.02235174447, 34470.54737455218, -0.09, 0.978, 0.032, 192.0, 0.0, 0.0, 0.0, 0.0, 0.0, 0.0, 0.0, 0.0, 0.0, 1.6989583048436916E9, 0.0, 2023-11-02 16:51:44.843
163.0, -187500.02235174447, 187500.0, 2679.8847532134955, 50325.220862057315, 187500.0, 187500.0, -187500.02235174447, 34465.40647332746, -0.09, 0.978, 0.032, 192.0, 0.0, 0.0, 0.0, 0.0, 0.0, 0.0, 0.0, 0.0, 0.0, 1.698958305256466E9, 0.0, 2023-11-02 16:51:45.256
164.0, -187500.02235174447, 187500.0, 2682.991645692783, 50312.659181673436, 187500.0, 187500.0, -187500.02235174447, 34465.96526693884, -0.09, 0.978, 0.032, 192.0, 0.0, 0.0, 0.0, 0.0, 0.0, 0.0, 0.0, 0.0, 0.0, 1.6989583052565796E9, 0.0, 2023-11-02 16:51:45.256
165.0, -187500.02235174447, 187500.0, 2688.0431399396825, 50336.39673428497, 187500.0, 187500.0, -187500.02235174447, 34470.39091234099, -0.09, 0.978, 0.032, 192.0, 0.0, 0.0, 0.0, 0.0, 0.0, 0.0, 0.0, 0.0, 0.0, 1.698958305256592E9, 0.0, 2023-11-02 16:51:45.256
166.0, -187500.02235174447, 187500.0, 2688.19960215087, 50350.09835363607, 187500.0, 187500.0, -187500.02235174447, 34470.88265071901, -0.09, 0.978, 0.032, 192.0, 0.0, 0.0, 0.0, 0.0, 0.0, 0.0, 0.0, 0.0, 0.0, 1.698958305256605E9, 0.0, 2023-11-02 16:51:45.256
167.0, -187500.02235174447, 187500.0, 2689.518355073733, 50335.0332778732, 187500.0, 187500.0, -187500.02235174447, 34472.20140364187, -0.09, 0.978, 0.032, 192.0, 0.0, 0.0, 0.0, 0.0, 0.0, 0.0, 0.0, 0.0, 0.0, 1.6989583052566166E9, 0.0, 2023-11-02 16:51:45.256
168.0, -187500.02235174447, 187500.0, 2691.418253352434, 50323.00803935624, 187500.0, 187500.0, -187500.02235174447, 34474.34717110958, -0.09, 0.978, 0.032, 192.0, 0.0, 0.0, 0.0, 0.0, 0.0, 0.0, 0.0, 0.0, 0.0, 1.6989583052566292E9, 0.0, 2023-11-02 16:51:45.256
169.0, -187500.02235174447, 187500.0, 2692.9605237198502, 50339.88360641999, 187500.0, 187500.0, -187500.02235174447, 34475.956496710365, -0.09, 0.978, 0.032, 192.0, 0.0, 0.0, 0.0, 0.0, 0.0, 0.0, 0.0, 0.0, 0.0, 1.698958305256752E9, 0.0, 2023-11-02 16:51:45.256
170.0, -187500.02235174447, 187500.0, 2690.5241835742218, 50359.15081014047, 187500.0, 187500.0, -187500.02235174447, 34474.123653665025, -0.08600000000000001, 0.982, 0.028, 192.0, 253.0, 80.0, 30.0, 176.0, 0.0, 224.0, 0.0, 0.0, 0.0, 1.6989583052567647E9, 0.0, 2023-11-02 16:51:45.256
171.0, -187500.02235174447, 187500.0, 2696.1344714325037, 50340.7329727093, 187500.0, 187500.0, -187500.02235174447, 34478.2363746448, -0.08600000000000001, 0.982, 0.028, 192.0, 0.0, 0.0, 0.0, 0.0, 0.0, 0.0, 0.0, 0.0, 0.0, 1.6989583052567792E9, 0.0, 2023-11-02 16:51:45.256
172.0, -187500.02235174447, 187500.0, 2689.786576007197, 50330.67468770441, 187500.0, 187500.0, -187500.02235174447, 34471.21792688584, -0.08600000000000001, 0.982, 0.028, 192.0, 0.0, 0.0, 0.0, 0.0, 0.0, 0.0, 0.0, 0.0, 0.0, 1.698958305256791E9, 0.0, 2023-11-02 16:51:45.256
173.0, -187500.02235174447, 187500.0, 2689.9877417072944, 50341.62704248751, 187500.0, 187500.0, -187500.02235174447, 34471.24027863029, -0.08600000000000001, 0.982, 0.028, 192.0, 0.0, 0.0, 0.0, 0.0, 0.0, 0.0, 0.0, 0.0, 0.0, 1.6989583052568045E9, 0.0, 2023-11-02 16:51:45.256
174.0, -187500.02235174447, 187500.0, 2693.29579988668, 50363.196475886885, 187500.0, 187500.0, -187500.02235174447, 34474.68244727641, -0.08600000000000001, 0.982, 0.028, 192.0, 0.0, 0.0, 0.0, 0.0, 0.0, 0.0, 0.0, 0.0, 0.0, 1.6989583052568152E9, 0.0, 2023-11-02 16:51:45.256
175.0, -187500.02235174447, 187500.0, 2691.6194190525316, 50352.22176935933, 187500.0, 187500.0, -187500.02235174447, 34473.11782516454, -0.08600000000000001, 0.982, 0.028, 192.0, 0.0, 0.0, 0.0, 0.0, 0.0, 0.0, 0.0, 0.0, 0.0, 1.698958305256827E9, 0.0, 2023-11-02 16:51:45.256
176.0, -187500.02235174447, 187500.0, 2697.3638173775457, 50337.7825424412, 187500.0, 187500.0, -187500.02235174447, 34478.34813336708, -0.08600000000000001, 0.982, 0.028, 192.0, 0.0, 0.0, 0.0, 0.0, 0.0, 0.0, 0.0, 0.0, 0.0, 1.6989583052568555E9, 0.0, 2023-11-02 16:51:45.256
177.0, -187500.02235174447, 187500.0, 2695.8438987545846, 50352.0876588926, 187500.0, 187500.0, -187500.02235174447, 34476.7388077663, -0.08600000000000001, 0.982, 0.028, 192.0, 0.0, 0.0, 0.0, 0.0, 0.0, 0.0, 0.0, 0.0, 0.0, 1.698958305256866E9, 0.0, 2023-11-02 16:51:45.256
178.0, -187500.02235174447, 187500.0, 2690.6582940409535, 50366.39277534399, 187500.0, 187500.0, -187500.02235174447, 34473.430749586914, -0.08600000000000001, 0.982, 0.028, 192.0, 0.0, 0.0, 0.0, 0.0, 0.0, 0.0, 0.0, 0.0, 0.0, 1.6989583052568765E9, 0.0, 2023-11-02 16:51:45.256
170.0, -187500.02235174447, 187500.0, 2688.736044017797, 50455.44212525393, 187500.0, 187500.0, -187500.02235174447, 34434.91869389042, -0.08600000000000001, 0.982, 0.028, 192.0, 0.0, 0.0, 0.0, 0.0, 0.0, 0.0, 0.0, 0.0, 0.0, 1.6989583052569969E9, 0.0, 2023-11-02 16:51:45.256
171.0, -187500.02235174447, 187500.0, 2690.166555662937, 50447.93193911695, 187500.0, 187500.0, -187500.02235174447, 34437.60090322506, -0.08600000000000001, 0.982, 0.028, 192.0, 0.0, 0.0, 0.0, 0.0, 0.0, 0.0, 0.0, 0.0, 0.0, 1.69895830525703E9, 0.0, 2023-11-02 16:51:45.257
172.0, -187500.02235174447, 187500.0, 2699.911916245451, 50477.12331737558, 187500.0, 187500.0, -187500.02235174447, 34448.754423708255, -0.08600000000000001, 0.978, 0.026000000000000002, 192.0, 253.0, 80.0, 30.0, 144.0, 0.0, 208.0, 0.0, 0.0, 0.0, 1.6989583052570584E9, 0.0, 2023-11-02 16:51:45.257
173.0, -187500.02235174447, 187500.0, 2699.4425296118893, 50493.66360827251, 187500.0, 187500.0, -187500.02235174447, 34449.62614174201, -0.08600000000000001, 0.978, 0.026000000000000002, 192.0, 0.0, 0.0, 0.0, 0.0, 0.0, 0.0, 0.0, 0.0, 0.0, 1.6989583052570703E9, 0.0, 2023-11-02 16:51:45.257
174.0, -187500.02235174447, 187500.0, 2693.452262097867, 50477.81622145369, 187500.0, 187500.0, -187500.02235174447, 34443.61352248353, -0.08600000000000001, 0.978, 0.026000000000000002, 192.0, 0.0, 0.0, 0.0, 0.0, 0.0, 0.0, 0.0, 0.0, 0.0, 1.698958305257081E9, 0.0, 2023-11-02 16:51:45.257
175.0, -187500.02235174447, 187500.0, 2698.481404600311, 50468.92022716048, 187500.0, 187500.0, -187500.02235174447, 34446.04986262916, -0.08600000000000001, 0.978, 0.026000000000000002, 192.0, 0.0, 0.0, 0.0, 0.0, 0.0, 0.0, 0.0, 0.0, 0.0, 1.6989583052571187E9, 0.0, 2023-11-02 16:51:45.257
176.0, -187500.02235174447, 187500.0, 2695.687436543398, 50486.68986400245, 187500.0, 187500.0, -187500.02235174447, 34441.132478848995, -0.08600000000000001, 0.978, 0.026000000000000002, 192.0, 0.0, 0.0, 0.0, 0.0, 0.0, 0.0, 0.0, 0.0, 0.0, 1.6989583052571292E9, 0.0, 2023-11-02 16:51:45.257
177.0, -187500.02235174447, 187500.0, 2700.493061601289, 50492.166041394004, 187500.0, 187500.0, -187500.02235174447, 34445.80399344015, -0.08600000000000001, 0.978, 0.026000000000000002, 192.0, 0.0, 0.0, 0.0, 0.0, 0.0, 0.0, 0.0, 0.0, 0.0, 1.6989583052571392E9, 0.0, 2023-11-02 16:51:45.257
178.0, -187500.02235174447, 187500.0, 2706.192756437392, 50485.594628524144, 187500.0, 187500.0, -187500.02235174447, 34452.26364758774, -0.08600000000000001, 0.978, 0.026000000000000002, 192.0, 0.0, 0.0, 0.0, 0.0, 0.0, 0.0, 0.0, 0.0, 0.0, 1.6989583052571497E9, 0.0, 2023-11-02 16:51:45.257
179.0, -187500.02235174447, 187500.0, 2701.0071517237607, 50479.04556739874, 187500.0, 187500.0, -187500.02235174447, 34446.87687717401, -0.08600000000000001, 0.978, 0.026000000000000002, 192.0, 0.0, 0.0, 0.0, 0.0, 0.0, 0.0, 0.0, 0.0, 0.0, 1.69895830525716E9, 0.0, 2023-11-02 16:51:45.257
180.0, -187500.02235174447, 187500.0, 2702.3929598799896, 50494.24475362835, 187500.0, 187500.0, -187500.02235174447, 34448.553258008156, -0.08600000000000001, 0.978, 0.026000000000000002, 192.0, 0.0, 0.0, 0.0, 0.0, 0.0, 0.0, 0.0, 0.0, 0.0, 1.6989583052571707E9, 0.0, 2023-11-02 16:51:45.257
181.0, -187500.02235174447, 187500.0, 2703.6893610583975, 50513.646067815556, 187500.0, 187500.0, -187500.02235174447, 34450.45315628686, -0.09, 0.98, 0.026000000000000002, 192.0, 253.0, 48.0, 30.0, 160.0, 0.0, 208.0, 0.0, 0.0, 0.0, 1.6989583052571807E9, 0.0, 2023-11-02 16:51:45.257
182.0, -187500.02235174447, 187500.0, 2701.6330005685095, 50496.21170714041, 187500.0, 187500.0, -187500.02235174447, 34448.57560975261, -0.09, 0.98, 0.026000000000000002, 192.0, 0.0, 0.0, 0.0, 0.0, 0.0, 0.0, 0.0, 0.0, 0.0, 1.6989583052571917E9, 0.0, 2023-11-02 16:51:45.257
183.0, -187500.02235174447, 187500.0, 2696.8944307439842, 50481.48190754437, 187500.0, 187500.0, -187500.02235174447, 34445.401662039956, -0.09, 0.98, 0.026000000000000002, 192.0, 0.0, 0.0, 0.0, 0.0, 0.0, 0.0, 0.0, 0.0, 0.0, 1.698958305257202E9, 0.0, 2023-11-02 16:51:45.257
184.0, -187500.02235174447, 187500.0, 2697.319113888635, 50497.30694261872, 187500.0, 187500.0, -187500.02235174447, 34446.07221437361, -0.09, 0.98, 0.026000000000000002, 192.0, 0.0, 0.0, 0.0, 0.0, 0.0, 0.0, 0.0, 0.0, 0.0, 1.698958305257213E9, 0.0, 2023-11-02 16:51:45.257
185.0, -187500.02235174447, 187500.0, 2693.4746138423225, 50513.33314339318, 187500.0, 187500.0, -187500.02235174447, 34441.51245850473, -0.09, 0.98, 0.026000000000000002, 192.0, 0.0, 0.0, 0.0, 0.0, 0.0, 0.0, 0.0, 0.0, 0.0, 1.6989583052572236E9, 0.0, 2023-11-02 16:51:45.257
186.0, -187500.02235174447, 187500.0, 2691.328846374613, 50503.05134094374, 187500.0, 187500.0, -187500.02235174447, 34438.98671138129, -0.09, 0.98, 0.026000000000000002, 192.0, 0.0, 0.0, 0.0, 0.0, 0.0, 0.0, 0.0, 0.0, 0.0, 1.6989583052572353E9, 0.0, 2023-11-02 16:51:45.257
187.0, -187500.02235174447, 187500.0, 2693.5193173312327, 50485.34875933514, 187500.0, 187500.0, -187500.02235174447, 34442.20536258285, -0.09, 0.98, 0.026000000000000002, 192.0, 0.0, 0.0, 0.0, 0.0, 0.0, 0.0, 0.0, 0.0, 0.0, 1.698958305257245E9, 0.0, 2023-11-02 16:51:45.257
188.0, -187500.02235174447, 187500.0, 2690.814756252141, 50498.29041937476, 187500.0, 187500.0, -187500.02235174447, 34439.925484648404, -0.09, 0.98, 0.026000000000000002, 192.0, 0.0, 0.0, 0.0, 0.0, 0.0, 0.0, 0.0, 0.0, 0.0, 1.6989583052572567E9, 0.0, 2023-11-02 16:51:45.257
189.0, -187500.02235174447, 187500.0, 2691.6641225414423, 50517.15529169504, 187500.0, 187500.0, -187500.02235174447, 34441.266589315725, -0.09, 0.98, 0.026000000000000002, 192.0, 0.0, 0.0, 0.0, 0.0, 0.0, 0.0, 0.0, 0.0, 0.0, 1.698958305257268E9, 0.0, 2023-11-02 16:51:45.257
190.0, -187500.02235174447, 187500.0, 2693.027578953216, 50512.66259105952, 187500.0, 187500.0, -187500.02235174447, 34442.317121305125, -0.09, 0.98, 0.026000000000000002, 192.0, 0.0, 0.0, 0.0, 0.0, 0.0, 0.0, 0.0, 0.0, 0.0, 1.698958305257296E9, 0.0, 2023-11-02 16:51:45.257
191.0, -187500.02235174447, 187500.0, 2699.219012167336, 50496.85990772962, 187500.0, 187500.0, -187500.02235174447, 34446.69806321836, -0.09, 0.978, 0.03, 192.0, 253.0, 48.0, 30.0, 144.0, 0.0, 240.0, 0.0, 0.0, 0.0, 1.6989583052573068E9, 0.0, 2023-11-02 16:51:45.257
192.0, -187500.02235174447, 187500.0, 2698.8166807671405, 50516.59649808366, 187500.0, 187500.0, -187500.02235174447, 34448.888534174985, -0.09, 0.978, 0.03, 192.0, 0.0, 0.0, 0.0, 0.0, 0.0, 0.0, 0.0, 0.0, 0.0, 1.698958305257318E9, 0.0, 2023-11-02 16:51:45.257
193.0, -187500.02235174447, 187500.0, 2692.804061508663, 50542.81509432973, 187500.0, 187500.0, -187500.02235174447, 34444.44053702838, -0.09, 0.978, 0.03, 192.0, 0.0, 0.0, 0.0, 0.0, 0.0, 0.0, 0.0, 0.0, 0.0, 1.698958305257334E9, 0.0, 2023-11-02 16:51:45.257
194.0, -187500.02235174447, 187500.0, 2686.7914422501854, 50543.75386759685, 187500.0, 187500.0, -187500.02235174447, 34437.511496247236, -0.09, 0.978, 0.03, 192.0, 0.0, 0.0, 0.0, 0.0, 0.0, 0.0, 0.0, 0.0, 0.0, 1.6989583052573457E9, 0.0, 2023-11-02 16:51:45.257
195.0, -187500.02235174447, 187500.0, 2685.159764904948, 50512.5731840817, 187500.0, 187500.0, -187500.02235174447, 34433.48818224528, -0.09, 0.978, 0.03, 192.0, 0.0, 0.0, 0.0, 0.0, 0.0, 0.0, 0.0, 0.0, 0.0, 1.698958305257357E9, 0.0, 2023-11-02 16:51:45.257
196.0, -187500.02235174447, 187500.0, 2688.0431399396825, 50503.073692688195, 187500.0, 187500.0, -187500.02235174447, 34435.05280435715, -0.09, 0.978, 0.03, 192.0, 0.0, 0.0, 0.0, 0.0, 0.0, 0.0, 0.0, 0.0, 0.0, 1.698958305257368E9, 0.0, 2023-11-02 16:51:45.257
197.0, -187500.02235174447, 187500.0, 2693.407558608956, 50524.08433247618, 187500.0, 187500.0, -187500.02235174447, 34440.05959511514, -0.09, 0.978, 0.03, 192.0, 0.0, 0.0, 0.0, 0.0, 0.0, 0.0, 0.0, 0.0, 0.0, 1.6989583052573798E9, 0.0, 2023-11-02 16:51:45.257
198.0, -187500.02235174447, 187500.0, 2699.353122634068, 50534.29907969226, 187500.0, 187500.0, -187500.02235174447, 34445.9828073958, -0.09, 0.978, 0.03, 192.0, 0.0, 0.0, 0.0, 0.0, 0.0, 0.0, 0.0, 0.0, 0.0, 1.698958305257393E9, 0.0, 2023-11-02 16:51:45.257
199.0, -187500.02235174447, 187500.0, 2695.2404016542914, 50521.26801267482, 187500.0, 187500.0, -187500.02235174447, 34441.60186548255, -0.09, 0.978, 0.03, 192.0, 0.0, 0.0, 0.0, 0.0, 0.0, 0.0, 0.0, 0.0, 0.0, 1.698958305257404E9, 0.0, 2023-11-02 16:51:45.257
200.0, -187500.02235174447, 187500.0, 2688.2443056397806, 50510.829748014185, 187500.0, 187500.0, -187500.02235174447, 34432.92938863389, -0.09, 0.978, 0.03, 192.0, 0.0, 0.0, 0.0, 0.0, 0.0, 0.0, 0.0, 0.0, 0.0, 1.698958305257416E9, 0.0, 2023-11-02 16:51:45.257
201.0, -187500.02235174447, 187500.0, 2687.0149596947385, 50524.50901562083, 187500.0, 187500.0, -187500.02235174447, 34432.10237408905, -0.094, 0.984, 0.028, 192.0, 253.0, 16.0, 30.0, 192.0, 0.0, 224.0, 0.0, 0.0, 0.0, 1.6989583052574277E9, 0.0, 2023-11-02 16:51:45.257
202.0, -187500.02235174447, 187500.0, 2688.2666573842357, 50531.594518613165, 187500.0, 187500.0, -187500.02235174447, 34433.97992062329, -0.094, 0.984, 0.028, 192.0, 0.0, 0.0, 0.0, 0.0, 0.0, 0.0, 0.0, 0.0, 0.0, 1.6989583052574427E9, 0.0, 2023-11-02 16:51:45.257
203.0, -187500.02235174447, 187500.0, 2685.204468393859, 50514.696599804956, 187500.0, 187500.0, -187500.02235174447, 34432.14707757796, -0.094, 0.984, 0.028, 192.0, 0.0, 0.0, 0.0, 0.0, 0.0, 0.0, 0.0, 0.0, 0.0, 1.6989583052574527E9, 0.0, 2023-11-02 16:51:45.257
204.0, -187500.02235174447, 187500.0, 2690.0547969406603, 50493.12716640558, 187500.0, 187500.0, -187500.02235174447, 34436.729185191296, -0.094, 0.984, 0.028, 192.0, 0.0, 0.0, 0.0, 0.0, 0.0, 0.0, 0.0, 0.0, 0.0, 1.6989583052574644E9, 0.0, 2023-11-02 16:51:45.257
205.0, -187500.02235174447, 187500.0, 2685.539744560688, 50508.01342821281, 187500.0, 187500.0, -187500.02235174447, 34431.49887698876, -0.094, 0.984, 0.028, 192.0, 0.0, 0.0, 0.0, 0.0, 0.0, 0.0, 0.0, 0.0, 0.0, 1.6989583052574787E9, 0.0, 2023-11-02 16:51:45.257
206.0, -187500.02235174447, 187500.0, 2678.8789247130067, 50509.33218113568, 187500.0, 187500.0, -187500.02235174447, 34421.50764721724, -0.094, 0.984, 0.028, 192.0, 0.0, 0.0, 0.0, 0.0, 0.0, 0.0, 0.0, 0.0, 0.0, 1.6989583052575195E9, 0.0, 2023-11-02 16:51:45.257
207.0, -187500.02235174447, 187500.0, 2683.8633637265402, 50481.057224399716, 187500.0, 187500.0, -187500.02235174447, 34425.95564436384, -0.094, 0.984, 0.028, 192.0, 0.0, 0.0, 0.0, 0.0, 0.0, 0.0, 0.0, 0.0, 0.0, 1.698958305257534E9, 0.0, 2023-11-02 16:51:45.257
208.0, -187500.02235174447, 187500.0, 2688.57958180661, 50456.60441596561, 187500.0, 187500.0, -187500.02235174447, 34431.45417349985, -0.094, 0.984, 0.028, 192.0, 0.0, 0.0, 0.0, 0.0, 0.0, 0.0, 0.0, 0.0, 0.0, 1.6989583052575457E9, 0.0, 2023-11-02 16:51:45.257
209.0, -187500.02235174447, 187500.0, 2684.3998055934676, 50452.804619408205, 187500.0, 187500.0, -187500.02235174447, 34427.58732170908, -0.094, 0.984, 0.028, 192.0, 0.0, 0.0, 0.0, 0.0, 0.0, 0.0, 0.0, 0.0, 0.0, 1.698958305257557E9, 0.0, 2023-11-02 16:51:45.257
210.0, -187500.02235174447, 187500.0, 2681.315264858635, 50455.0621455982, 187500.0, 187500.0, -187500.02235174447, 34423.943987362865, -0.094, 0.984, 0.028, 192.0, 0.0, 0.0, 0.0, 0.0, 0.0, 0.0, 0.0, 0.0, 0.0, 1.69895830525757E9, 0.0, 2023-11-02 16:51:45.257
211.0, -187500.02235174447, 187500.0, 2680.6000090360653, 50423.27796498275, 187500.0, 187500.0, -187500.02235174447, 34424.10044957405, -0.096, 0.98, 0.024, 192.0, 253.0, 0.0, 30.0, 160.0, 0.0, 192.0, 0.0, 0.0, 0.0, 1.6989583052575831E9, 0.0, 2023-11-02 16:51:45.257
212.0, -187500.02235174447, 187500.0, 2671.3910903204787, 50379.2897318947, 187500.0, 187500.0, -187500.02235174447, 34418.11018206003, -0.096, 0.98, 0.024, 192.0, 0.0, 0.0, 0.0, 0.0, 0.0, 0.0, 0.0, 0.0, 0.0, 1.698958305257599E9, 0.0, 2023-11-02 16:51:45.257
213.0, -187500.02235174447, 187500.0, 2668.5971222635653, 50361.05070841917, 187500.0, 187500.0, -187500.02235174447, 34417.014946581716, -0.096, 0.98, 0.024, 192.0, 0.0, 0.0, 0.0, 0.0, 0.0, 0.0, 0.0, 0.0, 0.0, 1.698958305257616E9, 0.0, 2023-11-02 16:51:45.257
214.0, -187500.02235174447, 187500.0, 2672.933360687895, 50364.31406310965, 187500.0, 187500.0, -187500.02235174447, 34423.6757664294, -0.096, 0.98, 0.024, 192.0, 0.0, 0.0, 0.0, 0.0, 0.0, 0.0, 0.0, 0.0, 0.0, 1.6989583052576344E9, 0.0, 2023-11-02 16:51:45.257
215.0, -187500.02235174447, 187500.0, 2675.257942111247, 50347.036164645695, 187500.0, 187500.0, -187500.02235174447, 34427.922597875906, -0.096, 0.98, 0.024, 192.0, 0.0, 0.0, 0.0, 0.0, 0.0, 0.0, 0.0, 0.0, 0.0, 1.6989583052576463E9, 0.0, 2023-11-02 16:51:45.257
216.0, -187500.02235174447, 187500.0, 2672.285160098691, 50301.68447514588, 187500.0, 187500.0, -187500.02235174447, 34424.81570539662, -0.096, 0.98, 0.024, 192.0, 0.0, 0.0, 0.0, 0.0, 0.0, 0.0, 0.0, 0.0, 0.0, 1.698958305257658E9, 0.0, 2023-11-02 16:51:45.257
217.0, -187500.02235174447, 187500.0, 2674.4085758219453, 50280.539724891154, 187500.0, 187500.0, -187500.02235174447, 34428.257874042734, -0.096, 0.98, 0.024, 192.0, 0.0, 0.0, 0.0, 0.0, 0.0, 0.0, 0.0, 0.0, 0.0, 1.6989583052576776E9, 0.0, 2023-11-02 16:51:45.257
218.0, -187500.02235174447, 187500.0, 2663.5232762722108, 50282.28316095867, 187500.0, 187500.0, -187500.02235174447, 34418.132533804484, -0.096, 0.98, 0.024, 192.0, 0.0, 0.0, 0.0, 0.0, 0.0, 0.0, 0.0, 0.0, 0.0, 1.698958305257691E9, 0.0, 2023-11-02 16:51:45.257
219.0, -187500.02235174447, 187500.0, 2666.071375140116, 50256.33278564606, 187500.0, 187500.0, -187500.02235174447, 34421.7758681507, -0.096, 0.98, 0.024, 192.0, 0.0, 0.0, 0.0, 0.0, 0.0, 0.0, 0.0, 0.0, 0.0, 1.698958305257707E9, 0.0, 2023-11-02 16:51:45.257
220.0, -187500.02235174447, 187500.0, 2667.09955538506, 50229.935375444344, 187500.0, 187500.0, -187500.02235174447, 34424.7262984188, -0.096, 0.98, 0.024, 192.0, 0.0, 0.0, 0.0, 0.0, 0.0, 0.0, 0.0, 0.0, 0.0, 1.698958305257722E9, 0.0, 2023-11-02 16:51:45.257
221.0, -187500.02235174447, 187500.0, 2672.1063461430485, 50224.213328863785, 187500.0, 187500.0, -187500.02235174447, 34430.358938021534, -0.096, 0.98, 0.034, 192.0, 253.0, 0.0, 30.0, 160.0, 1.0, 16.0, 0.0, 0.0, 0.0, 1.6989583052578232E9, 0.0, 2023-11-02 16:51:45.257
222.0, -187500.02235174447, 187500.0, 2676.0849566560933, 50251.16953267688, 187500.0, 187500.0, -187500.02235174447, 34435.05280435715, -0.096, 0.98, 0.034, 192.0, 0.0, 0.0, 0.0, 0.0, 0.0, 0.0, 0.0, 0.0, 0.0, 1.6989583052578492E9, 0.0, 2023-11-02 16:51:45.257
223.0, -187500.02235174447, 187500.0, 2677.3366543455904, 50258.21033218031, 187500.0, 187500.0, -187500.02235174447, 34436.036281113185, -0.096, 0.98, 0.034, 192.0, 0.0, 0.0, 0.0, 0.0, 0.0, 0.0, 0.0, 0.0, 0.0, 1.6989583052578747E9, 0.0, 2023-11-02 16:51:45.257
224.0, -187500.02235174447, 187500.0, 2680.063567169138, 50239.792494749134, 187500.0, 187500.0, -187500.02235174447, 34436.41626076892, -0.096, 0.98, 0.034, 192.0, 0.0, 0.0, 0.0, 0.0, 0.0, 0.0, 0.0, 0.0, 0.0, 1.6989583052579007E9, 0.0, 2023-11-02 16:51:45.257
225.0, -187500.02235174447, 187500.0, 2686.2102968943473, 50233.51165455719, 187500.0, 187500.0, -187500.02235174447, 34442.38417653849, -0.096, 0.98, 0.034, 192.0, 0.0, 0.0, 0.0, 0.0, 0.0, 0.0, 0.0, 0.0, 0.0, 1.6989583052579148E9, 0.0, 2023-11-02 16:51:45.257
226.0, -187500.02235174447, 187500.0, 2683.572791048621, 50255.68458505686, 187500.0, 187500.0, -187500.02235174447, 34439.85842941504, -0.096, 0.98, 0.034, 192.0, 0.0, 0.0, 0.0, 0.0, 0.0, 0.0, 0.0, 0.0, 0.0, 1.6989583052579615E9, 0.0, 2023-11-02 16:51:45.257
227.0, -187500.02235174447, 187500.0, 2686.3444073610794, 50262.39010839345, 187500.0, 187500.0, -187500.02235174447, 34441.758327693744, -0.096, 0.98, 0.034, 192.0, 0.0, 0.0, 0.0, 0.0, 0.0, 0.0, 0.0, 0.0, 0.0, 1.6989583052579856E9, 0.0, 2023-11-02 16:51:45.257
228.0, -187500.02235174447, 187500.0, 2690.166555662937, 50250.72249778778, 187500.0, 187500.0, -187500.02235174447, 34448.396795796965, -0.096, 0.98, 0.034, 192.0, 0.0, 0.0, 0.0, 0.0, 0.0, 0.0, 0.0, 0.0, 0.0, 1.6989583052580388E9, 0.0, 2023-11-02 16:51:45.258
229.0, -187500.02235174447, 187500.0, 2684.6233230380208, 50239.591329049035, 187500.0, 187500.0, -187500.02235174447, 34442.49593526077, -0.096, 0.98, 0.034, 192.0, 0.0, 0.0, 0.0, 0.0, 0.0, 0.0, 0.0, 0.0, 0.0, 1.6989583052580798E9, 0.0, 2023-11-02 16:51:45.258
230.0, -187500.02235174447, 187500.0, 2691.395901607979, 50255.304605401114, 187500.0, 187500.0, -187500.02235174447, 34447.569781252125, -0.096, 0.98, 0.034, 192.0, 0.0, 0.0, 0.0, 0.0, 0.0, 0.0, 0.0, 0.0, 0.0, 1.698958305258098E9, 0.0, 2023-11-02 16:51:45.258
231.0, -187500.02235174447, 187500.0, 2702.6164773245428, 50275.734099833266, 187500.0, 187500.0, -187500.02235174447, 34456.84575520107, -0.1, 0.976, 0.034, 192.0, 252.0, 224.0, 30.0, 128.0, 1.0, 16.0, 0.0, 0.0, 0.0, 1.698958305258114E9, 0.0, 2023-11-02 16:51:45.258
232.0, -187500.02235174447, 187500.0, 2706.729198304319, 50263.73121306077, 187500.0, 187500.0, -187500.02235174447, 34459.41620581343, -0.1, 0.976, 0.034, 192.0, 0.0, 0.0, 0.0, 0.0, 0.0, 0.0, 0.0, 0.0, 0.0, 1.6989583052581348E9, 0.0, 2023-11-02 16:51:45.258
233.0, -187500.02235174447, 187500.0, 2708.2044134383696, 50248.33086113106, 187500.0, 187500.0, -187500.02235174447, 34457.91863893493, -0.1, 0.976, 0.034, 192.0, 0.0, 0.0, 0.0, 0.0, 0.0, 0.0, 0.0, 0.0, 0.0, 1.6989583052581508E9, 0.0, 2023-11-02 16:51:45.258
234.0, -187500.02235174447, 187500.0, 2707.422102382434, 50263.6641578274, 187500.0, 187500.0, -187500.02235174447, 34457.04692090117, -0.1, 0.976, 0.034, 192.0, 0.0, 0.0, 0.0, 0.0, 0.0, 0.0, 0.0, 0.0, 0.0, 1.6989583052581627E9, 0.0, 2023-11-02 16:51:45.258
235.0, -187500.02235174447, 187500.0, 2710.841919284096, 50291.00034129624, 187500.0, 187500.0, -187500.02235174447, 34461.897249447975, -0.1, 0.976, 0.034, 192.0, 0.0, 0.0, 0.0, 0.0, 0.0, 0.0, 0.0, 0.0, 0.0, 1.6989583052581897E9, 0.0, 2023-11-02 16:51:45.258
236.0, -187500.02235174447, 187500.0, 2706.8633087710514, 50288.34048370606, 187500.0, 187500.0, -187500.02235174447, 34459.32679883562, -0.1, 0.976, 0.034, 192.0, 0.0, 0.0, 0.0, 0.0, 0.0, 0.0, 0.0, 0.0, 0.0, 1.6989583052582576E9, 0.0, 2023-11-02 16:51:45.258
237.0, -187500.02235174447, 187500.0, 2714.932288519417, 50269.69912883033, 187500.0, 187500.0, -187500.02235174447, 34465.85350821656, -0.1, 0.976, 0.034, 192.0, 0.0, 0.0, 0.0, 0.0, 0.0, 0.0, 0.0, 0.0, 0.0, 1.6989583052582676E9, 0.0, 2023-11-02 16:51:45.258
238.0, -187500.02235174447, 187500.0, 2712.518300118244, 50287.98285579478, 187500.0, 187500.0, -187500.02235174447, 34464.28888610469, -0.1, 0.976, 0.034, 192.0, 0.0, 0.0, 0.0, 0.0, 0.0, 0.0, 0.0, 0.0, 0.0, 1.698958305258278E9, 0.0, 2023-11-02 16:51:45.258
239.0, -187500.02235174447, 187500.0, 2712.160672206959, 50310.602821183544, 187500.0, 187500.0, -187500.02235174447, 34465.674694260924, -0.1, 0.976, 0.034, 192.0, 0.0, 0.0, 0.0, 0.0, 0.0, 0.0, 0.0, 0.0, 0.0, 1.698958305258289E9, 0.0, 2023-11-02 16:51:45.258
240.0, -187500.02235174447, 187500.0, 2710.5066431172663, 50310.602821183544, 187500.0, 187500.0, -187500.02235174447, 34465.54058379419, -0.1, 0.976, 0.034, 192.0, 0.0, 0.0, 0.0, 0.0, 0.0, 0.0, 0.0, 0.0, 0.0, 1.698958305258299E9, 0.0, 2023-11-02 16:51:45.258
241.0, -187500.02235174447, 187500.0, 2720.9449077778945, 50296.3200564766, 187500.0, 187500.0, -187500.02235174447, 34475.86708973254, -0.09, 0.978, 0.034, 192.0, 253.0, 48.0, 30.0, 144.0, 1.0, 16.0, 0.0, 0.0, 0.0, 1.6989583052583098E9, 0.0, 2023-11-02 16:51:45.258
242.0, -187500.02235174447, 187500.0, 2721.838977556107, 50300.38807396747, 187500.0, 187500.0, -187500.02235174447, 34476.11295892155, -0.09, 0.978, 0.034, 192.0, 0.0, 0.0, 0.0, 0.0, 0.0, 0.0, 0.0, 0.0, 0.0, 1.6989583052583206E9, 0.0, 2023-11-02 16:51:45.258
243.0, -187500.02235174447, 187500.0, 2715.200509452881, 50316.838957886575, 187500.0, 187500.0, -187500.02235174447, 34467.93222045091, -0.09, 0.978, 0.034, 192.0, 0.0, 0.0, 0.0, 0.0, 0.0, 0.0, 0.0, 0.0, 0.0, 1.6989583052583308E9, 0.0, 2023-11-02 16:51:45.258
244.0, -187500.02235174447, 187500.0, 2716.385151909012, 50312.48036771779, 187500.0, 187500.0, -187500.02235174447, 34467.08285416161, -0.09, 0.978, 0.034, 192.0, 0.0, 0.0, 0.0, 0.0, 0.0, 0.0, 0.0, 0.0, 0.0, 1.6989583052583413E9, 0.0, 2023-11-02 16:51:45.258
245.0, -187500.02235174447, 187500.0, 2716.765131564752, 50292.45320468584, 187500.0, 187500.0, -187500.02235174447, 34464.400644826965, -0.09, 0.978, 0.034, 192.0, 0.0, 0.0, 0.0, 0.0, 0.0, 0.0, 0.0, 0.0, 0.0, 1.698958305258352E9, 0.0, 2023-11-02 16:51:45.258
246.0, -187500.02235174447, 187500.0, 2723.068323501149, 50293.23551574177, 187500.0, 187500.0, -187500.02235174447, 34469.92152570743, -0.09, 0.978, 0.034, 192.0, 0.0, 0.0, 0.0, 0.0, 0.0, 0.0, 0.0, 0.0, 0.0, 1.6989583052583635E9, 0.0, 2023-11-02 16:51:45.258
247.0, -187500.02235174447, 187500.0, 2730.6008613825875, 50313.64265842947, 187500.0, 187500.0, -187500.02235174447, 34477.3870083555, -0.09, 0.978, 0.034, 192.0, 0.0, 0.0, 0.0, 0.0, 0.0, 0.0, 0.0, 0.0, 0.0, 1.6989583052583735E9, 0.0, 2023-11-02 16:51:45.258
248.0, -187500.02235174447, 187500.0, 2736.1440940075036, 50327.54544348067, 187500.0, 187500.0, -187500.02235174447, 34481.70089503538, -0.09, 0.978, 0.034, 192.0, 0.0, 0.0, 0.0, 0.0, 0.0, 0.0, 0.0, 0.0, 0.0, 1.6989583052583835E9, 0.0, 2023-11-02 16:51:45.258
249.0, -187500.02235174447, 187500.0, 2734.1994922398917, 50314.2238037853, 187500.0, 187500.0, -187500.02235174447, 34480.560956068155, -0.09, 0.978, 0.034, 192.0, 0.0, 0.0, 0.0, 0.0, 0.0, 0.0, 0.0, 0.0, 0.0, 1.6989583052583947E9, 0.0, 2023-11-02 16:51:45.258
250.0, -187500.02235174447, 187500.0, 2735.719410862853, 50302.086806546075, 187500.0, 187500.0, -187500.02235174447, 34482.72907528032, -0.09, 0.978, 0.034, 192.0, 0.0, 0.0, 0.0, 0.0, 0.0, 0.0, 0.0, 0.0, 0.0, 1.6989583052584052E9, 0.0, 2023-11-02 16:51:45.258
251.0, -187500.02235174447, 187500.0, 2733.126608506037, 50329.62415571501, 187500.0, 187500.0, -187500.02235174447, 34482.237336902304, -0.094, 0.978, 0.042, 192.0, 253.0, 16.0, 30.0, 144.0, 1.0, 80.0, 0.0, 0.0, 0.0, 1.6989583052584324E9, 0.0, 2023-11-02 16:51:45.258
252.0, -187500.02235174447, 187500.0, 2729.572681137643, 50341.13530410949, 187500.0, 187500.0, -187500.02235174447, 34478.10226417807, -0.094, 0.978, 0.042, 192.0, 0.0, 0.0, 0.0, 0.0, 0.0, 0.0, 0.0, 0.0, 0.0, 1.6989583052584436E9, 0.0, 2023-11-02 16:51:45.258
253.0, -187500.02235174447, 187500.0, 2725.3929049245007, 50321.95750736684, 187500.0, 187500.0, -187500.02235174447, 34473.60956354255, -0.094, 0.978, 0.042, 192.0, 0.0, 0.0, 0.0, 0.0, 0.0, 0.0, 0.0, 0.0, 0.0, 1.698958305258454E9, 0.0, 2023-11-02 16:51:45.258
254.0, -187500.02235174447, 187500.0, 2724.4094281684675, 50300.63394315648, 187500.0, 187500.0, -187500.02235174447, 34471.70966526385, -0.094, 0.978, 0.042, 192.0, 0.0, 0.0, 0.0, 0.0, 0.0, 0.0, 0.0, 0.0, 0.0, 1.698958305258466E9, 0.0, 2023-11-02 16:51:45.258
255.0, -187500.02235174447, 187500.0, 2728.320983448146, 50318.04595208716, 187500.0, 187500.0, -187500.02235174447, 34474.59304029859, -0.094, 0.978, 0.042, 192.0, 0.0, 0.0, 0.0, 0.0, 0.0, 0.0, 0.0, 0.0, 0.0, 1.6989583052584765E9, 0.0, 2023-11-02 16:51:45.258
0.0, -187500.02235174447, 187500.0, 2727.1810444809253, 50332.418123771924, 187500.0, 187500.0, -187500.02235174447, 34473.27428737572, -0.094, 0.978, 0.042, 192.0, 0.0, 0.0, 0.0, 0.0, 0.0, 0.0, 0.0, 0.0, 0.0, 1.6989583052584865E9, 0.0, 2023-11-02 16:51:45.258
1.0, -187500.02235174447, 187500.0, 2728.477445659333, 50318.157710809435, 187500.0, 187500.0, -187500.02235174447, 34473.1848803979, -0.094, 0.978, 0.042, 192.0, 0.0, 0.0, 0.0, 0.0, 0.0, 0.0, 0.0, 0.0, 0.0, 1.698958305258499E9, 0.0, 2023-11-02 16:51:45.258
2.0, -187500.02235174447, 187500.0, 2728.320983448146, 50304.21022226933, 187500.0, 187500.0, -187500.02235174447, 34470.63678153, -0.094, 0.978, 0.042, 192.0, 0.0, 0.0, 0.0, 0.0, 0.0, 0.0, 0.0, 0.0, 0.0, 1.6989583052585092E9, 0.0, 2023-11-02 16:51:45.258
3.0, -187500.02235174447, 187500.0, 2728.5892043816098, 50321.19754805536, 187500.0, 187500.0, -187500.02235174447, 34471.39674084148, -0.094, 0.978, 0.042, 192.0, 0.0, 0.0, 0.0, 0.0, 0.0, 0.0, 0.0, 0.0, 0.0, 1.698958305258519E9, 0.0, 2023-11-02 16:51:45.258
4.0, -187500.02235174447, 187500.0, 2730.0197160267494, 50341.00119364276, 187500.0, 187500.0, -187500.02235174447, 34473.05076993117, -0.094, 0.978, 0.042, 192.0, 0.0, 0.0, 0.0, 0.0, 0.0, 0.0, 0.0, 0.0, 0.0, 1.6989583052585287E9, 0.0, 2023-11-02 16:51:45.258
5.0, -187500.02235174447, 187500.0, 2728.0080590257717, 50342.699926221365, 187500.0, 187500.0, -187500.02235174447, 34472.08964491959, -0.09, 0.982, 0.04, 192.0, 253.0, 48.0, 30.0, 176.0, 1.0, 64.0, 0.0, 0.0, 0.0, 1.6989583052585433E9, 0.0, 2023-11-02 16:51:45.258
6.0, -187500.02235174447, 187500.0, 2727.225747969836, 50325.31026903514, 187500.0, 187500.0, -187500.02235174447, 34470.52502280772, -0.09, 0.982, 0.04, 192.0, 0.0, 0.0, 0.0, 0.0, 0.0, 0.0, 0.0, 0.0, 0.0, 1.6989583052585547E9, 0.0, 2023-11-02 16:51:45.258
7.0, -187500.02235174447, 187500.0, 2723.5377101347103, 50331.367591782524, 187500.0, 187500.0, -187500.02235174447, 34466.792281483686, -0.09, 0.982, 0.04, 192.0, 0.0, 0.0, 0.0, 0.0, 0.0, 0.0, 0.0, 0.0, 0.0, 1.6989583052585652E9, 0.0, 2023-11-02 16:51:45.258
8.0, -187500.02235174447, 187500.0, 2726.264622958258, 50351.41710655893, 187500.0, 187500.0, -187500.02235174447, 34469.54154605169, -0.09, 0.982, 0.04, 192.0, 0.0, 0.0, 0.0, 0.0, 0.0, 0.0, 0.0, 0.0, 0.0, 1.6989583052585783E9, 0.0, 2023-11-02 16:51:45.258
9.0, -187500.02235174447, 187500.0, 2730.4443991714, 50351.506513536755, 187500.0, 187500.0, -187500.02235174447, 34472.98371469781, -0.09, 0.982, 0.04, 192.0, 0.0, 0.0, 0.0, 0.0, 0.0, 0.0, 0.0, 0.0, 0.0, 1.6989583052585883E9, 0.0, 2023-11-02 16:51:45.258
10.0, -187500.02235174447, 187500.0, 2739.943890564906, 50338.69896396386, 187500.0, 187500.0, -187500.02235174447, 34481.186804912904, -0.09, 0.982, 0.04, 192.0, 0.0, 0.0, 0.0, 0.0, 0.0, 0.0, 0.0, 0.0, 0.0, 1.6989583052585983E9, 0.0, 2023-11-02 16:51:45.258
11.0, -187500.02235174447, 187500.0, 2737.932233563928, 50348.19845535737, 187500.0, 187500.0, -187500.02235174447, 34477.65522928897, -0.09, 0.982, 0.04, 192.0, 0.0, 0.0, 0.0, 0.0, 0.0, 0.0, 0.0, 0.0, 0.0, 1.6989583052586255E9, 0.0, 2023-11-02 16:51:45.258
12.0, -187500.02235174447, 187500.0, 2733.5736433951433, 50365.74457475479, 187500.0, 187500.0, -187500.02235174447, 34473.497804820276, -0.09, 0.982, 0.04, 192.0, 0.0, 0.0, 0.0, 0.0, 0.0, 0.0, 0.0, 0.0, 0.0, 1.698958305258636E9, 0.0, 2023-11-02 16:51:45.258
13.0, -187500.02235174447, 187500.0, 2737.5969573970983, 50370.594903301586, 187500.0, 187500.0, -187500.02235174447, 34476.7388077663, -0.09, 0.982, 0.04, 192.0, 0.0, 0.0, 0.0, 0.0, 0.0, 0.0, 0.0, 0.0, 0.0, 1.6989583052586474E9, 0.0, 2023-11-02 16:51:45.258
14.0, -187500.02235174447, 187500.0, 2738.9827655533277, 50350.947719925374, 187500.0, 187500.0, -187500.02235174447, 34477.11878742204, -0.09, 0.982, 0.04, 192.0, 0.0, 0.0, 0.0, 0.0, 0.0, 0.0, 0.0, 0.0, 0.0, 1.6989583052586572E9, 0.0, 2023-11-02 16:51:45.258
15.0, -187500.02235174447, 187500.0, 2738.938062064417, 50344.39865879997, 187500.0, 187500.0, -187500.02235174447, 34475.97884845482, -0.094, 0.976, 0.04, 192.0, 253.0, 16.0, 30.0, 128.0, 1.0, 64.0, 0.0, 0.0, 0.0, 1.6989583052586672E9, 0.0, 2023-11-02 16:51:45.258
16.0, -187500.02235174447, 187500.0, 2733.774809095241, 50363.21882763134, 187500.0, 187500.0, -187500.02235174447, 34469.69800826287, -0.094, 0.976, 0.04, 192.0, 0.0, 0.0, 0.0, 0.0, 0.0, 0.0, 0.0, 0.0, 0.0, 1.6989583057367833E9, 0.0, 2023-11-02 16:51:45.736
17.0, -187500.02235174447, 187500.0, 2736.2782044742353, 50372.36069111356, 187500.0, 187500.0, -187500.02235174447, 34471.93318270841, -0.094, 0.976, 0.04, 192.0, 0.0, 0.0, 0.0, 0.0, 0.0, 0.0, 0.0, 0.0, 0.0, 1.698958305736863E9, 0.0, 2023-11-02 16:51:45.736
18.0, -187500.02235174447, 187500.0, 2739.1168760200594, 50363.464696820345, 187500.0, 187500.0, -187500.02235174447, 34474.883612976504, -0.094, 0.976, 0.04, 192.0, 0.0, 0.0, 0.0, 0.0, 0.0, 0.0, 0.0, 0.0, 0.0, 1.698958305736878E9, 0.0, 2023-11-02 16:51:45.736
19.0, -187500.02235174447, 187500.0, 2736.3005562186904, 50351.640624003485, 187500.0, 187500.0, -187500.02235174447, 34471.66496177494, -0.094, 0.976, 0.04, 192.0, 0.0, 0.0, 0.0, 0.0, 0.0, 0.0, 0.0, 0.0, 0.0, 1.6989583057368937E9, 0.0, 2023-11-02 16:51:45.736
20.0, -187500.02235174447, 187500.0, 2736.099390518593, 50369.85729573456, 187500.0, 187500.0, -187500.02235174447, 34471.262630374746, -0.094, 0.976, 0.04, 192.0, 0.0, 0.0, 0.0, 0.0, 0.0, 0.0, 0.0, 0.0, 0.0, 1.6989583057369075E9, 0.0, 2023-11-02 16:51:45.736
21.0, -187500.02235174447, 187500.0, 2730.2432334713026, 50382.620141818545, 187500.0, 187500.0, -187500.02235174447, 34465.62999077201, -0.094, 0.976, 0.04, 192.0, 0.0, 0.0, 0.0, 0.0, 0.0, 0.0, 0.0, 0.0, 0.0, 1.6989583057369196E9, 0.0, 2023-11-02 16:51:45.736
22.0, -187500.02235174447, 187500.0, 2731.9196143054505, 50359.84371421859, 187500.0, 187500.0, -187500.02235174447, 34465.942915194384, -0.094, 0.976, 0.04, 192.0, 0.0, 0.0, 0.0, 0.0, 0.0, 0.0, 0.0, 0.0, 0.0, 1.6989583057369483E9, 0.0, 2023-11-02 16:51:45.736
23.0, -187500.02235174447, 187500.0, 2738.0439922862047, 50348.377269313016, 187500.0, 187500.0, -187500.02235174447, 34471.888479219495, -0.094, 0.976, 0.04, 192.0, 0.0, 0.0, 0.0, 0.0, 0.0, 0.0, 0.0, 0.0, 0.0, 1.6989583057369597E9, 0.0, 2023-11-02 16:51:45.736
24.0, -187500.02235174447, 187500.0, 2730.7573235937743, 50362.481220064314, 187500.0, 187500.0, -187500.02235174447, 34464.557107038156, -0.094, 0.976, 0.04, 192.0, 0.0, 0.0, 0.0, 0.0, 0.0, 0.0, 0.0, 0.0, 0.0, 1.698958305736971E9, 0.0, 2023-11-02 16:51:45.736
25.0, -187500.02235174447, 187500.0, 2724.96822177985, 50369.119688167535, 187500.0, 187500.0, -187500.02235174447, 34458.70094999087, -0.09, 0.976, 0.034, 192.0, 253.0, 48.0, 30.0, 128.0, 1.0, 16.0, 0.0, 0.0, 0.0, 1.6989583057369812E9, 0.0, 2023-11-02 16:51:45.736
26.0, -187500.02235174447, 187500.0, 2724.25296595728, 50356.98269092831, 187500.0, 187500.0, -187500.02235174447, 34459.61737151353, -0.09, 0.976, 0.034, 192.0, 0.0, 0.0, 0.0, 0.0, 0.0, 0.0, 0.0, 0.0, 0.0, 1.6989583057371037E9, 0.0, 2023-11-02 16:51:45.737
27.0, -187500.02235174447, 187500.0, 2727.963355536861, 50339.280109319705, 187500.0, 187500.0, -187500.02235174447, 34461.62902851451, -0.09, 0.976, 0.034, 192.0, 0.0, 0.0, 0.0, 0.0, 0.0, 0.0, 0.0, 0.0, 0.0, 1.6989583057371283E9, 0.0, 2023-11-02 16:51:45.737
28.0, -187500.02235174447, 187500.0, 2728.1198177480483, 50356.42389731693, 187500.0, 187500.0, -187500.02235174447, 34459.39385406898, -0.09, 0.976, 0.034, 192.0, 0.0, 0.0, 0.0, 0.0, 0.0, 0.0, 0.0, 0.0, 0.0, 1.6989583057371552E9, 0.0, 2023-11-02 16:51:45.737
29.0, -187500.02235174447, 187500.0, 2735.16061725147, 50373.07594693613, 187500.0, 187500.0, -187500.02235174447, 34467.30637160616, -0.09, 0.976, 0.034, 192.0, 0.0, 0.0, 0.0, 0.0, 0.0, 0.0, 0.0, 0.0, 0.0, 1.6989583057371695E9, 0.0, 2023-11-02 16:51:45.737
30.0, -187500.02235174447, 187500.0, 2744.213073755869, 50375.57934231512, 187500.0, 187500.0, -187500.02235174447, 34477.9905054558, -0.09, 0.976, 0.034, 192.0, 0.0, 0.0, 0.0, 0.0, 0.0, 0.0, 0.0, 0.0, 0.0, 1.6989583057371812E9, 0.0, 2023-11-02 16:51:45.737
31.0, -187500.02235174447, 187500.0, 2742.849617344096, 50367.71152826685, 187500.0, 187500.0, -187500.02235174447, 34478.77281651173, -0.09, 0.976, 0.034, 192.0, 0.0, 0.0, 0.0, 0.0, 0.0, 0.0, 0.0, 0.0, 0.0, 1.6989583057371945E9, 0.0, 2023-11-02 16:51:45.737
32.0, -187500.02235174447, 187500.0, 2743.0731347886485, 50373.41122310296, 187500.0, 187500.0, -187500.02235174447, 34479.06338918965, -0.09, 0.976, 0.034, 192.0, 0.0, 0.0, 0.0, 0.0, 0.0, 0.0, 0.0, 0.0, 0.0, 1.6989583057372067E9, 0.0, 2023-11-02 16:51:45.737
33.0, -187500.02235174447, 187500.0, 2739.630966142531, 50398.80280480419, 187500.0, 187500.0, -187500.02235174447, 34475.71062752135, -0.09, 0.976, 0.034, 192.0, 0.0, 0.0, 0.0, 0.0, 0.0, 0.0, 0.0, 0.0, 0.0, 1.6989583057372193E9, 0.0, 2023-11-02 16:51:45.737
34.0, -187500.02235174447, 187500.0, 2734.9147480624615, 50388.83392677712, 187500.0, 187500.0, -187500.02235174447, 34470.92735420792, -0.09, 0.976, 0.034, 192.0, 0.0, 0.0, 0.0, 0.0, 0.0, 0.0, 0.0, 0.0, 0.0, 1.6989583057372296E9, 0.0, 2023-11-02 16:51:45.737
35.0, -187500.02235174447, 187500.0, 2734.4677131733556, 50363.531752053714, 187500.0, 187500.0, -187500.02235174447, 34470.16739489644, -0.08600000000000001, 0.982, 0.032, 192.0, 253.0, 80.0, 30.0, 176.0, 1.0, 0.0, 0.0, 0.0, 0.0, 1.6989583057372441E9, 0.0, 2023-11-02 16:51:45.737
36.0, -187500.02235174447, 187500.0, 2728.812721826163, 50361.00600493026, 187500.0, 187500.0, -187500.02235174447, 34466.61346752804, -0.08600000000000001, 0.982, 0.032, 192.0, 0.0, 0.0, 0.0, 0.0, 0.0, 0.0, 0.0, 0.0, 0.0, 1.6989583057372632E9, 0.0, 2023-11-02 16:51:45.737
37.0, -187500.02235174447, 187500.0, 2728.455093914878, 50379.37913887252, 187500.0, 187500.0, -187500.02235174447, 34466.74757799478, -0.08600000000000001, 0.982, 0.032, 192.0, 0.0, 0.0, 0.0, 0.0, 0.0, 0.0, 0.0, 0.0, 0.0, 1.6989583057372797E9, 0.0, 2023-11-02 16:51:45.737
38.0, -187500.02235174447, 187500.0, 2725.1023322465817, 50375.78050801522, 187500.0, 187500.0, -187500.02235174447, 34461.45021455887, -0.08600000000000001, 0.982, 0.032, 192.0, 0.0, 0.0, 0.0, 0.0, 0.0, 0.0, 0.0, 0.0, 0.0, 1.6989583057372935E9, 0.0, 2023-11-02 16:51:45.737
39.0, -187500.02235174447, 187500.0, 2728.4997974037883, 50353.09348739308, 187500.0, 187500.0, -187500.02235174447, 34463.640685515486, -0.08600000000000001, 0.982, 0.032, 192.0, 0.0, 0.0, 0.0, 0.0, 0.0, 0.0, 0.0, 0.0, 0.0, 1.6989583057373092E9, 0.0, 2023-11-02 16:51:45.737
40.0, -187500.02235174447, 187500.0, 2723.805931068174, 50348.82430420212, 187500.0, 187500.0, -187500.02235174447, 34457.53865927919, -0.08600000000000001, 0.982, 0.032, 192.0, 0.0, 0.0, 0.0, 0.0, 0.0, 0.0, 0.0, 0.0, 0.0, 1.69895830573732E9, 0.0, 2023-11-02 16:51:45.737
41.0, -187500.02235174447, 187500.0, 2733.5289399062326, 50366.59394104409, 187500.0, 187500.0, -187500.02235174447, 34467.44048207289, -0.08600000000000001, 0.982, 0.032, 192.0, 0.0, 0.0, 0.0, 0.0, 0.0, 0.0, 0.0, 0.0, 0.0, 1.6989583057373784E9, 0.0, 2023-11-02 16:51:45.737
42.0, -187500.02235174447, 187500.0, 2734.087733517615, 50380.92140923994, 187500.0, 187500.0, -187500.02235174447, 34468.62512452902, -0.08600000000000001, 0.982, 0.032, 192.0, 0.0, 0.0, 0.0, 0.0, 0.0, 0.0, 0.0, 0.0, 0.0, 1.6989583057374039E9, 0.0, 2023-11-02 16:51:45.737
43.0, -187500.02235174447, 187500.0, 2740.5250359207434, 50360.96130144135, 187500.0, 187500.0, -187500.02235174447, 34472.939011208895, -0.08600000000000001, 0.982, 0.032, 192.0, 0.0, 0.0, 0.0, 0.0, 0.0, 0.0, 0.0, 0.0, 0.0, 1.6989583057374322E9, 0.0, 2023-11-02 16:51:45.737
44.0, -187500.02235174447, 187500.0, 2740.1450562650034, 50359.284920607206, 187500.0, 187500.0, -187500.02235174447, 34471.70966526385, -0.08, 0.98, 0.04, 192.0, 253.0, 128.0, 30.0, 160.0, 1.0, 64.0, 0.0, 0.0, 0.0, 1.69895830573745E9, 0.0, 2023-11-02 16:51:45.737
45.0, -187500.02235174447, 187500.0, 2734.132437006526, 50371.53367656871, 187500.0, 187500.0, -187500.02235174447, 34466.099377405575, -0.08, 0.98, 0.04, 192.0, 0.0, 0.0, 0.0, 0.0, 0.0, 0.0, 0.0, 0.0, 0.0, 1.6989583057374783E9, 0.0, 2023-11-02 16:51:45.737
46.0, -187500.02235174447, 187500.0, 2736.993460296805, 50389.616237833055, 187500.0, 187500.0, -187500.02235174447, 34467.79810998418, -0.08, 0.98, 0.04, 192.0, 0.0, 0.0, 0.0, 0.0, 0.0, 0.0, 0.0, 0.0, 0.0, 1.6989583057374945E9, 0.0, 2023-11-02 16:51:45.737
47.0, -187500.02235174447, 187500.0, 2732.746628850297, 50377.88157199402, 187500.0, 187500.0, -187500.02235174447, 34461.114938392035, -0.08, 0.98, 0.04, 192.0, 0.0, 0.0, 0.0, 0.0, 0.0, 0.0, 0.0, 0.0, 0.0, 1.6989583057375124E9, 0.0, 2023-11-02 16:51:45.737
48.0, -187500.02235174447, 187500.0, 2735.16061725147, 50364.224656131824, 187500.0, 187500.0, -187500.02235174447, 34463.73009249331, -0.08, 0.98, 0.04, 192.0, 0.0, 0.0, 0.0, 0.0, 0.0, 0.0, 0.0, 0.0, 0.0, 1.698958305737526E9, 0.0, 2023-11-02 16:51:45.737
49.0, -187500.02235174447, 187500.0, 2741.9778993103387, 50384.47533660833, 187500.0, 187500.0, -187500.02235174447, 34471.57555479712, -0.08, 0.98, 0.04, 192.0, 0.0, 0.0, 0.0, 0.0, 0.0, 0.0, 0.0, 0.0, 0.0, 1.6989583057375395E9, 0.0, 2023-11-02 16:51:45.737
50.0, -187500.02235174447, 187500.0, 2741.3744022100454, 50405.84360430761, 187500.0, 187500.0, -187500.02235174447, 34471.44144433039, -0.08, 0.98, 0.04, 192.0, 0.0, 0.0, 0.0, 0.0, 0.0, 0.0, 0.0, 0.0, 0.0, 1.69895830573755E9, 0.0, 2023-11-02 16:51:45.737
51.0, -187500.02235174447, 187500.0, 2743.2743004887466, 50388.5433540992, 187500.0, 187500.0, -187500.02235174447, 34473.45310133137, -0.08, 0.98, 0.04, 192.0, 0.0, 0.0, 0.0, 0.0, 0.0, 0.0, 0.0, 0.0, 0.0, 1.6989583057375622E9, 0.0, 2023-11-02 16:51:45.737
52.0, -187500.02235174447, 187500.0, 2743.386059211023, 50372.67361553593, 187500.0, 187500.0, -187500.02235174447, 34473.72132226483, -0.08, 0.98, 0.04, 192.0, 0.0, 0.0, 0.0, 0.0, 0.0, 0.0, 0.0, 0.0, 0.0, 1.6989583057375824E9, 0.0, 2023-11-02 16:51:45.737
53.0, -187500.02235174447, 187500.0, 2741.217939998858, 50379.200324916885, 187500.0, 187500.0, -187500.02235174447, 34470.81559548564, -0.08, 0.98, 0.04, 192.0, 0.0, 0.0, 0.0, 0.0, 0.0, 0.0, 0.0, 0.0, 0.0, 1.6989583057376025E9, 0.0, 2023-11-02 16:51:45.737
54.0, -187500.02235174447, 187500.0, 2742.201416754892, 50393.84071753511, 187500.0, 187500.0, -187500.02235174447, 34471.30733386366, -0.094, 0.976, 0.034, 192.0, 253.0, 16.0, 30.0, 128.0, 1.0, 16.0, 0.0, 0.0, 0.0, 1.6989583057376163E9, 0.0, 2023-11-02 16:51:45.737
55.0, -187500.02235174447, 187500.0, 2739.7427248648078, 50395.762967558265, 187500.0, 187500.0, -187500.02235174447, 34468.468662317835, -0.094, 0.976, 0.034, 192.0, 0.0, 0.0, 0.0, 0.0, 0.0, 0.0, 0.0, 0.0, 0.0, 1.6989583057376344E9, 0.0, 2023-11-02 16:51:45.737
56.0, -187500.02235174447, 187500.0, 2740.4579806873776, 50380.07204295064, 187500.0, 187500.0, -187500.02235174447, 34466.45700531686, -0.094, 0.976, 0.034, 192.0, 0.0, 0.0, 0.0, 0.0, 0.0, 0.0, 0.0, 0.0, 0.0, 1.6989583057376573E9, 0.0, 2023-11-02 16:51:45.737
57.0, -187500.02235174447, 187500.0, 2739.7874283537185, 50387.60458083208, 187500.0, 187500.0, -187500.02235174447, 34464.57945878261, -0.094, 0.976, 0.034, 192.0, 0.0, 0.0, 0.0, 0.0, 0.0, 0.0, 0.0, 0.0, 0.0, 1.6989583057377875E9, 0.0, 2023-11-02 16:51:45.737
58.0, -187500.02235174447, 187500.0, 2737.708716119375, 50400.97092401635, 187500.0, 187500.0, -187500.02235174447, 34463.238354115296, -0.094, 0.976, 0.034, 192.0, 0.0, 0.0, 0.0, 0.0, 0.0, 0.0, 0.0, 0.0, 0.0, 1.698958305737811E9, 0.0, 2023-11-02 16:51:45.737
59.0, -187500.02235174447, 187500.0, 2739.519207420255, 50404.92718278494, 187500.0, 187500.0, -187500.02235174447, 34465.317066349635, -0.094, 0.976, 0.034, 192.0, 0.0, 0.0, 0.0, 0.0, 0.0, 0.0, 0.0, 0.0, 0.0, 1.698958305737828E9, 0.0, 2023-11-02 16:51:45.737
60.0, -187500.02235174447, 187500.0, 2736.747591107797, 50392.745482056795, 187500.0, 187500.0, -187500.02235174447, 34463.014836670736, -0.094, 0.976, 0.034, 192.0, 0.0, 0.0, 0.0, 0.0, 0.0, 0.0, 0.0, 0.0, 0.0, 1.6989583057378688E9, 0.0, 2023-11-02 16:51:45.737
61.0, -187500.02235174447, 187500.0, 2735.8311695851294, 50391.985522745315, 187500.0, 187500.0, -187500.02235174447, 34463.2830576042, -0.094, 0.976, 0.034, 192.0, 0.0, 0.0, 0.0, 0.0, 0.0, 0.0, 0.0, 0.0, 0.0, 1.6989583057378826E9, 0.0, 2023-11-02 16:51:45.737
62.0, -187500.02235174447, 187500.0, 2741.597919654598, 50412.72794159984, 187500.0, 187500.0, -187500.02235174447, 34470.54737455218, -0.094, 0.976, 0.034, 192.0, 0.0, 0.0, 0.0, 0.0, 0.0, 0.0, 0.0, 0.0, 0.0, 1.6989583057378945E9, 0.0, 2023-11-02 16:51:45.737
63.0, -187500.02235174447, 187500.0, 2740.279166731735, 50423.54618591621, 187500.0, 187500.0, -187500.02235174447, 34468.91569720694, -0.094, 0.976, 0.034, 192.0, 0.0, 0.0, 0.0, 0.0, 0.0, 0.0, 0.0, 0.0, 0.0, 1.69895830573791E9, 0.0, 2023-11-02 16:51:45.737
64.0, -187500.02235174447, 187500.0, 2739.4521521868887, 50404.7483688293, 187500.0, 187500.0, -187500.02235174447, 34465.09354890508, -0.092, 0.976, 0.034, 192.0, 253.0, 32.0, 30.0, 128.0, 1.0, 16.0, 0.0, 0.0, 0.0, 1.698958305737928E9, 0.0, 2023-11-02 16:51:45.737
65.0, -187500.02235174447, 187500.0, 2736.009983540772, 50401.775586816744, 187500.0, 187500.0, -187500.02235174447, 34459.796185469175, -0.092, 0.976, 0.034, 192.0, 0.0, 0.0, 0.0, 0.0, 0.0, 0.0, 0.0, 0.0, 0.0, 1.6989583057379549E9, 0.0, 2023-11-02 16:51:45.737
66.0, -187500.02235174447, 187500.0, 2738.2675097307574, 50414.918412556464, 187500.0, 187500.0, -187500.02235174447, 34461.3831593255, -0.092, 0.976, 0.034, 192.0, 0.0, 0.0, 0.0, 0.0, 0.0, 0.0, 0.0, 0.0, 0.0, 1.6989583057379763E9, 0.0, 2023-11-02 16:51:45.737
67.0, -187500.02235174447, 187500.0, 2739.1839312534253, 50432.062200553686, 187500.0, 187500.0, -187500.02235174447, 34462.54545003718, -0.092, 0.976, 0.034, 192.0, 0.0, 0.0, 0.0, 0.0, 0.0, 0.0, 0.0, 0.0, 0.0, 1.6989583057379892E9, 0.0, 2023-11-02 16:51:45.737
68.0, -187500.02235174447, 187500.0, 2736.613480641065, 50423.993220805314, 187500.0, 187500.0, -187500.02235174447, 34460.24322035828, -0.092, 0.976, 0.034, 192.0, 0.0, 0.0, 0.0, 0.0, 0.0, 0.0, 0.0, 0.0, 0.0, 1.698958305738E9, 0.0, 2023-11-02 16:51:45.738
69.0, -187500.02235174447, 187500.0, 2738.938062064417, 50420.41694169247, 187500.0, 187500.0, -187500.02235174447, 34462.813670970645, -0.092, 0.976, 0.034, 192.0, 0.0, 0.0, 0.0, 0.0, 0.0, 0.0, 0.0, 0.0, 0.0, 1.6989583057380123E9, 0.0, 2023-11-02 16:51:45.738
70.0, -187500.02235174447, 187500.0, 2740.033297542727, 50436.376087233555, 187500.0, 187500.0, -187500.02235174447, 34463.86420296004, -0.092, 0.976, 0.034, 192.0, 0.0, 0.0, 0.0, 0.0, 0.0, 0.0, 0.0, 0.0, 0.0, 1.6989583057380264E9, 0.0, 2023-11-02 16:51:45.738
71.0, -187500.02235174447, 187500.0, 2744.771867367252, 50449.74243041783, 187500.0, 187500.0, -187500.02235174447, 34467.127557650514, -0.092, 0.976, 0.034, 192.0, 0.0, 0.0, 0.0, 0.0, 0.0, 0.0, 0.0, 0.0, 0.0, 1.698958305738037E9, 0.0, 2023-11-02 16:51:45.738
72.0, -187500.02235174447, 187500.0, 2741.7543818657855, 50433.246843009816, 187500.0, 187500.0, -187500.02235174447, 34463.506575048756, -0.092, 0.976, 0.034, 192.0, 0.0, 0.0, 0.0, 0.0, 0.0, 0.0, 0.0, 0.0, 0.0, 1.6989583057380824E9, 0.0, 2023-11-02 16:51:45.738
73.0, -187500.02235174447, 187500.0, 2736.1440940075036, 50416.68420036843, 187500.0, 187500.0, -187500.02235174447, 34457.270438345724, -0.092, 0.976, 0.034, 192.0, 0.0, 0.0, 0.0, 0.0, 0.0, 0.0, 0.0, 0.0, 0.0, 1.6989583057380931E9, 0.0, 2023-11-02 16:51:45.738
74.0, -187500.02235174447, 187500.0, 2736.6581841299753, 50423.25561323829, 187500.0, 187500.0, -187500.02235174447, 34456.77869996771, -0.09, 0.978, 0.038, 192.0, 253.0, 48.0, 30.0, 144.0, 1.0, 48.0, 0.0, 0.0, 0.0, 1.6989583057381043E9, 0.0, 2023-11-02 16:51:45.738
75.0, -187500.02235174447, 187500.0, 2736.389963196512, 50447.26138678329, 187500.0, 187500.0, -187500.02235174447, 34458.99152266878, -0.09, 0.978, 0.038, 192.0, 0.0, 0.0, 0.0, 0.0, 0.0, 0.0, 0.0, 0.0, 0.0, 1.6989583057381155E9, 0.0, 2023-11-02 16:51:45.738
76.0, -187500.02235174447, 187500.0, 2735.5182451627547, 50445.29443327122, 187500.0, 187500.0, -187500.02235174447, 34460.31027559165, -0.09, 0.978, 0.038, 192.0, 0.0, 0.0, 0.0, 0.0, 0.0, 0.0, 0.0, 0.0, 0.0, 1.6989583057381265E9, 0.0, 2023-11-02 16:51:45.738
77.0, -187500.02235174447, 187500.0, 2740.63679464302, 50428.66473539648, 187500.0, 187500.0, -187500.02235174447, 34465.00414192726, -0.09, 0.978, 0.038, 192.0, 0.0, 0.0, 0.0, 0.0, 0.0, 0.0, 0.0, 0.0, 0.0, 1.6989583057381363E9, 0.0, 2023-11-02 16:51:45.738
78.0, -187500.02235174447, 187500.0, 2741.575567910143, 50444.422715237466, 187500.0, 187500.0, -187500.02235174447, 34466.72522625032, -0.09, 0.978, 0.038, 192.0, 0.0, 0.0, 0.0, 0.0, 0.0, 0.0, 0.0, 0.0, 0.0, 1.6989583057381475E9, 0.0, 2023-11-02 16:51:45.738
79.0, -187500.02235174447, 187500.0, 2737.328736463635, 50463.645215469034, 187500.0, 187500.0, -187500.02235174447, 34463.39481632648, -0.09, 0.978, 0.038, 192.0, 0.0, 0.0, 0.0, 0.0, 0.0, 0.0, 0.0, 0.0, 0.0, 1.6989583057381573E9, 0.0, 2023-11-02 16:51:45.738
80.0, -187500.02235174447, 187500.0, 2734.8253410846405, 50450.41298275149, 187500.0, 187500.0, -187500.02235174447, 34458.477432546315, -0.09, 0.978, 0.038, 192.0, 0.0, 0.0, 0.0, 0.0, 0.0, 0.0, 0.0, 0.0, 0.0, 1.6989583057381682E9, 0.0, 2023-11-02 16:51:45.738
81.0, -187500.02235174447, 187500.0, 2733.484236417322, 50424.842587094616, 187500.0, 187500.0, -187500.02235174447, 34455.81757495613, -0.09, 0.978, 0.038, 192.0, 0.0, 0.0, 0.0, 0.0, 0.0, 0.0, 0.0, 0.0, 0.0, 1.6989583057381787E9, 0.0, 2023-11-02 16:51:45.738
82.0, -187500.02235174447, 187500.0, 2735.965280051861, 50431.771627875765, 187500.0, 187500.0, -187500.02235174447, 34458.99152266878, -0.09, 0.978, 0.038, 192.0, 0.0, 0.0, 0.0, 0.0, 0.0, 0.0, 0.0, 0.0, 0.0, 1.698958305738192E9, 0.0, 2023-11-02 16:51:45.738
83.0, -187500.02235174447, 187500.0, 2740.6814981319308, 50450.36827926258, 187500.0, 187500.0, -187500.02235174447, 34461.80784247015, -0.09, 0.978, 0.038, 192.0, 0.0, 0.0, 0.0, 0.0, 0.0, 0.0, 0.0, 0.0, 0.0, 1.6989583057382033E9, 0.0, 2023-11-02 16:51:45.738
84.0, -187500.02235174447, 187500.0, 2741.1061812765815, 50453.94455837543, 187500.0, 187500.0, -187500.02235174447, 34461.15964188095, -0.088, 0.978, 0.04, 192.0, 253.0, 64.0, 30.0, 144.0, 1.0, 64.0, 0.0, 0.0, 0.0, 1.6989583057382157E9, 0.0, 2023-11-02 16:51:45.738
85.0, -187500.02235174447, 187500.0, 2736.345259707601, 50438.49950295681, 187500.0, 187500.0, -187500.02235174447, 34454.87880168901, -0.088, 0.978, 0.04, 192.0, 0.0, 0.0, 0.0, 0.0, 0.0, 0.0, 0.0, 0.0, 0.0, 1.698958305738233E9, 0.0, 2023-11-02 16:51:45.738
86.0, -187500.02235174447, 187500.0, 2740.279166731735, 50426.83189235114, 187500.0, 187500.0, -187500.02235174447, 34457.04692090117, -0.088, 0.978, 0.04, 192.0, 0.0, 0.0, 0.0, 0.0, 0.0, 0.0, 0.0, 0.0, 0.0, 1.6989583057382483E9, 0.0, 2023-11-02 16:51:45.738
87.0, -187500.02235174447, 187500.0, 2746.761172623774, 50452.98343336385, 187500.0, 187500.0, -187500.02235174447, 34463.73009249331, -0.088, 0.978, 0.04, 192.0, 0.0, 0.0, 0.0, 0.0, 0.0, 0.0, 0.0, 0.0, 0.0, 1.698958305738281E9, 0.0, 2023-11-02 16:51:45.738
88.0, -187500.02235174447, 187500.0, 2745.6659371454643, 50469.166096349494, 187500.0, 187500.0, -187500.02235174447, 34461.94195293688, -0.088, 0.978, 0.04, 192.0, 0.0, 0.0, 0.0, 0.0, 0.0, 0.0, 0.0, 0.0, 0.0, 1.6989583057382925E9, 0.0, 2023-11-02 16:51:45.738
89.0, -187500.02235174447, 187500.0, 2745.5541784231878, 50450.52474147377, 187500.0, 187500.0, -187500.02235174447, 34462.09841514807, -0.088, 0.978, 0.04, 192.0, 0.0, 0.0, 0.0, 0.0, 0.0, 0.0, 0.0, 0.0, 0.0, 1.6989583057383022E9, 0.0, 2023-11-02 16:51:45.738
90.0, -187500.02235174447, 187500.0, 2742.737858621819, 50445.87557862706, 187500.0, 187500.0, -187500.02235174447, 34462.27722910371, -0.088, 0.978, 0.04, 192.0, 0.0, 0.0, 0.0, 0.0, 0.0, 0.0, 0.0, 0.0, 0.0, 1.698958305738314E9, 0.0, 2023-11-02 16:51:45.738
91.0, -187500.02235174447, 187500.0, 2740.703849876386, 50461.767668934786, 187500.0, 187500.0, -187500.02235174447, 34460.10910989155, -0.088, 0.978, 0.04, 192.0, 0.0, 0.0, 0.0, 0.0, 0.0, 0.0, 0.0, 0.0, 0.0, 1.6989583057383244E9, 0.0, 2023-11-02 16:51:45.738
92.0, -187500.02235174447, 187500.0, 2744.9953848118053, 50475.62575049708, 187500.0, 187500.0, -187500.02235174447, 34463.46187155985, -0.088, 0.978, 0.04, 192.0, 0.0, 0.0, 0.0, 0.0, 0.0, 0.0, 0.0, 0.0, 0.0, 1.6989583057383363E9, 0.0, 2023-11-02 16:51:45.738
93.0, -187500.02235174447, 187500.0, 2746.2917859902127, 50461.94648289043, 187500.0, 187500.0, -187500.02235174447, 34464.91473494944, -0.088, 0.978, 0.04, 192.0, 0.0, 0.0, 0.0, 0.0, 0.0, 0.0, 0.0, 0.0, 0.0, 1.6989583057383492E9, 0.0, 2023-11-02 16:51:45.738
94.0, -187500.02235174447, 187500.0, 2749.3092714916793, 50452.31288103019, 187500.0, 187500.0, -187500.02235174447, 34467.86516521754, -0.08600000000000001, 0.98, 0.034, 192.0, 253.0, 80.0, 30.0, 160.0, 1.0, 16.0, 0.0, 0.0, 0.0, 1.6989583057383616E9, 0.0, 2023-11-02 16:51:45.738
95.0, -187500.02235174447, 187500.0, 2744.548349922699, 50467.93675040445, 187500.0, 187500.0, -187500.02235174447, 34462.388987825994, -0.08600000000000001, 0.98, 0.034, 192.0, 0.0, 0.0, 0.0, 0.0, 0.0, 0.0, 0.0, 0.0, 0.0, 1.6989583057383742E9, 0.0, 2023-11-02 16:51:45.738
96.0, -187500.02235174447, 187500.0, 2740.614442898565, 50484.074709901186, 187500.0, 187500.0, -187500.02235174447, 34458.879763946505, -0.08600000000000001, 0.98, 0.034, 192.0, 0.0, 0.0, 0.0, 0.0, 0.0, 0.0, 0.0, 0.0, 0.0, 1.6989583057383876E9, 0.0, 2023-11-02 16:51:45.738
97.0, -187500.02235174447, 187500.0, 2744.4365912004223, 50475.13401211906, 187500.0, 187500.0, -187500.02235174447, 34463.6853890044, -0.08600000000000001, 0.98, 0.034, 192.0, 0.0, 0.0, 0.0, 0.0, 0.0, 0.0, 0.0, 0.0, 0.0, 1.6989583057383983E9, 0.0, 2023-11-02 16:51:45.738
98.0, -187500.02235174447, 187500.0, 2750.8515418590955, 50465.32159630318, 187500.0, 187500.0, -187500.02235174447, 34469.54154605169, -0.08600000000000001, 0.98, 0.034, 192.0, 0.0, 0.0, 0.0, 0.0, 0.0, 0.0, 0.0, 0.0, 0.0, 1.6989583057384117E9, 0.0, 2023-11-02 16:51:45.738
99.0, -187500.02235174447, 187500.0, 2756.417126228467, 50478.956160420916, 187500.0, 187500.0, -187500.02235174447, 34473.83308098711, -0.08600000000000001, 0.98, 0.034, 192.0, 0.0, 0.0, 0.0, 0.0, 0.0, 0.0, 0.0, 0.0, 0.0, 1.6989583057384224E9, 0.0, 2023-11-02 16:51:45.738
100.0, -187500.02235174447, 187500.0, 2757.4676582178663, 50497.128128663084, 187500.0, 187500.0, -187500.02235174447, 34473.63191528701, -0.08600000000000001, 0.98, 0.034, 192.0, 0.0, 0.0, 0.0, 0.0, 0.0, 0.0, 0.0, 0.0, 0.0, 1.6989583057384331E9, 0.0, 2023-11-02 16:51:45.738
101.0, -187500.02235174447, 187500.0, 2755.4336494724334, 50483.7170819899, 187500.0, 187500.0, -187500.02235174447, 34470.86029897455, -0.08600000000000001, 0.98, 0.034, 192.0, 0.0, 0.0, 0.0, 0.0, 0.0, 0.0, 0.0, 0.0, 0.0, 1.6989583057384448E9, 0.0, 2023-11-02 16:51:45.738
102.0, -187500.02235174447, 187500.0, 2756.4394779729223, 50463.93578814695, 187500.0, 187500.0, -187500.02235174447, 34472.58138329761, -0.08600000000000001, 0.98, 0.034, 192.0, 0.0, 0.0, 0.0, 0.0, 0.0, 0.0, 0.0, 0.0, 0.0, 1.698958305738481E9, 0.0, 2023-11-02 16:51:45.738
103.0, -187500.02235174447, 187500.0, 2752.7961436267074, 50476.922151675484, 187500.0, 187500.0, -187500.02235174447, 34470.32385710762, -0.08600000000000001, 0.98, 0.034, 192.0, 0.0, 0.0, 0.0, 0.0, 0.0, 0.0, 0.0, 0.0, 0.0, 1.6989583057384925E9, 0.0, 2023-11-02 16:51:45.738
104.0, -187500.02235174447, 187500.0, 2750.158637780981, 50500.68205603147, 187500.0, 187500.0, -187500.02235174447, 34470.72618850782, -0.088, 0.984, 0.032, 192.0, 253.0, 64.0, 30.0, 192.0, 1.0, 0.0, 0.0, 0.0, 0.0, 1.698958305738506E9, 0.0, 2023-11-02 16:51:45.738
105.0, -187500.02235174447, 187500.0, 2755.031318072238, 50494.02123618379, 187500.0, 187500.0, -187500.02235174447, 34475.464758332346, -0.088, 0.984, 0.032, 192.0, 0.0, 0.0, 0.0, 0.0, 0.0, 0.0, 0.0, 0.0, 0.0, 1.6989583057385187E9, 0.0, 2023-11-02 16:51:45.738
106.0, -187500.02235174447, 187500.0, 2754.6513384164978, 50480.05139589923, 187500.0, 187500.0, -187500.02235174447, 34473.83308098711, -0.088, 0.984, 0.032, 192.0, 0.0, 0.0, 0.0, 0.0, 0.0, 0.0, 0.0, 0.0, 0.0, 1.6989583057385316E9, 0.0, 2023-11-02 16:51:45.738
107.0, -187500.02235174447, 187500.0, 2754.2713587607573, 50482.174811622484, 187500.0, 187500.0, -187500.02235174447, 34471.73201700831, -0.088, 0.984, 0.032, 192.0, 0.0, 0.0, 0.0, 0.0, 0.0, 0.0, 0.0, 0.0, 0.0, 1.698958305738549E9, 0.0, 2023-11-02 16:51:45.738
108.0, -187500.02235174447, 187500.0, 2753.1314197935367, 50503.67718978849, 187500.0, 187500.0, -187500.02235174447, 34471.93318270841, -0.088, 0.984, 0.032, 192.0, 0.0, 0.0, 0.0, 0.0, 0.0, 0.0, 0.0, 0.0, 0.0, 1.6989583057385602E9, 0.0, 2023-11-02 16:51:45.738
