%OpenBCI Raw EEG Data
%Number of channels = 8
%Sample Rate = 250 Hz
%Board = OpenBCI_GUI$BoardCytonSerial
Sample Index, EXG Channel 0, EXG Channel 1, EXG Channel 2, EXG Channel 3, EXG Channel 4, EXG Channel 5, EXG Channel 6, EXG Channel 7, Accel Channel 0, Accel Channel 1, Accel Channel 2, Other, Other, Other, Other, Other, Other, Other, Analog Channel 0, Analog Channel 1, Analog Channel 2, Timestamp, Other, Timestamp (Formatted)
237.0, -187500.02235174447, 187500.0, 2689.1160236735373, 50105.25734487264, 187500.0, 187500.0, -187500.02235174447, 36071.7145886081, 0.0, 0.0, 0.0, 192.0, 0.0, 0.0, 0.0, 0.0, 0.0, 0.0, 0.0, 0.0, 0.0, 1.6989582825628774E9, 0.0, 2023-11-02 16:51:22.562
238.0, -187500.02235174447, 187500.0, 2691.440605096889, 50095.75785347913, 187500.0, 187500.0, -187500.02235174447, 36073.010989786504, 0.0, 0.0, 0.0, 192.0, 0.0, 0.0, 0.0, 0.0, 0.0, 0.0, 0.0, 0.0, 0.0, 1.6989582825629215E9, 0.0, 2023-11-02 16:51:22.562
239.0, -187500.02235174447, 187500.0, 2689.6971690293753, 50108.654810029846, 187500.0, 187500.0, -187500.02235174447, 36073.34626595334, 0.0, 0.0, 0.0, 192.0, 0.0, 0.0, 0.0, 0.0, 0.0, 0.0, 0.0, 0.0, 0.0, 1.6989582825629337E9, 0.0, 2023-11-02 16:51:22.562
240.0, -187500.02235174447, 187500.0, 2681.650541025465, 50130.44776087377, 187500.0, 187500.0, -187500.02235174447, 36065.36669318279, 0.0, 0.0, 0.0, 192.0, 0.0, 0.0, 0.0, 0.0, 0.0, 0.0, 0.0, 0.0, 0.0, 1.6989582825629454E9, 0.0, 2023-11-02 16:51:22.562
241.0, -187500.02235174447, 187500.0, 2682.2763898702133, 50119.51775783512, 187500.0, 187500.0, -187500.02235174447, 36064.360864682305, 0.0, 0.0, 0.0, 192.0, 0.0, 0.0, 0.0, 0.0, 0.0, 0.0, 0.0, 0.0, 0.0, 1.6989582825629733E9, 0.0, 2023-11-02 16:51:22.562
242.0, -187500.02235174447, 187500.0, 2684.7127300158418, 50106.73256000669, 187500.0, 187500.0, -187500.02235174447, 36066.14900423873, -0.096, 0.98, 0.024, 192.0, 253.0, 0.0, 30.0, 160.0, 0.0, 192.0, 0.0, 0.0, 0.0, 1.698958282562984E9, 0.0, 2023-11-02 16:51:22.562
243.0, -187500.02235174447, 187500.0, 2676.0179014227274, 50118.62368805691, 187500.0, 187500.0, -187500.02235174447, 36056.85067854532, -0.096, 0.98, 0.024, 192.0, 0.0, 0.0, 0.0, 0.0, 0.0, 0.0, 0.0, 0.0, 0.0, 1.6989582825629954E9, 0.0, 2023-11-02 16:51:22.562
244.0, -187500.02235174447, 187500.0, 2672.843953710074, 50138.87436853342, 187500.0, 187500.0, -187500.02235174447, 36052.894419776734, -0.096, 0.98, 0.024, 192.0, 0.0, 0.0, 0.0, 0.0, 0.0, 0.0, 0.0, 0.0, 0.0, 1.698958282563006E9, 0.0, 2023-11-02 16:51:22.563
245.0, -187500.02235174447, 187500.0, 2668.328901330102, 50138.89672027787, 187500.0, 187500.0, -187500.02235174447, 36048.71464356359, -0.096, 0.98, 0.024, 192.0, 0.0, 0.0, 0.0, 0.0, 0.0, 0.0, 0.0, 0.0, 0.0, 1.6989582825630167E9, 0.0, 2023-11-02 16:51:22.563
246.0, -187500.02235174447, 187500.0, 2678.700110757364, 50109.280658874595, 187500.0, 187500.0, -187500.02235174447, 36057.90121053472, -0.096, 0.98, 0.024, 192.0, 0.0, 0.0, 0.0, 0.0, 0.0, 0.0, 0.0, 0.0, 0.0, 1.698958282563027E9, 0.0, 2023-11-02 16:51:22.563
247.0, -187500.02235174447, 187500.0, 2680.3988433359677, 50113.259269387636, 187500.0, 187500.0, -187500.02235174447, 36057.56593436789, -0.096, 0.98, 0.024, 192.0, 0.0, 0.0, 0.0, 0.0, 0.0, 0.0, 0.0, 0.0, 0.0, 1.6989582825630376E9, 0.0, 2023-11-02 16:51:22.563
248.0, -187500.02235174447, 187500.0, 2677.3143026011353, 50132.99585974168, 187500.0, 187500.0, -187500.02235174447, 36053.386158154746, -0.096, 0.98, 0.024, 192.0, 0.0, 0.0, 0.0, 0.0, 0.0, 0.0, 0.0, 0.0, 0.0, 1.698958282563048E9, 0.0, 2023-11-02 16:51:22.563
249.0, -187500.02235174447, 187500.0, 2678.2754276127134, 50135.834531287495, 187500.0, 187500.0, -187500.02235174447, 36055.33075992236, -0.096, 0.98, 0.024, 192.0, 0.0, 0.0, 0.0, 0.0, 0.0, 0.0, 0.0, 0.0, 0.0, 1.6989582825630584E9, 0.0, 2023-11-02 16:51:22.563
250.0, -187500.02235174447, 187500.0, 2681.739948003286, 50121.797635769566, 187500.0, 187500.0, -187500.02235174447, 36061.11986173628, -0.096, 0.98, 0.024, 192.0, 0.0, 0.0, 0.0, 0.0, 0.0, 0.0, 0.0, 0.0, 0.0, 1.698958282563069E9, 0.0, 2023-11-02 16:51:22.563
251.0, -187500.02235174447, 187500.0, 2681.1140991585376, 50123.27285090362, 187500.0, 187500.0, -187500.02235174447, 36060.49401289153, -0.096, 0.98, 0.024, 192.0, 0.0, 0.0, 0.0, 0.0, 0.0, 0.0, 0.0, 0.0, 0.0, 1.6989582825630796E9, 0.0, 2023-11-02 16:51:22.563
252.0, -187500.02235174447, 187500.0, 2684.0868811710934, 50156.57695014202, 187500.0, 187500.0, -187500.02235174447, 36062.03628325895, -0.092, 0.98, 0.02, 192.0, 253.0, 32.0, 30.0, 160.0, 0.0, 160.0, 0.0, 0.0, 0.0, 1.69895828256309E9, 0.0, 2023-11-02 16:51:22.563
253.0, -187500.02235174447, 187500.0, 2679.1471456464706, 50169.76447937066, 187500.0, 187500.0, -187500.02235174447, 36056.247181445025, -0.092, 0.98, 0.02, 192.0, 0.0, 0.0, 0.0, 0.0, 0.0, 0.0, 0.0, 0.0, 0.0, 1.6989582825632064E9, 0.0, 2023-11-02 16:51:22.563
254.0, -187500.02235174447, 187500.0, 2683.3045701151577, 50141.82479880152, 187500.0, 187500.0, -187500.02235174447, 36059.35407392431, -0.092, 0.98, 0.02, 192.0, 0.0, 0.0, 0.0, 0.0, 0.0, 0.0, 0.0, 0.0, 0.0, 1.698958282563218E9, 0.0, 2023-11-02 16:51:22.563
255.0, -187500.02235174447, 187500.0, 2691.2841428857023, 50131.34183065198, 187500.0, 187500.0, -187500.02235174447, 36066.305466449914, -0.092, 0.98, 0.02, 192.0, 0.0, 0.0, 0.0, 0.0, 0.0, 0.0, 0.0, 0.0, 0.0, 1.6989582825632286E9, 0.0, 2023-11-02 16:51:22.563
0.0, -187500.02235174447, 187500.0, 2684.19863989337, 50163.6401013899, 187500.0, 187500.0, -187500.02235174447, 36059.93521928015, -0.092, 0.98, 0.02, 192.0, 0.0, 0.0, 0.0, 0.0, 0.0, 0.0, 0.0, 0.0, 0.0, 1.698958282563239E9, 0.0, 2023-11-02 16:51:22.563
1.0, -187500.02235174447, 187500.0, 2671.1228693870153, 50177.006444574174, 187500.0, 187500.0, -187500.02235174447, 36046.90415226271, -0.092, 0.98, 0.02, 192.0, 0.0, 0.0, 0.0, 0.0, 0.0, 0.0, 0.0, 0.0, 0.0, 1.6989582825632498E9, 0.0, 2023-11-02 16:51:22.563
2.0, -187500.02235174447, 187500.0, 2672.7321949877974, 50148.08328724901, 187500.0, 187500.0, -187500.02235174447, 36047.48529761854, -0.092, 0.98, 0.02, 192.0, 0.0, 0.0, 0.0, 0.0, 0.0, 0.0, 0.0, 0.0, 0.0, 1.6989582825632603E9, 0.0, 2023-11-02 16:51:22.563
3.0, -187500.02235174447, 187500.0, 2678.700110757364, 50131.34183065198, 187500.0, 187500.0, -187500.02235174447, 36053.520268621476, -0.092, 0.98, 0.02, 192.0, 0.0, 0.0, 0.0, 0.0, 0.0, 0.0, 0.0, 0.0, 0.0, 1.698958282563274E9, 0.0, 2023-11-02 16:51:22.563
4.0, -187500.02235174447, 187500.0, 2672.57573277661, 50159.72854611022, 187500.0, 187500.0, -187500.02235174447, 36048.93816100814, -0.092, 0.98, 0.02, 192.0, 0.0, 0.0, 0.0, 0.0, 0.0, 0.0, 0.0, 0.0, 0.0, 1.6989582825632844E9, 0.0, 2023-11-02 16:51:22.563
5.0, -187500.02235174447, 187500.0, 2662.0257093937053, 50174.03366256162, 187500.0, 187500.0, -187500.02235174447, 36036.868219002274, -0.09, 0.978, 0.026000000000000002, 192.0, 253.0, 48.0, 30.0, 144.0, 0.0, 208.0, 0.0, 0.0, 0.0, 1.698958282563295E9, 0.0, 2023-11-02 16:51:22.563
6.0, -187500.02235174447, 187500.0, 2672.486325798789, 50157.023985031126, 187500.0, 187500.0, -187500.02235174447, 36047.97703599656, -0.09, 0.978, 0.026000000000000002, 192.0, 0.0, 0.0, 0.0, 0.0, 0.0, 0.0, 0.0, 0.0, 0.0, 1.6989582825633073E9, 0.0, 2023-11-02 16:51:22.563
7.0, -187500.02235174447, 187500.0, 2672.2404566097807, 50151.81602857304, 187500.0, 187500.0, -187500.02235174447, 36048.53582960794, -0.09, 0.978, 0.026000000000000002, 192.0, 0.0, 0.0, 0.0, 0.0, 0.0, 0.0, 0.0, 0.0, 0.0, 1.6989582825633175E9, 0.0, 2023-11-02 16:51:22.563
8.0, -187500.02235174447, 187500.0, 2671.4357938093895, 50171.03852880461, 187500.0, 187500.0, -187500.02235174447, 36049.92163776417, -0.09, 0.978, 0.026000000000000002, 192.0, 0.0, 0.0, 0.0, 0.0, 0.0, 0.0, 0.0, 0.0, 0.0, 1.6989582825633283E9, 0.0, 2023-11-02 16:51:22.563
9.0, -187500.02235174447, 187500.0, 2664.350290817057, 50194.709026182776, 187500.0, 187500.0, -187500.02235174447, 36044.26664641698, -0.09, 0.978, 0.026000000000000002, 192.0, 0.0, 0.0, 0.0, 0.0, 0.0, 0.0, 0.0, 0.0, 0.0, 1.6989582825633397E9, 0.0, 2023-11-02 16:51:22.563
10.0, -187500.02235174447, 187500.0, 2665.4678780398226, 50184.44957547779, 187500.0, 187500.0, -187500.02235174447, 36044.26664641698, -0.09, 0.978, 0.026000000000000002, 192.0, 0.0, 0.0, 0.0, 0.0, 0.0, 0.0, 0.0, 0.0, 0.0, 1.69895828256335E9, 0.0, 2023-11-02 16:51:22.563
11.0, -187500.02235174447, 187500.0, 2676.9119712009397, 50172.55844742757, 187500.0, 187500.0, -187500.02235174447, 36053.095585476825, -0.09, 0.978, 0.026000000000000002, 192.0, 0.0, 0.0, 0.0, 0.0, 0.0, 0.0, 0.0, 0.0, 0.0, 1.6989582825633612E9, 0.0, 2023-11-02 16:51:22.563
12.0, -187500.02235174447, 187500.0, 2675.794383978174, 50198.64293320691, 187500.0, 187500.0, -187500.02235174447, 36051.66507383169, -0.09, 0.978, 0.026000000000000002, 192.0, 0.0, 0.0, 0.0, 0.0, 0.0, 0.0, 0.0, 0.0, 0.0, 1.6989582825633981E9, 0.0, 2023-11-02 16:51:22.563
13.0, -187500.02235174447, 187500.0, 2673.0227676657164, 50227.74490448772, 187500.0, 187500.0, -187500.02235174447, 36049.809879041895, -0.09, 0.978, 0.026000000000000002, 192.0, 0.0, 0.0, 0.0, 0.0, 0.0, 0.0, 0.0, 0.0, 0.0, 1.698958282563409E9, 0.0, 2023-11-02 16:51:22.563
14.0, -187500.02235174447, 187500.0, 2676.0849566560933, 50212.45631128029, 187500.0, 187500.0, -187500.02235174447, 36054.503745377515, -0.09, 0.978, 0.026000000000000002, 192.0, 0.0, 0.0, 0.0, 0.0, 0.0, 0.0, 0.0, 0.0, 0.0, 1.6989582825634196E9, 0.0, 2023-11-02 16:51:22.563
15.0, -187500.02235174447, 187500.0, 2684.57861954911, 50182.1473457989, 187500.0, 187500.0, -187500.02235174447, 36063.578553626365, -0.09, 0.98, 0.032, 192.0, 253.0, 48.0, 30.0, 160.0, 1.0, 0.0, 0.0, 0.0, 0.0, 1.6989582825634303E9, 0.0, 2023-11-02 16:51:22.563
16.0, -187500.02235174447, 187500.0, 2689.540706818188, 50189.99280810271, 187500.0, 187500.0, -187500.02235174447, 36068.5629926399, -0.09, 0.98, 0.032, 192.0, 0.0, 0.0, 0.0, 0.0, 0.0, 0.0, 0.0, 0.0, 0.0, 1.6989582825634413E9, 0.0, 2023-11-02 16:51:22.563
17.0, -187500.02235174447, 187500.0, 2679.415366579934, 50224.190977119324, 187500.0, 187500.0, -187500.02235174447, 36059.97992276906, -0.09, 0.98, 0.032, 192.0, 0.0, 0.0, 0.0, 0.0, 0.0, 0.0, 0.0, 0.0, 0.0, 1.6989582825634522E9, 0.0, 2023-11-02 16:51:22.563
18.0, -187500.02235174447, 187500.0, 2675.190886877881, 50217.99954390521, 187500.0, 187500.0, -187500.02235174447, 36053.96730351059, -0.09, 0.98, 0.032, 192.0, 0.0, 0.0, 0.0, 0.0, 0.0, 0.0, 0.0, 0.0, 0.0, 1.6989582825634627E9, 0.0, 2023-11-02 16:51:22.563
19.0, -187500.02235174447, 187500.0, 2685.7632620052414, 50187.06472957906, 187500.0, 187500.0, -187500.02235174447, 36063.39973967073, -0.09, 0.98, 0.032, 192.0, 0.0, 0.0, 0.0, 0.0, 0.0, 0.0, 0.0, 0.0, 0.0, 1.6989582825634732E9, 0.0, 2023-11-02 16:51:22.563
20.0, -187500.02235174447, 187500.0, 2680.8905817139844, 50189.63518019142, 187500.0, 187500.0, -187500.02235174447, 36059.19761171313, -0.09, 0.98, 0.032, 192.0, 0.0, 0.0, 0.0, 0.0, 0.0, 0.0, 0.0, 0.0, 0.0, 1.698958282563484E9, 0.0, 2023-11-02 16:51:22.563
21.0, -187500.02235174447, 187500.0, 2681.1588026474483, 50207.51657575567, 187500.0, 187500.0, -187500.02235174447, 36057.632989601254, -0.09, 0.98, 0.032, 192.0, 0.0, 0.0, 0.0, 0.0, 0.0, 0.0, 0.0, 0.0, 0.0, 1.6989582825634952E9, 0.0, 2023-11-02 16:51:22.563
22.0, -187500.02235174447, 187500.0, 2680.5106020582443, 50218.535985772134, 187500.0, 187500.0, -187500.02235174447, 36056.33658842285, -0.09, 0.98, 0.032, 192.0, 0.0, 0.0, 0.0, 0.0, 0.0, 0.0, 0.0, 0.0, 0.0, 1.698958282563506E9, 0.0, 2023-11-02 16:51:22.563
23.0, -187500.02235174447, 187500.0, 2679.013035179739, 50191.6468371924, 187500.0, 187500.0, -187500.02235174447, 36054.4590418886, -0.09, 0.98, 0.032, 192.0, 0.0, 0.0, 0.0, 0.0, 0.0, 0.0, 0.0, 0.0, 0.0, 1.6989582825635169E9, 0.0, 2023-11-02 16:51:22.563
24.0, -187500.02235174447, 187500.0, 2680.3988433359677, 50185.32129351155, 187500.0, 187500.0, -187500.02235174447, 36054.61550409979, -0.09, 0.98, 0.032, 192.0, 0.0, 0.0, 0.0, 0.0, 0.0, 0.0, 0.0, 0.0, 0.0, 1.698958282563529E9, 0.0, 2023-11-02 16:51:22.563
25.0, -187500.02235174447, 187500.0, 2673.0227676657164, 50210.55641300159, 187500.0, 187500.0, -187500.02235174447, 36047.172373196176, -0.09, 0.982, 0.03, 192.0, 253.0, 48.0, 30.0, 176.0, 0.0, 240.0, 0.0, 0.0, 0.0, 1.6989582825635395E9, 0.0, 2023-11-02 16:51:22.563
26.0, -187500.02235174447, 187500.0, 2659.9246454149065, 50214.780892703646, 187500.0, 187500.0, -187500.02235174447, 36033.96249222309, -0.09, 0.982, 0.03, 192.0, 0.0, 0.0, 0.0, 0.0, 0.0, 0.0, 0.0, 0.0, 0.0, 1.6989582825635517E9, 0.0, 2023-11-02 16:51:22.563
27.0, -187500.02235174447, 187500.0, 2670.675834497909, 50170.50208693768, 187500.0, 187500.0, -187500.02235174447, 36041.919713249175, -0.09, 0.982, 0.03, 192.0, 0.0, 0.0, 0.0, 0.0, 0.0, 0.0, 0.0, 0.0, 0.0, 1.6989582825635707E9, 0.0, 2023-11-02 16:51:22.563
28.0, -187500.02235174447, 187500.0, 2674.4979827997668, 50144.842284302984, 187500.0, 187500.0, -187500.02235174447, 36042.389099882734, -0.09, 0.982, 0.03, 192.0, 0.0, 0.0, 0.0, 0.0, 0.0, 0.0, 0.0, 0.0, 0.0, 1.6989582825635808E9, 0.0, 2023-11-02 16:51:22.563
29.0, -187500.02235174447, 187500.0, 2669.558247275144, 50159.057993776565, 187500.0, 187500.0, -187500.02235174447, 36035.28124514595, -0.09, 0.982, 0.03, 192.0, 0.0, 0.0, 0.0, 0.0, 0.0, 0.0, 0.0, 0.0, 0.0, 1.6989582825635903E9, 0.0, 2023-11-02 16:51:22.563
30.0, -187500.02235174447, 187500.0, 2671.972235676317, 50167.8422293475, 187500.0, 187500.0, -187500.02235174447, 36037.94110273613, -0.09, 0.982, 0.03, 192.0, 0.0, 0.0, 0.0, 0.0, 0.0, 0.0, 0.0, 0.0, 0.0, 1.6989582825636E9, 0.0, 2023-11-02 16:51:22.563
31.0, -187500.02235174447, 187500.0, 2675.414404322434, 50140.57310111202, 187500.0, 187500.0, -187500.02235174447, 36041.6067888268, -0.09, 0.982, 0.03, 192.0, 0.0, 0.0, 0.0, 0.0, 0.0, 0.0, 0.0, 0.0, 0.0, 1.6989582825636096E9, 0.0, 2023-11-02 16:51:22.563
32.0, -187500.02235174447, 187500.0, 2683.3716253485236, 50101.18932738177, 187500.0, 187500.0, -187500.02235174447, 36049.58636159734, -0.09, 0.982, 0.03, 192.0, 0.0, 0.0, 0.0, 0.0, 0.0, 0.0, 0.0, 0.0, 0.0, 1.6989582825636191E9, 0.0, 2023-11-02 16:51:22.563
33.0, -187500.02235174447, 187500.0, 2675.9731979338167, 50091.06398714352, 187500.0, 187500.0, -187500.02235174447, 36044.37840513926, -0.09, 0.982, 0.03, 192.0, 0.0, 0.0, 0.0, 0.0, 0.0, 0.0, 0.0, 0.0, 0.0, 1.6989582825636292E9, 0.0, 2023-11-02 16:51:22.563
34.0, -187500.02235174447, 187500.0, 2664.484401283789, 50086.14660336335, 187500.0, 187500.0, -187500.02235174447, 36034.61069281229, -0.09, 0.982, 0.03, 192.0, 0.0, 0.0, 0.0, 0.0, 0.0, 0.0, 0.0, 0.0, 0.0, 1.6989582825636387E9, 0.0, 2023-11-02 16:51:22.563
35.0, -187500.02235174447, 187500.0, 2668.4406600523785, 50042.9630330757, 187500.0, 187500.0, -187500.02235174447, 36038.56695158088, -0.088, 0.984, 0.03, 192.0, 253.0, 64.0, 30.0, 192.0, 0.0, 240.0, 0.0, 0.0, 0.0, 1.6989582825636485E9, 0.0, 2023-11-02 16:51:22.563
36.0, -187500.02235174447, 187500.0, 2673.425099065912, 49999.46653836567, 187500.0, 187500.0, -187500.02235174447, 36044.13253595025, -0.088, 0.984, 0.03, 192.0, 0.0, 0.0, 0.0, 0.0, 0.0, 0.0, 0.0, 0.0, 0.0, 1.6989582825636585E9, 0.0, 2023-11-02 16:51:22.563
37.0, -187500.02235174447, 187500.0, 2668.932398430395, 49989.07297719395, 187500.0, 187500.0, -187500.02235174447, 36041.87500976027, -0.088, 0.984, 0.03, 192.0, 0.0, 0.0, 0.0, 0.0, 0.0, 0.0, 0.0, 0.0, 0.0, 1.698958282563668E9, 0.0, 2023-11-02 16:51:22.563
38.0, -187500.02235174447, 187500.0, 2657.845933180563, 49990.1011574389, 187500.0, 187500.0, -187500.02235174447, 36031.97318696656, -0.088, 0.984, 0.03, 192.0, 0.0, 0.0, 0.0, 0.0, 0.0, 0.0, 0.0, 0.0, 0.0, 1.6989582825636775E9, 0.0, 2023-11-02 16:51:22.563
39.0, -187500.02235174447, 187500.0, 2656.683642468887, 49967.771764728044, 187500.0, 187500.0, -187500.02235174447, 36031.928483477655, -0.088, 0.984, 0.03, 192.0, 0.0, 0.0, 0.0, 0.0, 0.0, 0.0, 0.0, 0.0, 0.0, 1.698958282563687E9, 0.0, 2023-11-02 16:51:22.563
40.0, -187500.02235174447, 187500.0, 2662.740965216275, 49930.31024102095, 187500.0, 187500.0, -187500.02235174447, 36039.48337310355, -0.088, 0.984, 0.03, 192.0, 0.0, 0.0, 0.0, 0.0, 0.0, 0.0, 0.0, 0.0, 0.0, 1.6989582825636969E9, 0.0, 2023-11-02 16:51:22.563
41.0, -187500.02235174447, 187500.0, 2670.4299653089006, 49921.50365370556, 187500.0, 187500.0, -187500.02235174447, 36050.99452149803, -0.088, 0.984, 0.03, 192.0, 0.0, 0.0, 0.0, 0.0, 0.0, 0.0, 0.0, 0.0, 0.0, 1.6989582825637064E9, 0.0, 2023-11-02 16:51:22.563
42.0, -187500.02235174447, 187500.0, 2665.4008228064567, 49946.85053191788, 187500.0, 187500.0, -187500.02235174447, 36050.32396916437, -0.088, 0.984, 0.03, 192.0, 0.0, 0.0, 0.0, 0.0, 0.0, 0.0, 0.0, 0.0, 0.0, 1.698958282563716E9, 0.0, 2023-11-02 16:51:22.563
43.0, -187500.02235174447, 187500.0, 2660.3493285595573, 49939.183883569705, 187500.0, 187500.0, -187500.02235174447, 36046.50182086251, -0.088, 0.984, 0.03, 192.0, 0.0, 0.0, 0.0, 0.0, 0.0, 0.0, 0.0, 0.0, 0.0, 1.6989582825637465E9, 0.0, 2023-11-02 16:51:22.563
44.0, -187500.02235174447, 187500.0, 2661.489267526778, 49915.40162746926, 187500.0, 187500.0, -187500.02235174447, 36050.81570754239, -0.088, 0.984, 0.03, 192.0, 0.0, 0.0, 0.0, 0.0, 0.0, 0.0, 0.0, 0.0, 0.0, 1.6989582825637562E9, 0.0, 2023-11-02 16:51:22.563
45.0, -187500.02235174447, 187500.0, 2665.3114158286353, 49910.21602275563, 187500.0, 187500.0, -187500.02235174447, 36056.537754122946, -0.09, 0.98, 0.032, 192.0, 253.0, 48.0, 30.0, 160.0, 1.0, 0.0, 0.0, 0.0, 0.0, 1.6989582825637672E9, 0.0, 2023-11-02 16:51:22.563
46.0, -187500.02235174447, 187500.0, 2667.9265699299062, 49926.15281655226, 187500.0, 187500.0, -187500.02235174447, 36058.057672745905, -0.09, 0.98, 0.032, 192.0, 0.0, 0.0, 0.0, 0.0, 0.0, 0.0, 0.0, 0.0, 0.0, 1.6989582825637774E9, 0.0, 2023-11-02 16:51:22.563
47.0, -187500.02235174447, 187500.0, 2670.4970205422665, 49932.053677088465, 187500.0, 187500.0, -187500.02235174447, 36059.9128675357, -0.09, 0.98, 0.032, 192.0, 0.0, 0.0, 0.0, 0.0, 0.0, 0.0, 0.0, 0.0, 0.0, 1.6989582825637867E9, 0.0, 2023-11-02 16:51:22.563
48.0, -187500.02235174447, 187500.0, 2675.7273287448083, 49911.579479167405, 187500.0, 187500.0, -187500.02235174447, 36065.29963794943, -0.09, 0.98, 0.032, 192.0, 0.0, 0.0, 0.0, 0.0, 0.0, 0.0, 0.0, 0.0, 0.0, 1.6989582825637963E9, 0.0, 2023-11-02 16:51:22.563
49.0, -187500.02235174447, 187500.0, 2673.9168374439287, 49910.9312785782, 187500.0, 187500.0, -187500.02235174447, 36064.29380944894, -0.09, 0.98, 0.032, 192.0, 0.0, 0.0, 0.0, 0.0, 0.0, 0.0, 0.0, 0.0, 0.0, 1.698958282563806E9, 0.0, 2023-11-02 16:51:22.563
50.0, -187500.02235174447, 187500.0, 2667.5689420186213, 49930.42199974323, 187500.0, 187500.0, -187500.02235174447, 36057.90121053472, -0.09, 0.98, 0.032, 192.0, 0.0, 0.0, 0.0, 0.0, 0.0, 0.0, 0.0, 0.0, 0.0, 1.6989582825638156E9, 0.0, 2023-11-02 16:51:22.563
51.0, -187500.02235174447, 187500.0, 2663.1880001053814, 49932.43365674421, 187500.0, 187500.0, -187500.02235174447, 36050.927466264664, -0.09, 0.98, 0.032, 192.0, 0.0, 0.0, 0.0, 0.0, 0.0, 0.0, 0.0, 0.0, 0.0, 1.6989582825638251E9, 0.0, 2023-11-02 16:51:22.563
52.0, -187500.02235174447, 187500.0, 2671.4804972983, 49913.41232221274, 187500.0, 187500.0, -187500.02235174447, 36055.1072424778, -0.09, 0.98, 0.032, 192.0, 0.0, 0.0, 0.0, 0.0, 0.0, 0.0, 0.0, 0.0, 0.0, 1.698958282563835E9, 0.0, 2023-11-02 16:51:22.563
53.0, -187500.02235174447, 187500.0, 2676.040253167183, 49906.37152270932, 187500.0, 187500.0, -187500.02235174447, 36057.38712041225, -0.09, 0.98, 0.032, 192.0, 0.0, 0.0, 0.0, 0.0, 0.0, 0.0, 0.0, 0.0, 0.0, 1.6989582825638444E9, 0.0, 2023-11-02 16:51:22.563
54.0, -187500.02235174447, 187500.0, 2663.120944872015, 49926.15281655226, 187500.0, 187500.0, -187500.02235174447, 36044.82544002836, -0.09, 0.98, 0.032, 192.0, 0.0, 0.0, 0.0, 0.0, 0.0, 0.0, 0.0, 0.0, 0.0, 1.698958282563854E9, 0.0, 2023-11-02 16:51:22.563
55.0, -187500.02235174447, 187500.0, 2659.611720992532, 49937.61926145783, 187500.0, 187500.0, -187500.02235174447, 36041.56208533789, -0.08600000000000001, 0.976, 0.036000000000000004, 192.0, 253.0, 80.0, 30.0, 128.0, 1.0, 32.0, 0.0, 0.0, 0.0, 1.6989582825638647E9, 0.0, 2023-11-02 16:51:22.563
56.0, -187500.02235174447, 187500.0, 2661.712784971331, 49922.755351395055, 187500.0, 187500.0, -187500.02235174447, 36042.03147197145, -0.08600000000000001, 0.976, 0.036000000000000004, 192.0, 0.0, 0.0, 0.0, 0.0, 0.0, 0.0, 0.0, 0.0, 0.0, 1.6989582825638752E9, 0.0, 2023-11-02 16:51:22.563
57.0, -187500.02235174447, 187500.0, 2667.4795350408003, 49903.175223252205, 187500.0, 187500.0, -187500.02235174447, 36046.41241388469, -0.08600000000000001, 0.976, 0.036000000000000004, 192.0, 0.0, 0.0, 0.0, 0.0, 0.0, 0.0, 0.0, 0.0, 0.0, 1.6989582825638852E9, 0.0, 2023-11-02 16:51:22.563
58.0, -187500.02235174447, 187500.0, 2665.4008228064567, 49916.56391818094, 187500.0, 187500.0, -187500.02235174447, 36042.52321034947, -0.08600000000000001, 0.976, 0.036000000000000004, 192.0, 0.0, 0.0, 0.0, 0.0, 0.0, 0.0, 0.0, 0.0, 0.0, 1.6989582825639048E9, 0.0, 2023-11-02 16:51:22.563
59.0, -187500.02235174447, 187500.0, 2663.769145461219, 49936.54637772398, 187500.0, 187500.0, -187500.02235174447, 36038.902227747705, -0.08600000000000001, 0.976, 0.036000000000000004, 192.0, 0.0, 0.0, 0.0, 0.0, 0.0, 0.0, 0.0, 0.0, 0.0, 1.6989582825639148E9, 0.0, 2023-11-02 16:51:22.563
60.0, -187500.02235174447, 187500.0, 2665.937264673384, 49925.66107817425, 187500.0, 187500.0, -187500.02235174447, 36037.874047502766, -0.08600000000000001, 0.976, 0.036000000000000004, 192.0, 0.0, 0.0, 0.0, 0.0, 0.0, 0.0, 0.0, 0.0, 0.0, 1.6989582825639243E9, 0.0, 2023-11-02 16:51:22.563
61.0, -187500.02235174447, 187500.0, 2672.3522153320573, 49909.63487739979, 187500.0, 187500.0, -187500.02235174447, 36042.8584865163, -0.08600000000000001, 0.976, 0.036000000000000004, 192.0, 0.0, 0.0, 0.0, 0.0, 0.0, 0.0, 0.0, 0.0, 0.0, 1.698958282563934E9, 0.0, 2023-11-02 16:51:22.563
62.0, -187500.02235174447, 187500.0, 2674.453279310856, 49920.31901124943, 187500.0, 187500.0, -187500.02235174447, 36045.1607161952, -0.08600000000000001, 0.976, 0.036000000000000004, 192.0, 0.0, 0.0, 0.0, 0.0, 0.0, 0.0, 0.0, 0.0, 0.0, 1.698958282563944E9, 0.0, 2023-11-02 16:51:22.563
63.0, -187500.02235174447, 187500.0, 2673.0451194101715, 49952.41611628725, 187500.0, 187500.0, -187500.02235174447, 36046.34535865133, -0.08600000000000001, 0.976, 0.036000000000000004, 192.0, 0.0, 0.0, 0.0, 0.0, 0.0, 0.0, 0.0, 0.0, 0.0, 1.6989582825639536E9, 0.0, 2023-11-02 16:51:22.563
64.0, -187500.02235174447, 187500.0, 2658.6952994698645, 49952.6396337318, 187500.0, 187500.0, -187500.02235174447, 36032.04024219993, -0.08600000000000001, 0.976, 0.036000000000000004, 192.0, 0.0, 0.0, 0.0, 0.0, 0.0, 0.0, 0.0, 0.0, 0.0, 1.698958282563964E9, 0.0, 2023-11-02 16:51:22.563
65.0, -187500.02235174447, 187500.0, 2655.4095930349345, 49921.034267072, 187500.0, 187500.0, -187500.02235174447, 36028.30750087589, -0.092, 0.974, 0.038, 192.0, 253.0, 32.0, 30.0, 112.0, 1.0, 48.0, 0.0, 0.0, 0.0, 1.6989582825639737E9, 0.0, 2023-11-02 16:51:22.563
66.0, -187500.02235174447, 187500.0, 2654.9178546569174, 49916.16158678074, 187500.0, 187500.0, -187500.02235174447, 36028.843942742824, -0.092, 0.974, 0.038, 192.0, 0.0, 0.0, 0.0, 0.0, 0.0, 0.0, 0.0, 0.0, 0.0, 1.6989582825639842E9, 0.0, 2023-11-02 16:51:22.563
67.0, -187500.02235174447, 187500.0, 2654.71668895682, 49937.8874823913, 187500.0, 187500.0, -187500.02235174447, 36029.17921890965, -0.092, 0.974, 0.038, 192.0, 0.0, 0.0, 0.0, 0.0, 0.0, 0.0, 0.0, 0.0, 0.0, 1.6989582825639958E9, 0.0, 2023-11-02 16:51:22.563
68.0, -187500.02235174447, 187500.0, 2656.929511657895, 49946.515255751045, 187500.0, 187500.0, -187500.02235174447, 36031.19087591063, -0.092, 0.974, 0.038, 192.0, 0.0, 0.0, 0.0, 0.0, 0.0, 0.0, 0.0, 0.0, 0.0, 1.698958282564006E9, 0.0, 2023-11-02 16:51:22.564
69.0, -187500.02235174447, 187500.0, 2663.165648360926, 49926.44338923018, 187500.0, 187500.0, -187500.02235174447, 36038.29873064742, -0.092, 0.974, 0.038, 192.0, 0.0, 0.0, 0.0, 0.0, 0.0, 0.0, 0.0, 0.0, 0.0, 1.6989582825640163E9, 0.0, 2023-11-02 16:51:22.564
70.0, -187500.02235174447, 187500.0, 2662.137468115982, 49924.14115955128, 187500.0, 187500.0, -187500.02235174447, 36037.94110273613, -0.092, 0.974, 0.038, 192.0, 0.0, 0.0, 0.0, 0.0, 0.0, 0.0, 0.0, 0.0, 0.0, 1.698958282564026E9, 0.0, 2023-11-02 16:51:22.564
71.0, -187500.02235174447, 187500.0, 2664.2832355836913, 49946.42584877323, 187500.0, 187500.0, -187500.02235174447, 36037.00232946901, -0.092, 0.974, 0.038, 192.0, 0.0, 0.0, 0.0, 0.0, 0.0, 0.0, 0.0, 0.0, 0.0, 1.6989582825640366E9, 0.0, 2023-11-02 16:51:22.564
72.0, -187500.02235174447, 187500.0, 2662.8974274274624, 49952.01378488705, 187500.0, 187500.0, -187500.02235174447, 36034.163657923185, -0.092, 0.974, 0.038, 192.0, 0.0, 0.0, 0.0, 0.0, 0.0, 0.0, 0.0, 0.0, 0.0, 1.698958282564047E9, 0.0, 2023-11-02 16:51:22.564
73.0, -187500.02235174447, 187500.0, 2669.0441571526717, 49930.48905497659, 187500.0, 187500.0, -187500.02235174447, 36038.477544603054, -0.092, 0.974, 0.038, 192.0, 0.0, 0.0, 0.0, 0.0, 0.0, 0.0, 0.0, 0.0, 0.0, 1.6989582825640745E9, 0.0, 2023-11-02 16:51:22.564
74.0, -187500.02235174447, 187500.0, 2668.8653431970292, 49924.3870287403, 187500.0, 187500.0, -187500.02235174447, 36036.957625980096, -0.092, 0.974, 0.038, 192.0, 0.0, 0.0, 0.0, 0.0, 0.0, 0.0, 0.0, 0.0, 0.0, 1.698958282564087E9, 0.0, 2023-11-02 16:51:22.564
75.0, -187500.02235174447, 187500.0, 2667.546590274166, 49940.97202312613, 187500.0, 187500.0, -187500.02235174447, 36034.633044556744, -0.094, 0.97, 0.04, 192.0, 253.0, 16.0, 30.0, 80.0, 1.0, 64.0, 0.0, 0.0, 0.0, 1.6989582825640984E9, 0.0, 2023-11-02 16:51:22.564
76.0, -187500.02235174447, 187500.0, 2662.2939303271687, 49955.41125004426, 187500.0, 187500.0, -187500.02235174447, 36028.754535765, -0.094, 0.97, 0.04, 192.0, 0.0, 0.0, 0.0, 0.0, 0.0, 0.0, 0.0, 0.0, 0.0, 1.6989582825641096E9, 0.0, 2023-11-02 16:51:22.564
77.0, -187500.02235174447, 187500.0, 2662.00335764925, 49930.243185787585, 187500.0, 187500.0, -187500.02235174447, 36027.793410753424, -0.094, 0.97, 0.04, 192.0, 0.0, 0.0, 0.0, 0.0, 0.0, 0.0, 0.0, 0.0, 0.0, 1.6989582825641215E9, 0.0, 2023-11-02 16:51:22.564
78.0, -187500.02235174447, 187500.0, 2660.3046250706466, 49915.491034447085, 187500.0, 187500.0, -187500.02235174447, 36026.005271197, -0.094, 0.97, 0.04, 192.0, 0.0, 0.0, 0.0, 0.0, 0.0, 0.0, 0.0, 0.0, 0.0, 1.6989582825641336E9, 0.0, 2023-11-02 16:51:22.564
79.0, -187500.02235174447, 187500.0, 2655.2754825682027, 49936.814598657445, 187500.0, 187500.0, -187500.02235174447, 36022.16077115068, -0.094, 0.97, 0.04, 192.0, 0.0, 0.0, 0.0, 0.0, 0.0, 0.0, 0.0, 0.0, 0.0, 1.6989582825641448E9, 0.0, 2023-11-02 16:51:22.564
80.0, -187500.02235174447, 187500.0, 2654.4708197678115, 49958.272273334536, 187500.0, 187500.0, -187500.02235174447, 36021.1996461391, -0.094, 0.97, 0.04, 192.0, 0.0, 0.0, 0.0, 0.0, 0.0, 0.0, 0.0, 0.0, 0.0, 1.6989582825641575E9, 0.0, 2023-11-02 16:51:22.564
81.0, -187500.02235174447, 187500.0, 2652.995604633761, 49948.01282262956, 187500.0, 187500.0, -187500.02235174447, 36019.03152692694, -0.094, 0.97, 0.04, 192.0, 0.0, 0.0, 0.0, 0.0, 0.0, 0.0, 0.0, 0.0, 0.0, 1.69895828256417E9, 0.0, 2023-11-02 16:51:22.564
82.0, -187500.02235174447, 187500.0, 2652.056831366638, 49934.62412770082, 187500.0, 187500.0, -187500.02235174447, 36017.578663537344, -0.094, 0.97, 0.04, 192.0, 0.0, 0.0, 0.0, 0.0, 0.0, 0.0, 0.0, 0.0, 0.0, 1.698958282564181E9, 0.0, 2023-11-02 16:51:22.564
83.0, -187500.02235174447, 187500.0, 2647.9888138757724, 49942.51429349355, 187500.0, 187500.0, -187500.02235174447, 36012.750686735, -0.094, 0.97, 0.04, 192.0, 0.0, 0.0, 0.0, 0.0, 0.0, 0.0, 0.0, 0.0, 0.0, 1.6989582825641935E9, 0.0, 2023-11-02 16:51:22.564
84.0, -187500.02235174447, 187500.0, 2651.386279032979, 49960.41804080225, 187500.0, 187500.0, -187500.02235174447, 36017.82453272635, -0.094, 0.97, 0.04, 192.0, 0.0, 0.0, 0.0, 0.0, 0.0, 0.0, 0.0, 0.0, 0.0, 1.6989582825642092E9, 0.0, 2023-11-02 16:51:22.564
85.0, -187500.02235174447, 187500.0, 2656.638938979976, 49953.64546223229, 187500.0, 187500.0, -187500.02235174447, 36022.56310255088, -0.094, 0.98, 0.034, 192.0, 253.0, 16.0, 30.0, 160.0, 1.0, 16.0, 0.0, 0.0, 0.0, 1.6989582825642238E9, 0.0, 2023-11-02 16:51:22.564
86.0, -187500.02235174447, 187500.0, 2662.9421309163727, 49937.06046784645, 187500.0, 187500.0, -187500.02235174447, 36028.12868692025, -0.094, 0.98, 0.034, 192.0, 0.0, 0.0, 0.0, 0.0, 0.0, 0.0, 0.0, 0.0, 0.0, 1.6989582825642388E9, 0.0, 2023-11-02 16:51:22.564
87.0, -187500.02235174447, 187500.0, 2670.608779264543, 49954.22660758813, 187500.0, 187500.0, -187500.02235174447, 36036.91292249119, -0.094, 0.98, 0.034, 192.0, 0.0, 0.0, 0.0, 0.0, 0.0, 0.0, 0.0, 0.0, 0.0, 1.6989582825642548E9, 0.0, 2023-11-02 16:51:22.564
88.0, -187500.02235174447, 187500.0, 2666.026671651205, 49987.843631248914, 187500.0, 187500.0, -187500.02235174447, 36034.61069281229, -0.094, 0.98, 0.034, 192.0, 0.0, 0.0, 0.0, 0.0, 0.0, 0.0, 0.0, 0.0, 0.0, 1.698958282564284E9, 0.0, 2023-11-02 16:51:22.564
89.0, -187500.02235174447, 187500.0, 2667.5242385297106, 49988.0000934601, 187500.0, 187500.0, -187500.02235174447, 36035.057727701394, -0.094, 0.98, 0.034, 192.0, 0.0, 0.0, 0.0, 0.0, 0.0, 0.0, 0.0, 0.0, 0.0, 1.698958282564352E9, 0.0, 2023-11-02 16:51:22.564
90.0, -187500.02235174447, 187500.0, 2674.676796755409, 49974.544343298, 187500.0, 187500.0, -187500.02235174447, 36041.09269870433, -0.094, 0.98, 0.034, 192.0, 0.0, 0.0, 0.0, 0.0, 0.0, 0.0, 0.0, 0.0, 0.0, 1.6989582825643651E9, 0.0, 2023-11-02 16:51:22.564
91.0, -187500.02235174447, 187500.0, 2674.5650380331326, 49981.56279105697, 187500.0, 187500.0, -187500.02235174447, 36040.869181259775, -0.094, 0.98, 0.034, 192.0, 0.0, 0.0, 0.0, 0.0, 0.0, 0.0, 0.0, 0.0, 0.0, 1.698958282564376E9, 0.0, 2023-11-02 16:51:22.564
92.0, -187500.02235174447, 187500.0, 2671.9498839318617, 50001.88052676684, 187500.0, 187500.0, -187500.02235174447, 36037.47171610257, -0.094, 0.98, 0.034, 192.0, 0.0, 0.0, 0.0, 0.0, 0.0, 0.0, 0.0, 0.0, 0.0, 1.6989582825643888E9, 0.0, 2023-11-02 16:51:22.564
93.0, -187500.02235174447, 187500.0, 2671.6593112539426, 50009.860099537385, 187500.0, 187500.0, -187500.02235174447, 36037.06938470237, -0.094, 0.98, 0.034, 192.0, 0.0, 0.0, 0.0, 0.0, 0.0, 0.0, 0.0, 0.0, 0.0, 1.698958282564401E9, 0.0, 2023-11-02 16:51:22.564
94.0, -187500.02235174447, 187500.0, 2671.771069976219, 49990.503488839095, 187500.0, 187500.0, -187500.02235174447, 36036.398832368715, -0.094, 0.98, 0.034, 192.0, 0.0, 0.0, 0.0, 0.0, 0.0, 0.0, 0.0, 0.0, 0.0, 1.6989582825644157E9, 0.0, 2023-11-02 16:51:22.564
95.0, -187500.02235174447, 187500.0, 2674.2074101218477, 49988.42477660475, 187500.0, 187500.0, -187500.02235174447, 36036.398832368715, -0.088, 0.984, 0.036000000000000004, 192.0, 253.0, 64.0, 30.0, 192.0, 1.0, 32.0, 0.0, 0.0, 0.0, 1.6989582825644336E9, 0.0, 2023-11-02 16:51:22.564
96.0, -187500.02235174447, 187500.0, 2673.4027473214564, 50012.877585038856, 187500.0, 187500.0, -187500.02235174447, 36036.108259690795, -0.088, 0.984, 0.036000000000000004, 192.0, 0.0, 0.0, 0.0, 0.0, 0.0, 0.0, 0.0, 0.0, 0.0, 1.6989582825644503E9, 0.0, 2023-11-02 16:51:22.564
97.0, -187500.02235174447, 187500.0, 2667.032500151694, 50021.0583235095, 187500.0, 187500.0, -187500.02235174447, 36031.45909684409, -0.088, 0.984, 0.036000000000000004, 192.0, 0.0, 0.0, 0.0, 0.0, 0.0, 0.0, 0.0, 0.0, 0.0, 1.6989582825644665E9, 0.0, 2023-11-02 16:51:22.564
98.0, -187500.02235174447, 187500.0, 2663.9256076724064, 49993.52097434056, 187500.0, 187500.0, -187500.02235174447, 36027.726355520055, -0.088, 0.984, 0.036000000000000004, 192.0, 0.0, 0.0, 0.0, 0.0, 0.0, 0.0, 0.0, 0.0, 0.0, 1.698958282564482E9, 0.0, 2023-11-02 16:51:22.564
99.0, -187500.02235174447, 187500.0, 2667.747755974264, 49974.99137818711, 187500.0, 187500.0, -187500.02235174447, 36030.29680613241, -0.088, 0.984, 0.036000000000000004, 192.0, 0.0, 0.0, 0.0, 0.0, 0.0, 0.0, 0.0, 0.0, 0.0, 1.6989582825644994E9, 0.0, 2023-11-02 16:51:22.564
100.0, -187500.02235174447, 187500.0, 2663.81384895013, 49999.04185522102, 187500.0, 187500.0, -187500.02235174447, 36025.6029397968, -0.088, 0.984, 0.036000000000000004, 192.0, 0.0, 0.0, 0.0, 0.0, 0.0, 0.0, 0.0, 0.0, 0.0, 1.6989582825645232E9, 0.0, 2023-11-02 16:51:22.564
101.0, -187500.02235174447, 187500.0, 2658.829409936596, 50015.40333216231, 187500.0, 187500.0, -187500.02235174447, 36018.96447169357, -0.088, 0.984, 0.036000000000000004, 192.0, 0.0, 0.0, 0.0, 0.0, 0.0, 0.0, 0.0, 0.0, 0.0, 1.6989582825645404E9, 0.0, 2023-11-02 16:51:22.564
102.0, -187500.02235174447, 187500.0, 2660.6622529819315, 49990.97287547265, 187500.0, 187500.0, -187500.02235174447, 36018.40567808219, -0.088, 0.984, 0.036000000000000004, 192.0, 0.0, 0.0, 0.0, 0.0, 0.0, 0.0, 0.0, 0.0, 0.0, 1.6989582825645552E9, 0.0, 2023-11-02 16:51:22.564
103.0, -187500.02235174447, 187500.0, 2663.456221038845, 49972.48798280812, 187500.0, 187500.0, -187500.02235174447, 36021.713736261576, -0.088, 0.984, 0.036000000000000004, 192.0, 0.0, 0.0, 0.0, 0.0, 0.0, 0.0, 0.0, 0.0, 0.0, 1.6989582825645776E9, 0.0, 2023-11-02 16:51:22.564
104.0, -187500.02235174447, 187500.0, 2666.294892584669, 49993.163346429275, 187500.0, 187500.0, -187500.02235174447, 36025.29001537443, -0.088, 0.984, 0.036000000000000004, 192.0, 0.0, 0.0, 0.0, 0.0, 0.0, 0.0, 0.0, 0.0, 0.0, 1.6989582825649045E9, 0.0, 2023-11-02 16:51:22.564
105.0, -187500.02235174447, 187500.0, 2656.6612907244316, 50015.42568390676, 187500.0, 187500.0, -187500.02235174447, 36016.259910614484, -0.088, 0.984, 0.034, 192.0, 253.0, 64.0, 30.0, 192.0, 1.0, 16.0, 0.0, 0.0, 0.0, 1.6989582825649283E9, 0.0, 2023-11-02 16:51:22.564
106.0, -187500.02235174447, 187500.0, 2661.9586541603394, 49994.549154585504, 187500.0, 187500.0, -187500.02235174447, 36020.03735542743, -0.088, 0.984, 0.034, 192.0, 0.0, 0.0, 0.0, 0.0, 0.0, 0.0, 0.0, 0.0, 0.0, 1.698958282564947E9, 0.0, 2023-11-02 16:51:22.564
107.0, -187500.02235174447, 187500.0, 2661.511619271233, 49973.024424675044, 187500.0, 187500.0, -187500.02235174447, 36019.88089321624, -0.088, 0.984, 0.034, 192.0, 0.0, 0.0, 0.0, 0.0, 0.0, 0.0, 0.0, 0.0, 0.0, 1.6989582825649912E9, 0.0, 2023-11-02 16:51:22.564
108.0, -187500.02235174447, 187500.0, 2662.9197791719175, 49982.523916068545, 187500.0, 187500.0, -187500.02235174447, 36021.847846728306, -0.088, 0.984, 0.034, 192.0, 0.0, 0.0, 0.0, 0.0, 0.0, 0.0, 0.0, 0.0, 0.0, 1.6989582825650127E9, 0.0, 2023-11-02 16:51:22.565
109.0, -187500.02235174447, 187500.0, 2659.611720992532, 50015.53744262904, 187500.0, 187500.0, -187500.02235174447, 36018.22686412655, -0.088, 0.984, 0.034, 192.0, 0.0, 0.0, 0.0, 0.0, 0.0, 0.0, 0.0, 0.0, 0.0, 1.6989582825650375E9, 0.0, 2023-11-02 16:51:22.565
110.0, -187500.02235174447, 187500.0, 2659.7905349481744, 50006.61909659137, 187500.0, 187500.0, -187500.02235174447, 36016.59518678131, -0.088, 0.984, 0.034, 192.0, 0.0, 0.0, 0.0, 0.0, 0.0, 0.0, 0.0, 0.0, 0.0, 1.698958282565048E9, 0.0, 2023-11-02 16:51:22.565
111.0, -187500.02235174447, 187500.0, 2665.4678780398226, 49984.66968353626, 187500.0, 187500.0, -187500.02235174447, 36020.46203857208, -0.088, 0.984, 0.034, 192.0, 0.0, 0.0, 0.0, 0.0, 0.0, 0.0, 0.0, 0.0, 0.0, 1.6989582825650744E9, 0.0, 2023-11-02 16:51:22.565
112.0, -187500.02235174447, 187500.0, 2667.591293763077, 49992.49279409561, 187500.0, 187500.0, -187500.02235174447, 36022.27252987296, -0.088, 0.984, 0.034, 192.0, 0.0, 0.0, 0.0, 0.0, 0.0, 0.0, 0.0, 0.0, 0.0, 1.6989582825650845E9, 0.0, 2023-11-02 16:51:22.565
113.0, -187500.02235174447, 187500.0, 2665.646691995465, 50018.91255604179, 187500.0, 187500.0, -187500.02235174447, 36020.663204272176, -0.088, 0.984, 0.034, 192.0, 0.0, 0.0, 0.0, 0.0, 0.0, 0.0, 0.0, 0.0, 0.0, 1.6989582825650942E9, 0.0, 2023-11-02 16:51:22.565
114.0, -187500.02235174447, 187500.0, 2665.1102501285377, 50014.88924203983, 187500.0, 187500.0, -187500.02235174447, 36019.85854147179, -0.088, 0.984, 0.034, 192.0, 0.0, 0.0, 0.0, 0.0, 0.0, 0.0, 0.0, 0.0, 0.0, 1.6989582825651042E9, 0.0, 2023-11-02 16:51:22.565
115.0, -187500.02235174447, 187500.0, 2674.140354888482, 49988.91651498277, 187500.0, 187500.0, -187500.02235174447, 36029.38038460975, -0.088, 0.974, 0.032, 192.0, 253.0, 64.0, 30.0, 112.0, 1.0, 0.0, 0.0, 0.0, 0.0, 1.698958282565114E9, 0.0, 2023-11-02 16:51:22.565
116.0, -187500.02235174447, 187500.0, 2674.7885554776853, 49992.872773751355, 187500.0, 187500.0, -187500.02235174447, 36031.12382067726, -0.088, 0.974, 0.032, 192.0, 0.0, 0.0, 0.0, 0.0, 0.0, 0.0, 0.0, 0.0, 0.0, 1.6989582825651264E9, 0.0, 2023-11-02 16:51:22.565
117.0, -187500.02235174447, 187500.0, 2672.0839943985934, 50018.35376243041, 187500.0, 187500.0, -187500.02235174447, 36027.860465986785, -0.088, 0.974, 0.032, 192.0, 0.0, 0.0, 0.0, 0.0, 0.0, 0.0, 0.0, 0.0, 0.0, 1.6989582825651364E9, 0.0, 2023-11-02 16:51:22.565
118.0, -187500.02235174447, 187500.0, 2668.3736048190126, 50020.03014326455, 187500.0, 187500.0, -187500.02235174447, 36025.55823630789, -0.088, 0.974, 0.032, 192.0, 0.0, 0.0, 0.0, 0.0, 0.0, 0.0, 0.0, 0.0, 0.0, 1.698958282565146E9, 0.0, 2023-11-02 16:51:22.565
119.0, -187500.02235174447, 187500.0, 2669.7594129752415, 49996.06907320846, 187500.0, 187500.0, -187500.02235174447, 36026.72052701956, -0.088, 0.974, 0.032, 192.0, 0.0, 0.0, 0.0, 0.0, 0.0, 0.0, 0.0, 0.0, 0.0, 1.6989582825651982E9, 0.0, 2023-11-02 16:51:22.565
120.0, -187500.02235174447, 187500.0, 2673.805078721652, 49993.31980864046, 187500.0, 187500.0, -187500.02235174447, 36028.843942742824, -0.088, 0.974, 0.032, 192.0, 0.0, 0.0, 0.0, 0.0, 0.0, 0.0, 0.0, 0.0, 0.0, 1.698958282565209E9, 0.0, 2023-11-02 16:51:22.565
121.0, -187500.02235174447, 187500.0, 2671.5028490427553, 50022.04180026553, 187500.0, 187500.0, -187500.02235174447, 36026.49700957501, -0.088, 0.974, 0.032, 192.0, 0.0, 0.0, 0.0, 0.0, 0.0, 0.0, 0.0, 0.0, 0.0, 1.6989582825652196E9, 0.0, 2023-11-02 16:51:22.565
122.0, -187500.02235174447, 187500.0, 2666.0490233956607, 50029.440227680236, 187500.0, 187500.0, -187500.02235174447, 36020.97612869455, -0.088, 0.974, 0.032, 192.0, 0.0, 0.0, 0.0, 0.0, 0.0, 0.0, 0.0, 0.0, 0.0, 1.6989582825652297E9, 0.0, 2023-11-02 16:51:22.565
123.0, -187500.02235174447, 187500.0, 2672.709843243342, 50002.70754131169, 187500.0, 187500.0, -187500.02235174447, 36024.79827699641, -0.088, 0.974, 0.032, 192.0, 0.0, 0.0, 0.0, 0.0, 0.0, 0.0, 0.0, 0.0, 0.0, 1.69895828256524E9, 0.0, 2023-11-02 16:51:22.565
124.0, -187500.02235174447, 187500.0, 2676.643750267476, 49990.86111675038, 187500.0, 187500.0, -187500.02235174447, 36025.334718863334, -0.088, 0.974, 0.032, 192.0, 0.0, 0.0, 0.0, 0.0, 0.0, 0.0, 0.0, 0.0, 0.0, 1.6989582825652494E9, 0.0, 2023-11-02 16:51:22.565
125.0, -187500.02235174447, 187500.0, 2667.635997251987, 50012.54230887203, 187500.0, 187500.0, -187500.02235174447, 36016.394021081214, -0.09, 0.98, 0.034, 192.0, 253.0, 48.0, 30.0, 160.0, 1.0, 16.0, 0.0, 0.0, 0.0, 1.6989582825652592E9, 0.0, 2023-11-02 16:51:22.565
126.0, -187500.02235174447, 187500.0, 2664.4620495393337, 50034.894053327334, 187500.0, 187500.0, -187500.02235174447, 36012.68363150163, -0.09, 0.98, 0.034, 192.0, 0.0, 0.0, 0.0, 0.0, 0.0, 0.0, 0.0, 0.0, 0.0, 1.6989582825652697E9, 0.0, 2023-11-02 16:51:22.565
127.0, -187500.02235174447, 187500.0, 2665.043194895172, 50019.69486709772, 187500.0, 187500.0, -187500.02235174447, 36012.52716929044, -0.09, 0.98, 0.034, 192.0, 0.0, 0.0, 0.0, 0.0, 0.0, 0.0, 0.0, 0.0, 0.0, 1.69895828256528E9, 0.0, 2023-11-02 16:51:22.565
128.0, -187500.02235174447, 187500.0, 2667.4348315518896, 50005.7026750687, 187500.0, 187500.0, -187500.02235174447, 36012.86244545728, -0.09, 0.98, 0.034, 192.0, 0.0, 0.0, 0.0, 0.0, 0.0, 0.0, 0.0, 0.0, 0.0, 1.6989582825652895E9, 0.0, 2023-11-02 16:51:22.565
129.0, -187500.02235174447, 187500.0, 2660.818715193119, 50026.40039043431, 187500.0, 187500.0, -187500.02235174447, 36006.38043956523, -0.09, 0.98, 0.034, 192.0, 0.0, 0.0, 0.0, 0.0, 0.0, 0.0, 0.0, 0.0, 0.0, 1.6989582825652997E9, 0.0, 2023-11-02 16:51:22.565
130.0, -187500.02235174447, 187500.0, 2658.3823750474903, 50038.22446325117, 187500.0, 187500.0, -187500.02235174447, 36003.43000929714, -0.09, 0.98, 0.034, 192.0, 0.0, 0.0, 0.0, 0.0, 0.0, 0.0, 0.0, 0.0, 0.0, 1.6989582825653095E9, 0.0, 2023-11-02 16:51:22.565
131.0, -187500.02235174447, 187500.0, 2662.226875093803, 50023.85229156641, 187500.0, 187500.0, -187500.02235174447, 36007.94506167711, -0.09, 0.98, 0.034, 192.0, 0.0, 0.0, 0.0, 0.0, 0.0, 0.0, 0.0, 0.0, 0.0, 1.698958282565323E9, 0.0, 2023-11-02 16:51:22.565
132.0, -187500.02235174447, 187500.0, 2660.4387355373783, 50001.36643664437, 187500.0, 187500.0, -187500.02235174447, 36004.994631409005, -0.09, 0.98, 0.034, 192.0, 0.0, 0.0, 0.0, 0.0, 0.0, 0.0, 0.0, 0.0, 0.0, 1.698958282565333E9, 0.0, 2023-11-02 16:51:22.565
133.0, -187500.02235174447, 187500.0, 2669.0218054082166, 50016.34210542943, 187500.0, 187500.0, -187500.02235174447, 36010.671974500656, -0.09, 0.98, 0.034, 192.0, 0.0, 0.0, 0.0, 0.0, 0.0, 0.0, 0.0, 0.0, 0.0, 1.6989582825653427E9, 0.0, 2023-11-02 16:51:22.565
134.0, -187500.02235174447, 187500.0, 2668.6641774969316, 50049.221521523184, 187500.0, 187500.0, -187500.02235174447, 36008.83913145532, -0.092, 0.978, 0.038, 192.0, 253.0, 32.0, 30.0, 144.0, 1.0, 48.0, 0.0, 0.0, 0.0, 1.6989582825653975E9, 0.0, 2023-11-02 16:51:22.565
135.0, -187500.02235174447, 187500.0, 2667.8595146965404, 50052.32841400247, 187500.0, 187500.0, -187500.02235174447, 36007.07334364335, -0.092, 0.978, 0.038, 192.0, 0.0, 0.0, 0.0, 0.0, 0.0, 0.0, 0.0, 0.0, 0.0, 1.6989582825654092E9, 0.0, 2023-11-02 16:51:22.565
136.0, -187500.02235174447, 187500.0, 2671.771069976219, 50035.34108821644, 187500.0, 187500.0, -187500.02235174447, 36010.42610531165, -0.092, 0.978, 0.038, 192.0, 0.0, 0.0, 0.0, 0.0, 0.0, 0.0, 0.0, 0.0, 0.0, 1.6989582825654192E9, 0.0, 2023-11-02 16:51:22.565
137.0, -187500.02235174447, 187500.0, 2676.129660145004, 50045.95816683271, 187500.0, 187500.0, -187500.02235174447, 36013.6000530243, -0.092, 0.978, 0.038, 192.0, 0.0, 0.0, 0.0, 0.0, 0.0, 0.0, 0.0, 0.0, 0.0, 1.6989582825654287E9, 0.0, 2023-11-02 16:51:22.565
138.0, -187500.02235174447, 187500.0, 2671.6369595094875, 50073.964902635205, 187500.0, 187500.0, -187500.02235174447, 36008.3473930773, -0.092, 0.978, 0.038, 192.0, 0.0, 0.0, 0.0, 0.0, 0.0, 0.0, 0.0, 0.0, 0.0, 1.6989582825654387E9, 0.0, 2023-11-02 16:51:22.565
139.0, -187500.02235174447, 187500.0, 2676.5766950341103, 50069.561608977514, 187500.0, 187500.0, -187500.02235174447, 36011.94602393461, -0.092, 0.978, 0.038, 192.0, 0.0, 0.0, 0.0, 0.0, 0.0, 0.0, 0.0, 0.0, 0.0, 1.6989582825654483E9, 0.0, 2023-11-02 16:51:22.565
140.0, -187500.02235174447, 187500.0, 2673.7156717438306, 50047.8133616225, 187500.0, 187500.0, -187500.02235174447, 36008.12387563275, -0.092, 0.978, 0.038, 192.0, 0.0, 0.0, 0.0, 0.0, 0.0, 0.0, 0.0, 0.0, 0.0, 1.6989582825654583E9, 0.0, 2023-11-02 16:51:22.565
141.0, -187500.02235174447, 187500.0, 2673.805078721652, 50037.15157951732, 187500.0, 187500.0, -187500.02235174447, 36006.671012243154, -0.092, 0.978, 0.038, 192.0, 0.0, 0.0, 0.0, 0.0, 0.0, 0.0, 0.0, 0.0, 0.0, 1.6989582825654683E9, 0.0, 2023-11-02 16:51:22.565
142.0, -187500.02235174447, 187500.0, 2668.261846096736, 50062.856085640924, 187500.0, 187500.0, -187500.02235174447, 36001.373648807246, -0.092, 0.978, 0.038, 192.0, 0.0, 0.0, 0.0, 0.0, 0.0, 0.0, 0.0, 0.0, 0.0, 1.698958282565478E9, 0.0, 2023-11-02 16:51:22.565
143.0, -187500.02235174447, 187500.0, 2667.658348996443, 50070.63449271137, 187500.0, 187500.0, -187500.02235174447, 36001.84303544081, -0.092, 0.978, 0.038, 192.0, 0.0, 0.0, 0.0, 0.0, 0.0, 0.0, 0.0, 0.0, 0.0, 1.698958282565488E9, 0.0, 2023-11-02 16:51:22.565
144.0, -187500.02235174447, 187500.0, 2671.0558141536494, 50056.37407974888, 187500.0, 187500.0, -187500.02235174447, 36006.201625609596, -0.092, 0.982, 0.036000000000000004, 192.0, 253.0, 32.0, 30.0, 176.0, 1.0, 32.0, 0.0, 0.0, 0.0, 1.698958282565499E9, 0.0, 2023-11-02 16:51:22.565
145.0, -187500.02235174447, 187500.0, 2670.4970205422665, 50058.98923385015, 187500.0, 187500.0, -187500.02235174447, 36006.60395700979, -0.092, 0.982, 0.036000000000000004, 192.0, 0.0, 0.0, 0.0, 0.0, 0.0, 0.0, 0.0, 0.0, 0.0, 1.698958282565509E9, 0.0, 2023-11-02 16:51:22.565
146.0, -187500.02235174447, 187500.0, 2668.0830321410936, 50087.93474291977, 187500.0, 187500.0, -187500.02235174447, 36005.75459072049, -0.092, 0.982, 0.036000000000000004, 192.0, 0.0, 0.0, 0.0, 0.0, 0.0, 0.0, 0.0, 0.0, 0.0, 1.6989582825655196E9, 0.0, 2023-11-02 16:51:22.565
147.0, -187500.02235174447, 187500.0, 2663.5456280166663, 50092.695664488754, 187500.0, 187500.0, -187500.02235174447, 36001.373648807246, -0.092, 0.982, 0.036000000000000004, 192.0, 0.0, 0.0, 0.0, 0.0, 0.0, 0.0, 0.0, 0.0, 0.0, 1.698958282565529E9, 0.0, 2023-11-02 16:51:22.565
148.0, -187500.02235174447, 187500.0, 2672.709843243342, 50070.70154794474, 187500.0, 187500.0, -187500.02235174447, 36010.26964310046, -0.092, 0.982, 0.036000000000000004, 192.0, 0.0, 0.0, 0.0, 0.0, 0.0, 0.0, 0.0, 0.0, 0.0, 1.6989582825655408E9, 0.0, 2023-11-02 16:51:22.565
149.0, -187500.02235174447, 187500.0, 2673.4698025548223, 50064.55481821953, 187500.0, 187500.0, -187500.02235174447, 36010.671974500656, -0.092, 0.982, 0.036000000000000004, 192.0, 0.0, 0.0, 0.0, 0.0, 0.0, 0.0, 0.0, 0.0, 0.0, 1.6989582825655513E9, 0.0, 2023-11-02 16:51:22.565
150.0, -187500.02235174447, 187500.0, 2679.325959602113, 50086.07954812999, 187500.0, 187500.0, -187500.02235174447, 36016.14815189221, -0.092, 0.982, 0.036000000000000004, 192.0, 0.0, 0.0, 0.0, 0.0, 0.0, 0.0, 0.0, 0.0, 0.0, 1.6989582825655775E9, 0.0, 2023-11-02 16:51:22.565
151.0, -187500.02235174447, 187500.0, 2678.8789247130067, 50113.23691764318, 187500.0, 187500.0, -187500.02235174447, 36016.058744914386, -0.092, 0.982, 0.036000000000000004, 192.0, 0.0, 0.0, 0.0, 0.0, 0.0, 0.0, 0.0, 0.0, 0.0, 1.698958282983225E9, 0.0, 2023-11-02 16:51:22.983
152.0, -187500.02235174447, 187500.0, 2673.894485699473, 50098.61887676941, 187500.0, 187500.0, -187500.02235174447, 36011.431933812135, -0.092, 0.982, 0.036000000000000004, 192.0, 0.0, 0.0, 0.0, 0.0, 0.0, 0.0, 0.0, 0.0, 0.0, 1.6989582829833543E9, 0.0, 2023-11-02 16:51:22.983
153.0, -187500.02235174447, 187500.0, 2676.487288056289, 50079.083452115476, 187500.0, 187500.0, -187500.02235174447, 36012.92950069064, -0.092, 0.982, 0.036000000000000004, 192.0, 0.0, 0.0, 0.0, 0.0, 0.0, 0.0, 0.0, 0.0, 0.0, 1.6989582829833672E9, 0.0, 2023-11-02 16:51:22.983
154.0, -187500.02235174447, 187500.0, 2674.4309275664004, 50090.616952254415, 187500.0, 187500.0, -187500.02235174447, 36009.956718678084, -0.092, 0.982, 0.036000000000000004, 192.0, 253.0, 32.0, 30.0, 176.0, 1.0, 32.0, 0.0, 0.0, 0.0, 1.6989582829833827E9, 0.0, 2023-11-02 16:51:22.983
155.0, -187500.02235174447, 187500.0, 2674.38622407749, 50112.36519960943, 187500.0, 187500.0, -187500.02235174447, 36009.17440762215, -0.092, 0.982, 0.036000000000000004, 192.0, 0.0, 0.0, 0.0, 0.0, 0.0, 0.0, 0.0, 0.0, 0.0, 1.698958282983398E9, 0.0, 2023-11-02 16:51:22.983
156.0, -187500.02235174447, 187500.0, 2671.6369595094875, 50107.71603676272, 187500.0, 187500.0, -187500.02235174447, 36007.520378532456, -0.092, 0.982, 0.036000000000000004, 192.0, 0.0, 0.0, 0.0, 0.0, 0.0, 0.0, 0.0, 0.0, 0.0, 1.6989582829834094E9, 0.0, 2023-11-02 16:51:22.983
157.0, -187500.02235174447, 187500.0, 2676.6213985230206, 50083.129117861885, 187500.0, 187500.0, -187500.02235174447, 36010.96254717858, -0.092, 0.982, 0.036000000000000004, 192.0, 0.0, 0.0, 0.0, 0.0, 0.0, 0.0, 0.0, 0.0, 0.0, 1.698958282983427E9, 0.0, 2023-11-02 16:51:22.983
158.0, -187500.02235174447, 187500.0, 2678.5212968017217, 50098.95415293624, 187500.0, 187500.0, -187500.02235174447, 36010.96254717858, -0.092, 0.982, 0.036000000000000004, 192.0, 0.0, 0.0, 0.0, 0.0, 0.0, 0.0, 0.0, 0.0, 0.0, 1.6989582829834404E9, 0.0, 2023-11-02 16:51:22.983
159.0, -187500.02235174447, 187500.0, 2681.4046718364566, 50125.3292113935, 187500.0, 187500.0, -187500.02235174447, 36012.99655592401, -0.092, 0.982, 0.036000000000000004, 192.0, 0.0, 0.0, 0.0, 0.0, 0.0, 0.0, 0.0, 0.0, 0.0, 1.6989582829834547E9, 0.0, 2023-11-02 16:51:22.983
160.0, -187500.02235174447, 187500.0, 2680.5329538026995, 50121.97644972521, 187500.0, 187500.0, -187500.02235174447, 36012.84009371282, -0.092, 0.982, 0.036000000000000004, 192.0, 0.0, 0.0, 0.0, 0.0, 0.0, 0.0, 0.0, 0.0, 0.0, 1.698958282983467E9, 0.0, 2023-11-02 16:51:22.983
161.0, -187500.02235174447, 187500.0, 2682.030520681205, 50102.61983902691, 187500.0, 187500.0, -187500.02235174447, 36015.16467513617, -0.092, 0.982, 0.036000000000000004, 192.0, 0.0, 0.0, 0.0, 0.0, 0.0, 0.0, 0.0, 0.0, 0.0, 1.6989582829834802E9, 0.0, 2023-11-02 16:51:22.983
162.0, -187500.02235174447, 187500.0, 2683.1034044150597, 50113.99687695466, 187500.0, 187500.0, -187500.02235174447, 36015.008212924986, -0.092, 0.982, 0.036000000000000004, 192.0, 0.0, 0.0, 0.0, 0.0, 0.0, 0.0, 0.0, 0.0, 0.0, 1.6989582829834976E9, 0.0, 2023-11-02 16:51:22.983
163.0, -187500.02235174447, 187500.0, 2682.969293948328, 50136.10275222096, 187500.0, 187500.0, -187500.02235174447, 36014.650585013704, -0.092, 0.982, 0.036000000000000004, 192.0, 0.0, 0.0, 0.0, 0.0, 0.0, 0.0, 0.0, 0.0, 0.0, 1.6989582829835107E9, 0.0, 2023-11-02 16:51:22.983
164.0, -187500.02235174447, 187500.0, 2681.3376166030907, 50130.35835389595, 187500.0, 187500.0, -187500.02235174447, 36014.31530884687, -0.088, 0.984, 0.038, 192.0, 253.0, 64.0, 30.0, 192.0, 1.0, 48.0, 0.0, 0.0, 0.0, 1.6989582829835212E9, 0.0, 2023-11-02 16:51:22.983
165.0, -187500.02235174447, 187500.0, 2682.030520681205, 50109.124196663404, 187500.0, 187500.0, -187500.02235174447, 36013.42123906866, -0.088, 0.984, 0.038, 192.0, 0.0, 0.0, 0.0, 0.0, 0.0, 0.0, 0.0, 0.0, 0.0, 1.6989582829835966E9, 0.0, 2023-11-02 16:51:22.983
166.0, -187500.02235174447, 187500.0, 2687.4843463283, 50105.30204836155, 187500.0, 187500.0, -187500.02235174447, 36017.13162864824, -0.088, 0.984, 0.038, 192.0, 0.0, 0.0, 0.0, 0.0, 0.0, 0.0, 0.0, 0.0, 0.0, 1.6989582829836085E9, 0.0, 2023-11-02 16:51:22.983
226.0, -187500.02235174447, 187500.0, 2664.260883839236, 50114.5780223105, 187500.0, 187500.0, -187500.02235174447, 35818.93871056303, -0.088, 0.984, 0.038, 192.0, 0.0, 0.0, 0.0, 0.0, 0.0, 0.0, 0.0, 0.0, 0.0, 1.698958282983632E9, 0.0, 2023-11-02 16:51:22.983
227.0, -187500.02235174447, 187500.0, 2657.6894709693756, 50140.6848598343, 187500.0, 187500.0, -187500.02235174447, 35811.38382093714, -0.088, 0.984, 0.038, 192.0, 0.0, 0.0, 0.0, 0.0, 0.0, 0.0, 0.0, 0.0, 0.0, 1.6989582829836438E9, 0.0, 2023-11-02 16:51:22.983
228.0, -187500.02235174447, 187500.0, 2663.2327035942917, 50122.15526368085, 187500.0, 187500.0, -187500.02235174447, 35815.451838428, -0.088, 0.974, 0.026000000000000002, 192.0, 253.0, 64.0, 30.0, 112.0, 0.0, 208.0, 0.0, 0.0, 0.0, 1.6989582829836593E9, 0.0, 2023-11-02 16:51:22.983
229.0, -187500.02235174447, 187500.0, 2664.8643809395294, 50106.66550477332, 187500.0, 187500.0, -187500.02235174447, 35816.74823960641, -0.088, 0.974, 0.026000000000000002, 192.0, 0.0, 0.0, 0.0, 0.0, 0.0, 0.0, 0.0, 0.0, 0.0, 1.6989582829836724E9, 0.0, 2023-11-02 16:51:22.983
230.0, -187500.02235174447, 187500.0, 2662.9644826608283, 50115.24857464416, 187500.0, 187500.0, -187500.02235174447, 35813.68605061604, -0.088, 0.974, 0.026000000000000002, 192.0, 0.0, 0.0, 0.0, 0.0, 0.0, 0.0, 0.0, 0.0, 0.0, 1.6989582829836843E9, 0.0, 2023-11-02 16:51:22.983
231.0, -187500.02235174447, 187500.0, 2650.4698575103116, 50138.49438887768, 187500.0, 187500.0, -187500.02235174447, 35799.336230675726, -0.088, 0.974, 0.026000000000000002, 192.0, 0.0, 0.0, 0.0, 0.0, 0.0, 0.0, 0.0, 0.0, 0.0, 1.698958282983696E9, 0.0, 2023-11-02 16:51:22.983
232.0, -187500.02235174447, 187500.0, 2651.609796477532, 50125.23980441568, 187500.0, 187500.0, -187500.02235174447, 35797.77160856385, -0.088, 0.974, 0.026000000000000002, 192.0, 0.0, 0.0, 0.0, 0.0, 0.0, 0.0, 0.0, 0.0, 0.0, 1.6989582829837143E9, 0.0, 2023-11-02 16:51:22.983
233.0, -187500.02235174447, 187500.0, 2659.4329070368894, 50099.557650036535, 187500.0, 187500.0, -187500.02235174447, 35804.96887027846, -0.088, 0.974, 0.026000000000000002, 192.0, 0.0, 0.0, 0.0, 0.0, 0.0, 0.0, 0.0, 0.0, 0.0, 1.6989582829837277E9, 0.0, 2023-11-02 16:51:22.983
234.0, -187500.02235174447, 187500.0, 2663.6573867389425, 50104.13975764987, 187500.0, 187500.0, -187500.02235174447, 35808.902777302595, -0.088, 0.974, 0.026000000000000002, 192.0, 0.0, 0.0, 0.0, 0.0, 0.0, 0.0, 0.0, 0.0, 0.0, 1.6989582829837408E9, 0.0, 2023-11-02 16:51:22.983
235.0, -187500.02235174447, 187500.0, 2654.9178546569174, 50126.469150360725, 187500.0, 187500.0, -187500.02235174447, 35798.53156787534, -0.088, 0.974, 0.026000000000000002, 192.0, 0.0, 0.0, 0.0, 0.0, 0.0, 0.0, 0.0, 0.0, 0.0, 1.6989582829837513E9, 0.0, 2023-11-02 16:51:22.983
236.0, -187500.02235174447, 187500.0, 2645.105438841038, 50123.317554392524, 187500.0, 187500.0, -187500.02235174447, 35789.03207648183, -0.088, 0.974, 0.026000000000000002, 192.0, 0.0, 0.0, 0.0, 0.0, 0.0, 0.0, 0.0, 0.0, 0.0, 1.6989582829837642E9, 0.0, 2023-11-02 16:51:22.983
237.0, -187500.02235174447, 187500.0, 2656.1472006019594, 50091.667484243815, 187500.0, 187500.0, -187500.02235174447, 35800.36441092067, -0.088, 0.974, 0.026000000000000002, 192.0, 0.0, 0.0, 0.0, 0.0, 0.0, 0.0, 0.0, 0.0, 0.0, 1.698958282983776E9, 0.0, 2023-11-02 16:51:22.983
238.0, -187500.02235174447, 187500.0, 2657.421250035912, 50099.557650036535, 187500.0, 187500.0, -187500.02235174447, 35801.03496325433, -0.084, 0.978, 0.032, 192.0, 253.0, 96.0, 30.0, 144.0, 1.0, 0.0, 0.0, 0.0, 0.0, 1.6989582829837904E9, 0.0, 2023-11-02 16:51:22.983
239.0, -187500.02235174447, 187500.0, 2658.9188169144177, 50120.50123459116, 187500.0, 187500.0, -187500.02235174447, 35800.76674232087, -0.084, 0.978, 0.032, 192.0, 0.0, 0.0, 0.0, 0.0, 0.0, 0.0, 0.0, 0.0, 0.0, 1.6989582829838529E9, 0.0, 2023-11-02 16:51:22.983
240.0, -187500.02235174447, 187500.0, 2657.7341744582864, 50130.55951959605, 187500.0, 187500.0, -187500.02235174447, 35800.431466154034, -0.084, 0.978, 0.032, 192.0, 0.0, 0.0, 0.0, 0.0, 0.0, 0.0, 0.0, 0.0, 0.0, 1.698958282983874E9, 0.0, 2023-11-02 16:51:22.983
241.0, -187500.02235174447, 187500.0, 2653.2414738227694, 50113.63924904338, 187500.0, 187500.0, -187500.02235174447, 35794.95528876249, -0.084, 0.978, 0.032, 192.0, 0.0, 0.0, 0.0, 0.0, 0.0, 0.0, 0.0, 0.0, 0.0, 1.69895828298389E9, 0.0, 2023-11-02 16:51:22.983
242.0, -187500.02235174447, 187500.0, 2649.9781191322945, 50108.16307165183, 187500.0, 187500.0, -187500.02235174447, 35790.239070682415, -0.084, 0.978, 0.032, 192.0, 0.0, 0.0, 0.0, 0.0, 0.0, 0.0, 0.0, 0.0, 0.0, 1.6989582829839053E9, 0.0, 2023-11-02 16:51:22.983
243.0, -187500.02235174447, 187500.0, 2642.3114707841246, 50136.90741502136, 187500.0, 187500.0, -187500.02235174447, 35781.9465734895, -0.084, 0.978, 0.032, 192.0, 0.0, 0.0, 0.0, 0.0, 0.0, 0.0, 0.0, 0.0, 0.0, 1.6989582829839206E9, 0.0, 2023-11-02 16:51:22.983
244.0, -187500.02235174447, 187500.0, 2650.3357470435794, 50148.73148783821, 187500.0, 187500.0, -187500.02235174447, 35787.04277122531, -0.084, 0.978, 0.032, 192.0, 0.0, 0.0, 0.0, 0.0, 0.0, 0.0, 0.0, 0.0, 0.0, 1.6989582829839387E9, 0.0, 2023-11-02 16:51:22.983
245.0, -187500.02235174447, 187500.0, 2652.1238866000044, 50136.08040047651, 187500.0, 187500.0, -187500.02235174447, 35787.713323558964, -0.084, 0.978, 0.032, 192.0, 0.0, 0.0, 0.0, 0.0, 0.0, 0.0, 0.0, 0.0, 0.0, 1.6989582829839551E9, 0.0, 2023-11-02 16:51:22.983
246.0, -187500.02235174447, 187500.0, 2654.3367093010797, 50119.830682257496, 187500.0, 187500.0, -187500.02235174447, 35789.00972473738, -0.084, 0.978, 0.032, 192.0, 0.0, 0.0, 0.0, 0.0, 0.0, 0.0, 0.0, 0.0, 0.0, 1.6989582829839675E9, 0.0, 2023-11-02 16:51:22.983
247.0, -187500.02235174447, 187500.0, 2656.281311068691, 50138.717906322236, 187500.0, 187500.0, -187500.02235174447, 35792.38483815013, -0.092, 0.976, 0.032, 192.0, 253.0, 32.0, 30.0, 128.0, 1.0, 0.0, 0.0, 0.0, 0.0, 1.6989582829839823E9, 0.0, 2023-11-02 16:51:22.983
248.0, -187500.02235174447, 187500.0, 2658.0918023695713, 50163.1930665008, 187500.0, 187500.0, -187500.02235174447, 35795.42467539605, -0.092, 0.976, 0.032, 192.0, 0.0, 0.0, 0.0, 0.0, 0.0, 0.0, 0.0, 0.0, 0.0, 1.6989582829839995E9, 0.0, 2023-11-02 16:51:22.983
249.0, -187500.02235174447, 187500.0, 2657.421250035912, 50159.25915947666, 187500.0, 187500.0, -187500.02235174447, 35794.508253873384, -0.092, 0.976, 0.032, 192.0, 0.0, 0.0, 0.0, 0.0, 0.0, 0.0, 0.0, 0.0, 0.0, 1.6989582829840128E9, 0.0, 2023-11-02 16:51:22.984
250.0, -187500.02235174447, 187500.0, 2658.2706163252137, 50140.41663890084, 187500.0, 187500.0, -187500.02235174447, 35792.49659687241, -0.092, 0.976, 0.032, 192.0, 0.0, 0.0, 0.0, 0.0, 0.0, 0.0, 0.0, 0.0, 0.0, 1.6989582829840388E9, 0.0, 2023-11-02 16:51:22.984
251.0, -187500.02235174447, 187500.0, 2655.454296523845, 50154.94527279679, 187500.0, 187500.0, -187500.02235174447, 35788.11565495916, -0.092, 0.976, 0.032, 192.0, 0.0, 0.0, 0.0, 0.0, 0.0, 0.0, 0.0, 0.0, 0.0, 1.6989582829840565E9, 0.0, 2023-11-02 16:51:22.984
252.0, -187500.02235174447, 187500.0, 2649.8663604100184, 50170.32327298204, 187500.0, 187500.0, -187500.02235174447, 35780.35959963317, -0.092, 0.976, 0.032, 192.0, 0.0, 0.0, 0.0, 0.0, 0.0, 0.0, 0.0, 0.0, 0.0, 1.6989582829841049E9, 0.0, 2023-11-02 16:51:22.984
253.0, -187500.02235174447, 187500.0, 2655.677813968398, 50157.247502475686, 187500.0, 187500.0, -187500.02235174447, 35784.56172759077, -0.092, 0.976, 0.032, 192.0, 0.0, 0.0, 0.0, 0.0, 0.0, 0.0, 0.0, 0.0, 0.0, 1.698958282984121E9, 0.0, 2023-11-02 16:51:22.984
254.0, -187500.02235174447, 187500.0, 2665.3114158286353, 50140.41663890084, 187500.0, 187500.0, -187500.02235174447, 35795.53643411832, -0.092, 0.976, 0.032, 192.0, 0.0, 0.0, 0.0, 0.0, 0.0, 0.0, 0.0, 0.0, 0.0, 1.6989582829842596E9, 0.0, 2023-11-02 16:51:22.984
255.0, -187500.02235174447, 187500.0, 2662.875075683007, 50154.07355476303, 187500.0, 187500.0, -187500.02235174447, 35794.39649515111, -0.092, 0.976, 0.032, 192.0, 0.0, 0.0, 0.0, 0.0, 0.0, 0.0, 0.0, 0.0, 0.0, 1.6989582829842873E9, 0.0, 2023-11-02 16:51:22.984
0.0, -187500.02235174447, 187500.0, 2662.070412882616, 50177.25231376318, 187500.0, 187500.0, -187500.02235174447, 35793.12244571715, -0.092, 0.976, 0.032, 192.0, 0.0, 0.0, 0.0, 0.0, 0.0, 0.0, 0.0, 0.0, 0.0, 1.6989582829843073E9, 0.0, 2023-11-02 16:51:22.984
1.0, -187500.02235174447, 187500.0, 2668.418308307923, 50176.13472654042, 187500.0, 187500.0, -187500.02235174447, 35797.995126008405, -0.096, 0.982, 0.04, 192.0, 253.0, 0.0, 30.0, 176.0, 1.0, 64.0, 0.0, 0.0, 0.0, 1.6989582829843297E9, 0.0, 2023-11-02 16:51:22.984
2.0, -187500.02235174447, 187500.0, 2670.161744375437, 50161.337871711, 187500.0, 187500.0, -187500.02235174447, 35797.97277426395, -0.096, 0.982, 0.04, 192.0, 0.0, 0.0, 0.0, 0.0, 0.0, 0.0, 0.0, 0.0, 0.0, 1.6989582829843514E9, 0.0, 2023-11-02 16:51:22.984
3.0, -187500.02235174447, 187500.0, 2667.904218185451, 50164.44476419029, 187500.0, 187500.0, -187500.02235174447, 35795.55878586278, -0.096, 0.982, 0.04, 192.0, 0.0, 0.0, 0.0, 0.0, 0.0, 0.0, 0.0, 0.0, 0.0, 1.6989582829843712E9, 0.0, 2023-11-02 16:51:22.984
4.0, -187500.02235174447, 187500.0, 2660.416383792923, 50190.75276741419, 187500.0, 187500.0, -187500.02235174447, 35789.59087009321, -0.096, 0.982, 0.04, 192.0, 0.0, 0.0, 0.0, 0.0, 0.0, 0.0, 0.0, 0.0, 0.0, 1.6989582829843876E9, 0.0, 2023-11-02 16:51:22.984
5.0, -187500.02235174447, 187500.0, 2650.4922092547667, 50181.767366143155, 187500.0, 187500.0, -187500.02235174447, 35777.56563157626, -0.096, 0.982, 0.04, 192.0, 0.0, 0.0, 0.0, 0.0, 0.0, 0.0, 0.0, 0.0, 0.0, 1.6989582829844103E9, 0.0, 2023-11-02 16:51:22.984
6.0, -187500.02235174447, 187500.0, 2662.875075683007, 50157.40396468687, 187500.0, 187500.0, -187500.02235174447, 35789.16618694856, -0.096, 0.982, 0.04, 192.0, 0.0, 0.0, 0.0, 0.0, 0.0, 0.0, 0.0, 0.0, 0.0, 1.6989582829844315E9, 0.0, 2023-11-02 16:51:22.984
7.0, -187500.02235174447, 187500.0, 2667.4795350408003, 50162.544865911594, 187500.0, 187500.0, -187500.02235174447, 35792.85422478369, -0.096, 0.982, 0.04, 192.0, 0.0, 0.0, 0.0, 0.0, 0.0, 0.0, 0.0, 0.0, 0.0, 1.6989582829844468E9, 0.0, 2023-11-02 16:51:22.984
8.0, -187500.02235174447, 187500.0, 2662.71861347182, 50193.658494193376, 187500.0, 187500.0, -187500.02235174447, 35788.24976542589, -0.096, 0.982, 0.04, 192.0, 0.0, 0.0, 0.0, 0.0, 0.0, 0.0, 0.0, 0.0, 0.0, 1.6989582829844632E9, 0.0, 2023-11-02 16:51:22.984
9.0, -187500.02235174447, 187500.0, 2664.1491251169596, 50202.55448848659, 187500.0, 187500.0, -187500.02235174447, 35788.09330321471, -0.096, 0.982, 0.04, 192.0, 0.0, 0.0, 0.0, 0.0, 0.0, 0.0, 0.0, 0.0, 0.0, 1.698958282984478E9, 0.0, 2023-11-02 16:51:22.984
10.0, -187500.02235174447, 187500.0, 2668.7312327302975, 50183.89078186641, 187500.0, 187500.0, -187500.02235174447, 35788.74150380391, -0.096, 0.982, 0.04, 192.0, 0.0, 0.0, 0.0, 0.0, 0.0, 0.0, 0.0, 0.0, 0.0, 1.6989582829844973E9, 0.0, 2023-11-02 16:51:22.984
11.0, -187500.02235174447, 187500.0, 2667.546590274166, 50180.73918589821, 187500.0, 187500.0, -187500.02235174447, 35787.62391658115, -0.094, 0.984, 0.04, 192.0, 253.0, 16.0, 30.0, 192.0, 1.0, 64.0, 0.0, 0.0, 0.0, 1.698958282984521E9, 0.0, 2023-11-02 16:51:22.984
12.0, -187500.02235174447, 187500.0, 2663.5679797611215, 50202.196860575306, 187500.0, 187500.0, -187500.02235174447, 35784.98641073542, -0.094, 0.984, 0.04, 192.0, 0.0, 0.0, 0.0, 0.0, 0.0, 0.0, 0.0, 0.0, 0.0, 1.6989582829845452E9, 0.0, 2023-11-02 16:51:22.984
13.0, -187500.02235174447, 187500.0, 2655.3425378015686, 50211.27166882416, 187500.0, 187500.0, -187500.02235174447, 35776.403340864585, -0.094, 0.984, 0.04, 192.0, 0.0, 0.0, 0.0, 0.0, 0.0, 0.0, 0.0, 0.0, 0.0, 1.69895828298456E9, 0.0, 2023-11-02 16:51:22.984
14.0, -187500.02235174447, 187500.0, 2657.912988413929, 50189.29990402459, 187500.0, 187500.0, -187500.02235174447, 35776.93978273151, -0.094, 0.984, 0.04, 192.0, 0.0, 0.0, 0.0, 0.0, 0.0, 0.0, 0.0, 0.0, 0.0, 1.6989582829846902E9, 0.0, 2023-11-02 16:51:22.984
15.0, -187500.02235174447, 187500.0, 2662.2715785827136, 50184.002540588684, 187500.0, 187500.0, -187500.02235174447, 35781.5442420893, -0.094, 0.984, 0.04, 192.0, 0.0, 0.0, 0.0, 0.0, 0.0, 0.0, 0.0, 0.0, 0.0, 1.6989582829847116E9, 0.0, 2023-11-02 16:51:22.984
16.0, -187500.02235174447, 187500.0, 2659.4105552924343, 50209.46117752328, 187500.0, 187500.0, -187500.02235174447, 35781.67835255603, -0.094, 0.984, 0.04, 192.0, 0.0, 0.0, 0.0, 0.0, 0.0, 0.0, 0.0, 0.0, 0.0, 1.6989582829847307E9, 0.0, 2023-11-02 16:51:22.984
17.0, -187500.02235174447, 187500.0, 2654.1355436009817, 50226.292041098124, 187500.0, 187500.0, -187500.02235174447, 35778.05736995427, -0.094, 0.984, 0.04, 192.0, 0.0, 0.0, 0.0, 0.0, 0.0, 0.0, 0.0, 0.0, 0.0, 1.6989582829847496E9, 0.0, 2023-11-02 16:51:22.984
18.0, -187500.02235174447, 187500.0, 2660.4387355373783, 50207.002485633195, 187500.0, 187500.0, -187500.02235174447, 35783.198271179, -0.094, 0.984, 0.04, 192.0, 0.0, 0.0, 0.0, 0.0, 0.0, 0.0, 0.0, 0.0, 0.0, 1.6989582829847684E9, 0.0, 2023-11-02 16:51:22.984
19.0, -187500.02235174447, 187500.0, 2661.198694848859, 50192.965590115266, 187500.0, 187500.0, -187500.02235174447, 35783.89117525711, -0.094, 0.984, 0.04, 192.0, 0.0, 0.0, 0.0, 0.0, 0.0, 0.0, 0.0, 0.0, 0.0, 1.6989582829848056E9, 0.0, 2023-11-02 16:51:22.984
20.0, -187500.02235174447, 187500.0, 2654.068488367616, 50210.69052346832, 187500.0, 187500.0, -187500.02235174447, 35776.35863737567, -0.094, 0.984, 0.04, 192.0, 0.0, 0.0, 0.0, 0.0, 0.0, 0.0, 0.0, 0.0, 0.0, 1.698958282984823E9, 0.0, 2023-11-02 16:51:22.984
21.0, -187500.02235174447, 187500.0, 2651.162761588426, 50227.342573087524, 187500.0, 187500.0, -187500.02235174447, 35773.09528268519, -0.092, 0.982, 0.042, 192.0, 253.0, 32.0, 30.0, 176.0, 1.0, 80.0, 0.0, 0.0, 0.0, 1.6989582829848404E9, 0.0, 2023-11-02 16:51:22.984
22.0, -187500.02235174447, 187500.0, 2655.6331104794876, 50220.81586370658, 187500.0, 187500.0, -187500.02235174447, 35774.50344258588, -0.092, 0.982, 0.042, 192.0, 0.0, 0.0, 0.0, 0.0, 0.0, 0.0, 0.0, 0.0, 0.0, 1.6989582829848723E9, 0.0, 2023-11-02 16:51:22.984
23.0, -187500.02235174447, 187500.0, 2667.1442588739706, 50206.242526321716, 187500.0, 187500.0, -187500.02235174447, 35781.5442420893, -0.092, 0.982, 0.042, 192.0, 0.0, 0.0, 0.0, 0.0, 0.0, 0.0, 0.0, 0.0, 0.0, 1.6989582829848924E9, 0.0, 2023-11-02 16:51:22.984
24.0, -187500.02235174447, 187500.0, 2669.4911920417776, 50218.267764838674, 187500.0, 187500.0, -187500.02235174447, 35783.77941653483, -0.092, 0.982, 0.042, 192.0, 0.0, 0.0, 0.0, 0.0, 0.0, 0.0, 0.0, 0.0, 0.0, 1.6989582829849095E9, 0.0, 2023-11-02 16:51:22.984
25.0, -187500.02235174447, 187500.0, 2658.6952994698645, 50248.97906172026, 187500.0, 187500.0, -187500.02235174447, 35775.486919341914, -0.092, 0.982, 0.042, 192.0, 0.0, 0.0, 0.0, 0.0, 0.0, 0.0, 0.0, 0.0, 0.0, 1.6989582829849312E9, 0.0, 2023-11-02 16:51:22.984
26.0, -187500.02235174447, 187500.0, 2651.9003691554512, 50238.94312845983, 187500.0, 187500.0, -187500.02235174447, 35769.0943204277, -0.092, 0.982, 0.042, 192.0, 0.0, 0.0, 0.0, 0.0, 0.0, 0.0, 0.0, 0.0, 0.0, 1.6989582829849484E9, 0.0, 2023-11-02 16:51:22.984
27.0, -187500.02235174447, 187500.0, 2659.9917006482724, 50211.204613590795, 187500.0, 187500.0, -187500.02235174447, 35777.05154145379, -0.092, 0.982, 0.042, 192.0, 0.0, 0.0, 0.0, 0.0, 0.0, 0.0, 0.0, 0.0, 0.0, 1.698958282984978E9, 0.0, 2023-11-02 16:51:22.984
28.0, -187500.02235174447, 187500.0, 2663.9479594168615, 50214.44561653681, 187500.0, 187500.0, -187500.02235174447, 35781.20896592247, -0.092, 0.982, 0.042, 192.0, 0.0, 0.0, 0.0, 0.0, 0.0, 0.0, 0.0, 0.0, 0.0, 1.6989582829850273E9, 0.0, 2023-11-02 16:51:22.985
29.0, -187500.02235174447, 187500.0, 2658.1812093473923, 50235.79153249163, 187500.0, 187500.0, -187500.02235174447, 35774.07875944123, -0.092, 0.982, 0.042, 192.0, 0.0, 0.0, 0.0, 0.0, 0.0, 0.0, 0.0, 0.0, 0.0, 1.6989582829852562E9, 0.0, 2023-11-02 16:51:22.985
30.0, -187500.02235174447, 187500.0, 2657.0859738690824, 50232.885805712445, 187500.0, 187500.0, -187500.02235174447, 35771.93299197352, -0.092, 0.982, 0.042, 192.0, 0.0, 0.0, 0.0, 0.0, 0.0, 0.0, 0.0, 0.0, 0.0, 1.6989582829853017E9, 0.0, 2023-11-02 16:51:22.985
31.0, -187500.02235174447, 187500.0, 2663.076241383105, 50206.91307865537, 187500.0, 187500.0, -187500.02235174447, 35778.347942632194, -0.088, 0.976, 0.042, 192.0, 253.0, 64.0, 30.0, 128.0, 1.0, 80.0, 0.0, 0.0, 0.0, 1.698958282985325E9, 0.0, 2023-11-02 16:51:22.985
32.0, -187500.02235174447, 187500.0, 2666.9877966627832, 50216.233756093236, 187500.0, 187500.0, -187500.02235174447, 35782.639477567616, -0.088, 0.976, 0.042, 192.0, 0.0, 0.0, 0.0, 0.0, 0.0, 0.0, 0.0, 0.0, 0.0, 1.6989582829853468E9, 0.0, 2023-11-02 16:51:22.985
33.0, -187500.02235174447, 187500.0, 2667.09955538506, 50247.682660541854, 187500.0, 187500.0, -187500.02235174447, 35784.38291363513, -0.088, 0.976, 0.042, 192.0, 0.0, 0.0, 0.0, 0.0, 0.0, 0.0, 0.0, 0.0, 0.0, 1.6989582829853628E9, 0.0, 2023-11-02 16:51:22.985
34.0, -187500.02235174447, 187500.0, 2667.0772036406047, 50258.70207055832, 187500.0, 187500.0, -187500.02235174447, 35782.818291523254, -0.088, 0.976, 0.042, 192.0, 0.0, 0.0, 0.0, 0.0, 0.0, 0.0, 0.0, 0.0, 0.0, 1.6989582829853811E9, 0.0, 2023-11-02 16:51:22.985
35.0, -187500.02235174447, 187500.0, 2672.4416223098783, 50239.54662556012, 187500.0, 187500.0, -187500.02235174447, 35787.98154449243, -0.088, 0.976, 0.042, 192.0, 0.0, 0.0, 0.0, 0.0, 0.0, 0.0, 0.0, 0.0, 0.0, 1.6989582829853964E9, 0.0, 2023-11-02 16:51:22.985
36.0, -187500.02235174447, 187500.0, 2665.579636762099, 50234.94216620233, 187500.0, 187500.0, -187500.02235174447, 35781.499538600394, -0.088, 0.976, 0.042, 192.0, 0.0, 0.0, 0.0, 0.0, 0.0, 0.0, 0.0, 0.0, 0.0, 1.6989582829854126E9, 0.0, 2023-11-02 16:51:22.985
37.0, -187500.02235174447, 187500.0, 2665.378471062001, 50255.90810250141, 187500.0, 187500.0, -187500.02235174447, 35780.85133801119, -0.088, 0.976, 0.042, 192.0, 0.0, 0.0, 0.0, 0.0, 0.0, 0.0, 0.0, 0.0, 0.0, 1.698958282985431E9, 0.0, 2023-11-02 16:51:22.985
38.0, -187500.02235174447, 187500.0, 2664.9537879173504, 50269.788535808155, 187500.0, 187500.0, -187500.02235174447, 35777.096244942695, -0.088, 0.976, 0.042, 192.0, 0.0, 0.0, 0.0, 0.0, 0.0, 0.0, 0.0, 0.0, 0.0, 1.698958282985447E9, 0.0, 2023-11-02 16:51:22.985
39.0, -187500.02235174447, 187500.0, 2678.76716599073, 50250.99071872124, 187500.0, 187500.0, -187500.02235174447, 35787.69097181451, -0.088, 0.976, 0.042, 192.0, 0.0, 0.0, 0.0, 0.0, 0.0, 0.0, 0.0, 0.0, 0.0, 1.6989582829854658E9, 0.0, 2023-11-02 16:51:22.985
40.0, -187500.02235174447, 187500.0, 2686.2997038721687, 50240.55245406061, 187500.0, 187500.0, -187500.02235174447, 35794.66471608457, -0.088, 0.976, 0.042, 192.0, 0.0, 0.0, 0.0, 0.0, 0.0, 0.0, 0.0, 0.0, 0.0, 1.69895828298551E9, 0.0, 2023-11-02 16:51:22.985
41.0, -187500.02235174447, 187500.0, 2683.595142793077, 50261.02665198167, 187500.0, 187500.0, -187500.02235174447, 35793.05539048379, -0.09, 0.976, 0.046, 192.0, 253.0, 48.0, 30.0, 128.0, 1.0, 112.0, 0.0, 0.0, 0.0, 1.6989582829855309E9, 0.0, 2023-11-02 16:51:22.985
42.0, -187500.02235174447, 187500.0, 2675.0120729222385, 50277.477535900776, 187500.0, 187500.0, -187500.02235174447, 35786.17105319155, -0.09, 0.976, 0.046, 192.0, 0.0, 0.0, 0.0, 0.0, 0.0, 0.0, 0.0, 0.0, 0.0, 1.6989582829855528E9, 0.0, 2023-11-02 16:51:22.985
43.0, -187500.02235174447, 187500.0, 2679.3706630910237, 50263.842971783044, 187500.0, 187500.0, -187500.02235174447, 35790.70845731598, -0.09, 0.976, 0.046, 192.0, 0.0, 0.0, 0.0, 0.0, 0.0, 0.0, 0.0, 0.0, 0.0, 1.6989582829855752E9, 0.0, 2023-11-02 16:51:22.985
44.0, -187500.02235174447, 187500.0, 2681.1140991585376, 50257.13744844645, 187500.0, 187500.0, -187500.02235174447, 35793.390666650615, -0.09, 0.976, 0.046, 192.0, 0.0, 0.0, 0.0, 0.0, 0.0, 0.0, 0.0, 0.0, 0.0, 1.6989582829857244E9, 0.0, 2023-11-02 16:51:22.985
45.0, -187500.02235174447, 187500.0, 2680.667064269431, 50276.851687056034, 187500.0, 187500.0, -187500.02235174447, 35796.743428318914, -0.09, 0.976, 0.046, 192.0, 0.0, 0.0, 0.0, 0.0, 0.0, 0.0, 0.0, 0.0, 0.0, 1.6989582829857693E9, 0.0, 2023-11-02 16:51:22.985
46.0, -187500.02235174447, 187500.0, 2674.676796755409, 50303.897297846954, 187500.0, 187500.0, -187500.02235174447, 35792.51894861686, -0.09, 0.976, 0.046, 192.0, 0.0, 0.0, 0.0, 0.0, 0.0, 0.0, 0.0, 0.0, 0.0, 1.6989582829858053E9, 0.0, 2023-11-02 16:51:22.985
47.0, -187500.02235174447, 187500.0, 2674.9226659444175, 50287.42406218339, 187500.0, 187500.0, -187500.02235174447, 35791.26725092736, -0.09, 0.976, 0.046, 192.0, 0.0, 0.0, 0.0, 0.0, 0.0, 0.0, 0.0, 0.0, 0.0, 1.6989582829858243E9, 0.0, 2023-11-02 16:51:22.985
48.0, -187500.02235174447, 187500.0, 2678.5436485461773, 50263.12771596047, 187500.0, 187500.0, -187500.02235174447, 35794.03886723982, -0.09, 0.976, 0.046, 192.0, 0.0, 0.0, 0.0, 0.0, 0.0, 0.0, 0.0, 0.0, 0.0, 1.6989582829858415E9, 0.0, 2023-11-02 16:51:22.985
49.0, -187500.02235174447, 187500.0, 2670.877000198007, 50268.0674514851, 187500.0, 187500.0, -187500.02235174447, 35784.852300268685, -0.09, 0.976, 0.046, 192.0, 0.0, 0.0, 0.0, 0.0, 0.0, 0.0, 0.0, 0.0, 0.0, 1.6989582829858675E9, 0.0, 2023-11-02 16:51:22.985
50.0, -187500.02235174447, 187500.0, 2666.6301687514983, 50288.943980806354, 187500.0, 187500.0, -187500.02235174447, 35778.9961432214, -0.09, 0.976, 0.046, 192.0, 0.0, 0.0, 0.0, 0.0, 0.0, 0.0, 0.0, 0.0, 0.0, 1.6989582829858887E9, 0.0, 2023-11-02 16:51:22.985
51.0, -187500.02235174447, 187500.0, 2669.3347298305907, 50285.457108671326, 187500.0, 187500.0, -187500.02235174447, 35781.298372900295, -0.096, 0.976, 0.046, 192.0, 253.0, 0.0, 30.0, 128.0, 1.0, 112.0, 0.0, 0.0, 0.0, 1.6989582829859076E9, 0.0, 2023-11-02 16:51:22.985
52.0, -187500.02235174447, 187500.0, 2666.6301687514983, 50266.10049797303, 187500.0, 187500.0, -187500.02235174447, 35779.197308921495, -0.096, 0.976, 0.046, 192.0, 0.0, 0.0, 0.0, 0.0, 0.0, 0.0, 0.0, 0.0, 0.0, 1.6989582829859543E9, 0.0, 2023-11-02 16:51:22.985
53.0, -187500.02235174447, 187500.0, 2672.508677543244, 50257.31626240209, 187500.0, 187500.0, -187500.02235174447, 35786.685143314025, -0.096, 0.976, 0.046, 192.0, 0.0, 0.0, 0.0, 0.0, 0.0, 0.0, 0.0, 0.0, 0.0, 1.6989582829859788E9, 0.0, 2023-11-02 16:51:22.985
54.0, -187500.02235174447, 187500.0, 2672.3969188209676, 50282.86430631451, 187500.0, 187500.0, -187500.02235174447, 35786.886309014124, -0.096, 0.976, 0.046, 192.0, 0.0, 0.0, 0.0, 0.0, 0.0, 0.0, 0.0, 0.0, 0.0, 1.6989582829859965E9, 0.0, 2023-11-02 16:51:22.985
55.0, -187500.02235174447, 187500.0, 2673.738023488286, 50289.61453314001, 187500.0, 187500.0, -187500.02235174447, 35787.51215785887, -0.096, 0.976, 0.046, 192.0, 0.0, 0.0, 0.0, 0.0, 0.0, 0.0, 0.0, 0.0, 0.0, 1.6989582829860177E9, 0.0, 2023-11-02 16:51:22.986
56.0, -187500.02235174447, 187500.0, 2675.2355903667917, 50268.93916951885, 187500.0, 187500.0, -187500.02235174447, 35787.288640414314, -0.096, 0.976, 0.046, 192.0, 0.0, 0.0, 0.0, 0.0, 0.0, 0.0, 0.0, 0.0, 0.0, 1.6989582829860425E9, 0.0, 2023-11-02 16:51:22.986
57.0, -187500.02235174447, 187500.0, 2684.1762881489144, 50263.44064038285, 187500.0, 187500.0, -187500.02235174447, 35794.82117829576, -0.096, 0.976, 0.046, 192.0, 0.0, 0.0, 0.0, 0.0, 0.0, 0.0, 0.0, 0.0, 0.0, 1.6989582829860628E9, 0.0, 2023-11-02 16:51:22.986
58.0, -187500.02235174447, 187500.0, 2682.656369525954, 50293.056701786125, 187500.0, 187500.0, -187500.02235174447, 35794.03886723982, -0.096, 0.976, 0.046, 192.0, 0.0, 0.0, 0.0, 0.0, 0.0, 0.0, 0.0, 0.0, 0.0, 1.6989582829860752E9, 0.0, 2023-11-02 16:51:22.986
59.0, -187500.02235174447, 187500.0, 2672.6651397544315, 50305.640733914464, 187500.0, 187500.0, -187500.02235174447, 35784.025285723845, -0.096, 0.976, 0.046, 192.0, 0.0, 0.0, 0.0, 0.0, 0.0, 0.0, 0.0, 0.0, 0.0, 1.6989582829860873E9, 0.0, 2023-11-02 16:51:22.986
60.0, -187500.02235174447, 187500.0, 2673.1121746435374, 50280.830297569075, 187500.0, 187500.0, -187500.02235174447, 35784.11469270166, -0.096, 0.976, 0.046, 192.0, 0.0, 0.0, 0.0, 0.0, 0.0, 0.0, 0.0, 0.0, 0.0, 1.698958282986123E9, 0.0, 2023-11-02 16:51:22.986
61.0, -187500.02235174447, 187500.0, 2673.5592095326438, 50272.11311723151, 187500.0, 187500.0, -187500.02235174447, 35785.32168690225, -0.094, 0.972, 0.042, 192.0, 253.0, 16.0, 30.0, 96.0, 1.0, 80.0, 0.0, 0.0, 0.0, 1.6989582829861348E9, 0.0, 2023-11-02 16:51:22.986
62.0, -187500.02235174447, 187500.0, 2672.3969188209676, 50287.80404183913, 187500.0, 187500.0, -187500.02235174447, 35784.427617124034, -0.094, 0.972, 0.042, 192.0, 0.0, 0.0, 0.0, 0.0, 0.0, 0.0, 0.0, 0.0, 0.0, 1.6989582829861588E9, 0.0, 2023-11-02 16:51:22.986
63.0, -187500.02235174447, 187500.0, 2667.1889623628813, 50309.14995779395, 187500.0, 187500.0, -187500.02235174447, 35780.18078567753, -0.094, 0.972, 0.042, 192.0, 0.0, 0.0, 0.0, 0.0, 0.0, 0.0, 0.0, 0.0, 0.0, 1.6989582829861927E9, 0.0, 2023-11-02 16:51:22.986
64.0, -187500.02235174447, 187500.0, 2673.872133955018, 50288.7204633618, 187500.0, 187500.0, -187500.02235174447, 35785.43344562453, -0.094, 0.972, 0.042, 192.0, 0.0, 0.0, 0.0, 0.0, 0.0, 0.0, 0.0, 0.0, 0.0, 1.698958282986209E9, 0.0, 2023-11-02 16:51:22.986
65.0, -187500.02235174447, 187500.0, 2681.3376166030907, 50276.24818995574, 187500.0, 187500.0, -187500.02235174447, 35793.01068699487, -0.094, 0.972, 0.042, 192.0, 0.0, 0.0, 0.0, 0.0, 0.0, 0.0, 0.0, 0.0, 0.0, 1.6989582829862232E9, 0.0, 2023-11-02 16:51:22.986
66.0, -187500.02235174447, 187500.0, 2678.8789247130067, 50300.38807396747, 187500.0, 187500.0, -187500.02235174447, 35790.41788463806, -0.094, 0.972, 0.042, 192.0, 0.0, 0.0, 0.0, 0.0, 0.0, 0.0, 0.0, 0.0, 0.0, 1.69895828298624E9, 0.0, 2023-11-02 16:51:22.986
67.0, -187500.02235174447, 187500.0, 2674.8556107110517, 50321.28695503318, 187500.0, 187500.0, -187500.02235174447, 35785.45579736898, -0.094, 0.972, 0.042, 192.0, 0.0, 0.0, 0.0, 0.0, 0.0, 0.0, 0.0, 0.0, 0.0, 1.6989582829862578E9, 0.0, 2023-11-02 16:51:22.986
68.0, -187500.02235174447, 187500.0, 2680.4658985693336, 50305.59603042556, 187500.0, 187500.0, -187500.02235174447, 35789.03207648183, -0.094, 0.972, 0.042, 192.0, 0.0, 0.0, 0.0, 0.0, 0.0, 0.0, 0.0, 0.0, 0.0, 1.6989582829862876E9, 0.0, 2023-11-02 16:51:22.986
69.0, -187500.02235174447, 187500.0, 2685.4726893273223, 50281.27733245818, 187500.0, 187500.0, -187500.02235174447, 35790.48493987143, -0.094, 0.972, 0.042, 192.0, 0.0, 0.0, 0.0, 0.0, 0.0, 0.0, 0.0, 0.0, 0.0, 1.698958282986316E9, 0.0, 2023-11-02 16:51:22.986
70.0, -187500.02235174447, 187500.0, 2682.5669625481323, 50291.15680350743, 187500.0, 187500.0, -187500.02235174447, 35788.31682065926, -0.094, 0.972, 0.042, 192.0, 0.0, 0.0, 0.0, 0.0, 0.0, 0.0, 0.0, 0.0, 0.0, 1.6989582829863272E9, 0.0, 2023-11-02 16:51:22.986
71.0, -187500.02235174447, 187500.0, 2671.9498839318617, 50317.15188230895, 187500.0, 187500.0, -187500.02235174447, 35779.17495717704, -0.088, 0.974, 0.042, 192.0, 253.0, 64.0, 30.0, 112.0, 1.0, 80.0, 0.0, 0.0, 0.0, 1.698958282986338E9, 0.0, 2023-11-02 16:51:22.986
72.0, -187500.02235174447, 187500.0, 2677.8283927236075, 50313.396789240454, 187500.0, 187500.0, -187500.02235174447, 35784.785245035324, -0.088, 0.974, 0.042, 192.0, 0.0, 0.0, 0.0, 0.0, 0.0, 0.0, 0.0, 0.0, 0.0, 1.69895828298635E9, 0.0, 2023-11-02 16:51:22.986
73.0, -187500.02235174447, 187500.0, 2670.8546484535514, 50301.39390246796, 187500.0, 187500.0, -187500.02235174447, 35775.55397457528, -0.088, 0.974, 0.042, 192.0, 0.0, 0.0, 0.0, 0.0, 0.0, 0.0, 0.0, 0.0, 0.0, 1.6989582829863632E9, 0.0, 2023-11-02 16:51:22.986
74.0, -187500.02235174447, 187500.0, 2675.2355903667917, 50300.43277745638, 187500.0, 187500.0, -187500.02235174447, 35776.962134475965, -0.088, 0.974, 0.042, 192.0, 0.0, 0.0, 0.0, 0.0, 0.0, 0.0, 0.0, 0.0, 0.0, 1.6989582830709183E9, 0.0, 2023-11-02 16:51:23.070
75.0, -187500.02235174447, 187500.0, 2675.839087467085, 50328.931251636895, 187500.0, 187500.0, -187500.02235174447, 35776.87272749814, -0.088, 0.974, 0.042, 192.0, 0.0, 0.0, 0.0, 0.0, 0.0, 0.0, 0.0, 0.0, 0.0, 1.698958283071346E9, 0.0, 2023-11-02 16:51:23.071
76.0, -187500.02235174447, 187500.0, 2671.4134420649343, 50330.0264871152, 187500.0, 187500.0, -187500.02235174447, 35771.39655010659, -0.088, 0.974, 0.042, 192.0, 0.0, 0.0, 0.0, 0.0, 0.0, 0.0, 0.0, 0.0, 0.0, 1.6989582830713825E9, 0.0, 2023-11-02 16:51:23.071
77.0, -187500.02235174447, 187500.0, 2670.6534827534538, 50305.10429204754, 187500.0, 187500.0, -187500.02235174447, 35770.882459984125, -0.088, 0.974, 0.042, 192.0, 0.0, 0.0, 0.0, 0.0, 0.0, 0.0, 0.0, 0.0, 0.0, 1.6989582830714147E9, 0.0, 2023-11-02 16:51:23.071
78.0, -187500.02235174447, 187500.0, 2671.547552531666, 50311.183966539385, 187500.0, 187500.0, -187500.02235174447, 35770.86010823966, -0.088, 0.974, 0.042, 192.0, 0.0, 0.0, 0.0, 0.0, 0.0, 0.0, 0.0, 0.0, 0.0, 1.6989582830714457E9, 0.0, 2023-11-02 16:51:23.071
79.0, -187500.02235174447, 187500.0, 2672.6651397544315, 50332.79810342767, 187500.0, 187500.0, -187500.02235174447, 35771.731826273426, -0.088, 0.974, 0.042, 192.0, 0.0, 0.0, 0.0, 0.0, 0.0, 0.0, 0.0, 0.0, 0.0, 1.698958283071484E9, 0.0, 2023-11-02 16:51:23.071
80.0, -187500.02235174447, 187500.0, 2672.709843243342, 50333.759228439245, 187500.0, 187500.0, -187500.02235174447, 35773.76583501886, -0.088, 0.974, 0.042, 192.0, 0.0, 0.0, 0.0, 0.0, 0.0, 0.0, 0.0, 0.0, 0.0, 1.698958283071522E9, 0.0, 2023-11-02 16:51:23.071
81.0, -187500.02235174447, 187500.0, 2681.0470439251717, 50310.133434549985, 187500.0, 187500.0, -187500.02235174447, 35782.50536710088, -0.092, 0.982, 0.04, 192.0, 253.0, 32.0, 30.0, 176.0, 1.0, 64.0, 0.0, 0.0, 0.0, 1.6989582830715532E9, 0.0, 2023-11-02 16:51:23.071
82.0, -187500.02235174447, 187500.0, 2680.4882503137887, 50312.9721060958, 187500.0, 187500.0, -187500.02235174447, 35781.0972072002, -0.092, 0.982, 0.04, 192.0, 0.0, 0.0, 0.0, 0.0, 0.0, 0.0, 0.0, 0.0, 0.0, 1.6989582830715904E9, 0.0, 2023-11-02 16:51:23.071
83.0, -187500.02235174447, 187500.0, 2675.3473490890683, 50344.08573437759, 187500.0, 187500.0, -187500.02235174447, 35778.37029437665, -0.092, 0.982, 0.04, 192.0, 0.0, 0.0, 0.0, 0.0, 0.0, 0.0, 0.0, 0.0, 0.0, 1.6989582830716588E9, 0.0, 2023-11-02 16:51:23.071
84.0, -187500.02235174447, 187500.0, 2666.652520495954, 50357.87676070652, 187500.0, 187500.0, -187500.02235174447, 35770.658942539565, -0.092, 0.982, 0.04, 192.0, 0.0, 0.0, 0.0, 0.0, 0.0, 0.0, 0.0, 0.0, 0.0, 1.6989582830716867E9, 0.0, 2023-11-02 16:51:23.071
85.0, -187500.02235174447, 187500.0, 2670.541724031177, 50335.30149880666, 187500.0, 187500.0, -187500.02235174447, 35771.88828848461, -0.092, 0.982, 0.04, 192.0, 0.0, 0.0, 0.0, 0.0, 0.0, 0.0, 0.0, 0.0, 0.0, 1.6989582830717134E9, 0.0, 2023-11-02 16:51:23.071
86.0, -187500.02235174447, 187500.0, 2677.090785156582, 50317.93419336488, 187500.0, 187500.0, -187500.02235174447, 35775.08458794172, -0.092, 0.982, 0.04, 192.0, 0.0, 0.0, 0.0, 0.0, 0.0, 0.0, 0.0, 0.0, 0.0, 1.6989582830717392E9, 0.0, 2023-11-02 16:51:23.071
87.0, -187500.02235174447, 187500.0, 2672.776898476708, 50345.40448730046, 187500.0, 187500.0, -187500.02235174447, 35771.12832917313, -0.092, 0.982, 0.04, 192.0, 0.0, 0.0, 0.0, 0.0, 0.0, 0.0, 0.0, 0.0, 0.0, 1.6989582830717683E9, 0.0, 2023-11-02 16:51:23.071
88.0, -187500.02235174447, 187500.0, 2671.5922560205768, 50361.229522374815, 187500.0, 187500.0, -187500.02235174447, 35768.73669251641, -0.092, 0.982, 0.04, 192.0, 0.0, 0.0, 0.0, 0.0, 0.0, 0.0, 0.0, 0.0, 0.0, 1.6989582830717988E9, 0.0, 2023-11-02 16:51:23.071
89.0, -187500.02235174447, 187500.0, 2674.38622407749, 50340.44240003138, 187500.0, 187500.0, -187500.02235174447, 35771.95534371798, -0.092, 0.982, 0.04, 192.0, 0.0, 0.0, 0.0, 0.0, 0.0, 0.0, 0.0, 0.0, 0.0, 1.6989582830718231E9, 0.0, 2023-11-02 16:51:23.071
90.0, -187500.02235174447, 187500.0, 2675.4814595558, 50323.07509458961, 187500.0, 187500.0, -187500.02235174447, 35774.21286990796, -0.092, 0.982, 0.04, 192.0, 0.0, 0.0, 0.0, 0.0, 0.0, 0.0, 0.0, 0.0, 0.0, 1.6989582830719063E9, 0.0, 2023-11-02 16:51:23.071
91.0, -187500.02235174447, 187500.0, 2673.4698025548223, 50339.838902931086, 187500.0, 187500.0, -187500.02235174447, 35772.35767511817, -0.09, 0.99, 0.034, 192.0, 253.0, 48.0, 30.0, 240.0, 1.0, 16.0, 0.0, 0.0, 0.0, 1.6989582830719323E9, 0.0, 2023-11-02 16:51:23.071
92.0, -187500.02235174447, 187500.0, 2670.7205379868196, 50353.138190882, 187500.0, 187500.0, -187500.02235174447, 35768.08849192721, -0.09, 0.99, 0.034, 192.0, 0.0, 0.0, 0.0, 0.0, 0.0, 0.0, 0.0, 0.0, 0.0, 1.698958283071957E9, 0.0, 2023-11-02 16:51:23.071
93.0, -187500.02235174447, 187500.0, 2671.3463868315685, 50337.24610057427, 187500.0, 187500.0, -187500.02235174447, 35767.95438146048, -0.09, 0.99, 0.034, 192.0, 0.0, 0.0, 0.0, 0.0, 0.0, 0.0, 0.0, 0.0, 0.0, 1.6989582830719833E9, 0.0, 2023-11-02 16:51:23.071
94.0, -187500.02235174447, 187500.0, 2676.6884537563865, 50310.04402757216, 187500.0, 187500.0, -187500.02235174447, 35771.91064022906, -0.09, 0.99, 0.034, 192.0, 0.0, 0.0, 0.0, 0.0, 0.0, 0.0, 0.0, 0.0, 0.0, 1.6989582833914735E9, 0.0, 2023-11-02 16:51:23.391
95.0, -187500.02235174447, 187500.0, 2675.772032233719, 50313.91087936293, 187500.0, 187500.0, -187500.02235174447, 35772.335323373714, -0.09, 0.99, 0.034, 192.0, 0.0, 0.0, 0.0, 0.0, 0.0, 0.0, 0.0, 0.0, 0.0, 1.6989582833915515E9, 0.0, 2023-11-02 16:51:23.391
96.0, -187500.02235174447, 187500.0, 2667.1442588739706, 50316.5260334642, 187500.0, 187500.0, -187500.02235174447, 35765.562744803756, -0.09, 0.99, 0.034, 192.0, 0.0, 0.0, 0.0, 0.0, 0.0, 0.0, 0.0, 0.0, 0.0, 1.6989582833915663E9, 0.0, 2023-11-02 16:51:23.391
97.0, -187500.02235174447, 187500.0, 2662.6962617273643, 50291.93911456336, 187500.0, 187500.0, -187500.02235174447, 35762.52290755784, -0.09, 0.99, 0.034, 192.0, 0.0, 0.0, 0.0, 0.0, 0.0, 0.0, 0.0, 0.0, 0.0, 1.6989582833915799E9, 0.0, 2023-11-02 16:51:23.391
98.0, -187500.02235174447, 187500.0, 2663.0538896386493, 50247.07916344156, 187500.0, 187500.0, -187500.02235174447, 35762.50055581338, -0.09, 0.99, 0.034, 192.0, 0.0, 0.0, 0.0, 0.0, 0.0, 0.0, 0.0, 0.0, 0.0, 1.6989582833915925E9, 0.0, 2023-11-02 16:51:23.391
99.0, -187500.02235174447, 187500.0, 2665.8702094400182, 50233.46695106828, 187500.0, 187500.0, -187500.02235174447, 35766.56857330425, -0.09, 0.99, 0.034, 192.0, 0.0, 0.0, 0.0, 0.0, 0.0, 0.0, 0.0, 0.0, 0.0, 1.6989582833916085E9, 0.0, 2023-11-02 16:51:23.391
100.0, -187500.02235174447, 187500.0, 2666.5407617736773, 50236.26091912519, 187500.0, 187500.0, -187500.02235174447, 35768.714340771956, -0.09, 0.99, 0.034, 192.0, 0.0, 0.0, 0.0, 0.0, 0.0, 0.0, 0.0, 0.0, 0.0, 1.698958283391621E9, 0.0, 2023-11-02 16:51:23.391
101.0, -187500.02235174447, 187500.0, 2676.152011889459, 50212.0539798801, 187500.0, 187500.0, -187500.02235174447, 35780.33724788872, -0.092, 0.99, 0.034, 192.0, 253.0, 32.0, 30.0, 240.0, 1.0, 16.0, 0.0, 0.0, 0.0, 1.6989582833916352E9, 0.0, 2023-11-02 16:51:23.391
102.0, -187500.02235174447, 187500.0, 2680.041215424683, 50173.810145117066, 187500.0, 187500.0, -187500.02235174447, 35785.344038646705, -0.092, 0.99, 0.034, 192.0, 0.0, 0.0, 0.0, 0.0, 0.0, 0.0, 0.0, 0.0, 0.0, 1.6989582833916523E9, 0.0, 2023-11-02 16:51:23.391
103.0, -187500.02235174447, 187500.0, 2675.7273287448083, 50155.32525245252, 187500.0, 187500.0, -187500.02235174447, 35782.88534675662, -0.092, 0.99, 0.034, 192.0, 0.0, 0.0, 0.0, 0.0, 0.0, 0.0, 0.0, 0.0, 0.0, 1.6989582833916664E9, 0.0, 2023-11-02 16:51:23.391
104.0, -187500.02235174447, 187500.0, 2679.6612357689423, 50157.247502475686, 187500.0, 187500.0, -187500.02235174447, 35790.41788463806, -0.092, 0.99, 0.034, 192.0, 0.0, 0.0, 0.0, 0.0, 0.0, 0.0, 0.0, 0.0, 0.0, 1.698958283391718E9, 0.0, 2023-11-02 16:51:23.391
105.0, -187500.02235174447, 187500.0, 2676.487288056289, 50150.13964773889, 187500.0, 187500.0, -187500.02235174447, 35790.08260847123, -0.092, 0.99, 0.034, 192.0, 0.0, 0.0, 0.0, 0.0, 0.0, 0.0, 0.0, 0.0, 0.0, 1.6989582833918705E9, 0.0, 2023-11-02 16:51:23.391
106.0, -187500.02235174447, 187500.0, 2679.10244215756, 50103.91624020532, 187500.0, 187500.0, -187500.02235174447, 35794.307088173286, -0.092, 0.99, 0.034, 192.0, 0.0, 0.0, 0.0, 0.0, 0.0, 0.0, 0.0, 0.0, 0.0, 1.6989582833918817E9, 0.0, 2023-11-02 16:51:23.391
107.0, -187500.02235174447, 187500.0, 2678.320131101624, 50081.63155098338, 187500.0, 187500.0, -187500.02235174447, 35794.7988265513, -0.092, 0.99, 0.034, 192.0, 0.0, 0.0, 0.0, 0.0, 0.0, 0.0, 0.0, 0.0, 0.0, 1.6989582833918917E9, 0.0, 2023-11-02 16:51:23.391
108.0, -187500.02235174447, 187500.0, 2678.454241568356, 50096.71897849071, 187500.0, 187500.0, -187500.02235174447, 35797.011649252374, -0.092, 0.99, 0.034, 192.0, 0.0, 0.0, 0.0, 0.0, 0.0, 0.0, 0.0, 0.0, 0.0, 1.6989582833919013E9, 0.0, 2023-11-02 16:51:23.391
109.0, -187500.02235174447, 187500.0, 2675.4367560668893, 50105.637324528376, 187500.0, 187500.0, -187500.02235174447, 35795.916413774066, -0.092, 0.99, 0.034, 192.0, 0.0, 0.0, 0.0, 0.0, 0.0, 0.0, 0.0, 0.0, 0.0, 1.6989582833919144E9, 0.0, 2023-11-02 16:51:23.391
110.0, -187500.02235174447, 187500.0, 2677.5378200456885, 50078.25643757063, 187500.0, 187500.0, -187500.02235174447, 35797.570442863755, -0.092, 0.99, 0.034, 192.0, 0.0, 0.0, 0.0, 0.0, 0.0, 0.0, 0.0, 0.0, 0.0, 1.698958283391925E9, 0.0, 2023-11-02 16:51:23.391
111.0, -187500.02235174447, 187500.0, 2676.19671537837, 50061.96201586271, 187500.0, 187500.0, -187500.02235174447, 35794.999992251396, -0.092, 0.982, 0.04, 192.0, 253.0, 32.0, 30.0, 176.0, 1.0, 64.0, 0.0, 0.0, 0.0, 1.6989582833919563E9, 0.0, 2023-11-02 16:51:23.391
112.0, -187500.02235174447, 187500.0, 2676.5766950341103, 50075.373062535895, 187500.0, 187500.0, -187500.02235174447, 35795.11175097367, -0.092, 0.982, 0.04, 192.0, 0.0, 0.0, 0.0, 0.0, 0.0, 0.0, 0.0, 0.0, 0.0, 1.6989582833919692E9, 0.0, 2023-11-02 16:51:23.391
113.0, -187500.02235174447, 187500.0, 2673.6709682549204, 50093.29916158905, 187500.0, 187500.0, -187500.02235174447, 35791.53547186083, -0.092, 0.982, 0.04, 192.0, 0.0, 0.0, 0.0, 0.0, 0.0, 0.0, 0.0, 0.0, 0.0, 1.698958283391996E9, 0.0, 2023-11-02 16:51:23.391
114.0, -187500.02235174447, 187500.0, 2680.667064269431, 50072.6685014568, 187500.0, 187500.0, -187500.02235174447, 35796.966945763466, -0.092, 0.982, 0.04, 192.0, 0.0, 0.0, 0.0, 0.0, 0.0, 0.0, 0.0, 0.0, 0.0, 1.6989582833920057E9, 0.0, 2023-11-02 16:51:23.392
115.0, -187500.02235174447, 187500.0, 2685.3832823495013, 50055.457658226216, 187500.0, 187500.0, -187500.02235174447, 35797.68220158604, -0.092, 0.982, 0.04, 192.0, 0.0, 0.0, 0.0, 0.0, 0.0, 0.0, 0.0, 0.0, 0.0, 1.6989582833920155E9, 0.0, 2023-11-02 16:51:23.392
116.0, -187500.02235174447, 187500.0, 2672.3522153320573, 50074.90367590233, 187500.0, 187500.0, -187500.02235174447, 35784.53937584631, -0.092, 0.982, 0.04, 192.0, 0.0, 0.0, 0.0, 0.0, 0.0, 0.0, 0.0, 0.0, 0.0, 1.6989582833920252E9, 0.0, 2023-11-02 16:51:23.392
117.0, -187500.02235174447, 187500.0, 2659.0529273811494, 50091.33220807698, 187500.0, 187500.0, -187500.02235174447, 35772.02239895134, -0.092, 0.982, 0.04, 192.0, 0.0, 0.0, 0.0, 0.0, 0.0, 0.0, 0.0, 0.0, 0.0, 1.698958283392035E9, 0.0, 2023-11-02 16:51:23.392
118.0, -187500.02235174447, 187500.0, 2668.9547501748502, 50075.998911380644, 187500.0, 187500.0, -187500.02235174447, 35779.71139904397, -0.092, 0.982, 0.04, 192.0, 0.0, 0.0, 0.0, 0.0, 0.0, 0.0, 0.0, 0.0, 0.0, 1.6989582833920445E9, 0.0, 2023-11-02 16:51:23.392
119.0, -187500.02235174447, 187500.0, 2673.3580438325457, 50065.582998464466, 187500.0, 187500.0, -187500.02235174447, 35783.824120023746, -0.092, 0.982, 0.04, 192.0, 0.0, 0.0, 0.0, 0.0, 0.0, 0.0, 0.0, 0.0, 0.0, 1.6989582833920548E9, 0.0, 2023-11-02 16:51:23.392
120.0, -187500.02235174447, 187500.0, 2678.6554072684535, 50077.85410617043, 187500.0, 187500.0, -187500.02235174447, 35789.054428226285, -0.098, 0.98, 0.04, 192.0, 252.0, 240.0, 30.0, 160.0, 1.0, 64.0, 0.0, 0.0, 0.0, 1.6989582833920643E9, 0.0, 2023-11-02 16:51:23.392
121.0, -187500.02235174447, 187500.0, 2675.5708665336215, 50112.54401356507, 187500.0, 187500.0, -187500.02235174447, 35785.03111422433, -0.098, 0.98, 0.04, 192.0, 0.0, 0.0, 0.0, 0.0, 0.0, 0.0, 0.0, 0.0, 0.0, 1.6989582833920841E9, 0.0, 2023-11-02 16:51:23.392
122.0, -187500.02235174447, 187500.0, 2669.5358955306883, 50107.71603676272, 187500.0, 187500.0, -187500.02235174447, 35778.19148042101, -0.098, 0.98, 0.04, 192.0, 0.0, 0.0, 0.0, 0.0, 0.0, 0.0, 0.0, 0.0, 0.0, 1.698958283392094E9, 0.0, 2023-11-02 16:51:23.392
123.0, -187500.02235174447, 187500.0, 2674.3415205885794, 50082.65973122833, 187500.0, 187500.0, -187500.02235174447, 35780.91839324455, -0.098, 0.98, 0.04, 192.0, 0.0, 0.0, 0.0, 0.0, 0.0, 0.0, 0.0, 0.0, 0.0, 1.698958283392104E9, 0.0, 2023-11-02 16:51:23.392
124.0, -187500.02235174447, 187500.0, 2677.5378200456885, 50086.14660336335, 187500.0, 187500.0, -187500.02235174447, 35782.84064326771, -0.098, 0.98, 0.04, 192.0, 0.0, 0.0, 0.0, 0.0, 0.0, 0.0, 0.0, 0.0, 0.0, 1.6989582833921134E9, 0.0, 2023-11-02 16:51:23.392
125.0, -187500.02235174447, 187500.0, 2672.553381032155, 50112.38755135388, 187500.0, 187500.0, -187500.02235174447, 35779.197308921495, -0.098, 0.98, 0.04, 192.0, 0.0, 0.0, 0.0, 0.0, 0.0, 0.0, 0.0, 0.0, 0.0, 1.6989582833921235E9, 0.0, 2023-11-02 16:51:23.392
126.0, -187500.02235174447, 187500.0, 2676.733157245297, 50109.88415597488, 187500.0, 187500.0, -187500.02235174447, 35783.041808967806, -0.098, 0.98, 0.04, 192.0, 0.0, 0.0, 0.0, 0.0, 0.0, 0.0, 0.0, 0.0, 0.0, 1.6989582833921373E9, 0.0, 2023-11-02 16:51:23.392
127.0, -187500.02235174447, 187500.0, 2685.807965494152, 50092.00276041064, 187500.0, 187500.0, -187500.02235174447, 35791.423713138545, -0.098, 0.98, 0.04, 192.0, 0.0, 0.0, 0.0, 0.0, 0.0, 0.0, 0.0, 0.0, 0.0, 1.6989582833921485E9, 0.0, 2023-11-02 16:51:23.392
128.0, -187500.02235174447, 187500.0, 2681.7846514921966, 50093.70149298925, 187500.0, 187500.0, -187500.02235174447, 35789.054428226285, -0.098, 0.98, 0.04, 192.0, 0.0, 0.0, 0.0, 0.0, 0.0, 0.0, 0.0, 0.0, 0.0, 1.6989582833921597E9, 0.0, 2023-11-02 16:51:23.392
129.0, -187500.02235174447, 187500.0, 2681.359968347546, 50110.3758943529, 187500.0, 187500.0, -187500.02235174447, 35787.75802704788, -0.098, 0.98, 0.04, 192.0, 0.0, 0.0, 0.0, 0.0, 0.0, 0.0, 0.0, 0.0, 0.0, 1.6989582833921697E9, 0.0, 2023-11-02 16:51:23.392
130.0, -187500.02235174447, 187500.0, 2688.736044017797, 50118.73544677919, 187500.0, 187500.0, -187500.02235174447, 35793.90475677309, -0.094, 0.982, 0.038, 192.0, 253.0, 16.0, 30.0, 176.0, 1.0, 48.0, 0.0, 0.0, 0.0, 1.6989582833921802E9, 0.0, 2023-11-02 16:51:23.392
131.0, -187500.02235174447, 187500.0, 2693.318151631135, 50108.520699563116, 187500.0, 187500.0, -187500.02235174447, 35800.297355687304, -0.094, 0.982, 0.038, 192.0, 0.0, 0.0, 0.0, 0.0, 0.0, 0.0, 0.0, 0.0, 0.0, 1.698958283392192E9, 0.0, 2023-11-02 16:51:23.392
132.0, -187500.02235174447, 187500.0, 2691.798233008174, 50100.317609348014, 187500.0, 187500.0, -187500.02235174447, 35798.10688473069, -0.094, 0.982, 0.038, 192.0, 0.0, 0.0, 0.0, 0.0, 0.0, 0.0, 0.0, 0.0, 0.0, 1.6989582833922021E9, 0.0, 2023-11-02 16:51:23.392
133.0, -187500.02235174447, 187500.0, 2685.29387537168, 50116.187347911284, 187500.0, 187500.0, -187500.02235174447, 35790.01555323786, -0.094, 0.982, 0.038, 192.0, 0.0, 0.0, 0.0, 0.0, 0.0, 0.0, 0.0, 0.0, 0.0, 1.6989582833922174E9, 0.0, 2023-11-02 16:51:23.392
134.0, -187500.02235174447, 187500.0, 2686.4114625944453, 50122.73640903669, 187500.0, 187500.0, -187500.02235174447, 35789.90379451559, -0.094, 0.982, 0.038, 192.0, 0.0, 0.0, 0.0, 0.0, 0.0, 0.0, 0.0, 0.0, 0.0, 1.698958283392228E9, 0.0, 2023-11-02 16:51:23.392
135.0, -187500.02235174447, 187500.0, 2697.3414656330906, 50102.93276344929, 187500.0, 187500.0, -187500.02235174447, 35798.68803008652, -0.094, 0.982, 0.038, 192.0, 0.0, 0.0, 0.0, 0.0, 0.0, 0.0, 0.0, 0.0, 0.0, 1.6989582833922386E9, 0.0, 2023-11-02 16:51:23.392
136.0, -187500.02235174447, 187500.0, 2699.286067400702, 50095.48963254567, 187500.0, 187500.0, -187500.02235174447, 35797.7492568194, -0.094, 0.982, 0.038, 192.0, 0.0, 0.0, 0.0, 0.0, 0.0, 0.0, 0.0, 0.0, 0.0, 1.6989582833922637E9, 0.0, 2023-11-02 16:51:23.392
137.0, -187500.02235174447, 187500.0, 2689.9430382183837, 50120.16595842433, 187500.0, 187500.0, -187500.02235174447, 35788.629745081635, -0.094, 0.982, 0.038, 192.0, 0.0, 0.0, 0.0, 0.0, 0.0, 0.0, 0.0, 0.0, 0.0, 1.6989582833922741E9, 0.0, 2023-11-02 16:51:23.392
138.0, -187500.02235174447, 187500.0, 2686.4338143389004, 50139.45551388926, 187500.0, 187500.0, -187500.02235174447, 35783.98058223493, -0.094, 0.982, 0.038, 192.0, 0.0, 0.0, 0.0, 0.0, 0.0, 0.0, 0.0, 0.0, 0.0, 1.698958283392284E9, 0.0, 2023-11-02 16:51:23.392
139.0, -187500.02235174447, 187500.0, 2692.6923027863863, 50121.5294148361, 187500.0, 187500.0, -187500.02235174447, 35788.696800315, -0.094, 0.982, 0.038, 192.0, 0.0, 0.0, 0.0, 0.0, 0.0, 0.0, 0.0, 0.0, 0.0, 1.6989582833922937E9, 0.0, 2023-11-02 16:51:23.392
140.0, -187500.02235174447, 187500.0, 2693.407558608956, 50108.431292585294, 187500.0, 187500.0, -187500.02235174447, 35790.19436719351, -0.092, 0.98, 0.032, 192.0, 253.0, 32.0, 30.0, 160.0, 1.0, 0.0, 0.0, 0.0, 0.0, 1.6989582833923047E9, 0.0, 2023-11-02 16:51:23.392
141.0, -187500.02235174447, 187500.0, 2682.8128317371406, 50125.26215616014, 187500.0, 187500.0, -187500.02235174447, 35782.66182931207, -0.092, 0.98, 0.032, 192.0, 0.0, 0.0, 0.0, 0.0, 0.0, 0.0, 0.0, 0.0, 0.0, 1.6989582833923173E9, 0.0, 2023-11-02 16:51:23.392
142.0, -187500.02235174447, 187500.0, 2677.135488645493, 50137.55561561056, 187500.0, 187500.0, -187500.02235174447, 35776.045712953295, -0.092, 0.98, 0.032, 192.0, 0.0, 0.0, 0.0, 0.0, 0.0, 0.0, 0.0, 0.0, 0.0, 1.6989582833923292E9, 0.0, 2023-11-02 16:51:23.392
143.0, -187500.02235174447, 187500.0, 2679.10244215756, 50128.61491782843, 187500.0, 187500.0, -187500.02235174447, 35775.95630597547, -0.092, 0.98, 0.032, 192.0, 0.0, 0.0, 0.0, 0.0, 0.0, 0.0, 0.0, 0.0, 0.0, 1.6989582833923397E9, 0.0, 2023-11-02 16:51:23.392
144.0, -187500.02235174447, 187500.0, 2677.761337490241, 50107.738388507176, 187500.0, 187500.0, -187500.02235174447, 35773.83289025222, -0.092, 0.98, 0.032, 192.0, 0.0, 0.0, 0.0, 0.0, 0.0, 0.0, 0.0, 0.0, 0.0, 1.6989582833923504E9, 0.0, 2023-11-02 16:51:23.392
145.0, -187500.02235174447, 187500.0, 2669.3794333195015, 50111.33701936448, 187500.0, 187500.0, -187500.02235174447, 35766.72503551543, -0.092, 0.98, 0.032, 192.0, 0.0, 0.0, 0.0, 0.0, 0.0, 0.0, 0.0, 0.0, 0.0, 1.698958283392361E9, 0.0, 2023-11-02 16:51:23.392
146.0, -187500.02235174447, 187500.0, 2667.658348996443, 50123.831644515, 187500.0, 187500.0, -187500.02235174447, 35764.62397153663, -0.092, 0.98, 0.032, 192.0, 0.0, 0.0, 0.0, 0.0, 0.0, 0.0, 0.0, 0.0, 0.0, 1.6989582833923712E9, 0.0, 2023-11-02 16:51:23.392
147.0, -187500.02235174447, 187500.0, 2669.8041164641522, 50126.625612571916, 187500.0, 187500.0, -187500.02235174447, 35766.76973900435, -0.092, 0.98, 0.032, 192.0, 0.0, 0.0, 0.0, 0.0, 0.0, 0.0, 0.0, 0.0, 0.0, 1.6989582833923836E9, 0.0, 2023-11-02 16:51:23.392
148.0, -187500.02235174447, 187500.0, 2676.0849566560933, 50109.81710074152, 187500.0, 187500.0, -187500.02235174447, 35771.46360533996, -0.092, 0.98, 0.032, 192.0, 0.0, 0.0, 0.0, 0.0, 0.0, 0.0, 0.0, 0.0, 0.0, 1.6989582833923945E9, 0.0, 2023-11-02 16:51:23.392
149.0, -187500.02235174447, 187500.0, 2679.348311346568, 50118.82485375701, 187500.0, 187500.0, -187500.02235174447, 35772.491785584905, -0.092, 0.98, 0.032, 192.0, 0.0, 0.0, 0.0, 0.0, 0.0, 0.0, 0.0, 0.0, 0.0, 1.6989582833924053E9, 0.0, 2023-11-02 16:51:23.392
150.0, -187500.02235174447, 187500.0, 2676.5319915451996, 50155.92874955282, 187500.0, 187500.0, -187500.02235174447, 35769.72016927245, -0.092, 0.98, 0.036000000000000004, 192.0, 253.0, 32.0, 30.0, 160.0, 1.0, 32.0, 0.0, 0.0, 0.0, 1.698958283392416E9, 0.0, 2023-11-02 16:51:23.392
151.0, -187500.02235174447, 187500.0, 2674.3638723330346, 50158.29803446508, 187500.0, 187500.0, -187500.02235174447, 35767.61910529365, -0.092, 0.98, 0.036000000000000004, 192.0, 0.0, 0.0, 0.0, 0.0, 0.0, 0.0, 0.0, 0.0, 0.0, 1.698958283392446E9, 0.0, 2023-11-02 16:51:23.392
152.0, -187500.02235174447, 187500.0, 2688.9595614623504, 50135.25338593166, 187500.0, 187500.0, -187500.02235174447, 35780.13608218862, -0.092, 0.98, 0.036000000000000004, 192.0, 0.0, 0.0, 0.0, 0.0, 0.0, 0.0, 0.0, 0.0, 0.0, 1.6989582833924568E9, 0.0, 2023-11-02 16:51:23.392
153.0, -187500.02235174447, 187500.0, 2683.8186602376295, 50137.71207782174, 187500.0, 187500.0, -187500.02235174447, 35776.17982342003, -0.092, 0.98, 0.036000000000000004, 192.0, 0.0, 0.0, 0.0, 0.0, 0.0, 0.0, 0.0, 0.0, 0.0, 1.6989582833924668E9, 0.0, 2023-11-02 16:51:23.392
154.0, -187500.02235174447, 187500.0, 2678.9236282019174, 50161.22611298873, 187500.0, 187500.0, -187500.02235174447, 35770.43542509501, -0.092, 0.98, 0.036000000000000004, 192.0, 0.0, 0.0, 0.0, 0.0, 0.0, 0.0, 0.0, 0.0, 0.0, 1.698958283392477E9, 0.0, 2023-11-02 16:51:23.392
155.0, -187500.02235174447, 187500.0, 2676.2861223561913, 50167.79752585859, 187500.0, 187500.0, -187500.02235174447, 35764.95924770347, -0.092, 0.98, 0.036000000000000004, 192.0, 0.0, 0.0, 0.0, 0.0, 0.0, 0.0, 0.0, 0.0, 0.0, 1.6989582833924873E9, 0.0, 2023-11-02 16:51:23.392
156.0, -187500.02235174447, 187500.0, 2682.7904799926855, 50148.73148783821, 187500.0, 187500.0, -187500.02235174447, 35768.580230305226, -0.092, 0.98, 0.036000000000000004, 192.0, 0.0, 0.0, 0.0, 0.0, 0.0, 0.0, 0.0, 0.0, 0.0, 1.6989582833924987E9, 0.0, 2023-11-02 16:51:23.392
157.0, -187500.02235174447, 187500.0, 2682.0528724256606, 50146.49631339268, 187500.0, 187500.0, -187500.02235174447, 35767.6414570381, -0.092, 0.98, 0.036000000000000004, 192.0, 0.0, 0.0, 0.0, 0.0, 0.0, 0.0, 0.0, 0.0, 0.0, 1.698958283392509E9, 0.0, 2023-11-02 16:51:23.392
158.0, -187500.02235174447, 187500.0, 2679.057738668649, 50163.41658394535, 187500.0, 187500.0, -187500.02235174447, 35762.70172151348, -0.092, 0.98, 0.036000000000000004, 192.0, 0.0, 0.0, 0.0, 0.0, 0.0, 0.0, 0.0, 0.0, 0.0, 1.698958283392521E9, 0.0, 2023-11-02 16:51:23.392
159.0, -187500.02235174447, 187500.0, 2683.282218370702, 50176.045319562596, 187500.0, 187500.0, -187500.02235174447, 35766.03213143732, -0.092, 0.98, 0.036000000000000004, 192.0, 0.0, 0.0, 0.0, 0.0, 0.0, 0.0, 0.0, 0.0, 0.0, 1.6989582833925352E9, 0.0, 2023-11-02 16:51:23.392
160.0, -187500.02235174447, 187500.0, 2683.4163288374343, 50157.44866817578, 187500.0, 187500.0, -187500.02235174447, 35765.83096573722, -0.09, 0.984, 0.038, 192.0, 253.0, 48.0, 30.0, 192.0, 1.0, 48.0, 0.0, 0.0, 0.0, 1.6989582833925471E9, 0.0, 2023-11-02 16:51:23.392
161.0, -187500.02235174447, 187500.0, 2683.5057358152553, 50144.14938022487, 187500.0, 187500.0, -187500.02235174447, 35766.72503551543, -0.09, 0.984, 0.038, 192.0, 0.0, 0.0, 0.0, 0.0, 0.0, 0.0, 0.0, 0.0, 0.0, 1.6989582833925593E9, 0.0, 2023-11-02 16:51:23.392
162.0, -187500.02235174447, 187500.0, 2679.2142008798364, 50158.566255398546, 187500.0, 187500.0, -187500.02235174447, 35763.4393290805, -0.09, 0.984, 0.038, 192.0, 0.0, 0.0, 0.0, 0.0, 0.0, 0.0, 0.0, 0.0, 0.0, 1.698958283392569E9, 0.0, 2023-11-02 16:51:23.392
163.0, -187500.02235174447, 187500.0, 2676.0179014227274, 50175.754746884675, 187500.0, 187500.0, -187500.02235174447, 35759.192497633994, -0.09, 0.984, 0.038, 192.0, 0.0, 0.0, 0.0, 0.0, 0.0, 0.0, 0.0, 0.0, 0.0, 1.6989582833925796E9, 0.0, 2023-11-02 16:51:23.392
164.0, -187500.02235174447, 187500.0, 2680.8905817139844, 50166.56817991355, 187500.0, 187500.0, -187500.02235174447, 35762.81348023575, -0.09, 0.984, 0.038, 192.0, 0.0, 0.0, 0.0, 0.0, 0.0, 0.0, 0.0, 0.0, 0.0, 1.698958283392591E9, 0.0, 2023-11-02 16:51:23.392
165.0, -187500.02235174447, 187500.0, 2687.931381217406, 50147.658604104356, 187500.0, 187500.0, -187500.02235174447, 35770.949515217486, -0.09, 0.984, 0.038, 192.0, 0.0, 0.0, 0.0, 0.0, 0.0, 0.0, 0.0, 0.0, 0.0, 1.6989582833926024E9, 0.0, 2023-11-02 16:51:23.392
166.0, -187500.02235174447, 187500.0, 2688.870154484529, 50165.42824094633, 187500.0, 187500.0, -187500.02235174447, 35771.97769546243, -0.09, 0.984, 0.038, 192.0, 0.0, 0.0, 0.0, 0.0, 0.0, 0.0, 0.0, 0.0, 0.0, 1.698958283392628E9, 0.0, 2023-11-02 16:51:23.392
167.0, -187500.02235174447, 187500.0, 2682.0752241701157, 50188.6964069243, 187500.0, 187500.0, -187500.02235174447, 35765.3392273592, -0.09, 0.984, 0.038, 192.0, 0.0, 0.0, 0.0, 0.0, 0.0, 0.0, 0.0, 0.0, 0.0, 1.6989582833926399E9, 0.0, 2023-11-02 16:51:23.392
168.0, -187500.02235174447, 187500.0, 2688.5572300621548, 50177.81110737457, 187500.0, 187500.0, -187500.02235174447, 35770.9942187064, -0.09, 0.984, 0.038, 192.0, 0.0, 0.0, 0.0, 0.0, 0.0, 0.0, 0.0, 0.0, 0.0, 1.6989582833926547E9, 0.0, 2023-11-02 16:51:23.392
169.0, -187500.02235174447, 187500.0, 2690.166555662937, 50158.07451702053, 187500.0, 187500.0, -187500.02235174447, 35771.46360533996, -0.09, 0.984, 0.038, 192.0, 0.0, 0.0, 0.0, 0.0, 0.0, 0.0, 0.0, 0.0, 0.0, 1.698958283392665E9, 0.0, 2023-11-02 16:51:23.392
170.0, -187500.02235174447, 187500.0, 2689.808927751652, 50157.11339200895, 187500.0, 187500.0, -187500.02235174447, 35771.150680917584, -0.096, 0.978, 0.036000000000000004, 192.0, 253.0, 0.0, 30.0, 144.0, 1.0, 32.0, 0.0, 0.0, 0.0, 1.6989582833926752E9, 0.0, 2023-11-02 16:51:23.392
171.0, -187500.02235174447, 187500.0, 2672.3075118431466, 50185.38834874491, 187500.0, 187500.0, -187500.02235174447, 35755.280942354315, -0.096, 0.978, 0.036000000000000004, 192.0, 0.0, 0.0, 0.0, 0.0, 0.0, 0.0, 0.0, 0.0, 0.0, 1.698958283392687E9, 0.0, 2023-11-02 16:51:23.392
172.0, -187500.02235174447, 187500.0, 2674.2074101218477, 50167.998691558685, 187500.0, 187500.0, -187500.02235174447, 35755.68327375451, -0.096, 0.978, 0.036000000000000004, 192.0, 0.0, 0.0, 0.0, 0.0, 0.0, 0.0, 0.0, 0.0, 0.0, 1.698958283392697E9, 0.0, 2023-11-02 16:51:23.392
173.0, -187500.02235174447, 187500.0, 2686.1432416609814, 50153.380650684914, 187500.0, 187500.0, -187500.02235174447, 35767.48499482691, -0.096, 0.978, 0.036000000000000004, 192.0, 0.0, 0.0, 0.0, 0.0, 0.0, 0.0, 0.0, 0.0, 0.0, 1.698958283858189E9, 0.0, 2023-11-02 16:51:23.858
174.0, -187500.02235174447, 187500.0, 2684.064529426638, 50159.70619436577, 187500.0, 187500.0, -187500.02235174447, 35767.663808782556, -0.096, 0.978, 0.036000000000000004, 192.0, 0.0, 0.0, 0.0, 0.0, 0.0, 0.0, 0.0, 0.0, 0.0, 1.698958283858294E9, 0.0, 2023-11-02 16:51:23.858
175.0, -187500.02235174447, 187500.0, 2679.974160191317, 50176.246485262694, 187500.0, 187500.0, -187500.02235174447, 35765.3392273592, -0.096, 0.978, 0.036000000000000004, 192.0, 0.0, 0.0, 0.0, 0.0, 0.0, 0.0, 0.0, 0.0, 0.0, 1.698958283858308E9, 0.0, 2023-11-02 16:51:23.858
176.0, -187500.02235174447, 187500.0, 2679.2812561132023, 50178.74988064169, 187500.0, 187500.0, -187500.02235174447, 35763.08170116922, -0.096, 0.978, 0.036000000000000004, 192.0, 0.0, 0.0, 0.0, 0.0, 0.0, 0.0, 0.0, 0.0, 0.0, 1.698958283858324E9, 0.0, 2023-11-02 16:51:23.858
177.0, -187500.02235174447, 187500.0, 2685.003302693761, 50159.4379734323, 187500.0, 187500.0, -187500.02235174447, 35768.55787856077, -0.096, 0.978, 0.036000000000000004, 192.0, 0.0, 0.0, 0.0, 0.0, 0.0, 0.0, 0.0, 0.0, 0.0, 1.6989582838583376E9, 0.0, 2023-11-02 16:51:23.858
178.0, -187500.02235174447, 187500.0, 2687.2831806282024, 50156.08521176401, 187500.0, 187500.0, -187500.02235174447, 35770.815404750756, -0.096, 0.978, 0.036000000000000004, 192.0, 0.0, 0.0, 0.0, 0.0, 0.0, 0.0, 0.0, 0.0, 0.0, 1.698958283858351E9, 0.0, 2023-11-02 16:51:23.858
179.0, -187500.02235174447, 187500.0, 2687.506698072755, 50185.56716270056, 187500.0, 187500.0, -187500.02235174447, 35772.916468729556, -0.096, 0.978, 0.036000000000000004, 192.0, 0.0, 0.0, 0.0, 0.0, 0.0, 0.0, 0.0, 0.0, 0.0, 1.6989582838583817E9, 0.0, 2023-11-02 16:51:23.858
180.0, -187500.02235174447, 187500.0, 2684.0868811710934, 50190.573953458545, 187500.0, 187500.0, -187500.02235174447, 35769.541355316804, -0.096, 0.98, 0.044, 192.0, 253.0, 0.0, 30.0, 160.0, 1.0, 96.0, 0.0, 0.0, 0.0, 1.6989582838583925E9, 0.0, 2023-11-02 16:51:23.858
181.0, -187500.02235174447, 187500.0, 2687.4396428393893, 50167.39519445839, 187500.0, 187500.0, -187500.02235174447, 35770.63659079511, -0.096, 0.98, 0.044, 192.0, 0.0, 0.0, 0.0, 0.0, 0.0, 0.0, 0.0, 0.0, 0.0, 1.6989582838584082E9, 0.0, 2023-11-02 16:51:23.858
182.0, -187500.02235174447, 187500.0, 2690.9488667188725, 50154.27472046312, 187500.0, 187500.0, -187500.02235174447, 35774.50344258588, -0.096, 0.98, 0.044, 192.0, 0.0, 0.0, 0.0, 0.0, 0.0, 0.0, 0.0, 0.0, 0.0, 1.6989582838585627E9, 0.0, 2023-11-02 16:51:23.858
183.0, -187500.02235174447, 187500.0, 2682.1646311479367, 50180.96270334276, 187500.0, 187500.0, -187500.02235174447, 35767.50734657137, -0.096, 0.98, 0.044, 192.0, 0.0, 0.0, 0.0, 0.0, 0.0, 0.0, 0.0, 0.0, 0.0, 1.6989582838585763E9, 0.0, 2023-11-02 16:51:23.858
184.0, -187500.02235174447, 187500.0, 2676.5766950341103, 50187.087081323516, 187500.0, 187500.0, -187500.02235174447, 35761.718244757445, -0.096, 0.98, 0.044, 192.0, 0.0, 0.0, 0.0, 0.0, 0.0, 0.0, 0.0, 0.0, 0.0, 1.6989582838585868E9, 0.0, 2023-11-02 16:51:23.858
185.0, -187500.02235174447, 187500.0, 2680.2200293803253, 50163.14836301188, 187500.0, 187500.0, -187500.02235174447, 35763.37227384714, -0.096, 0.98, 0.044, 192.0, 0.0, 0.0, 0.0, 0.0, 0.0, 0.0, 0.0, 0.0, 0.0, 1.698958283858598E9, 0.0, 2023-11-02 16:51:23.858
186.0, -187500.02235174447, 187500.0, 2686.970256205828, 50146.54101688159, 187500.0, 187500.0, -187500.02235174447, 35770.18955590601, -0.096, 0.98, 0.044, 192.0, 0.0, 0.0, 0.0, 0.0, 0.0, 0.0, 0.0, 0.0, 0.0, 1.6989582838586085E9, 0.0, 2023-11-02 16:51:23.858
187.0, -187500.02235174447, 187500.0, 2680.0859189135936, 50175.10654629547, 187500.0, 187500.0, -187500.02235174447, 35764.869840725645, -0.096, 0.98, 0.044, 192.0, 0.0, 0.0, 0.0, 0.0, 0.0, 0.0, 0.0, 0.0, 0.0, 1.6989582838586185E9, 0.0, 2023-11-02 16:51:23.858
188.0, -187500.02235174447, 187500.0, 2676.3755293340123, 50190.46219473627, 187500.0, 187500.0, -187500.02235174447, 35760.399491834585, -0.096, 0.98, 0.044, 192.0, 0.0, 0.0, 0.0, 0.0, 0.0, 0.0, 0.0, 0.0, 0.0, 1.6989582838586285E9, 0.0, 2023-11-02 16:51:23.858
189.0, -187500.02235174447, 187500.0, 2679.258904368747, 50176.76057538517, 187500.0, 187500.0, -187500.02235174447, 35762.41114883556, -0.096, 0.98, 0.044, 192.0, 0.0, 0.0, 0.0, 0.0, 0.0, 0.0, 0.0, 0.0, 0.0, 1.69895828385864E9, 0.0, 2023-11-02 16:51:23.858
190.0, -187500.02235174447, 187500.0, 2679.013035179739, 50165.897627579885, 187500.0, 187500.0, -187500.02235174447, 35762.209983135464, -0.094, 0.976, 0.044, 192.0, 253.0, 16.0, 30.0, 128.0, 1.0, 96.0, 0.0, 0.0, 0.0, 1.6989582838586693E9, 0.0, 2023-11-02 16:51:23.858
191.0, -187500.02235174447, 187500.0, 2679.616532280032, 50173.944255583796, 187500.0, 187500.0, -187500.02235174447, 35762.23233487992, -0.094, 0.976, 0.044, 192.0, 0.0, 0.0, 0.0, 0.0, 0.0, 0.0, 0.0, 0.0, 0.0, 1.698958283858681E9, 0.0, 2023-11-02 16:51:23.858
192.0, -187500.02235174447, 187500.0, 2680.376491591512, 50201.191032074814, 187500.0, 187500.0, -187500.02235174447, 35761.56178254626, -0.094, 0.976, 0.044, 192.0, 0.0, 0.0, 0.0, 0.0, 0.0, 0.0, 0.0, 0.0, 0.0, 1.6989582838586915E9, 0.0, 2023-11-02 16:51:23.858
193.0, -187500.02235174447, 187500.0, 2684.91389571594, 50195.80426166109, 187500.0, 187500.0, -187500.02235174447, 35764.109881414166, -0.094, 0.976, 0.044, 192.0, 0.0, 0.0, 0.0, 0.0, 0.0, 0.0, 0.0, 0.0, 0.0, 1.6989582838587017E9, 0.0, 2023-11-02 16:51:23.858
194.0, -187500.02235174447, 187500.0, 2682.7904799926855, 50181.52149695415, 187500.0, 187500.0, -187500.02235174447, 35760.958285445966, -0.094, 0.976, 0.044, 192.0, 0.0, 0.0, 0.0, 0.0, 0.0, 0.0, 0.0, 0.0, 0.0, 1.6989582838587124E9, 0.0, 2023-11-02 16:51:23.858
195.0, -187500.02235174447, 187500.0, 2678.0519101681602, 50183.89078186641, 187500.0, 187500.0, -187500.02235174447, 35756.37617783263, -0.094, 0.976, 0.044, 192.0, 0.0, 0.0, 0.0, 0.0, 0.0, 0.0, 0.0, 0.0, 0.0, 1.698958283858722E9, 0.0, 2023-11-02 16:51:23.858
196.0, -187500.02235174447, 187500.0, 2679.1471456464706, 50196.74303492821, 187500.0, 187500.0, -187500.02235174447, 35755.88443945461, -0.094, 0.976, 0.044, 192.0, 0.0, 0.0, 0.0, 0.0, 0.0, 0.0, 0.0, 0.0, 0.0, 1.698958283858732E9, 0.0, 2023-11-02 16:51:23.858
197.0, -187500.02235174447, 187500.0, 2683.259866626247, 50197.21242156177, 187500.0, 187500.0, -187500.02235174447, 35757.60552377767, -0.094, 0.976, 0.044, 192.0, 0.0, 0.0, 0.0, 0.0, 0.0, 0.0, 0.0, 0.0, 0.0, 1.6989582838587604E9, 0.0, 2023-11-02 16:51:23.858
198.0, -187500.02235174447, 187500.0, 2686.880849228007, 50177.855810863475, 187500.0, 187500.0, -187500.02235174447, 35760.533602301315, -0.094, 0.976, 0.044, 192.0, 0.0, 0.0, 0.0, 0.0, 0.0, 0.0, 0.0, 0.0, 0.0, 1.6989582838587704E9, 0.0, 2023-11-02 16:51:23.858
199.0, -187500.02235174447, 187500.0, 2679.1694973909257, 50188.02585459064, 187500.0, 187500.0, -187500.02235174447, 35754.36452083165, -0.094, 0.976, 0.044, 192.0, 0.0, 0.0, 0.0, 0.0, 0.0, 0.0, 0.0, 0.0, 0.0, 1.6989582838587806E9, 0.0, 2023-11-02 16:51:23.858
200.0, -187500.02235174447, 187500.0, 2676.2414188672806, 50211.51753801317, 187500.0, 187500.0, -187500.02235174447, 35752.01758766384, -0.092, 0.98, 0.042, 192.0, 253.0, 32.0, 30.0, 160.0, 1.0, 80.0, 0.0, 0.0, 0.0, 1.6989582838587909E9, 0.0, 2023-11-02 16:51:23.858
201.0, -187500.02235174447, 187500.0, 2681.069395669627, 50215.74201771522, 187500.0, 187500.0, -187500.02235174447, 35755.86208771016, -0.092, 0.98, 0.042, 192.0, 0.0, 0.0, 0.0, 0.0, 0.0, 0.0, 0.0, 0.0, 0.0, 1.698958283858802E9, 0.0, 2023-11-02 16:51:23.858
202.0, -187500.02235174447, 187500.0, 2685.6291515385096, 50196.944200628306, 187500.0, 187500.0, -187500.02235174447, 35759.59482903419, -0.092, 0.98, 0.042, 192.0, 0.0, 0.0, 0.0, 0.0, 0.0, 0.0, 0.0, 0.0, 0.0, 1.6989582838588128E9, 0.0, 2023-11-02 16:51:23.858
203.0, -187500.02235174447, 187500.0, 2681.516430558733, 50195.26781979416, 187500.0, 187500.0, -187500.02235174447, 35754.588038276204, -0.092, 0.98, 0.042, 192.0, 0.0, 0.0, 0.0, 0.0, 0.0, 0.0, 0.0, 0.0, 0.0, 1.6989582838588233E9, 0.0, 2023-11-02 16:51:23.858
204.0, -187500.02235174447, 187500.0, 2678.0519101681602, 50212.2998490691, 187500.0, 187500.0, -187500.02235174447, 35749.69300624049, -0.092, 0.98, 0.042, 192.0, 0.0, 0.0, 0.0, 0.0, 0.0, 0.0, 0.0, 0.0, 0.0, 1.6989582838588338E9, 0.0, 2023-11-02 16:51:23.858
205.0, -187500.02235174447, 187500.0, 2679.750642746764, 50218.62539274996, 187500.0, 187500.0, -187500.02235174447, 35750.5870760187, -0.092, 0.98, 0.042, 192.0, 0.0, 0.0, 0.0, 0.0, 0.0, 0.0, 0.0, 0.0, 0.0, 1.6989582838588445E9, 0.0, 2023-11-02 16:51:23.858
206.0, -187500.02235174447, 187500.0, 2676.6884537563865, 50206.55545074409, 187500.0, 187500.0, -187500.02235174447, 35745.3344160717, -0.092, 0.98, 0.042, 192.0, 0.0, 0.0, 0.0, 0.0, 0.0, 0.0, 0.0, 0.0, 0.0, 1.6989582838588552E9, 0.0, 2023-11-02 16:51:23.858
207.0, -187500.02235174447, 187500.0, 2677.4707648123226, 50190.90922962537, 187500.0, 187500.0, -187500.02235174447, 35745.11089862715, -0.092, 0.98, 0.042, 192.0, 0.0, 0.0, 0.0, 0.0, 0.0, 0.0, 0.0, 0.0, 0.0, 1.698958283858866E9, 0.0, 2023-11-02 16:51:23.858
208.0, -187500.02235174447, 187500.0, 2685.740910260786, 50219.16183461688, 187500.0, 187500.0, -187500.02235174447, 35753.91748594254, -0.092, 0.98, 0.042, 192.0, 0.0, 0.0, 0.0, 0.0, 0.0, 0.0, 0.0, 0.0, 0.0, 1.6989582838588772E9, 0.0, 2023-11-02 16:51:23.858
209.0, -187500.02235174447, 187500.0, 2681.7622997477415, 50244.73223027375, 187500.0, 187500.0, -187500.02235174447, 35749.11186088465, -0.092, 0.98, 0.042, 192.0, 0.0, 0.0, 0.0, 0.0, 0.0, 0.0, 0.0, 0.0, 0.0, 1.6989582838588867E9, 0.0, 2023-11-02 16:51:23.858
210.0, -187500.02235174447, 187500.0, 2686.1432416609814, 50225.88970969793, 187500.0, 187500.0, -187500.02235174447, 35750.743538229886, -0.09, 0.982, 0.04, 192.0, 253.0, 48.0, 30.0, 176.0, 1.0, 64.0, 0.0, 0.0, 0.0, 1.6989582838588977E9, 0.0, 2023-11-02 16:51:23.858
211.0, -187500.02235174447, 187500.0, 2688.825450995618, 50208.92473565635, 187500.0, 187500.0, -187500.02235174447, 35753.31398884225, -0.09, 0.982, 0.04, 192.0, 0.0, 0.0, 0.0, 0.0, 0.0, 0.0, 0.0, 0.0, 0.0, 1.6989582838589132E9, 0.0, 2023-11-02 16:51:23.858
212.0, -187500.02235174447, 187500.0, 2682.5669625481323, 50230.13654114444, 187500.0, 187500.0, -187500.02235174447, 35747.54723877278, -0.09, 0.982, 0.04, 192.0, 0.0, 0.0, 0.0, 0.0, 0.0, 0.0, 0.0, 0.0, 0.0, 1.6989582838589404E9, 0.0, 2023-11-02 16:51:23.858
213.0, -187500.02235174447, 187500.0, 2681.9858171922942, 50245.51454132969, 187500.0, 187500.0, -187500.02235174447, 35745.17795386052, -0.09, 0.982, 0.04, 192.0, 0.0, 0.0, 0.0, 0.0, 0.0, 0.0, 0.0, 0.0, 0.0, 1.6989582838589516E9, 0.0, 2023-11-02 16:51:23.858
214.0, -187500.02235174447, 187500.0, 2684.9809509493057, 50237.624375536965, 187500.0, 187500.0, -187500.02235174447, 35747.05550039477, -0.09, 0.982, 0.04, 192.0, 0.0, 0.0, 0.0, 0.0, 0.0, 0.0, 0.0, 0.0, 0.0, 1.6989582838589618E9, 0.0, 2023-11-02 16:51:23.858
215.0, -187500.02235174447, 187500.0, 2684.3103986156466, 50214.64678223691, 187500.0, 187500.0, -187500.02235174447, 35747.05550039477, -0.09, 0.982, 0.04, 192.0, 0.0, 0.0, 0.0, 0.0, 0.0, 0.0, 0.0, 0.0, 0.0, 1.6989582838589723E9, 0.0, 2023-11-02 16:51:23.858
216.0, -187500.02235174447, 187500.0, 2684.4445090823783, 50219.05007589461, 187500.0, 187500.0, -187500.02235174447, 35746.049671894274, -0.09, 0.982, 0.04, 192.0, 0.0, 0.0, 0.0, 0.0, 0.0, 0.0, 0.0, 0.0, 0.0, 1.6989582838589823E9, 0.0, 2023-11-02 16:51:23.858
217.0, -187500.02235174447, 187500.0, 2681.1140991585376, 50248.48732334225, 187500.0, 187500.0, -187500.02235174447, 35742.07106138123, -0.09, 0.982, 0.04, 192.0, 0.0, 0.0, 0.0, 0.0, 0.0, 0.0, 0.0, 0.0, 0.0, 1.6989582838589923E9, 0.0, 2023-11-02 16:51:23.858
218.0, -187500.02235174447, 187500.0, 2680.711767758342, 50243.90521572891, 187500.0, 187500.0, -187500.02235174447, 35741.91459917004, -0.09, 0.982, 0.04, 192.0, 0.0, 0.0, 0.0, 0.0, 0.0, 0.0, 0.0, 0.0, 0.0, 1.6989582838590028E9, 0.0, 2023-11-02 16:51:23.859
219.0, -187500.02235174447, 187500.0, 2683.617494537532, 50221.44171255132, 187500.0, 187500.0, -187500.02235174447, 35741.378157303116, -0.09, 0.982, 0.04, 192.0, 0.0, 0.0, 0.0, 0.0, 0.0, 0.0, 0.0, 0.0, 0.0, 1.6989582838590133E9, 0.0, 2023-11-02 16:51:23.859
220.0, -187500.02235174447, 187500.0, 2690.3677213630344, 50230.31535510008, 187500.0, 187500.0, -187500.02235174447, 35746.72022422793, -0.088, 0.978, 0.04, 192.0, 253.0, 64.0, 30.0, 144.0, 1.0, 64.0, 0.0, 0.0, 0.0, 1.6989582838590233E9, 0.0, 2023-11-02 16:51:23.859
221.0, -187500.02235174447, 187500.0, 2684.1762881489144, 50261.22781768177, 187500.0, 187500.0, -187500.02235174447, 35740.41703229154, -0.088, 0.978, 0.04, 192.0, 0.0, 0.0, 0.0, 0.0, 0.0, 0.0, 0.0, 0.0, 0.0, 1.6989582838590343E9, 0.0, 2023-11-02 16:51:23.859
222.0, -187500.02235174447, 187500.0, 2690.2112591518476, 50262.74773630473, 187500.0, 187500.0, -187500.02235174447, 35746.183782361004, -0.088, 0.978, 0.04, 192.0, 0.0, 0.0, 0.0, 0.0, 0.0, 0.0, 0.0, 0.0, 0.0, 1.6989582838590443E9, 0.0, 2023-11-02 16:51:23.859
223.0, -187500.02235174447, 187500.0, 2689.093671929082, 50242.27353838367, 187500.0, 187500.0, -187500.02235174447, 35744.55210501577, -0.088, 0.978, 0.04, 192.0, 0.0, 0.0, 0.0, 0.0, 0.0, 0.0, 0.0, 0.0, 0.0, 1.6989582838590572E9, 0.0, 2023-11-02 16:51:23.859
224.0, -187500.02235174447, 187500.0, 2687.6631602839425, 50238.02670693716, 187500.0, 187500.0, -187500.02235174447, 35742.74161371489, -0.088, 0.978, 0.04, 192.0, 0.0, 0.0, 0.0, 0.0, 0.0, 0.0, 0.0, 0.0, 0.0, 1.6989582838590696E9, 0.0, 2023-11-02 16:51:23.859
225.0, -187500.02235174447, 187500.0, 2686.813793994641, 50260.44550662584, 187500.0, 187500.0, -187500.02235174447, 35742.51809627034, -0.088, 0.978, 0.04, 192.0, 0.0, 0.0, 0.0, 0.0, 0.0, 0.0, 0.0, 0.0, 0.0, 1.6989582838590796E9, 0.0, 2023-11-02 16:51:23.859
226.0, -187500.02235174447, 187500.0, 2687.9537329618615, 50270.414384652904, 187500.0, 187500.0, -187500.02235174447, 35743.322759070725, -0.088, 0.978, 0.04, 192.0, 0.0, 0.0, 0.0, 0.0, 0.0, 0.0, 0.0, 0.0, 0.0, 1.6989582838590899E9, 0.0, 2023-11-02 16:51:23.859
227.0, -187500.02235174447, 187500.0, 2691.038273696694, 50252.108305944006, 187500.0, 187500.0, -187500.02235174447, 35744.97678816042, -0.088, 0.978, 0.04, 192.0, 0.0, 0.0, 0.0, 0.0, 0.0, 0.0, 0.0, 0.0, 0.0, 1.6989582838591175E9, 0.0, 2023-11-02 16:51:23.859
228.0, -187500.02235174447, 187500.0, 2687.0373114391937, 50251.59421582153, 187500.0, 187500.0, -187500.02235174447, 35742.22752359242, -0.088, 0.978, 0.04, 192.0, 0.0, 0.0, 0.0, 0.0, 0.0, 0.0, 0.0, 0.0, 0.0, 1.6989582838591318E9, 0.0, 2023-11-02 16:51:23.859
229.0, -187500.02235174447, 187500.0, 2679.124793902015, 50277.00814926722, 187500.0, 187500.0, -187500.02235174447, 35734.873799666624, -0.088, 0.978, 0.04, 192.0, 0.0, 0.0, 0.0, 0.0, 0.0, 0.0, 0.0, 0.0, 0.0, 1.6989582838591428E9, 0.0, 2023-11-02 16:51:23.859
230.0, -187500.02235174447, 187500.0, 2679.348311346568, 50282.57373363659, 187500.0, 187500.0, -187500.02235174447, 35734.382061288605, -0.08600000000000001, 0.978, 0.042, 192.0, 253.0, 80.0, 30.0, 144.0, 1.0, 80.0, 0.0, 0.0, 0.0, 1.6989582838591533E9, 0.0, 2023-11-02 16:51:23.859
231.0, -187500.02235174447, 187500.0, 2692.1782126639146, 50265.18407645036, 187500.0, 187500.0, -187500.02235174447, 35747.234314350404, -0.08600000000000001, 0.978, 0.042, 192.0, 0.0, 0.0, 0.0, 0.0, 0.0, 0.0, 0.0, 0.0, 0.0, 1.698958283859166E9, 0.0, 2023-11-02 16:51:23.859
232.0, -187500.02235174447, 187500.0, 2685.6515032829648, 50265.54170436165, 187500.0, 187500.0, -187500.02235174447, 35741.109936369656, -0.08600000000000001, 0.978, 0.042, 192.0, 0.0, 0.0, 0.0, 0.0, 0.0, 0.0, 0.0, 0.0, 0.0, 1.698958283859182E9, 0.0, 2023-11-02 16:51:23.859
233.0, -187500.02235174447, 187500.0, 2677.9848549347944, 50276.73992833375, 187500.0, 187500.0, -187500.02235174447, 35734.1361920996, -0.08600000000000001, 0.978, 0.042, 192.0, 0.0, 0.0, 0.0, 0.0, 0.0, 0.0, 0.0, 0.0, 0.0, 1.6989582838591921E9, 0.0, 2023-11-02 16:51:23.859
