%OpenBCI Raw EEG Data
%Number of channels = 8
%Sample Rate = 250 Hz
%Board = OpenBCI_GUI$BoardCytonSerial
Sample Index, EXG Channel 0, EXG Channel 1, EXG Channel 2, EXG Channel 3, EXG Channel 4, EXG Channel 5, EXG Channel 6, EXG Channel 7, Accel Channel 0, Accel Channel 1, Accel Channel 2, Other, Other, Other, Other, Other, Other, Other, Analog Channel 0, Analog Channel 1, Analog Channel 2, Timestamp, Other, Timestamp (Formatted)
181.0, -187500.02235174447, 187500.0, 2492.487727700201, 48174.98304545678, 187500.0, 187500.0, -187500.02235174447, 37947.8082594643, 0.0, 0.0, 0.0, 192.0, 0.0, 0.0, 0.0, 0.0, 0.0, 0.0, 0.0, 0.0, 0.0, 1.6989582652165866E9, 0.0, 2023-11-02 16:51:05.216
182.0, -187500.02235174447, 187500.0, 2484.8657828409414, 48207.035447005685, 187500.0, 187500.0, -187500.02235174447, 37940.96862566097, 0.0, 0.0, 0.0, 192.0, 0.0, 0.0, 0.0, 0.0, 0.0, 0.0, 0.0, 0.0, 0.0, 1.698958265216627E9, 0.0, 2023-11-02 16:51:05.216
183.0, -187500.02235174447, 187500.0, 2482.675311884321, 48233.52226418522, 187500.0, 187500.0, -187500.02235174447, 37940.87921868315, 0.0, 0.0, 0.0, 192.0, 0.0, 0.0, 0.0, 0.0, 0.0, 0.0, 0.0, 0.0, 0.0, 1.6989582652166364E9, 0.0, 2023-11-02 16:51:05.216
184.0, -187500.02235174447, 187500.0, 2485.1340037744053, 48214.70209535386, 187500.0, 187500.0, -187500.02235174447, 37942.17561986156, -0.082, 0.982, 0.0, 192.0, 253.0, 112.0, 30.0, 176.0, 0.0, 0.0, 0.0, 0.0, 0.0, 1.698958265216646E9, 0.0, 2023-11-02 16:51:05.216
185.0, -187500.02235174447, 187500.0, 2485.201059007771, 48198.58648760158, 187500.0, 187500.0, -187500.02235174447, 37941.59447450572, -0.082, 0.982, 0.0, 192.0, 0.0, 0.0, 0.0, 0.0, 0.0, 0.0, 0.0, 0.0, 0.0, 1.6989582652166572E9, 0.0, 2023-11-02 16:51:05.216
186.0, -187500.02235174447, 187500.0, 2481.915352572841, 48218.881871567, 187500.0, 187500.0, -187500.02235174447, 37937.41469829258, -0.082, 0.982, 0.0, 192.0, 0.0, 0.0, 0.0, 0.0, 0.0, 0.0, 0.0, 0.0, 0.0, 1.6989582652166667E9, 0.0, 2023-11-02 16:51:05.216
187.0, -187500.02235174447, 187500.0, 2479.881343827408, 48243.468790467836, 187500.0, 187500.0, -187500.02235174447, 37935.4030412916, -0.082, 0.982, 0.0, 192.0, 0.0, 0.0, 0.0, 0.0, 0.0, 0.0, 0.0, 0.0, 0.0, 1.6989582652166765E9, 0.0, 2023-11-02 16:51:05.216
188.0, -187500.02235174447, 187500.0, 2484.530506674112, 48219.418313433926, 187500.0, 187500.0, -187500.02235174447, 37940.32042507177, -0.082, 0.982, 0.0, 192.0, 0.0, 0.0, 0.0, 0.0, 0.0, 0.0, 0.0, 0.0, 0.0, 1.698958265216686E9, 0.0, 2023-11-02 16:51:05.216
189.0, -187500.02235174447, 187500.0, 2489.4031869653686, 48190.53985959767, 187500.0, 187500.0, -187500.02235174447, 37945.43897455204, -0.082, 0.982, 0.0, 192.0, 0.0, 0.0, 0.0, 0.0, 0.0, 0.0, 0.0, 0.0, 0.0, 1.6989582652166955E9, 0.0, 2023-11-02 16:51:05.216
190.0, -187500.02235174447, 187500.0, 2490.3419602324916, 48213.51745289772, 187500.0, 187500.0, -187500.02235174447, 37946.243637352425, -0.082, 0.982, 0.0, 192.0, 0.0, 0.0, 0.0, 0.0, 0.0, 0.0, 0.0, 0.0, 0.0, 1.698958265216705E9, 0.0, 2023-11-02 16:51:05.216
191.0, -187500.02235174447, 187500.0, 2491.3030852440697, 48246.195703291385, 187500.0, 187500.0, -187500.02235174447, 37946.42245130807, -0.082, 0.982, 0.0, 192.0, 0.0, 0.0, 0.0, 0.0, 0.0, 0.0, 0.0, 0.0, 0.0, 1.6989582652167146E9, 0.0, 2023-11-02 16:51:05.216
192.0, -187500.02235174447, 187500.0, 2487.950323575774, 48237.232653764804, 187500.0, 187500.0, -187500.02235174447, 37944.32138732927, -0.082, 0.982, 0.0, 192.0, 0.0, 0.0, 0.0, 0.0, 0.0, 0.0, 0.0, 0.0, 0.0, 1.698958265216724E9, 0.0, 2023-11-02 16:51:05.216
193.0, -187500.02235174447, 187500.0, 2491.191326521793, 48206.65546734995, 187500.0, 187500.0, -187500.02235174447, 37947.718852486476, -0.082, 0.982, 0.0, 192.0, 0.0, 0.0, 0.0, 0.0, 0.0, 0.0, 0.0, 0.0, 0.0, 1.6989582652167337E9, 0.0, 2023-11-02 16:51:05.216
194.0, -187500.02235174447, 187500.0, 2483.1223467734276, 48219.10538901155, 187500.0, 187500.0, -187500.02235174447, 37940.40983204959, -0.08, 0.986, -0.008, 192.0, 253.0, 128.0, 30.0, 208.0, 255.0, 192.0, 0.0, 0.0, 0.0, 1.6989582652167432E9, 0.0, 2023-11-02 16:51:05.216
195.0, -187500.02235174447, 187500.0, 2481.982407806207, 48247.26858702524, 187500.0, 187500.0, -187500.02235174447, 37939.78398320484, -0.08, 0.986, -0.008, 192.0, 0.0, 0.0, 0.0, 0.0, 0.0, 0.0, 0.0, 0.0, 0.0, 1.6989582652167535E9, 0.0, 2023-11-02 16:51:05.216
196.0, -187500.02235174447, 187500.0, 2483.4129194513466, 48247.60386319207, 187500.0, 187500.0, -187500.02235174447, 37939.94044541603, -0.08, 0.986, -0.008, 192.0, 0.0, 0.0, 0.0, 0.0, 0.0, 0.0, 0.0, 0.0, 0.0, 1.6989582652167635E9, 0.0, 2023-11-02 16:51:05.216
197.0, -187500.02235174447, 187500.0, 2485.938666574796, 48217.943098299875, 187500.0, 187500.0, -187500.02235174447, 37940.6557012386, -0.08, 0.986, -0.008, 192.0, 0.0, 0.0, 0.0, 0.0, 0.0, 0.0, 0.0, 0.0, 0.0, 1.6989582652168713E9, 0.0, 2023-11-02 16:51:05.216
198.0, -187500.02235174447, 187500.0, 2484.910486329852, 48217.78663608869, 187500.0, 187500.0, -187500.02235174447, 37938.82285819326, -0.08, 0.986, -0.008, 192.0, 0.0, 0.0, 0.0, 0.0, 0.0, 0.0, 0.0, 0.0, 0.0, 1.6989582652168813E9, 0.0, 2023-11-02 16:51:05.216
199.0, -187500.02235174447, 187500.0, 2477.3108932150476, 48250.91192137145, 187500.0, 187500.0, -187500.02235174447, 37930.59741623371, -0.08, 0.986, -0.008, 192.0, 0.0, 0.0, 0.0, 0.0, 0.0, 0.0, 0.0, 0.0, 0.0, 1.6989582652168908E9, 0.0, 2023-11-02 16:51:05.216
200.0, -187500.02235174447, 187500.0, 2479.389605449391, 48247.17918004742, 187500.0, 187500.0, -187500.02235174447, 37931.983224389944, -0.08, 0.986, -0.008, 192.0, 0.0, 0.0, 0.0, 0.0, 0.0, 0.0, 0.0, 0.0, 0.0, 1.6989582652169003E9, 0.0, 2023-11-02 16:51:05.216
201.0, -187500.02235174447, 187500.0, 2487.1456607753826, 48209.22591796231, 187500.0, 187500.0, -187500.02235174447, 37938.86756168217, -0.08, 0.986, -0.008, 192.0, 0.0, 0.0, 0.0, 0.0, 0.0, 0.0, 0.0, 0.0, 0.0, 1.69895826521691E9, 0.0, 2023-11-02 16:51:05.216
202.0, -187500.02235174447, 187500.0, 2491.3477887329805, 48203.43681614838, 187500.0, 187500.0, -187500.02235174447, 37945.17075361857, -0.08, 0.986, -0.008, 192.0, 0.0, 0.0, 0.0, 0.0, 0.0, 0.0, 0.0, 0.0, 0.0, 1.69895826521692E9, 0.0, 2023-11-02 16:51:05.216
203.0, -187500.02235174447, 187500.0, 2482.138870017394, 48239.82545612162, 187500.0, 187500.0, -187500.02235174447, 37937.63821573713, -0.08, 0.986, -0.008, 192.0, 0.0, 0.0, 0.0, 0.0, 0.0, 0.0, 0.0, 0.0, 0.0, 1.6989582652169323E9, 0.0, 2023-11-02 16:51:05.216
204.0, -187500.02235174447, 187500.0, 2473.175820490816, 48244.653432923966, 187500.0, 187500.0, -187500.02235174447, 37927.64698596561, -0.082, 0.986, -0.002, 192.0, 253.0, 112.0, 30.0, 208.0, 255.0, 240.0, 0.0, 0.0, 0.0, 1.6989582652169418E9, 0.0, 2023-11-02 16:51:05.216
205.0, -187500.02235174447, 187500.0, 2486.3857014639025, 48206.0296185052, 187500.0, 187500.0, -187500.02235174447, 37938.487582026435, -0.082, 0.986, -0.002, 192.0, 0.0, 0.0, 0.0, 0.0, 0.0, 0.0, 0.0, 0.0, 0.0, 1.6989582652169523E9, 0.0, 2023-11-02 16:51:05.216
206.0, -187500.02235174447, 187500.0, 2491.101919543972, 48194.09378696606, 187500.0, 187500.0, -187500.02235174447, 37942.89087568413, -0.082, 0.986, -0.002, 192.0, 0.0, 0.0, 0.0, 0.0, 0.0, 0.0, 0.0, 0.0, 0.0, 1.6989582652169628E9, 0.0, 2023-11-02 16:51:05.216
207.0, -187500.02235174447, 187500.0, 2478.719053115732, 48225.38622920349, 187500.0, 187500.0, -187500.02235174447, 37929.971567388966, -0.082, 0.986, -0.002, 192.0, 0.0, 0.0, 0.0, 0.0, 0.0, 0.0, 0.0, 0.0, 0.0, 1.6989582652169724E9, 0.0, 2023-11-02 16:51:05.216
208.0, -187500.02235174447, 187500.0, 2484.8210793520307, 48241.68065091141, 187500.0, 187500.0, -187500.02235174447, 37936.095945369714, -0.082, 0.986, -0.002, 192.0, 0.0, 0.0, 0.0, 0.0, 0.0, 0.0, 0.0, 0.0, 0.0, 1.6989582652169828E9, 0.0, 2023-11-02 16:51:05.216
209.0, -187500.02235174447, 187500.0, 2488.978503820718, 48227.84492109358, 187500.0, 187500.0, -187500.02235174447, 37940.92392217206, -0.082, 0.986, -0.002, 192.0, 0.0, 0.0, 0.0, 0.0, 0.0, 0.0, 0.0, 0.0, 0.0, 1.6989582652169924E9, 0.0, 2023-11-02 16:51:05.216
210.0, -187500.02235174447, 187500.0, 2490.8336986105082, 48211.39403717447, 187500.0, 187500.0, -187500.02235174447, 37940.61099774969, -0.082, 0.986, -0.002, 192.0, 0.0, 0.0, 0.0, 0.0, 0.0, 0.0, 0.0, 0.0, 0.0, 1.698958265217002E9, 0.0, 2023-11-02 16:51:05.217
211.0, -187500.02235174447, 187500.0, 2485.1563555188604, 48238.05966830965, 187500.0, 187500.0, -187500.02235174447, 37933.34668080171, -0.082, 0.986, -0.002, 192.0, 0.0, 0.0, 0.0, 0.0, 0.0, 0.0, 0.0, 0.0, 0.0, 1.6989582652170115E9, 0.0, 2023-11-02 16:51:05.217
212.0, -187500.02235174447, 187500.0, 2483.614085151444, 48262.84775291059, 187500.0, 187500.0, -187500.02235174447, 37932.36320404568, -0.082, 0.986, -0.002, 192.0, 0.0, 0.0, 0.0, 0.0, 0.0, 0.0, 0.0, 0.0, 0.0, 1.6989582652170465E9, 0.0, 2023-11-02 16:51:05.217
213.0, -187500.02235174447, 187500.0, 2490.7666433771424, 48247.939139358896, 187500.0, 187500.0, -187500.02235174447, 37940.14161111613, -0.082, 0.986, -0.002, 192.0, 0.0, 0.0, 0.0, 0.0, 0.0, 0.0, 0.0, 0.0, 0.0, 1.6989582652170563E9, 0.0, 2023-11-02 16:51:05.217
214.0, -187500.02235174447, 187500.0, 2494.588791679, 48224.44745593637, 187500.0, 187500.0, -187500.02235174447, 37944.09786988472, -0.084, 0.982, -0.002, 192.0, 253.0, 96.0, 30.0, 176.0, 255.0, 240.0, 0.0, 0.0, 0.0, 1.6989582652170658E9, 0.0, 2023-11-02 16:51:05.217
215.0, -187500.02235174447, 187500.0, 2488.822041609531, 48231.55531067316, 187500.0, 187500.0, -187500.02235174447, 37937.19118084803, -0.084, 0.982, -0.002, 192.0, 0.0, 0.0, 0.0, 0.0, 0.0, 0.0, 0.0, 0.0, 0.0, 1.698958265217076E9, 0.0, 2023-11-02 16:51:05.217
216.0, -187500.02235174447, 187500.0, 2487.905620086863, 48260.947854631886, 187500.0, 187500.0, -187500.02235174447, 37937.23588433694, -0.084, 0.982, -0.002, 192.0, 0.0, 0.0, 0.0, 0.0, 0.0, 0.0, 0.0, 0.0, 0.0, 1.6989582652170858E9, 0.0, 2023-11-02 16:51:05.217
217.0, -187500.02235174447, 187500.0, 2491.0348643106063, 48268.50274425778, 187500.0, 187500.0, -187500.02235174447, 37937.79467794832, -0.084, 0.982, -0.002, 192.0, 0.0, 0.0, 0.0, 0.0, 0.0, 0.0, 0.0, 0.0, 0.0, 1.6989582652170956E9, 0.0, 2023-11-02 16:51:05.217
218.0, -187500.02235174447, 187500.0, 2489.6937596432876, 48250.50958997126, 187500.0, 187500.0, -187500.02235174447, 37934.62073023566, -0.084, 0.982, -0.002, 192.0, 0.0, 0.0, 0.0, 0.0, 0.0, 0.0, 0.0, 0.0, 0.0, 1.6989582652171052E9, 0.0, 2023-11-02 16:51:05.217
219.0, -187500.02235174447, 187500.0, 2488.598524164978, 48253.54942721718, 187500.0, 187500.0, -187500.02235174447, 37933.74901220191, -0.084, 0.982, -0.002, 192.0, 0.0, 0.0, 0.0, 0.0, 0.0, 0.0, 0.0, 0.0, 0.0, 1.6989582652171147E9, 0.0, 2023-11-02 16:51:05.217
220.0, -187500.02235174447, 187500.0, 2484.5752101630223, 48291.79326198021, 187500.0, 187500.0, -187500.02235174447, 37930.306843555794, -0.084, 0.982, -0.002, 192.0, 0.0, 0.0, 0.0, 0.0, 0.0, 0.0, 0.0, 0.0, 0.0, 1.6989582652171247E9, 0.0, 2023-11-02 16:51:05.217
221.0, -187500.02235174447, 187500.0, 2486.720977630732, 48290.13923289052, 187500.0, 187500.0, -187500.02235174447, 37932.29614881231, -0.084, 0.982, -0.002, 192.0, 0.0, 0.0, 0.0, 0.0, 0.0, 0.0, 0.0, 0.0, 0.0, 1.6989582652171347E9, 0.0, 2023-11-02 16:51:05.217
222.0, -187500.02235174447, 187500.0, 2494.164108534349, 48259.11501158655, 187500.0, 187500.0, -187500.02235174447, 37936.16300060308, -0.084, 0.982, -0.002, 192.0, 0.0, 0.0, 0.0, 0.0, 0.0, 0.0, 0.0, 0.0, 0.0, 1.6989582652171445E9, 0.0, 2023-11-02 16:51:05.217
223.0, -187500.02235174447, 187500.0, 2498.8356231255084, 48259.98672962031, 187500.0, 187500.0, -187500.02235174447, 37940.298073327314, -0.084, 0.982, -0.002, 192.0, 0.0, 0.0, 0.0, 0.0, 0.0, 0.0, 0.0, 0.0, 0.0, 1.698958265217154E9, 0.0, 2023-11-02 16:51:05.217
224.0, -187500.02235174447, 187500.0, 2490.520774188134, 48302.03036094074, 187500.0, 187500.0, -187500.02235174447, 37932.4526110235, -0.088, 0.984, 0.0, 192.0, 253.0, 64.0, 30.0, 192.0, 0.0, 0.0, 0.0, 0.0, 0.0, 1.698958265217165E9, 0.0, 2023-11-02 16:51:05.217
225.0, -187500.02235174447, 187500.0, 2493.2476870116816, 48313.13917793503, 187500.0, 187500.0, -187500.02235174447, 37936.56533200328, -0.088, 0.984, 0.0, 192.0, 0.0, 0.0, 0.0, 0.0, 0.0, 0.0, 0.0, 0.0, 0.0, 1.6989582652171752E9, 0.0, 2023-11-02 16:51:05.217
226.0, -187500.02235174447, 187500.0, 2495.6393236683994, 48302.544451063215, 187500.0, 187500.0, -187500.02235174447, 37940.32042507177, -0.088, 0.984, 0.0, 192.0, 0.0, 0.0, 0.0, 0.0, 0.0, 0.0, 0.0, 0.0, 0.0, 1.6989582652171848E9, 0.0, 2023-11-02 16:51:05.217
227.0, -187500.02235174447, 187500.0, 2501.0707975710393, 48291.7485584913, 187500.0, 187500.0, -187500.02235174447, 37945.46132629649, -0.088, 0.984, 0.0, 192.0, 0.0, 0.0, 0.0, 0.0, 0.0, 0.0, 0.0, 0.0, 0.0, 1.6989582652172034E9, 0.0, 2023-11-02 16:51:05.217
228.0, -187500.02235174447, 187500.0, 2501.4060737378686, 48328.673640331464, 187500.0, 187500.0, -187500.02235174447, 37945.5060297854, -0.088, 0.984, 0.0, 192.0, 0.0, 0.0, 0.0, 0.0, 0.0, 0.0, 0.0, 0.0, 0.0, 1.698958265217213E9, 0.0, 2023-11-02 16:51:05.217
229.0, -187500.02235174447, 187500.0, 2497.427463224824, 48348.34317545214, 187500.0, 187500.0, -187500.02235174447, 37940.92392217206, -0.088, 0.984, 0.0, 192.0, 0.0, 0.0, 0.0, 0.0, 0.0, 0.0, 0.0, 0.0, 0.0, 1.6989582652172225E9, 0.0, 2023-11-02 16:51:05.217
230.0, -187500.02235174447, 187500.0, 2501.7413499046984, 48319.531776849246, 187500.0, 187500.0, -187500.02235174447, 37944.34373907372, -0.088, 0.984, 0.0, 192.0, 0.0, 0.0, 0.0, 0.0, 0.0, 0.0, 0.0, 0.0, 0.0, 1.698958265217232E9, 0.0, 2023-11-02 16:51:05.217
231.0, -187500.02235174447, 187500.0, 2499.0814923145167, 48308.11003543258, 187500.0, 187500.0, -187500.02235174447, 37942.62265475067, -0.088, 0.984, 0.0, 192.0, 0.0, 0.0, 0.0, 0.0, 0.0, 0.0, 0.0, 0.0, 0.0, 1.6989582652172413E9, 0.0, 2023-11-02 16:51:05.217
232.0, -187500.02235174447, 187500.0, 2497.4945184581898, 48337.05554450221, 187500.0, 187500.0, -187500.02235174447, 37940.789811705334, -0.088, 0.984, 0.0, 192.0, 0.0, 0.0, 0.0, 0.0, 0.0, 0.0, 0.0, 0.0, 0.0, 1.6989582652172508E9, 0.0, 2023-11-02 16:51:05.217
233.0, -187500.02235174447, 187500.0, 2489.11261428745, 48365.39755647154, 187500.0, 187500.0, -187500.02235174447, 37930.91034065608, -0.088, 0.984, 0.0, 192.0, 0.0, 0.0, 0.0, 0.0, 0.0, 0.0, 0.0, 0.0, 0.0, 1.6989582652172604E9, 0.0, 2023-11-02 16:51:05.217
234.0, -187500.02235174447, 187500.0, 2490.3866637214023, 48341.972928282376, 187500.0, 187500.0, -187500.02235174447, 37931.58089298975, -0.084, 0.984, 0.002, 192.0, 253.0, 96.0, 30.0, 192.0, 0.0, 16.0, 0.0, 0.0, 0.0, 1.69895826521727E9, 0.0, 2023-11-02 16:51:05.217
235.0, -187500.02235174447, 187500.0, 2496.4439864687906, 48319.79999778271, 187500.0, 187500.0, -187500.02235174447, 37937.928788415054, -0.084, 0.984, 0.002, 192.0, 0.0, 0.0, 0.0, 0.0, 0.0, 0.0, 0.0, 0.0, 0.0, 1.6989582652172804E9, 0.0, 2023-11-02 16:51:05.217
236.0, -187500.02235174447, 187500.0, 2498.5674021920445, 48334.26157644529, 187500.0, 187500.0, -187500.02235174447, 37939.806334949295, -0.084, 0.984, 0.002, 192.0, 0.0, 0.0, 0.0, 0.0, 0.0, 0.0, 0.0, 0.0, 0.0, 1.69895826521729E9, 0.0, 2023-11-02 16:51:05.217
237.0, -187500.02235174447, 187500.0, 2497.941553347296, 48361.6648151475, 187500.0, 187500.0, -187500.02235174447, 37937.861733181686, -0.084, 0.984, 0.002, 192.0, 0.0, 0.0, 0.0, 0.0, 0.0, 0.0, 0.0, 0.0, 0.0, 1.6989582652172997E9, 0.0, 2023-11-02 16:51:05.217
238.0, -187500.02235174447, 187500.0, 2494.1864602788046, 48359.60845465761, 187500.0, 187500.0, -187500.02235174447, 37933.43608777953, -0.084, 0.984, 0.002, 192.0, 0.0, 0.0, 0.0, 0.0, 0.0, 0.0, 0.0, 0.0, 0.0, 1.698958265217309E9, 0.0, 2023-11-02 16:51:05.217
239.0, -187500.02235174447, 187500.0, 2494.141756789894, 48329.746524065326, 187500.0, 187500.0, -187500.02235174447, 37931.82676217875, -0.084, 0.984, 0.002, 192.0, 0.0, 0.0, 0.0, 0.0, 0.0, 0.0, 0.0, 0.0, 0.0, 1.6989582652173185E9, 0.0, 2023-11-02 16:51:05.217
240.0, -187500.02235174447, 187500.0, 2495.6393236683994, 48333.61337585609, 187500.0, 187500.0, -187500.02235174447, 37932.63142497915, -0.084, 0.984, 0.002, 192.0, 0.0, 0.0, 0.0, 0.0, 0.0, 0.0, 0.0, 0.0, 0.0, 1.698958265217328E9, 0.0, 2023-11-02 16:51:05.217
241.0, -187500.02235174447, 187500.0, 2490.453718954768, 48370.42669897398, 187500.0, 187500.0, -187500.02235174447, 37929.3010150553, -0.084, 0.984, 0.002, 192.0, 0.0, 0.0, 0.0, 0.0, 0.0, 0.0, 0.0, 0.0, 0.0, 1.6989582652173376E9, 0.0, 2023-11-02 16:51:05.217
242.0, -187500.02235174447, 187500.0, 2490.878402099419, 48364.21291401541, 187500.0, 187500.0, -187500.02235174447, 37928.78692493283, -0.084, 0.984, 0.002, 192.0, 0.0, 0.0, 0.0, 0.0, 0.0, 0.0, 0.0, 0.0, 0.0, 1.698958265217368E9, 0.0, 2023-11-02 16:51:05.217
243.0, -187500.02235174447, 187500.0, 2502.4119022383575, 48340.6094718706, 187500.0, 187500.0, -187500.02235174447, 37938.062898881784, -0.084, 0.984, 0.002, 192.0, 0.0, 0.0, 0.0, 0.0, 0.0, 0.0, 0.0, 0.0, 0.0, 1.698958265217378E9, 0.0, 2023-11-02 16:51:05.217
244.0, -187500.02235174447, 187500.0, 2502.9930475941956, 48356.8144866007, 187500.0, 187500.0, -187500.02235174447, 37938.26406458188, -0.08600000000000001, 0.98, -0.002, 192.0, 253.0, 80.0, 30.0, 160.0, 255.0, 240.0, 0.0, 0.0, 0.0, 1.6989582652173877E9, 0.0, 2023-11-02 16:51:05.217
245.0, -187500.02235174447, 187500.0, 2493.068873056039, 48394.119548096605, 187500.0, 187500.0, -187500.02235174447, 37929.01044237738, -0.08600000000000001, 0.98, -0.002, 192.0, 0.0, 0.0, 0.0, 0.0, 0.0, 0.0, 0.0, 0.0, 0.0, 1.6989582652173994E9, 0.0, 2023-11-02 16:51:05.217
246.0, -187500.02235174447, 187500.0, 2493.3147422450475, 48388.6210189606, 187500.0, 187500.0, -187500.02235174447, 37931.22326507846, -0.08600000000000001, 0.98, -0.002, 192.0, 0.0, 0.0, 0.0, 0.0, 0.0, 0.0, 0.0, 0.0, 0.0, 1.6989582652174091E9, 0.0, 2023-11-02 16:51:05.217
247.0, -187500.02235174447, 187500.0, 2493.9852945787065, 48364.32467273768, 187500.0, 187500.0, -187500.02235174447, 37933.57019824626, -0.08600000000000001, 0.98, -0.002, 192.0, 0.0, 0.0, 0.0, 0.0, 0.0, 0.0, 0.0, 0.0, 0.0, 1.698958265217419E9, 0.0, 2023-11-02 16:51:05.217
248.0, -187500.02235174447, 187500.0, 2498.723864403232, 48361.195428513936, 187500.0, 187500.0, -187500.02235174447, 37938.39817504861, -0.08600000000000001, 0.98, -0.002, 192.0, 0.0, 0.0, 0.0, 0.0, 0.0, 0.0, 0.0, 0.0, 0.0, 1.6989582652174284E9, 0.0, 2023-11-02 16:51:05.217
249.0, -187500.02235174447, 187500.0, 2498.0980155584834, 48393.94073414096, 187500.0, 187500.0, -187500.02235174447, 37936.96766340348, -0.08600000000000001, 0.98, -0.002, 192.0, 0.0, 0.0, 0.0, 0.0, 0.0, 0.0, 0.0, 0.0, 0.0, 1.698958265217438E9, 0.0, 2023-11-02 16:51:05.217
250.0, -187500.02235174447, 187500.0, 2495.393454479391, 48414.63844950658, 187500.0, 187500.0, -187500.02235174447, 37935.15717210259, -0.08600000000000001, 0.98, -0.002, 192.0, 0.0, 0.0, 0.0, 0.0, 0.0, 0.0, 0.0, 0.0, 0.0, 1.6989582652174475E9, 0.0, 2023-11-02 16:51:05.217
251.0, -187500.02235174447, 187500.0, 2506.837547640508, 48382.228420046384, 187500.0, 187500.0, -187500.02235174447, 37946.64596875262, -0.08600000000000001, 0.98, -0.002, 192.0, 0.0, 0.0, 0.0, 0.0, 0.0, 0.0, 0.0, 0.0, 0.0, 1.6989582652174573E9, 0.0, 2023-11-02 16:51:05.217
252.0, -187500.02235174447, 187500.0, 2508.692742430299, 48389.76095792782, 187500.0, 187500.0, -187500.02235174447, 37947.025948408365, -0.08600000000000001, 0.98, -0.002, 192.0, 0.0, 0.0, 0.0, 0.0, 0.0, 0.0, 0.0, 0.0, 0.0, 1.6989582652174668E9, 0.0, 2023-11-02 16:51:05.217
253.0, -187500.02235174447, 187500.0, 2498.522698703134, 48425.523749056316, 187500.0, 187500.0, -187500.02235174447, 37934.1066401132, -0.08600000000000001, 0.98, -0.002, 192.0, 0.0, 0.0, 0.0, 0.0, 0.0, 0.0, 0.0, 0.0, 0.0, 1.6989582652174764E9, 0.0, 2023-11-02 16:51:05.217
254.0, -187500.02235174447, 187500.0, 2502.2777917716257, 48436.92313872852, 187500.0, 187500.0, -187500.02235174447, 37935.626558736156, -0.076, 0.982, 0.002, 192.0, 253.0, 160.0, 30.0, 176.0, 0.0, 16.0, 0.0, 0.0, 0.0, 1.698958265217486E9, 0.0, 2023-11-02 16:51:05.217
255.0, -187500.02235174447, 187500.0, 2503.753006905676, 48415.68898149598, 187500.0, 187500.0, -187500.02235174447, 37936.69944247001, -0.076, 0.982, 0.002, 192.0, 0.0, 0.0, 0.0, 0.0, 0.0, 0.0, 0.0, 0.0, 0.0, 1.698958265217496E9, 0.0, 2023-11-02 16:51:05.217
0.0, -187500.02235174447, 187500.0, 2503.6412481833995, 48398.14286209856, 187500.0, 187500.0, -187500.02235174447, 37936.56533200328, -0.076, 0.982, 0.002, 192.0, 0.0, 0.0, 0.0, 0.0, 0.0, 0.0, 0.0, 0.0, 0.0, 1.6989582652175057E9, 0.0, 2023-11-02 16:51:05.217
1.0, -187500.02235174447, 187500.0, 2510.324419775536, 48421.09810365416, 187500.0, 187500.0, -187500.02235174447, 37944.075518140264, -0.076, 0.982, 0.002, 192.0, 0.0, 0.0, 0.0, 0.0, 0.0, 0.0, 0.0, 0.0, 0.0, 1.698958265217517E9, 0.0, 2023-11-02 16:51:05.217
2.0, -187500.02235174447, 187500.0, 2506.144643562394, 48454.91629301504, 187500.0, 187500.0, -187500.02235174447, 37942.42148905057, -0.076, 0.982, 0.002, 192.0, 0.0, 0.0, 0.0, 0.0, 0.0, 0.0, 0.0, 0.0, 0.0, 1.6989582652175777E9, 0.0, 2023-11-02 16:51:05.217
3.0, -187500.02235174447, 187500.0, 2508.6703906858434, 48442.86870275363, 187500.0, 187500.0, -187500.02235174447, 37946.243637352425, -0.076, 0.982, 0.002, 192.0, 0.0, 0.0, 0.0, 0.0, 0.0, 0.0, 0.0, 0.0, 0.0, 1.698958265217588E9, 0.0, 2023-11-02 16:51:05.217
4.0, -187500.02235174447, 187500.0, 2512.000800609684, 48418.77352223081, 187500.0, 187500.0, -187500.02235174447, 37947.51768678638, -0.076, 0.982, 0.002, 192.0, 0.0, 0.0, 0.0, 0.0, 0.0, 0.0, 0.0, 0.0, 0.0, 1.6989582652176142E9, 0.0, 2023-11-02 16:51:05.217
5.0, -187500.02235174447, 187500.0, 2510.4138267533576, 48438.30894688475, 187500.0, 187500.0, -187500.02235174447, 37941.81799195027, -0.076, 0.982, 0.002, 192.0, 0.0, 0.0, 0.0, 0.0, 0.0, 0.0, 0.0, 0.0, 0.0, 1.6989582652176237E9, 0.0, 2023-11-02 16:51:05.217
6.0, -187500.02235174447, 187500.0, 2504.7364836617094, 48465.37690942013, 187500.0, 187500.0, -187500.02235174447, 37933.81606743528, -0.076, 0.982, 0.002, 192.0, 0.0, 0.0, 0.0, 0.0, 0.0, 0.0, 0.0, 0.0, 0.0, 1.6989582652176337E9, 0.0, 2023-11-02 16:51:05.217
7.0, -187500.02235174447, 187500.0, 2509.8997366308854, 48453.619891836635, 187500.0, 187500.0, -187500.02235174447, 37937.79467794832, -0.076, 0.982, 0.002, 192.0, 0.0, 0.0, 0.0, 0.0, 0.0, 0.0, 0.0, 0.0, 0.0, 1.6989582652176435E9, 0.0, 2023-11-02 16:51:05.217
8.0, -187500.02235174447, 187500.0, 2509.296239530592, 48435.358516616645, 187500.0, 187500.0, -187500.02235174447, 37938.73345121544, -0.08, 0.982, 0.0, 192.0, 253.0, 128.0, 30.0, 176.0, 0.0, 0.0, 0.0, 0.0, 0.0, 1.6989582652176535E9, 0.0, 2023-11-02 16:51:05.217
9.0, -187500.02235174447, 187500.0, 2509.340943019503, 48446.15440918856, 187500.0, 187500.0, -187500.02235174447, 37939.538114015835, -0.08, 0.982, 0.0, 192.0, 0.0, 0.0, 0.0, 0.0, 0.0, 0.0, 0.0, 0.0, 0.0, 1.6989582652176635E9, 0.0, 2023-11-02 16:51:05.217
10.0, -187500.02235174447, 187500.0, 2509.2291842972263, 48483.90650557358, 187500.0, 187500.0, -187500.02235174447, 37941.10273612771, -0.08, 0.982, 0.0, 192.0, 0.0, 0.0, 0.0, 0.0, 0.0, 0.0, 0.0, 0.0, 0.0, 1.6989582652176735E9, 0.0, 2023-11-02 16:51:05.217
11.0, -187500.02235174447, 187500.0, 2500.3108382595587, 48486.052273041285, 187500.0, 187500.0, -187500.02235174447, 37931.44678252301, -0.08, 0.982, 0.0, 192.0, 0.0, 0.0, 0.0, 0.0, 0.0, 0.0, 0.0, 0.0, 0.0, 1.6989582652176852E9, 0.0, 2023-11-02 16:51:05.217
12.0, -187500.02235174447, 187500.0, 2513.677181443832, 48445.79678127728, 187500.0, 187500.0, -187500.02235174447, 37943.69553848452, -0.08, 0.982, 0.0, 192.0, 0.0, 0.0, 0.0, 0.0, 0.0, 0.0, 0.0, 0.0, 0.0, 1.6989582652176955E9, 0.0, 2023-11-02 16:51:05.217
13.0, -187500.02235174447, 187500.0, 2511.911393631863, 48458.224351194425, 187500.0, 187500.0, -187500.02235174447, 37942.957930917495, -0.08, 0.982, 0.0, 192.0, 0.0, 0.0, 0.0, 0.0, 0.0, 0.0, 0.0, 0.0, 0.0, 1.698958265217705E9, 0.0, 2023-11-02 16:51:05.217
14.0, -187500.02235174447, 187500.0, 2511.4420069983016, 48495.03767431232, 187500.0, 187500.0, -187500.02235174447, 37943.29320708432, -0.08, 0.982, 0.0, 192.0, 0.0, 0.0, 0.0, 0.0, 0.0, 0.0, 0.0, 0.0, 0.0, 1.6989582652177155E9, 0.0, 2023-11-02 16:51:05.217
15.0, -187500.02235174447, 187500.0, 2506.837547640508, 48503.240764527414, 187500.0, 187500.0, -187500.02235174447, 37938.197009348514, -0.08, 0.982, 0.0, 192.0, 0.0, 0.0, 0.0, 0.0, 0.0, 0.0, 0.0, 0.0, 0.0, 1.6989582652177255E9, 0.0, 2023-11-02 16:51:05.217
16.0, -187500.02235174447, 187500.0, 2511.4420069983016, 48475.52460140284, 187500.0, 187500.0, -187500.02235174447, 37942.71206172849, -0.08, 0.982, 0.0, 192.0, 0.0, 0.0, 0.0, 0.0, 0.0, 0.0, 0.0, 0.0, 0.0, 1.6989582652177355E9, 0.0, 2023-11-02 16:51:05.217
17.0, -187500.02235174447, 187500.0, 2513.1183878324496, 48474.42936592452, 187500.0, 187500.0, -187500.02235174447, 37943.78494546234, -0.08600000000000001, 0.98, -0.004, 192.0, 253.0, 80.0, 30.0, 160.0, 255.0, 224.0, 0.0, 0.0, 0.0, 1.6989582652177613E9, 0.0, 2023-11-02 16:51:05.217
18.0, -187500.02235174447, 187500.0, 2506.435216240313, 48509.45454948599, 187500.0, 187500.0, -187500.02235174447, 37940.432183794044, -0.08600000000000001, 0.98, -0.004, 192.0, 0.0, 0.0, 0.0, 0.0, 0.0, 0.0, 0.0, 0.0, 0.0, 1.6989582652177768E9, 0.0, 2023-11-02 16:51:05.217
19.0, -187500.02235174447, 187500.0, 2505.16116680636, 48524.31845954877, 187500.0, 187500.0, -187500.02235174447, 37937.03471863684, -0.08600000000000001, 0.98, -0.004, 192.0, 0.0, 0.0, 0.0, 0.0, 0.0, 0.0, 0.0, 0.0, 0.0, 1.698958265217789E9, 0.0, 2023-11-02 16:51:05.217
20.0, -187500.02235174447, 187500.0, 2510.950268620285, 48502.056122071284, 187500.0, 187500.0, -187500.02235174447, 37942.957930917495, -0.08600000000000001, 0.98, -0.004, 192.0, 0.0, 0.0, 0.0, 0.0, 0.0, 0.0, 0.0, 0.0, 0.0, 1.6989582652178004E9, 0.0, 2023-11-02 16:51:05.217
21.0, -187500.02235174447, 187500.0, 2518.6616204573656, 48484.26413348486, 187500.0, 187500.0, -187500.02235174447, 37950.89280019913, -0.08600000000000001, 0.98, -0.004, 192.0, 0.0, 0.0, 0.0, 0.0, 0.0, 0.0, 0.0, 0.0, 0.0, 1.698958265217812E9, 0.0, 2023-11-02 16:51:05.217
22.0, -187500.02235174447, 187500.0, 2517.4769780012343, 48520.47395950246, 187500.0, 187500.0, -187500.02235174447, 37950.781041476854, -0.08600000000000001, 0.98, -0.004, 192.0, 0.0, 0.0, 0.0, 0.0, 0.0, 0.0, 0.0, 0.0, 0.0, 1.6989582652178235E9, 0.0, 2023-11-02 16:51:05.217
23.0, -187500.02235174447, 187500.0, 2516.940536134307, 48539.29412833382, 187500.0, 187500.0, -187500.02235174447, 37950.22224786547, -0.08600000000000001, 0.98, -0.004, 192.0, 0.0, 0.0, 0.0, 0.0, 0.0, 0.0, 0.0, 0.0, 0.0, 1.698958265217836E9, 0.0, 2023-11-02 16:51:05.217
24.0, -187500.02235174447, 187500.0, 2520.852091413986, 48520.228090313445, 187500.0, 187500.0, -187500.02235174447, 37952.43507056655, -0.08600000000000001, 0.98, -0.004, 192.0, 0.0, 0.0, 0.0, 0.0, 0.0, 0.0, 0.0, 0.0, 0.0, 1.698958265217852E9, 0.0, 2023-11-02 16:51:05.217
25.0, -187500.02235174447, 187500.0, 2519.0192483686506, 48500.29033425931, 187500.0, 187500.0, -187500.02235174447, 37948.88114319815, -0.08600000000000001, 0.98, -0.004, 192.0, 0.0, 0.0, 0.0, 0.0, 0.0, 0.0, 0.0, 0.0, 0.0, 1.6989582652178693E9, 0.0, 2023-11-02 16:51:05.217
26.0, -187500.02235174447, 187500.0, 2518.7286756907315, 48511.82383439825, 187500.0, 187500.0, -187500.02235174447, 37946.869486197174, -0.08600000000000001, 0.98, -0.004, 192.0, 0.0, 0.0, 0.0, 0.0, 0.0, 0.0, 0.0, 0.0, 0.0, 1.698958265217884E9, 0.0, 2023-11-02 16:51:05.217
27.0, -187500.02235174447, 187500.0, 2514.9959343666956, 48540.791695212334, 187500.0, 187500.0, -187500.02235174447, 37945.28251234085, -0.094, 0.976, 0.002, 192.0, 253.0, 16.0, 30.0, 128.0, 0.0, 16.0, 0.0, 0.0, 0.0, 1.6989582652178972E9, 0.0, 2023-11-02 16:51:05.217
28.0, -187500.02235174447, 187500.0, 2518.4381030128125, 48531.69453521902, 187500.0, 187500.0, -187500.02235174447, 37949.41758506508, -0.094, 0.976, 0.002, 192.0, 0.0, 0.0, 0.0, 0.0, 0.0, 0.0, 0.0, 0.0, 0.0, 1.6989582652179165E9, 0.0, 2023-11-02 16:51:05.217
29.0, -187500.02235174447, 187500.0, 2517.9240128903407, 48515.26600304437, 187500.0, 187500.0, -187500.02235174447, 37949.819916465276, -0.094, 0.976, 0.002, 192.0, 0.0, 0.0, 0.0, 0.0, 0.0, 0.0, 0.0, 0.0, 0.0, 1.6989582652179291E9, 0.0, 2023-11-02 16:51:05.217
30.0, -187500.02235174447, 187500.0, 2515.822948911542, 48522.88794790363, 187500.0, 187500.0, -187500.02235174447, 37945.953064674504, -0.094, 0.976, 0.002, 192.0, 0.0, 0.0, 0.0, 0.0, 0.0, 0.0, 0.0, 0.0, 0.0, 1.698958265217946E9, 0.0, 2023-11-02 16:51:05.217
31.0, -187500.02235174447, 187500.0, 2515.979411122729, 48546.06670690378, 187500.0, 187500.0, -187500.02235174447, 37942.51089602839, -0.094, 0.976, 0.002, 192.0, 0.0, 0.0, 0.0, 0.0, 0.0, 0.0, 0.0, 0.0, 0.0, 1.6989582652179575E9, 0.0, 2023-11-02 16:51:05.217
32.0, -187500.02235174447, 187500.0, 2518.7733791796422, 48523.871424659665, 187500.0, 187500.0, -187500.02235174447, 37943.49437278442, -0.094, 0.976, 0.002, 192.0, 0.0, 0.0, 0.0, 0.0, 0.0, 0.0, 0.0, 0.0, 0.0, 1.6989582652180417E9, 0.0, 2023-11-02 16:51:05.218
33.0, -187500.02235174447, 187500.0, 2524.8530536714857, 48491.34963647719, 187500.0, 187500.0, -187500.02235174447, 37948.32234958677, -0.094, 0.976, 0.002, 192.0, 0.0, 0.0, 0.0, 0.0, 0.0, 0.0, 0.0, 0.0, 0.0, 1.6989582652180552E9, 0.0, 2023-11-02 16:51:05.218
34.0, -187500.02235174447, 187500.0, 2523.4448937708016, 48507.35348550719, 187500.0, 187500.0, -187500.02235174447, 37948.32234958677, -0.094, 0.976, 0.002, 192.0, 0.0, 0.0, 0.0, 0.0, 0.0, 0.0, 0.0, 0.0, 0.0, 1.6989582652180693E9, 0.0, 2023-11-02 16:51:05.218
35.0, -187500.02235174447, 187500.0, 2526.1494548498936, 48544.2562156029, 187500.0, 187500.0, -187500.02235174447, 37951.42924206606, -0.094, 0.976, 0.002, 192.0, 0.0, 0.0, 0.0, 0.0, 0.0, 0.0, 0.0, 0.0, 0.0, 1.6989582652180822E9, 0.0, 2023-11-02 16:51:05.218
36.0, -187500.02235174447, 187500.0, 2533.816103198064, 48546.51374179289, 187500.0, 187500.0, -187500.02235174447, 37961.39812009312, -0.094, 0.976, 0.002, 192.0, 0.0, 0.0, 0.0, 0.0, 0.0, 0.0, 0.0, 0.0, 0.0, 1.6989582652180977E9, 0.0, 2023-11-02 16:51:05.218
37.0, -187500.02235174447, 187500.0, 2524.8307019270305, 48530.107561362696, 187500.0, 187500.0, -187500.02235174447, 37955.49725955692, -0.09, 0.976, 0.002, 192.0, 253.0, 48.0, 30.0, 128.0, 0.0, 16.0, 0.0, 0.0, 0.0, 1.698958265218112E9, 0.0, 2023-11-02 16:51:05.218
38.0, -187500.02235174447, 187500.0, 2526.752951950187, 48527.67122121707, 187500.0, 187500.0, -187500.02235174447, 37957.352454346714, -0.09, 0.976, 0.002, 192.0, 0.0, 0.0, 0.0, 0.0, 0.0, 0.0, 0.0, 0.0, 0.0, 1.6989582652181263E9, 0.0, 2023-11-02 16:51:05.218
39.0, -187500.02235174447, 187500.0, 2517.9240128903407, 48565.3115588798, 187500.0, 187500.0, -187500.02235174447, 37948.81408796478, -0.09, 0.976, 0.002, 192.0, 0.0, 0.0, 0.0, 0.0, 0.0, 0.0, 0.0, 0.0, 0.0, 1.6989582652181404E9, 0.0, 2023-11-02 16:51:05.218
40.0, -187500.02235174447, 187500.0, 2516.8287774120304, 48571.74886128293, 187500.0, 187500.0, -187500.02235174447, 37946.84713445272, -0.09, 0.976, 0.002, 192.0, 0.0, 0.0, 0.0, 0.0, 0.0, 0.0, 0.0, 0.0, 0.0, 1.6989582652181585E9, 0.0, 2023-11-02 16:51:05.218
41.0, -187500.02235174447, 187500.0, 2519.466283257757, 48546.22316911497, 187500.0, 187500.0, -187500.02235174447, 37948.74703273142, -0.09, 0.976, 0.002, 192.0, 0.0, 0.0, 0.0, 0.0, 0.0, 0.0, 0.0, 0.0, 0.0, 1.6989582652181764E9, 0.0, 2023-11-02 16:51:05.218
42.0, -187500.02235174447, 187500.0, 2509.4974052306898, 48544.345622580724, 187500.0, 187500.0, -187500.02235174447, 37941.10273612771, -0.09, 0.976, 0.002, 192.0, 0.0, 0.0, 0.0, 0.0, 0.0, 0.0, 0.0, 0.0, 0.0, 1.6989582652181945E9, 0.0, 2023-11-02 16:51:05.218
43.0, -187500.02235174447, 187500.0, 2502.568364449545, 48567.502029836425, 187500.0, 187500.0, -187500.02235174447, 37935.67126222506, -0.09, 0.976, 0.002, 192.0, 0.0, 0.0, 0.0, 0.0, 0.0, 0.0, 0.0, 0.0, 0.0, 1.698958265218207E9, 0.0, 2023-11-02 16:51:05.218
44.0, -187500.02235174447, 187500.0, 2502.523660960634, 48580.846021276244, 187500.0, 187500.0, -187500.02235174447, 37934.50897151339, -0.09, 0.976, 0.002, 192.0, 0.0, 0.0, 0.0, 0.0, 0.0, 0.0, 0.0, 0.0, 0.0, 1.69895826521822E9, 0.0, 2023-11-02 16:51:05.218
45.0, -187500.02235174447, 187500.0, 2513.274850043637, 48556.728489008965, 187500.0, 187500.0, -187500.02235174447, 37942.13091637265, -0.09, 0.976, 0.002, 192.0, 0.0, 0.0, 0.0, 0.0, 0.0, 0.0, 0.0, 0.0, 0.0, 1.6989582652182376E9, 0.0, 2023-11-02 16:51:05.218
46.0, -187500.02235174447, 187500.0, 2516.6946669452986, 48546.379631326156, 187500.0, 187500.0, -187500.02235174447, 37942.37678556166, -0.09, 0.976, 0.002, 192.0, 0.0, 0.0, 0.0, 0.0, 0.0, 0.0, 0.0, 0.0, 0.0, 1.6989582652182596E9, 0.0, 2023-11-02 16:51:05.218
47.0, -187500.02235174447, 187500.0, 2512.5148907321563, 48567.85965774771, 187500.0, 187500.0, -187500.02235174447, 37935.58185524724, -0.094, 0.978, 0.004, 192.0, 253.0, 16.0, 30.0, 144.0, 0.0, 32.0, 0.0, 0.0, 0.0, 1.6989582652185783E9, 0.0, 2023-11-02 16:51:05.218
48.0, -187500.02235174447, 187500.0, 2511.263193042659, 48583.572934099786, 187500.0, 187500.0, -187500.02235174447, 37931.67029996757, -0.094, 0.978, 0.004, 192.0, 0.0, 0.0, 0.0, 0.0, 0.0, 0.0, 0.0, 0.0, 0.0, 1.698958265218606E9, 0.0, 2023-11-02 16:51:05.218
0.0, 0.0, 0.0, 0.0, 0.0, 0.0, 0.0, 0.0, 0.0, -0.094, 0.98, 0.022, 192.0, 253.0, 16.0, 30.0, 160.0, 0.0, 176.0, 0.0, 0.0, 0.0, 1.6989582652901304E9, 0.0, 2023-11-02 16:51:05.290
1.0, -187500.02235174447, 187500.0, 2524.696591460299, 49073.16554464884, 187500.0, 187500.0, -187500.02235174447, 37213.46404712964, -0.094, 0.98, 0.022, 192.0, 0.0, 0.0, 0.0, 0.0, 0.0, 0.0, 0.0, 0.0, 0.0, 1.6989582657805152E9, 0.0, 2023-11-02 16:51:05.780
2.0, -187500.02235174447, 187500.0, 2526.7753036946424, 49064.49306780018, 187500.0, 187500.0, -187500.02235174447, 37212.07823897341, -0.094, 0.98, 0.022, 192.0, 0.0, 0.0, 0.0, 0.0, 0.0, 0.0, 0.0, 0.0, 0.0, 1.6989582657805939E9, 0.0, 2023-11-02 16:51:05.780
3.0, -187500.02235174447, 187500.0, 2531.268004330159, 49033.98293661868, 187500.0, 187500.0, -187500.02235174447, 37215.07337273042, -0.094, 0.98, 0.022, 192.0, 0.0, 0.0, 0.0, 0.0, 0.0, 0.0, 0.0, 0.0, 0.0, 1.6989582657806091E9, 0.0, 2023-11-02 16:51:05.780
4.0, -187500.02235174447, 187500.0, 2536.297146832603, 49023.030581835585, 187500.0, 187500.0, -187500.02235174447, 37220.01310825504, -0.094, 0.98, 0.022, 192.0, 0.0, 0.0, 0.0, 0.0, 0.0, 0.0, 0.0, 0.0, 0.0, 1.6989582657806585E9, 0.0, 2023-11-02 16:51:05.780
5.0, -187500.02235174447, 187500.0, 2533.6596409868766, 49054.25596883964, 187500.0, 187500.0, -187500.02235174447, 37217.308547175955, -0.094, 0.98, 0.022, 192.0, 0.0, 0.0, 0.0, 0.0, 0.0, 0.0, 0.0, 0.0, 0.0, 1.698958265780669E9, 0.0, 2023-11-02 16:51:05.780
6.0, -187500.02235174447, 187500.0, 2527.6023182394883, 49068.114050401935, 187500.0, 187500.0, -187500.02235174447, 37210.91594826173, -0.094, 0.98, 0.022, 192.0, 0.0, 0.0, 0.0, 0.0, 0.0, 0.0, 0.0, 0.0, 0.0, 1.6989582657806842E9, 0.0, 2023-11-02 16:51:05.780
7.0, -187500.02235174447, 187500.0, 2530.6421554854105, 49046.61167223593, 187500.0, 187500.0, -187500.02235174447, 37211.87707327331, -0.094, 0.98, 0.022, 192.0, 0.0, 0.0, 0.0, 0.0, 0.0, 0.0, 0.0, 0.0, 0.0, 1.698958265780697E9, 0.0, 2023-11-02 16:51:05.780
8.0, -187500.02235174447, 187500.0, 2532.5420537641116, 49035.748724430654, 187500.0, 187500.0, -187500.02235174447, 37214.000488996564, -0.092, 0.984, 0.036000000000000004, 192.0, 253.0, 32.0, 30.0, 192.0, 1.0, 32.0, 0.0, 0.0, 0.0, 1.6989582657807093E9, 0.0, 2023-11-02 16:51:05.780
9.0, -187500.02235174447, 187500.0, 2534.2407863427147, 49064.29190210008, 187500.0, 187500.0, -187500.02235174447, 37214.156951207755, -0.092, 0.984, 0.036000000000000004, 192.0, 0.0, 0.0, 0.0, 0.0, 0.0, 0.0, 0.0, 0.0, 0.0, 1.698958265780722E9, 0.0, 2023-11-02 16:51:05.780
10.0, -187500.02235174447, 187500.0, 2533.3690683089576, 49089.21409716774, 187500.0, 187500.0, -187500.02235174447, 37212.50292211806, -0.092, 0.984, 0.036000000000000004, 192.0, 0.0, 0.0, 0.0, 0.0, 0.0, 0.0, 0.0, 0.0, 0.0, 1.6989582657807353E9, 0.0, 2023-11-02 16:51:05.780
11.0, -187500.02235174447, 187500.0, 2541.594510268511, 49058.413393308336, 187500.0, 187500.0, -187500.02235174447, 37220.12486697732, -0.092, 0.984, 0.036000000000000004, 192.0, 0.0, 0.0, 0.0, 0.0, 0.0, 0.0, 0.0, 0.0, 0.0, 1.6989582657807465E9, 0.0, 2023-11-02 16:51:05.780
12.0, -187500.02235174447, 187500.0, 2544.164960880871, 49044.39884953485, 187500.0, 187500.0, -187500.02235174447, 37223.879960045815, -0.092, 0.984, 0.036000000000000004, 192.0, 0.0, 0.0, 0.0, 0.0, 0.0, 0.0, 0.0, 0.0, 0.0, 1.698958265780757E9, 0.0, 2023-11-02 16:51:05.780
13.0, -187500.02235174447, 187500.0, 2538.129989877938, 49065.54359978958, 187500.0, 187500.0, -187500.02235174447, 37218.69435533218, -0.092, 0.984, 0.036000000000000004, 192.0, 0.0, 0.0, 0.0, 0.0, 0.0, 0.0, 0.0, 0.0, 0.0, 1.6989582657807689E9, 0.0, 2023-11-02 16:51:05.780
14.0, -187500.02235174447, 187500.0, 2536.8335886995305, 49087.85064075597, 187500.0, 187500.0, -187500.02235174447, 37216.05684948646, -0.092, 0.984, 0.036000000000000004, 192.0, 0.0, 0.0, 0.0, 0.0, 0.0, 0.0, 0.0, 0.0, 0.0, 1.6989582657810757E9, 0.0, 2023-11-02 16:51:05.781
15.0, -187500.02235174447, 187500.0, 2544.4108300698795, 49074.01491093814, 187500.0, 187500.0, -187500.02235174447, 37219.74488732158, -0.092, 0.984, 0.036000000000000004, 192.0, 0.0, 0.0, 0.0, 0.0, 0.0, 0.0, 0.0, 0.0, 0.0, 1.698958265781086E9, 0.0, 2023-11-02 16:51:05.781
16.0, -187500.02235174447, 187500.0, 2545.4390103148235, 49060.80502996505, 187500.0, 187500.0, -187500.02235174447, 37220.41543965524, -0.092, 0.984, 0.036000000000000004, 192.0, 0.0, 0.0, 0.0, 0.0, 0.0, 0.0, 0.0, 0.0, 0.0, 1.6989582657810955E9, 0.0, 2023-11-02 16:51:05.781
17.0, -187500.02235174447, 187500.0, 2544.0308504141394, 49077.837059239995, 187500.0, 187500.0, -187500.02235174447, 37217.91204427624, -0.092, 0.984, 0.036000000000000004, 192.0, 0.0, 0.0, 0.0, 0.0, 0.0, 0.0, 0.0, 0.0, 0.0, 1.6989582657811053E9, 0.0, 2023-11-02 16:51:05.781
18.0, -187500.02235174447, 187500.0, 2537.012402655173, 49112.57167012354, 187500.0, 187500.0, -187500.02235174447, 37211.74296280658, -0.092, 0.978, 0.044, 192.0, 253.0, 32.0, 30.0, 144.0, 1.0, 96.0, 0.0, 0.0, 0.0, 1.698958265781115E9, 0.0, 2023-11-02 16:51:05.781
19.0, -187500.02235174447, 187500.0, 2525.322440305047, 49105.173242708835, 187500.0, 187500.0, -187500.02235174447, 37199.22598591161, -0.092, 0.978, 0.044, 192.0, 0.0, 0.0, 0.0, 0.0, 0.0, 0.0, 0.0, 0.0, 0.0, 1.6989582657811253E9, 0.0, 2023-11-02 16:51:05.781
20.0, -187500.02235174447, 187500.0, 2537.101809632994, 49069.030471924605, 187500.0, 187500.0, -187500.02235174447, 37209.328974405405, -0.092, 0.978, 0.044, 192.0, 0.0, 0.0, 0.0, 0.0, 0.0, 0.0, 0.0, 0.0, 0.0, 1.698958265781135E9, 0.0, 2023-11-02 16:51:05.781
21.0, -187500.02235174447, 187500.0, 2539.5605015230776, 49084.274361643125, 187500.0, 187500.0, -187500.02235174447, 37212.32410816242, -0.092, 0.978, 0.044, 192.0, 0.0, 0.0, 0.0, 0.0, 0.0, 0.0, 0.0, 0.0, 0.0, 1.6989582657811444E9, 0.0, 2023-11-02 16:51:05.781
22.0, -187500.02235174447, 187500.0, 2535.760704965676, 49115.231527713724, 187500.0, 187500.0, -187500.02235174447, 37207.25026217107, -0.092, 0.978, 0.044, 192.0, 0.0, 0.0, 0.0, 0.0, 0.0, 0.0, 0.0, 0.0, 0.0, 1.6989582657811553E9, 0.0, 2023-11-02 16:51:05.781
23.0, -187500.02235174447, 187500.0, 2534.777228209642, 49107.76604506565, 187500.0, 187500.0, -187500.02235174447, 37205.99856448157, -0.092, 0.978, 0.044, 192.0, 0.0, 0.0, 0.0, 0.0, 0.0, 0.0, 0.0, 0.0, 0.0, 1.6989582657811656E9, 0.0, 2023-11-02 16:51:05.781
24.0, -187500.02235174447, 187500.0, 2539.1581701228824, 49079.26757088513, 187500.0, 187500.0, -187500.02235174447, 37209.17251219422, -0.092, 0.978, 0.044, 192.0, 0.0, 0.0, 0.0, 0.0, 0.0, 0.0, 0.0, 0.0, 0.0, 1.698958265781176E9, 0.0, 2023-11-02 16:51:05.781
25.0, -187500.02235174447, 187500.0, 2532.206777597282, 49083.559105820554, 187500.0, 187500.0, -187500.02235174447, 37202.66815455772, -0.092, 0.978, 0.044, 192.0, 0.0, 0.0, 0.0, 0.0, 0.0, 0.0, 0.0, 0.0, 0.0, 1.6989582657811863E9, 0.0, 2023-11-02 16:51:05.781
26.0, -187500.02235174447, 187500.0, 2531.536225263623, 49112.996353268194, 187500.0, 187500.0, -187500.02235174447, 37203.71868654712, -0.092, 0.978, 0.044, 192.0, 0.0, 0.0, 0.0, 0.0, 0.0, 0.0, 0.0, 0.0, 0.0, 1.6989582657811985E9, 0.0, 2023-11-02 16:51:05.781
27.0, -187500.02235174447, 187500.0, 2527.3788007949356, 49125.75919935217, 187500.0, 187500.0, -187500.02235174447, 37201.014125468035, -0.094, 0.984, 0.038, 192.0, 253.0, 16.0, 30.0, 192.0, 1.0, 48.0, 0.0, 0.0, 0.0, 1.6989582657812123E9, 0.0, 2023-11-02 16:51:05.781
28.0, -187500.02235174447, 187500.0, 2531.0668386300613, 49096.03137922662, 187500.0, 187500.0, -187500.02235174447, 37204.299831902965, -0.094, 0.984, 0.038, 192.0, 0.0, 0.0, 0.0, 0.0, 0.0, 0.0, 0.0, 0.0, 0.0, 1.698958265781224E9, 0.0, 2023-11-02 16:51:05.781
29.0, -187500.02235174447, 187500.0, 2541.259234101681, 49084.20730640976, 187500.0, 187500.0, -187500.02235174447, 37214.26870993003, -0.094, 0.984, 0.038, 192.0, 0.0, 0.0, 0.0, 0.0, 0.0, 0.0, 0.0, 0.0, 0.0, 1.6989582657812808E9, 0.0, 2023-11-02 16:51:05.781
30.0, -187500.02235174447, 187500.0, 2533.592585753511, 49120.1936149828, 187500.0, 187500.0, -187500.02235174447, 37206.89263425978, -0.094, 0.984, 0.038, 192.0, 0.0, 0.0, 0.0, 0.0, 0.0, 0.0, 0.0, 0.0, 0.0, 1.698958265781291E9, 0.0, 2023-11-02 16:51:05.781
31.0, -187500.02235174447, 187500.0, 2525.88123391643, 49125.17805399634, 187500.0, 187500.0, -187500.02235174447, 37199.471855100615, -0.094, 0.984, 0.038, 192.0, 0.0, 0.0, 0.0, 0.0, 0.0, 0.0, 0.0, 0.0, 0.0, 1.6989582657813008E9, 0.0, 2023-11-02 16:51:05.781
32.0, -187500.02235174447, 187500.0, 2531.536225263623, 49088.81176576755, 187500.0, 187500.0, -187500.02235174447, 37205.283308658996, -0.094, 0.984, 0.038, 192.0, 0.0, 0.0, 0.0, 0.0, 0.0, 0.0, 0.0, 0.0, 0.0, 1.698958265781315E9, 0.0, 2023-11-02 16:51:05.781
33.0, -187500.02235174447, 187500.0, 2534.4419520428123, 49082.91090523135, 187500.0, 187500.0, -187500.02235174447, 37208.81488428293, -0.094, 0.984, 0.038, 192.0, 0.0, 0.0, 0.0, 0.0, 0.0, 0.0, 0.0, 0.0, 0.0, 1.6989582657813296E9, 0.0, 2023-11-02 16:51:05.781
34.0, -187500.02235174447, 187500.0, 2527.579966495033, 49109.42007415534, 187500.0, 187500.0, -187500.02235174447, 37202.37758187981, -0.094, 0.984, 0.038, 192.0, 0.0, 0.0, 0.0, 0.0, 0.0, 0.0, 0.0, 0.0, 0.0, 1.6989582657813413E9, 0.0, 2023-11-02 16:51:05.781
35.0, -187500.02235174447, 187500.0, 2522.751989692687, 49123.52402490664, 187500.0, 187500.0, -187500.02235174447, 37197.0802184439, -0.094, 0.984, 0.038, 192.0, 0.0, 0.0, 0.0, 0.0, 0.0, 0.0, 0.0, 0.0, 0.0, 1.698958265781351E9, 0.0, 2023-11-02 16:51:05.781
36.0, -187500.02235174447, 187500.0, 2514.951230877785, 49093.39387338089, 187500.0, 187500.0, -187500.02235174447, 37188.78772125098, -0.094, 0.984, 0.038, 192.0, 0.0, 0.0, 0.0, 0.0, 0.0, 0.0, 0.0, 0.0, 0.0, 1.6989582657813623E9, 0.0, 2023-11-02 16:51:05.781
37.0, -187500.02235174447, 187500.0, 2517.946364634796, 49064.49306780018, 187500.0, 187500.0, -187500.02235174447, 37191.49228233007, -0.088, 0.98, 0.044, 192.0, 253.0, 64.0, 30.0, 160.0, 1.0, 96.0, 0.0, 0.0, 0.0, 1.6989582657813733E9, 0.0, 2023-11-02 16:51:05.781
38.0, -187500.02235174447, 187500.0, 2515.7558936781757, 49085.302541888064, 187500.0, 187500.0, -187500.02235174447, 37190.44175034067, -0.088, 0.98, 0.044, 192.0, 0.0, 0.0, 0.0, 0.0, 0.0, 0.0, 0.0, 0.0, 0.0, 1.6989582657813845E9, 0.0, 2023-11-02 16:51:05.781
39.0, -187500.02235174447, 187500.0, 2516.0911698450054, 49109.48712938871, 187500.0, 187500.0, -187500.02235174447, 37191.80520675245, -0.088, 0.98, 0.044, 192.0, 0.0, 0.0, 0.0, 0.0, 0.0, 0.0, 0.0, 0.0, 0.0, 1.6989582657813952E9, 0.0, 2023-11-02 16:51:05.781
40.0, -187500.02235174447, 187500.0, 2520.852091413986, 49101.306390918064, 187500.0, 187500.0, -187500.02235174447, 37195.96263122113, -0.088, 0.98, 0.044, 192.0, 0.0, 0.0, 0.0, 0.0, 0.0, 0.0, 0.0, 0.0, 0.0, 1.6989582657814105E9, 0.0, 2023-11-02 16:51:05.781
41.0, -187500.02235174447, 187500.0, 2522.9308036483294, 49076.25008538367, 187500.0, 187500.0, -187500.02235174447, 37195.51559633203, -0.088, 0.98, 0.044, 192.0, 0.0, 0.0, 0.0, 0.0, 0.0, 0.0, 0.0, 0.0, 0.0, 1.698958265781422E9, 0.0, 2023-11-02 16:51:05.781
42.0, -187500.02235174447, 187500.0, 2530.239824085215, 49086.643646555385, 187500.0, 187500.0, -187500.02235174447, 37200.857663256844, -0.088, 0.98, 0.044, 192.0, 0.0, 0.0, 0.0, 0.0, 0.0, 0.0, 0.0, 0.0, 0.0, 1.6989582657814317E9, 0.0, 2023-11-02 16:51:05.781
43.0, -187500.02235174447, 187500.0, 2525.9259374053404, 49120.618298127454, 187500.0, 187500.0, -187500.02235174447, 37197.32608763291, -0.088, 0.98, 0.044, 192.0, 0.0, 0.0, 0.0, 0.0, 0.0, 0.0, 0.0, 0.0, 0.0, 1.6989582657814415E9, 0.0, 2023-11-02 16:51:05.781
44.0, -187500.02235174447, 187500.0, 2525.7694751941535, 49106.983734009715, 187500.0, 187500.0, -187500.02235174447, 37197.05786669944, -0.088, 0.98, 0.044, 192.0, 0.0, 0.0, 0.0, 0.0, 0.0, 0.0, 0.0, 0.0, 0.0, 1.6989582657814643E9, 0.0, 2023-11-02 16:51:05.781
45.0, -187500.02235174447, 187500.0, 2524.5624809935666, 49081.6368557974, 187500.0, 187500.0, -187500.02235174447, 37195.426189354206, -0.088, 0.98, 0.044, 192.0, 0.0, 0.0, 0.0, 0.0, 0.0, 0.0, 0.0, 0.0, 0.0, 1.6989582657814748E9, 0.0, 2023-11-02 16:51:05.781
46.0, -187500.02235174447, 187500.0, 2519.6003937244886, 49096.34430364899, 187500.0, 187500.0, -187500.02235174447, 37190.15117766275, -0.088, 0.98, 0.044, 192.0, 0.0, 0.0, 0.0, 0.0, 0.0, 0.0, 0.0, 0.0, 0.0, 1.6989582657814844E9, 0.0, 2023-11-02 16:51:05.781
47.0, -187500.02235174447, 187500.0, 2515.8005971670864, 49130.87774883244, 187500.0, 187500.0, -187500.02235174447, 37186.887822972276, -0.084, 0.978, 0.046, 192.0, 253.0, 96.0, 30.0, 144.0, 1.0, 112.0, 0.0, 0.0, 0.0, 1.6989582657815087E9, 0.0, 2023-11-02 16:51:05.781
48.0, -187500.02235174447, 187500.0, 2528.0493531285947, 49131.525949421644, 187500.0, 187500.0, -187500.02235174447, 37198.89070974478, -0.084, 0.978, 0.046, 192.0, 0.0, 0.0, 0.0, 0.0, 0.0, 0.0, 0.0, 0.0, 0.0, 1.69895826578152E9, 0.0, 2023-11-02 16:51:05.781
49.0, -187500.02235174447, 187500.0, 2543.0920771470164, 49108.1907282103, 187500.0, 187500.0, -187500.02235174447, 37210.64772732827, -0.084, 0.978, 0.046, 192.0, 0.0, 0.0, 0.0, 0.0, 0.0, 0.0, 0.0, 0.0, 0.0, 1.69895826578153E9, 0.0, 2023-11-02 16:51:05.781
50.0, -187500.02235174447, 187500.0, 2540.633385256933, 49113.353981179476, 187500.0, 187500.0, -187500.02235174447, 37206.333840648396, -0.084, 0.978, 0.046, 192.0, 0.0, 0.0, 0.0, 0.0, 0.0, 0.0, 0.0, 0.0, 0.0, 1.6989582657815402E9, 0.0, 2023-11-02 16:51:05.781
51.0, -187500.02235174447, 187500.0, 2531.0221351411506, 49130.900100576895, 187500.0, 187500.0, -187500.02235174447, 37198.06369519993, -0.084, 0.978, 0.046, 192.0, 0.0, 0.0, 0.0, 0.0, 0.0, 0.0, 0.0, 0.0, 0.0, 1.6989582657815497E9, 0.0, 2023-11-02 16:51:05.781
52.0, -187500.02235174447, 187500.0, 2532.206777597282, 49134.945766323304, 187500.0, 187500.0, -187500.02235174447, 37199.24833765606, -0.084, 0.978, 0.046, 192.0, 0.0, 0.0, 0.0, 0.0, 0.0, 0.0, 0.0, 0.0, 0.0, 1.6989582657815597E9, 0.0, 2023-11-02 16:51:05.781
53.0, -187500.02235174447, 187500.0, 2532.854978186486, 49117.4443504148, 187500.0, 187500.0, -187500.02235174447, 37199.87418650081, -0.084, 0.978, 0.046, 192.0, 0.0, 0.0, 0.0, 0.0, 0.0, 0.0, 0.0, 0.0, 0.0, 1.6989582657815695E9, 0.0, 2023-11-02 16:51:05.781
54.0, -187500.02235174447, 187500.0, 2535.4701322877568, 49115.18682422481, 187500.0, 187500.0, -187500.02235174447, 37201.46116035714, -0.084, 0.978, 0.046, 192.0, 0.0, 0.0, 0.0, 0.0, 0.0, 0.0, 0.0, 0.0, 0.0, 1.6989582657815793E9, 0.0, 2023-11-02 16:51:05.781
55.0, -187500.02235174447, 187500.0, 2527.267042072659, 49144.35585073899, 187500.0, 187500.0, -187500.02235174447, 37193.4815875866, -0.084, 0.978, 0.046, 192.0, 0.0, 0.0, 0.0, 0.0, 0.0, 0.0, 0.0, 0.0, 0.0, 1.6989582657815893E9, 0.0, 2023-11-02 16:51:05.781
56.0, -187500.02235174447, 187500.0, 2534.0619723870723, 49151.53076070914, 187500.0, 187500.0, -187500.02235174447, 37198.153102177755, -0.084, 0.978, 0.046, 192.0, 0.0, 0.0, 0.0, 0.0, 0.0, 0.0, 0.0, 0.0, 0.0, 1.6989582657815988E9, 0.0, 2023-11-02 16:51:05.781
57.0, -187500.02235174447, 187500.0, 2540.8569027014855, 49137.98560356923, 187500.0, 187500.0, -187500.02235174447, 37204.97038423662, -0.088, 0.978, 0.048, 192.0, 253.0, 64.0, 30.0, 144.0, 1.0, 128.0, 0.0, 0.0, 0.0, 1.6989582657816088E9, 0.0, 2023-11-02 16:51:05.781
58.0, -187500.02235174447, 187500.0, 2536.9006439328964, 49130.63187964343, 187500.0, 187500.0, -187500.02235174447, 37201.41645686823, -0.088, 0.978, 0.048, 192.0, 0.0, 0.0, 0.0, 0.0, 0.0, 0.0, 0.0, 0.0, 0.0, 1.6989582657816217E9, 0.0, 2023-11-02 16:51:05.781
59.0, -187500.02235174447, 187500.0, 2536.677126488343, 49148.647385674405, 187500.0, 187500.0, -187500.02235174447, 37199.71772428963, -0.088, 0.978, 0.048, 192.0, 0.0, 0.0, 0.0, 0.0, 0.0, 0.0, 0.0, 0.0, 0.0, 1.6989582657816331E9, 0.0, 2023-11-02 16:51:05.781
60.0, -187500.02235174447, 187500.0, 2526.26121357217, 49168.093403350525, 187500.0, 187500.0, -187500.02235174447, 37189.03359043999, -0.088, 0.978, 0.048, 192.0, 0.0, 0.0, 0.0, 0.0, 0.0, 0.0, 0.0, 0.0, 0.0, 1.698958265781669E9, 0.0, 2023-11-02 16:51:05.781
61.0, -187500.02235174447, 187500.0, 2538.107638133483, 49144.4005542279, 187500.0, 187500.0, -187500.02235174447, 37200.00829696754, -0.088, 0.978, 0.048, 192.0, 0.0, 0.0, 0.0, 0.0, 0.0, 0.0, 0.0, 0.0, 0.0, 1.698958265781679E9, 0.0, 2023-11-02 16:51:05.781
62.0, -187500.02235174447, 187500.0, 2537.9958794112063, 49139.32670823654, 187500.0, 187500.0, -187500.02235174447, 37200.36592487883, -0.088, 0.978, 0.048, 192.0, 0.0, 0.0, 0.0, 0.0, 0.0, 0.0, 0.0, 0.0, 0.0, 1.698958265781692E9, 0.0, 2023-11-02 16:51:05.781
63.0, -187500.02235174447, 187500.0, 2531.0668386300613, 49159.979720113246, 187500.0, 187500.0, -187500.02235174447, 37192.58751780838, -0.088, 0.978, 0.048, 192.0, 0.0, 0.0, 0.0, 0.0, 0.0, 0.0, 0.0, 0.0, 0.0, 1.6989582657817028E9, 0.0, 2023-11-02 16:51:05.781
64.0, -187500.02235174447, 187500.0, 2535.3360218210246, 49187.248848348725, 187500.0, 187500.0, -187500.02235174447, 37197.41549461073, -0.088, 0.978, 0.048, 192.0, 0.0, 0.0, 0.0, 0.0, 0.0, 0.0, 0.0, 0.0, 0.0, 1.698958265781715E9, 0.0, 2023-11-02 16:51:05.781
65.0, -187500.02235174447, 187500.0, 2540.0969433900054, 49182.845554691026, 187500.0, 187500.0, -187500.02235174447, 37201.95289873516, -0.088, 0.978, 0.048, 192.0, 0.0, 0.0, 0.0, 0.0, 0.0, 0.0, 0.0, 0.0, 0.0, 1.6989582657817254E9, 0.0, 2023-11-02 16:51:05.781
66.0, -187500.02235174447, 187500.0, 2542.846207958008, 49159.59974045751, 187500.0, 187500.0, -187500.02235174447, 37202.757561535545, -0.088, 0.978, 0.048, 192.0, 0.0, 0.0, 0.0, 0.0, 0.0, 0.0, 0.0, 0.0, 0.0, 1.698958265781736E9, 0.0, 2023-11-02 16:51:05.781
67.0, -187500.02235174447, 187500.0, 2540.611033512477, 49172.04966211911, 187500.0, 187500.0, -187500.02235174447, 37198.80130276696, -0.09, 0.976, 0.044, 192.0, 253.0, 48.0, 30.0, 128.0, 1.0, 96.0, 0.0, 0.0, 0.0, 1.698958265781748E9, 0.0, 2023-11-02 16:51:05.781
68.0, -187500.02235174447, 187500.0, 2529.7257339627427, 49201.53161305566, 187500.0, 187500.0, -187500.02235174447, 37187.871299728315, -0.09, 0.976, 0.044, 192.0, 0.0, 0.0, 0.0, 0.0, 0.0, 0.0, 0.0, 0.0, 0.0, 1.698958265781766E9, 0.0, 2023-11-02 16:51:05.781
69.0, -187500.02235174447, 187500.0, 2529.3457543070026, 49194.55786878561, 187500.0, 187500.0, -187500.02235174447, 37185.211442138134, -0.09, 0.976, 0.044, 192.0, 0.0, 0.0, 0.0, 0.0, 0.0, 0.0, 0.0, 0.0, 0.0, 1.698958265781777E9, 0.0, 2023-11-02 16:51:05.781
70.0, -187500.02235174447, 187500.0, 2542.041545157617, 49164.76299342668, 187500.0, 187500.0, -187500.02235174447, 37197.370791121815, -0.09, 0.976, 0.044, 192.0, 0.0, 0.0, 0.0, 0.0, 0.0, 0.0, 0.0, 0.0, 0.0, 1.6989582657817917E9, 0.0, 2023-11-02 16:51:05.781
71.0, -187500.02235174447, 187500.0, 2546.3330800930357, 49178.509316266696, 187500.0, 187500.0, -187500.02235174447, 37203.33870689139, -0.09, 0.976, 0.044, 192.0, 0.0, 0.0, 0.0, 0.0, 0.0, 0.0, 0.0, 0.0, 0.0, 1.6989582657818046E9, 0.0, 2023-11-02 16:51:05.781
72.0, -187500.02235174447, 187500.0, 2532.877329930941, 49218.071903952594, 187500.0, 187500.0, -187500.02235174447, 37189.905308473746, -0.09, 0.976, 0.044, 192.0, 0.0, 0.0, 0.0, 0.0, 0.0, 0.0, 0.0, 0.0, 0.0, 1.6989582657818167E9, 0.0, 2023-11-02 16:51:05.781
73.0, -187500.02235174447, 187500.0, 2535.112504376472, 49216.663744051904, 187500.0, 187500.0, -187500.02235174447, 37188.921831717715, -0.09, 0.976, 0.044, 192.0, 0.0, 0.0, 0.0, 0.0, 0.0, 0.0, 0.0, 0.0, 0.0, 1.698958265781828E9, 0.0, 2023-11-02 16:51:05.781
74.0, -187500.02235174447, 187500.0, 2541.035716657128, 49197.32948509807, 187500.0, 187500.0, -187500.02235174447, 37195.04620969846, -0.09, 0.976, 0.044, 192.0, 0.0, 0.0, 0.0, 0.0, 0.0, 0.0, 0.0, 0.0, 0.0, 1.6989582657818394E9, 0.0, 2023-11-02 16:51:05.781
75.0, -187500.02235174447, 187500.0, 2540.1863503678264, 49193.23911586274, 187500.0, 187500.0, -187500.02235174447, 37194.48741608708, -0.09, 0.976, 0.044, 192.0, 0.0, 0.0, 0.0, 0.0, 0.0, 0.0, 0.0, 0.0, 0.0, 1.69895826578188E9, 0.0, 2023-11-02 16:51:05.781
76.0, -187500.02235174447, 187500.0, 2531.200949096793, 49214.80854926212, 187500.0, 187500.0, -187500.02235174447, 37182.30571535894, -0.09, 0.976, 0.044, 192.0, 0.0, 0.0, 0.0, 0.0, 0.0, 0.0, 0.0, 0.0, 0.0, 1.6989582657818916E9, 0.0, 2023-11-02 16:51:05.781
77.0, -187500.02235174447, 187500.0, 2536.006574154684, 49221.08938945406, 187500.0, 187500.0, -187500.02235174447, 37185.636125282785, -0.094, 0.976, 0.05, 192.0, 253.0, 16.0, 30.0, 128.0, 1.0, 144.0, 0.0, 0.0, 0.0, 1.6989582657819054E9, 0.0, 2023-11-02 16:51:05.781
78.0, -187500.02235174447, 187500.0, 2542.4438765578125, 49195.20606937481, 187500.0, 187500.0, -187500.02235174447, 37189.25710788454, -0.094, 0.976, 0.05, 192.0, 0.0, 0.0, 0.0, 0.0, 0.0, 0.0, 0.0, 0.0, 0.0, 1.6989582657819257E9, 0.0, 2023-11-02 16:51:05.781
79.0, -187500.02235174447, 187500.0, 2541.907434690885, 49188.724063482776, 187500.0, 187500.0, -187500.02235174447, 37186.79841599446, -0.094, 0.976, 0.05, 192.0, 0.0, 0.0, 0.0, 0.0, 0.0, 0.0, 0.0, 0.0, 0.0, 1.6989582657819412E9, 0.0, 2023-11-02 16:51:05.781
80.0, -187500.02235174447, 187500.0, 2536.140684621416, 49218.54129058615, 187500.0, 187500.0, -187500.02235174447, 37180.048189168956, -0.094, 0.976, 0.05, 192.0, 0.0, 0.0, 0.0, 0.0, 0.0, 0.0, 0.0, 0.0, 0.0, 1.6989582657819586E9, 0.0, 2023-11-02 16:51:05.781
81.0, -187500.02235174447, 187500.0, 2533.3020130755917, 49235.10393322753, 187500.0, 187500.0, -187500.02235174447, 37177.00835192303, -0.094, 0.976, 0.05, 192.0, 0.0, 0.0, 0.0, 0.0, 0.0, 0.0, 0.0, 0.0, 0.0, 1.6989582657819724E9, 0.0, 2023-11-02 16:51:05.781
82.0, -187500.02235174447, 187500.0, 2540.946309679307, 49210.89699398244, 187500.0, 187500.0, -187500.02235174447, 37186.038456682974, -0.094, 0.976, 0.05, 192.0, 0.0, 0.0, 0.0, 0.0, 0.0, 0.0, 0.0, 0.0, 0.0, 1.6989582657819884E9, 0.0, 2023-11-02 16:51:05.781
83.0, -187500.02235174447, 187500.0, 2539.9628329232733, 49199.69877001033, 187500.0, 187500.0, -187500.02235174447, 37184.11620665982, -0.094, 0.976, 0.05, 192.0, 0.0, 0.0, 0.0, 0.0, 0.0, 0.0, 0.0, 0.0, 0.0, 1.698958265782002E9, 0.0, 2023-11-02 16:51:05.782
84.0, -187500.02235174447, 187500.0, 2542.332117835536, 49214.7638457732, 187500.0, 187500.0, -187500.02235174447, 37184.20561363764, -0.094, 0.976, 0.05, 192.0, 0.0, 0.0, 0.0, 0.0, 0.0, 0.0, 0.0, 0.0, 0.0, 1.6989582657820177E9, 0.0, 2023-11-02 16:51:05.782
85.0, -187500.02235174447, 187500.0, 2544.611995769977, 49237.87554953999, 187500.0, 187500.0, -187500.02235174447, 37184.719703760114, -0.094, 0.976, 0.05, 192.0, 0.0, 0.0, 0.0, 0.0, 0.0, 0.0, 0.0, 0.0, 0.0, 1.6989582657820344E9, 0.0, 2023-11-02 16:51:05.782
86.0, -187500.02235174447, 187500.0, 2547.450667315801, 49218.54129058615, 187500.0, 187500.0, -187500.02235174447, 37186.35138110535, -0.094, 0.976, 0.05, 192.0, 0.0, 0.0, 0.0, 0.0, 0.0, 0.0, 0.0, 0.0, 0.0, 1.69895826578205E9, 0.0, 2023-11-02 16:51:05.782
87.0, -187500.02235174447, 187500.0, 2545.751934737198, 49203.878546223474, 187500.0, 187500.0, -187500.02235174447, 37184.40677933774, -0.092, 0.982, 0.052000000000000005, 192.0, 253.0, 32.0, 30.0, 176.0, 1.0, 160.0, 0.0, 0.0, 0.0, 1.6989582657820663E9, 0.0, 2023-11-02 16:51:05.782
88.0, -187500.02235174447, 187500.0, 2540.2534056011923, 49228.44311337985, 187500.0, 187500.0, -187500.02235174447, 37180.58463103588, -0.092, 0.982, 0.052000000000000005, 192.0, 0.0, 0.0, 0.0, 0.0, 0.0, 0.0, 0.0, 0.0, 0.0, 1.6989582657820883E9, 0.0, 2023-11-02 16:51:05.782
89.0, -187500.02235174447, 187500.0, 2537.727658477743, 49258.52856141669, 187500.0, 187500.0, -187500.02235174447, 37178.10358740135, -0.092, 0.982, 0.052000000000000005, 192.0, 0.0, 0.0, 0.0, 0.0, 0.0, 0.0, 0.0, 0.0, 0.0, 1.6989582657821012E9, 0.0, 2023-11-02 16:51:05.782
90.0, -187500.02235174447, 187500.0, 2542.332117835536, 49251.80068633565, 187500.0, 187500.0, -187500.02235174447, 37182.66334327023, -0.092, 0.982, 0.052000000000000005, 192.0, 0.0, 0.0, 0.0, 0.0, 0.0, 0.0, 0.0, 0.0, 0.0, 1.6989582657821848E9, 0.0, 2023-11-02 16:51:05.782
91.0, -187500.02235174447, 187500.0, 2546.4001353264016, 49239.55193037414, 187500.0, 187500.0, -187500.02235174447, 37186.10551191634, -0.092, 0.982, 0.052000000000000005, 192.0, 0.0, 0.0, 0.0, 0.0, 0.0, 0.0, 0.0, 0.0, 0.0, 1.6989582657822073E9, 0.0, 2023-11-02 16:51:05.782
92.0, -187500.02235174447, 187500.0, 2549.0599929165833, 49248.64909036745, 187500.0, 187500.0, -187500.02235174447, 37188.564203806425, -0.092, 0.982, 0.052000000000000005, 192.0, 0.0, 0.0, 0.0, 0.0, 0.0, 0.0, 0.0, 0.0, 0.0, 1.6989582657822237E9, 0.0, 2023-11-02 16:51:05.782
93.0, -187500.02235174447, 187500.0, 2548.8588272164857, 49274.42065172442, 187500.0, 187500.0, -187500.02235174447, 37188.139520661774, -0.092, 0.982, 0.052000000000000005, 192.0, 0.0, 0.0, 0.0, 0.0, 0.0, 0.0, 0.0, 0.0, 0.0, 1.6989582657822535E9, 0.0, 2023-11-02 16:51:05.782
94.0, -187500.02235174447, 187500.0, 2546.7354114932314, 49273.437174968385, 187500.0, 187500.0, -187500.02235174447, 37185.97140144961, -0.092, 0.982, 0.052000000000000005, 192.0, 0.0, 0.0, 0.0, 0.0, 0.0, 0.0, 0.0, 0.0, 0.0, 1.6989582657822683E9, 0.0, 2023-11-02 16:51:05.782
95.0, -187500.02235174447, 187500.0, 2555.631405786444, 49243.48583739827, 187500.0, 187500.0, -187500.02235174447, 37194.30860213144, -0.092, 0.982, 0.052000000000000005, 192.0, 0.0, 0.0, 0.0, 0.0, 0.0, 0.0, 0.0, 0.0, 0.0, 1.698958265782282E9, 0.0, 2023-11-02 16:51:05.782
96.0, -187500.02235174447, 187500.0, 2554.6032255414993, 49260.07083178411, 187500.0, 187500.0, -187500.02235174447, 37193.14631141977, -0.092, 0.982, 0.052000000000000005, 192.0, 0.0, 0.0, 0.0, 0.0, 0.0, 0.0, 0.0, 0.0, 0.0, 1.6989582657823377E9, 0.0, 2023-11-02 16:51:05.782
97.0, -187500.02235174447, 187500.0, 2553.619748785466, 49289.66454144294, 187500.0, 187500.0, -187500.02235174447, 37192.967497464124, -0.09, 0.986, 0.05, 192.0, 253.0, 48.0, 30.0, 208.0, 1.0, 144.0, 0.0, 0.0, 0.0, 1.6989582657823994E9, 0.0, 2023-11-02 16:51:05.782
98.0, -187500.02235174447, 187500.0, 2554.044431930117, 49292.92789613341, 187500.0, 187500.0, -187500.02235174447, 37191.425227096704, -0.09, 0.986, 0.05, 192.0, 0.0, 0.0, 0.0, 0.0, 0.0, 0.0, 0.0, 0.0, 0.0, 1.6989582657824783E9, 0.0, 2023-11-02 16:51:05.782
99.0, -187500.02235174447, 187500.0, 2557.9559872097957, 49266.95516907635, 187500.0, 187500.0, -187500.02235174447, 37195.001506209555, -0.09, 0.986, 0.05, 192.0, 0.0, 0.0, 0.0, 0.0, 0.0, 0.0, 0.0, 0.0, 0.0, 1.6989582657825E9, 0.0, 2023-11-02 16:51:05.782
100.0, -187500.02235174447, 187500.0, 2558.6712430323655, 49268.0280528102, 187500.0, 187500.0, -187500.02235174447, 37195.60500330985, -0.09, 0.986, 0.05, 192.0, 0.0, 0.0, 0.0, 0.0, 0.0, 0.0, 0.0, 0.0, 0.0, 1.6989582657825136E9, 0.0, 2023-11-02 16:51:05.782
101.0, -187500.02235174447, 187500.0, 2553.2174173852704, 49297.57705898012, 187500.0, 187500.0, -187500.02235174447, 37192.49811083056, -0.09, 0.986, 0.05, 192.0, 0.0, 0.0, 0.0, 0.0, 0.0, 0.0, 0.0, 0.0, 0.0, 1.6989582657825296E9, 0.0, 2023-11-02 16:51:05.782
102.0, -187500.02235174447, 187500.0, 2545.0143271701727, 49300.41573052594, 187500.0, 187500.0, -187500.02235174447, 37184.04915142646, -0.09, 0.986, 0.05, 192.0, 0.0, 0.0, 0.0, 0.0, 0.0, 0.0, 0.0, 0.0, 0.0, 1.698958265782544E9, 0.0, 2023-11-02 16:51:05.782
103.0, -187500.02235174447, 187500.0, 2543.561463780578, 49266.39637546497, 187500.0, 187500.0, -187500.02235174447, 37180.71874150261, -0.09, 0.986, 0.05, 192.0, 0.0, 0.0, 0.0, 0.0, 0.0, 0.0, 0.0, 0.0, 0.0, 1.698958265782559E9, 0.0, 2023-11-02 16:51:05.782
104.0, -187500.02235174447, 187500.0, 2544.9249201923517, 49251.197189235354, 187500.0, 187500.0, -187500.02235174447, 37182.03749442548, -0.09, 0.986, 0.05, 192.0, 0.0, 0.0, 0.0, 0.0, 0.0, 0.0, 0.0, 0.0, 0.0, 1.6989582657825716E9, 0.0, 2023-11-02 16:51:05.782
105.0, -187500.02235174447, 187500.0, 2540.7674957236645, 49280.0309395827, 187500.0, 187500.0, -187500.02235174447, 37178.05888391243, -0.09, 0.986, 0.05, 192.0, 0.0, 0.0, 0.0, 0.0, 0.0, 0.0, 0.0, 0.0, 0.0, 1.698958265782588E9, 0.0, 2023-11-02 16:51:05.782
106.0, -187500.02235174447, 187500.0, 2535.850111943497, 49295.85597465706, 187500.0, 187500.0, -187500.02235174447, 37173.20855536563, -0.09, 0.986, 0.05, 192.0, 0.0, 0.0, 0.0, 0.0, 0.0, 0.0, 0.0, 0.0, 0.0, 1.6989582657827363E9, 0.0, 2023-11-02 16:51:05.782
107.0, -187500.02235174447, 187500.0, 2541.7286207352427, 49273.727747646306, 187500.0, 187500.0, -187500.02235174447, 37178.39416007926, -0.082, 0.982, 0.05, 192.0, 253.0, 112.0, 30.0, 176.0, 1.0, 144.0, 0.0, 0.0, 0.0, 1.6989582657827504E9, 0.0, 2023-11-02 16:51:05.782
108.0, -187500.02235174447, 187500.0, 2553.306824363092, 49261.16606726242, 187500.0, 187500.0, -187500.02235174447, 37187.96070670614, -0.082, 0.982, 0.05, 192.0, 0.0, 0.0, 0.0, 0.0, 0.0, 0.0, 0.0, 0.0, 0.0, 1.6989582657827687E9, 0.0, 2023-11-02 16:51:05.782
109.0, -187500.02235174447, 187500.0, 2543.6955742473097, 49292.525564733216, 187500.0, 187500.0, -187500.02235174447, 37177.678904256696, -0.082, 0.982, 0.05, 192.0, 0.0, 0.0, 0.0, 0.0, 0.0, 0.0, 0.0, 0.0, 0.0, 1.6989582657827806E9, 0.0, 2023-11-02 16:51:05.782
110.0, -187500.02235174447, 187500.0, 2544.902568447896, 49303.433216027406, 187500.0, 187500.0, -187500.02235174447, 37177.678904256696, -0.082, 0.982, 0.05, 192.0, 0.0, 0.0, 0.0, 0.0, 0.0, 0.0, 0.0, 0.0, 0.0, 1.698958265782793E9, 0.0, 2023-11-02 16:51:05.782
111.0, -187500.02235174447, 187500.0, 2553.4632865742788, 49290.89388738798, 187500.0, 187500.0, -187500.02235174447, 37185.99375319407, -0.082, 0.982, 0.05, 192.0, 0.0, 0.0, 0.0, 0.0, 0.0, 0.0, 0.0, 0.0, 0.0, 1.6989582657828248E9, 0.0, 2023-11-02 16:51:05.782
112.0, -187500.02235174447, 187500.0, 2556.1007924200053, 49270.79966912266, 187500.0, 187500.0, -187500.02235174447, 37188.34068636187, -0.082, 0.982, 0.05, 192.0, 0.0, 0.0, 0.0, 0.0, 0.0, 0.0, 0.0, 0.0, 0.0, 1.6989582657828364E9, 0.0, 2023-11-02 16:51:05.782
113.0, -187500.02235174447, 187500.0, 2563.2533506457034, 49276.789936636684, 187500.0, 187500.0, -187500.02235174447, 37194.1297881758, -0.082, 0.982, 0.05, 192.0, 0.0, 0.0, 0.0, 0.0, 0.0, 0.0, 0.0, 0.0, 0.0, 1.6989582657828496E9, 0.0, 2023-11-02 16:51:05.782
114.0, -187500.02235174447, 187500.0, 2555.8325714865414, 49303.8355474276, 187500.0, 187500.0, -187500.02235174447, 37184.295020615464, -0.082, 0.982, 0.05, 192.0, 0.0, 0.0, 0.0, 0.0, 0.0, 0.0, 0.0, 0.0, 0.0, 1.698958265782862E9, 0.0, 2023-11-02 16:51:05.782
115.0, -187500.02235174447, 187500.0, 2557.5536558096, 49289.12809957601, 187500.0, 187500.0, -187500.02235174447, 37185.278497371495, -0.082, 0.982, 0.05, 192.0, 0.0, 0.0, 0.0, 0.0, 0.0, 0.0, 0.0, 0.0, 0.0, 1.6989582657828748E9, 0.0, 2023-11-02 16:51:05.782
116.0, -187500.02235174447, 187500.0, 2555.921978464363, 49269.81619236663, 187500.0, 187500.0, -187500.02235174447, 37181.81397698093, -0.082, 0.982, 0.05, 192.0, 0.0, 0.0, 0.0, 0.0, 0.0, 0.0, 0.0, 0.0, 0.0, 1.6989582657828872E9, 0.0, 2023-11-02 16:51:05.782
117.0, -187500.02235174447, 187500.0, 2555.877274975452, 49274.219486024325, 187500.0, 187500.0, -187500.02235174447, 37181.65751476974, -0.08600000000000001, 0.98, 0.056, 192.0, 253.0, 80.0, 30.0, 160.0, 1.0, 192.0, 0.0, 0.0, 0.0, 1.6989582657828987E9, 0.0, 2023-11-02 16:51:05.782
118.0, -187500.02235174447, 187500.0, 2553.306824363092, 49303.67908521642, 187500.0, 187500.0, -187500.02235174447, 37181.433997325184, -0.08600000000000001, 0.98, 0.056, 192.0, 0.0, 0.0, 0.0, 0.0, 0.0, 0.0, 0.0, 0.0, 0.0, 1.698958265782912E9, 0.0, 2023-11-02 16:51:05.782
119.0, -187500.02235174447, 187500.0, 2548.9482341943067, 49299.8345851701, 187500.0, 187500.0, -187500.02235174447, 37177.522442045505, -0.08600000000000001, 0.98, 0.056, 192.0, 0.0, 0.0, 0.0, 0.0, 0.0, 0.0, 0.0, 0.0, 0.0, 1.6989582657829225E9, 0.0, 2023-11-02 16:51:05.782
120.0, -187500.02235174447, 187500.0, 2559.565312810578, 49271.80549762315, 187500.0, 187500.0, -187500.02235174447, 37186.329029360895, -0.08600000000000001, 0.98, 0.056, 192.0, 0.0, 0.0, 0.0, 0.0, 0.0, 0.0, 0.0, 0.0, 0.0, 1.69895826578294E9, 0.0, 2023-11-02 16:51:05.782
121.0, -187500.02235174447, 187500.0, 2562.135763422938, 49283.026073339715, 187500.0, 187500.0, -187500.02235174447, 37190.039418940476, -0.08600000000000001, 0.98, 0.056, 192.0, 0.0, 0.0, 0.0, 0.0, 0.0, 0.0, 0.0, 0.0, 0.0, 1.698958266260174E9, 0.0, 2023-11-02 16:51:06.260
122.0, -187500.02235174447, 187500.0, 2557.2183796427703, 49316.97837316732, 187500.0, 187500.0, -187500.02235174447, 37186.50784331654, -0.08600000000000001, 0.98, 0.056, 192.0, 0.0, 0.0, 0.0, 0.0, 0.0, 0.0, 0.0, 0.0, 0.0, 1.698958266260278E9, 0.0, 2023-11-02 16:51:06.260
123.0, -187500.02235174447, 187500.0, 2556.8383999870302, 49321.33696333611, 187500.0, 187500.0, -187500.02235174447, 37185.09968341586, -0.08600000000000001, 0.98, 0.056, 192.0, 0.0, 0.0, 0.0, 0.0, 0.0, 0.0, 0.0, 0.0, 0.0, 1.6989582662602925E9, 0.0, 2023-11-02 16:51:06.260
124.0, -187500.02235174447, 187500.0, 2555.7655162531755, 49294.44781475637, 187500.0, 187500.0, -187500.02235174447, 37181.925735703204, -0.08600000000000001, 0.98, 0.056, 192.0, 0.0, 0.0, 0.0, 0.0, 0.0, 0.0, 0.0, 0.0, 0.0, 1.6989582662603068E9, 0.0, 2023-11-02 16:51:06.260
125.0, -187500.02235174447, 187500.0, 2553.999728441206, 49289.03869259819, 187500.0, 187500.0, -187500.02235174447, 37178.68473275718, -0.08600000000000001, 0.98, 0.056, 192.0, 0.0, 0.0, 0.0, 0.0, 0.0, 0.0, 0.0, 0.0, 0.0, 1.6989582662603204E9, 0.0, 2023-11-02 16:51:06.260
126.0, -187500.02235174447, 187500.0, 2549.5070278056896, 49311.14456786449, 187500.0, 187500.0, -187500.02235174447, 37174.728473988594, -0.08600000000000001, 0.98, 0.056, 192.0, 0.0, 0.0, 0.0, 0.0, 0.0, 0.0, 0.0, 0.0, 0.0, 1.6989582662603357E9, 0.0, 2023-11-02 16:51:06.260
127.0, -187500.02235174447, 187500.0, 2546.936577193329, 49320.66641100245, 187500.0, 187500.0, -187500.02235174447, 37173.677941999194, -0.09, 0.978, 0.05, 192.0, 253.0, 48.0, 30.0, 144.0, 1.0, 144.0, 0.0, 0.0, 0.0, 1.6989582662603488E9, 0.0, 2023-11-02 16:51:06.260
128.0, -187500.02235174447, 187500.0, 2551.74220225122, 49293.26317230024, 187500.0, 187500.0, -187500.02235174447, 37178.081235656886, -0.09, 0.978, 0.05, 192.0, 0.0, 0.0, 0.0, 0.0, 0.0, 0.0, 0.0, 0.0, 0.0, 1.698958266260364E9, 0.0, 2023-11-02 16:51:06.260
129.0, -187500.02235174447, 187500.0, 2554.3126528635803, 49291.81030891065, 187500.0, 187500.0, -187500.02235174447, 37180.49522405806, -0.09, 0.978, 0.05, 192.0, 0.0, 0.0, 0.0, 0.0, 0.0, 0.0, 0.0, 0.0, 0.0, 1.6989582662603765E9, 0.0, 2023-11-02 16:51:06.260
130.0, -187500.02235174447, 187500.0, 2553.2174173852704, 49322.23103311432, 187500.0, 187500.0, -187500.02235174447, 37179.42234032421, -0.09, 0.978, 0.05, 192.0, 0.0, 0.0, 0.0, 0.0, 0.0, 0.0, 0.0, 0.0, 0.0, 1.698958266260388E9, 0.0, 2023-11-02 16:51:06.260
131.0, -187500.02235174447, 187500.0, 2555.609054041988, 49342.68287929093, 187500.0, 187500.0, -187500.02235174447, 37181.61281128083, -0.09, 0.978, 0.05, 192.0, 0.0, 0.0, 0.0, 0.0, 0.0, 0.0, 0.0, 0.0, 0.0, 1.6989582662603996E9, 0.0, 2023-11-02 16:51:06.260
132.0, -187500.02235174447, 187500.0, 2561.4428593448233, 49321.18050112492, 187500.0, 187500.0, -187500.02235174447, 37186.66430552772, -0.09, 0.978, 0.05, 192.0, 0.0, 0.0, 0.0, 0.0, 0.0, 0.0, 0.0, 0.0, 0.0, 1.6989582662604525E9, 0.0, 2023-11-02 16:51:06.260
133.0, -187500.02235174447, 187500.0, 2563.230998901248, 49308.48471027431, 187500.0, 187500.0, -187500.02235174447, 37187.91600321722, -0.09, 0.978, 0.05, 192.0, 0.0, 0.0, 0.0, 0.0, 0.0, 0.0, 0.0, 0.0, 0.0, 1.6989582662604632E9, 0.0, 2023-11-02 16:51:06.260
134.0, -187500.02235174447, 187500.0, 2565.8014495136085, 49330.210605884866, 187500.0, 187500.0, -187500.02235174447, 37188.4747968286, -0.09, 0.978, 0.05, 192.0, 0.0, 0.0, 0.0, 0.0, 0.0, 0.0, 0.0, 0.0, 0.0, 1.6989582662604733E9, 0.0, 2023-11-02 16:51:06.260
135.0, -187500.02235174447, 187500.0, 2562.5380948231336, 49356.58566434213, 187500.0, 187500.0, -187500.02235174447, 37187.446616583664, -0.09, 0.978, 0.05, 192.0, 0.0, 0.0, 0.0, 0.0, 0.0, 0.0, 0.0, 0.0, 0.0, 1.6989582662604835E9, 0.0, 2023-11-02 16:51:06.260
136.0, -187500.02235174447, 187500.0, 2568.4389553593346, 49339.57598681164, 187500.0, 187500.0, -187500.02235174447, 37194.04038119798, -0.09, 0.978, 0.05, 192.0, 0.0, 0.0, 0.0, 0.0, 0.0, 0.0, 0.0, 0.0, 0.0, 1.6989582662606616E9, 0.0, 2023-11-02 16:51:06.260
137.0, -187500.02235174447, 187500.0, 2570.584722827044, 49333.80923674217, 187500.0, 187500.0, -187500.02235174447, 37196.90140448826, -0.088, 0.974, 0.048, 192.0, 253.0, 64.0, 30.0, 112.0, 1.0, 128.0, 0.0, 0.0, 0.0, 1.6989582662606745E9, 0.0, 2023-11-02 16:51:06.260
138.0, -187500.02235174447, 187500.0, 2562.2475221452146, 49345.923882236944, 187500.0, 187500.0, -187500.02235174447, 37187.84894798386, -0.088, 0.974, 0.048, 192.0, 0.0, 0.0, 0.0, 0.0, 0.0, 0.0, 0.0, 0.0, 0.0, 1.6989582662606888E9, 0.0, 2023-11-02 16:51:06.260
139.0, -187500.02235174447, 187500.0, 2563.096888434516, 49362.88885627852, 187500.0, 187500.0, -187500.02235174447, 37187.536023561486, -0.088, 0.974, 0.048, 192.0, 0.0, 0.0, 0.0, 0.0, 0.0, 0.0, 0.0, 0.0, 0.0, 1.6989582662607005E9, 0.0, 2023-11-02 16:51:06.260
140.0, -187500.02235174447, 187500.0, 2562.2475221452146, 49359.37963239904, 187500.0, 187500.0, -187500.02235174447, 37186.686657272185, -0.088, 0.974, 0.048, 192.0, 0.0, 0.0, 0.0, 0.0, 0.0, 0.0, 0.0, 0.0, 0.0, 1.698958266260712E9, 0.0, 2023-11-02 16:51:06.260
141.0, -187500.02235174447, 187500.0, 2560.45938258879, 49330.344716351596, 187500.0, 187500.0, -187500.02235174447, 37182.99861943706, -0.088, 0.974, 0.048, 192.0, 0.0, 0.0, 0.0, 0.0, 0.0, 0.0, 0.0, 0.0, 0.0, 1.698958266260722E9, 0.0, 2023-11-02 16:51:06.260
142.0, -187500.02235174447, 187500.0, 2551.429277828846, 49340.62651880104, 187500.0, 187500.0, -187500.02235174447, 37171.375712320296, -0.088, 0.974, 0.048, 192.0, 0.0, 0.0, 0.0, 0.0, 0.0, 0.0, 0.0, 0.0, 0.0, 1.698958266260733E9, 0.0, 2023-11-02 16:51:06.260
143.0, -187500.02235174447, 187500.0, 2549.7305452502424, 49361.90537952249, 187500.0, 187500.0, -187500.02235174447, 37167.59826750735, -0.088, 0.974, 0.048, 192.0, 0.0, 0.0, 0.0, 0.0, 0.0, 0.0, 0.0, 0.0, 0.0, 1.698958266260743E9, 0.0, 2023-11-02 16:51:06.260
144.0, -187500.02235174447, 187500.0, 2560.4370308443345, 49350.72950729484, 187500.0, 187500.0, -187500.02235174447, 37178.528270546, -0.088, 0.974, 0.048, 192.0, 0.0, 0.0, 0.0, 0.0, 0.0, 0.0, 0.0, 0.0, 0.0, 1.698958266260753E9, 0.0, 2023-11-02 16:51:06.260
145.0, -187500.02235174447, 187500.0, 2567.299016392114, 49329.83062622912, 187500.0, 187500.0, -187500.02235174447, 37186.66430552772, -0.088, 0.974, 0.048, 192.0, 0.0, 0.0, 0.0, 0.0, 0.0, 0.0, 0.0, 0.0, 0.0, 1.6989582662607632E9, 0.0, 2023-11-02 16:51:06.260
146.0, -187500.02235174447, 187500.0, 2565.265007646681, 49340.02302170075, 187500.0, 187500.0, -187500.02235174447, 37185.39025609377, -0.088, 0.974, 0.048, 192.0, 0.0, 0.0, 0.0, 0.0, 0.0, 0.0, 0.0, 0.0, 0.0, 1.6989582662607744E9, 0.0, 2023-11-02 16:51:06.260
147.0, -187500.02235174447, 187500.0, 2557.3971935984127, 49372.790679072226, 187500.0, 187500.0, -187500.02235174447, 37178.59532577936, -0.08600000000000001, 0.98, 0.05, 192.0, 253.0, 80.0, 30.0, 160.0, 1.0, 144.0, 0.0, 0.0, 0.0, 1.698958266260785E9, 0.0, 2023-11-02 16:51:06.260
148.0, -187500.02235174447, 187500.0, 2550.9822429397395, 49373.86356280608, 187500.0, 187500.0, -187500.02235174447, 37171.04043615347, -0.08600000000000001, 0.98, 0.05, 192.0, 0.0, 0.0, 0.0, 0.0, 0.0, 0.0, 0.0, 0.0, 0.0, 1.6989582662607956E9, 0.0, 2023-11-02 16:51:06.260
149.0, -187500.02235174447, 187500.0, 2557.620711042966, 49330.210605884866, 187500.0, 187500.0, -187500.02235174447, 37174.88493619978, -0.08600000000000001, 0.98, 0.05, 192.0, 0.0, 0.0, 0.0, 0.0, 0.0, 0.0, 0.0, 0.0, 0.0, 1.6989582662608051E9, 0.0, 2023-11-02 16:51:06.260
150.0, -187500.02235174447, 187500.0, 2559.9899959552286, 49324.91324244896, 187500.0, 187500.0, -187500.02235174447, 37175.354322833344, -0.08600000000000001, 0.98, 0.05, 192.0, 0.0, 0.0, 0.0, 0.0, 0.0, 0.0, 0.0, 0.0, 0.0, 1.698958266260816E9, 0.0, 2023-11-02 16:51:06.260
151.0, -187500.02235174447, 187500.0, 2553.5750452965553, 49356.60801608658, 187500.0, 187500.0, -187500.02235174447, 37169.29700008595, -0.08600000000000001, 0.98, 0.05, 192.0, 0.0, 0.0, 0.0, 0.0, 0.0, 0.0, 0.0, 0.0, 0.0, 1.6989582662608445E9, 0.0, 2023-11-02 16:51:06.260
152.0, -187500.02235174447, 187500.0, 2555.5419988086223, 49368.54384762572, 187500.0, 187500.0, -187500.02235174447, 37171.375712320296, -0.08600000000000001, 0.98, 0.05, 192.0, 0.0, 0.0, 0.0, 0.0, 0.0, 0.0, 0.0, 0.0, 0.0, 1.698958266260855E9, 0.0, 2023-11-02 16:51:06.260
153.0, -187500.02235174447, 187500.0, 2567.1425541809267, 49340.15713216748, 187500.0, 187500.0, -187500.02235174447, 37181.21047988063, -0.08600000000000001, 0.98, 0.05, 192.0, 0.0, 0.0, 0.0, 0.0, 0.0, 0.0, 0.0, 0.0, 0.0, 1.6989582662608652E9, 0.0, 2023-11-02 16:51:06.260
154.0, -187500.02235174447, 187500.0, 2571.03175771615, 49328.51187330626, 187500.0, 187500.0, -187500.02235174447, 37182.79745373696, -0.08600000000000001, 0.98, 0.05, 192.0, 0.0, 0.0, 0.0, 0.0, 0.0, 0.0, 0.0, 0.0, 0.0, 1.698958266260881E9, 0.0, 2023-11-02 16:51:06.260
155.0, -187500.02235174447, 187500.0, 2558.4030220989016, 49355.75864979728, 187500.0, 187500.0, -187500.02235174447, 37169.609924508324, -0.08600000000000001, 0.98, 0.05, 192.0, 0.0, 0.0, 0.0, 0.0, 0.0, 0.0, 0.0, 0.0, 0.0, 1.6989582662608955E9, 0.0, 2023-11-02 16:51:06.260
156.0, -187500.02235174447, 187500.0, 2561.264045389181, 49368.946179025916, 187500.0, 187500.0, -187500.02235174447, 37171.93450593168, -0.09, 0.982, 0.052000000000000005, 192.0, 253.0, 48.0, 30.0, 176.0, 1.0, 160.0, 0.0, 0.0, 0.0, 1.6989582662609053E9, 0.0, 2023-11-02 16:51:06.260
157.0, -187500.02235174447, 187500.0, 2571.7246617942646, 49345.83447525913, 187500.0, 187500.0, -187500.02235174447, 37180.0258374245, -0.09, 0.982, 0.052000000000000005, 192.0, 0.0, 0.0, 0.0, 0.0, 0.0, 0.0, 0.0, 0.0, 0.0, 1.6989582662609167E9, 0.0, 2023-11-02 16:51:06.260
158.0, -187500.02235174447, 187500.0, 2575.2115339292927, 49320.66641100245, 187500.0, 187500.0, -187500.02235174447, 37184.27266887101, -0.09, 0.982, 0.052000000000000005, 192.0, 0.0, 0.0, 0.0, 0.0, 0.0, 0.0, 0.0, 0.0, 0.0, 1.698958266260927E9, 0.0, 2023-11-02 16:51:06.260
159.0, -187500.02235174447, 187500.0, 2567.656644303399, 49330.79175124071, 187500.0, 187500.0, -187500.02235174447, 37179.84702346886, -0.09, 0.982, 0.052000000000000005, 192.0, 0.0, 0.0, 0.0, 0.0, 0.0, 0.0, 0.0, 0.0, 0.0, 1.6989582662609425E9, 0.0, 2023-11-02 16:51:06.260
160.0, -187500.02235174447, 187500.0, 2561.3758041114575, 49337.87725423303, 187500.0, 187500.0, -187500.02235174447, 37173.38736932127, -0.09, 0.982, 0.052000000000000005, 192.0, 0.0, 0.0, 0.0, 0.0, 0.0, 0.0, 0.0, 0.0, 0.0, 1.698958266260954E9, 0.0, 2023-11-02 16:51:06.260
161.0, -187500.02235174447, 187500.0, 2562.5380948231336, 49296.05714035716, 187500.0, 187500.0, -187500.02235174447, 37173.946162932654, -0.09, 0.982, 0.052000000000000005, 192.0, 0.0, 0.0, 0.0, 0.0, 0.0, 0.0, 0.0, 0.0, 0.0, 1.698958266260967E9, 0.0, 2023-11-02 16:51:06.260
162.0, -187500.02235174447, 187500.0, 2564.5944553130216, 49257.36627070502, 187500.0, 187500.0, -187500.02235174447, 37176.27074435601, -0.09, 0.982, 0.052000000000000005, 192.0, 0.0, 0.0, 0.0, 0.0, 0.0, 0.0, 0.0, 0.0, 0.0, 1.69895826626102E9, 0.0, 2023-11-02 16:51:06.261
163.0, -187500.02235174447, 187500.0, 2557.285434876136, 49248.91731130092, 187500.0, 187500.0, -187500.02235174447, 37170.74986347555, -0.09, 0.982, 0.052000000000000005, 192.0, 0.0, 0.0, 0.0, 0.0, 0.0, 0.0, 0.0, 0.0, 0.0, 1.6989582662610483E9, 0.0, 2023-11-02 16:51:06.261
164.0, -187500.02235174447, 187500.0, 2560.7276035222535, 49237.80849430663, 187500.0, 187500.0, -187500.02235174447, 37174.43790131067, -0.09, 0.982, 0.052000000000000005, 192.0, 0.0, 0.0, 0.0, 0.0, 0.0, 0.0, 0.0, 0.0, 0.0, 1.698958266261078E9, 0.0, 2023-11-02 16:51:06.261
165.0, -187500.02235174447, 187500.0, 2566.069670447072, 49211.52284282719, 187500.0, 187500.0, -187500.02235174447, 37178.572974034905, -0.09, 0.982, 0.052000000000000005, 192.0, 0.0, 0.0, 0.0, 0.0, 0.0, 0.0, 0.0, 0.0, 0.0, 1.6989582662610917E9, 0.0, 2023-11-02 16:51:06.261
166.0, -187500.02235174447, 187500.0, 2564.4379931018348, 49170.462688262785, 187500.0, 187500.0, -187500.02235174447, 37177.947125190156, -0.09, 0.976, 0.048, 192.0, 253.0, 48.0, 30.0, 128.0, 1.0, 128.0, 0.0, 0.0, 0.0, 1.6989582662611063E9, 0.0, 2023-11-02 16:51:06.261
167.0, -187500.02235174447, 187500.0, 2559.006519199195, 49149.72026940826, 187500.0, 187500.0, -187500.02235174447, 37174.90728794423, -0.09, 0.976, 0.048, 192.0, 0.0, 0.0, 0.0, 0.0, 0.0, 0.0, 0.0, 0.0, 0.0, 1.6989582662611618E9, 0.0, 2023-11-02 16:51:06.261
168.0, -187500.02235174447, 187500.0, 2551.2504638732034, 49151.240188031225, 187500.0, 187500.0, -187500.02235174447, 37169.49816578605, -0.09, 0.976, 0.048, 192.0, 0.0, 0.0, 0.0, 0.0, 0.0, 0.0, 0.0, 0.0, 0.0, 1.6989582662611747E9, 0.0, 2023-11-02 16:51:06.261
169.0, -187500.02235174447, 187500.0, 2556.950158709307, 49120.752408594184, 187500.0, 187500.0, -187500.02235174447, 37176.11428214482, -0.09, 0.976, 0.048, 192.0, 0.0, 0.0, 0.0, 0.0, 0.0, 0.0, 0.0, 0.0, 0.0, 1.6989582662611852E9, 0.0, 2023-11-02 16:51:06.261
170.0, -187500.02235174447, 187500.0, 2562.0910599340273, 49078.75348076266, 187500.0, 187500.0, -187500.02235174447, 37182.99861943706, -0.09, 0.976, 0.048, 192.0, 0.0, 0.0, 0.0, 0.0, 0.0, 0.0, 0.0, 0.0, 0.0, 1.698958266261196E9, 0.0, 2023-11-02 16:51:06.261
171.0, -187500.02235174447, 187500.0, 2552.8374377295304, 49068.06934691303, 187500.0, 187500.0, -187500.02235174447, 37176.181337378184, -0.09, 0.976, 0.048, 192.0, 0.0, 0.0, 0.0, 0.0, 0.0, 0.0, 0.0, 0.0, 0.0, 1.6989582662612069E9, 0.0, 2023-11-02 16:51:06.261
172.0, -187500.02235174447, 187500.0, 2552.9268447073514, 49074.0819661715, 187500.0, 187500.0, -187500.02235174447, 37178.148290890254, -0.09, 0.976, 0.048, 192.0, 0.0, 0.0, 0.0, 0.0, 0.0, 0.0, 0.0, 0.0, 0.0, 1.6989582662612185E9, 0.0, 2023-11-02 16:51:06.261
173.0, -187500.02235174447, 187500.0, 2555.676109275354, 49070.75155624766, 187500.0, 187500.0, -187500.02235174447, 37181.59045953637, -0.09, 0.976, 0.048, 192.0, 0.0, 0.0, 0.0, 0.0, 0.0, 0.0, 0.0, 0.0, 0.0, 1.6989582662612302E9, 0.0, 2023-11-02 16:51:06.261
174.0, -187500.02235174447, 187500.0, 2559.520609321667, 49044.04122162357, 187500.0, 187500.0, -187500.02235174447, 37184.652648526746, -0.09, 0.976, 0.048, 192.0, 0.0, 0.0, 0.0, 0.0, 0.0, 0.0, 0.0, 0.0, 0.0, 1.6989582662612405E9, 0.0, 2023-11-02 16:51:06.261
175.0, -187500.02235174447, 187500.0, 2556.3466616090136, 49028.618517949406, 187500.0, 187500.0, -187500.02235174447, 37180.65168626925, -0.09, 0.976, 0.048, 192.0, 0.0, 0.0, 0.0, 0.0, 0.0, 0.0, 0.0, 0.0, 0.0, 1.6989582662612572E9, 0.0, 2023-11-02 16:51:06.261
176.0, -187500.02235174447, 187500.0, 2553.2174173852704, 49047.014003636126, 187500.0, 187500.0, -187500.02235174447, 37180.539927546975, -0.084, 0.978, 0.046, 192.0, 253.0, 96.0, 30.0, 144.0, 1.0, 112.0, 0.0, 0.0, 0.0, 1.698958266261268E9, 0.0, 2023-11-02 16:51:06.261
177.0, -187500.02235174447, 187500.0, 2547.785943482631, 49057.11699212992, 187500.0, 187500.0, -187500.02235174447, 37177.18716587868, -0.084, 0.978, 0.046, 192.0, 0.0, 0.0, 0.0, 0.0, 0.0, 0.0, 0.0, 0.0, 0.0, 1.6989582662612786E9, 0.0, 2023-11-02 16:51:06.261
178.0, -187500.02235174447, 187500.0, 2559.297091877114, 49031.09956158395, 187500.0, 187500.0, -187500.02235174447, 37187.42426483921, -0.084, 0.978, 0.046, 192.0, 0.0, 0.0, 0.0, 0.0, 0.0, 0.0, 0.0, 0.0, 0.0, 1.69895826626129E9, 0.0, 2023-11-02 16:51:06.261
179.0, -187500.02235174447, 187500.0, 2552.032774929139, 49027.322116771, 187500.0, 187500.0, -187500.02235174447, 37179.60115427985, -0.084, 0.978, 0.046, 192.0, 0.0, 0.0, 0.0, 0.0, 0.0, 0.0, 0.0, 0.0, 0.0, 1.6989582662612996E9, 0.0, 2023-11-02 16:51:06.261
180.0, -187500.02235174447, 187500.0, 2544.4778853032453, 49041.80604717804, 187500.0, 187500.0, -187500.02235174447, 37168.69350298566, -0.084, 0.978, 0.046, 192.0, 0.0, 0.0, 0.0, 0.0, 0.0, 0.0, 0.0, 0.0, 0.0, 1.6989582662613113E9, 0.0, 2023-11-02 16:51:06.261
181.0, -187500.02235174447, 187500.0, 2541.013364912673, 49057.206399107745, 187500.0, 187500.0, -187500.02235174447, 37162.770290705004, -0.084, 0.978, 0.046, 192.0, 0.0, 0.0, 0.0, 0.0, 0.0, 0.0, 0.0, 0.0, 0.0, 1.698958266261322E9, 0.0, 2023-11-02 16:51:06.261
182.0, -187500.02235174447, 187500.0, 2544.567292281067, 49030.920747628305, 187500.0, 187500.0, -187500.02235174447, 37163.86552618331, -0.084, 0.978, 0.046, 192.0, 0.0, 0.0, 0.0, 0.0, 0.0, 0.0, 0.0, 0.0, 0.0, 1.6989582662613466E9, 0.0, 2023-11-02 16:51:06.261
183.0, -187500.02235174447, 187500.0, 2543.4273533138457, 49017.73321839968, 187500.0, 187500.0, -187500.02235174447, 37163.15027036074, -0.084, 0.978, 0.046, 192.0, 0.0, 0.0, 0.0, 0.0, 0.0, 0.0, 0.0, 0.0, 0.0, 1.698958266261358E9, 0.0, 2023-11-02 16:51:06.261
184.0, -187500.02235174447, 187500.0, 2544.9919754257176, 49034.206454063235, 187500.0, 187500.0, -187500.02235174447, 37162.54677326045, -0.084, 0.978, 0.046, 192.0, 0.0, 0.0, 0.0, 0.0, 0.0, 0.0, 0.0, 0.0, 0.0, 1.698958266261368E9, 0.0, 2023-11-02 16:51:06.261
185.0, -187500.02235174447, 187500.0, 2540.9910131682177, 49062.99550092167, 187500.0, 187500.0, -187500.02235174447, 37159.64104648126, -0.084, 0.978, 0.046, 192.0, 0.0, 0.0, 0.0, 0.0, 0.0, 0.0, 0.0, 0.0, 0.0, 1.6989582662613788E9, 0.0, 2023-11-02 16:51:06.261
186.0, -187500.02235174447, 187500.0, 2546.3777835819465, 49047.19281759177, 187500.0, 187500.0, -187500.02235174447, 37164.96076166162, -0.08, 0.982, 0.046, 192.0, 253.0, 128.0, 30.0, 176.0, 1.0, 112.0, 0.0, 0.0, 0.0, 1.69895826626139E9, 0.0, 2023-11-02 16:51:06.261
187.0, -187500.02235174447, 187500.0, 2544.656699258888, 49029.91491912782, 187500.0, 187500.0, -187500.02235174447, 37163.463194783115, -0.08, 0.982, 0.046, 192.0, 0.0, 0.0, 0.0, 0.0, 0.0, 0.0, 0.0, 0.0, 0.0, 1.6989582662614014E9, 0.0, 2023-11-02 16:51:06.261
188.0, -187500.02235174447, 187500.0, 2540.9910131682177, 49044.51060825713, 187500.0, 187500.0, -187500.02235174447, 37159.8198604369, -0.08, 0.982, 0.046, 192.0, 0.0, 0.0, 0.0, 0.0, 0.0, 0.0, 0.0, 0.0, 0.0, 1.698958266261412E9, 0.0, 2023-11-02 16:51:06.261
189.0, -187500.02235174447, 187500.0, 2534.2184345982596, 49070.30452135856, 187500.0, 187500.0, -187500.02235174447, 37150.25331381003, -0.08, 0.982, 0.046, 192.0, 0.0, 0.0, 0.0, 0.0, 0.0, 0.0, 0.0, 0.0, 0.0, 1.698958266261423E9, 0.0, 2023-11-02 16:51:06.261
190.0, -187500.02235174447, 187500.0, 2543.874388202952, 49061.2297131097, 187500.0, 187500.0, -187500.02235174447, 37158.232886580576, -0.08, 0.982, 0.046, 192.0, 0.0, 0.0, 0.0, 0.0, 0.0, 0.0, 0.0, 0.0, 0.0, 1.698958266261434E9, 0.0, 2023-11-02 16:51:06.261
191.0, -187500.02235174447, 187500.0, 2550.3116906060804, 49043.68359371228, 187500.0, 187500.0, -187500.02235174447, 37164.2231540946, -0.08, 0.982, 0.046, 192.0, 0.0, 0.0, 0.0, 0.0, 0.0, 0.0, 0.0, 0.0, 0.0, 1.698958266261445E9, 0.0, 2023-11-02 16:51:06.261
192.0, -187500.02235174447, 187500.0, 2554.424411585857, 49052.71369847223, 187500.0, 187500.0, -187500.02235174447, 37166.50303202904, -0.08, 0.982, 0.046, 192.0, 0.0, 0.0, 0.0, 0.0, 0.0, 0.0, 0.0, 0.0, 0.0, 1.6989582662614548E9, 0.0, 2023-11-02 16:51:06.261
193.0, -187500.02235174447, 187500.0, 2553.5526935521, 49086.934219233306, 187500.0, 187500.0, -187500.02235174447, 37163.99963665004, -0.08, 0.982, 0.046, 192.0, 0.0, 0.0, 0.0, 0.0, 0.0, 0.0, 0.0, 0.0, 0.0, 1.6989582662614655E9, 0.0, 2023-11-02 16:51:06.261
194.0, -187500.02235174447, 187500.0, 2549.0152894276725, 49088.14121343389, 187500.0, 187500.0, -187500.02235174447, 37158.5234592585, -0.08, 0.982, 0.046, 192.0, 0.0, 0.0, 0.0, 0.0, 0.0, 0.0, 0.0, 0.0, 0.0, 1.6989582662614758E9, 0.0, 2023-11-02 16:51:06.261
195.0, -187500.02235174447, 187500.0, 2553.776210996653, 49055.462963040234, 187500.0, 187500.0, -187500.02235174447, 37162.010331393525, -0.08, 0.982, 0.046, 192.0, 0.0, 0.0, 0.0, 0.0, 0.0, 0.0, 0.0, 0.0, 0.0, 1.6989582662614875E9, 0.0, 2023-11-02 16:51:06.261
196.0, -187500.02235174447, 187500.0, 2564.2368274017367, 49054.14421011737, 187500.0, 187500.0, -187500.02235174447, 37171.97920942059, -0.08600000000000001, 0.982, 0.046, 192.0, 253.0, 80.0, 30.0, 176.0, 1.0, 112.0, 0.0, 0.0, 0.0, 1.6989582662615001E9, 0.0, 2023-11-02 16:51:06.261
197.0, -187500.02235174447, 187500.0, 2554.8714464749632, 49091.7845477801, 187500.0, 187500.0, -187500.02235174447, 37163.28438082748, -0.08600000000000001, 0.982, 0.046, 192.0, 0.0, 0.0, 0.0, 0.0, 0.0, 0.0, 0.0, 0.0, 0.0, 1.69895826626152E9, 0.0, 2023-11-02 16:51:06.261
198.0, -187500.02235174447, 187500.0, 2542.242710857715, 49097.35013214948, 187500.0, 187500.0, -187500.02235174447, 37151.32619754389, -0.08600000000000001, 0.982, 0.046, 192.0, 0.0, 0.0, 0.0, 0.0, 0.0, 0.0, 0.0, 0.0, 0.0, 1.69895826626153E9, 0.0, 2023-11-02 16:51:06.261
199.0, -187500.02235174447, 187500.0, 2552.8597894739855, 49056.69230898527, 187500.0, 187500.0, -187500.02235174447, 37161.63035173778, -0.08600000000000001, 0.982, 0.046, 192.0, 0.0, 0.0, 0.0, 0.0, 0.0, 0.0, 0.0, 0.0, 0.0, 1.6989582662615397E9, 0.0, 2023-11-02 16:51:06.261
200.0, -187500.02235174447, 187500.0, 2552.5245133071558, 49058.34633807497, 187500.0, 187500.0, -187500.02235174447, 37160.4233575372, -0.08600000000000001, 0.982, 0.046, 192.0, 0.0, 0.0, 0.0, 0.0, 0.0, 0.0, 0.0, 0.0, 0.0, 1.6989582662615492E9, 0.0, 2023-11-02 16:51:06.261
201.0, -187500.02235174447, 187500.0, 2550.1775801393487, 49085.01196921015, 187500.0, 187500.0, -187500.02235174447, 37155.97536039059, -0.08600000000000001, 0.982, 0.046, 192.0, 0.0, 0.0, 0.0, 0.0, 0.0, 0.0, 0.0, 0.0, 0.0, 1.6989582662615588E9, 0.0, 2023-11-02 16:51:06.261
202.0, -187500.02235174447, 187500.0, 2552.4127545848796, 49109.4424258998, 187500.0, 187500.0, -187500.02235174447, 37159.417529036706, -0.08600000000000001, 0.982, 0.046, 192.0, 0.0, 0.0, 0.0, 0.0, 0.0, 0.0, 0.0, 0.0, 0.0, 1.6989582662615683E9, 0.0, 2023-11-02 16:51:06.261
203.0, -187500.02235174447, 187500.0, 2553.105658662994, 49092.99154198069, 187500.0, 187500.0, -187500.02235174447, 37160.4233575372, -0.08600000000000001, 0.982, 0.046, 192.0, 0.0, 0.0, 0.0, 0.0, 0.0, 0.0, 0.0, 0.0, 0.0, 1.698958266261578E9, 0.0, 2023-11-02 16:51:06.261
204.0, -187500.02235174447, 187500.0, 2547.0483359156055, 49084.63198955441, 187500.0, 187500.0, -187500.02235174447, 37155.6177324793, -0.08600000000000001, 0.982, 0.046, 192.0, 0.0, 0.0, 0.0, 0.0, 0.0, 0.0, 0.0, 0.0, 0.0, 1.6989582662615879E9, 0.0, 2023-11-02 16:51:06.261
205.0, -187500.02235174447, 187500.0, 2546.3554318374913, 49107.43076889882, 187500.0, 187500.0, -187500.02235174447, 37154.43309002317, -0.08600000000000001, 0.982, 0.046, 192.0, 0.0, 0.0, 0.0, 0.0, 0.0, 0.0, 0.0, 0.0, 0.0, 1.698958266261601E9, 0.0, 2023-11-02 16:51:06.261
206.0, -187500.02235174447, 187500.0, 2546.7354114932314, 49123.904004562384, 187500.0, 187500.0, -187500.02235174447, 37155.282456312474, -0.092, 0.98, 0.048, 192.0, 253.0, 32.0, 30.0, 160.0, 1.0, 128.0, 0.0, 0.0, 0.0, 1.6989582662616131E9, 0.0, 2023-11-02 16:51:06.261
207.0, -187500.02235174447, 187500.0, 2553.664452274377, 49105.32970492002, 187500.0, 187500.0, -187500.02235174447, 37161.04920638195, -0.092, 0.98, 0.048, 192.0, 0.0, 0.0, 0.0, 0.0, 0.0, 0.0, 0.0, 0.0, 0.0, 1.6989582662616253E9, 0.0, 2023-11-02 16:51:06.261
208.0, -187500.02235174447, 187500.0, 2556.234902886737, 49094.06442571455, 187500.0, 187500.0, -187500.02235174447, 37160.535116259474, -0.092, 0.98, 0.048, 192.0, 0.0, 0.0, 0.0, 0.0, 0.0, 0.0, 0.0, 0.0, 0.0, 1.698958266261635E9, 0.0, 2023-11-02 16:51:06.261
209.0, -187500.02235174447, 187500.0, 2554.714984263776, 49112.661077101366, 187500.0, 187500.0, -187500.02235174447, 37158.16583134721, -0.092, 0.98, 0.048, 192.0, 0.0, 0.0, 0.0, 0.0, 0.0, 0.0, 0.0, 0.0, 0.0, 1.6989582662616446E9, 0.0, 2023-11-02 16:51:06.261
210.0, -187500.02235174447, 187500.0, 2549.5293795501448, 49145.80871412858, 187500.0, 187500.0, -187500.02235174447, 37153.49431675605, -0.092, 0.98, 0.048, 192.0, 0.0, 0.0, 0.0, 0.0, 0.0, 0.0, 0.0, 0.0, 0.0, 1.6989582662616541E9, 0.0, 2023-11-02 16:51:06.261
211.0, -187500.02235174447, 187500.0, 2550.110524905983, 49133.403495955885, 187500.0, 187500.0, -187500.02235174447, 37153.31550280041, -0.092, 0.98, 0.048, 192.0, 0.0, 0.0, 0.0, 0.0, 0.0, 0.0, 0.0, 0.0, 0.0, 1.6989582662616644E9, 0.0, 2023-11-02 16:51:06.261
212.0, -187500.02235174447, 187500.0, 2555.4972953197116, 49106.849623542985, 187500.0, 187500.0, -187500.02235174447, 37158.299941813944, -0.092, 0.98, 0.048, 192.0, 0.0, 0.0, 0.0, 0.0, 0.0, 0.0, 0.0, 0.0, 0.0, 1.6989582662616906E9, 0.0, 2023-11-02 16:51:06.261
213.0, -187500.02235174447, 187500.0, 2551.69749876231, 49125.40157144089, 187500.0, 187500.0, -187500.02235174447, 37155.88595341277, -0.092, 0.98, 0.048, 192.0, 0.0, 0.0, 0.0, 0.0, 0.0, 0.0, 0.0, 0.0, 0.0, 1.6989582662617059E9, 0.0, 2023-11-02 16:51:06.261
214.0, -187500.02235174447, 187500.0, 2549.17175163886, 49157.051641589605, 187500.0, 187500.0, -187500.02235174447, 37153.58372373387, -0.092, 0.98, 0.048, 192.0, 0.0, 0.0, 0.0, 0.0, 0.0, 0.0, 0.0, 0.0, 0.0, 1.6989582662617176E9, 0.0, 2023-11-02 16:51:06.261
215.0, -187500.02235174447, 187500.0, 2547.070687660061, 49156.470496233764, 187500.0, 187500.0, -187500.02235174447, 37151.14738358824, -0.092, 0.98, 0.048, 192.0, 0.0, 0.0, 0.0, 0.0, 0.0, 0.0, 0.0, 0.0, 0.0, 1.698958266261731E9, 0.0, 2023-11-02 16:51:06.261
216.0, -187500.02235174447, 187500.0, 2549.9540626947955, 49132.30826047758, 187500.0, 187500.0, -187500.02235174447, 37151.61677022181, -0.096, 0.974, 0.048, 192.0, 253.0, 0.0, 30.0, 112.0, 1.0, 128.0, 0.0, 0.0, 0.0, 1.698958266261744E9, 0.0, 2023-11-02 16:51:06.261
217.0, -187500.02235174447, 187500.0, 2546.7130597487762, 49148.66973741886, 187500.0, 187500.0, -187500.02235174447, 37145.782964918966, -0.096, 0.974, 0.048, 192.0, 0.0, 0.0, 0.0, 0.0, 0.0, 0.0, 0.0, 0.0, 0.0, 1.69895826626176E9, 0.0, 2023-11-02 16:51:06.261
218.0, -187500.02235174447, 187500.0, 2547.450667315801, 49180.07393837857, 187500.0, 187500.0, -187500.02235174447, 37145.157116074224, -0.096, 0.974, 0.048, 192.0, 0.0, 0.0, 0.0, 0.0, 0.0, 0.0, 0.0, 0.0, 0.0, 1.6989582662617803E9, 0.0, 2023-11-02 16:51:06.261
219.0, -187500.02235174447, 187500.0, 2553.2174173852704, 49187.42766230436, 187500.0, 187500.0, -187500.02235174447, 37148.643988209245, -0.096, 0.974, 0.048, 192.0, 0.0, 0.0, 0.0, 0.0, 0.0, 0.0, 0.0, 0.0, 0.0, 1.6989582662617953E9, 0.0, 2023-11-02 16:51:06.261
220.0, -187500.02235174447, 187500.0, 2552.390402840424, 49164.91945563787, 187500.0, 187500.0, -187500.02235174447, 37146.408813763715, -0.096, 0.974, 0.048, 192.0, 0.0, 0.0, 0.0, 0.0, 0.0, 0.0, 0.0, 0.0, 0.0, 1.69895826626181E9, 0.0, 2023-11-02 16:51:06.261
221.0, -187500.02235174447, 187500.0, 2551.2504638732034, 49156.425792744856, 187500.0, 187500.0, -187500.02235174447, 37144.508915485014, -0.096, 0.974, 0.048, 192.0, 0.0, 0.0, 0.0, 0.0, 0.0, 0.0, 0.0, 0.0, 0.0, 1.6989582662618225E9, 0.0, 2023-11-02 16:51:06.261
222.0, -187500.02235174447, 187500.0, 2549.3058621055916, 49179.31397906709, 187500.0, 187500.0, -187500.02235174447, 37142.58666546186, -0.096, 0.974, 0.048, 192.0, 0.0, 0.0, 0.0, 0.0, 0.0, 0.0, 0.0, 0.0, 0.0, 1.6989582662618363E9, 0.0, 2023-11-02 16:51:06.261
223.0, -187500.02235174447, 187500.0, 2542.1756556243486, 49191.60743851751, 187500.0, 187500.0, -187500.02235174447, 37134.92001711369, -0.096, 0.974, 0.048, 192.0, 0.0, 0.0, 0.0, 0.0, 0.0, 0.0, 0.0, 0.0, 0.0, 1.6989582662618527E9, 0.0, 2023-11-02 16:51:06.261
224.0, -187500.02235174447, 187500.0, 2549.5964347835106, 49159.82325790206, 187500.0, 187500.0, -187500.02235174447, 37140.8655811388, -0.096, 0.974, 0.048, 192.0, 0.0, 0.0, 0.0, 0.0, 0.0, 0.0, 0.0, 0.0, 0.0, 1.6989582662618685E9, 0.0, 2023-11-02 16:51:06.261
225.0, -187500.02235174447, 187500.0, 2553.4632865742788, 49160.06912709107, 187500.0, 187500.0, -187500.02235174447, 37146.140592830256, -0.096, 0.974, 0.048, 192.0, 0.0, 0.0, 0.0, 0.0, 0.0, 0.0, 0.0, 0.0, 0.0, 1.698958266261891E9, 0.0, 2023-11-02 16:51:06.261
226.0, -187500.02235174447, 187500.0, 2551.5410365511225, 49183.82903144706, 187500.0, 187500.0, -187500.02235174447, 37143.413680006706, -0.092, 0.98, 0.052000000000000005, 192.0, 253.0, 32.0, 30.0, 160.0, 1.0, 160.0, 0.0, 0.0, 0.0, 1.6989582662619064E9, 0.0, 2023-11-02 16:51:06.261
227.0, -187500.02235174447, 187500.0, 2553.753859252198, 49199.22938337677, 187500.0, 187500.0, -187500.02235174447, 37146.900552141735, -0.092, 0.98, 0.052000000000000005, 192.0, 0.0, 0.0, 0.0, 0.0, 0.0, 0.0, 0.0, 0.0, 0.0, 1.6989582662619317E9, 0.0, 2023-11-02 16:51:06.261
228.0, -187500.02235174447, 187500.0, 2555.1173156639716, 49177.83876393304, 187500.0, 187500.0, -187500.02235174447, 37147.25818005302, -0.092, 0.98, 0.052000000000000005, 192.0, 0.0, 0.0, 0.0, 0.0, 0.0, 0.0, 0.0, 0.0, 0.0, 1.6989582662620564E9, 0.0, 2023-11-02 16:51:06.262
229.0, -187500.02235174447, 187500.0, 2556.8383999870302, 49165.232380060246, 187500.0, 187500.0, -187500.02235174447, 37146.94525563064, -0.092, 0.98, 0.052000000000000005, 192.0, 0.0, 0.0, 0.0, 0.0, 0.0, 0.0, 0.0, 0.0, 0.0, 1.6989582662620957E9, 0.0, 2023-11-02 16:51:06.262
230.0, -187500.02235174447, 187500.0, 2554.64792903041, 49190.042816405636, 187500.0, 187500.0, -187500.02235174447, 37145.20181956313, -0.092, 0.98, 0.052000000000000005, 192.0, 0.0, 0.0, 0.0, 0.0, 0.0, 0.0, 0.0, 0.0, 0.0, 1.6989582662621083E9, 0.0, 2023-11-02 16:51:06.262
231.0, -187500.02235174447, 187500.0, 2552.45745807379, 49210.248793393235, 187500.0, 187500.0, -187500.02235174447, 37143.52543872898, -0.092, 0.98, 0.052000000000000005, 192.0, 0.0, 0.0, 0.0, 0.0, 0.0, 0.0, 0.0, 0.0, 0.0, 1.6989582662621264E9, 0.0, 2023-11-02 16:51:06.262
232.0, -187500.02235174447, 187500.0, 2558.8053534990972, 49185.48306053675, 187500.0, 187500.0, -187500.02235174447, 37149.001616120535, -0.092, 0.98, 0.052000000000000005, 192.0, 0.0, 0.0, 0.0, 0.0, 0.0, 0.0, 0.0, 0.0, 0.0, 1.6989582662621417E9, 0.0, 2023-11-02 16:51:06.262
233.0, -187500.02235174447, 187500.0, 2572.886952505941, 49170.57444698506, 187500.0, 187500.0, -187500.02235174447, 37161.18331684868, -0.092, 0.98, 0.052000000000000005, 192.0, 0.0, 0.0, 0.0, 0.0, 0.0, 0.0, 0.0, 0.0, 0.0, 1.6989582662621553E9, 0.0, 2023-11-02 16:51:06.262
234.0, -187500.02235174447, 187500.0, 2559.252388388203, 49193.37322632947, 187500.0, 187500.0, -187500.02235174447, 37147.884028897766, -0.092, 0.98, 0.052000000000000005, 192.0, 0.0, 0.0, 0.0, 0.0, 0.0, 0.0, 0.0, 0.0, 0.0, 1.698958266262172E9, 0.0, 2023-11-02 16:51:06.262
235.0, -187500.02235174447, 187500.0, 2547.2718533601587, 49212.79689226114, 187500.0, 187500.0, -187500.02235174447, 37136.8646188813, -0.092, 0.98, 0.052000000000000005, 192.0, 0.0, 0.0, 0.0, 0.0, 0.0, 0.0, 0.0, 0.0, 0.0, 1.6989582662621899E9, 0.0, 2023-11-02 16:51:06.262
236.0, -187500.02235174447, 187500.0, 2557.330138365047, 49185.19248785883, 187500.0, 187500.0, -187500.02235174447, 37145.31357828541, -0.092, 0.986, 0.048, 192.0, 253.0, 32.0, 30.0, 208.0, 1.0, 128.0, 0.0, 0.0, 0.0, 1.6989582662622094E9, 0.0, 2023-11-02 16:51:06.262
237.0, -187500.02235174447, 187500.0, 2566.4943535917228, 49168.74160393973, 187500.0, 187500.0, -187500.02235174447, 37154.947180145646, -0.092, 0.986, 0.048, 192.0, 0.0, 0.0, 0.0, 0.0, 0.0, 0.0, 0.0, 0.0, 0.0, 1.6989582662622302E9, 0.0, 2023-11-02 16:51:06.262
238.0, -187500.02235174447, 187500.0, 2557.7548215096976, 49190.82512746157, 187500.0, 187500.0, -187500.02235174447, 37148.82280216489, -0.092, 0.986, 0.048, 192.0, 0.0, 0.0, 0.0, 0.0, 0.0, 0.0, 0.0, 0.0, 0.0, 1.698958266262248E9, 0.0, 2023-11-02 16:51:06.262
239.0, -187500.02235174447, 187500.0, 2552.0551266735947, 49212.349857372035, 187500.0, 187500.0, -187500.02235174447, 37144.44186025165, -0.092, 0.986, 0.048, 192.0, 0.0, 0.0, 0.0, 0.0, 0.0, 0.0, 0.0, 0.0, 0.0, 1.698958266262294E9, 0.0, 2023-11-02 16:51:06.262
240.0, -187500.02235174447, 187500.0, 2551.8763127179523, 49201.710427011305, 187500.0, 187500.0, -187500.02235174447, 37143.30192128443, -0.092, 0.986, 0.048, 192.0, 0.0, 0.0, 0.0, 0.0, 0.0, 0.0, 0.0, 0.0, 0.0, 1.6989582662623227E9, 0.0, 2023-11-02 16:51:06.262
241.0, -187500.02235174447, 187500.0, 2556.45842033129, 49171.13324059644, 187500.0, 187500.0, -187500.02235174447, 37146.274703296986, -0.092, 0.986, 0.048, 192.0, 0.0, 0.0, 0.0, 0.0, 0.0, 0.0, 0.0, 0.0, 0.0, 1.6989582667416258E9, 0.0, 2023-11-02 16:51:06.741
242.0, -187500.02235174447, 187500.0, 2559.654719788399, 49175.89416216542, 187500.0, 187500.0, -187500.02235174447, 37149.001616120535, -0.092, 0.986, 0.048, 192.0, 0.0, 0.0, 0.0, 0.0, 0.0, 0.0, 0.0, 0.0, 0.0, 1.6989582667417471E9, 0.0, 2023-11-02 16:51:06.741
243.0, -187500.02235174447, 187500.0, 2558.4700773322675, 49206.113720669004, 187500.0, 187500.0, -187500.02235174447, 37147.68286319767, -0.092, 0.986, 0.048, 192.0, 0.0, 0.0, 0.0, 0.0, 0.0, 0.0, 0.0, 0.0, 0.0, 1.6989582667418892E9, 0.0, 2023-11-02 16:51:06.741
244.0, -187500.02235174447, 187500.0, 2556.033737186639, 49209.622944548486, 187500.0, 187500.0, -187500.02235174447, 37143.45838349562, -0.092, 0.986, 0.048, 192.0, 0.0, 0.0, 0.0, 0.0, 0.0, 0.0, 0.0, 0.0, 0.0, 1.6989582667419E9, 0.0, 2023-11-02 16:51:06.741
245.0, -187500.02235174447, 187500.0, 2559.520609321667, 49179.91747616738, 187500.0, 187500.0, -187500.02235174447, 37146.72173818609, -0.092, 0.986, 0.048, 192.0, 0.0, 0.0, 0.0, 0.0, 0.0, 0.0, 0.0, 0.0, 0.0, 1.698958266741911E9, 0.0, 2023-11-02 16:51:06.741
246.0, -187500.02235174447, 187500.0, 2552.2115888847816, 49174.46365052029, 187500.0, 187500.0, -187500.02235174447, 37138.69746192664, -0.09, 0.982, 0.05, 192.0, 253.0, 48.0, 30.0, 176.0, 1.0, 144.0, 0.0, 0.0, 0.0, 1.6989582667419214E9, 0.0, 2023-11-02 16:51:06.741
247.0, -187500.02235174447, 187500.0, 2558.783001754642, 49196.50247055322, 187500.0, 187500.0, -187500.02235174447, 37146.02883410798, -0.09, 0.982, 0.05, 192.0, 0.0, 0.0, 0.0, 0.0, 0.0, 0.0, 0.0, 0.0, 0.0, 1.698958266741934E9, 0.0, 2023-11-02 16:51:06.741
248.0, -187500.02235174447, 187500.0, 2553.418583085368, 49213.534499828165, 187500.0, 187500.0, -187500.02235174447, 37141.0667468389, -0.09, 0.982, 0.05, 192.0, 0.0, 0.0, 0.0, 0.0, 0.0, 0.0, 0.0, 0.0, 0.0, 1.698958266741944E9, 0.0, 2023-11-02 16:51:06.741
249.0, -187500.02235174447, 187500.0, 2558.8277052435524, 49189.77459547217, 187500.0, 187500.0, -187500.02235174447, 37145.425337007684, -0.09, 0.982, 0.05, 192.0, 0.0, 0.0, 0.0, 0.0, 0.0, 0.0, 0.0, 0.0, 0.0, 1.698958266741954E9, 0.0, 2023-11-02 16:51:06.741
250.0, -187500.02235174447, 187500.0, 2558.917112221374, 49181.862077934995, 187500.0, 187500.0, -187500.02235174447, 37144.933598629665, -0.09, 0.982, 0.05, 192.0, 0.0, 0.0, 0.0, 0.0, 0.0, 0.0, 0.0, 0.0, 0.0, 1.6989582667419639E9, 0.0, 2023-11-02 16:51:06.741
251.0, -187500.02235174447, 187500.0, 2562.2922256341253, 49205.01848519069, 187500.0, 187500.0, -187500.02235174447, 37146.1182410858, -0.09, 0.982, 0.05, 192.0, 0.0, 0.0, 0.0, 0.0, 0.0, 0.0, 0.0, 0.0, 0.0, 1.6989582667419744E9, 0.0, 2023-11-02 16:51:06.741
252.0, -187500.02235174447, 187500.0, 2556.7936964981195, 49224.06217146661, 187500.0, 187500.0, -187500.02235174447, 37140.84322939435, -0.09, 0.982, 0.05, 192.0, 0.0, 0.0, 0.0, 0.0, 0.0, 0.0, 0.0, 0.0, 0.0, 1.698958266741984E9, 0.0, 2023-11-02 16:51:06.741
253.0, -187500.02235174447, 187500.0, 2559.6770715328544, 49196.97185718678, 187500.0, 187500.0, -187500.02235174447, 37142.3184445284, -0.09, 0.982, 0.05, 192.0, 0.0, 0.0, 0.0, 0.0, 0.0, 0.0, 0.0, 0.0, 0.0, 1.698958266741994E9, 0.0, 2023-11-02 16:51:06.741
254.0, -187500.02235174447, 187500.0, 2558.626539543455, 49183.85138319152, 187500.0, 187500.0, -187500.02235174447, 37141.13380207227, -0.09, 0.982, 0.05, 192.0, 0.0, 0.0, 0.0, 0.0, 0.0, 0.0, 0.0, 0.0, 0.0, 1.6989582667420063E9, 0.0, 2023-11-02 16:51:06.742
255.0, -187500.02235174447, 187500.0, 2555.966681953273, 49207.49952882523, 187500.0, 187500.0, -187500.02235174447, 37138.60805494882, -0.09, 0.982, 0.05, 192.0, 0.0, 0.0, 0.0, 0.0, 0.0, 0.0, 0.0, 0.0, 0.0, 1.698958266742016E9, 0.0, 2023-11-02 16:51:06.742
0.0, -187500.02235174447, 187500.0, 2555.1620191528823, 49228.57722384659, 187500.0, 187500.0, -187500.02235174447, 37136.26112178101, -0.094, 0.982, 0.052000000000000005, 192.0, 253.0, 16.0, 30.0, 176.0, 1.0, 160.0, 0.0, 0.0, 0.0, 1.698958266742026E9, 0.0, 2023-11-02 16:51:06.742
1.0, -187500.02235174447, 187500.0, 2562.940426223329, 49217.088427196555, 187500.0, 187500.0, -187500.02235174447, 37143.056052095424, -0.094, 0.982, 0.052000000000000005, 192.0, 0.0, 0.0, 0.0, 0.0, 0.0, 0.0, 0.0, 0.0, 0.0, 1.6989582667420387E9, 0.0, 2023-11-02 16:51:06.742
2.0, -187500.02235174447, 187500.0, 2564.3485861240133, 49205.59963054653, 187500.0, 187500.0, -187500.02235174447, 37144.017177107, -0.094, 0.982, 0.052000000000000005, 192.0, 0.0, 0.0, 0.0, 0.0, 0.0, 0.0, 0.0, 0.0, 0.0, 1.6989582667420738E9, 0.0, 2023-11-02 16:51:06.742
3.0, -187500.02235174447, 187500.0, 2562.0016529562063, 49220.865872009505, 187500.0, 187500.0, -187500.02235174447, 37141.312616027906, -0.094, 0.982, 0.052000000000000005, 192.0, 0.0, 0.0, 0.0, 0.0, 0.0, 0.0, 0.0, 0.0, 0.0, 1.6989582667420866E9, 0.0, 2023-11-02 16:51:06.742
4.0, -187500.02235174447, 187500.0, 2554.8267429860525, 49243.64229960946, 187500.0, 187500.0, -187500.02235174447, 37132.707194412615, -0.094, 0.982, 0.052000000000000005, 192.0, 0.0, 0.0, 0.0, 0.0, 0.0, 0.0, 0.0, 0.0, 0.0, 1.6989582667421112E9, 0.0, 2023-11-02 16:51:06.742
5.0, -187500.02235174447, 187500.0, 2562.9627779677844, 49228.286651168666, 187500.0, 187500.0, -187500.02235174447, 37139.39036600475, -0.094, 0.982, 0.052000000000000005, 192.0, 0.0, 0.0, 0.0, 0.0, 0.0, 0.0, 0.0, 0.0, 0.0, 1.6989582667421224E9, 0.0, 2023-11-02 16:51:06.742
6.0, -187500.02235174447, 187500.0, 2564.035661701639, 49217.714276041304, 187500.0, 187500.0, -187500.02235174447, 37140.50795322752, -0.094, 0.982, 0.052000000000000005, 192.0, 0.0, 0.0, 0.0, 0.0, 0.0, 0.0, 0.0, 0.0, 0.0, 1.698958266742132E9, 0.0, 2023-11-02 16:51:06.742
7.0, -187500.02235174447, 187500.0, 2560.7052517777984, 49225.11270345601, 187500.0, 187500.0, -187500.02235174447, 37136.886970625754, -0.094, 0.982, 0.052000000000000005, 192.0, 0.0, 0.0, 0.0, 0.0, 0.0, 0.0, 0.0, 0.0, 0.0, 1.698958266742142E9, 0.0, 2023-11-02 16:51:06.742
8.0, -187500.02235174447, 187500.0, 2560.526437822156, 49248.93966304537, 187500.0, 187500.0, -187500.02235174447, 37135.21058979161, -0.094, 0.982, 0.052000000000000005, 192.0, 0.0, 0.0, 0.0, 0.0, 0.0, 0.0, 0.0, 0.0, 0.0, 1.6989582667421527E9, 0.0, 2023-11-02 16:51:06.742
9.0, -187500.02235174447, 187500.0, 2559.6994232773095, 49255.3769654485, 187500.0, 187500.0, -187500.02235174447, 37134.58474094686, -0.094, 0.982, 0.052000000000000005, 192.0, 0.0, 0.0, 0.0, 0.0, 0.0, 0.0, 0.0, 0.0, 0.0, 1.6989582667421656E9, 0.0, 2023-11-02 16:51:06.742
10.0, -187500.02235174447, 187500.0, 2557.620711042966, 49234.38867740497, 187500.0, 187500.0, -187500.02235174447, 37132.32721475687, -0.1, 0.98, 0.046, 192.0, 252.0, 224.0, 30.0, 160.0, 1.0, 112.0, 0.0, 0.0, 0.0, 1.6989582667421777E9, 0.0, 2023-11-02 16:51:06.742
11.0, -187500.02235174447, 187500.0, 2560.9511209668067, 49237.719087328805, 187500.0, 187500.0, -187500.02235174447, 37135.05412758042, -0.1, 0.98, 0.046, 192.0, 0.0, 0.0, 0.0, 0.0, 0.0, 0.0, 0.0, 0.0, 0.0, 1.6989582667421906E9, 0.0, 2023-11-02 16:51:06.742
12.0, -187500.02235174447, 187500.0, 2552.658623773888, 49277.37108199252, 187500.0, 187500.0, -187500.02235174447, 37125.75580188701, -0.1, 0.98, 0.046, 192.0, 0.0, 0.0, 0.0, 0.0, 0.0, 0.0, 0.0, 0.0, 0.0, 1.6989582667422063E9, 0.0, 2023-11-02 16:51:06.742
13.0, -187500.02235174447, 187500.0, 2550.4681528172678, 49275.44883196936, 187500.0, 187500.0, -187500.02235174447, 37120.749011129024, -0.1, 0.98, 0.046, 192.0, 0.0, 0.0, 0.0, 0.0, 0.0, 0.0, 0.0, 0.0, 0.0, 1.6989582667422173E9, 0.0, 2023-11-02 16:51:06.742
14.0, -187500.02235174447, 187500.0, 2556.5701790535663, 49244.93870078787, 187500.0, 187500.0, -187500.02235174447, 37124.05706930841, -0.1, 0.98, 0.046, 192.0, 0.0, 0.0, 0.0, 0.0, 0.0, 0.0, 0.0, 0.0, 0.0, 1.6989582667422383E9, 0.0, 2023-11-02 16:51:06.742
15.0, -187500.02235174447, 187500.0, 2555.2067226417926, 49235.88624428347, 187500.0, 187500.0, -187500.02235174447, 37121.240749507044, -0.1, 0.98, 0.046, 192.0, 0.0, 0.0, 0.0, 0.0, 0.0, 0.0, 0.0, 0.0, 0.0, 1.698958266742252E9, 0.0, 2023-11-02 16:51:06.742
16.0, -187500.02235174447, 187500.0, 2556.234902886737, 49265.7258231313, 187500.0, 187500.0, -187500.02235174447, 37123.09594429683, -0.1, 0.98, 0.046, 192.0, 0.0, 0.0, 0.0, 0.0, 0.0, 0.0, 0.0, 0.0, 0.0, 1.6989582667422633E9, 0.0, 2023-11-02 16:51:06.742
17.0, -187500.02235174447, 187500.0, 2555.0949639195164, 49286.62470419702, 187500.0, 187500.0, -187500.02235174447, 37124.30293849742, -0.1, 0.98, 0.046, 192.0, 0.0, 0.0, 0.0, 0.0, 0.0, 0.0, 0.0, 0.0, 0.0, 1.6989582667423408E9, 0.0, 2023-11-02 16:51:06.742
18.0, -187500.02235174447, 187500.0, 2564.1474204239157, 49262.21659925182, 187500.0, 187500.0, -187500.02235174447, 37135.03177583597, -0.1, 0.98, 0.046, 192.0, 0.0, 0.0, 0.0, 0.0, 0.0, 0.0, 0.0, 0.0, 0.0, 1.6989582667423728E9, 0.0, 2023-11-02 16:51:06.742
19.0, -187500.02235174447, 187500.0, 2560.45938258879, 49258.059174783135, 187500.0, 187500.0, -187500.02235174447, 37131.25433102302, -0.1, 0.98, 0.046, 192.0, 0.0, 0.0, 0.0, 0.0, 0.0, 0.0, 0.0, 0.0, 0.0, 1.6989582667423873E9, 0.0, 2023-11-02 16:51:06.742
20.0, -187500.02235174447, 187500.0, 2554.4691150747676, 49274.28654125769, 187500.0, 187500.0, -187500.02235174447, 37125.018194319986, -0.098, 0.984, 0.048, 192.0, 252.0, 240.0, 30.0, 192.0, 1.0, 128.0, 0.0, 0.0, 0.0, 1.6989582667424011E9, 0.0, 2023-11-02 16:51:06.742
21.0, -187500.02235174447, 187500.0, 2547.562426038078, 49285.2835995297, 187500.0, 187500.0, -187500.02235174447, 37117.463304694094, -0.098, 0.984, 0.048, 192.0, 0.0, 0.0, 0.0, 0.0, 0.0, 0.0, 0.0, 0.0, 0.0, 1.6989582667424133E9, 0.0, 2023-11-02 16:51:06.742
22.0, -187500.02235174447, 187500.0, 2551.9880714402284, 49264.31766323062, 187500.0, 187500.0, -187500.02235174447, 37119.51966518399, -0.098, 0.984, 0.048, 192.0, 0.0, 0.0, 0.0, 0.0, 0.0, 0.0, 0.0, 0.0, 0.0, 1.6989582667424283E9, 0.0, 2023-11-02 16:51:06.742
23.0, -187500.02235174447, 187500.0, 2550.5575597950888, 49250.70545085734, 187500.0, 187500.0, -187500.02235174447, 37116.47982793806, -0.098, 0.984, 0.048, 192.0, 0.0, 0.0, 0.0, 0.0, 0.0, 0.0, 0.0, 0.0, 0.0, 1.6989582667424405E9, 0.0, 2023-11-02 16:51:06.742
24.0, -187500.02235174447, 187500.0, 2551.652795273399, 49270.9784830783, 187500.0, 187500.0, -187500.02235174447, 37117.0609732939, -0.098, 0.984, 0.048, 192.0, 0.0, 0.0, 0.0, 0.0, 0.0, 0.0, 0.0, 0.0, 0.0, 1.6989582667424536E9, 0.0, 2023-11-02 16:51:06.742
25.0, -187500.02235174447, 187500.0, 2551.585740040033, 49294.336056034095, 187500.0, 187500.0, -187500.02235174447, 37118.312670983396, -0.098, 0.984, 0.048, 192.0, 0.0, 0.0, 0.0, 0.0, 0.0, 0.0, 0.0, 0.0, 0.0, 1.6989582667424703E9, 0.0, 2023-11-02 16:51:06.742
26.0, -187500.02235174447, 187500.0, 2556.5701790535663, 49287.1834978084, 187500.0, 187500.0, -187500.02235174447, 37121.307804740405, -0.098, 0.984, 0.048, 192.0, 0.0, 0.0, 0.0, 0.0, 0.0, 0.0, 0.0, 0.0, 0.0, 1.6989582667424972E9, 0.0, 2023-11-02 16:51:06.742
27.0, -187500.02235174447, 187500.0, 2564.169772168371, 49269.14564003297, 187500.0, 187500.0, -187500.02235174447, 37129.33208099986, -0.098, 0.984, 0.048, 192.0, 0.0, 0.0, 0.0, 0.0, 0.0, 0.0, 0.0, 0.0, 0.0, 1.698958266742509E9, 0.0, 2023-11-02 16:51:06.742
28.0, -187500.02235174447, 187500.0, 2561.6887285338316, 49290.1339280765, 187500.0, 187500.0, -187500.02235174447, 37129.89087461124, -0.098, 0.984, 0.048, 192.0, 0.0, 0.0, 0.0, 0.0, 0.0, 0.0, 0.0, 0.0, 0.0, 1.6989582667425237E9, 0.0, 2023-11-02 16:51:06.742
29.0, -187500.02235174447, 187500.0, 2559.3417953660246, 49321.404018569476, 187500.0, 187500.0, -187500.02235174447, 37124.54880768643, -0.092, 0.98, 0.05, 192.0, 253.0, 32.0, 30.0, 160.0, 1.0, 144.0, 0.0, 0.0, 0.0, 1.6989582667425349E9, 0.0, 2023-11-02 16:51:06.742
30.0, -187500.02235174447, 187500.0, 2560.0123476996837, 49314.00559115477, 187500.0, 187500.0, -187500.02235174447, 37122.17952277417, -0.092, 0.98, 0.05, 192.0, 0.0, 0.0, 0.0, 0.0, 0.0, 0.0, 0.0, 0.0, 0.0, 1.69895826674255E9, 0.0, 2023-11-02 16:51:06.742
31.0, -187500.02235174447, 187500.0, 2564.12506867946, 49284.38952975149, 187500.0, 187500.0, -187500.02235174447, 37125.375822231275, -0.092, 0.98, 0.05, 192.0, 0.0, 0.0, 0.0, 0.0, 0.0, 0.0, 0.0, 0.0, 0.0, 1.6989582667425623E9, 0.0, 2023-11-02 16:51:06.742
32.0, -187500.02235174447, 187500.0, 2562.9851297122395, 49294.269000800734, 187500.0, 187500.0, -187500.02235174447, 37124.50410419752, -0.092, 0.98, 0.05, 192.0, 0.0, 0.0, 0.0, 0.0, 0.0, 0.0, 0.0, 0.0, 0.0, 1.698958266742574E9, 0.0, 2023-11-02 16:51:06.742
33.0, -187500.02235174447, 187500.0, 2548.478847560745, 49333.71982976435, 187500.0, 187500.0, -187500.02235174447, 37110.71307786859, -0.092, 0.98, 0.05, 192.0, 0.0, 0.0, 0.0, 0.0, 0.0, 0.0, 0.0, 0.0, 0.0, 1.6989582667426517E9, 0.0, 2023-11-02 16:51:06.742
34.0, -187500.02235174447, 187500.0, 2545.5731207815556, 49328.243652372796, 187500.0, 187500.0, -187500.02235174447, 37105.505121410504, -0.092, 0.98, 0.05, 192.0, 0.0, 0.0, 0.0, 0.0, 0.0, 0.0, 0.0, 0.0, 0.0, 1.698958266742669E9, 0.0, 2023-11-02 16:51:06.742
35.0, -187500.02235174447, 187500.0, 2554.424411585857, 49290.37979726551, 187500.0, 187500.0, -187500.02235174447, 37112.367106958285, -0.092, 0.98, 0.05, 192.0, 0.0, 0.0, 0.0, 0.0, 0.0, 0.0, 0.0, 0.0, 0.0, 1.698958266742682E9, 0.0, 2023-11-02 16:51:06.742
36.0, -187500.02235174447, 187500.0, 2557.285434876136, 49295.09601534558, 187500.0, 187500.0, -187500.02235174447, 37112.30005172492, -0.092, 0.98, 0.05, 192.0, 0.0, 0.0, 0.0, 0.0, 0.0, 0.0, 0.0, 0.0, 0.0, 1.698958266742698E9, 0.0, 2023-11-02 16:51:06.742
37.0, -187500.02235174447, 187500.0, 2547.6965365048095, 49325.025001171234, 187500.0, 187500.0, -187500.02235174447, 37102.71115335359, -0.092, 0.98, 0.05, 192.0, 0.0, 0.0, 0.0, 0.0, 0.0, 0.0, 0.0, 0.0, 0.0, 1.6989582667427125E9, 0.0, 2023-11-02 16:51:06.742
38.0, -187500.02235174447, 187500.0, 2553.776210996653, 49321.15814938047, 187500.0, 187500.0, -187500.02235174447, 37107.337964455844, -0.092, 0.98, 0.05, 192.0, 0.0, 0.0, 0.0, 0.0, 0.0, 0.0, 0.0, 0.0, 0.0, 1.6989582667427323E9, 0.0, 2023-11-02 16:51:06.742
39.0, -187500.02235174447, 187500.0, 2564.817972757575, 49300.482785759305, 187500.0, 187500.0, -187500.02235174447, 37118.06680179439, -0.094, 0.982, 0.05, 192.0, 253.0, 16.0, 30.0, 176.0, 1.0, 144.0, 0.0, 0.0, 0.0, 1.698958266742746E9, 0.0, 2023-11-02 16:51:06.742
40.0, -187500.02235174447, 187500.0, 2559.565312810578, 49306.227184084324, 187500.0, 187500.0, -187500.02235174447, 37112.925900569666, -0.094, 0.982, 0.05, 192.0, 0.0, 0.0, 0.0, 0.0, 0.0, 0.0, 0.0, 0.0, 0.0, 1.6989582667427611E9, 0.0, 2023-11-02 16:51:06.742
41.0, -187500.02235174447, 187500.0, 2556.7936964981195, 49327.1931203834, 187500.0, 187500.0, -187500.02235174447, 37110.80248484641, -0.094, 0.982, 0.05, 192.0, 0.0, 0.0, 0.0, 0.0, 0.0, 0.0, 0.0, 0.0, 0.0, 1.698958266742772E9, 0.0, 2023-11-02 16:51:06.742
42.0, -187500.02235174447, 187500.0, 2557.1513244094044, 49337.92195772195, 187500.0, 187500.0, -187500.02235174447, 37111.56244415789, -0.094, 0.982, 0.05, 192.0, 0.0, 0.0, 0.0, 0.0, 0.0, 0.0, 0.0, 0.0, 0.0, 1.6989582667427876E9, 0.0, 2023-11-02 16:51:06.742
43.0, -187500.02235174447, 187500.0, 2560.45938258879, 49315.301992333174, 187500.0, 187500.0, -187500.02235174447, 37115.11637152629, -0.094, 0.982, 0.05, 192.0, 0.0, 0.0, 0.0, 0.0, 0.0, 0.0, 0.0, 0.0, 0.0, 1.698958266742802E9, 0.0, 2023-11-02 16:51:06.742
44.0, -187500.02235174447, 187500.0, 2565.421469857868, 49306.85303292907, 187500.0, 187500.0, -187500.02235174447, 37118.938519828145, -0.094, 0.982, 0.05, 192.0, 0.0, 0.0, 0.0, 0.0, 0.0, 0.0, 0.0, 0.0, 0.0, 1.6989582667428143E9, 0.0, 2023-11-02 16:51:06.742
45.0, -187500.02235174447, 187500.0, 2565.5108768356895, 49334.16686465345, 187500.0, 187500.0, -187500.02235174447, 37117.7091738831, -0.094, 0.982, 0.05, 192.0, 0.0, 0.0, 0.0, 0.0, 0.0, 0.0, 0.0, 0.0, 0.0, 1.698958266742833E9, 0.0, 2023-11-02 16:51:06.742
46.0, -187500.02235174447, 187500.0, 2562.0463564451165, 49357.256216675785, 187500.0, 187500.0, -187500.02235174447, 37112.501217425015, -0.094, 0.982, 0.05, 192.0, 0.0, 0.0, 0.0, 0.0, 0.0, 0.0, 0.0, 0.0, 0.0, 1.6989582667428513E9, 0.0, 2023-11-02 16:51:06.742
47.0, -187500.02235174447, 187500.0, 2565.1756006688597, 49333.16103615297, 187500.0, 187500.0, -187500.02235174447, 37112.858845336305, -0.094, 0.982, 0.05, 192.0, 0.0, 0.0, 0.0, 0.0, 0.0, 0.0, 0.0, 0.0, 0.0, 1.6989582667428772E9, 0.0, 2023-11-02 16:51:06.742
48.0, -187500.02235174447, 187500.0, 2573.1104699504936, 49316.017248155746, 187500.0, 187500.0, -187500.02235174447, 37119.6090721618, -0.094, 0.982, 0.05, 192.0, 0.0, 0.0, 0.0, 0.0, 0.0, 0.0, 0.0, 0.0, 0.0, 1.6989582667429535E9, 0.0, 2023-11-02 16:51:06.742
49.0, -187500.02235174447, 187500.0, 2567.5001820922116, 49339.97831821183, 187500.0, 187500.0, -187500.02235174447, 37114.15524651471, -0.088, 0.984, 0.048, 192.0, 253.0, 64.0, 30.0, 192.0, 1.0, 128.0, 0.0, 0.0, 0.0, 1.698958266742964E9, 0.0, 2023-11-02 16:51:06.742
50.0, -187500.02235174447, 187500.0, 2559.3864988549353, 49361.27953067774, 187500.0, 187500.0, -187500.02235174447, 37105.371010943774, -0.088, 0.984, 0.048, 192.0, 0.0, 0.0, 0.0, 0.0, 0.0, 0.0, 0.0, 0.0, 0.0, 1.6989582667429771E9, 0.0, 2023-11-02 16:51:06.742
51.0, -187500.02235174447, 187500.0, 2567.164905925382, 49335.08328617612, 187500.0, 187500.0, -187500.02235174447, 37110.623670890775, -0.088, 0.984, 0.048, 192.0, 0.0, 0.0, 0.0, 0.0, 0.0, 0.0, 0.0, 0.0, 0.0, 1.6989582667429888E9, 0.0, 2023-11-02 16:51:06.742
52.0, -187500.02235174447, 187500.0, 2569.0201007151727, 49326.96960293884, 187500.0, 187500.0, -187500.02235174447, 37114.28935698144, -0.088, 0.984, 0.048, 192.0, 0.0, 0.0, 0.0, 0.0, 0.0, 0.0, 0.0, 0.0, 0.0, 1.6989582667429988E9, 0.0, 2023-11-02 16:51:06.742
53.0, -187500.02235174447, 187500.0, 2558.783001754642, 49340.60416705658, 187500.0, 187500.0, -187500.02235174447, 37102.934670798146, -0.088, 0.984, 0.048, 192.0, 0.0, 0.0, 0.0, 0.0, 0.0, 0.0, 0.0, 0.0, 0.0, 1.698958266743009E9, 0.0, 2023-11-02 16:51:06.743
54.0, -187500.02235174447, 187500.0, 2557.531304065145, 49363.44764988991, 187500.0, 187500.0, -187500.02235174447, 37100.63244111925, -0.088, 0.984, 0.048, 192.0, 0.0, 0.0, 0.0, 0.0, 0.0, 0.0, 0.0, 0.0, 0.0, 1.698958266743019E9, 0.0, 2023-11-02 16:51:06.743
55.0, -187500.02235174447, 187500.0, 2560.973472711262, 49360.832495788636, 187500.0, 187500.0, -187500.02235174447, 37105.52747315496, -0.088, 0.984, 0.048, 192.0, 0.0, 0.0, 0.0, 0.0, 0.0, 0.0, 0.0, 0.0, 0.0, 1.698958266743029E9, 0.0, 2023-11-02 16:51:06.743
56.0, -187500.02235174447, 187500.0, 2567.0531472031057, 49332.87046347505, 187500.0, 187500.0, -187500.02235174447, 37112.47886568056, -0.088, 0.984, 0.048, 192.0, 0.0, 0.0, 0.0, 0.0, 0.0, 0.0, 0.0, 0.0, 0.0, 1.698958266743039E9, 0.0, 2023-11-02 16:51:06.743
57.0, -187500.02235174447, 187500.0, 2565.265007646681, 49348.36022238257, 187500.0, 187500.0, -187500.02235174447, 37111.1601127577, -0.088, 0.984, 0.048, 192.0, 0.0, 0.0, 0.0, 0.0, 0.0, 0.0, 0.0, 0.0, 0.0, 1.69895826674305E9, 0.0, 2023-11-02 16:51:06.743
58.0, -187500.02235174447, 187500.0, 2563.36510936798, 49373.08125175015, 187500.0, 187500.0, -187500.02235174447, 37108.321441211876, -0.088, 0.984, 0.048, 192.0, 0.0, 0.0, 0.0, 0.0, 0.0, 0.0, 0.0, 0.0, 0.0, 1.69895826674306E9, 0.0, 2023-11-02 16:51:06.743
59.0, -187500.02235174447, 187500.0, 2566.002615213706, 49374.48941165083, 187500.0, 187500.0, -187500.02235174447, 37109.12610401226, -0.096, 0.984, 0.046, 192.0, 253.0, 0.0, 30.0, 192.0, 1.0, 112.0, 0.0, 0.0, 0.0, 1.69895826674307E9, 0.0, 2023-11-02 16:51:06.743
60.0, -187500.02235174447, 187500.0, 2569.1318594374493, 49353.992861985316, 187500.0, 187500.0, -187500.02235174447, 37112.47886568056, -0.096, 0.984, 0.046, 192.0, 0.0, 0.0, 0.0, 0.0, 0.0, 0.0, 0.0, 0.0, 0.0, 1.6989582667430806E9, 0.0, 2023-11-02 16:51:06.743
61.0, -187500.02235174447, 187500.0, 2573.199876928315, 49353.836399774125, 187500.0, 187500.0, -187500.02235174447, 37118.29031923894, -0.096, 0.984, 0.046, 192.0, 0.0, 0.0, 0.0, 0.0, 0.0, 0.0, 0.0, 0.0, 0.0, 1.69895826674309E9, 0.0, 2023-11-02 16:51:06.743
62.0, -187500.02235174447, 187500.0, 2564.5944553130216, 49389.48743218034, 187500.0, 187500.0, -187500.02235174447, 37110.35544995731, -0.096, 0.984, 0.046, 192.0, 0.0, 0.0, 0.0, 0.0, 0.0, 0.0, 0.0, 0.0, 0.0, 1.6989582667431004E9, 0.0, 2023-11-02 16:51:06.743
63.0, -187500.02235174447, 187500.0, 2559.3641471104797, 49393.37663571556, 187500.0, 187500.0, -187500.02235174447, 37105.68393536615, -0.096, 0.984, 0.046, 192.0, 0.0, 0.0, 0.0, 0.0, 0.0, 0.0, 0.0, 0.0, 0.0, 1.6989582667431233E9, 0.0, 2023-11-02 16:51:06.743
64.0, -187500.02235174447, 187500.0, 2564.3038826351026, 49367.0015772583, 187500.0, 187500.0, -187500.02235174447, 37108.05322027841, -0.096, 0.984, 0.046, 192.0, 0.0, 0.0, 0.0, 0.0, 0.0, 0.0, 0.0, 0.0, 0.0, 1.6989582667431345E9, 0.0, 2023-11-02 16:51:06.743
65.0, -187500.02235174447, 187500.0, 2568.0589757035946, 49364.67699583495, 187500.0, 187500.0, -187500.02235174447, 37109.0590487789, -0.096, 0.984, 0.046, 192.0, 0.0, 0.0, 0.0, 0.0, 0.0, 0.0, 0.0, 0.0, 0.0, 1.698958266743145E9, 0.0, 2023-11-02 16:51:06.743
66.0, -187500.02235174447, 187500.0, 2571.590551327533, 49392.0578827927, 187500.0, 187500.0, -187500.02235174447, 37113.261176736494, -0.096, 0.984, 0.046, 192.0, 0.0, 0.0, 0.0, 0.0, 0.0, 0.0, 0.0, 0.0, 0.0, 1.6989582667431545E9, 0.0, 2023-11-02 16:51:06.743
67.0, -187500.02235174447, 187500.0, 2564.5050483352006, 49411.68271442446, 187500.0, 187500.0, -187500.02235174447, 37106.60035688882, -0.096, 0.984, 0.046, 192.0, 0.0, 0.0, 0.0, 0.0, 0.0, 0.0, 0.0, 0.0, 0.0, 1.6989582667431648E9, 0.0, 2023-11-02 16:51:06.743
68.0, -187500.02235174447, 187500.0, 2565.1532489244046, 49383.92184781097, 187500.0, 187500.0, -187500.02235174447, 37105.48276966605, -0.096, 0.984, 0.046, 192.0, 0.0, 0.0, 0.0, 0.0, 0.0, 0.0, 0.0, 0.0, 0.0, 1.6989582667431767E9, 0.0, 2023-11-02 16:51:06.743
69.0, -187500.02235174447, 187500.0, 2570.0929844490274, 49367.71683308087, 187500.0, 187500.0, -187500.02235174447, 37112.12123776928, -0.096, 0.978, 0.046, 192.0, 253.0, 0.0, 30.0, 144.0, 1.0, 112.0, 0.0, 0.0, 0.0, 1.6989582667431867E9, 0.0, 2023-11-02 16:51:06.743
70.0, -187500.02235174447, 187500.0, 2569.981225726751, 49400.99858057482, 187500.0, 187500.0, -187500.02235174447, 37112.83649359184, -0.096, 0.978, 0.046, 192.0, 0.0, 0.0, 0.0, 0.0, 0.0, 0.0, 0.0, 0.0, 0.0, 1.6989582667431972E9, 0.0, 2023-11-02 16:51:06.743
