%OpenBCI Raw EEG Data
%Number of channels = 8
%Sample Rate = 250 Hz
%Board = OpenBCI_GUI$BoardCytonSerial
Sample Index, EXG Channel 0, EXG Channel 1, EXG Channel 2, EXG Channel 3, EXG Channel 4, EXG Channel 5, EXG Channel 6, EXG Channel 7, Accel Channel 0, Accel Channel 1, Accel Channel 2, Other, Other, Other, Other, Other, Other, Other, Analog Channel 0, Analog Channel 1, Analog Channel 2, Timestamp, Other, Timestamp (Formatted)
13.0, -187500.02235174447, 187500.0, 2773.4044520145003, 50404.61425836256, 187500.0, 187500.0, -187500.02235174447, 35502.68387826489, 0.0, 0.0, 0.0, 192.0, 0.0, 0.0, 0.0, 0.0, 0.0, 0.0, 0.0, 0.0, 0.0, 1.6989582898584883E9, 0.0, 2023-11-02 16:51:29.858
14.0, -187500.02235174447, 187500.0, 2779.5288299952545, 50379.35678712807, 187500.0, 187500.0, -187500.02235174447, 35507.26598587823, 0.0, 0.0, 0.0, 192.0, 0.0, 0.0, 0.0, 0.0, 0.0, 0.0, 0.0, 0.0, 0.0, 1.6989582898585548E9, 0.0, 2023-11-02 16:51:29.858
15.0, -187500.02235174447, 187500.0, 2796.605562759109, 50343.191664599384, 187500.0, 187500.0, -187500.02235174447, 35523.672166308424, 0.0, 0.0, 0.0, 192.0, 0.0, 0.0, 0.0, 0.0, 0.0, 0.0, 0.0, 0.0, 0.0, 1.6989582898585815E9, 0.0, 2023-11-02 16:51:29.858
16.0, -187500.02235174447, 187500.0, 2803.9369349404496, 50348.7348972243, 187500.0, 187500.0, -187500.02235174447, 35532.74697455728, 0.0, 0.0, 0.0, 192.0, 0.0, 0.0, 0.0, 0.0, 0.0, 0.0, 0.0, 0.0, 0.0, 1.6989582898586152E9, 0.0, 2023-11-02 16:51:29.858
17.0, -187500.02235174447, 187500.0, 2808.5637460426983, 50371.19840040188, 187500.0, 187500.0, -187500.02235174447, 35536.613826348046, 0.0, 0.0, 0.0, 192.0, 0.0, 0.0, 0.0, 0.0, 0.0, 0.0, 0.0, 0.0, 0.0, 1.6989582898586273E9, 0.0, 2023-11-02 16:51:29.858
18.0, -187500.02235174447, 187500.0, 2800.472414549877, 50403.36256067307, 187500.0, 187500.0, -187500.02235174447, 35530.377689645014, 0.0, 0.0, 0.0, 192.0, 0.0, 0.0, 0.0, 0.0, 0.0, 0.0, 0.0, 0.0, 0.0, 1.6989582898586385E9, 0.0, 2023-11-02 16:51:29.858
19.0, -187500.02235174447, 187500.0, 2782.0098736297937, 50393.08075822363, 187500.0, 187500.0, -187500.02235174447, 35515.26791039323, 0.0, 0.0, 0.0, 192.0, 0.0, 0.0, 0.0, 0.0, 0.0, 0.0, 0.0, 0.0, 0.0, 1.69895828985865E9, 0.0, 2023-11-02 16:51:29.858
20.0, -187500.02235174447, 187500.0, 2775.438460759933, 50352.5346937817, 187500.0, 187500.0, -187500.02235174447, 35508.62944229, 0.0, 0.0, 0.0, 192.0, 0.0, 0.0, 0.0, 0.0, 0.0, 0.0, 0.0, 0.0, 0.0, 1.698958289858664E9, 0.0, 2023-11-02 16:51:29.858
21.0, -187500.02235174447, 187500.0, 2761.379213497545, 50353.182894370904, 187500.0, 187500.0, -187500.02235174447, 35496.693610750866, -0.09, 0.98, 0.06, 192.0, 253.0, 48.0, 30.0, 160.0, 1.0, 224.0, 0.0, 0.0, 0.0, 1.698958289858678E9, 0.0, 2023-11-02 16:51:29.858
22.0, -187500.02235174447, 187500.0, 2754.5619314386763, 50348.31021407965, 187500.0, 187500.0, -187500.02235174447, 35494.32432583861, -0.09, 0.98, 0.06, 192.0, 0.0, 0.0, 0.0, 0.0, 0.0, 0.0, 0.0, 0.0, 0.0, 1.6989582898586917E9, 0.0, 2023-11-02 16:51:29.858
23.0, -187500.02235174447, 187500.0, 2754.606634927587, 50318.783559654185, 187500.0, 187500.0, -187500.02235174447, 35496.760665984235, -0.09, 0.98, 0.06, 192.0, 0.0, 0.0, 0.0, 0.0, 0.0, 0.0, 0.0, 0.0, 0.0, 1.6989582898587031E9, 0.0, 2023-11-02 16:51:29.858
24.0, -187500.02235174447, 187500.0, 2749.9127685919725, 50288.63105638398, 187500.0, 187500.0, -187500.02235174447, 35492.60324151555, -0.09, 0.98, 0.06, 192.0, 0.0, 0.0, 0.0, 0.0, 0.0, 0.0, 0.0, 0.0, 0.0, 1.6989582898587332E9, 0.0, 2023-11-02 16:51:29.858
25.0, -187500.02235174447, 187500.0, 2740.6814981319308, 50285.68062611588, 187500.0, 187500.0, -187500.02235174447, 35485.76360771222, -0.09, 0.98, 0.06, 192.0, 0.0, 0.0, 0.0, 0.0, 0.0, 0.0, 0.0, 0.0, 0.0, 1.698958289858744E9, 0.0, 2023-11-02 16:51:29.858
26.0, -187500.02235174447, 187500.0, 2730.869082316051, 50283.95954179282, 187500.0, 187500.0, -187500.02235174447, 35478.34282855306, -0.09, 0.98, 0.06, 192.0, 0.0, 0.0, 0.0, 0.0, 0.0, 0.0, 0.0, 0.0, 0.0, 1.6989582898587568E9, 0.0, 2023-11-02 16:51:29.858
27.0, -187500.02235174447, 187500.0, 2728.3656869370566, 50252.33182338856, 187500.0, 187500.0, -187500.02235174447, 35475.59356398506, -0.09, 0.98, 0.06, 192.0, 0.0, 0.0, 0.0, 0.0, 0.0, 0.0, 0.0, 0.0, 0.0, 1.6989582898587677E9, 0.0, 2023-11-02 16:51:29.858
28.0, -187500.02235174447, 187500.0, 2730.0197160267494, 50220.86056719549, 187500.0, 187500.0, -187500.02235174447, 35476.77820644119, -0.09, 0.98, 0.06, 192.0, 0.0, 0.0, 0.0, 0.0, 0.0, 0.0, 0.0, 0.0, 0.0, 1.69895828985878E9, 0.0, 2023-11-02 16:51:29.858
29.0, -187500.02235174447, 187500.0, 2723.962393279361, 50227.18611087634, 187500.0, 187500.0, -187500.02235174447, 35469.24566855975, -0.09, 0.98, 0.06, 192.0, 0.0, 0.0, 0.0, 0.0, 0.0, 0.0, 0.0, 0.0, 0.0, 1.6989582898592224E9, 0.0, 2023-11-02 16:51:29.859
30.0, -187500.02235174447, 187500.0, 2714.641715841498, 50240.485398827244, 187500.0, 187500.0, -187500.02235174447, 35459.3214940216, -0.09, 0.98, 0.06, 192.0, 0.0, 0.0, 0.0, 0.0, 0.0, 0.0, 0.0, 0.0, 0.0, 1.6989582898592384E9, 0.0, 2023-11-02 16:51:29.859
31.0, -187500.02235174447, 187500.0, 2715.5581373641658, 50219.02772415015, 187500.0, 187500.0, -187500.02235174447, 35459.9696946108, -0.088, 0.978, 0.06, 192.0, 253.0, 64.0, 30.0, 144.0, 1.0, 224.0, 0.0, 0.0, 0.0, 1.6989582898592532E9, 0.0, 2023-11-02 16:51:29.859
32.0, -187500.02235174447, 187500.0, 2719.290878688202, 50195.37957851643, 187500.0, 187500.0, -187500.02235174447, 35464.64120920196, -0.088, 0.978, 0.06, 192.0, 0.0, 0.0, 0.0, 0.0, 0.0, 0.0, 0.0, 0.0, 0.0, 1.69895828985927E9, 0.0, 2023-11-02 16:51:29.859
33.0, -187500.02235174447, 187500.0, 2712.6524105849758, 50198.620581462455, 187500.0, 187500.0, -187500.02235174447, 35457.48865097626, -0.088, 0.978, 0.06, 192.0, 0.0, 0.0, 0.0, 0.0, 0.0, 0.0, 0.0, 0.0, 0.0, 1.6989582898592837E9, 0.0, 2023-11-02 16:51:29.859
34.0, -187500.02235174447, 187500.0, 2712.7418175627968, 50216.12199737096, 187500.0, 187500.0, -187500.02235174447, 35457.2204300428, -0.088, 0.978, 0.06, 192.0, 0.0, 0.0, 0.0, 0.0, 0.0, 0.0, 0.0, 0.0, 0.0, 1.6989582898593004E9, 0.0, 2023-11-02 16:51:29.859
35.0, -187500.02235174447, 187500.0, 2710.8866227730064, 50217.53015727165, 187500.0, 187500.0, -187500.02235174447, 35454.82879338608, -0.088, 0.978, 0.06, 192.0, 0.0, 0.0, 0.0, 0.0, 0.0, 0.0, 0.0, 0.0, 0.0, 1.6989582898593264E9, 0.0, 2023-11-02 16:51:29.859
36.0, -187500.02235174447, 187500.0, 2704.382265136512, 50191.915058125865, 187500.0, 187500.0, -187500.02235174447, 35448.72676714978, -0.088, 0.978, 0.06, 192.0, 0.0, 0.0, 0.0, 0.0, 0.0, 0.0, 0.0, 0.0, 0.0, 1.6989582898593383E9, 0.0, 2023-11-02 16:51:29.859
37.0, -187500.02235174447, 187500.0, 2707.4891576157997, 50184.38252024443, 187500.0, 187500.0, -187500.02235174447, 35452.75008115174, -0.088, 0.978, 0.06, 192.0, 0.0, 0.0, 0.0, 0.0, 0.0, 0.0, 0.0, 0.0, 0.0, 1.6989582898593497E9, 0.0, 2023-11-02 16:51:29.859
38.0, -187500.02235174447, 187500.0, 2709.9478495058834, 50213.59625024751, 187500.0, 187500.0, -187500.02235174447, 35456.706339920325, -0.088, 0.978, 0.06, 192.0, 0.0, 0.0, 0.0, 0.0, 0.0, 0.0, 0.0, 0.0, 0.0, 1.6989582898593624E9, 0.0, 2023-11-02 16:51:29.859
39.0, -187500.02235174447, 187500.0, 2698.7272737893195, 50227.96842193227, 187500.0, 187500.0, -187500.02235174447, 35446.223371770786, -0.088, 0.978, 0.06, 192.0, 0.0, 0.0, 0.0, 0.0, 0.0, 0.0, 0.0, 0.0, 0.0, 1.6989582898593743E9, 0.0, 2023-11-02 16:51:29.859
40.0, -187500.02235174447, 187500.0, 2699.263715656247, 50214.4009130479, 187500.0, 187500.0, -187500.02235174447, 35445.306950248116, -0.088, 0.978, 0.06, 192.0, 0.0, 0.0, 0.0, 0.0, 0.0, 0.0, 0.0, 0.0, 0.0, 1.6989582898593864E9, 0.0, 2023-11-02 16:51:29.859
41.0, -187500.02235174447, 187500.0, 2705.3433901480903, 50204.901421654395, 187500.0, 187500.0, -187500.02235174447, 35449.17380203889, -0.088, 0.978, 0.056, 192.0, 253.0, 64.0, 30.0, 144.0, 1.0, 192.0, 0.0, 0.0, 0.0, 1.6989582898594E9, 0.0, 2023-11-02 16:51:29.859
42.0, -187500.02235174447, 187500.0, 2694.2792766427133, 50230.53887254463, 187500.0, 187500.0, -187500.02235174447, 35437.550894922126, -0.088, 0.978, 0.056, 192.0, 0.0, 0.0, 0.0, 0.0, 0.0, 0.0, 0.0, 0.0, 0.0, 1.698958289859413E9, 0.0, 2023-11-02 16:51:29.859
43.0, -187500.02235174447, 187500.0, 2684.57861954911, 50228.974250432766, 187500.0, 187500.0, -187500.02235174447, 35427.000871539225, -0.088, 0.978, 0.056, 192.0, 0.0, 0.0, 0.0, 0.0, 0.0, 0.0, 0.0, 0.0, 0.0, 1.698958289859424E9, 0.0, 2023-11-02 16:51:29.859
44.0, -187500.02235174447, 187500.0, 2680.644712524976, 50203.448558264805, 187500.0, 187500.0, -187500.02235174447, 35421.39058368094, -0.088, 0.978, 0.056, 192.0, 0.0, 0.0, 0.0, 0.0, 0.0, 0.0, 0.0, 0.0, 0.0, 1.698958289859517E9, 0.0, 2023-11-02 16:51:29.859
45.0, -187500.02235174447, 187500.0, 2687.797270750674, 50190.52924996964, 187500.0, 187500.0, -187500.02235174447, 35427.38085119496, -0.088, 0.978, 0.056, 192.0, 0.0, 0.0, 0.0, 0.0, 0.0, 0.0, 0.0, 0.0, 0.0, 1.6989582898595307E9, 0.0, 2023-11-02 16:51:29.859
46.0, -187500.02235174447, 187500.0, 2687.260828883747, 50219.36300031698, 187500.0, 187500.0, -187500.02235174447, 35426.2632639722, -0.088, 0.978, 0.056, 192.0, 0.0, 0.0, 0.0, 0.0, 0.0, 0.0, 0.0, 0.0, 0.0, 1.6989582898595428E9, 0.0, 2023-11-02 16:51:29.859
47.0, -187500.02235174447, 187500.0, 2680.4435468248785, 50232.43877082333, 187500.0, 187500.0, -187500.02235174447, 35416.74142083424, -0.088, 0.978, 0.056, 192.0, 0.0, 0.0, 0.0, 0.0, 0.0, 0.0, 0.0, 0.0, 0.0, 1.698958289859554E9, 0.0, 2023-11-02 16:51:29.859
48.0, -187500.02235174447, 187500.0, 2684.6903782713866, 50208.88003216744, 187500.0, 187500.0, -187500.02235174447, 35419.28951970214, -0.088, 0.978, 0.056, 192.0, 0.0, 0.0, 0.0, 0.0, 0.0, 0.0, 0.0, 0.0, 0.0, 1.698958289859573E9, 0.0, 2023-11-02 16:51:29.859
49.0, -187500.02235174447, 187500.0, 2686.858497483551, 50202.44272976431, 187500.0, 187500.0, -187500.02235174447, 35420.72003134728, -0.088, 0.978, 0.056, 192.0, 0.0, 0.0, 0.0, 0.0, 0.0, 0.0, 0.0, 0.0, 0.0, 1.6989582898595872E9, 0.0, 2023-11-02 16:51:29.859
50.0, -187500.02235174447, 187500.0, 2683.997474193272, 50218.93831717233, 187500.0, 187500.0, -187500.02235174447, 35416.11557198949, -0.088, 0.978, 0.056, 192.0, 0.0, 0.0, 0.0, 0.0, 0.0, 0.0, 0.0, 0.0, 0.0, 1.698958289859599E9, 0.0, 2023-11-02 16:51:29.859
51.0, -187500.02235174447, 187500.0, 2674.0285961662053, 50240.284233127146, 187500.0, 187500.0, -187500.02235174447, 35405.163217206384, -0.09, 0.974, 0.058, 192.0, 253.0, 48.0, 30.0, 112.0, 1.0, 208.0, 0.0, 0.0, 0.0, 1.6989582898596392E9, 0.0, 2023-11-02 16:51:29.859
52.0, -187500.02235174447, 187500.0, 2670.4299653089006, 50216.74784621571, 187500.0, 187500.0, -187500.02235174447, 35401.743400304724, -0.09, 0.974, 0.058, 192.0, 0.0, 0.0, 0.0, 0.0, 0.0, 0.0, 0.0, 0.0, 0.0, 1.6989582898596544E9, 0.0, 2023-11-02 16:51:29.859
53.0, -187500.02235174447, 187500.0, 2674.7215002443195, 50197.19006981732, 187500.0, 187500.0, -187500.02235174447, 35405.92317651787, -0.09, 0.974, 0.058, 192.0, 0.0, 0.0, 0.0, 0.0, 0.0, 0.0, 0.0, 0.0, 0.0, 1.6989582898596673E9, 0.0, 2023-11-02 16:51:29.859
54.0, -187500.02235174447, 187500.0, 2672.553381032155, 50212.880994424944, 187500.0, 187500.0, -187500.02235174447, 35403.73270556125, -0.09, 0.974, 0.058, 192.0, 0.0, 0.0, 0.0, 0.0, 0.0, 0.0, 0.0, 0.0, 0.0, 1.6989582898596795E9, 0.0, 2023-11-02 16:51:29.859
55.0, -187500.02235174447, 187500.0, 2668.9547501748502, 50242.8099802506, 187500.0, 187500.0, -187500.02235174447, 35401.78810379364, -0.09, 0.974, 0.058, 192.0, 0.0, 0.0, 0.0, 0.0, 0.0, 0.0, 0.0, 0.0, 0.0, 1.6989582898596916E9, 0.0, 2023-11-02 16:51:29.859
56.0, -187500.02235174447, 187500.0, 2663.0538896386493, 50235.23273888025, 187500.0, 187500.0, -187500.02235174447, 35396.222519424264, -0.09, 0.974, 0.058, 192.0, 0.0, 0.0, 0.0, 0.0, 0.0, 0.0, 0.0, 0.0, 0.0, 1.6989582898597302E9, 0.0, 2023-11-02 16:51:29.859
57.0, -187500.02235174447, 187500.0, 2662.9421309163727, 50204.16381408737, 187500.0, 187500.0, -187500.02235174447, 35393.517958345175, -0.09, 0.974, 0.058, 192.0, 0.0, 0.0, 0.0, 0.0, 0.0, 0.0, 0.0, 0.0, 0.0, 1.698958289859742E9, 0.0, 2023-11-02 16:51:29.859
58.0, -187500.02235174447, 187500.0, 2655.521351757211, 50201.23573556373, 187500.0, 187500.0, -187500.02235174447, 35386.81243500858, -0.09, 0.974, 0.058, 192.0, 0.0, 0.0, 0.0, 0.0, 0.0, 0.0, 0.0, 0.0, 0.0, 1.6989582898597538E9, 0.0, 2023-11-02 16:51:29.859
59.0, -187500.02235174447, 187500.0, 2654.9178546569174, 50217.68661948283, 187500.0, 187500.0, -187500.02235174447, 35386.7006762863, -0.09, 0.974, 0.058, 192.0, 0.0, 0.0, 0.0, 0.0, 0.0, 0.0, 0.0, 0.0, 0.0, 1.6989582898597863E9, 0.0, 2023-11-02 16:51:29.859
60.0, -187500.02235174447, 187500.0, 2657.868284925018, 50216.83725319353, 187500.0, 187500.0, -187500.02235174447, 35388.689981542826, -0.09, 0.974, 0.058, 192.0, 0.0, 0.0, 0.0, 0.0, 0.0, 0.0, 0.0, 0.0, 0.0, 1.698958289859804E9, 0.0, 2023-11-02 16:51:29.859
61.0, -187500.02235174447, 187500.0, 2652.056831366638, 50195.80426166109, 187500.0, 187500.0, -187500.02235174447, 35382.07386518406, -0.088, 0.978, 0.058, 192.0, 253.0, 64.0, 30.0, 144.0, 1.0, 208.0, 0.0, 0.0, 0.0, 1.698958289859815E9, 0.0, 2023-11-02 16:51:29.859
62.0, -187500.02235174447, 187500.0, 2651.587444733077, 50190.81982264755, 187500.0, 187500.0, -187500.02235174447, 35381.15744366139, -0.088, 0.978, 0.058, 192.0, 0.0, 0.0, 0.0, 0.0, 0.0, 0.0, 0.0, 0.0, 0.0, 1.6989582898598263E9, 0.0, 2023-11-02 16:51:29.859
63.0, -187500.02235174447, 187500.0, 2653.8002674341524, 50215.36203805948, 187500.0, 187500.0, -187500.02235174447, 35383.52672857365, -0.088, 0.978, 0.058, 192.0, 0.0, 0.0, 0.0, 0.0, 0.0, 0.0, 0.0, 0.0, 0.0, 1.698958289859842E9, 0.0, 2023-11-02 16:51:29.859
64.0, -187500.02235174447, 187500.0, 2646.4018400194454, 50225.21915736427, 187500.0, 187500.0, -187500.02235174447, 35375.5024523142, -0.088, 0.978, 0.058, 192.0, 0.0, 0.0, 0.0, 0.0, 0.0, 0.0, 0.0, 0.0, 0.0, 1.698958289859857E9, 0.0, 2023-11-02 16:51:29.859
65.0, -187500.02235174447, 187500.0, 2639.5622062161215, 50204.007351876186, 187500.0, 187500.0, -187500.02235174447, 35368.01461792167, -0.088, 0.978, 0.058, 192.0, 0.0, 0.0, 0.0, 0.0, 0.0, 0.0, 0.0, 0.0, 0.0, 1.6989582898598714E9, 0.0, 2023-11-02 16:51:29.859
66.0, -187500.02235174447, 187500.0, 2644.814866163119, 50190.372787758446, 187500.0, 187500.0, -187500.02235174447, 35372.61907727946, -0.088, 0.978, 0.058, 192.0, 0.0, 0.0, 0.0, 0.0, 0.0, 0.0, 0.0, 0.0, 0.0, 1.6989582898598838E9, 0.0, 2023-11-02 16:51:29.859
67.0, -187500.02235174447, 187500.0, 2647.1170958420153, 50221.24054685123, 187500.0, 187500.0, -187500.02235174447, 35375.05541742509, -0.088, 0.978, 0.058, 192.0, 0.0, 0.0, 0.0, 0.0, 0.0, 0.0, 0.0, 0.0, 0.0, 1.698958289859898E9, 0.0, 2023-11-02 16:51:29.859
68.0, -187500.02235174447, 187500.0, 2646.804171419641, 50238.116113914984, 187500.0, 187500.0, -187500.02235174447, 35373.6025540355, -0.088, 0.978, 0.058, 192.0, 0.0, 0.0, 0.0, 0.0, 0.0, 0.0, 0.0, 0.0, 0.0, 1.6989582898599143E9, 0.0, 2023-11-02 16:51:29.859
69.0, -187500.02235174447, 187500.0, 2649.732249943286, 50220.97232591776, 187500.0, 187500.0, -187500.02235174447, 35374.34016160252, -0.088, 0.978, 0.058, 192.0, 0.0, 0.0, 0.0, 0.0, 0.0, 0.0, 0.0, 0.0, 0.0, 1.6989582898599267E9, 0.0, 2023-11-02 16:51:29.859
70.0, -187500.02235174447, 187500.0, 2646.6477092084538, 50209.81880543457, 187500.0, 187500.0, -187500.02235174447, 35370.47330981175, -0.088, 0.978, 0.058, 192.0, 0.0, 0.0, 0.0, 0.0, 0.0, 0.0, 0.0, 0.0, 0.0, 1.6989582898599384E9, 0.0, 2023-11-02 16:51:29.859
71.0, -187500.02235174447, 187500.0, 2650.6039679770433, 50221.061732895585, 187500.0, 187500.0, -187500.02235174447, 35372.9990569352, -0.084, 0.98, 0.048, 192.0, 253.0, 96.0, 30.0, 160.0, 1.0, 128.0, 0.0, 0.0, 0.0, 1.6989582898599517E9, 0.0, 2023-11-02 16:51:29.859
72.0, -187500.02235174447, 187500.0, 2648.3017382981466, 50244.24049189574, 187500.0, 187500.0, -187500.02235174447, 35370.160385389376, -0.084, 0.98, 0.048, 192.0, 0.0, 0.0, 0.0, 0.0, 0.0, 0.0, 0.0, 0.0, 0.0, 1.6989582898599653E9, 0.0, 2023-11-02 16:51:29.859
73.0, -187500.02235174447, 187500.0, 2651.8780174109957, 50225.46502655328, 187500.0, 187500.0, -187500.02235174447, 35371.9485249458, -0.084, 0.98, 0.048, 192.0, 0.0, 0.0, 0.0, 0.0, 0.0, 0.0, 0.0, 0.0, 0.0, 1.6989582898599787E9, 0.0, 2023-11-02 16:51:29.859
74.0, -187500.02235174447, 187500.0, 2657.3765465470015, 50219.31829682807, 187500.0, 187500.0, -187500.02235174447, 35378.65404828239, -0.084, 0.98, 0.048, 192.0, 0.0, 0.0, 0.0, 0.0, 0.0, 0.0, 0.0, 0.0, 0.0, 1.6989582898599918E9, 0.0, 2023-11-02 16:51:29.859
75.0, -187500.02235174447, 187500.0, 2651.09570635506, 50237.15498890341, 187500.0, 187500.0, -187500.02235174447, 35371.65795226788, -0.084, 0.98, 0.048, 192.0, 0.0, 0.0, 0.0, 0.0, 0.0, 0.0, 0.0, 0.0, 0.0, 1.6989582898601131E9, 0.0, 2023-11-02 16:51:29.860
76.0, -187500.02235174447, 187500.0, 2646.2453778082586, 50256.33278564606, 187500.0, 187500.0, -187500.02235174447, 35366.22647836524, -0.084, 0.98, 0.048, 192.0, 0.0, 0.0, 0.0, 0.0, 0.0, 0.0, 0.0, 0.0, 0.0, 1.6989582898601327E9, 0.0, 2023-11-02 16:51:29.860
77.0, -187500.02235174447, 187500.0, 2647.5864824755768, 50244.21814015128, 187500.0, 187500.0, -187500.02235174447, 35366.36058883197, -0.084, 0.98, 0.048, 192.0, 0.0, 0.0, 0.0, 0.0, 0.0, 0.0, 0.0, 0.0, 0.0, 1.6989582898601546E9, 0.0, 2023-11-02 16:51:29.860
78.0, -187500.02235174447, 187500.0, 2643.607871962532, 50221.77698871816, 187500.0, 187500.0, -187500.02235174447, 35361.86788819646, -0.084, 0.98, 0.048, 192.0, 0.0, 0.0, 0.0, 0.0, 0.0, 0.0, 0.0, 0.0, 0.0, 1.6989582898601656E9, 0.0, 2023-11-02 16:51:29.860
79.0, -187500.02235174447, 187500.0, 2648.391145275968, 50226.62731726495, 187500.0, 187500.0, -187500.02235174447, 35367.56758303256, -0.084, 0.98, 0.048, 192.0, 0.0, 0.0, 0.0, 0.0, 0.0, 0.0, 0.0, 0.0, 0.0, 1.6989582898601785E9, 0.0, 2023-11-02 16:51:29.860
80.0, -187500.02235174447, 187500.0, 2644.90427314094, 50254.94697748983, 187500.0, 187500.0, -187500.02235174447, 35363.54426903061, -0.084, 0.98, 0.048, 192.0, 0.0, 0.0, 0.0, 0.0, 0.0, 0.0, 0.0, 0.0, 0.0, 1.6989582898601937E9, 0.0, 2023-11-02 16:51:29.860
81.0, -187500.02235174447, 187500.0, 2648.704069698342, 50238.42903833736, 187500.0, 187500.0, -187500.02235174447, 35364.840670209014, -0.078, 0.982, 0.038, 192.0, 253.0, 144.0, 30.0, 176.0, 1.0, 48.0, 0.0, 0.0, 0.0, 1.698958289860207E9, 0.0, 2023-11-02 16:51:29.860
82.0, -187500.02235174447, 187500.0, 2644.971328374306, 50223.922756185864, 187500.0, 187500.0, -187500.02235174447, 35360.504431784684, -0.078, 0.982, 0.038, 192.0, 0.0, 0.0, 0.0, 0.0, 0.0, 0.0, 0.0, 0.0, 0.0, 1.6989582898602233E9, 0.0, 2023-11-02 16:51:29.860
83.0, -187500.02235174447, 187500.0, 2640.545682972155, 50220.011200906185, 187500.0, 187500.0, -187500.02235174447, 35357.30813232758, -0.078, 0.982, 0.038, 192.0, 0.0, 0.0, 0.0, 0.0, 0.0, 0.0, 0.0, 0.0, 0.0, 1.698958289860234E9, 0.0, 2023-11-02 16:51:29.860
84.0, -187500.02235174447, 187500.0, 2644.099610340549, 50238.47374182627, 187500.0, 187500.0, -187500.02235174447, 35360.88441144043, -0.078, 0.982, 0.038, 192.0, 0.0, 0.0, 0.0, 0.0, 0.0, 0.0, 0.0, 0.0, 0.0, 1.6989582898602505E9, 0.0, 2023-11-02 16:51:29.860
85.0, -187500.02235174447, 187500.0, 2638.355212015535, 50234.964517946784, 187500.0, 187500.0, -187500.02235174447, 35353.865963681455, -0.078, 0.982, 0.038, 192.0, 0.0, 0.0, 0.0, 0.0, 0.0, 0.0, 0.0, 0.0, 0.0, 1.6989582898602622E9, 0.0, 2023-11-02 16:51:29.860
86.0, -187500.02235174447, 187500.0, 2643.250244051247, 50208.88003216744, 187500.0, 187500.0, -187500.02235174447, 35358.51512652816, -0.078, 0.982, 0.038, 192.0, 0.0, 0.0, 0.0, 0.0, 0.0, 0.0, 0.0, 0.0, 0.0, 1.698958289860274E9, 0.0, 2023-11-02 16:51:29.860
87.0, -187500.02235174447, 187500.0, 2637.394087003957, 50207.24835482221, 187500.0, 187500.0, -187500.02235174447, 35352.882486925424, -0.078, 0.982, 0.038, 192.0, 0.0, 0.0, 0.0, 0.0, 0.0, 0.0, 0.0, 0.0, 0.0, 1.698958289860288E9, 0.0, 2023-11-02 16:51:29.860
88.0, -187500.02235174447, 187500.0, 2644.3454795295575, 50230.67298301137, 187500.0, 187500.0, -187500.02235174447, 35358.64923699489, -0.078, 0.982, 0.038, 192.0, 0.0, 0.0, 0.0, 0.0, 0.0, 0.0, 0.0, 0.0, 0.0, 1.6989582898602989E9, 0.0, 2023-11-02 16:51:29.860
89.0, -187500.02235174447, 187500.0, 2642.4232295064007, 50239.54662556012, 187500.0, 187500.0, -187500.02235174447, 35356.63757999391, -0.078, 0.982, 0.038, 192.0, 0.0, 0.0, 0.0, 0.0, 0.0, 0.0, 0.0, 0.0, 0.0, 1.6989582898603115E9, 0.0, 2023-11-02 16:51:29.860
90.0, -187500.02235174447, 187500.0, 2638.668136437909, 50207.71774145577, 187500.0, 187500.0, -187500.02235174447, 35351.47432702474, -0.088, 0.98, 0.044, 192.0, 253.0, 64.0, 30.0, 160.0, 1.0, 96.0, 0.0, 0.0, 0.0, 1.6989582898603544E9, 0.0, 2023-11-02 16:51:29.860
91.0, -187500.02235174447, 187500.0, 2647.8547034090407, 50199.0005611182, 187500.0, 187500.0, -187500.02235174447, 35360.97381841824, -0.088, 0.98, 0.044, 192.0, 0.0, 0.0, 0.0, 0.0, 0.0, 0.0, 0.0, 0.0, 0.0, 1.698958289860368E9, 0.0, 2023-11-02 16:51:29.860
92.0, -187500.02235174447, 187500.0, 2649.2181598208144, 50227.700200998814, 187500.0, 187500.0, -187500.02235174447, 35366.00296092069, -0.088, 0.98, 0.044, 192.0, 0.0, 0.0, 0.0, 0.0, 0.0, 0.0, 0.0, 0.0, 0.0, 1.6989582898603797E9, 0.0, 2023-11-02 16:51:29.860
93.0, -187500.02235174447, 187500.0, 2647.5864824755768, 50240.23952963824, 187500.0, 187500.0, -187500.02235174447, 35367.12054814345, -0.088, 0.98, 0.044, 192.0, 0.0, 0.0, 0.0, 0.0, 0.0, 0.0, 0.0, 0.0, 0.0, 1.6989582898603923E9, 0.0, 2023-11-02 16:51:29.860
94.0, -187500.02235174447, 187500.0, 2651.9897761332722, 50223.09574164102, 187500.0, 187500.0, -187500.02235174447, 35373.446091824306, -0.088, 0.98, 0.044, 192.0, 0.0, 0.0, 0.0, 0.0, 0.0, 0.0, 0.0, 0.0, 0.0, 1.6989582898604043E9, 0.0, 2023-11-02 16:51:29.860
95.0, -187500.02235174447, 187500.0, 2652.5709214891103, 50213.64095373642, 187500.0, 187500.0, -187500.02235174447, 35372.93200170183, -0.088, 0.98, 0.044, 192.0, 0.0, 0.0, 0.0, 0.0, 0.0, 0.0, 0.0, 0.0, 0.0, 1.6989582898604193E9, 0.0, 2023-11-02 16:51:29.860
96.0, -187500.02235174447, 187500.0, 2649.8216569211077, 50226.22498586476, 187500.0, 187500.0, -187500.02235174447, 35369.15455688889, -0.088, 0.98, 0.044, 192.0, 0.0, 0.0, 0.0, 0.0, 0.0, 0.0, 0.0, 0.0, 0.0, 1.6989582898604317E9, 0.0, 2023-11-02 16:51:29.860
97.0, -187500.02235174447, 187500.0, 2644.0102033627277, 50241.5582825611, 187500.0, 187500.0, -187500.02235174447, 35362.80666146358, -0.088, 0.98, 0.044, 192.0, 0.0, 0.0, 0.0, 0.0, 0.0, 0.0, 0.0, 0.0, 0.0, 1.6989582898604467E9, 0.0, 2023-11-02 16:51:29.860
98.0, -187500.02235174447, 187500.0, 2638.8022469046414, 50212.813939191576, 187500.0, 187500.0, -187500.02235174447, 35356.32465557154, -0.088, 0.98, 0.044, 192.0, 0.0, 0.0, 0.0, 0.0, 0.0, 0.0, 0.0, 0.0, 0.0, 1.6989582898604596E9, 0.0, 2023-11-02 16:51:29.860
99.0, -187500.02235174447, 187500.0, 2641.640918450465, 50185.50010746719, 187500.0, 187500.0, -187500.02235174447, 35358.58218176153, -0.088, 0.98, 0.044, 192.0, 0.0, 0.0, 0.0, 0.0, 0.0, 0.0, 0.0, 0.0, 0.0, 1.6989582898604789E9, 0.0, 2023-11-02 16:51:29.860
100.0, -187500.02235174447, 187500.0, 2645.463066752323, 50202.48743325323, 187500.0, 187500.0, -187500.02235174447, 35361.64437075191, -0.084, 0.978, 0.05, 192.0, 253.0, 96.0, 30.0, 144.0, 1.0, 144.0, 0.0, 0.0, 0.0, 1.6989582898604963E9, 0.0, 2023-11-02 16:51:29.860
101.0, -187500.02235174447, 187500.0, 2640.031592849683, 50232.28230861215, 187500.0, 187500.0, -187500.02235174447, 35353.97772240373, -0.084, 0.978, 0.05, 192.0, 0.0, 0.0, 0.0, 0.0, 0.0, 0.0, 0.0, 0.0, 0.0, 1.6989582898605142E9, 0.0, 2023-11-02 16:51:29.860
102.0, -187500.02235174447, 187500.0, 2629.1239415554933, 50225.666192253375, 187500.0, 187500.0, -187500.02235174447, 35341.99718737569, -0.084, 0.978, 0.05, 192.0, 0.0, 0.0, 0.0, 0.0, 0.0, 0.0, 0.0, 0.0, 0.0, 1.698958289860529E9, 0.0, 2023-11-02 16:51:29.860
103.0, -187500.02235174447, 187500.0, 2634.644822435954, 50201.59336347501, 187500.0, 187500.0, -187500.02235174447, 35347.629826978424, -0.084, 0.978, 0.05, 192.0, 0.0, 0.0, 0.0, 0.0, 0.0, 0.0, 0.0, 0.0, 0.0, 1.6989582898605444E9, 0.0, 2023-11-02 16:51:29.860
104.0, -187500.02235174447, 187500.0, 2636.656479436932, 50211.137558357426, 187500.0, 187500.0, -187500.02235174447, 35351.13905085791, -0.084, 0.978, 0.05, 192.0, 0.0, 0.0, 0.0, 0.0, 0.0, 0.0, 0.0, 0.0, 0.0, 1.6989582898605595E9, 0.0, 2023-11-02 16:51:29.860
105.0, -187500.02235174447, 187500.0, 2632.879034623985, 50234.67394526886, 187500.0, 187500.0, -187500.02235174447, 35346.28872231111, -0.084, 0.978, 0.05, 192.0, 0.0, 0.0, 0.0, 0.0, 0.0, 0.0, 0.0, 0.0, 0.0, 1.698958289860617E9, 0.0, 2023-11-02 16:51:29.860
106.0, -187500.02235174447, 187500.0, 2632.230834034781, 50227.99077367673, 187500.0, 187500.0, -187500.02235174447, 35345.43935602181, -0.084, 0.978, 0.05, 192.0, 0.0, 0.0, 0.0, 0.0, 0.0, 0.0, 0.0, 0.0, 0.0, 1.6989582898606744E9, 0.0, 2023-11-02 16:51:29.860
107.0, -187500.02235174447, 187500.0, 2635.9859271032724, 50209.88586066793, 187500.0, 187500.0, -187500.02235174447, 35349.61913223495, -0.084, 0.978, 0.05, 192.0, 0.0, 0.0, 0.0, 0.0, 0.0, 0.0, 0.0, 0.0, 0.0, 1.6989582898606908E9, 0.0, 2023-11-02 16:51:29.860
108.0, -187500.02235174447, 187500.0, 2636.1200375700046, 50210.82463393505, 187500.0, 187500.0, -187500.02235174447, 35349.6414839794, -0.084, 0.978, 0.05, 192.0, 0.0, 0.0, 0.0, 0.0, 0.0, 0.0, 0.0, 0.0, 0.0, 1.6989582898607047E9, 0.0, 2023-11-02 16:51:29.860
109.0, -187500.02235174447, 187500.0, 2628.967479344306, 50230.427113822356, 187500.0, 187500.0, -187500.02235174447, 35342.064242609056, -0.084, 0.978, 0.05, 192.0, 0.0, 0.0, 0.0, 0.0, 0.0, 0.0, 0.0, 0.0, 0.0, 1.6989582898607185E9, 0.0, 2023-11-02 16:51:29.860
110.0, -187500.02235174447, 187500.0, 2633.6166421910098, 50230.65063126691, 187500.0, 187500.0, -187500.02235174447, 35343.65121646538, -0.09, 0.98, 0.052000000000000005, 192.0, 253.0, 48.0, 30.0, 160.0, 1.0, 160.0, 0.0, 0.0, 0.0, 1.6989582898607328E9, 0.0, 2023-11-02 16:51:29.860
111.0, -187500.02235174447, 187500.0, 2633.8625113800185, 50216.434921793334, 187500.0, 187500.0, -187500.02235174447, 35343.67356820984, -0.09, 0.98, 0.052000000000000005, 192.0, 0.0, 0.0, 0.0, 0.0, 0.0, 0.0, 0.0, 0.0, 0.0, 1.6989582898607645E9, 0.0, 2023-11-02 16:51:29.860
112.0, -187500.02235174447, 187500.0, 2632.2978892681467, 50213.50684326969, 187500.0, 187500.0, -187500.02235174447, 35344.27706531013, -0.09, 0.98, 0.052000000000000005, 192.0, 0.0, 0.0, 0.0, 0.0, 0.0, 0.0, 0.0, 0.0, 0.0, 1.6989582898607793E9, 0.0, 2023-11-02 16:51:29.860
113.0, -187500.02235174447, 187500.0, 2635.360078258524, 50242.78762850614, 187500.0, 187500.0, -187500.02235174447, 35347.33925430051, -0.09, 0.98, 0.052000000000000005, 192.0, 0.0, 0.0, 0.0, 0.0, 0.0, 0.0, 0.0, 0.0, 0.0, 1.6989582898607936E9, 0.0, 2023-11-02 16:51:29.860
114.0, -187500.02235174447, 187500.0, 2633.326069513091, 50244.17343666237, 187500.0, 187500.0, -187500.02235174447, 35343.159478087364, -0.09, 0.98, 0.052000000000000005, 192.0, 0.0, 0.0, 0.0, 0.0, 0.0, 0.0, 0.0, 0.0, 0.0, 1.6989582898608072E9, 0.0, 2023-11-02 16:51:29.860
115.0, -187500.02235174447, 187500.0, 2638.8245986490965, 50214.11034036998, 187500.0, 187500.0, -187500.02235174447, 35347.629826978424, -0.09, 0.98, 0.052000000000000005, 192.0, 0.0, 0.0, 0.0, 0.0, 0.0, 0.0, 0.0, 0.0, 0.0, 1.6989582898608215E9, 0.0, 2023-11-02 16:51:29.860
116.0, -187500.02235174447, 187500.0, 2638.1540463154374, 50211.472834524255, 187500.0, 187500.0, -187500.02235174447, 35347.227495578234, -0.09, 0.98, 0.052000000000000005, 192.0, 0.0, 0.0, 0.0, 0.0, 0.0, 0.0, 0.0, 0.0, 0.0, 1.6989582898608334E9, 0.0, 2023-11-02 16:51:29.860
117.0, -187500.02235174447, 187500.0, 2639.9198341274064, 50240.32893661606, 187500.0, 187500.0, -187500.02235174447, 35350.22262933524, -0.09, 0.98, 0.052000000000000005, 192.0, 0.0, 0.0, 0.0, 0.0, 0.0, 0.0, 0.0, 0.0, 0.0, 1.698958289860846E9, 0.0, 2023-11-02 16:51:29.860
118.0, -187500.02235174447, 187500.0, 2633.1472555574487, 50265.362890406, 187500.0, 187500.0, -187500.02235174447, 35344.83585892151, -0.09, 0.98, 0.052000000000000005, 192.0, 0.0, 0.0, 0.0, 0.0, 0.0, 0.0, 0.0, 0.0, 0.0, 1.6989582898608584E9, 0.0, 2023-11-02 16:51:29.860
119.0, -187500.02235174447, 187500.0, 2638.6010812045433, 50240.39599184942, 187500.0, 187500.0, -187500.02235174447, 35347.652178722885, -0.09, 0.98, 0.052000000000000005, 192.0, 0.0, 0.0, 0.0, 0.0, 0.0, 0.0, 0.0, 0.0, 0.0, 1.6989582898608725E9, 0.0, 2023-11-02 16:51:29.860
120.0, -187500.02235174447, 187500.0, 2640.8139039056186, 50235.90329121391, 187500.0, 187500.0, -187500.02235174447, 35348.81446943456, -0.088, 0.978, 0.048, 192.0, 253.0, 64.0, 30.0, 144.0, 1.0, 128.0, 0.0, 0.0, 0.0, 1.6989582898608944E9, 0.0, 2023-11-02 16:51:29.860
121.0, -187500.02235174447, 187500.0, 2630.6662119229095, 50247.88382624195, 187500.0, 187500.0, -187500.02235174447, 35337.12450708443, -0.088, 0.978, 0.048, 192.0, 0.0, 0.0, 0.0, 0.0, 0.0, 0.0, 0.0, 0.0, 0.0, 1.6989582898609483E9, 0.0, 2023-11-02 16:51:29.860
122.0, -187500.02235174447, 187500.0, 2632.096723568049, 50270.99553000874, 187500.0, 187500.0, -187500.02235174447, 35337.638597206904, -0.088, 0.978, 0.048, 192.0, 0.0, 0.0, 0.0, 0.0, 0.0, 0.0, 0.0, 0.0, 0.0, 1.6989582898609653E9, 0.0, 2023-11-02 16:51:29.860
123.0, -187500.02235174447, 187500.0, 2632.811979390619, 50257.47272461328, 187500.0, 187500.0, -187500.02235174447, 35337.795059418095, -0.088, 0.978, 0.048, 192.0, 0.0, 0.0, 0.0, 0.0, 0.0, 0.0, 0.0, 0.0, 0.0, 1.698958289860979E9, 0.0, 2023-11-02 16:51:29.860
124.0, -187500.02235174447, 187500.0, 2639.1598748159263, 50236.81971273658, 187500.0, 187500.0, -187500.02235174447, 35342.31011179806, -0.088, 0.978, 0.048, 192.0, 0.0, 0.0, 0.0, 0.0, 0.0, 0.0, 0.0, 0.0, 0.0, 1.6989582898609931E9, 0.0, 2023-11-02 16:51:29.860
125.0, -187500.02235174447, 187500.0, 2636.4776654812895, 50254.43288736736, 187500.0, 187500.0, -187500.02235174447, 35338.39855651838, -0.088, 0.978, 0.048, 192.0, 0.0, 0.0, 0.0, 0.0, 0.0, 0.0, 0.0, 0.0, 0.0, 1.6989582898610053E9, 0.0, 2023-11-02 16:51:29.861
126.0, -187500.02235174447, 187500.0, 2637.036459092672, 50277.119907989494, 187500.0, 187500.0, -187500.02235174447, 35339.06910885205, -0.088, 0.978, 0.048, 192.0, 0.0, 0.0, 0.0, 0.0, 0.0, 0.0, 0.0, 0.0, 0.0, 1.6989582898610196E9, 0.0, 2023-11-02 16:51:29.861
127.0, -187500.02235174447, 187500.0, 2632.543758457155, 50268.80505905212, 187500.0, 187500.0, -187500.02235174447, 35334.95638787227, -0.088, 0.978, 0.048, 192.0, 0.0, 0.0, 0.0, 0.0, 0.0, 0.0, 0.0, 0.0, 0.0, 1.6989582898610332E9, 0.0, 2023-11-02 16:51:29.861
128.0, -187500.02235174447, 187500.0, 2638.5116742267223, 50238.049058681616, 187500.0, 187500.0, -187500.02235174447, 35340.656082708374, -0.088, 0.978, 0.048, 192.0, 0.0, 0.0, 0.0, 0.0, 0.0, 0.0, 0.0, 0.0, 0.0, 1.698958289861051E9, 0.0, 2023-11-02 16:51:29.861
129.0, -187500.02235174447, 187500.0, 2647.072392353105, 50253.292948400136, 187500.0, 187500.0, -187500.02235174447, 35348.210972334266, -0.088, 0.978, 0.048, 192.0, 0.0, 0.0, 0.0, 0.0, 0.0, 0.0, 0.0, 0.0, 0.0, 1.6989582898610637E9, 0.0, 2023-11-02 16:51:29.861
130.0, -187500.02235174447, 187500.0, 2647.072392353105, 50288.13931800596, 187500.0, 187500.0, -187500.02235174447, 35346.80281243358, -0.09, 0.98, 0.05, 192.0, 253.0, 48.0, 30.0, 160.0, 1.0, 144.0, 0.0, 0.0, 0.0, 1.6989582898610752E9, 0.0, 2023-11-02 16:51:29.861
131.0, -187500.02235174447, 187500.0, 2641.3950492614567, 50276.87403880049, 187500.0, 187500.0, -187500.02235174447, 35339.65025420788, -0.09, 0.98, 0.05, 192.0, 0.0, 0.0, 0.0, 0.0, 0.0, 0.0, 0.0, 0.0, 0.0, 1.6989582898610885E9, 0.0, 2023-11-02 16:51:29.861
132.0, -187500.02235174447, 187500.0, 2642.7808574176856, 50246.006279707704, 187500.0, 187500.0, -187500.02235174447, 35340.47726875273, -0.09, 0.98, 0.05, 192.0, 0.0, 0.0, 0.0, 0.0, 0.0, 0.0, 0.0, 0.0, 0.0, 1.6989582898610988E9, 0.0, 2023-11-02 16:51:29.861
133.0, -187500.02235174447, 187500.0, 2647.228854564292, 50256.69041355734, 187500.0, 187500.0, -187500.02235174447, 35343.49475425419, -0.09, 0.98, 0.05, 192.0, 0.0, 0.0, 0.0, 0.0, 0.0, 0.0, 0.0, 0.0, 0.0, 1.69895828986111E9, 0.0, 2023-11-02 16:51:29.861
134.0, -187500.02235174447, 187500.0, 2642.3114707841246, 50289.65923662892, 187500.0, 187500.0, -187500.02235174447, 35339.247922807685, -0.09, 0.98, 0.05, 192.0, 0.0, 0.0, 0.0, 0.0, 0.0, 0.0, 0.0, 0.0, 0.0, 1.6989582898611205E9, 0.0, 2023-11-02 16:51:29.861
135.0, -187500.02235174447, 187500.0, 2639.361040516024, 50285.07712901558, 187500.0, 187500.0, -187500.02235174447, 35337.61624546245, -0.09, 0.98, 0.05, 192.0, 0.0, 0.0, 0.0, 0.0, 0.0, 0.0, 0.0, 0.0, 0.0, 1.6989582898611329E9, 0.0, 2023-11-02 16:51:29.861
136.0, -187500.02235174447, 187500.0, 2641.1491800724484, 50264.334710161056, 187500.0, 187500.0, -187500.02235174447, 35339.22557106323, -0.09, 0.98, 0.05, 192.0, 0.0, 0.0, 0.0, 0.0, 0.0, 0.0, 0.0, 0.0, 0.0, 1.6989582898611856E9, 0.0, 2023-11-02 16:51:29.861
137.0, -187500.02235174447, 187500.0, 2644.859569652029, 50258.97029149179, 187500.0, 187500.0, -187500.02235174447, 35341.81837342005, -0.09, 0.98, 0.05, 192.0, 0.0, 0.0, 0.0, 0.0, 0.0, 0.0, 0.0, 0.0, 0.0, 1.6989582898611956E9, 0.0, 2023-11-02 16:51:29.861
138.0, -187500.02235174447, 187500.0, 2635.6282991919875, 50277.477535900776, 187500.0, 187500.0, -187500.02235174447, 35331.31305352605, -0.09, 0.98, 0.05, 192.0, 0.0, 0.0, 0.0, 0.0, 0.0, 0.0, 0.0, 0.0, 0.0, 1.698958289861205E9, 0.0, 2023-11-02 16:51:29.861
139.0, -187500.02235174447, 187500.0, 2629.593328189055, 50278.93039929037, 187500.0, 187500.0, -187500.02235174447, 35324.11579181144, -0.09, 0.98, 0.05, 192.0, 0.0, 0.0, 0.0, 0.0, 0.0, 0.0, 0.0, 0.0, 0.0, 1.6989582898612149E9, 0.0, 2023-11-02 16:51:29.861
140.0, -187500.02235174447, 187500.0, 2634.197787546848, 50259.149105447425, 187500.0, 187500.0, -187500.02235174447, 35326.21685579024, -0.088, 0.978, 0.05, 192.0, 253.0, 64.0, 30.0, 144.0, 1.0, 144.0, 0.0, 0.0, 0.0, 1.698958289861225E9, 0.0, 2023-11-02 16:51:29.861
141.0, -187500.02235174447, 187500.0, 2641.484456239278, 50250.25311115421, 187500.0, 187500.0, -187500.02235174447, 35333.727041927224, -0.088, 0.978, 0.05, 192.0, 0.0, 0.0, 0.0, 0.0, 0.0, 0.0, 0.0, 0.0, 0.0, 1.698958289861238E9, 0.0, 2023-11-02 16:51:29.861
142.0, -187500.02235174447, 187500.0, 2635.09185732506, 50281.29968420264, 187500.0, 187500.0, -187500.02235174447, 35327.62501569093, -0.088, 0.978, 0.05, 192.0, 0.0, 0.0, 0.0, 0.0, 0.0, 0.0, 0.0, 0.0, 0.0, 1.6989582898612475E9, 0.0, 2023-11-02 16:51:29.861
143.0, -187500.02235174447, 187500.0, 2632.6108136905214, 50296.9235535769, 187500.0, 187500.0, -187500.02235174447, 35326.596835445984, -0.088, 0.978, 0.05, 192.0, 0.0, 0.0, 0.0, 0.0, 0.0, 0.0, 0.0, 0.0, 0.0, 1.6989582898612576E9, 0.0, 2023-11-02 16:51:29.861
144.0, -187500.02235174447, 187500.0, 2633.8848631244737, 50283.44545167035, 187500.0, 187500.0, -187500.02235174447, 35330.41898374784, -0.088, 0.978, 0.05, 192.0, 0.0, 0.0, 0.0, 0.0, 0.0, 0.0, 0.0, 0.0, 0.0, 1.698958289861268E9, 0.0, 2023-11-02 16:51:29.861
145.0, -187500.02235174447, 187500.0, 2646.71476444182, 50269.25209394123, 187500.0, 187500.0, -187500.02235174447, 35344.09825135449, -0.088, 0.978, 0.05, 192.0, 0.0, 0.0, 0.0, 0.0, 0.0, 0.0, 0.0, 0.0, 0.0, 1.6989582898612776E9, 0.0, 2023-11-02 16:51:29.861
146.0, -187500.02235174447, 187500.0, 2641.7750289171972, 50289.39101569546, 187500.0, 187500.0, -187500.02235174447, 35336.409251261866, -0.088, 0.978, 0.05, 192.0, 0.0, 0.0, 0.0, 0.0, 0.0, 0.0, 0.0, 0.0, 0.0, 1.6989582898612876E9, 0.0, 2023-11-02 16:51:29.861
147.0, -187500.02235174447, 187500.0, 2637.975232359795, 50302.06445480162, 187500.0, 187500.0, -187500.02235174447, 35328.85436163597, -0.088, 0.978, 0.05, 192.0, 0.0, 0.0, 0.0, 0.0, 0.0, 0.0, 0.0, 0.0, 0.0, 1.6989582898612971E9, 0.0, 2023-11-02 16:51:29.861
148.0, -187500.02235174447, 187500.0, 2638.4446189933565, 50280.15974523542, 187500.0, 187500.0, -187500.02235174447, 35327.66971917984, -0.088, 0.978, 0.05, 192.0, 0.0, 0.0, 0.0, 0.0, 0.0, 0.0, 0.0, 0.0, 0.0, 1.698958289861307E9, 0.0, 2023-11-02 16:51:29.861
149.0, -187500.02235174447, 187500.0, 2650.4028022769457, 50263.37358514948, 187500.0, 187500.0, -187500.02235174447, 35339.0914605965, -0.088, 0.978, 0.05, 192.0, 0.0, 0.0, 0.0, 0.0, 0.0, 0.0, 0.0, 0.0, 0.0, 1.6989582898613164E9, 0.0, 2023-11-02 16:51:29.861
150.0, -187500.02235174447, 187500.0, 2653.8449709230626, 50289.10044301754, 187500.0, 187500.0, -187500.02235174447, 35343.67356820984, -0.08600000000000001, 0.986, 0.05, 192.0, 253.0, 80.0, 30.0, 208.0, 1.0, 144.0, 0.0, 0.0, 0.0, 1.6989582898613265E9, 0.0, 2023-11-02 16:51:29.861
151.0, -187500.02235174447, 187500.0, 2644.5242934852, 50313.10621656254, 187500.0, 187500.0, -187500.02235174447, 35336.20808556177, -0.08600000000000001, 0.986, 0.05, 192.0, 0.0, 0.0, 0.0, 0.0, 0.0, 0.0, 0.0, 0.0, 0.0, 1.698958289861359E9, 0.0, 2023-11-02 16:51:29.861
152.0, -187500.02235174447, 187500.0, 2642.3338225285797, 50305.61838217001, 187500.0, 187500.0, -187500.02235174447, 35333.79409716059, -0.08600000000000001, 0.986, 0.05, 192.0, 0.0, 0.0, 0.0, 0.0, 0.0, 0.0, 0.0, 0.0, 0.0, 1.698958289861369E9, 0.0, 2023-11-02 16:51:29.861
153.0, -187500.02235174447, 187500.0, 2655.3425378015686, 50280.38326267997, 187500.0, 187500.0, -187500.02235174447, 35346.91457115586, -0.08600000000000001, 0.986, 0.05, 192.0, 0.0, 0.0, 0.0, 0.0, 0.0, 0.0, 0.0, 0.0, 0.0, 1.6989582898613784E9, 0.0, 2023-11-02 16:51:29.861
154.0, -187500.02235174447, 187500.0, 2661.4669157823228, 50300.16455652292, 187500.0, 187500.0, -187500.02235174447, 35355.00590264868, -0.08600000000000001, 0.986, 0.05, 192.0, 0.0, 0.0, 0.0, 0.0, 0.0, 0.0, 0.0, 0.0, 0.0, 1.698958289861388E9, 0.0, 2023-11-02 16:51:29.861
155.0, -187500.02235174447, 187500.0, 2654.8955029124622, 50331.38994352698, 187500.0, 187500.0, -187500.02235174447, 35349.86500142396, -0.08600000000000001, 0.986, 0.05, 192.0, 0.0, 0.0, 0.0, 0.0, 0.0, 0.0, 0.0, 0.0, 0.0, 1.6989582898613975E9, 0.0, 2023-11-02 16:51:29.861
156.0, -187500.02235174447, 187500.0, 2659.611720992532, 50327.54544348067, 187500.0, 187500.0, -187500.02235174447, 35353.597742747996, -0.08600000000000001, 0.986, 0.05, 192.0, 0.0, 0.0, 0.0, 0.0, 0.0, 0.0, 0.0, 0.0, 0.0, 1.6989582898614073E9, 0.0, 2023-11-02 16:51:29.861
157.0, -187500.02235174447, 187500.0, 2667.658348996443, 50302.31032399063, 187500.0, 187500.0, -187500.02235174447, 35357.41989104985, -0.08600000000000001, 0.986, 0.05, 192.0, 0.0, 0.0, 0.0, 0.0, 0.0, 0.0, 0.0, 0.0, 0.0, 1.698958289861417E9, 0.0, 2023-11-02 16:51:29.861
158.0, -187500.02235174447, 187500.0, 2673.4027473214564, 50290.77682385169, 187500.0, 187500.0, -187500.02235174447, 35359.096271884, -0.08600000000000001, 0.986, 0.05, 192.0, 0.0, 0.0, 0.0, 0.0, 0.0, 0.0, 0.0, 0.0, 0.0, 1.6989582898614268E9, 0.0, 2023-11-02 16:51:29.861
159.0, -187500.02235174447, 187500.0, 2672.173401376415, 50308.25588801574, 187500.0, 187500.0, -187500.02235174447, 35355.676454982335, -0.08600000000000001, 0.986, 0.05, 192.0, 0.0, 0.0, 0.0, 0.0, 0.0, 0.0, 0.0, 0.0, 0.0, 1.6989582898614364E9, 0.0, 2023-11-02 16:51:29.861
160.0, -187500.02235174447, 187500.0, 2666.965444918328, 50300.45512920083, 187500.0, 187500.0, -187500.02235174447, 35348.00980663417, -0.078, 0.982, 0.044, 192.0, 253.0, 144.0, 30.0, 176.0, 1.0, 96.0, 0.0, 0.0, 0.0, 1.698958289861446E9, 0.0, 2023-11-02 16:51:29.861
161.0, -187500.02235174447, 187500.0, 2669.312378086135, 50279.71271034631, 187500.0, 187500.0, -187500.02235174447, 35350.021463635145, -0.078, 0.982, 0.044, 192.0, 0.0, 0.0, 0.0, 0.0, 0.0, 0.0, 0.0, 0.0, 0.0, 1.6989582898614564E9, 0.0, 2023-11-02 16:51:29.861
162.0, -187500.02235174447, 187500.0, 2674.453279310856, 50291.22385874079, 187500.0, 187500.0, -187500.02235174447, 35358.51512652816, -0.078, 0.982, 0.044, 192.0, 0.0, 0.0, 0.0, 0.0, 0.0, 0.0, 0.0, 0.0, 0.0, 1.6989582898614664E9, 0.0, 2023-11-02 16:51:29.861
163.0, -187500.02235174447, 187500.0, 2671.4357938093895, 50321.97985911129, 187500.0, 187500.0, -187500.02235174447, 35358.80569920608, -0.078, 0.982, 0.044, 192.0, 0.0, 0.0, 0.0, 0.0, 0.0, 0.0, 0.0, 0.0, 0.0, 1.6989582898614779E9, 0.0, 2023-11-02 16:51:29.861
164.0, -187500.02235174447, 187500.0, 2670.5640757756323, 50336.3296790516, 187500.0, 187500.0, -187500.02235174447, 35359.588010262014, -0.078, 0.982, 0.044, 192.0, 0.0, 0.0, 0.0, 0.0, 0.0, 0.0, 0.0, 0.0, 0.0, 1.6989582898614876E9, 0.0, 2023-11-02 16:51:29.861
165.0, -187500.02235174447, 187500.0, 2678.9459799463725, 50317.7777311537, 187500.0, 187500.0, -187500.02235174447, 35368.3498940885, -0.078, 0.982, 0.044, 192.0, 0.0, 0.0, 0.0, 0.0, 0.0, 0.0, 0.0, 0.0, 0.0, 1.6989582898614976E9, 0.0, 2023-11-02 16:51:29.861
166.0, -187500.02235174447, 187500.0, 2687.7525672617635, 50308.09942580455, 187500.0, 187500.0, -187500.02235174447, 35376.97766744824, -0.078, 0.982, 0.044, 192.0, 0.0, 0.0, 0.0, 0.0, 0.0, 0.0, 0.0, 0.0, 0.0, 1.698958289861531E9, 0.0, 2023-11-02 16:51:29.861
167.0, -187500.02235174447, 187500.0, 2679.1694973909257, 50326.830187658095, 187500.0, 187500.0, -187500.02235174447, 35368.3498940885, -0.078, 0.982, 0.044, 192.0, 0.0, 0.0, 0.0, 0.0, 0.0, 0.0, 0.0, 0.0, 0.0, 1.6989582898615408E9, 0.0, 2023-11-02 16:51:29.861
168.0, -187500.02235174447, 187500.0, 2673.492154299278, 50335.927347651406, 187500.0, 187500.0, -187500.02235174447, 35359.252734095186, -0.078, 0.982, 0.044, 192.0, 0.0, 0.0, 0.0, 0.0, 0.0, 0.0, 0.0, 0.0, 0.0, 1.6989582898615515E9, 0.0, 2023-11-02 16:51:29.861
169.0, -187500.02235174447, 187500.0, 2671.547552531666, 50315.14022530797, 187500.0, 187500.0, -187500.02235174447, 35355.408234048875, -0.078, 0.982, 0.044, 192.0, 0.0, 0.0, 0.0, 0.0, 0.0, 0.0, 0.0, 0.0, 0.0, 1.6989582898615613E9, 0.0, 2023-11-02 16:51:29.861
170.0, -187500.02235174447, 187500.0, 2676.107308400549, 50293.056701786125, 187500.0, 187500.0, -187500.02235174447, 35356.391710804906, -0.084, 0.982, 0.048, 192.0, 253.0, 96.0, 30.0, 176.0, 1.0, 128.0, 0.0, 0.0, 0.0, 1.698958289861571E9, 0.0, 2023-11-02 16:51:29.861
171.0, -187500.02235174447, 187500.0, 2673.9168374439287, 50313.93323110739, 187500.0, 187500.0, -187500.02235174447, 35352.413100291866, -0.084, 0.982, 0.048, 192.0, 0.0, 0.0, 0.0, 0.0, 0.0, 0.0, 0.0, 0.0, 0.0, 1.698958289861581E9, 0.0, 2023-11-02 16:51:29.861
172.0, -187500.02235174447, 187500.0, 2672.486325798789, 50338.74366745278, 187500.0, 187500.0, -187500.02235174447, 35351.40727179137, -0.084, 0.982, 0.048, 192.0, 0.0, 0.0, 0.0, 0.0, 0.0, 0.0, 0.0, 0.0, 0.0, 1.6989582898615909E9, 0.0, 2023-11-02 16:51:29.861
173.0, -187500.02235174447, 187500.0, 2669.7370612307864, 50322.29278353367, 187500.0, 187500.0, -187500.02235174447, 35347.69688221179, -0.084, 0.982, 0.048, 192.0, 0.0, 0.0, 0.0, 0.0, 0.0, 0.0, 0.0, 0.0, 0.0, 1.6989582898616004E9, 0.0, 2023-11-02 16:51:29.861
174.0, -187500.02235174447, 187500.0, 2675.2802938557024, 50295.917725076404, 187500.0, 187500.0, -187500.02235174447, 35354.067129381554, -0.084, 0.982, 0.048, 192.0, 0.0, 0.0, 0.0, 0.0, 0.0, 0.0, 0.0, 0.0, 0.0, 1.69895828986161E9, 0.0, 2023-11-02 16:51:29.861
175.0, -187500.02235174447, 187500.0, 2677.090785156582, 50309.75345489424, 187500.0, 187500.0, -187500.02235174447, 35356.77169046065, -0.084, 0.982, 0.048, 192.0, 0.0, 0.0, 0.0, 0.0, 0.0, 0.0, 0.0, 0.0, 0.0, 1.6989582898616197E9, 0.0, 2023-11-02 16:51:29.861
176.0, -187500.02235174447, 187500.0, 2672.128697887504, 50332.082847605096, 187500.0, 187500.0, -187500.02235174447, 35351.921361913846, -0.084, 0.982, 0.048, 192.0, 0.0, 0.0, 0.0, 0.0, 0.0, 0.0, 0.0, 0.0, 0.0, 1.6989582898616295E9, 0.0, 2023-11-02 16:51:29.861
177.0, -187500.02235174447, 187500.0, 2675.257942111247, 50326.94194638037, 187500.0, 187500.0, -187500.02235174447, 35353.88831542591, -0.084, 0.982, 0.048, 192.0, 0.0, 0.0, 0.0, 0.0, 0.0, 0.0, 0.0, 0.0, 0.0, 1.698958289861639E9, 0.0, 2023-11-02 16:51:29.861
178.0, -187500.02235174447, 187500.0, 2671.324035087113, 50316.61544044202, 187500.0, 187500.0, -187500.02235174447, 35349.6414839794, -0.084, 0.982, 0.048, 192.0, 0.0, 0.0, 0.0, 0.0, 0.0, 0.0, 0.0, 0.0, 0.0, 1.6989582898616486E9, 0.0, 2023-11-02 16:51:29.861
179.0, -187500.02235174447, 187500.0, 2665.803154206652, 50317.86713813152, 187500.0, 187500.0, -187500.02235174447, 35343.60651297647, -0.084, 0.982, 0.048, 192.0, 0.0, 0.0, 0.0, 0.0, 0.0, 0.0, 0.0, 0.0, 0.0, 1.698958289861658E9, 0.0, 2023-11-02 16:51:29.861
180.0, -187500.02235174447, 187500.0, 2659.0305756366943, 50337.22374882981, 187500.0, 187500.0, -187500.02235174447, 35336.96804487325, -0.08, 0.978, 0.048, 192.0, 253.0, 128.0, 30.0, 144.0, 1.0, 128.0, 0.0, 0.0, 0.0, 1.698958289861668E9, 0.0, 2023-11-02 16:51:29.861
181.0, -187500.02235174447, 187500.0, 2662.9421309163727, 50334.29567030617, 187500.0, 187500.0, -187500.02235174447, 35338.487963496205, -0.08, 0.978, 0.048, 192.0, 0.0, 0.0, 0.0, 0.0, 0.0, 0.0, 0.0, 0.0, 0.0, 1.6989582898616867E9, 0.0, 2023-11-02 16:51:29.861
182.0, -187500.02235174447, 187500.0, 2664.685566983887, 50313.86617587402, 187500.0, 187500.0, -187500.02235174447, 35335.962216372754, -0.08, 0.978, 0.048, 192.0, 0.0, 0.0, 0.0, 0.0, 0.0, 0.0, 0.0, 0.0, 0.0, 1.6989582898616965E9, 0.0, 2023-11-02 16:51:29.861
183.0, -187500.02235174447, 187500.0, 2655.4095930349345, 50309.708751405335, 187500.0, 187500.0, -187500.02235174447, 35325.81452439005, -0.08, 0.978, 0.048, 192.0, 0.0, 0.0, 0.0, 0.0, 0.0, 0.0, 0.0, 0.0, 0.0, 1.6989582898617065E9, 0.0, 2023-11-02 16:51:29.861
184.0, -187500.02235174447, 187500.0, 2646.4688952528113, 50338.14017035248, 187500.0, 187500.0, -187500.02235174447, 35317.097344052476, -0.08, 0.978, 0.048, 192.0, 0.0, 0.0, 0.0, 0.0, 0.0, 0.0, 0.0, 0.0, 0.0, 1.6989582898617177E9, 0.0, 2023-11-02 16:51:29.861
185.0, -187500.02235174447, 187500.0, 2647.2959097976577, 50339.86125467554, 187500.0, 187500.0, -187500.02235174447, 35318.19257953079, -0.08, 0.978, 0.048, 192.0, 0.0, 0.0, 0.0, 0.0, 0.0, 0.0, 0.0, 0.0, 0.0, 1.6989582898617277E9, 0.0, 2023-11-02 16:51:29.861
186.0, -187500.02235174447, 187500.0, 2651.028651121694, 50316.30251601965, 187500.0, 187500.0, -187500.02235174447, 35322.4394109773, -0.08, 0.978, 0.048, 192.0, 0.0, 0.0, 0.0, 0.0, 0.0, 0.0, 0.0, 0.0, 0.0, 1.6989582898617373E9, 0.0, 2023-11-02 16:51:29.861
187.0, -187500.02235174447, 187500.0, 2656.3707180465126, 50314.872004374505, 187500.0, 187500.0, -187500.02235174447, 35328.45203023577, -0.08, 0.978, 0.048, 192.0, 0.0, 0.0, 0.0, 0.0, 0.0, 0.0, 0.0, 0.0, 0.0, 1.6989582898617468E9, 0.0, 2023-11-02 16:51:29.861
188.0, -187500.02235174447, 187500.0, 2654.1802470898924, 50347.19262685688, 187500.0, 187500.0, -187500.02235174447, 35328.67554768033, -0.08, 0.978, 0.048, 192.0, 0.0, 0.0, 0.0, 0.0, 0.0, 0.0, 0.0, 0.0, 0.0, 1.6989582898617568E9, 0.0, 2023-11-02 16:51:29.861
189.0, -187500.02235174447, 187500.0, 2648.033517364683, 50356.37919382801, 187500.0, 187500.0, -187500.02235174447, 35324.160495300355, -0.08, 0.978, 0.048, 192.0, 0.0, 0.0, 0.0, 0.0, 0.0, 0.0, 0.0, 0.0, 0.0, 1.6989582898617668E9, 0.0, 2023-11-02 16:51:29.861
190.0, -187500.02235174447, 187500.0, 2653.66615696742, 50331.501702249254, 187500.0, 187500.0, -187500.02235174447, 35328.004995346666, -0.082, 0.978, 0.046, 192.0, 253.0, 112.0, 30.0, 144.0, 1.0, 112.0, 0.0, 0.0, 0.0, 1.6989582898617764E9, 0.0, 2023-11-02 16:51:29.861
191.0, -187500.02235174447, 187500.0, 2652.5038662557445, 50321.26460328873, 187500.0, 187500.0, -187500.02235174447, 35324.62988193391, -0.082, 0.978, 0.046, 192.0, 0.0, 0.0, 0.0, 0.0, 0.0, 0.0, 0.0, 0.0, 0.0, 1.6989582898617868E9, 0.0, 2023-11-02 16:51:29.861
192.0, -187500.02235174447, 187500.0, 2650.648671465954, 50337.7825424412, 187500.0, 187500.0, -187500.02235174447, 35320.36069874295, -0.082, 0.978, 0.046, 192.0, 0.0, 0.0, 0.0, 0.0, 0.0, 0.0, 0.0, 0.0, 0.0, 1.6989582898617961E9, 0.0, 2023-11-02 16:51:29.861
193.0, -187500.02235174447, 187500.0, 2645.0830870965824, 50357.452077561866, 187500.0, 187500.0, -187500.02235174447, 35314.81746611804, -0.082, 0.978, 0.046, 192.0, 0.0, 0.0, 0.0, 0.0, 0.0, 0.0, 0.0, 0.0, 0.0, 1.698958289861806E9, 0.0, 2023-11-02 16:51:29.861
194.0, -187500.02235174447, 187500.0, 2642.959671373328, 50340.82237968712, 187500.0, 187500.0, -187500.02235174447, 35314.48218995121, -0.082, 0.978, 0.046, 192.0, 0.0, 0.0, 0.0, 0.0, 0.0, 0.0, 0.0, 0.0, 0.0, 1.6989582898618157E9, 0.0, 2023-11-02 16:51:29.861
195.0, -187500.02235174447, 187500.0, 2646.2453778082586, 50318.40357999845, 187500.0, 187500.0, -187500.02235174447, 35317.96906208623, -0.082, 0.978, 0.046, 192.0, 0.0, 0.0, 0.0, 0.0, 0.0, 0.0, 0.0, 0.0, 0.0, 1.6989582898618252E9, 0.0, 2023-11-02 16:51:29.861
196.0, -187500.02235174447, 187500.0, 2646.513598741722, 50340.7329727093, 187500.0, 187500.0, -187500.02235174447, 35320.29364350958, -0.082, 0.978, 0.046, 192.0, 0.0, 0.0, 0.0, 0.0, 0.0, 0.0, 0.0, 0.0, 0.0, 1.6989582898618348E9, 0.0, 2023-11-02 16:51:29.861
197.0, -187500.02235174447, 187500.0, 2640.9256626278952, 50365.25283637677, 187500.0, 187500.0, -187500.02235174447, 35316.382088229904, -0.082, 0.978, 0.046, 192.0, 0.0, 0.0, 0.0, 0.0, 0.0, 0.0, 0.0, 0.0, 0.0, 1.6989582898618536E9, 0.0, 2023-11-02 16:51:29.861
198.0, -187500.02235174447, 187500.0, 2645.3960115189566, 50348.846655946574, 187500.0, 187500.0, -187500.02235174447, 35320.07012606503, -0.082, 0.978, 0.046, 192.0, 0.0, 0.0, 0.0, 0.0, 0.0, 0.0, 0.0, 0.0, 0.0, 1.6989582898618636E9, 0.0, 2023-11-02 16:51:29.861
199.0, -187500.02235174447, 187500.0, 2651.699203455353, 50330.898205148966, 187500.0, 187500.0, -187500.02235174447, 35324.87575112293, -0.082, 0.978, 0.046, 192.0, 0.0, 0.0, 0.0, 0.0, 0.0, 0.0, 0.0, 0.0, 0.0, 1.6989582898618734E9, 0.0, 2023-11-02 16:51:29.861
200.0, -187500.02235174447, 187500.0, 2652.5038662557445, 50339.19070234188, 187500.0, 187500.0, -187500.02235174447, 35323.0876115665, -0.082, 0.976, 0.046, 192.0, 253.0, 112.0, 30.0, 128.0, 1.0, 112.0, 0.0, 0.0, 0.0, 1.6989582898618832E9, 0.0, 2023-11-02 16:51:29.861
201.0, -187500.02235174447, 187500.0, 2663.0538896386493, 50359.754307240764, 187500.0, 187500.0, -187500.02235174447, 35330.97777735922, -0.082, 0.976, 0.046, 192.0, 0.0, 0.0, 0.0, 0.0, 0.0, 0.0, 0.0, 0.0, 0.0, 1.698958289861894E9, 0.0, 2023-11-02 16:51:29.861
202.0, -187500.02235174447, 187500.0, 2664.7973257061635, 50352.713507737346, 187500.0, 187500.0, -187500.02235174447, 35331.13423957041, -0.082, 0.976, 0.046, 192.0, 0.0, 0.0, 0.0, 0.0, 0.0, 0.0, 0.0, 0.0, 0.0, 1.698958289861934E9, 0.0, 2023-11-02 16:51:29.861
203.0, -187500.02235174447, 187500.0, 2676.0179014227274, 50321.53282422219, 187500.0, 187500.0, -187500.02235174447, 35343.18182983182, -0.082, 0.976, 0.046, 192.0, 0.0, 0.0, 0.0, 0.0, 0.0, 0.0, 0.0, 0.0, 0.0, 1.6989582898619444E9, 0.0, 2023-11-02 16:51:29.861
204.0, -187500.02235174447, 187500.0, 2678.9236282019174, 50332.90986214994, 187500.0, 187500.0, -187500.02235174447, 35346.80281243358, -0.082, 0.976, 0.046, 192.0, 0.0, 0.0, 0.0, 0.0, 0.0, 0.0, 0.0, 0.0, 0.0, 1.698958289861956E9, 0.0, 2023-11-02 16:51:29.861
205.0, -187500.02235174447, 187500.0, 2675.10147990006, 50360.20134212987, 187500.0, 187500.0, -187500.02235174447, 35342.60068447598, -0.082, 0.976, 0.046, 192.0, 0.0, 0.0, 0.0, 0.0, 0.0, 0.0, 0.0, 0.0, 0.0, 1.6989582898619852E9, 0.0, 2023-11-02 16:51:29.861
206.0, -187500.02235174447, 187500.0, 2661.6233779935096, 50361.00600493026, 187500.0, 187500.0, -187500.02235174447, 35328.54143721359, -0.082, 0.976, 0.046, 192.0, 0.0, 0.0, 0.0, 0.0, 0.0, 0.0, 0.0, 0.0, 0.0, 1.698958289861996E9, 0.0, 2023-11-02 16:51:29.861
207.0, -187500.02235174447, 187500.0, 2663.411517549934, 50327.54544348067, 187500.0, 187500.0, -187500.02235174447, 35329.90489362537, -0.082, 0.976, 0.046, 192.0, 0.0, 0.0, 0.0, 0.0, 0.0, 0.0, 0.0, 0.0, 0.0, 1.6989582898620062E9, 0.0, 2023-11-02 16:51:29.862
208.0, -187500.02235174447, 187500.0, 2670.6981862423645, 50331.41229527144, 187500.0, 187500.0, -187500.02235174447, 35337.28096929562, -0.082, 0.976, 0.046, 192.0, 0.0, 0.0, 0.0, 0.0, 0.0, 0.0, 0.0, 0.0, 0.0, 1.6989582898620176E9, 0.0, 2023-11-02 16:51:29.862
209.0, -187500.02235174447, 187500.0, 2669.1559158749483, 50366.459830577354, 187500.0, 187500.0, -187500.02235174447, 35336.05162335058, -0.082, 0.976, 0.046, 192.0, 0.0, 0.0, 0.0, 0.0, 0.0, 0.0, 0.0, 0.0, 0.0, 1.698958289862028E9, 0.0, 2023-11-02 16:51:29.862
210.0, -187500.02235174447, 187500.0, 2661.4669157823228, 50369.20909514536, 187500.0, 187500.0, -187500.02235174447, 35328.45203023577, -0.082, 0.98, 0.054, 192.0, 253.0, 112.0, 30.0, 160.0, 1.0, 176.0, 0.0, 0.0, 0.0, 1.698958289862039E9, 0.0, 2023-11-02 16:51:29.862
211.0, -187500.02235174447, 187500.0, 2662.875075683007, 50332.3287167941, 187500.0, 187500.0, -187500.02235174447, 35329.23434129171, -0.082, 0.98, 0.054, 192.0, 0.0, 0.0, 0.0, 0.0, 0.0, 0.0, 0.0, 0.0, 0.0, 1.698958289862051E9, 0.0, 2023-11-02 16:51:29.862
212.0, -187500.02235174447, 187500.0, 2664.730270472797, 50319.78938815468, 187500.0, 187500.0, -187500.02235174447, 35334.26348379415, -0.082, 0.98, 0.054, 192.0, 0.0, 0.0, 0.0, 0.0, 0.0, 0.0, 0.0, 0.0, 0.0, 1.6989582898620956E9, 0.0, 2023-11-02 16:51:29.862
213.0, -187500.02235174447, 187500.0, 2662.472744282811, 50334.809760428645, 187500.0, 187500.0, -187500.02235174447, 35334.79992566108, -0.082, 0.98, 0.054, 192.0, 0.0, 0.0, 0.0, 0.0, 0.0, 0.0, 0.0, 0.0, 0.0, 1.698958289862107E9, 0.0, 2023-11-02 16:51:29.862
214.0, -187500.02235174447, 187500.0, 2661.578674504599, 50332.284013305194, 187500.0, 187500.0, -187500.02235174447, 35335.17990531682, -0.082, 0.98, 0.054, 192.0, 0.0, 0.0, 0.0, 0.0, 0.0, 0.0, 0.0, 0.0, 0.0, 1.6989582898621194E9, 0.0, 2023-11-02 16:51:29.862
215.0, -187500.02235174447, 187500.0, 2665.356119317546, 50291.91676281891, 187500.0, 187500.0, -187500.02235174447, 35338.4432600073, -0.082, 0.98, 0.054, 192.0, 0.0, 0.0, 0.0, 0.0, 0.0, 0.0, 0.0, 0.0, 0.0, 1.6989582898621316E9, 0.0, 2023-11-02 16:51:29.862
216.0, -187500.02235174447, 187500.0, 2664.5961600060655, 50261.58544559305, 187500.0, 187500.0, -187500.02235174447, 35335.403422761374, -0.082, 0.98, 0.054, 192.0, 0.0, 0.0, 0.0, 0.0, 0.0, 0.0, 0.0, 0.0, 0.0, 1.6989582898621464E9, 0.0, 2023-11-02 16:51:29.862
217.0, -187500.02235174447, 187500.0, 2668.641825752476, 50256.73511704626, 187500.0, 187500.0, -187500.02235174447, 35336.63276870642, -0.082, 0.98, 0.054, 192.0, 0.0, 0.0, 0.0, 0.0, 0.0, 0.0, 0.0, 0.0, 0.0, 1.6989582898621602E9, 0.0, 2023-11-02 16:51:29.862
218.0, -187500.02235174447, 187500.0, 2665.4008228064567, 50270.23557069726, 187500.0, 187500.0, -187500.02235174447, 35332.832972149015, -0.082, 0.98, 0.054, 192.0, 0.0, 0.0, 0.0, 0.0, 0.0, 0.0, 0.0, 0.0, 0.0, 1.6989582898621762E9, 0.0, 2023-11-02 16:51:29.862
219.0, -187500.02235174447, 187500.0, 2653.576749989599, 50244.08402968455, 187500.0, 187500.0, -187500.02235174447, 35323.15466679986, -0.08600000000000001, 0.976, 0.044, 192.0, 253.0, 80.0, 30.0, 128.0, 1.0, 96.0, 0.0, 0.0, 0.0, 1.6989582898621955E9, 0.0, 2023-11-02 16:51:29.862
220.0, -187500.02235174447, 187500.0, 2649.709898198831, 50213.81976769207, 187500.0, 187500.0, -187500.02235174447, 35321.52298945463, -0.08600000000000001, 0.976, 0.044, 192.0, 0.0, 0.0, 0.0, 0.0, 0.0, 0.0, 0.0, 0.0, 0.0, 1.6989582898622131E9, 0.0, 2023-11-02 16:51:29.862
221.0, -187500.02235174447, 187500.0, 2636.678831181387, 50219.27359333916, 187500.0, 187500.0, -187500.02235174447, 35312.58229167251, -0.08600000000000001, 0.976, 0.044, 192.0, 0.0, 0.0, 0.0, 0.0, 0.0, 0.0, 0.0, 0.0, 0.0, 1.6989582898622272E9, 0.0, 2023-11-02 16:51:29.862
222.0, -187500.02235174447, 187500.0, 2619.870319350996, 50213.9538781588, 187500.0, 187500.0, -187500.02235174447, 35299.5288729106, -0.08600000000000001, 0.976, 0.044, 192.0, 0.0, 0.0, 0.0, 0.0, 0.0, 0.0, 0.0, 0.0, 0.0, 1.698958289862244E9, 0.0, 2023-11-02 16:51:29.862
223.0, -187500.02235174447, 187500.0, 2607.0851215225603, 50180.023930075644, 187500.0, 187500.0, -187500.02235174447, 35287.88361404939, -0.08600000000000001, 0.976, 0.044, 192.0, 0.0, 0.0, 0.0, 0.0, 0.0, 0.0, 0.0, 0.0, 0.0, 1.69895828986226E9, 0.0, 2023-11-02 16:51:29.862
224.0, -187500.02235174447, 187500.0, 2604.9840575437615, 50127.653792816855, 187500.0, 187500.0, -187500.02235174447, 35287.81655881603, -0.08600000000000001, 0.976, 0.044, 192.0, 0.0, 0.0, 0.0, 0.0, 0.0, 0.0, 0.0, 0.0, 0.0, 1.698958289862279E9, 0.0, 2023-11-02 16:51:29.862
225.0, -187500.02235174447, 187500.0, 2603.710008109809, 50128.65962131735, 187500.0, 187500.0, -187500.02235174447, 35288.06242800503, -0.08600000000000001, 0.976, 0.044, 192.0, 0.0, 0.0, 0.0, 0.0, 0.0, 0.0, 0.0, 0.0, 0.0, 1.698958289862294E9, 0.0, 2023-11-02 16:51:29.862
226.0, -187500.02235174447, 187500.0, 2590.3213131810803, 50142.65181334637, 187500.0, 187500.0, -187500.02235174447, 35273.757311553636, -0.08600000000000001, 0.976, 0.044, 192.0, 0.0, 0.0, 0.0, 0.0, 0.0, 0.0, 0.0, 0.0, 0.0, 1.6989582898623116E9, 0.0, 2023-11-02 16:51:29.862
227.0, -187500.02235174447, 187500.0, 2578.005501986206, 50122.80346427005, 187500.0, 187500.0, -187500.02235174447, 35261.06152070302, -0.08600000000000001, 0.976, 0.044, 192.0, 0.0, 0.0, 0.0, 0.0, 0.0, 0.0, 0.0, 0.0, 0.0, 1.698958289862415E9, 0.0, 2023-11-02 16:51:29.862
228.0, -187500.02235174447, 187500.0, 2588.9578567693065, 50094.1261761339, 187500.0, 187500.0, -187500.02235174447, 35271.857413274935, -0.08600000000000001, 0.976, 0.044, 192.0, 0.0, 0.0, 0.0, 0.0, 0.0, 0.0, 0.0, 0.0, 0.0, 1.698958289862428E9, 0.0, 2023-11-02 16:51:29.862
229.0, -187500.02235174447, 187500.0, 2587.527345124167, 50095.31081859003, 187500.0, 187500.0, -187500.02235174447, 35271.63389583038, -0.088, 0.97, 0.044, 192.0, 253.0, 64.0, 30.0, 80.0, 1.0, 96.0, 0.0, 0.0, 0.0, 1.6989582898624392E9, 0.0, 2023-11-02 16:51:29.862
230.0, -187500.02235174447, 187500.0, 2583.325217166569, 50112.275792631604, 187500.0, 187500.0, -187500.02235174447, 35269.21990742921, -0.088, 0.97, 0.044, 192.0, 0.0, 0.0, 0.0, 0.0, 0.0, 0.0, 0.0, 0.0, 0.0, 1.6989582898624575E9, 0.0, 2023-11-02 16:51:29.862
231.0, -187500.02235174447, 187500.0, 2578.005501986206, 50113.9298217213, 187500.0, 187500.0, -187500.02235174447, 35265.59892482745, -0.088, 0.97, 0.044, 192.0, 0.0, 0.0, 0.0, 0.0, 0.0, 0.0, 0.0, 0.0, 0.0, 1.6989582898624775E9, 0.0, 2023-11-02 16:51:29.862
232.0, -187500.02235174447, 187500.0, 2579.36895839798, 50084.939609162764, 187500.0, 187500.0, -187500.02235174447, 35265.151889938345, -0.088, 0.97, 0.044, 192.0, 0.0, 0.0, 0.0, 0.0, 0.0, 0.0, 0.0, 0.0, 0.0, 1.6989582898624938E9, 0.0, 2023-11-02 16:51:29.862
233.0, -187500.02235174447, 187500.0, 2577.2231909302704, 50075.68598695827, 187500.0, 187500.0, -187500.02235174447, 35260.92741023629, -0.088, 0.97, 0.044, 192.0, 0.0, 0.0, 0.0, 0.0, 0.0, 0.0, 0.0, 0.0, 0.0, 1.6989582898625095E9, 0.0, 2023-11-02 16:51:29.862
234.0, -187424.96519386355, 187500.0, 2567.1202024364716, 50094.7743767231, 187500.0, 187500.0, -187500.02235174447, 35252.18787815427, -0.088, 0.97, 0.044, 192.0, 0.0, 0.0, 0.0, 0.0, 0.0, 0.0, 0.0, 0.0, 0.0, 1.69895828986256E9, 0.0, 2023-11-02 16:51:29.862
235.0, -187017.62700291004, 187500.0, 2561.778135511653, 50088.98527490917, 187500.0, 187500.0, -187500.02235174447, 35246.287017618066, -0.088, 0.97, 0.044, 192.0, 0.0, 0.0, 0.0, 0.0, 0.0, 0.0, 0.0, 0.0, 0.0, 1.698958289862578E9, 0.0, 2023-11-02 16:51:29.862
236.0, -186852.67112882985, 187500.0, 2574.6080368289995, 50057.42461173828, 187500.0, 187500.0, -187500.02235174447, 35257.77581426809, -0.088, 0.97, 0.044, 192.0, 0.0, 0.0, 0.0, 0.0, 0.0, 0.0, 0.0, 0.0, 0.0, 1.6989582898626149E9, 0.0, 2023-11-02 16:51:29.862
237.0, -186793.8413374235, 187500.0, 2586.677978834865, 50050.897902357334, 187500.0, 187500.0, -187500.02235174447, 35267.90115450635, -0.088, 0.97, 0.044, 192.0, 0.0, 0.0, 0.0, 0.0, 0.0, 0.0, 0.0, 0.0, 0.0, 1.6989582898626373E9, 0.0, 2023-11-02 16:51:29.862
238.0, -186567.35111085788, 187500.0, 2598.65851386291, 50077.83175442598, 187500.0, 187500.0, -187500.02235174447, 35276.774797055106, -0.088, 0.97, 0.044, 192.0, 0.0, 0.0, 0.0, 0.0, 0.0, 0.0, 0.0, 0.0, 0.0, 1.6989582898626528E9, 0.0, 2023-11-02 16:51:29.862
239.0, -186210.12553097316, 187500.0, 2592.645894604432, 50093.36621682242, 187500.0, 187500.0, -187500.02235174447, 35269.197555684754, -0.088, 0.978, 0.044, 192.0, 253.0, 64.0, 30.0, 144.0, 1.0, 96.0, 0.0, 0.0, 0.0, 1.698958289862667E9, 0.0, 2023-11-02 16:51:29.862
240.0, -186025.90245317252, 187500.0, 2590.9471620258287, 50067.594655465444, 187500.0, 187500.0, -187500.02235174447, 35267.61058182843, -0.088, 0.978, 0.044, 192.0, 0.0, 0.0, 0.0, 0.0, 0.0, 0.0, 0.0, 0.0, 0.0, 1.6989582898627017E9, 0.0, 2023-11-02 16:51:29.862
241.0, -185985.22227826386, 187500.0, 2597.3397609400467, 50056.93287336027, 187500.0, 187500.0, -187500.02235174447, 35275.61250634343, -0.088, 0.978, 0.044, 192.0, 0.0, 0.0, 0.0, 0.0, 0.0, 0.0, 0.0, 0.0, 0.0, 1.6989582898627238E9, 0.0, 2023-11-02 16:51:29.862
242.0, -185739.37544099992, 187500.0, 2592.9141155378957, 50088.8735161869, 187500.0, 187500.0, -187500.02235174447, 35273.60084934245, -0.088, 0.978, 0.044, 192.0, 0.0, 0.0, 0.0, 0.0, 0.0, 0.0, 0.0, 0.0, 0.0, 1.6989582898628309E9, 0.0, 2023-11-02 16:51:29.862
243.0, -185251.9285979186, 187500.0, 2581.5147258656893, 50107.380760595894, 187500.0, 187500.0, -187500.02235174447, 35262.8720120039, -0.088, 0.978, 0.044, 192.0, 0.0, 0.0, 0.0, 0.0, 0.0, 0.0, 0.0, 0.0, 0.0, 1.698958289862848E9, 0.0, 2023-11-02 16:51:29.862
244.0, -184857.42030828242, 187500.0, 2573.7139670507872, 50086.01249289662, 187500.0, 187500.0, -187500.02235174447, 35254.89243923336, -0.088, 0.978, 0.044, 192.0, 0.0, 0.0, 0.0, 0.0, 0.0, 0.0, 0.0, 0.0, 0.0, 1.6989582898628669E9, 0.0, 2023-11-02 16:51:29.862
245.0, -184665.37411992243, 187500.0, 2575.2115339292927, 50061.38087050687, 187500.0, 187500.0, -187500.02235174447, 35256.30059913404, -0.088, 0.978, 0.044, 192.0, 0.0, 0.0, 0.0, 0.0, 0.0, 0.0, 0.0, 0.0, 0.0, 1.6989582898628795E9, 0.0, 2023-11-02 16:51:29.862
246.0, -184478.80410895398, 187500.0, 2578.2513711752144, 50074.85897241342, 187500.0, 187500.0, -187500.02235174447, 35258.871049746405, -0.088, 0.978, 0.044, 192.0, 0.0, 0.0, 0.0, 0.0, 0.0, 0.0, 0.0, 0.0, 0.0, 1.6989582898628929E9, 0.0, 2023-11-02 16:51:29.862
247.0, -184213.3324400583, 187500.0, 2579.8830485204517, 50094.796728467554, 187500.0, 187500.0, -187500.02235174447, 35259.54160208006, -0.088, 0.978, 0.044, 192.0, 0.0, 0.0, 0.0, 0.0, 0.0, 0.0, 0.0, 0.0, 0.0, 1.6989582898629055E9, 0.0, 2023-11-02 16:51:29.862
248.0, -184086.06160712978, 187500.0, 2585.94037126784, 50081.29627481655, 187500.0, 187500.0, -187500.02235174447, 35263.69902654875, -0.088, 0.978, 0.044, 192.0, 0.0, 0.0, 0.0, 0.0, 0.0, 0.0, 0.0, 0.0, 0.0, 1.6989582898629236E9, 0.0, 2023-11-02 16:51:29.862
249.0, -184140.53280836737, 187500.0, 2590.5001271367228, 50057.893998371845, 187500.0, 187500.0, -187500.02235174447, 35265.017779471615, -0.082, 0.984, 0.046, 192.0, 253.0, 112.0, 30.0, 192.0, 1.0, 112.0, 0.0, 0.0, 0.0, 1.6989582898629427E9, 0.0, 2023-11-02 16:51:29.862
250.0, -184189.77370140242, 187500.0, 2600.13372899696, 50060.28563502856, 187500.0, 187500.0, -187500.02235174447, 35272.483262119684, -0.082, 0.984, 0.046, 192.0, 0.0, 0.0, 0.0, 0.0, 0.0, 0.0, 0.0, 0.0, 0.0, 1.6989582898629591E9, 0.0, 2023-11-02 16:51:29.862
251.0, -184103.7641887384, 187500.0, 2603.911173809907, 50085.31958881851, 187500.0, 187500.0, -187500.02235174447, 35275.05371273204, -0.082, 0.984, 0.046, 192.0, 0.0, 0.0, 0.0, 0.0, 0.0, 0.0, 0.0, 0.0, 0.0, 1.6989582898629715E9, 0.0, 2023-11-02 16:51:29.862
252.0, -184051.70697590197, 187500.0, 2606.8616040780075, 50083.754966706634, 187500.0, 187500.0, -187500.02235174447, 35278.54058486707, -0.082, 0.984, 0.046, 192.0, 0.0, 0.0, 0.0, 0.0, 0.0, 0.0, 0.0, 0.0, 0.0, 1.698958289862991E9, 0.0, 2023-11-02 16:51:29.862
253.0, -184170.9311808266, 187500.0, 2605.676961621876, 50061.98436760716, 187500.0, 187500.0, -187500.02235174447, 35277.28888717757, -0.082, 0.984, 0.046, 192.0, 0.0, 0.0, 0.0, 0.0, 0.0, 0.0, 0.0, 0.0, 0.0, 1.6989582902778716E9, 0.0, 2023-11-02 16:51:30.277
254.0, -184322.43130474465, 187500.0, 2611.197842502337, 50059.03393733907, 187500.0, 187500.0, -187500.02235174447, 35285.06729424802, -0.082, 0.984, 0.046, 192.0, 0.0, 0.0, 0.0, 0.0, 0.0, 0.0, 0.0, 0.0, 0.0, 1.6989582902779922E9, 0.0, 2023-11-02 16:51:30.277
255.0, -184316.86572037527, 187500.0, 2607.979191300773, 50087.890039430866, 187500.0, 187500.0, -187500.02235174447, 35285.13434948139, -0.082, 0.984, 0.046, 192.0, 0.0, 0.0, 0.0, 0.0, 0.0, 0.0, 0.0, 0.0, 0.0, 1.6989582902780123E9, 0.0, 2023-11-02 16:51:30.278
0.0, -184299.83369110033, 187500.0, 2612.7624646142085, 50092.18157436628, 187500.0, 187500.0, -187500.02235174447, 35289.67175360581, -0.082, 0.984, 0.046, 192.0, 0.0, 0.0, 0.0, 0.0, 0.0, 0.0, 0.0, 0.0, 0.0, 1.6989582902780302E9, 0.0, 2023-11-02 16:51:30.278
1.0, -184460.9897686231, 187500.0, 2619.713857139809, 50075.48482125817, 187500.0, 187500.0, -187500.02235174447, 35294.49973040816, -0.082, 0.984, 0.046, 192.0, 0.0, 0.0, 0.0, 0.0, 0.0, 0.0, 0.0, 0.0, 0.0, 1.698958290278054E9, 0.0, 2023-11-02 16:51:30.278
2.0, -184653.37123314993, 187500.0, 2623.1560257859264, 50076.80357418103, 187500.0, 187500.0, -187500.02235174447, 35297.740733354185, -0.082, 0.984, 0.046, 192.0, 0.0, 0.0, 0.0, 0.0, 0.0, 0.0, 0.0, 0.0, 0.0, 1.6989582902782965E9, 0.0, 2023-11-02 16:51:30.278
3.0, -184694.61020166997, 187500.0, 2632.18613054587, 50104.92206870581, 187500.0, 187500.0, -187500.02235174447, 35306.2343962472, -0.08, 0.98, 0.048, 192.0, 253.0, 128.0, 30.0, 160.0, 1.0, 128.0, 0.0, 0.0, 0.0, 1.698958290278308E9, 0.0, 2023-11-02 16:51:30.278
4.0, -184686.42946319934, 187500.0, 2638.064639337616, 50120.657696802344, 187500.0, 187500.0, -187500.02235174447, 35312.64934690587, -0.08, 0.98, 0.048, 192.0, 0.0, 0.0, 0.0, 0.0, 0.0, 0.0, 0.0, 0.0, 0.0, 1.6989582902783568E9, 0.0, 2023-11-02 16:51:30.278
5.0, -184829.5700346911, 187500.0, 2639.651613193943, 50108.00660944064, 187500.0, 187500.0, -187500.02235174447, 35311.50940793865, -0.08, 0.98, 0.048, 192.0, 0.0, 0.0, 0.0, 0.0, 0.0, 0.0, 0.0, 0.0, 0.0, 1.6989582902783675E9, 0.0, 2023-11-02 16:51:30.278
6.0, -185055.16619147852, 187500.0, 2641.037421350172, 50090.95222842124, 187500.0, 187500.0, -187500.02235174447, 35310.48122769371, -0.08, 0.98, 0.048, 192.0, 0.0, 0.0, 0.0, 0.0, 0.0, 0.0, 0.0, 0.0, 0.0, 1.6989582902783785E9, 0.0, 2023-11-02 16:51:30.278
7.0, -185148.03768969033, 187500.0, 2636.701182925842, 50112.05227518705, 187500.0, 187500.0, -187500.02235174447, 35307.35198346996, -0.08, 0.98, 0.048, 192.0, 0.0, 0.0, 0.0, 0.0, 0.0, 0.0, 0.0, 0.0, 0.0, 1.698958290278412E9, 0.0, 2023-11-02 16:51:30.278
8.0, -185139.81224773076, 187500.0, 2629.3474590000465, 50123.764589281636, 187500.0, 187500.0, -187500.02235174447, 35299.21594848823, -0.08, 0.98, 0.048, 192.0, 0.0, 0.0, 0.0, 0.0, 0.0, 0.0, 0.0, 0.0, 0.0, 1.6989582902784238E9, 0.0, 2023-11-02 16:51:30.278
9.0, -185274.79443249636, 187500.0, 2636.9470521148505, 50104.184461138786, 187500.0, 187500.0, -187500.02235174447, 35305.09445727998, -0.08, 0.98, 0.048, 192.0, 0.0, 0.0, 0.0, 0.0, 0.0, 0.0, 0.0, 0.0, 0.0, 1.6989582902784348E9, 0.0, 2023-11-02 16:51:30.278
10.0, -185527.10092390788, 187500.0, 2644.2784242961916, 50097.27777210209, 187500.0, 187500.0, -187500.02235174447, 35310.63768990489, -0.08, 0.98, 0.048, 192.0, 0.0, 0.0, 0.0, 0.0, 0.0, 0.0, 0.0, 0.0, 0.0, 1.6989582902784555E9, 0.0, 2023-11-02 16:51:30.278
11.0, -185673.75071927914, 187500.0, 2648.078220853594, 50117.21552815623, 187500.0, 187500.0, -187500.02235174447, 35313.92339633982, -0.08, 0.98, 0.048, 192.0, 0.0, 0.0, 0.0, 0.0, 0.0, 0.0, 0.0, 0.0, 0.0, 1.6989582902784684E9, 0.0, 2023-11-02 16:51:30.278
12.0, -185671.1355651779, 187500.0, 2643.138485328971, 50143.747048824676, 187500.0, 187500.0, -187500.02235174447, 35308.916605581835, -0.08, 0.98, 0.048, 192.0, 0.0, 0.0, 0.0, 0.0, 0.0, 0.0, 0.0, 0.0, 0.0, 1.6989582902784984E9, 0.0, 2023-11-02 16:51:30.278
5.0, -187500.02235174447, 187500.0, 2665.3114158286353, 50192.71972092625, 187500.0, 187500.0, -187500.02235174447, 35260.90505849184, -0.094, 0.98, 0.034, 192.0, 253.0, 16.0, 30.0, 160.0, 1.0, 16.0, 0.0, 0.0, 0.0, 1.69895829027868E9, 0.0, 2023-11-02 16:51:30.278
6.0, -187500.02235174447, 187500.0, 2658.494133769767, 50212.389256046925, 187500.0, 187500.0, -187500.02235174447, 35255.920619478304, -0.094, 0.98, 0.034, 192.0, 0.0, 0.0, 0.0, 0.0, 0.0, 0.0, 0.0, 0.0, 0.0, 1.6989582902787051E9, 0.0, 2023-11-02 16:51:30.278
7.0, -187500.02235174447, 187500.0, 2657.130677357993, 50204.45438676529, 187500.0, 187500.0, -187500.02235174447, 35253.126651421386, -0.094, 0.98, 0.034, 192.0, 0.0, 0.0, 0.0, 0.0, 0.0, 0.0, 0.0, 0.0, 0.0, 1.6989582902787209E9, 0.0, 2023-11-02 16:51:30.278
8.0, -187500.02235174447, 187500.0, 2657.0859738690824, 50183.242581277205, 187500.0, 187500.0, -187500.02235174447, 35250.958532209224, -0.094, 0.98, 0.034, 192.0, 0.0, 0.0, 0.0, 0.0, 0.0, 0.0, 0.0, 0.0, 0.0, 1.698958290278741E9, 0.0, 2023-11-02 16:51:30.278
9.0, -187500.02235174447, 187500.0, 2657.4659535248225, 50189.389311002415, 187500.0, 187500.0, -187500.02235174447, 35250.37738685338, -0.094, 0.98, 0.034, 192.0, 0.0, 0.0, 0.0, 0.0, 0.0, 0.0, 0.0, 0.0, 0.0, 1.698958290278806E9, 0.0, 2023-11-02 16:51:30.278
10.0, -187500.02235174447, 187500.0, 2656.638938979976, 50206.06371236607, 187500.0, 187500.0, -187500.02235174447, 35249.706834519726, -0.094, 0.98, 0.034, 192.0, 0.0, 0.0, 0.0, 0.0, 0.0, 0.0, 0.0, 0.0, 0.0, 1.6989582902788284E9, 0.0, 2023-11-02 16:51:30.278
11.0, -187500.02235174447, 187500.0, 2657.1753808469034, 50207.69538971131, 187500.0, 187500.0, -187500.02235174447, 35249.46096533072, -0.094, 0.98, 0.034, 192.0, 0.0, 0.0, 0.0, 0.0, 0.0, 0.0, 0.0, 0.0, 0.0, 1.6989582902788455E9, 0.0, 2023-11-02 16:51:30.278
12.0, -187500.02235174447, 187500.0, 2658.807058192141, 50189.34460751351, 187500.0, 187500.0, -187500.02235174447, 35247.98575019667, -0.094, 0.98, 0.034, 192.0, 0.0, 0.0, 0.0, 0.0, 0.0, 0.0, 0.0, 0.0, 0.0, 1.6989582902788632E9, 0.0, 2023-11-02 16:51:30.278
13.0, -187500.02235174447, 187500.0, 2654.515523256722, 50180.96270334276, 187500.0, 187500.0, -187500.02235174447, 35242.62133152739, -0.094, 0.98, 0.034, 192.0, 0.0, 0.0, 0.0, 0.0, 0.0, 0.0, 0.0, 0.0, 0.0, 1.6989582902788804E9, 0.0, 2023-11-02 16:51:30.278
14.0, -187500.02235174447, 187500.0, 2646.2453778082586, 50196.43011050583, 187500.0, 187500.0, -187500.02235174447, 35234.395889567844, -0.094, 0.98, 0.034, 192.0, 0.0, 0.0, 0.0, 0.0, 0.0, 0.0, 0.0, 0.0, 0.0, 1.6989582902788928E9, 0.0, 2023-11-02 16:51:30.278
15.0, -187500.02235174447, 187500.0, 2644.233720807281, 50200.96751463026, 187500.0, 187500.0, -187500.02235174447, 35234.30648259002, -0.096, 0.982, 0.034, 192.0, 253.0, 0.0, 30.0, 176.0, 1.0, 16.0, 0.0, 0.0, 0.0, 1.6989582902789063E9, 0.0, 2023-11-02 16:51:30.278
16.0, -187500.02235174447, 187500.0, 2636.164741058915, 50186.01419758966, 187500.0, 187500.0, -187500.02235174447, 35226.32690981947, -0.096, 0.982, 0.034, 192.0, 0.0, 0.0, 0.0, 0.0, 0.0, 0.0, 0.0, 0.0, 0.0, 1.698958290278924E9, 0.0, 2023-11-02 16:51:30.278
17.0, -187500.02235174447, 187500.0, 2631.2697090232027, 50168.37867121443, 187500.0, 187500.0, -187500.02235174447, 35220.202531838724, -0.096, 0.982, 0.034, 192.0, 0.0, 0.0, 0.0, 0.0, 0.0, 0.0, 0.0, 0.0, 0.0, 1.6989582902789378E9, 0.0, 2023-11-02 16:51:30.278
18.0, -187500.02235174447, 187500.0, 2627.8945956104512, 50184.24840977769, 187500.0, 187500.0, -187500.02235174447, 35216.425087025775, -0.096, 0.982, 0.034, 192.0, 0.0, 0.0, 0.0, 0.0, 0.0, 0.0, 0.0, 0.0, 0.0, 1.6989582902789536E9, 0.0, 2023-11-02 16:51:30.278
19.0, -187500.02235174447, 187500.0, 2626.8664153655072, 50196.43011050583, 187500.0, 187500.0, -187500.02235174447, 35216.49214225914, -0.096, 0.982, 0.034, 192.0, 0.0, 0.0, 0.0, 0.0, 0.0, 0.0, 0.0, 0.0, 0.0, 1.698958290278974E9, 0.0, 2023-11-02 16:51:30.278
20.0, -187500.02235174447, 187500.0, 2631.448522978845, 50179.71100565327, 187500.0, 187500.0, -187500.02235174447, 35221.90126441733, -0.096, 0.982, 0.034, 192.0, 0.0, 0.0, 0.0, 0.0, 0.0, 0.0, 0.0, 0.0, 0.0, 1.69895829027899E9, 0.0, 2023-11-02 16:51:30.278
21.0, -187500.02235174447, 187500.0, 2630.219177033803, 50173.02783406113, 187500.0, 187500.0, -187500.02235174447, 35219.95666264971, -0.096, 0.982, 0.034, 192.0, 0.0, 0.0, 0.0, 0.0, 0.0, 0.0, 0.0, 0.0, 0.0, 1.6989582902790031E9, 0.0, 2023-11-02 16:51:30.279
22.0, -187500.02235174447, 187500.0, 2632.90138636844, 50190.64100869191, 187500.0, 187500.0, -187500.02235174447, 35220.80602893901, -0.096, 0.982, 0.034, 192.0, 0.0, 0.0, 0.0, 0.0, 0.0, 0.0, 0.0, 0.0, 0.0, 1.698958290279019E9, 0.0, 2023-11-02 16:51:30.279
23.0, -187500.02235174447, 187500.0, 2635.293023025158, 50214.17739560335, 187500.0, 187500.0, -187500.02235174447, 35222.95179640673, -0.096, 0.982, 0.034, 192.0, 0.0, 0.0, 0.0, 0.0, 0.0, 0.0, 0.0, 0.0, 0.0, 1.6989582902790363E9, 0.0, 2023-11-02 16:51:30.279
24.0, -187500.02235174447, 187500.0, 2634.801284647141, 50196.27364829465, 187500.0, 187500.0, -187500.02235174447, 35220.5154562611, -0.096, 0.982, 0.034, 192.0, 0.0, 0.0, 0.0, 0.0, 0.0, 0.0, 0.0, 0.0, 0.0, 1.698958290279117E9, 0.0, 2023-11-02 16:51:30.279
25.0, -187500.02235174447, 187500.0, 2641.1268283279933, 50175.88885735141, 187500.0, 187500.0, -187500.02235174447, 35224.69523247424, -0.094, 0.978, 0.04, 192.0, 253.0, 16.0, 30.0, 144.0, 1.0, 64.0, 0.0, 0.0, 0.0, 1.6989582902791326E9, 0.0, 2023-11-02 16:51:30.279
26.0, -187500.02235174447, 187500.0, 2645.6642324524205, 50192.116223825964, 187500.0, 187500.0, -187500.02235174447, 35229.009119154114, -0.094, 0.978, 0.04, 192.0, 0.0, 0.0, 0.0, 0.0, 0.0, 0.0, 0.0, 0.0, 0.0, 1.6989582902791495E9, 0.0, 2023-11-02 16:51:30.279
27.0, -187500.02235174447, 187500.0, 2643.004374862239, 50216.61373574898, 187500.0, 187500.0, -187500.02235174447, 35227.24333134214, -0.094, 0.978, 0.04, 192.0, 0.0, 0.0, 0.0, 0.0, 0.0, 0.0, 0.0, 0.0, 0.0, 1.6989582902792027E9, 0.0, 2023-11-02 16:51:30.279
28.0, -187500.02235174447, 187500.0, 2647.0053371197387, 50213.81976769207, 187500.0, 187500.0, -187500.02235174447, 35229.90318893232, -0.094, 0.978, 0.04, 192.0, 0.0, 0.0, 0.0, 0.0, 0.0, 0.0, 0.0, 0.0, 0.0, 1.6989582902792304E9, 0.0, 2023-11-02 16:51:30.279
29.0, -187500.02235174447, 187500.0, 2646.491246997267, 50191.4456714923, 187500.0, 187500.0, -187500.02235174447, 35230.327872076974, -0.094, 0.978, 0.04, 192.0, 0.0, 0.0, 0.0, 0.0, 0.0, 0.0, 0.0, 0.0, 0.0, 1.69895829027925E9, 0.0, 2023-11-02 16:51:30.279
30.0, -187500.02235174447, 187500.0, 2645.9548051303395, 50197.905325639884, 187500.0, 187500.0, -187500.02235174447, 35231.9148459333, -0.094, 0.978, 0.04, 192.0, 0.0, 0.0, 0.0, 0.0, 0.0, 0.0, 0.0, 0.0, 0.0, 1.6989582902792711E9, 0.0, 2023-11-02 16:51:30.279
31.0, -187500.02235174447, 187500.0, 2646.6477092084538, 50223.90040444141, 187500.0, 187500.0, -187500.02235174447, 35232.89832268933, -0.094, 0.978, 0.04, 192.0, 0.0, 0.0, 0.0, 0.0, 0.0, 0.0, 0.0, 0.0, 0.0, 1.6989582902792892E9, 0.0, 2023-11-02 16:51:30.279
32.0, -187500.02235174447, 187500.0, 2652.1909418333703, 50218.692447983325, 187500.0, 187500.0, -187500.02235174447, 35238.55331403653, -0.094, 0.978, 0.04, 192.0, 0.0, 0.0, 0.0, 0.0, 0.0, 0.0, 0.0, 0.0, 0.0, 1.698958290279307E9, 0.0, 2023-11-02 16:51:30.279
33.0, -187500.02235174447, 187500.0, 2652.5262180001996, 50200.63223846343, 187500.0, 187500.0, -187500.02235174447, 35241.794316982545, -0.094, 0.978, 0.04, 192.0, 0.0, 0.0, 0.0, 0.0, 0.0, 0.0, 0.0, 0.0, 0.0, 1.698958290279326E9, 0.0, 2023-11-02 16:51:30.279
34.0, -187500.02235174447, 187500.0, 2648.972290631806, 50203.090930353515, 187500.0, 187500.0, -187500.02235174447, 35237.63689251386, -0.094, 0.978, 0.04, 192.0, 0.0, 0.0, 0.0, 0.0, 0.0, 0.0, 0.0, 0.0, 0.0, 1.698958290279341E9, 0.0, 2023-11-02 16:51:30.279
35.0, -187500.02235174447, 187500.0, 2646.781819675186, 50223.87805269695, 187500.0, 187500.0, -187500.02235174447, 35234.64175875685, -0.082, 0.982, 0.038, 192.0, 253.0, 112.0, 30.0, 176.0, 1.0, 48.0, 0.0, 0.0, 0.0, 1.698958290279358E9, 0.0, 2023-11-02 16:51:30.279
36.0, -187500.02235174447, 187500.0, 2648.9946423762613, 50224.056866652594, 187500.0, 187500.0, -187500.02235174447, 35237.1675058803, -0.082, 0.982, 0.038, 192.0, 0.0, 0.0, 0.0, 0.0, 0.0, 0.0, 0.0, 0.0, 0.0, 1.6989582902793827E9, 0.0, 2023-11-02 16:51:30.279
37.0, -187500.02235174447, 187500.0, 2655.4095930349345, 50204.99082863222, 187500.0, 187500.0, -187500.02235174447, 35242.04018617156, -0.082, 0.982, 0.038, 192.0, 0.0, 0.0, 0.0, 0.0, 0.0, 0.0, 0.0, 0.0, 0.0, 1.698958290279405E9, 0.0, 2023-11-02 16:51:30.279
38.0, -187500.02235174447, 187500.0, 2658.7623547032304, 50205.79549143261, 187500.0, 187500.0, -187500.02235174447, 35244.40947108382, -0.082, 0.982, 0.038, 192.0, 0.0, 0.0, 0.0, 0.0, 0.0, 0.0, 0.0, 0.0, 0.0, 1.698958290279426E9, 0.0, 2023-11-02 16:51:30.279
39.0, -187500.02235174447, 187500.0, 2659.4999622702558, 50230.293003355626, 187500.0, 187500.0, -187500.02235174447, 35244.45417457273, -0.082, 0.982, 0.038, 192.0, 0.0, 0.0, 0.0, 0.0, 0.0, 0.0, 0.0, 0.0, 0.0, 1.6989582902794592E9, 0.0, 2023-11-02 16:51:30.279
40.0, -187500.02235174447, 187500.0, 2660.550494259655, 50236.149160402914, 187500.0, 187500.0, -187500.02235174447, 35244.655340272824, -0.082, 0.982, 0.038, 192.0, 0.0, 0.0, 0.0, 0.0, 0.0, 0.0, 0.0, 0.0, 0.0, 1.6989582902796352E9, 0.0, 2023-11-02 16:51:30.279
41.0, -187500.02235174447, 187500.0, 2673.3356920880906, 50219.519462528166, 187500.0, 187500.0, -187500.02235174447, 35255.83121250048, -0.082, 0.982, 0.038, 192.0, 0.0, 0.0, 0.0, 0.0, 0.0, 0.0, 0.0, 0.0, 0.0, 1.6989582902796924E9, 0.0, 2023-11-02 16:51:30.279
42.0, -187500.02235174447, 187500.0, 2677.090785156582, 50214.04328513662, 187500.0, 187500.0, -187500.02235174447, 35259.295732891056, -0.082, 0.982, 0.038, 192.0, 0.0, 0.0, 0.0, 0.0, 0.0, 0.0, 0.0, 0.0, 0.0, 1.6989582902797143E9, 0.0, 2023-11-02 16:51:30.279
43.0, -187500.02235174447, 187500.0, 2682.634017781498, 50234.38337259095, 187500.0, 187500.0, -187500.02235174447, 35265.93420099428, -0.082, 0.982, 0.038, 192.0, 0.0, 0.0, 0.0, 0.0, 0.0, 0.0, 0.0, 0.0, 0.0, 1.6989582902797344E9, 0.0, 2023-11-02 16:51:30.279
44.0, -187500.02235174447, 187500.0, 2684.064529426638, 50250.633090809955, 187500.0, 187500.0, -187500.02235174447, 35266.18007018329, -0.082, 0.982, 0.038, 192.0, 0.0, 0.0, 0.0, 0.0, 0.0, 0.0, 0.0, 0.0, 0.0, 1.6989582902797487E9, 0.0, 2023-11-02 16:51:30.279
45.0, -187500.02235174447, 187500.0, 2679.10244215756, 50237.82554123706, 187500.0, 187500.0, -187500.02235174447, 35261.374445125395, -0.082, 0.98, 0.036000000000000004, 192.0, 253.0, 112.0, 30.0, 160.0, 1.0, 32.0, 0.0, 0.0, 0.0, 1.6989582902797856E9, 0.0, 2023-11-02 16:51:30.279
46.0, -187500.02235174447, 187500.0, 2673.782726977197, 50215.116168870474, 187500.0, 187500.0, -187500.02235174447, 35256.07708168949, -0.082, 0.98, 0.036000000000000004, 192.0, 0.0, 0.0, 0.0, 0.0, 0.0, 0.0, 0.0, 0.0, 0.0, 1.6989582902798176E9, 0.0, 2023-11-02 16:51:30.279
47.0, -187500.02235174447, 187500.0, 2678.00720667925, 50240.12777091596, 187500.0, 187500.0, -187500.02235174447, 35258.848698001944, -0.082, 0.98, 0.036000000000000004, 192.0, 0.0, 0.0, 0.0, 0.0, 0.0, 0.0, 0.0, 0.0, 0.0, 1.6989582902798395E9, 0.0, 2023-11-02 16:51:30.279
48.0, -187500.02235174447, 187500.0, 2673.805078721652, 50263.30652991612, 187500.0, 187500.0, -187500.02235174447, 35254.2218868997, -0.082, 0.98, 0.036000000000000004, 192.0, 0.0, 0.0, 0.0, 0.0, 0.0, 0.0, 0.0, 0.0, 0.0, 1.6989582902798991E9, 0.0, 2023-11-02 16:51:30.279
49.0, -187500.02235174447, 187500.0, 2677.090785156582, 50247.414439608394, 187500.0, 187500.0, -187500.02235174447, 35255.987674711665, -0.082, 0.98, 0.036000000000000004, 192.0, 0.0, 0.0, 0.0, 0.0, 0.0, 0.0, 0.0, 0.0, 0.0, 1.6989582902799177E9, 0.0, 2023-11-02 16:51:30.279
50.0, -187500.02235174447, 187500.0, 2676.867267712029, 50229.309526599594, 187500.0, 187500.0, -187500.02235174447, 35253.21605839921, -0.082, 0.98, 0.036000000000000004, 192.0, 0.0, 0.0, 0.0, 0.0, 0.0, 0.0, 0.0, 0.0, 0.0, 1.698958290279935E9, 0.0, 2023-11-02 16:51:30.279
51.0, -187500.02235174447, 187500.0, 2684.0868811710934, 50232.95286094581, 187500.0, 187500.0, -187500.02235174447, 35259.273381146595, -0.082, 0.98, 0.036000000000000004, 192.0, 0.0, 0.0, 0.0, 0.0, 0.0, 0.0, 0.0, 0.0, 0.0, 1.6989582902799573E9, 0.0, 2023-11-02 16:51:30.279
52.0, -187500.02235174447, 187500.0, 2687.0373114391937, 50250.342518132034, 187500.0, 187500.0, -187500.02235174447, 35262.40262537034, -0.082, 0.98, 0.036000000000000004, 192.0, 0.0, 0.0, 0.0, 0.0, 0.0, 0.0, 0.0, 0.0, 0.0, 1.6989582902799776E9, 0.0, 2023-11-02 16:51:30.279
53.0, -187500.02235174447, 187500.0, 2689.227782395814, 50249.9625384763, 187500.0, 187500.0, -187500.02235174447, 35266.09066320547, -0.082, 0.98, 0.036000000000000004, 192.0, 0.0, 0.0, 0.0, 0.0, 0.0, 0.0, 0.0, 0.0, 0.0, 1.6989582902799947E9, 0.0, 2023-11-02 16:51:30.279
54.0, -187500.02235174447, 187500.0, 2686.0761864276155, 50223.98981141923, 187500.0, 187500.0, -187500.02235174447, 35264.07900620449, -0.082, 0.98, 0.036000000000000004, 192.0, 0.0, 0.0, 0.0, 0.0, 0.0, 0.0, 0.0, 0.0, 0.0, 1.6989582902800105E9, 0.0, 2023-11-02 16:51:30.280
55.0, -187500.02235174447, 187500.0, 2687.193773650381, 50224.347439330515, 187500.0, 187500.0, -187500.02235174447, 35264.21311667122, -0.08, 0.98, 0.036000000000000004, 192.0, 253.0, 128.0, 30.0, 160.0, 1.0, 32.0, 0.0, 0.0, 0.0, 1.6989582902801433E9, 0.0, 2023-11-02 16:51:30.280
56.0, -187500.02235174447, 187500.0, 2685.740910260786, 50255.63988156794, 187500.0, 187500.0, -187500.02235174447, 35262.849660259446, -0.08, 0.98, 0.036000000000000004, 192.0, 0.0, 0.0, 0.0, 0.0, 0.0, 0.0, 0.0, 0.0, 0.0, 1.69895829028017E9, 0.0, 2023-11-02 16:51:30.280
57.0, -187500.02235174447, 187500.0, 2687.5961050505766, 50254.343480389536, 187500.0, 187500.0, -187500.02235174447, 35263.40845387083, -0.08, 0.98, 0.036000000000000004, 192.0, 0.0, 0.0, 0.0, 0.0, 0.0, 0.0, 0.0, 0.0, 0.0, 1.6989582902801864E9, 0.0, 2023-11-02 16:51:30.280
58.0, -187500.02235174447, 187500.0, 2692.9605237198502, 50238.406686592905, 187500.0, 187500.0, -187500.02235174447, 35269.51048010713, -0.08, 0.98, 0.036000000000000004, 192.0, 0.0, 0.0, 0.0, 0.0, 0.0, 0.0, 0.0, 0.0, 0.0, 1.6989582902802005E9, 0.0, 2023-11-02 16:51:30.280
59.0, -187500.02235174447, 187500.0, 2697.1179481885374, 50235.41155283589, 187500.0, 187500.0, -187500.02235174447, 35272.706779564236, -0.08, 0.98, 0.036000000000000004, 192.0, 0.0, 0.0, 0.0, 0.0, 0.0, 0.0, 0.0, 0.0, 0.0, 1.6989582902802231E9, 0.0, 2023-11-02 16:51:30.280
60.0, -187500.02235174447, 187500.0, 2699.554288334166, 50260.66902407039, 187500.0, 187500.0, -187500.02235174447, 35274.78549179858, -0.08, 0.98, 0.036000000000000004, 192.0, 0.0, 0.0, 0.0, 0.0, 0.0, 0.0, 0.0, 0.0, 0.0, 1.6989582902802427E9, 0.0, 2023-11-02 16:51:30.280
61.0, -187500.02235174447, 187500.0, 2704.136395947504, 50271.15199221993, 187500.0, 187500.0, -187500.02235174447, 35280.954573268245, -0.08, 0.98, 0.036000000000000004, 192.0, 0.0, 0.0, 0.0, 0.0, 0.0, 0.0, 0.0, 0.0, 0.0, 1.6989582902802598E9, 0.0, 2023-11-02 16:51:30.280
62.0, -187500.02235174447, 187500.0, 2704.136395947504, 50254.119962944984, 187500.0, 187500.0, -187500.02235174447, 35280.14991046785, -0.08, 0.98, 0.036000000000000004, 192.0, 0.0, 0.0, 0.0, 0.0, 0.0, 0.0, 0.0, 0.0, 0.0, 1.698958290280278E9, 0.0, 2023-11-02 16:51:30.280
63.0, -187500.02235174447, 187500.0, 2703.4658436138448, 50244.84398899603, 187500.0, 187500.0, -187500.02235174447, 35277.825329044506, -0.08, 0.98, 0.036000000000000004, 192.0, 0.0, 0.0, 0.0, 0.0, 0.0, 0.0, 0.0, 0.0, 0.0, 1.6989582902802978E9, 0.0, 2023-11-02 16:51:30.280
64.0, -187500.02235174447, 187500.0, 2698.615515067043, 50265.07231772808, 187500.0, 187500.0, -187500.02235174447, 35272.03622723058, -0.08, 0.98, 0.036000000000000004, 192.0, 0.0, 0.0, 0.0, 0.0, 0.0, 0.0, 0.0, 0.0, 0.0, 1.6989582902803206E9, 0.0, 2023-11-02 16:51:30.280
65.0, -187500.02235174447, 187500.0, 2701.2753726572246, 50272.20252420933, 187500.0, 187500.0, -187500.02235174447, 35273.57849759799, -0.084, 0.982, 0.03, 192.0, 253.0, 96.0, 30.0, 176.0, 0.0, 240.0, 0.0, 0.0, 0.0, 1.698958290280336E9, 0.0, 2023-11-02 16:51:30.280
66.0, -187500.02235174447, 187500.0, 2705.2763349147244, 50267.866285785, 187500.0, 187500.0, -187500.02235174447, 35277.959439511236, -0.084, 0.982, 0.03, 192.0, 0.0, 0.0, 0.0, 0.0, 0.0, 0.0, 0.0, 0.0, 0.0, 1.698958290280358E9, 0.0, 2023-11-02 16:51:30.280
67.0, -187500.02235174447, 187500.0, 2702.4376633689003, 50261.85366652652, 187500.0, 187500.0, -187500.02235174447, 35274.47256737621, -0.084, 0.982, 0.03, 192.0, 0.0, 0.0, 0.0, 0.0, 0.0, 0.0, 0.0, 0.0, 0.0, 1.6989582902803752E9, 0.0, 2023-11-02 16:51:30.280
68.0, -187500.02235174447, 187500.0, 2699.286067400702, 50281.34438769155, 187500.0, 187500.0, -187500.02235174447, 35271.164509196824, -0.084, 0.982, 0.03, 192.0, 0.0, 0.0, 0.0, 0.0, 0.0, 0.0, 0.0, 0.0, 0.0, 1.698958290280398E9, 0.0, 2023-11-02 16:51:30.280
69.0, -187500.02235174447, 187500.0, 2697.1850034219033, 50296.78944311017, 187500.0, 187500.0, -187500.02235174447, 35270.29279116306, -0.084, 0.982, 0.03, 192.0, 0.0, 0.0, 0.0, 0.0, 0.0, 0.0, 0.0, 0.0, 0.0, 1.6989582902804537E9, 0.0, 2023-11-02 16:51:30.280
70.0, -187500.02235174447, 187500.0, 2695.8886022434954, 50284.49598365975, 187500.0, 187500.0, -187500.02235174447, 35267.45411961724, -0.084, 0.982, 0.03, 192.0, 0.0, 0.0, 0.0, 0.0, 0.0, 0.0, 0.0, 0.0, 0.0, 1.6989582902806184E9, 0.0, 2023-11-02 16:51:30.280
71.0, -187500.02235174447, 187500.0, 2691.10532893006, 50266.4134223954, 187500.0, 187500.0, -187500.02235174447, 35262.38027362589, -0.084, 0.982, 0.03, 192.0, 0.0, 0.0, 0.0, 0.0, 0.0, 0.0, 0.0, 0.0, 0.0, 1.6989582902806494E9, 0.0, 2023-11-02 16:51:30.280
72.0, -187500.02235174447, 187500.0, 2690.8818114855067, 50284.5183354042, 187500.0, 187500.0, -187500.02235174447, 35261.62031431441, -0.084, 0.982, 0.03, 192.0, 0.0, 0.0, 0.0, 0.0, 0.0, 0.0, 0.0, 0.0, 0.0, 1.698958290280671E9, 0.0, 2023-11-02 16:51:30.280
73.0, -187500.02235174447, 187500.0, 2687.216125394836, 50308.50175720474, 187500.0, 187500.0, -187500.02235174447, 35256.278247389586, -0.084, 0.982, 0.03, 192.0, 0.0, 0.0, 0.0, 0.0, 0.0, 0.0, 0.0, 0.0, 0.0, 1.6989582902806869E9, 0.0, 2023-11-02 16:51:30.280
74.0, -187500.02235174447, 187500.0, 2695.8662504990402, 50306.57950718159, 187500.0, 187500.0, -187500.02235174447, 35265.777738783094, -0.084, 0.982, 0.03, 192.0, 0.0, 0.0, 0.0, 0.0, 0.0, 0.0, 0.0, 0.0, 0.0, 1.6989582902807148E9, 0.0, 2023-11-02 16:51:30.280
75.0, -187500.02235174447, 187500.0, 2700.895393001484, 50297.191774510364, 187500.0, 187500.0, -187500.02235174447, 35271.4774336192, -0.08600000000000001, 0.978, 0.036000000000000004, 192.0, 253.0, 80.0, 30.0, 144.0, 1.0, 32.0, 0.0, 0.0, 0.0, 1.6989582902807343E9, 0.0, 2023-11-02 16:51:30.280
76.0, -187500.02235174447, 187500.0, 2698.3919976224897, 50298.91285883342, 187500.0, 187500.0, -187500.02235174447, 35271.34332315246, -0.08600000000000001, 0.978, 0.036000000000000004, 192.0, 0.0, 0.0, 0.0, 0.0, 0.0, 0.0, 0.0, 0.0, 0.0, 1.6989582902807565E9, 0.0, 2023-11-02 16:51:30.280
77.0, -187500.02235174447, 187500.0, 2694.2345731538026, 50313.28503051818, 187500.0, 187500.0, -187500.02235174447, 35270.76217779663, -0.08600000000000001, 0.978, 0.036000000000000004, 192.0, 0.0, 0.0, 0.0, 0.0, 0.0, 0.0, 0.0, 0.0, 0.0, 1.6989582902807744E9, 0.0, 2023-11-02 16:51:30.280
78.0, -187500.02235174447, 187500.0, 2695.285105143202, 50312.45801597334, 187500.0, 187500.0, -187500.02235174447, 35272.907945264335, -0.08600000000000001, 0.978, 0.036000000000000004, 192.0, 0.0, 0.0, 0.0, 0.0, 0.0, 0.0, 0.0, 0.0, 0.0, 1.6989582902807918E9, 0.0, 2023-11-02 16:51:30.280
79.0, -187500.02235174447, 187500.0, 2701.4318348684114, 50296.25300124324, 187500.0, 187500.0, -187500.02235174447, 35278.004143000144, -0.08600000000000001, 0.978, 0.036000000000000004, 192.0, 0.0, 0.0, 0.0, 0.0, 0.0, 0.0, 0.0, 0.0, 0.0, 1.6989582902808113E9, 0.0, 2023-11-02 16:51:30.280
80.0, -187500.02235174447, 187500.0, 2701.230669168314, 50307.78650138218, 187500.0, 187500.0, -187500.02235174447, 35279.03232324509, -0.08600000000000001, 0.978, 0.036000000000000004, 192.0, 0.0, 0.0, 0.0, 0.0, 0.0, 0.0, 0.0, 0.0, 0.0, 1.6989582902808287E9, 0.0, 2023-11-02 16:51:30.280
81.0, -187500.02235174447, 187500.0, 2706.3715703930343, 50337.469618018826, 187500.0, 187500.0, -187500.02235174447, 35287.21306171573, -0.08600000000000001, 0.978, 0.036000000000000004, 192.0, 0.0, 0.0, 0.0, 0.0, 0.0, 0.0, 0.0, 0.0, 0.0, 1.6989582902808464E9, 0.0, 2023-11-02 16:51:30.280
82.0, -187500.02235174447, 187500.0, 2708.1373582050037, 50349.07017339113, 187500.0, 187500.0, -187500.02235174447, 35290.78934082858, -0.08600000000000001, 0.978, 0.036000000000000004, 192.0, 0.0, 0.0, 0.0, 0.0, 0.0, 0.0, 0.0, 0.0, 0.0, 1.6989582902808588E9, 0.0, 2023-11-02 16:51:30.280
83.0, -187500.02235174447, 187500.0, 2730.734971849319, 50345.918577422926, 187500.0, 187500.0, -187500.02235174447, 35313.49871319517, -0.08600000000000001, 0.978, 0.036000000000000004, 192.0, 0.0, 0.0, 0.0, 0.0, 0.0, 0.0, 0.0, 0.0, 0.0, 1.6989582902808688E9, 0.0, 2023-11-02 16:51:30.280
84.0, -187500.02235174447, 187500.0, 2723.381247923523, 50353.51817053773, 187500.0, 187500.0, -187500.02235174447, 35305.87676833591, -0.08600000000000001, 0.978, 0.036000000000000004, 192.0, 0.0, 0.0, 0.0, 0.0, 0.0, 0.0, 0.0, 0.0, 0.0, 1.698958290280879E9, 0.0, 2023-11-02 16:51:30.280
85.0, -187500.02235174447, 187500.0, 2691.4629568413447, 50336.48614126279, 187500.0, 187500.0, -187500.02235174447, 35271.81270978603, -0.08600000000000001, 0.98, 0.028, 192.0, 253.0, 80.0, 30.0, 160.0, 0.0, 224.0, 0.0, 0.0, 0.0, 1.6989582902808888E9, 0.0, 2023-11-02 16:51:30.280
86.0, -187500.02235174447, 187500.0, 2704.471672114333, 50337.71548720783, 187500.0, 187500.0, -187500.02235174447, 35285.53668088158, -0.08600000000000001, 0.98, 0.028, 192.0, 0.0, 0.0, 0.0, 0.0, 0.0, 0.0, 0.0, 0.0, 0.0, 1.698958290280929E9, 0.0, 2023-11-02 16:51:30.280
87.0, -187500.02235174447, 187500.0, 2708.9867244943052, 50328.797141170166, 187500.0, 187500.0, -187500.02235174447, 35293.046867018566, -0.08600000000000001, 0.98, 0.028, 192.0, 0.0, 0.0, 0.0, 0.0, 0.0, 0.0, 0.0, 0.0, 0.0, 1.69895829028094E9, 0.0, 2023-11-02 16:51:30.280
88.0, -187500.02235174447, 187500.0, 2714.0158669967495, 50323.52212947871, 187500.0, 187500.0, -187500.02235174447, 35301.09349502248, -0.08600000000000001, 0.98, 0.028, 192.0, 0.0, 0.0, 0.0, 0.0, 0.0, 0.0, 0.0, 0.0, 0.0, 1.6989582902809508E9, 0.0, 2023-11-02 16:51:30.280
89.0, -187500.02235174447, 187500.0, 2708.673800071931, 50339.6824407199, 187500.0, 187500.0, -187500.02235174447, 35295.57261414202, -0.08600000000000001, 0.98, 0.028, 192.0, 0.0, 0.0, 0.0, 0.0, 0.0, 0.0, 0.0, 0.0, 0.0, 1.6989582902809608E9, 0.0, 2023-11-02 16:51:30.280
90.0, -187500.02235174447, 187500.0, 2712.898279773984, 50337.76019069674, 187500.0, 187500.0, -187500.02235174447, 35298.992431043676, -0.08600000000000001, 0.98, 0.028, 192.0, 0.0, 0.0, 0.0, 0.0, 0.0, 0.0, 0.0, 0.0, 0.0, 1.6989582902809706E9, 0.0, 2023-11-02 16:51:30.280
91.0, -187500.02235174447, 187500.0, 2717.1451112204923, 50317.66597243142, 187500.0, 187500.0, -187500.02235174447, 35305.340326468984, -0.08600000000000001, 0.98, 0.028, 192.0, 0.0, 0.0, 0.0, 0.0, 0.0, 0.0, 0.0, 0.0, 0.0, 1.6989582902809865E9, 0.0, 2023-11-02 16:51:30.280
92.0, -187500.02235174447, 187500.0, 2717.815663554152, 50293.839012842065, 187500.0, 187500.0, -187500.02235174447, 35307.84372184798, -0.08600000000000001, 0.98, 0.028, 192.0, 0.0, 0.0, 0.0, 0.0, 0.0, 0.0, 0.0, 0.0, 0.0, 1.6989582902809968E9, 0.0, 2023-11-02 16:51:30.280
93.0, -187500.02235174447, 187500.0, 2720.2743554442354, 50304.23257401378, 187500.0, 187500.0, -187500.02235174447, 35314.70570739576, -0.08600000000000001, 0.98, 0.028, 192.0, 0.0, 0.0, 0.0, 0.0, 0.0, 0.0, 0.0, 0.0, 0.0, 1.698958290281007E9, 0.0, 2023-11-02 16:51:30.281
94.0, -187500.02235174447, 187500.0, 2711.601878595576, 50300.0751495451, 187500.0, 187500.0, -187500.02235174447, 35308.58132941501, -0.082, 0.982, 0.034, 192.0, 253.0, 112.0, 30.0, 176.0, 1.0, 16.0, 0.0, 0.0, 0.0, 1.6989582902810175E9, 0.0, 2023-11-02 16:51:30.281
95.0, -187500.02235174447, 187500.0, 2711.4007128954786, 50262.68068107137, 187500.0, 187500.0, -187500.02235174447, 35307.68725963679, -0.082, 0.982, 0.034, 192.0, 0.0, 0.0, 0.0, 0.0, 0.0, 0.0, 0.0, 0.0, 0.0, 1.6989582902810292E9, 0.0, 2023-11-02 16:51:30.281
96.0, -187500.02235174447, 187500.0, 2710.4619396283556, 50235.56801504708, 187500.0, 187500.0, -187500.02235174447, 35308.80484685956, -0.082, 0.982, 0.034, 192.0, 0.0, 0.0, 0.0, 0.0, 0.0, 0.0, 0.0, 0.0, 0.0, 1.6989582902810397E9, 0.0, 2023-11-02 16:51:30.281
97.0, -187500.02235174447, 187500.0, 2706.9080122599617, 50235.0092214357, 187500.0, 187500.0, -187500.02235174447, 35307.240224747686, -0.082, 0.982, 0.034, 192.0, 0.0, 0.0, 0.0, 0.0, 0.0, 0.0, 0.0, 0.0, 0.0, 1.6989582902810504E9, 0.0, 2023-11-02 16:51:30.281
98.0, -187500.02235174447, 187500.0, 2707.8691372715402, 50236.10445691401, 187500.0, 187500.0, -187500.02235174447, 35311.97879457221, -0.082, 0.982, 0.034, 192.0, 0.0, 0.0, 0.0, 0.0, 0.0, 0.0, 0.0, 0.0, 0.0, 1.6989582902810624E9, 0.0, 2023-11-02 16:51:30.281
99.0, -187500.02235174447, 187500.0, 2716.608669353565, 50212.61277349148, 187500.0, 187500.0, -187500.02235174447, 35321.61239643245, -0.082, 0.982, 0.034, 192.0, 0.0, 0.0, 0.0, 0.0, 0.0, 0.0, 0.0, 0.0, 0.0, 1.6989582902810724E9, 0.0, 2023-11-02 16:51:30.281
100.0, -187500.02235174447, 187500.0, 2722.084846745115, 50188.137613312916, 187500.0, 187500.0, -187500.02235174447, 35327.98264360221, -0.082, 0.982, 0.034, 192.0, 0.0, 0.0, 0.0, 0.0, 0.0, 0.0, 0.0, 0.0, 0.0, 1.6989582902810822E9, 0.0, 2023-11-02 16:51:30.281
101.0, -187500.02235174447, 187500.0, 2716.139282720004, 50195.87131689445, 187500.0, 187500.0, -187500.02235174447, 35323.89227436689, -0.082, 0.982, 0.034, 192.0, 0.0, 0.0, 0.0, 0.0, 0.0, 0.0, 0.0, 0.0, 0.0, 1.6989582902811065E9, 0.0, 2023-11-02 16:51:30.281
102.0, -187500.02235174447, 187500.0, 2719.5814513661207, 50208.678866467344, 187500.0, 187500.0, -187500.02235174447, 35328.697899424784, -0.082, 0.982, 0.034, 192.0, 0.0, 0.0, 0.0, 0.0, 0.0, 0.0, 0.0, 0.0, 0.0, 1.6989582902811162E9, 0.0, 2023-11-02 16:51:30.281
103.0, -187500.02235174447, 187500.0, 2719.8943757884954, 50204.99082863222, 187500.0, 187500.0, -187500.02235174447, 35329.48021048072, -0.082, 0.982, 0.034, 192.0, 0.0, 0.0, 0.0, 0.0, 0.0, 0.0, 0.0, 0.0, 0.0, 1.6989582902811265E9, 0.0, 2023-11-02 16:51:30.281
104.0, -187500.02235174447, 187500.0, 2721.414294411456, 50181.92382835434, 187500.0, 187500.0, -187500.02235174447, 35332.542399471095, -0.092, 0.978, 0.032, 192.0, 253.0, 32.0, 30.0, 144.0, 1.0, 0.0, 0.0, 0.0, 0.0, 1.6989582902811368E9, 0.0, 2023-11-02 16:51:30.281
105.0, -187500.02235174447, 187500.0, 2727.896300303495, 50183.98018884423, 187500.0, 187500.0, -187500.02235174447, 35338.51031524066, -0.092, 0.978, 0.032, 192.0, 0.0, 0.0, 0.0, 0.0, 0.0, 0.0, 0.0, 0.0, 0.0, 1.6989582902811506E9, 0.0, 2023-11-02 16:51:30.281
106.0, -187500.02235174447, 187500.0, 2730.6232131270426, 50205.92960189934, 187500.0, 187500.0, -187500.02235174447, 35340.56667573055, -0.092, 0.978, 0.032, 192.0, 0.0, 0.0, 0.0, 0.0, 0.0, 0.0, 0.0, 0.0, 0.0, 1.6989582902811637E9, 0.0, 2023-11-02 16:51:30.281
107.0, -187500.02235174447, 187500.0, 2737.8875300750174, 50207.40481703339, 187500.0, 187500.0, -187500.02235174447, 35347.920399656345, -0.092, 0.978, 0.032, 192.0, 0.0, 0.0, 0.0, 0.0, 0.0, 0.0, 0.0, 0.0, 0.0, 1.6989582902811773E9, 0.0, 2023-11-02 16:51:30.281
108.0, -187500.02235174447, 187500.0, 2744.0566115446823, 50200.922811141354, 187500.0, 187500.0, -187500.02235174447, 35355.81056544907, -0.092, 0.978, 0.032, 192.0, 0.0, 0.0, 0.0, 0.0, 0.0, 0.0, 0.0, 0.0, 0.0, 1.6989582907602103E9, 0.0, 2023-11-02 16:51:30.760
109.0, -187500.02235174447, 187500.0, 2745.487123189822, 50197.905325639884, 187500.0, 187500.0, -187500.02235174447, 35357.73281547223, -0.092, 0.978, 0.032, 192.0, 0.0, 0.0, 0.0, 0.0, 0.0, 0.0, 0.0, 0.0, 0.0, 1.698958290760302E9, 0.0, 2023-11-02 16:51:30.760
110.0, -187500.02235174447, 187500.0, 2735.1382655070147, 50213.46213978078, 187500.0, 187500.0, -187500.02235174447, 35346.75810894467, -0.092, 0.978, 0.032, 192.0, 0.0, 0.0, 0.0, 0.0, 0.0, 0.0, 0.0, 0.0, 0.0, 1.698958290760318E9, 0.0, 2023-11-02 16:51:30.760
111.0, -187500.02235174447, 187500.0, 2728.566852637154, 50210.86933742397, 187500.0, 187500.0, -187500.02235174447, 35338.57737047403, -0.092, 0.978, 0.032, 192.0, 0.0, 0.0, 0.0, 0.0, 0.0, 0.0, 0.0, 0.0, 0.0, 1.698958290760331E9, 0.0, 2023-11-02 16:51:30.760
112.0, -187500.02235174447, 187500.0, 2726.1752159804364, 50186.14830805639, 187500.0, 187500.0, -187500.02235174447, 35334.6881669388, -0.092, 0.978, 0.032, 192.0, 0.0, 0.0, 0.0, 0.0, 0.0, 0.0, 0.0, 0.0, 0.0, 1.6989582907603776E9, 0.0, 2023-11-02 16:51:30.760
113.0, -187500.02235174447, 187500.0, 2727.4269136699336, 50176.31354049606, 187500.0, 187500.0, -187500.02235174447, 35334.62111170544, -0.092, 0.978, 0.032, 192.0, 0.0, 0.0, 0.0, 0.0, 0.0, 0.0, 0.0, 0.0, 0.0, 1.698958290760389E9, 0.0, 2023-11-02 16:51:30.760
114.0, -187500.02235174447, 187500.0, 2726.3316781916237, 50197.97238087325, 187500.0, 187500.0, -187500.02235174447, 35332.676509937824, -0.08600000000000001, 0.978, 0.036000000000000004, 192.0, 253.0, 80.0, 30.0, 144.0, 1.0, 32.0, 0.0, 0.0, 0.0, 1.6989582907603996E9, 0.0, 2023-11-02 16:51:30.760
115.0, -187500.02235174447, 187500.0, 2723.8506345570845, 50217.7536747162, 187500.0, 187500.0, -187500.02235174447, 35330.53074247012, -0.08600000000000001, 0.978, 0.036000000000000004, 192.0, 0.0, 0.0, 0.0, 0.0, 0.0, 0.0, 0.0, 0.0, 0.0, 1.6989582907604148E9, 0.0, 2023-11-02 16:51:30.760
116.0, -187500.02235174447, 187500.0, 2725.638774113509, 50195.84896515, 187500.0, 187500.0, -187500.02235174447, 35330.39663200339, -0.08600000000000001, 0.978, 0.036000000000000004, 192.0, 0.0, 0.0, 0.0, 0.0, 0.0, 0.0, 0.0, 0.0, 0.0, 1.69895829076058E9, 0.0, 2023-11-02 16:51:30.760
117.0, -187500.02235174447, 187500.0, 2725.6834776024198, 50184.159002799875, 187500.0, 187500.0, -187500.02235174447, 35329.547265714085, -0.08600000000000001, 0.978, 0.036000000000000004, 192.0, 0.0, 0.0, 0.0, 0.0, 0.0, 0.0, 0.0, 0.0, 0.0, 1.698958290760595E9, 0.0, 2023-11-02 16:51:30.760
118.0, -187500.02235174447, 187500.0, 2724.8564630575734, 50202.08510185303, 187500.0, 187500.0, -187500.02235174447, 35326.55213195707, -0.08600000000000001, 0.978, 0.036000000000000004, 192.0, 0.0, 0.0, 0.0, 0.0, 0.0, 0.0, 0.0, 0.0, 0.0, 1.6989582907606065E9, 0.0, 2023-11-02 16:51:30.760
119.0, -187500.02235174447, 187500.0, 2723.649468856987, 50210.33289555704, 187500.0, 187500.0, -187500.02235174447, 35325.00986158966, -0.08600000000000001, 0.978, 0.036000000000000004, 192.0, 0.0, 0.0, 0.0, 0.0, 0.0, 0.0, 0.0, 0.0, 0.0, 1.6989582907606175E9, 0.0, 2023-11-02 16:51:30.760
120.0, -187500.02235174447, 187500.0, 2727.15869273647, 50197.03360760613, 187500.0, 187500.0, -187500.02235174447, 35328.697899424784, -0.08600000000000001, 0.978, 0.036000000000000004, 192.0, 0.0, 0.0, 0.0, 0.0, 0.0, 0.0, 0.0, 0.0, 0.0, 1.698958290760629E9, 0.0, 2023-11-02 16:51:30.760
121.0, -187500.02235174447, 187500.0, 2729.840902071107, 50186.30477026758, 187500.0, 187500.0, -187500.02235174447, 35330.46368723675, -0.08600000000000001, 0.978, 0.036000000000000004, 192.0, 0.0, 0.0, 0.0, 0.0, 0.0, 0.0, 0.0, 0.0, 0.0, 1.6989582907606397E9, 0.0, 2023-11-02 16:51:30.760
122.0, -187500.02235174447, 187500.0, 2731.070248016149, 50200.94516288581, 187500.0, 187500.0, -187500.02235174447, 35332.94473087129, -0.08600000000000001, 0.978, 0.036000000000000004, 192.0, 0.0, 0.0, 0.0, 0.0, 0.0, 0.0, 0.0, 0.0, 0.0, 1.698958290760651E9, 0.0, 2023-11-02 16:51:30.760
123.0, -187500.02235174447, 187500.0, 2737.5075504192773, 50214.66913398137, 187500.0, 187500.0, -187500.02235174447, 35340.96900713075, -0.08600000000000001, 0.978, 0.036000000000000004, 192.0, 0.0, 0.0, 0.0, 0.0, 0.0, 0.0, 0.0, 0.0, 0.0, 1.6989582907606611E9, 0.0, 2023-11-02 16:51:30.760
124.0, -187500.02235174447, 187500.0, 2734.8253410846405, 50220.68175323984, 187500.0, 187500.0, -187500.02235174447, 35336.05162335058, -0.08, 0.984, 0.038, 192.0, 253.0, 128.0, 30.0, 192.0, 1.0, 48.0, 0.0, 0.0, 0.0, 1.6989582907606728E9, 0.0, 2023-11-02 16:51:30.760
125.0, -187500.02235174447, 187500.0, 2723.358896179068, 50190.95393311429, 187500.0, 187500.0, -187500.02235174447, 35322.30530051056, -0.08, 0.984, 0.038, 192.0, 0.0, 0.0, 0.0, 0.0, 0.0, 0.0, 0.0, 0.0, 0.0, 1.6989582907606869E9, 0.0, 2023-11-02 16:51:30.760
126.0, -187500.02235174447, 187500.0, 2717.3686286650454, 50183.71196791076, 187500.0, 187500.0, -187500.02235174447, 35315.063335307044, -0.08, 0.984, 0.038, 192.0, 0.0, 0.0, 0.0, 0.0, 0.0, 0.0, 0.0, 0.0, 0.0, 1.6989582907607005E9, 0.0, 2023-11-02 16:51:30.760
127.0, -187500.02235174447, 187500.0, 2716.161634464459, 50193.300866282094, 187500.0, 187500.0, -187500.02235174447, 35313.16343702834, -0.08, 0.984, 0.038, 192.0, 0.0, 0.0, 0.0, 0.0, 0.0, 0.0, 0.0, 0.0, 0.0, 1.6989582907607105E9, 0.0, 2023-11-02 16:51:30.760
128.0, -187500.02235174447, 187500.0, 2710.908974517462, 50195.066654094066, 187500.0, 187500.0, -187500.02235174447, 35307.106114280956, -0.08, 0.984, 0.038, 192.0, 0.0, 0.0, 0.0, 0.0, 0.0, 0.0, 0.0, 0.0, 0.0, 1.6989582907607205E9, 0.0, 2023-11-02 16:51:30.760
129.0, -187500.02235174447, 187500.0, 2708.9867244943052, 50176.13472654042, 187500.0, 187500.0, -187500.02235174447, 35303.77570435711, -0.08, 0.984, 0.038, 192.0, 0.0, 0.0, 0.0, 0.0, 0.0, 0.0, 0.0, 0.0, 0.0, 1.6989582907607305E9, 0.0, 2023-11-02 16:51:30.760
130.0, -187500.02235174447, 187500.0, 2710.908974517462, 50176.71587189625, 187500.0, 187500.0, -187500.02235174447, 35305.27327123562, -0.08, 0.984, 0.038, 192.0, 0.0, 0.0, 0.0, 0.0, 0.0, 0.0, 0.0, 0.0, 0.0, 1.6989582907607405E9, 0.0, 2023-11-02 16:51:30.760
131.0, -187500.02235174447, 187500.0, 2719.089712988104, 50196.13953782792, 187500.0, 187500.0, -187500.02235174447, 35311.777628872114, -0.08, 0.984, 0.038, 192.0, 0.0, 0.0, 0.0, 0.0, 0.0, 0.0, 0.0, 0.0, 0.0, 1.6989582907607708E9, 0.0, 2023-11-02 16:51:30.760
132.0, -187500.02235174447, 187500.0, 2719.760265321763, 50195.29017153862, 187500.0, 187500.0, -187500.02235174447, 35312.71640213924, -0.08, 0.984, 0.038, 192.0, 0.0, 0.0, 0.0, 0.0, 0.0, 0.0, 0.0, 0.0, 0.0, 1.6989582907607827E9, 0.0, 2023-11-02 16:51:30.760
133.0, -187500.02235174447, 187500.0, 2718.1732914654367, 50182.594380688, 187500.0, 187500.0, -187500.02235174447, 35308.22370150372, -0.08, 0.984, 0.038, 192.0, 0.0, 0.0, 0.0, 0.0, 0.0, 0.0, 0.0, 0.0, 0.0, 1.6989582907607956E9, 0.0, 2023-11-02 16:51:30.760
134.0, -187500.02235174447, 187500.0, 2721.034314755716, 50181.32033125405, 187500.0, 187500.0, -187500.02235174447, 35308.89425383738, -0.078, 0.978, 0.038, 192.0, 253.0, 144.0, 30.0, 144.0, 1.0, 48.0, 0.0, 0.0, 0.0, 1.6989582907608082E9, 0.0, 2023-11-02 16:51:30.760
135.0, -187500.02235174447, 187500.0, 2721.1684252224477, 50202.44272976431, 187500.0, 187500.0, -187500.02235174447, 35310.92826258281, -0.078, 0.978, 0.038, 192.0, 0.0, 0.0, 0.0, 0.0, 0.0, 0.0, 0.0, 0.0, 0.0, 1.6989582907608206E9, 0.0, 2023-11-02 16:51:30.760
136.0, -187500.02235174447, 187500.0, 2720.9225560334394, 50206.84602342201, 187500.0, 187500.0, -187500.02235174447, 35310.63768990489, -0.078, 0.978, 0.038, 192.0, 0.0, 0.0, 0.0, 0.0, 0.0, 0.0, 0.0, 0.0, 0.0, 1.6989582907608314E9, 0.0, 2023-11-02 16:51:30.760
137.0, -187500.02235174447, 187500.0, 2717.905070531973, 50188.18231680183, 187500.0, 187500.0, -187500.02235174447, 35306.59202415848, -0.078, 0.978, 0.038, 192.0, 0.0, 0.0, 0.0, 0.0, 0.0, 0.0, 0.0, 0.0, 0.0, 1.698958290760842E9, 0.0, 2023-11-02 16:51:30.760
138.0, -187500.02235174447, 187500.0, 2711.0877884731044, 50177.45347946328, 187500.0, 187500.0, -187500.02235174447, 35298.299526965566, -0.078, 0.978, 0.038, 192.0, 0.0, 0.0, 0.0, 0.0, 0.0, 0.0, 0.0, 0.0, 0.0, 1.6989582907608533E9, 0.0, 2023-11-02 16:51:30.760
139.0, -187500.02235174447, 187500.0, 2712.7865210517075, 50195.11135758297, 187500.0, 187500.0, -187500.02235174447, 35297.33840195399, -0.078, 0.978, 0.038, 192.0, 0.0, 0.0, 0.0, 0.0, 0.0, 0.0, 0.0, 0.0, 0.0, 1.698958290760863E9, 0.0, 2023-11-02 16:51:30.760
140.0, -187500.02235174447, 187500.0, 2714.418198396945, 50206.734264699735, 187500.0, 187500.0, -187500.02235174447, 35298.8806723214, -0.078, 0.978, 0.038, 192.0, 0.0, 0.0, 0.0, 0.0, 0.0, 0.0, 0.0, 0.0, 0.0, 1.6989582907608728E9, 0.0, 2023-11-02 16:51:30.760
141.0, -187500.02235174447, 187500.0, 2713.993515252294, 50192.07152033705, 187500.0, 187500.0, -187500.02235174447, 35299.50652116615, -0.078, 0.978, 0.038, 192.0, 0.0, 0.0, 0.0, 0.0, 0.0, 0.0, 0.0, 0.0, 0.0, 1.6989582907608826E9, 0.0, 2023-11-02 16:51:30.760
142.0, -187500.02235174447, 187500.0, 2709.8360907836072, 50183.22022953275, 187500.0, 187500.0, -187500.02235174447, 35294.432675174794, -0.078, 0.978, 0.038, 192.0, 0.0, 0.0, 0.0, 0.0, 0.0, 0.0, 0.0, 0.0, 0.0, 1.6989582907608922E9, 0.0, 2023-11-02 16:51:30.760
143.0, -187500.02235174447, 187500.0, 2711.6242303400318, 50193.79260466011, 187500.0, 187500.0, -187500.02235174447, 35292.66688736283, -0.078, 0.978, 0.038, 192.0, 0.0, 0.0, 0.0, 0.0, 0.0, 0.0, 0.0, 0.0, 0.0, 1.6989582907609017E9, 0.0, 2023-11-02 16:51:30.760
144.0, -187500.02235174447, 187500.0, 2706.036294226205, 50205.46021526578, 187500.0, 187500.0, -187500.02235174447, 35285.33551518148, -0.08, 0.978, 0.038, 192.0, 253.0, 128.0, 30.0, 144.0, 1.0, 48.0, 0.0, 0.0, 0.0, 1.698958290760913E9, 0.0, 2023-11-02 16:51:30.760
145.0, -187500.02235174447, 187500.0, 2712.451244884878, 50189.29990402459, 187500.0, 187500.0, -187500.02235174447, 35287.79420707157, -0.08, 0.978, 0.038, 192.0, 0.0, 0.0, 0.0, 0.0, 0.0, 0.0, 0.0, 0.0, 0.0, 1.6989582907609239E9, 0.0, 2023-11-02 16:51:30.760
146.0, -187500.02235174447, 187500.0, 2713.4570733853666, 50182.10264230998, 187500.0, 187500.0, -187500.02235174447, 35285.98371577069, -0.08, 0.978, 0.038, 192.0, 0.0, 0.0, 0.0, 0.0, 0.0, 0.0, 0.0, 0.0, 0.0, 1.6989582907609339E9, 0.0, 2023-11-02 16:51:30.760
147.0, -187500.02235174447, 187500.0, 2704.874003514529, 50195.87131689445, 187500.0, 187500.0, -187500.02235174447, 35275.05371273204, -0.08, 0.978, 0.038, 192.0, 0.0, 0.0, 0.0, 0.0, 0.0, 0.0, 0.0, 0.0, 0.0, 1.698958290760961E9, 0.0, 2023-11-02 16:51:30.760
148.0, -187500.02235174447, 187500.0, 2706.0809977151152, 50210.35524730149, 187500.0, 187500.0, -187500.02235174447, 35274.04788423156, -0.08, 0.978, 0.038, 192.0, 0.0, 0.0, 0.0, 0.0, 0.0, 0.0, 0.0, 0.0, 0.0, 1.6989582907609713E9, 0.0, 2023-11-02 16:51:30.760
149.0, -187500.02235174447, 187500.0, 2706.5950878375875, 50199.76052042968, 187500.0, 187500.0, -187500.02235174447, 35270.963343496725, -0.08, 0.978, 0.038, 192.0, 0.0, 0.0, 0.0, 0.0, 0.0, 0.0, 0.0, 0.0, 0.0, 1.6989582907609837E9, 0.0, 2023-11-02 16:51:30.760
150.0, -187500.02235174447, 187500.0, 2713.6805908299198, 50180.158040542374, 187500.0, 187500.0, -187500.02235174447, 35274.60667784294, -0.08, 0.978, 0.038, 192.0, 0.0, 0.0, 0.0, 0.0, 0.0, 0.0, 0.0, 0.0, 0.0, 1.698958290760994E9, 0.0, 2023-11-02 16:51:30.760
151.0, -187500.02235174447, 187500.0, 2719.4696926438446, 50196.60892446148, 187500.0, 187500.0, -187500.02235174447, 35280.30637267904, -0.08, 0.978, 0.038, 192.0, 0.0, 0.0, 0.0, 0.0, 0.0, 0.0, 0.0, 0.0, 0.0, 1.6989582907610044E9, 0.0, 2023-11-02 16:51:30.761
152.0, -187500.02235174447, 187500.0, 2711.892451273495, 50233.89163421293, 187500.0, 187500.0, -187500.02235174447, 35273.77966329809, -0.08, 0.978, 0.038, 192.0, 0.0, 0.0, 0.0, 0.0, 0.0, 0.0, 0.0, 0.0, 0.0, 1.698958290761014E9, 0.0, 2023-11-02 16:51:30.761
153.0, -187500.02235174447, 187500.0, 2701.4094831239563, 50227.4543318098, 187500.0, 187500.0, -187500.02235174447, 35264.07900620449, -0.08, 0.978, 0.038, 192.0, 0.0, 0.0, 0.0, 0.0, 0.0, 0.0, 0.0, 0.0, 0.0, 1.6989582907610235E9, 0.0, 2023-11-02 16:51:30.761
154.0, -187500.02235174447, 187500.0, 2700.157785434459, 50194.97724711624, 187500.0, 187500.0, -187500.02235174447, 35261.28503814757, -0.09, 0.978, 0.042, 192.0, 253.0, 48.0, 30.0, 144.0, 1.0, 80.0, 0.0, 0.0, 0.0, 1.6989582907610357E9, 0.0, 2023-11-02 16:51:30.761
155.0, -187500.02235174447, 187500.0, 2701.901221501973, 50186.19301154531, 187500.0, 187500.0, -187500.02235174447, 35261.240334658665, -0.09, 0.978, 0.042, 192.0, 0.0, 0.0, 0.0, 0.0, 0.0, 0.0, 0.0, 0.0, 0.0, 1.6989582907610495E9, 0.0, 2023-11-02 16:51:30.761
156.0, -187500.02235174447, 187500.0, 2694.6592562984533, 50207.02483737765, 187500.0, 187500.0, -187500.02235174447, 35252.81372699901, -0.09, 0.978, 0.042, 192.0, 0.0, 0.0, 0.0, 0.0, 0.0, 0.0, 0.0, 0.0, 0.0, 1.6989582907610693E9, 0.0, 2023-11-02 16:51:30.761
157.0, -187500.02235174447, 187500.0, 2703.6223058250316, 50201.36984603046, 187500.0, 187500.0, -187500.02235174447, 35258.55812532403, -0.09, 0.978, 0.042, 192.0, 0.0, 0.0, 0.0, 0.0, 0.0, 0.0, 0.0, 0.0, 0.0, 1.698958290761081E9, 0.0, 2023-11-02 16:51:30.761
158.0, -187500.02235174447, 187500.0, 2709.098483216582, 50179.30867425307, 187500.0, 187500.0, -187500.02235174447, 35262.626142814894, -0.09, 0.978, 0.042, 192.0, 0.0, 0.0, 0.0, 0.0, 0.0, 0.0, 0.0, 0.0, 0.0, 1.698958290761093E9, 0.0, 2023-11-02 16:51:30.761
159.0, -187500.02235174447, 187500.0, 2701.901221501973, 50176.380595729424, 187500.0, 187500.0, -187500.02235174447, 35256.56882006751, -0.09, 0.978, 0.042, 192.0, 0.0, 0.0, 0.0, 0.0, 0.0, 0.0, 0.0, 0.0, 0.0, 1.6989582907611132E9, 0.0, 2023-11-02 16:51:30.761
160.0, -187500.02235174447, 187500.0, 2697.3638173775457, 50188.830517391034, 187500.0, 187500.0, -187500.02235174447, 35252.724320021196, -0.09, 0.978, 0.042, 192.0, 0.0, 0.0, 0.0, 0.0, 0.0, 0.0, 0.0, 0.0, 0.0, 1.6989582907611592E9, 0.0, 2023-11-02 16:51:30.761
161.0, -187500.02235174447, 187500.0, 2706.326866904124, 50197.32418028405, 187500.0, 187500.0, -187500.02235174447, 35261.240334658665, -0.09, 0.978, 0.042, 192.0, 0.0, 0.0, 0.0, 0.0, 0.0, 0.0, 0.0, 0.0, 0.0, 1.6989582907611768E9, 0.0, 2023-11-02 16:51:30.761
162.0, -187500.02235174447, 187500.0, 2704.4046168809673, 50178.57106668605, 187500.0, 187500.0, -187500.02235174447, 35258.17814566829, -0.09, 0.978, 0.042, 192.0, 0.0, 0.0, 0.0, 0.0, 0.0, 0.0, 0.0, 0.0, 0.0, 1.6989582907612343E9, 0.0, 2023-11-02 16:51:30.761
163.0, -187500.02235174447, 187500.0, 2707.667971571442, 50170.18916251531, 187500.0, 187500.0, -187500.02235174447, 35260.52507883609, -0.09, 0.978, 0.042, 192.0, 0.0, 0.0, 0.0, 0.0, 0.0, 0.0, 0.0, 0.0, 0.0, 1.6989582907612448E9, 0.0, 2023-11-02 16:51:30.761
164.0, -187500.02235174447, 187500.0, 2701.230669168314, 50183.734319655225, 187500.0, 187500.0, -187500.02235174447, 35254.49010783316, -0.096, 0.978, 0.038, 192.0, 253.0, 0.0, 30.0, 144.0, 1.0, 48.0, 0.0, 0.0, 0.0, 1.6989582907612555E9, 0.0, 2023-11-02 16:51:30.761
165.0, -187500.02235174447, 187500.0, 2695.575677821121, 50185.09777606699, 187500.0, 187500.0, -187500.02235174447, 35250.24327638665, -0.096, 0.978, 0.038, 192.0, 0.0, 0.0, 0.0, 0.0, 0.0, 0.0, 0.0, 0.0, 0.0, 1.6989582907612672E9, 0.0, 2023-11-02 16:51:30.761
166.0, -187500.02235174447, 187500.0, 2695.3745121210236, 50164.869447334946, 187500.0, 187500.0, -187500.02235174447, 35249.52802056408, -0.096, 0.978, 0.038, 192.0, 0.0, 0.0, 0.0, 0.0, 0.0, 0.0, 0.0, 0.0, 0.0, 1.6989582907612777E9, 0.0, 2023-11-02 16:51:30.761
167.0, -187500.02235174447, 187500.0, 2700.24719241228, 50154.67705186332, 187500.0, 187500.0, -187500.02235174447, 35253.73014852168, -0.096, 0.978, 0.038, 192.0, 0.0, 0.0, 0.0, 0.0, 0.0, 0.0, 0.0, 0.0, 0.0, 1.6989582907612877E9, 0.0, 2023-11-02 16:51:30.761
168.0, -187500.02235174447, 187500.0, 2697.7661487777414, 50173.29605499459, 187500.0, 187500.0, -187500.02235174447, 35252.25493338763, -0.096, 0.978, 0.038, 192.0, 0.0, 0.0, 0.0, 0.0, 0.0, 0.0, 0.0, 0.0, 0.0, 1.698958290761299E9, 0.0, 2023-11-02 16:51:30.761
169.0, -187500.02235174447, 187500.0, 2691.10532893006, 50183.26493302166, 187500.0, 187500.0, -187500.02235174447, 35244.878857717384, -0.096, 0.978, 0.038, 192.0, 0.0, 0.0, 0.0, 0.0, 0.0, 0.0, 0.0, 0.0, 0.0, 1.6989582907613113E9, 0.0, 2023-11-02 16:51:30.761
170.0, -187500.02235174447, 187500.0, 2690.166555662937, 50159.50502866567, 187500.0, 187500.0, -187500.02235174447, 35242.017834427104, -0.096, 0.978, 0.038, 192.0, 0.0, 0.0, 0.0, 0.0, 0.0, 0.0, 0.0, 0.0, 0.0, 1.6989582907613208E9, 0.0, 2023-11-02 16:51:30.761
171.0, -187500.02235174447, 187500.0, 2690.3453696185793, 50134.40401964236, 187500.0, 187500.0, -187500.02235174447, 35241.660206515815, -0.096, 0.978, 0.038, 192.0, 0.0, 0.0, 0.0, 0.0, 0.0, 0.0, 0.0, 0.0, 0.0, 1.6989582907613328E9, 0.0, 2023-11-02 16:51:30.761
172.0, -187500.02235174447, 187500.0, 2693.318151631135, 50144.372897669426, 187500.0, 187500.0, -187500.02235174447, 35243.64951177234, -0.096, 0.978, 0.038, 192.0, 0.0, 0.0, 0.0, 0.0, 0.0, 0.0, 0.0, 0.0, 0.0, 1.6989582907613428E9, 0.0, 2023-11-02 16:51:30.761
173.0, -187500.02235174447, 187500.0, 2695.5086225877553, 50167.75282236968, 187500.0, 187500.0, -187500.02235174447, 35246.53288680707, -0.096, 0.978, 0.038, 192.0, 0.0, 0.0, 0.0, 0.0, 0.0, 0.0, 0.0, 0.0, 0.0, 1.698958290761356E9, 0.0, 2023-11-02 16:51:30.761
174.0, -187500.02235174447, 187500.0, 2698.1684801779365, 50167.439897947304, 187500.0, 187500.0, -187500.02235174447, 35248.20926764122, -0.088, 0.974, 0.042, 192.0, 253.0, 64.0, 30.0, 112.0, 1.0, 80.0, 0.0, 0.0, 0.0, 1.698958290761367E9, 0.0, 2023-11-02 16:51:30.761
175.0, -187500.02235174447, 187500.0, 2695.709788287853, 50160.19793274378, 187500.0, 187500.0, -187500.02235174447, 35244.320064105996, -0.088, 0.974, 0.042, 192.0, 0.0, 0.0, 0.0, 0.0, 0.0, 0.0, 0.0, 0.0, 0.0, 1.6989582907613783E9, 0.0, 2023-11-02 16:51:30.761
176.0, -187500.02235174447, 187500.0, 2693.407558608956, 50166.56817991355, 187500.0, 187500.0, -187500.02235174447, 35243.73891875016, -0.088, 0.974, 0.042, 192.0, 0.0, 0.0, 0.0, 0.0, 0.0, 0.0, 0.0, 0.0, 0.0, 1.6989582907613947E9, 0.0, 2023-11-02 16:51:30.761
177.0, -187500.02235174447, 187500.0, 2693.005227208761, 50195.08900583852, 187500.0, 187500.0, -187500.02235174447, 35245.34824435094, -0.088, 0.974, 0.042, 192.0, 0.0, 0.0, 0.0, 0.0, 0.0, 0.0, 0.0, 0.0, 0.0, 1.6989582907614143E9, 0.0, 2023-11-02 16:51:30.761
178.0, -187500.02235174447, 187500.0, 2687.0373114391937, 50188.070558079555, 187500.0, 187500.0, -187500.02235174447, 35239.425032070285, -0.088, 0.974, 0.042, 192.0, 0.0, 0.0, 0.0, 0.0, 0.0, 0.0, 0.0, 0.0, 0.0, 1.698958290761424E9, 0.0, 2023-11-02 16:51:30.761
179.0, -187500.02235174447, 187500.0, 2683.684549770898, 50164.154191512374, 187500.0, 187500.0, -187500.02235174447, 35234.70881399022, -0.088, 0.974, 0.042, 192.0, 0.0, 0.0, 0.0, 0.0, 0.0, 0.0, 0.0, 0.0, 0.0, 1.6989582907614336E9, 0.0, 2023-11-02 16:51:30.761
180.0, -187500.02235174447, 187500.0, 2684.600971293565, 50165.49529617969, 187500.0, 187500.0, -187500.02235174447, 35233.65828200082, -0.088, 0.974, 0.042, 192.0, 0.0, 0.0, 0.0, 0.0, 0.0, 0.0, 0.0, 0.0, 0.0, 1.6989582907614431E9, 0.0, 2023-11-02 16:51:30.761
181.0, -187500.02235174447, 187500.0, 2687.8866777284957, 50184.561334200065, 187500.0, 187500.0, -187500.02235174447, 35236.22873261318, -0.088, 0.974, 0.042, 192.0, 0.0, 0.0, 0.0, 0.0, 0.0, 0.0, 0.0, 0.0, 0.0, 1.698958290761453E9, 0.0, 2023-11-02 16:51:30.761
182.0, -187500.02235174447, 187500.0, 2695.2404016542914, 50185.7459766562, 187500.0, 187500.0, -187500.02235174447, 35242.91190420531, -0.088, 0.974, 0.042, 192.0, 0.0, 0.0, 0.0, 0.0, 0.0, 0.0, 0.0, 0.0, 0.0, 1.6989582907614625E9, 0.0, 2023-11-02 16:51:30.761
183.0, -187500.02235174447, 187500.0, 2696.4920993437886, 50172.35728172747, 187500.0, 187500.0, -187500.02235174447, 35242.73309024967, -0.088, 0.974, 0.042, 192.0, 0.0, 0.0, 0.0, 0.0, 0.0, 0.0, 0.0, 0.0, 0.0, 1.698958290761472E9, 0.0, 2023-11-02 16:51:30.761
184.0, -187500.02235174447, 187500.0, 2691.641770796987, 50163.59539790099, 187500.0, 187500.0, -187500.02235174447, 35237.07809890248, -0.078, 0.978, 0.046, 192.0, 253.0, 144.0, 30.0, 144.0, 1.0, 112.0, 0.0, 0.0, 0.0, 1.6989582907614815E9, 0.0, 2023-11-02 16:51:30.761
185.0, -187500.02235174447, 187500.0, 2691.6194190525316, 50174.03366256162, 187500.0, 187500.0, -187500.02235174447, 35238.68742450326, -0.078, 0.978, 0.046, 192.0, 0.0, 0.0, 0.0, 0.0, 0.0, 0.0, 0.0, 0.0, 0.0, 1.6989582907614915E9, 0.0, 2023-11-02 16:51:30.761
186.0, -187500.02235174447, 187500.0, 2690.837107996596, 50182.192049287805, 187500.0, 187500.0, -187500.02235174447, 35238.82153496999, -0.078, 0.978, 0.046, 192.0, 0.0, 0.0, 0.0, 0.0, 0.0, 0.0, 0.0, 0.0, 0.0, 1.6989582907615016E9, 0.0, 2023-11-02 16:51:30.761
187.0, -187500.02235174447, 187500.0, 2691.1723841634257, 50166.23290374671, 187500.0, 187500.0, -187500.02235174447, 35240.38615708186, -0.078, 0.978, 0.046, 192.0, 0.0, 0.0, 0.0, 0.0, 0.0, 0.0, 0.0, 0.0, 0.0, 1.698958290761512E9, 0.0, 2023-11-02 16:51:30.761
188.0, -187500.02235174447, 187500.0, 2694.100462687071, 50156.174618741825, 187500.0, 187500.0, -187500.02235174447, 35242.77779373858, -0.078, 0.978, 0.046, 192.0, 0.0, 0.0, 0.0, 0.0, 0.0, 0.0, 0.0, 0.0, 0.0, 1.6989582907615225E9, 0.0, 2023-11-02 16:51:30.761
189.0, -187500.02235174447, 187500.0, 2700.1801371789143, 50172.58079917202, 187500.0, 187500.0, -187500.02235174447, 35245.75057575114, -0.078, 0.978, 0.046, 192.0, 0.0, 0.0, 0.0, 0.0, 0.0, 0.0, 0.0, 0.0, 0.0, 1.6989582907615335E9, 0.0, 2023-11-02 16:51:30.761
190.0, -187500.02235174447, 187500.0, 2704.717541303342, 50203.06857860906, 187500.0, 187500.0, -187500.02235174447, 35250.2209246422, -0.078, 0.978, 0.046, 192.0, 0.0, 0.0, 0.0, 0.0, 0.0, 0.0, 0.0, 0.0, 0.0, 1.6989582907615433E9, 0.0, 2023-11-02 16:51:30.761
191.0, -187500.02235174447, 187500.0, 2699.420177867434, 50193.21145930427, 187500.0, 187500.0, -187500.02235174447, 35242.59897978294, -0.078, 0.978, 0.046, 192.0, 0.0, 0.0, 0.0, 0.0, 0.0, 0.0, 0.0, 0.0, 0.0, 1.6989582907615528E9, 0.0, 2023-11-02 16:51:30.761
192.0, -187500.02235174447, 187500.0, 2700.1130819455484, 50169.29509273709, 187500.0, 187500.0, -187500.02235174447, 35240.92259894879, -0.078, 0.978, 0.046, 192.0, 0.0, 0.0, 0.0, 0.0, 0.0, 0.0, 0.0, 0.0, 0.0, 1.6989582907615705E9, 0.0, 2023-11-02 16:51:30.761
193.0, -187500.02235174447, 187500.0, 2700.850689512574, 50189.03168309113, 187500.0, 187500.0, -187500.02235174447, 35240.67672975978, -0.078, 0.978, 0.046, 192.0, 0.0, 0.0, 0.0, 0.0, 0.0, 0.0, 0.0, 0.0, 0.0, 1.69895829076158E9, 0.0, 2023-11-02 16:51:30.761
194.0, -187500.02235174447, 187500.0, 2701.610648824054, 50208.5000525117, 187500.0, 187500.0, -187500.02235174447, 35239.78265998157, -0.074, 0.98, 0.044, 192.0, 253.0, 176.0, 30.0, 160.0, 1.0, 96.0, 0.0, 0.0, 0.0, 1.69895829076159E9, 0.0, 2023-11-02 16:51:30.761
195.0, -187500.02235174447, 187500.0, 2698.0120179667497, 50195.98307561673, 187500.0, 187500.0, -187500.02235174447, 35235.088793645955, -0.074, 0.98, 0.044, 192.0, 0.0, 0.0, 0.0, 0.0, 0.0, 0.0, 0.0, 0.0, 0.0, 1.6989582907616005E9, 0.0, 2023-11-02 16:51:30.761
196.0, -187500.02235174447, 187500.0, 2700.537765090199, 50175.59828467349, 187500.0, 187500.0, -187500.02235174447, 35236.7204709912, -0.074, 0.98, 0.044, 192.0, 0.0, 0.0, 0.0, 0.0, 0.0, 0.0, 0.0, 0.0, 0.0, 1.69895829076161E9, 0.0, 2023-11-02 16:51:30.761
197.0, -187500.02235174447, 187500.0, 2695.620381310032, 50184.8966103669, 187500.0, 187500.0, -187500.02235174447, 35230.126706376876, -0.074, 0.98, 0.044, 192.0, 0.0, 0.0, 0.0, 0.0, 0.0, 0.0, 0.0, 0.0, 0.0, 1.6989582907616212E9, 0.0, 2023-11-02 16:51:30.761
198.0, -187500.02235174447, 187500.0, 2694.3016283871684, 50198.17354657335, 187500.0, 187500.0, -187500.02235174447, 35228.60678775392, -0.074, 0.98, 0.044, 192.0, 0.0, 0.0, 0.0, 0.0, 0.0, 0.0, 0.0, 0.0, 0.0, 1.6989582907616305E9, 0.0, 2023-11-02 16:51:30.761
