%OpenBCI Raw EEG Data
%Number of channels = 8
%Sample Rate = 250 Hz
%Board = OpenBCI_GUI$BoardCytonSerial
Sample Index, EXG Channel 0, EXG Channel 1, EXG Channel 2, EXG Channel 3, EXG Channel 4, EXG Channel 5, EXG Channel 6, EXG Channel 7, Accel Channel 0, Accel Channel 1, Accel Channel 2, Other, Other, Other, Other, Other, Other, Other, Analog Channel 0, Analog Channel 1, Analog Channel 2, Timestamp, Other, Timestamp (Formatted)
145.0, 19889.968024488455, 17679.805181003238, 45549.94947313661, 75331.57024759892, 14604.94275152001, -20775.2535671298, -29612.261606724456, 10060.095496189058, 0.0, 0.0, 0.0, 192.0, 0.0, 0.0, 0.0, 0.0, 0.0, 0.0, 0.0, 0.0, 0.0, 1.69627523736928E9, 0.0, 2023-10-02 15:33:57.369
146.0, 19890.906797755575, 17681.861541493123, 45546.79787716841, 75330.76558479853, 14610.106004489186, -20764.927061191447, -29606.919539799637, 10068.008013726238, 0.0, 0.0, 0.0, 192.0, 0.0, 0.0, 0.0, 0.0, 0.0, 0.0, 0.0, 0.0, 0.0, 1.6962752373693025E9, 0.0, 2023-10-02 15:33:57.369
147.0, 19882.83781800721, 17675.89362572356, 45538.50537997549, 75297.75205823804, 14597.209047938473, -20776.818189241672, -29615.100278270278, 10057.972080465805, 0.0, 0.0, 0.0, 192.0, 0.0, 0.0, 0.0, 0.0, 0.0, 0.0, 0.0, 0.0, 0.0, 1.6962752373693132E9, 0.0, 2023-10-02 15:33:57.369
148.0, 19882.83781800721, 17675.379535601085, 45548.89894114721, 75305.95514845314, 14596.449088626992, -20783.34489862262, -29594.62608034922, 10068.65621431544, 0.07200000000000001, 0.9560000000000001, 0.248, 192.0, 2.0, 64.0, 29.0, 224.0, 7.0, 192.0, 0.0, 0.0, 0.0, 1.6962752373693228E9, 0.0, 2023-10-02 15:33:57.369
149.0, 19890.146838444096, 17685.147247928053, 45559.53837150793, 75345.7859570725, 14607.200277709995, -20770.716163005374, -29563.445396834064, 10094.338368694589, 0.07200000000000001, 0.9560000000000001, 0.248, 192.0, 0.0, 0.0, 0.0, 0.0, 0.0, 0.0, 0.0, 0.0, 0.0, 1.6962752373693345E9, 0.0, 2023-10-02 15:33:57.369
150.0, 19889.16336168806, 17689.416431119018, 45541.5005137325, 75338.92397152472, 14598.728966561433, -20773.174854895457, -29566.060550935337, 10091.276179704211, 0.07200000000000001, 0.9560000000000001, 0.248, 192.0, 0.0, 0.0, 0.0, 0.0, 0.0, 0.0, 0.0, 0.0, 0.0, 1.6962752373693445E9, 0.0, 2023-10-02 15:33:57.369
151.0, 19909.056414253286, 17705.241466193376, 45539.53356022043, 75293.48287504708, 14606.88735328762, -20770.44794207191, -29588.456998879556, 10068.94678699336, 0.07200000000000001, 0.9560000000000001, 0.248, 192.0, 0.0, 0.0, 0.0, 0.0, 0.0, 0.0, 0.0, 0.0, 0.0, 1.6962752373693542E9, 0.0, 2023-10-02 15:33:57.369
152.0, 19912.6997485995, 17706.828440049703, 45549.860066158784, 75263.24096479904, 14611.536516134325, -20768.48098855984, -29615.524961414932, 10042.549376791641, 0.07200000000000001, 0.9560000000000001, 0.248, 192.0, 0.0, 0.0, 0.0, 0.0, 0.0, 0.0, 0.0, 0.0, 0.0, 1.6962752373693638E9, 0.0, 2023-10-02 15:33:57.369
153.0, 19894.12544895714, 17690.131686941586, 45561.55002850891, 75294.24283435856, 14608.831955055233, -20769.464465315876, -29603.365612431244, 10054.731077519784, 0.07200000000000001, 0.9560000000000001, 0.248, 192.0, 0.0, 0.0, 0.0, 0.0, 0.0, 0.0, 0.0, 0.0, 0.0, 1.6962752373693736E9, 0.0, 2023-10-02 15:33:57.369
154.0, 19890.571521588747, 17695.183181188488, 45557.19143834012, 75306.44688683115, 14612.22942021244, -20763.34008733512, -29602.47154265303, 10059.223778155301, 0.07200000000000001, 0.9560000000000001, 0.248, 192.0, 0.0, 0.0, 0.0, 0.0, 0.0, 0.0, 0.0, 0.0, 0.0, 1.696275237369383E9, 0.0, 2023-10-02 15:33:57.369
155.0, 19893.07491696774, 17706.470812138417, 45554.68804296113, 75275.10974110481, 14615.805699325289, -20761.10491288959, -29617.268397482443, 10048.316126861111, 0.07200000000000001, 0.9560000000000001, 0.248, 192.0, 0.0, 0.0, 0.0, 0.0, 0.0, 0.0, 0.0, 0.0, 0.0, 1.6962752373693929E9, 0.0, 2023-10-02 15:33:57.369
156.0, 19897.83583853672, 17712.729300585903, 45562.377043053755, 75259.24000254154, 14616.31978944776, -20760.12143613356, -29620.48704868401, 10043.577557036586, 0.07200000000000001, 0.9560000000000001, 0.248, 192.0, 0.0, 0.0, 0.0, 0.0, 0.0, 0.0, 0.0, 0.0, 0.0, 1.6962752373694024E9, 0.0, 2023-10-02 15:33:57.369
157.0, 19903.244960694905, 17719.993617533877, 45567.22737160056, 75271.8687381588, 14612.363530679171, -20759.339125077622, -29628.734842388018, 10037.3190685891, 0.07200000000000001, 0.9560000000000001, 0.248, 192.0, 0.0, 0.0, 0.0, 0.0, 0.0, 0.0, 0.0, 0.0, 0.0, 1.6962752373694124E9, 0.0, 2023-10-02 15:33:57.369
158.0, 19890.88444601112, 17717.244352965874, 45558.48783951853, 75295.40512507023, 14596.98553049392, -20766.379924581044, -29618.028356793926, 10051.043039684659, 0.074, 0.9540000000000001, 0.246, 192.0, 2.0, 80.0, 29.0, 208.0, 7.0, 176.0, 0.0, 0.0, 0.0, 1.696275237369422E9, 0.0, 2023-10-02 15:33:57.369
159.0, 19904.161382217575, 17735.729245630413, 45547.80370566889, 75257.78713915196, 14596.60555083818, -20766.91636644797, -29644.805746651382, 10028.333667318067, 0.074, 0.9540000000000001, 0.246, 192.0, 0.0, 0.0, 0.0, 0.0, 0.0, 0.0, 0.0, 0.0, 0.0, 1.6962752373694327E9, 0.0, 2023-10-02 15:33:57.369
160.0, 19899.981606004432, 17732.376483962118, 45565.103955877305, 75234.96600806309, 14609.03312075533, -20765.06117165818, -29658.887345658226, 10014.095606100036, 0.074, 0.9540000000000001, 0.246, 192.0, 0.0, 0.0, 0.0, 0.0, 0.0, 0.0, 0.0, 0.0, 0.0, 1.6962752373694425E9, 0.0, 2023-10-02 15:33:57.369
161.0, 19901.613283349667, 17728.21905949343, 45586.628685787764, 75268.06894160139, 14617.727949348444, -20761.797816967704, -29638.301389014887, 10034.726266232285, 0.074, 0.9540000000000001, 0.246, 192.0, 0.0, 0.0, 0.0, 0.0, 0.0, 0.0, 0.0, 0.0, 0.0, 1.6962752373695357E9, 0.0, 2023-10-02 15:33:57.369
162.0, 19906.776536318845, 17729.247239738375, 45581.3089706074, 75289.90659593423, 14609.390748666616, -20761.931927434438, -29634.702758157586, 10043.398743080943, 0.074, 0.9540000000000001, 0.246, 192.0, 0.0, 0.0, 0.0, 0.0, 0.0, 0.0, 0.0, 0.0, 0.0, 1.696275237369546E9, 0.0, 2023-10-02 15:33:57.369
163.0, 19906.46361189647, 17731.728283372915, 45570.133098379745, 75264.80558691092, 14606.820298054256, -20766.53638679223, -29646.10214782979, 10035.84385345505, 0.074, 0.9540000000000001, 0.246, 192.0, 0.0, 0.0, 0.0, 0.0, 0.0, 0.0, 0.0, 0.0, 0.0, 1.6962752373695557E9, 0.0, 2023-10-02 15:33:57.369
164.0, 19911.80567882129, 17738.79143462079, 45579.96786594008, 75242.63265641125, 14613.838745813222, -20764.83765421363, -29646.48212748553, 10035.240356354756, 0.074, 0.9540000000000001, 0.246, 192.0, 0.0, 0.0, 0.0, 0.0, 0.0, 0.0, 0.0, 0.0, 0.0, 1.6962752373695652E9, 0.0, 2023-10-02 15:33:57.369
165.0, 19909.682263098035, 17735.50572818586, 45587.343941610336, 75269.32063929089, 14604.40630965308, -20775.54413980772, -29616.91076957116, 10056.563920565119, 0.074, 0.9540000000000001, 0.246, 192.0, 0.0, 0.0, 0.0, 0.0, 0.0, 0.0, 0.0, 0.0, 0.0, 1.6962752373695748E9, 0.0, 2023-10-02 15:33:57.369
166.0, 19914.800812578298, 17742.054789311267, 45580.906639207205, 75298.78023848298, 14598.37133865015, -20781.40029685501, -29597.62121410623, 10071.405478883444, 0.074, 0.9540000000000001, 0.246, 192.0, 0.0, 0.0, 0.0, 0.0, 0.0, 0.0, 0.0, 0.0, 0.0, 1.6962752373695853E9, 0.0, 2023-10-02 15:33:57.369
167.0, 19918.891181813622, 17753.40947549456, 45576.36923508278, 75291.69473549066, 14601.098251473697, -20774.49360781832, -29592.927347770616, 10077.887484775483, 0.074, 0.9540000000000001, 0.246, 192.0, 0.0, 0.0, 0.0, 0.0, 0.0, 0.0, 0.0, 0.0, 0.0, 1.6962752373695974E9, 0.0, 2023-10-02 15:33:57.369
168.0, 19933.643333154123, 17771.492036758904, 45583.342979352834, 75247.9076681027, 14613.481117901936, -20767.519863548263, -29615.23438873701, 10055.111057175525, 0.08, 0.9580000000000001, 0.25, 192.0, 2.0, 128.0, 29.0, 240.0, 7.0, 208.0, 0.0, 0.0, 0.0, 1.6962752373696072E9, 0.0, 2023-10-02 15:33:57.369
169.0, 19933.19629826502, 17773.794266437802, 45598.43040686016, 75250.79104313745, 14617.862059815177, -20765.77642748075, -29614.38502244771, 10052.51825481871, 0.08, 0.9580000000000001, 0.25, 192.0, 0.0, 0.0, 0.0, 0.0, 0.0, 0.0, 0.0, 0.0, 0.0, 1.6962752373696177E9, 0.0, 2023-10-02 15:33:57.369
170.0, 19924.412062694082, 17764.56299597776, 45596.01641845899, 75295.67334600369, 14606.507373631881, -20774.650070029507, -29580.90210925366, 10081.083784232591, 0.08, 0.9580000000000001, 0.25, 192.0, 0.0, 0.0, 0.0, 0.0, 0.0, 0.0, 0.0, 0.0, 0.0, 1.6962752373696277E9, 0.0, 2023-10-02 15:33:57.369
171.0, 19929.41885345207, 17771.559091992272, 45581.107804907304, 75286.35266856583, 14600.181829951029, -20773.06309617318, -29583.025524976914, 10078.80390629815, 0.08, 0.9580000000000001, 0.25, 192.0, 0.0, 0.0, 0.0, 0.0, 0.0, 0.0, 0.0, 0.0, 0.0, 1.6962752373696375E9, 0.0, 2023-10-02 15:33:57.369
172.0, 19920.254638225393, 17772.408458281574, 45570.51307803549, 75236.5529819194, 14590.637635068613, -20780.662689287983, -29610.115839256745, 10051.154798406935, 0.08, 0.9580000000000001, 0.25, 192.0, 0.0, 0.0, 0.0, 0.0, 0.0, 0.0, 0.0, 0.0, 0.0, 1.6962752373696473E9, 0.0, 2023-10-02 15:33:57.369
173.0, 19912.140954988117, 17773.436638526517, 45580.191383384634, 75241.3586069773, 14585.429678610526, -20782.719049777872, -29595.14017047169, 10061.74952527875, 0.08, 0.9580000000000001, 0.25, 192.0, 0.0, 0.0, 0.0, 0.0, 0.0, 0.0, 0.0, 0.0, 0.0, 1.6962752373696568E9, 0.0, 2023-10-02 15:33:57.369
174.0, 19913.951446288997, 17776.767048450358, 45588.9085637222, 75275.17679633819, 14586.167286177551, -20776.59467179712, -29575.71650454003, 10079.429755142899, 0.08, 0.9580000000000001, 0.25, 192.0, 0.0, 0.0, 0.0, 0.0, 0.0, 0.0, 0.0, 0.0, 0.0, 1.6962752373696666E9, 0.0, 2023-10-02 15:33:57.369
175.0, 19916.968931790463, 17781.170342108053, 45571.36244432479, 75272.87456665929, 14581.473419841937, -20782.584939311142, -29579.158673186146, 10076.255807430245, 0.08, 0.9580000000000001, 0.25, 192.0, 0.0, 0.0, 0.0, 0.0, 0.0, 0.0, 0.0, 0.0, 0.0, 1.696275237369676E9, 0.0, 2023-10-02 15:33:57.369
176.0, 19932.905725587098, 17797.822391727255, 45578.7608717395, 75237.78232786445, 14598.505449116881, -20770.738514749828, -29598.358821673253, 10057.592100810063, 0.08, 0.9580000000000001, 0.25, 192.0, 0.0, 0.0, 0.0, 0.0, 0.0, 0.0, 0.0, 0.0, 0.0, 1.696275237369686E9, 0.0, 2023-10-02 15:33:57.369
177.0, 19923.361530704682, 17793.41909806956, 45592.6636567907, 75234.18369700715, 14600.382995651127, -20771.498474061307, -29594.693135582584, 10058.150894421446, 0.08, 0.9580000000000001, 0.25, 192.0, 0.0, 0.0, 0.0, 0.0, 0.0, 0.0, 0.0, 0.0, 0.0, 1.696275237369724E9, 0.0, 2023-10-02 15:33:57.369
178.0, 19935.47617619946, 17805.71255751998, 45602.61018307331, 75262.65981944322, 14605.345082920205, -20761.10491288959, -29583.360801143743, 10069.03619397118, 0.078, 0.9580000000000001, 0.25, 192.0, 2.0, 112.0, 29.0, 240.0, 7.0, 208.0, 0.0, 0.0, 0.0, 1.6962752373697336E9, 0.0, 2023-10-02 15:33:57.369
179.0, 19943.18752803654, 17812.798060512312, 45594.541203324945, 75275.89205216075, 14599.354815406183, -20763.071866401657, -29578.309306896845, 10075.85347603005, 0.078, 0.9580000000000001, 0.25, 192.0, 0.0, 0.0, 0.0, 0.0, 0.0, 0.0, 0.0, 0.0, 0.0, 1.696275237369744E9, 0.0, 2023-10-02 15:33:57.369
180.0, 19950.876528129163, 17818.56481058178, 45592.55189806842, 75256.11075831781, 14596.739661304911, -20765.82113096966, -29580.65624006465, 10075.339385907577, 0.078, 0.9580000000000001, 0.25, 192.0, 0.0, 0.0, 0.0, 0.0, 0.0, 0.0, 0.0, 0.0, 0.0, 1.6962752373697536E9, 0.0, 2023-10-02 15:33:57.369
181.0, 19944.305115259303, 17815.748490780414, 45595.859956247805, 75227.88050507075, 14593.789231036812, -20770.604404283098, -29597.24123445049, 10056.22864439829, 0.078, 0.9580000000000001, 0.25, 192.0, 0.0, 0.0, 0.0, 0.0, 0.0, 0.0, 0.0, 0.0, 0.0, 1.6962752373697634E9, 0.0, 2023-10-02 15:33:57.369
182.0, 19914.93492304503, 17799.789345239325, 45587.70156952162, 75244.15257503421, 14569.470533069436, -20791.413878370986, -29594.22374894902, 10053.993469952758, 0.078, 0.9580000000000001, 0.25, 192.0, 0.0, 0.0, 0.0, 0.0, 0.0, 0.0, 0.0, 0.0, 0.0, 1.696275237369773E9, 0.0, 2023-10-02 15:33:57.369
183.0, 19917.304207957295, 17811.233438400443, 45577.93385719465, 75254.05439782792, 14568.688222013501, -20788.5081515918, -29599.00702226246, 10051.735943762773, 0.078, 0.9580000000000001, 0.25, 192.0, 0.0, 0.0, 0.0, 0.0, 0.0, 0.0, 0.0, 0.0, 0.0, 1.6962752373697827E9, 0.0, 2023-10-02 15:33:57.369
184.0, 19934.447995954513, 17825.829127529756, 45582.44890957462, 75224.41598468018, 14587.061355955764, -20781.91438697748, -29622.699871385084, 10033.005181909226, 0.078, 0.9580000000000001, 0.25, 192.0, 0.0, 0.0, 0.0, 0.0, 0.0, 0.0, 0.0, 0.0, 0.0, 1.6962752373697925E9, 0.0, 2023-10-02 15:33:57.369
185.0, 19942.494623958424, 17838.882546291657, 45594.98823821405, 75195.91751049967, 14599.198353194995, -20782.96491896688, -29640.67067392715, 10015.436710767355, 0.078, 0.9580000000000001, 0.25, 192.0, 0.0, 0.0, 0.0, 0.0, 0.0, 0.0, 0.0, 0.0, 0.0, 1.696275237369802E9, 0.0, 2023-10-02 15:33:57.369
186.0, 19944.975667592964, 17846.079808006263, 45609.1145407098, 75216.32465318736, 14599.824202039743, -20783.009622455793, -29632.713452901062, 10020.97994339227, 0.078, 0.9580000000000001, 0.25, 192.0, 0.0, 0.0, 0.0, 0.0, 0.0, 0.0, 0.0, 0.0, 0.0, 1.6962752373698113E9, 0.0, 2023-10-02 15:33:57.369
187.0, 19939.298324501317, 17843.62111611618, 45611.997915744534, 75255.8648891288, 14594.012748481364, -20785.98240446835, -29611.09931601278, 10042.32585934709, 0.078, 0.9580000000000001, 0.25, 192.0, 0.0, 0.0, 0.0, 0.0, 0.0, 0.0, 0.0, 0.0, 0.0, 1.6962752373698213E9, 0.0, 2023-10-02 15:33:57.369
188.0, 19946.875565871665, 17851.53363365336, 45600.039732460944, 75245.38192097926, 14591.039966468808, -20787.949357980415, -29613.2897869694, 10040.805940724129, 0.07200000000000001, 0.9560000000000001, 0.248, 192.0, 2.0, 64.0, 29.0, 224.0, 7.0, 192.0, 0.0, 0.0, 0.0, 1.6962752373698325E9, 0.0, 2023-10-02 15:33:57.369
189.0, 19958.67728694407, 17862.39658145864, 45604.599488329826, 75215.74350783152, 14599.131297961629, -20781.355593366097, -29630.590037177808, 10024.422112038388, 0.07200000000000001, 0.9560000000000001, 0.248, 192.0, 0.0, 0.0, 0.0, 0.0, 0.0, 0.0, 0.0, 0.0, 0.0, 1.6962752373698428E9, 0.0, 2023-10-02 15:33:57.369
190.0, 19949.401312995116, 17858.306212223317, 45621.67622109369, 75221.66672011217, 14600.137126462118, -20779.343936365123, -29633.227543023535, 10019.638838724952, 0.07200000000000001, 0.9560000000000001, 0.248, 192.0, 0.0, 0.0, 0.0, 0.0, 0.0, 0.0, 0.0, 0.0, 0.0, 1.6962752373698523E9, 0.0, 2023-10-02 15:33:57.369
191.0, 19939.94652509052, 17850.840729575244, 45620.9162617822, 75262.70452293212, 14595.08563221522, -20784.35072712311, -29604.393792676186, 10046.572690793597, 0.07200000000000001, 0.9560000000000001, 0.248, 192.0, 0.0, 0.0, 0.0, 0.0, 0.0, 0.0, 0.0, 0.0, 0.0, 1.696275237369862E9, 0.0, 2023-10-02 15:33:57.369
192.0, 19946.98732459394, 17854.48406392146, 45615.998878002036, 75271.24288931405, 14594.191562437007, -20782.607291055596, -29582.3326208988, 10067.024536970202, 0.07200000000000001, 0.9560000000000001, 0.248, 192.0, 0.0, 0.0, 0.0, 0.0, 0.0, 0.0, 0.0, 0.0, 0.0, 1.6962752373698804E9, 0.0, 2023-10-02 15:33:57.369
193.0, 19949.311906017294, 17861.278994235872, 45613.80840704541, 75234.74249061853, 14594.7950595373, -20780.573282310164, -29596.593033861285, 10049.590176295063, 0.07200000000000001, 0.9560000000000001, 0.248, 192.0, 0.0, 0.0, 0.0, 0.0, 0.0, 0.0, 0.0, 0.0, 0.0, 1.6962752373698905E9, 0.0, 2023-10-02 15:33:57.369
194.0, 19956.19624330953, 17869.884415851167, 45633.343831699356, 75232.753185362, 14603.60164685269, -20769.10683740459, -29603.834999064806, 10039.37542907899, 0.07200000000000001, 0.9560000000000001, 0.248, 192.0, 0.0, 0.0, 0.0, 0.0, 0.0, 0.0, 0.0, 0.0, 0.0, 1.6962752373699E9, 0.0, 2023-10-02 15:33:57.369
195.0, 19957.62675495467, 17878.176913044084, 45645.078497538394, 75275.24385157155, 14601.813507296267, -20764.77059898026, -29585.171292444622, 10053.792304252662, 0.07200000000000001, 0.9560000000000001, 0.248, 192.0, 0.0, 0.0, 0.0, 0.0, 0.0, 0.0, 0.0, 0.0, 0.0, 1.6962752373699095E9, 0.0, 2023-10-02 15:33:57.369
196.0, 19952.642315941135, 17879.696831667046, 45629.476979908584, 75286.10679937682, 14588.894199001099, -20776.125285163558, -29573.61544056123, 10065.526970091698, 0.07200000000000001, 0.9560000000000001, 0.248, 192.0, 0.0, 0.0, 0.0, 0.0, 0.0, 0.0, 0.0, 0.0, 0.0, 1.6962752373699193E9, 0.0, 2023-10-02 15:33:57.369
197.0, 19957.783217165856, 17888.279901537884, 45628.873482808296, 75252.9144588607, 14599.198353194995, -20769.039782171225, -29589.10519946876, 10052.205330396335, 0.07200000000000001, 0.9560000000000001, 0.248, 192.0, 0.0, 0.0, 0.0, 0.0, 0.0, 0.0, 0.0, 0.0, 0.0, 1.6962752373699296E9, 0.0, 2023-10-02 15:33:57.369
198.0, 19962.253566056916, 17892.92906438459, 45645.95021557215, 75232.73083361755, 14607.22262945445, -20763.474197801854, -29611.85927532426, 10030.635896996964, 0.08, 0.9500000000000001, 0.244, 192.0, 2.0, 128.0, 29.0, 176.0, 7.0, 160.0, 0.0, 0.0, 0.0, 1.696275237369939E9, 0.0, 2023-10-02 15:33:57.369
199.0, 19961.58301372326, 17889.6210062052, 45657.48371571109, 75265.99022936705, 14604.808641053278, -20760.54611927821, -29597.420048406133, 10044.873958214994, 0.08, 0.9500000000000001, 0.244, 192.0, 0.0, 0.0, 0.0, 0.0, 0.0, 0.0, 0.0, 0.0, 0.0, 1.6962752373699496E9, 0.0, 2023-10-02 15:33:57.369
200.0, 19971.171912094585, 17894.82896266329, 45653.72862264259, 75280.58591849636, 14604.31690267526, -20759.71910473336, -29585.75243780046, 10058.307356632633, 0.08, 0.9500000000000001, 0.244, 192.0, 0.0, 0.0, 0.0, 0.0, 0.0, 0.0, 0.0, 0.0, 0.0, 1.696275237369959E9, 0.0, 2023-10-02 15:33:57.369
201.0, 19975.374040052182, 17903.054404622842, 45656.969625588616, 75256.53544146246, 14605.948580020498, -20760.34495357811, -29592.61442334824, 10054.284042630678, 0.08, 0.9500000000000001, 0.244, 192.0, 0.0, 0.0, 0.0, 0.0, 0.0, 0.0, 0.0, 0.0, 0.0, 1.696275237369969E9, 0.0, 2023-10-02 15:33:57.369
202.0, 19968.15442659312, 17908.485878525484, 45660.523552957005, 75243.19145002264, 14595.130335704129, -20768.436285070933, -29595.766019316437, 10046.080952415581, 0.08, 0.9500000000000001, 0.244, 192.0, 0.0, 0.0, 0.0, 0.0, 0.0, 0.0, 0.0, 0.0, 0.0, 1.696275237369979E9, 0.0, 2023-10-02 15:33:57.369
203.0, 19976.15635110812, 17918.052425152353, 45670.85005889536, 75259.61998219728, 14596.337329904716, -20765.955241436393, -29597.352993172764, 10044.024591925692, 0.08, 0.9500000000000001, 0.244, 192.0, 0.0, 0.0, 0.0, 0.0, 0.0, 0.0, 0.0, 0.0, 0.0, 1.6962752373699884E9, 0.0, 2023-10-02 15:33:57.369
204.0, 19970.635470227655, 17910.96692216002, 45669.978340861606, 75285.83857844336, 14588.357757134172, -20768.704506004397, -29576.431760362597, 10066.108115447536, 0.08, 0.9500000000000001, 0.244, 192.0, 0.0, 0.0, 0.0, 0.0, 0.0, 0.0, 0.0, 0.0, 0.0, 1.6962752373699982E9, 0.0, 2023-10-02 15:33:57.369
205.0, 19954.497510730926, 17903.747308700957, 45651.024061563505, 75256.17781355117, 14578.970024462942, -20780.88620673254, -29582.46673136553, 10058.664984543919, 0.08, 0.9500000000000001, 0.244, 192.0, 0.0, 0.0, 0.0, 0.0, 0.0, 0.0, 0.0, 0.0, 0.0, 1.696275237370008E9, 0.0, 2023-10-02 15:33:57.370
206.0, 19953.357571763703, 17915.68314024009, 45654.935616843184, 75218.62688286626, 14589.162419934562, -20782.339070122132, -29600.884568796704, 10038.995449423248, 0.08, 0.9500000000000001, 0.244, 192.0, 0.0, 0.0, 0.0, 0.0, 0.0, 0.0, 0.0, 0.0, 0.0, 1.6962752373700175E9, 0.0, 2023-10-02 15:33:57.370
207.0, 19953.7599031639, 17916.55485827385, 45674.80631766395, 75249.53934544795, 14587.866018756155, -20779.075715431656, -29576.252946406956, 10061.213083411823, 0.08, 0.9500000000000001, 0.244, 192.0, 0.0, 0.0, 0.0, 0.0, 0.0, 0.0, 0.0, 0.0, 0.0, 1.6962752373700273E9, 0.0, 2023-10-02 15:33:57.370
208.0, 19963.8628916577, 17924.132099644197, 45673.666378696726, 75273.25454631503, 14586.614321066658, -20777.220520641866, -29558.773882242906, 10077.79807779766, 0.078, 0.9540000000000001, 0.246, 192.0, 2.0, 112.0, 29.0, 208.0, 7.0, 176.0, 0.0, 0.0, 0.0, 1.6962752373700635E9, 0.0, 2023-10-02 15:33:57.370
209.0, 19978.324470320284, 17940.35946611875, 45672.2805705405, 75244.7560721345, 14598.281931672327, -20777.1534654085, -29573.391923116676, 10064.61054856903, 0.078, 0.9540000000000001, 0.246, 192.0, 0.0, 0.0, 0.0, 0.0, 0.0, 0.0, 0.0, 0.0, 0.0, 1.6962752373700757E9, 0.0, 2023-10-02 15:33:57.370
210.0, 19986.326394835283, 17950.864786012746, 45679.32137004392, 75211.87665604075, 14603.646350341602, -20777.01935494177, -29592.301498925866, 10046.729153004784, 0.078, 0.9540000000000001, 0.246, 192.0, 0.0, 0.0, 0.0, 0.0, 0.0, 0.0, 0.0, 0.0, 0.0, 1.6962752373700855E9, 0.0, 2023-10-02 15:33:57.370
211.0, 19978.659746487112, 17942.728751031013, 45689.670227726725, 75227.32171145937, 14600.181829951029, -20774.67242177396, -29586.04301047838, 10050.193673395357, 0.078, 0.9540000000000001, 0.246, 192.0, 0.0, 0.0, 0.0, 0.0, 0.0, 0.0, 0.0, 0.0, 0.0, 1.696275237370095E9, 0.0, 2023-10-02 15:33:57.370
212.0, 19976.33516506376, 17939.040713195885, 45688.15030910377, 75253.22738328307, 14596.136164204618, -20775.387677596533, -29573.45897835004, 10062.576539823596, 0.078, 0.9540000000000001, 0.246, 192.0, 0.0, 0.0, 0.0, 0.0, 0.0, 0.0, 0.0, 0.0, 0.0, 1.6962752373701048E9, 0.0, 2023-10-02 15:33:57.370
213.0, 19979.24089184295, 17943.846338253778, 45681.1318613448, 75245.27016225699, 14594.213914181462, -20777.667555530974, -29568.362780614232, 10067.717441048319, 0.078, 0.9540000000000001, 0.246, 192.0, 0.0, 0.0, 0.0, 0.0, 0.0, 0.0, 0.0, 0.0, 0.0, 1.6962752373701143E9, 0.0, 2023-10-02 15:33:57.370
214.0, 19983.040688400353, 17948.942535989587, 45682.51766950103, 75212.23428395204, 14595.040928726308, -20783.009622455793, -29577.594051074273, 10056.183940909379, 0.078, 0.9540000000000001, 0.246, 192.0, 0.0, 0.0, 0.0, 0.0, 0.0, 0.0, 0.0, 0.0, 0.0, 1.696275237370124E9, 0.0, 2023-10-02 15:33:57.370
215.0, 19979.19618835404, 17951.423579624126, 45687.07742536991, 75216.72698458756, 14583.015690209353, -20792.754983038307, -29574.174234172613, 10055.17811240889, 0.078, 0.9540000000000001, 0.246, 192.0, 0.0, 0.0, 0.0, 0.0, 0.0, 0.0, 0.0, 0.0, 0.0, 1.6962752373701336E9, 0.0, 2023-10-02 15:33:57.370
216.0, 19977.788028453353, 17955.491597114993, 45689.402006793265, 75251.55100244892, 14583.440373354004, -20789.26811090328, -29554.169422885112, 10071.94192075037, 0.078, 0.9540000000000001, 0.246, 192.0, 0.0, 0.0, 0.0, 0.0, 0.0, 0.0, 0.0, 0.0, 0.0, 1.6962752373701432E9, 0.0, 2023-10-02 15:33:57.370
217.0, 19980.9172726771, 17963.22530069653, 45686.83155618091, 75246.92419134667, 14591.17407693554, -20781.355593366097, -29550.61549551672, 10074.557074851642, 0.078, 0.9540000000000001, 0.246, 192.0, 0.0, 0.0, 0.0, 0.0, 0.0, 0.0, 0.0, 0.0, 0.0, 1.696275237370153E9, 0.0, 2023-10-02 15:33:57.370
218.0, 19993.925987950086, 17984.347699206795, 45693.581783006404, 75205.52876061545, 14603.60164685269, -20770.514997305276, -29574.3306963838, 10050.484246073276, 0.076, 0.9580000000000001, 0.248, 192.0, 2.0, 96.0, 29.0, 240.0, 7.0, 192.0, 0.0, 0.0, 0.0, 1.6962752373701625E9, 0.0, 2023-10-02 15:33:57.370
219.0, 19988.89684544764, 17990.829705098833, 45710.90438495927, 75206.04285073791, 14606.954408520987, -20766.938718192425, -29577.549347585365, 10045.835083226571, 0.076, 0.9580000000000001, 0.248, 192.0, 0.0, 0.0, 0.0, 0.0, 0.0, 0.0, 0.0, 0.0, 0.0, 1.6962752373701727E9, 0.0, 2023-10-02 15:33:57.370
220.0, 19980.9172726771, 17992.46138244407, 45708.57980353592, 75233.69195862913, 14598.639559583613, -20770.33618334963, -29571.22380390451, 10052.317089118611, 0.076, 0.9580000000000001, 0.248, 192.0, 0.0, 0.0, 0.0, 0.0, 0.0, 0.0, 0.0, 0.0, 0.0, 1.6962752373701825E9, 0.0, 2023-10-02 15:33:57.370
221.0, 19995.28944436186, 18004.41956572766, 45704.37767557832, 75230.07097602737, 14603.199315452495, -20767.16223563698, -29580.879757509203, 10050.372487351, 0.076, 0.9580000000000001, 0.248, 192.0, 0.0, 0.0, 0.0, 0.0, 0.0, 0.0, 0.0, 0.0, 0.0, 1.6962752373701923E9, 0.0, 2023-10-02 15:33:57.370
222.0, 20004.34190086626, 18012.868525131766, 45711.53023380402, 75205.72992631554, 14603.467536385959, -20768.05630541519, -29587.361763401244, 10046.349173349045, 0.076, 0.9580000000000001, 0.248, 192.0, 0.0, 0.0, 0.0, 0.0, 0.0, 0.0, 0.0, 0.0, 0.0, 1.696275237370202E9, 0.0, 2023-10-02 15:33:57.370
223.0, 20001.10089792024, 18020.266952546473, 45723.84604499889, 75203.09242046981, 14604.629827097635, -20766.178758880946, -29585.95360350056, 10044.60573728153, 0.076, 0.9580000000000001, 0.248, 192.0, 0.0, 0.0, 0.0, 0.0, 0.0, 0.0, 0.0, 0.0, 0.0, 1.6962752373702202E9, 0.0, 2023-10-02 15:33:57.370
224.0, 20000.922083964597, 18019.909324635188, 45729.29987064599, 75222.4043276792, 14603.735757319422, -20767.139883892523, -29588.792275046384, 10043.622260525497, 0.076, 0.9580000000000001, 0.248, 192.0, 0.0, 0.0, 0.0, 0.0, 0.0, 0.0, 0.0, 0.0, 0.0, 1.69627523737023E9, 0.0, 2023-10-02 15:33:57.370
225.0, 20005.34772936675, 18015.32721702185, 45722.884919987315, 75234.54132491843, 14596.94082700501, -20777.891072975526, -29587.384115145698, 10048.852568728038, 0.076, 0.9580000000000001, 0.248, 192.0, 0.0, 0.0, 0.0, 0.0, 0.0, 0.0, 0.0, 0.0, 0.0, 1.6962752373702397E9, 0.0, 2023-10-02 15:33:57.370
226.0, 20011.96384572552, 18023.731472937045, 45726.796475266994, 75217.82222006586, 14605.300379431294, -20772.973689195358, -29584.85836802225, 10052.786475752173, 0.076, 0.9580000000000001, 0.248, 192.0, 0.0, 0.0, 0.0, 0.0, 0.0, 0.0, 0.0, 0.0, 0.0, 1.6962752373702495E9, 0.0, 2023-10-02 15:33:57.370
227.0, 20005.437136344568, 18019.596400212813, 45740.05105972899, 75212.63661535224, 14607.51320213237, -20768.816264726673, -29574.621269061718, 10058.106190932536, 0.076, 0.9580000000000001, 0.248, 192.0, 0.0, 0.0, 0.0, 0.0, 0.0, 0.0, 0.0, 0.0, 0.0, 1.6962752373702593E9, 0.0, 2023-10-02 15:33:57.370
228.0, 20002.8219822433, 18024.42437701516, 45735.93833874921, 75220.68324335614, 14600.919437518054, -20773.711296762383, -29581.32679239831, 10049.210196639324, 0.07, 0.962, 0.248, 192.0, 2.0, 48.0, 30.0, 16.0, 7.0, 192.0, 0.0, 0.0, 0.0, 1.6962752373702688E9, 0.0, 2023-10-02 15:33:57.370
229.0, 19998.306929863327, 18029.56527823988, 45737.90529226128, 75233.89312432923, 14600.092422973208, -20772.325488606155, -29584.76896104443, 10051.735943762773, 0.07, 0.962, 0.248, 192.0, 0.0, 0.0, 0.0, 0.0, 0.0, 0.0, 0.0, 0.0, 0.0, 1.6962752373702793E9, 0.0, 2023-10-02 15:33:57.370
230.0, 19997.05523217383, 18036.6060777433, 45733.27848115903, 75218.13514448823, 14595.867943271154, -20779.992136954326, -29583.13728369919, 10053.166455407913, 0.07, 0.962, 0.248, 192.0, 0.0, 0.0, 0.0, 0.0, 0.0, 0.0, 0.0, 0.0, 0.0, 1.6962752373702888E9, 0.0, 2023-10-02 15:33:57.370
231.0, 20008.968711968508, 18047.67019124868, 45742.28623417452, 75184.65223129418, 14604.763937564367, -20777.1534654085, -29606.316042699345, 10030.32297257459, 0.07, 0.962, 0.248, 192.0, 0.0, 0.0, 0.0, 0.0, 0.0, 0.0, 0.0, 0.0, 0.0, 1.6962752373702996E9, 0.0, 2023-10-02 15:33:57.370
232.0, 20016.344787638758, 18054.643935518736, 45758.267731460066, 75204.18765594813, 14612.609399868179, -20767.273994359257, -29606.62896712172, 10034.32393483209, 0.07, 0.962, 0.248, 192.0, 0.0, 0.0, 0.0, 0.0, 0.0, 0.0, 0.0, 0.0, 0.0, 1.6962752373703094E9, 0.0, 2023-10-02 15:33:57.370
233.0, 20006.264150889416, 18051.24647036153, 45742.330937663435, 75228.97574054907, 14601.478231129437, -20777.041706686225, -29599.878740296215, 10044.046943670148, 0.07, 0.962, 0.248, 192.0, 0.0, 0.0, 0.0, 0.0, 0.0, 0.0, 0.0, 0.0, 0.0, 1.6962752373703191E9, 0.0, 2023-10-02 15:33:57.370
234.0, 20012.455584103536, 18062.422342589183, 45735.536007349016, 75214.8047345644, 14605.769766064856, -20773.174854895457, -29606.472504910533, 10040.314202346111, 0.07, 0.962, 0.248, 192.0, 0.0, 0.0, 0.0, 0.0, 0.0, 0.0, 0.0, 0.0, 0.0, 1.6962752373703291E9, 0.0, 2023-10-02 15:33:57.370
235.0, 20005.90652297813, 18059.158987898707, 45748.120039477355, 75192.52004534246, 14609.636617855624, -20766.87166295906, -29613.736821858507, 10032.044056897648, 0.07, 0.962, 0.248, 192.0, 0.0, 0.0, 0.0, 0.0, 0.0, 0.0, 0.0, 0.0, 0.0, 1.6962752373703392E9, 0.0, 2023-10-02 15:33:57.370
236.0, 19989.410935570115, 18043.490415035536, 45756.05490875899, 75205.70757457109, 14604.473364886448, -20774.337145607133, -29608.14888574468, 10033.943955176348, 0.07, 0.962, 0.248, 192.0, 0.0, 0.0, 0.0, 0.0, 0.0, 0.0, 0.0, 0.0, 0.0, 1.6962752373703496E9, 0.0, 2023-10-02 15:33:57.370
237.0, 19992.830752471775, 18046.66436274819, 45753.41740291326, 75230.09332777183, 14600.360643906672, -20773.979517695847, -29601.80099031937, 10040.98475467977, 0.07, 0.962, 0.248, 192.0, 0.0, 0.0, 0.0, 0.0, 0.0, 0.0, 0.0, 0.0, 0.0, 1.6962752373703601E9, 0.0, 2023-10-02 15:33:57.370
238.0, 20002.643168287657, 18056.409723330704, 45745.28136793153, 75233.89312432923, 14595.443260126503, -20774.225386884857, -29588.680516324108, 10054.641670541963, 0.07, 0.962, 0.248, 192.0, 0.0, 0.0, 0.0, 0.0, 0.0, 0.0, 0.0, 0.0, 0.0, 1.6962752373703723E9, 0.0, 2023-10-02 15:33:57.370
239.0, 19999.13394440817, 18059.226043132072, 45737.79353353901, 75209.5520746174, 14590.12354494614, -20782.45082884441, -29589.32871691331, 10049.768990250706, 0.07, 0.9580000000000001, 0.244, 192.0, 2.0, 48.0, 29.0, 240.0, 7.0, 160.0, 0.0, 0.0, 0.0, 1.6962752373703957E9, 0.0, 2023-10-02 15:33:57.370
240.0, 20009.10282243524, 18070.29015663745, 45753.32799593544, 75199.96317624608, 14605.143917220106, -20766.648145514508, -29607.76890608894, 10030.74765571924, 0.07, 0.9580000000000001, 0.244, 192.0, 0.0, 0.0, 0.0, 0.0, 0.0, 0.0, 0.0, 0.0, 0.0, 1.6962752373704073E9, 0.0, 2023-10-02 15:33:57.370
241.0, 20002.397299098648, 18063.115246667297, 45763.989778040625, 75238.27406624248, 14602.975798007941, -20760.72493323385, -29594.268452437933, 10047.377353593989, 0.07, 0.9580000000000001, 0.244, 192.0, 0.0, 0.0, 0.0, 0.0, 0.0, 0.0, 0.0, 0.0, 0.0, 1.6962752373704212E9, 0.0, 2023-10-02 15:33:57.370
242.0, 20003.850162488245, 18066.847987991332, 45754.02090001356, 75239.4587086986, 14597.164344449562, -20769.39741008251, -29593.732010571006, 10052.495903074254, 0.07, 0.9580000000000001, 0.244, 192.0, 0.0, 0.0, 0.0, 0.0, 0.0, 0.0, 0.0, 0.0, 0.0, 1.6962752373704321E9, 0.0, 2023-10-02 15:33:57.370
243.0, 20019.608142329234, 18079.789648030957, 45756.25607445909, 75211.13904847372, 14599.399518895092, -20772.05726767269, -29604.974938032025, 10043.108170403024, 0.07, 0.9580000000000001, 0.244, 192.0, 0.0, 0.0, 0.0, 0.0, 0.0, 0.0, 0.0, 0.0, 0.0, 1.6962752373704443E9, 0.0, 2023-10-02 15:33:57.370
244.0, 20021.619799330212, 18077.062735207408, 45762.58161813994, 75204.83585653733, 14594.12450720364, -20778.069886931167, -29613.178028247123, 10033.295754587145, 0.07, 0.9580000000000001, 0.244, 192.0, 0.0, 0.0, 0.0, 0.0, 0.0, 0.0, 0.0, 0.0, 0.0, 1.6962752373704553E9, 0.0, 2023-10-02 15:33:57.370
245.0, 20001.905560720632, 18062.779970500465, 45757.910103548784, 75246.09717680182, 14583.239207653905, -20784.954224223402, -29590.3345454138, 10054.351097864044, 0.07, 0.9580000000000001, 0.244, 192.0, 0.0, 0.0, 0.0, 0.0, 0.0, 0.0, 0.0, 0.0, 0.0, 1.696275237370466E9, 0.0, 2023-10-02 15:33:57.370
246.0, 19993.322490849794, 18064.031668189964, 45746.73423132113, 75259.57527870838, 14583.97681522093, -20780.39446835452, -29576.90114699616, 10070.533760849687, 0.07, 0.9580000000000001, 0.244, 192.0, 0.0, 0.0, 0.0, 0.0, 0.0, 0.0, 0.0, 0.0, 0.0, 1.6962752373704772E9, 0.0, 2023-10-02 15:33:57.370
247.0, 19997.234046129473, 18078.001508474532, 45743.80615279748, 75230.62976963875, 14589.810620523765, -20779.03101194275, -29588.94873725757, 10059.626109555496, 0.07, 0.9580000000000001, 0.244, 192.0, 0.0, 0.0, 0.0, 0.0, 0.0, 0.0, 0.0, 0.0, 0.0, 1.696275237370489E9, 0.0, 2023-10-02 15:33:57.370
248.0, 20004.00662469943, 18092.86541853731, 45753.39505116881, 75218.87275205526, 14593.297492658794, -20776.92994796395, -29600.549292629876, 10045.991545437759, 0.07, 0.9580000000000001, 0.244, 192.0, 0.0, 0.0, 0.0, 0.0, 0.0, 0.0, 0.0, 0.0, 0.0, 1.6962752373705E9, 0.0, 2023-10-02 15:33:57.370
249.0, 20005.437136344568, 18097.939264528664, 45765.26382747458, 75249.18171753666, 14597.164344449562, -20769.95620369389, -29597.50945538395, 10051.735943762773, 0.074, 0.96, 0.23600000000000002, 192.0, 2.0, 80.0, 30.0, 0.0, 7.0, 96.0, 0.0, 0.0, 0.0, 1.6962752373705115E9, 0.0, 2023-10-02 15:33:57.370
250.0, 20009.460450346523, 18099.48153489608, 45757.66423435977, 75270.97466838059, 14593.40925138107, -20777.309927619688, -29588.65816457965, 10064.252920657746, 0.074, 0.96, 0.23600000000000002, 192.0, 0.0, 0.0, 0.0, 0.0, 0.0, 0.0, 0.0, 0.0, 0.0, 1.6962752373705237E9, 0.0, 2023-10-02 15:33:57.370
251.0, 20018.31174115083, 18106.991721033064, 45755.13848723632, 75249.00290358101, 14593.83393452572, -20781.69086953293, -29594.581376860308, 10060.050792700147, 0.074, 0.96, 0.23600000000000002, 192.0, 0.0, 0.0, 0.0, 0.0, 0.0, 0.0, 0.0, 0.0, 0.0, 1.6962752373705404E9, 0.0, 2023-10-02 15:33:57.370
252.0, 20024.48082262049, 18113.04904378045, 45766.89550481981, 75226.09236551433, 14603.646350341602, -20774.87358747406, -29616.57549340433, 10038.3696005785, 0.074, 0.96, 0.23600000000000002, 192.0, 0.0, 0.0, 0.0, 0.0, 0.0, 0.0, 0.0, 0.0, 0.0, 1.6962752373705544E9, 0.0, 2023-10-02 15:33:57.370
253.0, 20011.136831180673, 18097.782802317477, 45775.21035375719, 75258.6141536968, 14596.627902582635, -20779.81332299868, -29605.019641520936, 10047.399705338443, 0.074, 0.96, 0.23600000000000002, 192.0, 0.0, 0.0, 0.0, 0.0, 0.0, 0.0, 0.0, 0.0, 0.0, 1.6962752373705688E9, 0.0, 2023-10-02 15:33:57.370
254.0, 20016.836526016777, 18095.59233136086, 45761.97812103965, 75285.23508134307, 14592.6939955585, -20787.2564539023, -29589.060495979847, 10064.074106702103, 0.074, 0.96, 0.23600000000000002, 192.0, 0.0, 0.0, 0.0, 0.0, 0.0, 0.0, 0.0, 0.0, 0.0, 1.6962752373706222E9, 0.0, 2023-10-02 15:33:57.370
255.0, 20022.513869108425, 18098.654520351236, 45752.43392615723, 75250.52282220397, 14592.470478113948, -20787.368212624577, -29615.524961414932, 10044.739847748262, 0.074, 0.96, 0.23600000000000002, 192.0, 0.0, 0.0, 0.0, 0.0, 0.0, 0.0, 0.0, 0.0, 0.0, 1.6962752373706388E9, 0.0, 2023-10-02 15:33:57.370
0.0, 20031.365159912726, 18114.613665892324, 45766.6049321419, 75236.46357494159, 14600.897085773599, -20778.53927356473, -29619.235350994513, 10040.98475467977, 0.074, 0.96, 0.23600000000000002, 192.0, 0.0, 0.0, 0.0, 0.0, 0.0, 0.0, 0.0, 0.0, 0.0, 1.69627523737065E9, 0.0, 2023-10-02 15:33:57.370
1.0, 20022.558572597336, 18114.47955542559, 45773.53397292304, 75252.75799664951, 14595.130335704129, -20782.987270711335, -29616.62019689324, 10042.616432025008, 0.074, 0.96, 0.23600000000000002, 192.0, 0.0, 0.0, 0.0, 0.0, 0.0, 0.0, 0.0, 0.0, 0.0, 1.6962752373706636E9, 0.0, 2023-10-02 15:33:57.370
2.0, 20016.18832542757, 18109.562171645426, 45773.53397292304, 75272.69575270364, 14594.7950595373, -20778.047535186714, -29614.18385674761, 10048.98667919477, 0.074, 0.96, 0.23600000000000002, 192.0, 0.0, 0.0, 0.0, 0.0, 0.0, 0.0, 0.0, 0.0, 0.0, 1.6962752373706806E9, 0.0, 2023-10-02 15:33:57.370
3.0, 20023.072662719806, 18117.318226971416, 45769.935342065735, 75264.44795899963, 14593.990396736908, -20776.77348575276, -29611.702813113072, 10054.84283624206, 0.078, 0.962, 0.244, 192.0, 2.0, 112.0, 30.0, 16.0, 7.0, 160.0, 0.0, 0.0, 0.0, 1.696275237370694E9, 0.0, 2023-10-02 15:33:57.370
4.0, 20029.48761337848, 18123.241439252073, 45781.02180731557, 75241.24684825503, 14598.214876438962, -20778.382811353542, -29618.788316105405, 10046.930318704883, 0.078, 0.962, 0.244, 192.0, 0.0, 0.0, 0.0, 0.0, 0.0, 0.0, 0.0, 0.0, 0.0, 1.6962752373707113E9, 0.0, 2023-10-02 15:33:57.370
5.0, 20023.229124930993, 18118.972256061108, 45789.716635908684, 75256.46838622908, 14596.136164204618, -20780.103895676602, -29610.540522401396, 10052.093571674059, 0.078, 0.962, 0.244, 192.0, 0.0, 0.0, 0.0, 0.0, 0.0, 0.0, 0.0, 0.0, 0.0, 1.696275237370726E9, 0.0, 2023-10-02 15:33:57.370
6.0, 20024.145546453663, 18117.139413015775, 45790.141319053335, 75286.10679937682, 14597.454917127481, -20776.885244475037, -29596.637737350196, 10068.365641637522, 0.078, 0.962, 0.244, 192.0, 0.0, 0.0, 0.0, 0.0, 0.0, 0.0, 0.0, 0.0, 0.0, 1.6962752373707433E9, 0.0, 2023-10-02 15:33:57.370
7.0, 20037.757758826945, 18126.951828831654, 45791.41536848729, 75281.74820920805, 14601.522934618348, -20775.11945666307, -29589.373420402222, 10079.094478976069, 0.078, 0.962, 0.244, 192.0, 0.0, 0.0, 0.0, 0.0, 0.0, 0.0, 0.0, 0.0, 0.0, 1.6962752373707557E9, 0.0, 2023-10-02 15:33:57.370
8.0, 20074.146398800185, 18140.519337716025, 45798.74674066863, 75241.67153139968, 14612.184716723528, -20769.866796716073, -29613.513304413955, 10059.4249438554, 0.078, 0.962, 0.244, 192.0, 0.0, 0.0, 0.0, 0.0, 0.0, 0.0, 0.0, 0.0, 0.0, 1.696275237370767E9, 0.0, 2023-10-02 15:33:57.370
9.0, 20100.655567724178, 18138.284163270495, 45809.58733672945, 75245.91836284619, 14605.613303853668, -20773.912462462482, -29613.423897436132, 10058.553225821643, 0.078, 0.962, 0.244, 192.0, 0.0, 0.0, 0.0, 0.0, 0.0, 0.0, 0.0, 0.0, 0.0, 1.696275237370778E9, 0.0, 2023-10-02 15:33:57.370
10.0, 20088.250349551483, 18132.02567482301, 45809.76615068509, 75296.45565705963, 14594.862114770665, -20783.903692234006, -29575.403580117654, 10092.952560538359, 0.078, 0.962, 0.244, 192.0, 0.0, 0.0, 0.0, 0.0, 0.0, 0.0, 0.0, 0.0, 0.0, 1.6962752373707905E9, 0.0, 2023-10-02 15:33:57.370
11.0, 20085.70225068358, 18148.945945375675, 45807.08394135046, 75294.24283435856, 14611.737681834422, -20769.95620369389, -29576.163539429133, 10095.590066384086, 0.078, 0.962, 0.244, 192.0, 0.0, 0.0, 0.0, 0.0, 0.0, 0.0, 0.0, 0.0, 0.0, 1.69627523737081E9, 0.0, 2023-10-02 15:33:57.370
0.0, 0.0, 0.0, 0.0, 0.0, 0.0, 0.0, 0.0, 0.0, 0.078, 0.962, 0.244, 192.0, 0.0, 0.0, 0.0, 0.0, 0.0, 0.0, 0.0, 0.0, 0.0, 1.696275237460266E9, 0.0, 2023-10-02 15:33:57.460
1.0, 20898.47873431191, 19762.786598537758, 46177.005312085785, 68906.31543473189, 15325.719454970296, -20350.615125967877, -29398.35541228717, 10348.745924084893, 0.094, 0.9540000000000001, 0.264, 192.0, 2.0, 240.0, 29.0, 208.0, 8.0, 64.0, 0.0, 0.0, 0.0, 1.6962752379447632E9, 0.0, 2023-10-02 15:33:57.944
2.0, 20898.746955245373, 19768.978031751878, 46184.493146478315, 68956.11512137832, 15323.640742735952, -20351.12921609035, -29402.132857100114, 10344.320278682742, 0.094, 0.9540000000000001, 0.264, 192.0, 0.0, 0.0, 0.0, 0.0, 0.0, 0.0, 0.0, 0.0, 0.0, 1.6962752379449787E9, 0.0, 2023-10-02 15:33:57.944
3.0, 20895.036565665792, 19766.29582241724, 46174.345454495604, 69026.81368909046, 15308.620370461986, -20362.036867384537, -29391.895758139584, 10356.390220688609, 0.094, 0.9540000000000001, 0.264, 192.0, 0.0, 0.0, 0.0, 0.0, 0.0, 0.0, 0.0, 0.0, 0.0, 1.6962752379449909E9, 0.0, 2023-10-02 15:33:57.944
4.0, 20905.117202415135, 19776.890549289055, 46174.25604751779, 69067.69502969921, 15313.02366411968, -20356.15835859279, -29385.01142084735, 10363.743944614405, 0.094, 0.9540000000000001, 0.264, 192.0, 0.0, 0.0, 0.0, 0.0, 0.0, 0.0, 0.0, 0.0, 0.0, 1.696275237945002E9, 0.0, 2023-10-02 15:33:57.945
5.0, 20908.872295483627, 19784.132514492576, 46178.905210364486, 69099.72507950367, 15311.995483874738, -20359.175844094258, -29380.161092300546, 10363.542778914307, 0.094, 0.9540000000000001, 0.264, 192.0, 0.0, 0.0, 0.0, 0.0, 0.0, 0.0, 0.0, 0.0, 0.0, 1.6962752379450188E9, 0.0, 2023-10-02 15:33:57.945
6.0, 20903.217304136433, 19780.757401079823, 46180.69334992091, 69160.96885931121, 15301.870143636483, -20367.825969198464, -29374.416693975534, 10364.012165547869, 0.094, 0.9540000000000001, 0.264, 192.0, 0.0, 0.0, 0.0, 0.0, 0.0, 0.0, 0.0, 0.0, 0.0, 1.6962752379450293E9, 0.0, 2023-10-02 15:33:57.945
7.0, 20902.926731458516, 19782.05380225823, 46171.30561724969, 69241.70336028378, 15292.102431309515, -20371.826931455962, -29360.178632757503, 10377.043232565313, 0.094, 0.9540000000000001, 0.264, 192.0, 0.0, 0.0, 0.0, 0.0, 0.0, 0.0, 0.0, 0.0, 0.0, 1.6962752379450388E9, 0.0, 2023-10-02 15:33:57.945
8.0, 20911.71096702945, 19791.218017484905, 46158.43101244343, 69281.98120379224, 15288.816724874583, -20375.202044868714, -29369.81223461774, 10368.035479549824, 0.096, 0.9520000000000001, 0.27, 192.0, 3.0, 0.0, 29.0, 192.0, 8.0, 112.0, 0.0, 0.0, 0.0, 1.6962752379450488E9, 0.0, 2023-10-02 15:33:57.945
9.0, 20920.42814736702, 19799.555218166737, 46167.41641371446, 69318.70511993232, 15300.014948846692, -20370.84345469993, -29372.91912709703, 10361.106438768678, 0.096, 0.9520000000000001, 0.27, 192.0, 0.0, 0.0, 0.0, 0.0, 0.0, 0.0, 0.0, 0.0, 0.0, 1.696275237945059E9, 0.0, 2023-10-02 15:33:57.945
10.0, 20921.52338284533, 19805.411375214026, 46178.5028789643, 69376.19380667136, 15306.720472183284, -20368.07183838747, -29379.714057411442, 10350.176435730033, 0.096, 0.9520000000000001, 0.27, 192.0, 0.0, 0.0, 0.0, 0.0, 0.0, 0.0, 0.0, 0.0, 0.0, 1.6962752379450688E9, 0.0, 2023-10-02 15:33:57.945
11.0, 20925.881973014115, 19810.10524154964, 46183.867297633566, 69469.48998802781, 15312.107242597014, -20364.69672497472, -29370.23691776239, 10360.324127712742, 0.096, 0.9520000000000001, 0.27, 192.0, 0.0, 0.0, 0.0, 0.0, 0.0, 0.0, 0.0, 0.0, 0.0, 1.6962752379450784E9, 0.0, 2023-10-02 15:33:57.945
12.0, 20934.889726029603, 19818.576552698203, 46176.602980685595, 69532.76777658079, 15313.917733897893, -20355.64426847032, -29378.90939461105, 10359.944148057002, 0.096, 0.9520000000000001, 0.27, 192.0, 0.0, 0.0, 0.0, 0.0, 0.0, 0.0, 0.0, 0.0, 0.0, 1.696275237945088E9, 0.0, 2023-10-02 15:33:57.945
13.0, 20935.068539985245, 19821.102299821654, 46178.61463768657, 69584.93674813947, 15313.761271686706, -20356.560689992988, -29382.86565337964, 10357.261938722366, 0.096, 0.9520000000000001, 0.27, 192.0, 0.0, 0.0, 0.0, 0.0, 0.0, 0.0, 0.0, 0.0, 0.0, 1.696275237945098E9, 0.0, 2023-10-02 15:33:57.945
14.0, 20909.811068750747, 19823.963323111933, 46184.984884856334, 69667.16881599055, 15311.660207707908, -20358.818216182975, -29375.51192945384, 10358.737153856417, 0.096, 0.9520000000000001, 0.27, 192.0, 0.0, 0.0, 0.0, 0.0, 0.0, 0.0, 0.0, 0.0, 0.0, 1.6962752379451096E9, 0.0, 2023-10-02 15:33:57.945
15.0, 20906.458307082452, 19830.82530865971, 46186.884783135036, 69783.8225703028, 15314.588286231554, -20357.432408026747, -29359.57513565721, 10372.215255762965, 0.096, 0.9520000000000001, 0.27, 192.0, 0.0, 0.0, 0.0, 0.0, 0.0, 0.0, 0.0, 0.0, 0.0, 1.6962752379451194E9, 0.0, 2023-10-02 15:33:57.945
16.0, 20916.51659208734, 19839.25191631936, 46180.447480731906, 69881.1420656612, 15319.639780478452, -20357.432408026747, -29353.853089076652, 10381.088898311722, 0.096, 0.9520000000000001, 0.27, 192.0, 0.0, 0.0, 0.0, 0.0, 0.0, 0.0, 0.0, 0.0, 0.0, 1.696275237945129E9, 0.0, 2023-10-02 15:33:57.945
17.0, 20921.322217145233, 19843.252878576863, 46180.514535965274, 69942.47525244657, 15321.316161312601, -20357.16418709328, -29371.399208474068, 10365.107401026178, 0.096, 0.9520000000000001, 0.27, 192.0, 0.0, 0.0, 0.0, 0.0, 0.0, 0.0, 0.0, 0.0, 0.0, 1.6962752379451392E9, 0.0, 2023-10-02 15:33:57.945
18.0, 20919.355263633166, 19842.40351228756, 46188.94114362492, 70036.08435822539, 15315.258838565212, -20362.573309251467, -29378.39530448858, 10356.1443514996, 0.094, 0.9500000000000001, 0.274, 192.0, 2.0, 240.0, 29.0, 176.0, 8.0, 144.0, 0.0, 0.0, 0.0, 1.6962752379451663E9, 0.0, 2023-10-02 15:33:57.945
19.0, 20917.90240024357, 19840.30244830876, 46188.62821920255, 70187.22685423218, 15310.676730951875, -20365.054352886003, -29363.777263614807, 10370.67298539555, 0.094, 0.9500000000000001, 0.274, 192.0, 0.0, 0.0, 0.0, 0.0, 0.0, 0.0, 0.0, 0.0, 0.0, 1.6962752379451768E9, 0.0, 2023-10-02 15:33:57.945
20.0, 20920.00346422237, 19841.330628553704, 46171.81970737216, 70337.07294906056, 15316.868164165995, -20366.060181386492, -29365.00660955985, 10373.355194730186, 0.094, 0.9500000000000001, 0.274, 192.0, 0.0, 0.0, 0.0, 0.0, 0.0, 0.0, 0.0, 0.0, 0.0, 1.6962752379451864E9, 0.0, 2023-10-02 15:33:57.945
21.0, 20933.43686264001, 19844.012837888342, 46171.506782949786, 70477.79953215117, 15327.2170218488, -20361.880405173353, -29372.3826852301, 10369.421287706053, 0.094, 0.9500000000000001, 0.274, 192.0, 0.0, 0.0, 0.0, 0.0, 0.0, 0.0, 0.0, 0.0, 0.0, 1.6962752379451962E9, 0.0, 2023-10-02 15:33:57.945
22.0, 20957.509691418374, 19850.83011994721, 46180.0004458428, 70656.25585988234, 15327.03820789316, -20358.46058827169, -29368.76170262834, 10369.287177239321, 0.094, 0.9500000000000001, 0.274, 192.0, 0.0, 0.0, 0.0, 0.0, 0.0, 0.0, 0.0, 0.0, 0.0, 1.6962752379452069E9, 0.0, 2023-10-02 15:33:57.945
23.0, 20955.676848373038, 19846.27036407833, 46183.62142844456, 70906.84126697079, 15316.376425787977, -20366.03782964204, -29335.815231301218, 10395.371663018665, 0.094, 0.9500000000000001, 0.274, 192.0, 0.0, 0.0, 0.0, 0.0, 0.0, 0.0, 0.0, 0.0, 0.0, 1.696275237945217E9, 0.0, 2023-10-02 15:33:57.945
24.0, 20953.821653583247, 19845.622163489123, 46168.42224221495, 71160.4441595607, 15307.636893705952, -20378.018364670083, -29307.987309454362, 10419.511547030395, 0.094, 0.9500000000000001, 0.274, 192.0, 0.0, 0.0, 0.0, 0.0, 0.0, 0.0, 0.0, 0.0, 0.0, 1.696275237945227E9, 0.0, 2023-10-02 15:33:57.945
25.0, 20965.466912444463, 19860.329611340716, 46164.1977625129, 71369.88000510693, 15310.78848967415, -20375.827893713464, -29303.673422774486, 10421.478500542462, 0.094, 0.9500000000000001, 0.274, 192.0, 0.0, 0.0, 0.0, 0.0, 0.0, 0.0, 0.0, 0.0, 0.0, 1.6962752379452364E9, 0.0, 2023-10-02 15:33:57.945
26.0, 20967.120941534155, 19862.296564852782, 46173.18316378393, 71575.22548141783, 15310.74378618524, -20380.588815282445, -29302.51113206281, 10414.929439417057, 0.094, 0.9500000000000001, 0.274, 192.0, 0.0, 0.0, 0.0, 0.0, 0.0, 0.0, 0.0, 0.0, 0.0, 1.696275237945246E9, 0.0, 2023-10-02 15:33:57.945
27.0, 20955.9450693065, 19850.338381569192, 46180.46983247636, 71839.91483925759, 15303.300655281622, -20387.115524663393, -29254.11960531707, 10449.73110553397, 0.094, 0.9500000000000001, 0.274, 192.0, 0.0, 0.0, 0.0, 0.0, 0.0, 0.0, 0.0, 0.0, 0.0, 1.6962752379452572E9, 0.0, 2023-10-02 15:33:57.945
28.0, 20966.606851411685, 19862.25186136387, 46171.88676260552, 72074.67521127168, 15309.760309429206, -20379.78415248205, -29235.433546952434, 10463.477428373984, 0.098, 0.9500000000000001, 0.28, 192.0, 3.0, 16.0, 29.0, 176.0, 8.0, 192.0, 0.0, 0.0, 0.0, 1.6962752379452672E9, 0.0, 2023-10-02 15:33:57.945
29.0, 20984.175322553554, 19878.814504005255, 46173.13846029502, 72257.57953614945, 15318.209268833312, -20370.955213422207, -29246.676474413453, 10453.776771280382, 0.098, 0.9500000000000001, 0.28, 192.0, 0.0, 0.0, 0.0, 0.0, 0.0, 0.0, 0.0, 0.0, 0.0, 1.6962752379452775E9, 0.0, 2023-10-02 15:33:57.945
30.0, 20989.606796456195, 19886.995242475896, 46184.38138775604, 72430.58203823352, 15325.36182705901, -20368.11654187638, -29256.220669295868, 10437.012962938901, 0.098, 0.9500000000000001, 0.28, 192.0, 0.0, 0.0, 0.0, 0.0, 0.0, 0.0, 0.0, 0.0, 0.0, 1.6962752379452872E9, 0.0, 2023-10-02 15:33:57.945
31.0, 20978.20740678399, 19877.093419682198, 46196.607791973096, 72653.02659905274, 15314.610637976008, -20371.961041922696, -29231.142012017015, 10455.408448625618, 0.098, 0.9500000000000001, 0.28, 192.0, 0.0, 0.0, 0.0, 0.0, 0.0, 0.0, 0.0, 0.0, 0.0, 1.6962752379452965E9, 0.0, 2023-10-02 15:33:57.945
32.0, 20979.526159706853, 19878.635690049614, 46191.64570470402, 72893.24079671393, 15304.194725059835, -20368.78709421004, -29184.315107383147, 10497.496783434963, 0.098, 0.9500000000000001, 0.28, 192.0, 0.0, 0.0, 0.0, 0.0, 0.0, 0.0, 0.0, 0.0, 0.0, 1.6962752379453063E9, 0.0, 2023-10-02 15:33:57.945
33.0, 20996.66994770407, 19894.684242568524, 46177.005312085785, 73051.37938873522, 15310.632027462963, -20364.27204183007, -29191.557072586667, 10490.299521720353, 0.098, 0.9500000000000001, 0.28, 192.0, 0.0, 0.0, 0.0, 0.0, 0.0, 0.0, 0.0, 0.0, 0.0, 1.696275237945324E9, 0.0, 2023-10-02 15:33:57.945
34.0, 21000.492096005928, 19900.607454849178, 46176.53592545223, 73177.73380014108, 15309.55914372911, -20368.295355832026, -29209.43846815091, 10467.009003997922, 0.098, 0.9500000000000001, 0.28, 192.0, 0.0, 0.0, 0.0, 0.0, 0.0, 0.0, 0.0, 0.0, 0.0, 1.6962752379453335E9, 0.0, 2023-10-02 15:33:57.945
35.0, 21006.54941875332, 19907.380033419136, 46190.61752445907, 73334.48658400614, 15315.50470775422, -20360.02521038356, -29208.745564072797, 10461.331660906275, 0.098, 0.9500000000000001, 0.28, 192.0, 0.0, 0.0, 0.0, 0.0, 0.0, 0.0, 0.0, 0.0, 0.0, 1.6962752379453433E9, 0.0, 2023-10-02 15:33:57.945
36.0, 20996.312319792785, 19899.17694320404, 46178.65934117548, 73513.0993739485, 15297.288036023145, -20368.98825991014, -29186.19265391739, 10478.631911114682, 0.098, 0.9500000000000001, 0.28, 192.0, 0.0, 0.0, 0.0, 0.0, 0.0, 0.0, 0.0, 0.0, 0.0, 1.696275237945353E9, 0.0, 2023-10-02 15:33:57.945
37.0, 20997.765183182382, 19905.815411307267, 46148.26096871626, 73637.77740452021, 15282.535884682642, -20379.158303637305, -29188.517235340743, 10473.938044779068, 0.098, 0.9500000000000001, 0.28, 192.0, 0.0, 0.0, 0.0, 0.0, 0.0, 0.0, 0.0, 0.0, 0.0, 1.6962752379453628E9, 0.0, 2023-10-02 15:33:57.945
38.0, 21004.649520474617, 19911.582161376737, 46150.29497746169, 73743.94819068292, 15288.146172540924, -20382.734582750152, -29182.817540504642, 10473.803934312336, 0.10200000000000001, 0.9460000000000001, 0.28200000000000003, 192.0, 3.0, 48.0, 29.0, 144.0, 8.0, 208.0, 0.0, 0.0, 0.0, 1.6962752379453723E9, 0.0, 2023-10-02 15:33:57.945
39.0, 21003.73309895195, 19912.923266044054, 46165.94119858041, 73853.53879374728, 15308.061576850603, -20370.88815818884, -29181.744656770785, 10466.651376086638, 0.10200000000000001, 0.9460000000000001, 0.28200000000000003, 192.0, 0.0, 0.0, 0.0, 0.0, 0.0, 0.0, 0.0, 0.0, 0.0, 1.6962752379453826E9, 0.0, 2023-10-02 15:33:57.945
40.0, 20988.355098766697, 19897.27704492534, 46165.36005322458, 73987.69396396803, 15299.187934301846, -20368.250652343115, -29169.115921153538, 10474.0721552458, 0.10200000000000001, 0.9460000000000001, 0.28200000000000003, 192.0, 0.0, 0.0, 0.0, 0.0, 0.0, 0.0, 0.0, 0.0, 0.0, 1.696275237945392E9, 0.0, 2023-10-02 15:33:57.945
41.0, 20991.998433112913, 19898.484039125924, 46147.27749196023, 74095.65288968718, 15286.626253917964, -20380.03002167106, -29163.304467595157, 10480.375347182196, 0.10200000000000001, 0.9460000000000001, 0.28200000000000003, 192.0, 0.0, 0.0, 0.0, 0.0, 0.0, 0.0, 0.0, 0.0, 0.0, 1.6962752379454017E9, 0.0, 2023-10-02 15:33:57.945
42.0, 20995.61941571467, 19901.7473938164, 46144.34941343658, 74163.66924806467, 15291.700099909318, -20382.801637983517, -29174.234470633804, 10467.903073776135, 0.10200000000000001, 0.9460000000000001, 0.28200000000000003, 192.0, 0.0, 0.0, 0.0, 0.0, 0.0, 0.0, 0.0, 0.0, 0.0, 1.6962752379454112E9, 0.0, 2023-10-02 15:33:57.945
43.0, 21003.554284996306, 19907.961178774975, 46161.40379445598, 74244.35904554834, 15305.424071004878, -20372.743352978632, -29182.996354460283, 10454.201454425032, 0.10200000000000001, 0.9460000000000001, 0.28200000000000003, 192.0, 0.0, 0.0, 0.0, 0.0, 0.0, 0.0, 0.0, 0.0, 0.0, 1.696275237945421E9, 0.0, 2023-10-02 15:33:57.945
44.0, 20996.088802348233, 19898.66285308157, 46160.442669444405, 74370.71345695418, 15299.277341279667, -20379.47122805968, -29160.890479193986, 10469.154771465634, 0.10200000000000001, 0.9460000000000001, 0.28200000000000003, 192.0, 0.0, 0.0, 0.0, 0.0, 0.0, 0.0, 0.0, 0.0, 0.0, 1.6962752379454305E9, 0.0, 2023-10-02 15:33:57.945
45.0, 21005.476535019465, 19909.99518752041, 46152.73131760732, 74469.10583604644, 15304.93233262686, -20374.106809390403, -29148.909944165942, 10478.698966348049, 0.10200000000000001, 0.9460000000000001, 0.28200000000000003, 192.0, 0.0, 0.0, 0.0, 0.0, 0.0, 0.0, 0.0, 0.0, 0.0, 1.69627523794544E9, 0.0, 2023-10-02 15:33:57.945
46.0, 21000.000357627912, 19911.738623587924, 46139.76730582325, 74523.2864646061, 15297.60096044552, -20380.65587051581, -29153.424996545913, 10472.373422667197, 0.10200000000000001, 0.9460000000000001, 0.28200000000000003, 192.0, 0.0, 0.0, 0.0, 0.0, 0.0, 0.0, 0.0, 0.0, 0.0, 1.69627523794545E9, 0.0, 2023-10-02 15:33:57.945
47.0, 21009.87982867716, 19924.769690605368, 46146.741050093304, 74562.46907263626, 15304.351187271022, -20372.877463445362, -29181.074104437128, 10440.812759496303, 0.10200000000000001, 0.9460000000000001, 0.28200000000000003, 192.0, 0.0, 0.0, 0.0, 0.0, 0.0, 0.0, 0.0, 0.0, 0.0, 1.6962752379454598E9, 0.0, 2023-10-02 15:33:57.945
48.0, 21006.34825305322, 19921.439280681527, 46154.40769844147, 74650.73611149027, 15306.541658227643, -20372.542187278534, -29179.218909647338, 10438.44347458404, 0.10200000000000001, 0.9540000000000001, 0.28400000000000003, 192.0, 3.0, 48.0, 29.0, 208.0, 8.0, 224.0, 0.0, 0.0, 0.0, 1.6962752379454708E9, 0.0, 2023-10-02 15:33:57.945
49.0, 21009.83512518825, 19925.440242939025, 46145.86933205955, 74741.08186257862, 15306.139326827448, -20371.446951800222, -29166.210194374347, 10450.334602634264, 0.10200000000000001, 0.9540000000000001, 0.28400000000000003, 192.0, 0.0, 0.0, 0.0, 0.0, 0.0, 0.0, 0.0, 0.0, 0.0, 1.6962752379454887E9, 0.0, 2023-10-02 15:33:57.945
50.0, 21008.82929668776, 19923.026254537854, 46131.63127084151, 74785.80770323369, 15303.434765748354, -20377.951309436718, -29169.853528720563, 10445.283108387364, 0.10200000000000001, 0.9540000000000001, 0.28400000000000003, 192.0, 0.0, 0.0, 0.0, 0.0, 0.0, 0.0, 0.0, 0.0, 0.0, 1.6962752379454985E9, 0.0, 2023-10-02 15:33:57.945
51.0, 21001.67673846206, 19915.6501788676, 46123.405828881965, 74823.02335775178, 15300.126707568968, -20391.407059598812, -29174.234470633804, 10431.469730313986, 0.10200000000000001, 0.9540000000000001, 0.28400000000000003, 192.0, 0.0, 0.0, 0.0, 0.0, 0.0, 0.0, 0.0, 0.0, 0.0, 1.696275237945508E9, 0.0, 2023-10-02 15:33:57.945
52.0, 21013.947846168023, 19929.66472264108, 46132.79356155319, 74885.72000094892, 15309.805012918117, -20379.78415248205, -29175.30735436766, 10423.758378476903, 0.10200000000000001, 0.9540000000000001, 0.28400000000000003, 192.0, 0.0, 0.0, 0.0, 0.0, 0.0, 0.0, 0.0, 0.0, 0.0, 1.6962752379455175E9, 0.0, 2023-10-02 15:33:57.945
53.0, 21009.365738554687, 19923.31682721577, 46126.64683182798, 74968.22028973345, 15306.65341694992, -20377.54897803652, -29152.754444212253, 10445.596032809739, 0.10200000000000001, 0.9540000000000001, 0.28400000000000003, 192.0, 0.0, 0.0, 0.0, 0.0, 0.0, 0.0, 0.0, 0.0, 0.0, 1.6962752379455273E9, 0.0, 2023-10-02 15:33:57.945
54.0, 21019.044043903836, 19932.905725587098, 46112.05114269866, 74980.62550790615, 15312.420167019389, -20374.531492535054, -29173.586270044598, 10425.25594535541, 0.10200000000000001, 0.9540000000000001, 0.28400000000000003, 192.0, 0.0, 0.0, 0.0, 0.0, 0.0, 0.0, 0.0, 0.0, 0.0, 1.6962752379455369E9, 0.0, 2023-10-02 15:33:57.945
55.0, 21025.414291073597, 19938.046626811818, 46126.89270101699, 74999.26686278186, 15322.433748535366, -20368.049486643016, -29177.96721195784, 10416.024674895367, 0.10200000000000001, 0.9540000000000001, 0.28400000000000003, 192.0, 0.0, 0.0, 0.0, 0.0, 0.0, 0.0, 0.0, 0.0, 0.0, 1.6962752379455464E9, 0.0, 2023-10-02 15:33:57.945
56.0, 21022.039177660845, 19935.56558317728, 46140.08023024562, 75063.6622385576, 15325.294771825646, -20363.377972051858, -29146.00421738675, 10438.666992028593, 0.10200000000000001, 0.9540000000000001, 0.28400000000000003, 192.0, 0.0, 0.0, 0.0, 0.0, 0.0, 0.0, 0.0, 0.0, 0.0, 1.696275237945556E9, 0.0, 2023-10-02 15:33:57.945
57.0, 21021.055700904813, 19938.672475656567, 46126.691535316895, 75112.478448448, 15322.32198981309, -20363.489730774134, -29140.259819061735, 10440.075151929279, 0.10200000000000001, 0.9540000000000001, 0.28400000000000003, 192.0, 0.0, 0.0, 0.0, 0.0, 0.0, 0.0, 0.0, 0.0, 0.0, 1.6962752379455657E9, 0.0, 2023-10-02 15:33:57.945
58.0, 21031.739834754448, 19953.849310141723, 46118.04141021269, 75099.1791604971, 15332.581440518075, -20352.179748079747, -29188.7407527853, 10399.05970085379, 0.1, 0.9540000000000001, 0.28400000000000003, 192.0, 3.0, 32.0, 29.0, 208.0, 8.0, 224.0, 0.0, 0.0, 0.0, 1.6962752379455757E9, 0.0, 2023-10-02 15:33:57.945
59.0, 21025.570753284785, 19951.167100807084, 46135.02873599872, 75114.60186417126, 15331.329742828579, -20352.51502424658, -29188.49488359629, 10399.752604931904, 0.1, 0.9540000000000001, 0.28400000000000003, 192.0, 0.0, 0.0, 0.0, 0.0, 0.0, 0.0, 0.0, 0.0, 0.0, 1.696275237945586E9, 0.0, 2023-10-02 15:33:57.945
60.0, 21012.49498277843, 19942.85225186971, 46142.963605280354, 75151.99633264498, 15327.03820789316, -20356.471283015166, -29177.16254915745, 10401.920724144069, 0.1, 0.9540000000000001, 0.28400000000000003, 192.0, 0.0, 0.0, 0.0, 0.0, 0.0, 0.0, 0.0, 0.0, 0.0, 1.6962752379455955E9, 0.0, 2023-10-02 15:33:57.945
61.0, 21006.616473986684, 19937.733702389443, 46135.43106739892, 75199.78436229043, 15324.98184740327, -20357.20889058219, -29172.558089799655, 10403.44064276703, 0.1, 0.9540000000000001, 0.28400000000000003, 192.0, 0.0, 0.0, 0.0, 0.0, 0.0, 0.0, 0.0, 0.0, 0.0, 1.6962752379456053E9, 0.0, 2023-10-02 15:33:57.945
62.0, 21016.674758991572, 19946.294420515827, 46129.485503373806, 75203.56180710338, 15330.860356195017, -20355.443102770223, -29196.385049389013, 10386.900351870103, 0.1, 0.9540000000000001, 0.28400000000000003, 192.0, 0.0, 0.0, 0.0, 0.0, 0.0, 0.0, 0.0, 0.0, 0.0, 1.6962752379456148E9, 0.0, 2023-10-02 15:33:57.945
63.0, 21025.81662247379, 19953.201109552516, 46139.16380872295, 75199.06910646785, 15334.593097519053, -20356.85126267091, -29203.627014592534, 10379.233703521932, 0.1, 0.9540000000000001, 0.28400000000000003, 192.0, 0.0, 0.0, 0.0, 0.0, 0.0, 0.0, 0.0, 0.0, 0.0, 1.6962752379456244E9, 0.0, 2023-10-02 15:33:57.945
64.0, 21030.421081831584, 19959.28078404436, 46159.526247921734, 75226.71821435908, 15340.449254566343, -20355.376047536858, -29191.57942433112, 10384.86634312467, 0.1, 0.9540000000000001, 0.28400000000000003, 192.0, 0.0, 0.0, 0.0, 0.0, 0.0, 0.0, 0.0, 0.0, 0.0, 1.6962752379456418E9, 0.0, 2023-10-02 15:33:57.945
65.0, 21025.347235840232, 19955.033952597852, 46152.64191062951, 75276.04851437194, 15328.289905582657, -20360.896928417318, -29174.949726456372, 10396.511601985885, 0.1, 0.9540000000000001, 0.28400000000000003, 192.0, 0.0, 0.0, 0.0, 0.0, 0.0, 0.0, 0.0, 0.0, 0.0, 1.6962752379456515E9, 0.0, 2023-10-02 15:33:57.945
66.0, 21020.228686359966, 19949.311906017294, 46132.95002376438, 75295.51688379252, 15312.800146675128, -20366.68603023124, -29172.759255499754, 10399.707901442993, 0.1, 0.9540000000000001, 0.28400000000000003, 192.0, 0.0, 0.0, 0.0, 0.0, 0.0, 0.0, 0.0, 0.0, 0.0, 1.696275237945661E9, 0.0, 2023-10-02 15:33:57.945
67.0, 21026.82245097428, 19953.826958397265, 46134.91697727644, 75295.00279367004, 15315.750576943228, -20366.797788953518, -29164.287944351192, 10405.318189301275, 0.1, 0.9540000000000001, 0.28400000000000003, 192.0, 0.0, 0.0, 0.0, 0.0, 0.0, 0.0, 0.0, 0.0, 0.0, 1.6962752379456706E9, 0.0, 2023-10-02 15:33:57.945
68.0, 21028.87881146417, 19957.514996232392, 46140.77313432373, 75293.72874423608, 15314.878858909471, -20366.484864531143, -29163.99737167327, 10397.584485719739, 0.1, 0.93, 0.28600000000000003, 192.0, 3.0, 32.0, 29.0, 16.0, 8.0, 240.0, 0.0, 0.0, 0.0, 1.6962752379456801E9, 0.0, 2023-10-02 15:33:57.945
69.0, 21035.249058633934, 19962.968821879487, 46133.30765167566, 75314.49351483506, 15311.615504218997, -20366.864844186886, -29164.980848429306, 10391.728328672449, 0.1, 0.93, 0.28600000000000003, 192.0, 0.0, 0.0, 0.0, 0.0, 0.0, 0.0, 0.0, 0.0, 0.0, 1.6962752379456916E9, 0.0, 2023-10-02 15:33:57.945
70.0, 21051.40936987512, 19977.63156624217, 46123.27171841523, 75314.85114274635, 15317.963399644304, -20359.958155150194, -29186.88555799551, 10374.741002886416, 0.1, 0.93, 0.28600000000000003, 192.0, 0.0, 0.0, 0.0, 0.0, 0.0, 0.0, 0.0, 0.0, 0.0, 1.6962752379457011E9, 0.0, 2023-10-02 15:33:57.945
71.0, 21068.55315787234, 19995.20003738404, 46126.42331438343, 75284.94450866515, 15334.369580074499, -20351.64330621282, -29221.5978171346, 10347.337764184209, 0.1, 0.93, 0.28600000000000003, 192.0, 0.0, 0.0, 0.0, 0.0, 0.0, 0.0, 0.0, 0.0, 0.0, 1.696275237945711E9, 0.0, 2023-10-02 15:33:57.945
72.0, 21061.35589615773, 19987.108705891216, 46136.548654621685, 75274.64035447125, 15336.671809753396, -20355.59956498141, -29238.22751500935, 10332.38444714361, 0.1, 0.93, 0.28600000000000003, 192.0, 0.0, 0.0, 0.0, 0.0, 0.0, 0.0, 0.0, 0.0, 0.0, 1.6962752379457204E9, 0.0, 2023-10-02 15:33:57.945
73.0, 21046.916669239603, 19975.418743541093, 46138.87323604504, 75319.72382303761, 15325.630047992474, -20359.354658049902, -29206.57744486063, 10359.921796312547, 0.1, 0.93, 0.28600000000000003, 192.0, 0.0, 0.0, 0.0, 0.0, 0.0, 0.0, 0.0, 0.0, 0.0, 1.69627523794573E9, 0.0, 2023-10-02 15:33:57.945
74.0, 21045.68732329456, 19979.598519754236, 46119.42721836892, 75345.67419835021, 15317.672826966385, -20367.490693031632, -29189.411305118956, 10376.663252909571, 0.1, 0.93, 0.28600000000000003, 192.0, 0.0, 0.0, 0.0, 0.0, 0.0, 0.0, 0.0, 0.0, 0.0, 1.6962752379457395E9, 0.0, 2023-10-02 15:33:57.945
75.0, 21055.387980388165, 19991.556703037822, 46113.749875277266, 75333.44779413317, 15322.32198981309, -20366.68603023124, -29192.20527317587, 10376.77501163185, 0.1, 0.93, 0.28600000000000003, 192.0, 0.0, 0.0, 0.0, 0.0, 0.0, 0.0, 0.0, 0.0, 0.0, 1.696275237945749E9, 0.0, 2023-10-02 15:33:57.945
76.0, 21059.45599787903, 19994.507133305924, 46117.92965149041, 75317.10866893634, 15326.926449170882, -20369.904681432807, -29198.575520345632, 10368.057831294278, 0.1, 0.93, 0.28600000000000003, 192.0, 0.0, 0.0, 0.0, 0.0, 0.0, 0.0, 0.0, 0.0, 0.0, 1.6962752379457583E9, 0.0, 2023-10-02 15:33:57.945
77.0, 21056.907899011123, 19989.34388033675, 46114.84511075558, 75325.40116612926, 15320.623257234485, -20375.716134991188, -29204.11875297055, 10358.558339900774, 0.1, 0.93, 0.28600000000000003, 192.0, 0.0, 0.0, 0.0, 0.0, 0.0, 0.0, 0.0, 0.0, 0.0, 1.696275237945768E9, 0.0, 2023-10-02 15:33:57.945
78.0, 21053.64454432065, 19985.05234540133, 46106.59731705157, 75350.8374513194, 15314.230658320268, -20372.497483789622, -29192.5405493427, 10370.71768888446, 0.088, 0.9400000000000001, 0.29, 192.0, 2.0, 192.0, 29.0, 96.0, 9.0, 16.0, 0.0, 0.0, 0.0, 1.6962752379457777E9, 0.0, 2023-10-02 15:33:57.945
79.0, 21059.567756601307, 19993.43424957207, 46084.78201446319, 75336.26411393454, 15307.391024516945, -20379.538283293045, -29199.223720934835, 10367.610796405173, 0.088, 0.9400000000000001, 0.29, 192.0, 0.0, 0.0, 0.0, 0.0, 0.0, 0.0, 0.0, 0.0, 0.0, 1.696275237945788E9, 0.0, 2023-10-02 15:33:57.945
80.0, 21062.361724658218, 19998.061060674318, 46083.73148247379, 75308.1232676653, 15308.59801871753, -20384.70153626222, -29217.105116499082, 10348.81297931826, 0.088, 0.9400000000000001, 0.29, 192.0, 0.0, 0.0, 0.0, 0.0, 0.0, 0.0, 0.0, 0.0, 0.0, 1.6962752379458055E9, 0.0, 2023-10-02 15:33:57.945
81.0, 21061.132378713177, 19996.96582519601, 46089.81115696563, 75323.23304691708, 15307.949818128327, -20381.41582982729, -29209.72904082883, 10350.265842707855, 0.088, 0.9400000000000001, 0.29, 192.0, 0.0, 0.0, 0.0, 0.0, 0.0, 0.0, 0.0, 0.0, 0.0, 1.696275237945815E9, 0.0, 2023-10-02 15:33:57.945
82.0, 21058.56192810082, 19991.57905478228, 46081.093976628064, 75358.54880315647, 15300.730204669262, -20378.063068158994, -29188.62899406302, 10369.622453406151, 0.088, 0.9400000000000001, 0.29, 192.0, 0.0, 0.0, 0.0, 0.0, 0.0, 0.0, 0.0, 0.0, 0.0, 1.6962752379458249E9, 0.0, 2023-10-02 15:33:57.945
83.0, 21067.994364260958, 20001.61498804271, 46066.61004622102, 75354.50313741007, 15306.474602994276, -20378.5101030481, -29183.644555049486, 10378.33963374372, 0.088, 0.9400000000000001, 0.29, 192.0, 0.0, 0.0, 0.0, 0.0, 0.0, 0.0, 0.0, 0.0, 0.0, 1.6962752379458346E9, 0.0, 2023-10-02 15:33:57.945
84.0, 21077.717373099014, 20008.25345614594, 46071.818002679116, 75310.00081419955, 15325.98767590376, -20374.21856811268, -29209.86315129556, 10354.087991009712, 0.088, 0.9400000000000001, 0.29, 192.0, 0.0, 0.0, 0.0, 0.0, 0.0, 0.0, 0.0, 0.0, 0.0, 1.6962752379458444E9, 0.0, 2023-10-02 15:33:57.945
85.0, 21075.21397772002, 20006.95705496753, 46089.81115696563, 75314.49351483506, 15330.614487006009, -20369.97173666617, -29206.197465204892, 10354.020935776345, 0.088, 0.9400000000000001, 0.29, 192.0, 0.0, 0.0, 0.0, 0.0, 0.0, 0.0, 0.0, 0.0, 0.0, 1.696275237945854E9, 0.0, 2023-10-02 15:33:57.945
86.0, 21062.115855469212, 20001.19030489806, 46079.73052021629, 75337.35934941284, 15317.449309521833, -20376.99018442514, -29200.475418624334, 10358.625395134139, 0.088, 0.9400000000000001, 0.29, 192.0, 0.0, 0.0, 0.0, 0.0, 0.0, 0.0, 0.0, 0.0, 0.0, 1.6962752379458635E9, 0.0, 2023-10-02 15:33:57.945
87.0, 21062.294669424853, 20007.00175845644, 46070.7227672008, 75339.01337850254, 15317.35990254401, -20374.777361724064, -29198.39670638999, 10364.973290559446, 0.088, 0.9400000000000001, 0.29, 192.0, 0.0, 0.0, 0.0, 0.0, 0.0, 0.0, 0.0, 0.0, 0.0, 1.6962752379458733E9, 0.0, 2023-10-02 15:33:57.945
88.0, 21076.21980622051, 20024.7266918095, 46070.25338056724, 75301.59655828435, 15325.69710322584, -20371.536358778045, -29219.87673281154, 10345.326107183231, 0.084, 0.936, 0.294, 192.0, 2.0, 160.0, 29.0, 64.0, 9.0, 48.0, 0.0, 0.0, 0.0, 1.6962752379458828E9, 0.0, 2023-10-02 15:33:57.945
89.0, 21073.69405909706, 20026.224258688006, 46084.871421441014, 75301.35068909534, 15323.618390991496, -20365.50138777511, -29215.11581124256, 10344.923775783036, 0.084, 0.936, 0.294, 192.0, 0.0, 0.0, 0.0, 0.0, 0.0, 0.0, 0.0, 0.0, 0.0, 1.6962752379458933E9, 0.0, 2023-10-02 15:33:57.945
90.0, 21054.583317587774, 20012.232066658984, 46075.9754271478, 75338.74515756908, 15303.479469237265, -20376.207873369203, -29188.651345807477, 10368.035479549824, 0.084, 0.936, 0.294, 192.0, 0.0, 0.0, 0.0, 0.0, 0.0, 0.0, 0.0, 0.0, 0.0, 1.6962752379459028E9, 0.0, 2023-10-02 15:33:57.945
91.0, 21059.679515323583, 20019.742252795968, 46047.29813901164, 75325.35646264035, 15292.97414934327, -20386.13204790736, -29200.609529091067, 10359.161837001067, 0.084, 0.936, 0.294, 192.0, 0.0, 0.0, 0.0, 0.0, 0.0, 0.0, 0.0, 0.0, 0.0, 1.6962752379459136E9, 0.0, 2023-10-02 15:33:57.945
92.0, 21069.626041606196, 20027.654770333145, 46043.81126687661, 75268.44892125714, 15298.629140690464, -20384.075687417473, -29246.87764011355, 10321.812072016248, 0.084, 0.936, 0.294, 192.0, 0.0, 0.0, 0.0, 0.0, 0.0, 0.0, 0.0, 0.0, 0.0, 1.696275237945923E9, 0.0, 2023-10-02 15:33:57.945
93.0, 21068.128474727688, 20025.82192728781, 46056.44000249386, 75249.87462161477, 15295.611655188997, -20384.70153626222, -29264.043779855227, 10304.333007852198, 0.084, 0.936, 0.294, 192.0, 0.0, 0.0, 0.0, 0.0, 0.0, 0.0, 0.0, 0.0, 0.0, 1.6962752379459329E9, 0.0, 2023-10-02 15:33:57.945
94.0, 21066.11681772671, 20022.87149701971, 46059.03280485068, 75288.520787778, 15283.541713183131, -20387.115524663393, -29237.065224297672, 10327.310601152254, 0.084, 0.936, 0.294, 192.0, 0.0, 0.0, 0.0, 0.0, 0.0, 0.0, 0.0, 0.0, 0.0, 1.6962752379459424E9, 0.0, 2023-10-02 15:33:57.945
95.0, 21073.470541652507, 20030.068758734316, 46047.901636111936, 75293.23700585807, 15284.681652150352, -20380.03002167106, -29239.993302821316, 10329.47872036442, 0.084, 0.936, 0.294, 192.0, 0.0, 0.0, 0.0, 0.0, 0.0, 0.0, 0.0, 0.0, 0.0, 1.696275237945952E9, 0.0, 2023-10-02 15:33:57.945
96.0, 21076.532730642884, 20032.7286163245, 46046.426420977885, 75261.74339792054, 15286.536846940142, -20381.616995527387, -29245.245962768313, 10327.489415107897, 0.084, 0.936, 0.294, 192.0, 0.0, 0.0, 0.0, 0.0, 0.0, 0.0, 0.0, 0.0, 0.0, 1.6962752379459696E9, 0.0, 2023-10-02 15:33:57.945
97.0, 21091.866027339223, 20053.225165990018, 46056.75292691623, 75219.05156601091, 15291.186009786847, -20378.46539955919, -29261.65214319851, 10310.815013744237, 0.084, 0.936, 0.294, 192.0, 0.0, 0.0, 0.0, 0.0, 0.0, 0.0, 0.0, 0.0, 0.0, 1.696275237945979E9, 0.0, 2023-10-02 15:33:57.945
98.0, 21092.670690139617, 20054.230994490506, 46075.17076434741, 75224.25952246899, 15295.678710422364, -20375.336155335448, -29253.113776816583, 10318.772234770327, 0.094, 0.934, 0.28800000000000003, 192.0, 2.0, 240.0, 29.0, 48.0, 9.0, 0.0, 0.0, 0.0, 0.0, 1.6962752379459908E9, 0.0, 2023-10-02 15:33:57.945
99.0, 21089.340280215776, 20048.799520587865, 46060.485668240275, 75224.88537131374, 15286.089812051037, -20384.723888006676, -29239.769785376764, 10334.463159377952, 0.094, 0.934, 0.28800000000000003, 192.0, 0.0, 0.0, 0.0, 0.0, 0.0, 0.0, 0.0, 0.0, 0.0, 1.6962752379460008E9, 0.0, 2023-10-02 15:33:57.946
100.0, 21101.410222221642, 20062.97052657253, 46057.6693484389, 75166.32380084084, 15289.733146397251, -20383.427486828266, -29271.88924215904, 10311.731435266905, 0.094, 0.934, 0.28800000000000003, 192.0, 0.0, 0.0, 0.0, 0.0, 0.0, 0.0, 0.0, 0.0, 0.0, 1.6962752379460106E9, 0.0, 2023-10-02 15:33:57.946
101.0, 21088.334451715287, 20051.794654344878, 46074.455508524836, 75130.27043703443, 15281.842980604528, -20390.580045053965, -29271.59866948112, 10310.56914455523, 0.094, 0.934, 0.28800000000000003, 192.0, 0.0, 0.0, 0.0, 0.0, 0.0, 0.0, 0.0, 0.0, 0.0, 1.6962752379460201E9, 0.0, 2023-10-02 15:33:57.946
102.0, 21087.17216100361, 20050.72177061102, 46083.23974409577, 75131.09745157928, 15289.800201630618, -20389.75303050912, -29251.280933771246, 10325.99184822939, 0.094, 0.934, 0.28800000000000003, 192.0, 0.0, 0.0, 0.0, 0.0, 0.0, 0.0, 0.0, 0.0, 0.0, 1.69627523794603E9, 0.0, 2023-10-02 15:33:57.946
103.0, 21086.9262918146, 20049.760645599443, 46070.58865673407, 75122.96141659754, 15288.056765563104, -20388.099001419425, -29253.493756472322, 10328.495243608386, 0.094, 0.934, 0.28800000000000003, 192.0, 0.0, 0.0, 0.0, 0.0, 0.0, 0.0, 0.0, 0.0, 0.0, 1.6962752379460394E9, 0.0, 2023-10-02 15:33:57.946
104.0, 21079.192588233065, 20043.368046685227, 46043.274825009685, 75073.9216892626, 15272.567006655576, -20394.84922824493, -29273.498567759823, 10316.402949858064, 0.094, 0.934, 0.28800000000000003, 192.0, 0.0, 0.0, 0.0, 0.0, 0.0, 0.0, 0.0, 0.0, 0.0, 1.696275237946049E9, 0.0, 2023-10-02 15:33:57.946
105.0, 21083.819399335312, 20046.00555253095, 46046.62758667798, 75025.66427298359, 15274.332794467546, -20393.776344511076, -29286.574338266175, 10302.343702595675, 0.094, 0.934, 0.28800000000000003, 192.0, 0.0, 0.0, 0.0, 0.0, 0.0, 0.0, 0.0, 0.0, 0.0, 1.6962752379460585E9, 0.0, 2023-10-02 15:33:57.946
106.0, 21091.284881983385, 20051.481729922503, 46058.451659494836, 75018.37760429116, 15285.5086666952, -20392.457591588212, -29281.500492274823, 10300.935542694991, 0.094, 0.934, 0.28800000000000003, 192.0, 0.0, 0.0, 0.0, 0.0, 0.0, 0.0, 0.0, 0.0, 0.0, 1.6962752379460688E9, 0.0, 2023-10-02 15:33:57.946
107.0, 21073.649355608148, 20034.29323843637, 46046.51582795571, 75037.01895916689, 15271.628233388452, -20402.64998705983, -29260.065169342182, 10319.554545826262, 0.094, 0.934, 0.28800000000000003, 192.0, 0.0, 0.0, 0.0, 0.0, 0.0, 0.0, 0.0, 0.0, 0.0, 1.6962752379460871E9, 0.0, 2023-10-02 15:33:57.946
108.0, 21089.474390682506, 20050.408846188646, 46027.09216202404, 75007.11232508569, 15278.31140498059, -20399.431335858266, -29268.961163635395, 10315.642990546583, 0.094, 0.934, 0.28800000000000003, 192.0, 0.0, 0.0, 0.0, 0.0, 0.0, 0.0, 0.0, 0.0, 0.0, 1.696275237946098E9, 0.0, 2023-10-02 15:33:57.946
109.0, 21103.89126585618, 20067.64204116369, 46036.94928132883, 74956.26210644987, 15283.74287888323, -20392.591702054942, -29300.52182680629, 10287.859772188636, 0.092, 0.9540000000000001, 0.298, 192.0, 2.0, 224.0, 29.0, 208.0, 9.0, 80.0, 0.0, 0.0, 0.0, 1.696275237946108E9, 0.0, 2023-10-02 15:33:57.946
110.0, 21083.305309212843, 20051.81700608933, 46052.841371636554, 74984.91704284157, 15271.11414326598, -20403.164077182304, -29258.724064674865, 10320.582726071207, 0.092, 0.9540000000000001, 0.298, 192.0, 0.0, 0.0, 0.0, 0.0, 0.0, 0.0, 0.0, 0.0, 0.0, 1.6962752379461184E9, 0.0, 2023-10-02 15:33:57.946
111.0, 21074.901053297646, 20044.06095076334, 46036.72576388428, 74999.55743545979, 15257.613689614975, -20406.3156731505, -29244.508355201287, 10330.171624442533, 0.092, 0.9540000000000001, 0.298, 192.0, 0.0, 0.0, 0.0, 0.0, 0.0, 0.0, 0.0, 0.0, 0.0, 1.6962752379461384E9, 0.0, 2023-10-02 15:33:57.946
112.0, 21079.3266986998, 20048.978334543506, 46033.37300221599, 74985.09585679721, 15274.355146212, -20392.144667165838, -29250.02923608175, 10332.56326109925, 0.092, 0.9540000000000001, 0.298, 192.0, 0.0, 0.0, 0.0, 0.0, 0.0, 0.0, 0.0, 0.0, 0.0, 1.69627523794615E9, 0.0, 2023-10-02 15:33:57.946
113.0, 21074.878701553193, 20049.91710781063, 46024.320545711584, 74936.74903354037, 15275.74095436823, -20395.765649767596, -29266.725989189865, 10316.961743469446, 0.092, 0.9540000000000001, 0.298, 192.0, 0.0, 0.0, 0.0, 0.0, 0.0, 0.0, 0.0, 0.0, 0.0, 1.6962752379461596E9, 0.0, 2023-10-02 15:33:57.946
114.0, 21066.943832271558, 20048.754817098954, 46027.338031213054, 74893.05137313025, 15272.701117122308, -20397.37497536838, -29293.57043428069, 10287.077461132702, 0.092, 0.9540000000000001, 0.298, 192.0, 0.0, 0.0, 0.0, 0.0, 0.0, 0.0, 0.0, 0.0, 0.0, 1.6962752379461691E9, 0.0, 2023-10-02 15:33:57.946
115.0, 21057.10906471122, 20049.71594211053, 46022.15242649942, 74903.22141685741, 15264.341564696022, -20396.726774779174, -29289.882396445562, 10290.676091990006, 0.092, 0.9540000000000001, 0.298, 192.0, 0.0, 0.0, 0.0, 0.0, 0.0, 0.0, 0.0, 0.0, 0.0, 1.696275237946179E9, 0.0, 2023-10-02 15:33:57.946
116.0, 21065.35685841523, 20061.428256205112, 46013.92698453987, 74900.96389066744, 15270.108314765492, -20388.501332819622, -29297.727858749375, 10290.765498967827, 0.092, 0.9540000000000001, 0.298, 192.0, 0.0, 0.0, 0.0, 0.0, 0.0, 0.0, 0.0, 0.0, 0.0, 1.6962752379461884E9, 0.0, 2023-10-02 15:33:57.946
117.0, 21048.369532629196, 20045.290296708383, 46018.531443897664, 74894.57129175321, 15265.861483318984, -20396.65971954581, -29283.84742544263, 10305.651760775061, 0.092, 0.9540000000000001, 0.298, 192.0, 0.0, 0.0, 0.0, 0.0, 0.0, 0.0, 0.0, 0.0, 0.0, 1.696275237946198E9, 0.0, 2023-10-02 15:33:57.946
118.0, 21058.874852523193, 20057.628459647713, 46032.18835975986, 74868.30799201822, 15276.724431124263, -20391.094135176438, -29300.857102973117, 10285.468135531919, 0.092, 0.9540000000000001, 0.298, 192.0, 0.0, 0.0, 0.0, 0.0, 0.0, 0.0, 0.0, 0.0, 0.0, 1.6962752379462075E9, 0.0, 2023-10-02 15:33:57.946
119.0, 21055.186814688066, 20054.521567168424, 46043.72185989879, 74867.9727158514, 15273.416372944877, -20388.635443286355, -29314.75988802432, 10272.772344681305, 0.10200000000000001, 0.9400000000000001, 0.292, 192.0, 3.0, 48.0, 29.0, 96.0, 9.0, 32.0, 0.0, 0.0, 0.0, 1.6962752379462173E9, 0.0, 2023-10-02 15:33:57.946
120.0, 21044.189756416054, 20041.557555384345, 46033.149484771435, 74880.8249689132, 15266.621442630463, -20397.062050946006, -29302.488780318356, 10290.877257690103, 0.10200000000000001, 0.9400000000000001, 0.292, 192.0, 0.0, 0.0, 0.0, 0.0, 0.0, 0.0, 0.0, 0.0, 0.0, 1.6962752379462273E9, 0.0, 2023-10-02 15:33:57.946
121.0, 21041.798119759336, 20037.82481406031, 46021.52657765467, 74853.17586102198, 15267.716678108774, -20407.56737084, -29297.37023083809, 10299.214458371933, 0.10200000000000001, 0.9400000000000001, 0.292, 192.0, 0.0, 0.0, 0.0, 0.0, 0.0, 0.0, 0.0, 0.0, 0.0, 1.6962752384255939E9, 0.0, 2023-10-02 15:33:58.425
122.0, 21041.664009292606, 20037.087206493285, 46023.87351082248, 74805.56664533218, 15268.744858353719, -20411.70244356423, -29312.122382178593, 10281.55658025224, 0.10200000000000001, 0.9400000000000001, 0.292, 192.0, 0.0, 0.0, 0.0, 0.0, 0.0, 0.0, 0.0, 0.0, 0.0, 1.696275238425661E9, 0.0, 2023-10-02 15:33:58.425
123.0, 21035.87490747868, 20031.163994212628, 46029.32733646958, 74794.3013661267, 15272.656413633396, -20404.28166440507, -29315.56455082471, 10277.108583105633, 0.10200000000000001, 0.9400000000000001, 0.292, 192.0, 0.0, 0.0, 0.0, 0.0, 0.0, 0.0, 0.0, 0.0, 0.0, 1.6962752384256947E9, 0.0, 2023-10-02 15:33:58.425
124.0, 21023.916724195093, 20021.7762615414, 46020.140769498445, 74794.92721497145, 15265.101524007503, -20407.79088828455, -29309.641338544054, 10288.195048355466, 0.10200000000000001, 0.9400000000000001, 0.292, 192.0, 0.0, 0.0, 0.0, 0.0, 0.0, 0.0, 0.0, 0.0, 0.0, 1.696275238425707E9, 0.0, 2023-10-02 15:33:58.425
125.0, 21017.2112008585, 20020.47986036299, 46005.36626641348, 74760.05849362118, 15262.26285246168, -20411.970664497694, -29307.85319898763, 10293.917094936025, 0.10200000000000001, 0.9400000000000001, 0.292, 192.0, 0.0, 0.0, 0.0, 0.0, 0.0, 0.0, 0.0, 0.0, 0.0, 1.6962752384257188E9, 0.0, 2023-10-02 15:33:58.425
126.0, 21017.92645668107, 20023.45264237555, 46000.73945531124, 74699.50761789175, 15263.760419340184, -20413.065899976005, -29328.103879464135, 10272.593530725662, 0.10200000000000001, 0.9400000000000001, 0.292, 192.0, 0.0, 0.0, 0.0, 0.0, 0.0, 0.0, 0.0, 0.0, 0.0, 1.6962752384257329E9, 0.0, 2023-10-02 15:33:58.425
127.0, 20997.74283143793, 20004.788935755365, 45994.14569069692, 74676.59707982506, 15249.947041266805, -20425.89580129335, -29330.607274843132, 10265.753896922339, 0.10200000000000001, 0.9400000000000001, 0.292, 192.0, 0.0, 0.0, 0.0, 0.0, 0.0, 0.0, 0.0, 0.0, 0.0, 1.696275238425935E9, 0.0, 2023-10-02 15:33:58.425
128.0, 20991.417287757075, 19999.558627552822, 45987.48487084924, 74677.42409436991, 15242.101578962993, -20428.823879816995, -29314.916350235508, 10284.909341920536, 0.10200000000000001, 0.9400000000000001, 0.292, 192.0, 0.0, 0.0, 0.0, 0.0, 0.0, 0.0, 0.0, 0.0, 0.0, 1.6962752384259472E9, 0.0, 2023-10-02 15:33:58.425
129.0, 20999.44156401653, 20007.068813689806, 45976.733681766236, 74636.18512584986, 15242.056875474082, -20432.556621141033, -29315.296329891247, 10288.195048355466, 0.094, 0.9460000000000001, 0.28200000000000003, 192.0, 2.0, 240.0, 29.0, 144.0, 8.0, 208.0, 0.0, 0.0, 0.0, 1.6962752384259582E9, 0.0, 2023-10-02 15:33:58.425
130.0, 21002.906084407103, 20010.175706169095, 45982.92511498036, 74577.8023693326, 15249.276488933147, -20428.399196672344, -29325.868705018605, 10275.990995882868, 0.094, 0.9460000000000001, 0.28200000000000003, 192.0, 0.0, 0.0, 0.0, 0.0, 0.0, 0.0, 0.0, 0.0, 0.0, 1.6962752384259715E9, 0.0, 2023-10-02 15:33:58.425
131.0, 21002.146125095624, 20008.521677079403, 45989.8541557615, 74557.43993013381, 15247.465997632265, -20424.912324537316, -29321.84539101665, 10274.292263304265, 0.094, 0.9460000000000001, 0.28200000000000003, 192.0, 0.0, 0.0, 0.0, 0.0, 0.0, 0.0, 0.0, 0.0, 0.0, 1.6962752384259827E9, 0.0, 2023-10-02 15:33:58.425
132.0, 21004.940093152534, 20012.612046314724, 45988.535402838635, 74549.46035736328, 15251.958698267783, -20421.604266357932, -29326.09222246316, 10273.062917359224, 0.094, 0.9460000000000001, 0.28200000000000003, 192.0, 0.0, 0.0, 0.0, 0.0, 0.0, 0.0, 0.0, 0.0, 0.0, 1.6962752384259937E9, 0.0, 2023-10-02 15:33:58.425
133.0, 21012.137354867144, 20019.6751975626, 45985.897896992916, 74520.91717969385, 15255.669087847364, -20417.357434911424, -29329.646149831555, 10276.169809838511, 0.094, 0.9460000000000001, 0.28200000000000003, 192.0, 0.0, 0.0, 0.0, 0.0, 0.0, 0.0, 0.0, 0.0, 0.0, 1.696275238426016E9, 0.0, 2023-10-02 15:33:58.426
134.0, 21005.901218164116, 20012.05325270334, 45990.12237669496, 74485.40025775436, 15254.886776791427, -20424.398234414846, -29319.766678782307, 10284.104679120146, 0.094, 0.9460000000000001, 0.28200000000000003, 192.0, 0.0, 0.0, 0.0, 0.0, 0.0, 0.0, 0.0, 0.0, 0.0, 1.6962752384260263E9, 0.0, 2023-10-02 15:33:58.426
135.0, 21003.73309895195, 20012.76850852591, 45992.96104824079, 74461.327428976, 15254.082113991037, -20427.728644338687, -29313.307024634723, 10284.484658775886, 0.094, 0.9460000000000001, 0.28200000000000003, 192.0, 0.0, 0.0, 0.0, 0.0, 0.0, 0.0, 0.0, 0.0, 0.0, 1.696275238426036E9, 0.0, 2023-10-02 15:33:58.426
136.0, 20992.937206380037, 20008.655787546133, 45975.3031701211, 74443.80366132304, 15238.570003339053, -20432.578972885487, -29321.443059616457, 10276.013347627324, 0.094, 0.9460000000000001, 0.28200000000000003, 192.0, 0.0, 0.0, 0.0, 0.0, 0.0, 0.0, 0.0, 0.0, 0.0, 1.696275238426046E9, 0.0, 2023-10-02 15:33:58.426
137.0, 20987.751601666405, 20002.86668573221, 45961.199219369795, 74420.60255057842, 15230.769244524152, -20432.936600796773, -29323.052385217237, 10280.03666162928, 0.094, 0.9460000000000001, 0.28200000000000003, 192.0, 0.0, 0.0, 0.0, 0.0, 0.0, 0.0, 0.0, 0.0, 0.0, 1.6962752384260557E9, 0.0, 2023-10-02 15:33:58.426
138.0, 20994.233607558443, 20008.34286312376, 45950.60449249798, 74362.30920103898, 15240.06757021756, -20429.874411806395, -29344.420652916513, 10262.848170143148, 0.094, 0.9460000000000001, 0.28200000000000003, 192.0, 0.0, 0.0, 0.0, 0.0, 0.0, 0.0, 0.0, 0.0, 0.0, 1.6962752384260652E9, 0.0, 2023-10-02 15:33:58.426
139.0, 20992.601930213204, 20005.928874722587, 45963.38969032642, 74328.84863958939, 15244.739084808718, -20429.203859472735, -29359.99981880186, 10246.330230990676, 0.096, 0.9460000000000001, 0.278, 192.0, 3.0, 0.0, 29.0, 144.0, 8.0, 176.0, 0.0, 0.0, 0.0, 1.6962752384260747E9, 0.0, 2023-10-02 15:33:58.426
140.0, 20992.1548953241, 20006.53237182288, 45966.29541710561, 74339.30925599448, 15241.4980818627, -20429.405025172833, -29354.545993154767, 10250.666469415006, 0.096, 0.9460000000000001, 0.278, 192.0, 0.0, 0.0, 0.0, 0.0, 0.0, 0.0, 0.0, 0.0, 0.0, 1.6962752384260852E9, 0.0, 2023-10-02 15:33:58.426
141.0, 20985.650537687605, 19999.737441508467, 45947.76582095216, 74328.22279074464, 15228.601125311987, -20439.03862703307, -29361.609144402642, 10249.146550792046, 0.096, 0.9460000000000001, 0.278, 192.0, 0.0, 0.0, 0.0, 0.0, 0.0, 0.0, 0.0, 0.0, 0.0, 1.6962752384260948E9, 0.0, 2023-10-02 15:33:58.426
142.0, 20986.365793510176, 19999.111592663718, 45941.1944080823, 74280.12183667682, 15229.003456712182, -20438.41277818832, -29383.737371413397, 10233.902661073525, 0.096, 0.9460000000000001, 0.278, 192.0, 0.0, 0.0, 0.0, 0.0, 0.0, 0.0, 0.0, 0.0, 0.0, 1.6962752384261312E9, 0.0, 2023-10-02 15:33:58.426
143.0, 20990.366755767674, 20005.593598555755, 45960.70748099178, 74276.76907500853, 15246.996610998704, -20427.28160944958, -29364.961906070937, 10250.26413801481, 0.096, 0.9460000000000001, 0.278, 192.0, 0.0, 0.0, 0.0, 0.0, 0.0, 0.0, 0.0, 0.0, 0.0, 1.6962752384261413E9, 0.0, 2023-10-02 15:33:58.426
144.0, 20980.66609867407, 19997.47991531848, 45947.45289652979, 74292.41529612723, 15239.486424861721, -20433.65185661934, -29348.913353552027, 10262.021155598302, 0.096, 0.9460000000000001, 0.278, 192.0, 0.0, 0.0, 0.0, 0.0, 0.0, 0.0, 0.0, 0.0, 0.0, 1.6962752384261508E9, 0.0, 2023-10-02 15:33:58.426
145.0, 20973.67000265956, 19992.987214682962, 45911.578346679016, 74276.65731628625, 15228.712884034263, -20439.575068899998, -29365.073664793214, 10250.130027548079, 0.096, 0.9460000000000001, 0.278, 192.0, 0.0, 0.0, 0.0, 0.0, 0.0, 0.0, 0.0, 0.0, 0.0, 1.6962752384261603E9, 0.0, 2023-10-02 15:33:58.426
146.0, 20985.024688842856, 20005.39243285566, 45904.291677986585, 74245.29781881545, 15241.609840584975, -20433.450690919246, -29375.3331154982, 10246.687858901962, 0.096, 0.9460000000000001, 0.278, 192.0, 0.0, 0.0, 0.0, 0.0, 0.0, 0.0, 0.0, 0.0, 0.0, 1.69627523842617E9, 0.0, 2023-10-02 15:33:58.426
147.0, 20987.43867724403, 20004.319549121803, 45906.83977685449, 74214.67592891169, 15244.202642941791, -20438.41277818832, -29379.736409155896, 10239.065914042701, 0.096, 0.9460000000000001, 0.278, 192.0, 0.0, 0.0, 0.0, 0.0, 0.0, 0.0, 0.0, 0.0, 0.0, 1.69627523842618E9, 0.0, 2023-10-02 15:33:58.426
148.0, 20986.18697955453, 19998.798668241343, 45906.392741965385, 74219.30274001393, 15241.185157440324, -20440.357379955934, -29372.87442360812, 10241.59166116615, 0.096, 0.9460000000000001, 0.278, 192.0, 0.0, 0.0, 0.0, 0.0, 0.0, 0.0, 0.0, 0.0, 0.0, 1.6962752384261894E9, 0.0, 2023-10-02 15:33:58.426
149.0, 20984.510598720386, 19995.95999669552, 45891.35001794696, 74229.80805990793, 15246.951907509794, -20433.51774615261, -29362.749083369865, 10255.69561191745, 0.092, 0.9500000000000001, 0.278, 192.0, 2.0, 224.0, 29.0, 176.0, 8.0, 176.0, 0.0, 0.0, 0.0, 1.6962752384261992E9, 0.0, 2023-10-02 15:33:58.426
150.0, 20973.804113126294, 19988.04747915834, 45866.40547113484, 74213.4689347111, 15233.786730025618, -20442.23492649018, -29352.08730126468, 10269.307824290732, 0.092, 0.9500000000000001, 0.278, 192.0, 0.0, 0.0, 0.0, 0.0, 0.0, 0.0, 0.0, 0.0, 0.0, 1.6962752384262097E9, 0.0, 2023-10-02 15:33:58.426
151.0, 20972.9994503259, 19988.561569280813, 45851.00511920513, 74176.36503891529, 15228.712884034263, -20448.404007959845, -29358.05521703425, 10259.003670096836, 0.092, 0.9500000000000001, 0.278, 192.0, 0.0, 0.0, 0.0, 0.0, 0.0, 0.0, 0.0, 0.0, 0.0, 1.6962752384262192E9, 0.0, 2023-10-02 15:33:58.426
152.0, 20979.63791842913, 19996.5187903069, 45855.25195065164, 74170.88886152374, 15238.435892872321, -20438.61394388842, -29357.518775167322, 10256.388515995564, 0.092, 0.9500000000000001, 0.278, 192.0, 0.0, 0.0, 0.0, 0.0, 0.0, 0.0, 0.0, 0.0, 0.0, 1.6962752384262288E9, 0.0, 2023-10-02 15:33:58.426
153.0, 20967.72443863445, 19984.873531445686, 45841.88560746737, 74176.34268717084, 15223.214354898259, -20446.392350958868, -29358.256382734347, 10257.819027640704, 0.092, 0.9500000000000001, 0.278, 192.0, 0.0, 0.0, 0.0, 0.0, 0.0, 0.0, 0.0, 0.0, 0.0, 1.6962752384262383E9, 0.0, 2023-10-02 15:33:58.426
154.0, 20958.604926896685, 19973.697659218033, 45829.92742418378, 74151.5546025699, 15216.352369350478, -20454.796606874064, -29365.341885726677, 10256.366164251109, 0.092, 0.9500000000000001, 0.278, 192.0, 0.0, 0.0, 0.0, 0.0, 0.0, 0.0, 0.0, 0.0, 0.0, 1.696275238426248E9, 0.0, 2023-10-02 15:33:58.426
155.0, 20963.00822055438, 19979.307947076315, 45823.266604336095, 74113.78015444042, 15219.034578685116, -20458.328182498, -29374.036714319795, 10249.481826958874, 0.092, 0.9500000000000001, 0.278, 192.0, 0.0, 0.0, 0.0, 0.0, 0.0, 0.0, 0.0, 0.0, 0.0, 1.6962752384262595E9, 0.0, 2023-10-02 15:33:58.426
156.0, 20970.831331113735, 19991.13201989317, 45821.54552001304, 74097.75395366598, 15230.545727079598, -20448.068731793017, -29389.235900549404, 10235.333172718665, 0.092, 0.9500000000000001, 0.278, 192.0, 0.0, 0.0, 0.0, 0.0, 0.0, 0.0, 0.0, 0.0, 0.0, 1.6962752384262693E9, 0.0, 2023-10-02 15:33:58.426
157.0, 20966.2492235004, 19986.43815355756, 45824.83122644797, 74131.9968261715, 15230.277506146134, -20448.113435281924, -29368.15820552805, 10255.36033575062, 0.092, 0.9500000000000001, 0.278, 192.0, 0.0, 0.0, 0.0, 0.0, 0.0, 0.0, 0.0, 0.0, 0.0, 1.6962752384262788E9, 0.0, 2023-10-02 15:33:58.426
158.0, 20965.176339766545, 19984.448848301035, 45803.99940061563, 74125.93950342412, 15224.622514798943, -20456.741208641673, -29364.023132803817, 10261.93174862048, 0.092, 0.9500000000000001, 0.278, 192.0, 0.0, 0.0, 0.0, 0.0, 0.0, 0.0, 0.0, 0.0, 0.0, 1.6962752384263096E9, 0.0, 2023-10-02 15:33:58.426
159.0, 20975.502845704897, 19994.596540283746, 45800.64663894733, 74092.41188674116, 15236.558346338075, -20446.101778280947, -29375.78015038731, 10252.3204985047, 0.1, 0.9500000000000001, 0.28200000000000003, 192.0, 3.0, 32.0, 29.0, 176.0, 8.0, 208.0, 0.0, 0.0, 0.0, 1.6962752384263196E9, 0.0, 2023-10-02 15:33:58.426
160.0, 20965.62337465565, 19981.878397688677, 45804.66995294928, 74087.3380407498, 15230.433968357322, -20454.304868496045, -29374.23788001989, 10249.012440325314, 0.1, 0.9500000000000001, 0.28200000000000003, 192.0, 0.0, 0.0, 0.0, 0.0, 0.0, 0.0, 0.0, 0.0, 0.0, 1.6962752384263299E9, 0.0, 2023-10-02 15:33:58.426
161.0, 20968.596156668205, 19987.91336869161, 45802.4124267593, 74094.64706118668, 15228.981104967726, -20460.339839498978, -29379.267022522334, 10244.944422834447, 0.1, 0.9500000000000001, 0.28200000000000003, 192.0, 0.0, 0.0, 0.0, 0.0, 0.0, 0.0, 0.0, 0.0, 0.0, 1.6962752384263396E9, 0.0, 2023-10-02 15:33:58.426
162.0, 20962.829406598736, 19984.650014001134, 45784.7098451507, 74089.39440123968, 15221.225049641735, -20467.067714580025, -29387.00072610387, 10243.759780378316, 0.1, 0.9500000000000001, 0.28200000000000003, 192.0, 0.0, 0.0, 0.0, 0.0, 0.0, 0.0, 0.0, 0.0, 0.0, 1.6962752384263492E9, 0.0, 2023-10-02 15:33:58.426
163.0, 20963.43290369903, 19985.38762156816, 45776.52910668005, 74055.55386013436, 15219.548668807587, -20463.89376686737, -29407.318461813746, 10227.465358670397, 0.1, 0.9500000000000001, 0.28200000000000003, 192.0, 0.0, 0.0, 0.0, 0.0, 0.0, 0.0, 0.0, 0.0, 0.0, 1.6962752384263587E9, 0.0, 2023-10-02 15:33:58.426
164.0, 20966.025706055847, 19989.075659403286, 45805.1616913273, 74055.95619153454, 15231.260982902168, -20451.555603928042, -29399.785923932308, 10232.539204661753, 0.1, 0.9500000000000001, 0.28200000000000003, 192.0, 0.0, 0.0, 0.0, 0.0, 0.0, 0.0, 0.0, 0.0, 0.0, 1.6962752384263685E9, 0.0, 2023-10-02 15:33:58.426
165.0, 20955.34157220621, 19976.849255186233, 45804.200566315725, 74074.82106385483, 15223.996665954193, -20451.510900439134, -29389.794694160784, 10241.07757104368, 0.1, 0.9500000000000001, 0.28200000000000003, 192.0, 0.0, 0.0, 0.0, 0.0, 0.0, 0.0, 0.0, 0.0, 0.0, 1.696275238426378E9, 0.0, 2023-10-02 15:33:58.426
166.0, 20951.80999658227, 19974.323508062782, 45788.24142077463, 74089.10382856177, 15219.839241485506, -20454.550737685055, -29367.442949705477, 10265.12804807759, 0.1, 0.9500000000000001, 0.28200000000000003, 192.0, 0.0, 0.0, 0.0, 0.0, 0.0, 0.0, 0.0, 0.0, 0.0, 1.6962752384263875E9, 0.0, 2023-10-02 15:33:58.426
167.0, 20956.77208385135, 19981.073734888287, 45777.758452625094, 74044.89207802917, 15222.901430475884, -20454.930717340794, -29384.96671735844, 10252.231091526877, 0.1, 0.9500000000000001, 0.28200000000000003, 192.0, 0.0, 0.0, 0.0, 0.0, 0.0, 0.0, 0.0, 0.0, 0.0, 1.696275238426397E9, 0.0, 2023-10-02 15:33:58.426
168.0, 20937.1919557085, 19963.348801535227, 45768.124850764856, 73998.6686704956, 15206.919933190338, -20469.034668092092, -29413.77811596133, 10222.2126987234, 0.1, 0.9500000000000001, 0.28200000000000003, 192.0, 0.0, 0.0, 0.0, 0.0, 0.0, 0.0, 0.0, 0.0, 0.0, 1.6962752384264069E9, 0.0, 2023-10-02 15:33:58.426
169.0, 20929.570010849242, 19956.352705520716, 45766.157897252786, 74001.0156036634, 15196.638130740897, -20472.94622337177, -29421.668281754053, 10213.942553274937, 0.094, 0.9560000000000001, 0.28, 192.0, 2.0, 240.0, 29.0, 224.0, 8.0, 192.0, 0.0, 0.0, 0.0, 1.6962752384264176E9, 0.0, 2023-10-02 15:33:58.426
170.0, 20921.009292722858, 19947.456711227504, 45742.107420218876, 74007.3187955998, 15178.175589820814, -20489.53121775761, -29415.38744156211, 10221.318628945188, 0.094, 0.9560000000000001, 0.28, 192.0, 0.0, 0.0, 0.0, 0.0, 0.0, 0.0, 0.0, 0.0, 0.0, 1.696275238426428E9, 0.0, 2023-10-02 15:33:58.426
171.0, 20936.633162097118, 19961.13597883415, 45735.55835909348, 73970.6619346931, 15190.849028926974, -20480.56816823103, -29430.45251732499, 10210.92506777347, 0.094, 0.9560000000000001, 0.28, 192.0, 0.0, 0.0, 0.0, 0.0, 0.0, 0.0, 0.0, 0.0, 0.0, 1.6962752384264376E9, 0.0, 2023-10-02 15:33:58.426
172.0, 20939.918868532048, 19962.52178699038, 45753.216237213164, 73958.23436477594, 15201.846087198985, -20474.287328039092, -29414.940406673006, 10223.531451646264, 0.094, 0.9560000000000001, 0.28, 192.0, 0.0, 0.0, 0.0, 0.0, 0.0, 0.0, 0.0, 0.0, 0.0, 1.6962752384264472E9, 0.0, 2023-10-02 15:33:58.426
173.0, 20949.23954596991, 19968.914385904598, 45768.326016464955, 73974.68524869505, 15208.52925879112, -20467.71591516923, -29396.05318260827, 10238.887100087059, 0.094, 0.9560000000000001, 0.28, 192.0, 0.0, 0.0, 0.0, 0.0, 0.0, 0.0, 0.0, 0.0, 0.0, 1.6962752384264865E9, 0.0, 2023-10-02 15:33:58.426
174.0, 20951.541775648806, 19971.596595239236, 45759.8994088053, 73980.87668190917, 15213.62545652693, -20460.25043252116, -29394.935595385505, 10242.105751288624, 0.094, 0.9560000000000001, 0.28, 192.0, 0.0, 0.0, 0.0, 0.0, 0.0, 0.0, 0.0, 0.0, 0.0, 1.6962752384264965E9, 0.0, 2023-10-02 15:33:58.426
175.0, 20956.39210419561, 19978.19035985355, 45749.595254611406, 73939.03421628884, 15229.361084623468, -20455.131883040893, -29423.948159688494, 10222.279753956765, 0.094, 0.9560000000000001, 0.28, 192.0, 0.0, 0.0, 0.0, 0.0, 0.0, 0.0, 0.0, 0.0, 0.0, 1.696275238426506E9, 0.0, 2023-10-02 15:33:58.426
176.0, 20951.698237859993, 19972.647127228633, 45761.419327428266, 73910.26752117486, 15231.43979685781, -20450.683885894287, -29433.000616192894, 10216.960038776402, 0.094, 0.9560000000000001, 0.28, 192.0, 0.0, 0.0, 0.0, 0.0, 0.0, 0.0, 0.0, 0.0, 0.0, 1.6962752384265172E9, 0.0, 2023-10-02 15:33:58.426
177.0, 20938.75657782037, 19961.94064163454, 45760.59231288342, 73913.73204156542, 15220.554497308076, -20461.725647655207, -29426.004520178383, 10218.88228879956, 0.094, 0.9560000000000001, 0.28, 192.0, 0.0, 0.0, 0.0, 0.0, 0.0, 0.0, 0.0, 0.0, 0.0, 1.6962752384265268E9, 0.0, 2023-10-02 15:33:58.426
178.0, 20931.13463296111, 19955.928022376065, 45747.2483214436, 73928.9982830284, 15212.150241392881, -20468.878205880905, -29419.857790453174, 10223.687913857451, 0.094, 0.9560000000000001, 0.28, 192.0, 0.0, 0.0, 0.0, 0.0, 0.0, 0.0, 0.0, 0.0, 0.0, 1.6962752384265366E9, 0.0, 2023-10-02 15:33:58.426
179.0, 20930.642894583096, 19954.6092694532, 45728.405800867775, 73906.33361415072, 15203.477764544221, -20474.913176883838, -29428.77613649084, 10218.234088210356, 0.1, 0.9480000000000001, 0.278, 192.0, 3.0, 32.0, 29.0, 160.0, 8.0, 176.0, 0.0, 0.0, 0.0, 1.6962752384265463E9, 0.0, 2023-10-02 15:33:58.426
180.0, 20932.118109717147, 19958.073789843773, 45737.61471958336, 73877.3881050811, 15209.780956480618, -20468.319412269524, -29431.748918503396, 10213.741387574839, 0.1, 0.9480000000000001, 0.278, 192.0, 0.0, 0.0, 0.0, 0.0, 0.0, 0.0, 0.0, 0.0, 0.0, 1.6962752384265563E9, 0.0, 2023-10-02 15:33:58.426
181.0, 20924.38440613561, 19947.903746116608, 45737.212388183165, 73882.41724758354, 15199.990892409194, -20478.5341594856, -29413.19697060549, 10222.972658034882, 0.1, 0.9480000000000001, 0.278, 192.0, 0.0, 0.0, 0.0, 0.0, 0.0, 0.0, 0.0, 0.0, 0.0, 1.6962752384265668E9, 0.0, 2023-10-02 15:33:58.426
182.0, 20948.3454761917, 19964.399333524627, 45735.468952115654, 73900.36569838115, 15201.577866265521, -20477.14835132937, -29399.495351254387, 10235.2661174853, 0.1, 0.9480000000000001, 0.278, 192.0, 0.0, 0.0, 0.0, 0.0, 0.0, 0.0, 0.0, 0.0, 0.0, 1.6962752384265764E9, 0.0, 2023-10-02 15:33:58.426
183.0, 20952.592307638206, 19972.088333617252, 45715.08416117241, 73879.42211382653, 15197.129869118915, -20477.2824617961, -29414.15809561707, 10226.16895749199, 0.1, 0.9480000000000001, 0.278, 192.0, 0.0, 0.0, 0.0, 0.0, 0.0, 0.0, 0.0, 0.0, 0.0, 1.696275238426586E9, 0.0, 2023-10-02 15:33:58.426
184.0, 20947.473758157943, 19974.681135974068, 45721.767332764546, 73841.15592731905, 15215.480651316722, -20461.703295910753, -29438.365034862167, 10207.572306105174, 0.1, 0.9480000000000001, 0.278, 192.0, 0.0, 0.0, 0.0, 0.0, 0.0, 0.0, 0.0, 0.0, 0.0, 1.6962752384265957E9, 0.0, 2023-10-02 15:33:58.426
185.0, 20931.46990912794, 19956.33035377626, 45729.00929796807, 73843.54756397576, 15216.754700750675, -20463.04440057807, -29434.319369115758, 10210.25451543981, 0.1, 0.9480000000000001, 0.278, 192.0, 0.0, 0.0, 0.0, 0.0, 0.0, 0.0, 0.0, 0.0, 0.0, 1.6962752384266055E9, 0.0, 2023-10-02 15:33:58.426
186.0, 20920.964589233947, 19944.774501892865, 45716.00058269508, 73868.7379799769, 15205.95880817876, -20468.207653547248, -29418.650796252587, 10226.325419703177, 0.1, 0.9480000000000001, 0.278, 192.0, 0.0, 0.0, 0.0, 0.0, 0.0, 0.0, 0.0, 0.0, 0.0, 1.6962752384266152E9, 0.0, 2023-10-02 15:33:58.426
187.0, 20926.351359647677, 19951.010638595897, 45702.58953602189, 73857.3832937936, 15200.795555209585, -20465.52544421261, -29434.20761039348, 10220.290448700243, 0.1, 0.9480000000000001, 0.278, 192.0, 0.0, 0.0, 0.0, 0.0, 0.0, 0.0, 0.0, 0.0, 0.0, 1.6962752384266245E9, 0.0, 2023-10-02 15:33:58.426
188.0, 20939.80710980977, 19963.99700212443, 45704.57884127842, 73828.19191553498, 15212.798441982084, -20456.629449919397, -29451.507860601887, 10209.472204383876, 0.1, 0.9480000000000001, 0.278, 192.0, 0.0, 0.0, 0.0, 0.0, 0.0, 0.0, 0.0, 0.0, 0.0, 1.6962752384266343E9, 0.0, 2023-10-02 15:33:58.426
189.0, 20933.883897529115, 19957.47029274348, 45707.573975035426, 73810.06465078171, 15213.91602920485, -20461.323316255013, -29469.769235821874, 10191.613160564084, 0.1, 0.9420000000000001, 0.28400000000000003, 192.0, 3.0, 32.0, 29.0, 112.0, 8.0, 224.0, 0.0, 0.0, 0.0, 1.696275238426674E9, 0.0, 2023-10-02 15:33:58.426
190.0, 20911.12982167361, 19933.41981570957, 45699.549698775976, 73843.36875002012, 15196.012281896148, -20474.600252461463, -29448.78094777834, 10211.081529984658, 0.1, 0.9420000000000001, 0.28400000000000003, 192.0, 0.0, 0.0, 0.0, 0.0, 0.0, 0.0, 0.0, 0.0, 0.0, 1.6962752384266844E9, 0.0, 2023-10-02 15:33:58.426
191.0, 20910.012234450845, 19932.972780820463, 45681.847117167374, 73866.65926774255, 15182.95886313425, -20480.076429853016, -29430.02783418034, 10232.36039070611, 0.1, 0.9420000000000001, 0.28400000000000003, 192.0, 0.0, 0.0, 0.0, 0.0, 0.0, 0.0, 0.0, 0.0, 0.0, 1.696275238426694E9, 0.0, 2023-10-02 15:33:58.426
192.0, 20920.42814736702, 19939.90182160161, 45669.62071295032, 73850.49895650137, 15181.349537533468, -20483.786819432597, -29427.77030799035, 10236.74133261935, 0.1, 0.9420000000000001, 0.28400000000000003, 192.0, 0.0, 0.0, 0.0, 0.0, 0.0, 0.0, 0.0, 0.0, 0.0, 1.6962752384267037E9, 0.0, 2023-10-02 15:33:58.426
193.0, 20932.922772517537, 19949.960106606497, 45677.19795432067, 73815.94315957346, 15196.191095851791, -20473.125037327416, -29455.01708448137, 10211.372102662577, 0.1, 0.9420000000000001, 0.28400000000000003, 192.0, 0.0, 0.0, 0.0, 0.0, 0.0, 0.0, 0.0, 0.0, 0.0, 1.6962752384267135E9, 0.0, 2023-10-02 15:33:58.426
194.0, 20930.53113586082, 19947.99315309443, 45687.70327421466, 73835.65739818304, 15196.280502829613, -20464.698429667766, -29458.749825805407, 10207.751120060817, 0.1, 0.9420000000000001, 0.28400000000000003, 192.0, 0.0, 0.0, 0.0, 0.0, 0.0, 0.0, 0.0, 0.0, 0.0, 1.696275238426723E9, 0.0, 2023-10-02 15:33:58.426
195.0, 20934.643856840594, 19949.021333339373, 45687.47975677011, 73863.77589270781, 15198.180401108313, -20463.67024942282, -29450.12205244566, 10221.475091156375, 0.1, 0.9420000000000001, 0.28400000000000003, 192.0, 0.0, 0.0, 0.0, 0.0, 0.0, 0.0, 0.0, 0.0, 0.0, 1.6962752384267328E9, 0.0, 2023-10-02 15:33:58.426
196.0, 20922.976246234924, 19936.10202504421, 45672.2805705405, 73847.90615414456, 15189.642034726387, -20477.260110051648, -29448.222154166957, 10225.990143536346, 0.1, 0.9420000000000001, 0.28400000000000003, 192.0, 0.0, 0.0, 0.0, 0.0, 0.0, 0.0, 0.0, 0.0, 0.0, 1.6962752384267423E9, 0.0, 2023-10-02 15:33:58.426
197.0, 20918.863525255147, 19934.269181998872, 45666.692634426676, 73818.11127878563, 15184.098802101471, -20489.82179043553, -29455.86645077067, 10214.2107742084, 0.1, 0.9420000000000001, 0.28400000000000003, 192.0, 0.0, 0.0, 0.0, 0.0, 0.0, 0.0, 0.0, 0.0, 0.0, 1.6962752384267533E9, 0.0, 2023-10-02 15:33:58.426
198.0, 20921.61278982315, 19938.71717914548, 45677.08619559839, 73836.5291162168, 15198.87330518643, -20475.76254317314, -29435.92869471654, 10229.007629037813, 0.1, 0.9420000000000001, 0.28400000000000003, 192.0, 0.0, 0.0, 0.0, 0.0, 0.0, 0.0, 0.0, 0.0, 0.0, 1.6962752384267628E9, 0.0, 2023-10-02 15:33:58.426
199.0, 20929.257086426867, 19943.23223152545, 45668.52547747201, 73848.44259601147, 15206.62936051242, -20464.38550524539, -29435.16873540506, 10232.092169772646, 0.096, 0.9500000000000001, 0.278, 192.0, 3.0, 0.0, 29.0, 176.0, 8.0, 176.0, 0.0, 0.0, 0.0, 1.6962752384267724E9, 0.0, 2023-10-02 15:33:58.426
200.0, 20926.038435225302, 19937.979571578453, 45644.36324171582, 73824.05684281074, 15195.364081306945, -20475.1813978173, -29441.31546513027, 10229.007629037813, 0.096, 0.9500000000000001, 0.278, 192.0, 0.0, 0.0, 0.0, 0.0, 0.0, 0.0, 0.0, 0.0, 0.0, 1.6962752384267824E9, 0.0, 2023-10-02 15:33:58.426
201.0, 20927.021911981334, 19938.448958212015, 45636.629538134286, 73773.69836255292, 15196.638130740897, -20480.277595553114, -29465.991791008928, 10205.895925271026, 0.096, 0.9500000000000001, 0.278, 192.0, 0.0, 0.0, 0.0, 0.0, 0.0, 0.0, 0.0, 0.0, 0.0, 1.6962752384267921E9, 0.0, 2023-10-02 15:33:58.426
202.0, 20916.27072289833, 19927.831879595742, 45641.569273658904, 73786.37180165909, 15192.458354527755, -20478.422400763324, -29447.64100881112, 10221.698608600927, 0.096, 0.9500000000000001, 0.278, 192.0, 0.0, 0.0, 0.0, 0.0, 0.0, 0.0, 0.0, 0.0, 0.0, 1.6962752384268017E9, 0.0, 2023-10-02 15:33:58.426
203.0, 20929.637066082607, 19938.739530889932, 45641.233997492076, 73829.5777236912, 15200.884962187405, -20466.933604113296, -29403.943348400993, 10263.69753643245, 0.096, 0.9500000000000001, 0.278, 192.0, 0.0, 0.0, 0.0, 0.0, 0.0, 0.0, 0.0, 0.0, 0.0, 1.6962752384268117E9, 0.0, 2023-10-02 15:33:58.426
204.0, 20935.85085104118, 19942.919307103075, 45623.88904379476, 73789.21047320492, 15204.662407000353, -20466.263051779635, -29438.789718006818, 10236.584870408162, 0.096, 0.9500000000000001, 0.278, 192.0, 0.0, 0.0, 0.0, 0.0, 0.0, 0.0, 0.0, 0.0, 0.0, 1.6962752384268484E9, 0.0, 2023-10-02 15:33:58.426
205.0, 20935.694388829994, 19941.153519291107, 45617.116465224804, 73740.23780110333, 15204.952979678272, -20464.13963605638, -29471.445616656023, 10207.371140405075, 0.096, 0.9500000000000001, 0.278, 192.0, 0.0, 0.0, 0.0, 0.0, 0.0, 0.0, 0.0, 0.0, 0.0, 1.6962752384268584E9, 0.0, 2023-10-02 15:33:58.426
206.0, 20924.94319974699, 19925.12731851665, 45619.10577048132, 73734.87338243406, 15194.402956295367, -20467.62650819141, -29469.523366632864, 10205.381835148553, 0.096, 0.9500000000000001, 0.278, 192.0, 0.0, 0.0, 0.0, 0.0, 0.0, 0.0, 0.0, 0.0, 0.0, 1.696275238426868E9, 0.0, 2023-10-02 15:33:58.426
207.0, 20922.752728790372, 19918.62296088016, 45614.881290779274, 73763.79653975923, 15188.971482392728, -20472.05215359356, -29445.607000065687, 10225.029018524769, 0.096, 0.9500000000000001, 0.278, 192.0, 0.0, 0.0, 0.0, 0.0, 0.0, 0.0, 0.0, 0.0, 0.0, 1.6962752384268777E9, 0.0, 2023-10-02 15:33:58.426
208.0, 20930.57583934973, 19923.18271674904, 45599.32447663838, 73759.23678389034, 15190.871380671428, -20472.700354182765, -29438.856773240183, 10231.22045173889, 0.096, 0.9500000000000001, 0.278, 192.0, 0.0, 0.0, 0.0, 0.0, 0.0, 0.0, 0.0, 0.0, 0.0, 1.6962752384268875E9, 0.0, 2023-10-02 15:33:58.426
209.0, 20943.606906367175, 19933.397463965113, 45596.68697079265, 73710.88996063352, 15203.477764544221, -20468.699391925264, -29463.51074737439, 10207.192326449434, 0.096, 0.96, 0.278, 192.0, 3.0, 0.0, 30.0, 0.0, 8.0, 176.0, 0.0, 0.0, 0.0, 1.6962752384268973E9, 0.0, 2023-10-02 15:33:58.426
210.0, 20938.823633053737, 19927.80952785129, 45607.259345920014, 73709.32533852165, 15201.331997076511, -20471.649822193365, -29453.20659318049, 10212.936724774449, 0.096, 0.96, 0.278, 192.0, 0.0, 0.0, 0.0, 0.0, 0.0, 0.0, 0.0, 0.0, 0.0, 1.6962752384269075E9, 0.0, 2023-10-02 15:33:58.426
211.0, 20933.81684229575, 19922.55686790429, 45605.225337174576, 73724.61393172908, 15195.252322584669, -20477.23775830719, -29445.6517035546, 10216.937687031948, 0.096, 0.96, 0.278, 192.0, 0.0, 0.0, 0.0, 0.0, 0.0, 0.0, 0.0, 0.0, 0.0, 1.6962752384269173E9, 0.0, 2023-10-02 15:33:58.426
212.0, 20922.506859601363, 19906.530667129835, 45593.557726568906, 73732.68291147744, 15187.295101558579, -20492.05696488106, -29425.2445608669, 10232.896832573037, 0.096, 0.96, 0.278, 192.0, 0.0, 0.0, 0.0, 0.0, 0.0, 0.0, 0.0, 0.0, 0.0, 1.696275238426927E9, 0.0, 2023-10-02 15:33:58.426
213.0, 20936.968438263946, 19916.76776609037, 45599.99502897204, 73708.47597223235, 15213.357235593467, -20477.573034474022, -29415.87917994013, 10236.87544308608, 0.096, 0.96, 0.278, 192.0, 0.0, 0.0, 0.0, 0.0, 0.0, 0.0, 0.0, 0.0, 0.0, 1.6962752384269369E9, 0.0, 2023-10-02 15:33:58.426
214.0, 20938.868336542648, 19917.237152723927, 45606.275869163976, 73676.06594277215, 15221.381511852922, -20467.693563424775, -29424.64106376661, 10221.989181278846, 0.096, 0.96, 0.278, 192.0, 0.0, 0.0, 0.0, 0.0, 0.0, 0.0, 0.0, 0.0, 0.0, 1.6962752384269464E9, 0.0, 2023-10-02 15:33:58.426
215.0, 20933.81684229575, 19914.04085326682, 45615.75300881303, 73697.90359710499, 15223.192003153803, -20456.96472608623, -29398.10954309816, 10240.630536154573, 0.096, 0.96, 0.278, 192.0, 0.0, 0.0, 0.0, 0.0, 0.0, 0.0, 0.0, 0.0, 0.0, 1.6962752384269562E9, 0.0, 2023-10-02 15:33:58.426
216.0, 20943.785720322816, 19924.345007460717, 45596.97754347057, 73684.40314345398, 15219.615724040954, -20457.32235399751, -29401.01526987735, 10237.210719252911, 0.096, 0.96, 0.278, 192.0, 0.0, 0.0, 0.0, 0.0, 0.0, 0.0, 0.0, 0.0, 0.0, 1.6962752384269657E9, 0.0, 2023-10-02 15:33:58.426
217.0, 20944.568031378752, 19924.412062694082, 45585.444043331634, 73630.80366025015, 15221.15799440837, -20456.4282842193, -29420.193066620002, 10218.278791699266, 0.096, 0.96, 0.278, 192.0, 0.0, 0.0, 0.0, 0.0, 0.0, 0.0, 0.0, 0.0, 0.0, 1.6962752384269755E9, 0.0, 2023-10-02 15:33:58.426
218.0, 20938.309542931267, 19916.477193412447, 45586.02518868747, 73582.05450559313, 15223.907258976373, -20459.266955765124, -29442.12012793066, 10192.373119875565, 0.096, 0.96, 0.278, 192.0, 0.0, 0.0, 0.0, 0.0, 0.0, 0.0, 0.0, 0.0, 0.0, 1.6962752384269853E9, 0.0, 2023-10-02 15:33:58.426
219.0, 20942.86929880015, 19920.18758299203, 45608.443988376144, 73599.10888661252, 15239.329962650534, -20444.023066046604, -29426.026871922837, 10205.82887003766, 0.10200000000000001, 0.9580000000000001, 0.276, 192.0, 3.0, 48.0, 29.0, 240.0, 8.0, 160.0, 0.0, 0.0, 0.0, 1.6962752384269962E9, 0.0, 2023-10-02 15:33:58.426
220.0, 20951.117092504155, 19928.301266229304, 45607.4158081312, 73614.53159028669, 15246.437817387321, -20434.009484530627, -29407.050240880282, 10225.721922602883, 0.10200000000000001, 0.9580000000000001, 0.276, 192.0, 0.0, 0.0, 0.0, 0.0, 0.0, 0.0, 0.0, 0.0, 0.0, 1.696275238427041E9, 0.0, 2023-10-02 15:33:58.427
221.0, 20956.079179773235, 19931.855193597698, 45592.93187772416, 73562.85435710601, 15251.221090700757, -20432.936600796773, -29429.647854524595, 10208.220506694379, 0.10200000000000001, 0.9580000000000001, 0.276, 192.0, 0.0, 0.0, 0.0, 0.0, 0.0, 0.0, 0.0, 0.0, 0.0, 1.6962752384270513E9, 0.0, 2023-10-02 15:33:58.427
222.0, 20939.53888887631, 19916.678359112546, 45583.54414505293, 73497.92253946335, 15238.167671938858, -20437.98809504367, -29465.947087520017, 10175.743422000816, 0.10200000000000001, 0.9580000000000001, 0.276, 192.0, 0.0, 0.0, 0.0, 0.0, 0.0, 0.0, 0.0, 0.0, 0.0, 1.6962752384270608E9, 0.0, 2023-10-02 15:33:58.427
223.0, 20938.95774352047, 19915.51606840087, 45599.145662682735, 73495.21797838426, 15245.811968542574, -20432.824842074497, -29457.185203693534, 10181.957206959392, 0.10200000000000001, 0.9580000000000001, 0.276, 192.0, 0.0, 0.0, 0.0, 0.0, 0.0, 0.0, 0.0, 0.0, 0.0, 1.6962752384270704E9, 0.0, 2023-10-02 15:33:58.427
224.0, 20935.269705685343, 19911.246885209905, 45602.45372086212, 73505.25391164469, 15250.68464883383, -20432.556621141033, -29440.577857563243, 10199.056291467703, 0.10200000000000001, 0.9580000000000001, 0.276, 192.0, 0.0, 0.0, 0.0, 0.0, 0.0, 0.0, 0.0, 0.0, 0.0, 1.6962752384270804E9, 0.0, 2023-10-02 15:33:58.427
225.0, 20934.509746373864, 19903.80375430629, 45575.34105483783, 73461.6456582124, 15235.239593415214, -20439.977400300195, -29461.744959562417, 10180.638454036529, 0.10200000000000001, 0.9580000000000001, 0.276, 192.0, 0.0, 0.0, 0.0, 0.0, 0.0, 0.0, 0.0, 0.0, 0.0, 1.69627523842709E9, 0.0, 2023-10-02 15:33:58.427
226.0, 20957.464987929463, 19920.567562647768, 45592.21662190159, 73435.76233813314, 15250.952869767294, -20424.08530999247, -29467.578764865255, 10173.977634188848, 0.10200000000000001, 0.9580000000000001, 0.276, 192.0, 0.0, 0.0, 0.0, 0.0, 0.0, 0.0, 0.0, 0.0, 0.0, 1.6962752384271016E9, 0.0, 2023-10-02 15:33:58.427
227.0, 20954.849833828193, 19908.385861919625, 45609.919203510195, 73451.27444878513, 15253.009230257181, -20425.560525126522, -29458.12397696066, 10178.53739005773, 0.10200000000000001, 0.9580000000000001, 0.276, 192.0, 0.0, 0.0, 0.0, 0.0, 0.0, 0.0, 0.0, 0.0, 0.0, 1.696275238427112E9, 0.0, 2023-10-02 15:33:58.427
228.0, 20948.971325036448, 19893.99133849041, 45607.23699417555, 73485.24910035719, 15241.92276500735, -20432.936600796773, -29440.10847092968, 10193.758928031793, 0.10200000000000001, 0.9580000000000001, 0.276, 192.0, 0.0, 0.0, 0.0, 0.0, 0.0, 0.0, 0.0, 0.0, 0.0, 1.6962752384271219E9, 0.0, 2023-10-02 15:33:58.427
229.0, 20938.28719118681, 19877.808675504766, 45590.137909667246, 73509.70190879129, 15222.744968264697, -20449.588650415975, -29409.06189788126, 10222.078588256669, 0.10200000000000001, 0.9460000000000001, 0.28200000000000003, 192.0, 3.0, 48.0, 29.0, 144.0, 8.0, 208.0, 0.0, 0.0, 0.0, 1.6962752384271314E9, 0.0, 2023-10-02 15:33:58.427
230.0, 20963.321144976755, 19897.545265858804, 45586.896906721224, 73478.63298399842, 15235.77603528214, -20444.6265631469, -29435.68282552753, 10196.3070268997, 0.10200000000000001, 0.9460000000000001, 0.28200000000000003, 192.0, 0.0, 0.0, 0.0, 0.0, 0.0, 0.0, 0.0, 0.0, 0.0, 1.6962752384271417E9, 0.0, 2023-10-02 15:33:58.427
231.0, 20968.618508412663, 19898.193466448007, 45606.25351741952, 73487.1489986359, 15243.77795979714, -20431.327275195992, -29451.30669490179, 10180.68315752544, 0.10200000000000001, 0.9460000000000001, 0.28200000000000003, 192.0, 0.0, 0.0, 0.0, 0.0, 0.0, 0.0, 0.0, 0.0, 0.0, 1.6962752384271512E9, 0.0, 2023-10-02 15:33:58.427
232.0, 20961.756522864882, 19889.073954710242, 45616.96000301361, 73554.53950816864, 15242.816834785563, -20431.394330429357, -29413.77811596133, 10213.495518385831, 0.10200000000000001, 0.9460000000000001, 0.28200000000000003, 192.0, 0.0, 0.0, 0.0, 0.0, 0.0, 0.0, 0.0, 0.0, 0.0, 1.6962752384271607E9, 0.0, 2023-10-02 15:33:58.427
233.0, 20950.84887157069, 19880.960271472966, 45603.10192145132, 73572.01857233269, 15234.189061425814, -20438.636295632878, -29401.57406348873, 10226.012495280802, 0.10200000000000001, 0.9460000000000001, 0.28200000000000003, 192.0, 0.0, 0.0, 0.0, 0.0, 0.0, 0.0, 0.0, 0.0, 0.0, 1.6962752384271705E9, 0.0, 2023-10-02 15:33:58.427
234.0, 20972.23949101442, 19903.289664183816, 45603.54895634043, 73546.24701097573, 15243.286221419123, -20433.450690919246, -29412.861694438663, 10216.289486442744, 0.10200000000000001, 0.9460000000000001, 0.28200000000000003, 192.0, 0.0, 0.0, 0.0, 0.0, 0.0, 0.0, 0.0, 0.0, 0.0, 1.69627523842718E9, 0.0, 2023-10-02 15:33:58.427
235.0, 20971.457179958485, 19905.41307990707, 45617.87642453628, 73514.61929257147, 15246.393113898412, -20427.52747863859, -29457.185203693534, 10174.15644814449, 0.10200000000000001, 0.9460000000000001, 0.28200000000000003, 192.0, 0.0, 0.0, 0.0, 0.0, 0.0, 0.0, 0.0, 0.0, 0.0, 1.6962752384271896E9, 0.0, 2023-10-02 15:33:58.427
236.0, 20951.944107049003, 19886.30233839778, 45624.76076182852, 73564.32957224007, 15229.87517474594, -20435.32823745349, -29432.151249903593, 10198.005759478303, 0.10200000000000001, 0.9460000000000001, 0.28200000000000003, 192.0, 0.0, 0.0, 0.0, 0.0, 0.0, 0.0, 0.0, 0.0, 0.0, 1.6962752384272356E9, 0.0, 2023-10-02 15:33:58.427
237.0, 20949.887746559114, 19884.201274418985, 45616.22239544659, 73594.616185977, 15229.182270667825, -20437.272839221103, -29407.363165302657, 10224.492576657842, 0.10200000000000001, 0.9460000000000001, 0.28200000000000003, 192.0, 0.0, 0.0, 0.0, 0.0, 0.0, 0.0, 0.0, 0.0, 0.0, 1.6962752384272456E9, 0.0, 2023-10-02 15:33:58.427
238.0, 20964.61754615516, 19898.66285308157, 45621.16213097121, 73582.85916839352, 15236.223070171247, -20429.248562961646, -29399.271833809835, 10232.293335472743, 0.10200000000000001, 0.9460000000000001, 0.28200000000000003, 192.0, 0.0, 0.0, 0.0, 0.0, 0.0, 0.0, 0.0, 0.0, 0.0, 1.6962752384272552E9, 0.0, 2023-10-02 15:33:58.427
239.0, 20967.456217700987, 19899.89219902661, 45622.79380831645, 73569.93986009835, 15240.291087662112, -20425.2699524486, -29398.243653564892, 10227.688876114951, 0.1, 0.9400000000000001, 0.28400000000000003, 192.0, 3.0, 32.0, 29.0, 96.0, 8.0, 224.0, 0.0, 0.0, 0.0, 1.6962752384272647E9, 0.0, 2023-10-02 15:33:58.427
240.0, 20944.81390056776, 19876.8922539821, 45599.12331093828, 73597.76778194521, 15220.82271824154, -20441.72083636771, -29376.94244109898, 10241.770475121793, 0.1, 0.9400000000000001, 0.28400000000000003, 192.0, 0.0, 0.0, 0.0, 0.0, 0.0, 0.0, 0.0, 0.0, 0.0, 1.696275238427277E9, 0.0, 2023-10-02 15:33:58.427
241.0, 20956.414455940063, 19890.45976286647, 45585.68991252064, 73604.76387795972, 15232.467977102755, -20438.457481677233, -29372.270926507823, 10246.576100179685, 0.1, 0.9400000000000001, 0.28400000000000003, 192.0, 0.0, 0.0, 0.0, 0.0, 0.0, 0.0, 0.0, 0.0, 0.0, 1.6962752389051497E9, 0.0, 2023-10-02 15:33:58.905
242.0, 20965.310450233275, 19896.338271658216, 45571.250685602514, 73553.86895583499, 15239.106445205982, -20435.52940315359, -29407.899607169584, 10216.44594865393, 0.1, 0.9400000000000001, 0.28400000000000003, 192.0, 0.0, 0.0, 0.0, 0.0, 0.0, 0.0, 0.0, 0.0, 0.0, 1.6962752389052458E9, 0.0, 2023-10-02 15:33:58.905
243.0, 20962.270612987355, 19891.622053578147, 45601.91727899519, 73518.53084785114, 15235.641924815409, -20436.244658976157, -29431.86067722567, 10192.864858253582, 0.1, 0.9400000000000001, 0.28400000000000003, 192.0, 0.0, 0.0, 0.0, 0.0, 0.0, 0.0, 0.0, 0.0, 0.0, 1.6962752389052603E9, 0.0, 2023-10-02 15:33:58.905
244.0, 20957.733208862926, 19886.07882095323, 45688.82086143742, 73547.31989470958, 15238.927631250339, -20429.069749006005, -29403.25044432288, 10216.73652133185, 0.1, 0.9400000000000001, 0.28400000000000003, 192.0, 0.0, 0.0, 0.0, 0.0, 0.0, 0.0, 0.0, 0.0, 0.0, 1.6962752389052749E9, 0.0, 2023-10-02 15:33:58.905
245.0, 20935.00148475188, 19864.844663720687, 45708.222175624636, 73564.12840653997, 15220.599200796987, -20440.133862511382, -29379.19996728897, 10238.12714077558, 0.1, 0.9400000000000001, 0.28400000000000003, 192.0, 0.0, 0.0, 0.0, 0.0, 0.0, 0.0, 0.0, 0.0, 0.0, 1.6962752389052875E9, 0.0, 2023-10-02 15:33:58.905
246.0, 20934.777967307327, 19865.291698609795, 45697.716855730636, 73529.86318228999, 15215.860630972462, -20440.37973170039, -29381.412789990045, 10236.45075994143, 0.1, 0.9400000000000001, 0.28400000000000003, 192.0, 0.0, 0.0, 0.0, 0.0, 0.0, 0.0, 0.0, 0.0, 0.0, 1.6962752389052997E9, 0.0, 2023-10-02 15:33:58.905
247.0, 20961.264784486866, 19887.017594220353, 45714.03362918301, 73500.26947263116, 15234.166709681358, -20426.834574560475, -29380.451664978467, 10234.93084131847, 0.1, 0.9400000000000001, 0.28400000000000003, 192.0, 0.0, 0.0, 0.0, 0.0, 0.0, 0.0, 0.0, 0.0, 0.0, 1.6962752389053109E9, 0.0, 2023-10-02 15:33:58.905
248.0, 20948.412531425063, 19873.248919635884, 45717.31933561794, 73488.26658585866, 15228.623477056442, -20430.85788856243, -29393.348621529178, 10219.418730666486, 0.1, 0.9400000000000001, 0.28400000000000003, 192.0, 0.0, 0.0, 0.0, 0.0, 0.0, 0.0, 0.0, 0.0, 0.0, 1.6962752389053397E9, 0.0, 2023-10-02 15:33:58.905
249.0, 20937.48252838642, 19862.967117186443, 45711.26201287055, 73506.57266456756, 15221.359160108466, -20436.155251998338, -29378.39530448858, 10232.673315128484, 0.10200000000000001, 0.9440000000000001, 0.28600000000000003, 192.0, 3.0, 48.0, 29.0, 128.0, 8.0, 240.0, 0.0, 0.0, 0.0, 1.69627523890535E9, 0.0, 2023-10-02 15:33:58.905
250.0, 20938.644819098095, 19861.82717821922, 45689.06673062644, 73482.1422078779, 15211.926723948327, -20441.072635778506, -29378.931746355505, 10235.959021563414, 0.10200000000000001, 0.9440000000000001, 0.28600000000000003, 192.0, 0.0, 0.0, 0.0, 0.0, 0.0, 0.0, 0.0, 0.0, 0.0, 1.6962752389053624E9, 0.0, 2023-10-02 15:33:58.905
251.0, 20935.42616789653, 19860.955460185465, 45680.57306773342, 73422.06071878204, 15214.944209449794, -20433.6742083638, -29404.792714690295, 10213.383759663553, 0.10200000000000001, 0.9440000000000001, 0.28600000000000003, 192.0, 0.0, 0.0, 0.0, 0.0, 0.0, 0.0, 0.0, 0.0, 0.0, 1.6962752389060695E9, 0.0, 2023-10-02 15:33:58.906
252.0, 20924.250295668877, 19853.109997881653, 45684.506974757554, 73422.99949204916, 15216.978218195227, -20428.242734461157, -29389.95115637197, 10223.754969090816, 0.10200000000000001, 0.9440000000000001, 0.28600000000000003, 192.0, 0.0, 0.0, 0.0, 0.0, 0.0, 0.0, 0.0, 0.0, 0.0, 1.6962752389060972E9, 0.0, 2023-10-02 15:33:58.906
253.0, 20923.557391590763, 19854.138178126595, 45672.86171589634, 73422.64186413788, 15217.022921684138, -20423.302998936535, -29399.875330910127, 10215.574230620174, 0.10200000000000001, 0.9440000000000001, 0.28600000000000003, 192.0, 0.0, 0.0, 0.0, 0.0, 0.0, 0.0, 0.0, 0.0, 0.0, 1.6962752389061096E9, 0.0, 2023-10-02 15:33:58.906
254.0, 20929.346493404686, 19858.92145144003, 45659.24950352305, 73390.38829688886, 15213.938380949305, -20426.94633328275, -29421.064784653758, 10202.856088025104, 0.10200000000000001, 0.9440000000000001, 0.28600000000000003, 192.0, 0.0, 0.0, 0.0, 0.0, 0.0, 0.0, 0.0, 0.0, 0.0, 1.6962752389061232E9, 0.0, 2023-10-02 15:33:58.906
255.0, 20934.487394629406, 19863.32474509773, 45673.040529851976, 73356.43599706126, 15224.890735732406, -20422.23011520268, -29423.411717821567, 10206.275904926766, 0.10200000000000001, 0.9440000000000001, 0.28600000000000003, 192.0, 0.0, 0.0, 0.0, 0.0, 0.0, 0.0, 0.0, 0.0, 0.0, 1.69627523890614E9, 0.0, 2023-10-02 15:33:58.906
0.0, 20910.682786784506, 19840.324800053215, 45670.15715481724, 73338.15227009682, 15210.96559893675, -20434.94825779775, -29420.215418364456, 10205.53829735974, 0.10200000000000001, 0.9440000000000001, 0.28600000000000003, 192.0, 0.0, 0.0, 0.0, 0.0, 0.0, 0.0, 0.0, 0.0, 0.0, 1.6962752389061513E9, 0.0, 2023-10-02 15:33:58.906
1.0, 20898.389327334087, 19831.182936570996, 45659.204800034146, 73345.6624562338, 15204.48359304471, -20438.90451656634, -29405.35150830168, 10216.088320742647, 0.10200000000000001, 0.9440000000000001, 0.28600000000000003, 192.0, 0.0, 0.0, 0.0, 0.0, 0.0, 0.0, 0.0, 0.0, 0.0, 1.696275238906162E9, 0.0, 2023-10-02 15:33:58.906
2.0, 20881.469056781418, 19812.988616584375, 45635.444895678156, 73347.51765102359, 15191.541933005088, -20446.302943981045, -29374.34963874217, 10244.184463522966, 0.10200000000000001, 0.9440000000000001, 0.28600000000000003, 192.0, 0.0, 0.0, 0.0, 0.0, 0.0, 0.0, 0.0, 0.0, 0.0, 1.6962752389061766E9, 0.0, 2023-10-02 15:33:58.906
3.0, 20890.677975497005, 19819.49297422087, 45620.13395072627, 73297.06976378796, 15191.161953349347, -20446.347647469956, -29379.758760900353, 10237.367181464098, 0.10200000000000001, 0.9440000000000001, 0.28600000000000003, 192.0, 0.0, 0.0, 0.0, 0.0, 0.0, 0.0, 0.0, 0.0, 0.0, 1.6962752389061873E9, 0.0, 2023-10-02 15:33:58.906
4.0, 20897.159981389046, 19823.225715544908, 45620.536282126464, 73246.97950446361, 15195.140563862393, -20439.508013666633, -29414.15809561707, 10201.358521146598, 0.1, 0.9460000000000001, 0.28400000000000003, 192.0, 3.0, 32.0, 29.0, 144.0, 8.0, 224.0, 0.0, 0.0, 0.0, 1.6962752389061973E9, 0.0, 2023-10-02 15:33:58.906
5.0, 20897.763478489338, 19821.21405854393, 45626.973584529595, 73265.53145236152, 15202.114308132448, -20429.293266450557, -29405.463267023955, 10208.01934099428, 0.1, 0.9460000000000001, 0.28400000000000003, 192.0, 0.0, 0.0, 0.0, 0.0, 0.0, 0.0, 0.0, 0.0, 0.0, 1.6962752389062335E9, 0.0, 2023-10-02 15:33:58.906
6.0, 20899.775135490316, 19823.940971367476, 45591.322552123376, 73250.8910597433, 15200.706148231764, -20432.46721416321, -29418.74020323041, 10198.45279436741, 0.1, 0.9460000000000001, 0.28400000000000003, 192.0, 0.0, 0.0, 0.0, 0.0, 0.0, 0.0, 0.0, 0.0, 0.0, 1.6962752389062445E9, 0.0, 2023-10-02 15:33:58.906
7.0, 20891.773210975316, 19815.179087540997, 45557.72788020705, 73218.25751283855, 15200.683796487308, -20431.528440896087, -29427.077403912237, 10196.463489110887, 0.1, 0.9460000000000001, 0.28400000000000003, 192.0, 0.0, 0.0, 0.0, 0.0, 0.0, 0.0, 0.0, 0.0, 0.0, 1.696275238906255E9, 0.0, 2023-10-02 15:33:58.906
8.0, 20886.811123706237, 19811.558104939235, 45552.87755166025, 73196.17398931671, 15199.67796798682, -20429.963818784217, -29425.266912611358, 10196.39643387752, 0.1, 0.9460000000000001, 0.28400000000000003, 192.0, 0.0, 0.0, 0.0, 0.0, 0.0, 0.0, 0.0, 0.0, 0.0, 1.6962752389062686E9, 0.0, 2023-10-02 15:33:58.906
9.0, 20871.790751432272, 19797.364747210115, 45551.02235687046, 73185.69102116716, 15195.855819684963, -20435.3729409424, -29442.656569797586, 10181.688986025929, 0.1, 0.9460000000000001, 0.28400000000000003, 192.0, 0.0, 0.0, 0.0, 0.0, 0.0, 0.0, 0.0, 0.0, 0.0, 1.696275238906279E9, 0.0, 2023-10-02 15:33:58.906
