%OpenBCI Raw EEG Data
%Number of channels = 8
%Sample Rate = 250 Hz
%Board = OpenBCI_GUI$BoardCytonSerial
Sample Index, EXG Channel 0, EXG Channel 1, EXG Channel 2, EXG Channel 3, EXG Channel 4, EXG Channel 5, EXG Channel 6, EXG Channel 7, Accel Channel 0, Accel Channel 1, Accel Channel 2, Other, Other, Other, Other, Other, Other, Other, Analog Channel 0, Analog Channel 1, Analog Channel 2, Timestamp, Other, Timestamp (Formatted)
25.0, 17475.13025702599, 17258.161873598325, 45565.729804722054, 72388.09137202399, 13070.584901641001, -20420.665493090808, -29751.758843870026, 10870.323880949483, 0.0, 0.0, 0.0, 192.0, 0.0, 0.0, 0.0, 0.0, 0.0, 0.0, 0.0, 0.0, 0.0, 1.696275146928779E9, 0.0, 2023-10-02 15:32:26.928
26.0, 17483.1768850299, 17264.35330681244, 45554.50922900549, 72401.30125299707, 13076.105782521461, -20416.6198273444, -29750.64125664726, 10870.77091583859, 0.0, 0.0, 0.0, 192.0, 0.0, 0.0, 0.0, 0.0, 0.0, 0.0, 0.0, 0.0, 0.0, 1.6962751469287958E9, 0.0, 2023-10-02 15:32:26.928
27.0, 17494.21864679082, 17282.435868076787, 45556.38677553973, 72364.24206069017, 13088.801573372075, -20413.848211031942, -29776.390466259774, 10845.491092859638, 0.094, 0.9460000000000001, 0.324, 192.0, 2.0, 240.0, 29.0, 144.0, 10.0, 32.0, 0.0, 0.0, 0.0, 1.6962751469288056E9, 0.0, 2023-10-02 15:32:26.928
28.0, 17486.015556575723, 17274.366888328423, 45569.842525701824, 72377.72016259673, 13086.856971604464, -20419.503202379132, -29772.054227835448, 10845.021706226076, 0.094, 0.9460000000000001, 0.324, 192.0, 0.0, 0.0, 0.0, 0.0, 0.0, 0.0, 0.0, 0.0, 0.0, 1.6962751469288173E9, 0.0, 2023-10-02 15:32:26.928
29.0, 17468.245919733756, 17249.37763802739, 45562.511153520485, 72432.81721267906, 13069.82494232952, -20432.534269396576, -29751.69178863666, 10860.153837222319, 0.094, 0.9460000000000001, 0.324, 192.0, 0.0, 0.0, 0.0, 0.0, 0.0, 0.0, 0.0, 0.0, 0.0, 1.6962751469288275E9, 0.0, 2023-10-02 15:32:26.928
30.0, 17480.69584139536, 17251.903385150836, 45557.23614182903, 72449.46926229827, 13073.714145864744, -20427.929810038782, -29752.11647178131, 10863.10426749042, 0.094, 0.9460000000000001, 0.324, 192.0, 0.0, 0.0, 0.0, 0.0, 0.0, 0.0, 0.0, 0.0, 0.0, 1.6962751469288375E9, 0.0, 2023-10-02 15:32:26.928
31.0, 17500.968873616323, 17257.692486964763, 45562.1535256092, 72419.2944072836, 13089.78505012811, -20413.825859287484, -29766.332181254886, 10851.235491184652, 0.094, 0.9460000000000001, 0.324, 192.0, 0.0, 0.0, 0.0, 0.0, 0.0, 0.0, 0.0, 0.0, 0.0, 1.6962751469288473E9, 0.0, 2023-10-02 15:32:26.928
32.0, 17502.511143983742, 17241.75569316813, 45575.05048215992, 72424.36825327495, 13092.243742018192, -20411.09894646394, -29759.492547451562, 10854.901177275322, 0.094, 0.9460000000000001, 0.324, 192.0, 0.0, 0.0, 0.0, 0.0, 0.0, 0.0, 0.0, 0.0, 0.0, 1.6962751469288568E9, 0.0, 2023-10-02 15:32:26.928
33.0, 17505.059242851647, 17231.183318040767, 45581.62189502978, 72490.59647209603, 13087.818096616042, -20408.23792317366, -29724.26619819, 10890.73102363718, 0.094, 0.9460000000000001, 0.324, 192.0, 0.0, 0.0, 0.0, 0.0, 0.0, 0.0, 0.0, 0.0, 0.0, 1.6962751469288664E9, 0.0, 2023-10-02 15:32:26.928
34.0, 17524.862888439045, 17242.090969334957, 45579.431424073155, 72523.87821958998, 13097.630512431922, -20401.778269026076, -29713.671471318183, 10904.9243813663, 0.094, 0.9460000000000001, 0.324, 192.0, 0.0, 0.0, 0.0, 0.0, 0.0, 0.0, 0.0, 0.0, 0.0, 1.696275146928876E9, 0.0, 2023-10-02 15:32:26.928
35.0, 17539.838557224102, 17251.07637060599, 45573.35174958131, 72491.7140593188, 13102.078509578529, -20405.019271972094, -29731.038776759957, 10885.72423287919, 0.094, 0.9460000000000001, 0.324, 192.0, 0.0, 0.0, 0.0, 0.0, 0.0, 0.0, 0.0, 0.0, 0.0, 1.6962751469288857E9, 0.0, 2023-10-02 15:32:26.928
36.0, 17543.57129854814, 17254.31737355201, 45561.751194209006, 72460.9580589483, 13109.49928873769, -20400.079536447472, -29756.18448927218, 10857.605738354414, 0.094, 0.9460000000000001, 0.324, 192.0, 0.0, 0.0, 0.0, 0.0, 0.0, 0.0, 0.0, 0.0, 0.0, 1.6962751469288957E9, 0.0, 2023-10-02 15:32:26.928
37.0, 17537.37986533402, 17251.07637060599, 45513.38201920772, 72507.5167426487, 13106.727672425232, -20398.023175957584, -29741.097061764845, 10873.207255984218, 0.096, 0.932, 0.328, 192.0, 3.0, 0.0, 29.0, 32.0, 10.0, 64.0, 0.0, 0.0, 0.0, 1.6962751469289052E9, 0.0, 2023-10-02 15:32:26.928
38.0, 17537.044589167188, 17246.114283336912, 45454.79809699036, 72541.71491166532, 13095.417689730846, -20406.583894083964, -29735.88910530676, 10882.594988655448, 0.096, 0.932, 0.328, 192.0, 0.0, 0.0, 0.0, 0.0, 0.0, 0.0, 0.0, 0.0, 0.0, 1.6962751469289155E9, 0.0, 2023-10-02 15:32:26.928
39.0, 17544.398313092985, 17251.724571195195, 45425.58436698728, 72514.26696947419, 13095.775317642132, -20406.60624582842, -29755.715102638616, 10865.272386702585, 0.096, 0.932, 0.328, 192.0, 0.0, 0.0, 0.0, 0.0, 0.0, 0.0, 0.0, 0.0, 0.0, 1.6962751469289255E9, 0.0, 2023-10-02 15:32:26.928
40.0, 17554.36719112005, 17257.04428637556, 45420.84579716275, 72483.86859701498, 13100.849163633486, -20400.79479227004, -29773.26122203603, 10845.62520332637, 0.096, 0.932, 0.328, 192.0, 0.0, 0.0, 0.0, 0.0, 0.0, 0.0, 0.0, 0.0, 0.0, 1.6962751469289353E9, 0.0, 2023-10-02 15:32:26.928
41.0, 17546.454673582874, 17238.067655333, 45432.4240007906, 72521.79950735564, 13100.670349677845, -20396.90558873482, -29761.146576541258, 10855.81759879799, 0.096, 0.932, 0.328, 192.0, 0.0, 0.0, 0.0, 0.0, 0.0, 0.0, 0.0, 0.0, 0.0, 1.6962751469290912E9, 0.0, 2023-10-02 15:32:26.929
42.0, 17557.362324877064, 17239.475815233687, 45429.16064610012, 72561.96559214182, 13107.174707314338, -20393.03873694405, -29759.26903000701, 10861.986680267653, 0.096, 0.932, 0.328, 192.0, 0.0, 0.0, 0.0, 0.0, 0.0, 0.0, 0.0, 0.0, 0.0, 1.696275146929102E9, 0.0, 2023-10-02 15:32:26.929
43.0, 17556.356496376575, 17235.296039020544, 45418.85649190623, 72569.98986840127, 13104.648960190889, -20399.923074236285, -29750.484794436074, 10871.575578638982, 0.096, 0.932, 0.328, 192.0, 0.0, 0.0, 0.0, 0.0, 0.0, 0.0, 0.0, 0.0, 0.0, 1.6962751469291117E9, 0.0, 2023-10-02 15:32:26.929
44.0, 17565.408952880975, 17248.192995571255, 45407.948840612036, 72522.73828062275, 13110.438062004812, -20401.04066145905, -29783.74419018557, 10837.042133455532, 0.096, 0.932, 0.328, 192.0, 0.0, 0.0, 0.0, 0.0, 0.0, 0.0, 0.0, 0.0, 0.0, 1.696275146929122E9, 0.0, 2023-10-02 15:32:26.929
45.0, 17550.90267072948, 17234.156100053322, 45429.831198433785, 72569.74399921227, 13105.520678224646, -20399.14076318035, -29752.608210159327, 10865.942939036244, 0.096, 0.932, 0.328, 192.0, 0.0, 0.0, 0.0, 0.0, 0.0, 0.0, 0.0, 0.0, 0.0, 1.6962751469291315E9, 0.0, 2023-10-02 15:32:26.929
46.0, 17556.937641732413, 17234.580783197973, 45430.50175076744, 72646.96927630536, 13107.6440939479, -20401.21947541469, -29703.702593291117, 10910.981704113687, 0.096, 0.932, 0.328, 192.0, 0.0, 0.0, 0.0, 0.0, 0.0, 0.0, 0.0, 0.0, 0.0, 1.6962751469291415E9, 0.0, 2023-10-02 15:32:26.929
47.0, 17547.706371272372, 17233.016161086103, 45400.08102656377, 72639.21322097936, 13094.545971697089, -20416.061033733014, -29710.519875349986, 10901.459860975727, 0.09, 0.928, 0.322, 192.0, 2.0, 208.0, 29.0, 0.0, 10.0, 16.0, 0.0, 0.0, 0.0, 1.6962751469291532E9, 0.0, 2023-10-02 15:32:26.929
48.0, 17554.344839375597, 17239.095835577948, 45397.55527944032, 72597.54956931467, 13102.391434000903, -20412.864734275907, -29724.60147435683, 10883.645520644846, 0.09, 0.928, 0.322, 192.0, 0.0, 0.0, 0.0, 0.0, 0.0, 0.0, 0.0, 0.0, 0.0, 1.6962751469291637E9, 0.0, 2023-10-02 15:32:26.929
49.0, 17566.437133125917, 17250.383466527877, 45418.38710527267, 72592.07339192313, 13118.97642838674, -20390.490638076146, -29736.716119851604, 10869.832142571468, 0.09, 0.928, 0.322, 192.0, 0.0, 0.0, 0.0, 0.0, 0.0, 0.0, 0.0, 0.0, 0.0, 1.6962751469291732E9, 0.0, 2023-10-02 15:32:26.929
50.0, 17562.771447035248, 17245.667248447808, 45418.7223814395, 72629.66902609695, 13112.270905050149, -20392.65875728831, -29741.16411699821, 10868.446334415237, 0.09, 0.928, 0.322, 192.0, 0.0, 0.0, 0.0, 0.0, 0.0, 0.0, 0.0, 0.0, 0.0, 1.6962751469291828E9, 0.0, 2023-10-02 15:32:26.929
51.0, 17558.435208610917, 17248.88589964937, 45397.68938990705, 72626.40567140648, 13099.262189777159, -20408.439088873754, -29759.023160818004, 10855.437619142249, 0.09, 0.928, 0.322, 192.0, 0.0, 0.0, 0.0, 0.0, 0.0, 0.0, 0.0, 0.0, 0.0, 1.6962751469291925E9, 0.0, 2023-10-02 15:32:26.929
52.0, 17562.48087435733, 17256.820768931004, 45404.35020975473, 72596.65549953646, 13103.844297390497, -20410.47309761919, -29772.32244876891, 10842.674773058268, 0.09, 0.928, 0.322, 192.0, 0.0, 0.0, 0.0, 0.0, 0.0, 0.0, 0.0, 0.0, 0.0, 1.6962751469292028E9, 0.0, 2023-10-02 15:32:26.929
53.0, 17554.38954286451, 17246.56131822602, 45412.30743078082, 72609.48540085381, 13105.230105546727, -20408.863772018405, -29759.581954429384, 10850.00614523961, 0.09, 0.928, 0.322, 192.0, 0.0, 0.0, 0.0, 0.0, 0.0, 0.0, 0.0, 0.0, 0.0, 1.6962751469292123E9, 0.0, 2023-10-02 15:32:26.929
54.0, 17545.292382871197, 17229.708102906716, 45411.81569240281, 72657.83222411064, 13096.691739164798, -20410.85307727493, -29740.337102453366, 10864.087744246453, 0.09, 0.928, 0.322, 192.0, 0.0, 0.0, 0.0, 0.0, 0.0, 0.0, 0.0, 0.0, 0.0, 1.696275146929222E9, 0.0, 2023-10-02 15:32:26.929
55.0, 17547.79577825019, 17231.27272501859, 45397.2647067624, 72684.38609652354, 13087.147544282383, -20413.31176916501, -29722.656872589218, 10877.074107774986, 0.09, 0.928, 0.322, 192.0, 0.0, 0.0, 0.0, 0.0, 0.0, 0.0, 0.0, 0.0, 0.0, 1.6962751469292316E9, 0.0, 2023-10-02 15:32:26.929
56.0, 17558.390505122006, 17246.158986825823, 45384.725378122974, 72649.22680249534, 13096.267056020148, -20409.37786214088, -29737.74430009655, 10859.684450588758, 0.09, 0.928, 0.322, 192.0, 0.0, 0.0, 0.0, 0.0, 0.0, 0.0, 0.0, 0.0, 0.0, 1.6962751469292412E9, 0.0, 2023-10-02 15:32:26.929
57.0, 17545.538252060207, 17234.40196924233, 45399.58928818575, 72656.87109909905, 13099.530410710622, -20406.919170250796, -29718.342985909345, 10873.654290873324, 0.09, 0.932, 0.32, 192.0, 2.0, 208.0, 29.0, 32.0, 10.0, 0.0, 0.0, 0.0, 0.0, 1.6962751469292831E9, 0.0, 2023-10-02 15:32:26.929
58.0, 17534.630600766017, 17216.900553333828, 45386.98290431296, 72709.0624224022, 13070.808419085553, -20427.840403060964, -29684.72596224856, 10896.989512084665, 0.09, 0.932, 0.32, 192.0, 0.0, 0.0, 0.0, 0.0, 0.0, 0.0, 0.0, 0.0, 0.0, 1.6962751469292936E9, 0.0, 2023-10-02 15:32:26.929
59.0, 17547.929888716924, 17223.919001092792, 45381.93141006606, 72736.57741982669, 13090.20973327276, -20417.491545378154, -29673.77360746546, 10905.259657533128, 0.09, 0.932, 0.32, 192.0, 0.0, 0.0, 0.0, 0.0, 0.0, 0.0, 0.0, 0.0, 0.0, 1.6962751469293034E9, 0.0, 2023-10-02 15:32:26.929
60.0, 17552.109664930067, 17235.296039020544, 45388.74869212493, 72710.87291370308, 13115.064873107061, -20402.94055973775, -29687.452875072107, 10892.25094226014, 0.09, 0.932, 0.32, 192.0, 0.0, 0.0, 0.0, 0.0, 0.0, 0.0, 0.0, 0.0, 0.0, 1.696275146929313E9, 0.0, 2023-10-02 15:32:26.929
61.0, 17552.62375505254, 17247.231870559677, 45392.302619493326, 72698.60180599711, 13110.12513758244, -20405.287492905558, -29688.458703572596, 10886.43948870176, 0.09, 0.932, 0.32, 192.0, 0.0, 0.0, 0.0, 0.0, 0.0, 0.0, 0.0, 0.0, 0.0, 1.6962751469293227E9, 0.0, 2023-10-02 15:32:26.929
62.0, 17554.635412053518, 17254.56324274102, 45393.88959334965, 72729.87189649009, 13104.872477635441, -20401.84532425944, -29688.41400008369, 10885.254846245629, 0.09, 0.932, 0.32, 192.0, 0.0, 0.0, 0.0, 0.0, 0.0, 0.0, 0.0, 0.0, 0.0, 1.6962751469293325E9, 0.0, 2023-10-02 15:32:26.929
63.0, 17542.788987492204, 17248.908251393827, 45392.4143782156, 72768.76393184232, 13106.325341025036, -20393.105792177415, -29681.82023546937, 10894.687282405768, 0.09, 0.932, 0.32, 192.0, 0.0, 0.0, 0.0, 0.0, 0.0, 0.0, 0.0, 0.0, 0.0, 1.696275146929342E9, 0.0, 2023-10-02 15:32:26.929
64.0, 17546.9911154498, 17246.31544903701, 45396.30358175082, 72769.90387080955, 13108.940495126308, -20388.255463630612, -29671.314915575378, 10904.834974388477, 0.09, 0.932, 0.32, 192.0, 0.0, 0.0, 0.0, 0.0, 0.0, 0.0, 0.0, 0.0, 0.0, 1.6962751469293516E9, 0.0, 2023-10-02 15:32:26.929
65.0, 17560.402162122984, 17250.674039205795, 45401.444482975545, 72762.95247828394, 13111.756814927676, -20389.618920042387, -29655.981618879036, 10913.373340770406, 0.09, 0.932, 0.32, 192.0, 0.0, 0.0, 0.0, 0.0, 0.0, 0.0, 0.0, 0.0, 0.0, 1.6962751469293613E9, 0.0, 2023-10-02 15:32:26.929
66.0, 17568.918176760457, 17256.99958288665, 45395.990657328446, 72752.11188222312, 13113.83552716202, -20387.94253920824, -29695.678317031663, 10875.53183740757, 0.09, 0.932, 0.32, 192.0, 0.0, 0.0, 0.0, 0.0, 0.0, 0.0, 0.0, 0.0, 0.0, 1.696275146929371E9, 0.0, 2023-10-02 15:32:26.929
67.0, 17553.13784517501, 17252.21630957321, 45396.52709919537, 72778.71045812493, 13108.851088148485, -20385.930882207263, -29714.02909922947, 10865.42884891377, 0.08600000000000001, 0.932, 0.322, 192.0, 2.0, 176.0, 29.0, 32.0, 10.0, 16.0, 0.0, 0.0, 0.0, 1.696275146929382E9, 0.0, 2023-10-02 15:32:26.929
68.0, 17546.499377071785, 17249.243527560655, 45386.58057291277, 72795.04958332177, 13096.02118683114, -20395.564484067498, -29694.270157130977, 10885.835991601467, 0.08600000000000001, 0.932, 0.322, 192.0, 0.0, 0.0, 0.0, 0.0, 0.0, 0.0, 0.0, 0.0, 0.0, 1.696275146929394E9, 0.0, 2023-10-02 15:32:26.929
69.0, 17551.819092252146, 17250.60698397243, 45379.83034608726, 72775.11182726762, 13092.064928062551, -20400.861847503405, -29692.191444896634, 10881.566808410504, 0.08600000000000001, 0.932, 0.322, 192.0, 0.0, 0.0, 0.0, 0.0, 0.0, 0.0, 0.0, 0.0, 0.0, 1.6962751469294035E9, 0.0, 2023-10-02 15:32:26.929
70.0, 17552.243775396797, 17254.183263085277, 45382.847831588726, 72785.79596111727, 13090.299140250581, -20403.07467020448, -29696.080648431856, 10872.067317016998, 0.08600000000000001, 0.932, 0.322, 192.0, 0.0, 0.0, 0.0, 0.0, 0.0, 0.0, 0.0, 0.0, 0.0, 1.6962751469294133E9, 0.0, 2023-10-02 15:32:26.929
71.0, 17544.28655437071, 17250.137597338868, 45376.99167454144, 72823.6374644801, 13083.548913425078, -20403.298187649034, -29698.02525019947, 10873.900160062332, 0.08600000000000001, 0.932, 0.322, 192.0, 0.0, 0.0, 0.0, 0.0, 0.0, 0.0, 0.0, 0.0, 0.0, 1.6962751469294226E9, 0.0, 2023-10-02 15:32:26.929
72.0, 17541.22436538033, 17241.331010023478, 45367.58159012575, 72834.07572914074, 13085.471163448236, -20402.247655659638, -29691.69970651862, 10884.271369489596, 0.08600000000000001, 0.932, 0.322, 192.0, 0.0, 0.0, 0.0, 0.0, 0.0, 0.0, 0.0, 0.0, 0.0, 1.6962751469294436E9, 0.0, 2023-10-02 15:32:26.929
73.0, 17550.455635840375, 17238.73820766666, 45365.301712191314, 72800.4363537355, 13088.890980349897, -20407.165039439802, -29703.12144793528, 10871.799096083534, 0.08600000000000001, 0.932, 0.322, 192.0, 0.0, 0.0, 0.0, 0.0, 0.0, 0.0, 0.0, 0.0, 0.0, 1.6962751469294531E9, 0.0, 2023-10-02 15:32:26.929
74.0, 17541.67140026944, 17230.244544773646, 45373.43774717304, 72813.17684807502, 13084.01830005864, -20408.19321968475, -29696.84060774334, 10876.87294207489, 0.08600000000000001, 0.932, 0.322, 192.0, 0.0, 0.0, 0.0, 0.0, 0.0, 0.0, 0.0, 0.0, 0.0, 1.696275146929463E9, 0.0, 2023-10-02 15:32:26.929
75.0, 17534.51884204374, 17233.284382019567, 45374.26476171789, 72850.3477991042, 13088.376890227424, -20397.911417235307, -29701.467418845587, 10877.856418830923, 0.08600000000000001, 0.932, 0.322, 192.0, 0.0, 0.0, 0.0, 0.0, 0.0, 0.0, 0.0, 0.0, 0.0, 1.6962751469294724E9, 0.0, 2023-10-02 15:32:26.929
76.0, 17531.881336198014, 17238.961725111214, 45364.22882845746, 72840.46832805495, 13086.320529737537, -20404.192257427247, -29728.22245695859, 10860.19854071123, 0.08600000000000001, 0.932, 0.322, 192.0, 0.0, 0.0, 0.0, 0.0, 0.0, 0.0, 0.0, 0.0, 0.0, 1.6962751469294822E9, 0.0, 2023-10-02 15:32:26.929
77.0, 17527.09806288458, 17234.714893664706, 45359.11027897719, 72813.2886067973, 13078.765640111642, -20415.43518488827, -29735.956160540125, 10852.017802240587, 0.09, 0.932, 0.326, 192.0, 2.0, 208.0, 29.0, 32.0, 10.0, 48.0, 0.0, 0.0, 0.0, 1.6962751469294918E9, 0.0, 2023-10-02 15:32:26.929
78.0, 17532.216612364842, 17238.98407685567, 45369.347377937724, 72822.38576679061, 13080.687890134799, -20412.440051131256, -29726.479020891074, 10855.705840075712, 0.09, 0.932, 0.326, 192.0, 0.0, 0.0, 0.0, 0.0, 0.0, 0.0, 0.0, 0.0, 0.0, 1.696275146929502E9, 0.0, 2023-10-02 15:32:26.929
79.0, 17527.768615218236, 17239.609925700417, 45376.23171522996, 72875.8511395277, 13078.54212266709, -20408.953178996228, -29705.06604970289, 10874.526008907082, 0.09, 0.932, 0.326, 192.0, 0.0, 0.0, 0.0, 0.0, 0.0, 0.0, 0.0, 0.0, 0.0, 1.6962751469295115E9, 0.0, 2023-10-02 15:32:26.929
80.0, 17529.221478607833, 17239.14053906686, 45367.51453489239, 72894.62660487015, 13082.565436669045, -20410.875429019383, -29698.718154277583, 10884.785459612067, 0.09, 0.932, 0.326, 192.0, 0.0, 0.0, 0.0, 0.0, 0.0, 0.0, 0.0, 0.0, 0.0, 1.696275146929521E9, 0.0, 2023-10-02 15:32:26.929
81.0, 17536.66460951145, 17240.50399547863, 45360.98782551144, 72856.06984568476, 13091.662596662354, -20412.88708602036, -29713.939692251646, 10869.9662530382, 0.09, 0.932, 0.326, 192.0, 0.0, 0.0, 0.0, 0.0, 0.0, 0.0, 0.0, 0.0, 0.0, 1.6962751469295309E9, 0.0, 2023-10-02 15:32:26.929
82.0, 17536.15051938898, 17240.638105945363, 45377.28224721936, 72836.22149660844, 13096.758794398165, -20403.65581556032, -29730.189410470655, 10852.956575507711, 0.09, 0.932, 0.326, 192.0, 0.0, 0.0, 0.0, 0.0, 0.0, 0.0, 0.0, 0.0, 0.0, 1.6962751469295404E9, 0.0, 2023-10-02 15:32:26.929
83.0, 17519.163193602944, 17229.864565117903, 45386.37940721267, 72897.71114560499, 13093.048404818584, -20402.381766126367, -29699.321651377875, 10883.779631111578, 0.09, 0.932, 0.326, 192.0, 0.0, 0.0, 0.0, 0.0, 0.0, 0.0, 0.0, 0.0, 0.0, 1.69627514692955E9, 0.0, 2023-10-02 15:32:26.929
84.0, 17533.758882732258, 17242.202728057233, 45381.84200308824, 72937.05021584634, 13103.821945646043, -20399.900722491828, -29684.591851781828, 10901.750433653646, 0.09, 0.932, 0.326, 192.0, 0.0, 0.0, 0.0, 0.0, 0.0, 0.0, 0.0, 0.0, 0.0, 1.6962751469295597E9, 0.0, 2023-10-02 15:32:26.929
85.0, 17538.60921127906, 17245.68960019226, 45373.21422972849, 72926.34373025224, 13099.6421694329, -20405.51101035011, -29676.92520343366, 10905.885506377877, 0.09, 0.932, 0.326, 192.0, 0.0, 0.0, 0.0, 0.0, 0.0, 0.0, 0.0, 0.0, 0.0, 1.6962751469295695E9, 0.0, 2023-10-02 15:32:26.929
86.0, 17542.386656092007, 17255.524367752598, 45377.43870943054, 72907.27769223186, 13106.906486380874, -20396.816181756996, -29680.121502890768, 10897.68241616278, 0.09, 0.932, 0.326, 192.0, 0.0, 0.0, 0.0, 0.0, 0.0, 0.0, 0.0, 0.0, 0.0, 1.6962751469295793E9, 0.0, 2023-10-02 15:32:26.929
87.0, 17537.044589167188, 17263.1239608674, 45383.5630874113, 72934.25624778942, 13103.598428201489, -20390.69180377624, -29681.64142151373, 10895.603703928437, 0.09, 0.932, 0.326, 192.0, 0.0, 0.0, 0.0, 0.0, 0.0, 0.0, 0.0, 0.0, 0.0, 1.6962751469295888E9, 0.0, 2023-10-02 15:32:26.929
88.0, 17534.22826936582, 17272.824617961003, 45376.32112220778, 72972.58948953026, 13094.88124786392, -20392.681109032765, -29673.415979554175, 10904.164422054819, 0.09, 0.924, 0.324, 192.0, 2.0, 208.0, 28.0, 224.0, 10.0, 32.0, 0.0, 0.0, 0.0, 1.6962751469296248E9, 0.0, 2023-10-02 15:32:26.929
89.0, 17531.501356542274, 17271.885844693883, 45363.51357263489, 72949.1201578522, 13092.042576318096, -20404.728699294174, -29685.530625048952, 10891.647445159846, 0.09, 0.924, 0.324, 192.0, 0.0, 0.0, 0.0, 0.0, 0.0, 0.0, 0.0, 0.0, 0.0, 1.6962751469296365E9, 0.0, 2023-10-02 15:32:26.929
90.0, 17526.47221403983, 17266.253205091143, 45370.86729656068, 72941.07352984829, 13095.842372875497, -20402.02413821508, -29669.5044242745, 10902.957427854231, 0.09, 0.924, 0.324, 192.0, 0.0, 0.0, 0.0, 0.0, 0.0, 0.0, 0.0, 0.0, 0.0, 1.696275146929646E9, 0.0, 2023-10-02 15:32:26.929
91.0, 17534.04945541018, 17265.292080079565, 45384.680674634066, 72966.75568422744, 13106.906486380874, -20379.962966437695, -29662.91065966018, 10908.545363968058, 0.09, 0.924, 0.324, 192.0, 0.0, 0.0, 0.0, 0.0, 0.0, 0.0, 0.0, 0.0, 0.0, 1.6962751469296556E9, 0.0, 2023-10-02 15:32:26.929
92.0, 17519.811394192147, 17250.42817001679, 45362.39598541212, 72983.29597512436, 13082.833657602509, -20394.133972422358, -29679.942688935127, 10894.843744616956, 0.09, 0.924, 0.324, 192.0, 0.0, 0.0, 0.0, 0.0, 0.0, 0.0, 0.0, 0.0, 0.0, 1.696275146929665E9, 0.0, 2023-10-02 15:32:26.929
93.0, 17521.9348099154, 17253.065675862512, 45350.86248527318, 72980.65846927864, 13075.569340654534, -20404.102850449428, -29674.86884294377, 10900.409328986327, 0.09, 0.924, 0.324, 192.0, 0.0, 0.0, 0.0, 0.0, 0.0, 0.0, 0.0, 0.0, 0.0, 1.696275146929675E9, 0.0, 2023-10-02 15:32:26.929
94.0, 17524.125280872024, 17256.016106130613, 45351.801258540305, 72951.24357357546, 13082.565436669045, -20405.51101035011, -29677.461645300587, 10890.753375381635, 0.09, 0.924, 0.324, 192.0, 0.0, 0.0, 0.0, 0.0, 0.0, 0.0, 0.0, 0.0, 0.0, 1.6962751469296846E9, 0.0, 2023-10-02 15:32:26.929
95.0, 17514.245809822776, 17246.918946137303, 45359.93729352204, 72975.18229188709, 13079.994986056685, -20407.254446417624, -29658.01562762447, 10901.929247609289, 0.09, 0.924, 0.324, 192.0, 0.0, 0.0, 0.0, 0.0, 0.0, 0.0, 0.0, 0.0, 0.0, 1.6962751469296944E9, 0.0, 2023-10-02 15:32:26.929
96.0, 17518.42558603592, 17255.233795074677, 45354.43876438603, 73010.94508301557, 13071.098991763472, -20410.09311796345, -29653.098243844302, 10905.527878466592, 0.09, 0.924, 0.324, 192.0, 0.0, 0.0, 0.0, 0.0, 0.0, 0.0, 0.0, 0.0, 0.0, 1.696275146929704E9, 0.0, 2023-10-02 15:32:26.929
97.0, 17540.196185135388, 17276.535007540584, 45350.88483701764, 72987.56515831532, 13085.761736126155, -20401.4653446037, -29680.903813946705, 10881.902084577332, 0.09, 0.924, 0.324, 192.0, 0.0, 0.0, 0.0, 0.0, 0.0, 0.0, 0.0, 0.0, 0.0, 1.6962751469297135E9, 0.0, 2023-10-02 15:32:26.929
98.0, 17531.23313560881, 17265.448542290753, 45365.301712191314, 72946.4155967731, 13099.888038621908, -20396.123277678882, -29703.903758991215, 10861.62905235637, 0.09, 0.924, 0.328, 192.0, 2.0, 208.0, 28.0, 224.0, 10.0, 64.0, 0.0, 0.0, 0.0, 1.6962751469297233E9, 0.0, 2023-10-02 15:32:26.929
99.0, 17519.207897091856, 17248.863547904915, 45383.07134903328, 72972.85771046374, 13097.764622898654, -20398.60432131342, -29684.256575615, 10877.38703219736, 0.09, 0.924, 0.328, 192.0, 0.0, 0.0, 0.0, 0.0, 0.0, 0.0, 0.0, 0.0, 0.0, 1.6962751469297335E9, 0.0, 2023-10-02 15:32:26.929
100.0, 17527.254525095766, 17245.71195193672, 45380.36678795419, 73028.69236811309, 13085.895846592886, -20404.974568483183, -29662.933011404635, 10897.660064418324, 0.09, 0.924, 0.328, 192.0, 0.0, 0.0, 0.0, 0.0, 0.0, 0.0, 0.0, 0.0, 0.0, 1.6962751469297428E9, 0.0, 2023-10-02 15:32:26.929
101.0, 17522.60536224906, 17234.089044819957, 45362.53009587886, 73044.2938857429, 13071.702488863766, -20418.989112256662, -29652.137118832725, 10906.287837778073, 0.09, 0.924, 0.328, 192.0, 0.0, 0.0, 0.0, 0.0, 0.0, 0.0, 0.0, 0.0, 0.0, 1.6962751469297523E9, 0.0, 2023-10-02 15:32:26.929
102.0, 17530.406121063963, 17240.41458850081, 45351.98007249595, 73004.21720793453, 13079.927930823318, -20419.14557446785, -29666.710456217585, 10886.506543935126, 0.09, 0.924, 0.328, 192.0, 0.0, 0.0, 0.0, 0.0, 0.0, 0.0, 0.0, 0.0, 0.0, 1.696275146929762E9, 0.0, 2023-10-02 15:32:26.929
103.0, 17534.340028088096, 17242.78387341307, 45364.02766275736, 72979.8314547338, 13092.40020422938, -20403.32053939349, -29698.382878110755, 10856.421095898282, 0.09, 0.924, 0.328, 192.0, 0.0, 0.0, 0.0, 0.0, 0.0, 0.0, 0.0, 0.0, 0.0, 1.696275146929781E9, 0.0, 2023-10-02 15:32:26.929
104.0, 17524.19233610539, 17233.93258260877, 45375.82938382976, 73040.11410952975, 13087.25930300466, -20401.13006843687, -29676.321706333365, 10882.639692144357, 0.09, 0.924, 0.328, 192.0, 0.0, 0.0, 0.0, 0.0, 0.0, 0.0, 0.0, 0.0, 0.0, 1.696275146929791E9, 0.0, 2023-10-02 15:32:26.929
105.0, 17521.063091881646, 17230.31160000701, 45355.69046207553, 73076.748618692, 13071.143695252384, -20415.301074421535, -29648.359674019775, 10911.719311680712, 0.09, 0.924, 0.328, 192.0, 0.0, 0.0, 0.0, 0.0, 0.0, 0.0, 0.0, 0.0, 0.0, 1.6962751469298005E9, 0.0, 2023-10-02 15:32:26.929
106.0, 17532.931868187414, 17239.006428600125, 45347.956758493994, 73041.41051070816, 13084.599445414478, -20410.09311796345, -29656.2498398125, 10901.035177831076, 0.09, 0.924, 0.328, 192.0, 0.0, 0.0, 0.0, 0.0, 0.0, 0.0, 0.0, 0.0, 0.0, 1.6962751469298108E9, 0.0, 2023-10-02 15:32:26.929
107.0, 17533.915344943445, 17244.28144029158, 45360.339624922235, 73001.66910906663, 13098.5916374435, -20398.783135269063, -29692.25850013, 10865.115924491398, 0.09, 0.924, 0.328, 192.0, 0.0, 0.0, 0.0, 0.0, 0.0, 0.0, 0.0, 0.0, 0.0, 1.6962751469298203E9, 0.0, 2023-10-02 15:32:26.929
108.0, 17530.674341997426, 17245.801358914538, 45384.34539846723, 73065.77391216444, 13101.318550267048, -20392.725812521676, -29663.35769454929, 10897.01186382912, 0.08600000000000001, 0.928, 0.328, 192.0, 2.0, 176.0, 29.0, 0.0, 10.0, 64.0, 0.0, 0.0, 0.0, 1.69627514692983E9, 0.0, 2023-10-02 15:32:26.929
109.0, 17538.9891909348, 17256.239623575166, 45374.35416869571, 73101.8049242264, 13099.21748628825, -20395.85505674542, -29655.31106654538, 10912.188698314274, 0.08600000000000001, 0.928, 0.328, 192.0, 0.0, 0.0, 0.0, 0.0, 0.0, 0.0, 0.0, 0.0, 0.0, 1.69627514692984E9, 0.0, 2023-10-02 15:32:26.929
110.0, 17538.38569383451, 17261.201710844245, 45366.5087063919, 73082.98475539502, 13102.883172378919, -20397.151457923825, -29661.346037548312, 10908.880640134888, 0.08600000000000001, 0.928, 0.328, 192.0, 0.0, 0.0, 0.0, 0.0, 0.0, 0.0, 0.0, 0.0, 0.0, 1.6962751469298499E9, 0.0, 2023-10-02 15:32:26.929
111.0, 17537.066940911645, 17264.04038239007, 45358.88676153264, 73041.94695257509, 13103.620779945944, -20399.81131551401, -29692.414962341187, 10875.733003107669, 0.08600000000000001, 0.928, 0.328, 192.0, 0.0, 0.0, 0.0, 0.0, 0.0, 0.0, 0.0, 0.0, 0.0, 1.6962751469298608E9, 0.0, 2023-10-02 15:32:26.929
112.0, 17530.09319664159, 17255.636126474874, 45372.90130530611, 73065.7962639089, 13100.692701422298, -20393.150495666327, -29700.014555455993, 10870.837971071956, 0.08600000000000001, 0.928, 0.328, 192.0, 0.0, 0.0, 0.0, 0.0, 0.0, 0.0, 0.0, 0.0, 0.0, 1.6962751469298704E9, 0.0, 2023-10-02 15:32:26.929
113.0, 17529.534403030208, 17255.434960774775, 45366.620465114174, 73114.74658426602, 13087.326358238026, -20395.206856156216, -29678.69099124563, 10896.810698129022, 0.08600000000000001, 0.928, 0.328, 192.0, 0.0, 0.0, 0.0, 0.0, 0.0, 0.0, 0.0, 0.0, 0.0, 1.6962751469298804E9, 0.0, 2023-10-02 15:32:26.929
114.0, 17535.23409786631, 17263.012202145124, 45354.01408124138, 73096.66402300168, 13090.16502978385, -20396.011518956606, -29690.425657084663, 10890.976892826187, 0.08600000000000001, 0.928, 0.328, 192.0, 0.0, 0.0, 0.0, 0.0, 0.0, 0.0, 0.0, 0.0, 0.0, 1.6962751469298904E9, 0.0, 2023-10-02 15:32:26.929
115.0, 17534.809414721658, 17264.1744928568, 45364.72056683547, 73077.48622625903, 13097.652864176378, -20395.430373600768, -29693.040811185936, 10886.8194683575, 0.08600000000000001, 0.928, 0.328, 192.0, 0.0, 0.0, 0.0, 0.0, 0.0, 0.0, 0.0, 0.0, 0.0, 1.6962751469299023E9, 0.0, 2023-10-02 15:32:26.929
116.0, 17525.46638553934, 17254.51853925211, 45370.1073372492, 73111.03619468644, 13088.466297205247, -20400.83949575895, -29676.612279011286, 10900.58814294197, 0.08600000000000001, 0.928, 0.328, 192.0, 0.0, 0.0, 0.0, 0.0, 0.0, 0.0, 0.0, 0.0, 0.0, 1.6962751469299123E9, 0.0, 2023-10-02 15:32:26.929
117.0, 17523.52178377173, 17253.333896795975, 45363.915904035086, 73157.77369234248, 13083.571265169534, -20405.89099000585, -29661.189575337125, 10917.217840816718, 0.08600000000000001, 0.928, 0.328, 192.0, 0.0, 0.0, 0.0, 0.0, 0.0, 0.0, 0.0, 0.0, 0.0, 1.6962751469299247E9, 0.0, 2023-10-02 15:32:26.929
118.0, 17531.590763520093, 17260.26293757712, 45353.142363207626, 73145.92726778118, 13090.232085017215, -20401.4653446037, -29672.186633609133, 10909.506488979638, 0.096, 0.93, 0.322, 192.0, 3.0, 0.0, 29.0, 16.0, 10.0, 16.0, 0.0, 0.0, 0.0, 1.6962751469299347E9, 0.0, 2023-10-02 15:32:26.929
119.0, 17518.537344758195, 17256.686658464274, 45350.43780212853, 73119.88748549075, 13082.319567480037, -20407.857943517916, -29673.483034787543, 10904.231477288185, 0.096, 0.93, 0.322, 192.0, 0.0, 0.0, 0.0, 0.0, 0.0, 0.0, 0.0, 0.0, 0.0, 1.6962751469299593E9, 0.0, 2023-10-02 15:32:26.929
120.0, 17524.728777972316, 17265.135617868378, 45359.46790688848, 73124.13431693726, 13088.242779760692, -20408.6179028294, -29681.864938958282, 10891.893314348856, 0.096, 0.93, 0.322, 192.0, 0.0, 0.0, 0.0, 0.0, 0.0, 0.0, 0.0, 0.0, 0.0, 1.6962751469299693E9, 0.0, 2023-10-02 15:32:26.929
121.0, 17531.65781875346, 17267.90723418084, 45358.55148536581, 73165.17211975719, 13080.710241879255, -20409.266103418602, -29677.416941811676, 10897.503602207136, 0.096, 0.93, 0.322, 192.0, 0.0, 0.0, 0.0, 0.0, 0.0, 0.0, 0.0, 0.0, 0.0, 1.696275146929979E9, 0.0, 2023-10-02 15:32:26.929
122.0, 17542.587821792105, 17278.32314709701, 45344.55929333679, 73146.8660410483, 13079.324433723026, -20412.015367986605, -29703.814352013393, 10878.325805464483, 0.096, 0.93, 0.322, 192.0, 0.0, 0.0, 0.0, 0.0, 0.0, 0.0, 0.0, 0.0, 0.0, 1.696275146929989E9, 0.0, 2023-10-02 15:32:26.929
123.0, 17539.23506012381, 17277.026745918603, 45347.8002962828, 73116.758241267, 13084.331224481015, -20410.249580174637, -29711.950386995126, 10871.799096083534, 0.096, 0.93, 0.322, 192.0, 0.0, 0.0, 0.0, 0.0, 0.0, 0.0, 0.0, 0.0, 0.0, 1.6962751469299989E9, 0.0, 2023-10-02 15:32:26.929
124.0, 17524.974647161325, 17268.153103369845, 45357.09862197621, 73130.92924725167, 13084.286520992104, -20409.064937718504, -29696.997069954527, 10883.690224133758, 0.096, 0.93, 0.322, 192.0, 0.0, 0.0, 0.0, 0.0, 0.0, 0.0, 0.0, 0.0, 0.0, 1.6962751469300084E9, 0.0, 2023-10-02 15:32:26.930
125.0, 17510.446013265373, 17261.51463526662, 45346.68270906004, 73169.86598609282, 13068.416782428836, -20420.88901053536, -29687.83285472785, 10892.809735871522, 0.096, 0.93, 0.322, 192.0, 0.0, 0.0, 0.0, 0.0, 0.0, 0.0, 0.0, 0.0, 0.0, 1.6962751469300191E9, 0.0, 2023-10-02 15:32:26.930
126.0, 17510.356606287554, 17264.286251579077, 45332.46699958647, 73184.61813743331, 13063.231177715204, -20425.158193726325, -29676.656982500197, 10905.594933699958, 0.096, 0.93, 0.322, 192.0, 0.0, 0.0, 0.0, 0.0, 0.0, 0.0, 0.0, 0.0, 0.0, 1.6962751469300296E9, 0.0, 2023-10-02 15:32:26.930
127.0, 17524.147632616477, 17276.110324395933, 45338.16669442257, 73139.44526188914, 13083.34774772498, -20405.242789416647, -29699.612224055796, 10886.707709635224, 0.096, 0.93, 0.322, 192.0, 0.0, 0.0, 0.0, 0.0, 0.0, 0.0, 0.0, 0.0, 0.0, 1.69627514693004E9, 0.0, 2023-10-02 15:32:26.930
128.0, 17526.405158806465, 17277.965519185724, 45349.76724979487, 73122.99437797003, 13085.784087870608, -20400.906550992317, -29716.018404485993, 10872.290834461552, 0.094, 0.9400000000000001, 0.324, 192.0, 2.0, 240.0, 29.0, 96.0, 10.0, 32.0, 0.0, 0.0, 0.0, 1.6962751469300501E9, 0.0, 2023-10-02 15:32:26.930
129.0, 17518.246772080278, 17268.71189698123, 45348.247331171915, 73173.24109950555, 13062.672384103822, -20415.41283314381, -29695.700668776117, 10892.653273660335, 0.094, 0.9400000000000001, 0.324, 192.0, 0.0, 0.0, 0.0, 0.0, 0.0, 0.0, 0.0, 0.0, 0.0, 1.6962751469300623E9, 0.0, 2023-10-02 15:32:26.930
130.0, 17525.198164605878, 17273.338708083476, 45340.42422061256, 73191.14484681426, 13068.193264984282, -20411.88125751987, -29691.967927452082, 10898.755299896635, 0.094, 0.9400000000000001, 0.324, 192.0, 0.0, 0.0, 0.0, 0.0, 0.0, 0.0, 0.0, 0.0, 0.0, 1.6962751469300737E9, 0.0, 2023-10-02 15:32:26.930
131.0, 17530.026141408223, 17279.9771761867, 45346.570950337766, 73163.89807032324, 13088.488648949702, -20399.453687602723, -29699.791038011437, 10892.58621842697, 0.094, 0.9400000000000001, 0.324, 192.0, 0.0, 0.0, 0.0, 0.0, 0.0, 0.0, 0.0, 0.0, 0.0, 1.696275146930085E9, 0.0, 2023-10-02 15:32:26.930
132.0, 17534.04945541018, 17283.37464134391, 45354.72933706395, 73156.94667779765, 13079.994986056685, -20405.846286516942, -29694.44897108662, 10892.630921915881, 0.094, 0.9400000000000001, 0.324, 192.0, 0.0, 0.0, 0.0, 0.0, 0.0, 0.0, 0.0, 0.0, 0.0, 1.6962751469301E9, 0.0, 2023-10-02 15:32:26.930
133.0, 17532.954219931868, 17283.50875181064, 45349.87900851715, 73186.40627698974, 13065.44400041628, -20414.13878370986, -29692.660831530196, 10892.273294004595, 0.094, 0.9400000000000001, 0.324, 192.0, 0.0, 0.0, 0.0, 0.0, 0.0, 0.0, 0.0, 0.0, 0.0, 1.696275146930113E9, 0.0, 2023-10-02 15:32:26.930
134.0, 17530.786100719703, 17282.435868076787, 45342.63704331363, 73208.46744876713, 13079.25737848966, -20412.484754620167, -29696.572386809876, 10895.402538228338, 0.094, 0.9400000000000001, 0.324, 192.0, 0.0, 0.0, 0.0, 0.0, 0.0, 0.0, 0.0, 0.0, 0.0, 1.6962751469301271E9, 0.0, 2023-10-02 15:32:26.930
135.0, 17522.73947271579, 17287.286196623587, 45333.83045599824, 73185.19928278915, 13079.659709889855, -20417.64800758934, -29703.63553805775, 10890.529857937081, 0.094, 0.9400000000000001, 0.324, 192.0, 0.0, 0.0, 0.0, 0.0, 0.0, 0.0, 0.0, 0.0, 0.0, 1.696275146930178E9, 0.0, 2023-10-02 15:32:26.930
136.0, 17524.2370395943, 17301.680720052806, 45340.78184852384, 73155.60557313032, 13083.817134358542, -20414.80933604352, -29716.890122519748, 10875.218912985196, 0.094, 0.9400000000000001, 0.324, 192.0, 0.0, 0.0, 0.0, 0.0, 0.0, 0.0, 0.0, 0.0, 0.0, 1.6962751469301956E9, 0.0, 2023-10-02 15:32:26.930
137.0, 17533.915344943445, 17308.542705600586, 45363.73709007944, 73181.13126529829, 13096.200000786783, -20402.89585624884, -29719.192352198646, 10874.414250184805, 0.094, 0.9400000000000001, 0.324, 192.0, 0.0, 0.0, 0.0, 0.0, 0.0, 0.0, 0.0, 0.0, 0.0, 1.6962751469302092E9, 0.0, 2023-10-02 15:32:26.930
138.0, 17536.32933334462, 17299.89258049638, 45363.893552290625, 73231.02035892253, 13091.036747817607, -20404.549885338532, -29695.54420656493, 10900.610494686425, 0.09, 0.934, 0.328, 192.0, 2.0, 208.0, 29.0, 48.0, 10.0, 64.0, 0.0, 0.0, 0.0, 1.6962751469302258E9, 0.0, 2023-10-02 15:32:26.930
139.0, 17545.650010782483, 17305.45816486575, 45353.94702600802, 73214.14479185877, 13096.937608353808, -20407.74618479564, -29701.579177567863, 10895.24607601715, 0.09, 0.934, 0.328, 192.0, 0.0, 0.0, 0.0, 0.0, 0.0, 0.0, 0.0, 0.0, 0.0, 1.6962751469302387E9, 0.0, 2023-10-02 15:32:26.930
140.0, 17539.43622582391, 17310.889638768393, 45352.02477598486, 73169.93304132618, 13094.121288552438, -20406.673301061786, -29727.909532536214, 10866.367622180895, 0.09, 0.934, 0.328, 192.0, 0.0, 0.0, 0.0, 0.0, 0.0, 0.0, 0.0, 0.0, 0.0, 1.6962751469302511E9, 0.0, 2023-10-02 15:32:26.930
141.0, 17526.42751055092, 17316.85755453796, 45361.43486040054, 73190.96603285862, 13089.606236172467, -20401.308882392514, -29727.4177941582, 10866.747601836634, 0.09, 0.934, 0.328, 192.0, 0.0, 0.0, 0.0, 0.0, 0.0, 0.0, 0.0, 0.0, 0.0, 1.6962751469302647E9, 0.0, 2023-10-02 15:32:26.930
142.0, 17519.431414536408, 17318.86921153894, 45365.79345056933, 73244.45375734018, 13091.707300151265, -20397.352623623923, -29705.87071250328, 10891.423927715294, 0.09, 0.934, 0.328, 192.0, 0.0, 0.0, 0.0, 0.0, 0.0, 0.0, 0.0, 0.0, 0.0, 1.6962751469302773E9, 0.0, 2023-10-02 15:32:26.930
143.0, 17517.196240090878, 17316.56698186004, 45352.87414227416, 73233.16612639024, 13085.784087870608, -20404.03579521606, -29713.000918984526, 10887.95940732472, 0.09, 0.934, 0.328, 192.0, 0.0, 0.0, 0.0, 0.0, 0.0, 0.0, 0.0, 0.0, 0.0, 1.6962751469302952E9, 0.0, 2023-10-02 15:32:26.930
144.0, 17528.260353596255, 17322.221973207234, 45358.19385745453, 73209.13800110079, 13088.82392511653, -20400.057184703015, -29709.938729994148, 10888.33938698046, 0.09, 0.934, 0.328, 192.0, 0.0, 0.0, 0.0, 0.0, 0.0, 0.0, 0.0, 0.0, 0.0, 1.6962751469303281E9, 0.0, 2023-10-02 15:32:26.930
145.0, 17529.266182096744, 17322.736063329707, 45365.52522963587, 73216.35761455985, 13088.39924197188, -20394.335138122457, -29711.011613728002, 10885.545418923548, 0.09, 0.934, 0.328, 192.0, 0.0, 0.0, 0.0, 0.0, 0.0, 0.0, 0.0, 0.0, 0.0, 1.6962751469303448E9, 0.0, 2023-10-02 15:32:26.930
146.0, 17518.827917436116, 17317.61751384944, 45360.09375573323, 73239.24580088208, 13075.524637165623, -20405.265141161104, -29726.322558679887, 10875.263616474107, 0.09, 0.934, 0.328, 192.0, 0.0, 0.0, 0.0, 0.0, 0.0, 0.0, 0.0, 0.0, 0.0, 1.6962751469303637E9, 0.0, 2023-10-02 15:32:26.930
147.0, 17515.475155767817, 17315.158821959358, 45351.64479632912, 73243.49263232859, 13066.583939383501, -20413.71410056521, -29722.053375488926, 10882.147953766342, 0.09, 0.934, 0.328, 192.0, 0.0, 0.0, 0.0, 0.0, 0.0, 0.0, 0.0, 0.0, 0.0, 1.6962751469303832E9, 0.0, 2023-10-02 15:32:26.930
0.0, 0.0, 0.0, 0.0, 0.0, 0.0, 0.0, 0.0, 0.0, 0.09, 0.934, 0.328, 192.0, 0.0, 0.0, 0.0, 0.0, 0.0, 0.0, 0.0, 0.0, 0.0, 1.6962751470059798E9, 0.0, 2023-10-02 15:32:27.005
1.0, 17534.116510643544, 16249.40529458586, 44296.97773420546, 66143.97509622277, 13438.248746186346, -20846.153300542035, -30214.015270950233, 10139.019505860748, 0.096, 0.9420000000000001, 0.296, 192.0, 3.0, 0.0, 29.0, 112.0, 9.0, 64.0, 0.0, 0.0, 0.0, 1.696275147501744E9, 0.0, 2023-10-02 15:32:27.501
2.0, 17528.193298362887, 16237.000076413166, 44303.7056092865, 66132.0616164281, 13437.377028152589, -20854.40109424604, -30214.79758200617, 10133.610383702562, 0.096, 0.9420000000000001, 0.296, 192.0, 0.0, 0.0, 0.0, 0.0, 0.0, 0.0, 0.0, 0.0, 0.0, 1.6962751475020866E9, 0.0, 2023-10-02 15:32:27.502
3.0, 17525.980475661814, 16235.100178134464, 44312.86982451318, 66162.03530574267, 13437.84641478615, -20850.51189071082, -30214.775230261712, 10134.415046502954, 0.096, 0.9420000000000001, 0.296, 192.0, 0.0, 0.0, 0.0, 0.0, 0.0, 0.0, 0.0, 0.0, 0.0, 1.696275147502099E9, 0.0, 2023-10-02 15:32:27.502
4.0, 17514.066995867135, 16223.656084973347, 44299.36937086217, 66189.46089618932, 13424.79299602425, -20859.81021640423, -30208.874369725512, 10143.758075685273, 0.096, 0.9420000000000001, 0.296, 192.0, 0.0, 0.0, 0.0, 0.0, 0.0, 0.0, 0.0, 0.0, 0.0, 1.6962751475021095E9, 0.0, 2023-10-02 15:32:27.502
5.0, 17510.110737098545, 16219.49866050466, 44284.7513299884, 66161.85649178702, 13418.333341876667, -20868.125065341603, -30213.83645699459, 10139.935927383414, 0.096, 0.9420000000000001, 0.296, 192.0, 0.0, 0.0, 0.0, 0.0, 0.0, 0.0, 0.0, 0.0, 0.0, 1.6962751475021315E9, 0.0, 2023-10-02 15:32:27.502
6.0, 17513.687016211392, 16222.292628561572, 44291.9038882141, 66118.42705231036, 13431.18559493847, -20863.162978072523, -30238.80335555117, 10113.560868926152, 0.096, 0.9420000000000001, 0.296, 192.0, 0.0, 0.0, 0.0, 0.0, 0.0, 0.0, 0.0, 0.0, 0.0, 1.6962751475021417E9, 0.0, 2023-10-02 15:32:27.502
7.0, 17512.547077244173, 16219.92334364931, 44304.37616162016, 66146.38908462395, 13434.04661822875, -20860.883100138082, -30231.941370003387, 10121.965124841348, 0.096, 0.9420000000000001, 0.296, 192.0, 0.0, 0.0, 0.0, 0.0, 0.0, 0.0, 0.0, 0.0, 0.0, 1.6962751475021515E9, 0.0, 2023-10-02 15:32:27.502
8.0, 17506.17683007441, 16212.63667495688, 44299.54818481782, 66181.19075074086, 13442.115597977114, -20859.296126281755, -30222.330119887607, 10139.935927383414, 0.106, 0.9500000000000001, 0.28800000000000003, 192.0, 3.0, 80.0, 29.0, 176.0, 9.0, 0.0, 0.0, 0.0, 0.0, 1.696275147502166E9, 0.0, 2023-10-02 15:32:27.502
9.0, 17492.74343165677, 16202.578389951992, 44289.892231213125, 66169.67960234638, 13445.311897434223, -20864.168806573012, -30214.641119794982, 10147.91550015396, 0.106, 0.9500000000000001, 0.28800000000000003, 192.0, 0.0, 0.0, 0.0, 0.0, 0.0, 0.0, 0.0, 0.0, 0.0, 1.6962751475021863E9, 0.0, 2023-10-02 15:32:27.502
10.0, 17486.529646698196, 16199.180924794786, 44286.71828350047, 66144.6680003009, 13440.349810165146, -20874.540016000276, -30207.64502378047, 10147.982555387325, 0.106, 0.9500000000000001, 0.28800000000000003, 192.0, 0.0, 0.0, 0.0, 0.0, 0.0, 0.0, 0.0, 0.0, 0.0, 1.6962751475021996E9, 0.0, 2023-10-02 15:32:27.502
11.0, 17494.911550868936, 16204.187715552775, 44298.832928995245, 66166.52800637818, 13449.670487603009, -20869.533225242285, -30190.568291016614, 10161.170084615957, 0.106, 0.9500000000000001, 0.28800000000000003, 192.0, 0.0, 0.0, 0.0, 0.0, 0.0, 0.0, 0.0, 0.0, 0.0, 1.696275147502215E9, 0.0, 2023-10-02 15:32:27.502
12.0, 17497.347891014564, 16206.512296976127, 44299.257612139896, 66208.0798993206, 13451.033944014782, -20860.346658271155, -30167.74715992775, 10185.198209905411, 0.106, 0.9500000000000001, 0.28800000000000003, 192.0, 0.0, 0.0, 0.0, 0.0, 0.0, 0.0, 0.0, 0.0, 0.0, 1.6962751475022273E9, 0.0, 2023-10-02 15:32:27.502
13.0, 17506.579161474605, 16217.062320359031, 44285.22071662197, 66181.03428852967, 13454.654926616542, -20852.36708550061, -30190.992974161265, 10167.20505561889, 0.106, 0.9500000000000001, 0.28800000000000003, 192.0, 0.0, 0.0, 0.0, 0.0, 0.0, 0.0, 0.0, 0.0, 0.0, 1.696275147502237E9, 0.0, 2023-10-02 15:32:27.502
14.0, 17498.71134742634, 16209.127451077396, 44271.40733854858, 66143.63982005595, 13440.059237487227, -20862.157149572035, -30206.102753413055, 10147.557872242674, 0.106, 0.9500000000000001, 0.28800000000000003, 192.0, 0.0, 0.0, 0.0, 0.0, 0.0, 0.0, 0.0, 0.0, 0.0, 1.696275147502247E9, 0.0, 2023-10-02 15:32:27.502
15.0, 17489.03304207719, 16199.896180617356, 44270.602675748196, 66144.08685494505, 13433.465472872911, -20861.12896932709, -30211.422468593417, 10138.14778782699, 0.106, 0.9500000000000001, 0.28800000000000003, 192.0, 0.0, 0.0, 0.0, 0.0, 0.0, 0.0, 0.0, 0.0, 0.0, 1.6962751475022771E9, 0.0, 2023-10-02 15:32:27.502
16.0, 17475.532588426184, 16185.658119399324, 44268.99335014741, 66192.09840203504, 13422.379007623078, -20866.471036251907, -30189.003668904745, 10160.499532282298, 0.106, 0.9500000000000001, 0.28800000000000003, 192.0, 0.0, 0.0, 0.0, 0.0, 0.0, 0.0, 0.0, 0.0, 0.0, 1.6962751475022876E9, 0.0, 2023-10-02 15:32:27.502
17.0, 17485.94850134236, 16193.458878214227, 44254.576474973735, 66186.26459673222, 13425.999990224838, -20867.543919985765, -30198.570215531614, 10155.179817101935, 0.106, 0.9500000000000001, 0.28800000000000003, 192.0, 0.0, 0.0, 0.0, 0.0, 0.0, 0.0, 0.0, 0.0, 0.0, 1.6962751475022976E9, 0.0, 2023-10-02 15:32:27.502
18.0, 17500.298321282666, 16206.86992488741, 44259.829134920736, 66141.1140729325, 13439.679257831485, -20861.687762938473, -30225.74993678927, 10129.408255744966, 0.10400000000000001, 0.9460000000000001, 0.278, 192.0, 3.0, 64.0, 29.0, 144.0, 8.0, 176.0, 0.0, 0.0, 0.0, 1.69627514750235E9, 0.0, 2023-10-02 15:32:27.502
19.0, 17510.535420243195, 16215.363587780428, 44272.256704837884, 66129.9605524493, 13447.94940327995, -20855.138701813066, -30248.32519868913, 10107.212973500846, 0.10400000000000001, 0.9460000000000001, 0.278, 192.0, 0.0, 0.0, 0.0, 0.0, 0.0, 0.0, 0.0, 0.0, 0.0, 1.6962751475023608E9, 0.0, 2023-10-02 15:32:27.502
20.0, 17506.46740275233, 16211.317922034017, 44274.782451961335, 66184.2752914757, 13440.260403187323, -20861.911280383025, -30231.069651969632, 10127.418950488443, 0.10400000000000001, 0.9460000000000001, 0.278, 192.0, 0.0, 0.0, 0.0, 0.0, 0.0, 0.0, 0.0, 0.0, 0.0, 1.6962751475023704E9, 0.0, 2023-10-02 15:32:27.502
21.0, 17520.571353503627, 16225.44422452977, 44256.23050406343, 66198.60275967154, 13434.784225795775, -20869.488521753374, -30227.64983506797, 10136.627869204029, 0.10400000000000001, 0.9460000000000001, 0.278, 192.0, 0.0, 0.0, 0.0, 0.0, 0.0, 0.0, 0.0, 0.0, 0.0, 1.6962751475023828E9, 0.0, 2023-10-02 15:32:27.502
22.0, 17543.727760759328, 16247.93007945181, 44251.26841679435, 66159.35309640803, 13437.533490363776, -20869.89085315357, -30246.22413471033, 10117.919459094937, 0.10400000000000001, 0.9460000000000001, 0.278, 192.0, 0.0, 0.0, 0.0, 0.0, 0.0, 0.0, 0.0, 0.0, 0.0, 1.696275147502394E9, 0.0, 2023-10-02 15:32:27.502
23.0, 17548.645144539492, 16252.69100102079, 44260.05265236529, 66151.52998584867, 13436.885289774573, -20867.767437430317, -30250.89564930149, 10112.845613103582, 0.10400000000000001, 0.9460000000000001, 0.278, 192.0, 0.0, 0.0, 0.0, 0.0, 0.0, 0.0, 0.0, 0.0, 0.0, 1.6962751475024035E9, 0.0, 2023-10-02 15:32:27.502
24.0, 17551.10383642958, 16252.31102136505, 44260.454983765485, 66200.9273410949, 13431.789092038762, -20868.482693252885, -30222.441878609883, 10141.232328561822, 0.10400000000000001, 0.9460000000000001, 0.278, 192.0, 0.0, 0.0, 0.0, 0.0, 0.0, 0.0, 0.0, 0.0, 0.0, 1.6962751475024133E9, 0.0, 2023-10-02 15:32:27.502
25.0, 17578.730592576336, 16278.50726586667, 44253.883570895625, 66213.93605636788, 13440.640382843065, -20858.849091392647, -30217.345680874074, 10153.190511845412, 0.10400000000000001, 0.9460000000000001, 0.278, 192.0, 0.0, 0.0, 0.0, 0.0, 0.0, 0.0, 0.0, 0.0, 0.0, 1.6962751475024235E9, 0.0, 2023-10-02 15:32:27.502
26.0, 17592.67808111645, 16295.807516075078, 44252.36365227267, 66171.4677419028, 13454.364353938623, -20853.484672723374, -30238.110451473054, 10138.036029104715, 0.10400000000000001, 0.9460000000000001, 0.278, 192.0, 0.0, 0.0, 0.0, 0.0, 0.0, 0.0, 0.0, 0.0, 0.0, 1.6962751475024333E9, 0.0, 2023-10-02 15:32:27.502
27.0, 17587.581883380637, 16295.919274797354, 44265.5958849902, 66169.25491920173, 13457.270080717813, -20864.727600184393, -30219.02206170822, 10154.263395579266, 0.10400000000000001, 0.9460000000000001, 0.278, 192.0, 0.0, 0.0, 0.0, 0.0, 0.0, 0.0, 0.0, 0.0, 0.0, 1.6962751475024447E9, 0.0, 2023-10-02 15:32:27.502
28.0, 17607.340825479132, 16313.04071105012, 44277.10703338469, 66209.04102433217, 13462.075705775704, -20857.351524514143, -30193.83164570709, 10176.212808634378, 0.10200000000000001, 0.9480000000000001, 0.268, 192.0, 3.0, 48.0, 29.0, 160.0, 8.0, 96.0, 0.0, 0.0, 0.0, 1.6962751475024543E9, 0.0, 2023-10-02 15:32:27.502
29.0, 17634.229974058864, 16334.364275260483, 44270.55797225928, 66229.85049842007, 13460.913415064028, -20849.84133837716, -30186.947308414856, 10185.332320372143, 0.10200000000000001, 0.9480000000000001, 0.268, 192.0, 0.0, 0.0, 0.0, 0.0, 0.0, 0.0, 0.0, 0.0, 0.0, 1.6962751475024648E9, 0.0, 2023-10-02 15:32:27.502
30.0, 17644.131796852565, 16347.417694022382, 44261.013777376866, 66192.5230851797, 13459.393496441067, -20852.478844222886, -30203.845227223068, 10168.322642841655, 0.10200000000000001, 0.9480000000000001, 0.268, 192.0, 0.0, 0.0, 0.0, 0.0, 0.0, 0.0, 0.0, 0.0, 0.0, 1.6962751475024743E9, 0.0, 2023-10-02 15:32:27.502
31.0, 17648.132759110067, 16353.653830725412, 44265.484126267926, 66158.79430279664, 13465.339060466178, -20847.740274398362, -30213.948215716868, 10153.570491501152, 0.10200000000000001, 0.9480000000000001, 0.268, 192.0, 0.0, 0.0, 0.0, 0.0, 0.0, 0.0, 0.0, 0.0, 0.0, 1.696275147502484E9, 0.0, 2023-10-02 15:32:27.502
32.0, 17656.35820106962, 16362.348659318526, 44275.989446161926, 66182.06246877462, 13470.301147735257, -20842.152338284533, -30208.315576114128, 10157.906729925482, 0.10200000000000001, 0.9480000000000001, 0.268, 192.0, 0.0, 0.0, 0.0, 0.0, 0.0, 0.0, 0.0, 0.0, 0.0, 1.6962751475024936E9, 0.0, 2023-10-02 15:32:27.502
33.0, 17675.603053045637, 16381.95113920583, 44265.17120184555, 66216.39474825797, 13466.881330833594, -20844.231050518876, -30191.59647126156, 10177.956244701893, 0.10200000000000001, 0.9480000000000001, 0.268, 192.0, 0.0, 0.0, 0.0, 0.0, 0.0, 0.0, 0.0, 0.0, 0.0, 1.6962751475025122E9, 0.0, 2023-10-02 15:32:27.502
34.0, 17700.9275795135, 16406.158078450928, 44259.20328607599, 66186.77868685468, 13473.922130337016, -20839.78305337227, -30207.868541225023, 10166.981538174336, 0.10200000000000001, 0.9480000000000001, 0.268, 192.0, 0.0, 0.0, 0.0, 0.0, 0.0, 0.0, 0.0, 0.0, 0.0, 1.6962751475025234E9, 0.0, 2023-10-02 15:32:27.502
35.0, 17714.56214363124, 16418.116261734518, 44263.65128322259, 66171.95948028081, 13469.295319234769, -20843.091111551657, -30192.267023595217, 10176.302215612199, 0.10200000000000001, 0.9480000000000001, 0.268, 192.0, 0.0, 0.0, 0.0, 0.0, 0.0, 0.0, 0.0, 0.0, 0.0, 1.6962751475025337E9, 0.0, 2023-10-02 15:32:27.502
36.0, 17721.424129179017, 16427.43693917238, 44271.87672518215, 66191.31609097912, 13469.4294297015, -20842.420559217997, -30179.01243913322, 10186.226390150356, 0.10200000000000001, 0.9480000000000001, 0.268, 192.0, 0.0, 0.0, 0.0, 0.0, 0.0, 0.0, 0.0, 0.0, 0.0, 1.696275147502543E9, 0.0, 2023-10-02 15:32:27.502
37.0, 17733.516422929337, 16443.843119602578, 44277.86699269617, 66239.86407993604, 13483.332214752701, -20832.809309102217, -30151.944476597844, 10215.820099809182, 0.10200000000000001, 0.9480000000000001, 0.268, 192.0, 0.0, 0.0, 0.0, 0.0, 0.0, 0.0, 0.0, 0.0, 0.0, 1.6962751475025527E9, 0.0, 2023-10-02 15:32:27.502
38.0, 17753.834158639213, 16460.11518956604, 44278.53754502983, 66240.42287354742, 13493.926941624517, -20825.589695643153, -30143.227296260276, 10226.437178425453, 0.108, 0.9520000000000001, 0.264, 192.0, 3.0, 96.0, 29.0, 192.0, 8.0, 64.0, 0.0, 0.0, 0.0, 1.6962751475025623E9, 0.0, 2023-10-02 15:32:27.502
39.0, 17777.43760078402, 16480.745849698287, 44280.88447819764, 66199.7203468943, 13501.124203339125, -20822.34869269713, -30164.77437791519, 10204.487765370342, 0.108, 0.9520000000000001, 0.264, 192.0, 0.0, 0.0, 0.0, 0.0, 0.0, 0.0, 0.0, 0.0, 0.0, 1.6962751475025728E9, 0.0, 2023-10-02 15:32:27.502
40.0, 17783.740792720415, 16486.065564878652, 44297.82710049476, 66217.80290815866, 13502.331197539712, -20822.527506652776, -30156.794805144647, 10213.316704430188, 0.108, 0.9520000000000001, 0.264, 192.0, 0.0, 0.0, 0.0, 0.0, 0.0, 0.0, 0.0, 0.0, 0.0, 1.6962751475025833E9, 0.0, 2023-10-02 15:32:27.502
41.0, 17793.62026376966, 16496.012091161265, 44298.09532142822, 66253.40923707596, 13501.52653473932, -20820.515849651798, -30158.739406912257, 10216.513003887298, 0.108, 0.9520000000000001, 0.264, 192.0, 0.0, 0.0, 0.0, 0.0, 0.0, 0.0, 0.0, 0.0, 0.0, 1.6962751475025928E9, 0.0, 2023-10-02 15:32:27.502
42.0, 17790.62513001265, 16495.20742836087, 44281.912658442576, 66251.53169054171, 13484.114525808636, -20834.55274516973, -30163.54503197015, 10214.233125952856, 0.108, 0.9520000000000001, 0.264, 192.0, 0.0, 0.0, 0.0, 0.0, 0.0, 0.0, 0.0, 0.0, 0.0, 1.6962751475026023E9, 0.0, 2023-10-02 15:32:27.502
43.0, 17798.42588882755, 16504.21518137636, 44278.31402758527, 66203.18486728489, 13484.539208953287, -20835.98325681487, -30190.814160205624, 10188.908599484992, 0.108, 0.9520000000000001, 0.264, 192.0, 0.0, 0.0, 0.0, 0.0, 0.0, 0.0, 0.0, 0.0, 0.0, 1.696275147502612E9, 0.0, 2023-10-02 15:32:27.502
44.0, 17791.720365490957, 16500.281274352226, 44283.72314974346, 66214.29368427917, 13475.374993726611, -20843.895774352048, -30173.536261741672, 10202.476108369365, 0.108, 0.9520000000000001, 0.264, 192.0, 0.0, 0.0, 0.0, 0.0, 0.0, 0.0, 0.0, 0.0, 0.0, 1.696275147502622E9, 0.0, 2023-10-02 15:32:27.502
45.0, 17794.8496097147, 16504.773974987744, 44280.21392586397, 66253.45394056487, 13468.267138989824, -20848.07555056519, -30160.013456346212, 10215.59658236463, 0.108, 0.9520000000000001, 0.264, 192.0, 0.0, 0.0, 0.0, 0.0, 0.0, 0.0, 0.0, 0.0, 0.0, 1.6962751475026317E9, 0.0, 2023-10-02 15:32:27.502
46.0, 17817.558982081293, 16525.628152564546, 44275.542411272814, 66266.30619362667, 13475.263235004335, -20842.465262706908, -30152.615028931505, 10227.443006925942, 0.108, 0.9520000000000001, 0.264, 192.0, 0.0, 0.0, 0.0, 0.0, 0.0, 0.0, 0.0, 0.0, 0.0, 1.6962751475026417E9, 0.0, 2023-10-02 15:32:27.502
47.0, 17838.390807913638, 16542.548423117212, 44282.33734158723, 66223.05556810566, 13497.503220737366, -20830.328265467677, -30172.21750881881, 10210.16510846199, 0.108, 0.9520000000000001, 0.264, 192.0, 0.0, 0.0, 0.0, 0.0, 0.0, 0.0, 0.0, 0.0, 0.0, 1.6962751475026512E9, 0.0, 2023-10-02 15:32:27.502
48.0, 17843.330543438264, 16544.31421092918, 44293.33439985924, 66204.48126846329, 13495.223342802925, -20834.93272482547, -30180.44295077836, 10197.894000756027, 0.108, 0.9520000000000001, 0.266, 192.0, 3.0, 96.0, 29.0, 192.0, 8.0, 80.0, 0.0, 0.0, 0.0, 1.6962751475026636E9, 0.0, 2023-10-02 15:32:27.502
49.0, 17851.86890982019, 16550.75151333231, 44292.66384752558, 66242.14395787049, 13482.304034507757, -20836.92203008199, -30169.803520417634, 10204.800689792715, 0.108, 0.9520000000000001, 0.266, 192.0, 0.0, 0.0, 0.0, 0.0, 0.0, 0.0, 0.0, 0.0, 0.0, 1.696275147502684E9, 0.0, 2023-10-02 15:32:27.502
50.0, 17859.982593057466, 16557.27822271326, 44285.824213722255, 66260.91942321294, 13486.841438632184, -20835.715035881407, -30170.697590195847, 10207.505250871809, 0.108, 0.9520000000000001, 0.266, 192.0, 0.0, 0.0, 0.0, 0.0, 0.0, 0.0, 0.0, 0.0, 0.0, 1.696275147502694E9, 0.0, 2023-10-02 15:32:27.502
51.0, 17868.588014672758, 16564.363725705593, 44278.11286188518, 66236.3325043121, 13488.517819466331, -20838.55370742723, -30171.926936140888, 10205.53829735974, 0.108, 0.9520000000000001, 0.266, 192.0, 0.0, 0.0, 0.0, 0.0, 0.0, 0.0, 0.0, 0.0, 0.0, 1.6962751475027037E9, 0.0, 2023-10-02 15:32:27.502
52.0, 17879.361555500218, 16575.651356655522, 44287.7017602565, 66206.89525686446, 13492.831706146206, -20831.69172187945, -30186.50027352575, 10188.483916340341, 0.108, 0.9520000000000001, 0.266, 192.0, 0.0, 0.0, 0.0, 0.0, 0.0, 0.0, 0.0, 0.0, 0.0, 1.6962751475027132E9, 0.0, 2023-10-02 15:32:27.502
53.0, 17873.751267641936, 16572.164484520494, 44295.63662953814, 66242.05455089266, 13486.327348509712, -20830.820003845693, -30168.194194816853, 10207.147622960523, 0.108, 0.9520000000000001, 0.266, 192.0, 0.0, 0.0, 0.0, 0.0, 0.0, 0.0, 0.0, 0.0, 0.0, 1.6962751475027227E9, 0.0, 2023-10-02 15:32:27.502
54.0, 17881.30615726783, 16579.384097979557, 44286.42771082255, 66274.28576639721, 13487.802563643761, -20829.300085222734, -30143.115537538, 10232.762722106305, 0.108, 0.9520000000000001, 0.266, 192.0, 0.0, 0.0, 0.0, 0.0, 0.0, 0.0, 0.0, 0.0, 0.0, 1.6962751475027328E9, 0.0, 2023-10-02 15:32:27.502
55.0, 17905.35663430174, 16603.74749943584, 44273.41899554956, 66224.86605940653, 13497.570275970731, -20825.88026832107, -30174.430331519885, 10203.97367524787, 0.108, 0.9520000000000001, 0.266, 192.0, 0.0, 0.0, 0.0, 0.0, 0.0, 0.0, 0.0, 0.0, 0.0, 1.6962751475027428E9, 0.0, 2023-10-02 15:32:27.502
56.0, 17896.706509197535, 16600.48414474537, 44282.62791426515, 66199.34036723858, 13496.81031665925, -20829.12127126709, -30181.091151367564, 10195.480012354852, 0.108, 0.9520000000000001, 0.266, 192.0, 0.0, 0.0, 0.0, 0.0, 0.0, 0.0, 0.0, 0.0, 0.0, 1.6962751475027523E9, 0.0, 2023-10-02 15:32:27.502
57.0, 17892.236160306475, 16597.980749366376, 44283.38787357663, 66220.41806225992, 13490.529476467309, -20831.714073623905, -30175.816139676113, 10200.643265324028, 0.108, 0.9520000000000001, 0.266, 192.0, 0.0, 0.0, 0.0, 0.0, 0.0, 0.0, 0.0, 0.0, 0.0, 1.696275147502762E9, 0.0, 2023-10-02 15:32:27.502
58.0, 17887.698756182046, 16591.297577774236, 44274.17895486104, 66257.90193771147, 13480.180618784503, -20834.75391086983, -30160.371084257495, 10218.97169577738, 0.10200000000000001, 0.9540000000000001, 0.268, 192.0, 3.0, 48.0, 29.0, 208.0, 8.0, 96.0, 0.0, 0.0, 0.0, 1.6962751475027716E9, 0.0, 2023-10-02 15:32:27.502
59.0, 17897.578227231294, 16600.081813345172, 44255.31408254076, 66234.38790254449, 13480.985281584894, -20835.9162015815, -30168.373008772494, 10212.243820696332, 0.10200000000000001, 0.9540000000000001, 0.268, 192.0, 0.0, 0.0, 0.0, 0.0, 0.0, 0.0, 0.0, 0.0, 0.0, 1.6962751475027823E9, 0.0, 2023-10-02 15:32:27.502
60.0, 17900.886285410677, 16601.937008134963, 44255.87287615215, 66204.99535858576, 13484.539208953287, -20836.653809148527, -30171.077569851586, 10205.270076426277, 0.10200000000000001, 0.9540000000000001, 0.268, 192.0, 0.0, 0.0, 0.0, 0.0, 0.0, 0.0, 0.0, 0.0, 0.0, 1.696275147502792E9, 0.0, 2023-10-02 15:32:27.502
61.0, 17903.903770912144, 16603.836906413664, 44259.73972794291, 66212.50554472275, 13486.327348509712, -20832.250515490832, -30174.67620070889, 10198.273980411766, 0.10200000000000001, 0.9540000000000001, 0.268, 192.0, 0.0, 0.0, 0.0, 0.0, 0.0, 0.0, 0.0, 0.0, 0.0, 1.6962751475028014E9, 0.0, 2023-10-02 15:32:27.502
62.0, 17904.708433712534, 16604.932141891975, 44258.979768631434, 66241.5851642591, 13484.874485120117, -20829.188326500454, -30175.011476875723, 10201.425576379965, 0.10200000000000001, 0.9540000000000001, 0.268, 192.0, 0.0, 0.0, 0.0, 0.0, 0.0, 0.0, 0.0, 0.0, 0.0, 1.6962751475028112E9, 0.0, 2023-10-02 15:32:27.502
63.0, 17888.19049456006, 16588.347147506138, 44247.155695814574, 66252.20224287537, 13470.055278546248, -20847.874384865092, -30144.121366038486, 10230.236974982856, 0.10200000000000001, 0.9540000000000001, 0.268, 192.0, 0.0, 0.0, 0.0, 0.0, 0.0, 0.0, 0.0, 0.0, 0.0, 1.6962751475028207E9, 0.0, 2023-10-02 15:32:27.502
64.0, 17902.137983100176, 16600.506496489823, 44241.83598063421, 66217.66879769192, 13477.967796083427, -20845.996838330848, -30136.67823513487, 10230.192271493945, 0.10200000000000001, 0.9540000000000001, 0.268, 192.0, 0.0, 0.0, 0.0, 0.0, 0.0, 0.0, 0.0, 0.0, 0.0, 1.6962751475028305E9, 0.0, 2023-10-02 15:32:27.502
65.0, 17913.425614050106, 16611.168278595003, 44250.93314062752, 66205.21887603031, 13497.302055037268, -20830.372968956588, -30152.01153183121, 10211.550916618218, 0.10200000000000001, 0.9540000000000001, 0.268, 192.0, 0.0, 0.0, 0.0, 0.0, 0.0, 0.0, 0.0, 0.0, 0.0, 1.6962751475028489E9, 0.0, 2023-10-02 15:32:27.502
66.0, 17918.65592225265, 16616.376235053092, 44255.76111742987, 66228.24117281928, 13511.495412766388, -20814.54793388223, -30163.58973545906, 10203.325474658666, 0.10200000000000001, 0.9540000000000001, 0.268, 192.0, 0.0, 0.0, 0.0, 0.0, 0.0, 0.0, 0.0, 0.0, 0.0, 1.6962751475028586E9, 0.0, 2023-10-02 15:32:27.502
67.0, 17908.955265159042, 16606.85439191513, 44243.51236146836, 66235.79606244518, 13501.86181090615, -20817.565419383696, -30158.69470342335, 10211.64032359604, 0.10200000000000001, 0.9540000000000001, 0.268, 192.0, 0.0, 0.0, 0.0, 0.0, 0.0, 0.0, 0.0, 0.0, 0.0, 1.6962751475028684E9, 0.0, 2023-10-02 15:32:27.502
68.0, 17911.101032626753, 16607.390833782058, 44234.3928497306, 66204.88359986349, 13500.788927172296, -20822.572210141687, -30157.845337134047, 10205.806518293204, 0.10400000000000001, 0.9520000000000001, 0.274, 192.0, 3.0, 64.0, 29.0, 192.0, 8.0, 144.0, 0.0, 0.0, 0.0, 1.696275147502878E9, 0.0, 2023-10-02 15:32:27.502
69.0, 17913.626779750204, 16609.067214616207, 44245.52401846934, 66197.35106198204, 13512.05420637777, -20811.73161408086, -30159.9687528573, 10199.503326356808, 0.10400000000000001, 0.9520000000000001, 0.274, 192.0, 0.0, 0.0, 0.0, 0.0, 0.0, 0.0, 0.0, 0.0, 0.0, 1.6962751475028896E9, 0.0, 2023-10-02 15:32:27.502
70.0, 17911.749233215956, 16605.24506631435, 44244.786410902314, 66228.95642864185, 13506.756842941862, -20816.35842518311, -30155.34194175505, 10204.912448514993, 0.10400000000000001, 0.9520000000000001, 0.274, 192.0, 0.0, 0.0, 0.0, 0.0, 0.0, 0.0, 0.0, 0.0, 0.0, 1.6962751475028992E9, 0.0, 2023-10-02 15:32:27.502
71.0, 17920.35465483125, 16607.03320587077, 44232.7388206409, 66234.8349374336, 13503.806412673763, -20820.582904885163, -30156.39247374445, 10207.952285760914, 0.10400000000000001, 0.9520000000000001, 0.274, 192.0, 0.0, 0.0, 0.0, 0.0, 0.0, 0.0, 0.0, 0.0, 0.0, 1.6962751475029087E9, 0.0, 2023-10-02 15:32:27.502
72.0, 17941.946439975076, 16618.47729903189, 44231.10714329567, 66194.51239043623, 13516.68101748002, -20808.82588730167, -30178.9230321554, 10190.227352407856, 0.10400000000000001, 0.9520000000000001, 0.274, 192.0, 0.0, 0.0, 0.0, 0.0, 0.0, 0.0, 0.0, 0.0, 0.0, 1.6962751475029185E9, 0.0, 2023-10-02 15:32:27.502
73.0, 17953.79286453639, 16621.561839766724, 44251.60369296118, 66185.52698916518, 13531.05318916478, -20795.30308190621, -30193.630480006992, 10175.095221411613, 0.10400000000000001, 0.9520000000000001, 0.274, 192.0, 0.0, 0.0, 0.0, 0.0, 0.0, 0.0, 0.0, 0.0, 0.0, 1.696275147502928E9, 0.0, 2023-10-02 15:32:27.502
74.0, 17952.585870335803, 16612.6211419846, 44260.76790818786, 66232.17507984342, 13530.717912997952, -20792.01737547128, -30183.013401390723, 10185.332320372143, 0.10400000000000001, 0.9520000000000001, 0.274, 192.0, 0.0, 0.0, 0.0, 0.0, 0.0, 0.0, 0.0, 0.0, 0.0, 1.6962751475029376E9, 0.0, 2023-10-02 15:32:27.502
75.0, 17957.816178538345, 16609.357787294124, 44246.90982662557, 66262.72991451382, 13528.125110641136, -20793.134962694046, -30177.626630976993, 10195.770585032771, 0.10400000000000001, 0.9520000000000001, 0.274, 192.0, 0.0, 0.0, 0.0, 0.0, 0.0, 0.0, 0.0, 0.0, 0.0, 1.696275147502947E9, 0.0, 2023-10-02 15:32:27.502
76.0, 17959.961946006053, 16603.121650591096, 44236.672727665034, 66246.97193467282, 13528.30392459678, -20795.43719237294, -30176.576098987593, 10198.653960067506, 0.10400000000000001, 0.9520000000000001, 0.274, 192.0, 0.0, 0.0, 0.0, 0.0, 0.0, 0.0, 0.0, 0.0, 0.0, 1.6962751475029569E9, 0.0, 2023-10-02 15:32:27.502
77.0, 17974.35646943527, 16606.876743659584, 44240.316062011254, 66233.382074044, 13533.333067099222, -20789.78220102575, -30176.97843038779, 10194.273018154267, 0.10400000000000001, 0.9520000000000001, 0.274, 192.0, 0.0, 0.0, 0.0, 0.0, 0.0, 0.0, 0.0, 0.0, 0.0, 1.6962751475029664E9, 0.0, 2023-10-02 15:32:27.502
78.0, 17977.686879359113, 16601.400566268036, 44245.09933532469, 66264.02631569223, 13533.310715354768, -20788.73166903635, -30175.72673269829, 10193.647169309517, 0.106, 0.9500000000000001, 0.272, 192.0, 3.0, 80.0, 29.0, 176.0, 8.0, 128.0, 0.0, 0.0, 0.0, 1.696275147502976E9, 0.0, 2023-10-02 15:32:27.502
79.0, 17981.665489872157, 16596.796106910242, 44241.791277145305, 66290.44607763841, 13527.58866877421, -20791.838561515637, -30176.956078643332, 10196.932875744447, 0.106, 0.9500000000000001, 0.272, 192.0, 0.0, 0.0, 0.0, 0.0, 0.0, 0.0, 0.0, 0.0, 0.0, 1.696275147502986E9, 0.0, 2023-10-02 15:32:27.502
80.0, 17983.632443384224, 16591.38698475206, 44244.89816962459, 66278.5996530771, 13520.167889615046, -20800.443983130932, -30174.67620070889, 10201.626742080063, 0.106, 0.9500000000000001, 0.272, 192.0, 0.0, 0.0, 0.0, 0.0, 0.0, 0.0, 0.0, 0.0, 0.0, 1.6962751475030036E9, 0.0, 2023-10-02 15:32:27.503
81.0, 17990.270911487452, 16591.47639172988, 44251.715451683456, 66255.06326616566, 13521.665456493552, -20804.48964887734, -30174.49738675325, 10195.59177107713, 0.106, 0.9500000000000001, 0.272, 192.0, 0.0, 0.0, 0.0, 0.0, 0.0, 0.0, 0.0, 0.0, 0.0, 1.6962751475030131E9, 0.0, 2023-10-02 15:32:27.503
82.0, 17989.153324264684, 16587.587188194655, 44261.72903319944, 66285.57339734715, 13521.57604951573, -20801.941550009436, -30161.868651136003, 10205.605352593107, 0.106, 0.9500000000000001, 0.272, 192.0, 0.0, 0.0, 0.0, 0.0, 0.0, 0.0, 0.0, 0.0, 0.0, 1.696275147503023E9, 0.0, 2023-10-02 15:32:27.503
83.0, 17999.971568581055, 16593.778621408776, 44256.27520755234, 66313.64718838301, 13524.48177629492, -20797.582959840653, -30168.39536051695, 10207.102919471612, 0.106, 0.9500000000000001, 0.272, 192.0, 0.0, 0.0, 0.0, 0.0, 0.0, 0.0, 0.0, 0.0, 0.0, 1.6962751475030324E9, 0.0, 2023-10-02 15:32:27.503
84.0, 18010.94627510861, 16599.724185433886, 44248.496800481895, 66292.72595557284, 13532.550756043287, -20793.805515027707, -30188.757799715735, 10194.854163510105, 0.106, 0.9500000000000001, 0.272, 192.0, 0.0, 0.0, 0.0, 0.0, 0.0, 0.0, 0.0, 0.0, 0.0, 1.696275147503042E9, 0.0, 2023-10-02 15:32:27.503
85.0, 18014.85783038829, 16599.590074967156, 44251.648396450095, 66260.94177495739, 13535.277668866835, -20791.570340582173, -30204.35931734554, 10179.520866813764, 0.106, 0.9500000000000001, 0.272, 192.0, 0.0, 0.0, 0.0, 0.0, 0.0, 0.0, 0.0, 0.0, 0.0, 1.6962751475030518E9, 0.0, 2023-10-02 15:32:27.503
86.0, 17998.65281565819, 16581.37340323608, 44253.123611584146, 66288.88145552653, 13520.369055315145, -20806.83658204515, -30185.60620374754, 10193.133079187046, 0.106, 0.9500000000000001, 0.272, 192.0, 0.0, 0.0, 0.0, 0.0, 0.0, 0.0, 0.0, 0.0, 0.0, 1.6962751475030613E9, 0.0, 2023-10-02 15:32:27.503
87.0, 17997.60228366879, 16576.456019455913, 44250.731974927425, 66333.71905490388, 13517.239811091402, -20810.323454180176, -30166.31664828261, 10215.30600968671, 0.106, 0.9500000000000001, 0.272, 192.0, 0.0, 0.0, 0.0, 0.0, 0.0, 0.0, 0.0, 0.0, 0.0, 1.696275147503071E9, 0.0, 2023-10-02 15:32:27.503
88.0, 18001.67030115966, 16578.5123799458, 44243.55706495727, 66326.72295888937, 13518.782081458818, -20811.955131525414, -30171.59165997406, 10214.769567819783, 0.10200000000000001, 0.9480000000000001, 0.272, 192.0, 3.0, 48.0, 29.0, 160.0, 8.0, 128.0, 0.0, 0.0, 0.0, 1.6962751475030806E9, 0.0, 2023-10-02 15:32:27.503
89.0, 18005.09011806132, 16579.182932279462, 44242.43947773451, 66297.15160097499, 13523.721816983441, -20812.715090836893, -30173.715075697313, 10209.382797406053, 0.10200000000000001, 0.9480000000000001, 0.272, 192.0, 0.0, 0.0, 0.0, 0.0, 0.0, 0.0, 0.0, 0.0, 0.0, 1.6962751475030906E9, 0.0, 2023-10-02 15:32:27.503
90.0, 18011.549772208902, 16585.70964166041, 44255.09056509621, 66288.97086250436, 13531.075540909236, -20802.656805832008, -30187.327288070595, 10195.211791421389, 0.10200000000000001, 0.9480000000000001, 0.272, 192.0, 0.0, 0.0, 0.0, 0.0, 0.0, 0.0, 0.0, 0.0, 0.0, 1.6962751475031002E9, 0.0, 2023-10-02 15:32:27.503
91.0, 18004.911304105677, 16580.814609624696, 44262.198419832996, 66331.43917696943, 13524.347665828189, -20801.919198264983, -30169.267078550707, 10214.724864330872, 0.10200000000000001, 0.9480000000000001, 0.272, 192.0, 0.0, 0.0, 0.0, 0.0, 0.0, 0.0, 0.0, 0.0, 0.0, 1.6962751475031111E9, 0.0, 2023-10-02 15:32:27.503
92.0, 18004.57602793885, 16582.602749181122, 44248.072117337244, 66331.43917696943, 13517.776252958329, -20806.188381455944, -30162.516851725206, 10222.369160934588, 0.10200000000000001, 0.9480000000000001, 0.272, 192.0, 0.0, 0.0, 0.0, 0.0, 0.0, 0.0, 0.0, 0.0, 0.0, 1.696275147503121E9, 0.0, 2023-10-02 15:32:27.503
93.0, 18013.22615304305, 16590.336452762658, 44243.51236146836, 66278.21967342135, 13527.007523418371, -20798.991119741335, -30188.780151460192, 10196.329378644155, 0.10200000000000001, 0.9480000000000001, 0.272, 192.0, 0.0, 0.0, 0.0, 0.0, 0.0, 0.0, 0.0, 0.0, 0.0, 1.6962751475031304E9, 0.0, 2023-10-02 15:32:27.503
94.0, 18012.734414665036, 16587.162505050004, 44255.91757964106, 66265.76975175974, 13530.404988575578, -20796.48772436234, -30200.000727176754, 10185.622893050062, 0.10200000000000001, 0.9480000000000001, 0.272, 192.0, 0.0, 0.0, 0.0, 0.0, 0.0, 0.0, 0.0, 0.0, 0.0, 1.69627514750314E9, 0.0, 2023-10-02 15:32:27.503
95.0, 18004.017234327464, 16580.680499157967, 44262.57839948874, 66303.92417954495, 13526.53813678481, -20794.83369527265, -30193.742238729268, 10196.508192599797, 0.10200000000000001, 0.9480000000000001, 0.272, 192.0, 0.0, 0.0, 0.0, 0.0, 0.0, 0.0, 0.0, 0.0, 0.0, 1.6962751475031495E9, 0.0, 2023-10-02 15:32:27.503
96.0, 17995.635330156725, 16571.784504864754, 44250.173181316044, 66344.5596509647, 13518.022122147337, -20798.275863918767, -30155.20783128832, 10235.55669016322, 0.10200000000000001, 0.9480000000000001, 0.272, 192.0, 0.0, 0.0, 0.0, 0.0, 0.0, 0.0, 0.0, 0.0, 0.0, 1.6962751475031672E9, 0.0, 2023-10-02 15:32:27.503
97.0, 17996.70821389058, 16573.729106632367, 44232.40354447407, 66299.00679576478, 13517.39627330259, -20804.154372710513, -30171.25638380723, 10217.094149243136, 0.10200000000000001, 0.9480000000000001, 0.272, 192.0, 0.0, 0.0, 0.0, 0.0, 0.0, 0.0, 0.0, 0.0, 0.0, 1.6962751475031853E9, 0.0, 2023-10-02 15:32:27.503
98.0, 17981.531379405427, 16561.212129737392, 44239.91373061106, 66288.03208923723, 13508.477927264921, -20813.139773981547, -30166.182537815876, 10214.724864330872, 0.108, 0.9460000000000001, 0.272, 192.0, 3.0, 96.0, 29.0, 144.0, 8.0, 128.0, 0.0, 0.0, 0.0, 1.6962751475031965E9, 0.0, 2023-10-02 15:32:27.503
99.0, 17980.436143927116, 16557.70290585791, 44241.38894574511, 66327.41586296748, 13504.879296407616, -20814.74909958233, -30141.260342748206, 10234.327344218176, 0.108, 0.9460000000000001, 0.272, 192.0, 0.0, 0.0, 0.0, 0.0, 0.0, 0.0, 0.0, 0.0, 0.0, 1.6962751475032067E9, 0.0, 2023-10-02 15:32:27.503
100.0, 17991.097926032297, 16567.671783884976, 44238.25970152136, 66337.13887180554, 13514.736415712407, -20806.322491922678, -30143.42846196037, 10237.545995419741, 0.108, 0.9460000000000001, 0.272, 192.0, 0.0, 0.0, 0.0, 0.0, 0.0, 0.0, 0.0, 0.0, 0.0, 1.6962751475032165E9, 0.0, 2023-10-02 15:32:27.503
101.0, 17999.166905780665, 16575.3607839776, 44232.64941366308, 66294.98348176283, 13518.91619192555, -20801.919198264983, -30160.795767402145, 10220.670428355985, 0.108, 0.9460000000000001, 0.272, 192.0, 0.0, 0.0, 0.0, 0.0, 0.0, 0.0, 0.0, 0.0, 0.0, 1.696275147503226E9, 0.0, 2023-10-02 15:32:27.503
102.0, 17996.57410342385, 16570.66691764199, 44245.7922394028, 66265.1886064039, 13523.073616394237, -20798.54408485223, -30175.011476875723, 10204.979503748358, 0.108, 0.9460000000000001, 0.272, 192.0, 0.0, 0.0, 0.0, 0.0, 0.0, 0.0, 0.0, 0.0, 0.0, 1.6962751475032356E9, 0.0, 2023-10-02 15:32:27.503
103.0, 17983.56538815086, 16558.194644235926, 44254.576474973735, 66305.08647025663, 13514.848174434683, -20806.12132622258, -30148.63641841846, 10230.527547660775, 0.108, 0.9460000000000001, 0.272, 192.0, 0.0, 0.0, 0.0, 0.0, 0.0, 0.0, 0.0, 0.0, 0.0, 1.6962751475032454E9, 0.0, 2023-10-02 15:32:27.503
104.0, 17989.42154519815, 16567.403562951513, 44245.45696323597, 66318.27399948526, 13518.53621226981, -20801.852143031614, -30152.97265684279, 10231.466320927897, 0.108, 0.9460000000000001, 0.272, 192.0, 0.0, 0.0, 0.0, 0.0, 0.0, 0.0, 0.0, 0.0, 0.0, 1.696275147503255E9, 0.0, 2023-10-02 15:32:27.503
105.0, 17997.825801113344, 16576.210150266907, 44245.32285276924, 66281.84065602311, 13526.404026318078, -20792.55381733821, -30177.73838969927, 10212.82496605217, 0.108, 0.9460000000000001, 0.272, 192.0, 0.0, 0.0, 0.0, 0.0, 0.0, 0.0, 0.0, 0.0, 0.0, 1.6962751475032644E9, 0.0, 2023-10-02 15:32:27.503
106.0, 17997.13289703523, 16577.37244097858, 44255.58230347423, 66252.04578066418, 13531.008485675871, -20789.424573114466, -30189.31659332712, 10202.386701391542, 0.108, 0.9460000000000001, 0.272, 192.0, 0.0, 0.0, 0.0, 0.0, 0.0, 0.0, 0.0, 0.0, 0.0, 1.6962751475032742E9, 0.0, 2023-10-02 15:32:27.503
107.0, 17980.88317881622, 16562.396772193526, 44261.61727447716, 66286.78039154773, 13518.24563959189, -20802.83561978765, -30164.84143314856, 10221.78801557875, 0.108, 0.9460000000000001, 0.272, 192.0, 0.0, 0.0, 0.0, 0.0, 0.0, 0.0, 0.0, 0.0, 0.0, 1.6962751475032837E9, 0.0, 2023-10-02 15:32:27.503
108.0, 17982.045469527897, 16564.09550477213, 44254.308254040276, 66319.23512449683, 13517.217459346946, -20799.79578254173, -30154.11259581001, 10232.561556406208, 0.11, 0.9480000000000001, 0.272, 192.0, 3.0, 112.0, 29.0, 160.0, 8.0, 128.0, 0.0, 0.0, 0.0, 1.6962751475032933E9, 0.0, 2023-10-02 15:32:27.503
109.0, 17988.907455075678, 16570.264586241792, 44242.39477424559, 66301.89017079952, 13518.111529125159, -20803.617930843586, -30160.34873251304, 10227.01832378129, 0.11, 0.9480000000000001, 0.272, 192.0, 0.0, 0.0, 0.0, 0.0, 0.0, 0.0, 0.0, 0.0, 0.0, 1.6962751475033035E9, 0.0, 2023-10-02 15:32:27.503
110.0, 17998.697519147103, 16577.819475867687, 44248.76502141536, 66258.6395452785, 13526.225212362435, -20800.891018020036, -30183.460436279827, 10203.057253725203, 0.11, 0.9480000000000001, 0.272, 192.0, 0.0, 0.0, 0.0, 0.0, 0.0, 0.0, 0.0, 0.0, 0.0, 1.6962751475033133E9, 0.0, 2023-10-02 15:32:27.503
111.0, 17980.838475327313, 16561.100371015116, 44257.303387797285, 66288.03208923723, 13514.736415712407, -20807.864762290093, -30160.12521506849, 10222.145643490034, 0.11, 0.9480000000000001, 0.272, 192.0, 0.0, 0.0, 0.0, 0.0, 0.0, 0.0, 0.0, 0.0, 0.0, 1.6962751475033312E9, 0.0, 2023-10-02 15:32:27.503
112.0, 17977.776286336935, 16561.726219859866, 44250.530809227326, 66326.20886876689, 13514.95993315696, -20809.764660568795, -30140.880363092467, 10241.301088488233, 0.11, 0.9480000000000001, 0.272, 192.0, 0.0, 0.0, 0.0, 0.0, 0.0, 0.0, 0.0, 0.0, 0.0, 1.6962751475033424E9, 0.0, 2023-10-02 15:32:27.503
113.0, 17983.543036406405, 16570.21988275288, 44238.37146024364, 66303.92417954495, 13517.463328535954, -20806.076622733668, -30155.7666248997, 10229.924050560481, 0.11, 0.9480000000000001, 0.272, 192.0, 0.0, 0.0, 0.0, 0.0, 0.0, 0.0, 0.0, 0.0, 0.0, 1.6962751475033529E9, 0.0, 2023-10-02 15:32:27.503
114.0, 17994.02600455594, 16581.775734636278, 44237.20916953196, 66247.66483875095, 13522.984209416416, -20796.979462740357, -30196.06682015262, 10191.63551230854, 0.11, 0.9480000000000001, 0.272, 192.0, 0.0, 0.0, 0.0, 0.0, 0.0, 0.0, 0.0, 0.0, 0.0, 1.6962751475033631E9, 0.0, 2023-10-02 15:32:27.503
115.0, 17985.532341662925, 16573.907920588008, 44253.90592264008, 66257.67842026692, 13520.525517526332, -20795.861875517592, -30195.06099165213, 10191.2555326528, 0.11, 0.9480000000000001, 0.272, 192.0, 0.0, 0.0, 0.0, 0.0, 0.0, 0.0, 0.0, 0.0, 0.0, 1.696275147503373E9, 0.0, 2023-10-02 15:32:27.503
116.0, 17973.663565357157, 16561.770923348777, 44249.256759793374, 66308.70745285839, 13508.142651098091, -20803.126192465566, -30168.283601794676, 10218.16703297699, 0.11, 0.9480000000000001, 0.272, 192.0, 0.0, 0.0, 0.0, 0.0, 0.0, 0.0, 0.0, 0.0, 0.0, 1.6962751475033827E9, 0.0, 2023-10-02 15:32:27.503
117.0, 17978.02215552594, 16564.766057105786, 44235.46573346445, 66311.85904882659, 13509.506107509866, -20802.813268043195, -30166.16018607142, 10223.620858624085, 0.11, 0.9480000000000001, 0.272, 192.0, 0.0, 0.0, 0.0, 0.0, 0.0, 0.0, 0.0, 0.0, 0.0, 1.6962751475033927E9, 0.0, 2023-10-02 15:32:27.503
118.0, 17984.83943758481, 16573.32677523217, 44228.69315489449, 66264.89803372599, 13516.971590157938, -20802.45564013191, -30189.048372393656, 10201.380872891054, 0.11, 0.9480000000000001, 0.272, 192.0, 0.0, 0.0, 0.0, 0.0, 0.0, 0.0, 0.0, 0.0, 0.0, 1.6962751475034027E9, 0.0, 2023-10-02 15:32:27.503
119.0, 17970.98135602252, 16562.37442044907, 44235.912768353555, 66256.78435048871, 13511.204840088469, -20804.601407599617, -30190.59064276107, 10197.134041444546, 0.106, 0.9540000000000001, 0.276, 192.0, 3.0, 80.0, 29.0, 208.0, 8.0, 160.0, 0.0, 0.0, 0.0, 1.6962751475034125E9, 0.0, 2023-10-02 15:32:27.503
120.0, 17966.622765853735, 16560.586280892647, 44231.33066074022, 66291.27309218324, 13509.036720876304, -20805.718994822382, -30178.073665866097, 10210.07570148417, 0.106, 0.9540000000000001, 0.276, 192.0, 0.0, 0.0, 0.0, 0.0, 0.0, 0.0, 0.0, 0.0, 0.0, 1.6962751475034225E9, 0.0, 2023-10-02 15:32:27.503
121.0, 17958.419675638637, 16553.478426155856, 44221.026506546325, 66308.68510111394, 13502.644121962087, -20810.88224779156, -30163.142700569955, 10228.180614492967, 0.106, 0.9540000000000001, 0.276, 192.0, 0.0, 0.0, 0.0, 0.0, 0.0, 0.0, 0.0, 0.0, 0.0, 1.696275147503432E9, 0.0, 2023-10-02 15:32:27.503
122.0, 17953.12231220273, 16550.08096099865, 44204.44151216048, 66283.94172000191, 13496.855020148161, -20820.91818105199, -30152.10093880903, 10235.087303529657, 0.106, 0.9540000000000001, 0.276, 192.0, 0.0, 0.0, 0.0, 0.0, 0.0, 0.0, 0.0, 0.0, 0.0, 1.6962751479814296E9, 0.0, 2023-10-02 15:32:27.981
123.0, 17955.201024437076, 16555.490083156834, 44209.87298606312, 66266.0379726932, 13503.582895229209, -20814.033843759757, -30157.48770922276, 10225.744274347338, 0.106, 0.9540000000000001, 0.276, 192.0, 0.0, 0.0, 0.0, 0.0, 0.0, 0.0, 0.0, 0.0, 0.0, 1.6962751479815187E9, 0.0, 2023-10-02 15:32:27.981
124.0, 17951.423579624126, 16554.908937800996, 44217.00319254437, 66296.48104864133, 13502.331197539712, -20809.384680913055, -30149.26226726321, 10233.746198862338, 0.106, 0.9540000000000001, 0.276, 192.0, 0.0, 0.0, 0.0, 0.0, 0.0, 0.0, 0.0, 0.0, 0.0, 1.6962751479815316E9, 0.0, 2023-10-02 15:32:27.981
125.0, 17953.50229185847, 16560.027487281262, 44201.871061548125, 66296.36928991906, 13494.463383491444, -20815.01732051579, -30167.389532016463, 10219.955172533415, 0.106, 0.9540000000000001, 0.276, 192.0, 0.0, 0.0, 0.0, 0.0, 0.0, 0.0, 0.0, 0.0, 0.0, 1.6962751479815485E9, 0.0, 2023-10-02 15:32:27.981
126.0, 17954.8881000147, 16561.83797858214, 44195.05377948926, 66261.65703077997, 13494.284569535801, -20818.25832346181, -30186.656735736935, 10203.59369559213, 0.106, 0.9540000000000001, 0.276, 192.0, 0.0, 0.0, 0.0, 0.0, 0.0, 0.0, 0.0, 0.0, 0.0, 1.696275147981562E9, 0.0, 2023-10-02 15:32:27.981
127.0, 17956.296259915383, 16565.90599607301, 44208.42012267353, 66225.22368731782, 13508.209706331458, -20812.580980370163, -30212.763573260734, 10178.403279590999, 0.106, 0.9540000000000001, 0.276, 192.0, 0.0, 0.0, 0.0, 0.0, 0.0, 0.0, 0.0, 0.0, 0.0, 1.696275147982084E9, 0.0, 2023-10-02 15:32:27.982
128.0, 17948.07081795583, 16559.200472736415, 44227.19558801599, 66272.76584777425, 13512.210668588958, -20805.383718655554, -30182.633421734983, 10207.59465784963, 0.106, 0.9540000000000001, 0.276, 192.0, 0.0, 0.0, 0.0, 0.0, 0.0, 0.0, 0.0, 0.0, 0.0, 1.6962751479821148E9, 0.0, 2023-10-02 15:32:27.982
129.0, 17954.150492447676, 16568.163522262996, 44217.62904138912, 66298.26918819777, 13512.612999989153, -20800.287520919745, -30180.286488567173, 10214.92603003097, 0.1, 0.9520000000000001, 0.276, 192.0, 3.0, 32.0, 29.0, 192.0, 8.0, 160.0, 0.0, 0.0, 0.0, 1.696275147982126E9, 0.0, 2023-10-02 15:32:27.982
130.0, 17949.769550534435, 16567.5600251627, 44206.94490753948, 66282.89118801251, 13507.24858131988, -20803.908503521503, -30182.87929092399, 10213.204945707912, 0.1, 0.9520000000000001, 0.276, 192.0, 0.0, 0.0, 0.0, 0.0, 0.0, 0.0, 0.0, 0.0, 0.0, 1.6962751479821398E9, 0.0, 2023-10-02 15:32:27.982
131.0, 17939.26423064044, 16560.6086326371, 44203.83801506019, 66263.06519068065, 13504.119337096135, -20809.183515212957, -30176.374933287494, 10213.584925363652, 0.1, 0.9520000000000001, 0.276, 192.0, 0.0, 0.0, 0.0, 0.0, 0.0, 0.0, 0.0, 0.0, 0.0, 1.69627514798215E9, 0.0, 2023-10-02 15:32:27.982
132.0, 17928.848317724267, 16551.600879621612, 44208.442474417985, 66299.43147890944, 13498.307883537756, -20812.178648969966, -30141.930895081867, 10240.988164065859, 0.1, 0.9520000000000001, 0.276, 192.0, 0.0, 0.0, 0.0, 0.0, 0.0, 0.0, 0.0, 0.0, 0.0, 1.6962751479821603E9, 0.0, 2023-10-02 15:32:27.982
133.0, 17932.178727648108, 16555.065400012183, 44198.78652081329, 66322.4537756984, 13497.905552137561, -20811.88807629205, -30137.125270023975, 10244.944422834447, 0.1, 0.9520000000000001, 0.276, 192.0, 0.0, 0.0, 0.0, 0.0, 0.0, 0.0, 0.0, 0.0, 0.0, 1.6962751479822009E9, 0.0, 2023-10-02 15:32:27.982
134.0, 17934.346846860273, 16556.630022124056, 44189.75641605335, 66295.43051665193, 13498.844325404683, -20816.22431471638, -30150.62572367498, 10233.79090235125, 0.1, 0.9520000000000001, 0.276, 192.0, 0.0, 0.0, 0.0, 0.0, 0.0, 0.0, 0.0, 0.0, 0.0, 1.696275147982213E9, 0.0, 2023-10-02 15:32:27.982
135.0, 17931.374064847718, 16552.00321102181, 44194.91966902252, 66259.39950458998, 13498.2855317933, -20819.55472464022, -30154.671389421394, 10223.620858624085, 0.1, 0.9520000000000001, 0.276, 192.0, 0.0, 0.0, 0.0, 0.0, 0.0, 0.0, 0.0, 0.0, 0.0, 1.6962751479822242E9, 0.0, 2023-10-02 15:32:27.982
136.0, 17930.100015413766, 16551.89145229953, 44210.051800018766, 66270.91065298446, 13500.967741127937, -20811.30693093621, -30147.049444562133, 10226.772454592283, 0.1, 0.9520000000000001, 0.276, 192.0, 0.0, 0.0, 0.0, 0.0, 0.0, 0.0, 0.0, 0.0, 0.0, 1.696275147982234E9, 0.0, 2023-10-02 15:32:27.982
137.0, 17934.27979162691, 16560.18394949245, 44211.728180852915, 66305.06411851218, 13504.164040585047, -20804.824925044173, -30137.751118868724, 10237.680105886473, 0.1, 0.9520000000000001, 0.276, 192.0, 0.0, 0.0, 0.0, 0.0, 0.0, 0.0, 0.0, 0.0, 0.0, 1.6962751479822443E9, 0.0, 2023-10-02 15:32:27.982
138.0, 17944.651001054168, 16570.108124030605, 44204.82149181623, 66290.69194682741, 13514.222325589935, -20800.533390108754, -30153.017360331698, 10226.347771447632, 0.1, 0.9520000000000001, 0.276, 192.0, 0.0, 0.0, 0.0, 0.0, 0.0, 0.0, 0.0, 0.0, 0.0, 1.6962751479822557E9, 0.0, 2023-10-02 15:32:27.982
139.0, 17949.41192262315, 16573.036202554253, 44202.295744692776, 66248.2906875957, 13520.503165781876, -20799.080526719157, -30178.45364552184, 10203.951323503414, 0.11, 0.9580000000000001, 0.272, 192.0, 3.0, 112.0, 29.0, 240.0, 8.0, 128.0, 0.0, 0.0, 0.0, 1.696275147982266E9, 0.0, 2023-10-02 15:32:27.982
140.0, 17935.88911722769, 16563.04497278273, 44206.65433486156, 66251.79991147517, 13513.887049423105, -20802.03095698726, -30182.54401475716, 10200.531506601752, 0.11, 0.9580000000000001, 0.272, 192.0, 0.0, 0.0, 0.0, 0.0, 0.0, 0.0, 0.0, 0.0, 0.0, 1.696275147982278E9, 0.0, 2023-10-02 15:32:27.982
141.0, 17926.277867111905, 16555.378324434558, 44205.49204414988, 66295.02818525174, 13510.53428775481, -20803.953207010414, -30170.83170066258, 10217.407073665509, 0.11, 0.9580000000000001, 0.272, 192.0, 0.0, 0.0, 0.0, 0.0, 0.0, 0.0, 0.0, 0.0, 0.0, 1.6962751479822884E9, 0.0, 2023-10-02 15:32:27.982
142.0, 17932.961038704045, 16563.067324527183, 44191.67866607651, 66286.80274329218, 13507.360340042156, -20805.048442488725, -30187.617860748516, 10208.533431116752, 0.11, 0.9580000000000001, 0.272, 192.0, 0.0, 0.0, 0.0, 0.0, 0.0, 0.0, 0.0, 0.0, 0.0, 1.6962751479823017E9, 0.0, 2023-10-02 15:32:27.982
143.0, 17924.422672322115, 16554.104275000605, 44188.70588406395, 66262.61815579154, 13492.33996776819, -20816.961922283404, -30187.08141888159, 10205.962980504391, 0.11, 0.9580000000000001, 0.272, 192.0, 0.0, 0.0, 0.0, 0.0, 0.0, 0.0, 0.0, 0.0, 0.0, 1.6962751479823325E9, 0.0, 2023-10-02 15:32:27.982
144.0, 17931.619934036724, 16556.674725612967, 44195.45611088945, 66246.7931207172, 13498.19612481548, -20810.904599536014, -30197.92201494241, 10192.551933831208, 0.11, 0.9580000000000001, 0.272, 192.0, 0.0, 0.0, 0.0, 0.0, 0.0, 0.0, 0.0, 0.0, 0.0, 1.6962751479823453E9, 0.0, 2023-10-02 15:32:27.982
145.0, 17919.617047264226, 16543.397789406514, 44205.55909938325, 66289.19437994891, 13495.268046291834, -20812.02218675878, -30180.912337411923, 10210.567439862185, 0.11, 0.9580000000000001, 0.272, 192.0, 0.0, 0.0, 0.0, 0.0, 0.0, 0.0, 0.0, 0.0, 0.0, 1.6962751479823573E9, 0.0, 2023-10-02 15:32:27.982
146.0, 17923.103919399255, 16545.632963852044, 44196.908974279046, 66317.6034471516, 13495.133935825103, -20812.201000714424, -30157.06302607811, 10235.400227952032, 0.11, 0.9580000000000001, 0.272, 192.0, 0.0, 0.0, 0.0, 0.0, 0.0, 0.0, 0.0, 0.0, 0.0, 1.6962751479823685E9, 0.0, 2023-10-02 15:32:27.982
147.0, 17948.249631911473, 16568.319984474183, 44189.9799334979, 66261.5899755466, 13519.452633792476, -20799.013471485792, -30203.398192333963, 10195.412957121487, 0.11, 0.9580000000000001, 0.272, 192.0, 0.0, 0.0, 0.0, 0.0, 0.0, 0.0, 0.0, 0.0, 0.0, 1.69627514798238E9, 0.0, 2023-10-02 15:32:27.982
148.0, 17944.94157373209, 16562.28501347125, 44208.66599186254, 66257.18668188891, 13522.24660184939, -20795.660709817497, -30206.907416213446, 10191.523753586263, 0.11, 0.9580000000000001, 0.272, 192.0, 0.0, 0.0, 0.0, 0.0, 0.0, 0.0, 0.0, 0.0, 0.0, 1.6962751479823928E9, 0.0, 2023-10-02 15:32:27.982
149.0, 17933.22925963751, 16550.550347632212, 44213.62807913162, 66310.0038540368, 13511.71893021094, -20798.49938136332, -30177.470168765805, 10219.619896366585, 0.11, 0.96, 0.27, 192.0, 3.0, 112.0, 30.0, 0.0, 8.0, 112.0, 0.0, 0.0, 0.0, 1.6962751479824028E9, 0.0, 2023-10-02 15:32:27.982
150.0, 17930.859974725245, 16551.153844732507, 44198.585355113195, 66326.65590365599, 13507.00271213087, -20796.666538317986, -30180.040619378167, 10221.519794645286, 0.11, 0.96, 0.27, 192.0, 0.0, 0.0, 0.0, 0.0, 0.0, 0.0, 0.0, 0.0, 0.0, 1.6962751479824145E9, 0.0, 2023-10-02 15:32:27.982
151.0, 17934.860936982746, 16557.769961091275, 44180.905125249046, 66286.73568805882, 13507.00271213087, -20804.467297132887, -30205.588663290582, 10198.408090878498, 0.11, 0.96, 0.27, 192.0, 0.0, 0.0, 0.0, 0.0, 0.0, 0.0, 0.0, 0.0, 0.0, 1.696275147982426E9, 0.0, 2023-10-02 15:32:27.982
152.0, 17931.128195658708, 16557.926423302462, 44188.12473870811, 66261.09823716858, 13511.383654044112, -20803.0591372322, -30222.21836116533, 10183.298311626711, 0.11, 0.96, 0.27, 192.0, 0.0, 0.0, 0.0, 0.0, 0.0, 0.0, 0.0, 0.0, 0.0, 1.696275147982437E9, 0.0, 2023-10-02 15:32:27.982
153.0, 17920.555820531346, 16549.27629819826, 44201.49108189238, 66307.2545894688, 13510.154308099069, -20802.83561978765, -30195.865654452522, 10207.907582272004, 0.11, 0.96, 0.27, 192.0, 0.0, 0.0, 0.0, 0.0, 0.0, 0.0, 0.0, 0.0, 0.0, 1.6962751479824464E9, 0.0, 2023-10-02 15:32:27.982
154.0, 17912.531544271893, 16542.03433299474, 44187.56594509673, 66354.70734294741, 13497.167944570536, -20811.955131525414, -30159.700531923838, 10241.256384999322, 0.11, 0.96, 0.27, 192.0, 0.0, 0.0, 0.0, 0.0, 0.0, 0.0, 0.0, 0.0, 0.0, 1.6962751479824574E9, 0.0, 2023-10-02 15:32:27.982
155.0, 17923.573306032813, 16555.51243490129, 44166.68941577547, 66318.69868262991, 13498.866677149139, -20812.13394548106, -30178.699514710846, 10222.525623145775, 0.11, 0.96, 0.27, 192.0, 0.0, 0.0, 0.0, 0.0, 0.0, 0.0, 0.0, 0.0, 0.0, 1.6962751479824712E9, 0.0, 2023-10-02 15:32:27.982
156.0, 17927.909544457143, 16562.508530915802, 44173.70786353444, 66284.3440514021, 13509.751976698873, -20802.232122687357, -30195.865654452522, 10205.11361421509, 0.11, 0.96, 0.27, 192.0, 0.0, 0.0, 0.0, 0.0, 0.0, 0.0, 0.0, 0.0, 0.0, 1.6962751479824812E9, 0.0, 2023-10-02 15:32:27.982
157.0, 17919.035901908388, 16556.02652502376, 44185.286067162284, 66306.53933364623, 13504.991055129893, -20800.57809359766, -30189.24953809375, 10213.048483496725, 0.11, 0.96, 0.27, 192.0, 0.0, 0.0, 0.0, 0.0, 0.0, 0.0, 0.0, 0.0, 0.0, 1.6962751479824913E9, 0.0, 2023-10-02 15:32:27.982
158.0, 17913.515021027928, 16552.405542422002, 44186.001322984856, 66345.25255504281, 13498.844325404683, -20802.969730254383, -30172.664543707913, 10233.857957584614, 0.11, 0.96, 0.27, 192.0, 0.0, 0.0, 0.0, 0.0, 0.0, 0.0, 0.0, 0.0, 0.0, 1.6962751479825127E9, 0.0, 2023-10-02 15:32:27.982
159.0, 17921.673407754115, 16562.329716960157, 44184.190831683976, 66331.08154905814, 13503.113508595647, -20801.248645931322, -30177.60427923254, 10232.047466283735, 0.114, 0.96, 0.272, 192.0, 3.0, 144.0, 30.0, 0.0, 8.0, 128.0, 0.0, 0.0, 0.0, 1.6962751479825225E9, 0.0, 2023-10-02 15:32:27.982
160.0, 17907.703567469547, 16550.595051121123, 44181.62038107162, 66307.92514180245, 13493.591665457687, -20812.826849559173, -30171.25638380723, 10234.036771540257, 0.114, 0.96, 0.272, 192.0, 0.0, 0.0, 0.0, 0.0, 0.0, 0.0, 0.0, 0.0, 0.0, 1.6962751479825327E9, 0.0, 2023-10-02 15:32:27.982
161.0, 17901.8250586778, 16544.113045229085, 44186.068378218224, 66325.78418562224, 13490.976511356415, -20817.185439727957, -30151.58684868656, 10247.470169957896, 0.114, 0.96, 0.272, 192.0, 0.0, 0.0, 0.0, 0.0, 0.0, 0.0, 0.0, 0.0, 0.0, 1.6962751479825425E9, 0.0, 2023-10-02 15:32:27.982
162.0, 17904.753137201445, 16546.325867930158, 44180.14516593757, 66364.11742736309, 13490.57417995622, -20814.190305970944, -30136.87940083497, 10260.255367786332, 0.114, 0.96, 0.272, 192.0, 0.0, 0.0, 0.0, 0.0, 0.0, 0.0, 0.0, 0.0, 0.0, 1.696275147982552E9, 0.0, 2023-10-02 15:32:27.982
163.0, 17915.727843729, 16557.345277946624, 44170.64567454406, 66353.05331385772, 13496.787964914796, -20808.423555901474, -30146.7141683953, 10252.141684549057, 0.114, 0.96, 0.272, 192.0, 0.0, 0.0, 0.0, 0.0, 0.0, 0.0, 0.0, 0.0, 0.0, 1.6962751479825637E9, 0.0, 2023-10-02 15:32:27.982
164.0, 17918.8794396972, 16560.78744659274, 44170.86919198861, 66305.66761561246, 13499.090194593693, -20808.669425090484, -30163.187404058863, 10233.88030932907, 0.114, 0.96, 0.272, 192.0, 0.0, 0.0, 0.0, 0.0, 0.0, 0.0, 0.0, 0.0, 0.0, 1.6962751479825745E9, 0.0, 2023-10-02 15:32:27.982
165.0, 17920.175840875607, 16564.766057105786, 44184.43670087298, 66297.93391203093, 13508.075595864726, -20804.467297132887, -30171.189328573862, 10223.084416757158, 0.114, 0.96, 0.272, 192.0, 0.0, 0.0, 0.0, 0.0, 0.0, 0.0, 0.0, 0.0, 0.0, 1.6962751479825845E9, 0.0, 2023-10-02 15:32:27.982
166.0, 17913.425614050106, 16560.00513553681, 44190.56107885374, 66335.59660143813, 13506.130994097113, -20804.802573299716, -30164.19323255935, 10233.321515717687, 0.114, 0.96, 0.272, 192.0, 0.0, 0.0, 0.0, 0.0, 0.0, 0.0, 0.0, 0.0, 0.0, 1.6962751479825945E9, 0.0, 2023-10-02 15:32:27.982
167.0, 17907.189477347074, 16557.233519224348, 44173.84197400117, 66332.84733687012, 13498.352587026668, -20813.631512359563, -30169.35648552853, 10232.986239550859, 0.114, 0.96, 0.272, 192.0, 0.0, 0.0, 0.0, 0.0, 0.0, 0.0, 0.0, 0.0, 0.0, 1.6962751479826105E9, 0.0, 2023-10-02 15:32:27.982
168.0, 17904.283750567884, 16555.490083156834, 44162.04025292877, 66284.38875489101, 13494.530438724809, -20819.51002115131, -30192.088209639576, 10211.68502708495, 0.114, 0.96, 0.272, 192.0, 0.0, 0.0, 0.0, 0.0, 0.0, 0.0, 0.0, 0.0, 0.0, 1.69627514798262E9, 0.0, 2023-10-02 15:32:27.982
169.0, 17905.714262213023, 16555.914766301485, 44171.91972397801, 66274.93396698641, 13499.872505649628, -20818.235971717357, -30192.714058484326, 10207.795823549726, 0.114, 0.9520000000000001, 0.272, 192.0, 3.0, 144.0, 29.0, 192.0, 8.0, 128.0, 0.0, 0.0, 0.0, 1.6962751479826305E9, 0.0, 2023-10-02 15:32:27.982
170.0, 17905.8260209353, 16554.573661634167, 44184.324942150706, 66318.69868262991, 13499.425470760521, -20810.412861157998, -30173.424503019396, 10228.091207515146, 0.114, 0.9520000000000001, 0.272, 192.0, 0.0, 0.0, 0.0, 0.0, 0.0, 0.0, 0.0, 0.0, 0.0, 1.6962751479826417E9, 0.0, 2023-10-02 15:32:27.982
171.0, 17902.62972147819, 16551.958507532898, 44171.58444781118, 66326.29827574472, 13485.701499664963, -20817.610122872607, -30175.436160020374, 10229.320553460188, 0.114, 0.9520000000000001, 0.272, 192.0, 0.0, 0.0, 0.0, 0.0, 0.0, 0.0, 0.0, 0.0, 0.0, 1.6962751479826524E9, 0.0, 2023-10-02 15:32:27.982
172.0, 17898.06996560931, 16549.365705176082, 44159.13452614957, 66286.78039154773, 13483.086345563692, -20821.655788619017, -30191.507064283738, 10213.83079455266, 0.114, 0.9520000000000001, 0.272, 192.0, 0.0, 0.0, 0.0, 0.0, 0.0, 0.0, 0.0, 0.0, 0.0, 1.6962751479826875E9, 0.0, 2023-10-02 15:32:27.982
173.0, 17893.241988806963, 16545.521205129768, 44163.94015120747, 66272.38586811851, 13486.215589787435, -20818.168916483988, -30188.757799715735, 10213.160242219, 0.114, 0.9520000000000001, 0.272, 192.0, 0.0, 0.0, 0.0, 0.0, 0.0, 0.0, 0.0, 0.0, 0.0, 1.696275147982718E9, 0.0, 2023-10-02 15:32:27.982
174.0, 17899.67929121009, 16551.243251710326, 44179.27344790381, 66309.1544877475, 13495.491563736388, -20809.58584661315, -30173.62566871949, 10229.387608693554, 0.114, 0.9520000000000001, 0.272, 192.0, 0.0, 0.0, 0.0, 0.0, 0.0, 0.0, 0.0, 0.0, 0.0, 1.6962751479827473E9, 0.0, 2023-10-02 15:32:27.982
175.0, 17898.852276665246, 16549.835091809644, 44168.812831498726, 66346.39249401004, 13493.09992707967, -20811.597503614128, -30147.071796306587, 10258.333117763177, 0.114, 0.9520000000000001, 0.272, 192.0, 0.0, 0.0, 0.0, 0.0, 0.0, 0.0, 0.0, 0.0, 0.0, 1.6962751479827588E9, 0.0, 2023-10-02 15:32:27.982
176.0, 17900.17102958811, 16552.874929055564, 44141.92368291899, 66305.06411851218, 13492.496429979377, -20824.20388748692, -30163.63443894797, 10240.630536154573, 0.114, 0.9520000000000001, 0.272, 192.0, 0.0, 0.0, 0.0, 0.0, 0.0, 0.0, 0.0, 0.0, 0.0, 1.6962751479827733E9, 0.0, 2023-10-02 15:32:27.982
177.0, 17901.35567204424, 16557.32292620217, 44146.77401146579, 66279.87370251105, 13499.179601571514, -20817.677178105972, -30165.10965408202, 10233.254460484322, 0.114, 0.9520000000000001, 0.272, 192.0, 0.0, 0.0, 0.0, 0.0, 0.0, 0.0, 0.0, 0.0, 0.0, 1.696275147982785E9, 0.0, 2023-10-02 15:32:27.982
178.0, 17902.897942411655, 16560.541577403736, 44157.41344182652, 66312.9989877938, 13511.406005788567, -20809.1611634685, -30145.06013930561, 10250.107675803623, 0.114, 0.9520000000000001, 0.272, 192.0, 0.0, 0.0, 0.0, 0.0, 0.0, 0.0, 0.0, 0.0, 0.0, 1.696275147982796E9, 0.0, 2023-10-02 15:32:27.982
179.0, 17907.97178840301, 16566.75536236231, 44151.601988268136, 66335.03780782674, 13513.775290700829, -20799.661672074995, -30144.166069527397, 10255.2709287728, 0.12, 0.9500000000000001, 0.27, 192.0, 3.0, 192.0, 29.0, 176.0, 8.0, 112.0, 0.0, 0.0, 0.0, 1.6962751479828064E9, 0.0, 2023-10-02 15:32:27.982
180.0, 17907.390643047172, 16567.38121120706, 44136.78278169427, 66306.47227841285, 13510.757805199362, -20802.2097709429, -30161.35456101353, 10242.709248388917, 0.12, 0.9500000000000001, 0.27, 192.0, 0.0, 0.0, 0.0, 0.0, 0.0, 0.0, 0.0, 0.0, 0.0, 1.6962751479828205E9, 0.0, 2023-10-02 15:32:27.982
181.0, 17906.45186978005, 16566.57654840667, 44141.54370326325, 66284.67932756893, 13512.210668588958, -20801.852143031614, -30160.371084257495, 10242.329268733176, 0.12, 0.9500000000000001, 0.27, 192.0, 0.0, 0.0, 0.0, 0.0, 0.0, 0.0, 0.0, 0.0, 0.0, 1.6962751479828327E9, 0.0, 2023-10-02 15:32:27.982
182.0, 17901.646244722157, 16563.313193716192, 44146.48343878787, 66296.65986259698, 13507.494450508888, -20805.49547737783, -30159.767587157203, 10239.73646637636, 0.12, 0.9500000000000001, 0.27, 192.0, 0.0, 0.0, 0.0, 0.0, 0.0, 0.0, 0.0, 0.0, 0.0, 1.696275147982846E9, 0.0, 2023-10-02 15:32:27.982
183.0, 17897.466468509017, 16562.307365215704, 44138.61562473961, 66327.23704901183, 13503.269970806834, -20807.149506467522, -30154.671389421394, 10245.279699001278, 0.12, 0.9500000000000001, 0.27, 192.0, 0.0, 0.0, 0.0, 0.0, 0.0, 0.0, 0.0, 0.0, 0.0, 1.6962751479828596E9, 0.0, 2023-10-02 15:32:27.982
184.0, 17901.57918948879, 16568.23057749636, 44127.6632699565, 66311.85904882659, 13503.672302207031, -20806.568361111684, -30161.265154035707, 10239.535300676263, 0.12, 0.9500000000000001, 0.27, 192.0, 0.0, 0.0, 0.0, 0.0, 0.0, 0.0, 0.0, 0.0, 0.0, 1.696275147982878E9, 0.0, 2023-10-02 15:32:27.982
185.0, 17907.9270849141, 16575.249025255325, 44133.65353747053, 66276.25271990929, 13509.729624954418, -20804.48964887734, -30175.860843165025, 10221.296277200732, 0.12, 0.9500000000000001, 0.27, 192.0, 0.0, 0.0, 0.0, 0.0, 0.0, 0.0, 0.0, 0.0, 0.0, 1.696275147982892E9, 0.0, 2023-10-02 15:32:27.982
186.0, 17902.674424967103, 16571.560987420202, 44145.07527888719, 66292.74830731729, 13510.243715076891, -20807.618893101084, -30169.647058206447, 10225.297239458232, 0.12, 0.9500000000000001, 0.27, 192.0, 0.0, 0.0, 0.0, 0.0, 0.0, 0.0, 0.0, 0.0, 0.0, 1.6962751479829035E9, 0.0, 2023-10-02 15:32:27.982
187.0, 17902.696776711557, 16572.65622289851, 44139.80026719574, 66331.12625254707, 13506.175697586024, -20806.434250644954, -30171.099921596044, 10231.086341272157, 0.12, 0.9500000000000001, 0.27, 192.0, 0.0, 0.0, 0.0, 0.0, 0.0, 0.0, 0.0, 0.0, 0.0, 1.6962751479829137E9, 0.0, 2023-10-02 15:32:27.982
188.0, 17901.310968555328, 16569.817551352688, 44118.43199949646, 66335.61895318258, 13496.229171303412, -20811.86572454759, -30173.49155825276, 10232.02511453928, 0.12, 0.9500000000000001, 0.27, 192.0, 0.0, 0.0, 0.0, 0.0, 0.0, 0.0, 0.0, 0.0, 0.0, 1.6962751479829237E9, 0.0, 2023-10-02 15:32:27.982
189.0, 17906.027186635398, 16573.438533954446, 44108.68663891395, 66289.35084216009, 13498.643159704587, -20810.144640224535, -30202.817046978125, 10200.464451368387, 0.114, 0.9500000000000001, 0.268, 192.0, 3.0, 144.0, 29.0, 176.0, 8.0, 96.0, 0.0, 0.0, 0.0, 1.6962751479829557E9, 0.0, 2023-10-02 15:32:27.982
190.0, 17900.68511971058, 16567.649432140523, 44120.19778730843, 66296.01166200778, 13492.652892190563, -20809.854067546614, -30197.11735214202, 10202.297294413722, 0.114, 0.9500000000000001, 0.268, 192.0, 0.0, 0.0, 0.0, 0.0, 0.0, 0.0, 0.0, 0.0, 0.0, 1.696275147982967E9, 0.0, 2023-10-02 15:32:27.982
191.0, 17908.7764512034, 16572.879740343065, 44130.94897639143, 66336.4012642385, 13497.503220737366, -20804.780221555262, -30188.64604099346, 10212.176765462968, 0.114, 0.9500000000000001, 0.268, 192.0, 0.0, 0.0, 0.0, 0.0, 0.0, 0.0, 0.0, 0.0, 0.0, 1.6962751479829774E9, 0.0, 2023-10-02 15:32:27.982
192.0, 17901.15450634414, 16562.7096966159, 44123.46114199891, 66353.18742432445, 13488.115488066136, -20817.45366066142, -30181.649944978948, 10223.956134790915, 0.114, 0.9500000000000001, 0.268, 192.0, 0.0, 0.0, 0.0, 0.0, 0.0, 0.0, 0.0, 0.0, 0.0, 1.6962751479829872E9, 0.0, 2023-10-02 15:32:27.982
193.0, 17910.095204126264, 16570.532807175256, 44113.13463606055, 66308.5509906472, 13490.976511356415, -20821.521678152287, -30204.11344815653, 10205.02420723727, 0.114, 0.9500000000000001, 0.268, 192.0, 0.0, 0.0, 0.0, 0.0, 0.0, 0.0, 0.0, 0.0, 0.0, 1.6962751479829972E9, 0.0, 2023-10-02 15:32:27.982
194.0, 17920.68993099808, 16579.85348461312, 44126.67979320047, 66279.15844668847, 13508.299113309278, -20811.195172213935, -30236.61288459455, 10175.96693944537, 0.114, 0.9500000000000001, 0.268, 192.0, 0.0, 0.0, 0.0, 0.0, 0.0, 0.0, 0.0, 0.0, 0.0, 1.6962751479830096E9, 0.0, 2023-10-02 15:32:27.983
195.0, 17908.195305847563, 16564.676650127967, 44136.78278169427, 66335.35073224912, 13500.945389383483, -20809.898771035525, -30212.808276749645, 10202.297294413722, 0.114, 0.9500000000000001, 0.268, 192.0, 0.0, 0.0, 0.0, 0.0, 0.0, 0.0, 0.0, 0.0, 0.0, 1.696275147983024E9, 0.0, 2023-10-02 15:32:27.983
196.0, 17905.624855235204, 16561.99444079333, 44117.24735704033, 66350.97460162337, 13494.530438724809, -20812.849201303627, -30210.17077090392, 10210.656846840007, 0.114, 0.9500000000000001, 0.268, 192.0, 0.0, 0.0, 0.0, 0.0, 0.0, 0.0, 0.0, 0.0, 0.0, 1.6962751479830348E9, 0.0, 2023-10-02 15:32:27.983
197.0, 17900.416898777115, 16556.69707735742, 44107.50199645782, 66320.82209835316, 13494.441031746988, -20819.55472464022, -30217.479791340804, 10207.97463750537, 0.114, 0.9500000000000001, 0.268, 192.0, 0.0, 0.0, 0.0, 0.0, 0.0, 0.0, 0.0, 0.0, 0.0, 1.696275147983051E9, 0.0, 2023-10-02 15:32:27.983
198.0, 17898.91933189861, 16554.685420356444, 44111.458255226404, 66310.58499939264, 13485.969720598427, -20824.717977609394, -30205.611015035036, 10217.228259709867, 0.114, 0.9500000000000001, 0.268, 192.0, 0.0, 0.0, 0.0, 0.0, 0.0, 0.0, 0.0, 0.0, 0.0, 1.6962751479830625E9, 0.0, 2023-10-02 15:32:27.983
199.0, 17897.131192342185, 16550.907975543498, 44118.49905472983, 66346.8618806436, 13483.421621730522, -20825.053253776223, -30182.856939179535, 10236.897794830536, 0.114, 0.96, 0.268, 192.0, 3.0, 144.0, 30.0, 0.0, 8.0, 96.0, 0.0, 0.0, 0.0, 1.696275147983074E9, 0.0, 2023-10-02 15:32:27.983
200.0, 17899.813401676824, 16553.925461044964, 44112.799359893725, 66366.84434018664, 13489.85892413365, -20820.381739185064, -30175.033828620177, 10248.163074036012, 0.114, 0.96, 0.268, 192.0, 0.0, 0.0, 0.0, 0.0, 0.0, 0.0, 0.0, 0.0, 0.0, 1.6962751479830873E9, 0.0, 2023-10-02 15:32:27.983
201.0, 17907.860029680734, 16560.85450182611, 44105.758560390306, 66335.7083601604, 13495.826839903217, -20821.476974663376, -30182.96869790181, 10241.748123377338, 0.114, 0.96, 0.268, 192.0, 0.0, 0.0, 0.0, 0.0, 0.0, 0.0, 0.0, 0.0, 0.0, 1.6962751479830976E9, 0.0, 2023-10-02 15:32:27.983
202.0, 17912.30802682734, 16564.050801283218, 44108.954859847414, 66302.31485394418, 13504.812241174252, -20816.02314901628, -30197.676145753405, 10224.537280146753, 0.114, 0.96, 0.268, 192.0, 0.0, 0.0, 0.0, 0.0, 0.0, 0.0, 0.0, 0.0, 0.0, 1.696275147983108E9, 0.0, 2023-10-02 15:32:27.983
203.0, 17918.678273997102, 16570.555158919713, 44127.88678740106, 66329.56163043519, 13524.593535017197, -20797.87353251857, -30192.065857895122, 10232.472149428386, 0.114, 0.96, 0.268, 192.0, 0.0, 0.0, 0.0, 0.0, 0.0, 0.0, 0.0, 0.0, 0.0, 1.6962751479831195E9, 0.0, 2023-10-02 15:32:27.983
204.0, 17913.40326230565, 16563.29084197174, 44125.33868853315, 66371.18057861098, 13522.336008827211, -20797.87353251857, -30171.077569851586, 10257.729620662883, 0.114, 0.96, 0.268, 192.0, 0.0, 0.0, 0.0, 0.0, 0.0, 0.0, 0.0, 0.0, 0.0, 1.69627514798313E9, 0.0, 2023-10-02 15:32:27.983
205.0, 17916.063119895833, 16564.85546408361, 44107.65845866901, 66343.57617420866, 13515.742244212895, -20803.30500642121, -30183.72865721329, 10249.146550792046, 0.114, 0.96, 0.268, 192.0, 0.0, 0.0, 0.0, 0.0, 0.0, 0.0, 0.0, 0.0, 0.0, 1.6962751479831595E9, 0.0, 2023-10-02 15:32:27.983
206.0, 17917.851259452254, 16568.297632729726, 44108.329011002665, 66309.46741216986, 13521.218421604446, -20800.689852319938, -30196.290337597173, 10235.668448885495, 0.114, 0.96, 0.268, 192.0, 0.0, 0.0, 0.0, 0.0, 0.0, 0.0, 0.0, 0.0, 0.0, 1.6962751479831698E9, 0.0, 2023-10-02 15:32:27.983
207.0, 17916.17487861811, 16567.247100740326, 44119.12490357458, 66320.91150533098, 13529.354456586178, -20792.55381733821, -30206.281567368696, 10227.97944879287, 0.114, 0.96, 0.268, 192.0, 0.0, 0.0, 0.0, 0.0, 0.0, 0.0, 0.0, 0.0, 0.0, 1.69627514798318E9, 0.0, 2023-10-02 15:32:27.983
208.0, 17911.324550071306, 16562.486179171345, 44120.73422917536, 66368.3642588096, 13527.029875162825, -20794.2078464279, -30191.484712539284, 10248.185425780466, 0.114, 0.96, 0.268, 192.0, 0.0, 0.0, 0.0, 0.0, 0.0, 0.0, 0.0, 0.0, 0.0, 1.6962751479831896E9, 0.0, 2023-10-02 15:32:27.983
209.0, 17919.30412284185, 16568.588205407646, 44111.145330804036, 66356.1155028481, 13528.795662974795, -20793.3584801386, -30206.058049924144, 10240.272908243289, 0.116, 0.9560000000000001, 0.262, 192.0, 3.0, 160.0, 29.0, 224.0, 8.0, 48.0, 0.0, 0.0, 0.0, 1.696275147983203E9, 0.0, 2023-10-02 15:32:27.983
210.0, 17912.39743380516, 16560.921557059475, 44109.088970314144, 66332.04267406973, 13521.263125093357, -20801.472163375875, -30205.78982899068, 10239.289431487256, 0.116, 0.9560000000000001, 0.262, 192.0, 0.0, 0.0, 0.0, 0.0, 0.0, 0.0, 0.0, 0.0, 0.0, 1.6962751479832184E9, 0.0, 2023-10-02 15:32:27.983
211.0, 17913.895000683668, 16563.603766394113, 44109.9606883479, 66326.70060714491, 13520.838441948707, -20800.756907553307, -30215.624596551013, 10228.895870315537, 0.116, 0.9560000000000001, 0.262, 192.0, 0.0, 0.0, 0.0, 0.0, 0.0, 0.0, 0.0, 0.0, 0.0, 1.6962751479832308E9, 0.0, 2023-10-02 15:32:27.983
212.0, 17920.667579253626, 16571.918615331488, 44117.40381925152, 66352.5168719908, 13530.472043808943, -20787.658785302494, -30225.682881555902, 10227.778283092772, 0.116, 0.9560000000000001, 0.262, 192.0, 0.0, 0.0, 0.0, 0.0, 0.0, 0.0, 0.0, 0.0, 0.0, 1.6962751479832478E9, 0.0, 2023-10-02 15:32:27.983
213.0, 17913.53737277238, 16566.241272239837, 44106.31735400169, 66358.06010461571, 13521.710159982464, -20799.72872730836, -30221.36899487603, 10239.580004165175, 0.116, 0.9560000000000001, 0.262, 192.0, 0.0, 0.0, 0.0, 0.0, 0.0, 0.0, 0.0, 0.0, 0.0, 1.6962751479832652E9, 0.0, 2023-10-02 15:32:27.983
214.0, 17901.10980285523, 16553.99251627833, 44088.413606692986, 66324.62189491057, 13510.422529032532, -20809.898771035525, -30223.291244899185, 10237.948326819936, 0.116, 0.9560000000000001, 0.262, 192.0, 0.0, 0.0, 0.0, 0.0, 0.0, 0.0, 0.0, 0.0, 0.0, 1.69627514798328E9, 0.0, 2023-10-02 15:32:27.983
215.0, 17903.769660445414, 16555.870062812577, 44096.929621330455, 66329.24870601282, 13516.837479691207, -20803.282654676754, -30212.160076160442, 10247.537225191263, 0.116, 0.9560000000000001, 0.262, 192.0, 0.0, 0.0, 0.0, 0.0, 0.0, 0.0, 0.0, 0.0, 0.0, 1.6962751479832935E9, 0.0, 2023-10-02 15:32:27.983
216.0, 17902.383852289182, 16555.914766301485, 44095.99084806333, 66362.39634304003, 13512.031854633315, -20805.026090744268, -30201.40888707744, 10258.020193340803, 0.116, 0.9560000000000001, 0.262, 192.0, 0.0, 0.0, 0.0, 0.0, 0.0, 0.0, 0.0, 0.0, 0.0, 1.6962751479833076E9, 0.0, 2023-10-02 15:32:27.983
217.0, 17908.35176805875, 16562.508530915802, 44083.228001979354, 66360.00470638332, 13512.43418603351, -20803.282654676754, -30209.924901714912, 10255.896777617549, 0.116, 0.9560000000000001, 0.262, 192.0, 0.0, 0.0, 0.0, 0.0, 0.0, 0.0, 0.0, 0.0, 0.0, 1.69627514798332E9, 0.0, 2023-10-02 15:32:27.983
218.0, 17918.745329230467, 16570.532807175256, 44083.2056502349, 66326.47708970036, 13520.257296592868, -20803.550875610217, -30221.883084998502, 10246.039658312757, 0.116, 0.9560000000000001, 0.262, 192.0, 0.0, 0.0, 0.0, 0.0, 0.0, 0.0, 0.0, 0.0, 0.0, 1.696275147983332E9, 0.0, 2023-10-02 15:32:27.983
219.0, 17907.524753513902, 16558.015830280285, 44089.1065107711, 66325.98535132234, 13513.14944185608, -20810.569323369185, -30212.048317438166, 10253.326327005188, 0.112, 0.9540000000000001, 0.264, 192.0, 3.0, 128.0, 29.0, 208.0, 8.0, 64.0, 0.0, 0.0, 0.0, 1.69627514798335E9, 0.0, 2023-10-02 15:32:27.983
220.0, 17900.93098889959, 16553.836054067142, 44090.17939450496, 66371.0688198887, 13505.639255719097, -20811.753965825315, -30187.997840404256, 10276.393327283064, 0.112, 0.9540000000000001, 0.264, 192.0, 0.0, 0.0, 0.0, 0.0, 0.0, 0.0, 0.0, 0.0, 0.0, 1.6962751479833758E9, 0.0, 2023-10-02 15:32:27.983
221.0, 17903.859067423233, 16559.222824480872, 44076.14249898702, 66381.68589850496, 13503.00174987337, -20810.569323369185, -30188.35546831554, 10280.059013373735, 0.112, 0.9540000000000001, 0.264, 192.0, 0.0, 0.0, 0.0, 0.0, 0.0, 0.0, 0.0, 0.0, 0.0, 1.696275147983389E9, 0.0, 2023-10-02 15:32:27.983
222.0, 17915.21375360653, 16567.537673418246, 44071.11335648458, 66332.40030198102, 13512.121261611137, -20806.2107332004, -30218.59737856357, 10254.332155505677, 0.112, 0.9540000000000001, 0.264, 192.0, 0.0, 0.0, 0.0, 0.0, 0.0, 0.0, 0.0, 0.0, 0.0, 1.6962751479834015E9, 0.0, 2023-10-02 15:32:27.983
223.0, 17910.78810820438, 16560.273356470272, 44083.160946745986, 66313.17780174945, 13510.087252865704, -20808.110631479103, -30222.441878609883, 10249.21360602541, 0.112, 0.9540000000000001, 0.264, 192.0, 0.0, 0.0, 0.0, 0.0, 0.0, 0.0, 0.0, 0.0, 0.0, 1.696275147983412E9, 0.0, 2023-10-02 15:32:27.983
224.0, 17901.60154123325, 16555.22186222337, 44084.36794094658, 66343.62087769758, 13498.754918426863, -20814.59263737114, -30207.287395869185, 10263.049335843247, 0.112, 0.9540000000000001, 0.264, 192.0, 0.0, 0.0, 0.0, 0.0, 0.0, 0.0, 0.0, 0.0, 0.0, 1.6962751479834218E9, 0.0, 2023-10-02 15:32:27.983
225.0, 17909.245837836963, 16565.637775139545, 44077.93063854345, 66340.78220615175, 13503.895819651583, -20808.937646023947, -30234.17654444892, 10245.950251334936, 0.112, 0.9540000000000001, 0.264, 192.0, 0.0, 0.0, 0.0, 0.0, 0.0, 0.0, 0.0, 0.0, 0.0, 1.6962751479834352E9, 0.0, 2023-10-02 15:32:27.983
226.0, 17912.553896016347, 16564.85546408361, 44077.79652807672, 66316.64232214002, 13509.260238320856, -20811.753965825315, -30245.240657954295, 10241.055219299224, 0.112, 0.9540000000000001, 0.264, 192.0, 0.0, 0.0, 0.0, 0.0, 0.0, 0.0, 0.0, 0.0, 0.0, 1.696275147983449E9, 0.0, 2023-10-02 15:32:27.983
227.0, 17914.8784774397, 16562.37442044907, 44087.988923548335, 66293.66472883997, 13514.19997384548, -20813.3632914261, -30253.957838291866, 10231.063989527702, 0.112, 0.9540000000000001, 0.264, 192.0, 0.0, 0.0, 0.0, 0.0, 0.0, 0.0, 0.0, 0.0, 0.0, 1.6962751479834595E9, 0.0, 2023-10-02 15:32:27.983
228.0, 17908.64234073667, 16554.953641289907, 44092.79454860622, 66317.42463319596, 13508.3885202871, -20817.520715894785, -30255.187184236907, 10231.667486627995, 0.112, 0.9540000000000001, 0.264, 192.0, 0.0, 0.0, 0.0, 0.0, 0.0, 0.0, 0.0, 0.0, 0.0, 1.6962751479834704E9, 0.0, 2023-10-02 15:32:27.983
229.0, 17908.485878525484, 16554.059571511694, 44087.094853770126, 66349.72290393387, 13502.241790561891, -20823.42157643099, -30254.02489352523, 10238.864748342605, 0.108, 0.964, 0.258, 192.0, 3.0, 96.0, 30.0, 32.0, 8.0, 16.0, 0.0, 0.0, 0.0, 1.6962751479834816E9, 0.0, 2023-10-02 15:32:27.983
230.0, 17920.399358320163, 16564.18491174995, 44077.12597574305, 66326.41003446699, 13509.126127854124, -20820.471146162887, -30269.537004177215, 10231.421617438988, 0.108, 0.964, 0.258, 192.0, 0.0, 0.0, 0.0, 0.0, 0.0, 0.0, 0.0, 0.0, 0.0, 1.6962751479834943E9, 0.0, 2023-10-02 15:32:27.983
231.0, 17921.53929728738, 16566.151865262018, 44076.43307166494, 66295.67638584094, 13509.349645298678, -20816.961922283404, -30277.13659729202, 10225.341942947143, 0.108, 0.964, 0.258, 192.0, 0.0, 0.0, 0.0, 0.0, 0.0, 0.0, 0.0, 0.0, 0.0, 1.6962751479835055E9, 0.0, 2023-10-02 15:32:27.983
232.0, 17910.989273904477, 16558.865196569586, 44073.57204837466, 66304.01358652278, 13492.675243935018, -20832.474032935388, -30282.65747817248, 10218.614067866096, 0.108, 0.964, 0.258, 192.0, 0.0, 0.0, 0.0, 0.0, 0.0, 0.0, 0.0, 0.0, 0.0, 1.6962751479835207E9, 0.0, 2023-10-02 15:32:27.983
233.0, 17918.0300734079, 16567.068286784684, 44076.522478642764, 66347.28656378825, 13504.164040585047, -20826.394358443544, -30267.950030320888, 10236.271945985789, 0.108, 0.964, 0.258, 192.0, 0.0, 0.0, 0.0, 0.0, 0.0, 0.0, 0.0, 0.0, 0.0, 1.6962751479835336E9, 0.0, 2023-10-02 15:32:27.983
234.0, 17919.818212964325, 16568.208225751903, 44069.90636228399, 66340.46928172938, 13513.954104656472, -20822.303989208223, -30270.0957977886, 10238.261251242311, 0.108, 0.964, 0.258, 192.0, 0.0, 0.0, 0.0, 0.0, 0.0, 0.0, 0.0, 0.0, 0.0, 1.696275147983548E9, 0.0, 2023-10-02 15:32:27.983
235.0, 17925.808480478347, 16572.052725798218, 44064.631350592535, 66302.06898475515, 13519.519689025843, -20823.734500853363, -30287.53015846374, 10222.2126987234, 0.108, 0.964, 0.258, 192.0, 0.0, 0.0, 0.0, 0.0, 0.0, 0.0, 0.0, 0.0, 0.0, 1.69627514798356E9, 0.0, 2023-10-02 15:32:27.983
236.0, 17920.35465483125, 16566.08481002865, 44076.61188562059, 66312.5072494158, 13518.804433203273, -20821.096995007636, -30289.497111975805, 10222.860899312604, 0.108, 0.964, 0.258, 192.0, 0.0, 0.0, 0.0, 0.0, 0.0, 0.0, 0.0, 0.0, 0.0, 1.6962751479836185E9, 0.0, 2023-10-02 15:32:27.983
237.0, 17908.39647154766, 16554.484254656345, 44076.455423409396, 66362.03871512874, 13511.204840088469, -20821.40991943001, -30273.046228056697, 10244.251518756333, 0.108, 0.964, 0.258, 192.0, 0.0, 0.0, 0.0, 0.0, 0.0, 0.0, 0.0, 0.0, 0.0, 1.696275147983631E9, 0.0, 2023-10-02 15:32:27.983
238.0, 17907.390643047172, 16553.500777900314, 44056.875295266545, 66361.90460466202, 13509.640217976597, -20825.92497180998, -30271.50395768928, 10247.067838557701, 0.108, 0.964, 0.258, 192.0, 0.0, 0.0, 0.0, 0.0, 0.0, 0.0, 0.0, 0.0, 0.0, 1.6962751479836447E9, 0.0, 2023-10-02 15:32:27.983
239.0, 17914.54320127287, 16559.93808030344, 44052.51670509776, 66317.31287447368, 13520.994904159894, -20822.59456188614, -30292.492245732814, 10226.146605747534, 0.108, 0.96, 0.258, 192.0, 3.0, 96.0, 30.0, 0.0, 8.0, 16.0, 0.0, 0.0, 0.0, 1.696275147983693E9, 0.0, 2023-10-02 15:32:27.983
240.0, 17914.833773950788, 16559.714562858888, 44066.21832444886, 66322.90081058751, 13523.3418373277, -20817.721881594884, -30283.082161317132, 10232.874480828581, 0.108, 0.96, 0.258, 192.0, 0.0, 0.0, 0.0, 0.0, 0.0, 0.0, 0.0, 0.0, 0.0, 1.6962751479837203E9, 0.0, 2023-10-02 15:32:27.983
241.0, 17905.960131402033, 16549.99155402083, 44063.35730115858, 66357.59071798214, 13512.05420637777, -20820.851125818626, -30270.118149533053, 10245.771437379293, 0.108, 0.96, 0.258, 192.0, 0.0, 0.0, 0.0, 0.0, 0.0, 0.0, 0.0, 0.0, 0.0, 1.6962751479837444E9, 0.0, 2023-10-02 15:32:27.983
242.0, 17907.278884324896, 16551.243251710326, 44054.26014116528, 66367.22431984238, 13513.283552322811, -20821.298160707734, -30259.054036027675, 10258.824856141193, 0.108, 0.96, 0.258, 192.0, 0.0, 0.0, 0.0, 0.0, 0.0, 0.0, 0.0, 0.0, 0.0, 1.6962751484622135E9, 0.0, 2023-10-02 15:32:28.462
243.0, 17914.833773950788, 16558.306402958206, 44049.99095797431, 66331.23801126934, 13529.756787986373, -20818.951227539925, -30266.18424250892, 10251.337021748664, 0.108, 0.96, 0.258, 192.0, 0.0, 0.0, 0.0, 0.0, 0.0, 0.0, 0.0, 0.0, 0.0, 1.696275148462401E9, 0.0, 2023-10-02 15:32:28.462
244.0, 17917.270114096416, 16561.36859194858, 44057.61290283357, 66319.07866228565, 13535.30002061129, -20814.905561793516, -30270.542832677704, 10241.993992566348, 0.108, 0.96, 0.258, 192.0, 0.0, 0.0, 0.0, 0.0, 0.0, 0.0, 0.0, 0.0, 0.0, 1.6962751484624863E9, 0.0, 2023-10-02 15:32:28.462
245.0, 17906.027186635398, 16551.89145229953, 44059.62455983455, 66359.08828486066, 13526.560488529265, -20812.290407692242, -30255.03072202572, 10255.494446217352, 0.108, 0.96, 0.258, 192.0, 0.0, 0.0, 0.0, 0.0, 0.0, 0.0, 0.0, 0.0, 0.0, 1.6962751484624984E9, 0.0, 2023-10-02 15:32:28.462
246.0, 17906.563628502325, 16550.349181932113, 44047.86754225106, 66369.97358441039, 13525.666418751052, -20816.112555994103, -30255.343646448095, 10255.31563226171, 0.108, 0.96, 0.258, 192.0, 0.0, 0.0, 0.0, 0.0, 0.0, 0.0, 0.0, 0.0, 0.0, 1.696275148462509E9, 0.0, 2023-10-02 15:32:28.462
247.0, 17910.676349482103, 16551.533824388247, 44042.16784741495, 66338.6587904285, 13530.96378218696, -20817.900695550525, -30261.579783151126, 10246.509044946319, 0.108, 0.96, 0.258, 192.0, 0.0, 0.0, 0.0, 0.0, 0.0, 0.0, 0.0, 0.0, 0.0, 1.69627514846252E9, 0.0, 2023-10-02 15:32:28.462
248.0, 17915.79489896237, 16556.004173279307, 44050.32623414114, 66302.11368824408, 13540.865604980661, -20806.255436689313, -30285.09381831811, 10220.64807661153, 0.108, 0.96, 0.258, 192.0, 0.0, 0.0, 0.0, 0.0, 0.0, 0.0, 0.0, 0.0, 0.0, 1.6962751484625485E9, 0.0, 2023-10-02 15:32:28.462
249.0, 17909.089375625776, 16550.7068098434, 44061.85973428008, 66335.97658109386, 13540.373866602644, -20798.477029618865, -30271.07927454463, 10232.002762794824, 0.106, 0.9580000000000001, 0.266, 192.0, 3.0, 80.0, 29.0, 240.0, 8.0, 80.0, 0.0, 0.0, 0.0, 1.6962751484625788E9, 0.0, 2023-10-02 15:32:28.462
250.0, 17907.860029680734, 16550.684458098945, 44055.02010047676, 66357.27779355977, 13540.01623869136, -20793.3584801386, -30272.062751300666, 10235.02024829629, 0.106, 0.9580000000000001, 0.266, 192.0, 0.0, 0.0, 0.0, 0.0, 0.0, 0.0, 0.0, 0.0, 0.0, 1.6962751484626057E9, 0.0, 2023-10-02 15:32:28.462
251.0, 17911.21279134903, 16551.623231366066, 44049.4992195963, 66337.69766541693, 13547.124093428147, -20791.816209771183, -30276.488396702814, 10233.299163973232, 0.106, 0.9580000000000001, 0.266, 192.0, 0.0, 0.0, 0.0, 0.0, 0.0, 0.0, 0.0, 0.0, 0.0, 1.6962751484626458E9, 0.0, 2023-10-02 15:32:28.462
252.0, 17913.045634394366, 16548.114007486583, 44050.505048096784, 66306.91931330196, 13554.276651653845, -20792.419706871475, -30292.51459747727, 10216.848280054126, 0.106, 0.9580000000000001, 0.266, 192.0, 0.0, 0.0, 0.0, 0.0, 0.0, 0.0, 0.0, 0.0, 0.0, 1.6962751484626555E9, 0.0, 2023-10-02 15:32:28.462
253.0, 17900.752174943947, 16531.23844042283, 44058.23875167832, 66344.93963062044, 13542.989020703915, -20800.198113941922, -30271.012219311266, 10235.511986674308, 0.106, 0.9580000000000001, 0.266, 192.0, 0.0, 0.0, 0.0, 0.0, 0.0, 0.0, 0.0, 0.0, 0.0, 1.696275148462665E9, 0.0, 2023-10-02 15:32:28.462
254.0, 17903.277922067395, 16527.975085732352, 44050.505048096784, 66380.07657290419, 13537.088160167714, -20802.88032327656, -30256.148309248485, 10250.018268825803, 0.106, 0.9580000000000001, 0.266, 192.0, 0.0, 0.0, 0.0, 0.0, 0.0, 0.0, 0.0, 0.0, 0.0, 1.6962751484626768E9, 0.0, 2023-10-02 15:32:28.462
255.0, 17920.108785642242, 16535.284106169238, 44037.42927759043, 66351.86867140158, 13538.429264835033, -20801.852143031614, -30272.57684142314, 10238.171844264489, 0.106, 0.9580000000000001, 0.266, 192.0, 0.0, 0.0, 0.0, 0.0, 0.0, 0.0, 0.0, 0.0, 0.0, 1.6962751484626863E9, 0.0, 2023-10-02 15:32:28.462
0.0, 17926.724902001013, 16532.98187649034, 44040.312652625165, 66310.27207497026, 13539.233927635423, -20795.07956446166, -30299.823617914157, 10213.651980597018, 0.106, 0.9580000000000001, 0.266, 192.0, 0.0, 0.0, 0.0, 0.0, 0.0, 0.0, 0.0, 0.0, 0.0, 1.6962751484626963E9, 0.0, 2023-10-02 15:32:28.462
1.0, 17929.585925291292, 16529.6514665665, 44054.349548143095, 66332.60146768112, 13540.977363702938, -20789.11164869209, -30291.441713743417, 10222.659733612507, 0.106, 0.9580000000000001, 0.266, 192.0, 0.0, 0.0, 0.0, 0.0, 0.0, 0.0, 0.0, 0.0, 0.0, 1.6962751484627056E9, 0.0, 2023-10-02 15:32:28.462
2.0, 17937.78901550639, 16530.590239833622, 44057.925827255945, 66368.14074136504, 13547.772294017352, -20785.714183534885, -30286.0996468186, 10230.818120338694, 0.106, 0.9580000000000001, 0.266, 192.0, 0.0, 0.0, 0.0, 0.0, 0.0, 0.0, 0.0, 0.0, 0.0, 1.6962751484627156E9, 0.0, 2023-10-02 15:32:28.462
3.0, 17940.538280074394, 16524.354103130594, 44049.92390274095, 66370.24180534385, 13547.63818355062, -20789.82690451466, -30279.617640926557, 10240.898757088036, 0.10400000000000001, 0.9540000000000001, 0.272, 192.0, 3.0, 64.0, 29.0, 208.0, 8.0, 128.0, 0.0, 0.0, 0.0, 1.6962751484627252E9, 0.0, 2023-10-02 15:32:28.462
4.0, 17952.429408124615, 16527.617457821067, 44050.81797251916, 66343.21854629739, 13555.193073176513, -20784.820113756672, -30283.640954928513, 10235.377876207576, 0.10400000000000001, 0.9540000000000001, 0.272, 192.0, 0.0, 0.0, 0.0, 0.0, 0.0, 0.0, 0.0, 0.0, 0.0, 1.6962751484627354E9, 0.0, 2023-10-02 15:32:28.462
5.0, 17949.769550534435, 16518.341483872115, 44058.842248778616, 66352.5615754797, 13552.510863841875, -20784.216616656377, -30286.971364852354, 10228.381780193065, 0.10400000000000001, 0.9540000000000001, 0.272, 192.0, 0.0, 0.0, 0.0, 0.0, 0.0, 0.0, 0.0, 0.0, 0.0, 1.6962751484627492E9, 0.0, 2023-10-02 15:32:28.462
6.0, 17946.081512699307, 16510.83129773513, 44065.14544071501, 66403.99293947135, 13546.788817261317, -20788.82107601417, -30270.051094299688, 10246.2184722684, 0.10400000000000001, 0.9540000000000001, 0.272, 192.0, 0.0, 0.0, 0.0, 0.0, 0.0, 0.0, 0.0, 0.0, 0.0, 1.6962751484627588E9, 0.0, 2023-10-02 15:32:28.462
7.0, 17957.480902371517, 16520.375492617546, 44057.03175747774, 66408.15036394005, 13548.755770773385, -20787.949357980415, -30266.631277398024, 10251.873463615593, 0.10400000000000001, 0.9540000000000001, 0.272, 192.0, 0.0, 0.0, 0.0, 0.0, 0.0, 0.0, 0.0, 0.0, 0.0, 1.6962751484627683E9, 0.0, 2023-10-02 15:32:28.462
8.0, 17958.21850993854, 16518.07326293865, 44049.543923085206, 66363.02219188478, 13550.20863416298, -20789.31281439219, -30288.08895207512, 10231.01928603879, 0.10400000000000001, 0.9540000000000001, 0.272, 192.0, 0.0, 0.0, 0.0, 0.0, 0.0, 0.0, 0.0, 0.0, 0.0, 1.696275148462778E9, 0.0, 2023-10-02 15:32:28.462
9.0, 17959.64902158368, 16517.380358860537, 44065.413661648476, 66361.83754942866, 13554.008430720382, -20787.099991691113, -30287.865434630567, 10229.40996043801, 0.10400000000000001, 0.9540000000000001, 0.272, 192.0, 0.0, 0.0, 0.0, 0.0, 0.0, 0.0, 0.0, 0.0, 0.0, 1.6962751484627876E9, 0.0, 2023-10-02 15:32:28.462
10.0, 17959.31374541685, 16514.854611737086, 44080.2552199668, 66398.51676207982, 13556.06479121027, -20785.378907368053, -30278.388294981516, 10239.915280332003, 0.10400000000000001, 0.9540000000000001, 0.272, 192.0, 0.0, 0.0, 0.0, 0.0, 0.0, 0.0, 0.0, 0.0, 0.0, 1.6962751484627974E9, 0.0, 2023-10-02 15:32:28.462
11.0, 17961.727733818025, 16516.64275129351, 44080.791661833726, 66410.65375931904, 13553.2484714089, -20782.853160244606, -30271.12397803354, 10250.755876392828, 0.10400000000000001, 0.9540000000000001, 0.272, 192.0, 0.0, 0.0, 0.0, 0.0, 0.0, 0.0, 0.0, 0.0, 0.0, 1.6962751484628158E9, 0.0, 2023-10-02 15:32:28.462
12.0, 17949.166053434143, 16507.277370366737, 44065.614827348574, 66379.67424150399, 13540.73149451393, -20790.855084759605, -30275.057885057675, 10246.039658312757, 0.10400000000000001, 0.9540000000000001, 0.272, 192.0, 0.0, 0.0, 0.0, 0.0, 0.0, 0.0, 0.0, 0.0, 0.0, 1.6962751484628255E9, 0.0, 2023-10-02 15:32:28.462
13.0, 17949.03194296741, 16508.864344223064, 44065.21249594838, 66362.28458431776, 13545.224195149445, -20788.843427758628, -30277.27070775875, 10239.334134976165, 0.10400000000000001, 0.9540000000000001, 0.272, 192.0, 0.0, 0.0, 0.0, 0.0, 0.0, 0.0, 0.0, 0.0, 0.0, 1.6962751484628353E9, 0.0, 2023-10-02 15:32:28.462
14.0, 17943.667524298136, 16503.723442998344, 44075.650760609, 66393.30880562172, 13545.335953871723, -20790.028070214757, -30265.73720761981, 10249.772399636793, 0.098, 0.9440000000000001, 0.272, 192.0, 3.0, 16.0, 29.0, 128.0, 8.0, 128.0, 0.0, 0.0, 0.0, 1.6962751484628448E9, 0.0, 2023-10-02 15:32:28.462
15.0, 17954.910451759155, 16513.044120436207, 44074.421414663964, 66404.86465750512, 13546.811169005772, -20790.273939403767, -30265.17841400843, 10252.208739782422, 0.098, 0.9440000000000001, 0.272, 192.0, 0.0, 0.0, 0.0, 0.0, 0.0, 0.0, 0.0, 0.0, 0.0, 1.696275148462855E9, 0.0, 2023-10-02 15:32:28.462
16.0, 17959.537262861402, 16520.040216450718, 44065.883048282034, 66365.72675296388, 13546.654706794585, -20790.229235914856, -30282.79158863921, 10234.260288984811, 0.098, 0.9440000000000001, 0.272, 192.0, 0.0, 0.0, 0.0, 0.0, 0.0, 0.0, 0.0, 0.0, 0.0, 1.6962751484628649E9, 0.0, 2023-10-02 15:32:28.462
17.0, 17957.480902371517, 16519.548478072702, 44066.307731426685, 66333.29437175923, 13548.934584729026, -20788.284634147243, -30305.99269938382, 10208.779300305761, 0.098, 0.9440000000000001, 0.272, 192.0, 0.0, 0.0, 0.0, 0.0, 0.0, 0.0, 0.0, 0.0, 0.0, 1.6962751484628744E9, 0.0, 2023-10-02 15:32:28.462
18.0, 17947.288506899895, 16512.64178903601, 44077.215382720875, 66370.33121232167, 13549.828654507239, -20783.881340489548, -30294.36979226706, 10222.346809190132, 0.098, 0.9440000000000001, 0.272, 192.0, 0.0, 0.0, 0.0, 0.0, 0.0, 0.0, 0.0, 0.0, 0.0, 1.696275148462884E9, 0.0, 2023-10-02 15:32:28.462
