%OpenBCI Raw EEG Data
%Number of channels = 8
%Sample Rate = 250 Hz
%Board = OpenBCI_GUI$BoardCytonSerial
Sample Index, EXG Channel 0, EXG Channel 1, EXG Channel 2, EXG Channel 3, EXG Channel 4, EXG Channel 5, EXG Channel 6, EXG Channel 7, Accel Channel 0, Accel Channel 1, Accel Channel 2, Other, Other, Other, Other, Other, Other, Other, Analog Channel 0, Analog Channel 1, Analog Channel 2, Timestamp, Other, Timestamp (Formatted)
161.0, -187500.02235174447, 187500.0, 15776.442381911564, 66716.13505078973, 187500.0, 187500.0, -187500.02235174447, 31767.260344893977, 0.0, 0.0, 0.0, 192.0, 0.0, 0.0, 0.0, 0.0, 0.0, 0.0, 0.0, 0.0, 0.0, 1.6989585220227673E9, 0.0, 2023-11-02 16:55:22.022
162.0, -187500.02235174447, 187500.0, 15780.242178468965, 66705.54032391791, 187500.0, 187500.0, -187500.02235174447, 31770.970734473558, 0.0, 0.0, 0.0, 192.0, 0.0, 0.0, 0.0, 0.0, 0.0, 0.0, 0.0, 0.0, 0.0, 1.698958522022828E9, 0.0, 2023-11-02 16:55:22.022
163.0, -187500.02235174447, 187500.0, 15782.79027733687, 66719.71132990258, 187500.0, 187500.0, -187500.02235174447, 31771.283658895933, 0.0, 0.0, 0.0, 192.0, 0.0, 0.0, 0.0, 0.0, 0.0, 0.0, 0.0, 0.0, 0.0, 1.698958522022838E9, 0.0, 2023-11-02 16:55:22.022
164.0, -187500.02235174447, 187500.0, 15784.779582593392, 66727.69090267312, 187500.0, 187500.0, -187500.02235174447, 31772.021266462954, 0.0, 0.0, 0.0, 192.0, 0.0, 0.0, 0.0, 0.0, 0.0, 0.0, 0.0, 0.0, 0.0, 1.6989585220228477E9, 0.0, 2023-11-02 16:55:22.022
165.0, -187500.02235174447, 187500.0, 15792.088603030277, 66715.62096066725, 187500.0, 187500.0, -187500.02235174447, 31779.598507833307, 0.0, 0.0, 0.0, 192.0, 0.0, 0.0, 0.0, 0.0, 0.0, 0.0, 0.0, 0.0, 0.0, 1.6989585220228572E9, 0.0, 2023-11-02 16:55:22.022
166.0, -187500.02235174447, 187500.0, 15795.150792020655, 66687.34600393129, 187500.0, 187500.0, -187500.02235174447, 31784.225318935554, 0.0, 0.0, 0.0, 192.0, 0.0, 0.0, 0.0, 0.0, 0.0, 0.0, 0.0, 0.0, 0.0, 1.6989585220228755E9, 0.0, 2023-11-02 16:55:22.022
167.0, -187500.02235174447, 187500.0, 15794.681405387093, 66688.50829464296, 187500.0, 187500.0, -187500.02235174447, 31783.688877068627, 0.0, 0.0, 0.0, 192.0, 0.0, 0.0, 0.0, 0.0, 0.0, 0.0, 0.0, 0.0, 0.0, 1.6989585220228856E9, 0.0, 2023-11-02 16:55:22.022
168.0, -187500.02235174447, 187500.0, 15801.31987349032, 66712.78228912143, 187500.0, 187500.0, -187500.02235174447, 31788.315688170875, 0.0, 0.0, 0.0, 192.0, 0.0, 0.0, 0.0, 0.0, 0.0, 0.0, 0.0, 0.0, 0.0, 1.698958522022895E9, 0.0, 2023-11-02 16:55:22.022
169.0, -187500.02235174447, 187500.0, 15812.60750444025, 66707.68609138562, 187500.0, 187500.0, -187500.02235174447, 31799.446856909617, -0.162, 0.9480000000000001, -0.146, 192.0, 250.0, 240.0, 29.0, 160.0, 251.0, 112.0, 0.0, 0.0, 0.0, 1.6989585220229044E9, 0.0, 2023-11-02 16:55:22.022
170.0, -187500.02235174447, 187500.0, 15805.432594470096, 66686.36252717525, 187500.0, 187500.0, -187500.02235174447, 31794.01538300698, -0.162, 0.9480000000000001, -0.146, 192.0, 0.0, 0.0, 0.0, 0.0, 0.0, 0.0, 0.0, 0.0, 0.0, 1.6989585220229177E9, 0.0, 2023-11-02 16:55:22.022
171.0, -187500.02235174447, 187500.0, 15802.973902580012, 66676.57246310383, 187500.0, 187500.0, -187500.02235174447, 31793.858920795792, -0.162, 0.9480000000000001, -0.146, 192.0, 0.0, 0.0, 0.0, 0.0, 0.0, 0.0, 0.0, 0.0, 0.0, 1.698958522022928E9, 0.0, 2023-11-02 16:55:22.022
172.0, -187500.02235174447, 187500.0, 15817.457832987051, 66704.89212332871, 187500.0, 187500.0, -187500.02235174447, 31808.454609925106, -0.162, 0.9480000000000001, -0.146, 192.0, 0.0, 0.0, 0.0, 0.0, 0.0, 0.0, 0.0, 0.0, 0.0, 1.6989585220229383E9, 0.0, 2023-11-02 16:55:22.022
173.0, -187500.02235174447, 187500.0, 15814.999141096967, 66705.76384136247, 187500.0, 187500.0, -187500.02235174447, 31807.11350525779, -0.162, 0.9480000000000001, -0.146, 192.0, 0.0, 0.0, 0.0, 0.0, 0.0, 0.0, 0.0, 0.0, 0.0, 1.698958522022948E9, 0.0, 2023-11-02 16:55:22.022
174.0, -187500.02235174447, 187500.0, 15814.932085863602, 66675.09724796978, 187500.0, 187500.0, -187500.02235174447, 31803.984261034046, -0.162, 0.9480000000000001, -0.146, 192.0, 0.0, 0.0, 0.0, 0.0, 0.0, 0.0, 0.0, 0.0, 0.0, 1.6989585220229578E9, 0.0, 2023-11-02 16:55:22.022
175.0, -187500.02235174447, 187500.0, 15811.333455006297, 66665.86597750973, 187500.0, 187500.0, -187500.02235174447, 31800.251519710007, -0.162, 0.9480000000000001, -0.146, 192.0, 0.0, 0.0, 0.0, 0.0, 0.0, 0.0, 0.0, 0.0, 0.0, 1.6989585220229676E9, 0.0, 2023-11-02 16:55:22.022
176.0, -187500.02235174447, 187500.0, 15809.344149749775, 66686.20606496406, 187500.0, 187500.0, -187500.02235174447, 31800.29622319892, -0.162, 0.9480000000000001, -0.146, 192.0, 0.0, 0.0, 0.0, 0.0, 0.0, 0.0, 0.0, 0.0, 0.0, 1.6989585220229774E9, 0.0, 2023-11-02 16:55:22.022
177.0, -187500.02235174447, 187500.0, 15817.0331498424, 66692.37514643374, 187500.0, 187500.0, -187500.02235174447, 31807.828761080356, -0.162, 0.9480000000000001, -0.146, 192.0, 0.0, 0.0, 0.0, 0.0, 0.0, 0.0, 0.0, 0.0, 0.0, 1.6989585220230715E9, 0.0, 2023-11-02 16:55:22.023
178.0, -187500.02235174447, 187500.0, 15809.41120498314, 66663.3849338752, 187500.0, 187500.0, -187500.02235174447, 31798.977470276055, -0.162, 0.9480000000000001, -0.146, 192.0, 0.0, 0.0, 0.0, 0.0, 0.0, 0.0, 0.0, 0.0, 0.0, 1.6989585220230815E9, 0.0, 2023-11-02 16:55:22.023
179.0, -187500.02235174447, 187500.0, 15796.290730987876, 66639.75913998594, 187500.0, 187500.0, -187500.02235174447, 31787.24280443702, -0.152, 0.962, -0.158, 192.0, 251.0, 64.0, 30.0, 16.0, 251.0, 16.0, 0.0, 0.0, 0.0, 1.6989585220230913E9, 0.0, 2023-11-02 16:55:22.023
180.0, -187500.02235174447, 187500.0, 15803.51034444694, 66663.5860995753, 187500.0, 187500.0, -187500.02235174447, 31795.37883941875, -0.152, 0.962, -0.158, 192.0, 0.0, 0.0, 0.0, 0.0, 0.0, 0.0, 0.0, 0.0, 0.0, 1.698958522023102E9, 0.0, 2023-11-02 16:55:22.023
181.0, -187500.02235174447, 187500.0, 15802.392757224174, 66668.57053858883, 187500.0, 187500.0, -187500.02235174447, 31793.76951381797, -0.152, 0.962, -0.158, 192.0, 0.0, 0.0, 0.0, 0.0, 0.0, 0.0, 0.0, 0.0, 0.0, 1.698958522023116E9, 0.0, 2023-11-02 16:55:22.023
182.0, -187500.02235174447, 187500.0, 15804.627931669706, 66635.66877075062, 187500.0, 187500.0, -187500.02235174447, 31793.478941140052, -0.152, 0.962, -0.158, 192.0, 0.0, 0.0, 0.0, 0.0, 0.0, 0.0, 0.0, 0.0, 0.0, 1.698958522023126E9, 0.0, 2023-11-02 16:55:22.023
183.0, -187500.02235174447, 187500.0, 15795.1284402762, 66609.60663671573, 187500.0, 187500.0, -187500.02235174447, 31782.23601367903, -0.152, 0.962, -0.158, 192.0, 0.0, 0.0, 0.0, 0.0, 0.0, 0.0, 0.0, 0.0, 0.0, 1.698958522023138E9, 0.0, 2023-11-02 16:55:22.023
184.0, -187500.02235174447, 187500.0, 15813.255705029453, 66634.26061084993, 187500.0, 187500.0, -187500.02235174447, 31797.52460688646, -0.152, 0.962, -0.158, 192.0, 0.0, 0.0, 0.0, 0.0, 0.0, 0.0, 0.0, 0.0, 0.0, 1.698958522023148E9, 0.0, 2023-11-02 16:55:22.023
185.0, -187500.02235174447, 187500.0, 15820.855298144257, 66664.25665190896, 187500.0, 187500.0, -187500.02235174447, 31804.92303430117, -0.152, 0.962, -0.158, 192.0, 0.0, 0.0, 0.0, 0.0, 0.0, 0.0, 0.0, 0.0, 0.0, 1.6989585220231576E9, 0.0, 2023-11-02 16:55:22.023
186.0, -187500.02235174447, 187500.0, 15816.921391120124, 66644.16243364364, 187500.0, 187500.0, -187500.02235174447, 31803.023136022468, -0.152, 0.962, -0.158, 192.0, 0.0, 0.0, 0.0, 0.0, 0.0, 0.0, 0.0, 0.0, 0.0, 1.698958522023169E9, 0.0, 2023-11-02 16:55:22.023
187.0, -187500.02235174447, 187500.0, 15820.877649888713, 66625.31991306781, 187500.0, 187500.0, -187500.02235174447, 31804.319537200874, -0.152, 0.962, -0.158, 192.0, 0.0, 0.0, 0.0, 0.0, 0.0, 0.0, 0.0, 0.0, 0.0, 1.698958522023179E9, 0.0, 2023-11-02 16:55:22.023
188.0, -187500.02235174447, 187500.0, 15825.437405757595, 66640.60850627524, 187500.0, 187500.0, -187500.02235174447, 31807.91816805818, -0.152, 0.962, -0.158, 192.0, 0.0, 0.0, 0.0, 0.0, 0.0, 0.0, 0.0, 0.0, 0.0, 1.6989585220231893E9, 0.0, 2023-11-02 16:55:22.023
189.0, -187500.02235174447, 187500.0, 15827.60552496976, 66663.25082340847, 187500.0, 187500.0, -187500.02235174447, 31811.58385414885, -0.146, 0.97, -0.158, 192.0, 251.0, 112.0, 30.0, 80.0, 251.0, 16.0, 0.0, 0.0, 0.0, 1.6989585220231988E9, 0.0, 2023-11-02 16:55:22.023
190.0, -187500.02235174447, 187500.0, 15820.989408610989, 66639.96030568604, 187500.0, 187500.0, -187500.02235174447, 31801.01147902149, -0.146, 0.97, -0.158, 192.0, 0.0, 0.0, 0.0, 0.0, 0.0, 0.0, 0.0, 0.0, 0.0, 1.698958522023209E9, 0.0, 2023-11-02 16:55:22.023
191.0, -187500.02235174447, 187500.0, 15825.213888313043, 66614.18874432908, 187500.0, 187500.0, -187500.02235174447, 31800.117409243278, -0.146, 0.97, -0.158, 192.0, 0.0, 0.0, 0.0, 0.0, 0.0, 0.0, 0.0, 0.0, 0.0, 1.6989585220232196E9, 0.0, 2023-11-02 16:55:22.023
192.0, -187500.02235174447, 187500.0, 15827.51611799194, 66630.17024161461, 187500.0, 187500.0, -187500.02235174447, 31802.86667381128, -0.146, 0.97, -0.158, 192.0, 0.0, 0.0, 0.0, 0.0, 0.0, 0.0, 0.0, 0.0, 0.0, 1.698958522023258E9, 0.0, 2023-11-02 16:55:22.023
193.0, -187500.02235174447, 187500.0, 15823.559859223351, 66645.0788551663, 187500.0, 187500.0, -187500.02235174447, 31798.686897598138, -0.146, 0.97, -0.158, 192.0, 0.0, 0.0, 0.0, 0.0, 0.0, 0.0, 0.0, 0.0, 0.0, 1.698958522023268E9, 0.0, 2023-11-02 16:55:22.023
194.0, -187500.02235174447, 187500.0, 15829.192498826087, 66636.47343355101, 187500.0, 187500.0, -187500.02235174447, 31805.168903490176, -0.146, 0.97, -0.158, 192.0, 0.0, 0.0, 0.0, 0.0, 0.0, 0.0, 0.0, 0.0, 0.0, 1.698958522023278E9, 0.0, 2023-11-02 16:55:22.023
195.0, -187500.02235174447, 187500.0, 15822.37521676722, 66606.47739249199, 187500.0, 187500.0, -187500.02235174447, 31796.272909196963, -0.146, 0.97, -0.158, 192.0, 0.0, 0.0, 0.0, 0.0, 0.0, 0.0, 0.0, 0.0, 0.0, 1.6989585220232933E9, 0.0, 2023-11-02 16:55:22.023
196.0, -187500.02235174447, 187500.0, 15823.045769100878, 66598.07313657679, 187500.0, 187500.0, -187500.02235174447, 31793.72481032906, -0.146, 0.97, -0.158, 192.0, 0.0, 0.0, 0.0, 0.0, 0.0, 0.0, 0.0, 0.0, 0.0, 1.6989585220233033E9, 0.0, 2023-11-02 16:55:22.023
197.0, -187500.02235174447, 187500.0, 15826.286772046897, 66620.40252928765, 187500.0, 187500.0, -187500.02235174447, 31795.20002546311, -0.146, 0.97, -0.158, 192.0, 0.0, 0.0, 0.0, 0.0, 0.0, 0.0, 0.0, 0.0, 0.0, 1.698958522023313E9, 0.0, 2023-11-02 16:55:22.023
198.0, -187500.02235174447, 187500.0, 15824.096301090278, 66617.56385774181, 187500.0, 187500.0, -187500.02235174447, 31790.975545761055, -0.146, 0.97, -0.158, 192.0, 0.0, 0.0, 0.0, 0.0, 0.0, 0.0, 0.0, 0.0, 0.0, 1.6989585220233228E9, 0.0, 2023-11-02 16:55:22.023
199.0, -187500.02235174447, 187500.0, 15818.754234165459, 66585.15382828162, 187500.0, 187500.0, -187500.02235174447, 31782.995972990513, -0.138, 0.9540000000000001, -0.156, 192.0, 251.0, 176.0, 29.0, 208.0, 251.0, 32.0, 0.0, 0.0, 0.0, 1.6989585220233324E9, 0.0, 2023-11-02 16:55:22.023
200.0, -187500.02235174447, 187500.0, 15818.396606254175, 66575.65433688812, 187500.0, 187500.0, -187500.02235174447, 31780.783150289437, -0.138, 0.9540000000000001, -0.156, 192.0, 0.0, 0.0, 0.0, 0.0, 0.0, 0.0, 0.0, 0.0, 0.0, 1.69895852202335E9, 0.0, 2023-11-02 16:55:22.023
201.0, -187500.02235174447, 187500.0, 15821.950533622568, 66603.23638954597, 187500.0, 187500.0, -187500.02235174447, 31784.068856724367, -0.138, 0.9540000000000001, -0.156, 192.0, 0.0, 0.0, 0.0, 0.0, 0.0, 0.0, 0.0, 0.0, 0.0, 1.69895852202336E9, 0.0, 2023-11-02 16:55:22.023
202.0, -187500.02235174447, 187500.0, 15823.582210967805, 66599.12366856619, 187500.0, 187500.0, -187500.02235174447, 31784.493539869018, -0.138, 0.9540000000000001, -0.156, 192.0, 0.0, 0.0, 0.0, 0.0, 0.0, 0.0, 0.0, 0.0, 0.0, 1.6989585220233698E9, 0.0, 2023-11-02 16:55:22.023
203.0, -187500.02235174447, 187500.0, 15830.287734304398, 66574.17912175407, 187500.0, 187500.0, -187500.02235174447, 31788.71801957107, -0.138, 0.9540000000000001, -0.156, 192.0, 0.0, 0.0, 0.0, 0.0, 0.0, 0.0, 0.0, 0.0, 0.0, 1.6989585220233796E9, 0.0, 2023-11-02 16:55:22.023
204.0, -187500.02235174447, 187500.0, 15841.441254787596, 66579.11885727869, 187500.0, 187500.0, -187500.02235174447, 31799.178635976154, -0.138, 0.9540000000000001, -0.156, 192.0, 0.0, 0.0, 0.0, 0.0, 0.0, 0.0, 0.0, 0.0, 0.0, 1.6989585220233908E9, 0.0, 2023-11-02 16:55:22.023
205.0, -187500.02235174447, 187500.0, 15835.450987273574, 66596.06147957582, 187500.0, 187500.0, -187500.02235174447, 31798.843359809325, -0.138, 0.9540000000000001, -0.156, 192.0, 0.0, 0.0, 0.0, 0.0, 0.0, 0.0, 0.0, 0.0, 0.0, 1.6989585220234005E9, 0.0, 2023-11-02 16:55:22.023
206.0, -187500.02235174447, 187500.0, 15834.534565750906, 66604.64454944665, 187500.0, 187500.0, -187500.02235174447, 31805.548883145915, -0.138, 0.9540000000000001, -0.156, 192.0, 0.0, 0.0, 0.0, 0.0, 0.0, 0.0, 0.0, 0.0, 0.0, 1.698958522023415E9, 0.0, 2023-11-02 16:55:22.023
207.0, -187500.02235174447, 187500.0, 15840.122501864733, 66595.27916851988, 187500.0, 187500.0, -187500.02235174447, 31814.15430476121, -0.138, 0.9540000000000001, -0.156, 192.0, 0.0, 0.0, 0.0, 0.0, 0.0, 0.0, 0.0, 0.0, 0.0, 1.6989585220234342E9, 0.0, 2023-11-02 16:55:22.023
208.0, -187500.02235174447, 187500.0, 15838.982562897512, 66573.79914209833, 187500.0, 187500.0, -187500.02235174447, 31805.77240059047, -0.138, 0.9540000000000001, -0.156, 192.0, 0.0, 0.0, 0.0, 0.0, 0.0, 0.0, 0.0, 0.0, 0.0, 1.698958522023444E9, 0.0, 2023-11-02 16:55:22.023
209.0, -187500.02235174447, 187500.0, 15836.814443685347, 66564.47846466047, 187500.0, 187500.0, -187500.02235174447, 31793.791865562423, -0.146, 0.976, -0.146, 192.0, 251.0, 112.0, 30.0, 128.0, 251.0, 112.0, 0.0, 0.0, 0.0, 1.6989585220234604E9, 0.0, 2023-11-02 16:55:22.023
210.0, -187500.02235174447, 187500.0, 15836.36740879624, 66572.34627870873, 187500.0, 187500.0, -187500.02235174447, 31787.935708515135, -0.146, 0.976, -0.146, 192.0, 0.0, 0.0, 0.0, 0.0, 0.0, 0.0, 0.0, 0.0, 0.0, 1.6989585220234785E9, 0.0, 2023-11-02 16:55:22.023
211.0, -187500.02235174447, 187500.0, 15842.0894553768, 66562.33269719276, 187500.0, 187500.0, -187500.02235174447, 31793.277775439954, -0.146, 0.976, -0.146, 192.0, 0.0, 0.0, 0.0, 0.0, 0.0, 0.0, 0.0, 0.0, 0.0, 1.6989585220234892E9, 0.0, 2023-11-02 16:55:22.023
212.0, -187500.02235174447, 187500.0, 15837.328533807819, 66554.86721454469, 187500.0, 187500.0, -187500.02235174447, 31786.706362570094, -0.146, 0.976, -0.146, 192.0, 0.0, 0.0, 0.0, 0.0, 0.0, 0.0, 0.0, 0.0, 0.0, 1.6989585220234993E9, 0.0, 2023-11-02 16:55:22.023
213.0, -187500.02235174447, 187500.0, 15838.80374894187, 66568.70294436252, 187500.0, 187500.0, -187500.02235174447, 31786.9522317591, -0.146, 0.976, -0.146, 192.0, 0.0, 0.0, 0.0, 0.0, 0.0, 0.0, 0.0, 0.0, 0.0, 1.6989585220235093E9, 0.0, 2023-11-02 16:55:22.023
214.0, -187500.02235174447, 187500.0, 15845.732789723015, 66601.49295347846, 187500.0, 187500.0, -187500.02235174447, 31793.613051606782, -0.146, 0.976, -0.146, 192.0, 0.0, 0.0, 0.0, 0.0, 0.0, 0.0, 0.0, 0.0, 0.0, 1.6989585220235207E9, 0.0, 2023-11-02 16:55:22.023
215.0, -187500.02235174447, 187500.0, 15838.669638475138, 66586.02554631539, 187500.0, 187500.0, -187500.02235174447, 31782.90656601269, -0.146, 0.976, -0.146, 192.0, 0.0, 0.0, 0.0, 0.0, 0.0, 0.0, 0.0, 0.0, 0.0, 1.6989585220235307E9, 0.0, 2023-11-02 16:55:22.023
216.0, -187500.02235174447, 187500.0, 15839.1390251087, 66572.48038917547, 187500.0, 187500.0, -187500.02235174447, 31778.9503072441, -0.146, 0.976, -0.146, 192.0, 0.0, 0.0, 0.0, 0.0, 0.0, 0.0, 0.0, 0.0, 0.0, 1.6989585220235405E9, 0.0, 2023-11-02 16:55:22.023
217.0, -187500.02235174447, 187500.0, 15841.329496065318, 66591.45702021802, 187500.0, 187500.0, -187500.02235174447, 31777.832720021335, -0.146, 0.976, -0.146, 192.0, 0.0, 0.0, 0.0, 0.0, 0.0, 0.0, 0.0, 0.0, 0.0, 1.6989585220235505E9, 0.0, 2023-11-02 16:55:22.023
218.0, -187500.02235174447, 187500.0, 15841.485958276506, 66615.10516585174, 187500.0, 187500.0, -187500.02235174447, 31779.57615608885, -0.146, 0.976, -0.146, 192.0, 0.0, 0.0, 0.0, 0.0, 0.0, 0.0, 0.0, 0.0, 0.0, 1.69895852202356E9, 0.0, 2023-11-02 16:55:22.023
219.0, -187500.02235174447, 187500.0, 15849.599641513783, 66613.78641292888, 187500.0, 187500.0, -187500.02235174447, 31786.01345849198, -0.14400000000000002, 0.9400000000000001, -0.158, 192.0, 251.0, 128.0, 29.0, 96.0, 251.0, 16.0, 0.0, 0.0, 0.0, 1.6989585220235765E9, 0.0, 2023-11-02 16:55:22.023
220.0, -187500.02235174447, 187500.0, 15859.635574774216, 66600.71064242252, 187500.0, 187500.0, -187500.02235174447, 31798.396324920217, -0.14400000000000002, 0.9400000000000001, -0.158, 192.0, 0.0, 0.0, 0.0, 0.0, 0.0, 0.0, 0.0, 0.0, 0.0, 1.6989585220235872E9, 0.0, 2023-11-02 16:55:22.023
221.0, -187500.02235174447, 187500.0, 15862.720115509048, 66614.61342747373, 187500.0, 187500.0, -187500.02235174447, 31808.007575036, -0.14400000000000002, 0.9400000000000001, -0.158, 192.0, 0.0, 0.0, 0.0, 0.0, 0.0, 0.0, 0.0, 0.0, 0.0, 1.698958522023597E9, 0.0, 2023-11-02 16:55:22.023
222.0, -187500.02235174447, 187500.0, 15863.815350987357, 66631.46664279302, 187500.0, 187500.0, -187500.02235174447, 31808.476961669563, -0.14400000000000002, 0.9400000000000001, -0.158, 192.0, 0.0, 0.0, 0.0, 0.0, 0.0, 0.0, 0.0, 0.0, 0.0, 1.6989585220236323E9, 0.0, 2023-11-02 16:55:22.023
223.0, -187500.02235174447, 187500.0, 15857.869786962247, 66633.23243060498, 187500.0, 187500.0, -187500.02235174447, 31803.358412189296, -0.14400000000000002, 0.9400000000000001, -0.158, 192.0, 0.0, 0.0, 0.0, 0.0, 0.0, 0.0, 0.0, 0.0, 0.0, 1.6989585220236423E9, 0.0, 2023-11-02 16:55:22.023
224.0, -187500.02235174447, 187500.0, 15856.28281310592, 66613.18291582858, 187500.0, 187500.0, -187500.02235174447, 31803.58192963385, -0.14400000000000002, 0.9400000000000001, -0.158, 192.0, 0.0, 0.0, 0.0, 0.0, 0.0, 0.0, 0.0, 0.0, 0.0, 1.698958522023652E9, 0.0, 2023-11-02 16:55:22.023
225.0, -187500.02235174447, 187500.0, 15851.544243281394, 66619.6202182317, 187500.0, 187500.0, -187500.02235174447, 31800.698554599116, -0.14400000000000002, 0.9400000000000001, -0.158, 192.0, 0.0, 0.0, 0.0, 0.0, 0.0, 0.0, 0.0, 0.0, 0.0, 1.6989585220236635E9, 0.0, 2023-11-02 16:55:22.023
226.0, -187500.02235174447, 187500.0, 15839.22843208652, 66644.54241329938, 187500.0, 187500.0, -187500.02235174447, 31790.461455638586, -0.14400000000000002, 0.9400000000000001, -0.158, 192.0, 0.0, 0.0, 0.0, 0.0, 0.0, 0.0, 0.0, 0.0, 0.0, 1.6989585220236733E9, 0.0, 2023-11-02 16:55:22.023
227.0, -187500.02235174447, 187500.0, 15814.105071318756, 66634.43942480558, 187500.0, 187500.0, -187500.02235174447, 31768.176766416644, -0.14400000000000002, 0.9400000000000001, -0.158, 192.0, 0.0, 0.0, 0.0, 0.0, 0.0, 0.0, 0.0, 0.0, 0.0, 1.6989585220236893E9, 0.0, 2023-11-02 16:55:22.023
228.0, -187500.02235174447, 187500.0, 15795.061385042834, 66604.53279072438, 187500.0, 187500.0, -187500.02235174447, 31746.495574294997, -0.14400000000000002, 0.9400000000000001, -0.158, 192.0, 0.0, 0.0, 0.0, 0.0, 0.0, 0.0, 0.0, 0.0, 0.0, 1.6989585220236993E9, 0.0, 2023-11-02 16:55:22.023
229.0, -187500.02235174447, 187500.0, 15791.775678607903, 66590.473543462, 187500.0, 187500.0, -187500.02235174447, 31740.61706550325, -0.154, 0.9420000000000001, -0.16, 192.0, 251.0, 48.0, 29.0, 112.0, 251.0, 0.0, 0.0, 0.0, 0.0, 1.6989585220237088E9, 0.0, 2023-11-02 16:55:22.023
230.0, -187500.02235174447, 187500.0, 15772.620233609705, 66608.73491868198, 187500.0, 187500.0, -187500.02235174447, 31724.23323681751, -0.154, 0.9420000000000001, -0.16, 192.0, 0.0, 0.0, 0.0, 0.0, 0.0, 0.0, 0.0, 0.0, 0.0, 1.6989585220237193E9, 0.0, 2023-11-02 16:55:22.023
231.0, -187500.02235174447, 187500.0, 15753.956526989525, 66624.6270089897, 187500.0, 187500.0, -187500.02235174447, 31701.94854759557, -0.154, 0.9420000000000001, -0.16, 192.0, 0.0, 0.0, 0.0, 0.0, 0.0, 0.0, 0.0, 0.0, 0.0, 1.6989585220237288E9, 0.0, 2023-11-02 16:55:22.023
232.0, -187500.02235174447, 187500.0, 15737.952677959523, 66617.74267169746, 187500.0, 187500.0, -187500.02235174447, 31685.229442743, -0.154, 0.9420000000000001, -0.16, 192.0, 0.0, 0.0, 0.0, 0.0, 0.0, 0.0, 0.0, 0.0, 0.0, 1.6989585220237386E9, 0.0, 2023-11-02 16:55:22.023
233.0, -187500.02235174447, 187500.0, 15723.40169231912, 66610.41129951613, 187500.0, 187500.0, -187500.02235174447, 31670.097311746755, -0.154, 0.9420000000000001, -0.16, 192.0, 0.0, 0.0, 0.0, 0.0, 0.0, 0.0, 0.0, 0.0, 0.0, 1.6989585220237525E9, 0.0, 2023-11-02 16:55:22.023
234.0, -187500.02235174447, 187500.0, 15708.783651445348, 66615.44044201856, 187500.0, 187500.0, -187500.02235174447, 31654.898125517146, -0.154, 0.9420000000000001, -0.16, 192.0, 0.0, 0.0, 0.0, 0.0, 0.0, 0.0, 0.0, 0.0, 0.0, 1.6989585220237625E9, 0.0, 2023-11-02 16:55:22.023
235.0, -187500.02235174447, 187500.0, 15684.666119178071, 66606.74561342545, 187500.0, 187500.0, -187500.02235174447, 31630.02063393839, -0.154, 0.9420000000000001, -0.16, 192.0, 0.0, 0.0, 0.0, 0.0, 0.0, 0.0, 0.0, 0.0, 0.0, 1.6989585220237722E9, 0.0, 2023-11-02 16:55:22.023
236.0, -187500.02235174447, 187500.0, 15651.898461806592, 66566.80304608382, 187500.0, 187500.0, -187500.02235174447, 31595.06250561029, -0.154, 0.9420000000000001, -0.16, 192.0, 0.0, 0.0, 0.0, 0.0, 0.0, 0.0, 0.0, 0.0, 0.0, 1.698958522023782E9, 0.0, 2023-11-02 16:55:22.023
237.0, -187500.02235174447, 187500.0, 15639.269726189343, 66532.00137996691, 187500.0, 187500.0, -187500.02235174447, 31582.85845313769, -0.154, 0.9420000000000001, -0.16, 192.0, 0.0, 0.0, 0.0, 0.0, 0.0, 0.0, 0.0, 0.0, 0.0, 1.6989585220238004E9, 0.0, 2023-11-02 16:55:22.023
238.0, -187500.02235174447, 187500.0, 15626.61863882764, 66541.97025799398, 187500.0, 187500.0, -187500.02235174447, 31571.414359976574, -0.138, 0.9460000000000001, -0.156, 192.0, 251.0, 176.0, 29.0, 144.0, 251.0, 32.0, 0.0, 0.0, 0.0, 1.69895852202381E9, 0.0, 2023-11-02 16:55:22.023
239.0, -187500.02235174447, 187500.0, 15611.307693875755, 66536.4046736246, 187500.0, 187500.0, -187500.02235174447, 31554.09175802371, -0.138, 0.9460000000000001, -0.156, 192.0, 0.0, 0.0, 0.0, 0.0, 0.0, 0.0, 0.0, 0.0, 0.0, 1.6989585220238209E9, 0.0, 2023-11-02 16:55:22.023
240.0, -187500.02235174447, 187500.0, 15595.2814931013, 66507.950902933, 187500.0, 187500.0, -187500.02235174447, 31536.09860373719, -0.138, 0.9460000000000001, -0.156, 192.0, 0.0, 0.0, 0.0, 0.0, 0.0, 0.0, 0.0, 0.0, 0.0, 1.698958522023831E9, 0.0, 2023-11-02 16:55:22.023
241.0, -187500.02235174447, 187500.0, 15580.909321416537, 66474.11036182765, 187500.0, 187500.0, -187500.02235174447, 31518.28426340631, -0.138, 0.9460000000000001, -0.156, 192.0, 0.0, 0.0, 0.0, 0.0, 0.0, 0.0, 0.0, 0.0, 0.0, 1.6989585220238404E9, 0.0, 2023-11-02 16:55:22.023
242.0, -187500.02235174447, 187500.0, 15573.488542257375, 66476.50199848438, 187500.0, 187500.0, -187500.02235174447, 31509.09769643518, -0.138, 0.9460000000000001, -0.156, 192.0, 0.0, 0.0, 0.0, 0.0, 0.0, 0.0, 0.0, 0.0, 0.0, 1.6989585220238502E9, 0.0, 2023-11-02 16:55:22.023
243.0, -187500.02235174447, 187500.0, 15550.957983846425, 66490.00245213538, 187500.0, 187500.0, -187500.02235174447, 31487.192986868977, -0.138, 0.9460000000000001, -0.156, 192.0, 0.0, 0.0, 0.0, 0.0, 0.0, 0.0, 0.0, 0.0, 0.0, 1.6989585220238597E9, 0.0, 2023-11-02 16:55:22.023
244.0, -187500.02235174447, 187500.0, 15529.50030916933, 66471.5846147042, 187500.0, 187500.0, -187500.02235174447, 31464.796538924762, -0.138, 0.9460000000000001, -0.156, 192.0, 0.0, 0.0, 0.0, 0.0, 0.0, 0.0, 0.0, 0.0, 0.0, 1.6989585220238695E9, 0.0, 2023-11-02 16:55:22.023
245.0, -187500.02235174447, 187500.0, 15518.302085197221, 66440.69450386698, 187500.0, 187500.0, -187500.02235174447, 31452.436024240975, -0.138, 0.9460000000000001, -0.156, 192.0, 0.0, 0.0, 0.0, 0.0, 0.0, 0.0, 0.0, 0.0, 0.0, 1.6989585220238805E9, 0.0, 2023-11-02 16:55:22.023
246.0, -187500.02235174447, 187500.0, 15509.853125793115, 66433.65370436355, 187500.0, 187500.0, -187500.02235174447, 31443.785899136772, -0.138, 0.9460000000000001, -0.156, 192.0, 0.0, 0.0, 0.0, 0.0, 0.0, 0.0, 0.0, 0.0, 0.0, 1.6989585220238912E9, 0.0, 2023-11-02 16:55:22.023
247.0, -187500.02235174447, 187500.0, 15495.816230275183, 66434.81599507523, 187500.0, 187500.0, -187500.02235174447, 31428.74317511835, -0.138, 0.9460000000000001, -0.156, 192.0, 0.0, 0.0, 0.0, 0.0, 0.0, 0.0, 0.0, 0.0, 0.0, 1.698958522023903E9, 0.0, 2023-11-02 16:55:22.023
248.0, -187500.02235174447, 187500.0, 15491.189419172933, 66410.96668374141, 187500.0, 187500.0, -187500.02235174447, 31420.65184362553, -0.134, 0.966, -0.16, 192.0, 251.0, 208.0, 30.0, 48.0, 251.0, 0.0, 0.0, 0.0, 0.0, 1.698958522023913E9, 0.0, 2023-11-02 16:55:22.023
249.0, -187500.02235174447, 187500.0, 15495.97269248637, 66386.75974449632, 187500.0, 187500.0, -187500.02235174447, 31427.536180917763, -0.134, 0.966, -0.16, 192.0, 0.0, 0.0, 0.0, 0.0, 0.0, 0.0, 0.0, 0.0, 0.0, 1.6989585220239232E9, 0.0, 2023-11-02 16:55:22.023
250.0, -187500.02235174447, 187500.0, 15495.302140152711, 66388.34671835265, 187500.0, 187500.0, -187500.02235174447, 31429.592541407652, -0.134, 0.966, -0.16, 192.0, 0.0, 0.0, 0.0, 0.0, 0.0, 0.0, 0.0, 0.0, 0.0, 1.6989585220239327E9, 0.0, 2023-11-02 16:55:22.023
251.0, -187500.02235174447, 187500.0, 15489.468334849875, 66403.09886969315, 187500.0, 187500.0, -187500.02235174447, 31424.36223320511, -0.134, 0.966, -0.16, 192.0, 0.0, 0.0, 0.0, 0.0, 0.0, 0.0, 0.0, 0.0, 0.0, 1.6989585220239427E9, 0.0, 2023-11-02 16:55:22.023
252.0, -187500.02235174447, 187500.0, 15439.914517392459, 66383.98812818386, 187500.0, 187500.0, -187500.02235174447, 31376.283630881746, -0.134, 0.966, -0.16, 192.0, 0.0, 0.0, 0.0, 0.0, 0.0, 0.0, 0.0, 0.0, 0.0, 1.6989585220239613E9, 0.0, 2023-11-02 16:55:22.023
253.0, -187500.02235174447, 187500.0, 15398.250865727767, 66318.76573786327, 187500.0, 187500.0, -187500.02235174447, 31335.178772828436, -0.134, 0.966, -0.16, 192.0, 0.0, 0.0, 0.0, 0.0, 0.0, 0.0, 0.0, 0.0, 0.0, 1.6989585220239713E9, 0.0, 2023-11-02 16:55:22.023
254.0, -187500.02235174447, 187500.0, 15365.125580445003, 66279.27020541075, 187500.0, 187500.0, -187500.02235174447, 31298.00782179926, -0.134, 0.966, -0.16, 192.0, 0.0, 0.0, 0.0, 0.0, 0.0, 0.0, 0.0, 0.0, 0.0, 1.6989585220239828E9, 0.0, 2023-11-02 16:55:22.023
255.0, -186183.92928647154, 187500.0, 15343.89142321246, 66260.15946390147, 187500.0, 187500.0, -187500.02235174447, 31272.795054053673, -0.134, 0.966, -0.16, 192.0, 0.0, 0.0, 0.0, 0.0, 0.0, 0.0, 0.0, 0.0, 0.0, 1.6989585220239968E9, 0.0, 2023-11-02 16:55:22.023
0.0, -183372.30335143846, 187500.0, 15332.246164351245, 66232.80092868817, 187500.0, 187500.0, -187500.02235174447, 31258.55699283564, -0.134, 0.966, -0.16, 192.0, 0.0, 0.0, 0.0, 0.0, 0.0, 0.0, 0.0, 0.0, 0.0, 1.698958522024007E9, 0.0, 2023-11-02 16:55:22.024
1.0, -180698.11829306107, 187500.0, 15321.629085734974, 66202.80488762914, 187500.0, 187500.0, -187500.02235174447, 31246.084719429582, -0.134, 0.966, -0.16, 192.0, 0.0, 0.0, 0.0, 0.0, 0.0, 0.0, 0.0, 0.0, 0.0, 1.698958522024017E9, 0.0, 2023-11-02 16:55:22.024
2.0, -178111.46266597067, 187500.0, 15312.50957399721, 66184.09647752006, 187500.0, 187500.0, -187500.02235174447, 31234.52886754619, -0.134, 0.968, -0.154, 192.0, 251.0, 208.0, 30.0, 64.0, 251.0, 48.0, 0.0, 0.0, 0.0, 1.698958522024027E9, 0.0, 2023-11-02 16:55:22.024
3.0, -175391.88121460454, 187500.0, 15296.036338333648, 66186.71163162132, 187500.0, 187500.0, -187500.02235174447, 31216.80393419313, -0.134, 0.968, -0.154, 192.0, 0.0, 0.0, 0.0, 0.0, 0.0, 0.0, 0.0, 0.0, 0.0, 1.6989585220240386E9, 0.0, 2023-11-02 16:55:22.024
4.0, -172451.24101057544, 187500.0, 15277.372631713466, 66186.68927987687, 187500.0, 187500.0, -187500.02235174447, 31198.810779906606, -0.134, 0.968, -0.154, 192.0, 0.0, 0.0, 0.0, 0.0, 0.0, 0.0, 0.0, 0.0, 0.0, 1.6989585220240557E9, 0.0, 2023-11-02 16:55:22.024
5.0, -169495.17810287216, 187500.0, 15261.949928039305, 66160.47068363079, 187500.0, 187500.0, -187500.02235174447, 31182.49400645423, -0.134, 0.968, -0.154, 192.0, 0.0, 0.0, 0.0, 0.0, 0.0, 0.0, 0.0, 0.0, 0.0, 1.6989585220240662E9, 0.0, 2023-11-02 16:55:22.024
6.0, -166694.8845022779, 187500.0, 15257.703096592797, 66129.5582210491, 187500.0, 187500.0, -187500.02235174447, 31177.68838139634, -0.134, 0.968, -0.154, 192.0, 0.0, 0.0, 0.0, 0.0, 0.0, 0.0, 0.0, 0.0, 0.0, 1.6989585220240777E9, 0.0, 2023-11-02 16:55:22.024
7.0, -163897.31781450723, 187500.0, 15244.359105152978, 66118.04707265462, 187500.0, 187500.0, -187500.02235174447, 31163.53972715613, -0.134, 0.968, -0.154, 192.0, 0.0, 0.0, 0.0, 0.0, 0.0, 0.0, 0.0, 0.0, 0.0, 1.698958522024088E9, 0.0, 2023-11-02 16:55:22.024
8.0, -161091.59274001035, 187500.0, 15242.056875474082, 66101.66324396888, 187500.0, 187500.0, -187500.02235174447, 31159.583468387544, -0.134, 0.968, -0.154, 192.0, 0.0, 0.0, 0.0, 0.0, 0.0, 0.0, 0.0, 0.0, 0.0, 1.6989585220240977E9, 0.0, 2023-11-02 16:55:22.024
9.0, -158540.94577323744, 187500.0, 15243.934422008328, 66067.6438889079, 187500.0, 187500.0, -187500.02235174447, 31159.851689321007, -0.134, 0.968, -0.154, 192.0, 0.0, 0.0, 0.0, 0.0, 0.0, 0.0, 0.0, 0.0, 0.0, 1.6989585220241077E9, 0.0, 2023-11-02 16:55:22.024
10.0, -156301.54684800468, 187500.0, 15255.020887258159, 66034.5856588585, 187500.0, 187500.0, -187500.02235174447, 31169.37353245897, -0.134, 0.968, -0.154, 192.0, 0.0, 0.0, 0.0, 0.0, 0.0, 0.0, 0.0, 0.0, 0.0, 1.6989585220241191E9, 0.0, 2023-11-02 16:55:22.024
11.0, -154115.85916469805, 187500.0, 15261.860521061484, 66038.586621116, 187500.0, 187500.0, -187500.02235174447, 31173.307439483102, -0.134, 0.968, -0.154, 192.0, 0.0, 0.0, 0.0, 0.0, 0.0, 0.0, 0.0, 0.0, 0.0, 1.6989585220241437E9, 0.0, 2023-11-02 16:55:22.024
12.0, -151874.4932859532, 187500.0, 15261.078210005548, 66038.07253099352, 187500.0, 187500.0, -187500.02235174447, 31168.434759191845, -0.134, 0.97, -0.156, 192.0, 251.0, 208.0, 30.0, 80.0, 251.0, 32.0, 0.0, 0.0, 0.0, 1.6989585220241578E9, 0.0, 2023-11-02 16:55:22.024
13.0, -149874.54859907014, 187500.0, 15273.818704345073, 66013.99970221517, 187500.0, 187500.0, -187500.02235174447, 31181.532881442654, -0.134, 0.97, -0.156, 192.0, 0.0, 0.0, 0.0, 0.0, 0.0, 0.0, 0.0, 0.0, 0.0, 1.6989585220241697E9, 0.0, 2023-11-02 16:55:22.024
14.0, -148254.85178886077, 187500.0, 15287.609730673998, 65989.59159726997, 187500.0, 187500.0, -187500.02235174447, 31193.55811995961, -0.134, 0.97, -0.156, 192.0, 0.0, 0.0, 0.0, 0.0, 0.0, 0.0, 0.0, 0.0, 0.0, 1.698958522024181E9, 0.0, 2023-11-02 16:55:22.024
15.0, -146765.77857324822, 187500.0, 15307.569838472587, 65997.9287979518, 187500.0, 187500.0, -187500.02235174447, 31211.08188761257, -0.134, 0.97, -0.156, 192.0, 0.0, 0.0, 0.0, 0.0, 0.0, 0.0, 0.0, 0.0, 0.0, 1.6989585220241926E9, 0.0, 2023-11-02 16:55:22.024
16.0, -145026.43287496959, 187500.0, 15311.280228052168, 66025.28733316509, 187500.0, 187500.0, -187500.02235174447, 31210.21016957881, -0.134, 0.97, -0.156, 192.0, 0.0, 0.0, 0.0, 0.0, 0.0, 0.0, 0.0, 0.0, 0.0, 1.6989585220242035E9, 0.0, 2023-11-02 16:55:22.024
17.0, -143189.20888772118, 187500.0, 15312.531925741665, 66029.0871297225, 187500.0, 187500.0, -187500.02235174447, 31210.03135562317, -0.134, 0.97, -0.156, 192.0, 0.0, 0.0, 0.0, 0.0, 0.0, 0.0, 0.0, 0.0, 0.0, 1.6989585220242164E9, 0.0, 2023-11-02 16:55:22.024
18.0, -141521.00879204378, 187500.0, 15323.528984013676, 66023.90152500887, 187500.0, 187500.0, -187500.02235174447, 31222.280111584678, -0.134, 0.97, -0.156, 192.0, 0.0, 0.0, 0.0, 0.0, 0.0, 0.0, 0.0, 0.0, 0.0, 1.6989585220242288E9, 0.0, 2023-11-02 16:55:22.024
19.0, -140002.92301212825, 187500.0, 15349.546414559652, 66031.07643497901, 187500.0, 187500.0, -187500.02235174447, 31243.290751372668, -0.134, 0.97, -0.156, 192.0, 0.0, 0.0, 0.0, 0.0, 0.0, 0.0, 0.0, 0.0, 0.0, 1.6989585220242405E9, 0.0, 2023-11-02 16:55:22.024
20.0, -138445.98990034938, 187500.0, 15356.341344874067, 66040.19594671679, 187500.0, 187500.0, -187500.02235174447, 31248.386949108477, -0.134, 0.97, -0.156, 192.0, 0.0, 0.0, 0.0, 0.0, 0.0, 0.0, 0.0, 0.0, 0.0, 1.698958522024254E9, 0.0, 2023-11-02 16:55:22.024
21.0, -137004.16827251535, 187500.0, 15361.951632732349, 66018.20183017277, 187500.0, 187500.0, -187500.02235174447, 31254.86895500052, -0.134, 0.97, -0.156, 192.0, 0.0, 0.0, 0.0, 0.0, 0.0, 0.0, 0.0, 0.0, 0.0, 1.6989585220242672E9, 0.0, 2023-11-02 16:55:22.024
22.0, -135918.6334512989, 187500.0, 15388.818429567627, 65996.96767294021, 187500.0, 187500.0, -187500.02235174447, 31284.395609425977, -0.128, 0.97, -0.166, 192.0, 252.0, 0.0, 30.0, 80.0, 250.0, 208.0, 0.0, 0.0, 0.0, 1.69895852202428E9, 0.0, 2023-11-02 16:55:22.024
23.0, -135096.7821594217, 187500.0, 15412.176002523423, 65991.8267717155, 187500.0, 187500.0, -187500.02235174447, 31308.33432773761, -0.128, 0.97, -0.166, 192.0, 0.0, 0.0, 0.0, 0.0, 0.0, 0.0, 0.0, 0.0, 0.0, 1.6989585220242937E9, 0.0, 2023-11-02 16:55:22.024
24.0, -134345.18240036754, 187500.0, 15442.86494766056, 66007.56239981203, 187500.0, 187500.0, -187500.02235174447, 31337.592761229607, -0.128, 0.97, -0.166, 192.0, 0.0, 0.0, 0.0, 0.0, 0.0, 0.0, 0.0, 0.0, 0.0, 1.6989585220243056E9, 0.0, 2023-11-02 16:55:22.024
25.0, -133690.0527703825, 187500.0, 15463.987346170825, 66017.88890575038, 187500.0, 187500.0, -187500.02235174447, 31355.49650853831, -0.128, 0.97, -0.166, 192.0, 0.0, 0.0, 0.0, 0.0, 0.0, 0.0, 0.0, 0.0, 0.0, 1.698958522024318E9, 0.0, 2023-11-02 16:55:22.024
26.0, -133394.89798485016, 187500.0, 15493.268131407278, 65989.45748680324, 187500.0, 187500.0, -187500.02235174447, 31380.798683261717, -0.128, 0.97, -0.166, 192.0, 0.0, 0.0, 0.0, 0.0, 0.0, 0.0, 0.0, 0.0, 0.0, 1.6989585220243287E9, 0.0, 2023-11-02 16:55:22.024
27.0, -133474.40313987772, 187500.0, 15532.428387692975, 65978.86275993142, 187500.0, 187500.0, -187500.02235174447, 31416.673233112484, -0.128, 0.97, -0.166, 192.0, 0.0, 0.0, 0.0, 0.0, 0.0, 0.0, 0.0, 0.0, 0.0, 1.6989585220244489E9, 0.0, 2023-11-02 16:55:22.024
28.0, -133693.07025588397, 187500.0, 15572.169789334512, 65995.3806990839, 187500.0, 187500.0, -187500.02235174447, 31450.111442817622, -0.128, 0.97, -0.166, 192.0, 0.0, 0.0, 0.0, 0.0, 0.0, 0.0, 0.0, 0.0, 0.0, 1.6989585220244672E9, 0.0, 2023-11-02 16:55:22.024
29.0, -133967.12499465048, 187500.0, 15604.557467050252, 66012.52448708111, 187500.0, 187500.0, -187500.02235174447, 31480.55451876575, -0.128, 0.97, -0.166, 192.0, 0.0, 0.0, 0.0, 0.0, 0.0, 0.0, 0.0, 0.0, 0.0, 1.698958522024479E9, 0.0, 2023-11-02 16:55:22.024
30.0, -134544.09057427532, 187500.0, 15642.66719134655, 66006.48951607817, 187500.0, 187500.0, -187500.02235174447, 31515.982033727414, -0.128, 0.97, -0.166, 192.0, 0.0, 0.0, 0.0, 0.0, 0.0, 0.0, 0.0, 0.0, 0.0, 1.6989585220245092E9, 0.0, 2023-11-02 16:55:22.024
31.0, -135503.24863234148, 187500.0, 15688.823543646758, 65997.16883864031, 187500.0, 187500.0, -187500.02235174447, 31560.797281360305, -0.128, 0.97, -0.166, 192.0, 0.0, 0.0, 0.0, 0.0, 0.0, 0.0, 0.0, 0.0, 0.0, 1.6989585220245273E9, 0.0, 2023-11-02 16:55:22.024
32.0, -136591.15273847018, 187500.0, 15733.482329068464, 66027.12017621043, 187500.0, 187500.0, -187500.02235174447, 31607.646537738627, -0.134, 0.962, -0.17200000000000001, 192.0, 251.0, 208.0, 30.0, 16.0, 250.0, 160.0, 0.0, 0.0, 0.0, 1.698958522024541E9, 0.0, 2023-11-02 16:55:22.024
33.0, -137663.58943743582, 187500.0, 15772.352012676241, 66061.9441940718, 187500.0, 187500.0, -187500.02235174447, 31647.186773680067, -0.134, 0.962, -0.17200000000000001, 192.0, 0.0, 0.0, 0.0, 0.0, 0.0, 0.0, 0.0, 0.0, 0.0, 1.6989585220245764E9, 0.0, 2023-11-02 16:55:22.024
34.0, -138952.36867098435, 187500.0, 15814.932085863602, 66062.05595279408, 187500.0, 187500.0, -187500.02235174447, 31687.643431144174, -0.134, 0.962, -0.17200000000000001, 192.0, 0.0, 0.0, 0.0, 0.0, 0.0, 0.0, 0.0, 0.0, 0.0, 1.6989585220245888E9, 0.0, 2023-11-02 16:55:22.024
35.0, -140542.96350991292, 187500.0, 15850.76193222546, 66058.74789461469, 187500.0, 187500.0, -187500.02235174447, 31721.573379227328, -0.134, 0.962, -0.17200000000000001, 192.0, 0.0, 0.0, 0.0, 0.0, 0.0, 0.0, 0.0, 0.0, 0.0, 1.6989585220246017E9, 0.0, 2023-11-02 16:55:22.024
36.0, -142228.53091103208, 187500.0, 15884.423659375152, 66078.17156054635, 187500.0, 187500.0, -187500.02235174447, 31753.37991158723, -0.134, 0.962, -0.17200000000000001, 192.0, 0.0, 0.0, 0.0, 0.0, 0.0, 0.0, 0.0, 0.0, 0.0, 1.6989585220246136E9, 0.0, 2023-11-02 16:55:22.024
37.0, -143799.09858692868, 187500.0, 15905.836630563335, 66114.47079354177, 187500.0, 187500.0, -187500.02235174447, 31772.848281007802, -0.134, 0.962, -0.17200000000000001, 192.0, 0.0, 0.0, 0.0, 0.0, 0.0, 0.0, 0.0, 0.0, 0.0, 1.6989585220246484E9, 0.0, 2023-11-02 16:55:22.024
38.0, -145419.91298436082, 187500.0, 15942.828767636869, 66126.16075589189, 187500.0, 187500.0, -187500.02235174447, 31805.43712442364, -0.134, 0.962, -0.17200000000000001, 192.0, 0.0, 0.0, 0.0, 0.0, 0.0, 0.0, 0.0, 0.0, 0.0, 1.6989585220246625E9, 0.0, 2023-11-02 16:55:22.024
39.0, -147222.71528514806, 187500.0, 15987.554608291937, 66139.10241593151, 187500.0, 187500.0, -187500.02235174447, 31847.793680166447, -0.134, 0.962, -0.17200000000000001, 192.0, 0.0, 0.0, 0.0, 0.0, 0.0, 0.0, 0.0, 0.0, 0.0, 1.6989585220246737E9, 0.0, 2023-11-02 16:55:22.024
40.0, -149012.75473985134, 187500.0, 16023.607972098349, 66170.6630791024, 187500.0, 187500.0, -187500.02235174447, 31884.517596306516, -0.134, 0.962, -0.17200000000000001, 192.0, 0.0, 0.0, 0.0, 0.0, 0.0, 0.0, 0.0, 0.0, 0.0, 1.6989585220246923E9, 0.0, 2023-11-02 16:55:22.024
41.0, -150527.1748336762, 187500.0, 16038.047199016477, 66215.09834707956, 187500.0, 187500.0, -187500.02235174447, 31898.576843568906, -0.134, 0.962, -0.17200000000000001, 192.0, 0.0, 0.0, 0.0, 0.0, 0.0, 0.0, 0.0, 0.0, 0.0, 1.698958522024706E9, 0.0, 2023-11-02 16:55:22.024
42.0, -151995.66209264542, 187500.0, 16059.191949271197, 66224.91076289544, 187500.0, 187500.0, -187500.02235174447, 31919.11809672333, -0.146, 0.974, -0.18, 192.0, 251.0, 112.0, 30.0, 112.0, 250.0, 96.0, 0.0, 0.0, 0.0, 1.6989585220248673E9, 0.0, 2023-11-02 16:55:22.024
43.0, -153648.08185673738, 187500.0, 16082.28130129353, 66221.31213203813, 187500.0, 187500.0, -187500.02235174447, 31941.715710367647, -0.146, 0.974, -0.18, 192.0, 0.0, 0.0, 0.0, 0.0, 0.0, 0.0, 0.0, 0.0, 0.0, 1.698958522024891E9, 0.0, 2023-11-02 16:55:22.024
44.0, -155382.7336886804, 187500.0, 16116.792394732523, 66239.26058283575, 187500.0, 187500.0, -187500.02235174447, 31976.405617762284, -0.146, 0.974, -0.18, 192.0, 0.0, 0.0, 0.0, 0.0, 0.0, 0.0, 0.0, 0.0, 0.0, 1.6989585220249033E9, 0.0, 2023-11-02 16:55:22.024
45.0, -156937.25281205808, 187500.0, 16129.555240816504, 66275.51511234225, 187500.0, 187500.0, -187500.02235174447, 31990.017830135566, -0.146, 0.974, -0.18, 192.0, 0.0, 0.0, 0.0, 0.0, 0.0, 0.0, 0.0, 0.0, 0.0, 1.6989585220249164E9, 0.0, 2023-11-02 16:55:22.024
46.0, -158327.50896543372, 187500.0, 16138.00420022061, 66288.97086250436, 187500.0, 187500.0, -187500.02235174447, 31996.924519172255, -0.146, 0.974, -0.18, 192.0, 0.0, 0.0, 0.0, 0.0, 0.0, 0.0, 0.0, 0.0, 0.0, 1.6989585220249329E9, 0.0, 2023-11-02 16:55:22.024
47.0, -159736.67469461856, 187500.0, 16154.902119028822, 66297.68804284192, 187500.0, 187500.0, -187500.02235174447, 32011.117876901375, -0.146, 0.974, -0.18, 192.0, 0.0, 0.0, 0.0, 0.0, 0.0, 0.0, 0.0, 0.0, 0.0, 1.6989585220249443E9, 0.0, 2023-11-02 16:55:22.024
48.0, -161097.94063543566, 187500.0, 16166.726191845679, 66319.92802857496, 187500.0, 187500.0, -187500.02235174447, 32022.271397384575, -0.146, 0.974, -0.18, 192.0, 0.0, 0.0, 0.0, 0.0, 0.0, 0.0, 0.0, 0.0, 0.0, 1.6989585220249565E9, 0.0, 2023-11-02 16:55:22.024
49.0, -162191.72325035612, 187500.0, 16160.311241187006, 66338.8599561286, 187500.0, 187500.0, -187500.02235174447, 32016.929330459756, -0.146, 0.974, -0.18, 192.0, 0.0, 0.0, 0.0, 0.0, 0.0, 0.0, 0.0, 0.0, 0.0, 1.69895852202497E9, 0.0, 2023-11-02 16:55:22.024
50.0, -163089.88339780373, 187500.0, 16157.472569641182, 66342.97267710837, 187500.0, 187500.0, -187500.02235174447, 32014.805914736502, -0.146, 0.974, -0.18, 192.0, 0.0, 0.0, 0.0, 0.0, 0.0, 0.0, 0.0, 0.0, 0.0, 1.6989585220249815E9, 0.0, 2023-11-02 16:55:22.024
51.0, -164078.21048238405, 187500.0, 16157.137293474352, 66321.26913324227, 187500.0, 187500.0, -187500.02235174447, 32017.689289771235, -0.146, 0.974, -0.18, 192.0, 0.0, 0.0, 0.0, 0.0, 0.0, 0.0, 0.0, 0.0, 0.0, 1.698958522024995E9, 0.0, 2023-11-02 16:55:22.024
52.0, -165236.76845273597, 187500.0, 16159.327764430973, 66300.66082485448, 187500.0, 187500.0, -187500.02235174447, 32021.71260377319, -0.148, 0.984, -0.178, 192.0, 251.0, 96.0, 30.0, 192.0, 250.0, 112.0, 0.0, 0.0, 0.0, 1.6989585220250075E9, 0.0, 2023-11-02 16:55:22.025
53.0, -166318.257608206, 187500.0, 16178.617319895902, 66318.96690356337, 187500.0, 187500.0, -187500.02235174447, 32039.370481892885, -0.148, 0.984, -0.178, 192.0, 0.0, 0.0, 0.0, 0.0, 0.0, 0.0, 0.0, 0.0, 0.0, 1.6989585220250273E9, 0.0, 2023-11-02 16:55:22.025
54.0, -167284.32235530883, 187500.0, 16175.018689038598, 66322.78905186523, 187500.0, 187500.0, -187500.02235174447, 32034.609560323905, -0.148, 0.984, -0.178, 192.0, 0.0, 0.0, 0.0, 0.0, 0.0, 0.0, 0.0, 0.0, 0.0, 1.698958522025042E9, 0.0, 2023-11-02 16:55:22.025
55.0, -168416.08058405883, 187500.0, 16178.885540829366, 66280.81247577816, 187500.0, 187500.0, -187500.02235174447, 32035.838906268946, -0.148, 0.984, -0.178, 192.0, 0.0, 0.0, 0.0, 0.0, 0.0, 0.0, 0.0, 0.0, 0.0, 1.698958522025066E9, 0.0, 2023-11-02 16:55:22.025
56.0, -169826.74388012217, 187500.0, 16190.44139271276, 66242.4345305484, 187500.0, 187500.0, -187500.02235174447, 32042.92440926128, -0.148, 0.984, -0.178, 192.0, 0.0, 0.0, 0.0, 0.0, 0.0, 0.0, 0.0, 0.0, 0.0, 1.6989585220250764E9, 0.0, 2023-11-02 16:55:22.025
57.0, -171275.76276967084, 187500.0, 16201.63961668487, 66242.12160612603, 187500.0, 187500.0, -187500.02235174447, 32051.328665176472, -0.148, 0.984, -0.178, 192.0, 0.0, 0.0, 0.0, 0.0, 0.0, 0.0, 0.0, 0.0, 0.0, 1.698958522025444E9, 0.0, 2023-11-02 16:55:22.025
58.0, -172612.10651542028, 187500.0, 16213.866020901922, 66265.97091745984, 187500.0, 187500.0, -187500.02235174447, 32062.21396472621, -0.148, 0.984, -0.178, 192.0, 0.0, 0.0, 0.0, 0.0, 0.0, 0.0, 0.0, 0.0, 0.0, 1.698958522025462E9, 0.0, 2023-11-02 16:55:22.025
59.0, -174052.40822463136, 187500.0, 16228.618172242424, 66266.14973141548, 187500.0, 187500.0, -187500.02235174447, 32076.496729433147, -0.148, 0.984, -0.178, 192.0, 0.0, 0.0, 0.0, 0.0, 0.0, 0.0, 0.0, 0.0, 0.0, 1.698958522025473E9, 0.0, 2023-11-02 16:55:22.025
60.0, -175782.36619023874, 187500.0, 16248.913556207843, 66251.30817309716, 187500.0, 187500.0, -187500.02235174447, 32094.66869767531, -0.148, 0.984, -0.178, 192.0, 0.0, 0.0, 0.0, 0.0, 0.0, 0.0, 0.0, 0.0, 0.0, 1.6989585220254843E9, 0.0, 2023-11-02 16:55:22.025
61.0, -177602.73696216787, 187500.0, 16265.431495360315, 66256.71729525534, 187500.0, 187500.0, -187500.02235174447, 32110.001994371654, -0.148, 0.984, -0.178, 192.0, 0.0, 0.0, 0.0, 0.0, 0.0, 0.0, 0.0, 0.0, 0.0, 1.698958522025512E9, 0.0, 2023-11-02 16:55:22.025
62.0, -179309.06913388602, 187500.0, 16280.585978101013, 66290.75900206077, 187500.0, 187500.0, -187500.02235174447, 32122.49661952217, -0.148, 0.968, -0.176, 192.0, 251.0, 96.0, 30.0, 64.0, 250.0, 128.0, 0.0, 0.0, 0.0, 1.6989585220255215E9, 0.0, 2023-11-02 16:55:22.025
63.0, -180627.95616721586, 187500.0, 16274.662765820358, 66316.150583762, 187500.0, 187500.0, -187500.02235174447, 32111.141933338873, -0.148, 0.968, -0.176, 192.0, 0.0, 0.0, 0.0, 0.0, 0.0, 0.0, 0.0, 0.0, 0.0, 1.6989585220255325E9, 0.0, 2023-11-02 16:55:22.025
64.0, -181604.74975165722, 187500.0, 16264.64918430438, 66313.66954012746, 187500.0, 187500.0, -187500.02235174447, 32100.0778198335, -0.148, 0.968, -0.176, 192.0, 0.0, 0.0, 0.0, 0.0, 0.0, 0.0, 0.0, 0.0, 0.0, 1.6989585220255425E9, 0.0, 2023-11-02 16:55:22.025
65.0, -182341.39619367078, 187500.0, 16242.02921891561, 66312.84252558262, 187500.0, 187500.0, -187500.02235174447, 32078.083703289474, -0.148, 0.968, -0.176, 192.0, 0.0, 0.0, 0.0, 0.0, 0.0, 0.0, 0.0, 0.0, 0.0, 1.698958522025552E9, 0.0, 2023-11-02 16:55:22.025
66.0, -182672.9172674319, 187500.0, 16222.270276817117, 66323.83958385463, 187500.0, 187500.0, -187500.02235174447, 32057.587153623957, -0.148, 0.968, -0.176, 192.0, 0.0, 0.0, 0.0, 0.0, 0.0, 0.0, 0.0, 0.0, 0.0, 1.6989585220255618E9, 0.0, 2023-11-02 16:55:22.025
67.0, -182892.79137763876, 187500.0, 16200.96906435121, 66293.44121139542, 187500.0, 187500.0, -187500.02235174447, 32036.554162091514, -0.148, 0.968, -0.176, 192.0, 0.0, 0.0, 0.0, 0.0, 0.0, 0.0, 0.0, 0.0, 0.0, 1.6989585220255723E9, 0.0, 2023-11-02 16:55:22.025
68.0, -183484.82203302646, 187500.0, 16190.754317135135, 66234.99139964479, 187500.0, 187500.0, -187500.02235174447, 32026.562932319994, -0.148, 0.968, -0.176, 192.0, 0.0, 0.0, 0.0, 0.0, 0.0, 0.0, 0.0, 0.0, 0.0, 1.698958522025582E9, 0.0, 2023-11-02 16:55:22.025
69.0, -184507.3025831345, 187500.0, 16197.862171871922, 66208.57163769861, 187500.0, 187500.0, -187500.02235174447, 32034.43074636826, -0.148, 0.968, -0.176, 192.0, 0.0, 0.0, 0.0, 0.0, 0.0, 0.0, 0.0, 0.0, 0.0, 1.6989585220255916E9, 0.0, 2023-11-02 16:55:22.025
70.0, -185693.330847422, 187500.0, 16209.283913288584, 66209.64452143246, 187500.0, 187500.0, -187500.02235174447, 32044.95841800671, -0.148, 0.968, -0.176, 192.0, 0.0, 0.0, 0.0, 0.0, 0.0, 0.0, 0.0, 0.0, 0.0, 1.6989585220256011E9, 0.0, 2023-11-02 16:55:22.025
71.0, -187066.01852965576, 187500.0, 16225.73479720769, 66195.74173638127, 187500.0, 187500.0, -187500.02235174447, 32058.458871657716, -0.148, 0.968, -0.176, 192.0, 0.0, 0.0, 0.0, 0.0, 0.0, 0.0, 0.0, 0.0, 0.0, 1.6989585220256112E9, 0.0, 2023-11-02 16:55:22.025
72.0, -187500.02235174447, 187500.0, 16267.063172705553, 66146.90317474642, 187500.0, 187500.0, -187500.02235174447, 32097.73088666569, -0.136, 0.936, -0.176, 192.0, 251.0, 192.0, 29.0, 64.0, 250.0, 128.0, 0.0, 0.0, 0.0, 1.6989585220256417E9, 0.0, 2023-11-02 16:55:22.025
73.0, -187500.02235174447, 187500.0, 16330.385664747439, 66125.89253495843, 187500.0, 187500.0, -187500.02235174447, 32155.644256549393, -0.136, 0.936, -0.176, 192.0, 0.0, 0.0, 0.0, 0.0, 0.0, 0.0, 0.0, 0.0, 0.0, 1.6989585220256526E9, 0.0, 2023-11-02 16:55:22.025
74.0, -187500.02235174447, 187500.0, 16394.199895167338, 66135.92846821886, 187500.0, 187500.0, -187500.02235174447, 32218.56441719108, -0.136, 0.936, -0.176, 192.0, 0.0, 0.0, 0.0, 0.0, 0.0, 0.0, 0.0, 0.0, 0.0, 1.6989585220256624E9, 0.0, 2023-11-02 16:55:22.025
75.0, -187500.02235174447, 187500.0, 16430.49912816276, 66144.80211076762, 187500.0, 187500.0, -187500.02235174447, 32259.78103396667, -0.136, 0.936, -0.176, 192.0, 0.0, 0.0, 0.0, 0.0, 0.0, 0.0, 0.0, 0.0, 0.0, 1.6989585220256724E9, 0.0, 2023-11-02 16:55:22.025
76.0, -187500.02235174447, 187500.0, 16453.364962740536, 66187.09161127706, 187500.0, 187500.0, -187500.02235174447, 32284.68087728988, -0.136, 0.936, -0.176, 192.0, 0.0, 0.0, 0.0, 0.0, 0.0, 0.0, 0.0, 0.0, 0.0, 1.6989585220256844E9, 0.0, 2023-11-02 16:55:22.025
77.0, -187500.02235174447, 187500.0, 16437.092892777073, 66303.63360686704, 187500.0, 187500.0, -187500.02235174447, 32268.073531159585, -0.136, 0.936, -0.176, 192.0, 0.0, 0.0, 0.0, 0.0, 0.0, 0.0, 0.0, 0.0, 0.0, 1.698958522025694E9, 0.0, 2023-11-02 16:55:22.025
78.0, -187500.02235174447, 187500.0, 16389.01429045371, 66359.42356102748, 187500.0, 187500.0, -187500.02235174447, 32223.906484115898, -0.136, 0.936, -0.176, 192.0, 0.0, 0.0, 0.0, 0.0, 0.0, 0.0, 0.0, 0.0, 0.0, 1.6989585220257037E9, 0.0, 2023-11-02 16:55:22.025
79.0, -187500.02235174447, 187500.0, 16347.194176577828, 66367.89487217604, 187500.0, 187500.0, -187500.02235174447, 32187.36138193147, -0.136, 0.936, -0.176, 192.0, 0.0, 0.0, 0.0, 0.0, 0.0, 0.0, 0.0, 0.0, 0.0, 1.6989585220257137E9, 0.0, 2023-11-02 16:55:22.025
80.0, -187500.02235174447, 187500.0, 16313.778318617145, 66306.06994701266, 187500.0, 187500.0, -187500.02235174447, 32154.996055960186, -0.136, 0.936, -0.176, 192.0, 0.0, 0.0, 0.0, 0.0, 0.0, 0.0, 0.0, 0.0, 0.0, 1.6989585220257232E9, 0.0, 2023-11-02 16:55:22.025
81.0, -187500.02235174447, 187500.0, 16294.578170130037, 66216.2829895357, 187500.0, 187500.0, -187500.02235174447, 32130.02915740361, -0.136, 0.936, -0.176, 192.0, 0.0, 0.0, 0.0, 0.0, 0.0, 0.0, 0.0, 0.0, 0.0, 1.6989585220257344E9, 0.0, 2023-11-02 16:55:22.025
82.0, -187500.02235174447, 187500.0, 16293.326472440538, 66177.43565767237, 187500.0, 187500.0, -187500.02235174447, 32128.88921843639, -0.14400000000000002, 0.9560000000000001, -0.162, 192.0, 251.0, 128.0, 29.0, 224.0, 250.0, 240.0, 0.0, 0.0, 0.0, 1.698958522025744E9, 0.0, 2023-11-02 16:55:22.025
83.0, -187500.02235174447, 187500.0, 16288.587902616013, 66182.95653855283, 187500.0, 187500.0, -187500.02235174447, 32121.669604977324, -0.14400000000000002, 0.9560000000000001, -0.162, 192.0, 0.0, 0.0, 0.0, 0.0, 0.0, 0.0, 0.0, 0.0, 0.0, 1.6989585220257545E9, 0.0, 2023-11-02 16:55:22.025
84.0, -187500.02235174447, 187500.0, 16276.540312354604, 66163.08583773205, 187500.0, 187500.0, -187500.02235174447, 32107.900930392854, -0.14400000000000002, 0.9560000000000001, -0.162, 192.0, 0.0, 0.0, 0.0, 0.0, 0.0, 0.0, 0.0, 0.0, 0.0, 1.698958522025764E9, 0.0, 2023-11-02 16:55:22.025
85.0, -187500.02235174447, 187500.0, 16267.465504105749, 66171.98183202527, 187500.0, 187500.0, -187500.02235174447, 32097.797941899058, -0.14400000000000002, 0.9560000000000001, -0.162, 192.0, 0.0, 0.0, 0.0, 0.0, 0.0, 0.0, 0.0, 0.0, 0.0, 1.6989585220257742E9, 0.0, 2023-11-02 16:55:22.025
86.0, -187500.02235174447, 187500.0, 16242.833881716, 66172.58532912556, 187500.0, 187500.0, -187500.02235174447, 32072.696932875748, -0.14400000000000002, 0.9560000000000001, -0.162, 192.0, 0.0, 0.0, 0.0, 0.0, 0.0, 0.0, 0.0, 0.0, 0.0, 1.698958522025784E9, 0.0, 2023-11-02 16:55:22.025
87.0, -187500.02235174447, 187500.0, 16223.007884384142, 66152.42405562688, 187500.0, 187500.0, -187500.02235174447, 32055.351979178427, -0.14400000000000002, 0.9560000000000001, -0.162, 192.0, 0.0, 0.0, 0.0, 0.0, 0.0, 0.0, 0.0, 0.0, 0.0, 1.698958522025806E9, 0.0, 2023-11-02 16:55:22.025
88.0, -187500.02235174447, 187500.0, 16212.9272476348, 66130.31818036058, 187500.0, 187500.0, -187500.02235174447, 32045.852487784923, -0.14400000000000002, 0.9560000000000001, -0.162, 192.0, 0.0, 0.0, 0.0, 0.0, 0.0, 0.0, 0.0, 0.0, 0.0, 1.6989585220258164E9, 0.0, 2023-11-02 16:55:22.025
89.0, -187500.02235174447, 187500.0, 16198.666834672313, 66083.13364781543, 187500.0, 187500.0, -187500.02235174447, 32030.675653299768, -0.14400000000000002, 0.9560000000000001, -0.162, 192.0, 0.0, 0.0, 0.0, 0.0, 0.0, 0.0, 0.0, 0.0, 0.0, 1.698958522025827E9, 0.0, 2023-11-02 16:55:22.025
90.0, -187500.02235174447, 187500.0, 16197.39278523836, 66064.44758945079, 187500.0, 187500.0, -187500.02235174447, 32028.194609665232, -0.14400000000000002, 0.9560000000000001, -0.162, 192.0, 0.0, 0.0, 0.0, 0.0, 0.0, 0.0, 0.0, 0.0, 0.0, 1.6989585220258367E9, 0.0, 2023-11-02 16:55:22.025
91.0, -187500.02235174447, 187500.0, 16193.190657280764, 66079.82558963605, 187500.0, 187500.0, -187500.02235174447, 32020.997347950622, -0.14400000000000002, 0.9560000000000001, -0.162, 192.0, 0.0, 0.0, 0.0, 0.0, 0.0, 0.0, 0.0, 0.0, 0.0, 1.6989585220258465E9, 0.0, 2023-11-02 16:55:22.025
92.0, -187500.02235174447, 187500.0, 16190.329633990485, 66083.98301410473, 187500.0, 187500.0, -187500.02235174447, 32018.516304316083, -0.136, 0.9500000000000001, -0.166, 192.0, 251.0, 192.0, 29.0, 176.0, 250.0, 208.0, 0.0, 0.0, 0.0, 1.698958522025856E9, 0.0, 2023-11-02 16:55:22.025
93.0, -187500.02235174447, 187500.0, 16185.59106416596, 66067.8897580969, 187500.0, 187500.0, -187500.02235174447, 32014.38123159185, -0.136, 0.9500000000000001, -0.166, 192.0, 0.0, 0.0, 0.0, 0.0, 0.0, 0.0, 0.0, 0.0, 0.0, 1.6989585220258665E9, 0.0, 2023-11-02 16:55:22.025
94.0, -187500.02235174447, 187500.0, 16170.950671547733, 66053.09290326749, 187500.0, 187500.0, -187500.02235174447, 32001.216054107674, -0.136, 0.9500000000000001, -0.166, 192.0, 0.0, 0.0, 0.0, 0.0, 0.0, 0.0, 0.0, 0.0, 0.0, 1.698958522025876E9, 0.0, 2023-11-02 16:55:22.025
95.0, -187500.02235174447, 187500.0, 16151.124674215875, 66045.33684794151, 187500.0, 187500.0, -187500.02235174447, 31981.591222475916, -0.136, 0.9500000000000001, -0.166, 192.0, 0.0, 0.0, 0.0, 0.0, 0.0, 0.0, 0.0, 0.0, 0.0, 1.6989585220258856E9, 0.0, 2023-11-02 16:55:22.025
96.0, -187500.02235174447, 187500.0, 16147.23547068065, 66036.6420193484, 187500.0, 187500.0, -187500.02235174447, 31975.46684449516, -0.136, 0.9500000000000001, -0.166, 192.0, 0.0, 0.0, 0.0, 0.0, 0.0, 0.0, 0.0, 0.0, 0.0, 1.698958522025895E9, 0.0, 2023-11-02 16:55:22.025
97.0, -187500.02235174447, 187500.0, 16140.440540366239, 66010.19990565776, 187500.0, 187500.0, -187500.02235174447, 31968.6942659252, -0.136, 0.9500000000000001, -0.166, 192.0, 0.0, 0.0, 0.0, 0.0, 0.0, 0.0, 0.0, 0.0, 0.0, 1.6989585220259063E9, 0.0, 2023-11-02 16:55:22.025
98.0, -187500.02235174447, 187500.0, 16125.978961703655, 65987.55758852453, 187500.0, 187500.0, -187500.02235174447, 31956.55726868597, -0.136, 0.9500000000000001, -0.166, 192.0, 0.0, 0.0, 0.0, 0.0, 0.0, 0.0, 0.0, 0.0, 0.0, 1.698958522025916E9, 0.0, 2023-11-02 16:55:22.025
99.0, -187500.02235174447, 187500.0, 16124.168470402774, 65995.24658861716, 187500.0, 187500.0, -187500.02235174447, 31955.529088441028, -0.136, 0.9500000000000001, -0.166, 192.0, 0.0, 0.0, 0.0, 0.0, 0.0, 0.0, 0.0, 0.0, 0.0, 1.6989585220259256E9, 0.0, 2023-11-02 16:55:22.025
100.0, -187500.02235174447, 187500.0, 16108.924580684255, 66000.45454507525, 187500.0, 187500.0, -187500.02235174447, 31940.441660933695, -0.136, 0.9500000000000001, -0.166, 192.0, 0.0, 0.0, 0.0, 0.0, 0.0, 0.0, 0.0, 0.0, 0.0, 1.6989585220259356E9, 0.0, 2023-11-02 16:55:22.025
101.0, -187500.02235174447, 187500.0, 16102.196705603208, 65966.65870745882, 187500.0, 187500.0, -187500.02235174447, 31932.439736418695, -0.136, 0.9500000000000001, -0.166, 192.0, 0.0, 0.0, 0.0, 0.0, 0.0, 0.0, 0.0, 0.0, 0.0, 1.6989585220259464E9, 0.0, 2023-11-02 16:55:22.025
102.0, -187500.02235174447, 187500.0, 16094.999443888599, 65941.5129949466, 187500.0, 187500.0, -187500.02235174447, 31923.141410725286, -0.106, 0.9400000000000001, -0.166, 192.0, 252.0, 176.0, 29.0, 96.0, 250.0, 208.0, 0.0, 0.0, 0.0, 1.6989585220259564E9, 0.0, 2023-11-02 16:55:22.025
103.0, -187500.02235174447, 187500.0, 16080.806086159479, 65938.38375072286, 187500.0, 187500.0, -187500.02235174447, 31907.36107913984, -0.106, 0.9400000000000001, -0.166, 192.0, 0.0, 0.0, 0.0, 0.0, 0.0, 0.0, 0.0, 0.0, 0.0, 1.698958522025984E9, 0.0, 2023-11-02 16:55:22.025
104.0, -187500.02235174447, 187500.0, 16074.502894223082, 65947.12328280488, 187500.0, 187500.0, -187500.02235174447, 31896.69929703466, -0.106, 0.9400000000000001, -0.166, 192.0, 0.0, 0.0, 0.0, 0.0, 0.0, 0.0, 0.0, 0.0, 0.0, 1.6989585220259936E9, 0.0, 2023-11-02 16:55:22.025
105.0, -187500.02235174447, 187500.0, 16081.811914659967, 65933.93575357625, 187500.0, 187500.0, -187500.02235174447, 31902.06371570393, -0.106, 0.9400000000000001, -0.166, 192.0, 0.0, 0.0, 0.0, 0.0, 0.0, 0.0, 0.0, 0.0, 0.0, 1.6989585220260036E9, 0.0, 2023-11-02 16:55:22.026
106.0, -187500.02235174447, 187500.0, 16075.888702379312, 65910.89110504283, 187500.0, 187500.0, -187500.02235174447, 31896.74400052357, -0.106, 0.9400000000000001, -0.166, 192.0, 0.0, 0.0, 0.0, 0.0, 0.0, 0.0, 0.0, 0.0, 0.0, 1.698958522026015E9, 0.0, 2023-11-02 16:55:22.026
107.0, -187500.02235174447, 187500.0, 16063.41642897325, 65909.10296548641, 187500.0, 187500.0, -187500.02235174447, 31885.679887018192, -0.106, 0.9400000000000001, -0.166, 192.0, 0.0, 0.0, 0.0, 0.0, 0.0, 0.0, 0.0, 0.0, 0.0, 1.6989585220260248E9, 0.0, 2023-11-02 16:55:22.026
108.0, -187500.02235174447, 187500.0, 16054.65454514677, 65912.92511378827, 187500.0, 187500.0, -187500.02235174447, 31876.761540980526, -0.106, 0.9400000000000001, -0.166, 192.0, 0.0, 0.0, 0.0, 0.0, 0.0, 0.0, 0.0, 0.0, 0.0, 1.6989585220260344E9, 0.0, 2023-11-02 16:55:22.026
109.0, -187500.02235174447, 187500.0, 16044.79742584198, 65896.94361650271, 187500.0, 187500.0, -187500.02235174447, 31867.373808309298, -0.106, 0.9400000000000001, -0.166, 192.0, 0.0, 0.0, 0.0, 0.0, 0.0, 0.0, 0.0, 0.0, 0.0, 1.6989585220260444E9, 0.0, 2023-11-02 16:55:22.026
110.0, -187500.02235174447, 187500.0, 16047.501986921072, 65872.89313946881, 187500.0, 187500.0, -187500.02235174447, 31872.671171745205, -0.106, 0.9400000000000001, -0.166, 192.0, 0.0, 0.0, 0.0, 0.0, 0.0, 0.0, 0.0, 0.0, 0.0, 1.698958522026054E9, 0.0, 2023-11-02 16:55:22.026
111.0, -187500.02235174447, 187500.0, 16050.050085788977, 65869.4956743116, 187500.0, 187500.0, -187500.02235174447, 31876.761540980526, -0.10200000000000001, 0.962, -0.166, 192.0, 252.0, 208.0, 30.0, 16.0, 250.0, 208.0, 0.0, 0.0, 0.0, 1.698958522026064E9, 0.0, 2023-11-02 16:55:22.026
112.0, -187500.02235174447, 187500.0, 16050.586527655903, 65875.64240403681, 187500.0, 187500.0, -187500.02235174447, 31879.399046826253, -0.10200000000000001, 0.962, -0.166, 192.0, 0.0, 0.0, 0.0, 0.0, 0.0, 0.0, 0.0, 0.0, 0.0, 1.6989585220260744E9, 0.0, 2023-11-02 16:55:22.026
113.0, -187500.02235174447, 187500.0, 16050.631231144815, 65871.68614526822, 187500.0, 187500.0, -187500.02235174447, 31883.042381172465, -0.10200000000000001, 0.962, -0.166, 192.0, 0.0, 0.0, 0.0, 0.0, 0.0, 0.0, 0.0, 0.0, 0.0, 1.698958522026084E9, 0.0, 2023-11-02 16:55:22.026
114.0, -187500.02235174447, 187500.0, 16041.064684517944, 65832.01179886005, 187500.0, 187500.0, -187500.02235174447, 31874.995753168554, -0.10200000000000001, 0.962, -0.166, 192.0, 0.0, 0.0, 0.0, 0.0, 0.0, 0.0, 0.0, 0.0, 0.0, 1.6989585220260944E9, 0.0, 2023-11-02 16:55:22.026
115.0, -187500.02235174447, 187500.0, 16042.986934541099, 65821.10414756586, 187500.0, 187500.0, -187500.02235174447, 31878.996715426056, -0.10200000000000001, 0.962, -0.166, 192.0, 0.0, 0.0, 0.0, 0.0, 0.0, 0.0, 0.0, 0.0, 0.0, 1.698958522026108E9, 0.0, 2023-11-02 16:55:22.026
116.0, -187500.02235174447, 187500.0, 16042.204623485164, 65842.31595305396, 187500.0, 187500.0, -187500.02235174447, 31874.1240351348, -0.10200000000000001, 0.962, -0.166, 192.0, 0.0, 0.0, 0.0, 0.0, 0.0, 0.0, 0.0, 0.0, 0.0, 1.6989585220261204E9, 0.0, 2023-11-02 16:55:22.026
117.0, -187500.02235174447, 187500.0, 16039.522414150528, 65826.02153134604, 187500.0, 187500.0, -187500.02235174447, 31865.608020497326, -0.10200000000000001, 0.962, -0.166, 192.0, 0.0, 0.0, 0.0, 0.0, 0.0, 0.0, 0.0, 0.0, 0.0, 1.698958522026131E9, 0.0, 2023-11-02 16:55:22.026
118.0, -187500.02235174447, 187500.0, 16028.12302447832, 65782.90501629174, 187500.0, 187500.0, -187500.02235174447, 31851.77229067949, -0.10200000000000001, 0.962, -0.166, 192.0, 0.0, 0.0, 0.0, 0.0, 0.0, 0.0, 0.0, 0.0, 0.0, 1.6989585220261528E9, 0.0, 2023-11-02 16:55:22.026
119.0, -187500.02235174447, 187500.0, 16027.74304482258, 65773.74080106507, 187500.0, 187500.0, -187500.02235174447, 31850.833517412368, -0.10200000000000001, 0.962, -0.166, 192.0, 0.0, 0.0, 0.0, 0.0, 0.0, 0.0, 0.0, 0.0, 0.0, 1.698958522026164E9, 0.0, 2023-11-02 16:55:22.026
120.0, -187500.02235174447, 187500.0, 16013.572038837916, 65786.83892331588, 187500.0, 187500.0, -187500.02235174447, 31834.226171282076, -0.10200000000000001, 0.962, -0.166, 192.0, 0.0, 0.0, 0.0, 0.0, 0.0, 0.0, 0.0, 0.0, 0.0, 1.6989585220261736E9, 0.0, 2023-11-02 16:55:22.026
121.0, -187500.02235174447, 187500.0, 15986.526428046995, 65781.16158022423, 187500.0, 187500.0, -187500.02235174447, 31805.10184825681, -0.098, 0.96, -0.158, 192.0, 252.0, 240.0, 30.0, 0.0, 251.0, 16.0, 0.0, 0.0, 0.0, 1.6989585220261834E9, 0.0, 2023-11-02 16:55:22.026
122.0, -187500.02235174447, 187500.0, 15968.175645849187, 65748.75155076403, 187500.0, 187500.0, -187500.02235174447, 31785.991106747522, -0.098, 0.96, -0.158, 192.0, 0.0, 0.0, 0.0, 0.0, 0.0, 0.0, 0.0, 0.0, 0.0, 1.698958522026194E9, 0.0, 2023-11-02 16:55:22.026
123.0, -187500.02235174447, 187500.0, 15949.623697951281, 65725.99747490854, 187500.0, 187500.0, -187500.02235174447, 31766.165109415666, -0.098, 0.96, -0.158, 192.0, 0.0, 0.0, 0.0, 0.0, 0.0, 0.0, 0.0, 0.0, 0.0, 1.698958522026204E9, 0.0, 2023-11-02 16:55:22.026
124.0, -187500.02235174447, 187500.0, 15929.261258752496, 65739.52028030399, 187500.0, 187500.0, -187500.02235174447, 31743.075757393333, -0.098, 0.96, -0.158, 192.0, 0.0, 0.0, 0.0, 0.0, 0.0, 0.0, 0.0, 0.0, 0.0, 1.6989585220262134E9, 0.0, 2023-11-02 16:55:22.026
125.0, -187500.02235174447, 187500.0, 15904.249656707008, 65744.59412629534, 187500.0, 187500.0, -187500.02235174447, 31716.767754169436, -0.098, 0.96, -0.158, 192.0, 0.0, 0.0, 0.0, 0.0, 0.0, 0.0, 0.0, 0.0, 0.0, 1.6989585220262232E9, 0.0, 2023-11-02 16:55:22.026
126.0, -187169.3729960171, 187500.0, 15882.412002374174, 65713.01111138, 187500.0, 187500.0, -187500.02235174447, 31691.84555910177, -0.098, 0.96, -0.158, 192.0, 0.0, 0.0, 0.0, 0.0, 0.0, 0.0, 0.0, 0.0, 0.0, 1.698958522026235E9, 0.0, 2023-11-02 16:55:22.026
127.0, -185322.06837201933, 187500.0, 15864.105923665276, 65684.1550092882, 187500.0, 187500.0, -187500.02235174447, 31673.338314692777, -0.098, 0.96, -0.158, 192.0, 0.0, 0.0, 0.0, 0.0, 0.0, 0.0, 0.0, 0.0, 0.0, 1.698958522026246E9, 0.0, 2023-11-02 16:55:22.026
128.0, -183131.79858109934, 187500.0, 15840.971868154034, 65700.67294844067, 187500.0, 187500.0, -187500.02235174447, 31653.825241783292, -0.098, 0.96, -0.158, 192.0, 0.0, 0.0, 0.0, 0.0, 0.0, 0.0, 0.0, 0.0, 0.0, 1.6989585220262573E9, 0.0, 2023-11-02 16:55:22.026
129.0, -180557.54817218165, 187500.0, 15799.107050789244, 65692.1569338032, 187500.0, 187500.0, -187500.02235174447, 31610.19463660653, -0.098, 0.96, -0.158, 192.0, 0.0, 0.0, 0.0, 0.0, 0.0, 0.0, 0.0, 0.0, 0.0, 1.6989585220262685E9, 0.0, 2023-11-02 16:55:22.026
130.0, -177790.80454001483, 187500.0, 15770.809742308826, 65671.25805273748, 187500.0, 187500.0, -187500.02235174447, 31581.852624637202, -0.098, 0.96, -0.158, 192.0, 0.0, 0.0, 0.0, 0.0, 0.0, 0.0, 0.0, 0.0, 0.0, 1.6989585220262797E9, 0.0, 2023-11-02 16:55:22.026
131.0, -174966.9522007647, 187500.0, 15734.0634744243, 65628.20859291656, 187500.0, 187500.0, -187500.02235174447, 31545.48633640842, -0.11, 0.964, -0.14, 192.0, 252.0, 144.0, 30.0, 32.0, 251.0, 160.0, 0.0, 0.0, 0.0, 1.6989585220262928E9, 0.0, 2023-11-02 16:55:22.026
132.0, -171938.9390276598, 187500.0, 15702.569866486772, 65618.77615675643, 187500.0, 187500.0, -187500.02235174447, 31514.350356382176, -0.11, 0.964, -0.14, 192.0, 0.0, 0.0, 0.0, 0.0, 0.0, 0.0, 0.0, 0.0, 0.0, 1.698958522026304E9, 0.0, 2023-11-02 16:55:22.026
133.0, -168684.30151752252, 187500.0, 15670.0480783043, 65604.38163332721, 187500.0, 187500.0, -187500.02235174447, 31483.706114733952, -0.11, 0.964, -0.14, 192.0, 0.0, 0.0, 0.0, 0.0, 0.0, 0.0, 0.0, 0.0, 0.0, 1.698958522026326E9, 0.0, 2023-11-02 16:55:22.026
134.0, -165420.1421642473, 187500.0, 15636.274592432332, 65562.33800200677, 187500.0, 187500.0, -187500.02235174447, 31448.815041639216, -0.11, 0.964, -0.14, 192.0, 0.0, 0.0, 0.0, 0.0, 0.0, 0.0, 0.0, 0.0, 0.0, 1.698958522026336E9, 0.0, 2023-11-02 16:55:22.026
135.0, -162298.02814698557, 187500.0, 15610.033644441803, 65518.260361940906, 187500.0, 187500.0, -187500.02235174447, 31421.277692470278, -0.11, 0.964, -0.14, 192.0, 0.0, 0.0, 0.0, 0.0, 0.0, 0.0, 0.0, 0.0, 0.0, 1.6989585220263455E9, 0.0, 2023-11-02 16:55:22.026
136.0, -159107.04840505702, 187500.0, 15578.763553948827, 65492.93583547304, 187500.0, 187500.0, -187500.02235174447, 31389.69467755493, -0.11, 0.964, -0.14, 192.0, 0.0, 0.0, 0.0, 0.0, 0.0, 0.0, 0.0, 0.0, 0.0, 1.6989585220263555E9, 0.0, 2023-11-02 16:55:22.026
137.0, -155688.05851793988, 187500.0, 15556.389457749065, 65487.504361570405, 187500.0, 187500.0, -187500.02235174447, 31366.49356681032, -0.11, 0.964, -0.14, 192.0, 0.0, 0.0, 0.0, 0.0, 0.0, 0.0, 0.0, 0.0, 0.0, 1.6989585220263655E9, 0.0, 2023-11-02 16:55:22.026
138.0, -152222.95698201144, 187500.0, 15533.322457471188, 65462.80568394729, 187500.0, 187500.0, -187500.02235174447, 31343.605380488087, -0.11, 0.964, -0.14, 192.0, 0.0, 0.0, 0.0, 0.0, 0.0, 0.0, 0.0, 0.0, 0.0, 1.6989585220263755E9, 0.0, 2023-11-02 16:55:22.026
139.0, -149065.14722885456, 187500.0, 15536.854033095127, 65429.50158470889, 187500.0, 187500.0, -187500.02235174447, 31346.44405203391, -0.11, 0.964, -0.14, 192.0, 0.0, 0.0, 0.0, 0.0, 0.0, 0.0, 0.0, 0.0, 0.0, 1.6989585220263853E9, 0.0, 2023-11-02 16:55:22.026
140.0, -146154.43601065112, 187500.0, 15526.683989367963, 65415.4423374465, 187500.0, 187500.0, -187500.02235174447, 31336.67633970694, -0.11, 0.964, -0.14, 192.0, 0.0, 0.0, 0.0, 0.0, 0.0, 0.0, 0.0, 0.0, 0.0, 1.6989585220263965E9, 0.0, 2023-11-02 16:55:22.026
141.0, -143178.65886433827, 187500.0, 15515.150489229023, 65425.65708466257, 187500.0, 187500.0, -187500.02235174447, 31324.62874944553, -0.10400000000000001, 0.962, -0.134, 192.0, 252.0, 192.0, 30.0, 16.0, 251.0, 208.0, 0.0, 0.0, 0.0, 1.6989585220264072E9, 0.0, 2023-11-02 16:55:22.026
142.0, -140183.7486247717, 187500.0, 15496.822058775671, 65407.19454374249, 187500.0, 187500.0, -187500.02235174447, 31309.183694026913, -0.10400000000000001, 0.962, -0.134, 192.0, 0.0, 0.0, 0.0, 0.0, 0.0, 0.0, 0.0, 0.0, 0.0, 1.698958522026418E9, 0.0, 2023-11-02 16:55:22.026
143.0, -137415.932108871, 187500.0, 15495.413898874987, 65371.16353168053, 187500.0, 187500.0, -187500.02235174447, 31309.451914960377, -0.10400000000000001, 0.962, -0.134, 192.0, 0.0, 0.0, 0.0, 0.0, 0.0, 0.0, 0.0, 0.0, 0.0, 1.698958522026429E9, 0.0, 2023-11-02 16:55:22.026
144.0, -134872.61651427945, 187500.0, 15510.613085104596, 65365.732057777896, 187500.0, 187500.0, -187500.02235174447, 31325.433412245922, -0.10400000000000001, 0.962, -0.134, 192.0, 0.0, 0.0, 0.0, 0.0, 0.0, 0.0, 0.0, 0.0, 0.0, 1.6989585224395545E9, 0.0, 2023-11-02 16:55:22.439
145.0, -132334.0841930013, 187500.0, 15510.724843826873, 65367.85547350115, 187500.0, 187500.0, -187500.02235174447, 31327.266255291255, -0.10400000000000001, 0.962, -0.134, 192.0, 0.0, 0.0, 0.0, 0.0, 0.0, 0.0, 0.0, 0.0, 0.0, 1.6989585224396954E9, 0.0, 2023-11-02 16:55:22.439
146.0, -129850.51481133877, 187500.0, 15511.797727560726, 65362.31224087623, 187500.0, 187500.0, -187500.02235174447, 31326.3945372575, -0.10400000000000001, 0.962, -0.134, 192.0, 0.0, 0.0, 0.0, 0.0, 0.0, 0.0, 0.0, 0.0, 0.0, 1.6989585224397247E9, 0.0, 2023-11-02 16:55:22.439
147.0, -127764.67237051397, 187500.0, 15527.242782979345, 65332.383255050576, 187500.0, 187500.0, -187500.02235174447, 31336.67633970694, -0.10400000000000001, 0.962, -0.134, 192.0, 0.0, 0.0, 0.0, 0.0, 0.0, 0.0, 0.0, 0.0, 0.0, 1.6989585224397347E9, 0.0, 2023-11-02 16:55:22.439
148.0, -126118.19817044714, 187500.0, 15552.902585614036, 65324.9177724025, 187500.0, 187500.0, -187500.02235174447, 31360.63740976303, -0.10400000000000001, 0.962, -0.134, 192.0, 0.0, 0.0, 0.0, 0.0, 0.0, 0.0, 0.0, 0.0, 0.0, 1.6989585224397736E9, 0.0, 2023-11-02 16:55:22.439
149.0, -124582.2086432229, 187500.0, 15575.500199258353, 65354.69029601697, 187500.0, 187500.0, -187500.02235174447, 31383.07856119616, -0.10400000000000001, 0.962, -0.134, 192.0, 0.0, 0.0, 0.0, 0.0, 0.0, 0.0, 0.0, 0.0, 0.0, 1.6989585224397833E9, 0.0, 2023-11-02 16:55:22.439
150.0, -122966.5798505044, 187500.0, 15591.816972710727, 65379.143104451075, 187500.0, 187500.0, -187500.02235174447, 31396.489607869342, -0.10400000000000001, 0.962, -0.134, 192.0, 0.0, 0.0, 0.0, 0.0, 0.0, 0.0, 0.0, 0.0, 0.0, 1.698958522439793E9, 0.0, 2023-11-02 16:55:22.439
151.0, -121400.72839268786, 187500.0, 15600.310635603742, 65381.51238936334, 187500.0, 187500.0, -187500.02235174447, 31401.764619560796, -0.132, 0.976, -0.134, 192.0, 251.0, 224.0, 30.0, 128.0, 251.0, 208.0, 0.0, 0.0, 0.0, 1.698958522439803E9, 0.0, 2023-11-02 16:55:22.439
152.0, -119846.07515884342, 187500.0, 15615.979208466913, 65389.87194178963, 187500.0, 187500.0, -187500.02235174447, 31412.582863877164, -0.132, 0.976, -0.134, 192.0, 0.0, 0.0, 0.0, 0.0, 0.0, 0.0, 0.0, 0.0, 0.0, 1.6989585224398136E9, 0.0, 2023-11-02 16:55:22.439
153.0, -118019.42354672236, 187500.0, 15622.774138781328, 65412.60366590067, 187500.0, 187500.0, -187500.02235174447, 31412.985195277357, -0.132, 0.976, -0.134, 192.0, 0.0, 0.0, 0.0, 0.0, 0.0, 0.0, 0.0, 0.0, 0.0, 1.6989585224398232E9, 0.0, 2023-11-02 16:55:22.439
154.0, -115781.52218836811, 187500.0, 15603.551638549763, 65419.197430514985, 187500.0, 187500.0, -187500.02235174447, 31391.72868630036, -0.132, 0.976, -0.134, 192.0, 0.0, 0.0, 0.0, 0.0, 0.0, 0.0, 0.0, 0.0, 0.0, 1.6989585224398327E9, 0.0, 2023-11-02 16:55:22.439
155.0, -113368.18198778415, 187500.0, 15587.190161608478, 65395.683395348, 187500.0, 187500.0, -187500.02235174447, 31371.567412801676, -0.132, 0.976, -0.134, 192.0, 0.0, 0.0, 0.0, 0.0, 0.0, 0.0, 0.0, 0.0, 0.0, 1.6989585224398446E9, 0.0, 2023-11-02 16:55:22.439
156.0, -110973.70665952047, 187500.0, 15575.857827169637, 65371.63291831409, 187500.0, 187500.0, -187500.02235174447, 31359.653933006997, -0.132, 0.976, -0.134, 192.0, 0.0, 0.0, 0.0, 0.0, 0.0, 0.0, 0.0, 0.0, 0.0, 1.6989585224398549E9, 0.0, 2023-11-02 16:55:22.439
157.0, -108437.83419583252, 187500.0, 15556.344754260153, 65372.32582239221, 187500.0, 187500.0, -187500.02235174447, 31342.10781360958, -0.132, 0.976, -0.134, 192.0, 0.0, 0.0, 0.0, 0.0, 0.0, 0.0, 0.0, 0.0, 0.0, 1.6989585224398644E9, 0.0, 2023-11-02 16:55:22.439
158.0, -105713.0000845194, 187500.0, 15535.200004005434, 65365.3297263777, 187500.0, 187500.0, -187500.02235174447, 31318.34790925359, -0.132, 0.976, -0.134, 192.0, 0.0, 0.0, 0.0, 0.0, 0.0, 0.0, 0.0, 0.0, 0.0, 1.698958522439874E9, 0.0, 2023-11-02 16:55:22.439
159.0, -103062.06084037553, 187500.0, 15537.569288917697, 65346.487205801874, 187500.0, 187500.0, -187500.02235174447, 31315.509237707764, -0.132, 0.976, -0.134, 192.0, 0.0, 0.0, 0.0, 0.0, 0.0, 0.0, 0.0, 0.0, 0.0, 1.6989585224398837E9, 0.0, 2023-11-02 16:55:22.439
252.0, -187500.02235174447, 187500.0, 22625.41921441784, 26921.022167327665, 187500.0, 187500.0, -187500.02235174447, 36568.392702149475, -0.132, 0.976, -0.134, 192.0, 0.0, 0.0, 0.0, 0.0, 0.0, 0.0, 0.0, 0.0, 0.0, 1.6989585224399211E9, 0.0, 2023-11-02 16:55:22.439
253.0, -187500.02235174447, 187500.0, 22621.306493438067, 26915.411879469382, 187500.0, 187500.0, -187500.02235174447, 36561.553068346155, -0.132, 0.976, -0.134, 192.0, 0.0, 0.0, 0.0, 0.0, 0.0, 0.0, 0.0, 0.0, 0.0, 1.6989585224399357E9, 0.0, 2023-11-02 16:55:22.439
254.0, -187500.02235174447, 187500.0, 22620.255961448667, 26907.432306698836, 187500.0, 187500.0, -187500.02235174447, 36559.85433576755, -0.132, 0.976, -0.134, 192.0, 0.0, 0.0, 0.0, 0.0, 0.0, 0.0, 0.0, 0.0, 0.0, 1.6989585224399452E9, 0.0, 2023-11-02 16:55:22.439
255.0, -187500.02235174447, 187500.0, 22624.52514463963, 26899.162161250373, 187500.0, 187500.0, -187500.02235174447, 36562.447138124364, -0.132, 0.976, -0.134, 192.0, 0.0, 0.0, 0.0, 0.0, 0.0, 0.0, 0.0, 0.0, 0.0, 1.698958522439964E9, 0.0, 2023-11-02 16:55:22.439
0.0, -187500.02235174447, 187500.0, 22621.731176582718, 26894.535350148126, 187500.0, 187500.0, -187500.02235174447, 36560.03314972319, -0.10400000000000001, 0.97, 0.1, 192.0, 252.0, 192.0, 30.0, 80.0, 3.0, 32.0, 0.0, 0.0, 0.0, 1.6989585224399736E9, 0.0, 2023-11-02 16:55:22.439
1.0, -187500.02235174447, 187500.0, 22624.122813239435, 26893.57422513655, 187500.0, 187500.0, -187500.02235174447, 36562.96122824684, -0.10400000000000001, 0.97, 0.1, 192.0, 0.0, 0.0, 0.0, 0.0, 0.0, 0.0, 0.0, 0.0, 0.0, 1.698958522439984E9, 0.0, 2023-11-02 16:55:22.439
2.0, -187500.02235174447, 187500.0, 22621.932342282813, 26892.79191408061, 187500.0, 187500.0, -187500.02235174447, 36560.14490844547, -0.10400000000000001, 0.97, 0.1, 192.0, 0.0, 0.0, 0.0, 0.0, 0.0, 0.0, 0.0, 0.0, 0.0, 1.6989585224399936E9, 0.0, 2023-11-02 16:55:22.439
3.0, -187500.02235174447, 187500.0, 22617.86432479195, 26881.571338364047, 187500.0, 187500.0, -187500.02235174447, 36556.50157409925, -0.10400000000000001, 0.97, 0.1, 192.0, 0.0, 0.0, 0.0, 0.0, 0.0, 0.0, 0.0, 0.0, 0.0, 1.6989585224400032E9, 0.0, 2023-11-02 16:55:22.440
4.0, -187500.02235174447, 187500.0, 22619.09367073699, 26866.930945745822, 187500.0, 187500.0, -187500.02235174447, 36558.71439680033, -0.10400000000000001, 0.97, 0.1, 192.0, 0.0, 0.0, 0.0, 0.0, 0.0, 0.0, 0.0, 0.0, 0.0, 1.6989585224400127E9, 0.0, 2023-11-02 16:55:22.440
5.0, -187500.02235174447, 187500.0, 22620.166554470845, 26864.02521896663, 187500.0, 187500.0, -187500.02235174447, 36559.384949133986, -0.10400000000000001, 0.97, 0.1, 192.0, 0.0, 0.0, 0.0, 0.0, 0.0, 0.0, 0.0, 0.0, 0.0, 1.6989585224400225E9, 0.0, 2023-11-02 16:55:22.440
6.0, -187500.02235174447, 187500.0, 22616.344406168988, 26863.13114918842, 187500.0, 187500.0, -187500.02235174447, 36554.1769926759, -0.10400000000000001, 0.97, 0.1, 192.0, 0.0, 0.0, 0.0, 0.0, 0.0, 0.0, 0.0, 0.0, 0.0, 1.6989585224400318E9, 0.0, 2023-11-02 16:55:22.440
7.0, -187500.02235174447, 187500.0, 22612.67872007832, 26867.31092540156, 187500.0, 187500.0, -187500.02235174447, 36550.488954840774, -0.10400000000000001, 0.97, 0.1, 192.0, 0.0, 0.0, 0.0, 0.0, 0.0, 0.0, 0.0, 0.0, 0.0, 1.6989585224400413E9, 0.0, 2023-11-02 16:55:22.440
8.0, -187500.02235174447, 187500.0, 22613.304568923068, 26850.88239322691, 187500.0, 187500.0, -187500.02235174447, 36550.80187926315, -0.10400000000000001, 0.97, 0.1, 192.0, 0.0, 0.0, 0.0, 0.0, 0.0, 0.0, 0.0, 0.0, 0.0, 1.6989585224400508E9, 0.0, 2023-11-02 16:55:22.440
9.0, -187500.02235174447, 187500.0, 22614.355100912464, 26850.055378682064, 187500.0, 187500.0, -187500.02235174447, 36550.712472285326, -0.10400000000000001, 0.97, 0.1, 192.0, 0.0, 0.0, 0.0, 0.0, 0.0, 0.0, 0.0, 0.0, 0.0, 1.6989585224400604E9, 0.0, 2023-11-02 16:55:22.440
10.0, -187500.02235174447, 187500.0, 22610.04121423259, 26860.605402064968, 187500.0, 187500.0, -187500.02235174447, 36545.61627454952, -0.10400000000000001, 0.976, 0.092, 192.0, 252.0, 192.0, 30.0, 128.0, 2.0, 224.0, 0.0, 0.0, 0.0, 1.69895852244007E9, 0.0, 2023-11-02 16:55:22.440
11.0, -187500.02235174447, 187500.0, 22605.72732755272, 26872.18360569282, 187500.0, 187500.0, -187500.02235174447, 36540.162448902425, -0.10400000000000001, 0.976, 0.092, 192.0, 0.0, 0.0, 0.0, 0.0, 0.0, 0.0, 0.0, 0.0, 0.0, 1.6989585224400804E9, 0.0, 2023-11-02 16:55:22.440
12.0, -187500.02235174447, 187500.0, 22615.629150346416, 26872.295364415095, 187500.0, 187500.0, -187500.02235174447, 36549.95251297385, -0.10400000000000001, 0.976, 0.092, 192.0, 0.0, 0.0, 0.0, 0.0, 0.0, 0.0, 0.0, 0.0, 0.0, 1.69895852244009E9, 0.0, 2023-11-02 16:55:22.440
13.0, -187500.02235174447, 187500.0, 22622.111156238458, 26878.956184262777, 187500.0, 187500.0, -187500.02235174447, 36558.692045055875, -0.10400000000000001, 0.976, 0.092, 192.0, 0.0, 0.0, 0.0, 0.0, 0.0, 0.0, 0.0, 0.0, 0.0, 1.6989585224400997E9, 0.0, 2023-11-02 16:55:22.440
14.0, -187500.02235174447, 187500.0, 22621.619417860442, 26886.645184355402, 187500.0, 187500.0, -187500.02235174447, 36558.62498982251, -0.10400000000000001, 0.976, 0.092, 192.0, 0.0, 0.0, 0.0, 0.0, 0.0, 0.0, 0.0, 0.0, 0.0, 1.698958522440117E9, 0.0, 2023-11-02 16:55:22.440
15.0, -187500.02235174447, 187500.0, 22617.350234669477, 26890.176759979342, 187500.0, 187500.0, -187500.02235174447, 36553.439385108875, -0.10400000000000001, 0.976, 0.092, 192.0, 0.0, 0.0, 0.0, 0.0, 0.0, 0.0, 0.0, 0.0, 0.0, 1.6989585224401264E9, 0.0, 2023-11-02 16:55:22.440
16.0, -187500.02235174447, 187500.0, 22617.909028280857, 26879.55968136307, 187500.0, 187500.0, -187500.02235174447, 36550.42189960741, -0.10400000000000001, 0.976, 0.092, 192.0, 0.0, 0.0, 0.0, 0.0, 0.0, 0.0, 0.0, 0.0, 0.0, 1.698958522440136E9, 0.0, 2023-11-02 16:55:22.440
17.0, -187500.02235174447, 187500.0, 22615.293874179588, 26872.340067904006, 187500.0, 187500.0, -187500.02235174447, 36545.5268675717, -0.10400000000000001, 0.976, 0.092, 192.0, 0.0, 0.0, 0.0, 0.0, 0.0, 0.0, 0.0, 0.0, 0.0, 1.6989585224401455E9, 0.0, 2023-11-02 16:55:22.440
18.0, -187500.02235174447, 187500.0, 22608.476592120718, 26876.475140628238, 187500.0, 187500.0, -187500.02235174447, 36538.821344235104, -0.10400000000000001, 0.976, 0.092, 192.0, 0.0, 0.0, 0.0, 0.0, 0.0, 0.0, 0.0, 0.0, 0.0, 1.6989585224401553E9, 0.0, 2023-11-02 16:55:22.440
19.0, -187500.02235174447, 187500.0, 22607.76133629815, 26883.51594013166, 187500.0, 187500.0, -187500.02235174447, 36538.01668143472, -0.10400000000000001, 0.976, 0.092, 192.0, 0.0, 0.0, 0.0, 0.0, 0.0, 0.0, 0.0, 0.0, 0.0, 1.6989585224401665E9, 0.0, 2023-11-02 16:55:22.440
20.0, -187500.02235174447, 187500.0, 22608.700109565274, 26888.32156518955, 187500.0, 187500.0, -187500.02235174447, 36539.15662040193, -0.10200000000000001, 0.974, 0.09, 192.0, 252.0, 208.0, 30.0, 112.0, 2.0, 208.0, 0.0, 0.0, 0.0, 1.6989585224401758E9, 0.0, 2023-11-02 16:55:22.440
21.0, -187500.02235174447, 187500.0, 22609.99651074368, 26876.877472028435, 187500.0, 187500.0, -187500.02235174447, 36541.771774503206, -0.10200000000000001, 0.974, 0.09, 192.0, 0.0, 0.0, 0.0, 0.0, 0.0, 0.0, 0.0, 0.0, 0.0, 1.698958522440186E9, 0.0, 2023-11-02 16:55:22.440
22.0, -187500.02235174447, 187500.0, 22608.90127526537, 26881.83955929751, 187500.0, 187500.0, -187500.02235174447, 36540.6765390249, -0.10200000000000001, 0.974, 0.09, 192.0, 0.0, 0.0, 0.0, 0.0, 0.0, 0.0, 0.0, 0.0, 0.0, 1.698958522440196E9, 0.0, 2023-11-02 16:55:22.440
23.0, -187500.02235174447, 187500.0, 22605.90614150836, 26881.861911041968, 187500.0, 187500.0, -187500.02235174447, 36537.770812245704, -0.10200000000000001, 0.974, 0.09, 192.0, 0.0, 0.0, 0.0, 0.0, 0.0, 0.0, 0.0, 0.0, 0.0, 1.6989585224402053E9, 0.0, 2023-11-02 16:55:22.440
24.0, -187500.02235174447, 187500.0, 22604.945016496782, 26877.235099939717, 187500.0, 187500.0, -187500.02235174447, 36533.56868428811, -0.10200000000000001, 0.974, 0.09, 192.0, 0.0, 0.0, 0.0, 0.0, 0.0, 0.0, 0.0, 0.0, 0.0, 1.698958522440215E9, 0.0, 2023-11-02 16:55:22.440
25.0, -187500.02235174447, 187500.0, 22602.79924902907, 26860.9406782318, 187500.0, 187500.0, -187500.02235174447, 36528.29367259666, -0.10200000000000001, 0.974, 0.09, 192.0, 0.0, 0.0, 0.0, 0.0, 0.0, 0.0, 0.0, 0.0, 0.0, 1.698958522440225E9, 0.0, 2023-11-02 16:55:22.440
26.0, -187500.02235174447, 187500.0, 22609.638882832394, 26854.74924501768, 187500.0, 187500.0, -187500.02235174447, 36535.334472100076, -0.10200000000000001, 0.974, 0.09, 192.0, 0.0, 0.0, 0.0, 0.0, 0.0, 0.0, 0.0, 0.0, 0.0, 1.6989585224402356E9, 0.0, 2023-11-02 16:55:22.440
27.0, -187500.02235174447, 187500.0, 22605.973196741725, 26863.019390466143, 187500.0, 187500.0, -187500.02235174447, 36534.66391976642, -0.10200000000000001, 0.974, 0.09, 192.0, 0.0, 0.0, 0.0, 0.0, 0.0, 0.0, 0.0, 0.0, 0.0, 1.6989585224402452E9, 0.0, 2023-11-02 16:55:22.440
28.0, -187500.02235174447, 187500.0, 22606.46493511974, 26860.493643342692, 187500.0, 187500.0, -187500.02235174447, 36536.027376178194, -0.10200000000000001, 0.974, 0.09, 192.0, 0.0, 0.0, 0.0, 0.0, 0.0, 0.0, 0.0, 0.0, 0.0, 1.6989585224402552E9, 0.0, 2023-11-02 16:55:22.440
29.0, -187500.02235174447, 187500.0, 22606.979025242214, 26850.904744971365, 187500.0, 187500.0, -187500.02235174447, 36535.17800988889, -0.10200000000000001, 0.974, 0.09, 192.0, 0.0, 0.0, 0.0, 0.0, 0.0, 0.0, 0.0, 0.0, 0.0, 1.6989585224402847E9, 0.0, 2023-11-02 16:55:22.440
30.0, -187500.02235174447, 187500.0, 22605.72732755272, 26848.490756570194, 187500.0, 187500.0, -187500.02235174447, 36534.216884877314, -0.10400000000000001, 0.972, 0.096, 192.0, 252.0, 192.0, 30.0, 96.0, 3.0, 0.0, 0.0, 0.0, 0.0, 1.698958522440296E9, 0.0, 2023-11-02 16:55:22.440
31.0, -187500.02235174447, 187500.0, 22600.832295517004, 26848.378997847918, 187500.0, 187500.0, -187500.02235174447, 36530.32768134209, -0.10400000000000001, 0.972, 0.096, 192.0, 0.0, 0.0, 0.0, 0.0, 0.0, 0.0, 0.0, 0.0, 0.0, 1.6989585224403071E9, 0.0, 2023-11-02 16:55:22.440
32.0, -187500.02235174447, 187500.0, 22604.699147307772, 26845.40621583536, 187500.0, 187500.0, -187500.02235174447, 36535.28976861117, -0.10400000000000001, 0.972, 0.096, 192.0, 0.0, 0.0, 0.0, 0.0, 0.0, 0.0, 0.0, 0.0, 0.0, 1.6989585224403183E9, 0.0, 2023-11-02 16:55:22.440
33.0, -187500.02235174447, 187500.0, 22607.04608047558, 26847.775500747623, 187500.0, 187500.0, -187500.02235174447, 36540.363614602524, -0.10400000000000001, 0.972, 0.096, 192.0, 0.0, 0.0, 0.0, 0.0, 0.0, 0.0, 0.0, 0.0, 0.0, 1.6989585224403296E9, 0.0, 2023-11-02 16:55:22.440
34.0, -187500.02235174447, 187500.0, 22600.027632716614, 26845.182698390807, 187500.0, 187500.0, -187500.02235174447, 36533.9710156883, -0.10400000000000001, 0.972, 0.096, 192.0, 0.0, 0.0, 0.0, 0.0, 0.0, 0.0, 0.0, 0.0, 0.0, 1.6989585224403405E9, 0.0, 2023-11-02 16:55:22.440
35.0, -187500.02235174447, 187500.0, 22603.67096706283, 26851.41883509384, 187500.0, 187500.0, -187500.02235174447, 36537.301425612146, -0.10400000000000001, 0.972, 0.096, 192.0, 0.0, 0.0, 0.0, 0.0, 0.0, 0.0, 0.0, 0.0, 0.0, 1.6989585224403508E9, 0.0, 2023-11-02 16:55:22.440
36.0, -187500.02235174447, 187500.0, 22600.47466760572, 26846.210878635753, 187500.0, 187500.0, -187500.02235174447, 36533.74749824375, -0.10400000000000001, 0.972, 0.096, 192.0, 0.0, 0.0, 0.0, 0.0, 0.0, 0.0, 0.0, 0.0, 0.0, 1.6989585224403627E9, 0.0, 2023-11-02 16:55:22.440
37.0, -187500.02235174447, 187500.0, 22604.81090603005, 26840.533535544102, 187500.0, 187500.0, -187500.02235174447, 36538.75428900174, -0.10400000000000001, 0.972, 0.096, 192.0, 0.0, 0.0, 0.0, 0.0, 0.0, 0.0, 0.0, 0.0, 0.0, 1.6989585224403727E9, 0.0, 2023-11-02 16:55:22.440
38.0, -187500.02235174447, 187500.0, 22603.492153107185, 26832.844535451477, 187500.0, 187500.0, -187500.02235174447, 36538.70958551283, -0.10400000000000001, 0.972, 0.096, 192.0, 0.0, 0.0, 0.0, 0.0, 0.0, 0.0, 0.0, 0.0, 0.0, 1.6989585224403832E9, 0.0, 2023-11-02 16:55:22.440
39.0, -187500.02235174447, 187500.0, 22605.61556883044, 26833.895067440877, 187500.0, 187500.0, -187500.02235174447, 36540.14009715797, -0.106, 0.974, 0.094, 192.0, 252.0, 176.0, 30.0, 112.0, 2.0, 240.0, 0.0, 0.0, 0.0, 1.698958522440394E9, 0.0, 2023-11-02 16:55:22.440
40.0, -187500.02235174447, 187500.0, 22604.565036841042, 26841.74052974469, 187500.0, 187500.0, -187500.02235174447, 36541.10122216955, -0.106, 0.974, 0.094, 192.0, 0.0, 0.0, 0.0, 0.0, 0.0, 0.0, 0.0, 0.0, 0.0, 1.6989585224404151E9, 0.0, 2023-11-02 16:55:22.440
41.0, -187500.02235174447, 187500.0, 22596.361946625944, 26833.269218596128, 187500.0, 187500.0, -187500.02235174447, 36534.32864359959, -0.106, 0.974, 0.094, 192.0, 0.0, 0.0, 0.0, 0.0, 0.0, 0.0, 0.0, 0.0, 0.0, 1.6989585224404259E9, 0.0, 2023-11-02 16:55:22.440
42.0, -187500.02235174447, 187500.0, 22600.76524028364, 26826.854267937455, 187500.0, 187500.0, -187500.02235174447, 36537.25672212323, -0.106, 0.974, 0.094, 192.0, 0.0, 0.0, 0.0, 0.0, 0.0, 0.0, 0.0, 0.0, 0.0, 1.6989585224404373E9, 0.0, 2023-11-02 16:55:22.440
43.0, -187500.02235174447, 187500.0, 22602.441621117785, 26833.760956974147, 187500.0, 187500.0, -187500.02235174447, 36541.03416693618, -0.106, 0.974, 0.094, 192.0, 0.0, 0.0, 0.0, 0.0, 0.0, 0.0, 0.0, 0.0, 0.0, 1.6989585224404483E9, 0.0, 2023-11-02 16:55:22.440
44.0, -187500.02235174447, 187500.0, 22602.66513856234, 26844.735663501702, 187500.0, 187500.0, -187500.02235174447, 36542.08469892558, -0.106, 0.974, 0.094, 192.0, 0.0, 0.0, 0.0, 0.0, 0.0, 0.0, 0.0, 0.0, 0.0, 1.6989585224404597E9, 0.0, 2023-11-02 16:55:22.440
45.0, -187500.02235174447, 187500.0, 22611.85170553347, 26852.44701533878, 187500.0, 187500.0, -187500.02235174447, 36551.0253967077, -0.106, 0.974, 0.094, 192.0, 0.0, 0.0, 0.0, 0.0, 0.0, 0.0, 0.0, 0.0, 0.0, 1.69895852244049E9, 0.0, 2023-11-02 16:55:22.440
46.0, -187500.02235174447, 187500.0, 22606.800211286572, 26845.987361191197, 187500.0, 187500.0, -187500.02235174447, 36547.002082705745, -0.106, 0.974, 0.094, 192.0, 0.0, 0.0, 0.0, 0.0, 0.0, 0.0, 0.0, 0.0, 0.0, 1.6989585224405043E9, 0.0, 2023-11-02 16:55:22.440
47.0, -187500.02235174447, 187500.0, 22596.585464070497, 26841.382901833404, 187500.0, 187500.0, -187500.02235174447, 36535.334472100076, -0.106, 0.974, 0.094, 192.0, 0.0, 0.0, 0.0, 0.0, 0.0, 0.0, 0.0, 0.0, 0.0, 1.6989585224405165E9, 0.0, 2023-11-02 16:55:22.440
48.0, -187500.02235174447, 187500.0, 22594.842028002982, 26840.444128566283, 187500.0, 187500.0, -187500.02235174447, 36532.22757962079, -0.106, 0.974, 0.094, 192.0, 0.0, 0.0, 0.0, 0.0, 0.0, 0.0, 0.0, 0.0, 0.0, 1.6989585224405267E9, 0.0, 2023-11-02 16:55:22.440
49.0, -187500.02235174447, 187500.0, 22591.5339698236, 26841.852288466966, 187500.0, 187500.0, -187500.02235174447, 36531.24410286476, -0.10200000000000001, 0.976, 0.096, 192.0, 252.0, 208.0, 30.0, 128.0, 3.0, 0.0, 0.0, 0.0, 0.0, 1.6989585224405372E9, 0.0, 2023-11-02 16:55:22.440
50.0, -187500.02235174447, 187500.0, 22597.85951350445, 26836.756090731156, 187500.0, 187500.0, -187500.02235174447, 36538.01668143472, -0.10200000000000001, 0.976, 0.096, 192.0, 0.0, 0.0, 0.0, 0.0, 0.0, 0.0, 0.0, 0.0, 0.0, 1.698958522440552E9, 0.0, 2023-11-02 16:55:22.440
51.0, -187500.02235174447, 187500.0, 22596.85368500396, 26839.035968665597, 187500.0, 187500.0, -187500.02235174447, 36537.70375701234, -0.10200000000000001, 0.976, 0.096, 192.0, 0.0, 0.0, 0.0, 0.0, 0.0, 0.0, 0.0, 0.0, 0.0, 1.6989585224405644E9, 0.0, 2023-11-02 16:55:22.440
52.0, -187500.02235174447, 187500.0, 22595.087897191992, 26838.991265176686, 187500.0, 187500.0, -187500.02235174447, 36535.73680350027, -0.10200000000000001, 0.976, 0.096, 192.0, 0.0, 0.0, 0.0, 0.0, 0.0, 0.0, 0.0, 0.0, 0.0, 1.6989585224405837E9, 0.0, 2023-11-02 16:55:22.440
53.0, -187500.02235174447, 187500.0, 22603.782725785106, 26839.840631465988, 187500.0, 187500.0, -187500.02235174447, 36543.33639661508, -0.10200000000000001, 0.976, 0.096, 192.0, 0.0, 0.0, 0.0, 0.0, 0.0, 0.0, 0.0, 0.0, 0.0, 1.698958522440598E9, 0.0, 2023-11-02 16:55:22.440
54.0, -187500.02235174447, 187500.0, 22606.53199035311, 26828.01655864913, 187500.0, 187500.0, -187500.02235174447, 36546.28682688318, -0.10200000000000001, 0.976, 0.096, 192.0, 0.0, 0.0, 0.0, 0.0, 0.0, 0.0, 0.0, 0.0, 0.0, 1.6989585224406087E9, 0.0, 2023-11-02 16:55:22.440
55.0, -187500.02235174447, 187500.0, 22605.637920574896, 26819.50054401166, 187500.0, 187500.0, -187500.02235174447, 36543.515210570724, -0.10200000000000001, 0.976, 0.096, 192.0, 0.0, 0.0, 0.0, 0.0, 0.0, 0.0, 0.0, 0.0, 0.0, 1.6989585224406235E9, 0.0, 2023-11-02 16:55:22.440
56.0, -187500.02235174447, 187500.0, 22610.398842143877, 26834.677378496814, 187500.0, 187500.0, -187500.02235174447, 36543.13523091498, -0.10200000000000001, 0.976, 0.096, 192.0, 0.0, 0.0, 0.0, 0.0, 0.0, 0.0, 0.0, 0.0, 0.0, 1.6989585224406404E9, 0.0, 2023-11-02 16:55:22.440
57.0, -187500.02235174447, 187500.0, 22607.738984553693, 26831.279913339607, 187500.0, 187500.0, -187500.02235174447, 36540.09539366906, -0.10200000000000001, 0.976, 0.096, 192.0, 0.0, 0.0, 0.0, 0.0, 0.0, 0.0, 0.0, 0.0, 0.0, 1.6989585224406576E9, 0.0, 2023-11-02 16:55:22.440
58.0, -187500.02235174447, 187500.0, 22608.878923520915, 26819.746413200668, 187500.0, 187500.0, -187500.02235174447, 36542.28586462568, -0.10200000000000001, 0.976, 0.096, 192.0, 0.0, 0.0, 0.0, 0.0, 0.0, 0.0, 0.0, 0.0, 0.0, 1.6989585224406707E9, 0.0, 2023-11-02 16:55:22.440
59.0, -187500.02235174447, 187500.0, 22605.392051385887, 26813.577331731005, 187500.0, 187500.0, -187500.02235174447, 36538.486068068276, -0.1, 0.976, 0.098, 192.0, 252.0, 224.0, 30.0, 128.0, 3.0, 16.0, 0.0, 0.0, 0.0, 1.6989585224406855E9, 0.0, 2023-11-02 16:55:22.440
60.0, -187500.02235174447, 187500.0, 22601.14521993938, 26811.72213694121, 187500.0, 187500.0, -187500.02235174447, 36532.09346915406, -0.1, 0.976, 0.098, 192.0, 0.0, 0.0, 0.0, 0.0, 0.0, 0.0, 0.0, 0.0, 0.0, 1.6989585224407575E9, 0.0, 2023-11-02 16:55:22.440
61.0, -187500.02235174447, 187500.0, 22601.838124017493, 26815.6783957098, 187500.0, 187500.0, -187500.02235174447, 36532.048765665146, -0.1, 0.976, 0.098, 192.0, 0.0, 0.0, 0.0, 0.0, 0.0, 0.0, 0.0, 0.0, 0.0, 1.6989585224407816E9, 0.0, 2023-11-02 16:55:22.440
62.0, -187500.02235174447, 187500.0, 22605.2355891747, 26810.53749448508, 187500.0, 187500.0, -187500.02235174447, 36533.166352887914, -0.1, 0.976, 0.098, 192.0, 0.0, 0.0, 0.0, 0.0, 0.0, 0.0, 0.0, 0.0, 0.0, 1.6989585224407928E9, 0.0, 2023-11-02 16:55:22.440
63.0, -187500.02235174447, 187500.0, 22612.27638867812, 26814.538456742583, 187500.0, 187500.0, -187500.02235174447, 36541.212980891825, -0.1, 0.976, 0.098, 192.0, 0.0, 0.0, 0.0, 0.0, 0.0, 0.0, 0.0, 0.0, 0.0, 1.698958522440804E9, 0.0, 2023-11-02 16:55:22.440
64.0, -187500.02235174447, 187500.0, 22604.453278118763, 26824.619093491925, 187500.0, 187500.0, -187500.02235174447, 36536.13913490047, -0.1, 0.976, 0.098, 192.0, 0.0, 0.0, 0.0, 0.0, 0.0, 0.0, 0.0, 0.0, 0.0, 1.6989585224408162E9, 0.0, 2023-11-02 16:55:22.440
65.0, -187500.02235174447, 187500.0, 22604.945016496782, 26834.811488963544, 187500.0, 187500.0, -187500.02235174447, 36537.05555642314, -0.1, 0.976, 0.098, 192.0, 0.0, 0.0, 0.0, 0.0, 0.0, 0.0, 0.0, 0.0, 0.0, 1.6989585224408293E9, 0.0, 2023-11-02 16:55:22.440
66.0, -187500.02235174447, 187500.0, 22599.848818760973, 26829.82704995001, 187500.0, 187500.0, -187500.02235174447, 36532.831076721086, -0.1, 0.976, 0.098, 192.0, 0.0, 0.0, 0.0, 0.0, 0.0, 0.0, 0.0, 0.0, 0.0, 1.6989585224408402E9, 0.0, 2023-11-02 16:55:22.440
67.0, -187500.02235174447, 187500.0, 22600.206446672255, 26817.511238755138, 187500.0, 187500.0, -187500.02235174447, 36530.90882669793, -0.1, 0.976, 0.098, 192.0, 0.0, 0.0, 0.0, 0.0, 0.0, 0.0, 0.0, 0.0, 0.0, 1.6989585224408529E9, 0.0, 2023-11-02 16:55:22.440
68.0, -187500.02235174447, 187500.0, 22599.424135616322, 26822.02629113511, 187500.0, 187500.0, -187500.02235174447, 36527.53371328518, -0.1, 0.976, 0.098, 192.0, 0.0, 0.0, 0.0, 0.0, 0.0, 0.0, 0.0, 0.0, 0.0, 1.6989585224408689E9, 0.0, 2023-11-02 16:55:22.440
69.0, -187500.02235174447, 187500.0, 22598.641824560385, 26828.105965626954, 187500.0, 187500.0, -187500.02235174447, 36526.32671908459, -0.096, 0.974, 0.098, 192.0, 253.0, 0.0, 30.0, 112.0, 3.0, 16.0, 0.0, 0.0, 0.0, 1.69895852244088E9, 0.0, 2023-11-02 16:55:22.440
70.0, -187500.02235174447, 187500.0, 22592.673908790817, 26820.97575914571, 187500.0, 187500.0, -187500.02235174447, 36521.81166670462, -0.096, 0.974, 0.098, 192.0, 0.0, 0.0, 0.0, 0.0, 0.0, 0.0, 0.0, 0.0, 0.0, 1.698958522440894E9, 0.0, 2023-11-02 16:55:22.440
71.0, -187500.02235174447, 187500.0, 22596.294891392576, 26815.0301951206, 187500.0, 187500.0, -187500.02235174447, 36523.51039928322, -0.096, 0.974, 0.098, 192.0, 0.0, 0.0, 0.0, 0.0, 0.0, 0.0, 0.0, 0.0, 0.0, 1.698958522440912E9, 0.0, 2023-11-02 16:55:22.440
72.0, -187500.02235174447, 187500.0, 22596.67487104832, 26815.8795614099, 187500.0, 187500.0, -187500.02235174447, 36522.34810857155, -0.096, 0.974, 0.098, 192.0, 0.0, 0.0, 0.0, 0.0, 0.0, 0.0, 0.0, 0.0, 0.0, 1.6989585224409251E9, 0.0, 2023-11-02 16:55:22.440
73.0, -187500.02235174447, 187500.0, 22595.199655914268, 26819.299378311563, 187500.0, 187500.0, -187500.02235174447, 36520.64937599294, -0.096, 0.974, 0.098, 192.0, 0.0, 0.0, 0.0, 0.0, 0.0, 0.0, 0.0, 0.0, 0.0, 1.698958522440941E9, 0.0, 2023-11-02 16:55:22.440
74.0, -187500.02235174447, 187500.0, 22589.298795378065, 26815.70074745426, 187500.0, 187500.0, -187500.02235174447, 36516.96133815782, -0.096, 0.974, 0.098, 192.0, 0.0, 0.0, 0.0, 0.0, 0.0, 0.0, 0.0, 0.0, 0.0, 1.6989585224409568E9, 0.0, 2023-11-02 16:55:22.440
75.0, -187500.02235174447, 187500.0, 22594.976138469716, 26808.12350608391, 187500.0, 187500.0, -187500.02235174447, 36522.14694287145, -0.096, 0.974, 0.098, 192.0, 0.0, 0.0, 0.0, 0.0, 0.0, 0.0, 0.0, 0.0, 0.0, 1.6989585224410195E9, 0.0, 2023-11-02 16:55:22.441
76.0, -187500.02235174447, 187500.0, 22598.418307115833, 26804.54722697106, 187500.0, 187500.0, -187500.02235174447, 36522.99630916075, -0.096, 0.974, 0.098, 192.0, 0.0, 0.0, 0.0, 0.0, 0.0, 0.0, 0.0, 0.0, 0.0, 1.698958522441036E9, 0.0, 2023-11-02 16:55:22.441
77.0, -187500.02235174447, 187500.0, 22592.986833213192, 26814.806677676046, 187500.0, 187500.0, -187500.02235174447, 36517.05074513564, -0.096, 0.974, 0.098, 192.0, 0.0, 0.0, 0.0, 0.0, 0.0, 0.0, 0.0, 0.0, 0.0, 1.6989585224410555E9, 0.0, 2023-11-02 16:55:22.441
78.0, -187500.02235174447, 187500.0, 22597.166609426335, 26821.82512543501, 187500.0, 187500.0, -187500.02235174447, 36520.22469284829, -0.096, 0.974, 0.098, 192.0, 0.0, 0.0, 0.0, 0.0, 0.0, 0.0, 0.0, 0.0, 0.0, 1.6989585224410691E9, 0.0, 2023-11-02 16:55:22.441
79.0, -187500.02235174447, 187500.0, 22591.153990167855, 26814.6278637204, 187500.0, 187500.0, -187500.02235174447, 36516.13432361297, -0.094, 0.972, 0.096, 192.0, 253.0, 16.0, 30.0, 96.0, 3.0, 0.0, 0.0, 0.0, 0.0, 1.6989585224410872E9, 0.0, 2023-11-02 16:55:22.441
80.0, -187500.02235174447, 187500.0, 22595.60198731446, 26810.53749448508, 187500.0, 187500.0, -187500.02235174447, 36521.923425426896, -0.094, 0.972, 0.096, 192.0, 0.0, 0.0, 0.0, 0.0, 0.0, 0.0, 0.0, 0.0, 0.0, 1.6989585224411027E9, 0.0, 2023-11-02 16:55:22.441
81.0, -187500.02235174447, 187500.0, 22592.33863262399, 26821.892180668376, 187500.0, 187500.0, -187500.02235174447, 36519.688250981366, -0.094, 0.972, 0.096, 192.0, 0.0, 0.0, 0.0, 0.0, 0.0, 0.0, 0.0, 0.0, 0.0, 1.6989585224411194E9, 0.0, 2023-11-02 16:55:22.441
82.0, -187500.02235174447, 187500.0, 22582.593272041475, 26816.05837536554, 187500.0, 187500.0, -187500.02235174447, 36513.943852656346, -0.094, 0.972, 0.096, 192.0, 0.0, 0.0, 0.0, 0.0, 0.0, 0.0, 0.0, 0.0, 0.0, 1.6989585224411368E9, 0.0, 2023-11-02 16:55:22.441
83.0, -187500.02235174447, 187500.0, 22588.42707734431, 26820.662834723335, 187500.0, 187500.0, -187500.02235174447, 36519.822361448096, -0.094, 0.972, 0.096, 192.0, 0.0, 0.0, 0.0, 0.0, 0.0, 0.0, 0.0, 0.0, 0.0, 1.6989585224411643E9, 0.0, 2023-11-02 16:55:22.441
84.0, -187500.02235174447, 187500.0, 22600.94405423928, 26825.222590592217, 187500.0, 187500.0, -187500.02235174447, 36527.578416774086, -0.094, 0.972, 0.096, 192.0, 0.0, 0.0, 0.0, 0.0, 0.0, 0.0, 0.0, 0.0, 0.0, 1.698958522441178E9, 0.0, 2023-11-02 16:55:22.441
85.0, -187500.02235174447, 187500.0, 22599.111211193947, 26825.468459781227, 187500.0, 187500.0, -187500.02235174447, 36522.72808822728, -0.094, 0.972, 0.096, 192.0, 0.0, 0.0, 0.0, 0.0, 0.0, 0.0, 0.0, 0.0, 0.0, 1.69895852244119E9, 0.0, 2023-11-02 16:55:22.441
86.0, -187500.02235174447, 187500.0, 22589.745830267173, 26822.383919046395, 187500.0, 187500.0, -187500.02235174447, 36514.59205324556, -0.094, 0.972, 0.096, 192.0, 0.0, 0.0, 0.0, 0.0, 0.0, 0.0, 0.0, 0.0, 0.0, 1.69895852244121E9, 0.0, 2023-11-02 16:55:22.441
87.0, -187500.02235174447, 187500.0, 22588.203559899757, 26820.908703912344, 187500.0, 187500.0, -187500.02235174447, 36514.05561137862, -0.094, 0.972, 0.096, 192.0, 0.0, 0.0, 0.0, 0.0, 0.0, 0.0, 0.0, 0.0, 0.0, 1.698958522441224E9, 0.0, 2023-11-02 16:55:22.441
88.0, -187500.02235174447, 187500.0, 22591.824542501516, 26823.367395802426, 187500.0, 187500.0, -187500.02235174447, 36517.56483525811, -0.094, 0.972, 0.096, 192.0, 0.0, 0.0, 0.0, 0.0, 0.0, 0.0, 0.0, 0.0, 0.0, 1.6989585224412377E9, 0.0, 2023-11-02 16:55:22.441
89.0, -187500.02235174447, 187500.0, 22587.063620932535, 26819.20997133374, 187500.0, 187500.0, -187500.02235174447, 36513.876797422985, -0.094, 0.972, 0.094, 192.0, 253.0, 16.0, 30.0, 96.0, 2.0, 240.0, 0.0, 0.0, 0.0, 1.6989585224412508E9, 0.0, 2023-11-02 16:55:22.441
90.0, -187500.02235174447, 187500.0, 22587.689469777284, 26817.667700966325, 187500.0, 187500.0, -187500.02235174447, 36515.53082651267, -0.094, 0.972, 0.094, 192.0, 0.0, 0.0, 0.0, 0.0, 0.0, 0.0, 0.0, 0.0, 0.0, 1.698958522441317E9, 0.0, 2023-11-02 16:55:22.441
91.0, -187500.02235174447, 187500.0, 22585.007260442646, 26806.44712524976, 187500.0, 187500.0, -187500.02235174447, 36513.76503870071, -0.094, 0.972, 0.094, 192.0, 0.0, 0.0, 0.0, 0.0, 0.0, 0.0, 0.0, 0.0, 0.0, 1.6989585224413319E9, 0.0, 2023-11-02 16:55:22.441
92.0, -187500.02235174447, 187500.0, 22593.2327024022, 26799.987471102177, 187500.0, 187500.0, -187500.02235174447, 36524.002137661235, -0.094, 0.972, 0.094, 192.0, 0.0, 0.0, 0.0, 0.0, 0.0, 0.0, 0.0, 0.0, 0.0, 1.6989585224413464E9, 0.0, 2023-11-02 16:55:22.441
93.0, -187500.02235174447, 187500.0, 22603.492153107185, 26808.749354928656, 187500.0, 187500.0, -187500.02235174447, 36532.69696625435, -0.094, 0.972, 0.094, 192.0, 0.0, 0.0, 0.0, 0.0, 0.0, 0.0, 0.0, 0.0, 0.0, 1.69895852244136E9, 0.0, 2023-11-02 16:55:22.441
94.0, -187500.02235174447, 187500.0, 22594.61851055843, 26811.900950896856, 187500.0, 187500.0, -187500.02235174447, 36526.036146406674, -0.094, 0.972, 0.094, 192.0, 0.0, 0.0, 0.0, 0.0, 0.0, 0.0, 0.0, 0.0, 0.0, 1.6989585224413733E9, 0.0, 2023-11-02 16:55:22.441
95.0, -187500.02235174447, 187500.0, 22595.80315301456, 26802.669680436815, 187500.0, 187500.0, -187500.02235174447, 36524.98561441727, -0.094, 0.972, 0.094, 192.0, 0.0, 0.0, 0.0, 0.0, 0.0, 0.0, 0.0, 0.0, 0.0, 1.6989585224413898E9, 0.0, 2023-11-02 16:55:22.441
96.0, -187500.02235174447, 187500.0, 22599.602949571963, 26796.79117164507, 187500.0, 187500.0, -187500.02235174447, 36525.544408028654, -0.094, 0.972, 0.094, 192.0, 0.0, 0.0, 0.0, 0.0, 0.0, 0.0, 0.0, 0.0, 0.0, 1.6989585224414067E9, 0.0, 2023-11-02 16:55:22.441
97.0, -187500.02235174447, 187500.0, 22598.217141415735, 26795.181846044285, 187500.0, 187500.0, -187500.02235174447, 36523.33158532758, -0.094, 0.972, 0.094, 192.0, 0.0, 0.0, 0.0, 0.0, 0.0, 0.0, 0.0, 0.0, 0.0, 1.6989585224414196E9, 0.0, 2023-11-02 16:55:22.441
98.0, -187500.02235174447, 187500.0, 22587.890635477383, 26802.93790137028, 187500.0, 187500.0, -187500.02235174447, 36516.00021314624, -0.094, 0.972, 0.094, 192.0, 0.0, 0.0, 0.0, 0.0, 0.0, 0.0, 0.0, 0.0, 0.0, 1.6989585224414303E9, 0.0, 2023-11-02 16:55:22.441
99.0, -187500.02235174447, 187500.0, 22585.074315676015, 26795.762991400123, 187500.0, 187500.0, -187500.02235174447, 36514.10031486754, -0.096, 0.97, 0.10400000000000001, 192.0, 253.0, 0.0, 30.0, 80.0, 3.0, 64.0, 0.0, 0.0, 0.0, 1.6989585229208455E9, 0.0, 2023-11-02 16:55:22.920
100.0, -187500.02235174447, 187500.0, 22586.2813098766, 26778.172168513796, 187500.0, 187500.0, -187500.02235174447, 36514.07796312308, -0.096, 0.97, 0.10400000000000001, 192.0, 0.0, 0.0, 0.0, 0.0, 0.0, 0.0, 0.0, 0.0, 0.0, 1.698958522920994E9, 0.0, 2023-11-02 16:55:22.920
101.0, -187500.02235174447, 187500.0, 22581.073353418513, 26771.15372075483, 187500.0, 187500.0, -187500.02235174447, 36508.84765492054, -0.096, 0.97, 0.10400000000000001, 192.0, 0.0, 0.0, 0.0, 0.0, 0.0, 0.0, 0.0, 0.0, 0.0, 1.6989585229210136E9, 0.0, 2023-11-02 16:55:22.921
102.0, -187500.02235174447, 187500.0, 22585.029612187103, 26779.937956325764, 187500.0, 187500.0, -187500.02235174447, 36509.13822759846, -0.096, 0.97, 0.10400000000000001, 192.0, 0.0, 0.0, 0.0, 0.0, 0.0, 0.0, 0.0, 0.0, 0.0, 1.6989585229210317E9, 0.0, 2023-11-02 16:55:22.921
103.0, -187500.02235174447, 187500.0, 22589.589368055986, 26782.173130771298, 187500.0, 187500.0, -187500.02235174447, 36508.95941364281, -0.096, 0.97, 0.10400000000000001, 192.0, 0.0, 0.0, 0.0, 0.0, 0.0, 0.0, 0.0, 0.0, 0.0, 1.6989585229210677E9, 0.0, 2023-11-02 16:55:22.921
104.0, -187500.02235174447, 187500.0, 22584.403763342354, 26773.210081244717, 187500.0, 187500.0, -187500.02235174447, 36504.80198917413, -0.096, 0.97, 0.10400000000000001, 192.0, 0.0, 0.0, 0.0, 0.0, 0.0, 0.0, 0.0, 0.0, 0.0, 1.6989585229211068E9, 0.0, 2023-11-02 16:55:22.921
105.0, -187500.02235174447, 187500.0, 22590.975176212214, 26780.474398192695, 187500.0, 187500.0, -187500.02235174447, 36510.63579447696, -0.096, 0.97, 0.10400000000000001, 192.0, 0.0, 0.0, 0.0, 0.0, 0.0, 0.0, 0.0, 0.0, 0.0, 1.6989585229211257E9, 0.0, 2023-11-02 16:55:22.921
106.0, -187500.02235174447, 187500.0, 22587.689469777284, 26784.63182266138, 187500.0, 187500.0, -187500.02235174447, 36509.249986320734, -0.096, 0.97, 0.10400000000000001, 192.0, 0.0, 0.0, 0.0, 0.0, 0.0, 0.0, 0.0, 0.0, 0.0, 1.69895852292135E9, 0.0, 2023-11-02 16:55:22.921
107.0, -187500.02235174447, 187500.0, 22589.254091889157, 26799.92041586881, 187500.0, 187500.0, -187500.02235174447, 36512.31217531111, -0.096, 0.97, 0.10400000000000001, 192.0, 0.0, 0.0, 0.0, 0.0, 0.0, 0.0, 0.0, 0.0, 0.0, 1.6989585229213634E9, 0.0, 2023-11-02 16:55:22.921
108.0, -187500.02235174447, 187500.0, 22588.67294653332, 26801.596796702957, 187500.0, 187500.0, -187500.02235174447, 36509.76407644321, -0.096, 0.97, 0.10400000000000001, 192.0, 0.0, 0.0, 0.0, 0.0, 0.0, 0.0, 0.0, 0.0, 0.0, 1.6989585229213731E9, 0.0, 2023-11-02 16:55:22.921
109.0, -187500.02235174447, 187500.0, 22593.657385546852, 26794.06425882152, 187500.0, 187500.0, -187500.02235174447, 36514.65910847892, -0.10200000000000001, 0.978, 0.1, 192.0, 252.0, 208.0, 30.0, 144.0, 3.0, 32.0, 0.0, 0.0, 0.0, 1.6989585229213853E9, 0.0, 2023-11-02 16:55:22.921
110.0, -187500.02235174447, 187500.0, 22590.371679111922, 26795.517122211117, 187500.0, 187500.0, -187500.02235174447, 36511.44045727736, -0.10200000000000001, 0.978, 0.1, 192.0, 0.0, 0.0, 0.0, 0.0, 0.0, 0.0, 0.0, 0.0, 0.0, 1.698958522921402E9, 0.0, 2023-11-02 16:55:22.921
111.0, -187500.02235174447, 187500.0, 22580.313394107034, 26788.051639563044, 187500.0, 187500.0, -187500.02235174447, 36500.97984087227, -0.10200000000000001, 0.978, 0.1, 192.0, 0.0, 0.0, 0.0, 0.0, 0.0, 0.0, 0.0, 0.0, 0.0, 1.6989585229214153E9, 0.0, 2023-11-02 16:55:22.921
112.0, -187500.02235174447, 187500.0, 22582.61562378593, 26781.122598781898, 187500.0, 187500.0, -187500.02235174447, 36503.48323625127, -0.10200000000000001, 0.978, 0.1, 192.0, 0.0, 0.0, 0.0, 0.0, 0.0, 0.0, 0.0, 0.0, 0.0, 1.6989585229214332E9, 0.0, 2023-11-02 16:55:22.921
113.0, -187500.02235174447, 187500.0, 22585.722516265218, 26777.88159583588, 187500.0, 187500.0, -187500.02235174447, 36506.27720430818, -0.10200000000000001, 0.978, 0.1, 192.0, 0.0, 0.0, 0.0, 0.0, 0.0, 0.0, 0.0, 0.0, 0.0, 1.6989585229214487E9, 0.0, 2023-11-02 16:55:22.921
114.0, -187500.02235174447, 187500.0, 22580.291042362576, 26771.220775988197, 187500.0, 187500.0, -187500.02235174447, 36500.4657507498, -0.10200000000000001, 0.978, 0.1, 192.0, 0.0, 0.0, 0.0, 0.0, 0.0, 0.0, 0.0, 0.0, 0.0, 1.6989585229214683E9, 0.0, 2023-11-02 16:55:22.921
115.0, -187500.02235174447, 187500.0, 22575.775989982605, 26779.133293525374, 187500.0, 187500.0, -187500.02235174447, 36499.124646082484, -0.10200000000000001, 0.978, 0.1, 192.0, 0.0, 0.0, 0.0, 0.0, 0.0, 0.0, 0.0, 0.0, 0.0, 1.6989585229214933E9, 0.0, 2023-11-02 16:55:22.921
116.0, -187500.02235174447, 187500.0, 22575.23954811568, 26771.82427308849, 187500.0, 187500.0, -187500.02235174447, 36498.565852471096, -0.10200000000000001, 0.978, 0.1, 192.0, 0.0, 0.0, 0.0, 0.0, 0.0, 0.0, 0.0, 0.0, 0.0, 1.6989585229215086E9, 0.0, 2023-11-02 16:55:22.921
117.0, -187500.02235174447, 187500.0, 22578.99464118417, 26766.683371863768, 187500.0, 187500.0, -187500.02235174447, 36500.868082149995, -0.10200000000000001, 0.978, 0.1, 192.0, 0.0, 0.0, 0.0, 0.0, 0.0, 0.0, 0.0, 0.0, 0.0, 1.6989585229215353E9, 0.0, 2023-11-02 16:55:22.921
118.0, -187500.02235174447, 187500.0, 22578.413495828332, 26761.83304331697, 187500.0, 187500.0, -187500.02235174447, 36499.70579143832, -0.10200000000000001, 0.978, 0.1, 192.0, 0.0, 0.0, 0.0, 0.0, 0.0, 0.0, 0.0, 0.0, 0.0, 1.6989585229215553E9, 0.0, 2023-11-02 16:55:22.921
119.0, -187500.02235174447, 187500.0, 22574.725457993205, 26760.715456094204, 187500.0, 187500.0, -187500.02235174447, 36495.280146036166, -0.098, 0.982, 0.10400000000000001, 192.0, 252.0, 240.0, 30.0, 176.0, 3.0, 64.0, 0.0, 0.0, 0.0, 1.6989585229215927E9, 0.0, 2023-11-02 16:55:22.921
120.0, -187500.02235174447, 187500.0, 22571.93148993629, 26763.509424151114, 187500.0, 187500.0, -187500.02235174447, 36495.95069836983, -0.098, 0.982, 0.10400000000000001, 192.0, 0.0, 0.0, 0.0, 0.0, 0.0, 0.0, 0.0, 0.0, 0.0, 1.6989585229216416E9, 0.0, 2023-11-02 16:55:22.921
121.0, -187500.02235174447, 187500.0, 22576.647708016364, 26760.089607249454, 187500.0, 187500.0, -187500.02235174447, 36502.09742809504, -0.098, 0.982, 0.10400000000000001, 192.0, 0.0, 0.0, 0.0, 0.0, 0.0, 0.0, 0.0, 0.0, 0.0, 1.698958522921726E9, 0.0, 2023-11-02 16:55:22.921
122.0, -187500.02235174447, 187500.0, 22579.19580688427, 26757.1168252369, 187500.0, 187500.0, -187500.02235174447, 36502.70092519533, -0.098, 0.982, 0.10400000000000001, 192.0, 0.0, 0.0, 0.0, 0.0, 0.0, 0.0, 0.0, 0.0, 0.0, 1.6989585229217474E9, 0.0, 2023-11-02 16:55:22.921
123.0, -187500.02235174447, 187500.0, 22573.384353325888, 26754.836947302458, 187500.0, 187500.0, -187500.02235174447, 36497.80589315962, -0.098, 0.982, 0.10400000000000001, 192.0, 0.0, 0.0, 0.0, 0.0, 0.0, 0.0, 0.0, 0.0, 0.0, 1.6989585229217691E9, 0.0, 2023-11-02 16:55:22.921
124.0, -187500.02235174447, 187500.0, 22570.679792246796, 26751.841813545445, 187500.0, 187500.0, -187500.02235174447, 36494.587241958056, -0.098, 0.982, 0.10400000000000001, 192.0, 0.0, 0.0, 0.0, 0.0, 0.0, 0.0, 0.0, 0.0, 0.0, 1.6989585229217892E9, 0.0, 2023-11-02 16:55:22.921
125.0, -187500.02235174447, 187500.0, 22566.343553822466, 26741.828232029467, 187500.0, 187500.0, -187500.02235174447, 36490.27335527818, -0.098, 0.982, 0.10400000000000001, 192.0, 0.0, 0.0, 0.0, 0.0, 0.0, 0.0, 0.0, 0.0, 0.0, 1.6989585229218292E9, 0.0, 2023-11-02 16:55:22.921
126.0, -187500.02235174447, 187500.0, 22570.836254457983, 26739.10131920592, 187500.0, 187500.0, -187500.02235174447, 36494.67664893588, -0.098, 0.982, 0.10400000000000001, 192.0, 0.0, 0.0, 0.0, 0.0, 0.0, 0.0, 0.0, 0.0, 0.0, 1.698958522921862E9, 0.0, 2023-11-02 16:55:22.921
127.0, -187500.02235174447, 187500.0, 22578.36879233942, 26756.62508685888, 187500.0, 187500.0, -187500.02235174447, 36504.19849207383, -0.098, 0.982, 0.10400000000000001, 192.0, 0.0, 0.0, 0.0, 0.0, 0.0, 0.0, 0.0, 0.0, 0.0, 1.6989585229218893E9, 0.0, 2023-11-02 16:55:22.921
128.0, -187500.02235174447, 187500.0, 22569.69631549076, 26758.30146769303, 187500.0, 187500.0, -187500.02235174447, 36496.21891930329, -0.098, 0.982, 0.10400000000000001, 192.0, 0.0, 0.0, 0.0, 0.0, 0.0, 0.0, 0.0, 0.0, 0.0, 1.698958522921938E9, 0.0, 2023-11-02 16:55:22.921
129.0, -187500.02235174447, 187500.0, 22574.792513226574, 26743.14698495233, 187500.0, 187500.0, -187500.02235174447, 36502.49975949523, -0.1, 0.98, 0.096, 192.0, 252.0, 224.0, 30.0, 160.0, 3.0, 0.0, 0.0, 0.0, 0.0, 1.698958522921959E9, 0.0, 2023-11-02 16:55:22.921
130.0, -187500.02235174447, 187500.0, 22575.440713815777, 26738.363711638896, 187500.0, 187500.0, -187500.02235174447, 36503.0138496177, -0.1, 0.98, 0.096, 192.0, 0.0, 0.0, 0.0, 0.0, 0.0, 0.0, 0.0, 0.0, 0.0, 1.698958522921989E9, 0.0, 2023-11-02 16:55:22.921
131.0, -187500.02235174447, 187500.0, 22571.50680679164, 26740.330665150963, 187500.0, 187500.0, -187500.02235174447, 36498.342335026544, -0.1, 0.98, 0.096, 192.0, 0.0, 0.0, 0.0, 0.0, 0.0, 0.0, 0.0, 0.0, 0.0, 1.698958522922017E9, 0.0, 2023-11-02 16:55:22.922
132.0, -187500.02235174447, 187500.0, 22577.98881268368, 26747.23735418765, 187500.0, 187500.0, -187500.02235174447, 36503.259718806716, -0.1, 0.98, 0.096, 192.0, 0.0, 0.0, 0.0, 0.0, 0.0, 0.0, 0.0, 0.0, 0.0, 1.6989585229220567E9, 0.0, 2023-11-02 16:55:22.922
133.0, -187500.02235174447, 187500.0, 22576.33478359399, 26745.29275242004, 187500.0, 187500.0, -187500.02235174447, 36499.03523910466, -0.1, 0.98, 0.096, 192.0, 0.0, 0.0, 0.0, 0.0, 0.0, 0.0, 0.0, 0.0, 0.0, 1.698958522922078E9, 0.0, 2023-11-02 16:55:22.922
134.0, -187500.02235174447, 187500.0, 22585.18607439829, 26744.376330897372, 187500.0, 187500.0, -187500.02235174447, 36506.74659094174, -0.1, 0.98, 0.096, 192.0, 0.0, 0.0, 0.0, 0.0, 0.0, 0.0, 0.0, 0.0, 0.0, 1.6989585229220924E9, 0.0, 2023-11-02 16:55:22.922
135.0, -187500.02235174447, 187500.0, 22581.05100167406, 26758.435578159762, 187500.0, 187500.0, -187500.02235174447, 36504.0643816071, -0.1, 0.98, 0.096, 192.0, 0.0, 0.0, 0.0, 0.0, 0.0, 0.0, 0.0, 0.0, 0.0, 1.6989585229221096E9, 0.0, 2023-11-02 16:55:22.922
136.0, -187500.02235174447, 187500.0, 22576.93828069428, 26764.31408695151, 187500.0, 187500.0, -187500.02235174447, 36501.94096588385, -0.1, 0.98, 0.096, 192.0, 0.0, 0.0, 0.0, 0.0, 0.0, 0.0, 0.0, 0.0, 0.0, 1.698958522922234E9, 0.0, 2023-11-02 16:55:22.922
137.0, -187500.02235174447, 187500.0, 22576.915928949828, 26769.18676724276, 187500.0, 187500.0, -187500.02235174447, 36502.92444263988, -0.1, 0.98, 0.096, 192.0, 0.0, 0.0, 0.0, 0.0, 0.0, 0.0, 0.0, 0.0, 0.0, 1.6989585229222457E9, 0.0, 2023-11-02 16:55:22.922
138.0, -187500.02235174447, 187500.0, 22578.860530717437, 26768.896194564844, 187500.0, 187500.0, -187500.02235174447, 36503.12560833998, -0.1, 0.98, 0.096, 192.0, 0.0, 0.0, 0.0, 0.0, 0.0, 0.0, 0.0, 0.0, 0.0, 1.6989585229222565E9, 0.0, 2023-11-02 16:55:22.922
139.0, -187500.02235174447, 187500.0, 22582.772085997116, 26768.53856665356, 187500.0, 187500.0, -187500.02235174447, 36504.93609964086, -0.106, 0.97, 0.092, 192.0, 252.0, 176.0, 30.0, 80.0, 2.0, 224.0, 0.0, 0.0, 0.0, 1.6989585229222662E9, 0.0, 2023-11-02 16:55:22.922
140.0, -187500.02235174447, 187500.0, 22577.27355686111, 26771.265479477108, 187500.0, 187500.0, -187500.02235174447, 36501.13630308346, -0.106, 0.97, 0.092, 192.0, 0.0, 0.0, 0.0, 0.0, 0.0, 0.0, 0.0, 0.0, 0.0, 1.6989585229222772E9, 0.0, 2023-11-02 16:55:22.922
141.0, -187500.02235174447, 187500.0, 22577.47472256121, 26766.34809569694, 187500.0, 187500.0, -187500.02235174447, 36502.544462984144, -0.106, 0.97, 0.092, 192.0, 0.0, 0.0, 0.0, 0.0, 0.0, 0.0, 0.0, 0.0, 0.0, 1.6989585229222867E9, 0.0, 2023-11-02 16:55:22.922
142.0, -187500.02235174447, 187500.0, 22582.45916157474, 26761.00602877212, 187500.0, 187500.0, -187500.02235174447, 36507.014811875204, -0.106, 0.97, 0.092, 192.0, 0.0, 0.0, 0.0, 0.0, 0.0, 0.0, 0.0, 0.0, 0.0, 1.6989585229222963E9, 0.0, 2023-11-02 16:55:22.922
143.0, -187500.02235174447, 187500.0, 22584.113190664433, 26764.939935796254, 187500.0, 187500.0, -187500.02235174447, 36508.53473049816, -0.106, 0.97, 0.092, 192.0, 0.0, 0.0, 0.0, 0.0, 0.0, 0.0, 0.0, 0.0, 0.0, 1.6989585229223063E9, 0.0, 2023-11-02 16:55:22.922
144.0, -187500.02235174447, 187500.0, 22586.393068598878, 26766.281040463575, 187500.0, 187500.0, -187500.02235174447, 36510.25581482123, -0.106, 0.97, 0.092, 192.0, 0.0, 0.0, 0.0, 0.0, 0.0, 0.0, 0.0, 0.0, 0.0, 1.6989585229223163E9, 0.0, 2023-11-02 16:55:22.922
145.0, -187500.02235174447, 187500.0, 22579.17345513981, 26756.28981069205, 187500.0, 187500.0, -187500.02235174447, 36503.57264322909, -0.106, 0.97, 0.092, 192.0, 0.0, 0.0, 0.0, 0.0, 0.0, 0.0, 0.0, 0.0, 0.0, 1.698958522922326E9, 0.0, 2023-11-02 16:55:22.922
146.0, -187500.02235174447, 187500.0, 22576.33478359399, 26741.649418073826, 187500.0, 187500.0, -187500.02235174447, 36502.94679438434, -0.106, 0.97, 0.092, 192.0, 0.0, 0.0, 0.0, 0.0, 0.0, 0.0, 0.0, 0.0, 0.0, 1.698958522922336E9, 0.0, 2023-11-02 16:55:22.922
147.0, -187500.02235174447, 187500.0, 22578.927585950805, 26741.649418073826, 187500.0, 187500.0, -187500.02235174447, 36508.17710258688, -0.106, 0.97, 0.092, 192.0, 0.0, 0.0, 0.0, 0.0, 0.0, 0.0, 0.0, 0.0, 0.0, 1.6989585229223504E9, 0.0, 2023-11-02 16:55:22.922
148.0, -187500.02235174447, 187500.0, 22578.52525455061, 26747.594982098937, 187500.0, 187500.0, -187500.02235174447, 36507.05951536411, -0.106, 0.97, 0.092, 192.0, 0.0, 0.0, 0.0, 0.0, 0.0, 0.0, 0.0, 0.0, 0.0, 1.6989585229223604E9, 0.0, 2023-11-02 16:55:22.922
149.0, -187500.02235174447, 187500.0, 22577.51942605012, 26744.063406474997, 187500.0, 187500.0, -187500.02235174447, 36506.34425954155, -0.10400000000000001, 0.98, 0.08600000000000001, 192.0, 252.0, 192.0, 30.0, 160.0, 2.0, 176.0, 0.0, 0.0, 0.0, 1.6989585229223704E9, 0.0, 2023-11-02 16:55:22.922
150.0, -187500.02235174447, 187500.0, 22586.12484766541, 26737.62610407187, 187500.0, 187500.0, -187500.02235174447, 36511.44045727736, -0.10400000000000001, 0.98, 0.08600000000000001, 192.0, 0.0, 0.0, 0.0, 0.0, 0.0, 0.0, 0.0, 0.0, 0.0, 1.6989585229223824E9, 0.0, 2023-11-02 16:55:22.922
151.0, -187500.02235174447, 187500.0, 22582.66032727484, 26728.819516756477, 187500.0, 187500.0, -187500.02235174447, 36507.12657059748, -0.10400000000000001, 0.98, 0.08600000000000001, 192.0, 0.0, 0.0, 0.0, 0.0, 0.0, 0.0, 0.0, 0.0, 0.0, 1.6989585229224107E9, 0.0, 2023-11-02 16:55:22.922
152.0, -187500.02235174447, 187500.0, 22579.061696417535, 26730.63000805736, 187500.0, 187500.0, -187500.02235174447, 36504.37730602948, -0.10400000000000001, 0.98, 0.08600000000000001, 192.0, 0.0, 0.0, 0.0, 0.0, 0.0, 0.0, 0.0, 0.0, 0.0, 1.698958522922422E9, 0.0, 2023-11-02 16:55:22.922
153.0, -187500.02235174447, 187500.0, 22575.66423126033, 26722.248103886617, 187500.0, 187500.0, -187500.02235174447, 36500.84573040554, -0.10400000000000001, 0.98, 0.08600000000000001, 192.0, 0.0, 0.0, 0.0, 0.0, 0.0, 0.0, 0.0, 0.0, 0.0, 1.6989585229224324E9, 0.0, 2023-11-02 16:55:22.922
154.0, -187500.02235174447, 187500.0, 22576.111266149434, 26711.6533770148, 187500.0, 187500.0, -187500.02235174447, 36502.767980428696, -0.10400000000000001, 0.98, 0.08600000000000001, 192.0, 0.0, 0.0, 0.0, 0.0, 0.0, 0.0, 0.0, 0.0, 0.0, 1.698958522922442E9, 0.0, 2023-11-02 16:55:22.922
155.0, -187500.02235174447, 187500.0, 22578.257033617145, 26706.490124045627, 187500.0, 187500.0, -187500.02235174447, 36504.82434091858, -0.10400000000000001, 0.98, 0.08600000000000001, 192.0, 0.0, 0.0, 0.0, 0.0, 0.0, 0.0, 0.0, 0.0, 0.0, 1.698958522922452E9, 0.0, 2023-11-02 16:55:22.922
156.0, -187500.02235174447, 187500.0, 22575.46306556023, 26700.678670487247, 187500.0, 187500.0, -187500.02235174447, 36501.02454436118, -0.10400000000000001, 0.98, 0.08600000000000001, 192.0, 0.0, 0.0, 0.0, 0.0, 0.0, 0.0, 0.0, 0.0, 0.0, 1.6989585229224634E9, 0.0, 2023-11-02 16:55:22.922
157.0, -187500.02235174447, 187500.0, 22572.780856225596, 26677.36580102036, 187500.0, 187500.0, -187500.02235174447, 36496.21891930329, -0.10400000000000001, 0.98, 0.08600000000000001, 192.0, 0.0, 0.0, 0.0, 0.0, 0.0, 0.0, 0.0, 0.0, 0.0, 1.6989585229224732E9, 0.0, 2023-11-02 16:55:22.922
158.0, -187500.02235174447, 187500.0, 22573.026725414602, 26643.189983748198, 187500.0, 187500.0, -187500.02235174447, 36494.34137276904, -0.10400000000000001, 0.98, 0.08600000000000001, 192.0, 0.0, 0.0, 0.0, 0.0, 0.0, 0.0, 0.0, 0.0, 0.0, 1.6989585229224837E9, 0.0, 2023-11-02 16:55:22.922
159.0, -187500.02235174447, 187500.0, 22573.60787077044, 26601.68279429469, 187500.0, 187500.0, -187500.02235174447, 36495.57071871409, -0.094, 0.98, 0.084, 192.0, 253.0, 16.0, 30.0, 160.0, 2.0, 160.0, 0.0, 0.0, 0.0, 1.6989585229224932E9, 0.0, 2023-11-02 16:55:22.922
160.0, -187500.02235174447, 187500.0, 22565.94122242227, 26550.67611344768, 187500.0, 187500.0, -187500.02235174447, 36490.98861110075, -0.094, 0.98, 0.084, 192.0, 0.0, 0.0, 0.0, 0.0, 0.0, 0.0, 0.0, 0.0, 0.0, 1.698958522922504E9, 0.0, 2023-11-02 16:55:22.922
161.0, -187500.02235174447, 187500.0, 22563.661344487828, 26482.615051581273, 187500.0, 187500.0, -187500.02235174447, 36493.08967507955, -0.094, 0.98, 0.084, 192.0, 0.0, 0.0, 0.0, 0.0, 0.0, 0.0, 0.0, 0.0, 0.0, 1.698958522922514E9, 0.0, 2023-11-02 16:55:22.922
162.0, -187500.02235174447, 187500.0, 22573.384353325888, 26416.163315315644, 187500.0, 187500.0, -187500.02235174447, 36503.48323625127, -0.094, 0.98, 0.084, 192.0, 0.0, 0.0, 0.0, 0.0, 0.0, 0.0, 0.0, 0.0, 0.0, 1.6989585229225268E9, 0.0, 2023-11-02 16:55:22.922
163.0, -187500.02235174447, 187500.0, 22573.98785042618, 26346.627038315182, 187500.0, 187500.0, -187500.02235174447, 36506.83599791956, -0.094, 0.98, 0.084, 192.0, 0.0, 0.0, 0.0, 0.0, 0.0, 0.0, 0.0, 0.0, 0.0, 1.6989585229225361E9, 0.0, 2023-11-02 16:55:22.922
164.0, -187500.02235174447, 187500.0, 22568.489321290177, 26294.279252800854, 187500.0, 187500.0, -187500.02235174447, 36501.851558906026, -0.094, 0.98, 0.084, 192.0, 0.0, 0.0, 0.0, 0.0, 0.0, 0.0, 0.0, 0.0, 0.0, 1.6989585229225488E9, 0.0, 2023-11-02 16:55:22.922
165.0, -187500.02235174447, 187500.0, 22555.79353043956, 26252.05680752478, 187500.0, 187500.0, -187500.02235174447, 36493.62611694648, -0.094, 0.98, 0.084, 192.0, 0.0, 0.0, 0.0, 0.0, 0.0, 0.0, 0.0, 0.0, 0.0, 1.6989585229225605E9, 0.0, 2023-11-02 16:55:22.922
166.0, -187500.02235174447, 187500.0, 22557.2240420847, 26221.211400176457, 187500.0, 187500.0, -187500.02235174447, 36498.074114093084, -0.094, 0.98, 0.084, 192.0, 0.0, 0.0, 0.0, 0.0, 0.0, 0.0, 0.0, 0.0, 0.0, 1.6989585229226017E9, 0.0, 2023-11-02 16:55:22.922
167.0, -187500.02235174447, 187500.0, 22559.570975252507, 26180.88885317908, 187500.0, 187500.0, -187500.02235174447, 36500.62221296099, -0.094, 0.98, 0.084, 192.0, 0.0, 0.0, 0.0, 0.0, 0.0, 0.0, 0.0, 0.0, 0.0, 1.6989585229226167E9, 0.0, 2023-11-02 16:55:22.922
168.0, -187500.02235174447, 187500.0, 22559.682733974783, 26141.393320726555, 187500.0, 187500.0, -187500.02235174447, 36501.002192616725, -0.092, 0.97, 0.08600000000000001, 192.0, 253.0, 32.0, 30.0, 80.0, 2.0, 176.0, 0.0, 0.0, 0.0, 1.698958522922635E9, 0.0, 2023-11-02 16:55:22.922
169.0, -187500.02235174447, 187500.0, 22555.815882184015, 26122.30493096172, 187500.0, 187500.0, -187500.02235174447, 36498.67761119337, -0.092, 0.97, 0.08600000000000001, 192.0, 0.0, 0.0, 0.0, 0.0, 0.0, 0.0, 0.0, 0.0, 0.0, 1.6989585229226468E9, 0.0, 2023-11-02 16:55:22.922
170.0, -187500.02235174447, 187500.0, 22562.2755363316, 26120.226218727377, 187500.0, 187500.0, -187500.02235174447, 36503.863215907004, -0.092, 0.97, 0.08600000000000001, 192.0, 0.0, 0.0, 0.0, 0.0, 0.0, 0.0, 0.0, 0.0, 0.0, 1.69895852292266E9, 0.0, 2023-11-02 16:55:22.922
171.0, -187500.02235174447, 187500.0, 22571.93148993629, 26137.437061957964, 187500.0, 187500.0, -187500.02235174447, 36513.318003811604, -0.092, 0.97, 0.08600000000000001, 192.0, 0.0, 0.0, 0.0, 0.0, 0.0, 0.0, 0.0, 0.0, 0.0, 1.6989585229226713E9, 0.0, 2023-11-02 16:55:22.922
172.0, -187500.02235174447, 187500.0, 22578.79347548407, 26170.629402474096, 187500.0, 187500.0, -187500.02235174447, 36520.42585854839, -0.092, 0.97, 0.08600000000000001, 192.0, 0.0, 0.0, 0.0, 0.0, 0.0, 0.0, 0.0, 0.0, 0.0, 1.6989585229226823E9, 0.0, 2023-11-02 16:55:22.922
173.0, -187500.02235174447, 187500.0, 22571.909138191837, 26174.675068220506, 187500.0, 187500.0, -187500.02235174447, 36512.15571309993, -0.092, 0.97, 0.08600000000000001, 192.0, 0.0, 0.0, 0.0, 0.0, 0.0, 0.0, 0.0, 0.0, 0.0, 1.6989585229226928E9, 0.0, 2023-11-02 16:55:22.922
174.0, -187500.02235174447, 187500.0, 22572.98202192569, 26172.574004241706, 187500.0, 187500.0, -187500.02235174447, 36514.61440499001, -0.092, 0.97, 0.08600000000000001, 192.0, 0.0, 0.0, 0.0, 0.0, 0.0, 0.0, 0.0, 0.0, 0.0, 1.6989585229227023E9, 0.0, 2023-11-02 16:55:22.922
175.0, -187500.02235174447, 187500.0, 22569.51750153512, 26172.70811470844, 187500.0, 187500.0, -187500.02235174447, 36513.18389334487, -0.092, 0.97, 0.08600000000000001, 192.0, 0.0, 0.0, 0.0, 0.0, 0.0, 0.0, 0.0, 0.0, 0.0, 1.698958522922712E9, 0.0, 2023-11-02 16:55:22.922
176.0, -187500.02235174447, 187500.0, 22568.601080012453, 26169.556518740243, 187500.0, 187500.0, -187500.02235174447, 36507.730067697776, -0.092, 0.97, 0.08600000000000001, 192.0, 0.0, 0.0, 0.0, 0.0, 0.0, 0.0, 0.0, 0.0, 0.0, 1.6989585229227233E9, 0.0, 2023-11-02 16:55:22.922
177.0, -187500.02235174447, 187500.0, 22576.021859171615, 26175.546786254265, 187500.0, 187500.0, -187500.02235174447, 36511.03812587716, -0.092, 0.97, 0.08600000000000001, 192.0, 0.0, 0.0, 0.0, 0.0, 0.0, 0.0, 0.0, 0.0, 0.0, 1.6989585229227355E9, 0.0, 2023-11-02 16:55:22.922
178.0, -187500.02235174447, 187500.0, 22575.954803938246, 26176.887890921582, 187500.0, 187500.0, -187500.02235174447, 36509.92053865439, -0.098, 0.976, 0.094, 192.0, 252.0, 240.0, 30.0, 128.0, 2.0, 240.0, 0.0, 0.0, 0.0, 1.6989585229227488E9, 0.0, 2023-11-02 16:55:22.922
179.0, -187500.02235174447, 187500.0, 22576.804170227548, 26168.37187628411, 187500.0, 187500.0, -187500.02235174447, 36508.288861309156, -0.098, 0.976, 0.094, 192.0, 0.0, 0.0, 0.0, 0.0, 0.0, 0.0, 0.0, 0.0, 0.0, 1.6989585229227607E9, 0.0, 2023-11-02 16:55:22.922
180.0, -187500.02235174447, 187500.0, 22577.51942605012, 26174.451550775953, 187500.0, 187500.0, -187500.02235174447, 36506.23250081927, -0.098, 0.976, 0.094, 192.0, 0.0, 0.0, 0.0, 0.0, 0.0, 0.0, 0.0, 0.0, 0.0, 1.698958522922773E9, 0.0, 2023-11-02 16:55:22.922
181.0, -187500.02235174447, 187500.0, 22572.356173080945, 26173.959812397938, 187500.0, 187500.0, -187500.02235174447, 36499.07994259357, -0.098, 0.976, 0.094, 192.0, 0.0, 0.0, 0.0, 0.0, 0.0, 0.0, 0.0, 0.0, 0.0, 1.6989585229227839E9, 0.0, 2023-11-02 16:55:22.922
182.0, -187500.02235174447, 187500.0, 22570.32216433551, 26175.546786254265, 187500.0, 187500.0, -187500.02235174447, 36495.32484952508, -0.098, 0.976, 0.094, 192.0, 0.0, 0.0, 0.0, 0.0, 0.0, 0.0, 0.0, 0.0, 0.0, 1.6989585229228337E9, 0.0, 2023-11-02 16:55:22.922
