%OpenBCI Raw EEG Data
%Number of channels = 8
%Sample Rate = 250 Hz
%Board = OpenBCI_GUI$BoardCytonSerial
Sample Index, EXG Channel 0, EXG Channel 1, EXG Channel 2, EXG Channel 3, EXG Channel 4, EXG Channel 5, EXG Channel 6, EXG Channel 7, Accel Channel 0, Accel Channel 1, Accel Channel 2, Other, Other, Other, Other, Other, Other, Other, Analog Channel 0, Analog Channel 1, Analog Channel 2, Timestamp, Other, Timestamp (Formatted)
24.0, -187500.02235174447, 187500.0, 19196.438097529186, 17504.165173073434, 187500.0, 187500.0, -187500.02235174447, 33234.786478851616, 0.0, 0.0, 0.0, 192.0, 0.0, 0.0, 0.0, 0.0, 0.0, 0.0, 0.0, 0.0, 0.0, 1.6989585705652497E9, 0.0, 2023-11-02 16:56:10.565
25.0, -187500.02235174447, 187500.0, 19193.80059168346, 17489.50242871075, 187500.0, 187500.0, -187500.02235174447, 33232.97598755074, 0.0, 0.0, 0.0, 192.0, 0.0, 0.0, 0.0, 0.0, 0.0, 0.0, 0.0, 0.0, 0.0, 1.698958570565267E9, 0.0, 2023-11-02 16:56:10.565
26.0, -187500.02235174447, 187500.0, 19192.146562593767, 17481.545207684663, 187500.0, 187500.0, -187500.02235174447, 33232.14897300589, 0.0, 0.0, 0.0, 192.0, 0.0, 0.0, 0.0, 0.0, 0.0, 0.0, 0.0, 0.0, 0.0, 1.698958570565277E9, 0.0, 2023-11-02 16:56:10.565
27.0, -187500.02235174447, 187500.0, 19195.65578647325, 17471.330460468587, 187500.0, 187500.0, -187500.02235174447, 33236.3958044524, 0.0, 0.0, 0.0, 192.0, 0.0, 0.0, 0.0, 0.0, 0.0, 0.0, 0.0, 0.0, 0.0, 1.6989585705652866E9, 0.0, 2023-11-02 16:56:10.565
28.0, -187500.02235174447, 187500.0, 19198.069774874424, 17442.988448499258, 187500.0, 187500.0, -187500.02235174447, 33239.1450690204, 0.0, 0.0, 0.0, 192.0, 0.0, 0.0, 0.0, 0.0, 0.0, 0.0, 0.0, 0.0, 0.0, 1.698958570565296E9, 0.0, 2023-11-02 16:56:10.565
29.0, -187500.02235174447, 187500.0, 19200.439059786684, 17411.74070975074, 187500.0, 187500.0, -187500.02235174447, 33239.86032484297, 0.0, 0.0, 0.0, 192.0, 0.0, 0.0, 0.0, 0.0, 0.0, 0.0, 0.0, 0.0, 0.0, 1.6989585705653057E9, 0.0, 2023-11-02 16:56:10.565
30.0, -187500.02235174447, 187500.0, 19196.594559740373, 17393.546389764117, 187500.0, 187500.0, -187500.02235174447, 33235.94876956329, -0.084, 0.976, 0.114, 192.0, 253.0, 96.0, 30.0, 128.0, 3.0, 144.0, 0.0, 0.0, 0.0, 1.6989585705653152E9, 0.0, 2023-11-02 16:56:10.565
31.0, -187500.02235174447, 187500.0, 19188.570283480916, 17381.498799502708, 187500.0, 187500.0, -187500.02235174447, 33230.89727531639, -0.084, 0.976, 0.114, 192.0, 0.0, 0.0, 0.0, 0.0, 0.0, 0.0, 0.0, 0.0, 0.0, 1.6989585705653265E9, 0.0, 2023-11-02 16:56:10.565
32.0, -187500.02235174447, 187500.0, 19187.765620680526, 17358.320040502553, 187500.0, 187500.0, -187500.02235174447, 33232.48424917272, -0.084, 0.976, 0.114, 192.0, 0.0, 0.0, 0.0, 0.0, 0.0, 0.0, 0.0, 0.0, 0.0, 1.6989585705653365E9, 0.0, 2023-11-02 16:56:10.565
33.0, -187500.02235174447, 187500.0, 19194.26997831702, 17345.28897348511, 187500.0, 187500.0, -187500.02235174447, 33239.033310298124, -0.084, 0.976, 0.114, 192.0, 0.0, 0.0, 0.0, 0.0, 0.0, 0.0, 0.0, 0.0, 0.0, 1.698958570565346E9, 0.0, 2023-11-02 16:56:10.565
34.0, -187500.02235174447, 187500.0, 19194.985234139593, 17344.618421151452, 187500.0, 187500.0, -187500.02235174447, 33240.86615334346, -0.084, 0.976, 0.114, 192.0, 0.0, 0.0, 0.0, 0.0, 0.0, 0.0, 0.0, 0.0, 0.0, 1.6989585705653555E9, 0.0, 2023-11-02 16:56:10.565
35.0, -187500.02235174447, 187500.0, 19194.135867850287, 17338.605801892973, 187500.0, 187500.0, -187500.02235174447, 33240.55322892108, -0.084, 0.976, 0.114, 192.0, 0.0, 0.0, 0.0, 0.0, 0.0, 0.0, 0.0, 0.0, 0.0, 1.6989585705653653E9, 0.0, 2023-11-02 16:56:10.565
36.0, -187500.02235174447, 187500.0, 19192.526542249507, 17328.256944210167, 187500.0, 187500.0, -187500.02235174447, 33240.083842287524, -0.084, 0.976, 0.114, 192.0, 0.0, 0.0, 0.0, 0.0, 0.0, 0.0, 0.0, 0.0, 0.0, 1.6989585705653749E9, 0.0, 2023-11-02 16:56:10.565
37.0, -187500.02235174447, 187500.0, 19200.21554234213, 17324.90418254187, 187500.0, 187500.0, -187500.02235174447, 33246.56584817956, -0.084, 0.976, 0.114, 192.0, 0.0, 0.0, 0.0, 0.0, 0.0, 0.0, 0.0, 0.0, 0.0, 1.6989585705653844E9, 0.0, 2023-11-02 16:56:10.565
38.0, -187500.02235174447, 187500.0, 19201.109612120345, 17332.034389023112, 187500.0, 187500.0, -187500.02235174447, 33248.91278134737, -0.084, 0.976, 0.114, 192.0, 0.0, 0.0, 0.0, 0.0, 0.0, 0.0, 0.0, 0.0, 0.0, 1.698958570565394E9, 0.0, 2023-11-02 16:56:10.565
39.0, -187500.02235174447, 187500.0, 19193.442963772173, 17327.631095365417, 187500.0, 187500.0, -187500.02235174447, 33242.14020277741, -0.084, 0.976, 0.114, 192.0, 0.0, 0.0, 0.0, 0.0, 0.0, 0.0, 0.0, 0.0, 0.0, 1.6989585705654037E9, 0.0, 2023-11-02 16:56:10.565
40.0, -187500.02235174447, 187500.0, 19198.047423129967, 17326.312342442554, 187500.0, 187500.0, -187500.02235174447, 33246.029406312635, -0.09, 0.97, 0.112, 192.0, 253.0, 48.0, 30.0, 80.0, 3.0, 128.0, 0.0, 0.0, 0.0, 1.6989585705655084E9, 0.0, 2023-11-02 16:56:10.565
41.0, -187500.02235174447, 187500.0, 19193.308853305443, 17320.120909228433, 187500.0, 187500.0, -187500.02235174447, 33240.53087717663, -0.09, 0.97, 0.112, 192.0, 0.0, 0.0, 0.0, 0.0, 0.0, 0.0, 0.0, 0.0, 0.0, 1.69895857056552E9, 0.0, 2023-11-02 16:56:10.565
42.0, -187500.02235174447, 187500.0, 19189.486705003586, 17308.162725944847, 187500.0, 187500.0, -187500.02235174447, 33235.837010841016, -0.09, 0.97, 0.112, 192.0, 0.0, 0.0, 0.0, 0.0, 0.0, 0.0, 0.0, 0.0, 0.0, 1.6989585705655296E9, 0.0, 2023-11-02 16:56:10.565
43.0, -187500.02235174447, 187500.0, 19188.726745692104, 17312.498964369173, 187500.0, 187500.0, -187500.02235174447, 33234.38414745142, -0.09, 0.97, 0.112, 192.0, 0.0, 0.0, 0.0, 0.0, 0.0, 0.0, 0.0, 0.0, 0.0, 1.6989585705655394E9, 0.0, 2023-11-02 16:56:10.565
44.0, -187500.02235174447, 187500.0, 19188.83850441438, 17310.017920734637, 187500.0, 187500.0, -187500.02235174447, 33234.87588582944, -0.09, 0.97, 0.112, 192.0, 0.0, 0.0, 0.0, 0.0, 0.0, 0.0, 0.0, 0.0, 0.0, 1.6989585705655503E9, 0.0, 2023-11-02 16:56:10.565
45.0, -187500.02235174447, 187500.0, 19193.80059168346, 17306.352234643964, 187500.0, 187500.0, -187500.02235174447, 33239.52504867614, -0.09, 0.97, 0.112, 192.0, 0.0, 0.0, 0.0, 0.0, 0.0, 0.0, 0.0, 0.0, 0.0, 1.6989585705655818E9, 0.0, 2023-11-02 16:56:10.565
46.0, -187500.02235174447, 187500.0, 19186.357460779844, 17303.89354275388, 187500.0, 187500.0, -187500.02235174447, 33231.366661949956, -0.09, 0.97, 0.112, 192.0, 0.0, 0.0, 0.0, 0.0, 0.0, 0.0, 0.0, 0.0, 0.0, 1.6989585705656123E9, 0.0, 2023-11-02 16:56:10.565
47.0, -187500.02235174447, 187500.0, 19179.204902554146, 17305.90519975486, 187500.0, 187500.0, -187500.02235174447, 33224.10234500198, -0.09, 0.97, 0.112, 192.0, 0.0, 0.0, 0.0, 0.0, 0.0, 0.0, 0.0, 0.0, 0.0, 1.698958570565622E9, 0.0, 2023-11-02 16:56:10.565
48.0, -187500.02235174447, 187500.0, 19182.624719455805, 17309.95086550127, 187500.0, 187500.0, -187500.02235174447, 33226.78455433661, -0.09, 0.97, 0.112, 192.0, 0.0, 0.0, 0.0, 0.0, 0.0, 0.0, 0.0, 0.0, 0.0, 1.6989585705656316E9, 0.0, 2023-11-02 16:56:10.565
49.0, -187500.02235174447, 187500.0, 19190.403126526253, 17311.269618424132, 187500.0, 187500.0, -187500.02235174447, 33233.937112562315, -0.09, 0.97, 0.112, 192.0, 0.0, 0.0, 0.0, 0.0, 0.0, 0.0, 0.0, 0.0, 0.0, 1.6989585705656419E9, 0.0, 2023-11-02 16:56:10.565
50.0, -187500.02235174447, 187500.0, 19181.46242874413, 17306.419289877333, 187500.0, 187500.0, -187500.02235174447, 33224.10234500198, -0.088, 0.97, 0.11, 192.0, 253.0, 64.0, 30.0, 80.0, 3.0, 112.0, 0.0, 0.0, 0.0, 1.6989585705656517E9, 0.0, 2023-11-02 16:56:10.565
51.0, -187500.02235174447, 187500.0, 19179.83075139889, 17299.669063051828, 187500.0, 187500.0, -187500.02235174447, 33222.44831591229, -0.088, 0.97, 0.11, 192.0, 0.0, 0.0, 0.0, 0.0, 0.0, 0.0, 0.0, 0.0, 0.0, 1.6989585705656617E9, 0.0, 2023-11-02 16:56:10.565
52.0, -187500.02235174447, 187500.0, 19182.55766422244, 17307.93920850029, 187500.0, 187500.0, -187500.02235174447, 33224.705842102274, -0.088, 0.97, 0.11, 192.0, 0.0, 0.0, 0.0, 0.0, 0.0, 0.0, 0.0, 0.0, 0.0, 1.6989585705656714E9, 0.0, 2023-11-02 16:56:10.565
53.0, -187500.02235174447, 187500.0, 19182.356498522342, 17304.340577642986, 187500.0, 187500.0, -187500.02235174447, 33223.47649615723, -0.088, 0.97, 0.11, 192.0, 0.0, 0.0, 0.0, 0.0, 0.0, 0.0, 0.0, 0.0, 0.0, 1.698958570565681E9, 0.0, 2023-11-02 16:56:10.565
54.0, -187500.02235174447, 187500.0, 19189.620815470316, 17310.33084515701, 187500.0, 187500.0, -187500.02235174447, 33230.96433054976, -0.088, 0.97, 0.11, 192.0, 0.0, 0.0, 0.0, 0.0, 0.0, 0.0, 0.0, 0.0, 0.0, 1.6989585705656908E9, 0.0, 2023-11-02 16:56:10.565
55.0, -187500.02235174447, 187500.0, 19191.74423119357, 17318.153955716367, 187500.0, 187500.0, -187500.02235174447, 33234.11592651796, -0.088, 0.97, 0.11, 192.0, 0.0, 0.0, 0.0, 0.0, 0.0, 0.0, 0.0, 0.0, 0.0, 1.6989585705657256E9, 0.0, 2023-11-02 16:56:10.565
56.0, -187500.02235174447, 187500.0, 19183.585844467383, 17322.37843541842, 187500.0, 187500.0, -187500.02235174447, 33225.28698745811, -0.088, 0.97, 0.11, 192.0, 0.0, 0.0, 0.0, 0.0, 0.0, 0.0, 0.0, 0.0, 0.0, 1.698958570565735E9, 0.0, 2023-11-02 16:56:10.565
57.0, -187500.02235174447, 187500.0, 19183.205864811644, 17313.817717292037, 187500.0, 187500.0, -187500.02235174447, 33224.03528976862, -0.088, 0.97, 0.11, 192.0, 0.0, 0.0, 0.0, 0.0, 0.0, 0.0, 0.0, 0.0, 0.0, 1.6989585705657449E9, 0.0, 2023-11-02 16:56:10.565
58.0, -187500.02235174447, 187500.0, 19188.95026313666, 17311.00139749067, 187500.0, 187500.0, -187500.02235174447, 33228.23741772621, -0.088, 0.97, 0.11, 192.0, 0.0, 0.0, 0.0, 0.0, 0.0, 0.0, 0.0, 0.0, 0.0, 1.6989585705657544E9, 0.0, 2023-11-02 16:56:10.565
59.0, -187500.02235174447, 187500.0, 19191.297196304466, 17311.783708546605, 187500.0, 187500.0, -187500.02235174447, 33227.67862411483, -0.088, 0.97, 0.11, 192.0, 0.0, 0.0, 0.0, 0.0, 0.0, 0.0, 0.0, 0.0, 0.0, 1.698958570565764E9, 0.0, 2023-11-02 16:56:10.565
60.0, -187500.02235174447, 187500.0, 19189.151428836754, 17312.409557391355, 187500.0, 187500.0, -187500.02235174447, 33225.57756013603, -0.09, 0.976, 0.10400000000000001, 192.0, 253.0, 48.0, 30.0, 128.0, 3.0, 64.0, 0.0, 0.0, 0.0, 1.6989585705657735E9, 0.0, 2023-11-02 16:56:10.565
61.0, -187500.02235174447, 187500.0, 19197.823905685415, 17318.310417927554, 187500.0, 187500.0, -187500.02235174447, 33234.16063000687, -0.09, 0.976, 0.10400000000000001, 192.0, 0.0, 0.0, 0.0, 0.0, 0.0, 0.0, 0.0, 0.0, 0.0, 1.6989585705657837E9, 0.0, 2023-11-02 16:56:10.565
62.0, -187500.02235174447, 187500.0, 19198.673271974716, 17313.840069036494, 187500.0, 187500.0, -187500.02235174447, 33234.45120268479, -0.09, 0.976, 0.10400000000000001, 192.0, 0.0, 0.0, 0.0, 0.0, 0.0, 0.0, 0.0, 0.0, 0.0, 1.6989585705657935E9, 0.0, 2023-11-02 16:56:10.565
63.0, -187500.02235174447, 187500.0, 19197.71214696314, 17315.851726037472, 187500.0, 187500.0, -187500.02235174447, 33232.394842194895, -0.09, 0.976, 0.10400000000000001, 192.0, 0.0, 0.0, 0.0, 0.0, 0.0, 0.0, 0.0, 0.0, 0.0, 1.698958570565803E9, 0.0, 2023-11-02 16:56:10.565
64.0, -187500.02235174447, 187500.0, 19196.9298359072, 17328.122833743433, 187500.0, 187500.0, -187500.02235174447, 33232.43954568381, -0.09, 0.976, 0.10400000000000001, 192.0, 0.0, 0.0, 0.0, 0.0, 0.0, 0.0, 0.0, 0.0, 0.0, 1.6989585705658126E9, 0.0, 2023-11-02 16:56:10.565
65.0, -187500.02235174447, 187500.0, 19197.779202196503, 17331.00620877817, 187500.0, 187500.0, -187500.02235174447, 33233.89240907341, -0.09, 0.976, 0.10400000000000001, 192.0, 0.0, 0.0, 0.0, 0.0, 0.0, 0.0, 0.0, 0.0, 0.0, 1.6989585705658221E9, 0.0, 2023-11-02 16:56:10.565
66.0, -187500.02235174447, 187500.0, 19200.61787374233, 17324.52420288613, 187500.0, 187500.0, -187500.02235174447, 33237.222818997245, -0.09, 0.976, 0.10400000000000001, 192.0, 0.0, 0.0, 0.0, 0.0, 0.0, 0.0, 0.0, 0.0, 0.0, 1.6989585705658317E9, 0.0, 2023-11-02 16:56:10.565
67.0, -187500.02235174447, 187500.0, 19197.488629518586, 17327.27346745413, 187500.0, 187500.0, -187500.02235174447, 33234.31709221806, -0.09, 0.976, 0.10400000000000001, 192.0, 0.0, 0.0, 0.0, 0.0, 0.0, 0.0, 0.0, 0.0, 0.0, 1.6989585705658429E9, 0.0, 2023-11-02 16:56:10.565
68.0, -187500.02235174447, 187500.0, 19194.1805713392, 17329.62040062194, 187500.0, 187500.0, -187500.02235174447, 33231.85840032797, -0.09, 0.976, 0.10400000000000001, 192.0, 0.0, 0.0, 0.0, 0.0, 0.0, 0.0, 0.0, 0.0, 0.0, 1.6989585705658524E9, 0.0, 2023-11-02 16:56:10.565
69.0, -187500.02235174447, 187500.0, 19191.900693404757, 17325.66414185335, 187500.0, 187500.0, -187500.02235174447, 33230.00320553818, -0.09, 0.976, 0.10400000000000001, 192.0, 0.0, 0.0, 0.0, 0.0, 0.0, 0.0, 0.0, 0.0, 0.0, 1.698958570565862E9, 0.0, 2023-11-02 16:56:10.565
70.0, -187500.02235174447, 187500.0, 19199.41087954174, 17324.94888603078, 187500.0, 187500.0, -187500.02235174447, 33234.71942361825, -0.088, 0.978, 0.10400000000000001, 192.0, 253.0, 64.0, 30.0, 144.0, 3.0, 64.0, 0.0, 0.0, 0.0, 1.6989585705658803E9, 0.0, 2023-11-02 16:56:10.565
71.0, -187500.02235174447, 187500.0, 19198.628568485805, 17330.00038027768, 187500.0, 187500.0, -187500.02235174447, 33231.970159050245, -0.088, 0.978, 0.10400000000000001, 192.0, 0.0, 0.0, 0.0, 0.0, 0.0, 0.0, 0.0, 0.0, 0.0, 1.6989585705658908E9, 0.0, 2023-11-02 16:56:10.565
72.0, -187500.02235174447, 187500.0, 19192.638300971783, 17334.358970446465, 187500.0, 187500.0, -187500.02235174447, 33227.27629271463, -0.088, 0.978, 0.10400000000000001, 192.0, 0.0, 0.0, 0.0, 0.0, 0.0, 0.0, 0.0, 0.0, 0.0, 1.6989585705659E9, 0.0, 2023-11-02 16:56:10.565
73.0, -187500.02235174447, 187500.0, 19193.64412947227, 17335.878889069427, 187500.0, 187500.0, -187500.02235174447, 33227.633920625914, -0.088, 0.978, 0.10400000000000001, 192.0, 0.0, 0.0, 0.0, 0.0, 0.0, 0.0, 0.0, 0.0, 0.0, 1.6989585705659099E9, 0.0, 2023-11-02 16:56:10.565
74.0, -187500.02235174447, 187500.0, 19203.121269121322, 17336.884717569916, 187500.0, 187500.0, -187500.02235174447, 33236.06052828557, -0.088, 0.978, 0.10400000000000001, 192.0, 0.0, 0.0, 0.0, 0.0, 0.0, 0.0, 0.0, 0.0, 0.0, 1.6989585705659194E9, 0.0, 2023-11-02 16:56:10.565
75.0, -187500.02235174447, 187500.0, 19205.043519144478, 17348.351162475486, 187500.0, 187500.0, -187500.02235174447, 33240.95556032128, -0.088, 0.978, 0.10400000000000001, 192.0, 0.0, 0.0, 0.0, 0.0, 0.0, 0.0, 0.0, 0.0, 0.0, 1.698958570565929E9, 0.0, 2023-11-02 16:56:10.565
76.0, -187500.02235174447, 187500.0, 19199.433231286195, 17352.508586944175, 187500.0, 187500.0, -187500.02235174447, 33238.139240519915, -0.088, 0.978, 0.10400000000000001, 192.0, 0.0, 0.0, 0.0, 0.0, 0.0, 0.0, 0.0, 0.0, 0.0, 1.6989585705659387E9, 0.0, 2023-11-02 16:56:10.565
77.0, -187500.02235174447, 187500.0, 19188.145600336265, 17345.177214762833, 187500.0, 187500.0, -187500.02235174447, 33226.53868514761, -0.088, 0.978, 0.10400000000000001, 192.0, 0.0, 0.0, 0.0, 0.0, 0.0, 0.0, 0.0, 0.0, 0.0, 1.698958570565948E9, 0.0, 2023-11-02 16:56:10.565
78.0, -187500.02235174447, 187500.0, 19187.09506834687, 17340.460996682763, 187500.0, 187500.0, -187500.02235174447, 33224.59408338, -0.088, 0.978, 0.10400000000000001, 192.0, 0.0, 0.0, 0.0, 0.0, 0.0, 0.0, 0.0, 0.0, 0.0, 1.6989585705659575E9, 0.0, 2023-11-02 16:56:10.565
79.0, -187500.02235174447, 187500.0, 19194.493495761573, 17345.914822329858, 187500.0, 187500.0, -187500.02235174447, 33231.43371718332, -0.088, 0.978, 0.10400000000000001, 192.0, 0.0, 0.0, 0.0, 0.0, 0.0, 0.0, 0.0, 0.0, 0.0, 1.698958570565967E9, 0.0, 2023-11-02 16:56:10.565
80.0, -187500.02235174447, 187500.0, 19192.973577138615, 17360.644621925905, 187500.0, 187500.0, -187500.02235174447, 33228.86326657096, -0.088, 0.978, 0.108, 192.0, 253.0, 64.0, 30.0, 144.0, 3.0, 96.0, 0.0, 0.0, 0.0, 1.6989585705659769E9, 0.0, 2023-11-02 16:56:10.565
81.0, -187500.02235174447, 187500.0, 19187.050364857958, 17357.87300561345, 187500.0, 187500.0, -187500.02235174447, 33219.542589133096, -0.088, 0.978, 0.108, 192.0, 0.0, 0.0, 0.0, 0.0, 0.0, 0.0, 0.0, 0.0, 0.0, 1.6989585705659869E9, 0.0, 2023-11-02 16:56:10.565
82.0, -187500.02235174447, 187500.0, 19193.64412947227, 17354.67670615634, 187500.0, 187500.0, -187500.02235174447, 33226.58338863652, -0.088, 0.978, 0.108, 192.0, 0.0, 0.0, 0.0, 0.0, 0.0, 0.0, 0.0, 0.0, 0.0, 1.6989585705659964E9, 0.0, 2023-11-02 16:56:10.565
83.0, -187500.02235174447, 187500.0, 19200.439059786684, 17357.33656374652, 187500.0, 187500.0, -187500.02235174447, 33233.89240907341, -0.088, 0.978, 0.108, 192.0, 0.0, 0.0, 0.0, 0.0, 0.0, 0.0, 0.0, 0.0, 0.0, 1.698958570566006E9, 0.0, 2023-11-02 16:56:10.566
84.0, -187500.02235174447, 187500.0, 19203.74711796607, 17365.874930128448, 187500.0, 187500.0, -187500.02235174447, 33236.90989457487, -0.088, 0.978, 0.108, 192.0, 0.0, 0.0, 0.0, 0.0, 0.0, 0.0, 0.0, 0.0, 0.0, 1.6989585705660155E9, 0.0, 2023-11-02 16:56:10.566
85.0, -187500.02235174447, 187500.0, 19194.918178906224, 17366.16550280637, 187500.0, 187500.0, -187500.02235174447, 33227.96919679275, -0.088, 0.978, 0.108, 192.0, 0.0, 0.0, 0.0, 0.0, 0.0, 0.0, 0.0, 0.0, 0.0, 1.6989585705660443E9, 0.0, 2023-11-02 16:56:10.566
86.0, -187500.02235174447, 187500.0, 19195.678138217707, 17358.431799224833, 187500.0, 187500.0, -187500.02235174447, 33229.08678401551, -0.088, 0.978, 0.108, 192.0, 0.0, 0.0, 0.0, 0.0, 0.0, 0.0, 0.0, 0.0, 0.0, 1.6989585705660543E9, 0.0, 2023-11-02 16:56:10.566
87.0, -187500.02235174447, 187500.0, 19194.02410912801, 17354.25202301169, 187500.0, 187500.0, -187500.02235174447, 33228.416231681855, -0.088, 0.978, 0.108, 192.0, 0.0, 0.0, 0.0, 0.0, 0.0, 0.0, 0.0, 0.0, 0.0, 1.698958570566064E9, 0.0, 2023-11-02 16:56:10.566
88.0, -187500.02235174447, 187500.0, 19192.571245738418, 17353.447360211296, 187500.0, 187500.0, -187500.02235174447, 33226.315167703055, -0.088, 0.978, 0.108, 192.0, 0.0, 0.0, 0.0, 0.0, 0.0, 0.0, 0.0, 0.0, 0.0, 1.698958570566075E9, 0.0, 2023-11-02 16:56:10.566
89.0, -187500.02235174447, 187500.0, 19189.643167214774, 17360.666973670362, 187500.0, 187500.0, -187500.02235174447, 33223.20827522377, -0.088, 0.978, 0.108, 192.0, 0.0, 0.0, 0.0, 0.0, 0.0, 0.0, 0.0, 0.0, 0.0, 1.6989585705660849E9, 0.0, 2023-11-02 16:56:10.566
90.0, -187500.02235174447, 187500.0, 19181.641242699774, 17352.62034566645, 187500.0, 187500.0, -187500.02235174447, 33217.10624898747, -0.08600000000000001, 0.982, 0.106, 192.0, 253.0, 80.0, 30.0, 176.0, 3.0, 80.0, 0.0, 0.0, 0.0, 1.6989585705660944E9, 0.0, 2023-11-02 16:56:10.566
91.0, -187500.02235174447, 187500.0, 19180.88128338829, 17346.38420896342, 187500.0, 187500.0, -187500.02235174447, 33216.323937931535, -0.08600000000000001, 0.982, 0.106, 192.0, 0.0, 0.0, 0.0, 0.0, 0.0, 0.0, 0.0, 0.0, 0.0, 1.6989585705661056E9, 0.0, 2023-11-02 16:56:10.566
92.0, -187500.02235174447, 187500.0, 19183.854065400847, 17349.759322376172, 187500.0, 187500.0, -187500.02235174447, 33218.02267051014, -0.08600000000000001, 0.982, 0.106, 192.0, 0.0, 0.0, 0.0, 0.0, 0.0, 0.0, 0.0, 0.0, 0.0, 1.6989585705661151E9, 0.0, 2023-11-02 16:56:10.566
93.0, -187500.02235174447, 187500.0, 19185.306928790444, 17353.916746844858, 187500.0, 187500.0, -187500.02235174447, 33219.319071688544, -0.08600000000000001, 0.982, 0.106, 192.0, 0.0, 0.0, 0.0, 0.0, 0.0, 0.0, 0.0, 0.0, 0.0, 1.698958570566125E9, 0.0, 2023-11-02 16:56:10.566
94.0, -187500.02235174447, 187500.0, 19188.32441429191, 17352.799159622093, 187500.0, 187500.0, -187500.02235174447, 33222.35890893447, -0.08600000000000001, 0.982, 0.106, 192.0, 0.0, 0.0, 0.0, 0.0, 0.0, 0.0, 0.0, 0.0, 0.0, 1.6989585705661345E9, 0.0, 2023-11-02 16:56:10.566
95.0, -187500.02235174447, 187500.0, 19189.531408492498, 17351.52511018814, 187500.0, 187500.0, -187500.02235174447, 33223.47649615723, -0.08600000000000001, 0.982, 0.106, 192.0, 0.0, 0.0, 0.0, 0.0, 0.0, 0.0, 0.0, 0.0, 0.0, 1.698958570566144E9, 0.0, 2023-11-02 16:56:10.566
96.0, -187500.02235174447, 187500.0, 19184.97165262361, 17347.211223508268, 187500.0, 187500.0, -187500.02235174447, 33217.82150481004, -0.08600000000000001, 0.982, 0.106, 192.0, 0.0, 0.0, 0.0, 0.0, 0.0, 0.0, 0.0, 0.0, 0.0, 1.6989585705661535E9, 0.0, 2023-11-02 16:56:10.566
97.0, -187500.02235174447, 187500.0, 19184.345803778866, 17346.18304326332, 187500.0, 187500.0, -187500.02235174447, 33216.83802805401, -0.08600000000000001, 0.982, 0.106, 192.0, 0.0, 0.0, 0.0, 0.0, 0.0, 0.0, 0.0, 0.0, 0.0, 1.6989585705661633E9, 0.0, 2023-11-02 16:56:10.566
98.0, -187500.02235174447, 187500.0, 19184.524617734507, 17345.53484267412, 187500.0, 187500.0, -187500.02235174447, 33215.340461175496, -0.08600000000000001, 0.982, 0.106, 192.0, 0.0, 0.0, 0.0, 0.0, 0.0, 0.0, 0.0, 0.0, 0.0, 1.6989585705661726E9, 0.0, 2023-11-02 16:56:10.566
99.0, -187500.02235174447, 187500.0, 19183.541140978472, 17340.349237960487, 187500.0, 187500.0, -187500.02235174447, 33214.04405999709, -0.08600000000000001, 0.982, 0.106, 192.0, 0.0, 0.0, 0.0, 0.0, 0.0, 0.0, 0.0, 0.0, 0.0, 1.698958570566182E9, 0.0, 2023-11-02 16:56:10.566
100.0, -187500.02235174447, 187500.0, 19186.60332996885, 17342.562060661563, 187500.0, 187500.0, -187500.02235174447, 33217.32976643202, -0.09, 0.978, 0.10200000000000001, 192.0, 253.0, 48.0, 30.0, 144.0, 3.0, 48.0, 0.0, 0.0, 0.0, 1.6989585705661917E9, 0.0, 2023-11-02 16:56:10.566
101.0, -187500.02235174447, 187500.0, 19188.36911778082, 17350.273412498645, 187500.0, 187500.0, -187500.02235174447, 33220.12373448894, -0.09, 0.978, 0.10200000000000001, 192.0, 0.0, 0.0, 0.0, 0.0, 0.0, 0.0, 0.0, 0.0, 0.0, 1.6989585705662112E9, 0.0, 2023-11-02 16:56:10.566
102.0, -187500.02235174447, 187500.0, 19186.692736946672, 17354.743761389705, 187500.0, 187500.0, -187500.02235174447, 33221.2413217117, -0.09, 0.978, 0.10200000000000001, 192.0, 0.0, 0.0, 0.0, 0.0, 0.0, 0.0, 0.0, 0.0, 0.0, 1.698958570566221E9, 0.0, 2023-11-02 16:56:10.566
103.0, -187500.02235174447, 187500.0, 19191.252492815554, 17355.704886401283, 187500.0, 187500.0, -187500.02235174447, 33228.79621133759, -0.09, 0.978, 0.10200000000000001, 192.0, 0.0, 0.0, 0.0, 0.0, 0.0, 0.0, 0.0, 0.0, 0.0, 1.6989585705662305E9, 0.0, 2023-11-02 16:56:10.566
104.0, -187500.02235174447, 187500.0, 19194.404088783755, 17354.877871856435, 187500.0, 187500.0, -187500.02235174447, 33233.35596720647, -0.09, 0.978, 0.10200000000000001, 192.0, 0.0, 0.0, 0.0, 0.0, 0.0, 0.0, 0.0, 0.0, 0.0, 1.6989585705662403E9, 0.0, 2023-11-02 16:56:10.566
105.0, -187500.02235174447, 187500.0, 19191.163085837732, 17361.136360303924, 187500.0, 187500.0, -187500.02235174447, 33228.63974912641, -0.09, 0.978, 0.10200000000000001, 192.0, 0.0, 0.0, 0.0, 0.0, 0.0, 0.0, 0.0, 0.0, 0.0, 1.6989585705662498E9, 0.0, 2023-11-02 16:56:10.566
106.0, -187500.02235174447, 187500.0, 19188.771449181015, 17366.456075484286, 187500.0, 187500.0, -187500.02235174447, 33224.32586244653, -0.09, 0.978, 0.10200000000000001, 192.0, 0.0, 0.0, 0.0, 0.0, 0.0, 0.0, 0.0, 0.0, 0.0, 1.6989585705662594E9, 0.0, 2023-11-02 16:56:10.566
107.0, -187500.02235174447, 187500.0, 19187.162123580234, 17355.928403845835, 187500.0, 187500.0, -187500.02235174447, 33221.57659787853, -0.09, 0.978, 0.10200000000000001, 192.0, 0.0, 0.0, 0.0, 0.0, 0.0, 0.0, 0.0, 0.0, 0.0, 1.6989585705662692E9, 0.0, 2023-11-02 16:56:10.566
108.0, -187500.02235174447, 187500.0, 19191.833638171393, 17351.1451305324, 187500.0, 187500.0, -187500.02235174447, 33227.76803109265, -0.09, 0.978, 0.10200000000000001, 192.0, 0.0, 0.0, 0.0, 0.0, 0.0, 0.0, 0.0, 0.0, 0.0, 1.6989585705662787E9, 0.0, 2023-11-02 16:56:10.566
109.0, -187500.02235174447, 187500.0, 19191.498362004564, 17358.700020158296, 187500.0, 187500.0, -187500.02235174447, 33226.85160956998, -0.09, 0.978, 0.10200000000000001, 192.0, 0.0, 0.0, 0.0, 0.0, 0.0, 0.0, 0.0, 0.0, 0.0, 1.6989585705662885E9, 0.0, 2023-11-02 16:56:10.566
110.0, -187500.02235174447, 187500.0, 19187.89973114726, 17360.24229052571, 187500.0, 187500.0, -187500.02235174447, 33222.560074634566, -0.084, 0.982, 0.10400000000000001, 192.0, 253.0, 96.0, 30.0, 176.0, 3.0, 64.0, 0.0, 0.0, 0.0, 1.6989585705662997E9, 0.0, 2023-11-02 16:56:10.566
111.0, -187500.02235174447, 187500.0, 19180.83657989938, 17354.81081662307, 187500.0, 187500.0, -187500.02235174447, 33218.58146412152, -0.084, 0.982, 0.10400000000000001, 192.0, 0.0, 0.0, 0.0, 0.0, 0.0, 0.0, 0.0, 0.0, 0.0, 1.6989585705663104E9, 0.0, 2023-11-02 16:56:10.566
112.0, -187500.02235174447, 187500.0, 19180.233082799088, 17342.91968857285, 187500.0, 187500.0, -187500.02235174447, 33219.96727227775, -0.084, 0.982, 0.10400000000000001, 192.0, 0.0, 0.0, 0.0, 0.0, 0.0, 0.0, 0.0, 0.0, 0.0, 1.69895857056632E9, 0.0, 2023-11-02 16:56:10.566
113.0, -187500.02235174447, 187500.0, 19182.200036311155, 17354.944927089804, 187500.0, 187500.0, -187500.02235174447, 33223.655310112874, -0.084, 0.982, 0.10400000000000001, 192.0, 0.0, 0.0, 0.0, 0.0, 0.0, 0.0, 0.0, 0.0, 0.0, 1.69895857056633E9, 0.0, 2023-11-02 16:56:10.566
114.0, -187500.02235174447, 187500.0, 19181.70829793314, 17369.741781919216, 187500.0, 187500.0, -187500.02235174447, 33222.895350801395, -0.084, 0.982, 0.10400000000000001, 192.0, 0.0, 0.0, 0.0, 0.0, 0.0, 0.0, 0.0, 0.0, 0.0, 1.6989585705663395E9, 0.0, 2023-11-02 16:56:10.566
115.0, -187500.02235174447, 187500.0, 19179.89780663226, 17364.66793592786, 187500.0, 187500.0, -187500.02235174447, 33221.01780426715, -0.084, 0.982, 0.10400000000000001, 192.0, 0.0, 0.0, 0.0, 0.0, 0.0, 0.0, 0.0, 0.0, 0.0, 1.6989585705663502E9, 0.0, 2023-11-02 16:56:10.566
116.0, -187500.02235174447, 187500.0, 19185.351632279355, 17362.63392718243, 187500.0, 187500.0, -187500.02235174447, 33225.48815315821, -0.084, 0.982, 0.10400000000000001, 192.0, 0.0, 0.0, 0.0, 0.0, 0.0, 0.0, 0.0, 0.0, 0.0, 1.6989585705663695E9, 0.0, 2023-11-02 16:56:10.566
117.0, -187500.02235174447, 187500.0, 19185.262225301532, 17365.986688850724, 187500.0, 187500.0, -187500.02235174447, 33226.22576072523, -0.084, 0.982, 0.10400000000000001, 192.0, 0.0, 0.0, 0.0, 0.0, 0.0, 0.0, 0.0, 0.0, 0.0, 1.698958570566383E9, 0.0, 2023-11-02 16:56:10.566
118.0, -187500.02235174447, 187500.0, 19187.542103235974, 17374.77092442166, 187500.0, 187500.0, -187500.02235174447, 33229.01972878215, -0.084, 0.982, 0.10400000000000001, 192.0, 0.0, 0.0, 0.0, 0.0, 0.0, 0.0, 0.0, 0.0, 0.0, 1.698958570566393E9, 0.0, 2023-11-02 16:56:10.566
119.0, -187500.02235174447, 187500.0, 19187.050364857958, 17378.48131400124, 187500.0, 187500.0, -187500.02235174447, 33229.86909507145, -0.084, 0.982, 0.10400000000000001, 192.0, 0.0, 0.0, 0.0, 0.0, 0.0, 0.0, 0.0, 0.0, 0.0, 1.698958570566403E9, 0.0, 2023-11-02 16:56:10.566
120.0, -187500.02235174447, 187500.0, 19185.105763090345, 17366.16550280637, 187500.0, 187500.0, -187500.02235174447, 33228.86326657096, -0.08600000000000001, 0.974, 0.106, 192.0, 253.0, 80.0, 30.0, 112.0, 3.0, 80.0, 0.0, 0.0, 0.0, 1.698958570566413E9, 0.0, 2023-11-02 16:56:10.566
121.0, -187500.02235174447, 187500.0, 19188.480876503098, 17362.991555093715, 187500.0, 187500.0, -187500.02235174447, 33229.91379856036, -0.08600000000000001, 0.974, 0.106, 192.0, 0.0, 0.0, 0.0, 0.0, 0.0, 0.0, 0.0, 0.0, 0.0, 1.6989585705664504E9, 0.0, 2023-11-02 16:56:10.566
122.0, -187500.02235174447, 187500.0, 19191.028975371002, 17370.61349995297, 187500.0, 187500.0, -187500.02235174447, 33230.53964740511, -0.08600000000000001, 0.974, 0.106, 192.0, 0.0, 0.0, 0.0, 0.0, 0.0, 0.0, 0.0, 0.0, 0.0, 1.6989585705664606E9, 0.0, 2023-11-02 16:56:10.566
123.0, -187500.02235174447, 187500.0, 19186.871550902313, 17375.597938966508, 187500.0, 187500.0, -187500.02235174447, 33225.91283630286, -0.08600000000000001, 0.974, 0.106, 192.0, 0.0, 0.0, 0.0, 0.0, 0.0, 0.0, 0.0, 0.0, 0.0, 1.698958570566471E9, 0.0, 2023-11-02 16:56:10.566
124.0, -187500.02235174447, 187500.0, 19184.301100289955, 17367.506607473686, 187500.0, 187500.0, -187500.02235174447, 33224.12469674643, -0.08600000000000001, 0.974, 0.106, 192.0, 0.0, 0.0, 0.0, 0.0, 0.0, 0.0, 0.0, 0.0, 0.0, 1.6989585705664818E9, 0.0, 2023-11-02 16:56:10.566
125.0, -187500.02235174447, 187500.0, 19188.614986969827, 17367.059572584578, 187500.0, 187500.0, -187500.02235174447, 33229.42206018234, -0.08600000000000001, 0.974, 0.106, 192.0, 0.0, 0.0, 0.0, 0.0, 0.0, 0.0, 0.0, 0.0, 0.0, 1.6989585705664933E9, 0.0, 2023-11-02 16:56:10.566
126.0, -187500.02235174447, 187500.0, 19184.926949134704, 17377.162561078378, 187500.0, 187500.0, -187500.02235174447, 33226.96336829226, -0.08600000000000001, 0.974, 0.106, 192.0, 0.0, 0.0, 0.0, 0.0, 0.0, 0.0, 0.0, 0.0, 0.0, 1.6989585705665035E9, 0.0, 2023-11-02 16:56:10.566
127.0, -187500.02235174447, 187500.0, 19181.484780488587, 17377.4531337563, 187500.0, 187500.0, -187500.02235174447, 33222.71653684575, -0.08600000000000001, 0.974, 0.106, 192.0, 0.0, 0.0, 0.0, 0.0, 0.0, 0.0, 0.0, 0.0, 0.0, 1.698958570566517E9, 0.0, 2023-11-02 16:56:10.566
128.0, -187500.02235174447, 187500.0, 19186.066888101923, 17375.083848844035, 187500.0, 187500.0, -187500.02235174447, 33226.38222293642, -0.08600000000000001, 0.974, 0.106, 192.0, 0.0, 0.0, 0.0, 0.0, 0.0, 0.0, 0.0, 0.0, 0.0, 1.698958570566528E9, 0.0, 2023-11-02 16:56:10.566
129.0, -187500.02235174447, 187500.0, 19192.83946667188, 17379.44243901282, 187500.0, 187500.0, -187500.02235174447, 33230.62905438293, -0.08600000000000001, 0.972, 0.108, 192.0, 253.0, 80.0, 30.0, 96.0, 3.0, 96.0, 0.0, 0.0, 0.0, 1.6989585705665395E9, 0.0, 2023-11-02 16:56:10.566
130.0, -187500.02235174447, 187500.0, 19191.94539689367, 17383.979843137247, 187500.0, 187500.0, -187500.02235174447, 33229.66792937135, -0.08600000000000001, 0.972, 0.108, 192.0, 0.0, 0.0, 0.0, 0.0, 0.0, 0.0, 0.0, 0.0, 0.0, 1.6989585705665588E9, 0.0, 2023-11-02 16:56:10.566
131.0, -187500.02235174447, 187500.0, 19189.531408492498, 17385.43270652684, 187500.0, 187500.0, -187500.02235174447, 33228.03625202611, -0.08600000000000001, 0.972, 0.108, 192.0, 0.0, 0.0, 0.0, 0.0, 0.0, 0.0, 0.0, 0.0, 0.0, 1.698958570566661E9, 0.0, 2023-11-02 16:56:10.566
132.0, -187500.02235174447, 187500.0, 19190.09020210388, 17381.454096013797, 187500.0, 187500.0, -187500.02235174447, 33227.45510667028, -0.08600000000000001, 0.972, 0.108, 192.0, 0.0, 0.0, 0.0, 0.0, 0.0, 0.0, 0.0, 0.0, 0.0, 1.698958570566675E9, 0.0, 2023-11-02 16:56:10.566
133.0, -187500.02235174447, 187500.0, 19193.1300393498, 17376.87198840046, 187500.0, 187500.0, -187500.02235174447, 33228.75150784868, -0.08600000000000001, 0.972, 0.108, 192.0, 0.0, 0.0, 0.0, 0.0, 0.0, 0.0, 0.0, 0.0, 0.0, 1.698958570566686E9, 0.0, 2023-11-02 16:56:10.566
134.0, -187500.02235174447, 187500.0, 19185.016356112523, 17378.39190702342, 187500.0, 187500.0, -187500.02235174447, 33221.353080433975, -0.08600000000000001, 0.972, 0.108, 192.0, 0.0, 0.0, 0.0, 0.0, 0.0, 0.0, 0.0, 0.0, 0.0, 1.6989585705666997E9, 0.0, 2023-11-02 16:56:10.566
135.0, -187500.02235174447, 187500.0, 19176.634451941783, 17379.978880879746, 187500.0, 187500.0, -187500.02235174447, 33213.41821115234, -0.08600000000000001, 0.972, 0.108, 192.0, 0.0, 0.0, 0.0, 0.0, 0.0, 0.0, 0.0, 0.0, 0.0, 1.6989585705667124E9, 0.0, 2023-11-02 16:56:10.566
136.0, -187500.02235174447, 187500.0, 19179.294309531964, 17384.225712326253, 187500.0, 187500.0, -187500.02235174447, 33215.36281291996, -0.08600000000000001, 0.972, 0.108, 192.0, 0.0, 0.0, 0.0, 0.0, 0.0, 0.0, 0.0, 0.0, 0.0, 1.6989585705667243E9, 0.0, 2023-11-02 16:56:10.566
137.0, -187500.02235174447, 187500.0, 19185.351632279355, 17388.517247261672, 187500.0, 187500.0, -187500.02235174447, 33221.46483915625, -0.08600000000000001, 0.972, 0.108, 192.0, 0.0, 0.0, 0.0, 0.0, 0.0, 0.0, 0.0, 0.0, 0.0, 1.6989585705667362E9, 0.0, 2023-11-02 16:56:10.566
138.0, -187500.02235174447, 187500.0, 19185.23987355708, 17398.240256099733, 187500.0, 187500.0, -187500.02235174447, 33221.53189438962, -0.08600000000000001, 0.972, 0.108, 192.0, 0.0, 0.0, 0.0, 0.0, 0.0, 0.0, 0.0, 0.0, 0.0, 1.698958570566748E9, 0.0, 2023-11-02 16:56:10.566
139.0, -187500.02235174447, 187500.0, 19179.562530465428, 17404.83402071405, 187500.0, 187500.0, -187500.02235174447, 33214.96048151976, -0.08600000000000001, 0.968, 0.106, 192.0, 253.0, 80.0, 30.0, 64.0, 3.0, 80.0, 0.0, 0.0, 0.0, 1.698958570566761E9, 0.0, 2023-11-02 16:56:10.566
140.0, -187500.02235174447, 187500.0, 19186.200998568656, 17401.123631134466, 187500.0, 187500.0, -187500.02235174447, 33221.46483915625, -0.08600000000000001, 0.968, 0.106, 192.0, 0.0, 0.0, 0.0, 0.0, 0.0, 0.0, 0.0, 0.0, 0.0, 1.6989585705667744E9, 0.0, 2023-11-02 16:56:10.566
141.0, -187500.02235174447, 187500.0, 19189.620815470316, 17405.437517814342, 187500.0, 187500.0, -187500.02235174447, 33225.555208391575, -0.08600000000000001, 0.968, 0.106, 192.0, 0.0, 0.0, 0.0, 0.0, 0.0, 0.0, 0.0, 0.0, 0.0, 1.6989585705667849E9, 0.0, 2023-11-02 16:56:10.566
142.0, -187500.02235174447, 187500.0, 19182.825885155904, 17409.170259138376, 187500.0, 187500.0, -187500.02235174447, 33219.07320249954, -0.08600000000000001, 0.968, 0.106, 192.0, 0.0, 0.0, 0.0, 0.0, 0.0, 0.0, 0.0, 0.0, 0.0, 1.6989585705667956E9, 0.0, 2023-11-02 16:56:10.566
143.0, -187500.02235174447, 187500.0, 19173.75107690705, 17413.193573140332, 187500.0, 187500.0, -187500.02235174447, 33208.7914000501, -0.08600000000000001, 0.968, 0.106, 192.0, 0.0, 0.0, 0.0, 0.0, 0.0, 0.0, 0.0, 0.0, 0.0, 1.6989585705668056E9, 0.0, 2023-11-02 16:56:10.566
144.0, -187500.02235174447, 187500.0, 19176.65680368624, 17415.048767930122, 187500.0, 187500.0, -187500.02235174447, 33212.21121695176, -0.08600000000000001, 0.968, 0.106, 192.0, 0.0, 0.0, 0.0, 0.0, 0.0, 0.0, 0.0, 0.0, 0.0, 1.6989585705668168E9, 0.0, 2023-11-02 16:56:10.566
145.0, -187500.02235174447, 187500.0, 19173.907539118238, 17418.55799180961, 187500.0, 187500.0, -187500.02235174447, 33211.31714717354, -0.08600000000000001, 0.968, 0.106, 192.0, 0.0, 0.0, 0.0, 0.0, 0.0, 0.0, 0.0, 0.0, 0.0, 1.6989585705668287E9, 0.0, 2023-11-02 16:56:10.566
0.0, 0.0, 0.0, 0.0, 0.0, 0.0, 0.0, 0.0, 0.0, -0.08600000000000001, 0.968, 0.106, 192.0, 0.0, 0.0, 0.0, 0.0, 0.0, 0.0, 0.0, 0.0, 0.0, 1.6989585706772428E9, 0.0, 2023-11-02 16:56:10.677
1.0, -187500.02235174447, 187500.0, 19150.88524232927, 17298.66323455134, 187500.0, 187500.0, -187500.02235174447, 33208.41142039435, -0.088, 0.972, 0.108, 192.0, 253.0, 64.0, 30.0, 96.0, 3.0, 96.0, 0.0, 0.0, 0.0, 1.698958571157073E9, 0.0, 2023-11-02 16:56:11.157
2.0, -187500.02235174447, 187500.0, 19150.818187095905, 17307.693339311285, 187500.0, 187500.0, -187500.02235174447, 33209.6407663394, -0.088, 0.972, 0.108, 192.0, 0.0, 0.0, 0.0, 0.0, 0.0, 0.0, 0.0, 0.0, 0.0, 1.6989585711572149E9, 0.0, 2023-11-02 16:56:11.157
3.0, -187500.02235174447, 187500.0, 19147.465425427607, 17312.968351002735, 187500.0, 187500.0, -187500.02235174447, 33205.95272850427, -0.088, 0.972, 0.108, 192.0, 0.0, 0.0, 0.0, 0.0, 0.0, 0.0, 0.0, 0.0, 0.0, 1.6989585711572344E9, 0.0, 2023-11-02 16:56:11.157
4.0, -187500.02235174447, 187500.0, 19148.82888183938, 17312.878944024917, 187500.0, 187500.0, -187500.02235174447, 33206.66798432684, -0.088, 0.972, 0.108, 192.0, 0.0, 0.0, 0.0, 0.0, 0.0, 0.0, 0.0, 0.0, 0.0, 1.6989585711572523E9, 0.0, 2023-11-02 16:56:11.157
5.0, -187500.02235174447, 187500.0, 19149.87941382878, 17310.934342257304, 187500.0, 187500.0, -187500.02235174447, 33206.82444653803, -0.088, 0.972, 0.108, 192.0, 0.0, 0.0, 0.0, 0.0, 0.0, 0.0, 0.0, 0.0, 0.0, 1.6989585711572714E9, 0.0, 2023-11-02 16:56:11.157
6.0, -187500.02235174447, 187500.0, 19148.60536439483, 17314.51062137015, 187500.0, 187500.0, -187500.02235174447, 33205.28217617061, -0.088, 0.972, 0.108, 192.0, 0.0, 0.0, 0.0, 0.0, 0.0, 0.0, 0.0, 0.0, 0.0, 1.6989585711573603E9, 0.0, 2023-11-02 16:56:11.157
7.0, -187500.02235174447, 187500.0, 19146.41489343821, 17318.198659205278, 187500.0, 187500.0, -187500.02235174447, 33202.063524969046, -0.088, 0.972, 0.108, 192.0, 0.0, 0.0, 0.0, 0.0, 0.0, 0.0, 0.0, 0.0, 0.0, 1.6989585711573803E9, 0.0, 2023-11-02 16:56:11.157
8.0, -187500.02235174447, 187500.0, 19147.4207219387, 17311.515487613142, 187500.0, 187500.0, -187500.02235174447, 33201.41532437984, -0.08600000000000001, 0.968, 0.10400000000000001, 192.0, 253.0, 80.0, 30.0, 64.0, 3.0, 64.0, 0.0, 0.0, 0.0, 1.6989585711574E9, 0.0, 2023-11-02 16:56:11.157
9.0, -187500.02235174447, 187500.0, 19148.381846950277, 17308.81092653405, 187500.0, 187500.0, -187500.02235174447, 33203.27051916964, -0.08600000000000001, 0.968, 0.10400000000000001, 192.0, 0.0, 0.0, 0.0, 0.0, 0.0, 0.0, 0.0, 0.0, 0.0, 1.6989585711574216E9, 0.0, 2023-11-02 16:56:11.157
10.0, -187500.02235174447, 187500.0, 19145.207899237623, 17313.28127542511, 187500.0, 187500.0, -187500.02235174447, 33201.638841824395, -0.08600000000000001, 0.968, 0.10400000000000001, 192.0, 0.0, 0.0, 0.0, 0.0, 0.0, 0.0, 0.0, 0.0, 0.0, 1.6989585711574378E9, 0.0, 2023-11-02 16:56:11.157
11.0, -187500.02235174447, 187500.0, 19141.564564891407, 17314.57767660352, 187500.0, 187500.0, -187500.02235174447, 33198.15196968937, -0.08600000000000001, 0.968, 0.10400000000000001, 192.0, 0.0, 0.0, 0.0, 0.0, 0.0, 0.0, 0.0, 0.0, 0.0, 1.698958571157458E9, 0.0, 2023-11-02 16:56:11.157
12.0, -187500.02235174447, 187500.0, 19138.41296892321, 17305.972254988224, 187500.0, 187500.0, -187500.02235174447, 33195.15683593236, -0.08600000000000001, 0.968, 0.10400000000000001, 192.0, 0.0, 0.0, 0.0, 0.0, 0.0, 0.0, 0.0, 0.0, 0.0, 1.6989585711574745E9, 0.0, 2023-11-02 16:56:11.157
13.0, -187500.02235174447, 187500.0, 19137.720064845093, 17302.79830727557, 187500.0, 187500.0, -187500.02235174447, 33193.99454522068, -0.08600000000000001, 0.968, 0.10400000000000001, 192.0, 0.0, 0.0, 0.0, 0.0, 0.0, 0.0, 0.0, 0.0, 0.0, 1.698958571157493E9, 0.0, 2023-11-02 16:56:11.157
14.0, -187500.02235174447, 187500.0, 19139.865832312804, 17312.566019602542, 187500.0, 187500.0, -187500.02235174447, 33196.20736792176, -0.08600000000000001, 0.968, 0.10400000000000001, 192.0, 0.0, 0.0, 0.0, 0.0, 0.0, 0.0, 0.0, 0.0, 0.0, 1.698958571157513E9, 0.0, 2023-11-02 16:56:11.157
15.0, -187500.02235174447, 187500.0, 19138.1670997342, 17309.481478867707, 187500.0, 187500.0, -187500.02235174447, 33196.117960943935, -0.08600000000000001, 0.968, 0.10400000000000001, 192.0, 0.0, 0.0, 0.0, 0.0, 0.0, 0.0, 0.0, 0.0, 0.0, 1.6989585711575332E9, 0.0, 2023-11-02 16:56:11.157
16.0, -187500.02235174447, 187500.0, 19140.089349757356, 17306.598103832974, 187500.0, 187500.0, -187500.02235174447, 33198.353135389465, -0.08600000000000001, 0.968, 0.10400000000000001, 192.0, 0.0, 0.0, 0.0, 0.0, 0.0, 0.0, 0.0, 0.0, 0.0, 1.698958571158008E9, 0.0, 2023-11-02 16:56:11.158
17.0, -187500.02235174447, 187500.0, 19140.424625924188, 17299.04321420708, 187500.0, 187500.0, -187500.02235174447, 33197.39201037789, -0.08600000000000001, 0.968, 0.10400000000000001, 192.0, 0.0, 0.0, 0.0, 0.0, 0.0, 0.0, 0.0, 0.0, 0.0, 1.698958571158029E9, 0.0, 2023-11-02 16:56:11.158
18.0, -187500.02235174447, 187500.0, 19140.379922435277, 17302.03834796409, 187500.0, 187500.0, -187500.02235174447, 33196.52029234413, -0.08, 0.978, 0.106, 192.0, 253.0, 128.0, 30.0, 144.0, 3.0, 80.0, 0.0, 0.0, 0.0, 1.6989585711580453E9, 0.0, 2023-11-02 16:56:11.158
19.0, -187500.02235174447, 187500.0, 19141.542213146953, 17309.66029282335, 187500.0, 187500.0, -187500.02235174447, 33198.844873767484, -0.08, 0.978, 0.106, 192.0, 0.0, 0.0, 0.0, 0.0, 0.0, 0.0, 0.0, 0.0, 0.0, 1.6989585711580646E9, 0.0, 2023-11-02 16:56:11.158
20.0, -187500.02235174447, 187500.0, 19140.558736390918, 17310.822583535028, 187500.0, 187500.0, -187500.02235174447, 33197.81669352254, -0.08, 0.978, 0.106, 192.0, 0.0, 0.0, 0.0, 0.0, 0.0, 0.0, 0.0, 0.0, 0.0, 1.6989585711580782E9, 0.0, 2023-11-02 16:56:11.158
21.0, -187500.02235174447, 187500.0, 19140.894012557746, 17307.38041488891, 187500.0, 187500.0, -187500.02235174447, 33198.57665283402, -0.08, 0.978, 0.106, 192.0, 0.0, 0.0, 0.0, 0.0, 0.0, 0.0, 0.0, 0.0, 0.0, 1.6989585711580927E9, 0.0, 2023-11-02 16:56:11.158
22.0, -187500.02235174447, 187500.0, 19142.45863466962, 17307.04513872208, 187500.0, 187500.0, -187500.02235174447, 33199.91775750134, -0.08, 0.978, 0.106, 192.0, 0.0, 0.0, 0.0, 0.0, 0.0, 0.0, 0.0, 0.0, 0.0, 1.6989585711581087E9, 0.0, 2023-11-02 16:56:11.158
23.0, -187500.02235174447, 187500.0, 19138.703541601128, 17312.677778324818, 187500.0, 187500.0, -187500.02235174447, 33196.252071410665, -0.08, 0.978, 0.106, 192.0, 0.0, 0.0, 0.0, 0.0, 0.0, 0.0, 0.0, 0.0, 0.0, 1.6989585711581223E9, 0.0, 2023-11-02 16:56:11.158
24.0, -187500.02235174447, 187500.0, 19138.1670997342, 17315.538801615097, 187500.0, 187500.0, -187500.02235174447, 33198.01785922264, -0.08, 0.978, 0.106, 192.0, 0.0, 0.0, 0.0, 0.0, 0.0, 0.0, 0.0, 0.0, 0.0, 1.698958571158136E9, 0.0, 2023-11-02 16:56:11.158
25.0, -187500.02235174447, 187500.0, 19136.44601541114, 17315.874077781926, 187500.0, 187500.0, -187500.02235174447, 33198.80017027857, -0.08, 0.978, 0.106, 192.0, 0.0, 0.0, 0.0, 0.0, 0.0, 0.0, 0.0, 0.0, 0.0, 1.69895857115815E9, 0.0, 2023-11-02 16:56:11.158
26.0, -187500.02235174447, 187500.0, 19142.01159978051, 17320.679702839818, 187500.0, 187500.0, -187500.02235174447, 33204.76808604814, -0.08, 0.978, 0.106, 192.0, 0.0, 0.0, 0.0, 0.0, 0.0, 0.0, 0.0, 0.0, 0.0, 1.6989585711581664E9, 0.0, 2023-11-02 16:56:11.158
27.0, -187500.02235174447, 187500.0, 19142.50333815853, 17324.412444163852, 187500.0, 187500.0, -187500.02235174447, 33204.499865114674, -0.08, 0.978, 0.106, 192.0, 0.0, 0.0, 0.0, 0.0, 0.0, 0.0, 0.0, 0.0, 0.0, 1.6989585711581836E9, 0.0, 2023-11-02 16:56:11.158
28.0, -187500.02235174447, 187500.0, 19142.1680619917, 17319.875040039427, 187500.0, 187500.0, -187500.02235174447, 33203.38227789191, -0.078, 0.978, 0.112, 192.0, 253.0, 144.0, 30.0, 144.0, 3.0, 128.0, 0.0, 0.0, 0.0, 1.6989585711582196E9, 0.0, 2023-11-02 16:56:11.158
29.0, -187500.02235174447, 187500.0, 19139.329390445877, 17311.627246335418, 187500.0, 187500.0, -187500.02235174447, 33199.58248133451, -0.078, 0.978, 0.112, 192.0, 0.0, 0.0, 0.0, 0.0, 0.0, 0.0, 0.0, 0.0, 0.0, 1.6989585711582384E9, 0.0, 2023-11-02 16:56:11.158
30.0, -187500.02235174447, 187500.0, 19137.094216000347, 17310.107327712456, 187500.0, 187500.0, -187500.02235174447, 33196.117960943935, -0.078, 0.978, 0.112, 192.0, 0.0, 0.0, 0.0, 0.0, 0.0, 0.0, 0.0, 0.0, 0.0, 1.6989585711582592E9, 0.0, 2023-11-02 16:56:11.158
31.0, -187500.02235174447, 187500.0, 19140.15640499072, 17315.628208592916, 187500.0, 187500.0, -187500.02235174447, 33197.88374875591, -0.078, 0.978, 0.112, 192.0, 0.0, 0.0, 0.0, 0.0, 0.0, 0.0, 0.0, 0.0, 0.0, 1.6989585711585765E9, 0.0, 2023-11-02 16:56:11.158
32.0, -187500.02235174447, 187500.0, 19142.056303269423, 17320.880868539916, 187500.0, 187500.0, -187500.02235174447, 33198.911929000846, -0.078, 0.978, 0.112, 192.0, 0.0, 0.0, 0.0, 0.0, 0.0, 0.0, 0.0, 0.0, 0.0, 1.6989585711586025E9, 0.0, 2023-11-02 16:56:11.158
33.0, -187500.02235174447, 187500.0, 19142.548041647442, 17314.13064171441, 187500.0, 187500.0, -187500.02235174447, 33198.04021096709, -0.078, 0.978, 0.112, 192.0, 0.0, 0.0, 0.0, 0.0, 0.0, 0.0, 0.0, 0.0, 0.0, 1.698958571158626E9, 0.0, 2023-11-02 16:56:11.158
34.0, -187500.02235174447, 187500.0, 19142.70450385863, 17309.280313167612, 187500.0, 187500.0, -187500.02235174447, 33199.04603946758, -0.078, 0.978, 0.112, 192.0, 0.0, 0.0, 0.0, 0.0, 0.0, 0.0, 0.0, 0.0, 0.0, 1.6989585711586432E9, 0.0, 2023-11-02 16:56:11.158
35.0, -187500.02235174447, 187500.0, 19143.240945725556, 17319.875040039427, 187500.0, 187500.0, -187500.02235174447, 33201.86235926895, -0.078, 0.978, 0.112, 192.0, 0.0, 0.0, 0.0, 0.0, 0.0, 0.0, 0.0, 0.0, 0.0, 1.6989585711586592E9, 0.0, 2023-11-02 16:56:11.158
36.0, -187500.02235174447, 187500.0, 19138.3682654343, 17324.85947905296, 187500.0, 187500.0, -187500.02235174447, 33199.35896388996, -0.078, 0.978, 0.112, 192.0, 0.0, 0.0, 0.0, 0.0, 0.0, 0.0, 0.0, 0.0, 0.0, 1.6989585711586761E9, 0.0, 2023-11-02 16:56:11.158
37.0, -187500.02235174447, 187500.0, 19140.201108479632, 17319.584467361507, 187500.0, 187500.0, -187500.02235174447, 33201.214158679744, -0.088, 0.976, 0.11, 192.0, 253.0, 64.0, 30.0, 128.0, 3.0, 112.0, 0.0, 0.0, 0.0, 1.698958571158692E9, 0.0, 2023-11-02 16:56:11.158
38.0, -187500.02235174447, 187500.0, 19142.302172458432, 17315.42704289282, 187500.0, 187500.0, -187500.02235174447, 33202.063524969046, -0.088, 0.976, 0.11, 192.0, 0.0, 0.0, 0.0, 0.0, 0.0, 0.0, 0.0, 0.0, 0.0, 1.6989585711587112E9, 0.0, 2023-11-02 16:56:11.158
39.0, -187500.02235174447, 187500.0, 19136.803643322426, 17318.645694094383, 187500.0, 187500.0, -187500.02235174447, 33197.28025165561, -0.088, 0.976, 0.11, 192.0, 0.0, 0.0, 0.0, 0.0, 0.0, 0.0, 0.0, 0.0, 0.0, 1.698958571158726E9, 0.0, 2023-11-02 16:56:11.158
40.0, -187500.02235174447, 187500.0, 19130.701617086128, 17322.221973207234, 187500.0, 187500.0, -187500.02235174447, 33191.357039374954, -0.088, 0.976, 0.11, 192.0, 0.0, 0.0, 0.0, 0.0, 0.0, 0.0, 0.0, 0.0, 0.0, 1.6989585711587453E9, 0.0, 2023-11-02 16:56:11.158
41.0, -187500.02235174447, 187500.0, 19132.64621885374, 17320.70205458427, 187500.0, 187500.0, -187500.02235174447, 33191.42409460832, -0.088, 0.976, 0.11, 192.0, 0.0, 0.0, 0.0, 0.0, 0.0, 0.0, 0.0, 0.0, 0.0, 1.698958571158764E9, 0.0, 2023-11-02 16:56:11.158
42.0, -187500.02235174447, 187500.0, 19135.954277033125, 17315.047063237078, 187500.0, 187500.0, -187500.02235174447, 33193.30164114256, -0.088, 0.976, 0.11, 192.0, 0.0, 0.0, 0.0, 0.0, 0.0, 0.0, 0.0, 0.0, 0.0, 1.6989585711587815E9, 0.0, 2023-11-02 16:56:11.158
43.0, -187500.02235174447, 187500.0, 19132.623867109283, 17314.53297311461, 187500.0, 187500.0, -187500.02235174447, 33191.66996379733, -0.088, 0.976, 0.11, 192.0, 0.0, 0.0, 0.0, 0.0, 0.0, 0.0, 0.0, 0.0, 0.0, 1.6989585711588006E9, 0.0, 2023-11-02 16:56:11.158
44.0, -187500.02235174447, 187500.0, 19134.233192710068, 17320.23266795071, 187500.0, 187500.0, -187500.02235174447, 33195.91679524384, -0.088, 0.976, 0.11, 192.0, 0.0, 0.0, 0.0, 0.0, 0.0, 0.0, 0.0, 0.0, 0.0, 1.6989585711588297E9, 0.0, 2023-11-02 16:56:11.158
45.0, -187500.02235174447, 187500.0, 19137.630657867274, 17331.00620877817, 187500.0, 187500.0, -187500.02235174447, 33199.64953656787, -0.088, 0.976, 0.11, 192.0, 0.0, 0.0, 0.0, 0.0, 0.0, 0.0, 0.0, 0.0, 0.0, 1.6989585711588712E9, 0.0, 2023-11-02 16:56:11.158
46.0, -187500.02235174447, 187500.0, 19138.30121020093, 17330.603877377973, 187500.0, 187500.0, -187500.02235174447, 33202.2870424136, -0.088, 0.976, 0.11, 192.0, 0.0, 0.0, 0.0, 0.0, 0.0, 0.0, 0.0, 0.0, 0.0, 1.6989585711590974E9, 0.0, 2023-11-02 16:56:11.159
47.0, -187500.02235174447, 187500.0, 19138.949410790137, 17330.670932611338, 187500.0, 187500.0, -187500.02235174447, 33204.164588947846, -0.092, 0.972, 0.11, 192.0, 253.0, 32.0, 30.0, 96.0, 3.0, 112.0, 0.0, 0.0, 0.0, 1.6989585711591215E9, 0.0, 2023-11-02 16:56:11.159
48.0, -187500.02235174447, 187500.0, 19134.747282832537, 17334.180156490824, 187500.0, 187500.0, -187500.02235174447, 33199.18014993431, -0.092, 0.972, 0.11, 192.0, 0.0, 0.0, 0.0, 0.0, 0.0, 0.0, 0.0, 0.0, 0.0, 1.6989585711591408E9, 0.0, 2023-11-02 16:56:11.159
49.0, -187500.02235174447, 187500.0, 19136.401311922233, 17334.42602567983, 187500.0, 187500.0, -187500.02235174447, 33201.30356565757, -0.092, 0.972, 0.11, 192.0, 0.0, 0.0, 0.0, 0.0, 0.0, 0.0, 0.0, 0.0, 0.0, 1.698958571159192E9, 0.0, 2023-11-02 16:56:11.159
50.0, -187500.02235174447, 187500.0, 19139.2176317236, 17332.61553437895, 187500.0, 187500.0, -187500.02235174447, 33204.432809881306, -0.092, 0.972, 0.11, 192.0, 0.0, 0.0, 0.0, 0.0, 0.0, 0.0, 0.0, 0.0, 0.0, 1.698958571159207E9, 0.0, 2023-11-02 16:56:11.159
51.0, -187500.02235174447, 187500.0, 19144.11266375931, 17332.347313445487, 187500.0, 187500.0, -187500.02235174447, 33208.970214005734, -0.092, 0.972, 0.11, 192.0, 0.0, 0.0, 0.0, 0.0, 0.0, 0.0, 0.0, 0.0, 0.0, 1.6989585711592271E9, 0.0, 2023-11-02 16:56:11.159
52.0, -187500.02235174447, 187500.0, 19148.98534405057, 17347.166520019357, 187500.0, 187500.0, -187500.02235174447, 33213.75348731917, -0.092, 0.972, 0.11, 192.0, 0.0, 0.0, 0.0, 0.0, 0.0, 0.0, 0.0, 0.0, 0.0, 1.698958571159245E9, 0.0, 2023-11-02 16:56:11.159
53.0, -187500.02235174447, 187500.0, 19146.772521349492, 17349.826377609537, 187500.0, 187500.0, -187500.02235174447, 33213.664080341354, -0.092, 0.972, 0.11, 192.0, 0.0, 0.0, 0.0, 0.0, 0.0, 0.0, 0.0, 0.0, 0.0, 1.6989585711592627E9, 0.0, 2023-11-02 16:56:11.159
54.0, -187500.02235174447, 187500.0, 19146.97368704959, 17346.67478164134, 187500.0, 187500.0, -187500.02235174447, 33216.41334490936, -0.092, 0.972, 0.11, 192.0, 0.0, 0.0, 0.0, 0.0, 0.0, 0.0, 0.0, 0.0, 0.0, 1.698958571159282E9, 0.0, 2023-11-02 16:56:11.159
55.0, -187500.02235174447, 187500.0, 19144.604402137327, 17336.124758258433, 187500.0, 187500.0, -187500.02235174447, 33211.09362972899, -0.092, 0.972, 0.11, 192.0, 0.0, 0.0, 0.0, 0.0, 0.0, 0.0, 0.0, 0.0, 0.0, 1.6989585711593008E9, 0.0, 2023-11-02 16:56:11.159
56.0, -187500.02235174447, 187500.0, 19151.846367340848, 17343.009095550668, 187500.0, 187500.0, -187500.02235174447, 33215.832199553515, -0.092, 0.972, 0.11, 192.0, 0.0, 0.0, 0.0, 0.0, 0.0, 0.0, 0.0, 0.0, 0.0, 1.6989585711593165E9, 0.0, 2023-11-02 16:56:11.159
57.0, -187500.02235174447, 187500.0, 19152.874547585794, 17355.794293379106, 187500.0, 187500.0, -187500.02235174447, 33216.50275188717, -0.088, 0.974, 0.112, 192.0, 253.0, 64.0, 30.0, 112.0, 3.0, 128.0, 0.0, 0.0, 0.0, 1.698958571159335E9, 0.0, 2023-11-02 16:56:11.159
58.0, -187500.02235174447, 187500.0, 19147.59953589434, 17350.563985176563, 187500.0, 187500.0, -187500.02235174447, 33210.870112284436, -0.088, 0.974, 0.112, 192.0, 0.0, 0.0, 0.0, 0.0, 0.0, 0.0, 0.0, 0.0, 0.0, 1.6989585711593523E9, 0.0, 2023-11-02 16:56:11.159
59.0, -187500.02235174447, 187500.0, 19149.477082428584, 17345.356028718477, 187500.0, 187500.0, -187500.02235174447, 33210.53483611761, -0.088, 0.974, 0.112, 192.0, 0.0, 0.0, 0.0, 0.0, 0.0, 0.0, 0.0, 0.0, 0.0, 1.6989585711593707E9, 0.0, 2023-11-02 16:56:11.159
60.0, -187500.02235174447, 187500.0, 19155.40029470924, 17358.14122654691, 187500.0, 187500.0, -187500.02235174447, 33216.01101350916, -0.088, 0.974, 0.112, 192.0, 0.0, 0.0, 0.0, 0.0, 0.0, 0.0, 0.0, 0.0, 0.0, 1.6989585711593914E9, 0.0, 2023-11-02 16:56:11.159
61.0, -187500.02235174447, 187500.0, 19150.393503951254, 17364.019735338657, 187500.0, 187500.0, -187500.02235174447, 33211.11598147345, -0.088, 0.974, 0.112, 192.0, 0.0, 0.0, 0.0, 0.0, 0.0, 0.0, 0.0, 0.0, 0.0, 1.698958571159492E9, 0.0, 2023-11-02 16:56:11.159
62.0, -187500.02235174447, 187500.0, 19146.459596927118, 17362.25394752669, 187500.0, 187500.0, -187500.02235174447, 33209.05962098356, -0.088, 0.974, 0.112, 192.0, 0.0, 0.0, 0.0, 0.0, 0.0, 0.0, 0.0, 0.0, 0.0, 1.6989585711595173E9, 0.0, 2023-11-02 16:56:11.159
63.0, -187500.02235174447, 187500.0, 19147.77834984998, 17358.76707539166, 187500.0, 187500.0, -187500.02235174447, 33212.01005125166, -0.088, 0.974, 0.112, 192.0, 0.0, 0.0, 0.0, 0.0, 0.0, 0.0, 0.0, 0.0, 0.0, 1.6989585711595376E9, 0.0, 2023-11-02 16:56:11.159
64.0, -187500.02235174447, 187500.0, 19148.02421903899, 17363.751514405194, 187500.0, 187500.0, -187500.02235174447, 33212.90412102987, -0.088, 0.974, 0.112, 192.0, 0.0, 0.0, 0.0, 0.0, 0.0, 0.0, 0.0, 0.0, 0.0, 1.6989585711595528E9, 0.0, 2023-11-02 16:56:11.159
65.0, -187500.02235174447, 187500.0, 19135.104910743823, 17366.925462117848, 187500.0, 187500.0, -187500.02235174447, 33202.9352430028, -0.088, 0.974, 0.112, 192.0, 0.0, 0.0, 0.0, 0.0, 0.0, 0.0, 0.0, 0.0, 0.0, 1.6989585711595712E9, 0.0, 2023-11-02 16:56:11.159
66.0, -187500.02235174447, 187500.0, 19130.58985836385, 17362.00807833768, 187500.0, 187500.0, -187500.02235174447, 33196.542644088586, -0.088, 0.974, 0.112, 192.0, 0.0, 0.0, 0.0, 0.0, 0.0, 0.0, 0.0, 0.0, 0.0, 1.698958571159592E9, 0.0, 2023-11-02 16:56:11.159
67.0, -187500.02235174447, 187500.0, 19132.042721753445, 17352.28506949962, 187500.0, 187500.0, -187500.02235174447, 33197.302603400065, -0.082, 0.98, 0.108, 192.0, 253.0, 112.0, 30.0, 160.0, 3.0, 96.0, 0.0, 0.0, 0.0, 1.6989585711596155E9, 0.0, 2023-11-02 16:56:11.159
68.0, -187500.02235174447, 187500.0, 19135.46253865511, 17356.151921290388, 187500.0, 187500.0, -187500.02235174447, 33199.828350523516, -0.082, 0.98, 0.108, 192.0, 0.0, 0.0, 0.0, 0.0, 0.0, 0.0, 0.0, 0.0, 0.0, 1.6989585711596403E9, 0.0, 2023-11-02 16:56:11.159
69.0, -187500.02235174447, 187500.0, 19136.69188460015, 17362.991555093715, 187500.0, 187500.0, -187500.02235174447, 33203.00229823617, -0.082, 0.98, 0.108, 192.0, 0.0, 0.0, 0.0, 0.0, 0.0, 0.0, 0.0, 0.0, 0.0, 1.698958571159657E9, 0.0, 2023-11-02 16:56:11.159
70.0, -187500.02235174447, 187500.0, 19133.383826420766, 17361.493988215207, 187500.0, 187500.0, -187500.02235174447, 33201.57178659103, -0.082, 0.98, 0.108, 192.0, 0.0, 0.0, 0.0, 0.0, 0.0, 0.0, 0.0, 0.0, 0.0, 1.6989585711596978E9, 0.0, 2023-11-02 16:56:11.159
71.0, -187500.02235174447, 187500.0, 19129.27110544099, 17356.28603175712, 187500.0, 187500.0, -187500.02235174447, 33197.235548166704, -0.082, 0.98, 0.108, 192.0, 0.0, 0.0, 0.0, 0.0, 0.0, 0.0, 0.0, 0.0, 0.0, 1.698958571159726E9, 0.0, 2023-11-02 16:56:11.159
72.0, -187500.02235174447, 187500.0, 19130.88043104177, 17353.38030497793, 187500.0, 187500.0, -187500.02235174447, 33198.10726620046, -0.082, 0.98, 0.108, 192.0, 0.0, 0.0, 0.0, 0.0, 0.0, 0.0, 0.0, 0.0, 0.0, 1.6989585711597512E9, 0.0, 2023-11-02 16:56:11.159
73.0, -187500.02235174447, 187500.0, 19135.2166694661, 17363.997383594204, 187500.0, 187500.0, -187500.02235174447, 33204.61162383695, -0.082, 0.98, 0.108, 192.0, 0.0, 0.0, 0.0, 0.0, 0.0, 0.0, 0.0, 0.0, 0.0, 1.6989585711597736E9, 0.0, 2023-11-02 16:56:11.159
74.0, -187500.02235174447, 187500.0, 19136.93775378916, 17367.19368305131, 187500.0, 187500.0, -187500.02235174447, 33208.00908899416, -0.082, 0.98, 0.108, 192.0, 0.0, 0.0, 0.0, 0.0, 0.0, 0.0, 0.0, 0.0, 0.0, 1.6989585711598003E9, 0.0, 2023-11-02 16:56:11.159
75.0, -187500.02235174447, 187500.0, 19142.905669558724, 17361.851616126492, 187500.0, 187500.0, -187500.02235174447, 33213.41821115234, -0.082, 0.98, 0.108, 192.0, 0.0, 0.0, 0.0, 0.0, 0.0, 0.0, 0.0, 0.0, 0.0, 1.6989585711598353E9, 0.0, 2023-11-02 16:56:11.159
76.0, -187500.02235174447, 187500.0, 19141.095178257845, 17360.286994014623, 187500.0, 187500.0, -187500.02235174447, 33211.47360938473, -0.082, 0.98, 0.108, 192.0, 0.0, 0.0, 0.0, 0.0, 0.0, 0.0, 0.0, 0.0, 0.0, 1.69895857115986E9, 0.0, 2023-11-02 16:56:11.159
77.0, -187500.02235174447, 187500.0, 19134.344951432344, 17362.85744462698, 187500.0, 187500.0, -187500.02235174447, 33205.32687965952, -0.082, 0.98, 0.10200000000000001, 192.0, 253.0, 112.0, 30.0, 160.0, 3.0, 48.0, 0.0, 0.0, 0.0, 1.6989585711600013E9, 0.0, 2023-11-02 16:56:11.160
78.0, -187500.02235174447, 187500.0, 19131.528631630976, 17362.61157543797, 187500.0, 187500.0, -187500.02235174447, 33201.97411799122, -0.082, 0.98, 0.10200000000000001, 192.0, 0.0, 0.0, 0.0, 0.0, 0.0, 0.0, 0.0, 0.0, 0.0, 1.6989585711600225E9, 0.0, 2023-11-02 16:56:11.160
79.0, -187500.02235174447, 187500.0, 19129.472271141087, 17359.079999814036, 187500.0, 187500.0, -187500.02235174447, 33200.05186796807, -0.082, 0.98, 0.10200000000000001, 192.0, 0.0, 0.0, 0.0, 0.0, 0.0, 0.0, 0.0, 0.0, 0.0, 1.6989585711600406E9, 0.0, 2023-11-02 16:56:11.160
80.0, -187500.02235174447, 187500.0, 19132.17683222018, 17354.967278834258, 187500.0, 187500.0, -187500.02235174447, 33204.11988545894, -0.082, 0.98, 0.10200000000000001, 192.0, 0.0, 0.0, 0.0, 0.0, 0.0, 0.0, 0.0, 0.0, 0.0, 1.69895857116006E9, 0.0, 2023-11-02 16:56:11.160
81.0, -187500.02235174447, 187500.0, 19133.495585143042, 17358.409447480375, 187500.0, 187500.0, -187500.02235174447, 33206.735039560204, -0.082, 0.98, 0.10200000000000001, 192.0, 0.0, 0.0, 0.0, 0.0, 0.0, 0.0, 0.0, 0.0, 0.0, 1.6989585711600747E9, 0.0, 2023-11-02 16:56:11.160
82.0, -187500.02235174447, 187500.0, 19131.439224653153, 17356.330735246032, 187500.0, 187500.0, -187500.02235174447, 33202.84583602498, -0.082, 0.98, 0.10200000000000001, 192.0, 0.0, 0.0, 0.0, 0.0, 0.0, 0.0, 0.0, 0.0, 0.0, 1.6989585711600916E9, 0.0, 2023-11-02 16:56:11.160
83.0, -187500.02235174447, 187500.0, 19128.801718807426, 17341.10919727197, 187500.0, 187500.0, -187500.02235174447, 33200.56595809054, -0.082, 0.98, 0.10200000000000001, 192.0, 0.0, 0.0, 0.0, 0.0, 0.0, 0.0, 0.0, 0.0, 0.0, 1.6989585711601088E9, 0.0, 2023-11-02 16:56:11.160
84.0, -187500.02235174447, 187500.0, 19136.02133226649, 17328.70397909927, 187500.0, 187500.0, -187500.02235174447, 33206.9362052603, -0.082, 0.98, 0.10200000000000001, 192.0, 0.0, 0.0, 0.0, 0.0, 0.0, 0.0, 0.0, 0.0, 0.0, 1.6989585711601267E9, 0.0, 2023-11-02 16:56:11.160
85.0, -187500.02235174447, 187500.0, 19135.417835166198, 17319.04802549458, 187500.0, 187500.0, -187500.02235174447, 33209.19373145029, -0.082, 0.98, 0.10200000000000001, 192.0, 0.0, 0.0, 0.0, 0.0, 0.0, 0.0, 0.0, 0.0, 0.0, 1.6989585711601446E9, 0.0, 2023-11-02 16:56:11.160
86.0, -187500.02235174447, 187500.0, 19132.042721753445, 17309.2356096787, 187500.0, 187500.0, -187500.02235174447, 33208.076144227525, -0.082, 0.98, 0.10200000000000001, 192.0, 0.0, 0.0, 0.0, 0.0, 0.0, 0.0, 0.0, 0.0, 0.0, 1.698958571160162E9, 0.0, 2023-11-02 16:56:11.160
87.0, -187500.02235174447, 187500.0, 19142.101006758334, 17290.66131003634, 187500.0, 187500.0, -187500.02235174447, 33217.933263532315, -0.082, 0.984, 0.108, 192.0, 253.0, 112.0, 30.0, 192.0, 3.0, 96.0, 0.0, 0.0, 0.0, 1.6989585711601806E9, 0.0, 2023-11-02 16:56:11.160
88.0, -187500.02235174447, 187500.0, 19144.55969864842, 17263.660402734327, 187500.0, 187500.0, -187500.02235174447, 33218.96144377726, -0.082, 0.984, 0.108, 192.0, 0.0, 0.0, 0.0, 0.0, 0.0, 0.0, 0.0, 0.0, 0.0, 1.6989585711601944E9, 0.0, 2023-11-02 16:56:11.160
89.0, -187500.02235174447, 187500.0, 19136.401311922233, 17238.626448944386, 187500.0, 187500.0, -187500.02235174447, 33212.79236230759, -0.082, 0.984, 0.108, 192.0, 0.0, 0.0, 0.0, 0.0, 0.0, 0.0, 0.0, 0.0, 0.0, 1.6989585711602082E9, 0.0, 2023-11-02 16:56:11.160
90.0, -187500.02235174447, 187500.0, 19129.047587996436, 17220.700349891227, 187500.0, 187500.0, -187500.02235174447, 33208.567882605545, -0.082, 0.984, 0.108, 192.0, 0.0, 0.0, 0.0, 0.0, 0.0, 0.0, 0.0, 0.0, 0.0, 1.698958571160224E9, 0.0, 2023-11-02 16:56:11.160
91.0, -187500.02235174447, 187500.0, 19126.007750750512, 17192.134820477346, 187500.0, 187500.0, -187500.02235174447, 33206.891501771395, -0.082, 0.984, 0.108, 192.0, 0.0, 0.0, 0.0, 0.0, 0.0, 0.0, 0.0, 0.0, 0.0, 1.6989585711602376E9, 0.0, 2023-11-02 16:56:11.160
92.0, -187500.02235174447, 187500.0, 19129.807547307915, 17167.16792192077, 187500.0, 187500.0, -187500.02235174447, 33212.32297567403, -0.082, 0.984, 0.108, 192.0, 0.0, 0.0, 0.0, 0.0, 0.0, 0.0, 0.0, 0.0, 0.0, 1.6989585711602893E9, 0.0, 2023-11-02 16:56:11.160
93.0, -187500.02235174447, 187500.0, 19127.88529728476, 17147.498386800096, 187500.0, 187500.0, -187500.02235174447, 33211.563016362554, -0.082, 0.984, 0.108, 192.0, 0.0, 0.0, 0.0, 0.0, 0.0, 0.0, 0.0, 0.0, 0.0, 1.6989585711603057E9, 0.0, 2023-11-02 16:56:11.160
94.0, -187500.02235174447, 187500.0, 19121.3138844149, 17132.321552314945, 187500.0, 187500.0, -187500.02235174447, 33207.07031572703, -0.082, 0.984, 0.108, 192.0, 0.0, 0.0, 0.0, 0.0, 0.0, 0.0, 0.0, 0.0, 0.0, 1.6989585711603222E9, 0.0, 2023-11-02 16:56:11.160
95.0, -187500.02235174447, 187500.0, 19119.771614047484, 17119.178726575225, 187500.0, 187500.0, -187500.02235174447, 33209.35019366148, -0.082, 0.984, 0.108, 192.0, 0.0, 0.0, 0.0, 0.0, 0.0, 0.0, 0.0, 0.0, 0.0, 1.6989585711603384E9, 0.0, 2023-11-02 16:56:11.160
96.0, -187500.02235174447, 187500.0, 19128.242925196046, 17111.780299160517, 187500.0, 187500.0, -187500.02235174447, 33217.68739434331, -0.082, 0.984, 0.108, 192.0, 0.0, 0.0, 0.0, 0.0, 0.0, 0.0, 0.0, 0.0, 0.0, 1.698958571160354E9, 0.0, 2023-11-02 16:56:11.160
97.0, -187500.02235174447, 187500.0, 19132.82503280938, 17109.81334564845, 187500.0, 187500.0, -187500.02235174447, 33220.74958333368, -0.082, 0.982, 0.108, 192.0, 253.0, 112.0, 30.0, 176.0, 3.0, 96.0, 0.0, 0.0, 0.0, 1.6989585711603694E9, 0.0, 2023-11-02 16:56:11.160
98.0, -187500.02235174447, 187500.0, 19127.728835073573, 17102.370214744835, 187500.0, 187500.0, -187500.02235174447, 33216.79332456509, -0.082, 0.982, 0.108, 192.0, 0.0, 0.0, 0.0, 0.0, 0.0, 0.0, 0.0, 0.0, 0.0, 1.6989585711603866E9, 0.0, 2023-11-02 16:56:11.160
99.0, -187500.02235174447, 187500.0, 19123.92903851617, 17091.619025661832, 187500.0, 187500.0, -187500.02235174447, 33212.99352800769, -0.082, 0.982, 0.108, 192.0, 0.0, 0.0, 0.0, 0.0, 0.0, 0.0, 0.0, 0.0, 0.0, 1.6989585711604033E9, 0.0, 2023-11-02 16:56:11.160
100.0, -187500.02235174447, 187500.0, 19119.07870996937, 17067.255624205547, 187500.0, 187500.0, -187500.02235174447, 33207.60675759396, -0.082, 0.982, 0.108, 192.0, 0.0, 0.0, 0.0, 0.0, 0.0, 0.0, 0.0, 0.0, 0.0, 1.6989585711604173E9, 0.0, 2023-11-02 16:56:11.160
101.0, -187500.02235174447, 187500.0, 19121.24682918153, 17054.448074632655, 187500.0, 187500.0, -187500.02235174447, 33209.17137970583, -0.082, 0.982, 0.108, 192.0, 0.0, 0.0, 0.0, 0.0, 0.0, 0.0, 0.0, 0.0, 0.0, 1.6989585711604319E9, 0.0, 2023-11-02 16:56:11.160
102.0, -187500.02235174447, 187500.0, 19115.770651789982, 17058.85136829035, 187500.0, 187500.0, -187500.02235174447, 33203.76225754765, -0.082, 0.982, 0.108, 192.0, 0.0, 0.0, 0.0, 0.0, 0.0, 0.0, 0.0, 0.0, 0.0, 1.6989585711604457E9, 0.0, 2023-11-02 16:56:11.160
103.0, -187500.02235174447, 187500.0, 19115.055395967414, 17064.41695265972, 187500.0, 187500.0, -187500.02235174447, 33204.56692034804, -0.082, 0.982, 0.108, 192.0, 0.0, 0.0, 0.0, 0.0, 0.0, 0.0, 0.0, 0.0, 0.0, 1.6989585711604593E9, 0.0, 2023-11-02 16:56:11.160
104.0, -187500.02235174447, 187500.0, 19116.262390167998, 17058.493740379065, 187500.0, 187500.0, -187500.02235174447, 33205.17041744833, -0.082, 0.982, 0.108, 192.0, 0.0, 0.0, 0.0, 0.0, 0.0, 0.0, 0.0, 0.0, 0.0, 1.6989585711604726E9, 0.0, 2023-11-02 16:56:11.160
105.0, -187500.02235174447, 187500.0, 19111.434413365652, 17053.822225787906, 187500.0, 187500.0, -187500.02235174447, 33198.777818534116, -0.082, 0.982, 0.108, 192.0, 0.0, 0.0, 0.0, 0.0, 0.0, 0.0, 0.0, 0.0, 0.0, 1.6989585711604857E9, 0.0, 2023-11-02 16:56:11.160
106.0, -187500.02235174447, 187500.0, 19102.717233028085, 17054.69394382166, 187500.0, 187500.0, -187500.02235174447, 33187.378428861906, -0.082, 0.982, 0.108, 192.0, 0.0, 0.0, 0.0, 0.0, 0.0, 0.0, 0.0, 0.0, 0.0, 1.6989585711605E9, 0.0, 2023-11-02 16:56:11.160
107.0, -187500.02235174447, 187500.0, 19100.146782415723, 17056.079751977893, 187500.0, 187500.0, -187500.02235174447, 33183.04219043758, -0.09, 0.976, 0.114, 192.0, 253.0, 48.0, 30.0, 128.0, 3.0, 144.0, 0.0, 0.0, 0.0, 1.6989585711605377E9, 0.0, 2023-11-02 16:56:11.160
108.0, -187500.02235174447, 187500.0, 19103.901875484215, 17060.885377035782, 187500.0, 187500.0, -187500.02235174447, 33186.685524783796, -0.09, 0.976, 0.114, 192.0, 0.0, 0.0, 0.0, 0.0, 0.0, 0.0, 0.0, 0.0, 0.0, 1.6989585711605515E9, 0.0, 2023-11-02 16:56:11.160
109.0, -187500.02235174447, 187500.0, 19102.381956861253, 17059.43251364619, 187500.0, 187500.0, -187500.02235174447, 33183.19865264877, -0.09, 0.976, 0.114, 192.0, 0.0, 0.0, 0.0, 0.0, 0.0, 0.0, 0.0, 0.0, 0.0, 1.6989585711605654E9, 0.0, 2023-11-02 16:56:11.160
110.0, -187500.02235174447, 187500.0, 19095.45291608011, 17066.585071871887, 187500.0, 187500.0, -187500.02235174447, 33173.85562346645, -0.09, 0.976, 0.114, 192.0, 0.0, 0.0, 0.0, 0.0, 0.0, 0.0, 0.0, 0.0, 0.0, 1.6989585711605797E9, 0.0, 2023-11-02 16:56:11.160
111.0, -187500.02235174447, 187500.0, 19089.909683455193, 17069.53550213999, 187500.0, 187500.0, -187500.02235174447, 33167.239507107675, -0.09, 0.976, 0.114, 192.0, 0.0, 0.0, 0.0, 0.0, 0.0, 0.0, 0.0, 0.0, 0.0, 1.6989585711605935E9, 0.0, 2023-11-02 16:56:11.160
112.0, -187500.02235174447, 187500.0, 19096.83872423634, 17078.275034222013, 187500.0, 187500.0, -187500.02235174447, 33174.2803066111, -0.09, 0.976, 0.114, 192.0, 0.0, 0.0, 0.0, 0.0, 0.0, 0.0, 0.0, 0.0, 0.0, 1.6989585711606069E9, 0.0, 2023-11-02 16:56:11.160
113.0, -187500.02235174447, 187500.0, 19099.29741612642, 17080.57726390091, 187500.0, 187500.0, -187500.02235174447, 33176.91781245683, -0.09, 0.976, 0.114, 192.0, 0.0, 0.0, 0.0, 0.0, 0.0, 0.0, 0.0, 0.0, 0.0, 1.6989585711606247E9, 0.0, 2023-11-02 16:56:11.160
114.0, -187500.02235174447, 187500.0, 19103.700709784116, 17078.61031038884, 187500.0, 187500.0, -187500.02235174447, 33180.181167147304, -0.09, 0.976, 0.114, 192.0, 0.0, 0.0, 0.0, 0.0, 0.0, 0.0, 0.0, 0.0, 0.0, 1.6989585711606393E9, 0.0, 2023-11-02 16:56:11.160
115.0, -187500.02235174447, 187500.0, 19096.928131214157, 17084.310005224947, 187500.0, 187500.0, -187500.02235174447, 33173.85562346645, -0.09, 0.976, 0.114, 192.0, 0.0, 0.0, 0.0, 0.0, 0.0, 0.0, 0.0, 0.0, 0.0, 1.6989585711606536E9, 0.0, 2023-11-02 16:56:11.160
116.0, -187500.02235174447, 187500.0, 19095.229398635554, 17083.013604046537, 187500.0, 187500.0, -187500.02235174447, 33170.79343447607, -0.09, 0.976, 0.114, 192.0, 0.0, 0.0, 0.0, 0.0, 0.0, 0.0, 0.0, 0.0, 0.0, 1.6989585711606686E9, 0.0, 2023-11-02 16:56:11.160
117.0, -187500.02235174447, 187500.0, 19095.11763991328, 17084.019432547026, 187500.0, 187500.0, -187500.02235174447, 33169.51938504212, -0.092, 0.964, 0.114, 192.0, 253.0, 32.0, 30.0, 32.0, 3.0, 144.0, 0.0, 0.0, 0.0, 1.6989585711606832E9, 0.0, 2023-11-02 16:56:11.160
118.0, -187500.02235174447, 187500.0, 19095.855247480304, 17083.348880213365, 187500.0, 187500.0, -187500.02235174447, 33171.24046936518, -0.092, 0.964, 0.114, 192.0, 0.0, 0.0, 0.0, 0.0, 0.0, 0.0, 0.0, 0.0, 0.0, 1.6989585711607025E9, 0.0, 2023-11-02 16:56:11.160
119.0, -187500.02235174447, 187500.0, 19098.179828903656, 17092.557798928952, 187500.0, 187500.0, -187500.02235174447, 33174.36971358892, -0.092, 0.964, 0.114, 192.0, 0.0, 0.0, 0.0, 0.0, 0.0, 0.0, 0.0, 0.0, 0.0, 1.6989585711607184E9, 0.0, 2023-11-02 16:56:11.160
120.0, -187500.02235174447, 187500.0, 19092.211913134088, 17091.641377406286, 187500.0, 187500.0, -187500.02235174447, 33167.239507107675, -0.092, 0.964, 0.114, 192.0, 0.0, 0.0, 0.0, 0.0, 0.0, 0.0, 0.0, 0.0, 0.0, 1.6989585711607337E9, 0.0, 2023-11-02 16:56:11.160
121.0, -187500.02235174447, 187500.0, 19093.15068640121, 17080.62196738982, 187500.0, 187500.0, -187500.02235174447, 33164.311428584035, -0.092, 0.964, 0.114, 192.0, 0.0, 0.0, 0.0, 0.0, 0.0, 0.0, 0.0, 0.0, 0.0, 1.6989585716420937E9, 0.0, 2023-11-02 16:56:11.642
122.0, -187500.02235174447, 187500.0, 19099.74445101553, 17082.007775546048, 187500.0, 187500.0, -187500.02235174447, 33169.072350153016, -0.092, 0.964, 0.114, 192.0, 0.0, 0.0, 0.0, 0.0, 0.0, 0.0, 0.0, 0.0, 0.0, 1.6989585716422713E9, 0.0, 2023-11-02 16:56:11.642
123.0, -187500.02235174447, 187500.0, 19100.616169049285, 17084.198246502667, 187500.0, 187500.0, -187500.02235174447, 33169.18410887529, -0.092, 0.964, 0.114, 192.0, 0.0, 0.0, 0.0, 0.0, 0.0, 0.0, 0.0, 0.0, 0.0, 1.6989585716422832E9, 0.0, 2023-11-02 16:56:11.642
124.0, -187500.02235174447, 187500.0, 19104.661834795694, 17086.835752348394, 187500.0, 187500.0, -187500.02235174447, 33169.765254231126, -0.092, 0.964, 0.114, 192.0, 0.0, 0.0, 0.0, 0.0, 0.0, 0.0, 0.0, 0.0, 0.0, 1.6989585716422946E9, 0.0, 2023-11-02 16:56:11.642
125.0, -187500.02235174447, 187500.0, 19104.907703984703, 17074.72110685362, 187500.0, 187500.0, -187500.02235174447, 33166.09956814046, -0.092, 0.964, 0.114, 192.0, 0.0, 0.0, 0.0, 0.0, 0.0, 0.0, 0.0, 0.0, 0.0, 1.6989585716423073E9, 0.0, 2023-11-02 16:56:11.642
126.0, -187500.02235174447, 187500.0, 19108.372224375275, 17072.463580663632, 187500.0, 187500.0, -187500.02235174447, 33168.96059143074, -0.092, 0.964, 0.114, 192.0, 0.0, 0.0, 0.0, 0.0, 0.0, 0.0, 0.0, 0.0, 0.0, 1.6989585716423187E9, 0.0, 2023-11-02 16:56:11.642
127.0, -187500.02235174447, 187500.0, 19100.63852079374, 17071.904787052248, 187500.0, 187500.0, -187500.02235174447, 33163.48441403919, -0.088, 0.972, 0.112, 192.0, 253.0, 64.0, 30.0, 96.0, 3.0, 128.0, 0.0, 0.0, 0.0, 1.698958571642333E9, 0.0, 2023-11-02 16:56:11.642
128.0, -187500.02235174447, 187500.0, 19105.131221429256, 17075.995156287572, 187500.0, 187500.0, -187500.02235174447, 33168.714722241726, -0.088, 0.972, 0.112, 192.0, 0.0, 0.0, 0.0, 0.0, 0.0, 0.0, 0.0, 0.0, 0.0, 1.698958571642346E9, 0.0, 2023-11-02 16:56:11.642
129.0, -187500.02235174447, 187500.0, 19108.841611008836, 17082.72303136862, 187500.0, 187500.0, -187500.02235174447, 33172.33570484349, -0.088, 0.972, 0.112, 192.0, 0.0, 0.0, 0.0, 0.0, 0.0, 0.0, 0.0, 0.0, 0.0, 1.6989585716423573E9, 0.0, 2023-11-02 16:56:11.642
130.0, -187500.02235174447, 187500.0, 19112.663759310693, 17083.192418002178, 187500.0, 187500.0, -187500.02235174447, 33177.20838513474, -0.088, 0.972, 0.112, 192.0, 0.0, 0.0, 0.0, 0.0, 0.0, 0.0, 0.0, 0.0, 0.0, 1.6989585716423688E9, 0.0, 2023-11-02 16:56:11.642
131.0, -187500.02235174447, 187500.0, 19113.960160489103, 17089.450906449667, 187500.0, 187500.0, -187500.02235174447, 33180.20351889176, -0.088, 0.972, 0.112, 192.0, 0.0, 0.0, 0.0, 0.0, 0.0, 0.0, 0.0, 0.0, 0.0, 1.6989585716423805E9, 0.0, 2023-11-02 16:56:11.642
132.0, -187500.02235174447, 187500.0, 19112.172020932678, 17095.642339663787, 187500.0, 187500.0, -187500.02235174447, 33178.90711771335, -0.088, 0.972, 0.112, 192.0, 0.0, 0.0, 0.0, 0.0, 0.0, 0.0, 0.0, 0.0, 0.0, 1.6989585716423914E9, 0.0, 2023-11-02 16:56:11.642
133.0, -187500.02235174447, 187500.0, 19117.044701223935, 17097.274017009022, 187500.0, 187500.0, -187500.02235174447, 33181.90225147036, -0.088, 0.972, 0.112, 192.0, 0.0, 0.0, 0.0, 0.0, 0.0, 0.0, 0.0, 0.0, 0.0, 1.6989585716424022E9, 0.0, 2023-11-02 16:56:11.642
134.0, -187500.02235174447, 187500.0, 19116.843535523836, 17093.34010998489, 187500.0, 187500.0, -187500.02235174447, 33179.42120783582, -0.088, 0.972, 0.112, 192.0, 0.0, 0.0, 0.0, 0.0, 0.0, 0.0, 0.0, 0.0, 0.0, 1.6989585716424196E9, 0.0, 2023-11-02 16:56:11.642
135.0, -187500.02235174447, 187500.0, 19117.60349483532, 17090.389679716787, 187500.0, 187500.0, -187500.02235174447, 33177.029571179104, -0.088, 0.972, 0.112, 192.0, 0.0, 0.0, 0.0, 0.0, 0.0, 0.0, 0.0, 0.0, 0.0, 1.6989585716424296E9, 0.0, 2023-11-02 16:56:11.642
136.0, -187500.02235174447, 187500.0, 19117.64819832423, 17102.4372699782, 187500.0, 187500.0, -187500.02235174447, 33175.3308386005, -0.088, 0.972, 0.112, 192.0, 0.0, 0.0, 0.0, 0.0, 0.0, 0.0, 0.0, 0.0, 0.0, 1.6989585716424391E9, 0.0, 2023-11-02 16:56:11.642
137.0, -187500.02235174447, 187500.0, 19115.25656166751, 17099.844467621384, 187500.0, 187500.0, -187500.02235174447, 33173.09566415497, -0.088, 0.97, 0.114, 192.0, 253.0, 64.0, 30.0, 80.0, 3.0, 144.0, 0.0, 0.0, 0.0, 1.6989585716424491E9, 0.0, 2023-11-02 16:56:11.642
138.0, -187500.02235174447, 187500.0, 19120.486869870052, 17103.376043245324, 187500.0, 187500.0, -187500.02235174447, 33179.51061481364, -0.088, 0.97, 0.114, 192.0, 0.0, 0.0, 0.0, 0.0, 0.0, 0.0, 0.0, 0.0, 0.0, 1.6989585716424727E9, 0.0, 2023-11-02 16:56:11.642
139.0, -187500.02235174447, 187500.0, 19121.3138844149, 17103.934836856704, 187500.0, 187500.0, -187500.02235174447, 33180.35998110294, -0.088, 0.97, 0.114, 192.0, 0.0, 0.0, 0.0, 0.0, 0.0, 0.0, 0.0, 0.0, 0.0, 1.6989585716424825E9, 0.0, 2023-11-02 16:56:11.642
140.0, -187500.02235174447, 187500.0, 19114.854230267316, 17107.75698515856, 187500.0, 187500.0, -187500.02235174447, 33175.3308386005, -0.088, 0.97, 0.114, 192.0, 0.0, 0.0, 0.0, 0.0, 0.0, 0.0, 0.0, 0.0, 0.0, 1.6989585716424923E9, 0.0, 2023-11-02 16:56:11.642
141.0, -187500.02235174447, 187500.0, 19114.1613261892, 17112.830831149917, 187500.0, 187500.0, -187500.02235174447, 33174.8838037114, -0.088, 0.97, 0.114, 192.0, 0.0, 0.0, 0.0, 0.0, 0.0, 0.0, 0.0, 0.0, 0.0, 1.698958571642502E9, 0.0, 2023-11-02 16:56:11.642
142.0, -187500.02235174447, 187500.0, 19121.69386407064, 17113.68019743922, 187500.0, 187500.0, -187500.02235174447, 33182.32693461501, -0.088, 0.97, 0.114, 192.0, 0.0, 0.0, 0.0, 0.0, 0.0, 0.0, 0.0, 0.0, 0.0, 1.6989585716425114E9, 0.0, 2023-11-02 16:56:11.642
143.0, -187500.02235174447, 187500.0, 19121.604457092817, 17117.837621907907, 187500.0, 187500.0, -187500.02235174447, 33181.34345785898, -0.088, 0.97, 0.114, 192.0, 0.0, 0.0, 0.0, 0.0, 0.0, 0.0, 0.0, 0.0, 0.0, 1.698958571642521E9, 0.0, 2023-11-02 16:56:11.642
144.0, -187500.02235174447, 187500.0, 19116.083576212357, 17124.029055122024, 187500.0, 187500.0, -187500.02235174447, 33176.56018454554, -0.088, 0.97, 0.114, 192.0, 0.0, 0.0, 0.0, 0.0, 0.0, 0.0, 0.0, 0.0, 0.0, 1.698958571642531E9, 0.0, 2023-11-02 16:56:11.642
145.0, -187500.02235174447, 187500.0, 19119.16811694719, 17128.566459246453, 187500.0, 187500.0, -187500.02235174447, 33178.2812688686, -0.088, 0.97, 0.114, 192.0, 0.0, 0.0, 0.0, 0.0, 0.0, 0.0, 0.0, 0.0, 0.0, 1.6989585716425405E9, 0.0, 2023-11-02 16:56:11.642
146.0, -187500.02235174447, 187500.0, 19120.2633524255, 17125.48191851162, 187500.0, 187500.0, -187500.02235174447, 33179.28709736909, -0.088, 0.97, 0.114, 192.0, 0.0, 0.0, 0.0, 0.0, 0.0, 0.0, 0.0, 0.0, 0.0, 1.69895857164255E9, 0.0, 2023-11-02 16:56:11.642
147.0, -187500.02235174447, 187500.0, 19122.45382338212, 17126.510098756564, 187500.0, 187500.0, -187500.02235174447, 33180.248222380666, -0.092, 0.974, 0.108, 192.0, 253.0, 32.0, 30.0, 112.0, 3.0, 96.0, 0.0, 0.0, 0.0, 1.6989585716425595E9, 0.0, 2023-11-02 16:56:11.642
148.0, -187500.02235174447, 187500.0, 19119.88337276976, 17131.82981393693, 187500.0, 187500.0, -187500.02235174447, 33179.01887643563, -0.092, 0.974, 0.108, 192.0, 0.0, 0.0, 0.0, 0.0, 0.0, 0.0, 0.0, 0.0, 0.0, 1.6989585716425695E9, 0.0, 2023-11-02 16:56:11.642
149.0, -187500.02235174447, 187500.0, 19113.088442455344, 17124.856069666872, 187500.0, 187500.0, -187500.02235174447, 33170.61462052043, -0.092, 0.974, 0.108, 192.0, 0.0, 0.0, 0.0, 0.0, 0.0, 0.0, 0.0, 0.0, 0.0, 1.6989585716425793E9, 0.0, 2023-11-02 16:56:11.642
150.0, -187500.02235174447, 187500.0, 19110.607398820808, 17113.747252672583, 187500.0, 187500.0, -187500.02235174447, 33167.7759489746, -0.092, 0.974, 0.108, 192.0, 0.0, 0.0, 0.0, 0.0, 0.0, 0.0, 0.0, 0.0, 0.0, 1.6989585716425889E9, 0.0, 2023-11-02 16:56:11.642
151.0, -187500.02235174447, 187500.0, 19117.44703262413, 17111.95911311616, 187500.0, 187500.0, -187500.02235174447, 33173.52034729962, -0.092, 0.974, 0.108, 192.0, 0.0, 0.0, 0.0, 0.0, 0.0, 0.0, 0.0, 0.0, 0.0, 1.6989585716425984E9, 0.0, 2023-11-02 16:56:11.642
152.0, -187500.02235174447, 187500.0, 19126.20891645061, 17120.989217876104, 187500.0, 187500.0, -187500.02235174447, 33181.67873402581, -0.092, 0.974, 0.108, 192.0, 0.0, 0.0, 0.0, 0.0, 0.0, 0.0, 0.0, 0.0, 0.0, 1.698958571642608E9, 0.0, 2023-11-02 16:56:11.642
153.0, -187500.02235174447, 187500.0, 19124.10785247181, 17128.611162735364, 187500.0, 187500.0, -187500.02235174447, 33180.78466424759, -0.092, 0.974, 0.108, 192.0, 0.0, 0.0, 0.0, 0.0, 0.0, 0.0, 0.0, 0.0, 0.0, 1.698958571642625E9, 0.0, 2023-11-02 16:56:11.642
154.0, -187500.02235174447, 187500.0, 19125.78423330596, 17122.620895221342, 187500.0, 187500.0, -187500.02235174447, 33182.10341717046, -0.092, 0.974, 0.108, 192.0, 0.0, 0.0, 0.0, 0.0, 0.0, 0.0, 0.0, 0.0, 0.0, 1.6989585716426349E9, 0.0, 2023-11-02 16:56:11.642
155.0, -187500.02235174447, 187500.0, 19127.706483329115, 17119.223430064136, 187500.0, 187500.0, -187500.02235174447, 33183.08689392649, -0.092, 0.974, 0.108, 192.0, 0.0, 0.0, 0.0, 0.0, 0.0, 0.0, 0.0, 0.0, 0.0, 1.6989585716426444E9, 0.0, 2023-11-02 16:56:11.642
156.0, -187500.02235174447, 187500.0, 19123.88433502726, 17127.068892367948, 187500.0, 187500.0, -187500.02235174447, 33180.15881540284, -0.092, 0.974, 0.108, 192.0, 0.0, 0.0, 0.0, 0.0, 0.0, 0.0, 0.0, 0.0, 0.0, 1.6989585716426556E9, 0.0, 2023-11-02 16:56:11.642
157.0, -187500.02235174447, 187500.0, 19118.11758495779, 17124.923124900237, 187500.0, 187500.0, -187500.02235174447, 33176.35901884544, -0.09, 0.978, 0.1, 192.0, 253.0, 48.0, 30.0, 144.0, 3.0, 32.0, 0.0, 0.0, 0.0, 1.6989585716426651E9, 0.0, 2023-11-02 16:56:11.642
158.0, -187500.02235174447, 187500.0, 19122.74439606004, 17123.53731674401, 187500.0, 187500.0, -187500.02235174447, 33181.499920070164, -0.09, 0.978, 0.1, 192.0, 0.0, 0.0, 0.0, 0.0, 0.0, 0.0, 0.0, 0.0, 0.0, 1.6989585716426756E9, 0.0, 2023-11-02 16:56:11.642
159.0, -187500.02235174447, 187500.0, 19126.65595133972, 17129.371122046843, 187500.0, 187500.0, -187500.02235174447, 33184.159777660345, -0.09, 0.978, 0.1, 192.0, 0.0, 0.0, 0.0, 0.0, 0.0, 0.0, 0.0, 0.0, 0.0, 1.6989585716426852E9, 0.0, 2023-11-02 16:56:11.642
160.0, -187500.02235174447, 187500.0, 19124.55488736092, 17131.516889514554, 187500.0, 187500.0, -187500.02235174447, 33182.818672993024, -0.09, 0.978, 0.1, 192.0, 0.0, 0.0, 0.0, 0.0, 0.0, 0.0, 0.0, 0.0, 0.0, 1.6989585716426947E9, 0.0, 2023-11-02 16:56:11.642
161.0, -187500.02235174447, 187500.0, 19125.627771094772, 17133.26032558207, 187500.0, 187500.0, -187500.02235174447, 33186.97609746172, -0.09, 0.978, 0.1, 192.0, 0.0, 0.0, 0.0, 0.0, 0.0, 0.0, 0.0, 0.0, 0.0, 1.6989585716427045E9, 0.0, 2023-11-02 16:56:11.642
162.0, -187500.02235174447, 187500.0, 19136.602477622328, 17133.1932703487, 187500.0, 187500.0, -187500.02235174447, 33199.78364703461, -0.09, 0.978, 0.1, 192.0, 0.0, 0.0, 0.0, 0.0, 0.0, 0.0, 0.0, 0.0, 0.0, 1.698958571642714E9, 0.0, 2023-11-02 16:56:11.642
163.0, -187500.02235174447, 187500.0, 19134.88139329927, 17132.567421503954, 187500.0, 187500.0, -187500.02235174447, 33198.219024922735, -0.09, 0.978, 0.1, 192.0, 0.0, 0.0, 0.0, 0.0, 0.0, 0.0, 0.0, 0.0, 0.0, 1.6989585716427236E9, 0.0, 2023-11-02 16:56:11.642
164.0, -187500.02235174447, 187500.0, 19123.12437571578, 17124.878421411326, 187500.0, 187500.0, -187500.02235174447, 33184.60681254945, -0.09, 0.978, 0.1, 192.0, 0.0, 0.0, 0.0, 0.0, 0.0, 0.0, 0.0, 0.0, 0.0, 1.698958571642733E9, 0.0, 2023-11-02 16:56:11.642
165.0, -187500.02235174447, 187500.0, 19117.201163435122, 17120.89981089828, 187500.0, 187500.0, -187500.02235174447, 33177.2307368792, -0.09, 0.978, 0.1, 192.0, 0.0, 0.0, 0.0, 0.0, 0.0, 0.0, 0.0, 0.0, 0.0, 1.6989585716427426E9, 0.0, 2023-11-02 16:56:11.642
166.0, -187500.02235174447, 187500.0, 19116.798832034925, 17119.24578180859, 187500.0, 187500.0, -187500.02235174447, 33175.75552174515, -0.088, 0.98, 0.106, 192.0, 253.0, 64.0, 30.0, 160.0, 3.0, 80.0, 0.0, 0.0, 0.0, 1.6989585716427522E9, 0.0, 2023-11-02 16:56:11.642
167.0, -187500.02235174447, 187500.0, 19120.39746289223, 17118.172898074736, 187500.0, 187500.0, -187500.02235174447, 33179.24239388018, -0.088, 0.98, 0.106, 192.0, 0.0, 0.0, 0.0, 0.0, 0.0, 0.0, 0.0, 0.0, 0.0, 1.6989585716427624E9, 0.0, 2023-11-02 16:56:11.642
168.0, -187500.02235174447, 187500.0, 19116.284741912456, 17120.452776009177, 187500.0, 187500.0, -187500.02235174447, 33176.202556634256, -0.088, 0.98, 0.106, 192.0, 0.0, 0.0, 0.0, 0.0, 0.0, 0.0, 0.0, 0.0, 0.0, 1.69895857164278E9, 0.0, 2023-11-02 16:56:11.642
169.0, -187500.02235174447, 187500.0, 19114.183677933655, 17120.698645198187, 187500.0, 187500.0, -187500.02235174447, 33174.61558277793, -0.088, 0.98, 0.106, 192.0, 0.0, 0.0, 0.0, 0.0, 0.0, 0.0, 0.0, 0.0, 0.0, 1.6989585716427896E9, 0.0, 2023-11-02 16:56:11.642
170.0, -187500.02235174447, 187500.0, 19119.4139861362, 17124.967828389148, 187500.0, 187500.0, -187500.02235174447, 33180.82936773651, -0.088, 0.98, 0.106, 192.0, 0.0, 0.0, 0.0, 0.0, 0.0, 0.0, 0.0, 0.0, 0.0, 1.6989585716427991E9, 0.0, 2023-11-02 16:56:11.642
171.0, -187500.02235174447, 187500.0, 19128.30998042941, 17128.544107502, 187500.0, 187500.0, -187500.02235174447, 33191.69231554178, -0.088, 0.98, 0.106, 192.0, 0.0, 0.0, 0.0, 0.0, 0.0, 0.0, 0.0, 0.0, 0.0, 1.698958571642809E9, 0.0, 2023-11-02 16:56:11.642
172.0, -187500.02235174447, 187500.0, 19125.58306760586, 17125.996008634094, 187500.0, 187500.0, -187500.02235174447, 33189.814769007535, -0.088, 0.98, 0.106, 192.0, 0.0, 0.0, 0.0, 0.0, 0.0, 0.0, 0.0, 0.0, 0.0, 1.6989585716428185E9, 0.0, 2023-11-02 16:56:11.642
173.0, -187500.02235174447, 187500.0, 19122.722044315582, 17127.11359585686, 187500.0, 187500.0, -187500.02235174447, 33186.17143466132, -0.088, 0.98, 0.106, 192.0, 0.0, 0.0, 0.0, 0.0, 0.0, 0.0, 0.0, 0.0, 0.0, 1.6989585716428277E9, 0.0, 2023-11-02 16:56:11.642
174.0, -187500.02235174447, 187500.0, 19120.08453846986, 17130.53341275852, 187500.0, 187500.0, -187500.02235174447, 33182.79632124857, -0.088, 0.98, 0.106, 192.0, 0.0, 0.0, 0.0, 0.0, 0.0, 0.0, 0.0, 0.0, 0.0, 1.6989585716428373E9, 0.0, 2023-11-02 16:56:11.642
175.0, -187500.02235174447, 187500.0, 19124.711349572106, 17127.53827900151, 187500.0, 187500.0, -187500.02235174447, 33186.14908291687, -0.088, 0.98, 0.106, 192.0, 0.0, 0.0, 0.0, 0.0, 0.0, 0.0, 0.0, 0.0, 0.0, 1.698958571642847E9, 0.0, 2023-11-02 16:56:11.642
176.0, -187500.02235174447, 187500.0, 19129.204050207623, 17124.900773155783, 187500.0, 187500.0, -187500.02235174447, 33188.071332940024, -0.084, 0.978, 0.106, 192.0, 253.0, 96.0, 30.0, 144.0, 3.0, 80.0, 0.0, 0.0, 0.0, 1.6989585716428566E9, 0.0, 2023-11-02 16:56:11.642
177.0, -187500.02235174447, 187500.0, 19131.439224653153, 17128.72292145764, 187500.0, 187500.0, -187500.02235174447, 33189.27832714061, -0.084, 0.978, 0.106, 192.0, 0.0, 0.0, 0.0, 0.0, 0.0, 0.0, 0.0, 0.0, 0.0, 1.698958571642868E9, 0.0, 2023-11-02 16:56:11.642
178.0, -187500.02235174447, 187500.0, 19132.959143276115, 17136.501328528087, 187500.0, 187500.0, -187500.02235174447, 33192.072295197526, -0.084, 0.978, 0.106, 192.0, 0.0, 0.0, 0.0, 0.0, 0.0, 0.0, 0.0, 0.0, 0.0, 1.6989585716428776E9, 0.0, 2023-11-02 16:56:11.642
179.0, -187500.02235174447, 187500.0, 19127.706483329115, 17132.701531970684, 187500.0, 187500.0, -187500.02235174447, 33189.77006551863, -0.084, 0.978, 0.106, 192.0, 0.0, 0.0, 0.0, 0.0, 0.0, 0.0, 0.0, 0.0, 0.0, 1.698958571642887E9, 0.0, 2023-11-02 16:56:11.642
180.0, -187500.02235174447, 187500.0, 19126.566544361896, 17126.375988289834, 187500.0, 187500.0, -187500.02235174447, 33189.680658540805, -0.084, 0.978, 0.106, 192.0, 0.0, 0.0, 0.0, 0.0, 0.0, 0.0, 0.0, 0.0, 0.0, 1.698958571642897E9, 0.0, 2023-11-02 16:56:11.642
181.0, -187500.02235174447, 187500.0, 19123.772576304982, 17134.467319782652, 187500.0, 187500.0, -187500.02235174447, 33186.99844920617, -0.084, 0.978, 0.106, 192.0, 0.0, 0.0, 0.0, 0.0, 0.0, 0.0, 0.0, 0.0, 0.0, 1.6989585716429064E9, 0.0, 2023-11-02 16:56:11.642
182.0, -187500.02235174447, 187500.0, 19122.342064659842, 17134.713188971662, 187500.0, 187500.0, -187500.02235174447, 33187.378428861906, -0.084, 0.978, 0.106, 192.0, 0.0, 0.0, 0.0, 0.0, 0.0, 0.0, 0.0, 0.0, 0.0, 1.6989585716429157E9, 0.0, 2023-11-02 16:56:11.642
183.0, -187500.02235174447, 187500.0, 19125.247791439033, 17134.53437501602, 187500.0, 187500.0, -187500.02235174447, 33191.17822541931, -0.084, 0.978, 0.106, 192.0, 0.0, 0.0, 0.0, 0.0, 0.0, 0.0, 0.0, 0.0, 0.0, 1.698958571642933E9, 0.0, 2023-11-02 16:56:11.642
184.0, -187500.02235174447, 187500.0, 19125.247791439033, 17134.042636638, 187500.0, 187500.0, -187500.02235174447, 33189.85947249645, -0.084, 0.978, 0.106, 192.0, 0.0, 0.0, 0.0, 0.0, 0.0, 0.0, 0.0, 0.0, 0.0, 1.6989585716429427E9, 0.0, 2023-11-02 16:56:11.642
185.0, -187500.02235174447, 187500.0, 19123.12437571578, 17135.204927349678, 187500.0, 187500.0, -187500.02235174447, 33184.718571271726, -0.084, 0.978, 0.106, 192.0, 0.0, 0.0, 0.0, 0.0, 0.0, 0.0, 0.0, 0.0, 0.0, 1.698958571642952E9, 0.0, 2023-11-02 16:56:11.642
186.0, -187500.02235174447, 187500.0, 19117.73760530205, 17138.602392506888, 187500.0, 187500.0, -187500.02235174447, 33176.895460712374, -0.08600000000000001, 0.972, 0.108, 192.0, 253.0, 80.0, 30.0, 96.0, 3.0, 96.0, 0.0, 0.0, 0.0, 1.6989585716429615E9, 0.0, 2023-11-02 16:56:11.642
187.0, -187500.02235174447, 187500.0, 19120.2633524255, 17135.16022386077, 187500.0, 187500.0, -187500.02235174447, 33180.02470493611, -0.08600000000000001, 0.972, 0.108, 192.0, 0.0, 0.0, 0.0, 0.0, 0.0, 0.0, 0.0, 0.0, 0.0, 1.6989585716429718E9, 0.0, 2023-11-02 16:56:11.642
188.0, -187500.02235174447, 187500.0, 19130.209878708112, 17135.517851772052, 187500.0, 187500.0, -187500.02235174447, 33191.84877775297, -0.08600000000000001, 0.972, 0.108, 192.0, 0.0, 0.0, 0.0, 0.0, 0.0, 0.0, 0.0, 0.0, 0.0, 1.6989585716429813E9, 0.0, 2023-11-02 16:56:11.642
189.0, -187500.02235174447, 187500.0, 19133.562640376407, 17145.643192010306, 187500.0, 187500.0, -187500.02235174447, 33195.84974001047, -0.08600000000000001, 0.972, 0.108, 192.0, 0.0, 0.0, 0.0, 0.0, 0.0, 0.0, 0.0, 0.0, 0.0, 1.6989585716429908E9, 0.0, 2023-11-02 16:56:11.642
190.0, -187500.02235174447, 187500.0, 19130.433396152664, 17154.15920664778, 187500.0, 187500.0, -187500.02235174447, 33192.98871672019, -0.08600000000000001, 0.972, 0.108, 192.0, 0.0, 0.0, 0.0, 0.0, 0.0, 0.0, 0.0, 0.0, 0.0, 1.6989585716430025E9, 0.0, 2023-11-02 16:56:11.643
191.0, -187500.02235174447, 187500.0, 19126.54419261744, 17153.131026402836, 187500.0, 187500.0, -187500.02235174447, 33187.35607711745, -0.08600000000000001, 0.972, 0.108, 192.0, 0.0, 0.0, 0.0, 0.0, 0.0, 0.0, 0.0, 0.0, 0.0, 1.6989585716430128E9, 0.0, 2023-11-02 16:56:11.643
192.0, -187500.02235174447, 187500.0, 19126.857117039814, 17146.87253795535, 187500.0, 187500.0, -187500.02235174447, 33186.14908291687, -0.08600000000000001, 0.972, 0.108, 192.0, 0.0, 0.0, 0.0, 0.0, 0.0, 0.0, 0.0, 0.0, 0.0, 1.6989585716430228E9, 0.0, 2023-11-02 16:56:11.643
193.0, -187500.02235174447, 187500.0, 19136.468367155598, 17151.655811268785, 187500.0, 187500.0, -187500.02235174447, 33195.76033303265, -0.08600000000000001, 0.972, 0.108, 192.0, 0.0, 0.0, 0.0, 0.0, 0.0, 0.0, 0.0, 0.0, 0.0, 1.6989585716430323E9, 0.0, 2023-11-02 16:56:11.643
194.0, -187500.02235174447, 187500.0, 19131.953314775626, 17159.68008752824, 187500.0, 187500.0, -187500.02235174447, 33193.323992887024, -0.08600000000000001, 0.972, 0.108, 192.0, 0.0, 0.0, 0.0, 0.0, 0.0, 0.0, 0.0, 0.0, 0.0, 1.698958571643042E9, 0.0, 2023-11-02 16:56:11.643
195.0, -187500.02235174447, 187500.0, 19129.204050207623, 17152.706343258185, 187500.0, 187500.0, -187500.02235174447, 33190.2841556411, -0.08600000000000001, 0.972, 0.108, 192.0, 0.0, 0.0, 0.0, 0.0, 0.0, 0.0, 0.0, 0.0, 0.0, 1.6989585716430516E9, 0.0, 2023-11-02 16:56:11.643
196.0, -187500.02235174447, 187500.0, 19133.16030897621, 17149.510043801074, 187500.0, 187500.0, -187500.02235174447, 33193.748676031675, -0.088, 0.974, 0.106, 192.0, 253.0, 64.0, 30.0, 112.0, 3.0, 80.0, 0.0, 0.0, 0.0, 1.6989585716430614E9, 0.0, 2023-11-02 16:56:11.643
197.0, -187500.02235174447, 187500.0, 19133.495585143042, 17152.840453724915, 187500.0, 187500.0, -187500.02235174447, 33196.14031268839, -0.088, 0.974, 0.106, 192.0, 0.0, 0.0, 0.0, 0.0, 0.0, 0.0, 0.0, 0.0, 0.0, 1.698958571643072E9, 0.0, 2023-11-02 16:56:11.643
198.0, -187500.02235174447, 187500.0, 19134.07673049888, 17163.81516025247, 187500.0, 187500.0, -187500.02235174447, 33198.68841155629, -0.088, 0.974, 0.106, 192.0, 0.0, 0.0, 0.0, 0.0, 0.0, 0.0, 0.0, 0.0, 0.0, 1.6989585716430905E9, 0.0, 2023-11-02 16:56:11.643
199.0, -187500.02235174447, 187500.0, 19129.159346718712, 17174.611052824384, 187500.0, 187500.0, -187500.02235174447, 33194.642745809884, -0.088, 0.974, 0.106, 192.0, 0.0, 0.0, 0.0, 0.0, 0.0, 0.0, 0.0, 0.0, 0.0, 1.6989585716431003E9, 0.0, 2023-11-02 16:56:11.643
200.0, -187500.02235174447, 187500.0, 19130.32163743039, 17169.358392877388, 187500.0, 187500.0, -187500.02235174447, 33193.01106846465, -0.088, 0.974, 0.106, 192.0, 0.0, 0.0, 0.0, 0.0, 0.0, 0.0, 0.0, 0.0, 0.0, 1.6989585716431098E9, 0.0, 2023-11-02 16:56:11.643
201.0, -187500.02235174447, 187500.0, 19133.897916543236, 17170.185407422236, 187500.0, 187500.0, -187500.02235174447, 33194.82155976553, -0.088, 0.974, 0.106, 192.0, 0.0, 0.0, 0.0, 0.0, 0.0, 0.0, 0.0, 0.0, 0.0, 1.698958571643119E9, 0.0, 2023-11-02 16:56:11.643
202.0, -187500.02235174447, 187500.0, 19126.141861217246, 17173.694631301718, 187500.0, 187500.0, -187500.02235174447, 33186.886690483894, -0.088, 0.974, 0.106, 192.0, 0.0, 0.0, 0.0, 0.0, 0.0, 0.0, 0.0, 0.0, 0.0, 1.6989585716431289E9, 0.0, 2023-11-02 16:56:11.643
203.0, -187500.02235174447, 187500.0, 19128.08646298486, 17182.881198272848, 187500.0, 187500.0, -187500.02235174447, 33187.66900153983, -0.088, 0.974, 0.106, 192.0, 0.0, 0.0, 0.0, 0.0, 0.0, 0.0, 0.0, 0.0, 0.0, 1.6989585716431384E9, 0.0, 2023-11-02 16:56:11.643
204.0, -187500.02235174447, 187500.0, 19126.924172273182, 17187.463305886187, 187500.0, 187500.0, -187500.02235174447, 33187.40078060637, -0.088, 0.974, 0.106, 192.0, 0.0, 0.0, 0.0, 0.0, 0.0, 0.0, 0.0, 0.0, 0.0, 1.698958571643148E9, 0.0, 2023-11-02 16:56:11.643
205.0, -187500.02235174447, 187500.0, 19122.275009426477, 17180.06487847148, 187500.0, 187500.0, -187500.02235174447, 33186.50671082815, -0.088, 0.974, 0.106, 192.0, 0.0, 0.0, 0.0, 0.0, 0.0, 0.0, 0.0, 0.0, 0.0, 1.6989585716431575E9, 0.0, 2023-11-02 16:56:11.643
206.0, -187500.02235174447, 187500.0, 19124.286666427455, 17180.3554511494, 187500.0, 187500.0, -187500.02235174447, 33192.45227485326, -0.088, 0.976, 0.108, 192.0, 253.0, 64.0, 30.0, 128.0, 3.0, 96.0, 0.0, 0.0, 0.0, 1.698958571643167E9, 0.0, 2023-11-02 16:56:11.643
207.0, -187500.02235174447, 187500.0, 19122.587933848852, 17185.2057796962, 187500.0, 187500.0, -187500.02235174447, 33190.82059750803, -0.088, 0.976, 0.108, 192.0, 0.0, 0.0, 0.0, 0.0, 0.0, 0.0, 0.0, 0.0, 0.0, 1.6989585716431773E9, 0.0, 2023-11-02 16:56:11.643
208.0, -187500.02235174447, 187500.0, 19123.839631538347, 17178.142628448324, 187500.0, 187500.0, -187500.02235174447, 33188.40660910685, -0.088, 0.976, 0.108, 192.0, 0.0, 0.0, 0.0, 0.0, 0.0, 0.0, 0.0, 0.0, 0.0, 1.6989585716431868E9, 0.0, 2023-11-02 16:56:11.643
209.0, -187500.02235174447, 187500.0, 19124.666646083195, 17168.620785310362, 187500.0, 187500.0, -187500.02235174447, 33187.601946306466, -0.088, 0.976, 0.108, 192.0, 0.0, 0.0, 0.0, 0.0, 0.0, 0.0, 0.0, 0.0, 0.0, 1.6989585716431963E9, 0.0, 2023-11-02 16:56:11.643
210.0, -187500.02235174447, 187500.0, 19122.1632507042, 17163.770456763563, 187500.0, 187500.0, -187500.02235174447, 33184.450350338266, -0.088, 0.976, 0.108, 192.0, 0.0, 0.0, 0.0, 0.0, 0.0, 0.0, 0.0, 0.0, 0.0, 1.698958571643206E9, 0.0, 2023-11-02 16:56:11.643
211.0, -187500.02235174447, 187500.0, 19122.431471637665, 17167.659660298785, 187500.0, 187500.0, -187500.02235174447, 33184.651516038364, -0.088, 0.976, 0.108, 192.0, 0.0, 0.0, 0.0, 0.0, 0.0, 0.0, 0.0, 0.0, 0.0, 1.6989585716432154E9, 0.0, 2023-11-02 16:56:11.643
212.0, -187500.02235174447, 187500.0, 19125.717178072595, 17165.96092772018, 187500.0, 187500.0, -187500.02235174447, 33187.333725373, -0.088, 0.976, 0.108, 192.0, 0.0, 0.0, 0.0, 0.0, 0.0, 0.0, 0.0, 0.0, 0.0, 1.6989585716432247E9, 0.0, 2023-11-02 16:56:11.643
213.0, -187500.02235174447, 187500.0, 19127.192393206646, 17160.685916028728, 187500.0, 187500.0, -187500.02235174447, 33189.0324579516, -0.088, 0.976, 0.108, 192.0, 0.0, 0.0, 0.0, 0.0, 0.0, 0.0, 0.0, 0.0, 0.0, 1.6989585716432421E9, 0.0, 2023-11-02 16:56:11.643
214.0, -187500.02235174447, 187500.0, 19131.483928142065, 17166.564424820474, 187500.0, 187500.0, -187500.02235174447, 33193.27928939811, -0.088, 0.976, 0.108, 192.0, 0.0, 0.0, 0.0, 0.0, 0.0, 0.0, 0.0, 0.0, 0.0, 1.698958571643252E9, 0.0, 2023-11-02 16:56:11.643
215.0, -187500.02235174447, 187500.0, 19127.43826239565, 17170.58773882243, 187500.0, 187500.0, -187500.02235174447, 33188.004277706656, -0.088, 0.976, 0.108, 192.0, 0.0, 0.0, 0.0, 0.0, 0.0, 0.0, 0.0, 0.0, 0.0, 1.6989585716432617E9, 0.0, 2023-11-02 16:56:11.643
216.0, -187500.02235174447, 187500.0, 19133.473233398585, 17180.93659650524, 187500.0, 187500.0, -187500.02235174447, 33194.151007431865, -0.08600000000000001, 0.976, 0.11, 192.0, 253.0, 80.0, 30.0, 128.0, 3.0, 112.0, 0.0, 0.0, 0.0, 1.6989585716432712E9, 0.0, 2023-11-02 16:56:11.643
217.0, -187500.02235174447, 187500.0, 19136.51307064451, 17188.73735532014, 187500.0, 187500.0, -187500.02235174447, 33197.57082433353, -0.08600000000000001, 0.976, 0.11, 192.0, 0.0, 0.0, 0.0, 0.0, 0.0, 0.0, 0.0, 0.0, 0.0, 1.6989585716432815E9, 0.0, 2023-11-02 16:56:11.643
218.0, -187500.02235174447, 187500.0, 19133.674399098683, 17190.190218709733, 187500.0, 187500.0, -187500.02235174447, 33195.223891165726, -0.08600000000000001, 0.976, 0.11, 192.0, 0.0, 0.0, 0.0, 0.0, 0.0, 0.0, 0.0, 0.0, 0.0, 1.698958571643291E9, 0.0, 2023-11-02 16:56:11.643
219.0, -187500.02235174447, 187500.0, 19128.578201362874, 17193.45357340021, 187500.0, 187500.0, -187500.02235174447, 33187.71370502874, -0.08600000000000001, 0.976, 0.11, 192.0, 0.0, 0.0, 0.0, 0.0, 0.0, 0.0, 0.0, 0.0, 0.0, 1.6989585716433003E9, 0.0, 2023-11-02 16:56:11.643
220.0, -187500.02235174447, 187500.0, 19124.68899782765, 17197.92392229127, 187500.0, 187500.0, -187500.02235174447, 33184.00331544916, -0.08600000000000001, 0.976, 0.11, 192.0, 0.0, 0.0, 0.0, 0.0, 0.0, 0.0, 0.0, 0.0, 0.0, 1.6989585716433115E9, 0.0, 2023-11-02 16:56:11.643
221.0, -187500.02235174447, 187500.0, 19123.54905886043, 17195.241712956635, 187500.0, 187500.0, -187500.02235174447, 33183.69039102679, -0.08600000000000001, 0.976, 0.11, 192.0, 0.0, 0.0, 0.0, 0.0, 0.0, 0.0, 0.0, 0.0, 0.0, 1.698958571643321E9, 0.0, 2023-11-02 16:56:11.643
222.0, -187500.02235174447, 187500.0, 19126.007750750512, 17200.27085545908, 187500.0, 187500.0, -187500.02235174447, 33187.22196665072, -0.08600000000000001, 0.976, 0.11, 192.0, 0.0, 0.0, 0.0, 0.0, 0.0, 0.0, 0.0, 0.0, 0.0, 1.6989585716433303E9, 0.0, 2023-11-02 16:56:11.643
223.0, -187500.02235174447, 187500.0, 19119.861021025303, 17202.908361304806, 187500.0, 187500.0, -187500.02235174447, 33180.114111913936, -0.08600000000000001, 0.976, 0.11, 192.0, 0.0, 0.0, 0.0, 0.0, 0.0, 0.0, 0.0, 0.0, 0.0, 1.69895857164334E9, 0.0, 2023-11-02 16:56:11.643
224.0, -187500.02235174447, 187500.0, 19120.039834980947, 17201.768422337584, 187500.0, 187500.0, -187500.02235174447, 33179.77883574711, -0.08600000000000001, 0.976, 0.11, 192.0, 0.0, 0.0, 0.0, 0.0, 0.0, 0.0, 0.0, 0.0, 0.0, 1.6989585716433496E9, 0.0, 2023-11-02 16:56:11.643
225.0, -187500.02235174447, 187500.0, 19124.845460038836, 17199.913227547793, 187500.0, 187500.0, -187500.02235174447, 33185.09855092747, -0.08600000000000001, 0.976, 0.11, 192.0, 0.0, 0.0, 0.0, 0.0, 0.0, 0.0, 0.0, 0.0, 0.0, 1.6989585716433592E9, 0.0, 2023-11-02 16:56:11.643
226.0, -187500.02235174447, 187500.0, 19121.425643137176, 17184.1552477068, 187500.0, 187500.0, -187500.02235174447, 33182.416341592834, -0.088, 0.978, 0.114, 192.0, 253.0, 64.0, 30.0, 144.0, 3.0, 144.0, 0.0, 0.0, 0.0, 1.6989585716433687E9, 0.0, 2023-11-02 16:56:11.643
227.0, -187500.02235174447, 187500.0, 19123.54905886043, 17184.311709917987, 187500.0, 187500.0, -187500.02235174447, 33184.3832951049, -0.088, 0.978, 0.114, 192.0, 0.0, 0.0, 0.0, 0.0, 0.0, 0.0, 0.0, 0.0, 0.0, 1.6989585716433806E9, 0.0, 2023-11-02 16:56:11.643
228.0, -187500.02235174447, 187500.0, 19122.49852687103, 17186.21160819669, 187500.0, 187500.0, -187500.02235174447, 33181.56697530353, -0.088, 0.978, 0.114, 192.0, 0.0, 0.0, 0.0, 0.0, 0.0, 0.0, 0.0, 0.0, 0.0, 1.6989585716433904E9, 0.0, 2023-11-02 16:56:11.643
229.0, -187500.02235174447, 187500.0, 19124.17490770518, 17179.86371277138, 187500.0, 187500.0, -187500.02235174447, 33182.37163810392, -0.088, 0.978, 0.114, 192.0, 0.0, 0.0, 0.0, 0.0, 0.0, 0.0, 0.0, 0.0, 0.0, 1.6989585716434076E9, 0.0, 2023-11-02 16:56:11.643
230.0, -187500.02235174447, 187500.0, 19127.482965884563, 17174.78986678003, 187500.0, 187500.0, -187500.02235174447, 33186.9313939728, -0.088, 0.978, 0.114, 192.0, 0.0, 0.0, 0.0, 0.0, 0.0, 0.0, 0.0, 0.0, 0.0, 1.6989585716434171E9, 0.0, 2023-11-02 16:56:11.643
231.0, -187500.02235174447, 187500.0, 19129.248753696535, 17184.378765151356, 187500.0, 187500.0, -187500.02235174447, 33190.06063819655, -0.088, 0.978, 0.114, 192.0, 0.0, 0.0, 0.0, 0.0, 0.0, 0.0, 0.0, 0.0, 0.0, 1.698958571643427E9, 0.0, 2023-11-02 16:56:11.643
232.0, -187500.02235174447, 187500.0, 19117.938771002147, 17185.138724462835, 187500.0, 187500.0, -187500.02235174447, 33180.315277614034, -0.088, 0.978, 0.114, 192.0, 0.0, 0.0, 0.0, 0.0, 0.0, 0.0, 0.0, 0.0, 0.0, 1.6989585716434364E9, 0.0, 2023-11-02 16:56:11.643
233.0, -187500.02235174447, 187500.0, 19115.92711400117, 17177.539131348032, 187500.0, 187500.0, -187500.02235174447, 33176.269611867625, -0.088, 0.978, 0.114, 192.0, 0.0, 0.0, 0.0, 0.0, 0.0, 0.0, 0.0, 0.0, 0.0, 1.6989585716434464E9, 0.0, 2023-11-02 16:56:11.643
234.0, -187500.02235174447, 187500.0, 19125.15838446121, 17176.39919238081, 187500.0, 187500.0, -187500.02235174447, 33184.04801893807, -0.088, 0.978, 0.114, 192.0, 0.0, 0.0, 0.0, 0.0, 0.0, 0.0, 0.0, 0.0, 0.0, 1.698958571643456E9, 0.0, 2023-11-02 16:56:11.643
235.0, -187500.02235174447, 187500.0, 19129.159346718712, 17182.38945989483, 187500.0, 187500.0, -187500.02235174447, 33187.601946306466, -0.088, 0.978, 0.114, 192.0, 0.0, 0.0, 0.0, 0.0, 0.0, 0.0, 0.0, 0.0, 0.0, 1.6989585716434655E9, 0.0, 2023-11-02 16:56:11.643
236.0, -187500.02235174447, 187500.0, 19127.147689717734, 17194.839381556438, 187500.0, 187500.0, -187500.02235174447, 33184.94208871628, -0.094, 0.978, 0.108, 192.0, 253.0, 16.0, 30.0, 144.0, 3.0, 96.0, 0.0, 0.0, 0.0, 1.6989585716434753E9, 0.0, 2023-11-02 16:56:11.643
237.0, -187500.02235174447, 187500.0, 19121.87267802628, 17189.34085242043, 187500.0, 187500.0, -187500.02235174447, 33181.11994041442, -0.094, 0.978, 0.108, 192.0, 0.0, 0.0, 0.0, 0.0, 0.0, 0.0, 0.0, 0.0, 0.0, 1.6989585716434853E9, 0.0, 2023-11-02 16:56:11.643
238.0, -187500.02235174447, 187500.0, 19127.348855417833, 17193.721794333673, 187500.0, 187500.0, -187500.02235174447, 33188.69718178477, -0.094, 0.978, 0.108, 192.0, 0.0, 0.0, 0.0, 0.0, 0.0, 0.0, 0.0, 0.0, 0.0, 1.6989585716434948E9, 0.0, 2023-11-02 16:56:11.643
239.0, -187500.02235174447, 187500.0, 19127.30415192892, 17201.723718848672, 187500.0, 187500.0, -187500.02235174447, 33189.94887947427, -0.094, 0.978, 0.108, 192.0, 0.0, 0.0, 0.0, 0.0, 0.0, 0.0, 0.0, 0.0, 0.0, 1.6989585716435044E9, 0.0, 2023-11-02 16:56:11.643
240.0, -187500.02235174447, 187500.0, 19129.606381607817, 17210.30678871951, 187500.0, 187500.0, -187500.02235174447, 33193.52515858712, -0.094, 0.978, 0.108, 192.0, 0.0, 0.0, 0.0, 0.0, 0.0, 0.0, 0.0, 0.0, 0.0, 1.698958571643514E9, 0.0, 2023-11-02 16:56:11.643
241.0, -187500.02235174447, 187500.0, 19128.242925196046, 17212.3631492094, 187500.0, 187500.0, -187500.02235174447, 33193.256937653656, -0.094, 0.978, 0.108, 192.0, 0.0, 0.0, 0.0, 0.0, 0.0, 0.0, 0.0, 0.0, 0.0, 1.6989585721166563E9, 0.0, 2023-11-02 16:56:12.116
242.0, -187500.02235174447, 187500.0, 19129.472271141087, 17201.366090937387, 187500.0, 187500.0, -187500.02235174447, 33192.98871672019, -0.094, 0.978, 0.108, 192.0, 0.0, 0.0, 0.0, 0.0, 0.0, 0.0, 0.0, 0.0, 0.0, 1.6989585721168308E9, 0.0, 2023-11-02 16:56:12.116
243.0, -187500.02235174447, 187500.0, 19126.700654828626, 17200.583779881454, 187500.0, 187500.0, -187500.02235174447, 33188.5854230625, -0.094, 0.978, 0.108, 192.0, 0.0, 0.0, 0.0, 0.0, 0.0, 0.0, 0.0, 0.0, 0.0, 1.69895857211686E9, 0.0, 2023-11-02 16:56:12.116
244.0, -187500.02235174447, 187500.0, 19121.82797453737, 17203.020120027082, 187500.0, 187500.0, -187500.02235174447, 33182.86337648194, -0.094, 0.978, 0.108, 192.0, 0.0, 0.0, 0.0, 0.0, 0.0, 0.0, 0.0, 0.0, 0.0, 1.6989585721171498E9, 0.0, 2023-11-02 16:56:12.117
245.0, -187500.02235174447, 187500.0, 19127.125337973277, 17206.998730540126, 187500.0, 187500.0, -187500.02235174447, 33187.64664979537, -0.094, 0.978, 0.108, 192.0, 0.0, 0.0, 0.0, 0.0, 0.0, 0.0, 0.0, 0.0, 0.0, 1.6989585721171672E9, 0.0, 2023-11-02 16:56:12.117
246.0, -187500.02235174447, 187500.0, 19128.600553107328, 17203.668320616285, 187500.0, 187500.0, -187500.02235174447, 33187.71370502874, -0.092, 0.984, 0.108, 192.0, 253.0, 32.0, 30.0, 192.0, 3.0, 96.0, 0.0, 0.0, 0.0, 1.69895857211718E9, 0.0, 2023-11-02 16:56:12.117
247.0, -187500.02235174447, 187500.0, 19133.45088165413, 17207.35635845141, 187500.0, 187500.0, -187500.02235174447, 33193.01106846465, -0.092, 0.984, 0.108, 192.0, 0.0, 0.0, 0.0, 0.0, 0.0, 0.0, 0.0, 0.0, 0.0, 1.6989585721171951E9, 0.0, 2023-11-02 16:56:12.117
248.0, -187500.02235174447, 187500.0, 19126.007750750512, 17207.22224798468, 187500.0, 187500.0, -187500.02235174447, 33187.333725373, -0.092, 0.984, 0.108, 192.0, 0.0, 0.0, 0.0, 0.0, 0.0, 0.0, 0.0, 0.0, 0.0, 1.69895857211721E9, 0.0, 2023-11-02 16:56:12.117
249.0, -187500.02235174447, 187500.0, 19126.275971683976, 17216.297056233532, 187500.0, 187500.0, -187500.02235174447, 33188.96540271823, -0.092, 0.984, 0.108, 192.0, 0.0, 0.0, 0.0, 0.0, 0.0, 0.0, 0.0, 0.0, 0.0, 1.6989585721172235E9, 0.0, 2023-11-02 16:56:12.117
250.0, -187500.02235174447, 187500.0, 19121.425643137176, 17212.094928275936, 187500.0, 187500.0, -187500.02235174447, 33182.52810031511, -0.092, 0.984, 0.108, 192.0, 0.0, 0.0, 0.0, 0.0, 0.0, 0.0, 0.0, 0.0, 0.0, 1.6989585721172361E9, 0.0, 2023-11-02 16:56:12.117
251.0, -187500.02235174447, 187500.0, 19125.918343772693, 17204.517686905587, 187500.0, 187500.0, -187500.02235174447, 33184.3832951049, -0.092, 0.984, 0.108, 192.0, 0.0, 0.0, 0.0, 0.0, 0.0, 0.0, 0.0, 0.0, 0.0, 1.6989585721172526E9, 0.0, 2023-11-02 16:56:12.117
252.0, -187500.02235174447, 187500.0, 19129.248753696535, 17212.899591076326, 187500.0, 187500.0, -187500.02235174447, 33185.99262070568, -0.092, 0.984, 0.108, 192.0, 0.0, 0.0, 0.0, 0.0, 0.0, 0.0, 0.0, 0.0, 0.0, 1.6989585721172657E9, 0.0, 2023-11-02 16:56:12.117
253.0, -187500.02235174447, 187500.0, 19122.11854721529, 17212.11728002039, 187500.0, 187500.0, -187500.02235174447, 33179.66707702483, -0.092, 0.984, 0.108, 192.0, 0.0, 0.0, 0.0, 0.0, 0.0, 0.0, 0.0, 0.0, 0.0, 1.6989585721172805E9, 0.0, 2023-11-02 16:56:12.117
254.0, -187500.02235174447, 187500.0, 19117.134108201757, 17208.40689044081, 187500.0, 187500.0, -187500.02235174447, 33174.54852754456, -0.092, 0.984, 0.108, 192.0, 0.0, 0.0, 0.0, 0.0, 0.0, 0.0, 0.0, 0.0, 0.0, 1.6989585721172926E9, 0.0, 2023-11-02 16:56:12.117
255.0, -187500.02235174447, 187500.0, 19120.419814636687, 17203.422451427276, 187500.0, 187500.0, -187500.02235174447, 33178.23656537969, -0.092, 0.984, 0.108, 192.0, 0.0, 0.0, 0.0, 0.0, 0.0, 0.0, 0.0, 0.0, 0.0, 1.6989585721173189E9, 0.0, 2023-11-02 16:56:12.117
0.0, -187500.02235174447, 187500.0, 19129.40521590772, 17213.011349798602, 187500.0, 187500.0, -187500.02235174447, 33188.56307131804, -0.09, 0.976, 0.114, 192.0, 253.0, 48.0, 30.0, 128.0, 3.0, 144.0, 0.0, 0.0, 0.0, 1.698958572117334E9, 0.0, 2023-11-02 16:56:12.117
1.0, -187500.02235174447, 187500.0, 19126.20891645061, 17225.841251115948, 187500.0, 187500.0, -187500.02235174447, 33185.72439977222, -0.09, 0.976, 0.114, 192.0, 0.0, 0.0, 0.0, 0.0, 0.0, 0.0, 0.0, 0.0, 0.0, 1.69895857211735E9, 0.0, 2023-11-02 16:56:12.117
2.0, -187500.02235174447, 187500.0, 19122.766747804493, 17223.159041781313, 187500.0, 187500.0, -187500.02235174447, 33182.61750729293, -0.09, 0.976, 0.114, 192.0, 0.0, 0.0, 0.0, 0.0, 0.0, 0.0, 0.0, 0.0, 0.0, 1.698958572117364E9, 0.0, 2023-11-02 16:56:12.117
3.0, -187500.02235174447, 187500.0, 19121.470346626087, 17220.521535935586, 187500.0, 187500.0, -187500.02235174447, 33181.365809603434, -0.09, 0.976, 0.114, 192.0, 0.0, 0.0, 0.0, 0.0, 0.0, 0.0, 0.0, 0.0, 0.0, 1.6989585721174371E9, 0.0, 2023-11-02 16:56:12.117
4.0, -187500.02235174447, 187500.0, 19112.417890121687, 17221.706178391716, 187500.0, 187500.0, -187500.02235174447, 33174.19089963328, -0.09, 0.976, 0.114, 192.0, 0.0, 0.0, 0.0, 0.0, 0.0, 0.0, 0.0, 0.0, 0.0, 1.6989585721174524E9, 0.0, 2023-11-02 16:56:12.117
5.0, -187500.02235174447, 187500.0, 19106.897009241227, 17221.39325396934, 187500.0, 187500.0, -187500.02235174447, 33170.63697226488, -0.09, 0.976, 0.114, 192.0, 0.0, 0.0, 0.0, 0.0, 0.0, 0.0, 0.0, 0.0, 0.0, 1.6989585721174672E9, 0.0, 2023-11-02 16:56:12.117
6.0, -187500.02235174447, 187500.0, 19105.69001504064, 17226.154175538322, 187500.0, 187500.0, -187500.02235174447, 33169.273515853114, -0.09, 0.976, 0.114, 192.0, 0.0, 0.0, 0.0, 0.0, 0.0, 0.0, 0.0, 0.0, 0.0, 1.6989585721175354E9, 0.0, 2023-11-02 16:56:12.117
7.0, -187500.02235174447, 187500.0, 19109.82508776487, 17222.2649720031, 187500.0, 187500.0, -187500.02235174447, 33171.911021698834, -0.09, 0.976, 0.114, 192.0, 0.0, 0.0, 0.0, 0.0, 0.0, 0.0, 0.0, 0.0, 0.0, 1.6989585721175504E9, 0.0, 2023-11-02 16:56:12.117
8.0, -187500.02235174447, 187500.0, 19115.524782600973, 17226.668265660795, 187500.0, 187500.0, -187500.02235174447, 33177.78953049058, -0.09, 0.976, 0.114, 192.0, 0.0, 0.0, 0.0, 0.0, 0.0, 0.0, 0.0, 0.0, 0.0, 1.6989585721175697E9, 0.0, 2023-11-02 16:56:12.117
9.0, -187500.02235174447, 187500.0, 19118.96695124709, 17232.256201774624, 187500.0, 187500.0, -187500.02235174447, 33182.684562526294, -0.09, 0.976, 0.114, 192.0, 0.0, 0.0, 0.0, 0.0, 0.0, 0.0, 0.0, 0.0, 0.0, 1.6989585721175885E9, 0.0, 2023-11-02 16:56:12.117
10.0, -187500.02235174447, 187500.0, 19112.88727675525, 17235.206632042722, 187500.0, 187500.0, -187500.02235174447, 33176.403722334355, -0.084, 0.974, 0.11, 192.0, 253.0, 96.0, 30.0, 112.0, 3.0, 112.0, 0.0, 0.0, 0.0, 1.6989585721176045E9, 0.0, 2023-11-02 16:56:12.117
11.0, -187500.02235174447, 187500.0, 19114.45189886712, 17221.527364436075, 187500.0, 187500.0, -187500.02235174447, 33177.61071653494, -0.084, 0.974, 0.11, 192.0, 0.0, 0.0, 0.0, 0.0, 0.0, 0.0, 0.0, 0.0, 0.0, 1.6989585721176195E9, 0.0, 2023-11-02 16:56:12.117
12.0, -187500.02235174447, 187500.0, 19118.475212869074, 17229.64104767335, 187500.0, 187500.0, -187500.02235174447, 33181.56697530353, -0.084, 0.974, 0.11, 192.0, 0.0, 0.0, 0.0, 0.0, 0.0, 0.0, 0.0, 0.0, 0.0, 1.6989585721176536E9, 0.0, 2023-11-02 16:56:12.117
13.0, -187500.02235174447, 187500.0, 19116.10592795681, 17234.40196924233, 187500.0, 187500.0, -187500.02235174447, 33179.73413225819, -0.084, 0.974, 0.11, 192.0, 0.0, 0.0, 0.0, 0.0, 0.0, 0.0, 0.0, 0.0, 0.0, 1.69895857211767E9, 0.0, 2023-11-02 16:56:12.117
14.0, -187500.02235174447, 187500.0, 19116.97764599057, 17236.190108798757, 187500.0, 187500.0, -187500.02235174447, 33182.10341717046, -0.084, 0.974, 0.11, 192.0, 0.0, 0.0, 0.0, 0.0, 0.0, 0.0, 0.0, 0.0, 0.0, 1.698958572117691E9, 0.0, 2023-11-02 16:56:12.117
15.0, -187500.02235174447, 187500.0, 19118.318750657887, 17232.658533174817, 187500.0, 187500.0, -187500.02235174447, 33184.98679220519, -0.084, 0.974, 0.11, 192.0, 0.0, 0.0, 0.0, 0.0, 0.0, 0.0, 0.0, 0.0, 0.0, 1.6989585721177096E9, 0.0, 2023-11-02 16:56:12.117
16.0, -187500.02235174447, 187500.0, 19118.475212869074, 17231.429187229776, 187500.0, 187500.0, -187500.02235174447, 33185.92556547232, -0.084, 0.974, 0.11, 192.0, 0.0, 0.0, 0.0, 0.0, 0.0, 0.0, 0.0, 0.0, 0.0, 1.6989585721177328E9, 0.0, 2023-11-02 16:56:12.117
17.0, -187500.02235174447, 187500.0, 19111.523820343475, 17231.160966296313, 187500.0, 187500.0, -187500.02235174447, 33178.41537933533, -0.084, 0.974, 0.11, 192.0, 0.0, 0.0, 0.0, 0.0, 0.0, 0.0, 0.0, 0.0, 0.0, 1.698958572117754E9, 0.0, 2023-11-02 16:56:12.117
18.0, -187500.02235174447, 187500.0, 19107.835782508348, 17225.058940060015, 187500.0, 187500.0, -187500.02235174447, 33173.36388508843, -0.084, 0.974, 0.11, 192.0, 0.0, 0.0, 0.0, 0.0, 0.0, 0.0, 0.0, 0.0, 0.0, 1.698958572117864E9, 0.0, 2023-11-02 16:56:12.117
19.0, -187500.02235174447, 187500.0, 19113.535477344452, 17219.716873135196, 187500.0, 187500.0, -187500.02235174447, 33176.22490837871, -0.084, 0.974, 0.11, 192.0, 0.0, 0.0, 0.0, 0.0, 0.0, 0.0, 0.0, 0.0, 0.0, 1.698958572117897E9, 0.0, 2023-11-02 16:56:12.117
20.0, -187500.02235174447, 187500.0, 19114.138974444744, 17214.03953004355, 187500.0, 187500.0, -187500.02235174447, 33177.00721943465, -0.088, 0.978, 0.108, 192.0, 253.0, 64.0, 30.0, 144.0, 3.0, 96.0, 0.0, 0.0, 0.0, 1.6989585721179185E9, 0.0, 2023-11-02 16:56:12.117
21.0, -187500.02235174447, 187500.0, 19116.955294246112, 17209.25625673011, 187500.0, 187500.0, -187500.02235174447, 33181.07523692551, -0.088, 0.978, 0.108, 192.0, 0.0, 0.0, 0.0, 0.0, 0.0, 0.0, 0.0, 0.0, 0.0, 1.6989585721179636E9, 0.0, 2023-11-02 16:56:12.117
22.0, -187500.02235174447, 187500.0, 19115.2118581786, 17203.847134571926, 187500.0, 187500.0, -187500.02235174447, 33181.41051309234, -0.088, 0.978, 0.108, 192.0, 0.0, 0.0, 0.0, 0.0, 0.0, 0.0, 0.0, 0.0, 0.0, 1.698958572117987E9, 0.0, 2023-11-02 16:56:12.117
23.0, -187500.02235174447, 187500.0, 19111.099137198824, 17187.73152681965, 187500.0, 187500.0, -187500.02235174447, 33178.68360026879, -0.088, 0.978, 0.108, 192.0, 0.0, 0.0, 0.0, 0.0, 0.0, 0.0, 0.0, 0.0, 0.0, 1.6989585721180089E9, 0.0, 2023-11-02 16:56:12.118
24.0, -187500.02235174447, 187500.0, 19108.662797053195, 17165.245671897614, 187500.0, 187500.0, -187500.02235174447, 33177.65542002385, -0.088, 0.978, 0.108, 192.0, 0.0, 0.0, 0.0, 0.0, 0.0, 0.0, 0.0, 0.0, 0.0, 1.6989585721180315E9, 0.0, 2023-11-02 16:56:12.118
25.0, -187500.02235174447, 187500.0, 19113.982512233557, 17158.87542472785, 187500.0, 187500.0, -187500.02235174447, 33184.24918463817, -0.088, 0.978, 0.108, 192.0, 0.0, 0.0, 0.0, 0.0, 0.0, 0.0, 0.0, 0.0, 0.0, 1.6989585721180527E9, 0.0, 2023-11-02 16:56:12.118
26.0, -187500.02235174447, 187500.0, 19112.976683733068, 17154.270965370055, 187500.0, 187500.0, -187500.02235174447, 33183.35511485996, -0.088, 0.978, 0.108, 192.0, 0.0, 0.0, 0.0, 0.0, 0.0, 0.0, 0.0, 0.0, 0.0, 1.698958572118069E9, 0.0, 2023-11-02 16:56:12.118
27.0, -187500.02235174447, 187500.0, 19107.92518948617, 17127.448872023688, 187500.0, 187500.0, -187500.02235174447, 33178.46008282424, -0.088, 0.978, 0.108, 192.0, 0.0, 0.0, 0.0, 0.0, 0.0, 0.0, 0.0, 0.0, 0.0, 1.6989585721180873E9, 0.0, 2023-11-02 16:56:12.118
28.0, -187500.02235174447, 187500.0, 19122.29736117093, 17110.774470660028, 187500.0, 187500.0, -187500.02235174447, 33196.31912664403, -0.088, 0.978, 0.108, 192.0, 0.0, 0.0, 0.0, 0.0, 0.0, 0.0, 0.0, 0.0, 0.0, 1.6989585721181183E9, 0.0, 2023-11-02 16:56:12.118
29.0, -187500.02235174447, 187500.0, 19128.153518218223, 17104.00189209007, 187500.0, 187500.0, -187500.02235174447, 33204.52221685913, -0.088, 0.978, 0.108, 192.0, 0.0, 0.0, 0.0, 0.0, 0.0, 0.0, 0.0, 0.0, 0.0, 1.6989585721181352E9, 0.0, 2023-11-02 16:56:12.118
30.0, -187500.02235174447, 187500.0, 19120.375111147776, 17090.30027273897, 187500.0, 187500.0, -187500.02235174447, 33198.01785922264, -0.084, 0.976, 0.112, 192.0, 253.0, 96.0, 30.0, 128.0, 3.0, 128.0, 0.0, 0.0, 0.0, 1.698958572118153E9, 0.0, 2023-11-02 16:56:12.118
31.0, -187500.02235174447, 187500.0, 19117.53643960195, 17077.15744699925, 187500.0, 187500.0, -187500.02235174447, 33196.29677489958, -0.084, 0.976, 0.112, 192.0, 0.0, 0.0, 0.0, 0.0, 0.0, 0.0, 0.0, 0.0, 0.0, 1.6989585721181743E9, 0.0, 2023-11-02 16:56:12.118
32.0, -187500.02235174447, 187500.0, 19117.290570412944, 17062.427647403198, 187500.0, 187500.0, -187500.02235174447, 33196.76616153314, -0.084, 0.976, 0.112, 192.0, 0.0, 0.0, 0.0, 0.0, 0.0, 0.0, 0.0, 0.0, 0.0, 1.6989585721181955E9, 0.0, 2023-11-02 16:56:12.118
33.0, -187500.02235174447, 187500.0, 19112.149669188224, 17044.523900094497, 187500.0, 187500.0, -187500.02235174447, 33193.2345859092, -0.084, 0.976, 0.112, 192.0, 0.0, 0.0, 0.0, 0.0, 0.0, 0.0, 0.0, 0.0, 0.0, 1.698958572118214E9, 0.0, 2023-11-02 16:56:12.118
34.0, -187500.02235174447, 187500.0, 19107.701672041618, 17038.645391302754, 187500.0, 187500.0, -187500.02235174447, 33188.74188527368, -0.084, 0.976, 0.112, 192.0, 0.0, 0.0, 0.0, 0.0, 0.0, 0.0, 0.0, 0.0, 0.0, 1.6989585721183476E9, 0.0, 2023-11-02 16:56:12.118
35.0, -187500.02235174447, 187500.0, 19108.12635518627, 17039.382998869776, 187500.0, 187500.0, -187500.02235174447, 33189.59125156298, -0.084, 0.976, 0.112, 192.0, 0.0, 0.0, 0.0, 0.0, 0.0, 0.0, 0.0, 0.0, 0.0, 1.698958572118374E9, 0.0, 2023-11-02 16:56:12.118
36.0, -187500.02235174447, 187500.0, 19111.322654643376, 17031.023446443494, 187500.0, 187500.0, -187500.02235174447, 33193.48045509821, -0.084, 0.976, 0.112, 192.0, 0.0, 0.0, 0.0, 0.0, 0.0, 0.0, 0.0, 0.0, 0.0, 1.6989585721183953E9, 0.0, 2023-11-02 16:56:12.118
37.0, -187500.02235174447, 187500.0, 19114.228381422567, 17022.50743180602, 187500.0, 187500.0, -187500.02235174447, 33194.86626325444, -0.084, 0.976, 0.112, 192.0, 0.0, 0.0, 0.0, 0.0, 0.0, 0.0, 0.0, 0.0, 0.0, 1.6989585721184196E9, 0.0, 2023-11-02 16:56:12.118
38.0, -187500.02235174447, 187500.0, 19115.234209923055, 17031.89516447725, 187500.0, 187500.0, -187500.02235174447, 33195.38035337691, -0.084, 0.976, 0.112, 192.0, 0.0, 0.0, 0.0, 0.0, 0.0, 0.0, 0.0, 0.0, 0.0, 1.6989585721184433E9, 0.0, 2023-11-02 16:56:12.118
39.0, -187500.02235174447, 187500.0, 19108.998073220024, 17028.117719664304, 187500.0, 187500.0, -187500.02235174447, 33189.72536202972, -0.08, 0.972, 0.10400000000000001, 192.0, 253.0, 128.0, 30.0, 96.0, 3.0, 64.0, 0.0, 0.0, 0.0, 1.698958572118475E9, 0.0, 2023-11-02 16:56:12.118
40.0, -187500.02235174447, 187500.0, 19117.201163435122, 17026.530745807977, 187500.0, 187500.0, -187500.02235174447, 33196.56499583304, -0.08, 0.972, 0.10400000000000001, 192.0, 0.0, 0.0, 0.0, 0.0, 0.0, 0.0, 0.0, 0.0, 0.0, 1.6989585721185055E9, 0.0, 2023-11-02 16:56:12.118
41.0, -187500.02235174447, 187500.0, 19118.02817797997, 17020.65223701623, 187500.0, 187500.0, -187500.02235174447, 33197.235548166704, -0.08, 0.972, 0.10400000000000001, 192.0, 0.0, 0.0, 0.0, 0.0, 0.0, 0.0, 0.0, 0.0, 0.0, 1.6989585721185248E9, 0.0, 2023-11-02 16:56:12.118
42.0, -187500.02235174447, 187500.0, 19112.2614279105, 17018.595876526342, 187500.0, 187500.0, -187500.02235174447, 33190.082989941, -0.08, 0.972, 0.10400000000000001, 192.0, 0.0, 0.0, 0.0, 0.0, 0.0, 0.0, 0.0, 0.0, 0.0, 1.6989585721185465E9, 0.0, 2023-11-02 16:56:12.118
43.0, -187500.02235174447, 187500.0, 19109.512163342497, 17018.640580015253, 187500.0, 187500.0, -187500.02235174447, 33184.87503348292, -0.08, 0.972, 0.10400000000000001, 192.0, 0.0, 0.0, 0.0, 0.0, 0.0, 0.0, 0.0, 0.0, 0.0, 1.6989585721185758E9, 0.0, 2023-11-02 16:56:12.118
44.0, -187500.02235174447, 187500.0, 19115.010692478503, 17020.875754460783, 187500.0, 187500.0, -187500.02235174447, 33189.971231218726, -0.08, 0.972, 0.10400000000000001, 192.0, 0.0, 0.0, 0.0, 0.0, 0.0, 0.0, 0.0, 0.0, 0.0, 1.698958572118601E9, 0.0, 2023-11-02 16:56:12.118
45.0, -187500.02235174447, 187500.0, 19122.230305937566, 17026.620152785796, 187500.0, 187500.0, -187500.02235174447, 33197.99550747818, -0.08, 0.972, 0.10400000000000001, 192.0, 0.0, 0.0, 0.0, 0.0, 0.0, 0.0, 0.0, 0.0, 0.0, 1.6989585721186268E9, 0.0, 2023-11-02 16:56:12.118
46.0, -187500.02235174447, 187500.0, 19123.839631538347, 17034.6220773008, 187500.0, 187500.0, -187500.02235174447, 33200.25303366817, -0.08, 0.972, 0.10400000000000001, 192.0, 0.0, 0.0, 0.0, 0.0, 0.0, 0.0, 0.0, 0.0, 0.0, 1.6989585721186583E9, 0.0, 2023-11-02 16:56:12.118
47.0, -187500.02235174447, 187500.0, 19114.31778840039, 17034.286801133967, 187500.0, 187500.0, -187500.02235174447, 33189.30067888507, -0.08, 0.972, 0.10400000000000001, 192.0, 0.0, 0.0, 0.0, 0.0, 0.0, 0.0, 0.0, 0.0, 0.0, 1.6989585721186793E9, 0.0, 2023-11-02 16:56:12.118
48.0, -187500.02235174447, 187500.0, 19109.087480197846, 17024.854364973828, 187500.0, 187500.0, -187500.02235174447, 33180.71760901423, -0.08, 0.972, 0.10400000000000001, 192.0, 0.0, 0.0, 0.0, 0.0, 0.0, 0.0, 0.0, 0.0, 0.0, 1.6989585721187007E9, 0.0, 2023-11-02 16:56:12.118
49.0, -187500.02235174447, 187500.0, 19107.701672041618, 17019.825222471383, 187500.0, 187500.0, -187500.02235174447, 33179.823539236015, -0.084, 0.978, 0.10400000000000001, 192.0, 253.0, 96.0, 30.0, 144.0, 3.0, 64.0, 0.0, 0.0, 0.0, 1.698958572118929E9, 0.0, 2023-11-02 16:56:12.118
50.0, -187500.02235174447, 187500.0, 19111.657930810205, 17029.972914454094, 187500.0, 187500.0, -187500.02235174447, 33186.14908291687, -0.084, 0.978, 0.10400000000000001, 192.0, 0.0, 0.0, 0.0, 0.0, 0.0, 0.0, 0.0, 0.0, 0.0, 1.6989585721189685E9, 0.0, 2023-11-02 16:56:12.118
51.0, -187500.02235174447, 187500.0, 19106.561733074395, 17037.348990124345, 187500.0, 187500.0, -187500.02235174447, 33180.672905525316, -0.084, 0.978, 0.10400000000000001, 192.0, 0.0, 0.0, 0.0, 0.0, 0.0, 0.0, 0.0, 0.0, 0.0, 1.6989585721189895E9, 0.0, 2023-11-02 16:56:12.118
52.0, -187500.02235174447, 187500.0, 19105.73471852955, 17039.874737247796, 187500.0, 187500.0, -187500.02235174447, 33179.24239388018, -0.084, 0.978, 0.10400000000000001, 192.0, 0.0, 0.0, 0.0, 0.0, 0.0, 0.0, 0.0, 0.0, 0.0, 1.6989585721190047E9, 0.0, 2023-11-02 16:56:12.119
53.0, -187500.02235174447, 187500.0, 19115.234209923055, 17041.32760063739, 187500.0, 187500.0, -187500.02235174447, 33186.05967593905, -0.084, 0.978, 0.10400000000000001, 192.0, 0.0, 0.0, 0.0, 0.0, 0.0, 0.0, 0.0, 0.0, 0.0, 1.6989585721190224E9, 0.0, 2023-11-02 16:56:12.119
54.0, -187500.02235174447, 187500.0, 19115.50243085652, 17048.904842007738, 187500.0, 187500.0, -187500.02235174447, 33186.104379427954, -0.084, 0.978, 0.10400000000000001, 192.0, 0.0, 0.0, 0.0, 0.0, 0.0, 0.0, 0.0, 0.0, 0.0, 1.6989585721190443E9, 0.0, 2023-11-02 16:56:12.119
55.0, -187500.02235174447, 187500.0, 19114.340140144843, 17057.66672583422, 187500.0, 187500.0, -187500.02235174447, 33184.025667193615, -0.084, 0.978, 0.10400000000000001, 192.0, 0.0, 0.0, 0.0, 0.0, 0.0, 0.0, 0.0, 0.0, 0.0, 1.6989585721190672E9, 0.0, 2023-11-02 16:56:12.119
56.0, -187500.02235174447, 187500.0, 19112.663759310693, 17059.03018224599, 187500.0, 187500.0, -187500.02235174447, 33180.47173982522, -0.084, 0.978, 0.10400000000000001, 192.0, 0.0, 0.0, 0.0, 0.0, 0.0, 0.0, 0.0, 0.0, 0.0, 1.6989585721190865E9, 0.0, 2023-11-02 16:56:12.119
57.0, -187500.02235174447, 187500.0, 19114.1613261892, 17054.96216475513, 187500.0, 187500.0, -187500.02235174447, 33182.25987938164, -0.084, 0.978, 0.10400000000000001, 192.0, 0.0, 0.0, 0.0, 0.0, 0.0, 0.0, 0.0, 0.0, 0.0, 1.6989585721191003E9, 0.0, 2023-11-02 16:56:12.119
58.0, -187500.02235174447, 187500.0, 19113.669587811182, 17058.38198165679, 187500.0, 187500.0, -187500.02235174447, 33181.83519623699, -0.084, 0.978, 0.10400000000000001, 192.0, 0.0, 0.0, 0.0, 0.0, 0.0, 0.0, 0.0, 0.0, 0.0, 1.6989585721191108E9, 0.0, 2023-11-02 16:56:12.119
59.0, -187500.02235174447, 187500.0, 19112.149669188224, 17062.405295658744, 187500.0, 187500.0, -187500.02235174447, 33179.51061481364, -0.092, 0.982, 0.10400000000000001, 192.0, 253.0, 32.0, 30.0, 176.0, 3.0, 64.0, 0.0, 0.0, 0.0, 1.698958572119122E9, 0.0, 2023-11-02 16:56:12.119
60.0, -187500.02235174447, 187500.0, 19107.74637553053, 17060.751266569052, 187500.0, 187500.0, -187500.02235174447, 33175.80022523406, -0.092, 0.982, 0.10400000000000001, 192.0, 0.0, 0.0, 0.0, 0.0, 0.0, 0.0, 0.0, 0.0, 0.0, 1.6989585721191332E9, 0.0, 2023-11-02 16:56:12.119
61.0, -187500.02235174447, 187500.0, 19109.713329042595, 17055.163330455223, 187500.0, 187500.0, -187500.02235174447, 33176.403722334355, -0.092, 0.982, 0.10400000000000001, 192.0, 0.0, 0.0, 0.0, 0.0, 0.0, 0.0, 0.0, 0.0, 0.0, 1.698958572119144E9, 0.0, 2023-11-02 16:56:12.119
62.0, -187500.02235174447, 187500.0, 19112.954331988614, 17057.577318856398, 187500.0, 187500.0, -187500.02235174447, 33178.39302759088, -0.092, 0.982, 0.10400000000000001, 192.0, 0.0, 0.0, 0.0, 0.0, 0.0, 0.0, 0.0, 0.0, 0.0, 1.698958572119156E9, 0.0, 2023-11-02 16:56:12.119
63.0, -187500.02235174447, 187500.0, 19108.506334842008, 17067.926176539204, 187500.0, 187500.0, -187500.02235174447, 33173.56505078853, -0.092, 0.982, 0.10400000000000001, 192.0, 0.0, 0.0, 0.0, 0.0, 0.0, 0.0, 0.0, 0.0, 0.0, 1.6989585721191661E9, 0.0, 2023-11-02 16:56:12.119
64.0, -187500.02235174447, 187500.0, 19110.49564009853, 17072.642394619274, 187500.0, 187500.0, -187500.02235174447, 33174.593231033476, -0.092, 0.982, 0.10400000000000001, 192.0, 0.0, 0.0, 0.0, 0.0, 0.0, 0.0, 0.0, 0.0, 0.0, 1.6989585721192076E9, 0.0, 2023-11-02 16:56:12.119
65.0, -187500.02235174447, 187500.0, 19118.363454146798, 17074.922272553715, 187500.0, 187500.0, -187500.02235174447, 33182.14812065937, -0.092, 0.982, 0.10400000000000001, 192.0, 0.0, 0.0, 0.0, 0.0, 0.0, 0.0, 0.0, 0.0, 0.0, 1.6989585721192179E9, 0.0, 2023-11-02 16:56:12.119
66.0, -187500.02235174447, 187500.0, 19112.44024186614, 17072.3294701969, 187500.0, 187500.0, -187500.02235174447, 33176.78370199009, -0.092, 0.982, 0.10400000000000001, 192.0, 0.0, 0.0, 0.0, 0.0, 0.0, 0.0, 0.0, 0.0, 0.0, 1.6989585721192274E9, 0.0, 2023-11-02 16:56:12.119
67.0, -187500.02235174447, 187500.0, 19104.907703984703, 17066.09333349387, 187500.0, 187500.0, -187500.02235174447, 33169.89936469786, -0.092, 0.982, 0.10400000000000001, 192.0, 0.0, 0.0, 0.0, 0.0, 0.0, 0.0, 0.0, 0.0, 0.0, 1.6989585721192381E9, 0.0, 2023-11-02 16:56:12.119
68.0, -187500.02235174447, 187500.0, 19103.38778536174, 17062.047667747458, 187500.0, 187500.0, -187500.02235174447, 33166.188975118275, -0.092, 0.982, 0.10400000000000001, 192.0, 0.0, 0.0, 0.0, 0.0, 0.0, 0.0, 0.0, 0.0, 0.0, 1.6989585721192484E9, 0.0, 2023-11-02 16:56:12.119
