%OpenBCI Raw EEG Data
%Number of channels = 8
%Sample Rate = 250 Hz
%Board = OpenBCI_GUI$BoardCytonSerial
Sample Index, EXG Channel 0, EXG Channel 1, EXG Channel 2, EXG Channel 3, EXG Channel 4, EXG Channel 5, EXG Channel 6, EXG Channel 7, Accel Channel 0, Accel Channel 1, Accel Channel 2, Other, Other, Other, Other, Other, Other, Other, Analog Channel 0, Analog Channel 1, Analog Channel 2, Timestamp, Other, Timestamp (Formatted)
23.0, -187500.02235174447, 187500.0, 20763.78712222423, 20164.626260355268, 187500.0, 187500.0, -187500.02235174447, 34364.28718141165, 0.0, 0.0, 0.0, 192.0, 0.0, 0.0, 0.0, 0.0, 0.0, 0.0, 0.0, 0.0, 0.0, 1.6989585439143376E9, 0.0, 2023-11-02 16:55:43.914
24.0, -187500.02235174447, 187500.0, 20764.18945362442, 20136.70893153059, 187500.0, 187500.0, -187500.02235174447, 34364.309533156105, 0.0, 0.0, 0.0, 192.0, 0.0, 0.0, 0.0, 0.0, 0.0, 0.0, 0.0, 0.0, 0.0, 1.6989585439143643E9, 0.0, 2023-11-02 16:55:43.914
25.0, -187500.02235174447, 187500.0, 20768.68215425994, 20106.6458352382, 187500.0, 187500.0, -187500.02235174447, 34369.964524503295, 0.0, 0.0, 0.0, 192.0, 0.0, 0.0, 0.0, 0.0, 0.0, 0.0, 0.0, 0.0, 0.0, 1.6989585439143753E9, 0.0, 2023-11-02 16:55:43.914
26.0, -187500.02235174447, 187500.0, 20765.597613525108, 20085.791657661397, 187500.0, 187500.0, -187500.02235174447, 34369.18221344736, 0.0, 0.0, 0.0, 192.0, 0.0, 0.0, 0.0, 0.0, 0.0, 0.0, 0.0, 0.0, 0.0, 1.698958543914386E9, 0.0, 2023-11-02 16:55:43.914
27.0, -187500.02235174447, 187500.0, 20762.401314068, 20064.06576205084, 187500.0, 187500.0, -187500.02235174447, 34367.99757099123, 0.0, 0.0, 0.0, 192.0, 0.0, 0.0, 0.0, 0.0, 0.0, 0.0, 0.0, 0.0, 0.0, 1.6989585439143963E9, 0.0, 2023-11-02 16:55:43.914
28.0, -187500.02235174447, 187500.0, 20769.442113571422, 20037.06485474883, 187500.0, 187500.0, -187500.02235174447, 34377.720579829285, 0.0, 0.0, 0.0, 192.0, 0.0, 0.0, 0.0, 0.0, 0.0, 0.0, 0.0, 0.0, 0.0, 1.6989585439144063E9, 0.0, 2023-11-02 16:55:43.914
29.0, -187500.02235174447, 187500.0, 20769.1515408935, 20011.53916258087, 187500.0, 187500.0, -187500.02235174447, 34380.738065330755, 0.0, 0.0, 0.0, 192.0, 0.0, 0.0, 0.0, 0.0, 0.0, 0.0, 0.0, 0.0, 0.0, 1.698958543914417E9, 0.0, 2023-11-02 16:55:43.914
30.0, -187500.02235174447, 187500.0, 20767.944546692914, 19987.153409380127, 187500.0, 187500.0, -187500.02235174447, 34379.687533341355, -0.106, 0.974, 0.088, 192.0, 252.0, 176.0, 30.0, 112.0, 2.0, 192.0, 0.0, 0.0, 0.0, 1.6989585439144275E9, 0.0, 2023-11-02 16:55:43.914
31.0, -187500.02235174447, 187500.0, 20764.234157113333, 19969.227310326973, 187500.0, 187500.0, -187500.02235174447, 34377.094730984536, -0.106, 0.974, 0.088, 192.0, 0.0, 0.0, 0.0, 0.0, 0.0, 0.0, 0.0, 0.0, 0.0, 1.6989585439144394E9, 0.0, 2023-11-02 16:55:43.914
32.0, -187500.02235174447, 187500.0, 20754.935831419927, 19941.533498946847, 187500.0, 187500.0, -187500.02235174447, 34368.645771580435, -0.106, 0.974, 0.088, 192.0, 0.0, 0.0, 0.0, 0.0, 0.0, 0.0, 0.0, 0.0, 0.0, 1.6989585439144497E9, 0.0, 2023-11-02 16:55:43.914
33.0, -187500.02235174447, 187500.0, 20759.763808222273, 19916.588952134724, 187500.0, 187500.0, -187500.02235174447, 34374.52428037218, -0.106, 0.974, 0.088, 192.0, 0.0, 0.0, 0.0, 0.0, 0.0, 0.0, 0.0, 0.0, 0.0, 1.6989585439144604E9, 0.0, 2023-11-02 16:55:43.914
34.0, -187500.02235174447, 187500.0, 20762.267203601266, 19909.07876599774, 187500.0, 187500.0, -187500.02235174447, 34379.106387985514, -0.106, 0.974, 0.088, 192.0, 0.0, 0.0, 0.0, 0.0, 0.0, 0.0, 0.0, 0.0, 0.0, 1.698958543914471E9, 0.0, 2023-11-02 16:55:43.914
35.0, -187500.02235174447, 187500.0, 20754.82407269765, 19903.647292095102, 187500.0, 187500.0, -187500.02235174447, 34370.18804194785, -0.106, 0.974, 0.088, 192.0, 0.0, 0.0, 0.0, 0.0, 0.0, 0.0, 0.0, 0.0, 0.0, 1.6989585439144812E9, 0.0, 2023-11-02 16:55:43.914
36.0, -187500.02235174447, 187500.0, 20753.840595941616, 19899.51221937087, 187500.0, 187500.0, -187500.02235174447, 34367.63994307994, -0.106, 0.974, 0.088, 192.0, 0.0, 0.0, 0.0, 0.0, 0.0, 0.0, 0.0, 0.0, 0.0, 1.6989585439144924E9, 0.0, 2023-11-02 16:55:43.914
37.0, -187500.02235174447, 187500.0, 20751.381904051534, 19885.45297210848, 187500.0, 187500.0, -187500.02235174447, 34365.31536165659, -0.106, 0.974, 0.088, 192.0, 0.0, 0.0, 0.0, 0.0, 0.0, 0.0, 0.0, 0.0, 0.0, 1.6989585439145029E9, 0.0, 2023-11-02 16:55:43.914
38.0, -187500.02235174447, 187500.0, 20750.219613339857, 19869.851454478678, 187500.0, 187500.0, -187500.02235174447, 34362.29787615513, -0.106, 0.974, 0.088, 192.0, 0.0, 0.0, 0.0, 0.0, 0.0, 0.0, 0.0, 0.0, 0.0, 1.698958543914513E9, 0.0, 2023-11-02 16:55:43.914
39.0, -187500.02235174447, 187500.0, 20752.320677318654, 19865.17993988752, 187500.0, 187500.0, -187500.02235174447, 34361.9625999883, -0.106, 0.974, 0.088, 192.0, 0.0, 0.0, 0.0, 0.0, 0.0, 0.0, 0.0, 0.0, 0.0, 1.6989585439146073E9, 0.0, 2023-11-02 16:55:43.914
40.0, -187500.02235174447, 187500.0, 20751.62777324054, 19867.6386317776, 187500.0, 187500.0, -187500.02235174447, 34358.05104470862, -0.106, 0.974, 0.094, 192.0, 252.0, 176.0, 30.0, 112.0, 2.0, 240.0, 0.0, 0.0, 0.0, 1.6989585439146185E9, 0.0, 2023-11-02 16:55:43.914
41.0, -187500.02235174447, 187500.0, 20752.47713952984, 19868.309184111262, 187500.0, 187500.0, -187500.02235174447, 34354.94415222933, -0.106, 0.974, 0.094, 192.0, 0.0, 0.0, 0.0, 0.0, 0.0, 0.0, 0.0, 0.0, 0.0, 1.6989585439146297E9, 0.0, 2023-11-02 16:55:43.914
42.0, -187500.02235174447, 187500.0, 20755.695790731406, 19863.011820675354, 187500.0, 187500.0, -187500.02235174447, 34357.26873365268, -0.106, 0.974, 0.094, 192.0, 0.0, 0.0, 0.0, 0.0, 0.0, 0.0, 0.0, 0.0, 0.0, 1.6989585439146404E9, 0.0, 2023-11-02 16:55:43.914
43.0, -187500.02235174447, 187500.0, 20752.745360463305, 19858.96615492894, 187500.0, 187500.0, -187500.02235174447, 34353.29012313964, -0.106, 0.974, 0.094, 192.0, 0.0, 0.0, 0.0, 0.0, 0.0, 0.0, 0.0, 0.0, 0.0, 1.698958543914651E9, 0.0, 2023-11-02 16:55:43.914
44.0, -187500.02235174447, 187500.0, 20752.588898252117, 19850.718361224936, 187500.0, 187500.0, -187500.02235174447, 34350.742024271734, -0.106, 0.974, 0.094, 192.0, 0.0, 0.0, 0.0, 0.0, 0.0, 0.0, 0.0, 0.0, 0.0, 1.6989585439146612E9, 0.0, 2023-11-02 16:55:43.914
45.0, -187500.02235174447, 187500.0, 20756.500453531797, 19851.16539611404, 187500.0, 187500.0, -187500.02235174447, 34352.03842545014, -0.106, 0.974, 0.094, 192.0, 0.0, 0.0, 0.0, 0.0, 0.0, 0.0, 0.0, 0.0, 0.0, 1.6989585439146745E9, 0.0, 2023-11-02 16:55:43.914
46.0, -187500.02235174447, 187500.0, 20758.467407043863, 19847.052675134262, 187500.0, 187500.0, -187500.02235174447, 34352.28429463915, -0.106, 0.974, 0.094, 192.0, 0.0, 0.0, 0.0, 0.0, 0.0, 0.0, 0.0, 0.0, 0.0, 1.6989585439146852E9, 0.0, 2023-11-02 16:55:43.914
47.0, -187500.02235174447, 187500.0, 20753.326505819143, 19848.773759457323, 187500.0, 187500.0, -187500.02235174447, 34346.22697189176, -0.106, 0.974, 0.094, 192.0, 0.0, 0.0, 0.0, 0.0, 0.0, 0.0, 0.0, 0.0, 0.0, 1.698958543914698E9, 0.0, 2023-11-02 16:55:43.914
48.0, -187500.02235174447, 187500.0, 20747.96208714987, 19851.947707169977, 187500.0, 187500.0, -187500.02235174447, 34341.7566230007, -0.106, 0.974, 0.094, 192.0, 0.0, 0.0, 0.0, 0.0, 0.0, 0.0, 0.0, 0.0, 0.0, 1.6989585439147089E9, 0.0, 2023-11-02 16:55:43.914
49.0, -187500.02235174447, 187500.0, 20748.431473783432, 19851.54537576978, 187500.0, 187500.0, -187500.02235174447, 34342.29306486763, -0.106, 0.974, 0.094, 192.0, 0.0, 0.0, 0.0, 0.0, 0.0, 0.0, 0.0, 0.0, 0.0, 1.6989585439147196E9, 0.0, 2023-11-02 16:55:43.914
50.0, -187500.02235174447, 187500.0, 20744.96695339286, 19844.750445455367, 187500.0, 187500.0, -187500.02235174447, 34338.56032354359, -0.106, 0.974, 0.08600000000000001, 192.0, 252.0, 176.0, 30.0, 112.0, 2.0, 176.0, 0.0, 0.0, 0.0, 1.69895854391473E9, 0.0, 2023-11-02 16:55:43.914
51.0, -187500.02235174447, 187500.0, 20744.452863270388, 19845.97979140041, 187500.0, 187500.0, -187500.02235174447, 34338.06858516557, -0.106, 0.974, 0.08600000000000001, 192.0, 0.0, 0.0, 0.0, 0.0, 0.0, 0.0, 0.0, 0.0, 0.0, 1.6989585439147408E9, 0.0, 2023-11-02 16:55:43.914
52.0, -187500.02235174447, 187500.0, 20749.19143309491, 19861.60366077467, 187500.0, 187500.0, -187500.02235174447, 34343.09772766801, -0.106, 0.974, 0.08600000000000001, 192.0, 0.0, 0.0, 0.0, 0.0, 0.0, 0.0, 0.0, 0.0, 0.0, 1.6989585439147513E9, 0.0, 2023-11-02 16:55:43.914
53.0, -187500.02235174447, 187500.0, 20752.275973829746, 19864.285870109306, 187500.0, 187500.0, -187500.02235174447, 34344.41648059088, -0.106, 0.974, 0.08600000000000001, 192.0, 0.0, 0.0, 0.0, 0.0, 0.0, 0.0, 0.0, 0.0, 0.0, 1.6989585439147625E9, 0.0, 2023-11-02 16:55:43.914
54.0, -187500.02235174447, 187500.0, 20751.49366277381, 19853.557032770757, 187500.0, 187500.0, -187500.02235174447, 34340.46022182229, -0.106, 0.974, 0.08600000000000001, 192.0, 0.0, 0.0, 0.0, 0.0, 0.0, 0.0, 0.0, 0.0, 0.0, 1.6989585439148028E9, 0.0, 2023-11-02 16:55:43.914
55.0, -187500.02235174447, 187500.0, 20757.3498198211, 19855.30046883827, 187500.0, 187500.0, -187500.02235174447, 34344.37177710197, -0.106, 0.974, 0.08600000000000001, 192.0, 0.0, 0.0, 0.0, 0.0, 0.0, 0.0, 0.0, 0.0, 0.0, 1.6989585439148135E9, 0.0, 2023-11-02 16:55:43.914
56.0, -187500.02235174447, 187500.0, 20754.77936920874, 19863.950593942474, 187500.0, 187500.0, -187500.02235174447, 34343.14243115693, -0.106, 0.974, 0.08600000000000001, 192.0, 0.0, 0.0, 0.0, 0.0, 0.0, 0.0, 0.0, 0.0, 0.0, 1.6989585439148242E9, 0.0, 2023-11-02 16:55:43.914
57.0, -187500.02235174447, 187500.0, 20757.953316921394, 19873.807713247268, 187500.0, 187500.0, -187500.02235174447, 34343.47770732376, -0.106, 0.974, 0.08600000000000001, 192.0, 0.0, 0.0, 0.0, 0.0, 0.0, 0.0, 0.0, 0.0, 0.0, 1.6989585439148352E9, 0.0, 2023-11-02 16:55:43.914
58.0, -187500.02235174447, 187500.0, 20757.998020410305, 19873.137160913608, 187500.0, 187500.0, -187500.02235174447, 34343.74592825722, -0.106, 0.974, 0.08600000000000001, 192.0, 0.0, 0.0, 0.0, 0.0, 0.0, 0.0, 0.0, 0.0, 0.0, 1.6989585439148457E9, 0.0, 2023-11-02 16:55:43.914
59.0, -187500.02235174447, 187500.0, 20754.466444786365, 19869.292660867293, 187500.0, 187500.0, -187500.02235174447, 34340.63903577793, -0.106, 0.974, 0.08600000000000001, 192.0, 0.0, 0.0, 0.0, 0.0, 0.0, 0.0, 0.0, 0.0, 0.0, 1.6989585439148557E9, 0.0, 2023-11-02 16:55:43.914
60.0, -187500.02235174447, 187500.0, 20756.120473876057, 19870.67846902352, 187500.0, 187500.0, -187500.02235174447, 34340.527277055655, -0.10400000000000001, 0.98, 0.09, 192.0, 252.0, 192.0, 30.0, 160.0, 2.0, 208.0, 0.0, 0.0, 0.0, 1.6989585439148662E9, 0.0, 2023-11-02 16:55:43.914
61.0, -187500.02235174447, 187500.0, 20759.54029077772, 19880.93791972851, 187500.0, 187500.0, -187500.02235174447, 34345.08703292454, -0.10400000000000001, 0.98, 0.09, 192.0, 0.0, 0.0, 0.0, 0.0, 0.0, 0.0, 0.0, 0.0, 0.0, 1.6989585439148774E9, 0.0, 2023-11-02 16:55:43.914
62.0, -187500.02235174447, 187500.0, 20749.973744150848, 19877.182826660017, 187500.0, 187500.0, -187500.02235174447, 34335.788707231135, -0.10400000000000001, 0.98, 0.09, 192.0, 0.0, 0.0, 0.0, 0.0, 0.0, 0.0, 0.0, 0.0, 0.0, 1.698958543914888E9, 0.0, 2023-11-02 16:55:43.914
63.0, -187500.02235174447, 187500.0, 20748.319715061156, 19877.205178404474, 187500.0, 187500.0, -187500.02235174447, 34334.42525081936, -0.10400000000000001, 0.98, 0.09, 192.0, 0.0, 0.0, 0.0, 0.0, 0.0, 0.0, 0.0, 0.0, 0.0, 1.6989585439148984E9, 0.0, 2023-11-02 16:55:43.914
64.0, -187500.02235174447, 187500.0, 20750.331372062134, 19893.298434412292, 187500.0, 187500.0, -187500.02235174447, 34336.39220433142, -0.10400000000000001, 0.98, 0.09, 192.0, 0.0, 0.0, 0.0, 0.0, 0.0, 0.0, 0.0, 0.0, 0.0, 1.6989585439149091E9, 0.0, 2023-11-02 16:55:43.914
65.0, -187500.02235174447, 187500.0, 20748.83380518363, 19904.65312059559, 187500.0, 187500.0, -187500.02235174447, 34332.59240777402, -0.10400000000000001, 0.98, 0.09, 192.0, 0.0, 0.0, 0.0, 0.0, 0.0, 0.0, 0.0, 0.0, 0.0, 1.6989585439149196E9, 0.0, 2023-11-02 16:55:43.914
66.0, -187500.02235174447, 187500.0, 20748.654991227984, 19905.41307990707, 187500.0, 187500.0, -187500.02235174447, 34330.35723332849, -0.10400000000000001, 0.98, 0.09, 192.0, 0.0, 0.0, 0.0, 0.0, 0.0, 0.0, 0.0, 0.0, 0.0, 1.698958543914932E9, 0.0, 2023-11-02 16:55:43.914
67.0, -187500.02235174447, 187500.0, 20752.365380807565, 19899.71338507097, 187500.0, 187500.0, -187500.02235174447, 34333.01709091867, -0.10400000000000001, 0.98, 0.09, 192.0, 0.0, 0.0, 0.0, 0.0, 0.0, 0.0, 0.0, 0.0, 0.0, 1.6989585439149425E9, 0.0, 2023-11-02 16:55:43.914
68.0, -187500.02235174447, 187500.0, 20751.11368311807, 19903.22260895045, 187500.0, 187500.0, -187500.02235174447, 34333.57588453006, -0.10400000000000001, 0.98, 0.09, 192.0, 0.0, 0.0, 0.0, 0.0, 0.0, 0.0, 0.0, 0.0, 0.0, 1.6989585439149535E9, 0.0, 2023-11-02 16:55:43.914
69.0, -187500.02235174447, 187500.0, 20742.731778947327, 19906.821239807756, 187500.0, 187500.0, -187500.02235174447, 34325.46220129278, -0.10400000000000001, 0.98, 0.09, 192.0, 0.0, 0.0, 0.0, 0.0, 0.0, 0.0, 0.0, 0.0, 0.0, 1.698958543914974E9, 0.0, 2023-11-02 16:55:43.914
70.0, -187500.02235174447, 187500.0, 20745.86102317107, 19909.011710764375, 187500.0, 187500.0, -187500.02235174447, 34327.540913527126, -0.10200000000000001, 0.976, 0.092, 192.0, 252.0, 208.0, 30.0, 128.0, 2.0, 224.0, 0.0, 0.0, 0.0, 1.6989585439149845E9, 0.0, 2023-11-02 16:55:43.914
71.0, -187500.02235174447, 187500.0, 20748.25265982779, 19912.766803832867, 187500.0, 187500.0, -187500.02235174447, 34329.66432925038, -0.10200000000000001, 0.976, 0.092, 192.0, 0.0, 0.0, 0.0, 0.0, 0.0, 0.0, 0.0, 0.0, 0.0, 1.6989585439149952E9, 0.0, 2023-11-02 16:55:43.914
72.0, -187500.02235174447, 187500.0, 20741.81535742466, 19912.811507321778, 187500.0, 187500.0, -187500.02235174447, 34321.662404735376, -0.10200000000000001, 0.976, 0.092, 192.0, 0.0, 0.0, 0.0, 0.0, 0.0, 0.0, 0.0, 0.0, 0.0, 1.6989585439150064E9, 0.0, 2023-11-02 16:55:43.915
73.0, -187500.02235174447, 187500.0, 20744.363456292565, 19923.585048149234, 187500.0, 187500.0, -187500.02235174447, 34323.36113731398, -0.10200000000000001, 0.976, 0.092, 192.0, 0.0, 0.0, 0.0, 0.0, 0.0, 0.0, 0.0, 0.0, 0.0, 1.6989585439150171E9, 0.0, 2023-11-02 16:55:43.915
74.0, -187500.02235174447, 187500.0, 20749.705523217384, 19928.681245885044, 187500.0, 187500.0, -187500.02235174447, 34328.010300160684, -0.10200000000000001, 0.976, 0.092, 192.0, 0.0, 0.0, 0.0, 0.0, 0.0, 0.0, 0.0, 0.0, 0.0, 1.6989585439150276E9, 0.0, 2023-11-02 16:55:43.915
75.0, -187500.02235174447, 187500.0, 20744.899898159492, 19928.502431929403, 187500.0, 187500.0, -187500.02235174447, 34322.51177102468, -0.10200000000000001, 0.976, 0.092, 192.0, 0.0, 0.0, 0.0, 0.0, 0.0, 0.0, 0.0, 0.0, 0.0, 1.6989585439150388E9, 0.0, 2023-11-02 16:55:43.915
76.0, -187500.02235174447, 187500.0, 20739.021389367746, 19925.37318770566, 187500.0, 187500.0, -187500.02235174447, 34316.052116877094, -0.10200000000000001, 0.976, 0.092, 192.0, 0.0, 0.0, 0.0, 0.0, 0.0, 0.0, 0.0, 0.0, 0.0, 1.6989585439150493E9, 0.0, 2023-11-02 16:55:43.915
77.0, -187500.02235174447, 187500.0, 20746.084540615626, 19939.253621012405, 187500.0, 187500.0, -187500.02235174447, 34322.86939893597, -0.10200000000000001, 0.976, 0.092, 192.0, 0.0, 0.0, 0.0, 0.0, 0.0, 0.0, 0.0, 0.0, 0.0, 1.6989585439150605E9, 0.0, 2023-11-02 16:55:43.915
78.0, -187500.02235174447, 187500.0, 20744.139938848013, 19948.909574617097, 187500.0, 187500.0, -187500.02235174447, 34320.5001140237, -0.10200000000000001, 0.976, 0.092, 192.0, 0.0, 0.0, 0.0, 0.0, 0.0, 0.0, 0.0, 0.0, 0.0, 1.698958543915071E9, 0.0, 2023-11-02 16:55:43.915
79.0, -187500.02235174447, 187500.0, 20746.397465038, 19947.344952505227, 187500.0, 187500.0, -187500.02235174447, 34321.863570435475, -0.10200000000000001, 0.976, 0.092, 192.0, 0.0, 0.0, 0.0, 0.0, 0.0, 0.0, 0.0, 0.0, 0.0, 1.6989585439150815E9, 0.0, 2023-11-02 16:55:43.915
80.0, -187500.02235174447, 187500.0, 20741.77065393575, 19944.148653048116, 187500.0, 187500.0, -187500.02235174447, 34318.06377387807, -0.098, 0.972, 0.096, 192.0, 252.0, 240.0, 30.0, 96.0, 3.0, 0.0, 0.0, 0.0, 0.0, 1.698958543915092E9, 0.0, 2023-11-02 16:55:43.915
81.0, -187500.02235174447, 187500.0, 20743.402331280988, 19944.975667592964, 187500.0, 187500.0, -187500.02235174447, 34318.93549191183, -0.098, 0.972, 0.096, 192.0, 0.0, 0.0, 0.0, 0.0, 0.0, 0.0, 0.0, 0.0, 0.0, 1.6989585439151027E9, 0.0, 2023-11-02 16:55:43.915
82.0, -187500.02235174447, 187500.0, 20747.872680172048, 19956.86679564319, 187500.0, 187500.0, -187500.02235174447, 34323.539951269624, -0.098, 0.972, 0.096, 192.0, 0.0, 0.0, 0.0, 0.0, 0.0, 0.0, 0.0, 0.0, 0.0, 1.6989585439151142E9, 0.0, 2023-11-02 16:55:43.915
83.0, -187500.02235174447, 187500.0, 20743.044703369702, 19955.838615398243, 187500.0, 187500.0, -187500.02235174447, 34317.43792503332, -0.098, 0.972, 0.096, 192.0, 0.0, 0.0, 0.0, 0.0, 0.0, 0.0, 0.0, 0.0, 0.0, 1.6989585439151244E9, 0.0, 2023-11-02 16:55:43.915
84.0, -187500.02235174447, 187500.0, 20745.637505726518, 19949.62483043967, 187500.0, 187500.0, -187500.02235174447, 34320.2989483236, -0.098, 0.972, 0.096, 192.0, 0.0, 0.0, 0.0, 0.0, 0.0, 0.0, 0.0, 0.0, 0.0, 1.6989585439151552E9, 0.0, 2023-11-02 16:55:43.915
85.0, -187500.02235174447, 187500.0, 20748.856156928083, 19959.213728810995, 187500.0, 187500.0, -187500.02235174447, 34324.61283500348, -0.098, 0.972, 0.096, 192.0, 0.0, 0.0, 0.0, 0.0, 0.0, 0.0, 0.0, 0.0, 0.0, 1.6989585439151669E9, 0.0, 2023-11-02 16:55:43.915
86.0, -187500.02235174447, 187500.0, 20746.06218887117, 19966.790970181344, 187500.0, 187500.0, -187500.02235174447, 34320.388355301424, -0.098, 0.972, 0.096, 192.0, 0.0, 0.0, 0.0, 0.0, 0.0, 0.0, 0.0, 0.0, 0.0, 1.6989585439151776E9, 0.0, 2023-11-02 16:55:43.915
87.0, -187500.02235174447, 187500.0, 20745.97278189335, 19963.974650379976, 187500.0, 187500.0, -187500.02235174447, 34318.443753533815, -0.098, 0.972, 0.096, 192.0, 0.0, 0.0, 0.0, 0.0, 0.0, 0.0, 0.0, 0.0, 0.0, 1.6989585439151895E9, 0.0, 2023-11-02 16:55:43.915
88.0, -187500.02235174447, 187500.0, 20743.938773147915, 19958.565528221792, 187500.0, 187500.0, -187500.02235174447, 34315.158047098885, -0.098, 0.972, 0.096, 192.0, 0.0, 0.0, 0.0, 0.0, 0.0, 0.0, 0.0, 0.0, 0.0, 1.6989585439152E9, 0.0, 2023-11-02 16:55:43.915
89.0, -187500.02235174447, 187500.0, 20743.268220814254, 19960.979516622963, 187500.0, 187500.0, -187500.02235174447, 34313.03463137563, -0.098, 0.972, 0.096, 192.0, 0.0, 0.0, 0.0, 0.0, 0.0, 0.0, 0.0, 0.0, 0.0, 1.6989585439152105E9, 0.0, 2023-11-02 16:55:43.915
90.0, -187500.02235174447, 187500.0, 20741.21186032437, 19970.680173716566, 187500.0, 187500.0, -187500.02235174447, 34309.011317373675, -0.094, 0.974, 0.08600000000000001, 192.0, 253.0, 16.0, 30.0, 112.0, 2.0, 176.0, 0.0, 0.0, 0.0, 1.6989585439152217E9, 0.0, 2023-11-02 16:55:43.915
91.0, -187500.02235174447, 187500.0, 20738.373188778543, 19965.986307380954, 187500.0, 187500.0, -187500.02235174447, 34305.52444523865, -0.094, 0.974, 0.08600000000000001, 192.0, 0.0, 0.0, 0.0, 0.0, 0.0, 0.0, 0.0, 0.0, 0.0, 1.6989585439152324E9, 0.0, 2023-11-02 16:55:43.915
92.0, -187500.02235174447, 187500.0, 20733.925191631937, 19960.9124613896, 187500.0, 187500.0, -187500.02235174447, 34300.74117192521, -0.094, 0.974, 0.08600000000000001, 192.0, 0.0, 0.0, 0.0, 0.0, 0.0, 0.0, 0.0, 0.0, 0.0, 1.6989585439152448E9, 0.0, 2023-11-02 16:55:43.915
93.0, -187500.02235174447, 187500.0, 20729.946581118893, 19967.70739170401, 187500.0, 187500.0, -187500.02235174447, 34298.08131433503, -0.094, 0.974, 0.08600000000000001, 192.0, 0.0, 0.0, 0.0, 0.0, 0.0, 0.0, 0.0, 0.0, 0.0, 1.6989585439152555E9, 0.0, 2023-11-02 16:55:43.915
94.0, -187500.02235174447, 187500.0, 20728.113738073556, 19973.831769684766, 187500.0, 187500.0, -187500.02235174447, 34296.02495384514, -0.094, 0.974, 0.08600000000000001, 192.0, 0.0, 0.0, 0.0, 0.0, 0.0, 0.0, 0.0, 0.0, 0.0, 1.698958543915266E9, 0.0, 2023-11-02 16:55:43.915
95.0, -187500.02235174447, 187500.0, 20729.700711929883, 19966.52274924788, 187500.0, 187500.0, -187500.02235174447, 34295.04147708911, -0.094, 0.974, 0.08600000000000001, 192.0, 0.0, 0.0, 0.0, 0.0, 0.0, 0.0, 0.0, 0.0, 0.0, 1.6989585439152763E9, 0.0, 2023-11-02 16:55:43.915
96.0, -187500.02235174447, 187500.0, 20731.600610208585, 19964.108760846706, 187500.0, 187500.0, -187500.02235174447, 34296.96372711226, -0.094, 0.974, 0.08600000000000001, 192.0, 0.0, 0.0, 0.0, 0.0, 0.0, 0.0, 0.0, 0.0, 0.0, 1.6989585439152875E9, 0.0, 2023-11-02 16:55:43.915
97.0, -187500.02235174447, 187500.0, 20728.38195900702, 19967.99796438193, 187500.0, 187500.0, -187500.02235174447, 34295.13088406693, -0.094, 0.974, 0.08600000000000001, 192.0, 0.0, 0.0, 0.0, 0.0, 0.0, 0.0, 0.0, 0.0, 0.0, 1.6989585439152977E9, 0.0, 2023-11-02 16:55:43.915
98.0, -187500.02235174447, 187500.0, 20725.878563628026, 19962.968821879487, 187500.0, 187500.0, -187500.02235174447, 34292.64984043239, -0.094, 0.974, 0.08600000000000001, 192.0, 0.0, 0.0, 0.0, 0.0, 0.0, 0.0, 0.0, 0.0, 0.0, 1.6989585439153082E9, 0.0, 2023-11-02 16:55:43.915
99.0, -187500.02235174447, 187500.0, 20728.20314505138, 19956.956202621008, 187500.0, 187500.0, -187500.02235174447, 34294.34857301099, -0.096, 0.976, 0.08600000000000001, 192.0, 253.0, 0.0, 30.0, 128.0, 2.0, 176.0, 0.0, 0.0, 0.0, 1.6989585439153185E9, 0.0, 2023-11-02 16:55:43.915
100.0, -187500.02235174447, 187500.0, 20728.71723517385, 19952.172929307573, 187500.0, 187500.0, -187500.02235174447, 34295.153235811384, -0.096, 0.976, 0.08600000000000001, 192.0, 0.0, 0.0, 0.0, 0.0, 0.0, 0.0, 0.0, 0.0, 0.0, 1.698958543915341E9, 0.0, 2023-11-02 16:55:43.915
101.0, -187500.02235174447, 187500.0, 20730.639485197007, 19960.398371267125, 187500.0, 187500.0, -187500.02235174447, 34298.01425910166, -0.096, 0.976, 0.08600000000000001, 192.0, 0.0, 0.0, 0.0, 0.0, 0.0, 0.0, 0.0, 0.0, 0.0, 1.6989585439153516E9, 0.0, 2023-11-02 16:55:43.915
102.0, -187500.02235174447, 187500.0, 20730.30420903018, 19967.841502170744, 187500.0, 187500.0, -187500.02235174447, 34296.24847128969, -0.096, 0.976, 0.08600000000000001, 192.0, 0.0, 0.0, 0.0, 0.0, 0.0, 0.0, 0.0, 0.0, 0.0, 1.6989585439153628E9, 0.0, 2023-11-02 16:55:43.915
103.0, -187500.02235174447, 187500.0, 20731.511203230766, 19972.222444083982, 187500.0, 187500.0, -187500.02235174447, 34293.38744799941, -0.096, 0.976, 0.08600000000000001, 192.0, 0.0, 0.0, 0.0, 0.0, 0.0, 0.0, 0.0, 0.0, 0.0, 1.6989585439153738E9, 0.0, 2023-11-02 16:55:43.915
104.0, -187500.02235174447, 187500.0, 20731.846479397595, 19965.09223760274, 187500.0, 187500.0, -187500.02235174447, 34294.70620092228, -0.096, 0.976, 0.08600000000000001, 192.0, 0.0, 0.0, 0.0, 0.0, 0.0, 0.0, 0.0, 0.0, 0.0, 1.6989585439153843E9, 0.0, 2023-11-02 16:55:43.915
105.0, -187500.02235174447, 187500.0, 20734.126357332036, 19965.762789936398, 187500.0, 187500.0, -187500.02235174447, 34298.84127364651, -0.096, 0.976, 0.08600000000000001, 192.0, 0.0, 0.0, 0.0, 0.0, 0.0, 0.0, 0.0, 0.0, 0.0, 1.6989585439153955E9, 0.0, 2023-11-02 16:55:43.915
106.0, -187500.02235174447, 187500.0, 20739.937810890417, 19976.446923786036, 187500.0, 187500.0, -187500.02235174447, 34305.367983027456, -0.096, 0.976, 0.08600000000000001, 192.0, 0.0, 0.0, 0.0, 0.0, 0.0, 0.0, 0.0, 0.0, 0.0, 1.698958543915406E9, 0.0, 2023-11-02 16:55:43.915
107.0, -187500.02235174447, 187500.0, 20743.4470347699, 19988.09218264725, 187500.0, 187500.0, -187500.02235174447, 34310.687698207825, -0.096, 0.976, 0.08600000000000001, 192.0, 0.0, 0.0, 0.0, 0.0, 0.0, 0.0, 0.0, 0.0, 0.0, 1.6989585439154174E9, 0.0, 2023-11-02 16:55:43.915
108.0, -187500.02235174447, 187500.0, 20743.20116558089, 19991.19907512654, 187500.0, 187500.0, -187500.02235174447, 34311.33589879703, -0.096, 0.976, 0.08600000000000001, 192.0, 0.0, 0.0, 0.0, 0.0, 0.0, 0.0, 0.0, 0.0, 0.0, 1.6989585439154284E9, 0.0, 2023-11-02 16:55:43.915
109.0, -187500.02235174447, 187500.0, 20740.831880668626, 19987.6674995026, 187500.0, 187500.0, -187500.02235174447, 34309.905387151884, -0.10200000000000001, 0.968, 0.082, 192.0, 252.0, 208.0, 30.0, 64.0, 2.0, 144.0, 0.0, 0.0, 0.0, 1.698958543915443E9, 0.0, 2023-11-02 16:55:43.915
110.0, -187500.02235174447, 187500.0, 20743.983476636826, 19995.647072273146, 187500.0, 187500.0, -187500.02235174447, 34311.73823019722, -0.10200000000000001, 0.968, 0.082, 192.0, 0.0, 0.0, 0.0, 0.0, 0.0, 0.0, 0.0, 0.0, 0.0, 1.6989585439154546E9, 0.0, 2023-11-02 16:55:43.915
111.0, -187500.02235174447, 187500.0, 20744.34110454811, 19998.172819396594, 187500.0, 187500.0, -187500.02235174447, 34312.27467206415, -0.10200000000000001, 0.968, 0.082, 192.0, 0.0, 0.0, 0.0, 0.0, 0.0, 0.0, 0.0, 0.0, 0.0, 1.698958543915466E9, 0.0, 2023-11-02 16:55:43.915
112.0, -187500.02235174447, 187500.0, 20749.929040661937, 19991.15437163763, 187500.0, 187500.0, -187500.02235174447, 34317.952015155795, -0.10200000000000001, 0.968, 0.082, 192.0, 0.0, 0.0, 0.0, 0.0, 0.0, 0.0, 0.0, 0.0, 0.0, 1.6989585439154773E9, 0.0, 2023-11-02 16:55:43.915
113.0, -187500.02235174447, 187500.0, 20741.77065393575, 19994.48478156147, 187500.0, 187500.0, -187500.02235174447, 34308.4972272512, -0.10200000000000001, 0.968, 0.082, 192.0, 0.0, 0.0, 0.0, 0.0, 0.0, 0.0, 0.0, 0.0, 0.0, 1.698958543915488E9, 0.0, 2023-11-02 16:55:43.915
114.0, -187500.02235174447, 187500.0, 20728.359607262566, 19984.7170692345, 187500.0, 187500.0, -187500.02235174447, 34295.68967767831, -0.10200000000000001, 0.968, 0.082, 192.0, 0.0, 0.0, 0.0, 0.0, 0.0, 0.0, 0.0, 0.0, 0.0, 1.6989585439154992E9, 0.0, 2023-11-02 16:55:43.915
115.0, -187500.02235174447, 187500.0, 20730.550078219185, 19985.61113901271, 187500.0, 187500.0, -187500.02235174447, 34297.053134090085, -0.10200000000000001, 0.968, 0.082, 192.0, 0.0, 0.0, 0.0, 0.0, 0.0, 0.0, 0.0, 0.0, 0.0, 1.6989585439155293E9, 0.0, 2023-11-02 16:55:43.915
116.0, -187500.02235174447, 187500.0, 20729.968932863347, 19993.7695257389, 187500.0, 187500.0, -187500.02235174447, 34296.31552652306, -0.10200000000000001, 0.968, 0.082, 192.0, 0.0, 0.0, 0.0, 0.0, 0.0, 0.0, 0.0, 0.0, 0.0, 1.6989585439155402E9, 0.0, 2023-11-02 16:55:43.915
117.0, -187500.02235174447, 187500.0, 20729.63365669652, 19988.941548936553, 187500.0, 187500.0, -187500.02235174447, 34295.868491633955, -0.10200000000000001, 0.968, 0.082, 192.0, 0.0, 0.0, 0.0, 0.0, 0.0, 0.0, 0.0, 0.0, 0.0, 1.6989585439155517E9, 0.0, 2023-11-02 16:55:43.915
118.0, -187500.02235174447, 187500.0, 20734.81926141015, 19997.39050834066, 187500.0, 187500.0, -187500.02235174447, 34300.182378313824, -0.10200000000000001, 0.968, 0.082, 192.0, 0.0, 0.0, 0.0, 0.0, 0.0, 0.0, 0.0, 0.0, 0.0, 1.6989585439155629E9, 0.0, 2023-11-02 16:55:43.915
119.0, -187500.02235174447, 187500.0, 20732.651142197985, 19999.692738019556, 187500.0, 187500.0, -187500.02235174447, 34297.477817234736, -0.1, 0.968, 0.082, 192.0, 252.0, 224.0, 30.0, 64.0, 2.0, 144.0, 0.0, 0.0, 0.0, 1.6989585439155748E9, 0.0, 2023-11-02 16:55:43.915
120.0, -187500.02235174447, 187500.0, 20733.254639298277, 19990.8190954708, 187500.0, 187500.0, -187500.02235174447, 34297.544872468105, -0.1, 0.968, 0.082, 192.0, 0.0, 0.0, 0.0, 0.0, 0.0, 0.0, 0.0, 0.0, 0.0, 1.6989585439155872E9, 0.0, 2023-11-02 16:55:43.915
121.0, -187500.02235174447, 187500.0, 20745.90572665998, 19988.360403580715, 187500.0, 187500.0, -187500.02235174447, 34307.78197142863, -0.1, 0.968, 0.082, 192.0, 0.0, 0.0, 0.0, 0.0, 0.0, 0.0, 0.0, 0.0, 0.0, 1.6989585439155998E9, 0.0, 2023-11-02 16:55:43.915
122.0, -187500.02235174447, 187500.0, 20741.703598702385, 19988.9191971921, 187500.0, 187500.0, -187500.02235174447, 34302.775180670644, -0.1, 0.968, 0.082, 192.0, 0.0, 0.0, 0.0, 0.0, 0.0, 0.0, 0.0, 0.0, 0.0, 1.6989585439156113E9, 0.0, 2023-11-02 16:55:43.915
123.0, -187500.02235174447, 187500.0, 20738.015560867258, 19991.981386182473, 187500.0, 187500.0, -187500.02235174447, 34298.61775620196, -0.1, 0.968, 0.082, 192.0, 0.0, 0.0, 0.0, 0.0, 0.0, 0.0, 0.0, 0.0, 0.0, 1.698958543915624E9, 0.0, 2023-11-02 16:55:43.915
124.0, -187500.02235174447, 187500.0, 20743.156462091978, 20003.380775854683, 187500.0, 187500.0, -187500.02235174447, 34303.60219521549, -0.1, 0.968, 0.082, 192.0, 0.0, 0.0, 0.0, 0.0, 0.0, 0.0, 0.0, 0.0, 0.0, 1.6989585439156363E9, 0.0, 2023-11-02 16:55:43.915
125.0, -187500.02235174447, 187500.0, 20748.029142383235, 20006.510020078425, 187500.0, 187500.0, -187500.02235174447, 34306.08323885003, -0.1, 0.968, 0.082, 192.0, 0.0, 0.0, 0.0, 0.0, 0.0, 0.0, 0.0, 0.0, 0.0, 1.6989585439156482E9, 0.0, 2023-11-02 16:55:43.915
126.0, -187500.02235174447, 187500.0, 20743.4470347699, 20007.29233113436, 187500.0, 187500.0, -187500.02235174447, 34300.540006225114, -0.1, 0.968, 0.082, 192.0, 0.0, 0.0, 0.0, 0.0, 0.0, 0.0, 0.0, 0.0, 0.0, 1.69895854391566E9, 0.0, 2023-11-02 16:55:43.915
127.0, -187500.02235174447, 187500.0, 20738.261430056267, 20011.941493981063, 187500.0, 187500.0, -187500.02235174447, 34295.26499453366, -0.1, 0.968, 0.082, 192.0, 0.0, 0.0, 0.0, 0.0, 0.0, 0.0, 0.0, 0.0, 0.0, 1.6989585439156723E9, 0.0, 2023-11-02 16:55:43.915
128.0, -187500.02235174447, 187500.0, 20740.76482543526, 20013.48376434848, 187500.0, 187500.0, -187500.02235174447, 34297.07548583454, -0.1, 0.968, 0.082, 192.0, 0.0, 0.0, 0.0, 0.0, 0.0, 0.0, 0.0, 0.0, 0.0, 1.6989585439156857E9, 0.0, 2023-11-02 16:55:43.915
129.0, -187500.02235174447, 187500.0, 20742.06122661367, 20010.645092802657, 187500.0, 187500.0, -187500.02235174447, 34297.544872468105, -0.10400000000000001, 0.968, 0.08, 192.0, 252.0, 192.0, 30.0, 64.0, 2.0, 128.0, 0.0, 0.0, 0.0, 1.69895854391579E9, 0.0, 2023-11-02 16:55:43.915
130.0, -187500.02235174447, 187500.0, 20739.647238212496, 20013.52846783739, 187500.0, 187500.0, -187500.02235174447, 34293.38744799941, -0.10400000000000001, 0.968, 0.08, 192.0, 0.0, 0.0, 0.0, 0.0, 0.0, 0.0, 0.0, 0.0, 0.0, 1.698958543915918E9, 0.0, 2023-11-02 16:55:43.915
131.0, -187500.02235174447, 187500.0, 20741.167156835458, 20018.356444639736, 187500.0, 187500.0, -187500.02235174447, 34294.97442185574, -0.10400000000000001, 0.968, 0.08, 192.0, 0.0, 0.0, 0.0, 0.0, 0.0, 0.0, 0.0, 0.0, 0.0, 1.6989585439159327E9, 0.0, 2023-11-02 16:55:43.915
132.0, -187500.02235174447, 187500.0, 20738.10496784508, 20021.01630222992, 187500.0, 187500.0, -187500.02235174447, 34291.75577065418, -0.10400000000000001, 0.968, 0.08, 192.0, 0.0, 0.0, 0.0, 0.0, 0.0, 0.0, 0.0, 0.0, 0.0, 1.6989585439159436E9, 0.0, 2023-11-02 16:55:43.915
133.0, -187500.02235174447, 187500.0, 20739.71429344586, 20018.132927195184, 187500.0, 187500.0, -187500.02235174447, 34291.21932878725, -0.10400000000000001, 0.968, 0.08, 192.0, 0.0, 0.0, 0.0, 0.0, 0.0, 0.0, 0.0, 0.0, 0.0, 1.698958543915959E9, 0.0, 2023-11-02 16:55:43.915
134.0, -187500.02235174447, 187500.0, 20736.026255610737, 20012.96967422601, 187500.0, 187500.0, -187500.02235174447, 34285.854910117974, -0.10400000000000001, 0.968, 0.08, 192.0, 0.0, 0.0, 0.0, 0.0, 0.0, 0.0, 0.0, 0.0, 0.0, 1.6989585439159703E9, 0.0, 2023-11-02 16:55:43.915
135.0, -187500.02235174447, 187500.0, 20735.981552121826, 20009.751023024444, 187500.0, 187500.0, -187500.02235174447, 34285.40787522887, -0.10400000000000001, 0.968, 0.08, 192.0, 0.0, 0.0, 0.0, 0.0, 0.0, 0.0, 0.0, 0.0, 0.0, 1.698958543915984E9, 0.0, 2023-11-02 16:55:43.915
136.0, -187500.02235174447, 187500.0, 20731.2429822973, 20014.981331226987, 187500.0, 187500.0, -187500.02235174447, 34281.45161646028, -0.10400000000000001, 0.968, 0.08, 192.0, 0.0, 0.0, 0.0, 0.0, 0.0, 0.0, 0.0, 0.0, 0.0, 1.6989585439159951E9, 0.0, 2023-11-02 16:55:43.915
137.0, -187500.02235174447, 187500.0, 20722.883429871017, 20008.544028823857, 187500.0, 187500.0, -187500.02235174447, 34274.07554079003, -0.10400000000000001, 0.968, 0.08, 192.0, 0.0, 0.0, 0.0, 0.0, 0.0, 0.0, 0.0, 0.0, 0.0, 1.6989585439160073E9, 0.0, 2023-11-02 16:55:43.916
138.0, -187500.02235174447, 187500.0, 20724.425700238433, 20002.218485143007, 187500.0, 187500.0, -187500.02235174447, 34275.97543906873, -0.10400000000000001, 0.968, 0.08, 192.0, 0.0, 0.0, 0.0, 0.0, 0.0, 0.0, 0.0, 0.0, 0.0, 1.6989585439160197E9, 0.0, 2023-11-02 16:55:43.916
139.0, -187500.02235174447, 187500.0, 20729.38778750751, 20016.903581250142, 187500.0, 187500.0, -187500.02235174447, 34280.84811935999, -0.10400000000000001, 0.976, 0.074, 192.0, 252.0, 192.0, 30.0, 128.0, 2.0, 80.0, 0.0, 0.0, 0.0, 1.698958543916034E9, 0.0, 2023-11-02 16:55:43.916
140.0, -187500.02235174447, 187500.0, 20727.264371784255, 20030.359331412237, 187500.0, 187500.0, -187500.02235174447, 34277.49535769169, -0.10400000000000001, 0.976, 0.074, 192.0, 0.0, 0.0, 0.0, 0.0, 0.0, 0.0, 0.0, 0.0, 0.0, 1.6989585439160497E9, 0.0, 2023-11-02 16:55:43.916
141.0, -187500.02235174447, 187500.0, 20730.52772647473, 20030.24757268996, 187500.0, 187500.0, -187500.02235174447, 34279.03762805911, -0.10400000000000001, 0.976, 0.074, 192.0, 0.0, 0.0, 0.0, 0.0, 0.0, 0.0, 0.0, 0.0, 0.0, 1.6989585439160624E9, 0.0, 2023-11-02 16:55:43.916
142.0, -187500.02235174447, 187500.0, 20735.981552121826, 20032.706264580043, 187500.0, 187500.0, -187500.02235174447, 34284.98319208422, -0.10400000000000001, 0.976, 0.074, 192.0, 0.0, 0.0, 0.0, 0.0, 0.0, 0.0, 0.0, 0.0, 0.0, 1.6989585439160736E9, 0.0, 2023-11-02 16:55:43.916
143.0, -187500.02235174447, 187500.0, 20732.78525266472, 20036.01432275943, 187500.0, 187500.0, -187500.02235174447, 34285.18435778432, -0.10400000000000001, 0.976, 0.074, 192.0, 0.0, 0.0, 0.0, 0.0, 0.0, 0.0, 0.0, 0.0, 0.0, 1.6989585439160879E9, 0.0, 2023-11-02 16:55:43.916
144.0, -187500.02235174447, 187500.0, 20731.57825846413, 20039.769415827923, 187500.0, 187500.0, -187500.02235174447, 34284.06677056155, -0.10400000000000001, 0.976, 0.074, 192.0, 0.0, 0.0, 0.0, 0.0, 0.0, 0.0, 0.0, 0.0, 0.0, 1.6989585439161007E9, 0.0, 2023-11-02 16:55:43.916
145.0, -187500.02235174447, 187500.0, 20733.56756372065, 20038.316552438326, 187500.0, 187500.0, -187500.02235174447, 34286.145482795895, -0.10400000000000001, 0.976, 0.074, 192.0, 0.0, 0.0, 0.0, 0.0, 0.0, 0.0, 0.0, 0.0, 0.0, 1.6989585439163876E9, 0.0, 2023-11-02 16:55:43.916
146.0, -187500.02235174447, 187500.0, 20742.664723713962, 20034.181479714094, 187500.0, 187500.0, -187500.02235174447, 34294.75090441119, -0.10400000000000001, 0.976, 0.074, 192.0, 0.0, 0.0, 0.0, 0.0, 0.0, 0.0, 0.0, 0.0, 0.0, 1.6989585439164205E9, 0.0, 2023-11-02 16:55:43.916
147.0, -187500.02235174447, 187500.0, 20734.57339222114, 20038.316552438326, 187500.0, 187500.0, -187500.02235174447, 34287.464235718755, -0.10400000000000001, 0.976, 0.074, 192.0, 0.0, 0.0, 0.0, 0.0, 0.0, 0.0, 0.0, 0.0, 0.0, 1.6989585439164348E9, 0.0, 2023-11-02 16:55:43.916
148.0, -187500.02235174447, 187500.0, 20728.940752618404, 20049.246555476973, 187500.0, 187500.0, -187500.02235174447, 34281.49631994919, -0.10400000000000001, 0.976, 0.074, 192.0, 0.0, 0.0, 0.0, 0.0, 0.0, 0.0, 0.0, 0.0, 0.0, 1.698958543916448E9, 0.0, 2023-11-02 16:55:43.916
149.0, -187500.02235174447, 187500.0, 20731.08652008611, 20057.449645692068, 187500.0, 187500.0, -187500.02235174447, 34281.89865134939, -0.10400000000000001, 0.978, 0.076, 192.0, 252.0, 192.0, 30.0, 144.0, 2.0, 96.0, 0.0, 0.0, 0.0, 1.6989585439164631E9, 0.0, 2023-11-02 16:55:43.916
150.0, -187500.02235174447, 187500.0, 20731.041816597204, 20049.760645599443, 187500.0, 187500.0, -187500.02235174447, 34281.29515424909, -0.10400000000000001, 0.978, 0.076, 192.0, 0.0, 0.0, 0.0, 0.0, 0.0, 0.0, 0.0, 0.0, 0.0, 1.6989585439164789E9, 0.0, 2023-11-02 16:55:43.916
151.0, -187500.02235174447, 187500.0, 20733.500508487286, 20049.470072921526, 187500.0, 187500.0, -187500.02235174447, 34285.43022697332, -0.10400000000000001, 0.978, 0.076, 192.0, 0.0, 0.0, 0.0, 0.0, 0.0, 0.0, 0.0, 0.0, 0.0, 1.698958543916499E9, 0.0, 2023-11-02 16:55:43.916
152.0, -187500.02235174447, 187500.0, 20728.694883429394, 20058.053142792363, 187500.0, 187500.0, -187500.02235174447, 34282.41274147186, -0.10400000000000001, 0.978, 0.076, 192.0, 0.0, 0.0, 0.0, 0.0, 0.0, 0.0, 0.0, 0.0, 0.0, 1.6989585439165113E9, 0.0, 2023-11-02 16:55:43.916
153.0, -187500.02235174447, 187500.0, 20730.371264263544, 20064.87042485123, 187500.0, 187500.0, -187500.02235174447, 34283.843253117, -0.10400000000000001, 0.978, 0.076, 192.0, 0.0, 0.0, 0.0, 0.0, 0.0, 0.0, 0.0, 0.0, 0.0, 1.6989585439165251E9, 0.0, 2023-11-02 16:55:43.916
154.0, -187500.02235174447, 187500.0, 20731.53355497522, 20063.752837628464, 187500.0, 187500.0, -187500.02235174447, 34286.637221173914, -0.10400000000000001, 0.978, 0.076, 192.0, 0.0, 0.0, 0.0, 0.0, 0.0, 0.0, 0.0, 0.0, 0.0, 1.6989585439165385E9, 0.0, 2023-11-02 16:55:43.916
155.0, -187500.02235174447, 187500.0, 20727.219668295344, 20060.757703871455, 187500.0, 187500.0, -187500.02235174447, 34281.45161646028, -0.10400000000000001, 0.978, 0.076, 192.0, 0.0, 0.0, 0.0, 0.0, 0.0, 0.0, 0.0, 0.0, 0.0, 1.698958543916551E9, 0.0, 2023-11-02 16:55:43.916
156.0, -187500.02235174447, 187500.0, 20724.179831049423, 20054.49921542397, 187500.0, 187500.0, -187500.02235174447, 34276.26601174665, -0.10400000000000001, 0.978, 0.076, 192.0, 0.0, 0.0, 0.0, 0.0, 0.0, 0.0, 0.0, 0.0, 0.0, 1.698958543916565E9, 0.0, 2023-11-02 16:55:43.916
157.0, -187500.02235174447, 187500.0, 20728.761938662763, 20057.427293947614, 187500.0, 187500.0, -187500.02235174447, 34282.05511356057, -0.10400000000000001, 0.978, 0.076, 192.0, 0.0, 0.0, 0.0, 0.0, 0.0, 0.0, 0.0, 0.0, 0.0, 1.6989585439165783E9, 0.0, 2023-11-02 16:55:43.916
158.0, -187500.02235174447, 187500.0, 20733.612267209563, 20063.372857972725, 187500.0, 187500.0, -187500.02235174447, 34288.15713979687, -0.10400000000000001, 0.978, 0.076, 192.0, 0.0, 0.0, 0.0, 0.0, 0.0, 0.0, 0.0, 0.0, 0.0, 1.6989585439165907E9, 0.0, 2023-11-02 16:55:43.916
159.0, -187500.02235174447, 187500.0, 20728.538421218207, 20061.62942190521, 187500.0, 187500.0, -187500.02235174447, 34283.06094206106, -0.098, 0.976, 0.08600000000000001, 192.0, 252.0, 240.0, 30.0, 128.0, 2.0, 176.0, 0.0, 0.0, 0.0, 1.6989585439166012E9, 0.0, 2023-11-02 16:55:43.916
160.0, -187500.02235174447, 187500.0, 20732.986418364813, 20060.26596549344, 187500.0, 187500.0, -187500.02235174447, 34285.47493046224, -0.098, 0.976, 0.08600000000000001, 192.0, 0.0, 0.0, 0.0, 0.0, 0.0, 0.0, 0.0, 0.0, 0.0, 1.698958543916666E9, 0.0, 2023-11-02 16:55:43.916
161.0, -187500.02235174447, 187500.0, 20728.471365984842, 20058.656639892655, 187500.0, 187500.0, -187500.02235174447, 34279.10468329247, -0.098, 0.976, 0.08600000000000001, 192.0, 0.0, 0.0, 0.0, 0.0, 0.0, 0.0, 0.0, 0.0, 0.0, 1.6989585439166777E9, 0.0, 2023-11-02 16:55:43.916
162.0, -187500.02235174447, 187500.0, 20727.756110162274, 20049.760645599443, 187500.0, 187500.0, -187500.02235174447, 34277.31654373605, -0.098, 0.976, 0.08600000000000001, 192.0, 0.0, 0.0, 0.0, 0.0, 0.0, 0.0, 0.0, 0.0, 0.0, 1.6989585439167056E9, 0.0, 2023-11-02 16:55:43.916
163.0, -187500.02235174447, 187500.0, 20729.23132529632, 20050.431197933103, 187500.0, 187500.0, -187500.02235174447, 34277.42830245833, -0.098, 0.976, 0.08600000000000001, 192.0, 0.0, 0.0, 0.0, 0.0, 0.0, 0.0, 0.0, 0.0, 0.0, 1.6989585439167166E9, 0.0, 2023-11-02 16:55:43.916
164.0, -187500.02235174447, 187500.0, 20723.553982204674, 20045.469110664024, 187500.0, 187500.0, -187500.02235174447, 34271.54979366658, -0.098, 0.976, 0.08600000000000001, 192.0, 0.0, 0.0, 0.0, 0.0, 0.0, 0.0, 0.0, 0.0, 0.0, 1.6989585439167268E9, 0.0, 2023-11-02 16:55:43.916
165.0, -187500.02235174447, 187500.0, 20720.514144958754, 20043.122177496218, 187500.0, 187500.0, -187500.02235174447, 34269.82870934352, -0.098, 0.976, 0.08600000000000001, 192.0, 0.0, 0.0, 0.0, 0.0, 0.0, 0.0, 0.0, 0.0, 0.0, 1.698958543916737E9, 0.0, 2023-11-02 16:55:43.916
166.0, -187500.02235174447, 187500.0, 20728.24784854029, 20049.514776410437, 187500.0, 187500.0, -187500.02235174447, 34278.367075725444, -0.098, 0.976, 0.08600000000000001, 192.0, 0.0, 0.0, 0.0, 0.0, 0.0, 0.0, 0.0, 0.0, 0.0, 1.6989585439167469E9, 0.0, 2023-11-02 16:55:43.916
167.0, -187500.02235174447, 187500.0, 20732.002941608782, 20047.905450809652, 187500.0, 187500.0, -187500.02235174447, 34280.17756702633, -0.098, 0.976, 0.08600000000000001, 192.0, 0.0, 0.0, 0.0, 0.0, 0.0, 0.0, 0.0, 0.0, 0.0, 1.6989585439167569E9, 0.0, 2023-11-02 16:55:43.916
168.0, -187500.02235174447, 187500.0, 20727.62199969554, 20044.552689141357, 187500.0, 187500.0, -187500.02235174447, 34273.24852624518, -0.098, 0.976, 0.08600000000000001, 192.0, 0.0, 0.0, 0.0, 0.0, 0.0, 0.0, 0.0, 0.0, 0.0, 1.698958543916767E9, 0.0, 2023-11-02 16:55:43.916
169.0, -187500.02235174447, 187500.0, 20734.729854432328, 20047.413712431637, 187500.0, 187500.0, -187500.02235174447, 34277.204785013775, -0.094, 0.974, 0.096, 192.0, 253.0, 16.0, 30.0, 112.0, 3.0, 0.0, 0.0, 0.0, 0.0, 1.6989585439167767E9, 0.0, 2023-11-02 16:55:43.916
170.0, -187500.02235174447, 187500.0, 20733.925191631937, 20052.554613656357, 187500.0, 187500.0, -187500.02235174447, 34276.86950884694, -0.094, 0.974, 0.096, 192.0, 0.0, 0.0, 0.0, 0.0, 0.0, 0.0, 0.0, 0.0, 0.0, 1.6989585439167895E9, 0.0, 2023-11-02 16:55:43.916
171.0, -187500.02235174447, 187500.0, 20731.08652008611, 20043.6809711076, 187500.0, 187500.0, -187500.02235174447, 34273.11441577845, -0.094, 0.974, 0.096, 192.0, 0.0, 0.0, 0.0, 0.0, 0.0, 0.0, 0.0, 0.0, 0.0, 1.6989585439168003E9, 0.0, 2023-11-02 16:55:43.916
172.0, -187500.02235174447, 187500.0, 20731.71236893086, 20039.545898383367, 187500.0, 187500.0, -187500.02235174447, 34272.086235533505, -0.094, 0.974, 0.096, 192.0, 0.0, 0.0, 0.0, 0.0, 0.0, 0.0, 0.0, 0.0, 0.0, 1.69895854391681E9, 0.0, 2023-11-02 16:55:43.916
173.0, -187500.02235174447, 187500.0, 20726.10208107258, 20045.849090319763, 187500.0, 187500.0, -187500.02235174447, 34267.92881106482, -0.094, 0.974, 0.096, 192.0, 0.0, 0.0, 0.0, 0.0, 0.0, 0.0, 0.0, 0.0, 0.0, 1.6989585439168217E9, 0.0, 2023-11-02 16:55:43.916
174.0, -187500.02235174447, 187500.0, 20722.838726382106, 20047.033732775897, 187500.0, 187500.0, -187500.02235174447, 34264.57604939652, -0.094, 0.974, 0.096, 192.0, 0.0, 0.0, 0.0, 0.0, 0.0, 0.0, 0.0, 0.0, 0.0, 1.6989585439168317E9, 0.0, 2023-11-02 16:55:43.916
175.0, -187500.02235174447, 187500.0, 20723.621037438043, 20041.088168750783, 187500.0, 187500.0, -187500.02235174447, 34265.20189824127, -0.094, 0.974, 0.096, 192.0, 0.0, 0.0, 0.0, 0.0, 0.0, 0.0, 0.0, 0.0, 0.0, 1.6989585439168415E9, 0.0, 2023-11-02 16:55:43.916
176.0, -187500.02235174447, 187500.0, 20715.976740834325, 20038.540069882878, 187500.0, 187500.0, -187500.02235174447, 34260.46332841674, -0.094, 0.974, 0.096, 192.0, 0.0, 0.0, 0.0, 0.0, 0.0, 0.0, 0.0, 0.0, 0.0, 1.6989585439169028E9, 0.0, 2023-11-02 16:55:43.916
177.0, -187500.02235174447, 187500.0, 20711.86401985455, 20035.232011703494, 187500.0, 187500.0, -187500.02235174447, 34254.473060902725, -0.094, 0.974, 0.096, 192.0, 0.0, 0.0, 0.0, 0.0, 0.0, 0.0, 0.0, 0.0, 0.0, 1.6989585439169135E9, 0.0, 2023-11-02 16:55:43.916
178.0, -187500.02235174447, 187500.0, 20711.685205898906, 20029.420558145113, 187500.0, 187500.0, -187500.02235174447, 34252.81903181303, -0.094, 0.974, 0.096, 192.0, 0.0, 0.0, 0.0, 0.0, 0.0, 0.0, 0.0, 0.0, 0.0, 1.698958543916924E9, 0.0, 2023-11-02 16:55:43.916
179.0, -187500.02235174447, 187500.0, 20713.115717544046, 20028.705302322545, 187500.0, 187500.0, -187500.02235174447, 34255.322427192026, -0.1, 0.974, 0.094, 192.0, 252.0, 224.0, 30.0, 112.0, 2.0, 240.0, 0.0, 0.0, 0.0, 1.6989585439169338E9, 0.0, 2023-11-02 16:55:43.916
180.0, -187500.02235174447, 187500.0, 20712.176944276925, 20028.638247089177, 187500.0, 187500.0, -187500.02235174447, 34254.406005669356, -0.1, 0.974, 0.094, 192.0, 0.0, 0.0, 0.0, 0.0, 0.0, 0.0, 0.0, 0.0, 0.0, 1.6989585439169445E9, 0.0, 2023-11-02 16:55:43.916
181.0, -187500.02235174447, 187500.0, 20711.86401985455, 20033.66738959162, 187500.0, 187500.0, -187500.02235174447, 34253.62369461342, -0.1, 0.974, 0.094, 192.0, 0.0, 0.0, 0.0, 0.0, 0.0, 0.0, 0.0, 0.0, 0.0, 1.6989585439169548E9, 0.0, 2023-11-02 16:55:43.916
182.0, -187500.02235174447, 187500.0, 20709.96412157585, 20031.163994212628, 187500.0, 187500.0, -187500.02235174447, 34252.32729343502, -0.1, 0.974, 0.094, 192.0, 0.0, 0.0, 0.0, 0.0, 0.0, 0.0, 0.0, 0.0, 0.0, 1.6989585439169648E9, 0.0, 2023-11-02 16:55:43.916
183.0, -187500.02235174447, 187500.0, 20710.120583787037, 20030.716959323523, 187500.0, 187500.0, -187500.02235174447, 34253.44488065778, -0.1, 0.974, 0.094, 192.0, 0.0, 0.0, 0.0, 0.0, 0.0, 0.0, 0.0, 0.0, 0.0, 1.6989585439169748E9, 0.0, 2023-11-02 16:55:43.916
184.0, -187500.02235174447, 187500.0, 20712.66868265494, 20033.957962269542, 187500.0, 187500.0, -187500.02235174447, 34255.70240684777, -0.1, 0.974, 0.094, 192.0, 0.0, 0.0, 0.0, 0.0, 0.0, 0.0, 0.0, 0.0, 0.0, 1.6989585439169843E9, 0.0, 2023-11-02 16:55:43.916
185.0, -187500.02235174447, 187500.0, 20709.58414192011, 20038.137738482685, 187500.0, 187500.0, -187500.02235174447, 34251.54498237908, -0.1, 0.974, 0.094, 192.0, 0.0, 0.0, 0.0, 0.0, 0.0, 0.0, 0.0, 0.0, 0.0, 1.6989585439169943E9, 0.0, 2023-11-02 16:55:43.916
186.0, -187500.02235174447, 187500.0, 20704.532647673208, 20033.175651213605, 187500.0, 187500.0, -187500.02235174447, 34246.091156731985, -0.1, 0.974, 0.094, 192.0, 0.0, 0.0, 0.0, 0.0, 0.0, 0.0, 0.0, 0.0, 0.0, 1.6989585439170048E9, 0.0, 2023-11-02 16:55:43.917
187.0, -187500.02235174447, 187500.0, 20703.19154300589, 20022.893848764164, 187500.0, 187500.0, -187500.02235174447, 34246.04645324307, -0.1, 0.974, 0.094, 192.0, 0.0, 0.0, 0.0, 0.0, 0.0, 0.0, 0.0, 0.0, 0.0, 1.6989585439170146E9, 0.0, 2023-11-02 16:55:43.917
188.0, -187500.02235174447, 187500.0, 20702.275121483224, 20018.356444639736, 187500.0, 187500.0, -187500.02235174447, 34246.13586022089, -0.1, 0.974, 0.094, 192.0, 0.0, 0.0, 0.0, 0.0, 0.0, 0.0, 0.0, 0.0, 0.0, 1.6989585439170249E9, 0.0, 2023-11-02 16:55:43.917
189.0, -187500.02235174447, 187500.0, 20702.3868802055, 20019.33992139577, 187500.0, 187500.0, -187500.02235174447, 34246.292322432084, -0.098, 0.976, 0.092, 192.0, 252.0, 240.0, 30.0, 128.0, 2.0, 224.0, 0.0, 0.0, 0.0, 1.6989585439170363E9, 0.0, 2023-11-02 16:55:43.917
190.0, -187500.02235174447, 187500.0, 20699.637615637497, 20025.553706354345, 187500.0, 187500.0, -187500.02235174447, 34244.481831131205, -0.098, 0.976, 0.092, 192.0, 0.0, 0.0, 0.0, 0.0, 0.0, 0.0, 0.0, 0.0, 0.0, 1.6989585439170468E9, 0.0, 2023-11-02 16:55:43.917
191.0, -187500.02235174447, 187500.0, 20699.257635981758, 20022.424462130602, 187500.0, 187500.0, -187500.02235174447, 34242.91720901933, -0.098, 0.976, 0.092, 192.0, 0.0, 0.0, 0.0, 0.0, 0.0, 0.0, 0.0, 0.0, 0.0, 1.69895854391707E9, 0.0, 2023-11-02 16:55:43.917
192.0, -187500.02235174447, 187500.0, 20702.05160403867, 20026.045444732365, 187500.0, 187500.0, -187500.02235174447, 34245.19708695377, -0.098, 0.976, 0.092, 192.0, 0.0, 0.0, 0.0, 0.0, 0.0, 0.0, 0.0, 0.0, 0.0, 1.6989585439170809E9, 0.0, 2023-11-02 16:55:43.917
193.0, -187500.02235174447, 187500.0, 20707.013691307748, 20033.712093080532, 187500.0, 187500.0, -187500.02235174447, 34250.896781789874, -0.098, 0.976, 0.092, 192.0, 0.0, 0.0, 0.0, 0.0, 0.0, 0.0, 0.0, 0.0, 0.0, 1.6989585439170911E9, 0.0, 2023-11-02 16:55:43.917
194.0, -187500.02235174447, 187500.0, 20703.280949983713, 20033.30976168034, 187500.0, 187500.0, -187500.02235174447, 34246.381729409906, -0.098, 0.976, 0.092, 192.0, 0.0, 0.0, 0.0, 0.0, 0.0, 0.0, 0.0, 0.0, 0.0, 1.6989585439171035E9, 0.0, 2023-11-02 16:55:43.917
195.0, -187500.02235174447, 187500.0, 20697.558903403155, 20030.426386645602, 187500.0, 187500.0, -187500.02235174447, 34241.28553167409, -0.098, 0.976, 0.092, 192.0, 0.0, 0.0, 0.0, 0.0, 0.0, 0.0, 0.0, 0.0, 0.0, 1.6989585439171135E9, 0.0, 2023-11-02 16:55:43.917
196.0, -187500.02235174447, 187500.0, 20695.256673724256, 20022.066834219317, 187500.0, 187500.0, -187500.02235174447, 34239.76561305113, -0.098, 0.976, 0.092, 192.0, 0.0, 0.0, 0.0, 0.0, 0.0, 0.0, 0.0, 0.0, 0.0, 1.6989585439171233E9, 0.0, 2023-11-02 16:55:43.917
197.0, -187500.02235174447, 187500.0, 20692.10507775606, 20021.262171418926, 187500.0, 187500.0, -187500.02235174447, 34235.89876126037, -0.098, 0.976, 0.092, 192.0, 0.0, 0.0, 0.0, 0.0, 0.0, 0.0, 0.0, 0.0, 0.0, 1.698958543917133E9, 0.0, 2023-11-02 16:55:43.917
198.0, -187500.02235174447, 187500.0, 20692.66387136744, 20031.8792500352, 187500.0, 187500.0, -187500.02235174447, 34234.892932759874, -0.098, 0.976, 0.092, 192.0, 0.0, 0.0, 0.0, 0.0, 0.0, 0.0, 0.0, 0.0, 0.0, 1.6989585439171429E9, 0.0, 2023-11-02 16:55:43.917
199.0, -187500.02235174447, 187500.0, 20695.681356868907, 20040.887003050688, 187500.0, 187500.0, -187500.02235174447, 34238.3798048949, -0.098, 0.976, 0.096, 192.0, 252.0, 240.0, 30.0, 128.0, 3.0, 0.0, 0.0, 0.0, 0.0, 1.6989585439171524E9, 0.0, 2023-11-02 16:55:43.917
200.0, -187500.02235174447, 187500.0, 20697.42479293642, 20038.405959416148, 187500.0, 187500.0, -187500.02235174447, 34238.64802582837, -0.098, 0.976, 0.096, 192.0, 0.0, 0.0, 0.0, 0.0, 0.0, 0.0, 0.0, 0.0, 0.0, 1.698958543917163E9, 0.0, 2023-11-02 16:55:43.917
201.0, -187500.02235174447, 187500.0, 20693.312071956643, 20037.176613471107, 187500.0, 187500.0, -187500.02235174447, 34233.35066239246, -0.098, 0.976, 0.096, 192.0, 0.0, 0.0, 0.0, 0.0, 0.0, 0.0, 0.0, 0.0, 0.0, 1.698958543917173E9, 0.0, 2023-11-02 16:55:43.917
202.0, -187500.02235174447, 187500.0, 20687.70178409836, 20038.852994305253, 187500.0, 187500.0, -187500.02235174447, 34227.986243723186, -0.098, 0.976, 0.096, 192.0, 0.0, 0.0, 0.0, 0.0, 0.0, 0.0, 0.0, 0.0, 0.0, 1.6989585439171827E9, 0.0, 2023-11-02 16:55:43.917
203.0, -187500.02235174447, 187500.0, 20690.383993433, 20042.943363540577, 187500.0, 187500.0, -187500.02235174447, 34233.44006937028, -0.098, 0.976, 0.096, 192.0, 0.0, 0.0, 0.0, 0.0, 0.0, 0.0, 0.0, 0.0, 0.0, 1.6989585439171925E9, 0.0, 2023-11-02 16:55:43.917
204.0, -187500.02235174447, 187500.0, 20697.38008944751, 20047.592526387278, 187500.0, 187500.0, -187500.02235174447, 34240.34675840697, -0.098, 0.976, 0.096, 192.0, 0.0, 0.0, 0.0, 0.0, 0.0, 0.0, 0.0, 0.0, 0.0, 1.6989585439172027E9, 0.0, 2023-11-02 16:55:43.917
205.0, -187500.02235174447, 187500.0, 20698.721194114827, 20052.040523533884, 187500.0, 187500.0, -187500.02235174447, 34242.11254621894, -0.098, 0.976, 0.096, 192.0, 0.0, 0.0, 0.0, 0.0, 0.0, 0.0, 0.0, 0.0, 0.0, 1.6989585439172125E9, 0.0, 2023-11-02 16:55:43.917
206.0, -187500.02235174447, 187500.0, 20699.771726104227, 20059.57306141532, 187500.0, 187500.0, -187500.02235174447, 34244.414775897836, -0.098, 0.976, 0.096, 192.0, 0.0, 0.0, 0.0, 0.0, 0.0, 0.0, 0.0, 0.0, 0.0, 1.6989585439172313E9, 0.0, 2023-11-02 16:55:43.917
207.0, -187500.02235174447, 187500.0, 20701.425755193923, 20066.41269521865, 187500.0, 187500.0, -187500.02235174447, 34245.28649393159, -0.098, 0.976, 0.096, 192.0, 0.0, 0.0, 0.0, 0.0, 0.0, 0.0, 0.0, 0.0, 0.0, 1.6989585439172432E9, 0.0, 2023-11-02 16:55:43.917
208.0, -187500.02235174447, 187500.0, 20707.773650619227, 20066.323288240827, 187500.0, 187500.0, -187500.02235174447, 34250.51680213414, -0.098, 0.976, 0.096, 192.0, 0.0, 0.0, 0.0, 0.0, 0.0, 0.0, 0.0, 0.0, 0.0, 1.6989585439172542E9, 0.0, 2023-11-02 16:55:43.917
209.0, -187500.02235174447, 187500.0, 20705.24790349578, 20057.762570114442, 187500.0, 187500.0, -187500.02235174447, 34248.30397943306, -0.096, 0.978, 0.088, 192.0, 253.0, 0.0, 30.0, 144.0, 2.0, 192.0, 0.0, 0.0, 0.0, 1.698958543917264E9, 0.0, 2023-11-02 16:55:43.917
210.0, -187500.02235174447, 187500.0, 20695.61430163554, 20047.033732775897, 187500.0, 187500.0, -187500.02235174447, 34240.25735142915, -0.096, 0.978, 0.088, 192.0, 0.0, 0.0, 0.0, 0.0, 0.0, 0.0, 0.0, 0.0, 0.0, 1.6989585439172764E9, 0.0, 2023-11-02 16:55:43.917
211.0, -187500.02235174447, 187500.0, 20699.592912148586, 20053.15811075665, 187500.0, 187500.0, -187500.02235174447, 34243.74422356418, -0.096, 0.978, 0.088, 192.0, 0.0, 0.0, 0.0, 0.0, 0.0, 0.0, 0.0, 0.0, 0.0, 1.6989585439172866E9, 0.0, 2023-11-02 16:55:43.917
212.0, -187500.02235174447, 187500.0, 20697.916531314437, 20050.92293631112, 187500.0, 187500.0, -187500.02235174447, 34242.15724970785, -0.096, 0.978, 0.088, 192.0, 0.0, 0.0, 0.0, 0.0, 0.0, 0.0, 0.0, 0.0, 0.0, 1.698958543917297E9, 0.0, 2023-11-02 16:55:43.917
213.0, -187500.02235174447, 187500.0, 20703.90679882846, 20050.72177061102, 187500.0, 187500.0, -187500.02235174447, 34245.532363120605, -0.096, 0.978, 0.088, 192.0, 0.0, 0.0, 0.0, 0.0, 0.0, 0.0, 0.0, 0.0, 0.0, 1.6989585439173064E9, 0.0, 2023-11-02 16:55:43.917
214.0, -187500.02235174447, 187500.0, 20704.264426739745, 20047.30195370936, 187500.0, 187500.0, -187500.02235174447, 34245.510011376144, -0.096, 0.978, 0.088, 192.0, 0.0, 0.0, 0.0, 0.0, 0.0, 0.0, 0.0, 0.0, 0.0, 1.6989585439173164E9, 0.0, 2023-11-02 16:55:43.917
215.0, -187500.02235174447, 187500.0, 20702.364528461043, 20043.435101918592, 187500.0, 187500.0, -187500.02235174447, 34244.30301717556, -0.096, 0.978, 0.088, 192.0, 0.0, 0.0, 0.0, 0.0, 0.0, 0.0, 0.0, 0.0, 0.0, 1.698958543917328E9, 0.0, 2023-11-02 16:55:43.917
216.0, -187500.02235174447, 187500.0, 20706.343138974087, 20039.836471061288, 187500.0, 187500.0, -187500.02235174447, 34248.30397943306, -0.096, 0.978, 0.088, 192.0, 0.0, 0.0, 0.0, 0.0, 0.0, 0.0, 0.0, 0.0, 0.0, 1.6989585439173377E9, 0.0, 2023-11-02 16:55:43.917
217.0, -187500.02235174447, 187500.0, 20708.66772039744, 20036.550764626358, 187500.0, 187500.0, -187500.02235174447, 34251.4332236568, -0.096, 0.978, 0.088, 192.0, 0.0, 0.0, 0.0, 0.0, 0.0, 0.0, 0.0, 0.0, 0.0, 1.6989585439173472E9, 0.0, 2023-11-02 16:55:43.917
218.0, -187500.02235174447, 187500.0, 20708.53360993071, 20027.54301161087, 187500.0, 187500.0, -187500.02235174447, 34251.835555057, -0.096, 0.978, 0.088, 192.0, 0.0, 0.0, 0.0, 0.0, 0.0, 0.0, 0.0, 0.0, 0.0, 1.698958543917357E9, 0.0, 2023-11-02 16:55:43.917
219.0, -187500.02235174447, 187500.0, 20709.025348308725, 20023.38558714218, 187500.0, 187500.0, -187500.02235174447, 34252.304941690556, -0.096, 0.98, 0.084, 192.0, 253.0, 0.0, 30.0, 160.0, 2.0, 160.0, 0.0, 0.0, 0.0, 1.6989585439173667E9, 0.0, 2023-11-02 16:55:43.917
220.0, -187500.02235174447, 187500.0, 20707.013691307748, 20007.225275900993, 187500.0, 187500.0, -187500.02235174447, 34251.72379633472, -0.096, 0.98, 0.084, 192.0, 0.0, 0.0, 0.0, 0.0, 0.0, 0.0, 0.0, 0.0, 0.0, 1.6989585439173768E9, 0.0, 2023-11-02 16:55:43.917
221.0, -187500.02235174447, 187500.0, 20706.410194207456, 19996.630549029178, 187500.0, 187500.0, -187500.02235174447, 34253.578991124516, -0.096, 0.98, 0.084, 192.0, 0.0, 0.0, 0.0, 0.0, 0.0, 0.0, 0.0, 0.0, 0.0, 1.6989585439174013E9, 0.0, 2023-11-02 16:55:43.917
222.0, -187500.02235174447, 187500.0, 20703.459763939354, 19980.604348254725, 187500.0, 187500.0, -187500.02235174447, 34252.796680068575, -0.096, 0.98, 0.084, 192.0, 0.0, 0.0, 0.0, 0.0, 0.0, 0.0, 0.0, 0.0, 0.0, 1.69895854391742E9, 0.0, 2023-11-02 16:55:43.917
223.0, -187500.02235174447, 187500.0, 20704.890275584494, 19958.85610089971, 187500.0, 187500.0, -187500.02235174447, 34255.188316725296, -0.096, 0.98, 0.084, 192.0, 0.0, 0.0, 0.0, 0.0, 0.0, 0.0, 0.0, 0.0, 0.0, 1.6989585439174411E9, 0.0, 2023-11-02 16:55:43.917
224.0, -187500.02235174447, 187500.0, 20707.2372087523, 19934.89503084362, 187500.0, 187500.0, -187500.02235174447, 34257.892877804385, -0.096, 0.98, 0.084, 192.0, 0.0, 0.0, 0.0, 0.0, 0.0, 0.0, 0.0, 0.0, 0.0, 1.6989585439174588E9, 0.0, 2023-11-02 16:55:43.917
225.0, -187500.02235174447, 187500.0, 20712.154592532468, 19904.764879317867, 187500.0, 187500.0, -187500.02235174447, 34262.43028192881, -0.096, 0.98, 0.084, 192.0, 0.0, 0.0, 0.0, 0.0, 0.0, 0.0, 0.0, 0.0, 0.0, 1.6989585439174762E9, 0.0, 2023-11-02 16:55:43.917
226.0, -187500.02235174447, 187500.0, 20707.013691307748, 19870.387896345605, 187500.0, 187500.0, -187500.02235174447, 34257.602305126464, -0.096, 0.98, 0.084, 192.0, 0.0, 0.0, 0.0, 0.0, 0.0, 0.0, 0.0, 0.0, 0.0, 1.6989585439174864E9, 0.0, 2023-11-02 16:55:43.917
227.0, -187500.02235174447, 187500.0, 20703.839743595094, 19843.34228555468, 187500.0, 187500.0, -187500.02235174447, 34254.964799280744, -0.096, 0.98, 0.084, 192.0, 0.0, 0.0, 0.0, 0.0, 0.0, 0.0, 0.0, 0.0, 0.0, 1.698958543917498E9, 0.0, 2023-11-02 16:55:43.917
228.0, -187500.02235174447, 187500.0, 20702.163362760944, 19808.428860715492, 187500.0, 187500.0, -187500.02235174447, 34252.57316262402, -0.10400000000000001, 0.978, 0.08600000000000001, 192.0, 252.0, 192.0, 30.0, 144.0, 2.0, 176.0, 0.0, 0.0, 0.0, 1.6989585439175096E9, 0.0, 2023-11-02 16:55:43.917
229.0, -187500.02235174447, 187500.0, 20706.43254595191, 19774.565967865703, 187500.0, 187500.0, -187500.02235174447, 34256.574124881525, -0.10400000000000001, 0.978, 0.08600000000000001, 192.0, 0.0, 0.0, 0.0, 0.0, 0.0, 0.0, 0.0, 0.0, 0.0, 1.6989585439175208E9, 0.0, 2023-11-02 16:55:43.917
230.0, -187500.02235174447, 187500.0, 20703.61622615054, 19749.57671756467, 187500.0, 187500.0, -187500.02235174447, 34256.015331270144, -0.10400000000000001, 0.978, 0.08600000000000001, 192.0, 0.0, 0.0, 0.0, 0.0, 0.0, 0.0, 0.0, 0.0, 0.0, 1.6989585439175305E9, 0.0, 2023-11-02 16:55:43.917
231.0, -187500.02235174447, 187500.0, 20703.213894750344, 19737.32796160316, 187500.0, 187500.0, -187500.02235174447, 34260.26216271665, -0.10400000000000001, 0.978, 0.08600000000000001, 192.0, 0.0, 0.0, 0.0, 0.0, 0.0, 0.0, 0.0, 0.0, 0.0, 1.6989585439175408E9, 0.0, 2023-11-02 16:55:43.917
232.0, -187500.02235174447, 187500.0, 20707.997168063783, 19732.94701968992, 187500.0, 187500.0, -187500.02235174447, 34267.39236919789, -0.10400000000000001, 0.978, 0.08600000000000001, 192.0, 0.0, 0.0, 0.0, 0.0, 0.0, 0.0, 0.0, 0.0, 0.0, 1.698958543917551E9, 0.0, 2023-11-02 16:55:43.917
233.0, -187500.02235174447, 187500.0, 20712.601627421576, 19716.294970070718, 187500.0, 187500.0, -187500.02235174447, 34271.28157273312, -0.10400000000000001, 0.978, 0.08600000000000001, 192.0, 0.0, 0.0, 0.0, 0.0, 0.0, 0.0, 0.0, 0.0, 0.0, 1.6989585439175613E9, 0.0, 2023-11-02 16:55:43.917
234.0, -187500.02235174447, 187500.0, 20712.780441377217, 19700.782859418734, 187500.0, 187500.0, -187500.02235174447, 34269.44872968778, -0.10400000000000001, 0.978, 0.08600000000000001, 192.0, 0.0, 0.0, 0.0, 0.0, 0.0, 0.0, 0.0, 0.0, 0.0, 1.698958543917572E9, 0.0, 2023-11-02 16:55:43.917
235.0, -187500.02235174447, 187500.0, 20709.494734942287, 19691.84216163661, 187500.0, 187500.0, -187500.02235174447, 34265.29130521909, -0.10400000000000001, 0.978, 0.08600000000000001, 192.0, 0.0, 0.0, 0.0, 0.0, 0.0, 0.0, 0.0, 0.0, 0.0, 1.6989585439175825E9, 0.0, 2023-11-02 16:55:43.917
236.0, -187500.02235174447, 187500.0, 20702.789211605694, 19689.383469746528, 187500.0, 187500.0, -187500.02235174447, 34258.33991269349, -0.10400000000000001, 0.978, 0.08600000000000001, 192.0, 0.0, 0.0, 0.0, 0.0, 0.0, 0.0, 0.0, 0.0, 0.0, 1.6989585439176204E9, 0.0, 2023-11-02 16:55:43.917
237.0, -187500.02235174447, 187500.0, 20698.117697014535, 19675.03364980622, 187500.0, 187500.0, -187500.02235174447, 34253.69074984679, -0.10400000000000001, 0.978, 0.08600000000000001, 192.0, 0.0, 0.0, 0.0, 0.0, 0.0, 0.0, 0.0, 0.0, 0.0, 1.6989585439176407E9, 0.0, 2023-11-02 16:55:43.917
238.0, -187500.02235174447, 187500.0, 20701.828086594116, 19664.640088634504, 187500.0, 187500.0, -187500.02235174447, 34256.06003475905, -0.10200000000000001, 0.974, 0.088, 192.0, 252.0, 208.0, 30.0, 112.0, 2.0, 192.0, 0.0, 0.0, 0.0, 1.6989585439176517E9, 0.0, 2023-11-02 16:55:43.917
239.0, -187500.02235174447, 187500.0, 20703.86209533955, 19679.101667297087, 187500.0, 187500.0, -187500.02235174447, 34257.24467721518, -0.10200000000000001, 0.974, 0.088, 192.0, 0.0, 0.0, 0.0, 0.0, 0.0, 0.0, 0.0, 0.0, 0.0, 1.6989585439176717E9, 0.0, 2023-11-02 16:55:43.917
240.0, -187500.02235174447, 187500.0, 20705.42671745142, 19694.65848143798, 187500.0, 187500.0, -187500.02235174447, 34257.199973726274, -0.10200000000000001, 0.974, 0.088, 192.0, 0.0, 0.0, 0.0, 0.0, 0.0, 0.0, 0.0, 0.0, 0.0, 1.6989585439177272E9, 0.0, 2023-11-02 16:55:43.917
241.0, -187500.02235174447, 187500.0, 20697.84947608107, 19696.111344827576, 187500.0, 187500.0, -187500.02235174447, 34249.26510444464, -0.10200000000000001, 0.974, 0.088, 192.0, 0.0, 0.0, 0.0, 0.0, 0.0, 0.0, 0.0, 0.0, 0.0, 1.69895854391774E9, 0.0, 2023-11-02 16:55:43.917
242.0, -187500.02235174447, 187500.0, 20699.19058074839, 19689.897559869, 187500.0, 187500.0, -187500.02235174447, 34249.55567712256, -0.10200000000000001, 0.974, 0.088, 192.0, 0.0, 0.0, 0.0, 0.0, 0.0, 0.0, 0.0, 0.0, 0.0, 1.6989585439177525E9, 0.0, 2023-11-02 16:55:43.917
243.0, -187500.02235174447, 187500.0, 20702.05160403867, 19695.440792493915, 187500.0, 187500.0, -187500.02235174447, 34250.15917422285, -0.10200000000000001, 0.974, 0.088, 192.0, 0.0, 0.0, 0.0, 0.0, 0.0, 0.0, 0.0, 0.0, 0.0, 1.6989585439177673E9, 0.0, 2023-11-02 16:55:43.917
244.0, -187500.02235174447, 187500.0, 20705.829048851618, 19707.37662403305, 187500.0, 187500.0, -187500.02235174447, 34253.60134286897, -0.10200000000000001, 0.974, 0.088, 192.0, 0.0, 0.0, 0.0, 0.0, 0.0, 0.0, 0.0, 0.0, 0.0, 1.69895854391778E9, 0.0, 2023-11-02 16:55:43.917
245.0, -187500.02235174447, 187500.0, 20701.939845316392, 19702.593350719613, 187500.0, 187500.0, -187500.02235174447, 34249.376863166915, -0.10200000000000001, 0.974, 0.088, 192.0, 0.0, 0.0, 0.0, 0.0, 0.0, 0.0, 0.0, 0.0, 0.0, 1.6989585439177902E9, 0.0, 2023-11-02 16:55:43.917
246.0, -187500.02235174447, 187500.0, 20708.24303725279, 19697.385394261528, 187500.0, 187500.0, -187500.02235174447, 34255.25537195866, -0.10200000000000001, 0.974, 0.088, 192.0, 0.0, 0.0, 0.0, 0.0, 0.0, 0.0, 0.0, 0.0, 0.0, 1.6989585439178004E9, 0.0, 2023-11-02 16:55:43.917
247.0, -187500.02235174447, 187500.0, 20708.46655469734, 19702.101612341598, 187500.0, 187500.0, -187500.02235174447, 34255.367130680934, -0.10200000000000001, 0.974, 0.088, 192.0, 0.0, 0.0, 0.0, 0.0, 0.0, 0.0, 0.0, 0.0, 0.0, 1.6989585439178102E9, 0.0, 2023-11-02 16:55:43.917
248.0, -187500.02235174447, 187500.0, 20704.82322035113, 19707.734251944334, 187500.0, 187500.0, -187500.02235174447, 34250.80737481205, -0.098, 0.98, 0.094, 192.0, 252.0, 240.0, 30.0, 160.0, 2.0, 240.0, 0.0, 0.0, 0.0, 1.6989585439178212E9, 0.0, 2023-11-02 16:55:43.917
249.0, -187500.02235174447, 187500.0, 20707.885409341503, 19710.528220001248, 187500.0, 187500.0, -187500.02235174447, 34252.506107390655, -0.098, 0.98, 0.094, 192.0, 0.0, 0.0, 0.0, 0.0, 0.0, 0.0, 0.0, 0.0, 0.0, 1.698958543917834E9, 0.0, 2023-11-02 16:55:43.917
250.0, -187500.02235174447, 187500.0, 20709.315920986643, 19704.873228654054, 187500.0, 187500.0, -187500.02235174447, 34252.64021785739, -0.098, 0.98, 0.094, 192.0, 0.0, 0.0, 0.0, 0.0, 0.0, 0.0, 0.0, 0.0, 0.0, 1.69895854391785E9, 0.0, 2023-11-02 16:55:43.917
251.0, -187500.02235174447, 187500.0, 20710.880543098516, 19705.56613273217, 187500.0, 187500.0, -187500.02235174447, 34254.62952311391, -0.098, 0.98, 0.094, 192.0, 0.0, 0.0, 0.0, 0.0, 0.0, 0.0, 0.0, 0.0, 0.0, 1.6989585439178703E9, 0.0, 2023-11-02 16:55:43.917
252.0, -187500.02235174447, 187500.0, 20711.260522754255, 19716.33967355963, 187500.0, 187500.0, -187500.02235174447, 34254.11543299144, -0.098, 0.98, 0.094, 192.0, 0.0, 0.0, 0.0, 0.0, 0.0, 0.0, 0.0, 0.0, 0.0, 1.6989585439179263E9, 0.0, 2023-11-02 16:55:43.917
253.0, -187500.02235174447, 187500.0, 20705.493772684786, 19714.61858923657, 187500.0, 187500.0, -187500.02235174447, 34246.649950343366, -0.098, 0.98, 0.094, 192.0, 0.0, 0.0, 0.0, 0.0, 0.0, 0.0, 0.0, 0.0, 0.0, 1.6989585439179373E9, 0.0, 2023-11-02 16:55:43.917
254.0, -187500.02235174447, 187500.0, 20709.360624475554, 19707.33192054414, 187500.0, 187500.0, -187500.02235174447, 34249.086290488995, -0.098, 0.98, 0.094, 192.0, 0.0, 0.0, 0.0, 0.0, 0.0, 0.0, 0.0, 0.0, 0.0, 1.6989585439179485E9, 0.0, 2023-11-02 16:55:43.917
255.0, -187500.02235174447, 187500.0, 20711.90872334346, 19707.71190019988, 187500.0, 187500.0, -187500.02235174447, 34251.27676144562, -0.098, 0.98, 0.094, 192.0, 0.0, 0.0, 0.0, 0.0, 0.0, 0.0, 0.0, 0.0, 0.0, 1.698958543917959E9, 0.0, 2023-11-02 16:55:43.917
0.0, -187500.02235174447, 187500.0, 20715.216781522846, 19716.876115426556, 187500.0, 187500.0, -187500.02235174447, 34253.60134286897, -0.098, 0.98, 0.094, 192.0, 0.0, 0.0, 0.0, 0.0, 0.0, 0.0, 0.0, 0.0, 0.0, 1.6989585439179688E9, 0.0, 2023-11-02 16:55:43.917
1.0, -187500.02235174447, 187500.0, 20707.30426398567, 19719.401862550007, 187500.0, 187500.0, -187500.02235174447, 34246.76170906564, -0.098, 0.98, 0.094, 192.0, 0.0, 0.0, 0.0, 0.0, 0.0, 0.0, 0.0, 0.0, 0.0, 1.6989585439179792E9, 0.0, 2023-11-02 16:55:43.917
2.0, -187500.02235174447, 187500.0, 20702.96802556134, 19713.85862992509, 187500.0, 187500.0, -187500.02235174447, 34243.34189216398, -0.1, 0.986, 0.098, 192.0, 252.0, 224.0, 30.0, 208.0, 3.0, 16.0, 0.0, 0.0, 0.0, 1.6989585439179971E9, 0.0, 2023-11-02 16:55:43.917
3.0, -187500.02235174447, 187500.0, 20699.794077848685, 19706.683719954937, 187500.0, 187500.0, -187500.02235174447, 34240.05618572905, -0.1, 0.986, 0.098, 192.0, 0.0, 0.0, 0.0, 0.0, 0.0, 0.0, 0.0, 0.0, 0.0, 1.6989585439180107E9, 0.0, 2023-11-02 16:55:43.918
4.0, -187500.02235174447, 187500.0, 20699.90583657096, 19708.293045555718, 187500.0, 187500.0, -187500.02235174447, 34239.45268862876, -0.1, 0.986, 0.098, 192.0, 0.0, 0.0, 0.0, 0.0, 0.0, 0.0, 0.0, 0.0, 0.0, 1.6989585439180207E9, 0.0, 2023-11-02 16:55:43.918
5.0, -187500.02235174447, 187500.0, 20697.983586547805, 19713.85862992509, 187500.0, 187500.0, -187500.02235174447, 34237.21751418323, -0.1, 0.986, 0.098, 192.0, 0.0, 0.0, 0.0, 0.0, 0.0, 0.0, 0.0, 0.0, 0.0, 1.6989585439180307E9, 0.0, 2023-11-02 16:55:43.918
6.0, -187500.02235174447, 187500.0, 20703.32565347262, 19720.340635817127, 187500.0, 187500.0, -187500.02235174447, 34242.5819328525, -0.1, 0.986, 0.098, 192.0, 0.0, 0.0, 0.0, 0.0, 0.0, 0.0, 0.0, 0.0, 0.0, 1.6989585443335495E9, 0.0, 2023-11-02 16:55:44.333
7.0, -187500.02235174447, 187500.0, 20705.694938384884, 19719.67008348347, 187500.0, 187500.0, -187500.02235174447, 34244.750052064664, -0.1, 0.986, 0.098, 192.0, 0.0, 0.0, 0.0, 0.0, 0.0, 0.0, 0.0, 0.0, 0.0, 1.6989585443336272E9, 0.0, 2023-11-02 16:55:44.333
8.0, -187500.02235174447, 187500.0, 20700.57638890462, 19721.927609673454, 187500.0, 187500.0, -187500.02235174447, 34240.4808688737, -0.1, 0.986, 0.098, 192.0, 0.0, 0.0, 0.0, 0.0, 0.0, 0.0, 0.0, 0.0, 0.0, 1.6989585443336408E9, 0.0, 2023-11-02 16:55:44.333
9.0, -187500.02235174447, 187500.0, 20691.322766700123, 19720.47474628386, 187500.0, 187500.0, -187500.02235174447, 34231.58487458049, -0.1, 0.986, 0.098, 192.0, 0.0, 0.0, 0.0, 0.0, 0.0, 0.0, 0.0, 0.0, 0.0, 1.6989585443336513E9, 0.0, 2023-11-02 16:55:44.333
10.0, -187500.02235174447, 187500.0, 20684.05844975215, 19701.028728607744, 187500.0, 187500.0, -187500.02235174447, 34223.292377387574, -0.1, 0.986, 0.098, 192.0, 0.0, 0.0, 0.0, 0.0, 0.0, 0.0, 0.0, 0.0, 0.0, 1.698958544333662E9, 0.0, 2023-11-02 16:55:44.333
11.0, -187500.02235174447, 187500.0, 20683.81258056314, 19684.80136213319, 187500.0, 187500.0, -187500.02235174447, 34223.8288192545, -0.1, 0.986, 0.098, 192.0, 0.0, 0.0, 0.0, 0.0, 0.0, 0.0, 0.0, 0.0, 0.0, 1.698958544333785E9, 0.0, 2023-11-02 16:55:44.333
12.0, -187500.02235174447, 187500.0, 20687.500618398266, 19687.885902868024, 187500.0, 187500.0, -187500.02235174447, 34228.120354189916, -0.1, 0.978, 0.094, 192.0, 252.0, 224.0, 30.0, 144.0, 2.0, 240.0, 0.0, 0.0, 0.0, 1.6989585443337955E9, 0.0, 2023-11-02 16:55:44.333
13.0, -187500.02235174447, 187500.0, 20691.501580655764, 19698.9500163734, 187500.0, 187500.0, -187500.02235174447, 34234.401194381855, -0.1, 0.978, 0.094, 192.0, 0.0, 0.0, 0.0, 0.0, 0.0, 0.0, 0.0, 0.0, 0.0, 1.6989585443338065E9, 0.0, 2023-11-02 16:55:44.333
14.0, -187500.02235174447, 187500.0, 20694.206141734856, 19701.587522219124, 187500.0, 187500.0, -187500.02235174447, 34236.368147893925, -0.1, 0.978, 0.094, 192.0, 0.0, 0.0, 0.0, 0.0, 0.0, 0.0, 0.0, 0.0, 0.0, 1.698958544333817E9, 0.0, 2023-11-02 16:55:44.333
15.0, -187500.02235174447, 187500.0, 20696.62013013603, 19700.8499146521, 187500.0, 187500.0, -187500.02235174447, 34237.35162464996, -0.1, 0.978, 0.094, 192.0, 0.0, 0.0, 0.0, 0.0, 0.0, 0.0, 0.0, 0.0, 0.0, 1.6989585443338265E9, 0.0, 2023-11-02 16:55:44.333
16.0, -187500.02235174447, 187500.0, 20692.90974055645, 19703.822696664658, 187500.0, 187500.0, -187500.02235174447, 34232.23307516969, -0.1, 0.978, 0.094, 192.0, 0.0, 0.0, 0.0, 0.0, 0.0, 0.0, 0.0, 0.0, 0.0, 1.6989585443338373E9, 0.0, 2023-11-02 16:55:44.333
17.0, -187500.02235174447, 187500.0, 20691.635691122498, 19711.511696757283, 187500.0, 187500.0, -187500.02235174447, 34229.77438327961, -0.1, 0.978, 0.094, 192.0, 0.0, 0.0, 0.0, 0.0, 0.0, 0.0, 0.0, 0.0, 0.0, 1.6989585443338473E9, 0.0, 2023-11-02 16:55:44.333
18.0, -187500.02235174447, 187500.0, 20690.518103899733, 19717.703129971404, 187500.0, 187500.0, -187500.02235174447, 34226.801601267056, -0.1, 0.978, 0.094, 192.0, 0.0, 0.0, 0.0, 0.0, 0.0, 0.0, 0.0, 0.0, 0.0, 1.6989585443338604E9, 0.0, 2023-11-02 16:55:44.333
19.0, -187500.02235174447, 187500.0, 20691.590987633586, 19714.640940981026, 187500.0, 187500.0, -187500.02235174447, 34224.700537288256, -0.1, 0.978, 0.094, 192.0, 0.0, 0.0, 0.0, 0.0, 0.0, 0.0, 0.0, 0.0, 0.0, 1.698958544333872E9, 0.0, 2023-11-02 16:55:44.333
20.0, -187500.02235174447, 187500.0, 20692.149781244967, 19710.930551401445, 187500.0, 187500.0, -187500.02235174447, 34223.717060532224, -0.1, 0.978, 0.094, 192.0, 0.0, 0.0, 0.0, 0.0, 0.0, 0.0, 0.0, 0.0, 0.0, 1.698958544333882E9, 0.0, 2023-11-02 16:55:44.333
21.0, -187500.02235174447, 187500.0, 20692.99914753427, 19713.23278108034, 187500.0, 187500.0, -187500.02235174447, 34222.3759558649, -0.1, 0.978, 0.094, 192.0, 0.0, 0.0, 0.0, 0.0, 0.0, 0.0, 0.0, 0.0, 0.0, 1.698958544333892E9, 0.0, 2023-11-02 16:55:44.333
100.0, -187500.02235174447, 187500.0, 20683.164379973936, 19773.00134575383, 187500.0, 187500.0, -187500.02235174447, 34186.00966763612, -0.1, 0.978, 0.094, 192.0, 0.0, 0.0, 0.0, 0.0, 0.0, 0.0, 0.0, 0.0, 0.0, 1.6989585443339992E9, 0.0, 2023-11-02 16:55:44.333
101.0, -187500.02235174447, 187500.0, 20679.968080516825, 19773.314270176204, 187500.0, 187500.0, -187500.02235174447, 34181.94165014525, -0.10200000000000001, 0.976, 0.11, 192.0, 252.0, 208.0, 30.0, 128.0, 3.0, 112.0, 0.0, 0.0, 0.0, 1.6989585443340292E9, 0.0, 2023-11-02 16:55:44.334
102.0, -187500.02235174447, 187500.0, 20678.962252016336, 19773.7166015764, 187500.0, 187500.0, -187500.02235174447, 34182.38868503436, -0.10200000000000001, 0.976, 0.11, 192.0, 0.0, 0.0, 0.0, 0.0, 0.0, 0.0, 0.0, 0.0, 0.0, 1.6989585443340409E9, 0.0, 2023-11-02 16:55:44.334
103.0, -187500.02235174447, 187500.0, 20679.074010738615, 19766.34052590615, 187500.0, 187500.0, -187500.02235174447, 34181.829891422974, -0.10200000000000001, 0.976, 0.11, 192.0, 0.0, 0.0, 0.0, 0.0, 0.0, 0.0, 0.0, 0.0, 0.0, 1.698958544334051E9, 0.0, 2023-11-02 16:55:44.334
104.0, -187500.02235174447, 187500.0, 20678.962252016336, 19774.09658123214, 187500.0, 187500.0, -187500.02235174447, 34180.91346990031, -0.10200000000000001, 0.976, 0.11, 192.0, 0.0, 0.0, 0.0, 0.0, 0.0, 0.0, 0.0, 0.0, 0.0, 1.6989585443340764E9, 0.0, 2023-11-02 16:55:44.334
105.0, -187500.02235174447, 187500.0, 20679.56574911663, 19783.238444714363, 187500.0, 187500.0, -187500.02235174447, 34181.24874606714, -0.10200000000000001, 0.976, 0.11, 192.0, 0.0, 0.0, 0.0, 0.0, 0.0, 0.0, 0.0, 0.0, 0.0, 1.6989585443340864E9, 0.0, 2023-11-02 16:55:44.334
106.0, -187500.02235174447, 187500.0, 20676.03417349269, 19782.322023191693, 187500.0, 187500.0, -187500.02235174447, 34179.43825476626, -0.10200000000000001, 0.976, 0.11, 192.0, 0.0, 0.0, 0.0, 0.0, 0.0, 0.0, 0.0, 0.0, 0.0, 1.698958544334096E9, 0.0, 2023-11-02 16:55:44.334
107.0, -187500.02235174447, 187500.0, 20678.26934793822, 19779.19277896795, 187500.0, 187500.0, -187500.02235174447, 34183.439217023755, -0.10200000000000001, 0.976, 0.11, 192.0, 0.0, 0.0, 0.0, 0.0, 0.0, 0.0, 0.0, 0.0, 0.0, 1.6989585443341076E9, 0.0, 2023-11-02 16:55:44.334
108.0, -187500.02235174447, 187500.0, 20675.274214181212, 19782.254967958328, 187500.0, 187500.0, -187500.02235174447, 34180.354676288924, -0.10200000000000001, 0.976, 0.11, 192.0, 0.0, 0.0, 0.0, 0.0, 0.0, 0.0, 0.0, 0.0, 0.0, 1.6989585443341172E9, 0.0, 2023-11-02 16:55:44.334
109.0, -187500.02235174447, 187500.0, 20679.409286905444, 19781.49500864685, 187500.0, 187500.0, -187500.02235174447, 34181.80753967852, -0.10200000000000001, 0.976, 0.11, 192.0, 0.0, 0.0, 0.0, 0.0, 0.0, 0.0, 0.0, 0.0, 0.0, 1.6989585443341277E9, 0.0, 2023-11-02 16:55:44.334
110.0, -187500.02235174447, 187500.0, 20680.057487494647, 19787.507627905325, 187500.0, 187500.0, -187500.02235174447, 34183.48392051267, -0.10200000000000001, 0.976, 0.11, 192.0, 0.0, 0.0, 0.0, 0.0, 0.0, 0.0, 0.0, 0.0, 0.0, 1.6989585443341374E9, 0.0, 2023-11-02 16:55:44.334
111.0, -187500.02235174447, 187500.0, 20671.072086223616, 19778.81279931221, 187500.0, 187500.0, -187500.02235174447, 34175.66080995331, -0.1, 0.982, 0.10200000000000001, 192.0, 252.0, 224.0, 30.0, 176.0, 3.0, 48.0, 0.0, 0.0, 0.0, 1.6989585443341484E9, 0.0, 2023-11-02 16:55:44.334
112.0, -187500.02235174447, 187500.0, 20669.596871089565, 19770.296784674738, 187500.0, 187500.0, -187500.02235174447, 34172.129234329375, -0.1, 0.982, 0.10200000000000001, 192.0, 0.0, 0.0, 0.0, 0.0, 0.0, 0.0, 0.0, 0.0, 0.0, 1.6989585443341596E9, 0.0, 2023-11-02 16:55:44.334
113.0, -187500.02235174447, 187500.0, 20671.407362390444, 19772.040220742252, 187500.0, 187500.0, -187500.02235174447, 34173.11271108541, -0.1, 0.982, 0.10200000000000001, 192.0, 0.0, 0.0, 0.0, 0.0, 0.0, 0.0, 0.0, 0.0, 0.0, 1.69895854433417E9, 0.0, 2023-11-02 16:55:44.334
114.0, -187500.02235174447, 187500.0, 20676.548263615165, 19776.689383588957, 187500.0, 187500.0, -187500.02235174447, 34178.49948149914, -0.1, 0.982, 0.10200000000000001, 192.0, 0.0, 0.0, 0.0, 0.0, 0.0, 0.0, 0.0, 0.0, 0.0, 1.698958544334184E9, 0.0, 2023-11-02 16:55:44.334
115.0, -187500.02235174447, 187500.0, 20678.224644449314, 19774.834188799166, 187500.0, 187500.0, -187500.02235174447, 34180.175862333286, -0.1, 0.982, 0.10200000000000001, 192.0, 0.0, 0.0, 0.0, 0.0, 0.0, 0.0, 0.0, 0.0, 0.0, 1.6989585443341944E9, 0.0, 2023-11-02 16:55:44.334
116.0, -187500.02235174447, 187500.0, 20675.207158947847, 19774.29774693224, 187500.0, 187500.0, -187500.02235174447, 34178.29831579904, -0.1, 0.982, 0.10200000000000001, 192.0, 0.0, 0.0, 0.0, 0.0, 0.0, 0.0, 0.0, 0.0, 0.0, 1.6989585443342047E9, 0.0, 2023-11-02 16:55:44.334
117.0, -187500.02235174447, 187500.0, 20674.491903125276, 19775.594148110646, 187500.0, 187500.0, -187500.02235174447, 34178.99121987715, -0.1, 0.982, 0.10200000000000001, 192.0, 0.0, 0.0, 0.0, 0.0, 0.0, 0.0, 0.0, 0.0, 0.0, 1.6989585443342144E9, 0.0, 2023-11-02 16:55:44.334
118.0, -187500.02235174447, 187500.0, 20681.935034028895, 19782.210264469417, 187500.0, 187500.0, -187500.02235174447, 34187.28371707007, -0.1, 0.982, 0.10200000000000001, 192.0, 0.0, 0.0, 0.0, 0.0, 0.0, 0.0, 0.0, 0.0, 0.0, 1.6989585443342257E9, 0.0, 2023-11-02 16:55:44.334
119.0, -187500.02235174447, 187500.0, 20679.632804349996, 19780.511531890814, 187500.0, 187500.0, -187500.02235174447, 34185.607336235924, -0.1, 0.982, 0.10200000000000001, 192.0, 0.0, 0.0, 0.0, 0.0, 0.0, 0.0, 0.0, 0.0, 0.0, 1.6989585443342483E9, 0.0, 2023-11-02 16:55:44.334
120.0, -187500.02235174447, 187500.0, 20686.628900364507, 19783.596072625645, 187500.0, 187500.0, -187500.02235174447, 34191.351734560936, -0.1, 0.982, 0.10200000000000001, 192.0, 0.0, 0.0, 0.0, 0.0, 0.0, 0.0, 0.0, 0.0, 0.0, 1.6989585443342583E9, 0.0, 2023-11-02 16:55:44.334
121.0, -187500.02235174447, 187500.0, 20683.454952651853, 19793.83317158618, 187500.0, 187500.0, -187500.02235174447, 34189.09420837095, -0.11, 0.98, 0.10400000000000001, 192.0, 252.0, 144.0, 30.0, 160.0, 3.0, 64.0, 0.0, 0.0, 0.0, 1.698958544334268E9, 0.0, 2023-11-02 16:55:44.334
122.0, -187500.02235174447, 187500.0, 20676.212987448336, 19799.465811188915, 187500.0, 187500.0, -187500.02235174447, 34182.29927805654, -0.11, 0.98, 0.10400000000000001, 192.0, 0.0, 0.0, 0.0, 0.0, 0.0, 0.0, 0.0, 0.0, 0.0, 1.698958544334279E9, 0.0, 2023-11-02 16:55:44.334
123.0, -187500.02235174447, 187500.0, 20677.28587118219, 19792.425011685493, 187500.0, 187500.0, -187500.02235174447, 34182.29927805654, -0.11, 0.98, 0.10400000000000001, 192.0, 0.0, 0.0, 0.0, 0.0, 0.0, 0.0, 0.0, 0.0, 0.0, 1.6989585443342907E9, 0.0, 2023-11-02 16:55:44.334
124.0, -187500.02235174447, 187500.0, 20678.381106660498, 19789.74280235086, 187500.0, 187500.0, -187500.02235174447, 34182.05340886753, -0.11, 0.98, 0.10400000000000001, 192.0, 0.0, 0.0, 0.0, 0.0, 0.0, 0.0, 0.0, 0.0, 0.0, 1.6989585443343005E9, 0.0, 2023-11-02 16:55:44.334
125.0, -187500.02235174447, 187500.0, 20683.387897418488, 19790.748630851347, 187500.0, 187500.0, -187500.02235174447, 34185.85320542493, -0.11, 0.98, 0.10400000000000001, 192.0, 0.0, 0.0, 0.0, 0.0, 0.0, 0.0, 0.0, 0.0, 0.0, 1.69895854433431E9, 0.0, 2023-11-02 16:55:44.334
126.0, -187500.02235174447, 187500.0, 20684.147856729967, 19795.710718120423, 187500.0, 187500.0, -187500.02235174447, 34186.27788856958, -0.11, 0.98, 0.10400000000000001, 192.0, 0.0, 0.0, 0.0, 0.0, 0.0, 0.0, 0.0, 0.0, 0.0, 1.6989585443343227E9, 0.0, 2023-11-02 16:55:44.334
127.0, -187500.02235174447, 187500.0, 20678.626975849507, 19788.8710843171, 187500.0, 187500.0, -187500.02235174447, 34181.494615256146, -0.11, 0.98, 0.10400000000000001, 192.0, 0.0, 0.0, 0.0, 0.0, 0.0, 0.0, 0.0, 0.0, 0.0, 1.6989585443343465E9, 0.0, 2023-11-02 16:55:44.334
128.0, -187500.02235174447, 187500.0, 20682.60558636255, 19788.24523547235, 187500.0, 187500.0, -187500.02235174447, 34186.25553682513, -0.11, 0.98, 0.10400000000000001, 192.0, 0.0, 0.0, 0.0, 0.0, 0.0, 0.0, 0.0, 0.0, 0.0, 1.6989585443343568E9, 0.0, 2023-11-02 16:55:44.334
129.0, -187500.02235174447, 187500.0, 20679.252824694257, 19794.503723919835, 187500.0, 187500.0, -187500.02235174447, 34182.63455422337, -0.11, 0.98, 0.10400000000000001, 192.0, 0.0, 0.0, 0.0, 0.0, 0.0, 0.0, 0.0, 0.0, 0.0, 1.6989585443343668E9, 0.0, 2023-11-02 16:55:44.334
130.0, -187500.02235174447, 187500.0, 20670.870920523517, 19790.435706428972, 187500.0, 187500.0, -187500.02235174447, 34172.688027940756, -0.11, 0.98, 0.10400000000000001, 192.0, 0.0, 0.0, 0.0, 0.0, 0.0, 0.0, 0.0, 0.0, 0.0, 1.698958544334377E9, 0.0, 2023-11-02 16:55:44.334
131.0, -187500.02235174447, 187500.0, 20666.80290303265, 19784.91482554851, 187500.0, 187500.0, -187500.02235174447, 34167.2118505492, -0.106, 0.976, 0.1, 192.0, 252.0, 176.0, 30.0, 128.0, 3.0, 32.0, 0.0, 0.0, 0.0, 1.6989585443343868E9, 0.0, 2023-11-02 16:55:44.334
132.0, -187500.02235174447, 187500.0, 20664.679487309397, 19775.594148110646, 187500.0, 187500.0, -187500.02235174447, 34165.557821459515, -0.106, 0.976, 0.1, 192.0, 0.0, 0.0, 0.0, 0.0, 0.0, 0.0, 0.0, 0.0, 0.0, 1.6989585443343973E9, 0.0, 2023-11-02 16:55:44.334
133.0, -187500.02235174447, 187500.0, 20666.288812910178, 19775.43768589946, 187500.0, 187500.0, -187500.02235174447, 34166.89892612683, -0.106, 0.976, 0.1, 192.0, 0.0, 0.0, 0.0, 0.0, 0.0, 0.0, 0.0, 0.0, 0.0, 1.6989585443344073E9, 0.0, 2023-11-02 16:55:44.334
134.0, -187500.02235174447, 187500.0, 20668.971022244816, 19783.57372088119, 187500.0, 187500.0, -187500.02235174447, 34170.47520523968, -0.106, 0.976, 0.1, 192.0, 0.0, 0.0, 0.0, 0.0, 0.0, 0.0, 0.0, 0.0, 0.0, 1.6989585443344772E9, 0.0, 2023-11-02 16:55:44.334
135.0, -187500.02235174447, 187500.0, 20670.535644356685, 19783.886645303566, 187500.0, 187500.0, -187500.02235174447, 34172.93389712976, -0.106, 0.976, 0.1, 192.0, 0.0, 0.0, 0.0, 0.0, 0.0, 0.0, 0.0, 0.0, 0.0, 1.6989585443344882E9, 0.0, 2023-11-02 16:55:44.334
136.0, -187500.02235174447, 187500.0, 20672.52494961321, 19776.465866144405, 187500.0, 187500.0, -187500.02235174447, 34174.7667401751, -0.106, 0.976, 0.1, 192.0, 0.0, 0.0, 0.0, 0.0, 0.0, 0.0, 0.0, 0.0, 0.0, 1.6989585443344982E9, 0.0, 2023-11-02 16:55:44.334
137.0, -187500.02235174447, 187500.0, 20667.56286234413, 19772.643717842548, 187500.0, 187500.0, -187500.02235174447, 34171.637495951356, -0.106, 0.976, 0.1, 192.0, 0.0, 0.0, 0.0, 0.0, 0.0, 0.0, 0.0, 0.0, 0.0, 1.698958544334513E9, 0.0, 2023-11-02 16:55:44.334
138.0, -187500.02235174447, 187500.0, 20663.69601055336, 19776.890549289055, 187500.0, 187500.0, -187500.02235174447, 34168.73176917217, -0.106, 0.976, 0.1, 192.0, 0.0, 0.0, 0.0, 0.0, 0.0, 0.0, 0.0, 0.0, 0.0, 1.6989585443345234E9, 0.0, 2023-11-02 16:55:44.334
139.0, -187500.02235174447, 187500.0, 20662.66783030842, 19782.992575525353, 187500.0, 187500.0, -187500.02235174447, 34166.85422263792, -0.106, 0.976, 0.1, 192.0, 0.0, 0.0, 0.0, 0.0, 0.0, 0.0, 0.0, 0.0, 0.0, 1.698958544334534E9, 0.0, 2023-11-02 16:55:44.334
140.0, -187500.02235174447, 187500.0, 20663.070161708612, 19778.119895234096, 187500.0, 187500.0, -187500.02235174447, 34171.03399885106, -0.106, 0.976, 0.1, 192.0, 0.0, 0.0, 0.0, 0.0, 0.0, 0.0, 0.0, 0.0, 0.0, 1.6989585443345456E9, 0.0, 2023-11-02 16:55:44.334
141.0, -187500.02235174447, 187500.0, 20672.636708335485, 19782.791409825255, 187500.0, 187500.0, -187500.02235174447, 34180.511138500115, -0.1, 0.978, 0.094, 192.0, 252.0, 224.0, 30.0, 144.0, 2.0, 240.0, 0.0, 0.0, 0.0, 1.698958544334556E9, 0.0, 2023-11-02 16:55:44.334
142.0, -187500.02235174447, 187500.0, 20669.90979551194, 19784.132514492576, 187500.0, 187500.0, -187500.02235174447, 34177.89598439884, -0.1, 0.978, 0.094, 192.0, 0.0, 0.0, 0.0, 0.0, 0.0, 0.0, 0.0, 0.0, 0.0, 1.698958544334572E9, 0.0, 2023-11-02 16:55:44.334
143.0, -187500.02235174447, 187500.0, 20666.19940593236, 19777.717563833903, 187500.0, 187500.0, -187500.02235174447, 34173.89502214134, -0.1, 0.978, 0.094, 192.0, 0.0, 0.0, 0.0, 0.0, 0.0, 0.0, 0.0, 0.0, 0.0, 1.6989585443345835E9, 0.0, 2023-11-02 16:55:44.334
144.0, -187500.02235174447, 187500.0, 20670.91562401243, 19769.067438729697, 187500.0, 187500.0, -187500.02235174447, 34178.25361231013, -0.1, 0.978, 0.094, 192.0, 0.0, 0.0, 0.0, 0.0, 0.0, 0.0, 0.0, 0.0, 0.0, 1.6989585443346195E9, 0.0, 2023-11-02 16:55:44.334
145.0, -187500.02235174447, 187500.0, 20669.060429222638, 19771.14615096404, 187500.0, 187500.0, -187500.02235174447, 34176.934859387264, -0.1, 0.978, 0.094, 192.0, 0.0, 0.0, 0.0, 0.0, 0.0, 0.0, 0.0, 0.0, 0.0, 1.6989585443346343E9, 0.0, 2023-11-02 16:55:44.334
146.0, -187500.02235174447, 187500.0, 20666.378219888, 19776.734087077868, 187500.0, 187500.0, -187500.02235174447, 34174.87849889738, -0.1, 0.978, 0.094, 192.0, 0.0, 0.0, 0.0, 0.0, 0.0, 0.0, 0.0, 0.0, 0.0, 1.6989585443346455E9, 0.0, 2023-11-02 16:55:44.334
147.0, -187500.02235174447, 187500.0, 20667.272289666213, 19783.707831347925, 187500.0, 187500.0, -187500.02235174447, 34176.62193496489, -0.1, 0.978, 0.094, 192.0, 0.0, 0.0, 0.0, 0.0, 0.0, 0.0, 0.0, 0.0, 0.0, 1.698958544334674E9, 0.0, 2023-11-02 16:55:44.334
148.0, -187500.02235174447, 187500.0, 20661.99727797476, 19776.868197544598, 187500.0, 187500.0, -187500.02235174447, 34172.59862096293, -0.1, 0.978, 0.094, 192.0, 0.0, 0.0, 0.0, 0.0, 0.0, 0.0, 0.0, 0.0, 0.0, 1.698958544334686E9, 0.0, 2023-11-02 16:55:44.334
149.0, -187500.02235174447, 187500.0, 20664.299507653657, 19774.29774693224, 187500.0, 187500.0, -187500.02235174447, 34175.683161697765, -0.1, 0.978, 0.094, 192.0, 0.0, 0.0, 0.0, 0.0, 0.0, 0.0, 0.0, 0.0, 0.0, 1.6989585443346972E9, 0.0, 2023-11-02 16:55:44.334
150.0, -187500.02235174447, 187500.0, 20665.3276878986, 19781.47265690239, 187500.0, 187500.0, -187500.02235174447, 34177.024266365086, -0.1, 0.978, 0.094, 192.0, 0.0, 0.0, 0.0, 0.0, 0.0, 0.0, 0.0, 0.0, 0.0, 1.698958544334721E9, 0.0, 2023-11-02 16:55:44.334
151.0, -187500.02235174447, 187500.0, 20658.95744072884, 19779.908034790522, 187500.0, 187500.0, -187500.02235174447, 34171.88336514036, -0.094, 0.978, 0.096, 192.0, 253.0, 16.0, 30.0, 144.0, 3.0, 0.0, 0.0, 0.0, 0.0, 1.6989585443347323E9, 0.0, 2023-11-02 16:55:44.334
152.0, -187500.02235174447, 187500.0, 20654.80001626015, 19775.571796366192, 187500.0, 187500.0, -187500.02235174447, 34167.90475462732, -0.094, 0.978, 0.096, 192.0, 0.0, 0.0, 0.0, 0.0, 0.0, 0.0, 0.0, 0.0, 0.0, 1.6989585443347473E9, 0.0, 2023-11-02 16:55:44.334
153.0, -187500.02235174447, 187500.0, 20655.381161615987, 19772.509607375814, 187500.0, 187500.0, -187500.02235174447, 34167.927106371775, -0.094, 0.978, 0.096, 192.0, 0.0, 0.0, 0.0, 0.0, 0.0, 0.0, 0.0, 0.0, 0.0, 1.6989585443347635E9, 0.0, 2023-11-02 16:55:44.334
154.0, -187500.02235174447, 187500.0, 20653.41420810392, 19778.164598723008, 187500.0, 187500.0, -187500.02235174447, 34165.982504604166, -0.094, 0.978, 0.096, 192.0, 0.0, 0.0, 0.0, 0.0, 0.0, 0.0, 0.0, 0.0, 0.0, 1.6989585443347812E9, 0.0, 2023-11-02 16:55:44.334
155.0, -187500.02235174447, 187500.0, 20653.19069065937, 19785.495970904347, 187500.0, 187500.0, -187500.02235174447, 34163.6132196919, -0.094, 0.978, 0.096, 192.0, 0.0, 0.0, 0.0, 0.0, 0.0, 0.0, 0.0, 0.0, 0.0, 1.698958544334798E9, 0.0, 2023-11-02 16:55:44.334
156.0, -187500.02235174447, 187500.0, 20651.76017901423, 19778.455171400925, 187500.0, 187500.0, -187500.02235174447, 34162.29446676904, -0.094, 0.978, 0.096, 192.0, 0.0, 0.0, 0.0, 0.0, 0.0, 0.0, 0.0, 0.0, 0.0, 1.6989585443348122E9, 0.0, 2023-11-02 16:55:44.334
157.0, -187500.02235174447, 187500.0, 20653.481263337286, 19771.14615096404, 187500.0, 187500.0, -187500.02235174447, 34165.80369064852, -0.094, 0.978, 0.096, 192.0, 0.0, 0.0, 0.0, 0.0, 0.0, 0.0, 0.0, 0.0, 0.0, 1.698958544334826E9, 0.0, 2023-11-02 16:55:44.334
158.0, -187500.02235174447, 187500.0, 20654.71060928233, 19772.57666260918, 187500.0, 187500.0, -187500.02235174447, 34168.485899983156, -0.094, 0.978, 0.096, 192.0, 0.0, 0.0, 0.0, 0.0, 0.0, 0.0, 0.0, 0.0, 0.0, 1.6989585443348396E9, 0.0, 2023-11-02 16:55:44.334
159.0, -187500.02235174447, 187500.0, 20657.549280828152, 19781.58441562467, 187500.0, 187500.0, -187500.02235174447, 34169.737597672654, -0.094, 0.978, 0.096, 192.0, 0.0, 0.0, 0.0, 0.0, 0.0, 0.0, 0.0, 0.0, 0.0, 1.6989585443348527E9, 0.0, 2023-11-02 16:55:44.334
160.0, -187500.02235174447, 187500.0, 20662.936051241883, 19783.77488658129, 187500.0, 187500.0, -187500.02235174447, 34173.62680120788, -0.094, 0.978, 0.096, 192.0, 0.0, 0.0, 0.0, 0.0, 0.0, 0.0, 0.0, 0.0, 0.0, 1.698958544334864E9, 0.0, 2023-11-02 16:55:44.334
161.0, -187500.02235174447, 187500.0, 20659.00214421775, 19779.416296412506, 187500.0, 187500.0, -187500.02235174447, 34171.19046106225, -0.098, 0.978, 0.092, 192.0, 252.0, 240.0, 30.0, 144.0, 2.0, 224.0, 0.0, 0.0, 0.0, 1.6989585443348753E9, 0.0, 2023-11-02 16:55:44.334
162.0, -187500.02235174447, 187500.0, 20662.153740185946, 19780.131552235074, 187500.0, 187500.0, -187500.02235174447, 34174.85614715292, -0.098, 0.978, 0.092, 192.0, 0.0, 0.0, 0.0, 0.0, 0.0, 0.0, 0.0, 0.0, 0.0, 1.6989585443348873E9, 0.0, 2023-11-02 16:55:44.334
163.0, -187500.02235174447, 187500.0, 20662.71253379733, 19776.48821788886, 187500.0, 187500.0, -187500.02235174447, 34174.990257619655, -0.098, 0.978, 0.092, 192.0, 0.0, 0.0, 0.0, 0.0, 0.0, 0.0, 0.0, 0.0, 0.0, 1.698958544334897E9, 0.0, 2023-11-02 16:55:44.334
164.0, -187500.02235174447, 187500.0, 20657.191652916867, 19770.609709097112, 187500.0, 187500.0, -187500.02235174447, 34168.75412091662, -0.098, 0.978, 0.092, 192.0, 0.0, 0.0, 0.0, 0.0, 0.0, 0.0, 0.0, 0.0, 0.0, 1.6989585443349085E9, 0.0, 2023-11-02 16:55:44.334
165.0, -187500.02235174447, 187500.0, 20659.672696551406, 19765.53586310576, 187500.0, 187500.0, -187500.02235174447, 34173.35858027441, -0.098, 0.978, 0.092, 192.0, 0.0, 0.0, 0.0, 0.0, 0.0, 0.0, 0.0, 0.0, 0.0, 1.698958544334948E9, 0.0, 2023-11-02 16:55:44.334
166.0, -187500.02235174447, 187500.0, 20664.2771559092, 19759.29972640273, 187500.0, 187500.0, -187500.02235174447, 34179.70647569972, -0.098, 0.978, 0.092, 192.0, 0.0, 0.0, 0.0, 0.0, 0.0, 0.0, 0.0, 0.0, 0.0, 1.6989585443349645E9, 0.0, 2023-11-02 16:55:44.334
167.0, -187500.02235174447, 187500.0, 20663.27132740871, 19760.640831070046, 187500.0, 187500.0, -187500.02235174447, 34176.62193496489, -0.098, 0.978, 0.092, 192.0, 0.0, 0.0, 0.0, 0.0, 0.0, 0.0, 0.0, 0.0, 0.0, 1.698958544334976E9, 0.0, 2023-11-02 16:55:44.334
168.0, -187500.02235174447, 187500.0, 20658.599812817552, 19747.162729163498, 187500.0, 187500.0, -187500.02235174447, 34171.74925467363, -0.098, 0.978, 0.092, 192.0, 0.0, 0.0, 0.0, 0.0, 0.0, 0.0, 0.0, 0.0, 0.0, 1.698958544334988E9, 0.0, 2023-11-02 16:55:44.334
169.0, -187500.02235174447, 187500.0, 20658.93508898438, 19725.32507483066, 187500.0, 187500.0, -187500.02235174447, 34171.30221978453, -0.098, 0.978, 0.092, 192.0, 0.0, 0.0, 0.0, 0.0, 0.0, 0.0, 0.0, 0.0, 0.0, 1.6989585443350031E9, 0.0, 2023-11-02 16:55:44.335
170.0, -187500.02235174447, 187500.0, 20652.922469725905, 19700.738155929823, 187500.0, 187500.0, -187500.02235174447, 34167.010684849105, -0.098, 0.978, 0.092, 192.0, 0.0, 0.0, 0.0, 0.0, 0.0, 0.0, 0.0, 0.0, 0.0, 1.6989585443350153E9, 0.0, 2023-11-02 16:55:44.335
171.0, -187500.02235174447, 187500.0, 20648.407417345934, 19677.805266118678, 187500.0, 187500.0, -187500.02235174447, 34163.43440573626, -0.1, 0.976, 0.096, 192.0, 252.0, 224.0, 30.0, 128.0, 3.0, 0.0, 0.0, 0.0, 0.0, 1.6989585443350282E9, 0.0, 2023-11-02 16:55:44.335
172.0, -187500.02235174447, 187500.0, 20649.99439120226, 19657.50988215326, 187500.0, 187500.0, -187500.02235174447, 34165.84839413743, -0.1, 0.976, 0.096, 192.0, 0.0, 0.0, 0.0, 0.0, 0.0, 0.0, 0.0, 0.0, 0.0, 1.6989585443350408E9, 0.0, 2023-11-02 16:55:44.335
173.0, -187500.02235174447, 187500.0, 20643.870013221505, 19623.110547436543, 187500.0, 187500.0, -187500.02235174447, 34161.33334175746, -0.1, 0.976, 0.096, 192.0, 0.0, 0.0, 0.0, 0.0, 0.0, 0.0, 0.0, 0.0, 0.0, 1.6989585443350525E9, 0.0, 2023-11-02 16:55:44.335
174.0, -187500.02235174447, 187500.0, 20644.13823415497, 19598.255407602242, 187500.0, 187500.0, -187500.02235174447, 34162.473280724684, -0.1, 0.976, 0.096, 192.0, 0.0, 0.0, 0.0, 0.0, 0.0, 0.0, 0.0, 0.0, 0.0, 1.6989585443350656E9, 0.0, 2023-11-02 16:55:44.335
175.0, -187500.02235174447, 187500.0, 20646.015780689213, 19581.44689577185, 187500.0, 187500.0, -187500.02235174447, 34166.04955983753, -0.1, 0.976, 0.096, 192.0, 0.0, 0.0, 0.0, 0.0, 0.0, 0.0, 0.0, 0.0, 0.0, 1.6989585443350763E9, 0.0, 2023-11-02 16:55:44.335
176.0, -187500.02235174447, 187500.0, 20644.115882410515, 19550.400322723428, 187500.0, 187500.0, -187500.02235174447, 34166.116615070896, -0.1, 0.976, 0.096, 192.0, 0.0, 0.0, 0.0, 0.0, 0.0, 0.0, 0.0, 0.0, 0.0, 1.6989585443350902E9, 0.0, 2023-11-02 16:55:44.335
177.0, -187500.02235174447, 187500.0, 20650.352019113543, 19509.742499559226, 187500.0, 187500.0, -187500.02235174447, 34172.553917474026, -0.1, 0.976, 0.096, 192.0, 0.0, 0.0, 0.0, 0.0, 0.0, 0.0, 0.0, 0.0, 0.0, 1.6989585443351004E9, 0.0, 2023-11-02 16:55:44.335
178.0, -187500.02235174447, 187500.0, 20653.03422844818, 19482.071039923554, 187500.0, 187500.0, -187500.02235174447, 34177.80657742102, -0.1, 0.976, 0.096, 192.0, 0.0, 0.0, 0.0, 0.0, 0.0, 0.0, 0.0, 0.0, 0.0, 1.6989585443351111E9, 0.0, 2023-11-02 16:55:44.335
179.0, -187500.02235174447, 187500.0, 20649.390894101965, 19461.820359447047, 187500.0, 187500.0, -187500.02235174447, 34176.95721113172, -0.1, 0.976, 0.096, 192.0, 0.0, 0.0, 0.0, 0.0, 0.0, 0.0, 0.0, 0.0, 0.0, 1.698958544335122E9, 0.0, 2023-11-02 16:55:44.335
180.0, -187500.02235174447, 187500.0, 20649.90498422444, 19454.176062843333, 187500.0, 187500.0, -187500.02235174447, 34178.834757665965, -0.1, 0.976, 0.096, 192.0, 0.0, 0.0, 0.0, 0.0, 0.0, 0.0, 0.0, 0.0, 0.0, 1.69895854433516E9, 0.0, 2023-11-02 16:55:44.335
181.0, -187500.02235174447, 187500.0, 20649.56970805761, 19447.604649973473, 187500.0, 187500.0, -187500.02235174447, 34179.79588267754, -0.1, 0.978, 0.1, 192.0, 252.0, 224.0, 30.0, 144.0, 3.0, 32.0, 0.0, 0.0, 0.0, 1.6989585443351731E9, 0.0, 2023-11-02 16:55:44.335
182.0, -187500.02235174447, 187500.0, 20645.211117888823, 19425.118795051432, 187500.0, 187500.0, -187500.02235174447, 34175.14671983084, -0.1, 0.978, 0.1, 192.0, 0.0, 0.0, 0.0, 0.0, 0.0, 0.0, 0.0, 0.0, 0.0, 1.698958544335185E9, 0.0, 2023-11-02 16:55:44.335
183.0, -187500.02235174447, 187500.0, 20644.74173125526, 19422.16836478333, 187500.0, 187500.0, -187500.02235174447, 34175.683161697765, -0.1, 0.978, 0.1, 192.0, 0.0, 0.0, 0.0, 0.0, 0.0, 0.0, 0.0, 0.0, 0.0, 1.698958544335196E9, 0.0, 2023-11-02 16:55:44.335
184.0, -187500.02235174447, 187500.0, 20645.769911500207, 19426.146975296375, 187500.0, 187500.0, -187500.02235174447, 34177.56070823201, -0.1, 0.978, 0.1, 192.0, 0.0, 0.0, 0.0, 0.0, 0.0, 0.0, 0.0, 0.0, 0.0, 1.698958544335208E9, 0.0, 2023-11-02 16:55:44.335
185.0, -187500.02235174447, 187500.0, 20643.490033565766, 19420.93901883829, 187500.0, 187500.0, -187500.02235174447, 34173.89502214134, -0.1, 0.978, 0.1, 192.0, 0.0, 0.0, 0.0, 0.0, 0.0, 0.0, 0.0, 0.0, 0.0, 1.6989585443352225E9, 0.0, 2023-11-02 16:55:44.335
186.0, -187500.02235174447, 187500.0, 20639.287905608166, 19402.521181407115, 187500.0, 187500.0, -187500.02235174447, 34168.75412091662, -0.1, 0.978, 0.1, 192.0, 0.0, 0.0, 0.0, 0.0, 0.0, 0.0, 0.0, 0.0, 0.0, 1.6989585443352363E9, 0.0, 2023-11-02 16:55:44.335
187.0, -187500.02235174447, 187500.0, 20645.948725455848, 19395.368623181417, 187500.0, 187500.0, -187500.02235174447, 34172.93389712976, -0.1, 0.978, 0.1, 192.0, 0.0, 0.0, 0.0, 0.0, 0.0, 0.0, 0.0, 0.0, 0.0, 1.6989585443352523E9, 0.0, 2023-11-02 16:55:44.335
188.0, -187500.02235174447, 187500.0, 20649.189728401867, 19398.721384849716, 187500.0, 187500.0, -187500.02235174447, 34176.33136228697, -0.1, 0.978, 0.1, 192.0, 0.0, 0.0, 0.0, 0.0, 0.0, 0.0, 0.0, 0.0, 0.0, 1.6989585443352628E9, 0.0, 2023-11-02 16:55:44.335
189.0, -187500.02235174447, 187500.0, 20646.775740000696, 19396.26269295963, 187500.0, 187500.0, -187500.02235174447, 34174.43146400827, -0.1, 0.978, 0.1, 192.0, 0.0, 0.0, 0.0, 0.0, 0.0, 0.0, 0.0, 0.0, 0.0, 1.698958544335274E9, 0.0, 2023-11-02 16:55:44.335
190.0, -187500.02235174447, 187500.0, 20645.18876614437, 19391.278253946097, 187500.0, 187500.0, -187500.02235174447, 34173.157414574314, -0.1, 0.978, 0.1, 192.0, 0.0, 0.0, 0.0, 0.0, 0.0, 0.0, 0.0, 0.0, 0.0, 1.6989585443352869E9, 0.0, 2023-11-02 16:55:44.335
191.0, -187500.02235174447, 187500.0, 20637.589173029563, 19381.443486385764, 187500.0, 187500.0, -187500.02235174447, 34164.32847551447, -0.092, 0.98, 0.10400000000000001, 192.0, 253.0, 32.0, 30.0, 160.0, 3.0, 64.0, 0.0, 0.0, 0.0, 1.6989585443352993E9, 0.0, 2023-11-02 16:55:44.335
192.0, -187500.02235174447, 187500.0, 20638.70676025233, 19381.018803241113, 187500.0, 187500.0, -187500.02235174447, 34163.70262666972, -0.092, 0.98, 0.10400000000000001, 192.0, 0.0, 0.0, 0.0, 0.0, 0.0, 0.0, 0.0, 0.0, 0.0, 1.6989585443353157E9, 0.0, 2023-11-02 16:55:44.335
193.0, -187500.02235174447, 187500.0, 20644.31704811061, 19387.344346921964, 187500.0, 187500.0, -187500.02235174447, 34167.05538833802, -0.092, 0.98, 0.10400000000000001, 192.0, 0.0, 0.0, 0.0, 0.0, 0.0, 0.0, 0.0, 0.0, 0.0, 1.698958544335376E9, 0.0, 2023-11-02 16:55:44.335
194.0, -187500.02235174447, 187500.0, 20640.114920153013, 19379.990622996167, 187500.0, 187500.0, -187500.02235174447, 34161.60156269092, -0.092, 0.98, 0.10400000000000001, 192.0, 0.0, 0.0, 0.0, 0.0, 0.0, 0.0, 0.0, 0.0, 0.0, 1.6989585443354137E9, 0.0, 2023-11-02 16:55:44.335
195.0, -187500.02235174447, 187500.0, 20642.79712948765, 19377.42017238381, 187500.0, 187500.0, -187500.02235174447, 34162.87561212487, -0.092, 0.98, 0.10400000000000001, 192.0, 0.0, 0.0, 0.0, 0.0, 0.0, 0.0, 0.0, 0.0, 0.0, 1.6989585443354988E9, 0.0, 2023-11-02 16:55:44.335
196.0, -187500.02235174447, 187500.0, 20637.052731162636, 19382.73988756417, 187500.0, 187500.0, -187500.02235174447, 34157.69000741124, -0.092, 0.98, 0.10400000000000001, 192.0, 0.0, 0.0, 0.0, 0.0, 0.0, 0.0, 0.0, 0.0, 0.0, 1.6989585443355343E9, 0.0, 2023-11-02 16:55:44.335
197.0, -187500.02235174447, 187500.0, 20629.78841421466, 19380.21414044072, 187500.0, 187500.0, -187500.02235174447, 34149.01753056259, -0.092, 0.98, 0.10400000000000001, 192.0, 0.0, 0.0, 0.0, 0.0, 0.0, 0.0, 0.0, 0.0, 0.0, 1.6989585443355465E9, 0.0, 2023-11-02 16:55:44.335
198.0, -187500.02235174447, 187500.0, 20631.956533426826, 19378.314242162018, 187500.0, 187500.0, -187500.02235174447, 34151.74444338613, -0.092, 0.98, 0.10400000000000001, 192.0, 0.0, 0.0, 0.0, 0.0, 0.0, 0.0, 0.0, 0.0, 0.0, 1.6989585443355596E9, 0.0, 2023-11-02 16:55:44.335
199.0, -187500.02235174447, 187500.0, 20628.447309547344, 19368.36771587941, 187500.0, 187500.0, -187500.02235174447, 34148.12346078437, -0.092, 0.98, 0.10400000000000001, 192.0, 0.0, 0.0, 0.0, 0.0, 0.0, 0.0, 0.0, 0.0, 0.0, 1.698958544335574E9, 0.0, 2023-11-02 16:55:44.335
200.0, -187500.02235174447, 187500.0, 20633.3199898386, 19367.69716354575, 187500.0, 187500.0, -187500.02235174447, 34153.42082422028, -0.092, 0.98, 0.10400000000000001, 192.0, 0.0, 0.0, 0.0, 0.0, 0.0, 0.0, 0.0, 0.0, 0.0, 1.6989585443355973E9, 0.0, 2023-11-02 16:55:44.335
201.0, -187500.02235174447, 187500.0, 20632.02358866019, 19379.16360845132, 187500.0, 187500.0, -187500.02235174447, 34154.1137282984, -0.1, 0.976, 0.10400000000000001, 192.0, 252.0, 224.0, 30.0, 128.0, 3.0, 64.0, 0.0, 0.0, 0.0, 1.69895854433561E9, 0.0, 2023-11-02 16:55:44.335
202.0, -187500.02235174447, 187500.0, 20631.330684582077, 19374.31327990452, 187500.0, 187500.0, -187500.02235174447, 34150.49274569663, -0.1, 0.976, 0.10400000000000001, 192.0, 0.0, 0.0, 0.0, 0.0, 0.0, 0.0, 0.0, 0.0, 0.0, 1.6989585443356295E9, 0.0, 2023-11-02 16:55:44.335
203.0, -187500.02235174447, 187500.0, 20636.829213718083, 19367.183073423275, 187500.0, 187500.0, -187500.02235174447, 34151.990312575144, -0.1, 0.976, 0.10400000000000001, 192.0, 0.0, 0.0, 0.0, 0.0, 0.0, 0.0, 0.0, 0.0, 0.0, 1.698958544814366E9, 0.0, 2023-11-02 16:55:44.814
204.0, -187500.02235174447, 187500.0, 20640.673713764398, 19368.88180600188, 187500.0, 187500.0, -187500.02235174447, 34153.21965852018, -0.1, 0.976, 0.10400000000000001, 192.0, 0.0, 0.0, 0.0, 0.0, 0.0, 0.0, 0.0, 0.0, 0.0, 1.698958544814561E9, 0.0, 2023-11-02 16:55:44.814
205.0, -187500.02235174447, 187500.0, 20638.1703183854, 19367.518349590107, 187500.0, 187500.0, -187500.02235174447, 34148.74930962912, -0.1, 0.976, 0.10400000000000001, 192.0, 0.0, 0.0, 0.0, 0.0, 0.0, 0.0, 0.0, 0.0, 0.0, 1.698958544814577E9, 0.0, 2023-11-02 16:55:44.814
206.0, -187500.02235174447, 187500.0, 20634.549335783642, 19356.342477362454, 187500.0, 187500.0, -187500.02235174447, 34144.54718167152, -0.1, 0.976, 0.10400000000000001, 192.0, 0.0, 0.0, 0.0, 0.0, 0.0, 0.0, 0.0, 0.0, 0.0, 1.6989585448145883E9, 0.0, 2023-11-02 16:55:44.814
207.0, -187500.02235174447, 187500.0, 20637.99150442976, 19347.915869702803, 187500.0, 187500.0, -187500.02235174447, 34148.54814392902, -0.1, 0.976, 0.10400000000000001, 192.0, 0.0, 0.0, 0.0, 0.0, 0.0, 0.0, 0.0, 0.0, 0.0, 1.6989585448146188E9, 0.0, 2023-11-02 16:55:44.814
208.0, -187500.02235174447, 187500.0, 20636.784510229172, 19339.422206809784, 187500.0, 187500.0, -187500.02235174447, 34147.25174275062, -0.1, 0.976, 0.10400000000000001, 192.0, 0.0, 0.0, 0.0, 0.0, 0.0, 0.0, 0.0, 0.0, 0.0, 1.698958544814662E9, 0.0, 2023-11-02 16:55:44.814
209.0, -187500.02235174447, 187500.0, 20634.52698403919, 19332.806090451013, 187500.0, 187500.0, -187500.02235174447, 34143.67546363777, -0.1, 0.976, 0.10400000000000001, 192.0, 0.0, 0.0, 0.0, 0.0, 0.0, 0.0, 0.0, 0.0, 0.0, 1.6989585448146732E9, 0.0, 2023-11-02 16:55:44.814
210.0, -187500.02235174447, 187500.0, 20633.968190427804, 19321.29494205653, 187500.0, 187500.0, -187500.02235174447, 34142.04378629253, -0.1, 0.976, 0.10400000000000001, 192.0, 0.0, 0.0, 0.0, 0.0, 0.0, 0.0, 0.0, 0.0, 0.0, 1.6989585448148422E9, 0.0, 2023-11-02 16:55:44.814
211.0, -187500.02235174447, 187500.0, 20634.147004383445, 19308.509744228097, 187500.0, 187500.0, -187500.02235174447, 34141.149716514316, -0.098, 0.98, 0.1, 192.0, 252.0, 240.0, 30.0, 160.0, 3.0, 32.0, 0.0, 0.0, 0.0, 1.69895854481486E9, 0.0, 2023-11-02 16:55:44.814
212.0, -187500.02235174447, 187500.0, 20634.594039272553, 19309.29205528403, 187500.0, 187500.0, -187500.02235174447, 34141.37323395887, -0.098, 0.98, 0.1, 192.0, 0.0, 0.0, 0.0, 0.0, 0.0, 0.0, 0.0, 0.0, 0.0, 1.6989585448148744E9, 0.0, 2023-11-02 16:55:44.814
213.0, -187500.02235174447, 187500.0, 20635.08577765057, 19311.77309891857, 187500.0, 187500.0, -187500.02235174447, 34139.965074058186, -0.098, 0.98, 0.1, 192.0, 0.0, 0.0, 0.0, 0.0, 0.0, 0.0, 0.0, 0.0, 0.0, 1.698958544814886E9, 0.0, 2023-11-02 16:55:44.814
214.0, -187500.02235174447, 187500.0, 20634.03524566117, 19303.502953470106, 187500.0, 187500.0, -187500.02235174447, 34138.780431602056, -0.098, 0.98, 0.1, 192.0, 0.0, 0.0, 0.0, 0.0, 0.0, 0.0, 0.0, 0.0, 0.0, 1.6989585448148973E9, 0.0, 2023-11-02 16:55:44.814
215.0, -187500.02235174447, 187500.0, 20634.392873572455, 19288.169656773767, 187500.0, 187500.0, -187500.02235174447, 34139.92037056928, -0.098, 0.98, 0.1, 192.0, 0.0, 0.0, 0.0, 0.0, 0.0, 0.0, 0.0, 0.0, 0.0, 1.6989585448149078E9, 0.0, 2023-11-02 16:55:44.814
216.0, -187500.02235174447, 187500.0, 20632.85060320504, 19281.01709854807, 187500.0, 187500.0, -187500.02235174447, 34138.065175779484, -0.098, 0.98, 0.1, 192.0, 0.0, 0.0, 0.0, 0.0, 0.0, 0.0, 0.0, 0.0, 0.0, 1.6989585448149185E9, 0.0, 2023-11-02 16:55:44.814
217.0, -187500.02235174447, 187500.0, 20631.397739815446, 19276.144418256812, 187500.0, 187500.0, -187500.02235174447, 34134.935931555745, -0.098, 0.98, 0.1, 192.0, 0.0, 0.0, 0.0, 0.0, 0.0, 0.0, 0.0, 0.0, 0.0, 1.6989585448149292E9, 0.0, 2023-11-02 16:55:44.814
218.0, -187500.02235174447, 187500.0, 20635.71162649532, 19277.95490955769, 187500.0, 187500.0, -187500.02235174447, 34139.38392870235, -0.098, 0.98, 0.1, 192.0, 0.0, 0.0, 0.0, 0.0, 0.0, 0.0, 0.0, 0.0, 0.0, 1.6989585448149402E9, 0.0, 2023-11-02 16:55:44.814
219.0, -187500.02235174447, 187500.0, 20644.13823415497, 19277.597281646405, 187500.0, 187500.0, -187500.02235174447, 34147.788184617544, -0.098, 0.98, 0.1, 192.0, 0.0, 0.0, 0.0, 0.0, 0.0, 0.0, 0.0, 0.0, 0.0, 1.6989585448149507E9, 0.0, 2023-11-02 16:55:44.814
220.0, -187500.02235174447, 187500.0, 20641.03134167568, 19274.132761255834, 187500.0, 187500.0, -187500.02235174447, 34145.620065405375, -0.098, 0.98, 0.1, 192.0, 0.0, 0.0, 0.0, 0.0, 0.0, 0.0, 0.0, 0.0, 0.0, 1.6989585448149607E9, 0.0, 2023-11-02 16:55:44.814
221.0, -187500.02235174447, 187500.0, 20631.84477470455, 19274.088057766923, 187500.0, 187500.0, -187500.02235174447, 34137.059347279, -0.10200000000000001, 0.976, 0.10200000000000001, 192.0, 252.0, 208.0, 30.0, 128.0, 3.0, 48.0, 0.0, 0.0, 0.0, 1.698958544814973E9, 0.0, 2023-11-02 16:55:44.814
222.0, -187500.02235174447, 187500.0, 20630.727187481785, 19278.021964791056, 187500.0, 187500.0, -187500.02235174447, 34134.53360015555, -0.10200000000000001, 0.976, 0.10200000000000001, 192.0, 0.0, 0.0, 0.0, 0.0, 0.0, 0.0, 0.0, 0.0, 0.0, 1.6989585448149853E9, 0.0, 2023-11-02 16:55:44.814
223.0, -187500.02235174447, 187500.0, 20632.02358866019, 19273.216339733164, 187500.0, 187500.0, -187500.02235174447, 34136.29938796751, -0.10200000000000001, 0.976, 0.10200000000000001, 192.0, 0.0, 0.0, 0.0, 0.0, 0.0, 0.0, 0.0, 0.0, 0.0, 1.6989585448149967E9, 0.0, 2023-11-02 16:55:44.814
224.0, -187500.02235174447, 187500.0, 20642.193632387356, 19275.87619732335, 187500.0, 187500.0, -187500.02235174447, 34146.111803783395, -0.10200000000000001, 0.976, 0.10200000000000001, 192.0, 0.0, 0.0, 0.0, 0.0, 0.0, 0.0, 0.0, 0.0, 0.0, 1.6989585448150103E9, 0.0, 2023-11-02 16:55:44.815
225.0, -187500.02235174447, 187500.0, 20641.5230800537, 19287.253235251097, 187500.0, 187500.0, -187500.02235174447, 34146.15650727231, -0.10200000000000001, 0.976, 0.10200000000000001, 192.0, 0.0, 0.0, 0.0, 0.0, 0.0, 0.0, 0.0, 0.0, 0.0, 1.6989585448150482E9, 0.0, 2023-11-02 16:55:44.815
226.0, -187500.02235174447, 187500.0, 20633.588210772064, 19287.610863162383, 187500.0, 187500.0, -187500.02235174447, 34138.33339671295, -0.10200000000000001, 0.976, 0.10200000000000001, 192.0, 0.0, 0.0, 0.0, 0.0, 0.0, 0.0, 0.0, 0.0, 0.0, 1.6989585448150616E9, 0.0, 2023-11-02 16:55:44.815
227.0, -187500.02235174447, 187500.0, 20634.191707872356, 19283.609900904885, 187500.0, 187500.0, -187500.02235174447, 34137.014643790084, -0.10200000000000001, 0.976, 0.10200000000000001, 192.0, 0.0, 0.0, 0.0, 0.0, 0.0, 0.0, 0.0, 0.0, 0.0, 1.6989585448150723E9, 0.0, 2023-11-02 16:55:44.815
228.0, -187500.02235174447, 187500.0, 20638.505594552233, 19285.3533369724, 187500.0, 187500.0, -187500.02235174447, 34140.81444034749, -0.10200000000000001, 0.976, 0.10200000000000001, 192.0, 0.0, 0.0, 0.0, 0.0, 0.0, 0.0, 0.0, 0.0, 0.0, 1.698958544815083E9, 0.0, 2023-11-02 16:55:44.815
229.0, -187500.02235174447, 187500.0, 20638.84087071906, 19287.923787584758, 187500.0, 187500.0, -187500.02235174447, 34140.18859150274, -0.10200000000000001, 0.976, 0.10200000000000001, 192.0, 0.0, 0.0, 0.0, 0.0, 0.0, 0.0, 0.0, 0.0, 0.0, 1.6989585448151035E9, 0.0, 2023-11-02 16:55:44.815
230.0, -187500.02235174447, 187500.0, 20642.79712948765, 19288.683746896237, 187500.0, 187500.0, -187500.02235174447, 34143.18372525975, -0.10200000000000001, 0.976, 0.1, 192.0, 252.0, 208.0, 30.0, 128.0, 3.0, 32.0, 0.0, 0.0, 0.0, 1.6989585448151162E9, 0.0, 2023-11-02 16:55:44.815
231.0, -187500.02235174447, 187500.0, 20646.060484178124, 19287.56615967347, 187500.0, 187500.0, -187500.02235174447, 34145.73182412766, -0.10200000000000001, 0.976, 0.1, 192.0, 0.0, 0.0, 0.0, 0.0, 0.0, 0.0, 0.0, 0.0, 0.0, 1.6989585448151317E9, 0.0, 2023-11-02 16:55:44.815
232.0, -187500.02235174447, 187500.0, 20651.581365058588, 19278.781924102535, 187500.0, 187500.0, -187500.02235174447, 34148.972827073674, -0.10200000000000001, 0.976, 0.1, 192.0, 0.0, 0.0, 0.0, 0.0, 0.0, 0.0, 0.0, 0.0, 0.0, 1.698958544815144E9, 0.0, 2023-11-02 16:55:44.815
233.0, -187500.02235174447, 187500.0, 20653.883594737483, 19281.844113092913, 187500.0, 187500.0, -187500.02235174447, 34150.06806255198, -0.10200000000000001, 0.976, 0.1, 192.0, 0.0, 0.0, 0.0, 0.0, 0.0, 0.0, 0.0, 0.0, 0.0, 1.6989585448151567E9, 0.0, 2023-11-02 16:55:44.815
234.0, -187500.02235174447, 187500.0, 20647.334533612076, 19284.503970683094, 187500.0, 187500.0, -187500.02235174447, 34143.13902177084, -0.10200000000000001, 0.976, 0.1, 192.0, 0.0, 0.0, 0.0, 0.0, 0.0, 0.0, 0.0, 0.0, 0.0, 1.6989585448151736E9, 0.0, 2023-11-02 16:55:44.815
235.0, -187500.02235174447, 187500.0, 20645.65815277793, 19273.752781600095, 187500.0, 187500.0, -187500.02235174447, 34143.54135317104, -0.10200000000000001, 0.976, 0.1, 192.0, 0.0, 0.0, 0.0, 0.0, 0.0, 0.0, 0.0, 0.0, 0.0, 1.6989585448151855E9, 0.0, 2023-11-02 16:55:44.815
236.0, -187500.02235174447, 187500.0, 20647.759216756727, 19272.925767055247, 187500.0, 187500.0, -187500.02235174447, 34146.42472820577, -0.10200000000000001, 0.976, 0.1, 192.0, 0.0, 0.0, 0.0, 0.0, 0.0, 0.0, 0.0, 0.0, 0.0, 1.6989585448152E9, 0.0, 2023-11-02 16:55:44.815
237.0, -187500.02235174447, 187500.0, 20643.08770216557, 19267.583700130428, 187500.0, 187500.0, -187500.02235174447, 34140.54621941403, -0.10200000000000001, 0.976, 0.1, 192.0, 0.0, 0.0, 0.0, 0.0, 0.0, 0.0, 0.0, 0.0, 0.0, 1.6989585448152165E9, 0.0, 2023-11-02 16:55:44.815
238.0, -187500.02235174447, 187500.0, 20639.958457941826, 19268.72363909765, 187500.0, 187500.0, -187500.02235174447, 34136.52290541207, -0.10200000000000001, 0.976, 0.1, 192.0, 0.0, 0.0, 0.0, 0.0, 0.0, 0.0, 0.0, 0.0, 0.0, 1.6989585448152325E9, 0.0, 2023-11-02 16:55:44.815
239.0, -187500.02235174447, 187500.0, 20643.825309732594, 19270.064743764968, 187500.0, 187500.0, -187500.02235174447, 34139.808611847, -0.10200000000000001, 0.976, 0.1, 192.0, 0.0, 0.0, 0.0, 0.0, 0.0, 0.0, 0.0, 0.0, 0.0, 1.6989585448152485E9, 0.0, 2023-11-02 16:55:44.815
240.0, -187500.02235174447, 187500.0, 20644.540565555166, 19255.178481957733, 187500.0, 187500.0, -187500.02235174447, 34141.39558570333, -0.094, 0.974, 0.098, 192.0, 253.0, 16.0, 30.0, 112.0, 3.0, 16.0, 0.0, 0.0, 0.0, 1.698958544815262E9, 0.0, 2023-11-02 16:55:44.815
241.0, -187500.02235174447, 187500.0, 20647.490995823264, 19248.785883043514, 187500.0, 187500.0, -187500.02235174447, 34145.15067877182, -0.094, 0.974, 0.098, 192.0, 0.0, 0.0, 0.0, 0.0, 0.0, 0.0, 0.0, 0.0, 0.0, 1.698958544815328E9, 0.0, 2023-11-02 16:55:44.815
242.0, -187500.02235174447, 187500.0, 20643.46768182131, 19248.96469699916, 187500.0, 187500.0, -187500.02235174447, 34138.13223101285, -0.094, 0.974, 0.098, 192.0, 0.0, 0.0, 0.0, 0.0, 0.0, 0.0, 0.0, 0.0, 0.0, 1.6989585448153405E9, 0.0, 2023-11-02 16:55:44.815
243.0, -187500.02235174447, 187500.0, 20643.75825449923, 19242.594449829394, 187500.0, 187500.0, -187500.02235174447, 34137.171106001275, -0.094, 0.974, 0.098, 192.0, 0.0, 0.0, 0.0, 0.0, 0.0, 0.0, 0.0, 0.0, 0.0, 1.6989585448153532E9, 0.0, 2023-11-02 16:55:44.815
244.0, -187500.02235174447, 187500.0, 20646.149891155947, 19240.001647472578, 187500.0, 187500.0, -187500.02235174447, 34139.65214963581, -0.094, 0.974, 0.098, 192.0, 0.0, 0.0, 0.0, 0.0, 0.0, 0.0, 0.0, 0.0, 0.0, 1.698958544815369E9, 0.0, 2023-11-02 16:55:44.815
245.0, -187500.02235174447, 187500.0, 20639.556126541633, 19229.47397583413, 187500.0, 187500.0, -187500.02235174447, 34132.633701876846, -0.094, 0.974, 0.098, 192.0, 0.0, 0.0, 0.0, 0.0, 0.0, 0.0, 0.0, 0.0, 0.0, 1.6989585448153849E9, 0.0, 2023-11-02 16:55:44.815
246.0, -187500.02235174447, 187500.0, 20637.432710818375, 19224.176612398223, 187500.0, 187500.0, -187500.02235174447, 34131.627873376354, -0.094, 0.974, 0.098, 192.0, 0.0, 0.0, 0.0, 0.0, 0.0, 0.0, 0.0, 0.0, 0.0, 1.698958544815402E9, 0.0, 2023-11-02 16:55:44.815
247.0, -187500.02235174447, 187500.0, 20639.243202119258, 19233.631400302816, 187500.0, 187500.0, -187500.02235174447, 34135.561780400494, -0.094, 0.974, 0.098, 192.0, 0.0, 0.0, 0.0, 0.0, 0.0, 0.0, 0.0, 0.0, 0.0, 1.698958544815418E9, 0.0, 2023-11-02 16:55:44.815
248.0, -187500.02235174447, 187500.0, 20640.02551317519, 19232.580868313416, 187500.0, 187500.0, -187500.02235174447, 34135.338262955935, -0.094, 0.974, 0.098, 192.0, 0.0, 0.0, 0.0, 0.0, 0.0, 0.0, 0.0, 0.0, 0.0, 1.6989585448154733E9, 0.0, 2023-11-02 16:55:44.815
249.0, -187500.02235174447, 187500.0, 20638.125614896493, 19224.601295542874, 187500.0, 187500.0, -187500.02235174447, 34133.34895769942, -0.094, 0.974, 0.098, 192.0, 0.0, 0.0, 0.0, 0.0, 0.0, 0.0, 0.0, 0.0, 0.0, 1.6989585448154912E9, 0.0, 2023-11-02 16:55:44.815
250.0, -187500.02235174447, 187500.0, 20640.56195504212, 19232.178536913223, 187500.0, 187500.0, -187500.02235174447, 34135.986463545145, -0.09, 0.982, 0.094, 192.0, 253.0, 48.0, 30.0, 176.0, 2.0, 240.0, 0.0, 0.0, 0.0, 1.6989585448155048E9, 0.0, 2023-11-02 16:55:44.815
251.0, -187500.02235174447, 187500.0, 20639.444367819353, 19246.126025453334, 187500.0, 187500.0, -187500.02235174447, 34135.11474551138, -0.09, 0.982, 0.094, 192.0, 0.0, 0.0, 0.0, 0.0, 0.0, 0.0, 0.0, 0.0, 0.0, 1.698958544815539E9, 0.0, 2023-11-02 16:55:44.815
252.0, -187500.02235174447, 187500.0, 20637.61152477402, 19257.011325003066, 187500.0, 187500.0, -187500.02235174447, 34131.918446054275, -0.09, 0.982, 0.094, 192.0, 0.0, 0.0, 0.0, 0.0, 0.0, 0.0, 0.0, 0.0, 0.0, 1.6989585448155515E9, 0.0, 2023-11-02 16:55:44.815
253.0, -187500.02235174447, 187500.0, 20637.99150442976, 19252.876252278835, 187500.0, 187500.0, -187500.02235174447, 34132.074908265466, -0.09, 0.982, 0.094, 192.0, 0.0, 0.0, 0.0, 0.0, 0.0, 0.0, 0.0, 0.0, 0.0, 1.698958544815565E9, 0.0, 2023-11-02 16:55:44.815
254.0, -187500.02235174447, 187500.0, 20635.219888117303, 19260.364086671365, 187500.0, 187500.0, -187500.02235174447, 34130.242065220125, -0.09, 0.982, 0.094, 192.0, 0.0, 0.0, 0.0, 0.0, 0.0, 0.0, 0.0, 0.0, 0.0, 1.6989585448155787E9, 0.0, 2023-11-02 16:55:44.815
255.0, -187500.02235174447, 187500.0, 20627.32972232458, 19261.1463977273, 187500.0, 187500.0, -187500.02235174447, 34123.15656222779, -0.09, 0.982, 0.094, 192.0, 0.0, 0.0, 0.0, 0.0, 0.0, 0.0, 0.0, 0.0, 0.0, 1.6989585448155901E9, 0.0, 2023-11-02 16:55:44.815
0.0, -187500.02235174447, 187500.0, 20634.66109450592, 19259.827644804438, 187500.0, 187500.0, -187500.02235174447, 34132.11961175437, -0.09, 0.982, 0.094, 192.0, 0.0, 0.0, 0.0, 0.0, 0.0, 0.0, 0.0, 0.0, 0.0, 1.6989585448156438E9, 0.0, 2023-11-02 16:55:44.815
1.0, -187500.02235174447, 187500.0, 20639.84669921955, 19254.753798813083, 187500.0, 187500.0, -187500.02235174447, 34137.77460310156, -0.09, 0.982, 0.094, 192.0, 0.0, 0.0, 0.0, 0.0, 0.0, 0.0, 0.0, 0.0, 0.0, 1.6989585448156564E9, 0.0, 2023-11-02 16:55:44.815
2.0, -187500.02235174447, 187500.0, 20643.355923099032, 19251.736313311616, 187500.0, 187500.0, -187500.02235174447, 34142.066138036986, -0.09, 0.982, 0.094, 192.0, 0.0, 0.0, 0.0, 0.0, 0.0, 0.0, 0.0, 0.0, 0.0, 1.6989585448156679E9, 0.0, 2023-11-02 16:55:44.815
3.0, -187500.02235174447, 187500.0, 20634.28111485018, 19254.172653457244, 187500.0, 187500.0, -187500.02235174447, 34131.42670767626, -0.09, 0.982, 0.094, 192.0, 0.0, 0.0, 0.0, 0.0, 0.0, 0.0, 0.0, 0.0, 0.0, 1.6989585448156803E9, 0.0, 2023-11-02 16:55:44.815
4.0, -187500.02235174447, 187500.0, 20631.59890551554, 19252.920955767746, 187500.0, 187500.0, -187500.02235174447, 34126.44226866272, -0.096, 0.98, 0.10200000000000001, 192.0, 253.0, 0.0, 30.0, 160.0, 3.0, 48.0, 0.0, 0.0, 0.0, 1.6989585448156922E9, 0.0, 2023-11-02 16:55:44.815
5.0, -187500.02235174447, 187500.0, 20633.208231116325, 19245.47782486413, 187500.0, 187500.0, -187500.02235174447, 34127.42574541876, -0.096, 0.98, 0.10200000000000001, 192.0, 0.0, 0.0, 0.0, 0.0, 0.0, 0.0, 0.0, 0.0, 0.0, 1.6989585448157065E9, 0.0, 2023-11-02 16:55:44.815
6.0, -187500.02235174447, 187500.0, 20637.16448988491, 19244.583755085918, 187500.0, 187500.0, -187500.02235174447, 34130.21971347567, -0.096, 0.98, 0.10200000000000001, 192.0, 0.0, 0.0, 0.0, 0.0, 0.0, 0.0, 0.0, 0.0, 0.0, 1.6989585448157215E9, 0.0, 2023-11-02 16:55:44.815
7.0, -187500.02235174447, 187500.0, 20633.07412064959, 19247.824758031937, 187500.0, 187500.0, -187500.02235174447, 34125.212922717685, -0.096, 0.98, 0.10200000000000001, 192.0, 0.0, 0.0, 0.0, 0.0, 0.0, 0.0, 0.0, 0.0, 0.0, 1.6989585448157349E9, 0.0, 2023-11-02 16:55:44.815
8.0, -187500.02235174447, 187500.0, 20631.80007121564, 19242.862670762857, 187500.0, 187500.0, -187500.02235174447, 34123.402431416805, -0.096, 0.98, 0.10200000000000001, 192.0, 0.0, 0.0, 0.0, 0.0, 0.0, 0.0, 0.0, 0.0, 0.0, 1.698958544815747E9, 0.0, 2023-11-02 16:55:44.815
9.0, -187500.02235174447, 187500.0, 20636.024550917693, 19242.929725996226, 187500.0, 187500.0, -187500.02235174447, 34127.09046925193, -0.096, 0.98, 0.10200000000000001, 192.0, 0.0, 0.0, 0.0, 0.0, 0.0, 0.0, 0.0, 0.0, 0.0, 1.6989585448157604E9, 0.0, 2023-11-02 16:55:44.815
10.0, -187500.02235174447, 187500.0, 20631.285981093166, 19232.647923546785, 187500.0, 187500.0, -187500.02235174447, 34122.01662326058, -0.096, 0.98, 0.10200000000000001, 192.0, 0.0, 0.0, 0.0, 0.0, 0.0, 0.0, 0.0, 0.0, 0.0, 1.698958544815778E9, 0.0, 2023-11-02 16:55:44.815
11.0, -187500.02235174447, 187500.0, 20624.245181589748, 19227.61878104434, 187500.0, 187500.0, -187500.02235174447, 34114.08175397894, -0.096, 0.98, 0.10200000000000001, 192.0, 0.0, 0.0, 0.0, 0.0, 0.0, 0.0, 0.0, 0.0, 0.0, 1.6989585448157933E9, 0.0, 2023-11-02 16:55:44.815
12.0, -187500.02235174447, 187500.0, 20622.010007144214, 19226.76941475504, 187500.0, 187500.0, -187500.02235174447, 34111.53365511104, -0.096, 0.98, 0.10200000000000001, 192.0, 0.0, 0.0, 0.0, 0.0, 0.0, 0.0, 0.0, 0.0, 0.0, 1.698958544815807E9, 0.0, 2023-11-02 16:55:44.815
13.0, -187500.02235174447, 187500.0, 20626.88268743547, 19227.50702232206, 187500.0, 187500.0, -187500.02235174447, 34115.199341201704, -0.096, 0.98, 0.10200000000000001, 192.0, 0.0, 0.0, 0.0, 0.0, 0.0, 0.0, 0.0, 0.0, 0.0, 1.6989585448158221E9, 0.0, 2023-11-02 16:55:44.815
14.0, -187500.02235174447, 187500.0, 20626.994446157747, 19221.293237363487, 187500.0, 187500.0, -187500.02235174447, 34114.50643712359, -0.094, 0.984, 0.106, 192.0, 253.0, 16.0, 30.0, 192.0, 3.0, 80.0, 0.0, 0.0, 0.0, 1.6989585448158393E9, 0.0, 2023-11-02 16:55:44.815
15.0, -187500.02235174447, 187500.0, 20631.4200915599, 19230.85978399036, 187500.0, 187500.0, -187500.02235174447, 34116.58514935793, -0.094, 0.984, 0.106, 192.0, 0.0, 0.0, 0.0, 0.0, 0.0, 0.0, 0.0, 0.0, 0.0, 1.6989585448159132E9, 0.0, 2023-11-02 16:55:44.815
16.0, -187500.02235174447, 187500.0, 20627.30737058012, 19235.106615436867, 187500.0, 187500.0, -187500.02235174447, 34115.82519004645, -0.094, 0.984, 0.106, 192.0, 0.0, 0.0, 0.0, 0.0, 0.0, 0.0, 0.0, 0.0, 0.0, 1.6989585448159451E9, 0.0, 2023-11-02 16:55:44.815
17.0, -187500.02235174447, 187500.0, 20626.74857696874, 19228.0881676779, 187500.0, 187500.0, -187500.02235174447, 34116.22752144665, -0.094, 0.984, 0.106, 192.0, 0.0, 0.0, 0.0, 0.0, 0.0, 0.0, 0.0, 0.0, 0.0, 1.6989585448159623E9, 0.0, 2023-11-02 16:55:44.815
18.0, -187500.02235174447, 187500.0, 20631.50949853772, 19228.51285082255, 187500.0, 187500.0, -187500.02235174447, 34120.675518593256, -0.094, 0.984, 0.106, 192.0, 0.0, 0.0, 0.0, 0.0, 0.0, 0.0, 0.0, 0.0, 0.0, 1.6989585448159816E9, 0.0, 2023-11-02 16:55:44.815
19.0, -187500.02235174447, 187500.0, 20630.23544910377, 19234.480766592118, 187500.0, 187500.0, -187500.02235174447, 34119.692041837225, -0.094, 0.984, 0.106, 192.0, 0.0, 0.0, 0.0, 0.0, 0.0, 0.0, 0.0, 0.0, 0.0, 1.6989585448159957E9, 0.0, 2023-11-02 16:55:44.815
20.0, -187500.02235174447, 187500.0, 20621.719434466297, 19230.1892316567, 187500.0, 187500.0, -187500.02235174447, 34111.645413833314, -0.094, 0.984, 0.106, 192.0, 0.0, 0.0, 0.0, 0.0, 0.0, 0.0, 0.0, 0.0, 0.0, 1.698958544816012E9, 0.0, 2023-11-02 16:55:44.816
21.0, -187500.02235174447, 187500.0, 20619.350149554033, 19223.751929253573, 187500.0, 187500.0, -187500.02235174447, 34108.51616960957, -0.094, 0.984, 0.106, 192.0, 0.0, 0.0, 0.0, 0.0, 0.0, 0.0, 0.0, 0.0, 0.0, 1.6989585448160284E9, 0.0, 2023-11-02 16:55:44.816
22.0, -187500.02235174447, 187500.0, 20627.776757213684, 19226.47884207712, 187500.0, 187500.0, -187500.02235174447, 34115.10993422388, -0.094, 0.984, 0.106, 192.0, 0.0, 0.0, 0.0, 0.0, 0.0, 0.0, 0.0, 0.0, 0.0, 1.6989585448160424E9, 0.0, 2023-11-02 16:55:44.816
23.0, -187500.02235174447, 187500.0, 20629.162565369912, 19238.504080594073, 187500.0, 187500.0, -187500.02235174447, 34114.50643712359, -0.094, 0.984, 0.106, 192.0, 0.0, 0.0, 0.0, 0.0, 0.0, 0.0, 0.0, 0.0, 0.0, 1.6989585448160565E9, 0.0, 2023-11-02 16:55:44.816
24.0, -187500.02235174447, 187500.0, 20620.89241992145, 19235.933629981715, 187500.0, 187500.0, -187500.02235174447, 34104.76107654108, -0.092, 0.984, 0.10200000000000001, 192.0, 253.0, 32.0, 30.0, 192.0, 3.0, 48.0, 0.0, 0.0, 0.0, 1.6989585448160727E9, 0.0, 2023-11-02 16:55:44.816
25.0, -187500.02235174447, 187500.0, 20623.641684489452, 19240.158109683765, 187500.0, 187500.0, -187500.02235174447, 34108.784390543035, -0.092, 0.984, 0.10200000000000001, 192.0, 0.0, 0.0, 0.0, 0.0, 0.0, 0.0, 0.0, 0.0, 0.0, 1.698958544816089E9, 0.0, 2023-11-02 16:55:44.816
26.0, -187500.02235174447, 187500.0, 20630.526021781687, 19239.62166781684, 187500.0, 187500.0, -187500.02235174447, 34116.29457668002, -0.092, 0.984, 0.10200000000000001, 192.0, 0.0, 0.0, 0.0, 0.0, 0.0, 0.0, 0.0, 0.0, 0.0, 1.698958544816104E9, 0.0, 2023-11-02 16:55:44.816
27.0, -187500.02235174447, 187500.0, 20630.950704926337, 19245.1425486973, 187500.0, 187500.0, -187500.02235174447, 34116.02635574655, -0.092, 0.984, 0.10200000000000001, 192.0, 0.0, 0.0, 0.0, 0.0, 0.0, 0.0, 0.0, 0.0, 0.0, 1.6989585448161175E9, 0.0, 2023-11-02 16:55:44.816
28.0, -187500.02235174447, 187500.0, 20624.759271712217, 19247.66829582075, 187500.0, 187500.0, -187500.02235174447, 34108.67263182076, -0.092, 0.984, 0.10200000000000001, 192.0, 0.0, 0.0, 0.0, 0.0, 0.0, 0.0, 0.0, 0.0, 0.0, 1.6989585448161333E9, 0.0, 2023-11-02 16:55:44.816
29.0, -187500.02235174447, 187500.0, 20626.636818246465, 19254.373819157343, 187500.0, 187500.0, -187500.02235174447, 34110.93015801074, -0.092, 0.984, 0.10200000000000001, 192.0, 0.0, 0.0, 0.0, 0.0, 0.0, 0.0, 0.0, 0.0, 0.0, 1.6989585448161483E9, 0.0, 2023-11-02 16:55:44.816
30.0, -187500.02235174447, 187500.0, 20627.821460702595, 19257.167787214254, 187500.0, 187500.0, -187500.02235174447, 34113.83588478993, -0.092, 0.984, 0.10200000000000001, 192.0, 0.0, 0.0, 0.0, 0.0, 0.0, 0.0, 0.0, 0.0, 0.0, 1.6989585448162267E9, 0.0, 2023-11-02 16:55:44.816
31.0, -187500.02235174447, 187500.0, 20625.765100212706, 19253.457397634673, 187500.0, 187500.0, -187500.02235174447, 34113.99234700112, -0.092, 0.984, 0.10200000000000001, 192.0, 0.0, 0.0, 0.0, 0.0, 0.0, 0.0, 0.0, 0.0, 0.0, 1.6989585448162453E9, 0.0, 2023-11-02 16:55:44.816
