%OpenBCI Raw EEG Data
%Number of channels = 8
%Sample Rate = 250 Hz
%Board = OpenBCI_GUI$BoardCytonSerial
Sample Index, EXG Channel 0, EXG Channel 1, EXG Channel 2, EXG Channel 3, EXG Channel 4, EXG Channel 5, EXG Channel 6, EXG Channel 7, Accel Channel 0, Accel Channel 1, Accel Channel 2, Other, Other, Other, Other, Other, Other, Other, Analog Channel 0, Analog Channel 1, Analog Channel 2, Timestamp, Other, Timestamp (Formatted)
67.0, 12697.489583193015, 18054.934508196653, 51559.171266457, 77362.42739706367, 11411.884297357119, -17802.89623771861, -38778.06380725668, 16400.05605221463, 0.0, 0.0, 0.0, 192.0, 0.0, 0.0, 0.0, 0.0, 0.0, 0.0, 0.0, 0.0, 0.0, 1.6962750453091533E9, 0.0, 2023-10-02 15:30:45.309
68.0, 12690.448783689593, 18044.25037434702, 51562.121696725095, 77356.23596384954, 11406.63163741012, -17809.691168033027, -38769.9501240194, 16405.308712161626, 0.0, 0.0, 0.0, 192.0, 0.0, 0.0, 0.0, 0.0, 0.0, 0.0, 0.0, 0.0, 0.0, 1.6962750453091788E9, 0.0, 2023-10-02 15:30:45.309
69.0, 12685.93373130962, 18039.154176611206, 51560.89235078006, 77376.84427223734, 11398.585009406212, -17815.726139035956, -38758.50603085828, 16411.276627931195, 0.0, 0.0, 0.0, 192.0, 0.0, 0.0, 0.0, 0.0, 0.0, 0.0, 0.0, 0.0, 0.0, 1.696275045309189E9, 0.0, 2023-10-02 15:30:45.309
70.0, 12677.194199227597, 18032.359246296794, 51543.07801044918, 77370.87635646776, 11388.124393001128, -17827.729025808458, -38745.76553651876, 16419.21149721283, 0.0, 0.0, 0.0, 192.0, 0.0, 0.0, 0.0, 0.0, 0.0, 0.0, 0.0, 0.0, 0.0, 1.6962750453091986E9, 0.0, 2023-10-02 15:30:45.309
71.0, 12689.88999007821, 18047.37961857076, 51541.13340868156, 77326.77636465745, 11397.467422183445, -17824.62213332917, -38748.20187666439, 16414.115299477016, 0.0, 0.0, 0.0, 192.0, 0.0, 0.0, 0.0, 0.0, 0.0, 0.0, 0.0, 0.0, 0.0, 1.6962750453092082E9, 0.0, 2023-10-02 15:30:45.309
72.0, 12694.539152924914, 18053.369886084784, 51558.433658889975, 77309.85609410478, 11406.385768221113, -17814.38503436864, -38750.481754598826, 16409.77906105269, 0.0, 0.0, 0.0, 192.0, 0.0, 0.0, 0.0, 0.0, 0.0, 0.0, 0.0, 0.0, 0.0, 1.696275045309218E9, 0.0, 2023-10-02 15:30:45.309
73.0, 12692.259274990472, 18051.24647036153, 51562.79224905876, 77314.48290520703, 11408.576239177733, -17813.267447145874, -38762.73051056034, 16397.083270202074, 0.0, 0.0, 0.0, 192.0, 0.0, 0.0, 0.0, 0.0, 0.0, 0.0, 0.0, 0.0, 0.0, 1.6962750453092284E9, 0.0, 2023-10-02 15:30:45.309
74.0, 12683.720908608546, 18043.84804294682, 51555.572635599696, 77319.51204770948, 11402.5412681748, -17820.19648792702, -38751.532286588226, 16408.14738370745, 0.0, 0.0, 0.0, 192.0, 0.0, 0.0, 0.0, 0.0, 0.0, 0.0, 0.0, 0.0, 0.0, 1.696275045309239E9, 0.0, 2023-10-02 15:30:45.309
75.0, 12693.399213957693, 18058.711953009602, 51545.31318489471, 77278.96598326755, 11405.938733332006, -17824.890354262632, -38752.13578368852, 16408.169735451906, 0.0, 0.0, 0.0, 192.0, 0.0, 0.0, 0.0, 0.0, 0.0, 0.0, 0.0, 0.0, 0.0, 1.6962750453092482E9, 0.0, 2023-10-02 15:30:45.309
76.0, 12690.091155778307, 18052.162891884196, 51549.58236808567, 77255.25078240047, 11406.83280311022, -17816.66491230308, -38755.62265582355, 16405.53222960618, 0.082, 0.9440000000000001, 0.28600000000000003, 192.0, 2.0, 144.0, 29.0, 128.0, 8.0, 240.0, 0.0, 0.0, 0.0, 1.6962750453092575E9, 0.0, 2023-10-02 15:30:45.309
77.0, 12668.097039234286, 18030.61581022928, 51545.000260472334, 77299.28371897743, 11383.050547009772, -17827.95254325301, -38713.57902450312, 16440.02097130072, 0.082, 0.9440000000000001, 0.28600000000000003, 192.0, 0.0, 0.0, 0.0, 0.0, 0.0, 0.0, 0.0, 0.0, 0.0, 1.69627504530927E9, 0.0, 2023-10-02 15:30:45.309
78.0, 12682.849190574789, 18048.47485404907, 51541.17811217048, 77298.76962885495, 11388.750241845875, -17824.309208906794, -38711.07562912412, 16438.456349188848, 0.082, 0.9440000000000001, 0.28600000000000003, 192.0, 0.0, 0.0, 0.0, 0.0, 0.0, 0.0, 0.0, 0.0, 0.0, 1.696275045309282E9, 0.0, 2023-10-02 15:30:45.309
79.0, 12700.618827416758, 18063.51757806749, 51538.18297841346, 77257.21773591253, 11402.87654434163, -17817.33546463674, -38728.55469328817, 16423.34656993706, 0.082, 0.9440000000000001, 0.28600000000000003, 192.0, 0.0, 0.0, 0.0, 0.0, 0.0, 0.0, 0.0, 0.0, 0.0, 1.696275045309292E9, 0.0, 2023-10-02 15:30:45.309
80.0, 12704.060996062875, 18066.490360080046, 51537.95946096891, 77224.07009888532, 11403.457689697469, -17818.274237903865, -38744.06680394016, 16408.750880807744, 0.082, 0.9440000000000001, 0.28600000000000003, 192.0, 0.0, 0.0, 0.0, 0.0, 0.0, 0.0, 0.0, 0.0, 0.0, 1.6962750453093305E9, 0.0, 2023-10-02 15:30:45.309
81.0, 12696.37199597025, 18068.703182781122, 51547.101324451134, 77228.49574428747, 11402.071881541238, -17817.737796036934, -38759.86948727006, 16393.641101555957, 0.082, 0.9440000000000001, 0.28600000000000003, 192.0, 0.0, 0.0, 0.0, 0.0, 0.0, 0.0, 0.0, 0.0, 0.0, 1.6962750453093407E9, 0.0, 2023-10-02 15:30:45.309
82.0, 12683.36328069726, 18063.13759841175, 51552.91277800951, 77250.60161955377, 11405.4916984429, -17820.911743749588, -38752.31459764417, 16403.58762783857, 0.082, 0.9440000000000001, 0.28600000000000003, 192.0, 0.0, 0.0, 0.0, 0.0, 0.0, 0.0, 0.0, 0.0, 0.0, 1.6962750453093507E9, 0.0, 2023-10-02 15:30:45.309
83.0, 12696.46140294807, 18074.84991250633, 51544.933205238965, 77213.85535166923, 11415.907611359075, -17813.781537268347, -38773.124071732054, 16389.260159642716, 0.082, 0.9440000000000001, 0.28600000000000003, 192.0, 0.0, 0.0, 0.0, 0.0, 0.0, 0.0, 0.0, 0.0, 0.0, 1.6962750453094988E9, 0.0, 2023-10-02 15:30:45.309
84.0, 12690.627597645236, 18072.882958994265, 51551.90694950902, 77181.64648790914, 11414.812375880763, -17811.166383167074, -38790.133749262546, 16376.743182747745, 0.082, 0.9440000000000001, 0.28600000000000003, 192.0, 0.0, 0.0, 0.0, 0.0, 0.0, 0.0, 0.0, 0.0, 0.0, 1.6962750453095105E9, 0.0, 2023-10-02 15:30:45.309
85.0, 12668.968757268043, 18057.929641953666, 51552.08576346467, 77220.53852326138, 11397.512125672356, -17826.633790330146, -38753.11926044455, 16408.34854940755, 0.082, 0.9440000000000001, 0.28600000000000003, 192.0, 0.0, 0.0, 0.0, 0.0, 0.0, 0.0, 0.0, 0.0, 0.0, 1.6962750453095205E9, 0.0, 2023-10-02 15:30:45.309
86.0, 12680.569312640348, 18065.082200179364, 51546.27430990629, 77240.8786107157, 11396.014558793851, -17823.81747052878, -38738.52357131524, 16419.43501465738, 0.074, 0.9440000000000001, 0.29, 192.0, 2.0, 80.0, 29.0, 128.0, 9.0, 16.0, 0.0, 0.0, 0.0, 1.6962750453095303E9, 0.0, 2023-10-02 15:30:45.309
87.0, 12680.010519028965, 18053.638107018247, 51534.807865000716, 77215.17410459211, 11386.515067400345, -17829.360703153696, -38740.356414360576, 16415.590514611067, 0.074, 0.9440000000000001, 0.29, 192.0, 0.0, 0.0, 0.0, 0.0, 0.0, 0.0, 0.0, 0.0, 0.0, 1.6962750453095407E9, 0.0, 2023-10-02 15:30:45.309
88.0, 12685.576103398336, 18053.05696166241, 51527.11886490809, 77168.88364182516, 11386.000977277872, -17836.02152300138, -38753.36512963357, 16401.77713653769, 0.074, 0.9440000000000001, 0.29, 192.0, 0.0, 0.0, 0.0, 0.0, 0.0, 0.0, 0.0, 0.0, 0.0, 1.6962750453095505E9, 0.0, 2023-10-02 15:30:45.309
89.0, 12672.545036380892, 18042.350476068317, 51541.513388337306, 77181.87000535369, 11380.815372564242, -17840.424816659073, -38737.36128060357, 16414.24940994375, 0.074, 0.9440000000000001, 0.29, 192.0, 0.0, 0.0, 0.0, 0.0, 0.0, 0.0, 0.0, 0.0, 0.0, 1.696275045309562E9, 0.0, 2023-10-02 15:30:45.309
90.0, 12676.478943405027, 18052.408761073206, 51544.68733604996, 77210.63670046767, 11381.687090598, -17838.122586980175, -38723.99493741929, 16424.620619371013, 0.074, 0.9440000000000001, 0.29, 192.0, 0.0, 0.0, 0.0, 0.0, 0.0, 0.0, 0.0, 0.0, 0.0, 1.6962750453095717E9, 0.0, 2023-10-02 15:30:45.309
91.0, 12674.914321293154, 18056.789702986443, 51543.36858312709, 77202.88064514169, 11385.6880528555, -17832.91463052209, -38723.212626363355, 16424.15123273745, 0.074, 0.9440000000000001, 0.29, 192.0, 0.0, 0.0, 0.0, 0.0, 0.0, 0.0, 0.0, 0.0, 0.0, 1.6962750453095815E9, 0.0, 2023-10-02 15:30:45.309
92.0, 12687.788926099412, 18070.983060715564, 51543.14506568254, 77170.2694499814, 11393.846439581686, -17826.231458929953, -38724.129047886025, 16421.334912936083, 0.074, 0.9440000000000001, 0.29, 192.0, 0.0, 0.0, 0.0, 0.0, 0.0, 0.0, 0.0, 0.0, 0.0, 1.6962750453095913E9, 0.0, 2023-10-02 15:30:45.309
93.0, 12688.884161577722, 18075.162836928706, 51560.71353682441, 77172.3705139602, 11405.268180998348, -17821.492889105426, -38723.369088574545, 16419.502069890746, 0.074, 0.9440000000000001, 0.29, 192.0, 0.0, 0.0, 0.0, 0.0, 0.0, 0.0, 0.0, 0.0, 0.0, 1.6962750453096008E9, 0.0, 2023-10-02 15:30:45.309
94.0, 12685.978434798531, 18071.273633393484, 51564.44627814845, 77211.95545339053, 11398.16032626156, -17818.117775692677, -38699.56448072964, 16437.227003243806, 0.074, 0.9440000000000001, 0.29, 192.0, 0.0, 0.0, 0.0, 0.0, 0.0, 0.0, 0.0, 0.0, 0.0, 1.6962750453096108E9, 0.0, 2023-10-02 15:30:45.309
95.0, 12679.496428906492, 18063.33876411185, 51551.01287973081, 77209.96614813402, 11393.667625626043, -17823.079862961753, -38689.64030619148, 16440.468006189825, 0.074, 0.9440000000000001, 0.29, 192.0, 0.0, 0.0, 0.0, 0.0, 0.0, 0.0, 0.0, 0.0, 0.0, 1.6962750453096204E9, 0.0, 2023-10-02 15:30:45.309
96.0, 12684.07853651983, 18068.01027870301, 51541.088705192655, 77149.77290031587, 11395.612227393654, -17831.551174110315, -38720.30689958417, 16407.47683137379, 0.078, 0.9560000000000001, 0.29, 192.0, 2.0, 112.0, 29.0, 224.0, 9.0, 16.0, 0.0, 0.0, 0.0, 1.69627504530963E9, 0.0, 2023-10-02 15:30:45.309
97.0, 12669.661661346157, 18059.60602278781, 51547.101324451134, 77128.56109482779, 11390.314863957747, -17834.456900889505, -38737.67420502594, 16387.628482297478, 0.078, 0.9560000000000001, 0.29, 192.0, 0.0, 0.0, 0.0, 0.0, 0.0, 0.0, 0.0, 0.0, 0.0, 1.6962750453096404E9, 0.0, 2023-10-02 15:30:45.309
98.0, 12657.256443173463, 18058.600194287326, 51553.940958254454, 77168.57071740279, 11382.603512120666, -17831.126490965664, -38714.1378181145, 16406.80627904013, 0.078, 0.9560000000000001, 0.29, 192.0, 0.0, 0.0, 0.0, 0.0, 0.0, 0.0, 0.0, 0.0, 0.0, 1.6962750453096502E9, 0.0, 2023-10-02 15:30:45.309
99.0, 12654.685992561102, 18060.43303733266, 51551.504618108826, 77175.58916516176, 11386.269198211337, -17832.691113077537, -38705.599451732574, 16413.02006399871, 0.078, 0.9560000000000001, 0.29, 192.0, 0.0, 0.0, 0.0, 0.0, 0.0, 0.0, 0.0, 0.0, 0.0, 1.696275045309687E9, 0.0, 2023-10-02 15:30:45.309
100.0, 12649.388629125195, 18053.682810507158, 51536.70776327941, 77146.91187702559, 11382.804677820764, -17836.9602962685, -38698.93863188489, 16416.819860556112, 0.078, 0.9560000000000001, 0.29, 192.0, 0.0, 0.0, 0.0, 0.0, 0.0, 0.0, 0.0, 0.0, 0.0, 1.6962750453096964E9, 0.0, 2023-10-02 15:30:45.309
101.0, 12655.9376902506, 18060.567147799393, 51540.28404239226, 77130.68451055104, 11381.86590455364, -17832.646409588626, -38699.318611540635, 16411.120165720007, 0.078, 0.9560000000000001, 0.29, 192.0, 0.0, 0.0, 0.0, 0.0, 0.0, 0.0, 0.0, 0.0, 0.0, 1.696275045309706E9, 0.0, 2023-10-02 15:30:45.309
102.0, 12648.047524457876, 18053.816920973888, 51555.6173390886, 77175.09742678373, 11385.263369710849, -17830.165365954086, -38668.56261117013, 16435.68473287639, 0.078, 0.9560000000000001, 0.29, 192.0, 0.0, 0.0, 0.0, 0.0, 0.0, 0.0, 0.0, 0.0, 0.0, 1.6962750453097157E9, 0.0, 2023-10-02 15:30:45.309
103.0, 12650.036829714398, 18055.71681925259, 51547.19073142895, 77185.62509842218, 11389.666663368544, -17829.584220598248, -38660.426576188394, 16441.853814346054, 0.078, 0.9560000000000001, 0.29, 192.0, 0.0, 0.0, 0.0, 0.0, 0.0, 0.0, 0.0, 0.0, 0.0, 1.6962750453097255E9, 0.0, 2023-10-02 15:30:45.309
104.0, 12661.16799845314, 18068.077333936373, 51542.00512671532, 77126.43767910454, 11403.5918001642, -17821.604647827702, -38704.61597497654, 16403.855848772033, 0.078, 0.9560000000000001, 0.29, 192.0, 0.0, 0.0, 0.0, 0.0, 0.0, 0.0, 0.0, 0.0, 0.0, 1.6962750453097353E9, 0.0, 2023-10-02 15:30:45.309
105.0, 12657.368201895739, 18060.634203032758, 51553.69508906545, 77106.99166142842, 11405.06701529825, -17823.839822273236, -38713.86959718104, 16397.105621946528, 0.078, 0.9560000000000001, 0.29, 192.0, 0.0, 0.0, 0.0, 0.0, 0.0, 0.0, 0.0, 0.0, 0.0, 1.6962750453097448E9, 0.0, 2023-10-02 15:30:45.309
106.0, 12649.589794825291, 18050.95589768361, 51557.0702024782, 77140.4075193891, 11395.567523904745, -17827.840784530734, -38694.58004171611, 16413.57885761009, 0.084, 0.9460000000000001, 0.292, 192.0, 2.0, 160.0, 29.0, 144.0, 9.0, 32.0, 0.0, 0.0, 0.0, 1.6962750453097544E9, 0.0, 2023-10-02 15:30:45.309
107.0, 12658.59754784078, 18056.610889030802, 51558.18778970096, 77157.23838296394, 11400.104928029172, -17822.25284841691, -38694.04359984918, 16415.00936925523, 0.084, 0.9460000000000001, 0.292, 192.0, 0.0, 0.0, 0.0, 0.0, 0.0, 0.0, 0.0, 0.0, 0.0, 1.6962750453097646E9, 0.0, 2023-10-02 15:30:45.309
108.0, 12657.368201895739, 18058.175511142672, 51545.82727501718, 77126.1024029377, 11392.706500614466, -17832.91463052209, -38710.919166912936, 16400.90541850393, 0.084, 0.9460000000000001, 0.292, 192.0, 0.0, 0.0, 0.0, 0.0, 0.0, 0.0, 0.0, 0.0, 0.0, 1.6962750453097744E9, 0.0, 2023-10-02 15:30:45.309
109.0, 12652.719039049034, 18063.562281556402, 51549.694126807946, 77087.94797515249, 11399.523782673334, -17828.33252290875, -38734.72377475784, 16377.972528692786, 0.084, 0.9460000000000001, 0.292, 192.0, 0.0, 0.0, 0.0, 0.0, 0.0, 0.0, 0.0, 0.0, 0.0, 1.696275045309784E9, 0.0, 2023-10-02 15:30:45.309
110.0, 12646.16997792363, 18056.76735124199, 51565.45210664894, 77122.39201335813, 11403.63650365311, -17820.732929793947, -38710.96387040184, 16399.072575458595, 0.084, 0.9460000000000001, 0.292, 192.0, 0.0, 0.0, 0.0, 0.0, 0.0, 0.0, 0.0, 0.0, 0.0, 1.696275045309795E9, 0.0, 2023-10-02 15:30:45.309
111.0, 12640.626745298714, 18043.937449924644, 51562.99341475886, 77173.2645837384, 11396.126317516128, -17827.01376998589, -38674.1281955395, 16430.186203740384, 0.084, 0.9460000000000001, 0.292, 192.0, 0.0, 0.0, 0.0, 0.0, 0.0, 0.0, 0.0, 0.0, 0.0, 1.6962750453098047E9, 0.0, 2023-10-02 15:30:45.309
112.0, 12664.230187443518, 18065.752752513024, 51555.215007688406, 77155.40553991862, 11401.222515251937, -17817.357816381194, -38677.12332929651, 16422.228982714296, 0.084, 0.9460000000000001, 0.292, 192.0, 0.0, 0.0, 0.0, 0.0, 0.0, 0.0, 0.0, 0.0, 0.0, 1.6962750453098145E9, 0.0, 2023-10-02 15:30:45.309
113.0, 12668.477018890026, 18062.645860033736, 51563.038118247765, 77112.73605975343, 11404.843497853697, -17819.615342571182, -38700.61501271904, 16398.469078358303, 0.084, 0.9460000000000001, 0.292, 192.0, 0.0, 0.0, 0.0, 0.0, 0.0, 0.0, 0.0, 0.0, 0.0, 1.696275045309824E9, 0.0, 2023-10-02 15:30:45.309
114.0, 12654.8871582612, 18051.022952916974, 51571.33061544068, 77127.89054249413, 11398.92028557304, -17823.839822273236, -38684.99114334478, 16409.73435756378, 0.084, 0.9460000000000001, 0.292, 192.0, 0.0, 0.0, 0.0, 0.0, 0.0, 0.0, 0.0, 0.0, 0.0, 1.6962750453098676E9, 0.0, 2023-10-02 15:30:45.309
115.0, 12649.545091336382, 18058.57784254287, 51574.839839320164, 77149.72819682697, 11402.87654434163, -17815.033234957842, -38683.784149144194, 16410.516668619715, 0.084, 0.9460000000000001, 0.292, 192.0, 0.0, 0.0, 0.0, 0.0, 0.0, 0.0, 0.0, 0.0, 0.0, 1.6962750453098776E9, 0.0, 2023-10-02 15:30:45.309
116.0, 12650.21564367004, 18062.779970500465, 51564.73685082637, 77141.0557199783, 11397.288608227804, -17818.073072203766, -38685.7287509118, 16409.756709308233, 0.08, 0.9500000000000001, 0.29, 192.0, 2.0, 128.0, 29.0, 176.0, 9.0, 16.0, 0.0, 0.0, 0.0, 1.6962750453098872E9, 0.0, 2023-10-02 15:30:45.309
117.0, 12657.703478062569, 18065.931566468666, 51551.72813555338, 77085.8916146626, 11395.925151816029, -17826.43262463005, -38719.8375129506, 16377.413735081404, 0.08, 0.9500000000000001, 0.29, 192.0, 0.0, 0.0, 0.0, 0.0, 0.0, 0.0, 0.0, 0.0, 0.0, 1.696275045309898E9, 0.0, 2023-10-02 15:30:45.309
118.0, 12652.495521604482, 18052.162891884196, 51564.42392640399, 77095.1005333782, 11392.01359653635, -17826.924363008067, -38713.288451825196, 16381.414697338903, 0.08, 0.9500000000000001, 0.29, 192.0, 0.0, 0.0, 0.0, 0.0, 0.0, 0.0, 0.0, 0.0, 0.0, 1.696275045309908E9, 0.0, 2023-10-02 15:30:45.309
119.0, 12652.9872599825, 18055.38154308576, 51573.16345848602, 77145.54842061382, 11393.511163414856, -17824.197450184518, -38676.586887429585, 16413.24358144326, 0.08, 0.9500000000000001, 0.29, 192.0, 0.0, 0.0, 0.0, 0.0, 0.0, 0.0, 0.0, 0.0, 0.0, 1.6962750453099174E9, 0.0, 2023-10-02 15:30:45.309
120.0, 12663.090248476297, 18060.745961755034, 51571.48707765187, 77141.36864440067, 11410.744358389898, -17815.726139035956, -38677.83858511908, 16413.556505865636, 0.08, 0.9500000000000001, 0.29, 192.0, 0.0, 0.0, 0.0, 0.0, 0.0, 0.0, 0.0, 0.0, 0.0, 1.6962750453099277E9, 0.0, 2023-10-02 15:30:45.309
121.0, 12661.436219386605, 18056.655592519714, 51566.34617642715, 77111.3502515972, 11412.554849690778, -17819.928266993556, -38683.80650088865, 16407.49918311825, 0.08, 0.9500000000000001, 0.29, 192.0, 0.0, 0.0, 0.0, 0.0, 0.0, 0.0, 0.0, 0.0, 0.0, 1.6962750453099372E9, 0.0, 2023-10-02 15:30:45.309
122.0, 12644.627707556214, 18047.312563337393, 51554.38799314356, 77079.81194017077, 11394.226419237426, -17831.931153766054, -38713.71313496985, 16374.23978736875, 0.08, 0.9500000000000001, 0.29, 192.0, 0.0, 0.0, 0.0, 0.0, 0.0, 0.0, 0.0, 0.0, 0.0, 1.696275045309947E9, 0.0, 2023-10-02 15:30:45.309
123.0, 12640.872614487722, 18041.702275479114, 51559.43948739046, 77110.72440275246, 11392.527686658823, -17828.7572060534, -38704.0348296207, 16379.872426971488, 0.08, 0.9500000000000001, 0.29, 192.0, 0.0, 0.0, 0.0, 0.0, 0.0, 0.0, 0.0, 0.0, 0.0, 1.6962750453099566E9, 0.0, 2023-10-02 15:30:45.309
124.0, 12645.633536056703, 18042.28342083495, 51550.43173437497, 77110.34442309671, 11388.414965679047, -17832.66876133308, -38713.82489369212, 16371.781095478666, 0.08, 0.9500000000000001, 0.29, 192.0, 0.0, 0.0, 0.0, 0.0, 0.0, 0.0, 0.0, 0.0, 0.0, 1.6962750453099663E9, 0.0, 2023-10-02 15:30:45.309
125.0, 12646.013515712442, 18047.156101126206, 51540.932242981464, 77079.49901574838, 11384.883390055107, -17832.221726443975, -38721.75976297376, 16365.768476220188, 0.08, 0.9500000000000001, 0.29, 192.0, 0.0, 0.0, 0.0, 0.0, 0.0, 0.0, 0.0, 0.0, 0.0, 1.696275045309976E9, 0.0, 2023-10-02 15:30:45.309
126.0, 12643.554823822358, 18047.51372903749, 51546.49782735084, 77067.87610863162, 11390.806602335764, -17826.454976374505, -38722.20679786287, 16365.388496564448, 0.078, 0.9460000000000001, 0.29, 192.0, 2.0, 112.0, 29.0, 144.0, 9.0, 16.0, 0.0, 0.0, 0.0, 1.6962750453099859E9, 0.0, 2023-10-02 15:30:45.309
127.0, 12627.416864325627, 18038.304810321904, 51547.101324451134, 77105.0470596608, 11379.809544063753, -17836.110929979197, -38696.50229173926, 16386.063860185608, 0.078, 0.9460000000000001, 0.29, 192.0, 0.0, 0.0, 0.0, 0.0, 0.0, 0.0, 0.0, 0.0, 0.0, 1.696275045310023E9, 0.0, 2023-10-02 15:30:45.310
128.0, 12631.59664053877, 18049.033647660453, 51547.88363550707, 77115.50767606588, 11386.984454033907, -17829.785386298347, -38696.39053301699, 16386.4661915858, 0.078, 0.9460000000000001, 0.29, 192.0, 0.0, 0.0, 0.0, 0.0, 0.0, 0.0, 0.0, 0.0, 0.0, 1.696275045310033E9, 0.0, 2023-10-02 15:30:45.310
129.0, 12640.716152276535, 18058.95782219861, 51545.38024012807, 77084.08112336173, 11394.069957026239, -17824.443319373528, -38705.91237615495, 16376.51966530319, 0.078, 0.9460000000000001, 0.29, 192.0, 0.0, 0.0, 0.0, 0.0, 0.0, 0.0, 0.0, 0.0, 0.0, 1.6962750453100433E9, 0.0, 2023-10-02 15:30:45.310
130.0, 12657.703478062569, 18052.29700235093, 51550.3646791416, 77060.61179168365, 11391.030119780316, -17825.76207229639, -38707.90168141147, 16373.301014101628, 0.078, 0.9460000000000001, 0.29, 192.0, 0.0, 0.0, 0.0, 0.0, 0.0, 0.0, 0.0, 0.0, 0.0, 1.6962750453100853E9, 0.0, 2023-10-02 15:30:45.310
131.0, 12673.21558871455, 18040.227060345063, 51552.82337103169, 77094.60879500018, 11384.905741799563, -17836.513261379394, -38678.35267524156, 16397.15032543544, 0.078, 0.9460000000000001, 0.29, 192.0, 0.0, 0.0, 0.0, 0.0, 0.0, 0.0, 0.0, 0.0, 0.0, 1.696275045310114E9, 0.0, 2023-10-02 15:30:45.310
132.0, 12680.390498684705, 18044.09391213583, 51547.794228529245, 77104.93530093852, 11388.526724401323, -17836.37915091266, -38675.02226531771, 16397.507953346725, 0.078, 0.9460000000000001, 0.29, 192.0, 0.0, 0.0, 0.0, 0.0, 0.0, 0.0, 0.0, 0.0, 0.0, 1.6962750453101428E9, 0.0, 2023-10-02 15:30:45.310
133.0, 12667.471190389537, 18041.054074889907, 51530.13635040955, 77066.33383826421, 11381.642387109088, -17842.43647366005, -38693.26128879324, 16379.894778715943, 0.078, 0.9460000000000001, 0.29, 192.0, 0.0, 0.0, 0.0, 0.0, 0.0, 0.0, 0.0, 0.0, 0.0, 1.696275045310153E9, 0.0, 2023-10-02 15:30:45.310
134.0, 12667.828818300823, 18047.446673804126, 51533.86909173359, 77024.73724183289, 11385.710404599955, -17840.49187189244, -38711.679126224415, 16362.750990718723, 0.078, 0.9460000000000001, 0.29, 192.0, 0.0, 0.0, 0.0, 0.0, 0.0, 0.0, 0.0, 0.0, 0.0, 1.6962750453101633E9, 0.0, 2023-10-02 15:30:45.310
135.0, 12667.27002468944, 18055.940336697142, 51554.81267628821, 77032.3815384366, 11392.997073292385, -17828.846613031223, -38718.96579491685, 16356.224281337772, 0.078, 0.9460000000000001, 0.29, 192.0, 0.0, 0.0, 0.0, 0.0, 0.0, 0.0, 0.0, 0.0, 0.0, 1.6962750453101904E9, 0.0, 2023-10-02 15:30:45.310
136.0, 12652.182597182107, 18053.48164480706, 51560.78059205778, 77070.22304179944, 11388.72789010142, -17833.607534600204, -38702.29139355319, 16373.099848401529, 0.078, 0.9460000000000001, 0.29, 192.0, 0.0, 0.0, 0.0, 0.0, 0.0, 0.0, 0.0, 0.0, 0.0, 1.6962750453102195E9, 0.0, 2023-10-02 15:30:45.310
137.0, 12642.459588344049, 18056.94616519763, 51545.76021978381, 77063.49516671839, 11380.904779542063, -17835.596839856727, -38693.574213215616, 16383.29224387315, 0.078, 0.9500000000000001, 0.294, 192.0, 2.0, 112.0, 29.0, 176.0, 9.0, 48.0, 0.0, 0.0, 0.0, 1.6962750453102295E9, 0.0, 2023-10-02 15:30:45.310
138.0, 12649.612146569747, 18062.48939782255, 51549.35885064112, 77024.80429706625, 11388.124393001128, -17829.85244153171, -38714.9871844038, 16365.835531453555, 0.078, 0.9500000000000001, 0.294, 192.0, 0.0, 0.0, 0.0, 0.0, 0.0, 0.0, 0.0, 0.0, 0.0, 1.6962750453102405E9, 0.0, 2023-10-02 15:30:45.310
139.0, 12642.616050555236, 18044.6080022583, 51560.13239146858, 77037.52243966132, 11376.568541117733, -17836.937944524045, -38707.72286745583, 16371.915205945399, 0.078, 0.9500000000000001, 0.294, 192.0, 0.0, 0.0, 0.0, 0.0, 0.0, 0.0, 0.0, 0.0, 0.0, 1.6962750453102512E9, 0.0, 2023-10-02 15:30:45.310
140.0, 12644.35948662275, 18043.62452550227, 51559.84181879066, 77068.56901270975, 11372.321709671225, -17838.457863147007, -38696.99403011728, 16382.62169153949, 0.078, 0.9500000000000001, 0.294, 192.0, 0.0, 0.0, 0.0, 0.0, 0.0, 0.0, 0.0, 0.0, 0.0, 1.6962750453102615E9, 0.0, 2023-10-02 15:30:45.310
141.0, 12658.530492607415, 18059.449560576628, 51557.60664434513, 77047.22309675493, 11386.87269531163, -17828.86896477568, -38719.34577457259, 16366.57313902058, 0.078, 0.9500000000000001, 0.294, 192.0, 0.0, 0.0, 0.0, 0.0, 0.0, 0.0, 0.0, 0.0, 0.0, 1.69627504531029E9, 0.0, 2023-10-02 15:30:45.310
142.0, 12653.903681505166, 18059.449560576628, 51553.180998942975, 76994.78590426277, 11388.057337767761, -17831.975857254965, -38759.355397147585, 16332.687894426334, 0.078, 0.9500000000000001, 0.294, 192.0, 0.0, 0.0, 0.0, 0.0, 0.0, 0.0, 0.0, 0.0, 0.0, 1.6962750453103244E9, 0.0, 2023-10-02 15:30:45.310
143.0, 12633.474187073016, 18035.980228898552, 51556.332594911175, 77014.678956828, 11373.931035272008, -17847.689133607048, -38740.91520797196, 16350.099903357019, 0.078, 0.9500000000000001, 0.294, 192.0, 0.0, 0.0, 0.0, 0.0, 0.0, 0.0, 0.0, 0.0, 0.0, 1.6962750453103354E9, 0.0, 2023-10-02 15:30:45.310
144.0, 12625.360503835738, 18029.878202662254, 51552.979833242876, 77063.9869050964, 11367.516084613335, -17852.695924365034, -38704.25834706525, 16382.62169153949, 0.078, 0.9500000000000001, 0.294, 192.0, 0.0, 0.0, 0.0, 0.0, 0.0, 0.0, 0.0, 0.0, 0.0, 1.6962750453103456E9, 0.0, 2023-10-02 15:30:45.310
145.0, 12618.587925265781, 18030.23583057354, 51539.92641448098, 77064.7915678968, 11365.370317145625, -17855.266374977396, -38699.22920456281, 16386.823819497087, 0.078, 0.9500000000000001, 0.294, 192.0, 0.0, 0.0, 0.0, 0.0, 0.0, 0.0, 0.0, 0.0, 0.0, 1.6962750453103845E9, 0.0, 2023-10-02 15:30:45.310
146.0, 12619.705512488546, 18036.941353910133, 51529.24228063134, 77024.4243174105, 11367.314918913236, -17855.7134098665, -38708.30401281166, 16376.05027866963, 0.078, 0.9500000000000001, 0.294, 192.0, 0.0, 0.0, 0.0, 0.0, 0.0, 0.0, 0.0, 0.0, 0.0, 1.6962750453103948E9, 0.0, 2023-10-02 15:30:45.310
147.0, 12629.495576559972, 18041.34464756783, 51542.16158892651, 77004.82183752321, 11374.936863772497, -17850.684267364057, -38722.05033565168, 16361.789865707144, 0.076, 0.9500000000000001, 0.294, 192.0, 2.0, 96.0, 29.0, 176.0, 9.0, 48.0, 0.0, 0.0, 0.0, 1.6962750453104055E9, 0.0, 2023-10-02 15:30:45.310
148.0, 12631.440178327583, 18042.126958623765, 51558.67952807898, 77038.10358501716, 11375.115677728138, -17844.738703338946, -38710.76270470175, 16370.775266978178, 0.076, 0.9500000000000001, 0.294, 192.0, 0.0, 0.0, 0.0, 0.0, 0.0, 0.0, 0.0, 0.0, 0.0, 1.6962750453104177E9, 0.0, 2023-10-02 15:30:45.310
149.0, 12625.964000936032, 18044.026856902463, 51552.689260564955, 77051.7828526238, 11371.29352942628, -17836.155633468108, -38703.56544298714, 16379.224226382285, 0.076, 0.9500000000000001, 0.294, 192.0, 0.0, 0.0, 0.0, 0.0, 0.0, 0.0, 0.0, 0.0, 0.0, 1.6962750453104296E9, 0.0, 2023-10-02 15:30:45.310
150.0, 12627.461567814538, 18044.362133069295, 51547.12367619559, 77015.08128822819, 11375.406250406057, -17831.081787476753, -38719.74810597278, 16365.924938431375, 0.076, 0.9500000000000001, 0.294, 192.0, 0.0, 0.0, 0.0, 0.0, 0.0, 0.0, 0.0, 0.0, 0.0, 1.6962750453104396E9, 0.0, 2023-10-02 15:30:45.310
151.0, 12622.857108456745, 18033.074502119365, 51545.693164550445, 77001.91611074402, 11367.627843335611, -17837.38497941315, -38722.1397426295, 16362.460418040804, 0.076, 0.9500000000000001, 0.294, 192.0, 0.0, 0.0, 0.0, 0.0, 0.0, 0.0, 0.0, 0.0, 0.0, 1.6962750453104508E9, 0.0, 2023-10-02 15:30:45.310
152.0, 12613.73759671898, 18021.541001980426, 51545.44729536144, 77039.62350364012, 11358.016593219829, -17844.67164810558, -38700.503253996765, 16381.347642105538, 0.076, 0.9500000000000001, 0.294, 192.0, 0.0, 0.0, 0.0, 0.0, 0.0, 0.0, 0.0, 0.0, 0.0, 1.696275045310465E9, 0.0, 2023-10-02 15:30:45.310
153.0, 12614.721073475013, 18025.810185171387, 51537.467722590896, 77056.67788465953, 11350.908738483042, -17852.897090065133, -38690.95905911435, 16390.847133499043, 0.076, 0.9500000000000001, 0.294, 192.0, 0.0, 0.0, 0.0, 0.0, 0.0, 0.0, 0.0, 0.0, 0.0, 1.6962750453104825E9, 0.0, 2023-10-02 15:30:45.310
154.0, 12625.852242213756, 18036.896650421222, 51532.10330392162, 77025.6313116111, 11356.474322852413, -17850.39369468614, -38698.960983629346, 16386.063860185608, 0.076, 0.9500000000000001, 0.294, 192.0, 0.0, 0.0, 0.0, 0.0, 0.0, 0.0, 0.0, 0.0, 0.0, 1.696275045310495E9, 0.0, 2023-10-02 15:30:45.310
155.0, 12635.30703011835, 18035.510842264994, 51534.159664411505, 76990.60612804964, 11357.994241475373, -17846.258621961908, -38715.70244022637, 16370.618804766991, 0.076, 0.9500000000000001, 0.294, 192.0, 0.0, 0.0, 0.0, 0.0, 0.0, 0.0, 0.0, 0.0, 0.0, 1.696275045310507E9, 0.0, 2023-10-02 15:30:45.310
156.0, 12619.303181088351, 18022.166850825175, 51539.702897036426, 77016.42239289552, 11354.306203640248, -17851.980668542466, -38702.9842976313, 16380.140647904951, 0.076, 0.9500000000000001, 0.294, 192.0, 0.0, 0.0, 0.0, 0.0, 0.0, 0.0, 0.0, 0.0, 0.0, 1.6962750453105185E9, 0.0, 2023-10-02 15:30:45.310
157.0, 12623.59471602377, 18029.386464284238, 51540.23933890335, 77031.01808202482, 11363.24690142237, -17850.57250864178, -38710.494483768285, 16369.680031499867, 0.078, 0.9480000000000001, 0.292, 192.0, 2.0, 112.0, 29.0, 160.0, 9.0, 32.0, 0.0, 0.0, 0.0, 1.6962750453105335E9, 0.0, 2023-10-02 15:30:45.310
158.0, 12614.721073475013, 18019.596400212813, 51531.70097252142, 77019.59634060817, 11354.216796662426, -17856.71923836699, -38708.460475022854, 16369.031830910664, 0.078, 0.9480000000000001, 0.292, 192.0, 0.0, 0.0, 0.0, 0.0, 0.0, 0.0, 0.0, 0.0, 0.0, 1.6962750453105466E9, 0.0, 2023-10-02 15:30:45.310
159.0, 12617.716207232024, 18022.725644436556, 51529.30933586471, 76987.7674565038, 11354.48501759589, -17852.517110409393, -38722.296204840684, 16355.978412148765, 0.078, 0.9480000000000001, 0.292, 192.0, 0.0, 0.0, 0.0, 0.0, 0.0, 0.0, 0.0, 0.0, 0.0, 1.6962750453105612E9, 0.0, 2023-10-02 15:30:45.310
160.0, 12619.213774110529, 18022.792699669924, 51536.10426617912, 76997.26694789731, 11352.652174550554, -17852.181834242565, -38731.08044041162, 16347.75297018921, 0.078, 0.9480000000000001, 0.292, 192.0, 0.0, 0.0, 0.0, 0.0, 0.0, 0.0, 0.0, 0.0, 0.0, 1.6962750453105798E9, 0.0, 2023-10-02 15:30:45.310
161.0, 12617.939724676577, 18026.503089249505, 51542.51921683779, 77032.1803727365, 11347.757142514844, -17853.8135115878, -38722.07268739613, 16358.32534531657, 0.078, 0.9480000000000001, 0.292, 192.0, 0.0, 0.0, 0.0, 0.0, 0.0, 0.0, 0.0, 0.0, 0.0, 1.6962750453106322E9, 0.0, 2023-10-02 15:30:45.310
162.0, 12609.468413528015, 18026.637199716235, 51539.32291738068, 77032.24742796987, 11348.181825659494, -17856.249851733428, -38713.42256229193, 16370.417639066893, 0.078, 0.9480000000000001, 0.292, 192.0, 0.0, 0.0, 0.0, 0.0, 0.0, 0.0, 0.0, 0.0, 0.0, 1.69627504531065E9, 0.0, 2023-10-02 15:30:45.310
163.0, 12621.895983445167, 18042.75280746851, 51541.62514705958, 77005.02300322331, 11366.24203517938, -17854.595822643736, -38716.55180651567, 16367.62367100998, 0.078, 0.9480000000000001, 0.292, 192.0, 0.0, 0.0, 0.0, 0.0, 0.0, 0.0, 0.0, 0.0, 0.0, 1.6962750453106668E9, 0.0, 2023-10-02 15:30:45.310
164.0, 12627.483919558994, 18047.200804615117, 51560.98175775788, 77008.15224744705, 11378.49079114089, -17845.43160741706, -38726.74420198729, 16359.04060113914, 0.078, 0.9480000000000001, 0.292, 192.0, 0.0, 0.0, 0.0, 0.0, 0.0, 0.0, 0.0, 0.0, 0.0, 1.6962750453106837E9, 0.0, 2023-10-02 15:30:45.310
165.0, 12628.132120148197, 18043.691580735634, 51567.508467138825, 77045.07732928722, 11383.989320276896, -17838.949601525022, -38718.94344317239, 16368.897720443932, 0.078, 0.9480000000000001, 0.292, 192.0, 0.0, 0.0, 0.0, 0.0, 0.0, 0.0, 0.0, 0.0, 0.0, 1.6962750453106997E9, 0.0, 2023-10-02 15:30:45.310
166.0, 12642.481940088504, 18051.112359894796, 51561.38408915807, 77028.11235524564, 11393.600570392677, -17831.66293283259, -38747.397213863995, 16349.027019623163, 0.078, 0.9480000000000001, 0.292, 192.0, 0.0, 0.0, 0.0, 0.0, 0.0, 0.0, 0.0, 0.0, 0.0, 1.6962750453107119E9, 0.0, 2023-10-02 15:30:45.310
167.0, 12630.367294593729, 18037.366037054784, 51553.940958254454, 77002.29609039976, 11382.15647723156, -17841.318886437286, -38756.226152923846, 16344.400208520916, 0.08600000000000001, 0.9500000000000001, 0.296, 192.0, 2.0, 176.0, 29.0, 176.0, 9.0, 64.0, 0.0, 0.0, 0.0, 1.6962750453107285E9, 0.0, 2023-10-02 15:30:45.310
168.0, 12622.566535778826, 18033.52153700847, 51559.28302517928, 77000.82087526571, 11379.29545394128, -17845.72218009498, -38759.713025058874, 16340.265135796684, 0.08600000000000001, 0.9500000000000001, 0.296, 192.0, 0.0, 0.0, 0.0, 0.0, 0.0, 0.0, 0.0, 0.0, 0.0, 1.6962750453107507E9, 0.0, 2023-10-02 15:30:45.310
169.0, 12622.45477705655, 18030.48169976255, 51572.85053406365, 77037.25421872786, 11381.597683620177, -17845.453959161518, -38750.03471970972, 16349.630516723457, 0.08600000000000001, 0.9500000000000001, 0.296, 192.0, 0.0, 0.0, 0.0, 0.0, 0.0, 0.0, 0.0, 0.0, 0.0, 1.6962750453107631E9, 0.0, 2023-10-02 15:30:45.310
170.0, 12617.06800664282, 18025.072577604366, 51557.29371992275, 77052.7886811243, 11365.660889823544, -17853.455883676517, -38734.72377475784, 16365.790827964644, 0.08600000000000001, 0.9500000000000001, 0.296, 192.0, 0.0, 0.0, 0.0, 0.0, 0.0, 0.0, 0.0, 0.0, 0.0, 1.6962750453107767E9, 0.0, 2023-10-02 15:30:45.310
171.0, 12618.92320143261, 18031.442824774127, 51541.80396101523, 77005.38063113458, 11361.615224077133, -17857.993287800942, -38759.62361808105, 16343.036752109141, 0.08600000000000001, 0.9500000000000001, 0.296, 192.0, 0.0, 0.0, 0.0, 0.0, 0.0, 0.0, 0.0, 0.0, 0.0, 1.6962750453107889E9, 0.0, 2023-10-02 15:30:45.310
172.0, 12617.179765365097, 18029.632333473248, 51553.33746115416, 76994.6741455405, 11361.01172697684, -17859.24498549044, -38762.931676260436, 16339.773397418667, 0.08600000000000001, 0.9500000000000001, 0.296, 192.0, 0.0, 0.0, 0.0, 0.0, 0.0, 0.0, 0.0, 0.0, 0.0, 1.6962750453108058E9, 0.0, 2023-10-02 15:30:45.310
173.0, 12615.928067675599, 18023.91028689269, 51567.88844679457, 77038.97530305092, 11368.946596258475, -17853.38882844315, -38742.18925740591, 16358.906490672409, 0.08600000000000001, 0.9500000000000001, 0.296, 192.0, 0.0, 0.0, 0.0, 0.0, 0.0, 0.0, 0.0, 0.0, 0.0, 1.6962750453108218E9, 0.0, 2023-10-02 15:30:45.310
174.0, 12614.274038585907, 18025.51961249347, 51566.52499038279, 77070.84889064418, 11370.757087559354, -17846.035104517356, -38714.94248091489, 16385.23684564076, 0.08600000000000001, 0.9500000000000001, 0.296, 192.0, 0.0, 0.0, 0.0, 0.0, 0.0, 0.0, 0.0, 0.0, 0.0, 1.69627504531085E9, 0.0, 2023-10-02 15:30:45.310
175.0, 12621.761872978435, 18036.583725998848, 51558.16543795651, 77034.79552683777, 11381.86590455364, -17847.398560929127, -38727.01242292076, 16374.709174002312, 0.08600000000000001, 0.9500000000000001, 0.296, 192.0, 0.0, 0.0, 0.0, 0.0, 0.0, 0.0, 0.0, 0.0, 0.0, 1.6962750453108723E9, 0.0, 2023-10-02 15:30:45.310
176.0, 12611.54712576236, 18027.978304383552, 51561.18292345798, 77017.24940744037, 11373.551055616266, -17854.014677287898, -38727.37005083204, 16372.272833856683, 0.08600000000000001, 0.9500000000000001, 0.296, 192.0, 0.0, 0.0, 0.0, 0.0, 0.0, 0.0, 0.0, 0.0, 0.0, 1.6962750453109484E9, 0.0, 2023-10-02 15:30:45.310
177.0, 12609.289599572374, 18022.9044583922, 51574.03517651978, 77049.01123631134, 11375.316843428236, -17849.678438863568, -38706.94055639989, 16388.611959053513, 0.082, 0.9560000000000001, 0.294, 192.0, 2.0, 144.0, 29.0, 224.0, 9.0, 48.0, 0.0, 0.0, 0.0, 1.6962750453109715E9, 0.0, 2023-10-02 15:30:45.310
178.0, 12606.786204193379, 18016.556562966893, 51577.16442074352, 77077.55441398078, 11375.607416106155, -17845.72218009498, -38686.55576545665, 16406.314540662115, 0.082, 0.9560000000000001, 0.294, 192.0, 0.0, 0.0, 0.0, 0.0, 0.0, 0.0, 0.0, 0.0, 0.0, 1.6962750453109896E9, 0.0, 2023-10-02 15:30:45.310
179.0, 12626.45573931405, 18032.158080596695, 51570.68241485148, 77042.32806471922, 11381.35181443117, -17839.642505603137, -38706.314707555146, 16387.784944508665, 0.082, 0.9560000000000001, 0.294, 192.0, 0.0, 0.0, 0.0, 0.0, 0.0, 0.0, 0.0, 0.0, 0.0, 1.6962750453110068E9, 0.0, 2023-10-02 15:30:45.311
180.0, 12624.108806146241, 18031.219307329575, 51571.978816029885, 77012.39907889356, 11379.876599297118, -17833.272258433375, -38731.37101308954, 16366.14845587593, 0.082, 0.9560000000000001, 0.294, 192.0, 0.0, 0.0, 0.0, 0.0, 0.0, 0.0, 0.0, 0.0, 0.0, 1.696275045311021E9, 0.0, 2023-10-02 15:30:45.311
181.0, 12610.138965861675, 18020.937504880134, 51581.992397545866, 77049.65943690055, 11374.646291094577, -17837.34027592424, -38718.250539094275, 16380.230054882773, 0.082, 0.9560000000000001, 0.294, 192.0, 0.0, 0.0, 0.0, 0.0, 0.0, 0.0, 0.0, 0.0, 0.0, 1.696275045311037E9, 0.0, 2023-10-02 15:30:45.311
182.0, 12603.63460822518, 18018.61292345678, 51582.752356857345, 77099.16855086906, 11376.210913206449, -17844.738703338946, -38690.17674805841, 16408.326197663093, 0.082, 0.9560000000000001, 0.294, 192.0, 0.0, 0.0, 0.0, 0.0, 0.0, 0.0, 0.0, 0.0, 0.0, 1.696275045311174E9, 0.0, 2023-10-02 15:30:45.311
183.0, 12612.485899029482, 18032.023970129965, 51570.59300787366, 77066.9373353645, 11381.754145831364, -17841.184775970552, -38712.93082391391, 16386.868522986, 0.082, 0.9560000000000001, 0.294, 192.0, 0.0, 0.0, 0.0, 0.0, 0.0, 0.0, 0.0, 0.0, 0.0, 1.6962750453112159E9, 0.0, 2023-10-02 15:30:45.311
184.0, 12613.849355441256, 18027.71008345009, 51576.78444108778, 77030.8839715581, 11384.168134232537, -17843.107025993708, -38733.494428812795, 16365.85788319801, 0.082, 0.9560000000000001, 0.294, 192.0, 0.0, 0.0, 0.0, 0.0, 0.0, 0.0, 0.0, 0.0, 0.0, 1.6962750453112316E9, 0.0, 2023-10-02 15:30:45.311
185.0, 12620.532527033392, 18033.745054453022, 51588.474403437904, 77051.00054156788, 11387.051509267272, -17841.452996904016, -38727.79473397669, 16368.540092532647, 0.082, 0.9560000000000001, 0.294, 192.0, 0.0, 0.0, 0.0, 0.0, 0.0, 0.0, 0.0, 0.0, 0.0, 1.696275045311247E9, 0.0, 2023-10-02 15:30:45.311
186.0, 12618.342056076772, 18038.0589411329, 51591.96127557293, 77083.63408847262, 11389.957236046463, -17838.346104424727, -38726.364222331555, 16371.267005356194, 0.082, 0.9560000000000001, 0.294, 192.0, 0.0, 0.0, 0.0, 0.0, 0.0, 0.0, 0.0, 0.0, 0.0, 1.6962750453112695E9, 0.0, 2023-10-02 15:30:45.311
187.0, 12606.92031466011, 18024.402025270705, 51573.85636256413, 77089.62435598664, 11373.975738760917, -17853.05355227632, -38710.31566981264, 16387.09204043055, 0.084, 0.9500000000000001, 0.294, 192.0, 2.0, 160.0, 29.0, 176.0, 9.0, 48.0, 0.0, 0.0, 0.0, 1.6962750453112907E9, 0.0, 2023-10-02 15:30:45.311
188.0, 12621.8289282118, 18032.94039165263, 51569.743641584355, 77045.54671592078, 11380.904779542063, -17847.018581273387, -38736.66837652545, 16360.940499417842, 0.084, 0.9500000000000001, 0.294, 192.0, 0.0, 0.0, 0.0, 0.0, 0.0, 0.0, 0.0, 0.0, 0.0, 1.6962750453113303E9, 0.0, 2023-10-02 15:30:45.311
189.0, 12608.172012349607, 18013.092042576318, 51577.74556609936, 77073.26287904536, 11367.29256716878, -17854.707581366012, -38710.561539001654, 16381.705270016822, 0.084, 0.9500000000000001, 0.294, 192.0, 0.0, 0.0, 0.0, 0.0, 0.0, 0.0, 0.0, 0.0, 0.0, 1.6962750453113747E9, 0.0, 2023-10-02 15:30:45.311
190.0, 12611.144794362164, 18014.81312689938, 51576.2256474764, 77118.72632726745, 11364.051564222762, -17856.607479644714, -38679.716131653324, 16407.7227005628, 0.084, 0.9500000000000001, 0.294, 192.0, 0.0, 0.0, 0.0, 0.0, 0.0, 0.0, 0.0, 0.0, 0.0, 1.6962750453113885E9, 0.0, 2023-10-02 15:30:45.311
0.0, 0.0, 0.0, 0.0, 0.0, 0.0, 0.0, 0.0, 0.0, 0.078, 0.9420000000000001, 0.3, 192.0, 2.0, 112.0, 29.0, 112.0, 9.0, 96.0, 0.0, 0.0, 0.0, 1.6962750454073849E9, 0.0, 2023-10-02 15:30:45.407
1.0, 16017.327131906408, 16638.750331252853, 46883.83452699596, 66988.02167034408, 12518.183889172542, -20295.048689251984, -31287.301336205168, 11608.222020652536, 0.078, 0.9420000000000001, 0.3, 192.0, 0.0, 0.0, 0.0, 0.0, 0.0, 0.0, 0.0, 0.0, 0.0, 1.696275045890699E9, 0.0, 2023-10-02 15:30:45.890
2.0, 16029.687646590191, 16649.34505812467, 46894.09397770095, 66971.68254514725, 12524.420025875572, -20285.236273436105, -31293.381010697012, 11599.594247292787, 0.078, 0.9420000000000001, 0.3, 192.0, 0.0, 0.0, 0.0, 0.0, 0.0, 0.0, 0.0, 0.0, 0.0, 1.6962750458908043E9, 0.0, 2023-10-02 15:30:45.890
3.0, 16040.84116707339, 16655.983526227898, 46905.44866388424, 67008.27235082058, 12534.277145180362, -20275.937947742696, -31274.918469776927, 11619.554355091377, 0.078, 0.9420000000000001, 0.3, 192.0, 0.0, 0.0, 0.0, 0.0, 0.0, 0.0, 0.0, 0.0, 0.0, 1.6962750458908188E9, 0.0, 2023-10-02 15:30:45.890
4.0, 16044.395094441785, 16657.369334384126, 46895.99387597965, 67011.13337411087, 12536.601726603714, -20278.77661928852, -31266.08953071708, 11631.311372674869, 0.078, 0.9420000000000001, 0.3, 192.0, 0.0, 0.0, 0.0, 0.0, 0.0, 0.0, 0.0, 0.0, 0.0, 1.6962750458908727E9, 0.0, 2023-10-02 15:30:45.890
5.0, 16059.75074288258, 16673.574349114224, 46892.261134655615, 66966.69810613371, 12550.571566888282, -20267.980726716607, -31272.57153660912, 11625.611677838764, 0.078, 0.9420000000000001, 0.3, 192.0, 0.0, 0.0, 0.0, 0.0, 0.0, 0.0, 0.0, 0.0, 0.0, 1.6962750458908885E9, 0.0, 2023-10-02 15:30:45.890
6.0, 16054.162806768752, 16667.338212411192, 46894.988047479164, 66936.79147205252, 12541.407351661606, -20279.827151277917, -31289.737676350796, 11608.40083460818, 0.078, 0.9420000000000001, 0.3, 192.0, 0.0, 0.0, 0.0, 0.0, 0.0, 0.0, 0.0, 0.0, 0.0, 1.696275045890905E9, 0.0, 2023-10-02 15:30:45.890
7.0, 16051.882928834311, 16663.024325731316, 46906.07451272899, 66980.13150455136, 12530.8573282787, -20286.97970950362, -31263.13910044898, 11634.887651787718, 0.078, 0.9420000000000001, 0.3, 192.0, 0.0, 0.0, 0.0, 0.0, 0.0, 0.0, 0.0, 0.0, 0.0, 1.6962750458909223E9, 0.0, 2023-10-02 15:30:45.890
8.0, 16071.999498844089, 16678.268215449836, 46910.075474986494, 66975.37058298237, 12537.294630681828, -20278.195473932683, -31278.00301051176, 11625.611677838764, 0.07200000000000001, 0.9520000000000001, 0.31, 192.0, 2.0, 64.0, 29.0, 192.0, 9.0, 176.0, 0.0, 0.0, 0.0, 1.6962750458909516E9, 0.0, 2023-10-02 15:30:45.890
9.0, 16071.194836043696, 16671.562692113246, 46906.92387901829, 66931.8964400168, 12531.460825378994, -20283.336375157403, -31298.343097966088, 11608.780814263919, 0.07200000000000001, 0.9520000000000001, 0.31, 192.0, 0.0, 0.0, 0.0, 0.0, 0.0, 0.0, 0.0, 0.0, 0.0, 1.6962750458909676E9, 0.0, 2023-10-02 15:30:45.890
10.0, 16068.199702286685, 16664.76776179883, 46910.38839940887, 66910.97520720663, 12521.581354329748, -20290.332471171914, -31298.14193226599, 11606.232715396014, 0.07200000000000001, 0.9520000000000001, 0.31, 192.0, 0.0, 0.0, 0.0, 0.0, 0.0, 0.0, 0.0, 0.0, 0.0, 1.6962750458909812E9, 0.0, 2023-10-02 15:30:45.890
11.0, 16067.529149953027, 16661.839683275186, 46921.58662338098, 66949.68842860323, 12524.554136342304, -20293.34995667338, -31271.85628078655, 11627.623334839742, 0.07200000000000001, 0.9520000000000001, 0.31, 192.0, 0.0, 0.0, 0.0, 0.0, 0.0, 0.0, 0.0, 0.0, 0.0, 1.6962750458909967E9, 0.0, 2023-10-02 15:30:45.890
12.0, 16087.75747868508, 16671.40622990206, 46912.31064943202, 66956.3492484509, 12530.253831178408, -20283.336375157403, -31275.76783606623, 11629.16560520716, 0.07200000000000001, 0.9520000000000001, 0.31, 192.0, 0.0, 0.0, 0.0, 0.0, 0.0, 0.0, 0.0, 0.0, 0.0, 1.696275045891019E9, 0.0, 2023-10-02 15:30:45.891
13.0, 16104.945970171211, 16679.564616628246, 46903.52641386109, 66900.15696289027, 12533.874813780167, -20274.52978784201, -31310.34598473859, 11602.902305472173, 0.07200000000000001, 0.9520000000000001, 0.31, 192.0, 0.0, 0.0, 0.0, 0.0, 0.0, 0.0, 0.0, 0.0, 0.0, 1.6962750458910353E9, 0.0, 2023-10-02 15:30:45.891
14.0, 16095.714699711169, 16672.143837469084, 46898.00553298063, 66853.5759274454, 12529.00213348891, -20286.53267461451, -31335.15642108398, 11579.187104605093, 0.07200000000000001, 0.9520000000000001, 0.31, 192.0, 0.0, 0.0, 0.0, 0.0, 0.0, 0.0, 0.0, 0.0, 0.0, 1.6962750458910515E9, 0.0, 2023-10-02 15:30:45.891
15.0, 16075.32990876793, 16649.993258713872, 46891.769396277596, 66881.69442197018, 12513.8029472593, -20303.16237248926, -31317.96792959785, 11594.967436190538, 0.07200000000000001, 0.9520000000000001, 0.31, 192.0, 0.0, 0.0, 0.0, 0.0, 0.0, 0.0, 0.0, 0.0, 0.0, 1.6962750458910663E9, 0.0, 2023-10-02 15:30:45.891
16.0, 16088.808010674478, 16658.553976840256, 46880.235896138656, 66893.56319827595, 12513.870002492667, -20297.26151195306, -31326.34983376859, 11591.949950689072, 0.07200000000000001, 0.9520000000000001, 0.31, 192.0, 0.0, 0.0, 0.0, 0.0, 0.0, 0.0, 0.0, 0.0, 0.0, 1.6962750458910842E9, 0.0, 2023-10-02 15:30:45.891
17.0, 16097.860467178878, 16661.191482685983, 46883.3651403624, 66882.72260221513, 12516.99924671641, -20288.41022114876, -31316.33625225261, 11604.82455549533, 0.07200000000000001, 0.9520000000000001, 0.31, 192.0, 0.0, 0.0, 0.0, 0.0, 0.0, 0.0, 0.0, 0.0, 0.0, 1.6962750458913295E9, 0.0, 2023-10-02 15:30:45.891
18.0, 16102.531981770038, 16661.951441997462, 46893.155204433824, 66860.01322984854, 12526.923421254567, -20284.67747982472, -31304.936862580405, 11612.781776521419, 0.07200000000000001, 0.9480000000000001, 0.306, 192.0, 2.0, 64.0, 29.0, 160.0, 9.0, 144.0, 0.0, 0.0, 0.0, 1.6962750458913524E9, 0.0, 2023-10-02 15:30:45.891
19.0, 16093.680690965735, 16653.34602038217, 46903.25819292763, 66879.50395101357, 12517.669799050069, -20298.20028522018, -31289.447103672876, 11623.4435586266, 0.07200000000000001, 0.9480000000000001, 0.306, 192.0, 0.0, 0.0, 0.0, 0.0, 0.0, 0.0, 0.0, 0.0, 0.0, 1.69627504589137E9, 0.0, 2023-10-02 15:30:45.891
20.0, 16102.442574792216, 16662.085552464196, 46909.33786741947, 66915.33379737542, 12518.921496739567, -20290.801857805476, -31268.61527784053, 11645.057695514883, 0.07200000000000001, 0.9480000000000001, 0.306, 192.0, 0.0, 0.0, 0.0, 0.0, 0.0, 0.0, 0.0, 0.0, 0.0, 1.6962750458913867E9, 0.0, 2023-10-02 15:30:45.891
21.0, 16106.197667860708, 16667.271157177827, 46898.16199519182, 66903.15209664727, 12521.62605781866, -20294.512247385057, -31262.982638237794, 11652.053791529393, 0.07200000000000001, 0.9480000000000001, 0.306, 192.0, 0.0, 0.0, 0.0, 0.0, 0.0, 0.0, 0.0, 0.0, 0.0, 1.6962750458914027E9, 0.0, 2023-10-02 15:30:45.891
22.0, 16102.71079572568, 16665.035982732294, 46899.726617303684, 66861.75666591605, 12520.977857229454, -20300.88249455482, -31269.84462378557, 11640.140311734714, 0.07200000000000001, 0.9480000000000001, 0.306, 192.0, 0.0, 0.0, 0.0, 0.0, 0.0, 0.0, 0.0, 0.0, 0.0, 1.6962750458914168E9, 0.0, 2023-10-02 15:30:45.891
23.0, 16108.119917883865, 16668.612261845145, 46934.215358998226, 66864.30476478396, 12527.035179976843, -20293.461715395657, -31267.721208062318, 11639.313297189869, 0.07200000000000001, 0.9480000000000001, 0.306, 192.0, 0.0, 0.0, 0.0, 0.0, 0.0, 0.0, 0.0, 0.0, 0.0, 1.6962750458914337E9, 0.0, 2023-10-02 15:30:45.891
24.0, 16102.397871303307, 16661.750276297364, 46948.81104812754, 66903.42031758075, 12526.118758454175, -20291.785334561508, -31252.589077066074, 11655.227739242047, 0.07200000000000001, 0.9480000000000001, 0.306, 192.0, 0.0, 0.0, 0.0, 0.0, 0.0, 0.0, 0.0, 0.0, 0.0, 1.6962750458914516E9, 0.0, 2023-10-02 15:30:45.891
25.0, 16104.387176559829, 16662.57729084221, 46944.206588769746, 66907.28716937151, 12522.542479341326, -20298.87083755384, -31239.66976877091, 11669.599910926809, 0.07200000000000001, 0.9480000000000001, 0.306, 192.0, 0.0, 0.0, 0.0, 0.0, 0.0, 0.0, 0.0, 0.0, 0.0, 1.6962750458914852E9, 0.0, 2023-10-02 15:30:45.891
26.0, 16115.071310409465, 16670.95919501295, 46945.99472832617, 66864.55063397296, 12529.404464889105, -20295.853352052374, -31252.678484043896, 11655.942995064617, 0.07200000000000001, 0.9480000000000001, 0.306, 192.0, 0.0, 0.0, 0.0, 0.0, 0.0, 0.0, 0.0, 0.0, 0.0, 1.6962750458915277E9, 0.0, 2023-10-02 15:30:45.891
27.0, 16102.42022304776, 16655.15651168305, 46947.134667293394, 66850.29022101048, 12521.42489211856, -20303.743517845098, -31264.413149882934, 11641.727285591041, 0.07200000000000001, 0.9480000000000001, 0.306, 192.0, 0.0, 0.0, 0.0, 0.0, 0.0, 0.0, 0.0, 0.0, 0.0, 1.6962750458915467E9, 0.0, 2023-10-02 15:30:45.891
28.0, 16101.146173613808, 16654.5306628383, 46949.95098709476, 66885.44951503868, 12521.29078165183, -20299.429631165225, -31257.88644050198, 11648.745733350008, 0.076, 0.9400000000000001, 0.3, 192.0, 2.0, 96.0, 29.0, 96.0, 9.0, 96.0, 0.0, 0.0, 0.0, 1.6962750458915632E9, 0.0, 2023-10-02 15:30:45.891
29.0, 16100.050938135499, 16661.191482685983, 46936.89756833286, 66889.69634648519, 12522.453072363505, -20302.603578877875, -31267.698856317864, 11643.560128636376, 0.076, 0.9400000000000001, 0.3, 192.0, 0.0, 0.0, 0.0, 0.0, 0.0, 0.0, 0.0, 0.0, 0.0, 1.6962750458915837E9, 0.0, 2023-10-02 15:30:45.891
30.0, 16103.09077538142, 16669.640442090087, 46921.29605070306, 66858.04627633646, 12519.100310695208, -20311.365462704358, -31282.071028002625, 11631.646648841697, 0.076, 0.9400000000000001, 0.3, 192.0, 0.0, 0.0, 0.0, 0.0, 0.0, 0.0, 0.0, 0.0, 0.0, 1.6962750458915997E9, 0.0, 2023-10-02 15:30:45.891
31.0, 16114.512516798082, 16669.10400022316, 46927.10750426144, 66844.70228489664, 12522.631886319148, -20305.77752659053, -31292.57634789662, 11622.214212681558, 0.076, 0.9400000000000001, 0.3, 192.0, 0.0, 0.0, 0.0, 0.0, 0.0, 0.0, 0.0, 0.0, 0.0, 1.6962750458916154E9, 0.0, 2023-10-02 15:30:45.891
32.0, 16121.106281412398, 16681.6880323515, 46934.707097376246, 66881.31444231444, 12521.246078162918, -20298.557913131466, -31288.37421993902, 11631.266669185958, 0.076, 0.9400000000000001, 0.3, 192.0, 0.0, 0.0, 0.0, 0.0, 0.0, 0.0, 0.0, 0.0, 0.0, 1.6962750458917174E9, 0.0, 2023-10-02 15:30:45.891
33.0, 16118.938162200233, 16689.44408767749, 46923.66533561532, 66897.18418087771, 12518.541517083826, -20301.888323055307, -31289.469455417333, 11636.742846577508, 0.076, 0.9400000000000001, 0.3, 192.0, 0.0, 0.0, 0.0, 0.0, 0.0, 0.0, 0.0, 0.0, 0.0, 1.6962750458917356E9, 0.0, 2023-10-02 15:30:45.891
34.0, 16123.72143551367, 16677.15062822707, 46923.86650131542, 66863.1871775612, 12528.264525921884, -20288.991366504593, -31306.792057370196, 11626.014009238961, 0.076, 0.9400000000000001, 0.3, 192.0, 0.0, 0.0, 0.0, 0.0, 0.0, 0.0, 0.0, 0.0, 0.0, 1.6962750458917503E9, 0.0, 2023-10-02 15:30:45.891
35.0, 16116.591229032425, 16651.87080524812, 46930.10263801845, 66835.13573826978, 12524.218860175475, -20297.954416031174, -31321.566560455154, 11610.278381142423, 0.076, 0.9400000000000001, 0.3, 192.0, 0.0, 0.0, 0.0, 0.0, 0.0, 0.0, 0.0, 0.0, 0.0, 1.696275045891768E9, 0.0, 2023-10-02 15:30:45.891
36.0, 16113.171412130763, 16643.399494099558, 46940.51855093462, 66868.77511367502, 12521.916630496578, -20301.284825955016, -31312.715269650853, 11620.135500447215, 0.076, 0.9400000000000001, 0.3, 192.0, 0.0, 0.0, 0.0, 0.0, 0.0, 0.0, 0.0, 0.0, 0.0, 1.696275045891784E9, 0.0, 2023-10-02 15:30:45.891
37.0, 16120.681598267747, 16652.809578515244, 46940.58560616799, 66903.10739315837, 12530.991438745432, -20296.523904386035, -31298.901891577472, 11640.609698368276, 0.076, 0.9400000000000001, 0.3, 192.0, 0.0, 0.0, 0.0, 0.0, 0.0, 0.0, 0.0, 0.0, 0.0, 1.6962750458917978E9, 0.0, 2023-10-02 15:30:45.891
38.0, 16127.878859982357, 16663.270194920326, 46933.500103175655, 66871.032639865, 12542.614345862192, -20288.365517659848, -31315.15160979648, 11627.712741817564, 0.076, 0.9460000000000001, 0.298, 192.0, 2.0, 96.0, 29.0, 144.0, 9.0, 80.0, 0.0, 0.0, 0.0, 1.6962750458918169E9, 0.0, 2023-10-02 15:30:45.891
39.0, 16124.9060779698, 16662.510235608846, 46930.75083860765, 66843.07060755142, 12535.014752747387, -20290.354822916368, -31324.472287234345, 11616.045131211893, 0.076, 0.9460000000000001, 0.298, 192.0, 0.0, 0.0, 0.0, 0.0, 0.0, 0.0, 0.0, 0.0, 0.0, 1.6962750458918457E9, 0.0, 2023-10-02 15:30:45.891
40.0, 16113.149060386308, 16648.58509881319, 46936.785809610585, 66887.10354412837, 12521.134319440642, -20301.709509099666, -31290.81056008465, 11645.460026915078, 0.076, 0.9460000000000001, 0.298, 192.0, 0.0, 0.0, 0.0, 0.0, 0.0, 0.0, 0.0, 0.0, 0.0, 1.6962750458918655E9, 0.0, 2023-10-02 15:30:45.891
41.0, 16114.691330753725, 16647.892194735075, 46921.407809425335, 66920.20647766668, 12513.266505392374, -20311.79014584901, -31268.324705162613, 11664.660175402187, 0.076, 0.9460000000000001, 0.298, 192.0, 0.0, 0.0, 0.0, 0.0, 0.0, 0.0, 0.0, 0.0, 0.0, 1.6962750458918848E9, 0.0, 2023-10-02 15:30:45.891
42.0, 16132.125691428864, 16660.67739256351, 46908.823777296995, 66880.7332969586, 12525.42585437606, -20306.87276206884, -31293.224548485825, 11642.978983280538, 0.076, 0.9460000000000001, 0.298, 192.0, 0.0, 0.0, 0.0, 0.0, 0.0, 0.0, 0.0, 0.0, 0.0, 1.6962750458919055E9, 0.0, 2023-10-02 15:30:45.891
43.0, 16147.749560803124, 16669.215758945436, 46918.7256000907, 66828.60902888882, 12538.591031860236, -20301.888323055307, -31322.795906400195, 11613.832308510819, 0.076, 0.9460000000000001, 0.298, 192.0, 0.0, 0.0, 0.0, 0.0, 0.0, 0.0, 0.0, 0.0, 0.0, 1.696275045891932E9, 0.0, 2023-10-02 15:30:45.891
44.0, 16135.590211819437, 16654.932994238497, 46931.91312931933, 66853.1288925563, 12529.851499778211, -20303.095317255895, -31308.356679482065, 11625.67873307213, 0.076, 0.9460000000000001, 0.298, 192.0, 0.0, 0.0, 0.0, 0.0, 0.0, 0.0, 0.0, 0.0, 0.0, 1.69627504589195E9, 0.0, 2023-10-02 15:30:45.891
45.0, 16132.52802282906, 16654.642421560577, 46925.94521354976, 66896.02189016604, 12528.778616044357, -20298.557913131466, -31290.117656006536, 11646.242337971013, 0.076, 0.9460000000000001, 0.298, 192.0, 0.0, 0.0, 0.0, 0.0, 0.0, 0.0, 0.0, 0.0, 0.0, 1.69627504589197E9, 0.0, 2023-10-02 15:30:45.891
46.0, 16127.141252415331, 16655.178863427504, 46910.14253021986, 66883.25904408205, 12527.392807888129, -20312.281884227024, -31291.257594973755, 11647.091704260314, 0.076, 0.9460000000000001, 0.298, 192.0, 0.0, 0.0, 0.0, 0.0, 0.0, 0.0, 0.0, 0.0, 0.0, 1.696275045891994E9, 0.0, 2023-10-02 15:30:45.891
47.0, 16128.437653593739, 16657.86107276214, 46906.70036157374, 66846.15514828624, 12527.14693869912, -20315.902866828787, -31296.107923520558, 11638.06159950037, 0.076, 0.9460000000000001, 0.298, 192.0, 0.0, 0.0, 0.0, 0.0, 0.0, 0.0, 0.0, 0.0, 0.0, 1.69627504589203E9, 0.0, 2023-10-02 15:30:45.892
48.0, 16131.231621650652, 16651.937860481485, 46912.64592559885, 66844.67993315219, 12531.393770145629, -20309.73378535912, -31298.47720843282, 11632.361904664267, 0.064, 0.9420000000000001, 0.3, 192.0, 2.0, 0.0, 29.0, 112.0, 9.0, 96.0, 0.0, 0.0, 0.0, 1.696275045892161E9, 0.0, 2023-10-02 15:30:45.892
49.0, 16121.754482001601, 16640.851395231653, 46912.601222109945, 66894.1443436318, 12523.078921208255, -20310.73961385961, -31266.782434795194, 11661.888559089728, 0.064, 0.9420000000000001, 0.3, 192.0, 0.0, 0.0, 0.0, 0.0, 0.0, 0.0, 0.0, 0.0, 0.0, 1.696275045892214E9, 0.0, 2023-10-02 15:30:45.892
50.0, 16134.472624596672, 16657.43638961749, 46895.72565504619, 66875.48063701161, 12522.274258407862, -20307.520962658044, -31280.77462682422, 11649.751561850497, 0.064, 0.9420000000000001, 0.3, 192.0, 0.0, 0.0, 0.0, 0.0, 0.0, 0.0, 0.0, 0.0, 0.0, 1.6962750458922355E9, 0.0, 2023-10-02 15:30:45.892
51.0, 16140.082912454953, 16663.739581553888, 46894.54101259005, 66812.76164207002, 12524.889412509134, -20302.73768934461, -31320.180752298922, 11611.083043942815, 0.064, 0.9420000000000001, 0.3, 192.0, 0.0, 0.0, 0.0, 0.0, 0.0, 0.0, 0.0, 0.0, 0.0, 1.696275045892257E9, 0.0, 2023-10-02 15:30:45.892
52.0, 16132.95270597371, 16653.34602038217, 46910.61191685342, 66818.43898516166, 12521.760168285391, -20298.82613406493, -31307.28379574821, 11619.554355091377, 0.064, 0.9420000000000001, 0.3, 192.0, 0.0, 0.0, 0.0, 0.0, 0.0, 0.0, 0.0, 0.0, 0.0, 1.696275045892284E9, 0.0, 2023-10-02 15:30:45.892
53.0, 16128.52706057156, 16645.835834245187, 46910.45545464224, 66861.24257579357, 12523.972990986465, -20294.4898956406, -31287.211929227346, 11641.079085001837, 0.064, 0.9420000000000001, 0.3, 192.0, 0.0, 0.0, 0.0, 0.0, 0.0, 0.0, 0.0, 0.0, 0.0, 1.6962750458923273E9, 0.0, 2023-10-02 15:30:45.892
54.0, 16129.219964649674, 16643.44419758847, 46884.773300263085, 66854.13472105679, 12517.960371727988, -20312.304235971482, -31296.37614445402, 11636.564032621865, 0.064, 0.9420000000000001, 0.3, 192.0, 0.0, 0.0, 0.0, 0.0, 0.0, 0.0, 0.0, 0.0, 0.0, 1.6962750458923583E9, 0.0, 2023-10-02 15:30:45.892
55.0, 16139.501767099115, 16655.245918660872, 46882.471070584186, 66807.33016816738, 12521.246078162918, -20312.907733071774, -31315.48688596331, 11620.090796958304, 0.064, 0.9420000000000001, 0.3, 192.0, 0.0, 0.0, 0.0, 0.0, 0.0, 0.0, 0.0, 0.0, 0.0, 1.6962750458923938E9, 0.0, 2023-10-02 15:30:45.892
56.0, 16147.168415447286, 16665.080686221205, 46904.353428405935, 66804.20092394363, 12536.847595792724, -20304.16820098975, -31303.372240468532, 11628.316238917856, 0.064, 0.9420000000000001, 0.3, 192.0, 0.0, 0.0, 0.0, 0.0, 0.0, 0.0, 0.0, 0.0, 0.0, 1.696275045892414E9, 0.0, 2023-10-02 15:30:45.892
57.0, 16147.257822425106, 16669.01459324534, 46921.63132686989, 66848.16680528723, 12538.255755693408, -20299.563741631955, -31274.538490121187, 11653.037268285427, 0.064, 0.9420000000000001, 0.3, 192.0, 0.0, 0.0, 0.0, 0.0, 0.0, 0.0, 0.0, 0.0, 0.0, 1.6962750458924637E9, 0.0, 2023-10-02 15:30:45.892
58.0, 16139.948801988221, 16667.159398455547, 46916.40101866735, 66856.4816542246, 12534.38890390264, -20302.022433522037, -31273.28679243169, 11655.719477620063, 0.082, 0.9380000000000001, 0.308, 192.0, 2.0, 144.0, 29.0, 80.0, 9.0, 160.0, 0.0, 0.0, 0.0, 1.696275045892491E9, 0.0, 2023-10-02 15:30:45.892
59.0, 16145.514386357592, 16672.233244446903, 46915.05991400003, 66813.07456649239, 12538.322810926773, -20300.591921876898, -31290.229414728812, 11636.92166053315, 0.082, 0.9380000000000001, 0.308, 192.0, 0.0, 0.0, 0.0, 0.0, 0.0, 0.0, 0.0, 0.0, 0.0, 1.696275045892519E9, 0.0, 2023-10-02 15:30:45.892
60.0, 16152.95751726121, 16679.40815441706, 46938.30572823354, 66804.22327568808, 12547.934061042555, -20288.499628126578, -31276.326629677613, 11645.817654826362, 0.082, 0.9380000000000001, 0.308, 192.0, 0.0, 0.0, 0.0, 0.0, 0.0, 0.0, 0.0, 0.0, 0.0, 1.6962750458925412E9, 0.0, 2023-10-02 15:30:45.892
61.0, 16164.267499955595, 16691.74631735639, 46960.277493033114, 66830.68774112317, 12560.763962359903, -20268.02543020552, -31270.515176119232, 11653.774875852452, 0.082, 0.9380000000000001, 0.308, 192.0, 0.0, 0.0, 0.0, 0.0, 0.0, 0.0, 0.0, 0.0, 0.0, 1.696275045892562E9, 0.0, 2023-10-02 15:30:45.892
62.0, 16127.275362882063, 16665.035982732294, 46935.75762936564, 66858.09097982539, 12525.269392164873, -20300.770735832542, -31251.672655543407, 11671.991547583528, 0.082, 0.9380000000000001, 0.308, 192.0, 0.0, 0.0, 0.0, 0.0, 0.0, 0.0, 0.0, 0.0, 0.0, 1.6962750458925822E9, 0.0, 2023-10-02 15:30:45.892
63.0, 16123.944952958222, 16666.175921699516, 46905.403960395335, 66811.64405484725, 12514.697017037513, -20315.992273806605, -31264.748426049762, 11655.78653285343, 0.082, 0.9380000000000001, 0.308, 192.0, 0.0, 0.0, 0.0, 0.0, 0.0, 0.0, 0.0, 0.0, 0.0, 1.696275045892602E9, 0.0, 2023-10-02 15:30:45.892
64.0, 16138.607697320904, 16668.768724056332, 46909.181405208285, 66756.72581872056, 12527.012828232388, -20304.749346345587, -31293.381010697012, 11625.142291205204, 0.082, 0.9380000000000001, 0.308, 192.0, 0.0, 0.0, 0.0, 0.0, 0.0, 0.0, 0.0, 0.0, 0.0, 1.696275045892759E9, 0.0, 2023-10-02 15:30:45.892
65.0, 16118.580534288949, 16645.321744122713, 46914.25525119963, 66777.98232769757, 12511.657179791591, -20313.600637149888, -31282.316897191635, 11632.943050020105, 0.082, 0.9380000000000001, 0.308, 192.0, 0.0, 0.0, 0.0, 0.0, 0.0, 0.0, 0.0, 0.0, 0.0, 1.6962750458927848E9, 0.0, 2023-10-02 15:30:45.892
66.0, 16117.127670899354, 16646.126406923104, 46908.73437031917, 66803.23979893206, 12510.51724082437, -20309.68908187021, -31276.05840874415, 11641.995506524505, 0.082, 0.9380000000000001, 0.308, 192.0, 0.0, 0.0, 0.0, 0.0, 0.0, 0.0, 0.0, 0.0, 0.0, 1.6962750458928044E9, 0.0, 2023-10-02 15:30:45.892
67.0, 16115.47364180966, 16646.618145301123, 46903.459358627726, 66783.12322892228, 12517.960371727988, -20302.58122713342, -31286.496673404778, 11636.675791344142, 0.082, 0.9380000000000001, 0.308, 192.0, 0.0, 0.0, 0.0, 0.0, 0.0, 0.0, 0.0, 0.0, 0.0, 1.6962750458928432E9, 0.0, 2023-10-02 15:30:45.892
68.0, 16114.065481908976, 16648.58509881319, 46902.58764059396, 66748.7015424611, 12521.089615951732, -20304.63758762331, -31295.616185142542, 11625.946954005594, 0.064, 0.936, 0.306, 192.0, 2.0, 0.0, 29.0, 64.0, 9.0, 144.0, 0.0, 0.0, 0.0, 1.6962750458928864E9, 0.0, 2023-10-02 15:30:45.892
69.0, 16115.205420876197, 16646.77460751231, 46914.45641689973, 66763.52074903497, 12528.041008477332, -20300.278997454527, -31290.877615318015, 11629.925564518639, 0.064, 0.936, 0.306, 192.0, 0.0, 0.0, 0.0, 0.0, 0.0, 0.0, 0.0, 0.0, 0.0, 1.6962750458929148E9, 0.0, 2023-10-02 15:30:45.892
70.0, 16118.602886033403, 16650.57440406971, 46916.40101866735, 66802.05515647592, 12529.695037567024, -20299.29552069849, -31275.14198722148, 11648.410457183178, 0.064, 0.936, 0.306, 192.0, 0.0, 0.0, 0.0, 0.0, 0.0, 0.0, 0.0, 0.0, 0.0, 1.6962750458929353E9, 0.0, 2023-10-02 15:30:45.892
71.0, 16126.358941359395, 16662.890215264586, 46908.33203891898, 66781.02216494348, 12532.71252306849, -20296.63566310831, -31290.542339151187, 11639.380352423233, 0.064, 0.936, 0.306, 192.0, 0.0, 0.0, 0.0, 0.0, 0.0, 0.0, 0.0, 0.0, 0.0, 1.6962750458929565E9, 0.0, 2023-10-02 15:30:45.892
72.0, 16132.416264106783, 16666.421790888526, 46912.8247395545, 66743.09125460283, 12540.088598738743, -20294.132267729317, -31302.656984645964, 11626.68456157262, 0.064, 0.936, 0.306, 192.0, 0.0, 0.0, 0.0, 0.0, 0.0, 0.0, 0.0, 0.0, 0.0, 1.6962750458929763E9, 0.0, 2023-10-02 15:30:45.892
73.0, 16130.114034427887, 16658.464569862434, 46917.89858554585, 66740.11847259027, 12538.792197560335, -20300.100183498882, -31306.277967247723, 11618.839099268807, 0.064, 0.936, 0.306, 192.0, 0.0, 0.0, 0.0, 0.0, 0.0, 0.0, 0.0, 0.0, 0.0, 1.6962750458929956E9, 0.0, 2023-10-02 15:30:45.892
74.0, 16116.881801710344, 16647.847491246164, 46928.04627752856, 66787.12419117978, 12533.807758546802, -20300.211942221158, -31280.014667512736, 11644.655364114686, 0.064, 0.936, 0.306, 192.0, 0.0, 0.0, 0.0, 0.0, 0.0, 0.0, 0.0, 0.0, 0.0, 1.696275045893022E9, 0.0, 2023-10-02 15:30:45.893
75.0, 16113.998426675611, 16648.76391276883, 46919.57496638, 66774.80837998491, 12526.834014276745, -20306.962169046663, -31284.23914721479, 11642.353134435789, 0.064, 0.936, 0.306, 192.0, 0.0, 0.0, 0.0, 0.0, 0.0, 0.0, 0.0, 0.0, 0.0, 1.6962750458930428E9, 0.0, 2023-10-02 15:30:45.893
76.0, 16113.082005152943, 16651.133197681094, 46907.773245307595, 66721.20889678109, 12515.725197282458, -20314.6958726282, -31304.489827691297, 11619.196727180091, 0.064, 0.936, 0.306, 192.0, 0.0, 0.0, 0.0, 0.0, 0.0, 0.0, 0.0, 0.0, 0.0, 1.6962750458930717E9, 0.0, 2023-10-02 15:30:45.893
77.0, 16113.439633064227, 16652.34019188168, 46911.75185582064, 66713.67635889964, 12517.669799050069, -20313.757099361075, -31302.321708479132, 11616.000427722982, 0.064, 0.936, 0.306, 192.0, 0.0, 0.0, 0.0, 0.0, 0.0, 0.0, 0.0, 0.0, 0.0, 1.6962750458930912E9, 0.0, 2023-10-02 15:30:45.893
78.0, 16115.04895866501, 16653.34602038217, 46917.71977159021, 66753.3507053078, 12531.460825378994, -20299.340224187403, -31284.328554192613, 11635.82642505484, 0.074, 0.9380000000000001, 0.308, 192.0, 2.0, 80.0, 29.0, 80.0, 9.0, 160.0, 0.0, 0.0, 0.0, 1.6962750458931174E9, 0.0, 2023-10-02 15:30:45.893
79.0, 16118.491127311127, 16660.208005929948, 46904.353428405935, 66767.07467640337, 12532.779578301857, -20296.993291019597, -31272.012742997736, 11653.841931085817, 0.074, 0.9380000000000001, 0.308, 192.0, 0.0, 0.0, 0.0, 0.0, 0.0, 0.0, 0.0, 0.0, 0.0, 1.6962750458932817E9, 0.0, 2023-10-02 15:30:45.893
80.0, 16144.95559274621, 16686.605416131668, 46892.86463175591, 66716.58208567883, 12537.38403765965, -20296.076869496927, -31293.224548485825, 11634.865300043262, 0.074, 0.9380000000000001, 0.308, 192.0, 0.0, 0.0, 0.0, 0.0, 0.0, 0.0, 0.0, 0.0, 0.0, 1.696275045893424E9, 0.0, 2023-10-02 15:30:45.893
81.0, 16153.00222075012, 16700.53055292732, 46913.80821631053, 66694.38680343471, 12548.939889543044, -20285.86212228085, -31300.511217178253, 11625.008180738472, 0.074, 0.9380000000000001, 0.308, 192.0, 0.0, 0.0, 0.0, 0.0, 0.0, 0.0, 0.0, 0.0, 0.0, 1.6962750458934612E9, 0.0, 2023-10-02 15:30:45.893
82.0, 16117.082967410443, 16670.35569791266, 46926.459303672236, 66753.48481577454, 12535.059456236299, -20288.901959526775, -31252.81259451063, 11667.588253925831, 0.074, 0.9380000000000001, 0.308, 192.0, 0.0, 0.0, 0.0, 0.0, 0.0, 0.0, 0.0, 0.0, 0.0, 1.6962750458934731E9, 0.0, 2023-10-02 15:30:45.893
83.0, 16092.987786887621, 16652.898985493062, 46894.16103293432, 66762.49256879002, 12514.719368781969, -20305.464602168155, -31242.307274616633, 11674.941977851628, 0.074, 0.9380000000000001, 0.308, 192.0, 0.0, 0.0, 0.0, 0.0, 0.0, 0.0, 0.0, 0.0, 0.0, 1.6962750458934846E9, 0.0, 2023-10-02 15:30:45.893
84.0, 16092.697214209702, 16663.91839550953, 46884.28156188507, 66720.02425432495, 12516.842784505223, -20310.560799903968, -31248.811632253128, 11663.341422479323, 0.074, 0.9380000000000001, 0.308, 192.0, 0.0, 0.0, 0.0, 0.0, 0.0, 0.0, 0.0, 0.0, 0.0, 1.6962750458934948E9, 0.0, 2023-10-02 15:30:45.893
85.0, 16094.284188066029, 16666.82412228872, 46884.46037584071, 66685.40140216368, 12517.08865369423, -20312.34893946039, -31258.266420157724, 11647.06935251586, 0.074, 0.9380000000000001, 0.308, 192.0, 0.0, 0.0, 0.0, 0.0, 0.0, 0.0, 0.0, 0.0, 0.0, 1.696275045893505E9, 0.0, 2023-10-02 15:30:45.893
86.0, 16093.211304332175, 16659.224529173916, 46886.583791563964, 66700.86880932676, 12508.371473356661, -20317.10986102937, -31263.407321382445, 11639.268593700957, 0.074, 0.9380000000000001, 0.308, 192.0, 0.0, 0.0, 0.0, 0.0, 0.0, 0.0, 0.0, 0.0, 0.0, 1.6962750458935325E9, 0.0, 2023-10-02 15:30:45.893
87.0, 16097.927522412245, 16658.553976840256, 46884.818003752, 66727.53444046192, 12505.108118666187, -20319.613256408367, -31257.819385268616, 11648.812788583373, 0.074, 0.9380000000000001, 0.308, 192.0, 0.0, 0.0, 0.0, 0.0, 0.0, 0.0, 0.0, 0.0, 0.0, 1.6962750458935423E9, 0.0, 2023-10-02 15:30:45.893
88.0, 16102.554333514492, 16660.990316985884, 46876.54785830354, 66690.20702722156, 12512.506546080893, -20317.48984068511, -31282.473359402822, 11629.009142995972, 0.08, 0.9420000000000001, 0.312, 192.0, 2.0, 128.0, 29.0, 112.0, 9.0, 192.0, 0.0, 0.0, 0.0, 1.696275045893552E9, 0.0, 2023-10-02 15:30:45.893
89.0, 16114.020778420065, 16667.584081600202, 46882.09109092845, 66660.99329721848, 12524.040046219832, -20312.080718526926, -31293.24690023028, 11618.123843446238, 0.08, 0.9420000000000001, 0.312, 192.0, 0.0, 0.0, 0.0, 0.0, 0.0, 0.0, 0.0, 0.0, 0.0, 1.696275045893563E9, 0.0, 2023-10-02 15:30:45.893
90.0, 16113.976074931155, 16675.16132297055, 46901.40299813783, 66692.33044294482, 12531.013790489887, -20301.55304688848, -31281.936917535895, 11629.366770907256, 0.08, 0.9420000000000001, 0.312, 192.0, 0.0, 0.0, 0.0, 0.0, 0.0, 0.0, 0.0, 0.0, 0.0, 1.6962750458935795E9, 0.0, 2023-10-02 15:30:45.893
91.0, 16108.768118473068, 16677.06122124925, 46889.042483454046, 66717.7443763905, 12525.33644739824, -20308.54914290299, -31277.086588989092, 11636.385218666222, 0.08, 0.9420000000000001, 0.312, 192.0, 0.0, 0.0, 0.0, 0.0, 0.0, 0.0, 0.0, 0.0, 0.0, 1.6962750458935893E9, 0.0, 2023-10-02 15:30:45.893
92.0, 16110.198630118208, 16667.785247300297, 46872.85982046841, 66679.85816953875, 12522.564831085781, -20305.486953912612, -31304.266310246745, 11615.911020745161, 0.08, 0.9420000000000001, 0.312, 192.0, 0.0, 0.0, 0.0, 0.0, 0.0, 0.0, 0.0, 0.0, 0.0, 1.6962750458935993E9, 0.0, 2023-10-02 15:30:45.893
93.0, 16118.804051733501, 16669.126351967618, 46882.62753279538, 66635.78052947289, 12533.360723657695, -20295.96511077465, -31327.288607035713, 11596.017968179938, 0.08, 0.9420000000000001, 0.312, 192.0, 0.0, 0.0, 0.0, 0.0, 0.0, 0.0, 0.0, 0.0, 0.0, 1.6962750458936093E9, 0.0, 2023-10-02 15:30:45.893
94.0, 16105.035377149032, 16656.13998843908, 46899.257230670126, 66661.8873669967, 12529.627982333659, -20299.966073032152, -31311.35181323908, 11610.233677653514, 0.08, 0.9420000000000001, 0.312, 192.0, 0.0, 0.0, 0.0, 0.0, 0.0, 0.0, 0.0, 0.0, 0.0, 1.6962750458936188E9, 0.0, 2023-10-02 15:30:45.893
95.0, 16099.402737546294, 16652.72017153742, 46892.73052128917, 66712.0446815544, 12522.810700274791, -20308.437384180714, -31278.561804123143, 11641.570823379854, 0.08, 0.9420000000000001, 0.312, 192.0, 0.0, 0.0, 0.0, 0.0, 0.0, 0.0, 0.0, 0.0, 0.0, 1.696275045893686E9, 0.0, 2023-10-02 15:30:45.893
96.0, 16106.957627172189, 16663.82898853171, 46878.626570537876, 66682.76389631795, 12527.213993932486, -20309.264398725558, -31302.14289452349, 11624.82936678283, 0.08, 0.9420000000000001, 0.312, 192.0, 0.0, 0.0, 0.0, 0.0, 0.0, 0.0, 0.0, 0.0, 0.0, 1.6962750458936973E9, 0.0, 2023-10-02 15:30:45.893
97.0, 16091.266702564562, 16645.85818598964, 46875.87730596987, 66649.34803835726, 12510.293723379818, -20321.177878520237, -31300.42181020043, 11626.103416216782, 0.08, 0.9420000000000001, 0.312, 192.0, 0.0, 0.0, 0.0, 0.0, 0.0, 0.0, 0.0, 0.0, 0.0, 1.6962750458937128E9, 0.0, 2023-10-02 15:30:45.893
98.0, 16088.428031018739, 16630.591944526666, 46871.295198356536, 66635.3781980727, 12492.14410688211, -20340.02039909606, -31302.05348754567, 11617.699160301587, 0.074, 0.9500000000000001, 0.304, 192.0, 2.0, 80.0, 29.0, 176.0, 9.0, 128.0, 0.0, 0.0, 0.0, 1.696275045893724E9, 0.0, 2023-10-02 15:30:45.893
99.0, 16096.98874914512, 16630.81546197122, 46880.4147100943, 66643.98361968799, 12507.47740357845, -20328.106919301383, -31322.080650577624, 11602.432918838611, 0.074, 0.9500000000000001, 0.304, 192.0, 0.0, 0.0, 0.0, 0.0, 0.0, 0.0, 0.0, 0.0, 0.0, 1.696275045893736E9, 0.0, 2023-10-02 15:30:45.893
100.0, 16094.530057255037, 16627.552107280746, 46886.40497760833, 66650.35386685775, 12523.414197375083, -20321.40139596479, -31318.549074953688, 11615.620448067242, 0.074, 0.9500000000000001, 0.304, 192.0, 0.0, 0.0, 0.0, 0.0, 0.0, 0.0, 0.0, 0.0, 0.0, 1.6962750458937483E9, 0.0, 2023-10-02 15:30:45.893
101.0, 16098.486316023627, 16629.831985215187, 46888.349579375936, 66620.89426766566, 12530.834976534246, -20318.853297096884, -31316.269197019246, 11619.844927769296, 0.074, 0.9500000000000001, 0.304, 192.0, 0.0, 0.0, 0.0, 0.0, 0.0, 0.0, 0.0, 0.0, 0.0, 1.6962750458937597E9, 0.0, 2023-10-02 15:30:45.893
102.0, 16103.358996314884, 16632.357732338634, 46898.76549229211, 66614.21109607353, 12538.121645226676, -20307.69977661369, -31312.491752206297, 11620.20255568058, 0.074, 0.9500000000000001, 0.304, 192.0, 0.0, 0.0, 0.0, 0.0, 0.0, 0.0, 0.0, 0.0, 0.0, 1.6962750458937705E9, 0.0, 2023-10-02 15:30:45.893
103.0, 16112.679673752747, 16638.884441719587, 46908.01911449661, 66631.10901488173, 12548.179930231563, -20294.847523551885, -31324.204066300877, 11613.139404432703, 0.074, 0.9500000000000001, 0.304, 192.0, 0.0, 0.0, 0.0, 0.0, 0.0, 0.0, 0.0, 0.0, 0.0, 1.6962750458937807E9, 0.0, 2023-10-02 15:30:45.893
104.0, 16108.723414984157, 16633.72118875041, 46893.6692945563, 66624.96228515652, 12536.33350567025, -20306.939817302205, -31339.20208683039, 11605.025721195427, 0.074, 0.9500000000000001, 0.304, 192.0, 0.0, 0.0, 0.0, 0.0, 0.0, 0.0, 0.0, 0.0, 0.0, 1.6962750458937912E9, 0.0, 2023-10-02 15:30:45.893
105.0, 16108.321083583962, 16633.676485261498, 46886.09205318595, 66587.25489226042, 12526.252868920907, -20317.17691626274, -31347.58399100113, 11598.968398448038, 0.074, 0.9500000000000001, 0.304, 192.0, 0.0, 0.0, 0.0, 0.0, 0.0, 0.0, 0.0, 0.0, 0.0, 1.6962750458938031E9, 0.0, 2023-10-02 15:30:45.893
106.0, 16112.165583630274, 16638.705627763942, 46897.2679254136, 66567.98768853994, 12536.177043459063, -20305.933988801717, -31349.57329625765, 11597.873162969729, 0.074, 0.9500000000000001, 0.304, 192.0, 0.0, 0.0, 0.0, 0.0, 0.0, 0.0, 0.0, 0.0, 0.0, 1.6962750458938131E9, 0.0, 2023-10-02 15:30:45.893
107.0, 16090.70790895318, 16622.612371756124, 46896.597373079945, 66606.3209302808, 12525.984647987443, -20315.813459850964, -31324.986377356814, 11621.096625458793, 0.074, 0.9500000000000001, 0.304, 192.0, 0.0, 0.0, 0.0, 0.0, 0.0, 0.0, 0.0, 0.0, 0.0, 1.6962750458938236E9, 0.0, 2023-10-02 15:30:45.893
108.0, 16094.887685166323, 16637.968020196917, 46888.14841367584, 66631.35488407075, 12526.744607298924, -20310.940779559707, -31300.175941011425, 11647.762256593975, 0.07200000000000001, 0.936, 0.302, 192.0, 2.0, 64.0, 29.0, 64.0, 9.0, 112.0, 0.0, 0.0, 0.0, 1.696275045893834E9, 0.0, 2023-10-02 15:30:45.893
109.0, 16098.262798579073, 16641.879575476596, 46881.88992522835, 66609.18195357108, 12531.214956189986, -20310.15846850377, -31284.03798151469, 11661.709745134085, 0.07200000000000001, 0.936, 0.302, 192.0, 0.0, 0.0, 0.0, 0.0, 0.0, 0.0, 0.0, 0.0, 0.0, 1.696275045893845E9, 0.0, 2023-10-02 15:30:45.893
110.0, 16100.877952680345, 16640.873746976107, 46876.79372749254, 66561.43862741455, 12532.019618990376, -20314.092375527904, -31309.29545274919, 11633.054808742381, 0.07200000000000001, 0.936, 0.302, 192.0, 0.0, 0.0, 0.0, 0.0, 0.0, 0.0, 0.0, 0.0, 0.0, 1.6962750458938706E9, 0.0, 2023-10-02 15:30:45.893
111.0, 16095.111202610875, 16637.141005652073, 46883.9686374627, 66585.712621893, 12526.521089854372, -20312.34893946039, -31302.09819103458, 11637.212233211068, 0.07200000000000001, 0.936, 0.302, 192.0, 0.0, 0.0, 0.0, 0.0, 0.0, 0.0, 0.0, 0.0, 0.0, 1.6962750458940897E9, 0.0, 2023-10-02 15:30:45.894
112.0, 16094.999443888599, 16638.973848697406, 46886.85201249743, 66618.2791135644, 12530.745569556424, -20308.705605114177, -31286.34021119359, 11656.010050297982, 0.07200000000000001, 0.936, 0.302, 192.0, 0.0, 0.0, 0.0, 0.0, 0.0, 0.0, 0.0, 0.0, 0.0, 1.6962750458941011E9, 0.0, 2023-10-02 15:30:45.894
113.0, 16101.146173613808, 16645.031171444796, 46878.1124804154, 66593.51338070791, 12531.214956189986, -20308.012701036063, -31288.016592027736, 11657.977003810049, 0.07200000000000001, 0.936, 0.302, 192.0, 0.0, 0.0, 0.0, 0.0, 0.0, 0.0, 0.0, 0.0, 0.0, 1.6962750458941112E9, 0.0, 2023-10-02 15:30:45.894
114.0, 16089.500914752594, 16635.91165970703, 46878.93949496025, 66562.82443557077, 12523.436549119539, -20320.149698275294, -31286.876653060517, 11654.534835163931, 0.07200000000000001, 0.936, 0.302, 192.0, 0.0, 0.0, 0.0, 0.0, 0.0, 0.0, 0.0, 0.0, 0.0, 1.6962750458941212E9, 0.0, 2023-10-02 15:30:45.894
115.0, 16085.298786794996, 16637.163357396526, 46890.56240207701, 66569.30644146282, 12522.810700274791, -20319.300331985993, -31293.5374729082, 11647.494035660511, 0.07200000000000001, 0.936, 0.302, 192.0, 0.0, 0.0, 0.0, 0.0, 0.0, 0.0, 0.0, 0.0, 0.0, 1.6962750458941312E9, 0.0, 2023-10-02 15:30:45.894
116.0, 16085.18702807272, 16639.15266265305, 46887.45550959773, 66587.70192714954, 12521.134319440642, -20318.048634296494, -31304.020441057735, 11643.336611191824, 0.07200000000000001, 0.936, 0.302, 192.0, 0.0, 0.0, 0.0, 0.0, 0.0, 0.0, 0.0, 0.0, 0.0, 1.696275045894142E9, 0.0, 2023-10-02 15:30:45.894
117.0, 16094.261836321573, 16647.445159845967, 46886.382625863866, 66562.44445591503, 12531.99726724592, -20311.097241770894, -31323.578217456132, 11628.897384273694, 0.07200000000000001, 0.936, 0.302, 192.0, 0.0, 0.0, 0.0, 0.0, 0.0, 0.0, 0.0, 0.0, 0.0, 1.6962750458941529E9, 0.0, 2023-10-02 15:30:45.894
118.0, 16083.465943749661, 16636.179880640495, 46880.928800216774, 66532.73898753393, 12524.978819486954, -20320.954361075685, -31321.25363603278, 11629.076198229337, 0.07200000000000001, 0.936, 0.302, 192.0, 0.0, 0.0, 0.0, 0.0, 0.0, 0.0, 0.0, 0.0, 0.0, 1.696275045894164E9, 0.0, 2023-10-02 15:30:45.894
119.0, 16082.415411760261, 16639.398531842056, 46874.93853270275, 66531.10731018869, 12516.775729271858, -20323.480108199135, -31327.37801401353, 11620.738997547507, 0.07, 0.9420000000000001, 0.298, 192.0, 2.0, 48.0, 29.0, 112.0, 9.0, 80.0, 0.0, 0.0, 0.0, 1.6962750458941743E9, 0.0, 2023-10-02 15:30:45.894
120.0, 16083.51064723857, 16638.415055086025, 46887.23199215317, 66562.5115111484, 12519.435586862039, -20319.680311641732, -31328.182676813925, 11624.583497593821, 0.07, 0.9420000000000001, 0.298, 192.0, 0.0, 0.0, 0.0, 0.0, 0.0, 0.0, 0.0, 0.0, 0.0, 1.6962750458941855E9, 0.0, 2023-10-02 15:30:45.894
121.0, 16067.864426119857, 16617.53852576477, 46877.151355403825, 66570.04404902984, 12502.828240731746, -20337.539355461522, -31306.903816092472, 11646.510558904476, 0.07, 0.9420000000000001, 0.298, 192.0, 0.0, 0.0, 0.0, 0.0, 0.0, 0.0, 0.0, 0.0, 0.0, 1.696275046371302E9, 0.0, 2023-10-02 15:30:46.371
122.0, 16080.336699525918, 16627.44034855847, 46871.25049486763, 66514.79053673631, 12510.919572224568, -20334.276000771046, -31330.86488614856, 11622.840061526307, 0.07, 0.9420000000000001, 0.298, 192.0, 0.0, 0.0, 0.0, 0.0, 0.0, 0.0, 0.0, 0.0, 0.0, 1.6962750463713975E9, 0.0, 2023-10-02 15:30:46.371
123.0, 16082.147190826798, 16628.110900892127, 46892.529355589075, 66508.5991035222, 12517.669799050069, -20323.368349476856, -31338.86681066356, 11614.05582595537, 0.07, 0.9420000000000001, 0.298, 192.0, 0.0, 0.0, 0.0, 0.0, 0.0, 0.0, 0.0, 0.0, 0.0, 1.6962750463714273E9, 0.0, 2023-10-02 15:30:46.371
124.0, 16073.340603511406, 16614.67750247449, 46887.54491657554, 66556.34242967874, 12510.740758268925, -20327.793994879008, -31312.447048717386, 11638.530986133932, 0.07, 0.9420000000000001, 0.298, 192.0, 0.0, 0.0, 0.0, 0.0, 0.0, 0.0, 0.0, 0.0, 0.0, 1.6962750463714511E9, 0.0, 2023-10-02 15:30:46.371
125.0, 16070.054897076476, 16607.43553727097, 46872.63630302386, 66559.69519134703, 12511.903048980601, -20330.342093746913, -31300.19829275588, 11650.064486272871, 0.07, 0.9420000000000001, 0.298, 192.0, 0.0, 0.0, 0.0, 0.0, 0.0, 0.0, 0.0, 0.0, 0.0, 1.6962750463714693E9, 0.0, 2023-10-02 15:30:46.371
126.0, 16078.190932058209, 16613.515211762813, 46869.08237565546, 66520.98196995044, 12515.792252515825, -20328.039864068018, -31301.181769511913, 11645.30356470389, 0.07, 0.9420000000000001, 0.298, 192.0, 0.0, 0.0, 0.0, 0.0, 0.0, 0.0, 0.0, 0.0, 0.0, 1.6962750463718767E9, 0.0, 2023-10-02 15:30:46.371
127.0, 16098.463964279172, 16634.704665506444, 46888.23782065366, 66494.24928358188, 12540.133302227654, -20311.074890026437, -31318.370260998043, 11624.784663293918, 0.07, 0.9420000000000001, 0.298, 192.0, 0.0, 0.0, 0.0, 0.0, 0.0, 0.0, 0.0, 0.0, 0.0, 1.6962750463718948E9, 0.0, 2023-10-02 15:30:46.371
128.0, 16093.635987476826, 16629.183784625984, 46896.66442831331, 66519.9984931944, 12540.557985372305, -20307.67742486923, -31324.941673867903, 11620.806052780874, 0.07, 0.9420000000000001, 0.298, 192.0, 0.0, 0.0, 0.0, 0.0, 0.0, 0.0, 0.0, 0.0, 0.0, 1.696275046371938E9, 0.0, 2023-10-02 15:30:46.371
129.0, 16091.490220009116, 16620.28779033277, 46884.10274792943, 66542.17142369408, 12530.253831178408, -20315.05350053948, -31305.20508351387, 11641.771989079953, 0.076, 0.9560000000000001, 0.304, 192.0, 2.0, 96.0, 29.0, 224.0, 9.0, 128.0, 0.0, 0.0, 0.0, 1.6962750463719575E9, 0.0, 2023-10-02 15:30:46.371
130.0, 16120.391025589828, 16636.44810157396, 46883.23102989567, 66512.3989000796, 12539.283935938352, -20309.286750470015, -31298.387801455, 11643.157797236181, 0.076, 0.9560000000000001, 0.304, 192.0, 0.0, 0.0, 0.0, 0.0, 0.0, 0.0, 0.0, 0.0, 0.0, 1.6962750463719752E9, 0.0, 2023-10-02 15:30:46.371
131.0, 16126.493051826126, 16630.033150915286, 46889.243649154145, 66485.01801312185, 12547.978764531466, -20312.84067783841, -31302.47817069032, 11629.992619752005, 0.076, 0.9560000000000001, 0.304, 192.0, 0.0, 0.0, 0.0, 0.0, 0.0, 0.0, 0.0, 0.0, 0.0, 1.696275046372008E9, 0.0, 2023-10-02 15:30:46.372
132.0, 16137.870089753878, 16633.56472653922, 46896.70913180222, 66515.68460651454, 12562.552101916326, -20307.140983002304, -31281.869862302527, 11645.951765293094, 0.076, 0.9560000000000001, 0.304, 192.0, 0.0, 0.0, 0.0, 0.0, 0.0, 0.0, 0.0, 0.0, 0.0, 1.6962750463720367E9, 0.0, 2023-10-02 15:30:46.372
133.0, 16144.016819479088, 16634.704665506444, 46889.601277065434, 66529.49798458791, 12559.355802459217, -20297.82030556444, -31280.215833212835, 11650.82444558435, 0.076, 0.9560000000000001, 0.304, 192.0, 0.0, 0.0, 0.0, 0.0, 0.0, 0.0, 0.0, 0.0, 0.0, 1.6962750463720524E9, 0.0, 2023-10-02 15:30:46.372
134.0, 16138.09360719843, 16624.66873224601, 46864.2096953642, 66486.80615267827, 12549.588090132249, -20309.17499174774, -31289.00006878377, 11637.391047166711, 0.076, 0.9560000000000001, 0.304, 192.0, 0.0, 0.0, 0.0, 0.0, 0.0, 0.0, 0.0, 0.0, 0.0, 1.6962750463720675E9, 0.0, 2023-10-02 15:30:46.372
135.0, 16147.928374758767, 16622.344150822657, 46868.054195410514, 66450.79749236077, 12554.259604723407, -20302.58122713342, -31298.656022388463, 11622.01304698146, 0.076, 0.9560000000000001, 0.304, 192.0, 0.0, 0.0, 0.0, 0.0, 0.0, 0.0, 0.0, 0.0, 0.0, 1.696275046372085E9, 0.0, 2023-10-02 15:30:46.372
136.0, 16161.764104576601, 16620.153679866038, 46883.25338164013, 66477.35136477368, 12556.29361346884, -20292.031203750517, -31289.67062111743, 11629.992619752005, 0.076, 0.9560000000000001, 0.304, 192.0, 0.0, 0.0, 0.0, 0.0, 0.0, 0.0, 0.0, 0.0, 0.0, 1.6962750463721018E9, 0.0, 2023-10-02 15:30:46.372
137.0, 16173.208197737718, 16622.277095589292, 46880.32530311648, 66514.38820533612, 12552.605575633714, -20294.73576482961, -31271.34219066408, 11649.908024061684, 0.076, 0.9560000000000001, 0.304, 192.0, 0.0, 0.0, 0.0, 0.0, 0.0, 0.0, 0.0, 0.0, 0.0, 1.6962750463721235E9, 0.0, 2023-10-02 15:30:46.372
138.0, 16190.351985734938, 16631.888345705076, 46863.740308730645, 66475.5855769617, 12555.44424717954, -20295.316910185447, -31291.749333351774, 11633.16656746466, 0.076, 0.9560000000000001, 0.304, 192.0, 0.0, 0.0, 0.0, 0.0, 0.0, 0.0, 0.0, 0.0, 0.0, 1.6962750463721433E9, 0.0, 2023-10-02 15:30:46.372
139.0, 16198.800945139044, 16631.48601430488, 46874.13386990236, 66451.35628597216, 12563.177950761075, -20290.466581638644, -31290.967022295838, 11630.260840685469, 0.064, 0.9480000000000001, 0.308, 192.0, 2.0, 0.0, 29.0, 160.0, 9.0, 160.0, 0.0, 0.0, 0.0, 1.6962750463721604E9, 0.0, 2023-10-02 15:30:46.372
140.0, 16203.651273685846, 16628.28971484777, 46881.50994557261, 66465.79551289028, 12561.143942015642, -20289.997195005082, -31289.111827506047, 11629.031494740426, 0.064, 0.9480000000000001, 0.308, 192.0, 0.0, 0.0, 0.0, 0.0, 0.0, 0.0, 0.0, 0.0, 0.0, 1.696275046372178E9, 0.0, 2023-10-02 15:30:46.372
141.0, 16200.946712606754, 16620.153679866038, 46868.92591344428, 66486.67204221155, 12549.923366299077, -20294.53459912951, -31295.035039786704, 11627.310410417369, 0.064, 0.9480000000000001, 0.308, 192.0, 0.0, 0.0, 0.0, 0.0, 0.0, 0.0, 0.0, 0.0, 0.0, 1.6962750463723185E9, 0.0, 2023-10-02 15:30:46.372
142.0, 16205.752337664646, 16618.253781587337, 46849.52459925706, 66470.62348969263, 12542.748456328924, -20303.36353818936, -31298.454856688364, 11626.103416216782, 0.064, 0.9480000000000001, 0.308, 192.0, 0.0, 0.0, 0.0, 0.0, 0.0, 0.0, 0.0, 0.0, 0.0, 1.6962750463723335E9, 0.0, 2023-10-02 15:30:46.372
143.0, 16197.929227105287, 16606.340301792658, 46841.38856427534, 66435.95593404245, 12531.885508523645, -20312.863029582863, -31298.119580521536, 11623.309448159867, 0.064, 0.9480000000000001, 0.308, 192.0, 0.0, 0.0, 0.0, 0.0, 0.0, 0.0, 0.0, 0.0, 0.0, 1.6962750463723512E9, 0.0, 2023-10-02 15:30:46.372
144.0, 16196.051680571043, 16602.160525579515, 46846.328299799956, 66440.94037305599, 12527.728084054957, -20313.801802849986, -31288.642440872485, 11628.696218573597, 0.064, 0.9480000000000001, 0.308, 192.0, 0.0, 0.0, 0.0, 0.0, 0.0, 0.0, 0.0, 0.0, 0.0, 1.6962750463723652E9, 0.0, 2023-10-02 15:30:46.372
145.0, 16201.125526562397, 16603.233409313372, 46843.31081429849, 66467.56130070225, 12527.281049165851, -20314.427651694736, -31282.361600680546, 11636.340515177311, 0.064, 0.9480000000000001, 0.308, 192.0, 0.0, 0.0, 0.0, 0.0, 0.0, 0.0, 0.0, 0.0, 0.0, 1.6962750463723788E9, 0.0, 2023-10-02 15:30:46.372
146.0, 16219.342198293472, 16613.090528618162, 46841.500322997614, 66454.61964066263, 12537.294630681828, -20309.39850919229, -31291.90579556296, 11629.63499184072, 0.064, 0.9480000000000001, 0.308, 192.0, 0.0, 0.0, 0.0, 0.0, 0.0, 0.0, 0.0, 0.0, 0.0, 1.6962750463723955E9, 0.0, 2023-10-02 15:30:46.372
147.0, 16230.026332143108, 16618.633761243076, 46845.16600908828, 66414.40885238754, 12541.630869106159, -20303.810573078463, -31304.020441057735, 11618.280305657425, 0.064, 0.9480000000000001, 0.308, 192.0, 0.0, 0.0, 0.0, 0.0, 0.0, 0.0, 0.0, 0.0, 0.0, 1.6962750463724089E9, 0.0, 2023-10-02 15:30:46.372
148.0, 16233.155576366851, 16616.264476330816, 46859.02409065057, 66416.01817798831, 12545.162444730096, -20299.83196256542, -31297.449028187875, 11621.923640003639, 0.064, 0.9480000000000001, 0.308, 192.0, 0.0, 0.0, 0.0, 0.0, 0.0, 0.0, 0.0, 0.0, 0.0, 1.6962750463724215E9, 0.0, 2023-10-02 15:30:46.372
149.0, 16236.865965946434, 16616.979732153384, 46863.7626604751, 66454.17260577352, 12537.071113237276, -20298.088526497904, -31278.159472722946, 11638.083951244826, 0.07, 0.9440000000000001, 0.31, 192.0, 2.0, 48.0, 29.0, 128.0, 9.0, 176.0, 0.0, 0.0, 0.0, 1.696275046372438E9, 0.0, 2023-10-02 15:30:46.372
150.0, 16236.798910713067, 16618.834926943175, 46858.778221461565, 66456.11720754113, 12535.9088225256, -20297.082697997415, -31272.348019164565, 11645.482378659533, 0.07, 0.9440000000000001, 0.31, 192.0, 0.0, 0.0, 0.0, 0.0, 0.0, 0.0, 0.0, 0.0, 0.0, 1.6962750463724527E9, 0.0, 2023-10-02 15:30:46.372
151.0, 16244.26439336114, 16622.5229647783, 46849.70341321271, 66407.14453543955, 12538.032238248854, -20300.524866643533, -31277.645382600473, 11634.708837832075, 0.07, 0.9440000000000001, 0.31, 192.0, 0.0, 0.0, 0.0, 0.0, 0.0, 0.0, 0.0, 0.0, 0.0, 1.6962750463724675E9, 0.0, 2023-10-02 15:30:46.372
152.0, 16247.393637584883, 16621.360674066626, 46861.68394824075, 66390.78305849827, 12542.39082841764, -20296.72507008613, -31269.352885407556, 11634.910003532172, 0.07, 0.9440000000000001, 0.31, 192.0, 0.0, 0.0, 0.0, 0.0, 0.0, 0.0, 0.0, 0.0, 0.0, 1.6962750463724823E9, 0.0, 2023-10-02 15:30:46.372
153.0, 16257.630736545414, 16630.01079917083, 46878.87243972688, 66424.19891645896, 12552.62792737817, -20284.92334901373, -31248.319893875112, 11653.59606189681, 0.07, 0.9440000000000001, 0.31, 192.0, 0.0, 0.0, 0.0, 0.0, 0.0, 0.0, 0.0, 0.0, 0.0, 1.696275046372497E9, 0.0, 2023-10-02 15:30:46.372
154.0, 16247.103064906963, 16623.417034556514, 46864.8131924645, 66422.4778321359, 12538.725142326968, -20295.652186352276, -31251.31502763212, 11651.137370006725, 0.07, 0.9440000000000001, 0.31, 192.0, 0.0, 0.0, 0.0, 0.0, 0.0, 0.0, 0.0, 0.0, 0.0, 1.6962750463725193E9, 0.0, 2023-10-02 15:30:46.372
155.0, 16241.962163682243, 16615.683330974978, 46854.53139001506, 66379.89775894854, 12533.584241102248, -20302.82709632243, -31260.456891114343, 11638.285116944924, 0.07, 0.9440000000000001, 0.31, 192.0, 0.0, 0.0, 0.0, 0.0, 0.0, 0.0, 0.0, 0.0, 0.0, 1.6962750463725345E9, 0.0, 2023-10-02 15:30:46.372
156.0, 16253.987402199198, 16623.349979323146, 46872.122212901384, 66362.75397095132, 12546.615308119692, -20292.232369450616, -31254.824251511607, 11640.25207045699, 0.07, 0.9440000000000001, 0.31, 192.0, 0.0, 0.0, 0.0, 0.0, 0.0, 0.0, 0.0, 0.0, 0.0, 1.6962750463725517E9, 0.0, 2023-10-02 15:30:46.372
157.0, 16248.734742252202, 16615.705682719432, 46873.64213152434, 66382.51291304981, 12538.725142326968, -20295.093392740895, -31250.46566134282, 11643.090742002814, 0.07, 0.9440000000000001, 0.31, 192.0, 0.0, 0.0, 0.0, 0.0, 0.0, 0.0, 0.0, 0.0, 0.0, 1.6962750463726995E9, 0.0, 2023-10-02 15:30:46.372
158.0, 16245.091407905986, 16609.424842527493, 46859.828753450965, 66400.72958478089, 12532.310191668295, -20302.000081777584, -31244.050710684147, 11649.282175216935, 0.07, 0.9440000000000001, 0.31, 192.0, 0.0, 0.0, 0.0, 0.0, 0.0, 0.0, 0.0, 0.0, 0.0, 1.6962750463727164E9, 0.0, 2023-10-02 15:30:46.372
159.0, 16243.102102649464, 16601.154697079026, 46846.261244566595, 66364.43035178547, 12525.67172356507, -20310.516096415056, -31257.66292305743, 11634.641782598708, 0.082, 0.9440000000000001, 0.31, 192.0, 2.0, 144.0, 29.0, 128.0, 9.0, 176.0, 0.0, 0.0, 0.0, 1.6962750463727288E9, 0.0, 2023-10-02 15:30:46.372
160.0, 16248.98061144121, 16603.121650591096, 46854.88901792634, 66333.89786885952, 12534.902994025111, -20298.513209642555, -31271.94568776437, 11619.330837646823, 0.082, 0.9440000000000001, 0.31, 192.0, 0.0, 0.0, 0.0, 0.0, 0.0, 0.0, 0.0, 0.0, 0.0, 1.6962750463727458E9, 0.0, 2023-10-02 15:30:46.372
161.0, 16251.148730653375, 16594.203304553426, 46867.584808776955, 66368.25250008733, 12541.653220850614, -20298.848485809387, -31261.507423103743, 11630.372599407745, 0.082, 0.9440000000000001, 0.31, 192.0, 0.0, 0.0, 0.0, 0.0, 0.0, 0.0, 0.0, 0.0, 0.0, 1.6962750463727603E9, 0.0, 2023-10-02 15:30:46.372
162.0, 16243.750303238667, 16578.914711346, 46856.83361969395, 66407.68097730649, 12529.404464889105, -20309.845544081396, -31237.99338793676, 11652.5008264185, 0.082, 0.9440000000000001, 0.31, 192.0, 0.0, 0.0, 0.0, 0.0, 0.0, 0.0, 0.0, 0.0, 0.0, 1.6962750463727753E9, 0.0, 2023-10-02 15:30:46.372
163.0, 16244.97964918371, 16585.173199793484, 46846.21654107768, 66376.74616298034, 12534.210089946997, -20305.151677745784, -31246.576457807598, 11643.582480380832, 0.082, 0.9440000000000001, 0.31, 192.0, 0.0, 0.0, 0.0, 0.0, 0.0, 0.0, 0.0, 0.0, 0.0, 1.696275046372791E9, 0.0, 2023-10-02 15:30:46.372
164.0, 16251.998096942676, 16590.783487651766, 46858.75586971711, 66350.48286324536, 12548.023468020376, -20298.088526497904, -31242.642550783465, 11639.961497779072, 0.082, 0.9440000000000001, 0.31, 192.0, 0.0, 0.0, 0.0, 0.0, 0.0, 0.0, 0.0, 0.0, 0.0, 1.6962750463728073E9, 0.0, 2023-10-02 15:30:46.372
165.0, 16257.340163867495, 16591.99048185235, 46870.95992218971, 66366.35260180863, 12545.900052297122, -20296.322738685936, -31236.98755943627, 11641.101436746292, 0.082, 0.9440000000000001, 0.31, 192.0, 0.0, 0.0, 0.0, 0.0, 0.0, 0.0, 0.0, 0.0, 0.0, 1.696275046372822E9, 0.0, 2023-10-02 15:30:46.372
166.0, 16243.079750905008, 16573.103257787618, 46859.89580868433, 66410.29613140775, 12531.013790489887, -20306.604541135377, -31207.438553266355, 11666.895349847717, 0.082, 0.9440000000000001, 0.31, 192.0, 0.0, 0.0, 0.0, 0.0, 0.0, 0.0, 0.0, 0.0, 0.0, 1.696275046372838E9, 0.0, 2023-10-02 15:30:46.372
167.0, 16259.26241389065, 16587.028394583274, 46842.46144800919, 66376.5673490247, 12547.464674408993, -20295.696889841187, -31230.259684355224, 11646.35409669329, 0.082, 0.9440000000000001, 0.31, 192.0, 0.0, 0.0, 0.0, 0.0, 0.0, 0.0, 0.0, 0.0, 0.0, 1.6962750463728528E9, 0.0, 2023-10-02 15:30:46.372
168.0, 16261.184663913808, 16589.777659151277, 46847.66940446728, 66327.12529028956, 12554.281956467863, -20286.935006014708, -31260.501594603254, 11617.766215534952, 0.082, 0.9440000000000001, 0.31, 192.0, 0.0, 0.0, 0.0, 0.0, 0.0, 0.0, 0.0, 0.0, 0.0, 1.696275046372874E9, 0.0, 2023-10-02 15:30:46.372
169.0, 16255.149692910874, 16585.754345149322, 46863.20386686372, 66340.73750266284, 12557.858235580712, -20286.331508914413, -31251.225620654302, 11624.985828994017, 0.07, 0.9380000000000001, 0.312, 192.0, 2.0, 48.0, 29.0, 80.0, 9.0, 192.0, 0.0, 0.0, 0.0, 1.6962750463728929E9, 0.0, 2023-10-02 15:30:46.372
170.0, 16258.949489468276, 16589.285920773258, 46873.865648968895, 66384.63632877306, 12563.312061227807, -20281.503532112067, -31231.287864600166, 11646.711724604575, 0.07, 0.9380000000000001, 0.312, 192.0, 0.0, 0.0, 0.0, 0.0, 0.0, 0.0, 0.0, 0.0, 0.0, 1.6962750463729072E9, 0.0, 2023-10-02 15:30:46.372
171.0, 16253.40625684336, 16581.485161958357, 46854.19611384823, 66379.83070371517, 12550.325697699272, -20293.72993632912, -31227.599826765043, 11653.30548921889, 0.07, 0.9380000000000001, 0.312, 192.0, 0.0, 0.0, 0.0, 0.0, 0.0, 0.0, 0.0, 0.0, 0.0, 1.696275046372923E9, 0.0, 2023-10-02 15:30:46.372
172.0, 16255.55202431107, 16582.535693947757, 46849.72576495716, 66346.43719749895, 12544.760113329901, -20298.26734045355, -31228.382137820976, 11651.494997918011, 0.07, 0.9380000000000001, 0.312, 192.0, 0.0, 0.0, 0.0, 0.0, 0.0, 0.0, 0.0, 0.0, 0.0, 1.6962750463730204E9, 0.0, 2023-10-02 15:30:46.373
173.0, 16258.413047601349, 16586.983691094363, 46862.22039010768, 66346.48190098786, 12546.995287775433, -20296.97093927514, -31221.810724951116, 11655.07127703086, 0.07, 0.9380000000000001, 0.312, 192.0, 0.0, 0.0, 0.0, 0.0, 0.0, 0.0, 0.0, 0.0, 0.0, 1.6962750463730376E9, 0.0, 2023-10-02 15:30:46.373
174.0, 16251.707524264757, 16583.206246281417, 46862.689776741245, 66371.3593925666, 12541.496758639427, -20301.463639910657, -31221.475448784287, 11655.674774131152, 0.07, 0.9380000000000001, 0.312, 192.0, 0.0, 0.0, 0.0, 0.0, 0.0, 0.0, 0.0, 0.0, 0.0, 1.6962750463730524E9, 0.0, 2023-10-02 15:30:46.373
175.0, 16260.156483668863, 16591.543446963246, 46860.298140084524, 66377.170846125, 12542.636697606647, -20297.77560207553, -31219.173219105392, 11661.128599778247, 0.07, 0.9380000000000001, 0.312, 192.0, 0.0, 0.0, 0.0, 0.0, 0.0, 0.0, 0.0, 0.0, 0.0, 1.6962750463730884E9, 0.0, 2023-10-02 15:30:46.373
176.0, 16282.59763510199, 16613.38110129608, 46865.41668956479, 66337.42944448345, 12557.00886929141, -20289.460753138155, -31233.27716985669, 11648.365753694266, 0.07, 0.9380000000000001, 0.312, 192.0, 0.0, 0.0, 0.0, 0.0, 0.0, 0.0, 0.0, 0.0, 0.0, 1.696275046373103E9, 0.0, 2023-10-02 15:30:46.373
177.0, 16264.738591282201, 16603.412223269013, 46863.9638261752, 66314.0048162943, 12550.325697699272, -20296.658014852765, -31252.164393921423, 11630.238488941013, 0.07, 0.9380000000000001, 0.312, 192.0, 0.0, 0.0, 0.0, 0.0, 0.0, 0.0, 0.0, 0.0, 0.0, 1.6962750463731184E9, 0.0, 2023-10-02 15:30:46.373
178.0, 16269.879492506921, 16600.260627300817, 46871.67517801228, 66353.52270049127, 12550.526863399371, -20291.83003805042, -31238.730995503785, 11646.152930993192, 0.07, 0.9380000000000001, 0.312, 192.0, 0.0, 0.0, 0.0, 0.0, 0.0, 0.0, 0.0, 0.0, 0.0, 1.6962750463731356E9, 0.0, 2023-10-02 15:30:46.373
179.0, 16274.998041987186, 16602.451098257436, 46862.89094244134, 66372.49933153384, 12546.123569741676, -20293.148790973282, -31233.366576834513, 11656.278271231446, 0.07, 0.9380000000000001, 0.31, 192.0, 2.0, 48.0, 29.0, 80.0, 9.0, 176.0, 0.0, 0.0, 0.0, 1.6962750463731503E9, 0.0, 2023-10-02 15:30:46.373
180.0, 16272.271129163639, 16608.24020007136, 46840.6062532194, 66320.84445009762, 12532.913688768589, -20305.911637057263, -31263.65319057145, 11628.11507321776, 0.07, 0.9380000000000001, 0.31, 192.0, 0.0, 0.0, 0.0, 0.0, 0.0, 0.0, 0.0, 0.0, 0.0, 1.6962750463731663E9, 0.0, 2023-10-02 15:30:46.373
181.0, 16259.97766971322, 16595.27618828728, 46845.635395721845, 66305.01941502326, 12523.615363075181, -20308.437384180714, -31266.245992928267, 11624.650552827186, 0.07, 0.9380000000000001, 0.31, 192.0, 0.0, 0.0, 0.0, 0.0, 0.0, 0.0, 0.0, 0.0, 0.0, 1.6962750463731794E9, 0.0, 2023-10-02 15:30:46.373
182.0, 16242.40919857135, 16573.036202554253, 46858.062965638994, 66344.49259573134, 12525.33644739824, -20306.20220973518, -31247.761100263728, 11641.727285591041, 0.07, 0.9380000000000001, 0.31, 192.0, 0.0, 0.0, 0.0, 0.0, 0.0, 0.0, 0.0, 0.0, 0.0, 1.696275046373193E9, 0.0, 2023-10-02 15:30:46.373
183.0, 16235.278992090107, 16569.258757741303, 46859.046442395025, 66367.7160582204, 12531.19260444553, -20300.100183498882, -31239.736824004274, 11653.886634574728, 0.07, 0.9380000000000001, 0.31, 192.0, 0.0, 0.0, 0.0, 0.0, 0.0, 0.0, 0.0, 0.0, 0.0, 1.6962750463732145E9, 0.0, 2023-10-02 15:30:46.373
184.0, 16244.711428250246, 16576.94775783393, 46845.12130559937, 66324.7560053773, 12529.136243955641, -20308.750308603085, -31259.56282133613, 11637.68161984463, 0.07, 0.9380000000000001, 0.31, 192.0, 0.0, 0.0, 0.0, 0.0, 0.0, 0.0, 0.0, 0.0, 0.0, 1.69627504637323E9, 0.0, 2023-10-02 15:30:46.373
185.0, 16234.183756611796, 16565.548368161722, 46844.49545675462, 66287.67446132595, 12523.302438652807, -20319.725015130643, -31275.656077343952, 11621.945991748094, 0.07, 0.9380000000000001, 0.31, 192.0, 0.0, 0.0, 0.0, 0.0, 0.0, 0.0, 0.0, 0.0, 0.0, 1.6962750463732443E9, 0.0, 2023-10-02 15:30:46.373
186.0, 16228.193489097774, 16560.36276344809, 46843.959014887696, 66313.31191221619, 12515.635790304637, -20327.01168382307, -31261.552126592655, 11633.233622698024, 0.07, 0.9380000000000001, 0.31, 192.0, 0.0, 0.0, 0.0, 0.0, 0.0, 0.0, 0.0, 0.0, 0.0, 1.696275046373258E9, 0.0, 2023-10-02 15:30:46.373
187.0, 16242.02921891561, 16574.690231643945, 46837.029974106554, 66311.5014209153, 12520.106139195697, -20321.73667213162, -31293.783342097206, 11608.669055541643, 0.07, 0.9380000000000001, 0.31, 192.0, 0.0, 0.0, 0.0, 0.0, 0.0, 0.0, 0.0, 0.0, 0.0, 1.6962750463732753E9, 0.0, 2023-10-02 15:30:46.373
188.0, 16235.658971745846, 16570.108124030605, 46840.00275611911, 66308.23806622483, 12524.71059855349, -20324.26241925507, -31281.914565791438, 11624.494090615999, 0.07, 0.9380000000000001, 0.31, 192.0, 0.0, 0.0, 0.0, 0.0, 0.0, 0.0, 0.0, 0.0, 0.0, 1.6962750463734558E9, 0.0, 2023-10-02 15:30:46.373
189.0, 16248.824149230022, 16580.032298568764, 46850.79864869102, 66277.8396937656, 12541.519110383882, -20311.186648748713, -31287.010763527247, 11621.744826047996, 0.056, 0.9440000000000001, 0.31, 192.0, 1.0, 192.0, 29.0, 128.0, 9.0, 176.0, 0.0, 0.0, 0.0, 1.6962750463734765E9, 0.0, 2023-10-02 15:30:46.373
190.0, 16247.348934095971, 16573.662051399, 46858.778221461565, 66287.47329562585, 12535.595898103225, -20312.84067783841, -31291.034077529202, 11619.017913224448, 0.056, 0.9440000000000001, 0.31, 192.0, 0.0, 0.0, 0.0, 0.0, 0.0, 0.0, 0.0, 0.0, 0.0, 1.696275046373494E9, 0.0, 2023-10-02 15:30:46.373
191.0, 16243.951468938765, 16574.019679310284, 46854.307872570505, 66315.2565139838, 12530.700866067513, -20311.3431109599, -31289.849435073073, 11623.018875481948, 0.056, 0.9440000000000001, 0.31, 192.0, 0.0, 0.0, 0.0, 0.0, 0.0, 0.0, 0.0, 0.0, 0.0, 1.696275046373515E9, 0.0, 2023-10-02 15:30:46.373
192.0, 16231.658009488347, 16571.829208353665, 46836.337070028436, 66298.60446436459, 12513.914705981579, -20316.215791251157, -31296.666717131942, 11618.548526590888, 0.056, 0.9440000000000001, 0.31, 192.0, 0.0, 0.0, 0.0, 0.0, 0.0, 0.0, 0.0, 0.0, 0.0, 1.6962750463735363E9, 0.0, 2023-10-02 15:30:46.373
193.0, 16237.40240781336, 16583.161542792506, 46835.64416595032, 66256.58318478861, 12526.76695904338, -20304.302311456482, -31312.37999348402, 11605.048072939882, 0.056, 0.9440000000000001, 0.31, 192.0, 0.0, 0.0, 0.0, 0.0, 0.0, 0.0, 0.0, 0.0, 0.0, 1.6962750463735585E9, 0.0, 2023-10-02 15:30:46.373
194.0, 16240.732817737202, 16582.37923173657, 46852.631491736356, 66265.85915873757, 12541.630869106159, -20299.340224187403, -31312.290586506202, 11606.120956673736, 0.056, 0.9440000000000001, 0.31, 192.0, 0.0, 0.0, 0.0, 0.0, 0.0, 0.0, 0.0, 0.0, 0.0, 1.696275046373582E9, 0.0, 2023-10-02 15:30:46.373
195.0, 16233.73672172269, 16574.62317641058, 46859.1582011173, 66332.02032232528, 12532.62311609067, -20302.894151555796, -31267.654152828953, 11647.985774038527, 0.056, 0.9440000000000001, 0.31, 192.0, 0.0, 0.0, 0.0, 0.0, 0.0, 0.0, 0.0, 0.0, 0.0, 1.696275046373608E9, 0.0, 2023-10-02 15:30:46.373
196.0, 16243.437378816294, 16587.028394583274, 46841.94735788672, 66327.70643564539, 12536.62407834817, -20298.379099175825, -31267.721208062318, 11650.913852562173, 0.056, 0.9440000000000001, 0.31, 192.0, 0.0, 0.0, 0.0, 0.0, 0.0, 0.0, 0.0, 0.0, 0.0, 1.6962750463736491E9, 0.0, 2023-10-02 15:30:46.373
197.0, 16243.660896260846, 16584.90497886002, 46837.655822951296, 66283.74055430181, 12531.013790489887, -20299.764907332054, -31283.881519303504, 11634.999410509994, 0.056, 0.9440000000000001, 0.31, 192.0, 0.0, 0.0, 0.0, 0.0, 0.0, 0.0, 0.0, 0.0, 0.0, 1.6962750463736703E9, 0.0, 2023-10-02 15:30:46.373
198.0, 16237.02242815762, 16576.076039800173, 46845.054250366, 66279.71724029985, 12525.045874720321, -20301.329529443923, -31280.506405890756, 11633.703009331586, 0.056, 0.9440000000000001, 0.31, 192.0, 0.0, 0.0, 0.0, 0.0, 0.0, 0.0, 0.0, 0.0, 0.0, 1.696275046373691E9, 0.0, 2023-10-02 15:30:46.373
199.0, 16227.321771064017, 16566.978879806862, 46843.71314569869, 66317.91637157397, 12516.686322294036, -20307.29744521349, -31262.89323125997, 11648.58927113882, 0.07200000000000001, 0.934, 0.316, 192.0, 2.0, 64.0, 29.0, 48.0, 9.0, 224.0, 0.0, 0.0, 0.0, 1.696275046373711E9, 0.0, 2023-10-02 15:30:46.373
200.0, 16224.505451262648, 16566.353030962113, 46828.26809028007, 66328.33228449014, 12514.920534482068, -20315.32172147295, -31246.978789207795, 11662.670870145665, 0.07200000000000001, 0.934, 0.316, 192.0, 0.0, 0.0, 0.0, 0.0, 0.0, 0.0, 0.0, 0.0, 0.0, 1.696275046373738E9, 0.0, 2023-10-02 15:30:46.373
201.0, 16230.853346687956, 16573.170313020983, 46825.07179082296, 66291.00487124978, 12522.43072061905, -20313.958265061174, -31246.487050829775, 11657.239396243025, 0.07200000000000001, 0.934, 0.316, 192.0, 0.0, 0.0, 0.0, 0.0, 0.0, 0.0, 0.0, 0.0, 0.0, 1.6962750463737607E9, 0.0, 2023-10-02 15:30:46.373
202.0, 16223.946657651266, 16567.42591469597, 46830.950299614706, 66264.11572267005, 12519.010903717388, -20315.098204028393, -31257.439405612877, 11641.794340824406, 0.07200000000000001, 0.934, 0.316, 192.0, 0.0, 0.0, 0.0, 0.0, 0.0, 0.0, 0.0, 0.0, 0.0, 1.6962750463737903E9, 0.0, 2023-10-02 15:30:46.373
203.0, 16223.186698339785, 16564.676650127967, 46842.79672417602, 66297.15160097499, 12518.966200228477, -20311.25370398208, -31244.31893161761, 11653.59606189681, 0.07200000000000001, 0.934, 0.316, 192.0, 0.0, 0.0, 0.0, 0.0, 0.0, 0.0, 0.0, 0.0, 0.0, 1.6962750463738117E9, 0.0, 2023-10-02 15:30:46.373
204.0, 16226.047721630064, 16567.291804229237, 46838.5051892406, 66316.7540808623, 12516.842784505223, -20308.437384180714, -31229.589132021563, 11669.286986504434, 0.07200000000000001, 0.934, 0.316, 192.0, 0.0, 0.0, 0.0, 0.0, 0.0, 0.0, 0.0, 0.0, 0.0, 1.6962750463740761E9, 0.0, 2023-10-02 15:30:46.374
205.0, 16235.256640345651, 16575.114914788595, 46832.93960487123, 66270.86594949555, 12520.016732217877, -20310.292578970504, -31248.588114808575, 11649.550396150398, 0.07200000000000001, 0.934, 0.316, 192.0, 0.0, 0.0, 0.0, 0.0, 0.0, 0.0, 0.0, 0.0, 0.0, 1.6962750463740907E9, 0.0, 2023-10-02 15:30:46.374
206.0, 16234.49668103417, 16570.622214153078, 46849.39048879033, 66242.41217880395, 12526.43168287655, -20310.694910370697, -31264.390798138476, 11633.144215720204, 0.07200000000000001, 0.934, 0.316, 192.0, 0.0, 0.0, 0.0, 0.0, 0.0, 0.0, 0.0, 0.0, 0.0, 1.6962750463741047E9, 0.0, 2023-10-02 15:30:46.374
207.0, 16229.44518678727, 16561.36859194858, 46862.17568661877, 66285.7969147917, 12522.922458997067, -20314.762927861564, -31236.495821058255, 11658.491093932522, 0.07200000000000001, 0.934, 0.316, 192.0, 0.0, 0.0, 0.0, 0.0, 0.0, 0.0, 0.0, 0.0, 0.0, 1.6962750463741183E9, 0.0, 2023-10-02 15:30:46.374
208.0, 16238.721160736224, 16568.588205407646, 46860.07462263997, 66290.75900206077, 12524.442377620027, -20309.845544081396, -31249.795109009163, 11650.31035546188, 0.07200000000000001, 0.934, 0.316, 192.0, 0.0, 0.0, 0.0, 0.0, 0.0, 0.0, 0.0, 0.0, 0.0, 1.6962750463741317E9, 0.0, 2023-10-02 15:30:46.374
209.0, 16242.11862589343, 16570.21988275288, 46860.90163718482, 66261.76878950224, 12526.38697938764, -20309.17499174774, -31253.907829988937, 11647.225814727046, 0.07200000000000001, 0.9460000000000001, 0.32, 192.0, 2.0, 64.0, 29.0, 144.0, 10.0, 0.0, 0.0, 0.0, 0.0, 1.6962750463741453E9, 0.0, 2023-10-02 15:30:46.374
210.0, 16237.670628746824, 16562.7096966159, 46866.48957329865, 66224.50843149524, 12525.939944498534, -20318.83094535243, -31261.909754503937, 11636.385218666222, 0.07200000000000001, 0.9460000000000001, 0.32, 192.0, 0.0, 0.0, 0.0, 0.0, 0.0, 0.0, 0.0, 0.0, 0.0, 1.6962750463741584E9, 0.0, 2023-10-02 15:30:46.374
211.0, 16233.133224622397, 16557.680554113456, 46873.70918675771, 66241.87573693701, 12518.116833939175, -20320.730843631132, -31252.410263110432, 11642.978983280538, 0.07200000000000001, 0.9460000000000001, 0.32, 192.0, 0.0, 0.0, 0.0, 0.0, 0.0, 0.0, 0.0, 0.0, 0.0, 1.6962750463741727E9, 0.0, 2023-10-02 15:30:46.374
212.0, 16234.854308945456, 16562.03914428224, 46867.785974477054, 66277.03503096521, 12499.319016852263, -20323.658922154777, -31230.885533199973, 11664.034326557437, 0.07200000000000001, 0.9460000000000001, 0.32, 192.0, 0.0, 0.0, 0.0, 0.0, 0.0, 0.0, 0.0, 0.0, 0.0, 1.6962750463741891E9, 0.0, 2023-10-02 15:30:46.374
213.0, 16243.8844137054, 16569.929310074964, 46852.22916033616, 66255.42089407693, 12501.688301764525, -20321.69196864271, -31228.605655265532, 11663.922567835161, 0.07200000000000001, 0.9460000000000001, 0.32, 192.0, 0.0, 0.0, 0.0, 0.0, 0.0, 0.0, 0.0, 0.0, 0.0, 1.6962750463742027E9, 0.0, 2023-10-02 15:30:46.374
214.0, 16235.793082212578, 16561.390943693037, 46847.512942256086, 66203.65425391844, 12512.037159447333, -20323.07777679894, -31254.734844533785, 11635.11116923227, 0.07200000000000001, 0.9460000000000001, 0.32, 192.0, 0.0, 0.0, 0.0, 0.0, 0.0, 0.0, 0.0, 0.0, 0.0, 1.6962750463742194E9, 0.0, 2023-10-02 15:30:46.374
215.0, 16229.624000742913, 16553.81370232269, 46858.487648783645, 66214.29368427917, 12517.915668239079, -20319.59090466391, -31249.415129353423, 11636.742846577508, 0.07200000000000001, 0.9460000000000001, 0.32, 192.0, 0.0, 0.0, 0.0, 0.0, 0.0, 0.0, 0.0, 0.0, 0.0, 1.6962750463742328E9, 0.0, 2023-10-02 15:30:46.374
216.0, 16219.16338433783, 16546.16940571897, 46854.933721415255, 66255.01856267673, 12506.985665200433, -20323.25659075458, -31224.358823819024, 11661.910910834184, 0.07200000000000001, 0.9460000000000001, 0.32, 192.0, 0.0, 0.0, 0.0, 0.0, 0.0, 0.0, 0.0, 0.0, 0.0, 1.696275046374246E9, 0.0, 2023-10-02 15:30:46.374
217.0, 16234.764901967634, 16560.094542514627, 46845.59069223293, 66234.61141998904, 12518.273296150363, -20323.636570410323, -31228.069213398605, 11659.251053244001, 0.07200000000000001, 0.9460000000000001, 0.32, 192.0, 0.0, 0.0, 0.0, 0.0, 0.0, 0.0, 0.0, 0.0, 0.0, 1.6962750463742616E9, 0.0, 2023-10-02 15:30:46.374
218.0, 16250.03114343061, 16575.584301422157, 46853.682023725756, 66182.84477983056, 12529.739741055935, -20313.86885808335, -31248.766928764217, 11637.145177977703, 0.07200000000000001, 0.9460000000000001, 0.32, 192.0, 0.0, 0.0, 0.0, 0.0, 0.0, 0.0, 0.0, 0.0, 0.0, 1.696275046374282E9, 0.0, 2023-10-02 15:30:46.374
219.0, 16239.63758225889, 16569.057592041205, 46857.81709644999, 66185.66109963192, 12516.060473449288, -20315.835811595418, -31244.76596650672, 11637.055770999881, 0.068, 0.9440000000000001, 0.318, 192.0, 2.0, 32.0, 29.0, 128.0, 9.0, 240.0, 0.0, 0.0, 0.0, 1.696275046374709E9, 0.0, 2023-10-02 15:30:46.374
220.0, 16233.155576366851, 16566.733010617856, 46855.80543944901, 66226.96712338533, 12509.779633257347, -20326.564648933967, -31222.011890651214, 11655.11598051977, 0.068, 0.9440000000000001, 0.318, 192.0, 0.0, 0.0, 0.0, 0.0, 0.0, 0.0, 0.0, 0.0, 0.0, 1.696275046374732E9, 0.0, 2023-10-02 15:30:46.374
221.0, 16241.31396309304, 16579.585263679655, 46848.161142845296, 66232.21978333233, 12530.969087000978, -20312.080718526926, -31206.097448599037, 11670.27046326047, 0.068, 0.9440000000000001, 0.318, 192.0, 0.0, 0.0, 0.0, 0.0, 0.0, 0.0, 0.0, 0.0, 0.0, 1.6962750463747473E9, 0.0, 2023-10-02 15:30:46.374
222.0, 16248.69003876329, 16591.945778363443, 46841.54502648652, 66184.76702985371, 12543.351953429217, -20307.87859056933, -31217.094506871046, 11655.898291575706, 0.068, 0.9440000000000001, 0.318, 192.0, 0.0, 0.0, 0.0, 0.0, 0.0, 0.0, 0.0, 0.0, 0.0, 1.6962750463747656E9, 0.0, 2023-10-02 15:30:46.374
223.0, 16254.903823721867, 16595.790278409753, 46850.32926205746, 66174.52993089319, 12547.10704649771, -20304.548180645488, -31215.686346970364, 11651.718515362563, 0.068, 0.9440000000000001, 0.318, 192.0, 0.0, 0.0, 0.0, 0.0, 0.0, 0.0, 0.0, 0.0, 0.0, 1.696275046374784E9, 0.0, 2023-10-02 15:30:46.374
224.0, 16253.160387654352, 16592.99631035284, 46859.71699472869, 66224.68724545088, 12546.950584286522, -20299.563741631955, -31181.64464016493, 11682.45216398861, 0.068, 0.9440000000000001, 0.318, 192.0, 0.0, 0.0, 0.0, 0.0, 0.0, 0.0, 0.0, 0.0, 0.0, 1.6962750463748E9, 0.0, 2023-10-02 15:30:46.374
225.0, 16252.914518465344, 16598.38308076657, 46844.67427071027, 66230.25282982025, 12542.994325517933, -20305.26343646806, -31169.664105136886, 11692.89042864924, 0.068, 0.9440000000000001, 0.318, 192.0, 0.0, 0.0, 0.0, 0.0, 0.0, 0.0, 0.0, 0.0, 0.0, 1.6962750463748195E9, 0.0, 2023-10-02 15:30:46.374
226.0, 16258.167178412341, 16607.703758204432, 46843.62373872087, 66188.79034385567, 12543.351953429217, -20309.73378535912, -31175.78848311764, 11682.653329688708, 0.068, 0.9440000000000001, 0.318, 192.0, 0.0, 0.0, 0.0, 0.0, 0.0, 0.0, 0.0, 0.0, 0.0, 1.6962750463748355E9, 0.0, 2023-10-02 15:30:46.374
227.0, 16245.381980583905, 16599.366557522604, 46853.70437547021, 66176.4745326608, 12536.422912648071, -20313.73474761662, -31173.910936583394, 11678.965291853583, 0.068, 0.9440000000000001, 0.318, 192.0, 0.0, 0.0, 0.0, 0.0, 0.0, 0.0, 0.0, 0.0, 0.0, 1.69627504637485E9, 0.0, 2023-10-02 15:30:46.374
228.0, 16233.043817644575, 16592.459868485912, 46853.79378244803, 66222.92145763892, 12525.67172356507, -20328.196326279205, -31141.478555378744, 11703.641617732243, 0.068, 0.9440000000000001, 0.318, 192.0, 0.0, 0.0, 0.0, 0.0, 0.0, 0.0, 0.0, 0.0, 0.0, 1.696275046374874E9, 0.0, 2023-10-02 15:30:46.374
229.0, 16238.944678180776, 16602.13817383506, 46840.29332879702, 66228.3305797971, 12522.318961896774, -20332.17493679225, -31140.53978211162, 11700.937056653149, 0.07200000000000001, 0.932, 0.316, 192.0, 2.0, 64.0, 29.0, 32.0, 9.0, 224.0, 0.0, 0.0, 0.0, 1.6962750463748925E9, 0.0, 2023-10-02 15:30:46.374
230.0, 16249.40529458586, 16604.976845380887, 46834.92891012775, 66190.42202120091, 12524.263563664384, -20320.417919208758, -31148.653465348896, 11689.69412919213, 0.07200000000000001, 0.932, 0.316, 192.0, 0.0, 0.0, 0.0, 0.0, 0.0, 0.0, 0.0, 0.0, 0.0, 1.6962750463749142E9, 0.0, 2023-10-02 15:30:46.374
231.0, 16266.727896538723, 16620.19838335495, 46846.28359631105, 66135.54848856313, 12545.743590085935, -20298.937892787206, -31195.301556027123, 11643.694239103108, 0.07200000000000001, 0.932, 0.316, 192.0, 0.0, 0.0, 0.0, 0.0, 0.0, 0.0, 0.0, 0.0, 0.0, 1.696275046374933E9, 0.0, 2023-10-02 15:30:46.374
232.0, 16261.609347058458, 16611.99529313985, 46868.32241634398, 66167.42207615639, 12543.15078772912, -20294.847523551885, -31189.55715770211, 11652.053791529393, 0.07200000000000001, 0.932, 0.316, 192.0, 0.0, 0.0, 0.0, 0.0, 0.0, 0.0, 0.0, 0.0, 0.0, 1.6962750463749523E9, 0.0, 2023-10-02 15:30:46.374
233.0, 16255.775541755624, 16602.115822090607, 46855.38075630436, 66183.64944263095, 12530.410293389594, -20309.890247570307, -31189.668916424387, 11655.004221797493, 0.07200000000000001, 0.932, 0.316, 192.0, 0.0, 0.0, 0.0, 0.0, 0.0, 0.0, 0.0, 0.0, 0.0, 1.6962750463749743E9, 0.0, 2023-10-02 15:30:46.374
234.0, 16248.913556207843, 16593.577455708677, 46833.967785116176, 66143.4610061003, 12522.251906663407, -20323.144832032303, -31209.40550677842, 11638.620393111754, 0.07200000000000001, 0.932, 0.316, 192.0, 0.0, 0.0, 0.0, 0.0, 0.0, 0.0, 0.0, 0.0, 0.0, 1.696275046374996E9, 0.0, 2023-10-02 15:30:46.374
235.0, 16265.811475016055, 16609.134269849572, 46842.17087533127, 66106.96060740479, 12538.322810926773, -20310.82902083743, -31229.544428532652, 11620.090796958304, 0.07200000000000001, 0.932, 0.316, 192.0, 0.0, 0.0, 0.0, 0.0, 0.0, 0.0, 0.0, 0.0, 0.0, 1.6962750463757348E9, 0.0, 2023-10-02 15:30:46.375
236.0, 16254.322678366028, 16593.979787108874, 46852.85500918091, 66135.79435775214, 12528.018656732876, -20315.29936972849, -31221.095469128548, 11628.606811595775, 0.07200000000000001, 0.932, 0.316, 192.0, 0.0, 0.0, 0.0, 0.0, 0.0, 0.0, 0.0, 0.0, 0.0, 1.696275046375754E9, 0.0, 2023-10-02 15:30:46.375
237.0, 16237.201242113262, 16574.98080432186, 46834.7053926832, 66162.90702377642, 12509.109080923687, -20330.92323910275, -31213.339413802558, 11637.614564611265, 0.07200000000000001, 0.932, 0.316, 192.0, 0.0, 0.0, 0.0, 0.0, 0.0, 0.0, 0.0, 0.0, 0.0, 1.6962750463757687E9, 0.0, 2023-10-02 15:30:46.375
238.0, 16240.308134592551, 16577.350089234125, 46826.7034681682, 66151.64174457094, 12506.80685124479, -20333.40428273729, -31202.61057646401, 11644.834178070329, 0.07200000000000001, 0.932, 0.316, 192.0, 0.0, 0.0, 0.0, 0.0, 0.0, 0.0, 0.0, 0.0, 0.0, 1.6962750463757832E9, 0.0, 2023-10-02 15:30:46.375
239.0, 16243.996172427676, 16577.953586334417, 46827.30696526849, 66102.22203758026, 12513.132394925642, -20332.30904725898, -31224.448230796843, 11619.129671946726, 0.066, 0.9480000000000001, 0.31, 192.0, 2.0, 16.0, 29.0, 160.0, 9.0, 176.0, 0.0, 0.0, 0.0, 1.696275046375816E9, 0.0, 2023-10-02 15:30:46.375
240.0, 16242.006867171154, 16572.678574642967, 46843.84725616542, 66124.03734016864, 12516.216935660475, -20327.436366967722, -31206.678593954875, 11632.607773853277, 0.066, 0.9480000000000001, 0.31, 192.0, 0.0, 0.0, 0.0, 0.0, 0.0, 0.0, 0.0, 0.0, 0.0, 1.6962750463758352E9, 0.0, 2023-10-02 15:30:46.375
241.0, 16252.176910898319, 16577.528903189766, 46849.122267856874, 66169.90311979094, 12520.486118851439, -20320.21675350866, -31182.963393087794, 11659.273404988457, 0.066, 0.9480000000000001, 0.31, 192.0, 0.0, 0.0, 0.0, 0.0, 0.0, 0.0, 0.0, 0.0, 0.0, 1.6962750468505332E9, 0.0, 2023-10-02 15:30:46.850
242.0, 16272.852274519477, 16591.05170858523, 46839.98040437465, 66143.43865435585, 12533.137206213141, -20313.82415459444, -31207.192684077345, 11642.219023969057, 0.066, 0.9480000000000001, 0.31, 192.0, 0.0, 0.0, 0.0, 0.0, 0.0, 0.0, 0.0, 0.0, 0.0, 1.6962750468506644E9, 0.0, 2023-10-02 15:30:46.850
243.0, 16269.36540238445, 16586.38019399407, 46840.18157007475, 66092.61078746448, 12539.82037780528, -20317.60159940739, -31239.289789115166, 11614.05582595537, 0.066, 0.9480000000000001, 0.31, 192.0, 0.0, 0.0, 0.0, 0.0, 0.0, 0.0, 0.0, 0.0, 0.0, 1.6962750468507276E9, 0.0, 2023-10-02 15:30:46.850
244.0, 16268.7395535397, 16587.251912027827, 46859.60523600641, 66106.3571103045, 12543.86604355169, -20317.221619751646, -31231.645492511452, 11621.007218480972, 0.066, 0.9480000000000001, 0.31, 192.0, 0.0, 0.0, 0.0, 0.0, 0.0, 0.0, 0.0, 0.0, 0.0, 1.696275046850762E9, 0.0, 2023-10-02 15:30:46.850
245.0, 16256.401390600371, 16575.51724618879, 46864.924951186775, 66165.03043949968, 12531.706694568002, -20321.759023876075, -31196.01681184969, 11656.68060263164, 0.066, 0.9480000000000001, 0.31, 192.0, 0.0, 0.0, 0.0, 0.0, 0.0, 0.0, 0.0, 0.0, 0.0, 1.6962750468507783E9, 0.0, 2023-10-02 15:30:46.850
246.0, 16251.774579498122, 16571.09160078664, 46849.74811670162, 66177.65917511692, 12520.463767106983, -20326.430538467233, -31172.4580731938, 11676.774820896962, 0.066, 0.9480000000000001, 0.31, 192.0, 0.0, 0.0, 0.0, 0.0, 0.0, 0.0, 0.0, 0.0, 0.0, 1.6962750468507943E9, 0.0, 2023-10-02 15:30:46.850
247.0, 16266.727896538723, 16585.575531193677, 46844.38369803235, 66131.61458153899, 12530.81262478979, -20319.322683730446, -31183.052800065616, 11662.380297467746, 0.066, 0.9480000000000001, 0.31, 192.0, 0.0, 0.0, 0.0, 0.0, 0.0, 0.0, 0.0, 0.0, 0.0, 1.696275046850845E9, 0.0, 2023-10-02 15:30:46.850
248.0, 16272.69581230829, 16594.89620863154, 46855.492515026635, 66108.8605056835, 12544.491892396438, -20307.92329405824, -31203.728163686774, 11641.950803035594, 0.066, 0.9480000000000001, 0.31, 192.0, 0.0, 0.0, 0.0, 0.0, 0.0, 0.0, 0.0, 0.0, 0.0, 1.6962750468508654E9, 0.0, 2023-10-02 15:30:46.850
249.0, 16259.843559246488, 16585.955510849417, 46860.298140084524, 66144.4668346008, 12539.61921210518, -20319.434442452723, -31194.631003693463, 11651.316183962368, 0.08, 0.9560000000000001, 0.31, 192.0, 2.0, 128.0, 29.0, 224.0, 9.0, 176.0, 0.0, 0.0, 0.0, 1.696275046850881E9, 0.0, 2023-10-02 15:30:46.850
250.0, 16266.817303516544, 16595.209133053915, 46850.57513124646, 66142.47752934427, 12543.933098785055, -20313.89120982781, -31201.381230518968, 11649.349230450302, 0.08, 0.9560000000000001, 0.31, 192.0, 0.0, 0.0, 0.0, 0.0, 0.0, 0.0, 0.0, 0.0, 0.0, 1.6962750468510075E9, 0.0, 2023-10-02 15:30:46.851
251.0, 16269.477161106726, 16596.885513888064, 46850.64218647983, 66107.16177310489, 12553.05261052282, -20307.364500446856, -31205.69511719884, 11648.96925079456, 0.08, 0.9560000000000001, 0.31, 192.0, 0.0, 0.0, 0.0, 0.0, 0.0, 0.0, 0.0, 0.0, 0.0, 1.696275046851024E9, 0.0, 2023-10-02 15:30:46.851
252.0, 16253.138035909897, 16579.47350495738, 46846.99885213362, 66096.81291542208, 12535.931174270056, -20319.568552919456, -31196.352088016523, 11655.83123634234, 0.08, 0.9560000000000001, 0.31, 192.0, 0.0, 0.0, 0.0, 0.0, 0.0, 0.0, 0.0, 0.0, 0.0, 1.6962750468510416E9, 0.0, 2023-10-02 15:30:46.851
253.0, 16244.040875916586, 16572.388001965046, 46848.38466028985, 66127.39010183694, 12524.420025875572, -20322.518983187554, -31186.249099522724, 11664.570768424364, 0.08, 0.9560000000000001, 0.31, 192.0, 0.0, 0.0, 0.0, 0.0, 0.0, 0.0, 0.0, 0.0, 0.0, 1.6962750468510585E9, 0.0, 2023-10-02 15:30:46.851
254.0, 16252.758056254157, 16587.073098072186, 46850.46337252419, 66142.58928806655, 12535.215918447486, -20318.96505581916, -31185.019753577682, 11669.935187093639, 0.08, 0.9560000000000001, 0.31, 192.0, 0.0, 0.0, 0.0, 0.0, 0.0, 0.0, 0.0, 0.0, 0.0, 1.6962750468510752E9, 0.0, 2023-10-02 15:30:46.851
255.0, 16238.92232643632, 16576.701888644922, 46830.61502344788, 66105.351281804, 12523.280086908351, -20336.51117521658, -31196.799122905628, 11659.988660811026, 0.08, 0.9560000000000001, 0.31, 192.0, 0.0, 0.0, 0.0, 0.0, 0.0, 0.0, 0.0, 0.0, 0.0, 1.696275046851092E9, 0.0, 2023-10-02 15:30:46.851
0.0, 16239.659934003346, 16578.132400290062, 46836.69469793972, 66075.17642678934, 12530.298534667318, -20330.476204213646, -31204.89045439845, 11649.103361261292, 0.08, 0.9560000000000001, 0.31, 192.0, 0.0, 0.0, 0.0, 0.0, 0.0, 0.0, 0.0, 0.0, 0.0, 1.6962750468511074E9, 0.0, 2023-10-02 15:30:46.851
1.0, 16244.64437301688, 16586.804877138722, 46860.76752671809, 66105.73126145975, 12544.96127903, -20315.522887173043, -31191.56881470309, 11661.910910834184, 0.08, 0.9560000000000001, 0.31, 192.0, 0.0, 0.0, 0.0, 0.0, 0.0, 0.0, 0.0, 0.0, 0.0, 1.6962750468511229E9, 0.0, 2023-10-02 15:30:46.851
2.0, 16251.573413798025, 16601.221752312395, 46864.03088140856, 66134.25208738471, 12548.58226163176, -20309.622026636844, -31181.287012253644, 11676.506599963499, 0.08, 0.9560000000000001, 0.31, 192.0, 0.0, 0.0, 0.0, 0.0, 0.0, 0.0, 0.0, 0.0, 0.0, 1.696275046851138E9, 0.0, 2023-10-02 15:30:46.851
3.0, 16246.387809084394, 16598.986577866865, 46848.47406726767, 66115.99071216473, 12539.10512198271, -20321.982541320627, -31177.17429127387, 11681.938073866138, 0.068, 0.9420000000000001, 0.308, 192.0, 2.0, 32.0, 29.0, 112.0, 9.0, 160.0, 0.0, 0.0, 0.0, 1.6962750468511548E9, 0.0, 2023-10-02 15:30:46.851
4.0, 16237.581221769004, 16585.173199793484, 46838.147561329315, 66088.81099090708, 12530.723217811968, -20324.485936699624, -31174.06739879458, 11679.658195931697, 0.068, 0.9420000000000001, 0.308, 192.0, 0.0, 0.0, 0.0, 0.0, 0.0, 0.0, 0.0, 0.0, 0.0, 1.6962750468511758E9, 0.0, 2023-10-02 15:30:46.851
5.0, 16227.522936764115, 16574.37730722157, 46844.875436410366, 66097.90815090039, 12529.605630589203, -20318.4956691856, -31173.910936583394, 11674.159666795691, 0.068, 0.9420000000000001, 0.308, 192.0, 0.0, 0.0, 0.0, 0.0, 0.0, 0.0, 0.0, 0.0, 0.0, 1.6962750468511913E9, 0.0, 2023-10-02 15:30:46.851
6.0, 16216.972913381209, 16570.130475775062, 46845.2554160661, 66123.47854655726, 12528.309229410796, -20322.25076225409, -31160.87986956595, 11687.526009979965, 0.068, 0.9420000000000001, 0.308, 192.0, 0.0, 0.0, 0.0, 0.0, 0.0, 0.0, 0.0, 0.0, 0.0, 1.696275046851207E9, 0.0, 2023-10-02 15:30:46.851
7.0, 16225.712445463234, 16582.62510092558, 46843.84725616542, 66088.22984555124, 12533.494834124427, -20320.708491886675, -31177.26369825169, 11675.12079180727, 0.068, 0.9420000000000001, 0.308, 192.0, 0.0, 0.0, 0.0, 0.0, 0.0, 0.0, 0.0, 0.0, 0.0, 1.696275046851224E9, 0.0, 2023-10-02 15:30:46.851
8.0, 16236.396579312872, 16593.4656969864, 46853.19028534774, 66035.92676352581, 12543.955450529511, -20312.84067783841, -31207.103277099526, 11648.835140327828, 0.068, 0.9420000000000001, 0.308, 192.0, 0.0, 0.0, 0.0, 0.0, 0.0, 0.0, 0.0, 0.0, 0.0, 1.6962750468512397E9, 0.0, 2023-10-02 15:30:46.851
9.0, 16222.471442517215, 16579.406449724014, 46867.38364307686, 66062.77120861664, 12536.601726603714, -20318.249799996593, -31189.624212935476, 11664.101381790804, 0.068, 0.9420000000000001, 0.308, 192.0, 0.0, 0.0, 0.0, 0.0, 0.0, 0.0, 0.0, 0.0, 0.0, 1.696275046851256E9, 0.0, 2023-10-02 15:30:46.851
10.0, 16226.45005303026, 16580.814609624696, 46855.60427374891, 66089.43683975183, 12530.164424200586, -20323.368349476856, -31189.55715770211, 11664.21314051308, 0.068, 0.9420000000000001, 0.308, 192.0, 0.0, 0.0, 0.0, 0.0, 0.0, 0.0, 0.0, 0.0, 0.0, 1.6962750468513143E9, 0.0, 2023-10-02 15:30:46.851
11.0, 16236.061303146042, 16593.75626966432, 46856.69950922722, 66075.95873784527, 12546.995287775433, -20315.45583193968, -31200.12953282947, 11658.73696312153, 0.068, 0.9420000000000001, 0.308, 192.0, 0.0, 0.0, 0.0, 0.0, 0.0, 0.0, 0.0, 0.0, 0.0, 1.6962750468513308E9, 0.0, 2023-10-02 15:30:46.851
12.0, 16242.588012526992, 16606.072080859194, 46858.53235227256, 66033.7362925692, 12557.05357278032, -20309.644378381297, -31215.015794636704, 11645.527082148443, 0.068, 0.9420000000000001, 0.308, 192.0, 0.0, 0.0, 0.0, 0.0, 0.0, 0.0, 0.0, 0.0, 0.0, 1.696275046851347E9, 0.0, 2023-10-02 15:30:46.851
13.0, 16231.345085065972, 16595.32089177619, 46878.9171432158, 66059.6419643929, 12557.567662902793, -20305.68811961271, -31191.233538536257, 11667.811771370385, 0.068, 0.9420000000000001, 0.308, 192.0, 0.0, 0.0, 0.0, 0.0, 0.0, 0.0, 0.0, 0.0, 0.0, 1.6962750468513632E9, 0.0, 2023-10-02 15:30:46.851
