%OpenBCI Raw EEG Data
%Number of channels = 8
%Sample Rate = 250 Hz
%Board = OpenBCI_GUI$BoardCytonSerial
Sample Index, EXG Channel 0, EXG Channel 1, EXG Channel 2, EXG Channel 3, EXG Channel 4, EXG Channel 5, EXG Channel 6, EXG Channel 7, Accel Channel 0, Accel Channel 1, Accel Channel 2, Other, Other, Other, Other, Other, Other, Other, Analog Channel 0, Analog Channel 1, Analog Channel 2, Timestamp, Other, Timestamp (Formatted)
180.0, -187500.02235174447, 187500.0, 31993.124722614855, 28007.24989262222, 187500.0, 187500.0, -187500.02235174447, 30277.13659729202, 0.0, 0.0, 0.0, 192.0, 0.0, 0.0, 0.0, 0.0, 0.0, 0.0, 0.0, 0.0, 0.0, 1.698959057288386E9, 0.0, 2023-11-02 17:04:17.288
181.0, -187500.02235174447, 187500.0, 31989.23551907963, 28003.204226875812, 187500.0, 187500.0, -187500.02235174447, 30276.644858914, 0.0, 0.0, 0.0, 192.0, 0.0, 0.0, 0.0, 0.0, 0.0, 0.0, 0.0, 0.0, 0.0, 1.6989590572884107E9, 0.0, 2023-11-02 17:04:17.288
182.0, -187500.02235174447, 187500.0, 31980.943021886713, 28001.773715230673, 187500.0, 187500.0, -187500.02235174447, 30272.398027467494, 0.0, 0.0, 0.0, 192.0, 0.0, 0.0, 0.0, 0.0, 0.0, 0.0, 0.0, 0.0, 0.0, 1.6989590572884207E9, 0.0, 2023-11-02 17:04:17.288
183.0, -187500.02235174447, 187500.0, 31982.686457954223, 28007.920444955882, 187500.0, 187500.0, -187500.02235174447, 30276.354286236085, 0.0, 0.0, 0.0, 192.0, 0.0, 0.0, 0.0, 0.0, 0.0, 0.0, 0.0, 0.0, 0.0, 1.69895905728843E9, 0.0, 2023-11-02 17:04:17.288
184.0, -187500.02235174447, 187500.0, 31984.94398414421, 28014.603616548018, 187500.0, 187500.0, -187500.02235174447, 30278.61181242607, -0.074, 0.978, -0.042, 192.0, 253.0, 176.0, 30.0, 144.0, 254.0, 176.0, 0.0, 0.0, 0.0, 1.6989590572884393E9, 0.0, 2023-11-02 17:04:17.288
185.0, -187500.02235174447, 187500.0, 31978.439626507716, 28004.858255965504, 187500.0, 187500.0, -187500.02235174447, 30269.738169877313, -0.074, 0.978, -0.042, 192.0, 0.0, 0.0, 0.0, 0.0, 0.0, 0.0, 0.0, 0.0, 0.0, 1.6989590572884507E9, 0.0, 2023-11-02 17:04:17.288
186.0, -187500.02235174447, 187500.0, 31986.57566148945, 28006.467581566285, 187500.0, 187500.0, -187500.02235174447, 30274.9461263354, -0.074, 0.978, -0.042, 192.0, 0.0, 0.0, 0.0, 0.0, 0.0, 0.0, 0.0, 0.0, 0.0, 1.6989590572884607E9, 0.0, 2023-11-02 17:04:17.288
187.0, -187500.02235174447, 187500.0, 31994.219958093163, 28013.39662234743, 187500.0, 187500.0, -187500.02235174447, 30278.70121940389, -0.074, 0.978, -0.042, 192.0, 0.0, 0.0, 0.0, 0.0, 0.0, 0.0, 0.0, 0.0, 0.0, 1.6989590572884705E9, 0.0, 2023-11-02 17:04:17.288
188.0, -187500.02235174447, 187500.0, 31998.24327209512, 28011.49672406873, 187500.0, 187500.0, -187500.02235174447, 30279.818806626656, -0.074, 0.978, -0.042, 192.0, 0.0, 0.0, 0.0, 0.0, 0.0, 0.0, 0.0, 0.0, 0.0, 1.69895905728848E9, 0.0, 2023-11-02 17:04:17.288
189.0, -187500.02235174447, 187500.0, 32003.04889715301, 28010.759116501704, 187500.0, 187500.0, -187500.02235174447, 30280.869338616056, -0.074, 0.978, -0.042, 192.0, 0.0, 0.0, 0.0, 0.0, 0.0, 0.0, 0.0, 0.0, 0.0, 1.6989590572884896E9, 0.0, 2023-11-02 17:04:17.288
190.0, -187500.02235174447, 187500.0, 32008.32390884446, 28011.1614479019, 187500.0, 187500.0, -187500.02235174447, 30284.89265261801, -0.074, 0.978, -0.042, 192.0, 0.0, 0.0, 0.0, 0.0, 0.0, 0.0, 0.0, 0.0, 0.0, 1.6989590572884994E9, 0.0, 2023-11-02 17:04:17.288
191.0, -187500.02235174447, 187500.0, 32010.38026933435, 28014.69302352584, 187500.0, 187500.0, -187500.02235174447, 30286.07729507414, -0.074, 0.978, -0.042, 192.0, 0.0, 0.0, 0.0, 0.0, 0.0, 0.0, 0.0, 0.0, 0.0, 1.6989590572885091E9, 0.0, 2023-11-02 17:04:17.288
192.0, -187500.02235174447, 187500.0, 32010.76024899009, 28011.519075813187, 187500.0, 187500.0, -187500.02235174447, 30283.149216550497, -0.074, 0.978, -0.042, 192.0, 0.0, 0.0, 0.0, 0.0, 0.0, 0.0, 0.0, 0.0, 0.0, 1.698959057288519E9, 0.0, 2023-11-02 17:04:17.288
193.0, -187500.02235174447, 187500.0, 32013.643624024826, 28010.043860679136, 187500.0, 187500.0, -187500.02235174447, 30285.56320495167, -0.074, 0.978, -0.042, 192.0, 0.0, 0.0, 0.0, 0.0, 0.0, 0.0, 0.0, 0.0, 0.0, 1.6989590572885284E9, 0.0, 2023-11-02 17:04:17.288
194.0, -187500.02235174447, 187500.0, 32014.358879847394, 28003.025412920168, 187500.0, 187500.0, -187500.02235174447, 30286.881957874535, -0.094, 0.972, -0.042, 192.0, 253.0, 16.0, 30.0, 96.0, 254.0, 176.0, 0.0, 0.0, 0.0, 1.698959057288538E9, 0.0, 2023-11-02 17:04:17.288
195.0, -187500.02235174447, 187500.0, 32020.192685150232, 28007.607520533507, 187500.0, 187500.0, -187500.02235174447, 30294.7497719228, -0.094, 0.972, -0.042, 192.0, 0.0, 0.0, 0.0, 0.0, 0.0, 0.0, 0.0, 0.0, 0.0, 1.6989590572885487E9, 0.0, 2023-11-02 17:04:17.288
196.0, -187500.02235174447, 187500.0, 32021.511438073092, 28009.842694979037, 187500.0, 187500.0, -187500.02235174447, 30295.867359145566, -0.094, 0.972, -0.042, 192.0, 0.0, 0.0, 0.0, 0.0, 0.0, 0.0, 0.0, 0.0, 0.0, 1.6989590572887225E9, 0.0, 2023-11-02 17:04:17.288
197.0, -187500.02235174447, 187500.0, 32017.175199648766, 28003.360689087, 187500.0, 187500.0, -187500.02235174447, 30291.70993467688, -0.094, 0.972, -0.042, 192.0, 0.0, 0.0, 0.0, 0.0, 0.0, 0.0, 0.0, 0.0, 0.0, 1.6989590572887497E9, 0.0, 2023-11-02 17:04:17.288
198.0, -187500.02235174447, 187500.0, 32023.031356696054, 28000.566721030085, 187500.0, 187500.0, -187500.02235174447, 30298.080181846643, -0.094, 0.972, -0.042, 192.0, 0.0, 0.0, 0.0, 0.0, 0.0, 0.0, 0.0, 0.0, 0.0, 1.6989590572887597E9, 0.0, 2023-11-02 17:04:17.288
199.0, -187500.02235174447, 187500.0, 32024.752441019114, 28004.50062805422, 187500.0, 187500.0, -187500.02235174447, 30302.12584759305, -0.094, 0.972, -0.042, 192.0, 0.0, 0.0, 0.0, 0.0, 0.0, 0.0, 0.0, 0.0, 0.0, 1.69895905728879E9, 0.0, 2023-11-02 17:04:17.288
200.0, -187500.02235174447, 187500.0, 32015.901150214813, 28001.796066975126, 187500.0, 187500.0, -187500.02235174447, 30295.107399834087, -0.094, 0.972, -0.042, 192.0, 0.0, 0.0, 0.0, 0.0, 0.0, 0.0, 0.0, 0.0, 0.0, 1.6989590572888E9, 0.0, 2023-11-02 17:04:17.288
201.0, -187500.02235174447, 187500.0, 32010.939062945734, 28000.745534985726, 187500.0, 187500.0, -187500.02235174447, 30294.66036494498, -0.094, 0.972, -0.042, 192.0, 0.0, 0.0, 0.0, 0.0, 0.0, 0.0, 0.0, 0.0, 0.0, 1.69895905728881E9, 0.0, 2023-11-02 17:04:17.288
202.0, -187500.02235174447, 187500.0, 32009.910882700788, 28000.25379660771, 187500.0, 187500.0, -187500.02235174447, 30297.320222535163, -0.094, 0.972, -0.042, 192.0, 0.0, 0.0, 0.0, 0.0, 0.0, 0.0, 0.0, 0.0, 0.0, 1.6989590572888384E9, 0.0, 2023-11-02 17:04:17.288
203.0, -187500.02235174447, 187500.0, 32009.15092338931, 28002.623081519974, 187500.0, 187500.0, -187500.02235174447, 30298.683678946934, -0.094, 0.972, -0.042, 192.0, 0.0, 0.0, 0.0, 0.0, 0.0, 0.0, 0.0, 0.0, 0.0, 1.6989590572888484E9, 0.0, 2023-11-02 17:04:17.288
204.0, -187500.02235174447, 187500.0, 32010.268510612073, 28005.104125154514, 187500.0, 187500.0, -187500.02235174447, 30300.583577225636, -0.1, 0.978, -0.024, 192.0, 252.0, 224.0, 30.0, 144.0, 255.0, 64.0, 0.0, 0.0, 0.0, 1.698959057288858E9, 0.0, 2023-11-02 17:04:17.288
205.0, -187500.02235174447, 187500.0, 32008.01098442209, 28004.858255965504, 187500.0, 187500.0, -187500.02235174447, 30297.744905679814, -0.1, 0.978, -0.024, 192.0, 0.0, 0.0, 0.0, 0.0, 0.0, 0.0, 0.0, 0.0, 0.0, 1.698959057288869E9, 0.0, 2023-11-02 17:04:17.288
206.0, -187500.02235174447, 187500.0, 32008.502722800105, 27999.270319851676, 187500.0, 187500.0, -187500.02235174447, 30296.247338801306, -0.1, 0.978, -0.024, 192.0, 0.0, 0.0, 0.0, 0.0, 0.0, 0.0, 0.0, 0.0, 0.0, 1.6989590572888787E9, 0.0, 2023-11-02 17:04:17.288
207.0, -187500.02235174447, 187500.0, 32011.274339112562, 28000.522017541174, 187500.0, 187500.0, -187500.02235174447, 30298.258995802284, -0.1, 0.978, -0.024, 192.0, 0.0, 0.0, 0.0, 0.0, 0.0, 0.0, 0.0, 0.0, 0.0, 1.6989590572888882E9, 0.0, 2023-11-02 17:04:17.288
208.0, -187500.02235174447, 187500.0, 32007.206321621696, 28005.327642599066, 187500.0, 187500.0, -187500.02235174447, 30296.403801012493, -0.1, 0.978, -0.024, 192.0, 0.0, 0.0, 0.0, 0.0, 0.0, 0.0, 0.0, 0.0, 0.0, 1.698959057288898E9, 0.0, 2023-11-02 17:04:17.288
209.0, -187500.02235174447, 187500.0, 32000.590205262924, 28003.181875131355, 187500.0, 187500.0, -187500.02235174447, 30290.547643965205, -0.1, 0.978, -0.024, 192.0, 0.0, 0.0, 0.0, 0.0, 0.0, 0.0, 0.0, 0.0, 0.0, 1.6989590572889078E9, 0.0, 2023-11-02 17:04:17.288
210.0, -187500.02235174447, 187500.0, 32005.373478576363, 28001.88547395295, 187500.0, 187500.0, -187500.02235174447, 30293.162798066474, -0.1, 0.978, -0.024, 192.0, 0.0, 0.0, 0.0, 0.0, 0.0, 0.0, 0.0, 0.0, 0.0, 1.6989590572889173E9, 0.0, 2023-11-02 17:04:17.288
211.0, -187500.02235174447, 187500.0, 32006.111086143388, 28000.87964545246, 187500.0, 187500.0, -187500.02235174447, 30293.207501555386, -0.1, 0.978, -0.024, 192.0, 0.0, 0.0, 0.0, 0.0, 0.0, 0.0, 0.0, 0.0, 0.0, 1.6989590572889578E9, 0.0, 2023-11-02 17:04:17.288
212.0, -187500.02235174447, 187500.0, 32009.508551300594, 28003.673613509374, 187500.0, 187500.0, -187500.02235174447, 30294.593309711614, -0.1, 0.978, -0.024, 192.0, 0.0, 0.0, 0.0, 0.0, 0.0, 0.0, 0.0, 0.0, 0.0, 1.6989590572889688E9, 0.0, 2023-11-02 17:04:17.288
213.0, -187500.02235174447, 187500.0, 32013.353051346905, 28007.65222402242, 187500.0, 187500.0, -187500.02235174447, 30293.27455678875, -0.1, 0.978, -0.024, 192.0, 0.0, 0.0, 0.0, 0.0, 0.0, 0.0, 0.0, 0.0, 0.0, 1.6989590572889786E9, 0.0, 2023-11-02 17:04:17.288
214.0, -187500.02235174447, 187500.0, 32014.940025203232, 28004.232407120755, 187500.0, 187500.0, -187500.02235174447, 30289.653574186992, -0.116, 0.988, -0.018000000000000002, 192.0, 252.0, 96.0, 30.0, 224.0, 255.0, 112.0, 0.0, 0.0, 0.0, 1.6989590572889884E9, 0.0, 2023-11-02 17:04:17.288
215.0, -187500.02235174447, 187500.0, 32020.796182250524, 28004.16535188739, 187500.0, 187500.0, -187500.02235174447, 30290.346478265106, -0.116, 0.988, -0.018000000000000002, 192.0, 0.0, 0.0, 0.0, 0.0, 0.0, 0.0, 0.0, 0.0, 0.0, 1.6989590572889986E9, 0.0, 2023-11-02 17:04:17.288
216.0, -187500.02235174447, 187500.0, 32017.9575107047, 27995.69404073883, 187500.0, 187500.0, -187500.02235174447, 30281.76340839427, -0.116, 0.988, -0.018000000000000002, 192.0, 0.0, 0.0, 0.0, 0.0, 0.0, 0.0, 0.0, 0.0, 0.0, 1.6989590572890081E9, 0.0, 2023-11-02 17:04:17.289
217.0, -187500.02235174447, 187500.0, 32020.215036894686, 27996.36459307249, 187500.0, 187500.0, -187500.02235174447, 30281.00344908279, -0.116, 0.988, -0.018000000000000002, 192.0, 0.0, 0.0, 0.0, 0.0, 0.0, 0.0, 0.0, 0.0, 0.0, 1.698959057289018E9, 0.0, 2023-11-02 17:04:17.289
218.0, -187500.02235174447, 187500.0, 32024.9089032303, 27996.476351794765, 187500.0, 187500.0, -187500.02235174447, 30282.79158863921, -0.116, 0.988, -0.018000000000000002, 192.0, 0.0, 0.0, 0.0, 0.0, 0.0, 0.0, 0.0, 0.0, 0.0, 1.6989590572890272E9, 0.0, 2023-11-02 17:04:17.289
219.0, -187500.02235174447, 187500.0, 32034.989539979644, 27999.02445066267, 187500.0, 187500.0, -187500.02235174447, 30287.57486195265, -0.116, 0.988, -0.018000000000000002, 192.0, 0.0, 0.0, 0.0, 0.0, 0.0, 0.0, 0.0, 0.0, 0.0, 1.6989590572890377E9, 0.0, 2023-11-02 17:04:17.289
220.0, -187500.02235174447, 187500.0, 32044.95841800671, 28007.316947855586, 187500.0, 187500.0, -187500.02235174447, 30294.123923078052, -0.116, 0.988, -0.018000000000000002, 192.0, 0.0, 0.0, 0.0, 0.0, 0.0, 0.0, 0.0, 0.0, 0.0, 1.6989590572890477E9, 0.0, 2023-11-02 17:04:17.289
221.0, -187500.02235174447, 187500.0, 32039.728109804168, 28004.59003503204, 187500.0, 187500.0, -187500.02235174447, 30285.920832862954, -0.116, 0.988, -0.018000000000000002, 192.0, 0.0, 0.0, 0.0, 0.0, 0.0, 0.0, 0.0, 0.0, 0.0, 1.6989590572890573E9, 0.0, 2023-11-02 17:04:17.289
222.0, -187500.02235174447, 187500.0, 32035.8612580134, 28001.0584594081, 187500.0, 187500.0, -187500.02235174447, 30280.019972326754, -0.116, 0.988, -0.018000000000000002, 192.0, 0.0, 0.0, 0.0, 0.0, 0.0, 0.0, 0.0, 0.0, 0.0, 1.6989590572890668E9, 0.0, 2023-11-02 17:04:17.289
223.0, -187500.02235174447, 187500.0, 32043.52790636157, 28004.031241420656, 187500.0, 187500.0, -187500.02235174447, 30286.032591585234, -0.116, 0.988, -0.018000000000000002, 192.0, 0.0, 0.0, 0.0, 0.0, 0.0, 0.0, 0.0, 0.0, 0.0, 1.6989590572890778E9, 0.0, 2023-11-02 17:04:17.289
224.0, -187500.02235174447, 187500.0, 32049.85345004242, 28014.670671781383, 187500.0, 187500.0, -187500.02235174447, 30292.112266077074, -0.114, 0.976, -0.008, 192.0, 252.0, 112.0, 30.0, 128.0, 255.0, 192.0, 0.0, 0.0, 0.0, 1.6989590572890875E9, 0.0, 2023-11-02 17:04:17.289
225.0, -187500.02235174447, 187500.0, 32041.315083660495, 28014.58126480356, 187500.0, 187500.0, -187500.02235174447, 30284.66913517346, -0.114, 0.976, -0.008, 192.0, 0.0, 0.0, 0.0, 0.0, 0.0, 0.0, 0.0, 0.0, 0.0, 1.698959057289098E9, 0.0, 2023-11-02 17:04:17.289
226.0, -187500.02235174447, 187500.0, 32041.359787149406, 28012.30138686912, 187500.0, 187500.0, -187500.02235174447, 30284.155045050986, -0.114, 0.976, -0.008, 192.0, 0.0, 0.0, 0.0, 0.0, 0.0, 0.0, 0.0, 0.0, 0.0, 1.6989590572891164E9, 0.0, 2023-11-02 17:04:17.289
227.0, -187500.02235174447, 187500.0, 32044.15375520632, 28013.73189851426, 187500.0, 187500.0, -187500.02235174447, 30284.8479491291, -0.114, 0.976, -0.008, 192.0, 0.0, 0.0, 0.0, 0.0, 0.0, 0.0, 0.0, 0.0, 0.0, 1.698959057289126E9, 0.0, 2023-11-02 17:04:17.289
228.0, -187500.02235174447, 187500.0, 32051.038092498555, 28014.804782248117, 187500.0, 187500.0, -187500.02235174447, 30288.603042197592, -0.114, 0.976, -0.008, 192.0, 0.0, 0.0, 0.0, 0.0, 0.0, 0.0, 0.0, 0.0, 0.0, 1.6989590572891357E9, 0.0, 2023-11-02 17:04:17.289
229.0, -187500.02235174447, 187500.0, 32050.34518842044, 28016.97290146028, 187500.0, 187500.0, -187500.02235174447, 30284.915004362465, -0.114, 0.976, -0.008, 192.0, 0.0, 0.0, 0.0, 0.0, 0.0, 0.0, 0.0, 0.0, 0.0, 1.6989590572891452E9, 0.0, 2023-11-02 17:04:17.289
230.0, -187500.02235174447, 187500.0, 32042.879705772368, 28014.245988636732, 187500.0, 187500.0, -187500.02235174447, 30277.985963581323, -0.114, 0.976, -0.008, 192.0, 0.0, 0.0, 0.0, 0.0, 0.0, 0.0, 0.0, 0.0, 0.0, 1.6989590572891548E9, 0.0, 2023-11-02 17:04:17.289
231.0, -187500.02235174447, 187500.0, 32037.850563269923, 28010.602654290517, 187500.0, 187500.0, -187500.02235174447, 30273.493262945805, -0.114, 0.976, -0.008, 192.0, 0.0, 0.0, 0.0, 0.0, 0.0, 0.0, 0.0, 0.0, 0.0, 1.6989590572891643E9, 0.0, 2023-11-02 17:04:17.289
232.0, -187500.02235174447, 187500.0, 32038.677577814768, 28011.697889768828, 187500.0, 187500.0, -187500.02235174447, 30275.259050757773, -0.114, 0.976, -0.008, 192.0, 0.0, 0.0, 0.0, 0.0, 0.0, 0.0, 0.0, 0.0, 0.0, 1.6989590572891743E9, 0.0, 2023-11-02 17:04:17.289
233.0, -187500.02235174447, 187500.0, 32030.116859688387, 28011.094392668536, 187500.0, 187500.0, -187500.02235174447, 30270.0957977886, -0.114, 0.976, -0.008, 192.0, 0.0, 0.0, 0.0, 0.0, 0.0, 0.0, 0.0, 0.0, 0.0, 1.6989590572891839E9, 0.0, 2023-11-02 17:04:17.289
234.0, -187500.02235174447, 187500.0, 32031.077984699965, 28019.766869517192, 187500.0, 187500.0, -187500.02235174447, 30273.023876312243, -0.092, 0.9500000000000001, -0.014, 192.0, 253.0, 32.0, 29.0, 176.0, 255.0, 144.0, 0.0, 0.0, 0.0, 1.6989590572891932E9, 0.0, 2023-11-02 17:04:17.289
235.0, -187500.02235174447, 187500.0, 32025.266531141584, 28018.962206716802, 187500.0, 187500.0, -187500.02235174447, 30269.26878324375, -0.092, 0.9500000000000001, -0.014, 192.0, 0.0, 0.0, 0.0, 0.0, 0.0, 0.0, 0.0, 0.0, 0.0, 1.6989590572892036E9, 0.0, 2023-11-02 17:04:17.289
236.0, -187500.02235174447, 187500.0, 32028.0604991985, 28019.945683472837, 187500.0, 187500.0, -187500.02235174447, 30272.71095188987, -0.092, 0.9500000000000001, -0.014, 192.0, 0.0, 0.0, 0.0, 0.0, 0.0, 0.0, 0.0, 0.0, 0.0, 1.6989590572892132E9, 0.0, 2023-11-02 17:04:17.289
237.0, -187500.02235174447, 187500.0, 32028.462830598695, 28020.280959639666, 187500.0, 187500.0, -187500.02235174447, 30271.50395768928, -0.092, 0.9500000000000001, -0.014, 192.0, 0.0, 0.0, 0.0, 0.0, 0.0, 0.0, 0.0, 0.0, 0.0, 1.6989590572892227E9, 0.0, 2023-11-02 17:04:17.289
238.0, -187500.02235174447, 187500.0, 32021.28792062854, 28014.335395614555, 187500.0, 187500.0, -187500.02235174447, 30263.993771552297, -0.092, 0.9500000000000001, -0.014, 192.0, 0.0, 0.0, 0.0, 0.0, 0.0, 0.0, 0.0, 0.0, 0.0, 1.6989590572892325E9, 0.0, 2023-11-02 17:04:17.289
239.0, -187500.02235174447, 187500.0, 32019.43272583875, 28008.278072867164, 187500.0, 187500.0, -187500.02235174447, 30262.965591307355, -0.092, 0.9500000000000001, -0.014, 192.0, 0.0, 0.0, 0.0, 0.0, 0.0, 0.0, 0.0, 0.0, 0.0, 1.698959057289242E9, 0.0, 2023-11-02 17:04:17.289
240.0, -187500.02235174447, 187500.0, 32019.924464216765, 28007.562817044596, 187500.0, 187500.0, -187500.02235174447, 30265.290172730707, -0.092, 0.9500000000000001, -0.014, 192.0, 0.0, 0.0, 0.0, 0.0, 0.0, 0.0, 0.0, 0.0, 0.0, 1.6989590572892513E9, 0.0, 2023-11-02 17:04:17.289
241.0, -187500.02235174447, 187500.0, 32014.783562992045, 28006.288767610644, 187500.0, 187500.0, -187500.02235174447, 30261.020989539742, -0.092, 0.9500000000000001, -0.014, 192.0, 0.0, 0.0, 0.0, 0.0, 0.0, 0.0, 0.0, 0.0, 0.0, 1.6989590572892811E9, 0.0, 2023-11-02 17:04:17.289
242.0, -187500.02235174447, 187500.0, 32008.74859198911, 28004.835904221047, 187500.0, 187500.0, -187500.02235174447, 30256.640047626504, -0.092, 0.9500000000000001, -0.014, 192.0, 0.0, 0.0, 0.0, 0.0, 0.0, 0.0, 0.0, 0.0, 0.0, 1.698959057289291E9, 0.0, 2023-11-02 17:04:17.289
243.0, -187500.02235174447, 187500.0, 32006.602824521404, 28002.06428790859, 187500.0, 187500.0, -187500.02235174447, 30256.975323793333, -0.092, 0.9500000000000001, -0.014, 192.0, 0.0, 0.0, 0.0, 0.0, 0.0, 0.0, 0.0, 0.0, 0.0, 1.6989590572893004E9, 0.0, 2023-11-02 17:04:17.289
244.0, -187500.02235174447, 187500.0, 32007.675708255258, 28003.092468153536, 187500.0, 187500.0, -187500.02235174447, 30259.858698828066, -0.07, 0.9580000000000001, -0.022, 192.0, 253.0, 208.0, 29.0, 240.0, 255.0, 80.0, 0.0, 0.0, 0.0, 1.6989590572893116E9, 0.0, 2023-11-02 17:04:17.289
245.0, -187500.02235174447, 187500.0, 32004.971147176166, 28004.813552476593, 187500.0, 187500.0, -187500.02235174447, 30257.735283104812, -0.07, 0.9580000000000001, -0.022, 192.0, 0.0, 0.0, 0.0, 0.0, 0.0, 0.0, 0.0, 0.0, 0.0, 1.6989590572893217E9, 0.0, 2023-11-02 17:04:17.289
246.0, -187500.02235174447, 187500.0, 32002.355993074896, 28002.35486058651, 187500.0, 187500.0, -187500.02235174447, 30257.534117404717, -0.07, 0.9580000000000001, -0.022, 192.0, 0.0, 0.0, 0.0, 0.0, 0.0, 0.0, 0.0, 0.0, 0.0, 1.6989590572893312E9, 0.0, 2023-11-02 17:04:17.289
247.0, -187500.02235174447, 187500.0, 31999.025583151055, 27999.11385764049, 187500.0, 187500.0, -187500.02235174447, 30256.50593715977, -0.07, 0.9580000000000001, -0.022, 192.0, 0.0, 0.0, 0.0, 0.0, 0.0, 0.0, 0.0, 0.0, 0.0, 1.6989590572893407E9, 0.0, 2023-11-02 17:04:17.289
248.0, -187500.02235174447, 187500.0, 31998.019754650566, 28000.544369285628, 187500.0, 187500.0, -187500.02235174447, 30260.439844183904, -0.07, 0.9580000000000001, -0.022, 192.0, 0.0, 0.0, 0.0, 0.0, 0.0, 0.0, 0.0, 0.0, 0.0, 1.6989590572893505E9, 0.0, 2023-11-02 17:04:17.289
249.0, -187500.02235174447, 187500.0, 31989.012001635077, 27996.409296561396, 187500.0, 187500.0, -187500.02235174447, 30256.394178437495, -0.07, 0.9580000000000001, -0.022, 192.0, 0.0, 0.0, 0.0, 0.0, 0.0, 0.0, 0.0, 0.0, 0.0, 1.69895905728936E9, 0.0, 2023-11-02 17:04:17.289
250.0, -187500.02235174447, 187500.0, 31990.062533624478, 28004.25475886521, 187500.0, 187500.0, -187500.02235174447, 30262.51855641825, -0.07, 0.9580000000000001, -0.022, 192.0, 0.0, 0.0, 0.0, 0.0, 0.0, 0.0, 0.0, 0.0, 0.0, 1.6989590572893696E9, 0.0, 2023-11-02 17:04:17.289
251.0, -187500.02235174447, 187500.0, 31983.357010287884, 28003.695965253828, 187500.0, 187500.0, -187500.02235174447, 30261.199803495387, -0.07, 0.9580000000000001, -0.022, 192.0, 0.0, 0.0, 0.0, 0.0, 0.0, 0.0, 0.0, 0.0, 0.0, 1.6989590572893791E9, 0.0, 2023-11-02 17:04:17.289
252.0, -187500.02235174447, 187500.0, 31975.310382283973, 27993.101238382013, 187500.0, 187500.0, -187500.02235174447, 30258.405835438472, -0.07, 0.9580000000000001, -0.022, 192.0, 0.0, 0.0, 0.0, 0.0, 0.0, 0.0, 0.0, 0.0, 0.0, 1.698959057289389E9, 0.0, 2023-11-02 17:04:17.289
253.0, -187500.02235174447, 187500.0, 31969.029542092034, 27988.653241235406, 187500.0, 187500.0, -187500.02235174447, 30256.08125401512, -0.07, 0.9580000000000001, -0.022, 192.0, 0.0, 0.0, 0.0, 0.0, 0.0, 0.0, 0.0, 0.0, 0.0, 1.6989590572893982E9, 0.0, 2023-11-02 17:04:17.289
254.0, -187500.02235174447, 187500.0, 31963.50866121157, 27994.91172968289, 187500.0, 187500.0, -187500.02235174447, 30257.71293136036, -0.054, 0.968, -0.036000000000000004, 192.0, 254.0, 80.0, 30.0, 64.0, 254.0, 224.0, 0.0, 0.0, 0.0, 1.6989590572894077E9, 0.0, 2023-11-02 17:04:17.289
255.0, -187500.02235174447, 187500.0, 31959.70886465417, 27995.29170933863, 187500.0, 187500.0, -187500.02235174447, 30258.003504038275, -0.054, 0.968, -0.036000000000000004, 192.0, 0.0, 0.0, 0.0, 0.0, 0.0, 0.0, 0.0, 0.0, 0.0, 1.698959057289418E9, 0.0, 2023-11-02 17:04:17.289
0.0, -187500.02235174447, 187500.0, 31959.507698954072, 27997.10220063951, 187500.0, 187500.0, -187500.02235174447, 30263.211460496364, -0.054, 0.968, -0.036000000000000004, 192.0, 0.0, 0.0, 0.0, 0.0, 0.0, 0.0, 0.0, 0.0, 0.0, 1.6989590572894359E9, 0.0, 2023-11-02 17:04:17.289
1.0, -187500.02235174447, 187500.0, 31962.234611777618, 28003.405392575907, 187500.0, 187500.0, -187500.02235174447, 30273.94029783491, -0.054, 0.968, -0.036000000000000004, 192.0, 0.0, 0.0, 0.0, 0.0, 0.0, 0.0, 0.0, 0.0, 0.0, 1.6989590572894454E9, 0.0, 2023-11-02 17:04:17.289
2.0, -187500.02235174447, 187500.0, 31958.9936088316, 28011.697889768828, 187500.0, 187500.0, -187500.02235174447, 30279.774103137745, -0.054, 0.968, -0.036000000000000004, 192.0, 0.0, 0.0, 0.0, 0.0, 0.0, 0.0, 0.0, 0.0, 0.0, 1.6989590572894552E9, 0.0, 2023-11-02 17:04:17.289
3.0, -187500.02235174447, 187500.0, 31962.90516411128, 28024.25957015271, 187500.0, 187500.0, -187500.02235174447, 30291.776989910246, -0.054, 0.968, -0.036000000000000004, 192.0, 0.0, 0.0, 0.0, 0.0, 0.0, 0.0, 0.0, 0.0, 0.0, 1.6989590572894647E9, 0.0, 2023-11-02 17:04:17.289
4.0, -187390.29763821338, 187500.0, 31954.9926465741, 28022.40437536292, 187500.0, 187500.0, -187500.02235174447, 30288.58069045314, -0.054, 0.968, -0.036000000000000004, 192.0, 0.0, 0.0, 0.0, 0.0, 0.0, 0.0, 0.0, 0.0, 0.0, 1.6989590572894745E9, 0.0, 2023-11-02 17:04:17.289
5.0, -187309.1608058406, 187500.0, 31942.050986534476, 28007.1604856444, 187500.0, 187500.0, -187500.02235174447, 30279.52823394874, -0.054, 0.968, -0.036000000000000004, 192.0, 0.0, 0.0, 0.0, 0.0, 0.0, 0.0, 0.0, 0.0, 0.0, 1.698959057289484E9, 0.0, 2023-11-02 17:04:17.289
6.0, -187275.83435485774, 187500.0, 31941.38043420082, 28012.681366524863, 187500.0, 187500.0, -187500.02235174447, 30283.640954928513, -0.054, 0.968, -0.036000000000000004, 192.0, 0.0, 0.0, 0.0, 0.0, 0.0, 0.0, 0.0, 0.0, 0.0, 1.6989590572894936E9, 0.0, 2023-11-02 17:04:17.289
7.0, -187171.6305222071, 187500.0, 31935.725442853625, 28012.189628146843, 187500.0, 187500.0, -187500.02235174447, 30282.23279502783, -0.054, 0.968, -0.036000000000000004, 192.0, 0.0, 0.0, 0.0, 0.0, 0.0, 0.0, 0.0, 0.0, 0.0, 1.698959057289503E9, 0.0, 2023-11-02 17:04:17.289
8.0, -187029.898110616, 187500.0, 31931.52331489603, 28008.25572112271, 187500.0, 187500.0, -187500.02235174447, 30283.775065395246, -0.06, 0.968, -0.052000000000000005, 192.0, 254.0, 32.0, 30.0, 64.0, 254.0, 96.0, 0.0, 0.0, 0.0, 1.6989590572895129E9, 0.0, 2023-11-02 17:04:17.289
9.0, -186945.09559215256, 187500.0, 31928.058794505454, 28005.64056702144, 187500.0, 187500.0, -187500.02235174447, 30285.29498401821, -0.06, 0.968, -0.052000000000000005, 192.0, 0.0, 0.0, 0.0, 0.0, 0.0, 0.0, 0.0, 0.0, 0.0, 1.6989590572895231E9, 0.0, 2023-11-02 17:04:17.289
10.0, -186905.73417016678, 187500.0, 31928.08114624991, 28007.674575766872, 187500.0, 187500.0, -187500.02235174447, 30289.206539297884, -0.06, 0.968, -0.052000000000000005, 192.0, 0.0, 0.0, 0.0, 0.0, 0.0, 0.0, 0.0, 0.0, 0.0, 1.698959057289534E9, 0.0, 2023-11-02 17:04:17.289
11.0, -186815.7460469897, 187500.0, 31929.064623005943, 28011.474372324275, 187500.0, 187500.0, -187500.02235174447, 30295.241510300817, -0.06, 0.968, -0.052000000000000005, 192.0, 0.0, 0.0, 0.0, 0.0, 0.0, 0.0, 0.0, 0.0, 0.0, 1.6989590572895436E9, 0.0, 2023-11-02 17:04:17.289
12.0, -186663.46361201568, 187500.0, 31927.097669493876, 28009.328604856564, 187500.0, 187500.0, -187500.02235174447, 30297.543739979716, -0.06, 0.968, -0.052000000000000005, 192.0, 0.0, 0.0, 0.0, 0.0, 0.0, 0.0, 0.0, 0.0, 0.0, 1.6989590572895534E9, 0.0, 2023-11-02 17:04:17.289
13.0, -186563.283093367, 187500.0, 31923.32022468093, 28005.931139699358, 187500.0, 187500.0, -187500.02235174447, 30298.03547835773, -0.06, 0.968, -0.052000000000000005, 192.0, 0.0, 0.0, 0.0, 0.0, 0.0, 0.0, 0.0, 0.0, 0.0, 1.6989590572895627E9, 0.0, 2023-11-02 17:04:17.289
14.0, -186555.9293694412, 187500.0, 31921.21916070213, 28006.691099010837, 187500.0, 187500.0, -187500.02235174447, 30300.628280714547, -0.06, 0.968, -0.052000000000000005, 192.0, 0.0, 0.0, 0.0, 0.0, 0.0, 0.0, 0.0, 0.0, 0.0, 1.6989590572895727E9, 0.0, 2023-11-02 17:04:17.289
15.0, -186490.8187378429, 187500.0, 31909.30568090745, 28003.092468153536, 187500.0, 187500.0, -187500.02235174447, 30294.123923078052, -0.06, 0.968, -0.052000000000000005, 192.0, 0.0, 0.0, 0.0, 0.0, 0.0, 0.0, 0.0, 0.0, 0.0, 1.6989590572895904E9, 0.0, 2023-11-02 17:04:17.289
16.0, -186351.72383209752, 187500.0, 31901.32610813691, 27998.510360540196, 187500.0, 187500.0, -187500.02235174447, 30292.8498736441, -0.06, 0.968, -0.052000000000000005, 192.0, 0.0, 0.0, 0.0, 0.0, 0.0, 0.0, 0.0, 0.0, 0.0, 1.6989590572896004E9, 0.0, 2023-11-02 17:04:17.289
17.0, -186240.14392377663, 187500.0, 31891.558395809938, 27994.93408142735, 187500.0, 187500.0, -187500.02235174447, 30292.29108003272, -0.056, 0.972, -0.06, 192.0, 254.0, 64.0, 30.0, 96.0, 254.0, 32.0, 0.0, 0.0, 0.0, 1.6989590572896132E9, 0.0, 2023-11-02 17:04:17.289
18.0, -186264.1049938327, 187500.0, 31895.469951089617, 28001.974880930768, 187500.0, 187500.0, -187500.02235174447, 30304.651594716503, -0.056, 0.972, -0.06, 192.0, 0.0, 0.0, 0.0, 0.0, 0.0, 0.0, 0.0, 0.0, 0.0, 1.6989590572896235E9, 0.0, 2023-11-02 17:04:17.289
19.0, -186249.53165644786, 187500.0, 31889.099703919856, 28004.947662943327, 187500.0, 187500.0, -187500.02235174447, 30305.366850539074, -0.056, 0.972, -0.06, 192.0, 0.0, 0.0, 0.0, 0.0, 0.0, 0.0, 0.0, 0.0, 0.0, 1.6989590572896335E9, 0.0, 2023-11-02 17:04:17.289
20.0, -186120.6291461741, 187500.0, 31878.996715426056, 28002.645433264428, 187500.0, 187500.0, -187500.02235174447, 30301.879978404046, -0.056, 0.972, -0.06, 192.0, 0.0, 0.0, 0.0, 0.0, 0.0, 0.0, 0.0, 0.0, 0.0, 1.6989590572896438E9, 0.0, 2023-11-02 17:04:17.289
21.0, -185995.36997024657, 187500.0, 31865.228040841586, 27993.86119769349, 187500.0, 187500.0, -187500.02235174447, 30296.068524845665, -0.056, 0.972, -0.06, 192.0, 0.0, 0.0, 0.0, 0.0, 0.0, 0.0, 0.0, 0.0, 0.0, 1.698959057289654E9, 0.0, 2023-11-02 17:04:17.289
22.0, -185957.05908025015, 187500.0, 31855.974418637088, 27983.288822566134, 187500.0, 187500.0, -187500.02235174447, 30293.408667255484, -0.056, 0.972, -0.06, 192.0, 0.0, 0.0, 0.0, 0.0, 0.0, 0.0, 0.0, 0.0, 0.0, 1.698959057289664E9, 0.0, 2023-11-02 17:04:17.289
23.0, -185947.35842315658, 187500.0, 31855.236811070063, 27982.81943593257, 187500.0, 187500.0, -187500.02235174447, 30299.577748725147, -0.056, 0.972, -0.06, 192.0, 0.0, 0.0, 0.0, 0.0, 0.0, 0.0, 0.0, 0.0, 0.0, 1.698959057289674E9, 0.0, 2023-11-02 17:04:17.289
24.0, -185843.93690156186, 187500.0, 31849.69357844515, 27979.53372949764, 187500.0, 187500.0, -187500.02235174447, 30299.37658302505, -0.056, 0.972, -0.06, 192.0, 0.0, 0.0, 0.0, 0.0, 0.0, 0.0, 0.0, 0.0, 0.0, 1.6989590572896843E9, 0.0, 2023-11-02 17:04:17.289
25.0, -185730.0771153065, 187500.0, 31845.044415598444, 27970.25775554869, 187500.0, 187500.0, -187500.02235174447, 30298.28134754674, -0.056, 0.972, -0.06, 192.0, 0.0, 0.0, 0.0, 0.0, 0.0, 0.0, 0.0, 0.0, 0.0, 1.6989590572896943E9, 0.0, 2023-11-02 17:04:17.289
26.0, -185708.15005399587, 187500.0, 31842.362206263806, 27961.697037422306, 187500.0, 187500.0, -187500.02235174447, 30298.951899880398, -0.056, 0.972, -0.06, 192.0, 0.0, 0.0, 0.0, 0.0, 0.0, 0.0, 0.0, 0.0, 0.0, 1.698959057289704E9, 0.0, 2023-11-02 17:04:17.289
27.0, -185707.05481851756, 187500.0, 31840.30584577392, 27956.91376410887, 187500.0, 187500.0, -187500.02235174447, 30300.248301058808, -0.06, 0.98, -0.068, 192.0, 254.0, 32.0, 30.0, 160.0, 253.0, 224.0, 0.0, 0.0, 0.0, 1.6989590572897143E9, 0.0, 2023-11-02 17:04:17.289
28.0, -185617.7595994186, 187500.0, 31840.708177174114, 27952.219897773255, 187500.0, 187500.0, -187500.02235174447, 30300.985908625833, -0.06, 0.98, -0.068, 192.0, 0.0, 0.0, 0.0, 0.0, 0.0, 0.0, 0.0, 0.0, 0.0, 1.698959057289726E9, 0.0, 2023-11-02 17:04:17.289
29.0, -185461.8785335873, 187500.0, 31834.606150937816, 27941.20048775679, 187500.0, 187500.0, -187500.02235174447, 30293.743943422312, -0.06, 0.98, -0.068, 192.0, 0.0, 0.0, 0.0, 0.0, 0.0, 0.0, 0.0, 0.0, 0.0, 1.6989590572897391E9, 0.0, 2023-11-02 17:04:17.289
30.0, -185410.33541087335, 187500.0, 31832.996825337035, 27931.321016707545, 187500.0, 187500.0, -187500.02235174447, 30291.86639688807, -0.06, 0.98, -0.068, 192.0, 0.0, 0.0, 0.0, 0.0, 0.0, 0.0, 0.0, 0.0, 0.0, 1.6989590572897615E9, 0.0, 2023-11-02 17:04:17.289
31.0, -185409.2178236506, 187500.0, 31825.173714777677, 27924.794307326592, 187500.0, 187500.0, -187500.02235174447, 30284.915004362465, -0.06, 0.98, -0.068, 192.0, 0.0, 0.0, 0.0, 0.0, 0.0, 0.0, 0.0, 0.0, 0.0, 1.6989590572897787E9, 0.0, 2023-11-02 17:04:17.289
32.0, -185336.21702625955, 187500.0, 31817.44001119614, 27918.401708412377, 187500.0, 187500.0, -187500.02235174447, 30280.690524660415, -0.06, 0.98, -0.068, 192.0, 0.0, 0.0, 0.0, 0.0, 0.0, 0.0, 0.0, 0.0, 0.0, 1.6989590572897904E9, 0.0, 2023-11-02 17:04:17.289
33.0, -185207.98506831945, 187500.0, 31813.751973361013, 27915.205408955266, 187500.0, 187500.0, -187500.02235174447, 30282.27749851674, -0.06, 0.98, -0.068, 192.0, 0.0, 0.0, 0.0, 0.0, 0.0, 0.0, 0.0, 0.0, 0.0, 1.6989590572898016E9, 0.0, 2023-11-02 17:04:17.289
34.0, -185129.3069278368, 187500.0, 31807.560540146893, 27910.66800483084, 187500.0, 187500.0, -187500.02235174447, 30280.33289674913, -0.06, 0.98, -0.068, 192.0, 0.0, 0.0, 0.0, 0.0, 0.0, 0.0, 0.0, 0.0, 0.0, 1.6989590572898128E9, 0.0, 2023-11-02 17:04:17.289
35.0, -185125.57418651273, 187500.0, 31806.018269779477, 27912.590254853996, 187500.0, 187500.0, -187500.02235174447, 30282.098684561097, -0.06, 0.98, -0.068, 192.0, 0.0, 0.0, 0.0, 0.0, 0.0, 0.0, 0.0, 0.0, 0.0, 1.6989590572898235E9, 0.0, 2023-11-02 17:04:17.289
36.0, -185081.02715981333, 187500.0, 31805.81710407938, 27920.43571715781, 187500.0, 187500.0, -187500.02235174447, 30285.742018907313, -0.06, 0.98, -0.068, 192.0, 0.0, 0.0, 0.0, 0.0, 0.0, 0.0, 0.0, 0.0, 0.0, 1.6989590572898345E9, 0.0, 2023-11-02 17:04:17.289
37.0, -184953.21988501787, 187500.0, 31796.42937140815, 27916.792382811593, 187500.0, 187500.0, -187500.02235174447, 30282.970402594856, -0.07, 0.982, -0.076, 192.0, 253.0, 208.0, 30.0, 176.0, 253.0, 160.0, 0.0, 0.0, 0.0, 1.6989590572898464E9, 0.0, 2023-11-02 17:04:17.289
38.0, -184883.79536673968, 187500.0, 31796.04939175241, 27914.04311824359, 187500.0, 187500.0, -187500.02235174447, 30284.959707851376, -0.07, 0.982, -0.076, 192.0, 0.0, 0.0, 0.0, 0.0, 0.0, 0.0, 0.0, 0.0, 0.0, 1.6989590572898629E9, 0.0, 2023-11-02 17:04:17.289
39.0, -184902.3473146376, 187500.0, 31797.85988305329, 27918.401708412377, 187500.0, 187500.0, -187500.02235174447, 30288.17835905294, -0.07, 0.982, -0.076, 192.0, 0.0, 0.0, 0.0, 0.0, 0.0, 0.0, 0.0, 0.0, 0.0, 1.6989590572898748E9, 0.0, 2023-11-02 17:04:17.289
40.0, -184879.50383180426, 187500.0, 31793.881272540246, 27918.37935666792, 187500.0, 187500.0, -187500.02235174447, 30285.674963673948, -0.07, 0.982, -0.076, 192.0, 0.0, 0.0, 0.0, 0.0, 0.0, 0.0, 0.0, 0.0, 0.0, 1.698959057289887E9, 0.0, 2023-11-02 17:04:17.289
41.0, -184763.07359493658, 187500.0, 31787.399266648208, 27913.394917654387, 187500.0, 187500.0, -187500.02235174447, 30281.13755954952, -0.07, 0.982, -0.076, 192.0, 0.0, 0.0, 0.0, 0.0, 0.0, 0.0, 0.0, 0.0, 0.0, 1.6989590572899003E9, 0.0, 2023-11-02 17:04:17.289
42.0, -184696.35363773748, 187500.0, 31789.276813182452, 27910.19861819728, 187500.0, 187500.0, -187500.02235174447, 30284.780893895735, -0.07, 0.982, -0.076, 192.0, 0.0, 0.0, 0.0, 0.0, 0.0, 0.0, 0.0, 0.0, 0.0, 1.698959057289915E9, 0.0, 2023-11-02 17:04:17.289
43.0, -184708.31182102108, 187500.0, 31792.38370566174, 27912.65731008736, 187500.0, 187500.0, -187500.02235174447, 30287.50780671928, -0.07, 0.982, -0.076, 192.0, 0.0, 0.0, 0.0, 0.0, 0.0, 0.0, 0.0, 0.0, 0.0, 1.698959057289929E9, 0.0, 2023-11-02 17:04:17.289
44.0, -184721.11937059395, 187500.0, 31797.34579293082, 27918.20054271228, 187500.0, 187500.0, -187500.02235174447, 30288.80420789769, -0.07, 0.982, -0.076, 192.0, 0.0, 0.0, 0.0, 0.0, 0.0, 0.0, 0.0, 0.0, 0.0, 1.6989590572899404E9, 0.0, 2023-11-02 17:04:17.289
45.0, -184617.9213664438, 187500.0, 31792.58487136184, 27916.121830477936, 187500.0, 187500.0, -187500.02235174447, 30280.914042104967, -0.07, 0.982, -0.076, 192.0, 0.0, 0.0, 0.0, 0.0, 0.0, 0.0, 0.0, 0.0, 0.0, 1.6989590572899554E9, 0.0, 2023-11-02 17:04:17.289
46.0, -184524.58048159844, 187500.0, 31792.204891706097, 27910.712708319752, 187500.0, 187500.0, -187500.02235174447, 30279.349419993094, -0.07, 0.982, -0.076, 192.0, 0.0, 0.0, 0.0, 0.0, 0.0, 0.0, 0.0, 0.0, 0.0, 1.6989590572901237E9, 0.0, 2023-11-02 17:04:17.290
0.0, 0.0, 0.0, 0.0, 0.0, 0.0, 0.0, 0.0, 0.0, -0.07, 0.982, -0.076, 192.0, 0.0, 0.0, 0.0, 0.0, 0.0, 0.0, 0.0, 0.0, 0.0, 1.6989590573794196E9, 0.0, 2023-11-02 17:04:17.379
1.0, -187500.02235174447, 187500.0, 31693.186663769087, 27709.748173922086, 187500.0, 187500.0, -187500.02235174447, 30268.352361721085, -0.076, 0.978, -0.084, 192.0, 253.0, 160.0, 30.0, 144.0, 253.0, 96.0, 0.0, 0.0, 0.0, 1.6989590573957486E9, 0.0, 2023-11-02 17:04:17.395
2.0, -187500.02235174447, 187500.0, 31695.533596936897, 27706.171894809235, 187500.0, 187500.0, -187500.02235174447, 30271.682771644926, -0.076, 0.978, -0.084, 192.0, 0.0, 0.0, 0.0, 0.0, 0.0, 0.0, 0.0, 0.0, 0.0, 1.698959057874499E9, 0.0, 2023-11-02 17:04:17.874
3.0, -187500.02235174447, 187500.0, 31695.846521359268, 27707.378889009822, 187500.0, 187500.0, -187500.02235174447, 30274.387332724018, -0.076, 0.978, -0.084, 192.0, 0.0, 0.0, 0.0, 0.0, 0.0, 0.0, 0.0, 0.0, 0.0, 1.6989590578746397E9, 0.0, 2023-11-02 17:04:17.874
4.0, -187500.02235174447, 187500.0, 31693.74545738047, 27706.797743653984, 187500.0, 187500.0, -187500.02235174447, 30274.61085016857, -0.076, 0.978, -0.084, 192.0, 0.0, 0.0, 0.0, 0.0, 0.0, 0.0, 0.0, 0.0, 0.0, 1.6989590578746555E9, 0.0, 2023-11-02 17:04:17.874
5.0, -187500.02235174447, 187500.0, 31691.107951534745, 27700.29338601749, 187500.0, 187500.0, -187500.02235174447, 30274.387332724018, -0.076, 0.978, -0.084, 192.0, 0.0, 0.0, 0.0, 0.0, 0.0, 0.0, 0.0, 0.0, 0.0, 1.6989590578747237E9, 0.0, 2023-11-02 17:04:17.874
6.0, -187500.02235174447, 187500.0, 31697.947585338068, 27698.639356927797, 187500.0, 187500.0, -187500.02235174447, 30282.389257239018, -0.076, 0.978, -0.084, 192.0, 0.0, 0.0, 0.0, 0.0, 0.0, 0.0, 0.0, 0.0, 0.0, 1.6989590578747392E9, 0.0, 2023-11-02 17:04:17.874
7.0, -187500.02235174447, 187500.0, 31699.936890594592, 27700.62866218432, 187500.0, 187500.0, -187500.02235174447, 30286.32316426315, -0.076, 0.978, -0.084, 192.0, 0.0, 0.0, 0.0, 0.0, 0.0, 0.0, 0.0, 0.0, 0.0, 1.6989590578747542E9, 0.0, 2023-11-02 17:04:17.874
8.0, -187500.02235174447, 187500.0, 31695.198320770065, 27700.025165084026, 187500.0, 187500.0, -187500.02235174447, 30282.098684561097, -0.076, 0.97, -0.09, 192.0, 253.0, 160.0, 30.0, 80.0, 253.0, 48.0, 0.0, 0.0, 0.0, 1.6989590578747687E9, 0.0, 2023-11-02 17:04:17.874
9.0, -187500.02235174447, 187500.0, 31695.287727747887, 27694.10195280337, 187500.0, 187500.0, -187500.02235174447, 30281.159911293977, -0.076, 0.97, -0.09, 192.0, 0.0, 0.0, 0.0, 0.0, 0.0, 0.0, 0.0, 0.0, 0.0, 1.6989590578747833E9, 0.0, 2023-11-02 17:04:17.874
10.0, -187500.02235174447, 187500.0, 31698.573434182817, 27694.39252548129, 187500.0, 187500.0, -187500.02235174447, 30283.730361906335, -0.076, 0.97, -0.09, 192.0, 0.0, 0.0, 0.0, 0.0, 0.0, 0.0, 0.0, 0.0, 0.0, 1.6989590578747964E9, 0.0, 2023-11-02 17:04:17.874
11.0, -187500.02235174447, 187500.0, 31699.22163477202, 27696.29242375999, 187500.0, 187500.0, -187500.02235174447, 30284.646783429, -0.076, 0.97, -0.09, 192.0, 0.0, 0.0, 0.0, 0.0, 0.0, 0.0, 0.0, 0.0, 0.0, 1.698959057874808E9, 0.0, 2023-11-02 17:04:17.874
12.0, -187500.02235174447, 187500.0, 31696.51707369293, 27694.906615603762, 187500.0, 187500.0, -187500.02235174447, 30279.170606037453, -0.076, 0.97, -0.09, 192.0, 0.0, 0.0, 0.0, 0.0, 0.0, 0.0, 0.0, 0.0, 0.0, 1.6989590578748217E9, 0.0, 2023-11-02 17:04:17.874
13.0, -187500.02235174447, 187500.0, 31694.52776843641, 27686.90469108876, 187500.0, 187500.0, -187500.02235174447, 30273.895594346, -0.076, 0.97, -0.09, 192.0, 0.0, 0.0, 0.0, 0.0, 0.0, 0.0, 0.0, 0.0, 0.0, 1.6989590578748329E9, 0.0, 2023-11-02 17:04:17.874
14.0, -187500.02235174447, 187500.0, 31699.534559194395, 27682.47904568661, 187500.0, 187500.0, -187500.02235174447, 30276.063713558164, -0.076, 0.97, -0.09, 192.0, 0.0, 0.0, 0.0, 0.0, 0.0, 0.0, 0.0, 0.0, 0.0, 1.6989590578752909E9, 0.0, 2023-11-02 17:04:17.875
15.0, -187500.02235174447, 187500.0, 31704.161370296642, 27681.495568930575, 187500.0, 187500.0, -187500.02235174447, 30277.069542058653, -0.076, 0.97, -0.09, 192.0, 0.0, 0.0, 0.0, 0.0, 0.0, 0.0, 0.0, 0.0, 0.0, 1.6989590578753147E9, 0.0, 2023-11-02 17:04:17.875
16.0, -187500.02235174447, 187500.0, 31699.400448727665, 27679.349801462868, 187500.0, 187500.0, -187500.02235174447, 30271.928640833932, -0.076, 0.97, -0.09, 192.0, 0.0, 0.0, 0.0, 0.0, 0.0, 0.0, 0.0, 0.0, 0.0, 1.698959057875327E9, 0.0, 2023-11-02 17:04:17.875
17.0, -187500.02235174447, 187500.0, 31700.719201650525, 27679.506263674055, 187500.0, 187500.0, -187500.02235174447, 30271.213385011364, -0.076, 0.97, -0.09, 192.0, 0.0, 0.0, 0.0, 0.0, 0.0, 0.0, 0.0, 0.0, 0.0, 1.6989590578753426E9, 0.0, 2023-11-02 17:04:17.875
18.0, -187500.02235174447, 187500.0, 31704.250777274465, 27679.349801462868, 187500.0, 187500.0, -187500.02235174447, 30270.85575710008, -0.088, 0.978, -0.092, 192.0, 253.0, 64.0, 30.0, 144.0, 253.0, 32.0, 0.0, 0.0, 0.0, 1.6989590578753545E9, 0.0, 2023-11-02 17:04:17.875
19.0, -187500.02235174447, 187500.0, 31707.000041842468, 27679.685077629696, 187500.0, 187500.0, -187500.02235174447, 30270.989867566812, -0.088, 0.978, -0.092, 192.0, 0.0, 0.0, 0.0, 0.0, 0.0, 0.0, 0.0, 0.0, 0.0, 1.6989590578753698E9, 0.0, 2023-11-02 17:04:17.875
20.0, -187500.02235174447, 187500.0, 31702.060306317846, 27676.846406083874, 187500.0, 187500.0, -187500.02235174447, 30263.09970177409, -0.088, 0.978, -0.092, 192.0, 0.0, 0.0, 0.0, 0.0, 0.0, 0.0, 0.0, 0.0, 0.0, 1.6989590578753848E9, 0.0, 2023-11-02 17:04:17.875
21.0, -187500.02235174447, 187500.0, 31696.36061148174, 27668.41979842422, 187500.0, 187500.0, -187500.02235174447, 30257.020027282244, -0.088, 0.978, -0.092, 192.0, 0.0, 0.0, 0.0, 0.0, 0.0, 0.0, 0.0, 0.0, 0.0, 1.6989590578753965E9, 0.0, 2023-11-02 17:04:17.875
22.0, -187500.02235174447, 187500.0, 31689.69979163406, 27658.249754697055, 187500.0, 187500.0, -187500.02235174447, 30249.6886551009, -0.088, 0.978, -0.092, 192.0, 0.0, 0.0, 0.0, 0.0, 0.0, 0.0, 0.0, 0.0, 0.0, 1.6989590578754096E9, 0.0, 2023-11-02 17:04:17.875
23.0, -187500.02235174447, 187500.0, 31694.237195758487, 27658.696789586164, 187500.0, 187500.0, -187500.02235174447, 30253.51080340276, -0.088, 0.978, -0.092, 192.0, 0.0, 0.0, 0.0, 0.0, 0.0, 0.0, 0.0, 0.0, 0.0, 1.6989590578754213E9, 0.0, 2023-11-02 17:04:17.875
24.0, -187500.02235174447, 187500.0, 31694.12543703621, 27659.747321575564, 187500.0, 187500.0, -187500.02235174447, 30252.862602813555, -0.088, 0.978, -0.092, 192.0, 0.0, 0.0, 0.0, 0.0, 0.0, 0.0, 0.0, 0.0, 0.0, 1.6989590578754325E9, 0.0, 2023-11-02 17:04:17.875
25.0, -187500.02235174447, 187500.0, 31695.533596936897, 27658.517975630522, 187500.0, 187500.0, -187500.02235174447, 30253.622562125038, -0.088, 0.978, -0.092, 192.0, 0.0, 0.0, 0.0, 0.0, 0.0, 0.0, 0.0, 0.0, 0.0, 1.698959057875442E9, 0.0, 2023-11-02 17:04:17.875
26.0, -187500.02235174447, 187500.0, 31694.661878903138, 27655.09815872886, 187500.0, 187500.0, -187500.02235174447, 30253.488451658304, -0.088, 0.978, -0.092, 192.0, 0.0, 0.0, 0.0, 0.0, 0.0, 0.0, 0.0, 0.0, 0.0, 1.6989590578754516E9, 0.0, 2023-11-02 17:04:17.875
27.0, -187500.02235174447, 187500.0, 31695.578300425805, 27652.594763349865, 187500.0, 187500.0, -187500.02235174447, 30255.27659121473, -0.088, 0.978, -0.092, 192.0, 0.0, 0.0, 0.0, 0.0, 0.0, 0.0, 0.0, 0.0, 0.0, 1.6989590578754647E9, 0.0, 2023-11-02 17:04:17.875
28.0, -187500.02235174447, 187500.0, 31706.731820909004, 27665.84934781186, 187500.0, 187500.0, -187500.02235174447, 30270.676943144437, -0.098, 0.978, -0.098, 192.0, 252.0, 240.0, 30.0, 144.0, 252.0, 240.0, 0.0, 0.0, 0.0, 1.6989590578754745E9, 0.0, 2023-11-02 17:04:17.875
29.0, -187500.02235174447, 187500.0, 31701.635623173195, 27669.358571691344, 187500.0, 187500.0, -187500.02235174447, 30267.927678576434, -0.098, 0.978, -0.098, 192.0, 0.0, 0.0, 0.0, 0.0, 0.0, 0.0, 0.0, 0.0, 0.0, 1.6989590578760936E9, 0.0, 2023-11-02 17:04:17.876
30.0, -187500.02235174447, 187500.0, 31685.65412588765, 27651.05249298245, 187500.0, 187500.0, -187500.02235174447, 30250.068634756644, -0.098, 0.978, -0.098, 192.0, 0.0, 0.0, 0.0, 0.0, 0.0, 0.0, 0.0, 0.0, 0.0, 1.6989590578761177E9, 0.0, 2023-11-02 17:04:17.876
31.0, -187500.02235174447, 187500.0, 31684.89416657617, 27643.81052777893, 187500.0, 187500.0, -187500.02235174447, 30247.565239377647, -0.098, 0.978, -0.098, 192.0, 0.0, 0.0, 0.0, 0.0, 0.0, 0.0, 0.0, 0.0, 0.0, 1.698959057876129E9, 0.0, 2023-11-02 17:04:17.876
32.0, -187500.02235174447, 187500.0, 31686.70465787705, 27648.75026330355, 187500.0, 187500.0, -187500.02235174447, 30249.532192889714, -0.098, 0.978, -0.098, 192.0, 0.0, 0.0, 0.0, 0.0, 0.0, 0.0, 0.0, 0.0, 0.0, 1.6989590578761418E9, 0.0, 2023-11-02 17:04:17.876
33.0, -187500.02235174447, 187500.0, 31682.279012474897, 27647.76678654752, 187500.0, 187500.0, -187500.02235174447, 30246.246486454784, -0.098, 0.978, -0.098, 192.0, 0.0, 0.0, 0.0, 0.0, 0.0, 0.0, 0.0, 0.0, 0.0, 1.6989590578761544E9, 0.0, 2023-11-02 17:04:17.876
34.0, -187500.02235174447, 187500.0, 31676.35580019424, 27642.402367878243, 187500.0, 187500.0, -187500.02235174447, 30242.044358497187, -0.098, 0.978, -0.098, 192.0, 0.0, 0.0, 0.0, 0.0, 0.0, 0.0, 0.0, 0.0, 0.0, 1.6989590578761668E9, 0.0, 2023-11-02 17:04:17.876
35.0, -187500.02235174447, 187500.0, 31672.488948403472, 27635.13805093027, 187500.0, 187500.0, -187500.02235174447, 30240.010349751756, -0.098, 0.978, -0.098, 192.0, 0.0, 0.0, 0.0, 0.0, 0.0, 0.0, 0.0, 0.0, 0.0, 1.6989590578761857E9, 0.0, 2023-11-02 17:04:17.876
36.0, -187500.02235174447, 187500.0, 31670.45493965804, 27632.27702763999, 187500.0, 187500.0, -187500.02235174447, 30237.909285772956, -0.098, 0.978, -0.098, 192.0, 0.0, 0.0, 0.0, 0.0, 0.0, 0.0, 0.0, 0.0, 0.0, 1.698959057876203E9, 0.0, 2023-11-02 17:04:17.876
37.0, -187500.02235174447, 187500.0, 31672.06426525882, 27635.94271373066, 187500.0, 187500.0, -187500.02235174447, 30241.731434074813, -0.098, 0.978, -0.098, 192.0, 0.0, 0.0, 0.0, 0.0, 0.0, 0.0, 0.0, 0.0, 0.0, 1.6989590578762164E9, 0.0, 2023-11-02 17:04:17.876
38.0, -187500.02235174447, 187500.0, 31669.493814646463, 27635.56273407492, 187500.0, 187500.0, -187500.02235174447, 30241.50791663026, -0.1, 0.972, -0.1, 192.0, 252.0, 224.0, 30.0, 96.0, 252.0, 224.0, 0.0, 0.0, 0.0, 1.698959057876233E9, 0.0, 2023-11-02 17:04:17.876
39.0, -187500.02235174447, 187500.0, 31672.444244914564, 27636.680321297685, 187500.0, 187500.0, -187500.02235174447, 30246.626466110527, -0.1, 0.972, -0.1, 192.0, 0.0, 0.0, 0.0, 0.0, 0.0, 0.0, 0.0, 0.0, 0.0, 1.698959057876253E9, 0.0, 2023-11-02 17:04:17.876
40.0, -187500.02235174447, 187500.0, 31673.852404815247, 27637.261466653523, 187500.0, 187500.0, -187500.02235174447, 30249.018102767244, -0.1, 0.972, -0.1, 192.0, 0.0, 0.0, 0.0, 0.0, 0.0, 0.0, 0.0, 0.0, 0.0, 1.6989590578762667E9, 0.0, 2023-11-02 17:04:17.876
41.0, -187500.02235174447, 187500.0, 31668.97972452399, 27639.94367598816, 187500.0, 187500.0, -187500.02235174447, 30246.02296901023, -0.1, 0.972, -0.1, 192.0, 0.0, 0.0, 0.0, 0.0, 0.0, 0.0, 0.0, 0.0, 0.0, 1.6989590578762808E9, 0.0, 2023-11-02 17:04:17.876
42.0, -187500.02235174447, 187500.0, 31663.25767794343, 27635.540382330466, 187500.0, 187500.0, -187500.02235174447, 30240.03270149621, -0.1, 0.972, -0.1, 192.0, 0.0, 0.0, 0.0, 0.0, 0.0, 0.0, 0.0, 0.0, 0.0, 1.6989590578762937E9, 0.0, 2023-11-02 17:04:17.876
43.0, -187500.02235174447, 187500.0, 31665.336390177774, 27633.193449162656, 187500.0, 187500.0, -187500.02235174447, 30241.977303263822, -0.1, 0.972, -0.1, 192.0, 0.0, 0.0, 0.0, 0.0, 0.0, 0.0, 0.0, 0.0, 0.0, 1.6989590578763115E9, 0.0, 2023-11-02 17:04:17.876
44.0, -187500.02235174447, 187500.0, 31666.856308800736, 27634.892181741263, 187500.0, 187500.0, -187500.02235174447, 30244.726567831825, -0.1, 0.972, -0.1, 192.0, 0.0, 0.0, 0.0, 0.0, 0.0, 0.0, 0.0, 0.0, 0.0, 1.6989590578764164E9, 0.0, 2023-11-02 17:04:17.876
45.0, -187500.02235174447, 187500.0, 31664.06234074382, 27638.379053876288, 187500.0, 187500.0, -187500.02235174447, 30243.430166653416, -0.1, 0.972, -0.1, 192.0, 0.0, 0.0, 0.0, 0.0, 0.0, 0.0, 0.0, 0.0, 0.0, 1.6989590578764443E9, 0.0, 2023-11-02 17:04:17.876
46.0, -187500.02235174447, 187500.0, 31659.457881386028, 27635.339216630367, 187500.0, 187500.0, -187500.02235174447, 30239.31744567364, -0.1, 0.972, -0.1, 192.0, 0.0, 0.0, 0.0, 0.0, 0.0, 0.0, 0.0, 0.0, 0.0, 1.6989590578764615E9, 0.0, 2023-11-02 17:04:17.876
47.0, -187500.02235174447, 187500.0, 31655.70278831754, 27626.040890936958, 187500.0, 187500.0, -187500.02235174447, 30234.601227593572, -0.096, 0.968, -0.098, 192.0, 253.0, 0.0, 30.0, 64.0, 252.0, 240.0, 0.0, 0.0, 0.0, 1.6989590578764791E9, 0.0, 2023-11-02 17:04:17.876
48.0, -187500.02235174447, 187500.0, 31656.954486007035, 27620.65412052323, 187500.0, 187500.0, -187500.02235174447, 30236.07644272762, -0.096, 0.968, -0.098, 192.0, 0.0, 0.0, 0.0, 0.0, 0.0, 0.0, 0.0, 0.0, 0.0, 1.6989590578765135E9, 0.0, 2023-11-02 17:04:17.876
49.0, -187500.02235174447, 187500.0, 31655.79219529536, 27624.744489758552, 187500.0, 187500.0, -187500.02235174447, 30236.07644272762, -0.096, 0.968, -0.098, 192.0, 0.0, 0.0, 0.0, 0.0, 0.0, 0.0, 0.0, 0.0, 0.0, 1.6989590578765302E9, 0.0, 2023-11-02 17:04:17.876
50.0, -187500.02235174447, 187500.0, 31652.908820260625, 27622.822239735397, 187500.0, 187500.0, -187500.02235174447, 30234.17654444892, -0.096, 0.968, -0.098, 192.0, 0.0, 0.0, 0.0, 0.0, 0.0, 0.0, 0.0, 0.0, 0.0, 1.6989590578765488E9, 0.0, 2023-11-02 17:04:17.876
51.0, -187500.02235174447, 187500.0, 31653.892297016657, 27622.08463216837, 187500.0, 187500.0, -187500.02235174447, 30234.9365037604, -0.096, 0.968, -0.098, 192.0, 0.0, 0.0, 0.0, 0.0, 0.0, 0.0, 0.0, 0.0, 0.0, 1.6989590578765662E9, 0.0, 2023-11-02 17:04:17.876
52.0, -187500.02235174447, 187500.0, 31655.88160227318, 27622.263446124012, 187500.0, 187500.0, -187500.02235174447, 30236.679939827914, -0.096, 0.968, -0.098, 192.0, 0.0, 0.0, 0.0, 0.0, 0.0, 0.0, 0.0, 0.0, 0.0, 1.6989590578765855E9, 0.0, 2023-11-02 17:04:17.876
53.0, -187500.02235174447, 187500.0, 31651.813584782314, 27621.41407983471, 187500.0, 187500.0, -187500.02235174447, 30231.9860734923, -0.096, 0.968, -0.098, 192.0, 0.0, 0.0, 0.0, 0.0, 0.0, 0.0, 0.0, 0.0, 0.0, 1.6989590578766096E9, 0.0, 2023-11-02 17:04:17.876
54.0, -187500.02235174447, 187500.0, 31642.202334666534, 27615.289701853955, 187500.0, 187500.0, -187500.02235174447, 30222.17365767642, -0.096, 0.968, -0.098, 192.0, 0.0, 0.0, 0.0, 0.0, 0.0, 0.0, 0.0, 0.0, 0.0, 1.6989590578766248E9, 0.0, 2023-11-02 17:04:17.876
55.0, -187500.02235174447, 187500.0, 31637.262599141908, 27613.009823919514, 187500.0, 187500.0, -187500.02235174447, 30217.949177974366, -0.096, 0.968, -0.098, 192.0, 0.0, 0.0, 0.0, 0.0, 0.0, 0.0, 0.0, 0.0, 0.0, 1.6989590578766422E9, 0.0, 2023-11-02 17:04:17.876
56.0, -187500.02235174447, 187500.0, 31635.630921796674, 27612.473382052587, 187500.0, 187500.0, -187500.02235174447, 30217.65860529645, -0.096, 0.968, -0.098, 192.0, 0.0, 0.0, 0.0, 0.0, 0.0, 0.0, 0.0, 0.0, 0.0, 1.698959057876693E9, 0.0, 2023-11-02 17:04:17.876
57.0, -187500.02235174447, 187500.0, 31638.201372409032, 27617.860152466317, 187500.0, 187500.0, -187500.02235174447, 30222.330119887607, -0.084, 0.984, -0.092, 192.0, 253.0, 96.0, 30.0, 192.0, 253.0, 32.0, 0.0, 0.0, 0.0, 1.6989590578767147E9, 0.0, 2023-11-02 17:04:17.876
58.0, -187500.02235174447, 187500.0, 31632.121697917188, 27622.129335657282, 187500.0, 187500.0, -187500.02235174447, 30219.580855319604, -0.084, 0.984, -0.092, 192.0, 0.0, 0.0, 0.0, 0.0, 0.0, 0.0, 0.0, 0.0, 0.0, 1.6989590578767369E9, 0.0, 2023-11-02 17:04:17.876
59.0, -187500.02235174447, 187500.0, 31627.226665881477, 27616.206123376625, 187500.0, 187500.0, -187500.02235174447, 30215.110506428544, -0.084, 0.984, -0.092, 192.0, 0.0, 0.0, 0.0, 0.0, 0.0, 0.0, 0.0, 0.0, 0.0, 1.6989590578767648E9, 0.0, 2023-11-02 17:04:17.876
60.0, -187500.02235174447, 187500.0, 31638.31313113131, 27620.475306567587, 187500.0, 187500.0, -187500.02235174447, 30226.375785634016, -0.084, 0.984, -0.092, 192.0, 0.0, 0.0, 0.0, 0.0, 0.0, 0.0, 0.0, 0.0, 0.0, 1.698959057876922E9, 0.0, 2023-11-02 17:04:17.876
61.0, -187500.02235174447, 187500.0, 31639.743642776448, 27621.950521701638, 187500.0, 187500.0, -187500.02235174447, 30228.856829268556, -0.084, 0.984, -0.092, 192.0, 0.0, 0.0, 0.0, 0.0, 0.0, 0.0, 0.0, 0.0, 0.0, 1.69895905787696E9, 0.0, 2023-11-02 17:04:17.876
62.0, -187500.02235174447, 187500.0, 31632.38991885065, 27619.31301585591, 187500.0, 187500.0, -187500.02235174447, 30222.754803032258, -0.084, 0.984, -0.092, 192.0, 0.0, 0.0, 0.0, 0.0, 0.0, 0.0, 0.0, 0.0, 0.0, 1.698959057876984E9, 0.0, 2023-11-02 17:04:17.876
63.0, -187500.02235174447, 187500.0, 31633.775727006883, 27620.676472267685, 187500.0, 187500.0, -187500.02235174447, 30224.721756544324, -0.084, 0.984, -0.092, 192.0, 0.0, 0.0, 0.0, 0.0, 0.0, 0.0, 0.0, 0.0, 0.0, 1.6989590578770046E9, 0.0, 2023-11-02 17:04:17.877
64.0, -187500.02235174447, 187500.0, 31640.525953832384, 27623.761013002517, 187500.0, 187500.0, -187500.02235174447, 30230.42145138043, -0.084, 0.984, -0.092, 192.0, 0.0, 0.0, 0.0, 0.0, 0.0, 0.0, 0.0, 0.0, 0.0, 1.6989590578770297E9, 0.0, 2023-11-02 17:04:17.877
65.0, -187500.02235174447, 187500.0, 31636.033253196867, 27618.664815266708, 187500.0, 187500.0, -187500.02235174447, 30224.319425144127, -0.084, 0.984, -0.092, 192.0, 0.0, 0.0, 0.0, 0.0, 0.0, 0.0, 0.0, 0.0, 0.0, 1.6989590578770497E9, 0.0, 2023-11-02 17:04:17.877
66.0, -187500.02235174447, 187500.0, 31633.2169333955, 27616.049661165438, 187500.0, 187500.0, -187500.02235174447, 30221.704271042858, -0.084, 0.984, -0.092, 192.0, 0.0, 0.0, 0.0, 0.0, 0.0, 0.0, 0.0, 0.0, 0.0, 1.6989590578770657E9, 0.0, 2023-11-02 17:04:17.877
67.0, -187500.02235174447, 187500.0, 31635.407404352118, 27620.028271678482, 187500.0, 187500.0, -187500.02235174447, 30227.292207156686, -0.084, 0.98, -0.092, 192.0, 253.0, 96.0, 30.0, 160.0, 253.0, 32.0, 0.0, 0.0, 0.0, 1.6989590578770816E9, 0.0, 2023-11-02 17:04:17.877
68.0, -187500.02235174447, 187500.0, 31635.228590396477, 27624.14099265826, 187500.0, 187500.0, -187500.02235174447, 30230.309692658153, -0.084, 0.98, -0.092, 192.0, 0.0, 0.0, 0.0, 0.0, 0.0, 0.0, 0.0, 0.0, 0.0, 1.6989590578771005E9, 0.0, 2023-11-02 17:04:17.877
69.0, -187500.02235174447, 187500.0, 31634.31216887381, 27626.17500140369, 187500.0, 187500.0, -187500.02235174447, 30233.528343859714, -0.084, 0.98, -0.092, 192.0, 0.0, 0.0, 0.0, 0.0, 0.0, 0.0, 0.0, 0.0, 0.0, 1.698959057877148E9, 0.0, 2023-11-02 17:04:17.877
70.0, -187500.02235174447, 187500.0, 31625.036194924858, 27625.727966514587, 187500.0, 187500.0, -187500.02235174447, 30230.086175213597, -0.084, 0.98, -0.092, 192.0, 0.0, 0.0, 0.0, 0.0, 0.0, 0.0, 0.0, 0.0, 0.0, 1.6989590578771684E9, 0.0, 2023-11-02 17:04:17.877
71.0, -187500.02235174447, 187500.0, 31619.02357566638, 27627.091422926358, 187500.0, 187500.0, -187500.02235174447, 30227.89570425698, -0.084, 0.98, -0.092, 192.0, 0.0, 0.0, 0.0, 0.0, 0.0, 0.0, 0.0, 0.0, 0.0, 1.6989590578771865E9, 0.0, 2023-11-02 17:04:17.877
72.0, -187500.02235174447, 187500.0, 31614.955558175512, 27626.152649659238, 187500.0, 187500.0, -187500.02235174447, 30227.56042809015, -0.084, 0.98, -0.092, 192.0, 0.0, 0.0, 0.0, 0.0, 0.0, 0.0, 0.0, 0.0, 0.0, 1.6989590578772056E9, 0.0, 2023-11-02 17:04:17.877
73.0, -187500.02235174447, 187500.0, 31615.000261664423, 27623.917475213704, 187500.0, 187500.0, -187500.02235174447, 30232.254294425762, -0.084, 0.98, -0.092, 192.0, 0.0, 0.0, 0.0, 0.0, 0.0, 0.0, 0.0, 0.0, 0.0, 1.6989590578772235E9, 0.0, 2023-11-02 17:04:17.877
74.0, -187500.02235174447, 187500.0, 31611.513389529395, 27633.819298007405, 187500.0, 187500.0, -187500.02235174447, 30236.881105528013, -0.084, 0.98, -0.092, 192.0, 0.0, 0.0, 0.0, 0.0, 0.0, 0.0, 0.0, 0.0, 0.0, 1.6989590578772454E9, 0.0, 2023-11-02 17:04:17.877
75.0, -187500.02235174447, 187500.0, 31598.750543445414, 27634.288684640967, 187500.0, 187500.0, -187500.02235174447, 30231.02494848072, -0.084, 0.98, -0.092, 192.0, 0.0, 0.0, 0.0, 0.0, 0.0, 0.0, 0.0, 0.0, 0.0, 1.698959057877345E9, 0.0, 2023-11-02 17:04:17.877
76.0, -187500.02235174447, 187500.0, 31589.139293329634, 27629.41600434971, 187500.0, 187500.0, -187500.02235174447, 30227.35926239005, -0.084, 0.98, -0.092, 192.0, 0.0, 0.0, 0.0, 0.0, 0.0, 0.0, 0.0, 0.0, 0.0, 1.6989590578773675E9, 0.0, 2023-11-02 17:04:17.877
77.0, -187500.02235174447, 187500.0, 31592.1567788311, 27626.666739781707, 187500.0, 187500.0, -187500.02235174447, 30234.914152015946, -0.068, 0.976, -0.088, 192.0, 253.0, 224.0, 30.0, 128.0, 253.0, 64.0, 0.0, 0.0, 0.0, 1.698959057877385E9, 0.0, 2023-11-02 17:04:17.877
78.0, -187500.02235174447, 187500.0, 31595.330726543754, 27631.114736928314, 187500.0, 187500.0, -187500.02235174447, 30240.189163707397, -0.068, 0.976, -0.088, 192.0, 0.0, 0.0, 0.0, 0.0, 0.0, 0.0, 0.0, 0.0, 0.0, 1.698959057877411E9, 0.0, 2023-11-02 17:04:17.877
79.0, -187500.02235174447, 187500.0, 31586.501787483907, 27629.058376438425, 187500.0, 187500.0, -187500.02235174447, 30233.014253737245, -0.068, 0.976, -0.088, 192.0, 0.0, 0.0, 0.0, 0.0, 0.0, 0.0, 0.0, 0.0, 0.0, 1.6989590578774269E9, 0.0, 2023-11-02 17:04:17.877
80.0, -187500.02235174447, 187500.0, 31582.29965952631, 27622.17403914619, 187500.0, 187500.0, -187500.02235174447, 30228.74507054628, -0.068, 0.976, -0.088, 192.0, 0.0, 0.0, 0.0, 0.0, 0.0, 0.0, 0.0, 0.0, 0.0, 1.698959057877442E9, 0.0, 2023-11-02 17:04:17.877
81.0, -187500.02235174447, 187500.0, 31585.451255494507, 27618.284835610968, 187500.0, 187500.0, -187500.02235174447, 30229.728547302315, -0.068, 0.976, -0.088, 192.0, 0.0, 0.0, 0.0, 0.0, 0.0, 0.0, 0.0, 0.0, 0.0, 1.6989590578774576E9, 0.0, 2023-11-02 17:04:17.877
82.0, -187500.02235174447, 187500.0, 31590.949784630513, 27617.390765832755, 187500.0, 187500.0, -187500.02235174447, 30232.433108381407, -0.068, 0.976, -0.088, 192.0, 0.0, 0.0, 0.0, 0.0, 0.0, 0.0, 0.0, 0.0, 0.0, 1.6989590578774748E9, 0.0, 2023-11-02 17:04:17.877
83.0, -187500.02235174447, 187500.0, 31584.73599967194, 27613.1662861307, 187500.0, 187500.0, -187500.02235174447, 30223.291244899185, -0.068, 0.976, -0.088, 192.0, 0.0, 0.0, 0.0, 0.0, 0.0, 0.0, 0.0, 0.0, 0.0, 1.6989590578774967E9, 0.0, 2023-11-02 17:04:17.877
84.0, -187500.02235174447, 187500.0, 31586.993525861923, 27609.23237910657, 187500.0, 187500.0, -187500.02235174447, 30221.41369836494, -0.068, 0.976, -0.088, 192.0, 0.0, 0.0, 0.0, 0.0, 0.0, 0.0, 0.0, 0.0, 0.0, 1.698959057877519E9, 0.0, 2023-11-02 17:04:17.877
85.0, -187500.02235174447, 187500.0, 31592.469703253475, 27608.04773665044, 187500.0, 187500.0, -187500.02235174447, 30224.8335152666, -0.068, 0.976, -0.088, 192.0, 0.0, 0.0, 0.0, 0.0, 0.0, 0.0, 0.0, 0.0, 0.0, 1.6989590578775413E9, 0.0, 2023-11-02 17:04:17.877
86.0, -187500.02235174447, 187500.0, 31594.43665676554, 27608.003033161527, 187500.0, 187500.0, -187500.02235174447, 30228.40979437945, -0.068, 0.976, -0.088, 192.0, 0.0, 0.0, 0.0, 0.0, 0.0, 0.0, 0.0, 0.0, 0.0, 1.6989590578775704E9, 0.0, 2023-11-02 17:04:17.877
87.0, -187500.02235174447, 187500.0, 31595.353078288208, 27610.908759940718, 187500.0, 187500.0, -187500.02235174447, 30230.577913591616, -0.082, 0.982, -0.08600000000000001, 192.0, 253.0, 112.0, 30.0, 176.0, 253.0, 80.0, 0.0, 0.0, 0.0, 1.6989590578775856E9, 0.0, 2023-11-02 17:04:17.877
88.0, -187500.02235174447, 187500.0, 31592.246185808923, 27610.618187262797, 187500.0, 187500.0, -187500.02235174447, 30228.78977403519, -0.082, 0.982, -0.08600000000000001, 192.0, 0.0, 0.0, 0.0, 0.0, 0.0, 0.0, 0.0, 0.0, 0.0, 1.698959057877623E9, 0.0, 2023-11-02 17:04:17.877
89.0, -187500.02235174447, 187500.0, 31594.548415487818, 27609.120620384292, 187500.0, 187500.0, -187500.02235174447, 30233.103660715064, -0.082, 0.982, -0.08600000000000001, 192.0, 0.0, 0.0, 0.0, 0.0, 0.0, 0.0, 0.0, 0.0, 0.0, 1.698959057877642E9, 0.0, 2023-11-02 17:04:17.877
90.0, -187500.02235174447, 187500.0, 31598.862302167694, 27605.94667267164, 187500.0, 187500.0, -187500.02235174447, 30239.004521251267, -0.082, 0.982, -0.08600000000000001, 192.0, 0.0, 0.0, 0.0, 0.0, 0.0, 0.0, 0.0, 0.0, 0.0, 1.6989590578778272E9, 0.0, 2023-11-02 17:04:17.877
91.0, -187500.02235174447, 187500.0, 31596.515368999884, 27607.064259894403, 187500.0, 187500.0, -187500.02235174447, 30236.41171889445, -0.082, 0.982, -0.08600000000000001, 192.0, 0.0, 0.0, 0.0, 0.0, 0.0, 0.0, 0.0, 0.0, 0.0, 1.698959057877866E9, 0.0, 2023-11-02 17:04:17.877
92.0, -187500.02235174447, 187500.0, 31596.604775977707, 27610.640539007254, 187500.0, 187500.0, -187500.02235174447, 30235.9870357498, -0.082, 0.982, -0.08600000000000001, 192.0, 0.0, 0.0, 0.0, 0.0, 0.0, 0.0, 0.0, 0.0, 0.0, 1.6989590578778768E9, 0.0, 2023-11-02 17:04:17.877
93.0, -187500.02235174447, 187500.0, 31593.699049198516, 27607.64540525024, 187500.0, 187500.0, -187500.02235174447, 30233.394233392984, -0.082, 0.982, -0.08600000000000001, 192.0, 0.0, 0.0, 0.0, 0.0, 0.0, 0.0, 0.0, 0.0, 0.0, 1.6989590578778875E9, 0.0, 2023-11-02 17:04:17.877
94.0, -187500.02235174447, 187500.0, 31587.328802028755, 27601.74454471404, 187500.0, 187500.0, -187500.02235174447, 30228.92388450192, -0.082, 0.982, -0.08600000000000001, 192.0, 0.0, 0.0, 0.0, 0.0, 0.0, 0.0, 0.0, 0.0, 0.0, 1.6989590578779001E9, 0.0, 2023-11-02 17:04:17.877
95.0, -187500.02235174447, 187500.0, 31586.434732250542, 27605.3655273158, 187500.0, 187500.0, -187500.02235174447, 30229.99676823578, -0.082, 0.982, -0.08600000000000001, 192.0, 0.0, 0.0, 0.0, 0.0, 0.0, 0.0, 0.0, 0.0, 0.0, 1.6989590578779163E9, 0.0, 2023-11-02 17:04:17.877
96.0, -187500.02235174447, 187500.0, 31583.86428163818, 27606.728983727575, 187500.0, 187500.0, -187500.02235174447, 30226.778117034213, -0.082, 0.982, -0.08600000000000001, 192.0, 0.0, 0.0, 0.0, 0.0, 0.0, 0.0, 0.0, 0.0, 0.0, 1.6989590578779356E9, 0.0, 2023-11-02 17:04:17.877
97.0, -187500.02235174447, 187500.0, 31580.466816480974, 27602.12452436978, 187500.0, 187500.0, -187500.02235174447, 30224.565294333137, -0.076, 0.976, -0.078, 192.0, 253.0, 160.0, 30.0, 128.0, 253.0, 144.0, 0.0, 0.0, 0.0, 1.698959057877951E9, 0.0, 2023-11-02 17:04:17.877
98.0, -187500.02235174447, 187500.0, 31579.59509844722, 27600.738716213553, 187500.0, 187500.0, -187500.02235174447, 30225.12408794452, -0.076, 0.976, -0.078, 192.0, 0.0, 0.0, 0.0, 0.0, 0.0, 0.0, 0.0, 0.0, 0.0, 1.6989590578779788E9, 0.0, 2023-11-02 17:04:17.877
99.0, -187500.02235174447, 187500.0, 31581.964383359482, 27603.37622205928, 187500.0, 187500.0, -187500.02235174447, 30226.912227500943, -0.076, 0.976, -0.078, 192.0, 0.0, 0.0, 0.0, 0.0, 0.0, 0.0, 0.0, 0.0, 0.0, 1.6989590578779936E9, 0.0, 2023-11-02 17:04:17.877
100.0, -187500.02235174447, 187500.0, 31578.00812459089, 27602.973890659083, 187500.0, 187500.0, -187500.02235174447, 30222.21836116533, -0.076, 0.976, -0.078, 192.0, 0.0, 0.0, 0.0, 0.0, 0.0, 0.0, 0.0, 0.0, 0.0, 1.698959057878004E9, 0.0, 2023-11-02 17:04:17.878
101.0, -187500.02235174447, 187500.0, 31579.796264147317, 27601.69984122513, 187500.0, 187500.0, -187500.02235174447, 30223.537114088194, -0.076, 0.976, -0.078, 192.0, 0.0, 0.0, 0.0, 0.0, 0.0, 0.0, 0.0, 0.0, 0.0, 1.6989590578780143E9, 0.0, 2023-11-02 17:04:17.878
102.0, -187500.02235174447, 187500.0, 31582.992563604425, 27605.387879060258, 187500.0, 187500.0, -187500.02235174447, 30225.012329222245, -0.076, 0.976, -0.078, 192.0, 0.0, 0.0, 0.0, 0.0, 0.0, 0.0, 0.0, 0.0, 0.0, 1.698959057878024E9, 0.0, 2023-11-02 17:04:17.878
103.0, -187500.02235174447, 187500.0, 31579.796264147317, 27600.246977835533, 187500.0, 187500.0, -187500.02235174447, 30219.69261404188, -0.076, 0.976, -0.078, 192.0, 0.0, 0.0, 0.0, 0.0, 0.0, 0.0, 0.0, 0.0, 0.0, 1.6989590578780348E9, 0.0, 2023-11-02 17:04:17.878
104.0, -187500.02235174447, 187500.0, 31584.646592694116, 27600.22462609108, 187500.0, 187500.0, -187500.02235174447, 30221.36899487603, -0.076, 0.976, -0.078, 192.0, 0.0, 0.0, 0.0, 0.0, 0.0, 0.0, 0.0, 0.0, 0.0, 1.698959057878045E9, 0.0, 2023-11-02 17:04:17.878
105.0, -187500.02235174447, 187500.0, 31590.97213637497, 27598.97292840158, 187500.0, 187500.0, -187500.02235174447, 30223.000672221267, -0.076, 0.976, -0.078, 192.0, 0.0, 0.0, 0.0, 0.0, 0.0, 0.0, 0.0, 0.0, 0.0, 1.698959057878108E9, 0.0, 2023-11-02 17:04:17.878
106.0, -187500.02235174447, 187500.0, 31595.911871899592, 27598.12356211228, 187500.0, 187500.0, -187500.02235174447, 30225.325253644616, -0.076, 0.976, -0.078, 192.0, 0.0, 0.0, 0.0, 0.0, 0.0, 0.0, 0.0, 0.0, 0.0, 1.6989590578781192E9, 0.0, 2023-11-02 17:04:17.878
107.0, -187500.02235174447, 187500.0, 31596.91770040008, 27598.570597001388, 187500.0, 187500.0, -187500.02235174447, 30226.778117034213, -0.08, 0.978, -0.076, 192.0, 253.0, 128.0, 30.0, 144.0, 253.0, 160.0, 0.0, 0.0, 0.0, 1.698959057878148E9, 0.0, 2023-11-02 17:04:17.878
108.0, -187500.02235174447, 187500.0, 31592.91673814258, 27600.805771446918, 187500.0, 187500.0, -187500.02235174447, 30226.800468778667, -0.08, 0.978, -0.076, 192.0, 0.0, 0.0, 0.0, 0.0, 0.0, 0.0, 0.0, 0.0, 0.0, 1.6989590578781784E9, 0.0, 2023-11-02 17:04:17.878
109.0, -187500.02235174447, 187500.0, 31585.78653166134, 27594.32376555488, 187500.0, 187500.0, -187500.02235174447, 30222.039547209686, -0.08, 0.978, -0.076, 192.0, 0.0, 0.0, 0.0, 0.0, 0.0, 0.0, 0.0, 0.0, 0.0, 1.6989590578782067E9, 0.0, 2023-11-02 17:04:17.878
110.0, -187500.02235174447, 187500.0, 31586.72530492846, 27590.725134697575, 187500.0, 187500.0, -187500.02235174447, 30224.27472165522, -0.08, 0.978, -0.076, 192.0, 0.0, 0.0, 0.0, 0.0, 0.0, 0.0, 0.0, 0.0, 0.0, 1.698959057878217E9, 0.0, 2023-11-02 17:04:17.878
111.0, -187500.02235174447, 187500.0, 31583.551357215805, 27590.881596908763, 187500.0, 187500.0, -187500.02235174447, 30224.07355595512, -0.08, 0.978, -0.076, 192.0, 0.0, 0.0, 0.0, 0.0, 0.0, 0.0, 0.0, 0.0, 0.0, 1.6989590578782272E9, 0.0, 2023-11-02 17:04:17.878
112.0, -187500.02235174447, 187500.0, 31576.689371668028, 27591.440390520143, 187500.0, 187500.0, -187500.02235174447, 30219.69261404188, -0.08, 0.978, -0.076, 192.0, 0.0, 0.0, 0.0, 0.0, 0.0, 0.0, 0.0, 0.0, 0.0, 1.69895905787824E9, 0.0, 2023-11-02 17:04:17.878
113.0, -187500.02235174447, 187500.0, 31569.73797914243, 27589.78636143045, 187500.0, 187500.0, -187500.02235174447, 30217.27862564071, -0.08, 0.978, -0.076, 192.0, 0.0, 0.0, 0.0, 0.0, 0.0, 0.0, 0.0, 0.0, 0.0, 1.69895905787825E9, 0.0, 2023-11-02 17:04:17.878
114.0, -187500.02235174447, 187500.0, 31561.132557527133, 27583.61727996079, 187500.0, 187500.0, -187500.02235174447, 30212.830628494103, -0.08, 0.978, -0.076, 192.0, 0.0, 0.0, 0.0, 0.0, 0.0, 0.0, 0.0, 0.0, 0.0, 1.6989590578782597E9, 0.0, 2023-11-02 17:04:17.878
115.0, -187500.02235174447, 187500.0, 31560.30554298229, 27585.047791605928, 187500.0, 187500.0, -187500.02235174447, 30215.110506428544, -0.08, 0.978, -0.076, 192.0, 0.0, 0.0, 0.0, 0.0, 0.0, 0.0, 0.0, 0.0, 0.0, 1.6989590578782697E9, 0.0, 2023-11-02 17:04:17.878
116.0, -187500.02235174447, 187500.0, 31560.126729026644, 27588.333498040858, 187500.0, 187500.0, -187500.02235174447, 30215.959872717845, -0.08, 0.978, -0.076, 192.0, 0.0, 0.0, 0.0, 0.0, 0.0, 0.0, 0.0, 0.0, 0.0, 1.69895905787828E9, 0.0, 2023-11-02 17:04:17.878
117.0, -187500.02235174447, 187500.0, 31562.138386027622, 27592.22270157608, 187500.0, 187500.0, -187500.02235174447, 30218.195047163375, -0.078, 0.97, -0.082, 192.0, 253.0, 144.0, 30.0, 80.0, 253.0, 112.0, 0.0, 0.0, 0.0, 1.6989590578782897E9, 0.0, 2023-11-02 17:04:17.878
118.0, -187500.02235174447, 187500.0, 31564.887650595625, 27589.3616782858, 187500.0, 187500.0, -187500.02235174447, 30219.916131486432, -0.078, 0.97, -0.082, 192.0, 0.0, 0.0, 0.0, 0.0, 0.0, 0.0, 0.0, 0.0, 0.0, 1.6989590578783004E9, 0.0, 2023-11-02 17:04:17.878
119.0, -187500.02235174447, 187500.0, 31568.95566808649, 27587.819407918385, 187500.0, 187500.0, -187500.02235174447, 30222.710099543347, -0.078, 0.97, -0.082, 192.0, 0.0, 0.0, 0.0, 0.0, 0.0, 0.0, 0.0, 0.0, 0.0, 1.6989590578783104E9, 0.0, 2023-11-02 17:04:17.878
120.0, -187500.02235174447, 187500.0, 31571.97315358796, 27586.88063465126, 187500.0, 187500.0, -187500.02235174447, 30224.74410828878, -0.078, 0.97, -0.082, 192.0, 0.0, 0.0, 0.0, 0.0, 0.0, 0.0, 0.0, 0.0, 0.0, 1.6989590578783336E9, 0.0, 2023-11-02 17:04:17.878
121.0, -187500.02235174447, 187500.0, 31571.77198788786, 27586.83593116235, 187500.0, 187500.0, -187500.02235174447, 30223.090079199086, -0.078, 0.97, -0.082, 192.0, 0.0, 0.0, 0.0, 0.0, 0.0, 0.0, 0.0, 0.0, 0.0, 1.698959057878344E9, 0.0, 2023-11-02 17:04:17.878
122.0, -187500.02235174447, 187500.0, 31573.090740810723, 27583.79609391643, 187500.0, 187500.0, -187500.02235174447, 30222.64304430998, -0.078, 0.97, -0.082, 192.0, 0.0, 0.0, 0.0, 0.0, 0.0, 0.0, 0.0, 0.0, 0.0, 1.6989590579047277E9, 0.0, 2023-11-02 17:04:17.904
123.0, -187500.02235174447, 187500.0, 31580.62327869216, 27584.377239272268, 187500.0, 187500.0, -187500.02235174447, 30226.599303078572, -0.078, 0.97, -0.082, 192.0, 0.0, 0.0, 0.0, 0.0, 0.0, 0.0, 0.0, 0.0, 0.0, 1.6989590579048014E9, 0.0, 2023-11-02 17:04:17.904
124.0, -187500.02235174447, 187500.0, 31587.01587760638, 27589.674602708175, 187500.0, 187500.0, -187500.02235174447, 30230.510858358248, -0.078, 0.97, -0.082, 192.0, 0.0, 0.0, 0.0, 0.0, 0.0, 0.0, 0.0, 0.0, 0.0, 1.698959057904817E9, 0.0, 2023-11-02 17:04:17.904
125.0, -187500.02235174447, 187500.0, 31587.26174679539, 27593.988489388048, 187500.0, 187500.0, -187500.02235174447, 30229.34856764657, -0.078, 0.97, -0.082, 192.0, 0.0, 0.0, 0.0, 0.0, 0.0, 0.0, 0.0, 0.0, 0.0, 1.6989590579048328E9, 0.0, 2023-11-02 17:04:17.904
126.0, -187500.02235174447, 187500.0, 31577.49403446842, 27584.533701483455, 187500.0, 187500.0, -187500.02235174447, 30219.35733787505, -0.078, 0.97, -0.082, 192.0, 0.0, 0.0, 0.0, 0.0, 0.0, 0.0, 0.0, 0.0, 0.0, 1.6989590579048505E9, 0.0, 2023-11-02 17:04:17.904
127.0, -187500.02235174447, 187500.0, 31572.800168132806, 27573.69310542263, 187500.0, 187500.0, -187500.02235174447, 30218.105640185553, -0.082, 0.984, -0.07200000000000001, 192.0, 253.0, 112.0, 30.0, 192.0, 253.0, 192.0, 0.0, 0.0, 0.0, 1.698959057904894E9, 0.0, 2023-11-02 17:04:17.904
128.0, -187500.02235174447, 187500.0, 31570.743807642917, 27577.537605468944, 187500.0, 187500.0, -187500.02235174447, 30222.17365767642, -0.082, 0.984, -0.07200000000000001, 192.0, 0.0, 0.0, 0.0, 0.0, 0.0, 0.0, 0.0, 0.0, 0.0, 1.6989590583763115E9, 0.0, 2023-11-02 17:04:18.376
129.0, -187500.02235174447, 187500.0, 31568.10630179719, 27585.248957306023, 187500.0, 187500.0, -187500.02235174447, 30227.783945534702, -0.082, 0.984, -0.07200000000000001, 192.0, 0.0, 0.0, 0.0, 0.0, 0.0, 0.0, 0.0, 0.0, 0.0, 1.698959058376408E9, 0.0, 2023-11-02 17:04:18.376
130.0, -187500.02235174447, 187500.0, 31562.563069172273, 27586.32184103988, 187500.0, 187500.0, -187500.02235174447, 30228.834477524102, -0.082, 0.984, -0.07200000000000001, 192.0, 0.0, 0.0, 0.0, 0.0, 0.0, 0.0, 0.0, 0.0, 0.0, 1.698959058376422E9, 0.0, 2023-11-02 17:04:18.376
131.0, -187500.02235174447, 187500.0, 31555.924601069048, 27583.639631705242, 187500.0, 187500.0, -187500.02235174447, 30224.989977477788, -0.082, 0.984, -0.07200000000000001, 192.0, 0.0, 0.0, 0.0, 0.0, 0.0, 0.0, 0.0, 0.0, 0.0, 1.698959058376434E9, 0.0, 2023-11-02 17:04:18.376
132.0, -187500.02235174447, 187500.0, 31549.844926577203, 27585.45012300612, 187500.0, 187500.0, -187500.02235174447, 30222.084250698597, -0.082, 0.984, -0.07200000000000001, 192.0, 0.0, 0.0, 0.0, 0.0, 0.0, 0.0, 0.0, 0.0, 0.0, 1.6989590583764472E9, 0.0, 2023-11-02 17:04:18.376
133.0, -187500.02235174447, 187500.0, 31540.054862505778, 27587.662945707198, 187500.0, 187500.0, -187500.02235174447, 30216.250445395763, -0.082, 0.984, -0.07200000000000001, 192.0, 0.0, 0.0, 0.0, 0.0, 0.0, 0.0, 0.0, 0.0, 0.0, 1.6989590583765128E9, 0.0, 2023-11-02 17:04:18.376
134.0, -187500.02235174447, 187500.0, 31531.494144379398, 27585.494826495033, 187500.0, 187500.0, -187500.02235174447, 30213.32236687212, -0.082, 0.984, -0.07200000000000001, 192.0, 0.0, 0.0, 0.0, 0.0, 0.0, 0.0, 0.0, 0.0, 0.0, 1.6989590583765252E9, 0.0, 2023-11-02 17:04:18.376
135.0, -187500.02235174447, 187500.0, 31527.62729258863, 27584.734867183553, 187500.0, 187500.0, -187500.02235174447, 30215.26696863973, -0.082, 0.984, -0.07200000000000001, 192.0, 0.0, 0.0, 0.0, 0.0, 0.0, 0.0, 0.0, 0.0, 0.0, 1.6989590583766315E9, 0.0, 2023-11-02 17:04:18.376
136.0, -187500.02235174447, 187500.0, 31529.23661818941, 27587.70764919611, 187500.0, 187500.0, -187500.02235174447, 30221.391346620483, -0.082, 0.984, -0.07200000000000001, 192.0, 0.0, 0.0, 0.0, 0.0, 0.0, 0.0, 0.0, 0.0, 0.0, 1.6989590583766427E9, 0.0, 2023-11-02 17:04:18.376
137.0, -187500.02235174447, 187500.0, 31533.058766491267, 27594.4131725327, 187500.0, 187500.0, -187500.02235174447, 30226.845172267578, -0.066, 0.974, -0.068, 192.0, 253.0, 240.0, 30.0, 112.0, 253.0, 224.0, 0.0, 0.0, 0.0, 1.6989590583766527E9, 0.0, 2023-11-02 17:04:18.376
138.0, -187500.02235174447, 187500.0, 31525.28035942082, 27591.59685273133, 187500.0, 187500.0, -187500.02235174447, 30221.860733254045, -0.066, 0.974, -0.068, 192.0, 0.0, 0.0, 0.0, 0.0, 0.0, 0.0, 0.0, 0.0, 0.0, 1.698959058376664E9, 0.0, 2023-11-02 17:04:18.376
139.0, -187500.02235174447, 187500.0, 31527.828458288728, 27588.422905018677, 187500.0, 187500.0, -187500.02235174447, 30223.671224554924, -0.066, 0.974, -0.068, 192.0, 0.0, 0.0, 0.0, 0.0, 0.0, 0.0, 0.0, 0.0, 0.0, 1.698959058376674E9, 0.0, 2023-11-02 17:04:18.376
140.0, -187500.02235174447, 187500.0, 31532.187048457512, 27588.13233234076, 187500.0, 187500.0, -187500.02235174447, 30225.481715855803, -0.066, 0.974, -0.068, 192.0, 0.0, 0.0, 0.0, 0.0, 0.0, 0.0, 0.0, 0.0, 0.0, 1.6989590583766887E9, 0.0, 2023-11-02 17:04:18.376
141.0, -187500.02235174447, 187500.0, 31535.38334791462, 27588.042925362937, 187500.0, 187500.0, -187500.02235174447, 30225.571122833626, -0.066, 0.974, -0.068, 192.0, 0.0, 0.0, 0.0, 0.0, 0.0, 0.0, 0.0, 0.0, 0.0, 1.698959058376702E9, 0.0, 2023-11-02 17:04:18.376
142.0, -187500.02235174447, 187500.0, 31537.082080493223, 27587.484131751557, 187500.0, 187500.0, -187500.02235174447, 30225.347605389074, -0.066, 0.974, -0.068, 192.0, 0.0, 0.0, 0.0, 0.0, 0.0, 0.0, 0.0, 0.0, 0.0, 1.6989590583767354E9, 0.0, 2023-11-02 17:04:18.376
143.0, -187500.02235174447, 187500.0, 31543.63114161863, 27584.913681139195, 187500.0, 187500.0, -187500.02235174447, 30229.572085091128, -0.066, 0.974, -0.068, 192.0, 0.0, 0.0, 0.0, 0.0, 0.0, 0.0, 0.0, 0.0, 0.0, 1.6989590583767452E9, 0.0, 2023-11-02 17:04:18.376
144.0, -187500.02235174447, 187500.0, 31540.859525306172, 27580.845663648328, 187500.0, 187500.0, -187500.02235174447, 30226.867524012036, -0.066, 0.974, -0.068, 192.0, 0.0, 0.0, 0.0, 0.0, 0.0, 0.0, 0.0, 0.0, 0.0, 1.6989590583767557E9, 0.0, 2023-11-02 17:04:18.376
145.0, -187500.02235174447, 187500.0, 31544.748728841394, 27578.36462001379, 187500.0, 187500.0, -187500.02235174447, 30229.46032636885, -0.066, 0.974, -0.068, 192.0, 0.0, 0.0, 0.0, 0.0, 0.0, 0.0, 0.0, 0.0, 0.0, 1.6989590583767664E9, 0.0, 2023-11-02 17:04:18.376
146.0, -187500.02235174447, 187500.0, 31552.795356845305, 27584.332535783356, 187500.0, 187500.0, -187500.02235174447, 30236.277608427717, -0.066, 0.974, -0.068, 192.0, 0.0, 0.0, 0.0, 0.0, 0.0, 0.0, 0.0, 0.0, 0.0, 1.6989590583767931E9, 0.0, 2023-11-02 17:04:18.376
147.0, -187500.02235174447, 187500.0, 31557.131595269635, 27583.729038683065, 187500.0, 187500.0, -187500.02235174447, 30237.61871309504, -0.084, 0.982, -0.066, 192.0, 253.0, 96.0, 30.0, 176.0, 253.0, 240.0, 0.0, 0.0, 0.0, 1.6989590583768036E9, 0.0, 2023-11-02 17:04:18.376
148.0, -187500.02235174447, 187500.0, 31564.10533953969, 27583.03613460495, 187500.0, 187500.0, -187500.02235174447, 30240.971474763333, -0.084, 0.982, -0.066, 192.0, 0.0, 0.0, 0.0, 0.0, 0.0, 0.0, 0.0, 0.0, 0.0, 1.6989590583768144E9, 0.0, 2023-11-02 17:04:18.376
149.0, -187500.02235174447, 187500.0, 31563.367731972663, 27581.13623632625, 187500.0, 187500.0, -187500.02235174447, 30237.730471817315, -0.084, 0.982, -0.066, 192.0, 0.0, 0.0, 0.0, 0.0, 0.0, 0.0, 0.0, 0.0, 0.0, 1.698959058376825E9, 0.0, 2023-11-02 17:04:18.376
150.0, -187500.02235174447, 187500.0, 31556.706912124984, 27575.235375790046, 187500.0, 187500.0, -187500.02235174447, 30228.70036705737, -0.084, 0.982, -0.066, 192.0, 0.0, 0.0, 0.0, 0.0, 0.0, 0.0, 0.0, 0.0, 0.0, 1.6989590583768687E9, 0.0, 2023-11-02 17:04:18.376
151.0, -187500.02235174447, 187500.0, 31563.14421452811, 27573.715457167087, 187500.0, 187500.0, -187500.02235174447, 30231.092003714086, -0.084, 0.982, -0.066, 192.0, 0.0, 0.0, 0.0, 0.0, 0.0, 0.0, 0.0, 0.0, 0.0, 1.698959058376879E9, 0.0, 2023-11-02 17:04:18.376
152.0, -187500.02235174447, 187500.0, 31573.716589655472, 27578.185806058147, 187500.0, 187500.0, -187500.02235174447, 30239.250390440273, -0.084, 0.982, -0.066, 192.0, 0.0, 0.0, 0.0, 0.0, 0.0, 0.0, 0.0, 0.0, 0.0, 1.6989590583768923E9, 0.0, 2023-11-02 17:04:18.376
153.0, -187500.02235174447, 187500.0, 31572.24137452142, 27575.92827986816, 187500.0, 187500.0, -187500.02235174447, 30235.56235260515, -0.084, 0.982, -0.066, 192.0, 0.0, 0.0, 0.0, 0.0, 0.0, 0.0, 0.0, 0.0, 0.0, 1.6989590583769035E9, 0.0, 2023-11-02 17:04:18.376
154.0, -187500.02235174447, 187500.0, 31570.09560705371, 27573.424884489166, 187500.0, 187500.0, -187500.02235174447, 30231.69550081438, -0.084, 0.982, -0.066, 192.0, 0.0, 0.0, 0.0, 0.0, 0.0, 0.0, 0.0, 0.0, 0.0, 1.6989590583769147E9, 0.0, 2023-11-02 17:04:18.376
155.0, -187500.02235174447, 187500.0, 31564.842947106714, 27565.69118090763, 187500.0, 187500.0, -187500.02235174447, 30225.571122833626, -0.084, 0.982, -0.066, 192.0, 0.0, 0.0, 0.0, 0.0, 0.0, 0.0, 0.0, 0.0, 0.0, 1.6989590583769293E9, 0.0, 2023-11-02 17:04:18.376
156.0, -187500.02235174447, 187500.0, 31563.837118606225, 27558.158643026192, 187500.0, 187500.0, -187500.02235174447, 30223.17948617691, -0.084, 0.982, -0.066, 192.0, 0.0, 0.0, 0.0, 0.0, 0.0, 0.0, 0.0, 0.0, 0.0, 1.6989590583769426E9, 0.0, 2023-11-02 17:04:18.376
157.0, -187500.02235174447, 187500.0, 31560.976095315946, 27554.247087746513, 187500.0, 187500.0, -187500.02235174447, 30220.653739053458, -0.09, 0.978, -0.062, 192.0, 253.0, 48.0, 30.0, 144.0, 254.0, 16.0, 0.0, 0.0, 0.0, 1.698959058376956E9, 0.0, 2023-11-02 17:04:18.376
158.0, -187500.02235174447, 187500.0, 31557.042188291813, 27557.465738948078, 187500.0, 187500.0, -187500.02235174447, 30217.0327564517, -0.09, 0.978, -0.062, 192.0, 0.0, 0.0, 0.0, 0.0, 0.0, 0.0, 0.0, 0.0, 0.0, 1.698959058376972E9, 0.0, 2023-11-02 17:04:18.376
159.0, -187500.02235174447, 187500.0, 31560.52906042684, 27566.98758208604, 187500.0, 187500.0, -187500.02235174447, 30224.900570499965, -0.09, 0.978, -0.062, 192.0, 0.0, 0.0, 0.0, 0.0, 0.0, 0.0, 0.0, 0.0, 0.0, 1.698959058376984E9, 0.0, 2023-11-02 17:04:18.376
160.0, -187500.02235174447, 187500.0, 31562.138386027622, 27567.524023952967, 187500.0, 187500.0, -187500.02235174447, 30229.34856764657, -0.09, 0.978, -0.062, 192.0, 0.0, 0.0, 0.0, 0.0, 0.0, 0.0, 0.0, 0.0, 0.0, 1.6989590583769953E9, 0.0, 2023-11-02 17:04:18.376
161.0, -187500.02235174447, 187500.0, 31560.596115660206, 27567.009933830494, 187500.0, 187500.0, -187500.02235174447, 30227.35926239005, -0.09, 0.978, -0.062, 192.0, 0.0, 0.0, 0.0, 0.0, 0.0, 0.0, 0.0, 0.0, 0.0, 1.69895905837701E9, 0.0, 2023-11-02 17:04:18.377
162.0, -187500.02235174447, 187500.0, 31557.265705736365, 27564.528890195954, 187500.0, 187500.0, -187500.02235174447, 30223.7829832772, -0.09, 0.978, -0.062, 192.0, 0.0, 0.0, 0.0, 0.0, 0.0, 0.0, 0.0, 0.0, 0.0, 1.6989590583770213E9, 0.0, 2023-11-02 17:04:18.377
163.0, -187500.02235174447, 187500.0, 31555.38815920212, 27562.539584939434, 187500.0, 187500.0, -187500.02235174447, 30222.77715477671, -0.09, 0.978, -0.062, 192.0, 0.0, 0.0, 0.0, 0.0, 0.0, 0.0, 0.0, 0.0, 0.0, 1.698959058377033E9, 0.0, 2023-11-02 17:04:18.377
164.0, -187500.02235174447, 187500.0, 31552.884763823127, 27557.93512558164, 187500.0, 187500.0, -187500.02235174447, 30220.98901522029, -0.09, 0.978, -0.062, 192.0, 0.0, 0.0, 0.0, 0.0, 0.0, 0.0, 0.0, 0.0, 0.0, 1.6989590583770452E9, 0.0, 2023-11-02 17:04:18.377
165.0, -187500.02235174447, 187500.0, 31552.504784167384, 27556.88459359224, 187500.0, 187500.0, -187500.02235174447, 30221.458401853848, -0.09, 0.978, -0.062, 192.0, 0.0, 0.0, 0.0, 0.0, 0.0, 0.0, 0.0, 0.0, 0.0, 1.6989590583770888E9, 0.0, 2023-11-02 17:04:18.377
166.0, -187500.02235174447, 187500.0, 31548.59322888771, 27562.65134366171, 187500.0, 187500.0, -187500.02235174447, 30218.955006474855, -0.09, 0.978, -0.062, 192.0, 0.0, 0.0, 0.0, 0.0, 0.0, 0.0, 0.0, 0.0, 0.0, 1.698959058377103E9, 0.0, 2023-11-02 17:04:18.377
167.0, -187500.02235174447, 187500.0, 31543.541734640807, 27559.87972734925, 187500.0, 187500.0, -187500.02235174447, 30215.691651784382, -0.08600000000000001, 0.976, -0.068, 192.0, 253.0, 80.0, 30.0, 128.0, 253.0, 224.0, 0.0, 0.0, 0.0, 1.69895905837712E9, 0.0, 2023-11-02 17:04:18.377
168.0, -187500.02235174447, 187500.0, 31547.207420731476, 27561.489052950034, 187500.0, 187500.0, -187500.02235174447, 30219.469096597328, -0.08600000000000001, 0.976, -0.068, 192.0, 0.0, 0.0, 0.0, 0.0, 0.0, 0.0, 0.0, 0.0, 0.0, 1.698959058377139E9, 0.0, 2023-11-02 17:04:18.377
169.0, -187500.02235174447, 187500.0, 31547.54269689831, 27564.439483218135, 187500.0, 187500.0, -187500.02235174447, 30223.045375710175, -0.08600000000000001, 0.976, -0.068, 192.0, 0.0, 0.0, 0.0, 0.0, 0.0, 0.0, 0.0, 0.0, 0.0, 1.69895905837715E9, 0.0, 2023-11-02 17:04:18.377
170.0, -187500.02235174447, 187500.0, 31546.939199798013, 27563.07602680636, 187500.0, 187500.0, -187500.02235174447, 30222.486582098794, -0.08600000000000001, 0.976, -0.068, 192.0, 0.0, 0.0, 0.0, 0.0, 0.0, 0.0, 0.0, 0.0, 0.0, 1.6989590583771644E9, 0.0, 2023-11-02 17:04:18.377
171.0, -187500.02235174447, 187500.0, 31548.90615331008, 27569.714494909585, 187500.0, 187500.0, -187500.02235174447, 30225.45936411135, -0.08600000000000001, 0.976, -0.068, 192.0, 0.0, 0.0, 0.0, 0.0, 0.0, 0.0, 0.0, 0.0, 0.0, 1.69895905837718E9, 0.0, 2023-11-02 17:04:18.377
172.0, -187500.02235174447, 187500.0, 31550.649589377594, 27572.575518199865, 187500.0, 187500.0, -187500.02235174447, 30228.141573445988, -0.08600000000000001, 0.976, -0.068, 192.0, 0.0, 0.0, 0.0, 0.0, 0.0, 0.0, 0.0, 0.0, 0.0, 1.698959058377201E9, 0.0, 2023-11-02 17:04:18.377
173.0, -187500.02235174447, 187500.0, 31552.929467312035, 27574.207195545103, 187500.0, 187500.0, -187500.02235174447, 30232.343701403584, -0.08600000000000001, 0.976, -0.068, 192.0, 0.0, 0.0, 0.0, 0.0, 0.0, 0.0, 0.0, 0.0, 0.0, 1.698959058377222E9, 0.0, 2023-11-02 17:04:18.377
174.0, -187500.02235174447, 187500.0, 31550.135499255124, 27573.60369844481, 187500.0, 187500.0, -187500.02235174447, 30231.762556047746, -0.08600000000000001, 0.976, -0.068, 192.0, 0.0, 0.0, 0.0, 0.0, 0.0, 0.0, 0.0, 0.0, 0.0, 1.6989590583772385E9, 0.0, 2023-11-02 17:04:18.377
175.0, -187500.02235174447, 187500.0, 31549.308484710276, 27576.84470139083, 187500.0, 187500.0, -187500.02235174447, 30231.44963162537, -0.08600000000000001, 0.976, -0.068, 192.0, 0.0, 0.0, 0.0, 0.0, 0.0, 0.0, 0.0, 0.0, 0.0, 1.6989590583772595E9, 0.0, 2023-11-02 17:04:18.377
176.0, -187500.02235174447, 187500.0, 31549.24142947691, 27578.766951413985, 187500.0, 187500.0, -187500.02235174447, 30233.617750837537, -0.076, 0.974, -0.07, 192.0, 253.0, 160.0, 30.0, 112.0, 253.0, 208.0, 0.0, 0.0, 0.0, 1.6989590583772864E9, 0.0, 2023-11-02 17:04:18.377
177.0, -187500.02235174447, 187500.0, 31546.76038584237, 27573.581346700354, 187500.0, 187500.0, -187500.02235174447, 30231.673149069924, -0.076, 0.974, -0.07, 192.0, 0.0, 0.0, 0.0, 0.0, 0.0, 0.0, 0.0, 0.0, 0.0, 1.6989590583773158E9, 0.0, 2023-11-02 17:04:18.377
178.0, -187500.02235174447, 187500.0, 31544.704025352483, 27570.6085646878, 187500.0, 187500.0, -187500.02235174447, 30231.40492813646, -0.076, 0.974, -0.07, 192.0, 0.0, 0.0, 0.0, 0.0, 0.0, 0.0, 0.0, 0.0, 0.0, 1.6989590583773355E9, 0.0, 2023-11-02 17:04:18.377
179.0, -187500.02235174447, 187500.0, 31544.01112127437, 27574.296602522925, 187500.0, 187500.0, -187500.02235174447, 30233.438936881896, -0.076, 0.974, -0.07, 192.0, 0.0, 0.0, 0.0, 0.0, 0.0, 0.0, 0.0, 0.0, 0.0, 1.6989590583773603E9, 0.0, 2023-11-02 17:04:18.377
180.0, -187500.02235174447, 187500.0, 31541.57478112874, 27575.883576379252, 187500.0, 187500.0, -187500.02235174447, 30232.74603280378, -0.076, 0.974, -0.07, 192.0, 0.0, 0.0, 0.0, 0.0, 0.0, 0.0, 0.0, 0.0, 0.0, 1.6989590583773808E9, 0.0, 2023-11-02 17:04:18.377
181.0, -187500.02235174447, 187500.0, 31536.165658970556, 27571.83791063284, 187500.0, 187500.0, -187500.02235174447, 30228.655663568457, -0.076, 0.974, -0.07, 192.0, 0.0, 0.0, 0.0, 0.0, 0.0, 0.0, 0.0, 0.0, 0.0, 1.6989590583774557E9, 0.0, 2023-11-02 17:04:18.377
182.0, -187500.02235174447, 187500.0, 31536.23271420392, 27574.184843800645, 187500.0, 187500.0, -187500.02235174447, 30231.65079732547, -0.076, 0.974, -0.07, 192.0, 0.0, 0.0, 0.0, 0.0, 0.0, 0.0, 0.0, 0.0, 0.0, 1.6989590583774867E9, 0.0, 2023-11-02 17:04:18.377
183.0, -187500.02235174447, 187500.0, 31534.422222903042, 27581.002125859515, 187500.0, 187500.0, -187500.02235174447, 30231.740204303293, -0.076, 0.974, -0.07, 192.0, 0.0, 0.0, 0.0, 0.0, 0.0, 0.0, 0.0, 0.0, 0.0, 1.6989590583775053E9, 0.0, 2023-11-02 17:04:18.377
184.0, -187500.02235174447, 187500.0, 31528.946045511493, 27582.03030610446, 187500.0, 187500.0, -187500.02235174447, 30228.74507054628, -0.076, 0.974, -0.07, 192.0, 0.0, 0.0, 0.0, 0.0, 0.0, 0.0, 0.0, 0.0, 0.0, 1.6989590583775492E9, 0.0, 2023-11-02 17:04:18.377
185.0, -187500.02235174447, 187500.0, 31522.598150086185, 27575.07891357886, 187500.0, 187500.0, -187500.02235174447, 30224.677053055413, -0.076, 0.974, -0.07, 192.0, 0.0, 0.0, 0.0, 0.0, 0.0, 0.0, 0.0, 0.0, 0.0, 1.6989590583775718E9, 0.0, 2023-11-02 17:04:18.377
186.0, -187500.02235174447, 187500.0, 31525.14624895409, 27576.04003859044, 187500.0, 187500.0, -187500.02235174447, 30228.454497868363, -0.07, 0.982, -0.07200000000000001, 192.0, 253.0, 208.0, 30.0, 176.0, 253.0, 192.0, 0.0, 0.0, 0.0, 1.6989590583776076E9, 0.0, 2023-11-02 17:04:18.377
187.0, -187500.02235174447, 187500.0, 31524.3415861537, 27575.16832055668, 187500.0, 187500.0, -187500.02235174447, 30230.712024058346, -0.07, 0.982, -0.07200000000000001, 192.0, 0.0, 0.0, 0.0, 0.0, 0.0, 0.0, 0.0, 0.0, 0.0, 1.6989590583776457E9, 0.0, 2023-11-02 17:04:18.377
188.0, -187500.02235174447, 187500.0, 31523.112240208655, 27576.375314757268, 187500.0, 187500.0, -187500.02235174447, 30229.303864157664, -0.07, 0.982, -0.07200000000000001, 192.0, 0.0, 0.0, 0.0, 0.0, 0.0, 0.0, 0.0, 0.0, 0.0, 1.698959058377668E9, 0.0, 2023-11-02 17:04:18.377
189.0, -187500.02235174447, 187500.0, 31524.028661731325, 27571.03324783245, 187500.0, 187500.0, -187500.02235174447, 30229.50502985776, -0.07, 0.982, -0.07200000000000001, 192.0, 0.0, 0.0, 0.0, 0.0, 0.0, 0.0, 0.0, 0.0, 0.0, 1.6989590583776836E9, 0.0, 2023-11-02 17:04:18.377
190.0, -187500.02235174447, 187500.0, 31523.514571608852, 27570.809730387897, 187500.0, 187500.0, -187500.02235174447, 30229.102698457566, -0.07, 0.982, -0.07200000000000001, 192.0, 0.0, 0.0, 0.0, 0.0, 0.0, 0.0, 0.0, 0.0, 0.0, 1.6989590583777113E9, 0.0, 2023-11-02 17:04:18.377
191.0, -187500.02235174447, 187500.0, 31526.867333277147, 27579.4598554921, 187500.0, 187500.0, -187500.02235174447, 30233.41658513744, -0.07, 0.982, -0.07200000000000001, 192.0, 0.0, 0.0, 0.0, 0.0, 0.0, 0.0, 0.0, 0.0, 0.0, 1.6989590583777337E9, 0.0, 2023-11-02 17:04:18.377
192.0, -187500.02235174447, 187500.0, 31527.58258909972, 27583.393762516233, 187500.0, 187500.0, -187500.02235174447, 30234.377710149016, -0.07, 0.982, -0.07200000000000001, 192.0, 0.0, 0.0, 0.0, 0.0, 0.0, 0.0, 0.0, 0.0, 0.0, 1.6989590583777547E9, 0.0, 2023-11-02 17:04:18.377
193.0, -187500.02235174447, 187500.0, 31528.275493177833, 27582.56674797139, 187500.0, 187500.0, -187500.02235174447, 30234.489468871292, -0.07, 0.982, -0.07200000000000001, 192.0, 0.0, 0.0, 0.0, 0.0, 0.0, 0.0, 0.0, 0.0, 0.0, 1.698959058377772E9, 0.0, 2023-11-02 17:04:18.377
194.0, -187500.02235174447, 187500.0, 31531.96353101296, 27582.678506693665, 187500.0, 187500.0, -187500.02235174447, 30236.232904938806, -0.07, 0.982, -0.07200000000000001, 192.0, 0.0, 0.0, 0.0, 0.0, 0.0, 0.0, 0.0, 0.0, 0.0, 1.698959058377791E9, 0.0, 2023-11-02 17:04:18.377
195.0, -187500.02235174447, 187500.0, 31536.992673515404, 27584.064314849893, 187500.0, 187500.0, -187500.02235174447, 30240.65855034096, -0.07, 0.982, -0.07200000000000001, 192.0, 0.0, 0.0, 0.0, 0.0, 0.0, 0.0, 0.0, 0.0, 0.0, 1.6989590583778129E9, 0.0, 2023-11-02 17:04:18.377
196.0, -187500.02235174447, 187500.0, 31538.266722949356, 27584.734867183553, 187500.0, 187500.0, -187500.02235174447, 30241.84319279709, -0.076, 0.988, -0.082, 192.0, 253.0, 160.0, 30.0, 224.0, 253.0, 112.0, 0.0, 0.0, 0.0, 1.6989590583779745E9, 0.0, 2023-11-02 17:04:18.377
197.0, -187500.02235174447, 187500.0, 31535.025720003334, 27576.64353569073, 187500.0, 187500.0, -187500.02235174447, 30237.75282356177, -0.076, 0.988, -0.082, 192.0, 0.0, 0.0, 0.0, 0.0, 0.0, 0.0, 0.0, 0.0, 0.0, 1.6989590583780253E9, 0.0, 2023-11-02 17:04:18.378
198.0, -187500.02235174447, 187500.0, 31539.630179361127, 27569.468625720576, 187500.0, 187500.0, -187500.02235174447, 30238.26691368424, -0.076, 0.988, -0.082, 192.0, 0.0, 0.0, 0.0, 0.0, 0.0, 0.0, 0.0, 0.0, 0.0, 1.6989590583780391E9, 0.0, 2023-11-02 17:04:18.378
199.0, -187500.02235174447, 187500.0, 31547.252124220387, 27570.161529798694, 187500.0, 187500.0, -187500.02235174447, 30244.54775387618, -0.076, 0.988, -0.082, 192.0, 0.0, 0.0, 0.0, 0.0, 0.0, 0.0, 0.0, 0.0, 0.0, 1.6989590583780572E9, 0.0, 2023-11-02 17:04:18.378
200.0, -187500.02235174447, 187500.0, 31552.169508000556, 27574.4083612452, 187500.0, 187500.0, -187500.02235174447, 30250.35920743456, -0.076, 0.988, -0.082, 192.0, 0.0, 0.0, 0.0, 0.0, 0.0, 0.0, 0.0, 0.0, 0.0, 1.6989590583780782E9, 0.0, 2023-11-02 17:04:18.378
201.0, -187500.02235174447, 187500.0, 31544.994598030404, 27570.563861198887, 187500.0, 187500.0, -187500.02235174447, 30245.17360272093, -0.076, 0.988, -0.082, 192.0, 0.0, 0.0, 0.0, 0.0, 0.0, 0.0, 0.0, 0.0, 0.0, 1.6989590583780975E9, 0.0, 2023-11-02 17:04:18.378
202.0, -187500.02235174447, 187500.0, 31541.597132873194, 27566.473491963567, 187500.0, 187500.0, -187500.02235174447, 30245.21830620984, -0.076, 0.988, -0.082, 192.0, 0.0, 0.0, 0.0, 0.0, 0.0, 0.0, 0.0, 0.0, 0.0, 1.698959058378122E9, 0.0, 2023-11-02 17:04:18.378
203.0, -187500.02235174447, 187500.0, 31537.774984571337, 27560.79614887192, 187500.0, 187500.0, -187500.02235174447, 30245.55358237667, -0.076, 0.988, -0.082, 192.0, 0.0, 0.0, 0.0, 0.0, 0.0, 0.0, 0.0, 0.0, 0.0, 1.698959058378141E9, 0.0, 2023-11-02 17:04:18.378
204.0, -187500.02235174447, 187500.0, 31537.327949682232, 27560.773797127462, 187500.0, 187500.0, -187500.02235174447, 30247.587591122105, -0.076, 0.988, -0.082, 192.0, 0.0, 0.0, 0.0, 0.0, 0.0, 0.0, 0.0, 0.0, 0.0, 1.6989590583781583E9, 0.0, 2023-11-02 17:04:18.378
205.0, -187500.02235174447, 187500.0, 31537.28324619332, 27562.807805872897, 187500.0, 187500.0, -187500.02235174447, 30250.850945812577, -0.076, 0.988, -0.082, 192.0, 0.0, 0.0, 0.0, 0.0, 0.0, 0.0, 0.0, 0.0, 0.0, 1.6989590583781748E9, 0.0, 2023-11-02 17:04:18.378
206.0, -187496.89310752074, 187500.0, 31528.320196666744, 27555.901116836205, 187500.0, 187500.0, -187500.02235174447, 30245.330064932117, -0.078, 0.974, -0.076, 192.0, 253.0, 144.0, 30.0, 112.0, 253.0, 160.0, 0.0, 0.0, 0.0, 1.698959058378197E9, 0.0, 2023-11-02 17:04:18.378
207.0, -187500.02235174447, 187500.0, 31520.675900063026, 27545.820480086863, 187500.0, 187500.0, -187500.02235174447, 30239.384500907006, -0.078, 0.974, -0.076, 192.0, 0.0, 0.0, 0.0, 0.0, 0.0, 0.0, 0.0, 0.0, 0.0, 1.6989590583782196E9, 0.0, 2023-11-02 17:04:18.378
208.0, -187492.06513071837, 187500.0, 31516.607882572163, 27546.111052764783, 187500.0, 187500.0, -187500.02235174447, 30237.46225088385, -0.078, 0.974, -0.076, 192.0, 0.0, 0.0, 0.0, 0.0, 0.0, 0.0, 0.0, 0.0, 0.0, 1.6989590583782363E9, 0.0, 2023-11-02 17:04:18.378
209.0, -187390.85643182474, 187500.0, 31513.56804532624, 27539.763157339476, 187500.0, 187500.0, -187500.02235174447, 30235.227076438317, -0.078, 0.974, -0.076, 192.0, 0.0, 0.0, 0.0, 0.0, 0.0, 0.0, 0.0, 0.0, 0.0, 1.698959058378256E9, 0.0, 2023-11-02 17:04:18.378
210.0, -187309.78665468536, 187500.0, 31513.65745230406, 27532.476488647044, 187500.0, 187500.0, -187500.02235174447, 30236.098794472076, -0.078, 0.974, -0.076, 192.0, 0.0, 0.0, 0.0, 0.0, 0.0, 0.0, 0.0, 0.0, 0.0, 1.6989590583782752E9, 0.0, 2023-11-02 17:04:18.378
211.0, -187323.57768101429, 187500.0, 31515.04326046029, 27528.229657200536, 187500.0, 187500.0, -187500.02235174447, 30238.065747984143, -0.078, 0.974, -0.076, 192.0, 0.0, 0.0, 0.0, 0.0, 0.0, 0.0, 0.0, 0.0, 0.0, 1.6989590583783972E9, 0.0, 2023-11-02 17:04:18.378
212.0, -187306.52329999488, 187500.0, 31508.360088868154, 27522.418203642155, 187500.0, 187500.0, -187500.02235174447, 30231.293169414184, -0.078, 0.974, -0.076, 192.0, 0.0, 0.0, 0.0, 0.0, 0.0, 0.0, 0.0, 0.0, 0.0, 1.698959058378425E9, 0.0, 2023-11-02 17:04:18.378
213.0, -187187.61201949263, 187500.0, 31505.36495511114, 27514.036299471416, 187500.0, 187500.0, -187500.02235174447, 30224.74410828878, -0.078, 0.974, -0.076, 192.0, 0.0, 0.0, 0.0, 0.0, 0.0, 0.0, 0.0, 0.0, 0.0, 1.698959058378456E9, 0.0, 2023-11-02 17:04:18.378
214.0, -187084.12344266457, 187500.0, 31509.27651039082, 27509.25302615798, 187500.0, 187500.0, -187500.02235174447, 30224.721756544324, -0.078, 0.974, -0.076, 192.0, 0.0, 0.0, 0.0, 0.0, 0.0, 0.0, 0.0, 0.0, 0.0, 1.69895905837848E9, 0.0, 2023-11-02 17:04:18.378
215.0, -187096.9533439819, 187500.0, 31519.088926206703, 27511.48820060351, 187500.0, 187500.0, -187500.02235174447, 30228.901532757467, -0.078, 0.974, -0.076, 192.0, 0.0, 0.0, 0.0, 0.0, 0.0, 0.0, 0.0, 0.0, 0.0, 1.6989590583785002E9, 0.0, 2023-11-02 17:04:18.378
216.0, -187093.53352708026, 187500.0, 31514.752687782373, 27506.615520312254, 187500.0, 187500.0, -187500.02235174447, 30218.172695418918, -0.082, 0.974, -0.07200000000000001, 192.0, 253.0, 112.0, 30.0, 112.0, 253.0, 192.0, 0.0, 0.0, 0.0, 1.698959058378542E9, 0.0, 2023-11-02 17:04:18.378
217.0, -186998.82918582312, 187500.0, 31512.271644147833, 27498.703002775077, 187500.0, 187500.0, -187500.02235174447, 30211.02013719322, -0.082, 0.974, -0.07200000000000001, 192.0, 0.0, 0.0, 0.0, 0.0, 0.0, 0.0, 0.0, 0.0, 0.0, 1.6989590583785653E9, 0.0, 2023-11-02 17:04:18.378
218.0, -186904.08014107708, 187500.0, 31518.75365003987, 27498.747706263985, 187500.0, 187500.0, -187500.02235174447, 30212.584759305093, -0.082, 0.974, -0.07200000000000001, 192.0, 0.0, 0.0, 0.0, 0.0, 0.0, 0.0, 0.0, 0.0, 0.0, 1.6989590583785868E9, 0.0, 2023-11-02 17:04:18.378
219.0, -186897.7098939073, 187500.0, 31525.928560010027, 27498.390078352702, 187500.0, 187500.0, -187500.02235174447, 30212.31653837163, -0.082, 0.974, -0.07200000000000001, 192.0, 0.0, 0.0, 0.0, 0.0, 0.0, 0.0, 0.0, 0.0, 0.0, 1.6989590583786273E9, 0.0, 2023-11-02 17:04:18.378
220.0, -186941.11698163953, 187500.0, 31531.024757745836, 27500.692308031597, 187500.0, 187500.0, -187500.02235174447, 30210.70721277085, -0.082, 0.974, -0.07200000000000001, 192.0, 0.0, 0.0, 0.0, 0.0, 0.0, 0.0, 0.0, 0.0, 0.0, 1.6989590583786628E9, 0.0, 2023-11-02 17:04:18.378
221.0, -186904.23660328827, 187500.0, 31531.158868212566, 27500.20056965358, 187500.0, 187500.0, -187500.02235174447, 30204.73929700128, -0.082, 0.974, -0.07200000000000001, 192.0, 0.0, 0.0, 0.0, 0.0, 0.0, 0.0, 0.0, 0.0, 0.0, 1.6989590583786886E9, 0.0, 2023-11-02 17:04:18.378
222.0, -186814.02496266665, 187500.0, 31526.599112343683, 27493.182121894613, 187500.0, 187500.0, -187500.02235174447, 30200.090134154576, -0.082, 0.974, -0.07200000000000001, 192.0, 0.0, 0.0, 0.0, 0.0, 0.0, 0.0, 0.0, 0.0, 0.0, 1.698959058378712E9, 0.0, 2023-11-02 17:04:18.378
223.0, -186823.01036393768, 187500.0, 31525.213304187455, 27491.706906760563, 187500.0, 187500.0, -187500.02235174447, 30198.525512042706, -0.082, 0.974, -0.07200000000000001, 192.0, 0.0, 0.0, 0.0, 0.0, 0.0, 0.0, 0.0, 0.0, 0.0, 1.6989590583787515E9, 0.0, 2023-11-02 17:04:18.378
224.0, -186879.73909136525, 187500.0, 31520.318272151744, 27492.019831182937, 187500.0, 187500.0, -187500.02235174447, 30195.619785263516, -0.082, 0.974, -0.07200000000000001, 192.0, 0.0, 0.0, 0.0, 0.0, 0.0, 0.0, 0.0, 0.0, 0.0, 1.6989590583787732E9, 0.0, 2023-11-02 17:04:18.378
225.0, -186850.72652706224, 187500.0, 31512.94219648149, 27491.036354426906, 187500.0, 187500.0, -187500.02235174447, 30191.59647126156, -0.082, 0.974, -0.07200000000000001, 192.0, 0.0, 0.0, 0.0, 0.0, 0.0, 0.0, 0.0, 0.0, 0.0, 1.6989590583788037E9, 0.0, 2023-11-02 17:04:18.378
226.0, -186741.2253309757, 187500.0, 31508.85182724617, 27484.95667993506, 187500.0, 187500.0, -187500.02235174447, 30188.578985760094, -0.084, 0.972, -0.07200000000000001, 192.0, 253.0, 96.0, 30.0, 96.0, 253.0, 192.0, 0.0, 0.0, 0.0, 1.6989590583789933E9, 0.0, 2023-11-02 17:04:18.378
227.0, -186712.30217365053, 187500.0, 31510.57291156923, 27484.10731364576, 187500.0, 187500.0, -187500.02235174447, 30189.6742212384, -0.084, 0.972, -0.07200000000000001, 192.0, 0.0, 0.0, 0.0, 0.0, 0.0, 0.0, 0.0, 0.0, 0.0, 1.6989590583790264E9, 0.0, 2023-11-02 17:04:18.379
228.0, -186726.74140056866, 187500.0, 31507.0860394342, 27482.989726422995, 187500.0, 187500.0, -187500.02235174447, 30184.868596180513, -0.084, 0.972, -0.07200000000000001, 192.0, 0.0, 0.0, 0.0, 0.0, 0.0, 0.0, 0.0, 0.0, 0.0, 1.6989590583790495E9, 0.0, 2023-11-02 17:04:18.379
229.0, -186701.0145427006, 187500.0, 31509.76824876884, 27487.929461947617, 187500.0, 187500.0, -187500.02235174447, 30187.550805515148, -0.084, 0.972, -0.07200000000000001, 192.0, 0.0, 0.0, 0.0, 0.0, 0.0, 0.0, 0.0, 0.0, 0.0, 1.6989590583790703E9, 0.0, 2023-11-02 17:04:18.379
230.0, -186586.81948027844, 187500.0, 31511.310519136256, 27492.936252705607, 187500.0, 187500.0, -187500.02235174447, 30190.903567183446, -0.084, 0.972, -0.07200000000000001, 192.0, 0.0, 0.0, 0.0, 0.0, 0.0, 0.0, 0.0, 0.0, 0.0, 1.6989590583790827E9, 0.0, 2023-11-02 17:04:18.379
231.0, -186522.08882833587, 187500.0, 31517.34549013919, 27497.406601596667, 187500.0, 187500.0, -187500.02235174447, 30196.40209631945, -0.084, 0.972, -0.07200000000000001, 192.0, 0.0, 0.0, 0.0, 0.0, 0.0, 0.0, 0.0, 0.0, 0.0, 1.698959058379097E9, 0.0, 2023-11-02 17:04:18.379
232.0, -186535.83515117588, 187500.0, 31520.675900063026, 27495.484351573512, 187500.0, 187500.0, -187500.02235174447, 30196.44679980836, -0.084, 0.972, -0.07200000000000001, 192.0, 0.0, 0.0, 0.0, 0.0, 0.0, 0.0, 0.0, 0.0, 0.0, 1.6989590583791108E9, 0.0, 2023-11-02 17:04:18.379
233.0, -186522.44645624715, 187500.0, 31520.85471401867, 27494.500874817477, 187500.0, 187500.0, -187500.02235174447, 30193.58577651808, -0.084, 0.972, -0.07200000000000001, 192.0, 0.0, 0.0, 0.0, 0.0, 0.0, 0.0, 0.0, 0.0, 0.0, 1.6989590583791292E9, 0.0, 2023-11-02 17:04:18.379
234.0, -186412.2523560825, 187500.0, 31523.112240208655, 27486.186025880103, 187500.0, 187500.0, -187500.02235174447, 30189.204834604843, -0.084, 0.972, -0.07200000000000001, 192.0, 0.0, 0.0, 0.0, 0.0, 0.0, 0.0, 0.0, 0.0, 0.0, 1.6989590583791459E9, 0.0, 2023-11-02 17:04:18.379
235.0, -186351.5897216308, 187500.0, 31538.177315971534, 27488.82353172583, 187500.0, 187500.0, -187500.02235174447, 30196.178578874897, -0.084, 0.972, -0.07200000000000001, 192.0, 0.0, 0.0, 0.0, 0.0, 0.0, 0.0, 0.0, 0.0, 0.0, 1.6989590583791666E9, 0.0, 2023-11-02 17:04:18.379
236.0, -186365.47015493753, 187500.0, 31549.219077732454, 27489.024697425928, 187500.0, 187500.0, -187500.02235174447, 30199.620747521014, -0.096, 0.984, -0.068, 192.0, 253.0, 0.0, 30.0, 192.0, 253.0, 224.0, 0.0, 0.0, 0.0, 1.6989590583791864E9, 0.0, 2023-11-02 17:04:18.379
237.0, -186379.88703011122, 187500.0, 31557.44451969201, 27487.750647991976, 187500.0, 187500.0, -187500.02235174447, 30200.31365159913, -0.096, 0.984, -0.068, 192.0, 0.0, 0.0, 0.0, 0.0, 0.0, 0.0, 0.0, 0.0, 0.0, 1.6989590583792117E9, 0.0, 2023-11-02 17:04:18.379
238.0, -186297.1855756266, 187500.0, 31564.10533953969, 27485.873101457728, 187500.0, 187500.0, -187500.02235174447, 30199.151360887452, -0.096, 0.984, -0.068, 192.0, 0.0, 0.0, 0.0, 0.0, 0.0, 0.0, 0.0, 0.0, 0.0, 1.6989590583792298E9, 0.0, 2023-11-02 17:04:18.379
239.0, -186205.63283033765, 187500.0, 31574.118921055666, 27485.381363079712, 187500.0, 187500.0, -187500.02235174447, 30197.854959709046, -0.096, 0.984, -0.068, 192.0, 0.0, 0.0, 0.0, 0.0, 0.0, 0.0, 0.0, 0.0, 0.0, 1.6989590583792484E9, 0.0, 2023-11-02 17:04:18.379
240.0, -186212.13718797412, 187500.0, 31585.428903750053, 27484.464941557046, 187500.0, 187500.0, -187500.02235174447, 30198.34669808706, -0.096, 0.984, -0.068, 192.0, 0.0, 0.0, 0.0, 0.0, 0.0, 0.0, 0.0, 0.0, 0.0, 1.6989590583792899E9, 0.0, 2023-11-02 17:04:18.379
241.0, -186241.99911856643, 187500.0, 31589.720438685472, 27484.86727295724, 187500.0, 187500.0, -187500.02235174447, 30195.84330270807, -0.096, 0.984, -0.068, 192.0, 0.0, 0.0, 0.0, 0.0, 0.0, 0.0, 0.0, 0.0, 0.0, 1.6989590583793976E9, 0.0, 2023-11-02 17:04:18.379
242.0, -186165.42204206254, 187500.0, 31581.740865914926, 27480.329868832814, 187500.0, 187500.0, -187500.02235174447, 30186.723790970304, -0.096, 0.984, -0.068, 192.0, 0.0, 0.0, 0.0, 0.0, 0.0, 0.0, 0.0, 0.0, 0.0, 1.6989590583794367E9, 0.0, 2023-11-02 17:04:18.379
243.0, -186073.55637235122, 187500.0, 31576.018819334367, 27476.4853687865, 187500.0, 187500.0, -187500.02235174447, 30184.15334035794, -0.096, 0.984, -0.068, 192.0, 0.0, 0.0, 0.0, 0.0, 0.0, 0.0, 0.0, 0.0, 0.0, 1.69895905837945E9, 0.0, 2023-11-02 17:04:18.379
244.0, -186070.98592173887, 187500.0, 31574.409493733587, 27479.368743821236, 187500.0, 187500.0, -187500.02235174447, 30186.477921781294, -0.096, 0.984, -0.068, 192.0, 0.0, 0.0, 0.0, 0.0, 0.0, 0.0, 0.0, 0.0, 0.0, 1.6989590583794873E9, 0.0, 2023-11-02 17:04:18.379
245.0, -186074.0257589848, 187500.0, 31564.798243617803, 27483.123836889725, 187500.0, 187500.0, -187500.02235174447, 30185.78501770318, -0.096, 0.984, -0.068, 192.0, 0.0, 0.0, 0.0, 0.0, 0.0, 0.0, 0.0, 0.0, 0.0, 1.6989590583794975E9, 0.0, 2023-11-02 17:04:18.379
246.0, -186003.3495430171, 187500.0, 31560.68552263803, 27491.34927884928, 187500.0, 187500.0, -187500.02235174447, 30189.6742212384, -0.082, 0.964, -0.068, 192.0, 253.0, 112.0, 30.0, 32.0, 253.0, 224.0, 0.0, 0.0, 0.0, 1.6989590583795085E9, 0.0, 2023-11-02 17:04:18.379
247.0, -185869.5296489632, 187500.0, 31551.074272522244, 27498.032450441417, 187500.0, 187500.0, -187500.02235174447, 30191.55176777265, -0.082, 0.964, -0.068, 192.0, 0.0, 0.0, 0.0, 0.0, 0.0, 0.0, 0.0, 0.0, 0.0, 1.6989590583795192E9, 0.0, 2023-11-02 17:04:18.379
248.0, -185780.9943891757, 187500.0, 31536.992673515404, 27497.898339974683, 187500.0, 187500.0, -187500.02235174447, 30188.221357848808, -0.082, 0.964, -0.068, 192.0, 0.0, 0.0, 0.0, 0.0, 0.0, 0.0, 0.0, 0.0, 0.0, 1.6989590588556814E9, 0.0, 2023-11-02 17:04:18.855
249.0, -185735.70975490927, 187500.0, 31525.503876865376, 27497.183084152115, 187500.0, 187500.0, -187500.02235174447, 30186.54497701466, -0.082, 0.964, -0.068, 192.0, 0.0, 0.0, 0.0, 0.0, 0.0, 0.0, 0.0, 0.0, 0.0, 1.6989590588558264E9, 0.0, 2023-11-02 17:04:18.855
250.0, -185610.9199656153, 187500.0, 31512.09283019219, 27501.474619087534, 187500.0, 187500.0, -187500.02235174447, 30182.588718246072, -0.082, 0.964, -0.068, 192.0, 0.0, 0.0, 0.0, 0.0, 0.0, 0.0, 0.0, 0.0, 0.0, 1.6989590588558445E9, 0.0, 2023-11-02 17:04:18.855
251.0, -185396.34321884433, 187500.0, 31501.073420175722, 27502.323985376835, 187500.0, 187500.0, -187500.02235174447, 30178.677162966393, -0.082, 0.964, -0.068, 192.0, 0.0, 0.0, 0.0, 0.0, 0.0, 0.0, 0.0, 0.0, 0.0, 1.698959058855863E9, 0.0, 2023-11-02 17:04:18.855
252.0, -185237.60112972275, 187500.0, 31497.318327107234, 27495.976089951528, 187500.0, 187500.0, -187500.02235174447, 30177.917203654913, -0.082, 0.964, -0.068, 192.0, 0.0, 0.0, 0.0, 0.0, 0.0, 0.0, 0.0, 0.0, 0.0, 1.6989590588558743E9, 0.0, 2023-11-02 17:04:18.855
253.0, -185168.3554254002, 187500.0, 31497.13951315159, 27490.589319537798, 187500.0, 187500.0, -187500.02235174447, 30176.285526309675, -0.082, 0.964, -0.068, 192.0, 0.0, 0.0, 0.0, 0.0, 0.0, 0.0, 0.0, 0.0, 0.0, 1.6989590588558855E9, 0.0, 2023-11-02 17:04:18.855
254.0, -185055.25559845634, 187500.0, 31500.492274819884, 27491.617499782744, 187500.0, 187500.0, -187500.02235174447, 30176.956078643332, -0.082, 0.964, -0.068, 192.0, 0.0, 0.0, 0.0, 0.0, 0.0, 0.0, 0.0, 0.0, 0.0, 1.6989590588558972E9, 0.0, 2023-11-02 17:04:18.855
255.0, -184857.4426600269, 187500.0, 31506.0355074448, 27487.77299973643, 187500.0, 187500.0, -187500.02235174447, 30178.073665866097, -0.082, 0.964, -0.068, 192.0, 0.0, 0.0, 0.0, 0.0, 0.0, 0.0, 0.0, 0.0, 0.0, 1.6989590588559148E9, 0.0, 2023-11-02 17:04:18.855
0.0, -184711.3963617559, 187500.0, 31518.57483608423, 27483.39205782319, 187500.0, 187500.0, -187500.02235174447, 30185.270927580706, -0.068, 0.974, -0.074, 192.0, 253.0, 224.0, 30.0, 112.0, 253.0, 176.0, 0.0, 0.0, 0.0, 1.6989590588561444E9, 0.0, 2023-11-02 17:04:18.856
1.0, -184672.25845721466, 187500.0, 31530.778888556826, 27487.705944503065, 187500.0, 187500.0, -187500.02235174447, 30193.0269829067, -0.068, 0.974, -0.074, 192.0, 0.0, 0.0, 0.0, 0.0, 0.0, 0.0, 0.0, 0.0, 0.0, 1.6989590588561645E9, 0.0, 2023-11-02 17:04:18.856
2.0, -184596.1731190888, 187500.0, 31532.790545557804, 27485.91780494664, 187500.0, 187500.0, -187500.02235174447, 30190.68004973889, -0.068, 0.974, -0.074, 192.0, 0.0, 0.0, 0.0, 0.0, 0.0, 0.0, 0.0, 0.0, 0.0, 1.698959058856176E9, 0.0, 2023-11-02 17:04:18.856
3.0, -184437.52043694502, 187500.0, 31533.304635680277, 27482.43093281161, 187500.0, 187500.0, -187500.02235174447, 30188.467227037818, -0.068, 0.974, -0.074, 192.0, 0.0, 0.0, 0.0, 0.0, 0.0, 0.0, 0.0, 0.0, 0.0, 1.698959058856188E9, 0.0, 2023-11-02 17:04:18.856
4.0, -184283.42751067015, 187500.0, 31529.460135633963, 27472.842034440284, 187500.0, 187500.0, -187500.02235174447, 30184.198043846853, -0.068, 0.974, -0.074, 192.0, 0.0, 0.0, 0.0, 0.0, 0.0, 0.0, 0.0, 0.0, 0.0, 1.6989590588561993E9, 0.0, 2023-11-02 17:04:18.856
5.0, -184238.746373504, 187500.0, 31522.642853575097, 27468.86342392724, 187500.0, 187500.0, -187500.02235174447, 30180.085322867075, -0.068, 0.974, -0.074, 192.0, 0.0, 0.0, 0.0, 0.0, 0.0, 0.0, 0.0, 0.0, 0.0, 1.6989590588562415E9, 0.0, 2023-11-02 17:04:18.856
6.0, -184212.25955632445, 187500.0, 31516.741993038893, 27467.589374493287, 187500.0, 187500.0, -187500.02235174447, 30177.671334465904, -0.068, 0.974, -0.074, 192.0, 0.0, 0.0, 0.0, 0.0, 0.0, 0.0, 0.0, 0.0, 0.0, 1.6989590588562553E9, 0.0, 2023-11-02 17:04:18.856
7.0, -184088.4979472754, 187500.0, 31507.890702234592, 27464.124854102716, 187500.0, 187500.0, -187500.02235174447, 30175.34675304255, -0.068, 0.974, -0.074, 192.0, 0.0, 0.0, 0.0, 0.0, 0.0, 0.0, 0.0, 0.0, 0.0, 1.6989590588562663E9, 0.0, 2023-11-02 17:04:18.856
8.0, -183954.00750088782, 187500.0, 31503.465056832443, 27461.643810468177, 187500.0, 187500.0, -187500.02235174447, 30176.30787805413, -0.068, 0.974, -0.074, 192.0, 0.0, 0.0, 0.0, 0.0, 0.0, 0.0, 0.0, 0.0, 0.0, 1.698959058856278E9, 0.0, 2023-11-02 17:04:18.856
9.0, -183893.9036600475, 187500.0, 31498.27945211881, 27459.788615678386, 187500.0, 187500.0, -187500.02235174447, 30175.50321525374, -0.068, 0.974, -0.074, 192.0, 0.0, 0.0, 0.0, 0.0, 0.0, 0.0, 0.0, 0.0, 0.0, 1.6989590588562906E9, 0.0, 2023-11-02 17:04:18.856
10.0, -183853.2458368833, 187500.0, 31491.953908437958, 27465.801234936862, 187500.0, 187500.0, -187500.02235174447, 30174.765607686713, -0.064, 0.972, -0.07200000000000001, 192.0, 254.0, 0.0, 30.0, 96.0, 253.0, 192.0, 0.0, 0.0, 0.0, 1.698959058856302E9, 0.0, 2023-11-02 17:04:18.856
11.0, -183698.0576751301, 187500.0, 31482.297954833266, 27465.108330858748, 187500.0, 187500.0, -187500.02235174447, 30170.384665773472, -0.064, 0.972, -0.07200000000000001, 192.0, 0.0, 0.0, 0.0, 0.0, 0.0, 0.0, 0.0, 0.0, 0.0, 1.698959058856314E9, 0.0, 2023-11-02 17:04:18.856
12.0, -183513.07463801798, 187500.0, 31476.66531523053, 27465.465958770033, 187500.0, 187500.0, -187500.02235174447, 30169.40118901744, -0.064, 0.972, -0.07200000000000001, 192.0, 0.0, 0.0, 0.0, 0.0, 0.0, 0.0, 0.0, 0.0, 0.0, 1.6989590588563256E9, 0.0, 2023-11-02 17:04:18.856
13.0, -183398.6784098957, 187500.0, 31469.266887815822, 27460.772092434418, 187500.0, 187500.0, -187500.02235174447, 30164.729674426282, -0.064, 0.972, -0.07200000000000001, 192.0, 0.0, 0.0, 0.0, 0.0, 0.0, 0.0, 0.0, 0.0, 0.0, 1.6989590588563364E9, 0.0, 2023-11-02 17:04:18.856
14.0, -183315.6193274998, 187500.0, 31459.968562122413, 27459.29687730037, 187500.0, 187500.0, -187500.02235174447, 30161.578078458082, -0.064, 0.972, -0.07200000000000001, 192.0, 0.0, 0.0, 0.0, 0.0, 0.0, 0.0, 0.0, 0.0, 0.0, 1.6989590588563519E9, 0.0, 2023-11-02 17:04:18.856
15.0, -183148.00359582945, 187500.0, 31454.0229980973, 27459.073359855814, 187500.0, 187500.0, -187500.02235174447, 30159.186441801365, -0.064, 0.972, -0.07200000000000001, 192.0, 0.0, 0.0, 0.0, 0.0, 0.0, 0.0, 0.0, 0.0, 0.0, 1.6989590588564038E9, 0.0, 2023-11-02 17:04:18.856
16.0, -182913.0197063708, 187500.0, 31453.46420448592, 27453.30660978635, 187500.0, 187500.0, -187500.02235174447, 30159.05233133463, -0.064, 0.972, -0.07200000000000001, 192.0, 0.0, 0.0, 0.0, 0.0, 0.0, 0.0, 0.0, 0.0, 0.0, 1.6989590588564208E9, 0.0, 2023-11-02 17:04:18.856
17.0, -182770.37087325705, 187500.0, 31463.209565068435, 27456.01117086544, 187500.0, 187500.0, -187500.02235174447, 30168.842395406056, -0.064, 0.972, -0.07200000000000001, 192.0, 0.0, 0.0, 0.0, 0.0, 0.0, 0.0, 0.0, 0.0, 0.0, 1.6989590588564348E9, 0.0, 2023-11-02 17:04:18.856
18.0, -182703.36034338002, 187500.0, 31466.36116103663, 27457.486385999488, 187500.0, 187500.0, -187500.02235174447, 30170.697590195847, -0.064, 0.972, -0.07200000000000001, 192.0, 0.0, 0.0, 0.0, 0.0, 0.0, 0.0, 0.0, 0.0, 0.0, 1.6989590588564487E9, 0.0, 2023-11-02 17:04:18.856
19.0, -182567.17116441386, 187500.0, 31463.32132379071, 27452.032560352392, 187500.0, 187500.0, -187500.02235174447, 30165.757854671225, -0.064, 0.972, -0.07200000000000001, 192.0, 0.0, 0.0, 0.0, 0.0, 0.0, 0.0, 0.0, 0.0, 0.0, 1.698959058856461E9, 0.0, 2023-11-02 17:04:18.856
20.0, -182347.56527514046, 187500.0, 31461.197908067457, 27444.120042815215, 187500.0, 187500.0, -187500.02235174447, 30162.248630791742, -0.068, 0.982, -0.07200000000000001, 192.0, 253.0, 224.0, 30.0, 176.0, 253.0, 192.0, 0.0, 0.0, 0.0, 1.6989590588564742E9, 0.0, 2023-11-02 17:04:18.856
21.0, -182218.1486747442, 187500.0, 31467.635210470584, 27443.67300792611, 187500.0, 187500.0, -187500.02235174447, 30168.149491327942, -0.068, 0.982, -0.07200000000000001, 192.0, 0.0, 0.0, 0.0, 0.0, 0.0, 0.0, 0.0, 0.0, 0.0, 1.6989590588564897E9, 0.0, 2023-11-02 17:04:18.856
22.0, -182191.66185756467, 187500.0, 31469.08807386018, 27445.10351957125, 187500.0, 187500.0, -187500.02235174447, 30169.73646518427, -0.068, 0.982, -0.07200000000000001, 192.0, 0.0, 0.0, 0.0, 0.0, 0.0, 0.0, 0.0, 0.0, 0.0, 1.6989590588565073E9, 0.0, 2023-11-02 17:04:18.856
23.0, -182110.50267344745, 187500.0, 31465.064759858225, 27442.510717214434, 187500.0, 187500.0, -187500.02235174447, 30166.31664828261, -0.068, 0.982, -0.07200000000000001, 192.0, 0.0, 0.0, 0.0, 0.0, 0.0, 0.0, 0.0, 0.0, 0.0, 1.6989590588565304E9, 0.0, 2023-11-02 17:04:18.856
24.0, -181922.23392990042, 187500.0, 31460.99674236736, 27434.307626999336, 187500.0, 187500.0, -187500.02235174447, 30162.561555214117, -0.068, 0.982, -0.07200000000000001, 192.0, 0.0, 0.0, 0.0, 0.0, 0.0, 0.0, 0.0, 0.0, 0.0, 1.6989590588565483E9, 0.0, 2023-11-02 17:04:18.856
25.0, -181802.4062278755, 187500.0, 31466.36116103663, 27428.697339141054, 187500.0, 187500.0, -187500.02235174447, 30165.19906105984, -0.068, 0.982, -0.07200000000000001, 192.0, 0.0, 0.0, 0.0, 0.0, 0.0, 0.0, 0.0, 0.0, 0.0, 1.6989590588566024E9, 0.0, 2023-11-02 17:04:18.856
26.0, -181782.22260263236, 187500.0, 31472.552594250752, 27440.454356724546, 187500.0, 187500.0, -187500.02235174447, 30171.748122185247, -0.068, 0.982, -0.07200000000000001, 192.0, 0.0, 0.0, 0.0, 0.0, 0.0, 0.0, 0.0, 0.0, 0.0, 1.6989590588566344E9, 0.0, 2023-11-02 17:04:18.856
27.0, -181735.3956979985, 187500.0, 31469.22218432691, 27443.941228859574, 187500.0, 187500.0, -187500.02235174447, 30167.836566905567, -0.068, 0.982, -0.07200000000000001, 192.0, 0.0, 0.0, 0.0, 0.0, 0.0, 0.0, 0.0, 0.0, 0.0, 1.6989590588566964E9, 0.0, 2023-11-02 17:04:18.856
28.0, -181576.36303619898, 187500.0, 31464.03657961328, 27441.661350925133, 187500.0, 187500.0, -187500.02235174447, 30162.9191831254, -0.068, 0.982, -0.07200000000000001, 192.0, 0.0, 0.0, 0.0, 0.0, 0.0, 0.0, 0.0, 0.0, 0.0, 1.6989590588567188E9, 0.0, 2023-11-02 17:04:18.856
29.0, -181453.98723530618, 187500.0, 31469.110425604635, 27440.14143230217, 187500.0, 187500.0, -187500.02235174447, 30168.10478783903, -0.068, 0.982, -0.07200000000000001, 192.0, 0.0, 0.0, 0.0, 0.0, 0.0, 0.0, 0.0, 0.0, 0.0, 1.698959058856734E9, 0.0, 2023-11-02 17:04:18.856
30.0, -181444.5771508905, 187500.0, 31479.03460014279, 27441.169612547114, 187500.0, 187500.0, -187500.02235174447, 30173.759779186224, -0.074, 0.988, -0.064, 192.0, 253.0, 176.0, 30.0, 224.0, 254.0, 0.0, 0.0, 0.0, 0.0, 1.6989590588567483E9, 0.0, 2023-11-02 17:04:18.856
31.0, -181430.80847630603, 187500.0, 31492.758571238348, 27449.685627184586, 187500.0, 187500.0, -187500.02235174447, 30178.475997266294, -0.074, 0.988, -0.064, 192.0, 0.0, 0.0, 0.0, 0.0, 0.0, 0.0, 0.0, 0.0, 0.0, 1.6989590588568287E9, 0.0, 2023-11-02 17:04:18.856
32.0, -181328.23632100062, 187500.0, 31503.62151904363, 27459.274525555913, 187500.0, 187500.0, -187500.02235174447, 30181.471131023307, -0.074, 0.988, -0.064, 192.0, 0.0, 0.0, 0.0, 0.0, 0.0, 0.0, 0.0, 0.0, 0.0, 1.6989590588568535E9, 0.0, 2023-11-02 17:04:18.856
33.0, -181204.0276770625, 187500.0, 31515.89262674959, 27458.80513892235, 187500.0, 187500.0, -187500.02235174447, 30185.293279325164, -0.074, 0.988, -0.064, 192.0, 0.0, 0.0, 0.0, 0.0, 0.0, 0.0, 0.0, 0.0, 0.0, 1.6989590588568711E9, 0.0, 2023-11-02 17:04:18.856
34.0, -181204.6311741628, 187500.0, 31528.76723155585, 27456.458205754545, 187500.0, 187500.0, -187500.02235174447, 30186.79084620367, -0.074, 0.988, -0.064, 192.0, 0.0, 0.0, 0.0, 0.0, 0.0, 0.0, 0.0, 0.0, 0.0, 1.6989590588568883E9, 0.0, 2023-11-02 17:04:18.856
35.0, -181251.90511368576, 187500.0, 31542.558257884775, 27455.117101087228, 187500.0, 187500.0, -187500.02235174447, 30186.54497701466, -0.074, 0.988, -0.064, 192.0, 0.0, 0.0, 0.0, 0.0, 0.0, 0.0, 0.0, 0.0, 0.0, 1.6989590588569045E9, 0.0, 2023-11-02 17:04:18.856
36.0, -181214.3318312564, 187500.0, 31561.57959241624, 27463.431950024602, 187500.0, 187500.0, -187500.02235174447, 30193.20579686234, -0.074, 0.988, -0.064, 192.0, 0.0, 0.0, 0.0, 0.0, 0.0, 0.0, 0.0, 0.0, 0.0, 1.698959058856927E9, 0.0, 2023-11-02 17:04:18.856
37.0, -181147.5671705684, 187500.0, 31579.304525769297, 27466.00240063696, 187500.0, 187500.0, -187500.02235174447, 30196.625613764005, -0.074, 0.988, -0.064, 192.0, 0.0, 0.0, 0.0, 0.0, 0.0, 0.0, 0.0, 0.0, 0.0, 1.6989590588569417E9, 0.0, 2023-11-02 17:04:18.856
38.0, -181177.09382499385, 187500.0, 31591.262709052888, 27466.5835459928, 187500.0, 187500.0, -187500.02235174447, 30194.949232929855, -0.074, 0.988, -0.064, 192.0, 0.0, 0.0, 0.0, 0.0, 0.0, 0.0, 0.0, 0.0, 0.0, 1.6989590588569565E9, 0.0, 2023-11-02 17:04:18.856
39.0, -181256.91190444375, 187500.0, 31596.53772074434, 27463.72252270252, 187500.0, 187500.0, -187500.02235174447, 30189.94244217187, -0.10200000000000001, 1.006, -0.064, 192.0, 252.0, 208.0, 31.0, 112.0, 254.0, 0.0, 0.0, 0.0, 0.0, 1.6989590588569753E9, 0.0, 2023-11-02 17:04:18.856
40.0, -181254.1179363868, 187500.0, 31597.856473667205, 27461.643810468177, 187500.0, 187500.0, -187500.02235174447, 30184.64507873596, -0.10200000000000001, 1.006, -0.064, 192.0, 0.0, 0.0, 0.0, 0.0, 0.0, 0.0, 0.0, 0.0, 0.0, 1.6989590588569899E9, 0.0, 2023-11-02 17:04:18.856
41.0, -181201.68074389469, 187500.0, 31602.080953369255, 27455.89941214316, 187500.0, 187500.0, -187500.02235174447, 30183.393381046462, -0.10200000000000001, 1.006, -0.064, 192.0, 0.0, 0.0, 0.0, 0.0, 0.0, 0.0, 0.0, 0.0, 0.0, 1.698959058857004E9, 0.0, 2023-11-02 17:04:18.857
42.0, -181245.02077639353, 187500.0, 31607.802999949814, 27457.82166216632, 187500.0, 187500.0, -187500.02235174447, 30185.516796769716, -0.10200000000000001, 1.006, -0.064, 192.0, 0.0, 0.0, 0.0, 0.0, 0.0, 0.0, 0.0, 0.0, 0.0, 1.6989590588570192E9, 0.0, 2023-11-02 17:04:18.857
43.0, -181366.27899006355, 187500.0, 31612.139238374144, 27459.945077889573, 187500.0, 187500.0, -187500.02235174447, 30188.35546831554, -0.10200000000000001, 1.006, -0.064, 192.0, 0.0, 0.0, 0.0, 0.0, 0.0, 0.0, 0.0, 0.0, 0.0, 1.698959058857037E9, 0.0, 2023-11-02 17:04:18.857
44.0, -181408.25556615062, 187500.0, 31608.3617935612, 27461.375589534713, 187500.0, 187500.0, -187500.02235174447, 30185.874424681002, -0.10200000000000001, 1.006, -0.064, 192.0, 0.0, 0.0, 0.0, 0.0, 0.0, 0.0, 0.0, 0.0, 0.0, 1.6989590588570535E9, 0.0, 2023-11-02 17:04:18.857
45.0, -181344.44133573072, 187500.0, 31602.885616169646, 27456.055874354348, 187500.0, 187500.0, -187500.02235174447, 30182.432256034885, -0.10200000000000001, 1.006, -0.064, 192.0, 0.0, 0.0, 0.0, 0.0, 0.0, 0.0, 0.0, 0.0, 0.0, 1.6989590588570664E9, 0.0, 2023-11-02 17:04:18.857
46.0, -181315.58523363894, 187500.0, 31600.58338649075, 27453.70894118654, 187500.0, 187500.0, -187500.02235174447, 30183.080456624088, -0.10200000000000001, 1.006, -0.064, 192.0, 0.0, 0.0, 0.0, 0.0, 0.0, 0.0, 0.0, 0.0, 0.0, 1.6989590588571408E9, 0.0, 2023-11-02 17:04:18.857
47.0, -181370.92815291026, 187500.0, 31602.885616169646, 27454.603010964755, 187500.0, 187500.0, -187500.02235174447, 30186.54497701466, -0.10200000000000001, 1.006, -0.064, 192.0, 0.0, 0.0, 0.0, 0.0, 0.0, 0.0, 0.0, 0.0, 0.0, 1.6989590588571594E9, 0.0, 2023-11-02 17:04:18.857
48.0, -181412.39063887484, 187500.0, 31607.512427271897, 27468.595202993776, 187500.0, 187500.0, -187500.02235174447, 30194.725715485303, -0.10200000000000001, 1.006, -0.064, 192.0, 0.0, 0.0, 0.0, 0.0, 0.0, 0.0, 0.0, 0.0, 0.0, 1.6989590588571904E9, 0.0, 2023-11-02 17:04:18.857
49.0, -181323.1401232648, 187500.0, 31598.079991111757, 27468.751665204964, 187500.0, 187500.0, -187500.02235174447, 30188.713096226824, -0.08600000000000001, 0.976, -0.064, 192.0, 253.0, 80.0, 30.0, 128.0, 254.0, 0.0, 0.0, 0.0, 0.0, 1.6989590588572044E9, 0.0, 2023-11-02 17:04:18.857
50.0, -181269.20536389417, 187500.0, 31598.68348821205, 27469.310458816348, 187500.0, 187500.0, -187500.02235174447, 30192.73641022878, -0.08600000000000001, 0.976, -0.064, 192.0, 0.0, 0.0, 0.0, 0.0, 0.0, 0.0, 0.0, 0.0, 0.0, 1.698959058857219E9, 0.0, 2023-11-02 17:04:18.857
51.0, -181321.1955214972, 187500.0, 31599.331688801252, 27471.4338745396, 187500.0, 187500.0, -187500.02235174447, 30194.59160501857, -0.08600000000000001, 0.976, -0.064, 192.0, 0.0, 0.0, 0.0, 0.0, 0.0, 0.0, 0.0, 0.0, 0.0, 1.6989590588572369E9, 0.0, 2023-11-02 17:04:18.857
52.0, -181352.42090850126, 187500.0, 31598.862302167694, 27470.875080928217, 187500.0, 187500.0, -187500.02235174447, 30195.664488752427, -0.08600000000000001, 0.976, -0.064, 192.0, 0.0, 0.0, 0.0, 0.0, 0.0, 0.0, 0.0, 0.0, 0.0, 1.6989590588572576E9, 0.0, 2023-11-02 17:04:18.857
53.0, -181265.8749539703, 187500.0, 31595.353078288208, 27473.62434549622, 187500.0, 187500.0, -187500.02235174447, 30194.16692187392, -0.08600000000000001, 0.976, -0.064, 192.0, 0.0, 0.0, 0.0, 0.0, 0.0, 0.0, 0.0, 0.0, 0.0, 1.698959058857279E9, 0.0, 2023-11-02 17:04:18.857
54.0, -181155.56909508337, 187500.0, 31589.228700307456, 27462.493176757478, 187500.0, 187500.0, -187500.02235174447, 30187.617860748516, -0.08600000000000001, 0.976, -0.064, 192.0, 0.0, 0.0, 0.0, 0.0, 0.0, 0.0, 0.0, 0.0, 0.0, 1.6989590588573017E9, 0.0, 2023-11-02 17:04:18.857
55.0, -181171.03650224645, 187500.0, 31595.107209099202, 27460.19094707858, 187500.0, 187500.0, -187500.02235174447, 30190.702401483348, -0.08600000000000001, 0.976, -0.064, 192.0, 0.0, 0.0, 0.0, 0.0, 0.0, 0.0, 0.0, 0.0, 0.0, 1.6989590588573143E9, 0.0, 2023-11-02 17:04:18.857
56.0, -181213.05778182243, 187500.0, 31601.365697546687, 27469.422217538624, 187500.0, 187500.0, -187500.02235174447, 30195.664488752427, -0.08600000000000001, 0.976, -0.064, 192.0, 0.0, 0.0, 0.0, 0.0, 0.0, 0.0, 0.0, 0.0, 0.0, 1.6989590588573303E9, 0.0, 2023-11-02 17:04:18.857
57.0, -181124.88014994626, 187500.0, 31602.416229536087, 27473.646697240674, 187500.0, 187500.0, -187500.02235174447, 30196.06682015262, -0.08600000000000001, 0.976, -0.064, 192.0, 0.0, 0.0, 0.0, 0.0, 0.0, 0.0, 0.0, 0.0, 0.0, 1.6989590588573427E9, 0.0, 2023-11-02 17:04:18.857
58.0, -181024.25259640845, 187500.0, 31605.67958422656, 27478.16174962065, 187500.0, 187500.0, -187500.02235174447, 30198.9278434429, -0.08600000000000001, 0.976, -0.064, 192.0, 0.0, 0.0, 0.0, 0.0, 0.0, 0.0, 0.0, 0.0, 0.0, 1.698959058857358E9, 0.0, 2023-11-02 17:04:18.857
59.0, -181030.01934647793, 187500.0, 31607.646537738627, 27477.5359007759, 187500.0, 187500.0, -187500.02235174447, 30202.50412255575, -0.082, 0.96, -0.07, 192.0, 253.0, 112.0, 30.0, 0.0, 253.0, 208.0, 0.0, 0.0, 0.0, 1.6989590588573802E9, 0.0, 2023-11-02 17:04:18.857
60.0, -181041.01640474994, 187500.0, 31597.29768005582, 27473.266717584935, 187500.0, 187500.0, -187500.02235174447, 30193.876349196, -0.082, 0.96, -0.07, 192.0, 0.0, 0.0, 0.0, 0.0, 0.0, 0.0, 0.0, 0.0, 0.0, 1.698959058857404E9, 0.0, 2023-11-02 17:04:18.857
61.0, -180974.18468882857, 187500.0, 31595.82246492177, 27469.377514049713, 187500.0, 187500.0, -187500.02235174447, 30192.199968361852, -0.082, 0.96, -0.07, 192.0, 0.0, 0.0, 0.0, 0.0, 0.0, 0.0, 0.0, 0.0, 0.0, 1.698959058857522E9, 0.0, 2023-11-02 17:04:18.857
62.0, -180870.83022246722, 187500.0, 31594.168435832078, 27471.925612917617, 187500.0, 187500.0, -187500.02235174447, 30190.814160205624, -0.082, 0.96, -0.07, 192.0, 0.0, 0.0, 0.0, 0.0, 0.0, 0.0, 0.0, 0.0, 0.0, 1.6989590588575368E9, 0.0, 2023-11-02 17:04:18.857
63.0, -180820.96348058744, 187500.0, 31587.954650873504, 27462.135548846192, 187500.0, 187500.0, -187500.02235174447, 30187.059067137132, -0.082, 0.96, -0.07, 192.0, 0.0, 0.0, 0.0, 0.0, 0.0, 0.0, 0.0, 0.0, 0.0, 1.6989590588575616E9, 0.0, 2023-11-02 17:04:18.857
64.0, -180842.3764517756, 187500.0, 31583.149025815612, 27460.61563022323, 187500.0, 187500.0, -187500.02235174447, 30188.199006104354, -0.082, 0.96, -0.07, 192.0, 0.0, 0.0, 0.0, 0.0, 0.0, 0.0, 0.0, 0.0, 0.0, 1.698959058857587E9, 0.0, 2023-11-02 17:04:18.857
