%OpenBCI Raw EEG Data
%Number of channels = 8
%Sample Rate = 250 Hz
%Board = OpenBCI_GUI$BoardCytonSerial
Sample Index, EXG Channel 0, EXG Channel 1, EXG Channel 2, EXG Channel 3, EXG Channel 4, EXG Channel 5, EXG Channel 6, EXG Channel 7, Accel Channel 0, Accel Channel 1, Accel Channel 2, Other, Other, Other, Other, Other, Other, Other, Analog Channel 0, Analog Channel 1, Analog Channel 2, Timestamp, Other, Timestamp (Formatted)
203.0, -69970.88431964927, 187500.0, 30468.378122851627, 25791.63322348991, 187500.0, 187500.0, -187500.02235174447, 29695.96888970958, 0.0, 0.0, 0.0, 192.0, 0.0, 0.0, 0.0, 0.0, 0.0, 0.0, 0.0, 0.0, 0.0, 1.6989590894953904E9, 0.0, 2023-11-02 17:04:49.495
204.0, -70096.0987920879, 187500.0, 30466.7911489953, 25780.546758240078, 187500.0, 187500.0, -187500.02235174447, 29692.794941996926, -0.10200000000000001, 0.972, -0.124, 192.0, 252.0, 208.0, 30.0, 96.0, 252.0, 32.0, 0.0, 0.0, 0.0, 1.6989590894954135E9, 0.0, 2023-11-02 17:04:49.495
205.0, -70244.82729969351, 187500.0, 30463.773663493834, 25781.57493848502, 187500.0, 187500.0, -187500.02235174447, 29690.716229762584, -0.10200000000000001, 0.972, -0.124, 192.0, 0.0, 0.0, 0.0, 0.0, 0.0, 0.0, 0.0, 0.0, 0.0, 1.6989590894954257E9, 0.0, 2023-11-02 17:04:49.495
206.0, -70297.06332648556, 187500.0, 30460.085625658707, 25783.85481641946, 187500.0, 187500.0, -187500.02235174447, 29689.665697773184, -0.10200000000000001, 0.972, -0.124, 192.0, 0.0, 0.0, 0.0, 0.0, 0.0, 0.0, 0.0, 0.0, 0.0, 1.6989590894954357E9, 0.0, 2023-11-02 17:04:49.495
207.0, -70332.02145481366, 187500.0, 30458.677465758024, 25779.5856332285, 187500.0, 187500.0, -187500.02235174447, 29689.129255906257, -0.10200000000000001, 0.972, -0.124, 192.0, 0.0, 0.0, 0.0, 0.0, 0.0, 0.0, 0.0, 0.0, 0.0, 1.6989590894954455E9, 0.0, 2023-11-02 17:04:49.495
208.0, -70489.82477066813, 187500.0, 30470.25566938587, 25786.402915287366, 187500.0, 187500.0, -187500.02235174447, 29702.652061301716, -0.10200000000000001, 0.972, -0.124, 192.0, 0.0, 0.0, 0.0, 0.0, 0.0, 0.0, 0.0, 0.0, 0.0, 1.6989590894954553E9, 0.0, 2023-11-02 17:04:49.495
209.0, -70680.66396482754, 187500.0, 30472.244974642395, 25794.650708991376, 187500.0, 187500.0, -187500.02235174447, 29705.73660203655, -0.10200000000000001, 0.972, -0.124, 192.0, 0.0, 0.0, 0.0, 0.0, 0.0, 0.0, 0.0, 0.0, 0.0, 1.6989590894954648E9, 0.0, 2023-11-02 17:04:49.495
210.0, -70770.51797753788, 187500.0, 30466.7911489953, 25795.075392136026, 187500.0, 187500.0, -187500.02235174447, 29699.768686266983, -0.10200000000000001, 0.972, -0.124, 192.0, 0.0, 0.0, 0.0, 0.0, 0.0, 0.0, 0.0, 0.0, 0.0, 1.6989590894954743E9, 0.0, 2023-11-02 17:04:49.495
211.0, -70827.38081543217, 187500.0, 30466.232355383916, 25794.49424678019, 187500.0, 187500.0, -187500.02235174447, 29699.63457580025, -0.10200000000000001, 0.972, -0.124, 192.0, 0.0, 0.0, 0.0, 0.0, 0.0, 0.0, 0.0, 0.0, 0.0, 1.698959089495484E9, 0.0, 2023-11-02 17:04:49.495
212.0, -70966.18514849963, 187500.0, 30465.405340839072, 25799.81396196055, 187500.0, 187500.0, -187500.02235174447, 29701.69093629014, -0.10200000000000001, 0.972, -0.124, 192.0, 0.0, 0.0, 0.0, 0.0, 0.0, 0.0, 0.0, 0.0, 0.0, 1.6989590894954937E9, 0.0, 2023-11-02 17:04:49.495
213.0, -71122.20032479767, 187500.0, 30457.55987853526, 25794.069563635538, 187500.0, 187500.0, -187500.02235174447, 29694.471322831076, -0.10200000000000001, 0.972, -0.124, 192.0, 0.0, 0.0, 0.0, 0.0, 0.0, 0.0, 0.0, 0.0, 0.0, 1.6989590894955034E9, 0.0, 2023-11-02 17:04:49.495
214.0, -71212.70253809722, 187500.0, 30453.78243372231, 25786.022935631627, 187500.0, 187500.0, -187500.02235174447, 29688.21283438359, -0.096, 0.9580000000000001, -0.116, 192.0, 253.0, 0.0, 29.0, 240.0, 252.0, 96.0, 0.0, 0.0, 0.0, 1.698959089495513E9, 0.0, 2023-11-02 17:04:49.495
215.0, -71262.1669485768, 187500.0, 30451.92723893252, 25781.39612452938, 187500.0, 187500.0, -187500.02235174447, 29687.16230239419, -0.096, 0.9580000000000001, -0.116, 192.0, 0.0, 0.0, 0.0, 0.0, 0.0, 0.0, 0.0, 0.0, 0.0, 1.6989590894955237E9, 0.0, 2023-11-02 17:04:49.495
216.0, -71388.76722917166, 187500.0, 30457.023436668333, 25781.306717551557, 187500.0, 187500.0, -187500.02235174447, 29693.510197819498, -0.096, 0.9580000000000001, -0.116, 192.0, 0.0, 0.0, 0.0, 0.0, 0.0, 0.0, 0.0, 0.0, 0.0, 1.6989590894955335E9, 0.0, 2023-11-02 17:04:49.495
217.0, -71560.11570216605, 187500.0, 30457.582230279713, 25786.380563542913, 187500.0, 187500.0, -187500.02235174447, 29693.711363519596, -0.096, 0.9580000000000001, -0.116, 192.0, 0.0, 0.0, 0.0, 0.0, 0.0, 0.0, 0.0, 0.0, 0.0, 1.6989590894955432E9, 0.0, 2023-11-02 17:04:49.495
218.0, -71701.35637537914, 187500.0, 30454.609448267158, 25777.81984541653, 187500.0, 187500.0, -187500.02235174447, 29689.01749718398, -0.096, 0.9580000000000001, -0.116, 192.0, 0.0, 0.0, 0.0, 0.0, 0.0, 0.0, 0.0, 0.0, 0.0, 1.6989590894955528E9, 0.0, 2023-11-02 17:04:49.495
219.0, -71786.33770779821, 187500.0, 30452.441329054993, 25773.99769711467, 187500.0, 187500.0, -187500.02235174447, 29686.894081460727, -0.096, 0.9580000000000001, -0.116, 192.0, 0.0, 0.0, 0.0, 0.0, 0.0, 0.0, 0.0, 0.0, 0.0, 1.6989590894956684E9, 0.0, 2023-11-02 17:04:49.495
220.0, -71889.58041543727, 187500.0, 30450.69789298748, 25775.20469131526, 187500.0, 187500.0, -187500.02235174447, 29687.4081715832, -0.096, 0.9580000000000001, -0.116, 192.0, 0.0, 0.0, 0.0, 0.0, 0.0, 0.0, 0.0, 0.0, 0.0, 1.6989590894956784E9, 0.0, 2023-11-02 17:04:49.495
221.0, -72078.6091182958, 187500.0, 30454.65415175607, 25782.62547047442, 187500.0, 187500.0, -187500.02235174447, 29693.77841875296, -0.096, 0.9580000000000001, -0.116, 192.0, 0.0, 0.0, 0.0, 0.0, 0.0, 0.0, 0.0, 0.0, 0.0, 1.6989590894956877E9, 0.0, 2023-11-02 17:04:49.495
222.0, -72256.28313497105, 187500.0, 30453.40245406657, 25786.179397842814, 187500.0, 187500.0, -187500.02235174447, 29692.370258852276, -0.096, 0.9580000000000001, -0.116, 192.0, 0.0, 0.0, 0.0, 0.0, 0.0, 0.0, 0.0, 0.0, 0.0, 1.6989590894956982E9, 0.0, 2023-11-02 17:04:49.495
223.0, -72332.61434228592, 187500.0, 30444.506459773358, 25779.76444718414, 187500.0, 187500.0, -187500.02235174447, 29682.356677336298, -0.096, 0.9580000000000001, -0.116, 192.0, 0.0, 0.0, 0.0, 0.0, 0.0, 0.0, 0.0, 0.0, 0.0, 1.6989590894957078E9, 0.0, 2023-11-02 17:04:49.495
224.0, -72424.7482329307, 187500.0, 30443.50063127287, 25774.37767677041, 187500.0, 187500.0, -187500.02235174447, 29681.328497091356, -0.11, 0.972, -0.10400000000000001, 192.0, 252.0, 144.0, 30.0, 96.0, 252.0, 192.0, 0.0, 0.0, 0.0, 1.6989590894957182E9, 0.0, 2023-11-02 17:04:49.495
225.0, -72599.44946759337, 187500.0, 30442.94183766149, 25774.556490726056, 187500.0, 187500.0, -187500.02235174447, 29682.133159891746, -0.11, 0.972, -0.10400000000000001, 192.0, 0.0, 0.0, 0.0, 0.0, 0.0, 0.0, 0.0, 0.0, 0.0, 1.6989590894957302E9, 0.0, 2023-11-02 17:04:49.495
226.0, -72781.52677792631, 187500.0, 30444.059424884254, 25776.72460993822, 187500.0, 187500.0, -187500.02235174447, 29684.748313993015, -0.11, 0.972, -0.10400000000000001, 192.0, 0.0, 0.0, 0.0, 0.0, 0.0, 0.0, 0.0, 0.0, 0.0, 1.6989590894957397E9, 0.0, 2023-11-02 17:04:49.495
227.0, -72874.04064822682, 187500.0, 30441.377215549615, 25777.797493672075, 187500.0, 187500.0, -187500.02235174447, 29683.4072093257, -0.11, 0.972, -0.10400000000000001, 192.0, 0.0, 0.0, 0.0, 0.0, 0.0, 0.0, 0.0, 0.0, 0.0, 1.6989590894957497E9, 0.0, 2023-11-02 17:04:49.495
228.0, -72962.6206115032, 187500.0, 30442.830078939212, 25774.668249448332, 187500.0, 187500.0, -187500.02235174447, 29687.4081715832, -0.11, 0.972, -0.10400000000000001, 192.0, 0.0, 0.0, 0.0, 0.0, 0.0, 0.0, 0.0, 0.0, 0.0, 1.698959089495759E9, 0.0, 2023-11-02 17:04:49.495
229.0, -73122.36852912528, 187500.0, 30447.434538297006, 25784.61477573094, 187500.0, 187500.0, -187500.02235174447, 29690.984450696047, -0.11, 0.972, -0.10400000000000001, 192.0, 0.0, 0.0, 0.0, 0.0, 0.0, 0.0, 0.0, 0.0, 0.0, 1.6989590894957688E9, 0.0, 2023-11-02 17:04:49.495
230.0, -73293.42642944175, 187500.0, 30445.82521269622, 25790.58269150051, 187500.0, 187500.0, -187500.02235174447, 29690.1574361512, -0.11, 0.972, -0.10400000000000001, 192.0, 0.0, 0.0, 0.0, 0.0, 0.0, 0.0, 0.0, 0.0, 0.0, 1.698959089495779E9, 0.0, 2023-11-02 17:04:49.495
231.0, -73365.84608147694, 187500.0, 30437.331549803206, 25787.811075188052, 187500.0, 187500.0, -187500.02235174447, 29681.507311046997, -0.11, 0.972, -0.10400000000000001, 192.0, 0.0, 0.0, 0.0, 0.0, 0.0, 0.0, 0.0, 0.0, 0.0, 1.6989590894957886E9, 0.0, 2023-11-02 17:04:49.495
232.0, -73422.30658797105, 187500.0, 30437.689177714492, 25783.653650719363, 187500.0, 187500.0, -187500.02235174447, 29680.099151146314, -0.11, 0.972, -0.10400000000000001, 192.0, 0.0, 0.0, 0.0, 0.0, 0.0, 0.0, 0.0, 0.0, 0.0, 1.6989590894957983E9, 0.0, 2023-11-02 17:04:49.495
233.0, -73560.23920300475, 187500.0, 30437.242142825384, 25780.077371606516, 187500.0, 187500.0, -187500.02235174447, 29679.428598812654, -0.11, 0.972, -0.10400000000000001, 192.0, 0.0, 0.0, 0.0, 0.0, 0.0, 0.0, 0.0, 0.0, 0.0, 1.698959089495808E9, 0.0, 2023-11-02 17:04:49.495
234.0, -73737.33207432415, 187500.0, 30437.35390154766, 25780.47970300671, 187500.0, 187500.0, -187500.02235174447, 29681.194386624622, -0.1, 0.98, -0.106, 192.0, 252.0, 224.0, 30.0, 160.0, 252.0, 176.0, 0.0, 0.0, 0.0, 1.6989590894958436E9, 0.0, 2023-11-02 17:04:49.495
235.0, -73824.70504339994, 187500.0, 30432.525924745314, 25779.96561288424, 187500.0, 187500.0, -187500.02235174447, 29678.422770312165, -0.1, 0.98, -0.106, 192.0, 0.0, 0.0, 0.0, 0.0, 0.0, 0.0, 0.0, 0.0, 0.0, 1.6989590894958544E9, 0.0, 2023-11-02 17:04:49.495
236.0, -73849.98486637889, 187500.0, 30435.16343059104, 25783.05015361907, 187500.0, 187500.0, -187500.02235174447, 29681.887290702736, -0.1, 0.98, -0.106, 192.0, 0.0, 0.0, 0.0, 0.0, 0.0, 0.0, 0.0, 0.0, 0.0, 1.698959089495864E9, 0.0, 2023-11-02 17:04:49.495
237.0, -73958.18966128703, 187500.0, 30444.55116326227, 25784.2347960752, 187500.0, 187500.0, -187500.02235174447, 29688.14577915022, -0.1, 0.98, -0.106, 192.0, 0.0, 0.0, 0.0, 0.0, 0.0, 0.0, 0.0, 0.0, 0.0, 1.6989590894958737E9, 0.0, 2023-11-02 17:04:49.495
238.0, -74126.63240750223, 187500.0, 30450.384968565104, 25788.57103449953, 187500.0, 187500.0, -187500.02235174447, 29690.671526273672, -0.1, 0.98, -0.106, 192.0, 0.0, 0.0, 0.0, 0.0, 0.0, 0.0, 0.0, 0.0, 0.0, 1.6989590894958832E9, 0.0, 2023-11-02 17:04:49.495
239.0, -74215.39118473425, 187500.0, 30447.099262130174, 25787.833426932506, 187500.0, 187500.0, -187500.02235174447, 29687.16230239419, -0.1, 0.98, -0.106, 192.0, 0.0, 0.0, 0.0, 0.0, 0.0, 0.0, 0.0, 0.0, 0.0, 1.6989590894958928E9, 0.0, 2023-11-02 17:04:49.495
240.0, -74269.46005457164, 187500.0, 30451.435500554504, 25789.755676955665, 187500.0, 187500.0, -187500.02235174447, 29692.951404208114, -0.1, 0.98, -0.106, 192.0, 0.0, 0.0, 0.0, 0.0, 0.0, 0.0, 0.0, 0.0, 0.0, 1.6989590894959023E9, 0.0, 2023-11-02 17:04:49.495
241.0, -74400.93301545776, 187500.0, 30462.767834993345, 25795.67888923632, 187500.0, 187500.0, -187500.02235174447, 29705.82600901437, -0.1, 0.98, -0.106, 192.0, 0.0, 0.0, 0.0, 0.0, 0.0, 0.0, 0.0, 0.0, 0.0, 1.698959089495912E9, 0.0, 2023-11-02 17:04:49.495
242.0, -74579.81402633358, 187500.0, 30463.8407187272, 25800.86449394995, 187500.0, 187500.0, -187500.02235174447, 29706.63067181476, -0.1, 0.98, -0.106, 192.0, 0.0, 0.0, 0.0, 0.0, 0.0, 0.0, 0.0, 0.0, 0.0, 1.6989590894959216E9, 0.0, 2023-11-02 17:04:49.495
243.0, -74694.79139981169, 187500.0, 30455.101186645174, 25798.115229381947, 187500.0, 187500.0, -187500.02235174447, 29696.438276343142, -0.1, 0.98, -0.106, 192.0, 0.0, 0.0, 0.0, 0.0, 0.0, 0.0, 0.0, 0.0, 0.0, 1.6989590894959311E9, 0.0, 2023-11-02 17:04:49.495
244.0, -74736.83503113211, 187500.0, 30449.289733086796, 25793.846046190985, 187500.0, 187500.0, -187500.02235174447, 29687.564633794384, -0.106, 0.976, -0.098, 192.0, 252.0, 176.0, 30.0, 128.0, 252.0, 240.0, 0.0, 0.0, 0.0, 1.6989590894959407E9, 0.0, 2023-11-02 17:04:49.495
245.0, -74841.0165120383, 187500.0, 30455.03413141181, 25796.72942122572, 187500.0, 187500.0, -187500.02235174447, 29694.761895508993, -0.106, 0.976, -0.098, 192.0, 0.0, 0.0, 0.0, 0.0, 0.0, 0.0, 0.0, 0.0, 0.0, 1.6989590894959507E9, 0.0, 2023-11-02 17:04:49.495
246.0, -74996.62935693614, 187500.0, 30450.586134265202, 25792.460238034757, 187500.0, 187500.0, -187500.02235174447, 29690.917395462682, -0.106, 0.976, -0.098, 192.0, 0.0, 0.0, 0.0, 0.0, 0.0, 0.0, 0.0, 0.0, 0.0, 1.698959089495962E9, 0.0, 2023-11-02 17:04:49.495
247.0, -75145.46962326404, 187500.0, 30451.16727962104, 25794.695412480287, 187500.0, 187500.0, -187500.02235174447, 29691.520892562974, -0.106, 0.976, -0.098, 192.0, 0.0, 0.0, 0.0, 0.0, 0.0, 0.0, 0.0, 0.0, 0.0, 1.6989590894959717E9, 0.0, 2023-11-02 17:04:49.495
248.0, -75200.79019079093, 187500.0, 30447.50159353037, 25797.668194492842, 187500.0, 187500.0, -187500.02235174447, 29688.01166868349, -0.106, 0.976, -0.098, 192.0, 0.0, 0.0, 0.0, 0.0, 0.0, 0.0, 0.0, 0.0, 0.0, 1.6989590894959812E9, 0.0, 2023-11-02 17:04:49.495
249.0, -75282.44111328616, 187500.0, 30451.077872643218, 25797.735249726207, 187500.0, 187500.0, -187500.02235174447, 29692.459665830098, -0.106, 0.976, -0.098, 192.0, 0.0, 0.0, 0.0, 0.0, 0.0, 0.0, 0.0, 0.0, 0.0, 1.6989590894959998E9, 0.0, 2023-11-02 17:04:49.495
250.0, -75444.31244663149, 187500.0, 30456.352884334672, 25802.227950361725, 187500.0, 187500.0, -187500.02235174447, 29697.73467752155, -0.106, 0.976, -0.098, 192.0, 0.0, 0.0, 0.0, 0.0, 0.0, 0.0, 0.0, 0.0, 0.0, 1.6989590894960096E9, 0.0, 2023-11-02 17:04:49.496
251.0, -75562.46376782225, 187500.0, 30447.41218655255, 25801.982081172715, 187500.0, 187500.0, -187500.02235174447, 29688.72692450606, -0.106, 0.976, -0.098, 192.0, 0.0, 0.0, 0.0, 0.0, 0.0, 0.0, 0.0, 0.0, 0.0, 1.6989590894960191E9, 0.0, 2023-11-02 17:04:49.496
252.0, -75594.31500367106, 187500.0, 30444.484108028904, 25792.974328157226, 187500.0, 187500.0, -187500.02235174447, 29682.06610465838, -0.106, 0.976, -0.098, 192.0, 0.0, 0.0, 0.0, 0.0, 0.0, 0.0, 0.0, 0.0, 0.0, 1.698959089496029E9, 0.0, 2023-11-02 17:04:49.496
253.0, -75637.56562919207, 187500.0, 30449.937933676, 25790.02389788913, 187500.0, 187500.0, -187500.02235174447, 29683.25074711451, -0.106, 0.976, -0.098, 192.0, 0.0, 0.0, 0.0, 0.0, 0.0, 0.0, 0.0, 0.0, 0.0, 1.6989590894960384E9, 0.0, 2023-11-02 17:04:49.496
254.0, -75778.49337798278, 187500.0, 30460.487957058904, 25790.62739498942, 187500.0, 187500.0, -187500.02235174447, 29687.050543671914, -0.12, 0.974, -0.094, 192.0, 252.0, 64.0, 30.0, 112.0, 253.0, 16.0, 0.0, 0.0, 0.0, 1.698959089496048E9, 0.0, 2023-11-02 17:04:49.496
255.0, -75935.76025197032, 187500.0, 30468.60164029618, 25792.795514201585, 187500.0, 187500.0, -187500.02235174447, 29687.609337283295, -0.12, 0.974, -0.094, 192.0, 0.0, 0.0, 0.0, 0.0, 0.0, 0.0, 0.0, 0.0, 0.0, 1.6989590894960613E9, 0.0, 2023-11-02 17:04:49.496
0.0, -76005.36358420415, 187500.0, 30470.546242063792, 25789.86743567794, 187500.0, 187500.0, -187500.02235174447, 29683.764837236984, -0.12, 0.974, -0.094, 192.0, 0.0, 0.0, 0.0, 0.0, 0.0, 0.0, 0.0, 0.0, 0.0, 1.698959089496072E9, 0.0, 2023-11-02 17:04:49.496
1.0, -76041.93103813303, 187500.0, 30476.134178177617, 25788.34751705498, 187500.0, 187500.0, -187500.02235174447, 29683.138988392235, -0.12, 0.974, -0.094, 192.0, 0.0, 0.0, 0.0, 0.0, 0.0, 0.0, 0.0, 0.0, 0.0, 1.6989590894960816E9, 0.0, 2023-11-02 17:04:49.496
2.0, -76189.51960677143, 187500.0, 30492.31684116326, 25794.628357246922, 187500.0, 187500.0, -187500.02235174447, 29690.425657084663, -0.12, 0.974, -0.094, 192.0, 0.0, 0.0, 0.0, 0.0, 0.0, 0.0, 0.0, 0.0, 0.0, 1.6989590894960916E9, 0.0, 2023-11-02 17:04:49.496
3.0, -76361.51628035502, 187500.0, 30496.071934231753, 25795.500075280677, 187500.0, 187500.0, -187500.02235174447, 29689.01749718398, -0.12, 0.974, -0.094, 192.0, 0.0, 0.0, 0.0, 0.0, 0.0, 0.0, 0.0, 0.0, 0.0, 1.6989590894961011E9, 0.0, 2023-11-02 17:04:49.496
4.0, -76445.96117090716, 187500.0, 30495.647251087103, 25791.476761278722, 187500.0, 187500.0, -187500.02235174447, 29682.20021512511, -0.12, 0.974, -0.094, 192.0, 0.0, 0.0, 0.0, 0.0, 0.0, 0.0, 0.0, 0.0, 0.0, 1.698959089496111E9, 0.0, 2023-11-02 17:04:49.496
5.0, -76484.71909579267, 187500.0, 30500.832855800734, 25788.660441477354, 187500.0, 187500.0, -187500.02235174447, 29682.06610465838, -0.12, 0.974, -0.094, 192.0, 0.0, 0.0, 0.0, 0.0, 0.0, 0.0, 0.0, 0.0, 0.0, 1.6989590894961205E9, 0.0, 2023-11-02 17:04:49.496
6.0, -76594.28734711258, 187500.0, 30509.550036138302, 25790.314470567046, 187500.0, 187500.0, -187500.02235174447, 29687.2070058831, -0.12, 0.974, -0.094, 192.0, 0.0, 0.0, 0.0, 0.0, 0.0, 0.0, 0.0, 0.0, 0.0, 1.69895908949613E9, 0.0, 2023-11-02 17:04:49.496
7.0, -76758.52796537017, 187500.0, 30515.808524585787, 25795.790647958594, 187500.0, 187500.0, -187500.02235174447, 29691.856168729806, -0.12, 0.974, -0.094, 192.0, 0.0, 0.0, 0.0, 0.0, 0.0, 0.0, 0.0, 0.0, 0.0, 1.6989590894961393E9, 0.0, 2023-11-02 17:04:49.496
8.0, -76831.72992846131, 187500.0, 30507.493675648413, 25791.186188600805, 187500.0, 187500.0, -187500.02235174447, 29682.602546525308, -0.13, 0.978, -0.08, 192.0, 251.0, 240.0, 30.0, 144.0, 253.0, 128.0, 0.0, 0.0, 0.0, 1.6989590894961717E9, 0.0, 2023-11-02 17:04:49.496
9.0, -76877.77452203924, 187500.0, 30511.919321050565, 25786.7381914542, 187500.0, 187500.0, -187500.02235174447, 29683.384857581244, -0.13, 0.978, -0.08, 192.0, 0.0, 0.0, 0.0, 0.0, 0.0, 0.0, 0.0, 0.0, 0.0, 1.6989590894961822E9, 0.0, 2023-11-02 17:04:49.496
10.0, -76987.5662908037, 187500.0, 30517.261387975384, 25790.20271184477, 187500.0, 187500.0, -187500.02235174447, 29685.664735515686, -0.13, 0.978, -0.08, 192.0, 0.0, 0.0, 0.0, 0.0, 0.0, 0.0, 0.0, 0.0, 0.0, 1.6989590894961915E9, 0.0, 2023-11-02 17:04:49.496
11.0, -77137.30062690981, 187500.0, 30519.027175787352, 25791.476761278722, 187500.0, 187500.0, -187500.02235174447, 29688.16813089468, -0.13, 0.978, -0.08, 192.0, 0.0, 0.0, 0.0, 0.0, 0.0, 0.0, 0.0, 0.0, 0.0, 1.698959089496203E9, 0.0, 2023-11-02 17:04:49.496
12.0, -77232.29554084486, 187500.0, 30521.37410895516, 25791.789685701096, 187500.0, 187500.0, -187500.02235174447, 29689.620994284272, -0.13, 0.978, -0.08, 192.0, 0.0, 0.0, 0.0, 0.0, 0.0, 0.0, 0.0, 0.0, 0.0, 1.6989590894962127E9, 0.0, 2023-11-02 17:04:49.496
13.0, -77238.88930545919, 187500.0, 30519.205989742994, 25782.44665651878, 187500.0, 187500.0, -187500.02235174447, 29685.97765993806, -0.13, 0.978, -0.08, 192.0, 0.0, 0.0, 0.0, 0.0, 0.0, 0.0, 0.0, 0.0, 0.0, 1.6989590894962225E9, 0.0, 2023-11-02 17:04:49.496
14.0, -77307.57621617035, 187500.0, 30529.063109047787, 25781.61964197393, 187500.0, 187500.0, -187500.02235174447, 29693.73371526405, -0.13, 0.978, -0.08, 192.0, 0.0, 0.0, 0.0, 0.0, 0.0, 0.0, 0.0, 0.0, 0.0, 1.698959089496232E9, 0.0, 2023-11-02 17:04:49.496
15.0, -77448.4816132166, 187500.0, 30534.56163818379, 25788.14635135488, 187500.0, 187500.0, -187500.02235174447, 29698.718154277583, -0.13, 0.978, -0.08, 192.0, 0.0, 0.0, 0.0, 0.0, 0.0, 0.0, 0.0, 0.0, 0.0, 1.6989590894962416E9, 0.0, 2023-11-02 17:04:49.496
16.0, -77549.04211152102, 187500.0, 30534.8075073728, 25792.39318280139, 187500.0, 187500.0, -187500.02235174447, 29697.153532165714, -0.13, 0.978, -0.08, 192.0, 0.0, 0.0, 0.0, 0.0, 0.0, 0.0, 0.0, 0.0, 0.0, 1.698959089496251E9, 0.0, 2023-11-02 17:04:49.496
17.0, -77549.51149815459, 187500.0, 30532.95231258301, 25788.123999610427, 187500.0, 187500.0, -187500.02235174447, 29692.325555363364, -0.13, 0.978, -0.08, 192.0, 0.0, 0.0, 0.0, 0.0, 0.0, 0.0, 0.0, 0.0, 0.0, 1.6989590894962606E9, 0.0, 2023-11-02 17:04:49.496
18.0, -77524.4998961091, 187500.0, 30527.40907995809, 25775.405857015357, 187500.0, 187500.0, -187500.02235174447, 29682.669601758673, -0.11800000000000001, 0.96, -0.074, 192.0, 252.0, 80.0, 30.0, 0.0, 253.0, 176.0, 0.0, 0.0, 0.0, 1.6989590894962702E9, 0.0, 2023-11-02 17:04:49.496
19.0, -77612.65517624083, 187500.0, 30535.008673072898, 25772.656592447354, 187500.0, 187500.0, -187500.02235174447, 29687.072895416368, -0.11800000000000001, 0.96, -0.074, 192.0, 0.0, 0.0, 0.0, 0.0, 0.0, 0.0, 0.0, 0.0, 0.0, 1.6989590894962804E9, 0.0, 2023-11-02 17:04:49.496
20.0, -77685.92419456532, 187500.0, 30538.316731252282, 25775.651726204364, 187500.0, 187500.0, -187500.02235174447, 29686.379991338254, -0.11800000000000001, 0.96, -0.074, 192.0, 0.0, 0.0, 0.0, 0.0, 0.0, 0.0, 0.0, 0.0, 0.0, 1.69895908949629E9, 0.0, 2023-11-02 17:04:49.496
21.0, -77634.38107185139, 187500.0, 30533.242885260926, 25770.466121490732, 187500.0, 187500.0, -187500.02235174447, 29674.690028988127, -0.11800000000000001, 0.96, -0.074, 192.0, 0.0, 0.0, 0.0, 0.0, 0.0, 0.0, 0.0, 0.0, 0.0, 1.6989590894962995E9, 0.0, 2023-11-02 17:04:49.496
22.0, -77583.93318461576, 187500.0, 30536.685053907044, 25767.560394711545, 187500.0, 187500.0, -187500.02235174447, 29673.684200487638, -0.11800000000000001, 0.96, -0.074, 192.0, 0.0, 0.0, 0.0, 0.0, 0.0, 0.0, 0.0, 0.0, 0.0, 1.6989590894963093E9, 0.0, 2023-11-02 17:04:49.496
23.0, -77619.6736239998, 187500.0, 30538.428489974558, 25759.178490540802, 187500.0, 187500.0, -187500.02235174447, 29671.136101619733, -0.11800000000000001, 0.96, -0.074, 192.0, 0.0, 0.0, 0.0, 0.0, 0.0, 0.0, 0.0, 0.0, 0.0, 1.6989590894963272E9, 0.0, 2023-11-02 17:04:49.496
24.0, -77674.56950838203, 187500.0, 30536.86386786269, 25750.841289858974, 187500.0, 187500.0, -187500.02235174447, 29665.279944572445, -0.11800000000000001, 0.96, -0.074, 192.0, 0.0, 0.0, 0.0, 0.0, 0.0, 0.0, 0.0, 0.0, 0.0, 1.6989590894963367E9, 0.0, 2023-11-02 17:04:49.496
25.0, -77638.73966202018, 187500.0, 30536.86386786269, 25749.656647402844, 187500.0, 187500.0, -187500.02235174447, 29661.949534648604, -0.11800000000000001, 0.96, -0.074, 192.0, 0.0, 0.0, 0.0, 0.0, 0.0, 0.0, 0.0, 0.0, 0.0, 1.6989590894963465E9, 0.0, 2023-11-02 17:04:49.496
26.0, -77560.75442561561, 187500.0, 30534.56163818379, 25743.398158955355, 187500.0, 187500.0, -187500.02235174447, 29656.607467723785, -0.11800000000000001, 0.96, -0.074, 192.0, 0.0, 0.0, 0.0, 0.0, 0.0, 0.0, 0.0, 0.0, 0.0, 1.698959089496356E9, 0.0, 2023-11-02 17:04:49.496
27.0, -77561.31321922698, 187500.0, 30541.20010628702, 25743.12993802189, 187500.0, 187500.0, -187500.02235174447, 29660.049636369902, -0.11800000000000001, 0.96, -0.074, 192.0, 0.0, 0.0, 0.0, 0.0, 0.0, 0.0, 0.0, 0.0, 0.0, 1.6989590894963665E9, 0.0, 2023-11-02 17:04:49.496
28.0, -77605.3685075484, 187500.0, 30549.47025173548, 25755.08812130548, 187500.0, 187500.0, -187500.02235174447, 29665.749331206007, -0.1, 0.962, -0.078, 192.0, 252.0, 224.0, 30.0, 16.0, 253.0, 144.0, 0.0, 0.0, 0.0, 1.698959089496376E9, 0.0, 2023-11-02 17:04:49.496
29.0, -77541.37546317285, 187500.0, 30547.168022056583, 25759.24554577417, 187500.0, 187500.0, -187500.02235174447, 29661.077816614845, -0.1, 0.962, -0.078, 192.0, 0.0, 0.0, 0.0, 0.0, 0.0, 0.0, 0.0, 0.0, 0.0, 1.6989590894963863E9, 0.0, 2023-11-02 17:04:49.496
30.0, -77419.35729019133, 187500.0, 30544.172888299574, 25756.09394980597, 187500.0, 187500.0, -187500.02235174447, 29657.993275880013, -0.1, 0.962, -0.078, 192.0, 0.0, 0.0, 0.0, 0.0, 0.0, 0.0, 0.0, 0.0, 0.0, 1.698959089496396E9, 0.0, 2023-11-02 17:04:49.496
31.0, -77358.24762085052, 187500.0, 30540.037815575342, 25749.388426469377, 187500.0, 187500.0, -187500.02235174447, 29654.86403165627, -0.1, 0.962, -0.078, 192.0, 0.0, 0.0, 0.0, 0.0, 0.0, 0.0, 0.0, 0.0, 0.0, 1.6989590894964056E9, 0.0, 2023-11-02 17:04:49.496
32.0, -77357.04062664993, 187500.0, 30540.171926042072, 25752.920002093317, 187500.0, 187500.0, -187500.02235174447, 29655.24401131201, -0.1, 0.962, -0.078, 192.0, 0.0, 0.0, 0.0, 0.0, 0.0, 0.0, 0.0, 0.0, 0.0, 1.6989590894964151E9, 0.0, 2023-11-02 17:04:49.496
33.0, -77275.05442798787, 187500.0, 30537.243847518428, 25753.702313149253, 187500.0, 187500.0, -187500.02235174447, 29648.829060653337, -0.1, 0.962, -0.078, 192.0, 0.0, 0.0, 0.0, 0.0, 0.0, 0.0, 0.0, 0.0, 0.0, 1.698959089496426E9, 0.0, 2023-11-02 17:04:49.496
34.0, -77142.53093511236, 187500.0, 30541.04364407583, 25750.930696836796, 187500.0, 187500.0, -187500.02235174447, 29649.38785426472, -0.1, 0.962, -0.078, 192.0, 0.0, 0.0, 0.0, 0.0, 0.0, 0.0, 0.0, 0.0, 0.0, 1.698959089496436E9, 0.0, 2023-11-02 17:04:49.496
35.0, -77018.76932606332, 187500.0, 30536.28272250685, 25741.677074632298, 187500.0, 187500.0, -187500.02235174447, 29644.515173973465, -0.1, 0.962, -0.078, 192.0, 0.0, 0.0, 0.0, 0.0, 0.0, 0.0, 0.0, 0.0, 0.0, 1.6989590894964457E9, 0.0, 2023-11-02 17:04:49.496
36.0, -76970.80248246223, 187500.0, 30536.9085713516, 25737.452594930244, 187500.0, 187500.0, -187500.02235174447, 29644.470470484554, -0.1, 0.962, -0.078, 192.0, 0.0, 0.0, 0.0, 0.0, 0.0, 0.0, 0.0, 0.0, 0.0, 1.6989590894964552E9, 0.0, 2023-11-02 17:04:49.496
37.0, -76899.7015833499, 187500.0, 30539.479021963958, 25735.08331001798, 187500.0, 187500.0, -187500.02235174447, 29645.521002473954, -0.08600000000000001, 0.964, -0.08, 192.0, 253.0, 80.0, 30.0, 32.0, 253.0, 128.0, 0.0, 0.0, 0.0, 1.6989590894964647E9, 0.0, 2023-11-02 17:04:49.496
38.0, -76737.49497383773, 187500.0, 30534.51693469488, 25732.334045449978, 187500.0, 187500.0, -187500.02235174447, 29641.609447194274, -0.08600000000000001, 0.964, -0.08, 192.0, 0.0, 0.0, 0.0, 0.0, 0.0, 0.0, 0.0, 0.0, 0.0, 1.6989590894964757E9, 0.0, 2023-11-02 17:04:49.496
39.0, -76592.56626278952, 187500.0, 30531.879428849155, 25722.14164997836, 187500.0, 187500.0, -187500.02235174447, 29637.83200238133, -0.08600000000000001, 0.964, -0.08, 192.0, 0.0, 0.0, 0.0, 0.0, 0.0, 0.0, 0.0, 0.0, 0.0, 1.6989590894964957E9, 0.0, 2023-11-02 17:04:49.496
40.0, -76544.7111779107, 187500.0, 30533.868734105676, 25720.778193566584, 187500.0, 187500.0, -187500.02235174447, 29638.457851226074, -0.08600000000000001, 0.964, -0.08, 192.0, 0.0, 0.0, 0.0, 0.0, 0.0, 0.0, 0.0, 0.0, 0.0, 1.6989590894965076E9, 0.0, 2023-11-02 17:04:49.496
41.0, -76453.51606053306, 187500.0, 30530.89595209312, 25717.559542365023, 187500.0, 187500.0, -187500.02235174447, 29635.239200024513, -0.08600000000000001, 0.964, -0.08, 192.0, 0.0, 0.0, 0.0, 0.0, 0.0, 0.0, 0.0, 0.0, 0.0, 1.6989590894965177E9, 0.0, 2023-11-02 17:04:49.496
42.0, -76281.67584916066, 187500.0, 30530.806545115298, 25713.42446964079, 187500.0, 187500.0, -187500.02235174447, 29633.205191279078, -0.08600000000000001, 0.964, -0.08, 192.0, 0.0, 0.0, 0.0, 0.0, 0.0, 0.0, 0.0, 0.0, 0.0, 1.6989590894965277E9, 0.0, 2023-11-02 17:04:49.496
43.0, -76100.29144290584, 187500.0, 30530.068937548276, 25709.42350738329, 187500.0, 187500.0, -187500.02235174447, 29631.68527265612, -0.08600000000000001, 0.964, -0.08, 192.0, 0.0, 0.0, 0.0, 0.0, 0.0, 0.0, 0.0, 0.0, 0.0, 1.6989590894965384E9, 0.0, 2023-11-02 17:04:49.496
44.0, -76011.93499707401, 187500.0, 30535.27689400636, 25711.055184728528, 187500.0, 187500.0, -187500.02235174447, 29637.362615747767, -0.08600000000000001, 0.964, -0.08, 192.0, 0.0, 0.0, 0.0, 0.0, 0.0, 0.0, 0.0, 0.0, 0.0, 1.6989590894965484E9, 0.0, 2023-11-02 17:04:49.496
45.0, -75915.42016451599, 187500.0, 30531.208876515495, 25708.37297539389, 187500.0, 187500.0, -187500.02235174447, 29632.556990689875, -0.08600000000000001, 0.964, -0.08, 192.0, 0.0, 0.0, 0.0, 0.0, 0.0, 0.0, 0.0, 0.0, 0.0, 1.6989590894965596E9, 0.0, 2023-11-02 17:04:49.496
46.0, -75701.2681008897, 187500.0, 30525.08449853474, 25703.299129402534, 187500.0, 187500.0, -187500.02235174447, 29625.85146735328, -0.08600000000000001, 0.964, -0.08, 192.0, 0.0, 0.0, 0.0, 0.0, 0.0, 0.0, 0.0, 0.0, 0.0, 1.69895908949657E9, 0.0, 2023-11-02 17:04:49.496
47.0, -75489.19474949775, 187500.0, 30523.810449100787, 25700.728678790176, 187500.0, 187500.0, -187500.02235174447, 29626.231447009024, -0.08, 0.968, -0.08600000000000001, 192.0, 253.0, 128.0, 30.0, 64.0, 253.0, 80.0, 0.0, 0.0, 0.0, 1.6989590894965804E9, 0.0, 2023-11-02 17:04:49.496
48.0, -75368.56238467245, 187500.0, 30524.436297945536, 25699.94636773424, 187500.0, 187500.0, -187500.02235174447, 29631.886438356214, -0.08, 0.968, -0.08600000000000001, 192.0, 0.0, 0.0, 0.0, 0.0, 0.0, 0.0, 0.0, 0.0, 0.0, 1.698959089496591E9, 0.0, 2023-11-02 17:04:49.496
49.0, -75262.14572932073, 187500.0, 30521.530571166346, 25705.869580014896, 187500.0, 187500.0, -187500.02235174447, 29632.311121500865, -0.08, 0.968, -0.08600000000000001, 192.0, 0.0, 0.0, 0.0, 0.0, 0.0, 0.0, 0.0, 0.0, 0.0, 1.6989590894966016E9, 0.0, 2023-11-02 17:04:49.496
50.0, -75068.0208287264, 187500.0, 30514.08744026273, 25701.37687937938, 187500.0, 187500.0, -187500.02235174447, 29626.454964453576, -0.08, 0.968, -0.08600000000000001, 192.0, 0.0, 0.0, 0.0, 0.0, 0.0, 0.0, 0.0, 0.0, 0.0, 1.6989590894966125E9, 0.0, 2023-11-02 17:04:49.496
51.0, -74863.85999487161, 187500.0, 30514.020385029366, 25696.88417874386, 187500.0, 187500.0, -187500.02235174447, 29627.214923765056, -0.08, 0.968, -0.08600000000000001, 192.0, 0.0, 0.0, 0.0, 0.0, 0.0, 0.0, 0.0, 0.0, 0.0, 1.6989590894966233E9, 0.0, 2023-11-02 17:04:49.496
52.0, -74728.60958917256, 187500.0, 30512.03107977284, 25693.576120564478, 187500.0, 187500.0, -187500.02235174447, 29627.617255165253, -0.08, 0.968, -0.08600000000000001, 192.0, 0.0, 0.0, 0.0, 0.0, 0.0, 0.0, 0.0, 0.0, 0.0, 1.6989590894966342E9, 0.0, 2023-11-02 17:04:49.496
53.0, -74634.06171012661, 187500.0, 30508.07482100425, 25695.364260120903, 187500.0, 187500.0, -187500.02235174447, 29630.321816244345, -0.08, 0.968, -0.08600000000000001, 192.0, 0.0, 0.0, 0.0, 0.0, 0.0, 0.0, 0.0, 0.0, 0.0, 1.6989590894966457E9, 0.0, 2023-11-02 17:04:49.496
54.0, -74432.18075420627, 187500.0, 30492.585062096725, 25695.073687442982, 187500.0, 187500.0, -187500.02235174447, 29623.124554529735, -0.08, 0.968, -0.08600000000000001, 192.0, 0.0, 0.0, 0.0, 0.0, 0.0, 0.0, 0.0, 0.0, 0.0, 1.6989590894966772E9, 0.0, 2023-11-02 17:04:49.496
55.0, -74182.28825119595, 187500.0, 30487.064181216265, 25688.792847251043, 187500.0, 187500.0, -187500.02235174447, 29622.945740574094, -0.08, 0.968, -0.08600000000000001, 192.0, 0.0, 0.0, 0.0, 0.0, 0.0, 0.0, 0.0, 0.0, 0.0, 1.6989590894966896E9, 0.0, 2023-11-02 17:04:49.496
56.0, -74020.66278703962, 187500.0, 30487.533567849827, 25690.402172851824, 187500.0, 187500.0, -187500.02235174447, 29626.1420400312, -0.08, 0.968, -0.08600000000000001, 192.0, 0.0, 0.0, 0.0, 0.0, 0.0, 0.0, 0.0, 0.0, 0.0, 1.6989590894967015E9, 0.0, 2023-11-02 17:04:49.496
57.0, -73890.55328256528, 187500.0, 30481.878576502633, 25685.97652744967, 187500.0, 187500.0, -187500.02235174447, 29622.901037085183, -0.068, 0.972, -0.096, 192.0, 253.0, 224.0, 30.0, 96.0, 253.0, 0.0, 0.0, 0.0, 0.0, 1.6989590894967127E9, 0.0, 2023-11-02 17:04:49.496
58.0, -73692.00273656879, 187500.0, 30478.41405611206, 25684.523664060078, 187500.0, 187500.0, -187500.02235174447, 29621.895208584694, -0.068, 0.972, -0.096, 192.0, 0.0, 0.0, 0.0, 0.0, 0.0, 0.0, 0.0, 0.0, 0.0, 1.698959089496726E9, 0.0, 2023-11-02 17:04:49.496
59.0, -73451.65442844086, 187500.0, 30483.353791636684, 25683.830759981964, 187500.0, 187500.0, -187500.02235174447, 29627.81842086535, -0.068, 0.972, -0.096, 192.0, 0.0, 0.0, 0.0, 0.0, 0.0, 0.0, 0.0, 0.0, 0.0, 1.698959089496738E9, 0.0, 2023-11-02 17:04:49.496
60.0, -73263.27392617153, 187500.0, 30487.421809127547, 25682.33319310346, 187500.0, 187500.0, -187500.02235174447, 29632.467583712052, -0.068, 0.972, -0.096, 192.0, 0.0, 0.0, 0.0, 0.0, 0.0, 0.0, 0.0, 0.0, 0.0, 1.6989590894967492E9, 0.0, 2023-11-02 17:04:49.496
61.0, -73127.39767162772, 187500.0, 30488.293527161306, 25681.349716347424, 187500.0, 187500.0, -187500.02235174447, 29631.66292091166, -0.068, 0.972, -0.096, 192.0, 0.0, 0.0, 0.0, 0.0, 0.0, 0.0, 0.0, 0.0, 0.0, 1.6989590894967604E9, 0.0, 2023-11-02 17:04:49.496
62.0, -72948.58371598527, 187500.0, 30485.9465939935, 25682.89198671484, 187500.0, 187500.0, -187500.02235174447, 29627.1925720206, -0.068, 0.972, -0.096, 192.0, 0.0, 0.0, 0.0, 0.0, 0.0, 0.0, 0.0, 0.0, 0.0, 1.6989590894967744E9, 0.0, 2023-11-02 17:04:49.496
63.0, -72712.16931488148, 187500.0, 30486.907719005078, 25684.903643715817, 187500.0, 187500.0, -187500.02235174447, 29628.041938309903, -0.068, 0.972, -0.096, 192.0, 0.0, 0.0, 0.0, 0.0, 0.0, 0.0, 0.0, 0.0, 0.0, 1.6989590894967864E9, 0.0, 2023-11-02 17:04:49.496
64.0, -72501.63823385695, 187500.0, 30484.806655026277, 25686.244748383135, 187500.0, 187500.0, -187500.02235174447, 29629.114822043757, -0.068, 0.972, -0.096, 192.0, 0.0, 0.0, 0.0, 0.0, 0.0, 0.0, 0.0, 0.0, 0.0, 1.6989590894967976E9, 0.0, 2023-11-02 17:04:49.496
65.0, -72381.89993880987, 187500.0, 30482.61618406966, 25680.053315169018, 187500.0, 187500.0, -187500.02235174447, 29628.95835983257, -0.068, 0.972, -0.096, 192.0, 0.0, 0.0, 0.0, 0.0, 0.0, 0.0, 0.0, 0.0, 0.0, 1.698959089496811E9, 0.0, 2023-11-02 17:04:49.496
66.0, -72260.2617454841, 187500.0, 30482.772646280846, 25683.339021603948, 187500.0, 187500.0, -187500.02235174447, 29630.880609855725, -0.068, 0.972, -0.096, 192.0, 0.0, 0.0, 0.0, 0.0, 0.0, 0.0, 0.0, 0.0, 0.0, 1.6989590894968245E9, 0.0, 2023-11-02 17:04:49.496
67.0, -72044.23213532355, 187500.0, 30478.70462878998, 25680.90268145832, 187500.0, 187500.0, -187500.02235174447, 29629.539505188408, -0.082, 0.978, -0.108, 192.0, 253.0, 112.0, 30.0, 144.0, 252.0, 160.0, 0.0, 0.0, 0.0, 1.6989590894968364E9, 0.0, 2023-11-02 17:04:49.496
68.0, -71841.59122009174, 187500.0, 30477.296468889293, 25676.70055350072, 187500.0, 187500.0, -187500.02235174447, 29631.461755211563, -0.082, 0.978, -0.108, 192.0, 0.0, 0.0, 0.0, 0.0, 0.0, 0.0, 0.0, 0.0, 0.0, 1.6989590894968495E9, 0.0, 2023-11-02 17:04:49.496
69.0, -71723.26108494533, 187500.0, 30474.435445599014, 25679.069838412983, 187500.0, 187500.0, -187500.02235174447, 29631.05942381137, -0.082, 0.978, -0.108, 192.0, 0.0, 0.0, 0.0, 0.0, 0.0, 0.0, 0.0, 0.0, 0.0, 1.698959089496995E9, 0.0, 2023-11-02 17:04:49.496
70.0, -71603.902769554, 187500.0, 30469.719227518945, 25678.913376201795, 187500.0, 187500.0, -187500.02235174447, 29627.550199931888, -0.082, 0.978, -0.108, 192.0, 0.0, 0.0, 0.0, 0.0, 0.0, 0.0, 0.0, 0.0, 0.0, 1.6989590894970126E9, 0.0, 2023-11-02 17:04:49.497
0.0, 0.0, 0.0, 0.0, 0.0, 0.0, 0.0, 0.0, 0.0, -0.082, 0.978, -0.108, 192.0, 0.0, 0.0, 0.0, 0.0, 0.0, 0.0, 0.0, 0.0, 0.0, 1.6989590895883536E9, 0.0, 2023-11-02 17:04:49.588
1.0, -53022.29410675694, 187500.0, 30123.937740795343, 25584.29844192248, 187500.0, 187500.0, -187500.02235174447, 29633.026377323436, -0.064, 0.97, -0.122, 192.0, 254.0, 0.0, 30.0, 80.0, 252.0, 48.0, 0.0, 0.0, 0.0, 1.6989590900736392E9, 0.0, 2023-11-02 17:04:50.073
2.0, -52984.56436211638, 187500.0, 30111.711336578293, 25568.696924292675, 187500.0, 187500.0, -187500.02235174447, 29617.84954283828, -0.064, 0.97, -0.122, 192.0, 0.0, 0.0, 0.0, 0.0, 0.0, 0.0, 0.0, 0.0, 0.0, 1.6989590900737505E9, 0.0, 2023-11-02 17:04:50.073
3.0, -52929.199091100585, 187500.0, 30118.170990725877, 25562.594898056377, 187500.0, 187500.0, -187500.02235174447, 29620.732917873018, -0.064, 0.97, -0.122, 192.0, 0.0, 0.0, 0.0, 0.0, 0.0, 0.0, 0.0, 0.0, 0.0, 1.6989590900737624E9, 0.0, 2023-11-02 17:04:50.073
4.0, -52926.18160559912, 187500.0, 30119.981482026757, 25559.733874766098, 187500.0, 187500.0, -187500.02235174447, 29623.3927754632, -0.064, 0.97, -0.122, 192.0, 0.0, 0.0, 0.0, 0.0, 0.0, 0.0, 0.0, 0.0, 0.0, 1.6989590900737815E9, 0.0, 2023-11-02 17:04:50.073
5.0, -52990.46522265259, 187500.0, 30122.82015357258, 25553.520089807524, 187500.0, 187500.0, -187500.02235174447, 29626.43261270912, -0.064, 0.97, -0.122, 192.0, 0.0, 0.0, 0.0, 0.0, 0.0, 0.0, 0.0, 0.0, 0.0, 1.698959090073792E9, 0.0, 2023-11-02 17:04:50.073
6.0, -52999.54003090144, 187500.0, 30120.562627382595, 25555.28587761949, 187500.0, 187500.0, -187500.02235174447, 29623.213961507558, -0.064, 0.97, -0.122, 192.0, 0.0, 0.0, 0.0, 0.0, 0.0, 0.0, 0.0, 0.0, 0.0, 1.698959090073802E9, 0.0, 2023-11-02 17:04:50.073
7.0, -52935.43522780362, 187500.0, 30123.647168117426, 25557.856328231854, 187500.0, 187500.0, -187500.02235174447, 29624.756231874973, -0.064, 0.97, -0.122, 192.0, 0.0, 0.0, 0.0, 0.0, 0.0, 0.0, 0.0, 0.0, 0.0, 1.6989590900738115E9, 0.0, 2023-11-02 17:04:50.073
8.0, -52913.6422769597, 187500.0, 30126.0611565186, 25558.59393579888, 187500.0, 187500.0, -187500.02235174447, 29626.879647598227, -0.078, 0.974, -0.128, 192.0, 253.0, 144.0, 30.0, 112.0, 252.0, 0.0, 0.0, 0.0, 0.0, 1.6989590900738215E9, 0.0, 2023-11-02 17:04:50.073
9.0, -52983.33501617134, 187500.0, 30128.788069342147, 25559.420950343723, 187500.0, 187500.0, -187500.02235174447, 29629.360691232767, -0.078, 0.974, -0.128, 192.0, 0.0, 0.0, 0.0, 0.0, 0.0, 0.0, 0.0, 0.0, 0.0, 1.6989590900738325E9, 0.0, 2023-11-02 17:04:50.073
10.0, -53034.40875225172, 187500.0, 30129.972711798277, 25566.77467426952, 187500.0, 187500.0, -187500.02235174447, 29630.947665089094, -0.078, 0.974, -0.128, 192.0, 0.0, 0.0, 0.0, 0.0, 0.0, 0.0, 0.0, 0.0, 0.0, 1.698959090073842E9, 0.0, 2023-11-02 17:04:50.073
11.0, -52974.32726315585, 187500.0, 30125.882342562956, 25567.177005669717, 187500.0, 187500.0, -187500.02235174447, 29624.53271443042, -0.078, 0.974, -0.128, 192.0, 0.0, 0.0, 0.0, 0.0, 0.0, 0.0, 0.0, 0.0, 0.0, 1.6989590900738516E9, 0.0, 2023-11-02 17:04:50.073
12.0, -52955.12711466874, 187500.0, 30131.67144437688, 25570.86504350484, 187500.0, 187500.0, -187500.02235174447, 29629.13717378821, -0.078, 0.974, -0.128, 192.0, 0.0, 0.0, 0.0, 0.0, 0.0, 0.0, 0.0, 0.0, 0.0, 1.6989590900738616E9, 0.0, 2023-11-02 17:04:50.073
13.0, -53025.49040621405, 187500.0, 30133.124307766477, 25575.15657844026, 187500.0, 187500.0, -187500.02235174447, 29631.595865678297, -0.078, 0.974, -0.128, 192.0, 0.0, 0.0, 0.0, 0.0, 0.0, 0.0, 0.0, 0.0, 0.0, 1.6989590900738711E9, 0.0, 2023-11-02 17:04:50.073
14.0, -53089.10347093386, 187500.0, 30134.420708944883, 25581.705639565665, 187500.0, 187500.0, -187500.02235174447, 29633.361653490265, -0.078, 0.974, -0.128, 192.0, 0.0, 0.0, 0.0, 0.0, 0.0, 0.0, 0.0, 0.0, 0.0, 1.6989590900739703E9, 0.0, 2023-11-02 17:04:50.073
15.0, -53047.30570880243, 187500.0, 30132.29729322163, 25585.773657056532, 187500.0, 187500.0, -187500.02235174447, 29632.62404592324, -0.078, 0.974, -0.128, 192.0, 0.0, 0.0, 0.0, 0.0, 0.0, 0.0, 0.0, 0.0, 0.0, 1.69895909007398E9, 0.0, 2023-11-02 17:04:50.073
16.0, -53012.481690941066, 187500.0, 30137.661711890905, 25584.097276222383, 187500.0, 187500.0, -187500.02235174447, 29636.937932603116, -0.078, 0.974, -0.128, 192.0, 0.0, 0.0, 0.0, 0.0, 0.0, 0.0, 0.0, 0.0, 0.0, 1.6989590900739896E9, 0.0, 2023-11-02 17:04:50.073
17.0, -53067.64579625676, 187500.0, 30142.333226482064, 25585.036049489507, 187500.0, 187500.0, -187500.02235174447, 29639.933066360125, -0.078, 0.974, -0.128, 192.0, 0.0, 0.0, 0.0, 0.0, 0.0, 0.0, 0.0, 0.0, 0.0, 1.6989590900739996E9, 0.0, 2023-11-02 17:04:50.073
18.0, -53151.26367226407, 187500.0, 30143.651979404927, 25585.818360545443, 187500.0, 187500.0, -187500.02235174447, 29641.989426850014, -0.088, 0.972, -0.138, 192.0, 253.0, 64.0, 30.0, 96.0, 251.0, 176.0, 0.0, 0.0, 0.0, 1.6989590900740092E9, 0.0, 2023-11-02 17:04:50.074
19.0, -53141.54066342601, 187500.0, 30141.707377637314, 25586.243043690094, 187500.0, 187500.0, -187500.02235174447, 29640.782432649426, -0.088, 0.972, -0.138, 192.0, 0.0, 0.0, 0.0, 0.0, 0.0, 0.0, 0.0, 0.0, 0.0, 1.6989590900740197E9, 0.0, 2023-11-02 17:04:50.074
20.0, -53079.06753767342, 187500.0, 30136.521772923683, 25580.610404087354, 187500.0, 187500.0, -187500.02235174447, 29635.932104102627, -0.088, 0.972, -0.138, 192.0, 0.0, 0.0, 0.0, 0.0, 0.0, 0.0, 0.0, 0.0, 0.0, 1.6989590900740292E9, 0.0, 2023-11-02 17:04:50.074
21.0, -53127.056733018966, 187500.0, 30140.500383436727, 25578.509340108558, 187500.0, 187500.0, -187500.02235174447, 29639.642493682208, -0.088, 0.972, -0.138, 192.0, 0.0, 0.0, 0.0, 0.0, 0.0, 0.0, 0.0, 0.0, 0.0, 1.6989590900740387E9, 0.0, 2023-11-02 17:04:50.074
22.0, -53225.24794641113, 187500.0, 30146.267133506197, 25587.852369290875, 187500.0, 187500.0, -187500.02235174447, 29646.01274085197, -0.088, 0.972, -0.138, 192.0, 0.0, 0.0, 0.0, 0.0, 0.0, 0.0, 0.0, 0.0, 0.0, 1.6989590900740485E9, 0.0, 2023-11-02 17:04:50.074
23.0, -53229.98651623566, 187500.0, 30148.1670317849, 25591.428648403722, 187500.0, 187500.0, -187500.02235174447, 29646.68329318563, -0.088, 0.972, -0.138, 192.0, 0.0, 0.0, 0.0, 0.0, 0.0, 0.0, 0.0, 0.0, 0.0, 1.6989590900740588E9, 0.0, 2023-11-02 17:04:50.074
24.0, -53168.07218409445, 187500.0, 30145.149546283432, 25587.78531405751, 187500.0, 187500.0, -187500.02235174447, 29642.615275694763, -0.088, 0.972, -0.138, 192.0, 0.0, 0.0, 0.0, 0.0, 0.0, 0.0, 0.0, 0.0, 0.0, 1.6989590900740683E9, 0.0, 2023-11-02 17:04:50.074
25.0, -53189.48515528264, 187500.0, 30148.859935863013, 25588.858197791364, 187500.0, 187500.0, -187500.02235174447, 29647.10797633028, -0.088, 0.972, -0.138, 192.0, 0.0, 0.0, 0.0, 0.0, 0.0, 0.0, 0.0, 0.0, 0.0, 1.698959090074078E9, 0.0, 2023-11-02 17:04:50.074
26.0, -53284.36831049542, 187500.0, 30152.413863231406, 25597.68713685121, 187500.0, 187500.0, -187500.02235174447, 29652.651208955194, -0.088, 0.972, -0.138, 192.0, 0.0, 0.0, 0.0, 0.0, 0.0, 0.0, 0.0, 0.0, 0.0, 1.6989590900740893E9, 0.0, 2023-11-02 17:04:50.074
27.0, -53317.09126437799, 187500.0, 30152.883249864968, 25601.822209575443, 187500.0, 187500.0, -187500.02235174447, 29653.165299077667, -0.088, 0.972, -0.138, 192.0, 0.0, 0.0, 0.0, 0.0, 0.0, 0.0, 0.0, 0.0, 0.0, 1.6989590900740988E9, 0.0, 2023-11-02 17:04:50.074
28.0, -53256.42862992628, 187500.0, 30147.54118294015, 25595.027279261027, 187500.0, 187500.0, -187500.02235174447, 29646.571534463354, -0.096, 0.968, -0.14, 192.0, 253.0, 0.0, 30.0, 64.0, 251.0, 160.0, 0.0, 0.0, 0.0, 1.6989590900741086E9, 0.0, 2023-11-02 17:04:50.074
29.0, -53285.08356631799, 187500.0, 30154.045540576644, 25594.244968205094, 187500.0, 187500.0, -187500.02235174447, 29654.551107233896, -0.096, 0.968, -0.14, 192.0, 0.0, 0.0, 0.0, 0.0, 0.0, 0.0, 0.0, 0.0, 0.0, 1.6989590900741472E9, 0.0, 2023-11-02 17:04:50.074
30.0, -53381.240770964716, 187500.0, 30152.570325442593, 25600.346994441392, 187500.0, 187500.0, -187500.02235174447, 29655.020493867458, -0.096, 0.968, -0.14, 192.0, 0.0, 0.0, 0.0, 0.0, 0.0, 0.0, 0.0, 0.0, 0.0, 1.6989590900741572E9, 0.0, 2023-11-02 17:04:50.074
31.0, -53401.37969271895, 187500.0, 30146.378892228473, 25602.582168886922, 187500.0, 187500.0, -187500.02235174447, 29650.840717654315, -0.096, 0.968, -0.14, 192.0, 0.0, 0.0, 0.0, 0.0, 0.0, 0.0, 0.0, 0.0, 0.0, 1.6989590900741668E9, 0.0, 2023-11-02 17:04:50.074
32.0, -53354.6421950629, 187500.0, 30143.49551719374, 25603.16331424276, 187500.0, 187500.0, -187500.02235174447, 29647.934990875125, -0.096, 0.968, -0.14, 192.0, 0.0, 0.0, 0.0, 0.0, 0.0, 0.0, 0.0, 0.0, 0.0, 1.6989590900741763E9, 0.0, 2023-11-02 17:04:50.074
33.0, -53328.75887498366, 187500.0, 30139.136927024952, 25597.374212428836, 187500.0, 187500.0, -187500.02235174447, 29645.096319329303, -0.096, 0.968, -0.14, 192.0, 0.0, 0.0, 0.0, 0.0, 0.0, 0.0, 0.0, 0.0, 0.0, 1.698959090074186E9, 0.0, 2023-11-02 17:04:50.074
34.0, -53396.685826383335, 187500.0, 30142.847316604533, 25597.97770952913, 187500.0, 187500.0, -187500.02235174447, 29649.499612986998, -0.096, 0.968, -0.14, 192.0, 0.0, 0.0, 0.0, 0.0, 0.0, 0.0, 0.0, 0.0, 0.0, 1.698959090074196E9, 0.0, 2023-11-02 17:04:50.074
35.0, -53452.87811194397, 187500.0, 30145.373063727984, 25608.415974189757, 187500.0, 187500.0, -187500.02235174447, 29654.01466536697, -0.096, 0.968, -0.14, 192.0, 0.0, 0.0, 0.0, 0.0, 0.0, 0.0, 0.0, 0.0, 0.0, 1.6989590900742059E9, 0.0, 2023-11-02 17:04:50.074
36.0, -53374.110564483475, 187500.0, 30135.806517101115, 25610.651148635287, 187500.0, 187500.0, -187500.02235174447, 29645.230429796033, -0.096, 0.968, -0.14, 192.0, 0.0, 0.0, 0.0, 0.0, 0.0, 0.0, 0.0, 0.0, 0.0, 1.6989590900742157E9, 0.0, 2023-11-02 17:04:50.074
37.0, -53298.62872345791, 187500.0, 30130.598560643026, 25602.895093309296, 187500.0, 187500.0, -187500.02235174447, 29641.34122626081, -0.096, 0.968, -0.14, 192.0, 0.0, 0.0, 0.0, 0.0, 0.0, 0.0, 0.0, 0.0, 0.0, 1.6989590900742252E9, 0.0, 2023-11-02 17:04:50.074
38.0, -53340.068857678045, 187500.0, 30136.00768280121, 25607.946587556195, 187500.0, 187500.0, -187500.02235174447, 29647.711473430572, -0.096, 0.968, -0.14, 192.0, 253.0, 0.0, 30.0, 64.0, 251.0, 160.0, 0.0, 0.0, 0.0, 1.6989590900742352E9, 0.0, 2023-11-02 17:04:50.074
39.0, -53377.03864300712, 187500.0, 30134.040729289143, 25606.180799744227, 187500.0, 187500.0, -187500.02235174447, 29647.53265947493, -0.096, 0.968, -0.14, 192.0, 0.0, 0.0, 0.0, 0.0, 0.0, 0.0, 0.0, 0.0, 0.0, 1.6989590900742455E9, 0.0, 2023-11-02 17:04:50.074
40.0, -53309.514023007636, 187500.0, 30130.509153665207, 25607.030166033528, 187500.0, 187500.0, -187500.02235174447, 29647.085624585823, -0.096, 0.968, -0.14, 192.0, 0.0, 0.0, 0.0, 0.0, 0.0, 0.0, 0.0, 0.0, 0.0, 1.6989590900742552E9, 0.0, 2023-11-02 17:04:50.074
41.0, -53214.38499860585, 187500.0, 30126.709357107804, 25606.4937241666, 187500.0, 187500.0, -187500.02235174447, 29646.213906552068, -0.096, 0.968, -0.14, 192.0, 0.0, 0.0, 0.0, 0.0, 0.0, 0.0, 0.0, 0.0, 0.0, 1.6989590900742648E9, 0.0, 2023-11-02 17:04:50.074
42.0, -53241.02827799658, 187500.0, 30131.984368799254, 25608.97476780114, 187500.0, 187500.0, -187500.02235174447, 29653.120595588756, -0.096, 0.968, -0.14, 192.0, 0.0, 0.0, 0.0, 0.0, 0.0, 0.0, 0.0, 0.0, 0.0, 1.6989590900742745E9, 0.0, 2023-11-02 17:04:50.074
43.0, -53303.59081072698, 187500.0, 30133.459583933305, 25619.234218506124, 187500.0, 187500.0, -187500.02235174447, 29655.86986015676, -0.096, 0.968, -0.14, 192.0, 0.0, 0.0, 0.0, 0.0, 0.0, 0.0, 0.0, 0.0, 0.0, 1.698959090074284E9, 0.0, 2023-11-02 17:04:50.074
44.0, -53240.67065008529, 187500.0, 30123.58011288406, 25616.015567304563, 187500.0, 187500.0, -187500.02235174447, 29645.610409451772, -0.096, 0.968, -0.14, 192.0, 0.0, 0.0, 0.0, 0.0, 0.0, 0.0, 0.0, 0.0, 0.0, 1.6989590900743024E9, 0.0, 2023-11-02 17:04:50.074
45.0, -53155.219931032654, 187500.0, 30129.39156644244, 25615.993215560105, 187500.0, 187500.0, -187500.02235174447, 29650.259572298477, -0.096, 0.968, -0.14, 192.0, 0.0, 0.0, 0.0, 0.0, 0.0, 0.0, 0.0, 0.0, 0.0, 1.698959090074312E9, 0.0, 2023-11-02 17:04:50.074
46.0, -53154.61643393236, 187500.0, 30131.626740887972, 25623.97278833065, 187500.0, 187500.0, -187500.02235174447, 29654.48405200053, -0.096, 0.968, -0.14, 192.0, 0.0, 0.0, 0.0, 0.0, 0.0, 0.0, 0.0, 0.0, 0.0, 1.6989590900743215E9, 0.0, 2023-11-02 17:04:50.074
47.0, -53194.223725107164, 187500.0, 30132.051424032623, 25624.017491819563, 187500.0, 187500.0, -187500.02235174447, 29655.087549100823, -0.09, 0.968, -0.134, 192.0, 253.0, 48.0, 30.0, 64.0, 251.0, 208.0, 0.0, 0.0, 0.0, 1.6989590900743332E9, 0.0, 2023-11-02 17:04:50.074
48.0, -53173.92834114174, 187500.0, 30134.86774383399, 25632.377044245844, 187500.0, 187500.0, -187500.02235174447, 29658.641476469216, -0.09, 0.968, -0.134, 192.0, 0.0, 0.0, 0.0, 0.0, 0.0, 0.0, 0.0, 0.0, 0.0, 1.6989590900743437E9, 0.0, 2023-11-02 17:04:50.074
49.0, -53061.275549087, 187500.0, 30127.335205952553, 25632.712320412676, 187500.0, 187500.0, -187500.02235174447, 29651.891249643715, -0.09, 0.968, -0.134, 192.0, 0.0, 0.0, 0.0, 0.0, 0.0, 0.0, 0.0, 0.0, 0.0, 1.698959090074353E9, 0.0, 2023-11-02 17:04:50.074
50.0, -53024.64103992475, 187500.0, 30124.63064487346, 25626.252666265093, 187500.0, 187500.0, -187500.02235174447, 29649.790185664915, -0.09, 0.968, -0.134, 192.0, 0.0, 0.0, 0.0, 0.0, 0.0, 0.0, 0.0, 0.0, 0.0, 1.6989590900743625E9, 0.0, 2023-11-02 17:04:50.074
51.0, -53047.05983961342, 187500.0, 30119.86972330448, 25624.799802875496, 187500.0, 187500.0, -187500.02235174447, 29646.929162374636, -0.09, 0.968, -0.134, 192.0, 0.0, 0.0, 0.0, 0.0, 0.0, 0.0, 0.0, 0.0, 0.0, 1.6989590900743723E9, 0.0, 2023-11-02 17:04:50.074
52.0, -53006.647885638224, 187500.0, 30117.254569203207, 25623.570456930454, 187500.0, 187500.0, -187500.02235174447, 29645.118671073757, -0.09, 0.968, -0.134, 192.0, 0.0, 0.0, 0.0, 0.0, 0.0, 0.0, 0.0, 0.0, 0.0, 1.698959090074382E9, 0.0, 2023-11-02 17:04:50.074
53.0, -52922.47121601954, 187500.0, 30118.305101192607, 25625.626817420343, 187500.0, 187500.0, -187500.02235174447, 29648.426729253144, -0.09, 0.968, -0.134, 192.0, 0.0, 0.0, 0.0, 0.0, 0.0, 0.0, 0.0, 0.0, 0.0, 1.6989590900743923E9, 0.0, 2023-11-02 17:04:50.074
54.0, -52875.152573007654, 187500.0, 30114.639415101938, 25619.92712258424, 187500.0, 187500.0, -187500.02235174447, 29645.990389107516, -0.09, 0.968, -0.134, 192.0, 0.0, 0.0, 0.0, 0.0, 0.0, 0.0, 0.0, 0.0, 0.0, 1.698959090074402E9, 0.0, 2023-11-02 17:04:50.074
55.0, -52909.99894261348, 187500.0, 30115.48878139124, 25618.58601791692, 187500.0, 187500.0, -187500.02235174447, 29647.085624585823, -0.09, 0.968, -0.134, 192.0, 0.0, 0.0, 0.0, 0.0, 0.0, 0.0, 0.0, 0.0, 0.0, 1.6989590900744119E9, 0.0, 2023-11-02 17:04:50.074
56.0, -52904.90274487767, 187500.0, 30114.997043013223, 25625.96209358717, 187500.0, 187500.0, -187500.02235174447, 29646.10214782979, -0.09, 0.968, -0.134, 192.0, 0.0, 0.0, 0.0, 0.0, 0.0, 0.0, 0.0, 0.0, 0.0, 1.6989590900744221E9, 0.0, 2023-11-02 17:04:50.074
57.0, -52794.30631331281, 187500.0, 30109.207941199296, 25621.156468529283, 187500.0, 187500.0, -187500.02235174447, 29639.66484542666, -0.082, 0.97, -0.13, 192.0, 253.0, 112.0, 30.0, 80.0, 251.0, 240.0, 0.0, 0.0, 0.0, 1.6989590900744321E9, 0.0, 2023-11-02 17:04:50.074
58.0, -52731.96729802696, 187500.0, 30109.96790051078, 25622.050538307496, 187500.0, 187500.0, -187500.02235174447, 29640.96124660507, -0.082, 0.97, -0.13, 192.0, 0.0, 0.0, 0.0, 0.0, 0.0, 0.0, 0.0, 0.0, 0.0, 1.6989590900744436E9, 0.0, 2023-11-02 17:04:50.074
59.0, -52739.34337369721, 187500.0, 30108.984423754744, 25621.87172435185, 187500.0, 187500.0, -187500.02235174447, 29639.731900660026, -0.082, 0.97, -0.13, 192.0, 0.0, 0.0, 0.0, 0.0, 0.0, 0.0, 0.0, 0.0, 0.0, 1.6989590900744708E9, 0.0, 2023-11-02 17:04:50.074
60.0, -52753.670841893065, 187500.0, 30113.0077377567, 25628.286675010524, 187500.0, 187500.0, -187500.02235174447, 29645.699816429595, -0.082, 0.97, -0.13, 192.0, 0.0, 0.0, 0.0, 0.0, 0.0, 0.0, 0.0, 0.0, 0.0, 1.6989590900744815E9, 0.0, 2023-11-02 17:04:50.074
61.0, -52673.74100372088, 187500.0, 30111.9572057673, 25633.271114024057, 187500.0, 187500.0, -187500.02235174447, 29648.87376414225, -0.082, 0.97, -0.13, 192.0, 0.0, 0.0, 0.0, 0.0, 0.0, 0.0, 0.0, 0.0, 0.0, 1.6989590900744925E9, 0.0, 2023-11-02 17:04:50.074
62.0, -52579.57310433067, 187500.0, 30107.71037432079, 25626.78910813202, 187500.0, 187500.0, -187500.02235174447, 29646.325665274344, -0.082, 0.97, -0.13, 192.0, 0.0, 0.0, 0.0, 0.0, 0.0, 0.0, 0.0, 0.0, 0.0, 1.698959090074505E9, 0.0, 2023-11-02 17:04:50.074
63.0, -52598.70619758442, 187500.0, 30109.90084527741, 25623.659863908277, 187500.0, 187500.0, -187500.02235174447, 29649.611371709274, -0.082, 0.97, -0.13, 192.0, 0.0, 0.0, 0.0, 0.0, 0.0, 0.0, 0.0, 0.0, 0.0, 1.698959090074516E9, 0.0, 2023-11-02 17:04:50.074
64.0, -52610.2173459789, 187500.0, 30108.224464443265, 25624.64334066431, 187500.0, 187500.0, -187500.02235174447, 29648.896115886702, -0.082, 0.97, -0.13, 192.0, 0.0, 0.0, 0.0, 0.0, 0.0, 0.0, 0.0, 0.0, 0.0, 1.698959090074526E9, 0.0, 2023-11-02 17:04:50.074
65.0, -52537.48476952133, 187500.0, 30106.19045569783, 25626.632645920832, 187500.0, 187500.0, -187500.02235174447, 29649.745482176007, -0.082, 0.97, -0.13, 192.0, 0.0, 0.0, 0.0, 0.0, 0.0, 0.0, 0.0, 0.0, 0.0, 1.698959090074536E9, 0.0, 2023-11-02 17:04:50.074
66.0, -52427.17891063439, 187500.0, 30104.469371374773, 25624.330416241937, 187500.0, 187500.0, -187500.02235174447, 29648.694950186607, -0.082, 0.97, -0.13, 192.0, 0.0, 0.0, 0.0, 0.0, 0.0, 0.0, 0.0, 0.0, 0.0, 1.6989590900745463E9, 0.0, 2023-11-02 17:04:50.074
67.0, -52417.120625629505, 187500.0, 30107.263339431687, 25622.788145874518, 187500.0, 187500.0, -187500.02235174447, 29651.15364207669, -0.07200000000000001, 0.972, -0.12, 192.0, 253.0, 192.0, 30.0, 96.0, 252.0, 64.0, 0.0, 0.0, 0.0, 1.6989590900745583E9, 0.0, 2023-11-02 17:04:50.074
68.0, -52417.45590179633, 187500.0, 30103.24002542973, 25619.144811528306, 187500.0, 187500.0, -187500.02235174447, 29646.370368763255, -0.07200000000000001, 0.972, -0.12, 192.0, 0.0, 0.0, 0.0, 0.0, 0.0, 0.0, 0.0, 0.0, 0.0, 1.6989590900745757E9, 0.0, 2023-11-02 17:04:50.074
69.0, -52338.73305782474, 187500.0, 30103.39648764092, 25618.92129408375, 187500.0, 187500.0, -187500.02235174447, 29645.319836773855, -0.07200000000000001, 0.972, -0.12, 192.0, 0.0, 0.0, 0.0, 0.0, 0.0, 0.0, 0.0, 0.0, 0.0, 1.6989590900745888E9, 0.0, 2023-11-02 17:04:50.074
70.0, -52233.09871352896, 187500.0, 30108.447981887817, 25623.704567397188, 187500.0, 187500.0, -187500.02235174447, 29650.684255443128, -0.07200000000000001, 0.972, -0.12, 192.0, 0.0, 0.0, 0.0, 0.0, 0.0, 0.0, 0.0, 0.0, 0.0, 1.698959090074602E9, 0.0, 2023-11-02 17:04:50.074
71.0, -52213.98797201967, 187500.0, 30113.87945579046, 25627.817288376962, 187500.0, 187500.0, -187500.02235174447, 29656.830985168337, -0.07200000000000001, 0.972, -0.12, 192.0, 0.0, 0.0, 0.0, 0.0, 0.0, 0.0, 0.0, 0.0, 0.0, 1.6989590900746171E9, 0.0, 2023-11-02 17:04:50.074
72.0, -52256.97037660723, 187500.0, 30115.399374413417, 25634.96984660266, 187500.0, 187500.0, -187500.02235174447, 29658.95440089159, -0.07200000000000001, 0.972, -0.12, 192.0, 0.0, 0.0, 0.0, 0.0, 0.0, 0.0, 0.0, 0.0, 0.0, 1.6989590900746305E9, 0.0, 2023-11-02 17:04:50.074
73.0, -52208.10946322793, 187500.0, 30110.280824933154, 25634.478108224645, 187500.0, 187500.0, -187500.02235174447, 29652.517098488464, -0.07200000000000001, 0.972, -0.12, 192.0, 0.0, 0.0, 0.0, 0.0, 0.0, 0.0, 0.0, 0.0, 0.0, 1.6989590900746453E9, 0.0, 2023-11-02 17:04:50.074
74.0, -52082.939694278204, 187500.0, 30105.586958597538, 25630.812422133975, 187500.0, 187500.0, -187500.02235174447, 29649.34315077581, -0.07200000000000001, 0.972, -0.12, 192.0, 0.0, 0.0, 0.0, 0.0, 0.0, 0.0, 0.0, 0.0, 0.0, 1.6989590900747125E9, 0.0, 2023-11-02 17:04:50.074
75.0, -52010.92237364321, 187500.0, 30104.134095207944, 25623.50340169709, 187500.0, 187500.0, -187500.02235174447, 29650.796014165404, -0.07200000000000001, 0.972, -0.12, 192.0, 0.0, 0.0, 0.0, 0.0, 0.0, 0.0, 0.0, 0.0, 0.0, 1.6989590900747392E9, 0.0, 2023-11-02 17:04:50.074
76.0, -52044.382935092806, 187500.0, 30107.889188276433, 25626.96792208766, 187500.0, 187500.0, -187500.02235174447, 29655.355770034286, -0.07200000000000001, 0.972, -0.12, 192.0, 0.0, 0.0, 0.0, 0.0, 0.0, 0.0, 0.0, 0.0, 0.0, 1.6989590900748084E9, 0.0, 2023-11-02 17:04:50.074
77.0, -51995.231449035586, 187500.0, 30098.724973049757, 25624.710395897677, 187500.0, 187500.0, -187500.02235174447, 29648.136156575223, -0.066, 0.968, -0.11800000000000001, 192.0, 253.0, 240.0, 30.0, 64.0, 252.0, 80.0, 0.0, 0.0, 0.0, 1.698959090074882E9, 0.0, 2023-11-02 17:04:50.074
78.0, -51852.26969149944, 187500.0, 30091.57241482406, 25615.63558764882, 187500.0, 187500.0, -187500.02235174447, 29640.760080904973, -0.066, 0.968, -0.11800000000000001, 192.0, 0.0, 0.0, 0.0, 0.0, 0.0, 0.0, 0.0, 0.0, 0.0, 1.698959090074898E9, 0.0, 2023-11-02 17:04:50.074
79.0, -51777.74897548545, 187500.0, 30095.282804403643, 25610.36057595737, 187500.0, 187500.0, -187500.02235174447, 29642.81644139486, -0.066, 0.968, -0.11800000000000001, 192.0, 0.0, 0.0, 0.0, 0.0, 0.0, 0.0, 0.0, 0.0, 0.0, 1.6989590900749125E9, 0.0, 2023-11-02 17:04:50.074
80.0, -51784.00746393293, 187500.0, 30097.696792804814, 25610.606445146375, 187500.0, 187500.0, -187500.02235174447, 29643.621104195252, -0.066, 0.968, -0.11800000000000001, 192.0, 0.0, 0.0, 0.0, 0.0, 0.0, 0.0, 0.0, 0.0, 0.0, 1.6989590900749264E9, 0.0, 2023-11-02 17:04:50.074
81.0, -51737.64994593262, 187500.0, 30093.740534036224, 25613.06513703646, 187500.0, 187500.0, -187500.02235174447, 29639.1954587931, -0.066, 0.968, -0.11800000000000001, 192.0, 0.0, 0.0, 0.0, 0.0, 0.0, 0.0, 0.0, 0.0, 0.0, 1.69895909007494E9, 0.0, 2023-11-02 17:04:50.074
82.0, -51609.86502288163, 187500.0, 30094.925176492357, 25618.317796983458, 187500.0, 187500.0, -187500.02235174447, 29641.274171027446, -0.066, 0.968, -0.11800000000000001, 192.0, 0.0, 0.0, 0.0, 0.0, 0.0, 0.0, 0.0, 0.0, 0.0, 1.698959090074954E9, 0.0, 2023-11-02 17:04:50.074
83.0, -51496.02758837075, 187500.0, 30096.981536982246, 25622.6987388967, 187500.0, 187500.0, -187500.02235174447, 29645.18572630712, -0.066, 0.968, -0.11800000000000001, 192.0, 0.0, 0.0, 0.0, 0.0, 0.0, 0.0, 0.0, 0.0, 0.0, 1.6989590900749693E9, 0.0, 2023-11-02 17:04:50.074
84.0, -51483.86823938707, 187500.0, 30102.72593530726, 25625.671520909254, 187500.0, 187500.0, -187500.02235174447, 29650.550144976398, -0.066, 0.968, -0.11800000000000001, 192.0, 0.0, 0.0, 0.0, 0.0, 0.0, 0.0, 0.0, 0.0, 0.0, 1.6989590900749838E9, 0.0, 2023-11-02 17:04:50.074
85.0, -51455.21330299536, 187500.0, 30101.54129285113, 25632.913486112775, 187500.0, 187500.0, -187500.02235174447, 29650.259572298477, -0.066, 0.968, -0.11800000000000001, 192.0, 0.0, 0.0, 0.0, 0.0, 0.0, 0.0, 0.0, 0.0, 0.0, 1.6989590900749953E9, 0.0, 2023-11-02 17:04:50.074
86.0, -51329.820016601094, 187500.0, 30099.90961550589, 25635.618047191867, 187500.0, 187500.0, -187500.02235174447, 29647.353845519287, -0.066, 0.968, -0.11800000000000001, 192.0, 0.0, 0.0, 0.0, 0.0, 0.0, 0.0, 0.0, 0.0, 0.0, 1.6989590900750055E9, 0.0, 2023-11-02 17:04:50.075
87.0, -51211.06519831005, 187500.0, 30103.485894618738, 25635.126308813848, 187500.0, 187500.0, -187500.02235174447, 29649.58901996482, -0.062, 0.962, -0.128, 192.0, 254.0, 16.0, 30.0, 16.0, 252.0, 0.0, 0.0, 0.0, 0.0, 1.698959090075018E9, 0.0, 2023-11-02 17:04:50.075
88.0, -51167.54635185556, 187500.0, 30110.683156333347, 25639.104919326892, 187500.0, 187500.0, -187500.02235174447, 29655.132252589734, -0.062, 0.962, -0.128, 192.0, 0.0, 0.0, 0.0, 0.0, 0.0, 0.0, 0.0, 0.0, 0.0, 1.6989590900750341E9, 0.0, 2023-11-02 17:04:50.075
89.0, -51099.52999347806, 187500.0, 30107.19628419832, 25639.93193387174, 187500.0, 187500.0, -187500.02235174447, 29652.62885721074, -0.062, 0.962, -0.128, 192.0, 0.0, 0.0, 0.0, 0.0, 0.0, 0.0, 0.0, 0.0, 0.0, 1.6989590900750475E9, 0.0, 2023-11-02 17:04:50.075
90.0, -50942.173712512704, 187500.0, 30106.65984233139, 25635.93097161424, 187500.0, 187500.0, -187500.02235174447, 29652.38298802173, -0.062, 0.962, -0.128, 192.0, 0.0, 0.0, 0.0, 0.0, 0.0, 0.0, 0.0, 0.0, 0.0, 1.6989590900752585E9, 0.0, 2023-11-02 17:04:50.075
91.0, -50787.3878821597, 187500.0, 30113.43242090135, 25630.633608178334, 187500.0, 187500.0, -187500.02235174447, 29658.261496813477, -0.062, 0.962, -0.128, 192.0, 0.0, 0.0, 0.0, 0.0, 0.0, 0.0, 0.0, 0.0, 0.0, 1.6989590900752754E9, 0.0, 2023-11-02 17:04:50.075
92.0, -50764.70086153756, 187500.0, 30128.318682708585, 25635.46158498068, 187500.0, 187500.0, -187500.02235174447, 29671.001991153003, -0.062, 0.962, -0.128, 192.0, 0.0, 0.0, 0.0, 0.0, 0.0, 0.0, 0.0, 0.0, 0.0, 1.6989590900752883E9, 0.0, 2023-11-02 17:04:50.075
93.0, -50739.912776936624, 187500.0, 30120.62968261596, 25638.74729141561, 187500.0, 187500.0, -187500.02235174447, 29663.648267227207, -0.062, 0.962, -0.128, 192.0, 0.0, 0.0, 0.0, 0.0, 0.0, 0.0, 0.0, 0.0, 0.0, 1.6989590900753E9, 0.0, 2023-11-02 17:04:50.075
94.0, -50599.342656057204, 187500.0, 30112.136019722944, 25629.583076188934, 187500.0, 187500.0, -187500.02235174447, 29654.26053455598, -0.062, 0.962, -0.128, 192.0, 0.0, 0.0, 0.0, 0.0, 0.0, 0.0, 0.0, 0.0, 0.0, 1.6989590900753145E9, 0.0, 2023-11-02 17:04:50.075
95.0, -50440.48880821333, 187500.0, 30115.421726157874, 25627.303198254493, 187500.0, 187500.0, -187500.02235174447, 29655.780453178937, -0.062, 0.962, -0.128, 192.0, 0.0, 0.0, 0.0, 0.0, 0.0, 0.0, 0.0, 0.0, 0.0, 1.6989590900753336E9, 0.0, 2023-11-02 17:04:50.075
96.0, -50379.468545850345, 187500.0, 30114.751173824214, 25624.12925054184, 187500.0, 187500.0, -187500.02235174447, 29656.2498398125, -0.062, 0.962, -0.128, 192.0, 0.0, 0.0, 0.0, 0.0, 0.0, 0.0, 0.0, 0.0, 0.0, 1.6989590900753465E9, 0.0, 2023-11-02 17:04:50.075
97.0, -50377.166316171446, 187500.0, 30109.699679577316, 25624.017491819563, 187500.0, 187500.0, -187500.02235174447, 29654.171127578156, -0.078, 0.972, -0.122, 192.0, 253.0, 144.0, 30.0, 96.0, 252.0, 48.0, 0.0, 0.0, 0.0, 1.6989590900753677E9, 0.0, 2023-11-02 17:04:50.075
98.0, -50291.93911456336, 187500.0, 30102.055382973598, 25623.056366807985, 187500.0, 187500.0, -187500.02235174447, 29650.639551954217, -0.078, 0.972, -0.122, 192.0, 0.0, 0.0, 0.0, 0.0, 0.0, 0.0, 0.0, 0.0, 0.0, 1.6989590900753827E9, 0.0, 2023-11-02 17:04:50.075
99.0, -50135.834531287495, 187500.0, 30092.555891580094, 25615.613235904366, 187500.0, 187500.0, -187500.02235174447, 29645.319836773855, -0.078, 0.972, -0.122, 192.0, 0.0, 0.0, 0.0, 0.0, 0.0, 0.0, 0.0, 0.0, 0.0, 1.6989590900753984E9, 0.0, 2023-11-02 17:04:50.075
100.0, -50055.14473380384, 187500.0, 30090.588938068027, 25604.54912239899, 187500.0, 187500.0, -187500.02235174447, 29644.179897806633, -0.078, 0.972, -0.122, 192.0, 0.0, 0.0, 0.0, 0.0, 0.0, 0.0, 0.0, 0.0, 0.0, 1.6989590900754175E9, 0.0, 2023-11-02 17:04:50.075
101.0, -50068.511076988114, 187500.0, 30095.282804403643, 25610.96407305766, 187500.0, 187500.0, -187500.02235174447, 29654.126424089245, -0.078, 0.972, -0.122, 192.0, 0.0, 0.0, 0.0, 0.0, 0.0, 0.0, 0.0, 0.0, 0.0, 1.698959090075433E9, 0.0, 2023-11-02 17:04:50.075
102.0, -50001.053512221995, 187500.0, 30086.587975810526, 25613.333357969925, 187500.0, 187500.0, -187500.02235174447, 29650.550144976398, -0.078, 0.972, -0.122, 192.0, 0.0, 0.0, 0.0, 0.0, 0.0, 0.0, 0.0, 0.0, 0.0, 1.698959090075453E9, 0.0, 2023-11-02 17:04:50.075
103.0, -49871.27928391448, 187500.0, 30081.67059203036, 25603.5432938985, 187500.0, 187500.0, -187500.02235174447, 29647.420900752655, -0.078, 0.972, -0.122, 192.0, 0.0, 0.0, 0.0, 0.0, 0.0, 0.0, 0.0, 0.0, 0.0, 1.6989590900754645E9, 0.0, 2023-11-02 17:04:50.075
104.0, -49829.88385318326, 187500.0, 30095.863949759478, 25610.606445146375, 187500.0, 187500.0, -187500.02235174447, 29664.318819560867, -0.078, 0.972, -0.122, 192.0, 0.0, 0.0, 0.0, 0.0, 0.0, 0.0, 0.0, 0.0, 0.0, 1.698959090075477E9, 0.0, 2023-11-02 17:04:50.075
105.0, -49847.69819351414, 187500.0, 30101.071906217567, 25613.333357969925, 187500.0, 187500.0, -187500.02235174447, 29673.14775862071, -0.078, 0.972, -0.122, 192.0, 0.0, 0.0, 0.0, 0.0, 0.0, 0.0, 0.0, 0.0, 0.0, 1.6989590900755513E9, 0.0, 2023-11-02 17:04:50.075
106.0, -49811.734236685545, 187500.0, 30098.501455605205, 25607.812477089465, 187500.0, 187500.0, -187500.02235174447, 29675.137063877235, -0.078, 0.972, -0.122, 192.0, 0.0, 0.0, 0.0, 0.0, 0.0, 0.0, 0.0, 0.0, 0.0, 1.6989590900755656E9, 0.0, 2023-11-02 17:04:50.075
107.0, -49652.52276093039, 187500.0, 30083.1011036755, 25597.553026384478, 187500.0, 187500.0, -187500.02235174447, 29664.989371894524, -0.07, 0.9520000000000001, -0.13, 192.0, 253.0, 208.0, 29.0, 192.0, 251.0, 240.0, 0.0, 0.0, 0.0, 1.6989590900755804E9, 0.0, 2023-11-02 17:04:50.075
108.0, -49529.9904978264, 187500.0, 30076.797911739104, 25586.332450667913, 187500.0, 187500.0, -187500.02235174447, 29662.843604426816, -0.07, 0.9520000000000001, -0.13, 192.0, 0.0, 0.0, 0.0, 0.0, 0.0, 0.0, 0.0, 0.0, 0.0, 1.6989590900756E9, 0.0, 2023-11-02 17:04:50.075
109.0, -49507.0352562708, 187500.0, 30073.042818670612, 25577.525863352523, 187500.0, 187500.0, -187500.02235174447, 29660.63078172574, -0.07, 0.9520000000000001, -0.13, 192.0, 0.0, 0.0, 0.0, 0.0, 0.0, 0.0, 0.0, 0.0, 0.0, 1.6989590900756156E9, 0.0, 2023-11-02 17:04:50.075
110.0, -49463.941092960966, 187500.0, 30067.588993023517, 25566.797026013974, 187500.0, 187500.0, -187500.02235174447, 29653.45587175559, -0.07, 0.9520000000000001, -0.13, 192.0, 0.0, 0.0, 0.0, 0.0, 0.0, 0.0, 0.0, 0.0, 0.0, 1.6989590900756319E9, 0.0, 2023-11-02 17:04:50.075
111.0, -49359.02200448776, 187500.0, 30065.95731567828, 25560.62794454431, 187500.0, 187500.0, -187500.02235174447, 29653.411168266677, -0.07, 0.9520000000000001, -0.13, 192.0, 0.0, 0.0, 0.0, 0.0, 0.0, 0.0, 0.0, 0.0, 0.0, 1.6989590900756593E9, 0.0, 2023-11-02 17:04:50.075
112.0, -49243.95522403184, 187500.0, 30060.548193520095, 25548.513299049533, 187500.0, 187500.0, -187500.02235174447, 29647.331493774833, -0.07, 0.9520000000000001, -0.13, 192.0, 0.0, 0.0, 0.0, 0.0, 0.0, 0.0, 0.0, 0.0, 0.0, 1.6989590900756729E9, 0.0, 2023-11-02 17:04:50.075
113.0, -49243.999927520745, 187500.0, 30061.196394109298, 25545.406406570248, 187500.0, 187500.0, -187500.02235174447, 29649.54431647591, -0.07, 0.9520000000000001, -0.13, 192.0, 0.0, 0.0, 0.0, 0.0, 0.0, 0.0, 0.0, 0.0, 0.0, 1.6989590900756855E9, 0.0, 2023-11-02 17:04:50.075
114.0, -49285.954151863356, 187500.0, 30065.666743000358, 25555.06236017494, 187500.0, 187500.0, -187500.02235174447, 29655.44517701211, -0.07, 0.9520000000000001, -0.13, 192.0, 0.0, 0.0, 0.0, 0.0, 0.0, 0.0, 0.0, 0.0, 0.0, 1.6989590900756989E9, 0.0, 2023-11-02 17:04:50.075
115.0, -49224.95624124483, 187500.0, 30063.208051110276, 25558.370418354323, 187500.0, 187500.0, -187500.02235174447, 29654.86403165627, -0.07, 0.9520000000000001, -0.13, 192.0, 0.0, 0.0, 0.0, 0.0, 0.0, 0.0, 0.0, 0.0, 0.0, 1.698959090075727E9, 0.0, 2023-11-02 17:04:50.075
116.0, -49141.42777221534, 187500.0, 30060.61524875346, 25549.876755461308, 187500.0, 187500.0, -187500.02235174447, 29652.472394999553, -0.07, 0.9520000000000001, -0.13, 192.0, 0.0, 0.0, 0.0, 0.0, 0.0, 0.0, 0.0, 0.0, 0.0, 1.698959090075742E9, 0.0, 2023-11-02 17:04:50.075
117.0, -49171.73673769674, 187500.0, 30059.81058595307, 25545.8310897149, 187500.0, 187500.0, -187500.02235174447, 29650.10311008729, -0.07, 0.972, -0.13, 192.0, 253.0, 208.0, 30.0, 96.0, 251.0, 240.0, 0.0, 0.0, 0.0, 1.6989590900757592E9, 0.0, 2023-11-02 17:04:50.075
118.0, -49237.093238484056, 187500.0, 30059.721178975247, 25548.423892071714, 187500.0, 187500.0, -187500.02235174447, 29650.10311008729, -0.07, 0.972, -0.13, 192.0, 0.0, 0.0, 0.0, 0.0, 0.0, 0.0, 0.0, 0.0, 0.0, 1.6989590900757709E9, 0.0, 2023-11-02 17:04:50.075
119.0, -49209.51118582621, 187500.0, 30053.686207972314, 25545.76403448153, 187500.0, 187500.0, -187500.02235174447, 29643.35288326179, -0.07, 0.972, -0.13, 192.0, 0.0, 0.0, 0.0, 0.0, 0.0, 0.0, 0.0, 0.0, 0.0, 1.6989590900757866E9, 0.0, 2023-11-02 17:04:50.075
120.0, -49180.58802850104, 187500.0, 30057.95539116328, 25545.4287583147, 187500.0, 187500.0, -187500.02235174447, 29646.325665274344, -0.07, 0.972, -0.13, 192.0, 0.0, 0.0, 0.0, 0.0, 0.0, 0.0, 0.0, 0.0, 0.0, 1.698959090075852E9, 0.0, 2023-11-02 17:04:50.075
121.0, -49211.25462189372, 187500.0, 30055.988437651213, 25543.48415654709, 187500.0, 187500.0, -187500.02235174447, 29644.738691418017, -0.07, 0.972, -0.13, 192.0, 0.0, 0.0, 0.0, 0.0, 0.0, 0.0, 0.0, 0.0, 0.0, 1.6989590905531943E9, 0.0, 2023-11-02 17:04:50.553
122.0, -49299.63341947, 187500.0, 30049.305266059077, 25534.498755276058, 187500.0, 187500.0, -187500.02235174447, 29641.497688471998, -0.07, 0.972, -0.13, 192.0, 0.0, 0.0, 0.0, 0.0, 0.0, 0.0, 0.0, 0.0, 0.0, 1.698959090553294E9, 0.0, 2023-11-02 17:04:50.553
123.0, -49345.56625432566, 187500.0, 30045.03608286811, 25535.661045987734, 187500.0, 187500.0, -187500.02235174447, 29641.05065358289, -0.07, 0.972, -0.13, 192.0, 0.0, 0.0, 0.0, 0.0, 0.0, 0.0, 0.0, 0.0, 0.0, 1.6989590905533075E9, 0.0, 2023-11-02 17:04:50.553
124.0, -49324.77913198223, 187500.0, 30035.46953624124, 25528.35202555085, 187500.0, 187500.0, -187500.02235174447, 29634.501592457487, -0.07, 0.972, -0.13, 192.0, 0.0, 0.0, 0.0, 0.0, 0.0, 0.0, 0.0, 0.0, 0.0, 1.6989590905533197E9, 0.0, 2023-11-02 17:04:50.553
125.0, -49379.18327798644, 187500.0, 30031.535629217105, 25523.47934525959, 187500.0, 187500.0, -187500.02235174447, 29631.26058951147, -0.07, 0.972, -0.13, 192.0, 0.0, 0.0, 0.0, 0.0, 0.0, 0.0, 0.0, 0.0, 0.0, 1.6989590905533497E9, 0.0, 2023-11-02 17:04:50.553
126.0, -49508.30930570475, 187500.0, 30024.316015758042, 25521.57944698089, 187500.0, 187500.0, -187500.02235174447, 29625.180915019624, -0.07, 0.972, -0.13, 192.0, 0.0, 0.0, 0.0, 0.0, 0.0, 0.0, 0.0, 0.0, 0.0, 1.6989590905533605E9, 0.0, 2023-11-02 17:04:50.553
127.0, -49611.19438543253, 187500.0, 30024.42777448032, 25520.975949880594, 187500.0, 187500.0, -187500.02235174447, 29625.605598164275, -0.062, 0.982, -0.14, 192.0, 254.0, 16.0, 30.0, 176.0, 251.0, 160.0, 0.0, 0.0, 0.0, 1.6989590905534E9, 0.0, 2023-11-02 17:04:50.553
128.0, -49627.332344929266, 187500.0, 30016.291739498585, 25519.05369985744, 187500.0, 187500.0, -187500.02235174447, 29619.3918132057, -0.062, 0.982, -0.14, 192.0, 0.0, 0.0, 0.0, 0.0, 0.0, 0.0, 0.0, 0.0, 0.0, 1.6989590905534146E9, 0.0, 2023-11-02 17:04:50.553
129.0, -49690.520726504416, 187500.0, 30017.811658121547, 25513.130487576782, 187500.0, 187500.0, -187500.02235174447, 29623.1916097631, -0.062, 0.982, -0.14, 192.0, 0.0, 0.0, 0.0, 0.0, 0.0, 0.0, 0.0, 0.0, 0.0, 1.6989590905534513E9, 0.0, 2023-11-02 17:04:50.553
130.0, -49870.34051064736, 187500.0, 30027.400556492874, 25523.747566193055, 187500.0, 187500.0, -187500.02235174447, 29638.48020297053, -0.062, 0.982, -0.14, 192.0, 0.0, 0.0, 0.0, 0.0, 0.0, 0.0, 0.0, 0.0, 0.0, 1.6989590905534616E9, 0.0, 2023-11-02 17:04:50.553
131.0, -49974.52199155355, 187500.0, 30018.973948833223, 25522.026481869994, 187500.0, 187500.0, -187500.02235174447, 29635.77564189144, -0.062, 0.982, -0.14, 192.0, 0.0, 0.0, 0.0, 0.0, 0.0, 0.0, 0.0, 0.0, 0.0, 1.6989590905534744E9, 0.0, 2023-11-02 17:04:50.553
132.0, -50003.288686667525, 187500.0, 30014.637710408893, 25514.13631607727, 187500.0, 187500.0, -187500.02235174447, 29632.780508134427, -0.062, 0.982, -0.14, 192.0, 0.0, 0.0, 0.0, 0.0, 0.0, 0.0, 0.0, 0.0, 0.0, 1.6989590905534987E9, 0.0, 2023-11-02 17:04:50.553
133.0, -50094.39439706736, 187500.0, 30015.531780187106, 25504.882693872776, 187500.0, 187500.0, -187500.02235174447, 29634.702758157586, -0.062, 0.982, -0.14, 192.0, 0.0, 0.0, 0.0, 0.0, 0.0, 0.0, 0.0, 0.0, 0.0, 1.6989590905535088E9, 0.0, 2023-11-02 17:04:50.553
134.0, -50290.195678495846, 187500.0, 30016.783477876605, 25492.94686233364, 187500.0, 187500.0, -187500.02235174447, 29637.094394814303, -0.062, 0.982, -0.14, 192.0, 0.0, 0.0, 0.0, 0.0, 0.0, 0.0, 0.0, 0.0, 0.0, 1.698959090553519E9, 0.0, 2023-11-02 17:04:50.553
135.0, -50485.79579422424, 187500.0, 30015.576483676017, 25488.789437864954, 187500.0, 187500.0, -187500.02235174447, 29638.234333781522, -0.062, 0.982, -0.14, 192.0, 0.0, 0.0, 0.0, 0.0, 0.0, 0.0, 0.0, 0.0, 0.0, 1.698959090553646E9, 0.0, 2023-11-02 17:04:50.553
136.0, -50578.13085056911, 187500.0, 30007.708669627747, 25483.648536640234, 187500.0, 187500.0, -187500.02235174447, 29633.808688379373, -0.062, 0.982, -0.14, 192.0, 0.0, 0.0, 0.0, 0.0, 0.0, 0.0, 0.0, 0.0, 0.0, 1.6989590905536575E9, 0.0, 2023-11-02 17:04:50.553
137.0, -50673.41633718209, 187500.0, 30002.098381769465, 25473.724362102075, 187500.0, 187500.0, -187500.02235174447, 29632.62404592324, -0.05, 0.988, -0.158, 192.0, 254.0, 112.0, 30.0, 224.0, 251.0, 16.0, 0.0, 0.0, 0.0, 1.698959090553668E9, 0.0, 2023-11-02 17:04:50.553
138.0, -50876.392528580735, 187500.0, 29999.349117201462, 25470.79628357843, 187500.0, 187500.0, -187500.02235174447, 29635.708586658075, -0.05, 0.988, -0.158, 192.0, 0.0, 0.0, 0.0, 0.0, 0.0, 0.0, 0.0, 0.0, 0.0, 1.6989590905536811E9, 0.0, 2023-11-02 17:04:50.553
139.0, -51089.78463289555, 187500.0, 29995.348154943964, 25469.410475422203, 187500.0, 187500.0, -187500.02235174447, 29636.15562154718, -0.05, 0.988, -0.158, 192.0, 0.0, 0.0, 0.0, 0.0, 0.0, 0.0, 0.0, 0.0, 0.0, 1.698959090553693E9, 0.0, 2023-11-02 17:04:50.553
140.0, -51186.992369531676, 187500.0, 29986.16158797283, 25463.46491139709, 187500.0, 187500.0, -187500.02235174447, 29631.305293000376, -0.05, 0.988, -0.158, 192.0, 0.0, 0.0, 0.0, 0.0, 0.0, 0.0, 0.0, 0.0, 0.0, 1.6989590905537033E9, 0.0, 2023-11-02 17:04:50.553
141.0, -51287.55286783611, 187500.0, 29988.910852540834, 25464.671905597676, 187500.0, 187500.0, -187500.02235174447, 29637.76494714796, -0.05, 0.988, -0.158, 192.0, 0.0, 0.0, 0.0, 0.0, 0.0, 0.0, 0.0, 0.0, 0.0, 1.6989590905537128E9, 0.0, 2023-11-02 17:04:50.553
142.0, -51482.795355653216, 187500.0, 29984.395800160863, 25459.955687517606, 187500.0, 187500.0, -187500.02235174447, 29637.049691325392, -0.05, 0.988, -0.158, 192.0, 0.0, 0.0, 0.0, 0.0, 0.0, 0.0, 0.0, 0.0, 0.0, 1.6989590905537236E9, 0.0, 2023-11-02 17:04:50.553
143.0, -51720.416750957585, 187500.0, 29980.573651859006, 25463.017876507984, 187500.0, 187500.0, -187500.02235174447, 29635.507420957976, -0.05, 0.988, -0.158, 192.0, 0.0, 0.0, 0.0, 0.0, 0.0, 0.0, 0.0, 0.0, 0.0, 1.6989590905537336E9, 0.0, 2023-11-02 17:04:50.553
144.0, -51869.81581089686, 187500.0, 29976.84091053497, 25469.27636495547, 187500.0, 187500.0, -187500.02235174447, 29634.09926105729, -0.05, 0.988, -0.158, 192.0, 0.0, 0.0, 0.0, 0.0, 0.0, 0.0, 0.0, 0.0, 0.0, 1.698959090553744E9, 0.0, 2023-11-02 17:04:50.553
145.0, -51977.77473661599, 187500.0, 29980.01485824762, 25470.773931833977, 187500.0, 187500.0, -187500.02235174447, 29637.34026400331, -0.05, 0.988, -0.158, 192.0, 0.0, 0.0, 0.0, 0.0, 0.0, 0.0, 0.0, 0.0, 0.0, 1.6989590905537539E9, 0.0, 2023-11-02 17:04:50.553
146.0, -52176.68291052376, 187500.0, 29983.12175072691, 25479.491112171545, 187500.0, 187500.0, -187500.02235174447, 29644.090490828814, -0.05, 0.988, -0.158, 192.0, 0.0, 0.0, 0.0, 0.0, 0.0, 0.0, 0.0, 0.0, 0.0, 1.6989590905537665E9, 0.0, 2023-11-02 17:04:50.553
147.0, -52420.94277393136, 187500.0, 29975.768026801114, 25482.6650598842, 187500.0, 187500.0, -187500.02235174447, 29640.268342526957, -0.044, 0.986, -0.164, 192.0, 254.0, 160.0, 30.0, 208.0, 250.0, 224.0, 0.0, 0.0, 0.0, 1.6989590905537772E9, 0.0, 2023-11-02 17:04:50.553
148.0, -52591.2630666808, 187500.0, 29971.901175010345, 25485.459027941113, 187500.0, 187500.0, -187500.02235174447, 29638.547258203896, -0.044, 0.986, -0.164, 192.0, 0.0, 0.0, 0.0, 0.0, 0.0, 0.0, 0.0, 0.0, 0.0, 1.6989590905537925E9, 0.0, 2023-11-02 17:04:50.553
149.0, -52701.032483700816, 187500.0, 29970.135387198377, 25491.046964054938, 187500.0, 187500.0, -187500.02235174447, 29645.141022818214, -0.044, 0.986, -0.164, 192.0, 0.0, 0.0, 0.0, 0.0, 0.0, 0.0, 0.0, 0.0, 0.0, 1.698959090553803E9, 0.0, 2023-11-02 17:04:50.553
150.0, -52856.75708732094, 187500.0, 29964.301581895543, 25489.214121009605, 187500.0, 187500.0, -187500.02235174447, 29645.856278640782, -0.044, 0.986, -0.164, 192.0, 0.0, 0.0, 0.0, 0.0, 0.0, 0.0, 0.0, 0.0, 0.0, 1.6989590905538292E9, 0.0, 2023-11-02 17:04:50.553
151.0, -53074.66424401572, 187500.0, 29958.51248008162, 25487.67185064219, 187500.0, 187500.0, -187500.02235174447, 29644.20224955109, -0.044, 0.986, -0.164, 192.0, 0.0, 0.0, 0.0, 0.0, 0.0, 0.0, 0.0, 0.0, 0.0, 1.6989590905538397E9, 0.0, 2023-11-02 17:04:50.553
152.0, -53259.35670844993, 187500.0, 29958.51248008162, 25493.706821645123, 187500.0, 187500.0, -187500.02235174447, 29645.498650729496, -0.044, 0.986, -0.164, 192.0, 0.0, 0.0, 0.0, 0.0, 0.0, 0.0, 0.0, 0.0, 0.0, 1.69895909055385E9, 0.0, 2023-11-02 17:04:50.553
153.0, -53362.08532596652, 187500.0, 29956.83609924747, 25500.077068814884, 187500.0, 187500.0, -187500.02235174447, 29644.96220886257, -0.044, 0.986, -0.164, 192.0, 0.0, 0.0, 0.0, 0.0, 0.0, 0.0, 0.0, 0.0, 0.0, 1.6989590905538602E9, 0.0, 2023-11-02 17:04:50.553
154.0, -53534.193758272384, 187500.0, 29964.279230151085, 25503.65334792773, 187500.0, 187500.0, -187500.02235174447, 29650.796014165404, -0.044, 0.986, -0.164, 192.0, 0.0, 0.0, 0.0, 0.0, 0.0, 0.0, 0.0, 0.0, 0.0, 1.6989590905538743E9, 0.0, 2023-11-02 17:04:50.553
155.0, -53785.78499386132, 187500.0, 29964.323933639997, 25512.14701082075, 187500.0, 187500.0, -187500.02235174447, 29650.237220554023, -0.044, 0.986, -0.164, 192.0, 0.0, 0.0, 0.0, 0.0, 0.0, 0.0, 0.0, 0.0, 0.0, 1.6989590905538852E9, 0.0, 2023-11-02 17:04:50.553
156.0, -53968.01876640544, 187500.0, 29956.053788191533, 25509.107173574826, 187500.0, 187500.0, -187500.02235174447, 29644.738691418017, -0.044, 0.986, -0.164, 192.0, 0.0, 0.0, 0.0, 0.0, 0.0, 0.0, 0.0, 0.0, 0.0, 1.6989590905538967E9, 0.0, 2023-11-02 17:04:50.553
157.0, -54088.53937250846, 187500.0, 29960.54648882705, 25514.56099922192, 187500.0, 187500.0, -187500.02235174447, 29651.33245603233, -0.054, 0.974, -0.154, 192.0, 254.0, 80.0, 30.0, 112.0, 251.0, 48.0, 0.0, 0.0, 0.0, 1.6989590905539079E9, 0.0, 2023-11-02 17:04:50.553
158.0, -54208.478833255635, 187500.0, 29962.088759194467, 25514.71746143311, 187500.0, 187500.0, -187500.02235174447, 29653.075892099845, -0.054, 0.974, -0.154, 192.0, 0.0, 0.0, 0.0, 0.0, 0.0, 0.0, 0.0, 0.0, 0.0, 1.6989590905539188E9, 0.0, 2023-11-02 17:04:50.553
159.0, -54408.3928356639, 187500.0, 29960.568840571505, 25511.744679420553, 187500.0, 187500.0, -187500.02235174447, 29651.57832522134, -0.054, 0.974, -0.154, 192.0, 0.0, 0.0, 0.0, 0.0, 0.0, 0.0, 0.0, 0.0, 0.0, 1.6989590905539303E9, 0.0, 2023-11-02 17:04:50.553
160.0, -54606.92102991594, 187500.0, 29961.015875460613, 25517.511429490023, 187500.0, 187500.0, -187500.02235174447, 29656.607467723785, -0.054, 0.974, -0.154, 192.0, 0.0, 0.0, 0.0, 0.0, 0.0, 0.0, 0.0, 0.0, 0.0, 1.698959090553943E9, 0.0, 2023-11-02 17:04:50.553
161.0, -54737.03053439028, 187500.0, 29961.485262094175, 25526.452127272147, 187500.0, 187500.0, -187500.02235174447, 29659.848470669804, -0.054, 0.974, -0.154, 192.0, 0.0, 0.0, 0.0, 0.0, 0.0, 0.0, 0.0, 0.0, 0.0, 1.6989590905539563E9, 0.0, 2023-11-02 17:04:50.553
162.0, -54843.82716939774, 187500.0, 29956.63493354737, 25524.48517376008, 187500.0, 187500.0, -187500.02235174447, 29655.802804923394, -0.054, 0.974, -0.154, 192.0, 0.0, 0.0, 0.0, 0.0, 0.0, 0.0, 0.0, 0.0, 0.0, 1.6989590905539672E9, 0.0, 2023-11-02 17:04:50.553
163.0, -55044.54583460639, 187500.0, 29958.51248008162, 25530.117813362816, 187500.0, 187500.0, -187500.02235174447, 29660.787243936928, -0.054, 0.974, -0.154, 192.0, 0.0, 0.0, 0.0, 0.0, 0.0, 0.0, 0.0, 0.0, 0.0, 1.6989590905539775E9, 0.0, 2023-11-02 17:04:50.553
164.0, -55249.31016556146, 187500.0, 29953.55039281254, 25533.4258715422, 187500.0, 187500.0, -187500.02235174447, 29658.10503460229, -0.054, 0.974, -0.154, 192.0, 0.0, 0.0, 0.0, 0.0, 0.0, 0.0, 0.0, 0.0, 0.0, 1.698959090553988E9, 0.0, 2023-11-02 17:04:50.553
165.0, -55362.14177157185, 187500.0, 29951.203459644734, 25536.10808087684, 187500.0, 187500.0, -187500.02235174447, 29659.513194502975, -0.054, 0.974, -0.154, 192.0, 0.0, 0.0, 0.0, 0.0, 0.0, 0.0, 0.0, 0.0, 0.0, 1.698959090554E9, 0.0, 2023-11-02 17:04:50.554
166.0, -55438.808255053555, 187500.0, 29950.30938986652, 25534.85638318734, 187500.0, 187500.0, -187500.02235174447, 29661.43544452613, -0.054, 0.974, -0.154, 192.0, 0.0, 0.0, 0.0, 0.0, 0.0, 0.0, 0.0, 0.0, 0.0, 1.6989590905540245E9, 0.0, 2023-11-02 17:04:50.554
167.0, -55613.934172860885, 187500.0, 29954.913849224315, 25531.23540058558, 187500.0, 187500.0, -187500.02235174447, 29667.2021945956, -0.046, 0.964, -0.152, 192.0, 254.0, 144.0, 30.0, 32.0, 251.0, 64.0, 0.0, 0.0, 0.0, 1.6989590905540352E9, 0.0, 2023-11-02 17:04:50.554
168.0, -55822.677114328995, 187500.0, 29958.244259148152, 25531.458918030134, 187500.0, 187500.0, -187500.02235174447, 29670.91258417518, -0.046, 0.964, -0.152, 192.0, 0.0, 0.0, 0.0, 0.0, 0.0, 0.0, 0.0, 0.0, 0.0, 1.69895909055405E9, 0.0, 2023-11-02 17:04:50.554
169.0, -55934.614650561176, 187500.0, 29957.88663123687, 25529.223743584604, 187500.0, 187500.0, -187500.02235174447, 29671.337267319832, -0.046, 0.964, -0.152, 192.0, 0.0, 0.0, 0.0, 0.0, 0.0, 0.0, 0.0, 0.0, 0.0, 1.69895909055406E9, 0.0, 2023-11-02 17:04:50.554
170.0, -56009.38123576418, 187500.0, 29957.03726494757, 25522.518220248014, 187500.0, 187500.0, -187500.02235174447, 29670.554956263895, -0.046, 0.964, -0.152, 192.0, 0.0, 0.0, 0.0, 0.0, 0.0, 0.0, 0.0, 0.0, 0.0, 1.6989590905540707E9, 0.0, 2023-11-02 17:04:50.554
171.0, -56156.32160381337, 187500.0, 29957.484299836673, 25516.05856610043, 187500.0, 187500.0, -187500.02235174447, 29668.81152019638, -0.046, 0.964, -0.152, 192.0, 0.0, 0.0, 0.0, 0.0, 0.0, 0.0, 0.0, 0.0, 0.0, 1.6989590905540814E9, 0.0, 2023-11-02 17:04:50.554
172.0, -56366.83033309345, 187500.0, 29954.891497479857, 25516.393842267258, 187500.0, 187500.0, -187500.02235174447, 29666.486938773032, -0.046, 0.964, -0.152, 192.0, 0.0, 0.0, 0.0, 0.0, 0.0, 0.0, 0.0, 0.0, 0.0, 1.6989590905540936E9, 0.0, 2023-11-02 17:04:50.554
173.0, -56483.03705251659, 187500.0, 29944.989674686156, 25511.05177534244, 187500.0, 187500.0, -187500.02235174447, 29657.121557846258, -0.046, 0.964, -0.152, 192.0, 0.0, 0.0, 0.0, 0.0, 0.0, 0.0, 0.0, 0.0, 0.0, 1.698959090554104E9, 0.0, 2023-11-02 17:04:50.554
174.0, -56554.361469073476, 187500.0, 29944.430881074775, 25510.783554408976, 187500.0, 187500.0, -187500.02235174447, 29656.808633423883, -0.046, 0.964, -0.152, 192.0, 0.0, 0.0, 0.0, 0.0, 0.0, 0.0, 0.0, 0.0, 0.0, 1.6989590905541148E9, 0.0, 2023-11-02 17:04:50.554
175.0, -56671.104630363545, 187500.0, 29943.156831640823, 25510.29181603096, 187500.0, 187500.0, -187500.02235174447, 29657.00979912398, -0.046, 0.964, -0.152, 192.0, 0.0, 0.0, 0.0, 0.0, 0.0, 0.0, 0.0, 0.0, 0.0, 1.6989590905541284E9, 0.0, 2023-11-02 17:04:50.554
176.0, -56864.178998968484, 187500.0, 29942.530982796074, 25514.270426544004, 187500.0, 187500.0, -187500.02235174447, 29658.686179958127, -0.066, 0.968, -0.148, 192.0, 253.0, 240.0, 30.0, 64.0, 251.0, 96.0, 0.0, 0.0, 0.0, 1.6989590905541391E9, 0.0, 2023-11-02 17:04:50.554
177.0, -56998.624741867156, 187500.0, 29940.474622306185, 25514.09161258836, 187500.0, 187500.0, -187500.02235174447, 29656.696874701607, -0.066, 0.968, -0.148, 192.0, 0.0, 0.0, 0.0, 0.0, 0.0, 0.0, 0.0, 0.0, 0.0, 1.6989590905541537E9, 0.0, 2023-11-02 17:04:50.554
178.0, -57055.755800694926, 187500.0, 29932.517401280096, 25508.548379963446, 187500.0, 187500.0, -187500.02235174447, 29653.00883686648, -0.066, 0.968, -0.148, 192.0, 0.0, 0.0, 0.0, 0.0, 0.0, 0.0, 0.0, 0.0, 0.0, 1.6989590905541642E9, 0.0, 2023-11-02 17:04:50.554
179.0, -57156.338650743804, 187500.0, 29926.147154110335, 25501.529932204478, 187500.0, 187500.0, -187500.02235174447, 29650.125461831747, -0.066, 0.968, -0.148, 192.0, 0.0, 0.0, 0.0, 0.0, 0.0, 0.0, 0.0, 0.0, 0.0, 1.6989590905541797E9, 0.0, 2023-11-02 17:04:50.554
180.0, -57337.611298276344, 187500.0, 29922.68263371976, 25499.495923459046, 187500.0, 187500.0, -187500.02235174447, 29648.53848797542, -0.066, 0.968, -0.148, 192.0, 0.0, 0.0, 0.0, 0.0, 0.0, 0.0, 0.0, 0.0, 0.0, 1.6989590905541952E9, 0.0, 2023-11-02 17:04:50.554
181.0, -57490.296064650545, 187500.0, 29920.849790674427, 25501.57463569339, 187500.0, 187500.0, -187500.02235174447, 29645.409243751677, -0.066, 0.968, -0.148, 192.0, 0.0, 0.0, 0.0, 0.0, 0.0, 0.0, 0.0, 0.0, 0.0, 1.6989590905542367E9, 0.0, 2023-11-02 17:04:50.554
182.0, -57546.89068161138, 187500.0, 29917.854656917414, 25498.624205425287, 187500.0, 187500.0, -187500.02235174447, 29641.2965227719, -0.066, 0.968, -0.148, 192.0, 0.0, 0.0, 0.0, 0.0, 0.0, 0.0, 0.0, 0.0, 0.0, 1.6989590905542488E9, 0.0, 2023-11-02 17:04:50.554
183.0, -57619.153871435396, 187500.0, 29916.71471795019, 25491.80692336642, 187500.0, 187500.0, -187500.02235174447, 29640.67067392715, -0.066, 0.968, -0.148, 192.0, 0.0, 0.0, 0.0, 0.0, 0.0, 0.0, 0.0, 0.0, 0.0, 1.69895909055426E9, 0.0, 2023-11-02 17:04:50.554
184.0, -57792.82692585313, 187500.0, 29924.560180254008, 25498.28892925846, 187500.0, 187500.0, -187500.02235174447, 29649.499612986998, -0.066, 0.968, -0.148, 192.0, 0.0, 0.0, 0.0, 0.0, 0.0, 0.0, 0.0, 0.0, 0.0, 1.6989590905542712E9, 0.0, 2023-11-02 17:04:50.554
185.0, -57944.81878814922, 187500.0, 29929.745784967636, 25511.163534064715, 187500.0, 187500.0, -187500.02235174447, 29656.003970623493, -0.066, 0.968, -0.148, 192.0, 0.0, 0.0, 0.0, 0.0, 0.0, 0.0, 0.0, 0.0, 0.0, 1.6989590905542827E9, 0.0, 2023-11-02 17:04:50.554
186.0, -57982.61558802314, 187500.0, 29922.749688953125, 25504.301548516938, 187500.0, 187500.0, -187500.02235174447, 29650.661903698674, -0.068, 0.962, -0.146, 192.0, 253.0, 224.0, 30.0, 16.0, 251.0, 112.0, 0.0, 0.0, 0.0, 1.698959090554296E9, 0.0, 2023-11-02 17:04:50.554
187.0, -58014.6456378276, 187500.0, 29919.285168562554, 25496.65725191322, 187500.0, 187500.0, -187500.02235174447, 29648.091453086312, -0.068, 0.962, -0.146, 192.0, 0.0, 0.0, 0.0, 0.0, 0.0, 0.0, 0.0, 0.0, 0.0, 1.6989590905543084E9, 0.0, 2023-11-02 17:04:50.554
188.0, -58138.429598621085, 187500.0, 29918.055822617513, 25496.545493190944, 187500.0, 187500.0, -187500.02235174447, 29647.66676994166, -0.068, 0.962, -0.146, 192.0, 0.0, 0.0, 0.0, 0.0, 0.0, 0.0, 0.0, 0.0, 0.0, 1.6989590905543203E9, 0.0, 2023-11-02 17:04:50.554
189.0, -58260.62658555825, 187500.0, 29906.790543412037, 25487.60479540882, 187500.0, 187500.0, -187500.02235174447, 29640.022473337947, -0.068, 0.962, -0.146, 192.0, 0.0, 0.0, 0.0, 0.0, 0.0, 0.0, 0.0, 0.0, 0.0, 1.6989590905543323E9, 0.0, 2023-11-02 17:04:50.554
190.0, -58291.78491732895, 187500.0, 29893.804179883504, 25480.072257527383, 187500.0, 187500.0, -187500.02235174447, 29629.56185693286, -0.068, 0.962, -0.146, 192.0, 0.0, 0.0, 0.0, 0.0, 0.0, 0.0, 0.0, 0.0, 0.0, 1.6989590905543425E9, 0.0, 2023-11-02 17:04:50.554
191.0, -58326.58658344586, 187500.0, 29895.860540373393, 25483.89440582924, 187500.0, 187500.0, -187500.02235174447, 29633.54046744591, -0.068, 0.962, -0.146, 192.0, 0.0, 0.0, 0.0, 0.0, 0.0, 0.0, 0.0, 0.0, 0.0, 1.6989590905543566E9, 0.0, 2023-11-02 17:04:50.554
192.0, -58439.35113422289, 187500.0, 29900.44264798673, 25491.225778010583, 187500.0, 187500.0, -187500.02235174447, 29640.67067392715, -0.068, 0.962, -0.146, 192.0, 0.0, 0.0, 0.0, 0.0, 0.0, 0.0, 0.0, 0.0, 0.0, 1.698959090554369E9, 0.0, 2023-11-02 17:04:50.554
193.0, -58564.40914445033, 187500.0, 29901.806104398504, 25499.160647292218, 187500.0, 187500.0, -187500.02235174447, 29643.039958839414, -0.068, 0.962, -0.146, 192.0, 0.0, 0.0, 0.0, 0.0, 0.0, 0.0, 0.0, 0.0, 0.0, 1.6989590905543845E9, 0.0, 2023-11-02 17:04:50.554
194.0, -58614.6335142414, 187500.0, 29901.224959042665, 25504.078031072382, 187500.0, 187500.0, -187500.02235174447, 29641.609447194274, -0.068, 0.962, -0.146, 192.0, 0.0, 0.0, 0.0, 0.0, 0.0, 0.0, 0.0, 0.0, 0.0, 1.6989590905544004E9, 0.0, 2023-11-02 17:04:50.554
195.0, -58636.35940985196, 187500.0, 29899.034488086047, 25502.84868512734, 187500.0, 187500.0, -187500.02235174447, 29638.63666518172, -0.068, 0.962, -0.146, 192.0, 0.0, 0.0, 0.0, 0.0, 0.0, 0.0, 0.0, 0.0, 0.0, 1.6989590905544128E9, 0.0, 2023-11-02 17:04:50.554
196.0, -58725.98990511774, 187500.0, 29904.935348622246, 25503.76510665001, 187500.0, 187500.0, -187500.02235174447, 29643.285828028424, -0.062, 0.96, -0.148, 192.0, 254.0, 16.0, 30.0, 0.0, 251.0, 96.0, 0.0, 0.0, 0.0, 1.698959090554494E9, 0.0, 2023-11-02 17:04:50.554
197.0, -58871.298595821696, 187500.0, 29908.15399982381, 25518.561961479423, 187500.0, 187500.0, -187500.02235174447, 29648.67259844215, -0.062, 0.96, -0.148, 192.0, 0.0, 0.0, 0.0, 0.0, 0.0, 0.0, 0.0, 0.0, 0.0, 1.6989590905545087E9, 0.0, 2023-11-02 17:04:50.554
198.0, -58916.739692299336, 187500.0, 29902.58841545444, 25523.836973170874, 187500.0, 187500.0, -187500.02235174447, 29647.085624585823, -0.062, 0.96, -0.148, 192.0, 0.0, 0.0, 0.0, 0.0, 0.0, 0.0, 0.0, 0.0, 0.0, 1.6989590905545201E9, 0.0, 2023-11-02 17:04:50.554
199.0, -58903.440404348425, 187500.0, 29899.995613097624, 25517.734946934575, 187500.0, 187500.0, -187500.02235174447, 29646.839755396817, -0.062, 0.96, -0.148, 192.0, 0.0, 0.0, 0.0, 0.0, 0.0, 0.0, 0.0, 0.0, 0.0, 1.6989590905545502E9, 0.0, 2023-11-02 17:04:50.554
200.0, -58967.52285570179, 187500.0, 29903.57189221047, 25517.332615534382, 187500.0, 187500.0, -187500.02235174447, 29650.080758342836, -0.062, 0.96, -0.148, 192.0, 0.0, 0.0, 0.0, 0.0, 0.0, 0.0, 0.0, 0.0, 0.0, 1.6989590905545635E9, 0.0, 2023-11-02 17:04:50.554
201.0, -59080.60033090119, 187500.0, 29903.661299188294, 25519.14310683526, 187500.0, 187500.0, -187500.02235174447, 29650.17016532066, -0.062, 0.96, -0.148, 192.0, 0.0, 0.0, 0.0, 0.0, 0.0, 0.0, 0.0, 0.0, 0.0, 1.6989590905545778E9, 0.0, 2023-11-02 17:04:50.554
202.0, -59167.66037555461, 187500.0, 29907.215226556687, 25527.90499066174, 187500.0, 187500.0, -187500.02235174447, 29656.786281679426, -0.062, 0.96, -0.148, 192.0, 0.0, 0.0, 0.0, 0.0, 0.0, 0.0, 0.0, 0.0, 0.0, 1.6989590905545895E9, 0.0, 2023-11-02 17:04:50.554
203.0, -59180.31146291632, 187500.0, 29909.673918446773, 25527.27914181699, 187500.0, 187500.0, -187500.02235174447, 29658.01562762447, -0.062, 0.96, -0.148, 192.0, 0.0, 0.0, 0.0, 0.0, 0.0, 0.0, 0.0, 0.0, 0.0, 1.6989590905546005E9, 0.0, 2023-11-02 17:04:50.554
204.0, -59228.63593442869, 187500.0, 29916.31238655, 25526.6756447167, 187500.0, 187500.0, -187500.02235174447, 29662.195403837613, -0.062, 0.96, -0.148, 192.0, 0.0, 0.0, 0.0, 0.0, 0.0, 0.0, 0.0, 0.0, 0.0, 1.6989590905546324E9, 0.0, 2023-11-02 17:04:50.554
205.0, -59369.78720066395, 187500.0, 29920.179238340766, 25528.35202555085, 187500.0, 187500.0, -187500.02235174447, 29664.989371894524, -0.062, 0.96, -0.148, 192.0, 0.0, 0.0, 0.0, 0.0, 0.0, 0.0, 0.0, 0.0, 0.0, 1.698959090554647E9, 0.0, 2023-11-02 17:04:50.554
206.0, -59466.88317857781, 187500.0, 29916.31238655, 25523.38993828177, 187500.0, 187500.0, -187500.02235174447, 29657.16626133517, -0.082, 0.97, -0.134, 192.0, 253.0, 112.0, 30.0, 80.0, 251.0, 208.0, 0.0, 0.0, 0.0, 1.6989590905546594E9, 0.0, 2023-11-02 17:04:50.554
207.0, -59492.90060912378, 187500.0, 29914.658357460306, 25522.987606881572, 187500.0, 187500.0, -187500.02235174447, 29653.25470605549, -0.082, 0.97, -0.134, 192.0, 0.0, 0.0, 0.0, 0.0, 0.0, 0.0, 0.0, 0.0, 0.0, 1.6989590905546741E9, 0.0, 2023-11-02 17:04:50.554
208.0, -59532.21732762067, 187500.0, 29911.68557544775, 25520.70772894713, 187500.0, 187500.0, -187500.02235174447, 29650.863069398772, -0.082, 0.97, -0.134, 192.0, 0.0, 0.0, 0.0, 0.0, 0.0, 0.0, 0.0, 0.0, 0.0, 1.6989590905546885E9, 0.0, 2023-11-02 17:04:50.554
209.0, -59641.78557894058, 187500.0, 29905.762363167094, 25515.544475977957, 187500.0, 187500.0, -187500.02235174447, 29646.593886207807, -0.082, 0.97, -0.134, 192.0, 0.0, 0.0, 0.0, 0.0, 0.0, 0.0, 0.0, 0.0, 0.0, 1.6989590905547037E9, 0.0, 2023-11-02 17:04:50.554
210.0, -59765.79305717863, 187500.0, 29907.371688767875, 25519.634845213277, 187500.0, 187500.0, -187500.02235174447, 29649.34315077581, -0.082, 0.97, -0.134, 192.0, 0.0, 0.0, 0.0, 0.0, 0.0, 0.0, 0.0, 0.0, 0.0, 1.698959090554718E9, 0.0, 2023-11-02 17:04:50.554
211.0, -59822.00769448373, 187500.0, 29910.657395202805, 25530.00605464054, 187500.0, 187500.0, -187500.02235174447, 29652.80767116638, -0.082, 0.97, -0.134, 192.0, 0.0, 0.0, 0.0, 0.0, 0.0, 0.0, 0.0, 0.0, 0.0, 1.698959090554764E9, 0.0, 2023-11-02 17:04:50.554
212.0, -59840.67140110391, 187500.0, 29908.06459284599, 25531.123641863305, 187500.0, 187500.0, -187500.02235174447, 29651.511269987976, -0.082, 0.97, -0.134, 192.0, 0.0, 0.0, 0.0, 0.0, 0.0, 0.0, 0.0, 0.0, 0.0, 1.6989590905547752E9, 0.0, 2023-11-02 17:04:50.554
213.0, -59933.00645744878, 187500.0, 29904.890645133335, 25529.849592429353, 187500.0, 187500.0, -187500.02235174447, 29651.35480777679, -0.082, 0.97, -0.134, 192.0, 0.0, 0.0, 0.0, 0.0, 0.0, 0.0, 0.0, 0.0, 0.0, 1.6989590905547857E9, 0.0, 2023-11-02 17:04:50.554
214.0, -60063.74181076787, 187500.0, 29908.645738201827, 25540.891354190273, 187500.0, 187500.0, -187500.02235174447, 29657.501537501998, -0.082, 0.97, -0.134, 192.0, 0.0, 0.0, 0.0, 0.0, 0.0, 0.0, 0.0, 0.0, 0.0, 1.6989590905547967E9, 0.0, 2023-11-02 17:04:50.554
215.0, -60098.38701467359, 187500.0, 29899.950909608713, 25540.265505345527, 187500.0, 187500.0, -187500.02235174447, 29647.44325249711, -0.082, 0.97, -0.134, 192.0, 0.0, 0.0, 0.0, 0.0, 0.0, 0.0, 0.0, 0.0, 0.0, 1.6989590905548096E9, 0.0, 2023-11-02 17:04:50.554
216.0, -60084.97596800041, 187500.0, 29894.497083961618, 25526.116851105315, 187500.0, 187500.0, -187500.02235174447, 29639.262514026468, -0.074, 0.97, -0.134, 192.0, 253.0, 176.0, 30.0, 80.0, 251.0, 208.0, 0.0, 0.0, 0.0, 1.6989590905548236E9, 0.0, 2023-11-02 17:04:50.554
217.0, -60163.43059103854, 187500.0, 29904.041278844034, 25532.5765052529, 187500.0, 187500.0, -187500.02235174447, 29647.979694364036, -0.074, 0.97, -0.134, 192.0, 0.0, 0.0, 0.0, 0.0, 0.0, 0.0, 0.0, 0.0, 0.0, 1.6989590905548408E9, 0.0, 2023-11-02 17:04:50.554
218.0, -60272.41769700262, 187500.0, 29904.9577003667, 25533.157650608737, 187500.0, 187500.0, -187500.02235174447, 29645.968037363058, -0.074, 0.97, -0.134, 192.0, 0.0, 0.0, 0.0, 0.0, 0.0, 0.0, 0.0, 0.0, 0.0, 1.698959090554855E9, 0.0, 2023-11-02 17:04:50.554
219.0, -60312.15909864415, 187500.0, 29904.801238155516, 25537.315075077426, 187500.0, 187500.0, -187500.02235174447, 29644.492822229007, -0.074, 0.97, -0.134, 192.0, 0.0, 0.0, 0.0, 0.0, 0.0, 0.0, 0.0, 0.0, 0.0, 1.698959090554866E9, 0.0, 2023-11-02 17:04:50.554
220.0, -60297.04931939237, 187500.0, 29901.940214865237, 25536.264543088026, 187500.0, 187500.0, -187500.02235174447, 29642.90584837268, -0.074, 0.97, -0.134, 192.0, 0.0, 0.0, 0.0, 0.0, 0.0, 0.0, 0.0, 0.0, 0.0, 1.698959090554877E9, 0.0, 2023-11-02 17:04:50.554
221.0, -60371.72649761755, 187500.0, 29908.69044169074, 25538.902048933753, 187500.0, 187500.0, -187500.02235174447, 29651.980656621537, -0.074, 0.97, -0.134, 192.0, 0.0, 0.0, 0.0, 0.0, 0.0, 0.0, 0.0, 0.0, 0.0, 1.6989590905548897E9, 0.0, 2023-11-02 17:04:50.554
222.0, -60502.0818712809, 187500.0, 29909.11512483539, 25542.321865835413, 187500.0, 187500.0, -187500.02235174447, 29651.15364207669, -0.074, 0.97, -0.134, 192.0, 0.0, 0.0, 0.0, 0.0, 0.0, 0.0, 0.0, 0.0, 0.0, 1.698959090554902E9, 0.0, 2023-11-02 17:04:50.554
223.0, -60548.95347940367, 187500.0, 29899.43681948624, 25537.67270298871, 187500.0, 187500.0, -187500.02235174447, 29641.58709544982, -0.074, 0.97, -0.134, 192.0, 0.0, 0.0, 0.0, 0.0, 0.0, 0.0, 0.0, 0.0, 0.0, 1.6989590905549128E9, 0.0, 2023-11-02 17:04:50.554
224.0, -60536.77177867553, 187500.0, 29893.468903716675, 25526.697996461153, 187500.0, 187500.0, -187500.02235174447, 29635.52977270243, -0.074, 0.97, -0.134, 192.0, 0.0, 0.0, 0.0, 0.0, 0.0, 0.0, 0.0, 0.0, 0.0, 1.6989590905549235E9, 0.0, 2023-11-02 17:04:50.554
225.0, -60601.86005852939, 187500.0, 29901.269662531577, 25530.72131046311, 187500.0, 187500.0, -187500.02235174447, 29641.2965227719, -0.074, 0.97, -0.134, 192.0, 0.0, 0.0, 0.0, 0.0, 0.0, 0.0, 0.0, 0.0, 0.0, 1.6989590905549407E9, 0.0, 2023-11-02 17:04:50.554
226.0, -60749.38157193441, 187500.0, 29904.39890675532, 25539.952580923153, 187500.0, 187500.0, -187500.02235174447, 29644.649284440195, -0.07200000000000001, 0.96, -0.124, 192.0, 253.0, 192.0, 30.0, 0.0, 252.0, 32.0, 0.0, 0.0, 0.0, 1.6989590905549986E9, 0.0, 2023-11-02 17:04:50.554
227.0, -60827.36680833898, 187500.0, 29892.396019982818, 25538.20914485564, 187500.0, 187500.0, -187500.02235174447, 29635.797993635893, -0.07200000000000001, 0.96, -0.124, 192.0, 0.0, 0.0, 0.0, 0.0, 0.0, 0.0, 0.0, 0.0, 0.0, 1.6989590905550153E9, 0.0, 2023-11-02 17:04:50.555
228.0, -60837.84977648852, 187500.0, 29890.96550833768, 25535.124604120807, 187500.0, 187500.0, -187500.02235174447, 29636.870877369747, -0.07200000000000001, 0.96, -0.124, 192.0, 0.0, 0.0, 0.0, 0.0, 0.0, 0.0, 0.0, 0.0, 0.0, 1.698959090555029E9, 0.0, 2023-11-02 17:04:50.555
229.0, -60889.52700966919, 187500.0, 29895.59231943993, 25540.91370593473, 187500.0, 187500.0, -187500.02235174447, 29643.82226989535, -0.07200000000000001, 0.96, -0.124, 192.0, 0.0, 0.0, 0.0, 0.0, 0.0, 0.0, 0.0, 0.0, 0.0, 1.69895909055504E9, 0.0, 2023-11-02 17:04:50.555
230.0, -61009.332359949636, 187500.0, 29895.34645025092, 25543.260639102537, 187500.0, 187500.0, -187500.02235174447, 29646.19155480761, -0.07200000000000001, 0.96, -0.124, 192.0, 0.0, 0.0, 0.0, 0.0, 0.0, 0.0, 0.0, 0.0, 0.0, 1.698959090555052E9, 0.0, 2023-11-02 17:04:50.555
231.0, -61094.06782317971, 187500.0, 29891.993688582625, 25541.874830946308, 187500.0, 187500.0, -187500.02235174447, 29643.039958839414, -0.07200000000000001, 0.96, -0.124, 192.0, 0.0, 0.0, 0.0, 0.0, 0.0, 0.0, 0.0, 0.0, 0.0, 1.6989590905550647E9, 0.0, 2023-11-02 17:04:50.555
232.0, -61101.95798897243, 187500.0, 29894.34062175043, 25544.691150747676, 187500.0, 187500.0, -187500.02235174447, 29643.91167687317, -0.07200000000000001, 0.96, -0.124, 192.0, 0.0, 0.0, 0.0, 0.0, 0.0, 0.0, 0.0, 0.0, 0.0, 1.6989590905550787E9, 0.0, 2023-11-02 17:04:50.555
233.0, -61111.92686699949, 187500.0, 29895.81583688448, 25540.421967556715, 187500.0, 187500.0, -187500.02235174447, 29643.82226989535, -0.07200000000000001, 0.96, -0.124, 192.0, 0.0, 0.0, 0.0, 0.0, 0.0, 0.0, 0.0, 0.0, 0.0, 1.698959090555094E9, 0.0, 2023-11-02 17:04:50.555
234.0, -61207.19000186802, 187500.0, 29900.48735147564, 25541.137223379283, 187500.0, 187500.0, -187500.02235174447, 29649.611371709274, -0.07200000000000001, 0.96, -0.124, 192.0, 0.0, 0.0, 0.0, 0.0, 0.0, 0.0, 0.0, 0.0, 0.0, 1.69895909055511E9, 0.0, 2023-11-02 17:04:50.555
235.0, -61300.4191279911, 187500.0, 29905.851770144913, 25548.803871727454, 187500.0, 187500.0, -187500.02235174447, 29655.69104620112, -0.07200000000000001, 0.96, -0.124, 192.0, 0.0, 0.0, 0.0, 0.0, 0.0, 0.0, 0.0, 0.0, 0.0, 1.6989590905551267E9, 0.0, 2023-11-02 17:04:50.555
236.0, -61270.24427297644, 187500.0, 29900.375592753364, 25543.57356352491, 187500.0, 187500.0, -187500.02235174447, 29646.77270016345, -0.076, 0.972, -0.126, 192.0, 253.0, 160.0, 30.0, 96.0, 252.0, 16.0, 0.0, 0.0, 0.0, 1.6989590905551395E9, 0.0, 2023-11-02 17:04:50.555
237.0, -61247.91488026558, 187500.0, 29903.862464888392, 25535.48223203209, 187500.0, 187500.0, -187500.02235174447, 29642.704682672585, -0.076, 0.972, -0.126, 192.0, 0.0, 0.0, 0.0, 0.0, 0.0, 0.0, 0.0, 0.0, 0.0, 1.6989590905551565E9, 0.0, 2023-11-02 17:04:50.555
238.0, -61303.28015128138, 187500.0, 29910.232712058154, 25536.3763018103, 187500.0, 187500.0, -187500.02235174447, 29642.682330928128, -0.076, 0.972, -0.126, 192.0, 0.0, 0.0, 0.0, 0.0, 0.0, 0.0, 0.0, 0.0, 0.0, 1.6989590905551689E9, 0.0, 2023-11-02 17:04:50.555
239.0, -61384.57344586533, 187500.0, 29917.49702900613, 25536.421005299213, 187500.0, 187500.0, -187500.02235174447, 29643.86697338426, -0.076, 0.972, -0.126, 192.0, 0.0, 0.0, 0.0, 0.0, 0.0, 0.0, 0.0, 0.0, 0.0, 1.698959090555203E9, 0.0, 2023-11-02 17:04:50.555
240.0, -61395.5928558818, 187500.0, 29923.152020353322, 25543.81943271392, 187500.0, 187500.0, -187500.02235174447, 29645.543354218407, -0.076, 0.972, -0.126, 192.0, 0.0, 0.0, 0.0, 0.0, 0.0, 0.0, 0.0, 0.0, 0.0, 1.698959090555222E9, 0.0, 2023-11-02 17:04:50.555
241.0, -61377.71146031755, 187500.0, 29928.44938378923, 25543.886487947286, 187500.0, 187500.0, -187500.02235174447, 29649.410206009175, -0.076, 0.972, -0.126, 192.0, 0.0, 0.0, 0.0, 0.0, 0.0, 0.0, 0.0, 0.0, 0.0, 1.698959091035366E9, 0.0, 2023-11-02 17:04:51.035
242.0, -61447.73947569603, 187500.0, 29929.164639611798, 25543.864136202832, 187500.0, 187500.0, -187500.02235174447, 29648.940819375614, -0.076, 0.972, -0.126, 192.0, 0.0, 0.0, 0.0, 0.0, 0.0, 0.0, 0.0, 0.0, 0.0, 1.6989590910353944E9, 0.0, 2023-11-02 17:04:51.035
243.0, -61536.6770668837, 187500.0, 29925.54365701004, 25541.29368559047, 187500.0, 187500.0, -187500.02235174447, 29643.419938495153, -0.076, 0.972, -0.126, 192.0, 0.0, 0.0, 0.0, 0.0, 0.0, 0.0, 0.0, 0.0, 0.0, 1.698959091035472E9, 0.0, 2023-11-02 17:04:51.035
244.0, -61579.52536100452, 187500.0, 29931.39981405733, 25550.212031628136, 187500.0, 187500.0, -187500.02235174447, 29647.10797633028, -0.076, 0.972, -0.126, 192.0, 0.0, 0.0, 0.0, 0.0, 0.0, 0.0, 0.0, 0.0, 0.0, 1.6989590910354838E9, 0.0, 2023-11-02 17:04:51.035
245.0, -61538.30874422893, 187500.0, 29932.025662902077, 25550.033217672495, 187500.0, 187500.0, -187500.02235174447, 29646.325665274344, -0.076, 0.972, -0.126, 192.0, 0.0, 0.0, 0.0, 0.0, 0.0, 0.0, 0.0, 0.0, 0.0, 1.6989590910354972E9, 0.0, 2023-11-02 17:04:51.035
246.0, -61550.93747984618, 187500.0, 29933.322064080487, 25547.842746715876, 187500.0, 187500.0, -187500.02235174447, 29648.314970530868, -0.084, 0.972, -0.13, 192.0, 253.0, 96.0, 30.0, 96.0, 251.0, 240.0, 0.0, 0.0, 0.0, 1.698959091035509E9, 0.0, 2023-11-02 17:04:51.035
247.0, -61627.045169716504, 187500.0, 29934.484354792163, 25554.72708400811, 187500.0, 187500.0, -187500.02235174447, 29650.3489792763, -0.084, 0.972, -0.13, 192.0, 0.0, 0.0, 0.0, 0.0, 0.0, 0.0, 0.0, 0.0, 0.0, 1.6989590910355484E9, 0.0, 2023-11-02 17:04:51.035
248.0, -61644.41247515828, 187500.0, 29936.25014260413, 25565.657087046755, 187500.0, 187500.0, -187500.02235174447, 29653.34411303331, -0.084, 0.972, -0.13, 192.0, 0.0, 0.0, 0.0, 0.0, 0.0, 0.0, 0.0, 0.0, 0.0, 1.698959091035561E9, 0.0, 2023-11-02 17:04:51.035
249.0, -61616.42809110023, 187500.0, 29940.899305450836, 25572.317906894437, 187500.0, 187500.0, -187500.02235174447, 29659.736711947528, -0.084, 0.972, -0.13, 192.0, 0.0, 0.0, 0.0, 0.0, 0.0, 0.0, 0.0, 0.0, 0.0, 1.6989590910355885E9, 0.0, 2023-11-02 17:04:51.035
250.0, -61606.95095145118, 187500.0, 29937.703005993728, 25567.936964981196, 187500.0, 187500.0, -187500.02235174447, 29656.182784579134, -0.084, 0.972, -0.13, 192.0, 0.0, 0.0, 0.0, 0.0, 0.0, 0.0, 0.0, 0.0, 0.0, 1.6989590910355983E9, 0.0, 2023-11-02 17:04:51.035
251.0, -61656.92945205325, 187500.0, 29935.713700737204, 25568.361648125847, 187500.0, 187500.0, -187500.02235174447, 29654.573458978353, -0.084, 0.972, -0.13, 192.0, 0.0, 0.0, 0.0, 0.0, 0.0, 0.0, 0.0, 0.0, 0.0, 1.6989590910356083E9, 0.0, 2023-11-02 17:04:51.035
252.0, -61663.72438236766, 187500.0, 29932.83032570247, 25568.987496970596, 187500.0, 187500.0, -187500.02235174447, 29652.070063599356, -0.084, 0.972, -0.13, 192.0, 0.0, 0.0, 0.0, 0.0, 0.0, 0.0, 0.0, 0.0, 0.0, 1.6989590910356183E9, 0.0, 2023-11-02 17:04:51.035
253.0, -61602.77117523804, 187500.0, 29934.506706536617, 25569.6356975598, 187500.0, 187500.0, -187500.02235174447, 29652.517098488464, -0.084, 0.972, -0.13, 192.0, 0.0, 0.0, 0.0, 0.0, 0.0, 0.0, 0.0, 0.0, 0.0, 1.698959091035628E9, 0.0, 2023-11-02 17:04:51.035
254.0, -61555.251366526056, 187500.0, 29936.428956559776, 25568.540462081488, 187500.0, 187500.0, -187500.02235174447, 29652.87472639975, -0.084, 0.972, -0.13, 192.0, 0.0, 0.0, 0.0, 0.0, 0.0, 0.0, 0.0, 0.0, 0.0, 1.6989590910356379E9, 0.0, 2023-11-02 17:04:51.035
255.0, -61577.29018655899, 187500.0, 29938.820593216493, 25567.78050277001, 187500.0, 187500.0, -187500.02235174447, 29654.573458978353, -0.084, 0.972, -0.13, 192.0, 0.0, 0.0, 0.0, 0.0, 0.0, 0.0, 0.0, 0.0, 0.0, 1.6989590910356493E9, 0.0, 2023-11-02 17:04:51.035
0.0, -61591.99763441058, 187500.0, 29942.35216884043, 25567.512281836545, 187500.0, 187500.0, -187500.02235174447, 29656.272191556956, -0.1, 0.966, -0.132, 192.0, 252.0, 224.0, 30.0, 48.0, 251.0, 224.0, 0.0, 0.0, 0.0, 1.698959091035659E9, 0.0, 2023-11-02 17:04:51.035
1.0, -61514.8170608064, 187500.0, 29941.748671740137, 25568.182834170206, 187500.0, 187500.0, -187500.02235174447, 29655.1993078231, -0.1, 0.966, -0.132, 192.0, 0.0, 0.0, 0.0, 0.0, 0.0, 0.0, 0.0, 0.0, 0.0, 1.6989590910357115E9, 0.0, 2023-11-02 17:04:51.035
2.0, -61416.11175729177, 187500.0, 29939.692311250248, 25565.59003181339, 187500.0, 187500.0, -187500.02235174447, 29652.137118832725, -0.1, 0.966, -0.132, 192.0, 0.0, 0.0, 0.0, 0.0, 0.0, 0.0, 0.0, 0.0, 0.0, 1.6989590910357215E9, 0.0, 2023-11-02 17:04:51.035
3.0, -61430.68509467663, 187500.0, 29947.381311342873, 25572.16144468325, 187500.0, 187500.0, -187500.02235174447, 29657.434482268633, -0.1, 0.966, -0.132, 192.0, 0.0, 0.0, 0.0, 0.0, 0.0, 0.0, 0.0, 0.0, 0.0, 1.6989590910357313E9, 0.0, 2023-11-02 17:04:51.035
4.0, -61421.96791433906, 187500.0, 29946.017854931102, 25575.044819717983, 187500.0, 187500.0, -187500.02235174447, 29653.38881652222, -0.1, 0.966, -0.132, 192.0, 0.0, 0.0, 0.0, 0.0, 0.0, 0.0, 0.0, 0.0, 0.0, 1.6989590910357468E9, 0.0, 2023-11-02 17:04:51.035
5.0, -61324.15668060264, 187500.0, 29939.11116589441, 25573.748418539577, 187500.0, 187500.0, -187500.02235174447, 29645.900982129693, -0.1, 0.966, -0.132, 192.0, 0.0, 0.0, 0.0, 0.0, 0.0, 0.0, 0.0, 0.0, 0.0, 1.6989590910357563E9, 0.0, 2023-11-02 17:04:51.035
6.0, -61208.151126879595, 187500.0, 29933.59028501395, 25564.315982379438, 187500.0, 187500.0, -187500.02235174447, 29641.34122626081, -0.1, 0.966, -0.132, 192.0, 0.0, 0.0, 0.0, 0.0, 0.0, 0.0, 0.0, 0.0, 0.0, 1.698959091035766E9, 0.0, 2023-11-02 17:04:51.035
7.0, -61199.903333175585, 187500.0, 29937.703005993728, 25569.92627023772, 187500.0, 187500.0, -187500.02235174447, 29647.376197263744, -0.1, 0.966, -0.132, 192.0, 0.0, 0.0, 0.0, 0.0, 0.0, 0.0, 0.0, 0.0, 0.0, 1.6989590910357757E9, 0.0, 2023-11-02 17:04:51.035
8.0, -61206.98883616792, 187500.0, 29935.065500148, 25576.520034852034, 187500.0, 187500.0, -187500.02235174447, 29648.314970530868, -0.1, 0.966, -0.132, 192.0, 0.0, 0.0, 0.0, 0.0, 0.0, 0.0, 0.0, 0.0, 0.0, 1.6989590910357857E9, 0.0, 2023-11-02 17:04:51.035
9.0, -61115.011407734324, 187500.0, 29928.941122167245, 25579.001078486574, 187500.0, 187500.0, -187500.02235174447, 29643.889325128715, -0.1, 0.966, -0.132, 192.0, 0.0, 0.0, 0.0, 0.0, 0.0, 0.0, 0.0, 0.0, 0.0, 1.6989590910357955E9, 0.0, 2023-11-02 17:04:51.035
10.0, -60972.45198159838, 187500.0, 29924.33666280945, 25574.15074993977, 187500.0, 187500.0, -187500.02235174447, 29640.11188031577, -0.10200000000000001, 0.964, -0.134, 192.0, 252.0, 208.0, 30.0, 32.0, 251.0, 208.0, 0.0, 0.0, 0.0, 1.698959091035805E9, 0.0, 2023-11-02 17:04:51.035
11.0, -60926.02740836471, 187500.0, 29927.555314011017, 25573.994287728583, 187500.0, 187500.0, -187500.02235174447, 29643.86697338426, -0.10200000000000001, 0.964, -0.134, 192.0, 0.0, 0.0, 0.0, 0.0, 0.0, 0.0, 0.0, 0.0, 0.0, 1.6989590910358157E9, 0.0, 2023-11-02 17:04:51.035
12.0, -60928.5308037437, 187500.0, 29929.29875007853, 25575.96124124065, 187500.0, 187500.0, -187500.02235174447, 29645.543354218407, -0.10200000000000001, 0.964, -0.134, 192.0, 0.0, 0.0, 0.0, 0.0, 0.0, 0.0, 0.0, 0.0, 0.0, 1.6989590910358255E9, 0.0, 2023-11-02 17:04:51.035
13.0, -60833.69235201983, 187500.0, 29925.074270376477, 25575.335392395904, 187500.0, 187500.0, -187500.02235174447, 29640.91654311616, -0.10200000000000001, 0.964, -0.134, 192.0, 0.0, 0.0, 0.0, 0.0, 0.0, 0.0, 0.0, 0.0, 0.0, 1.6989590910358353E9, 0.0, 2023-11-02 17:04:51.035
14.0, -60675.84433267645, 187500.0, 29924.649587231826, 25576.29651740748, 187500.0, 187500.0, -187500.02235174447, 29641.90001987219, -0.10200000000000001, 0.964, -0.134, 192.0, 0.0, 0.0, 0.0, 0.0, 0.0, 0.0, 0.0, 0.0, 0.0, 1.6989590910358448E9, 0.0, 2023-11-02 17:04:51.035
15.0, -60585.4985815881, 187500.0, 29927.890590177845, 25577.212938930148, 187500.0, 187500.0, -187500.02235174447, 29644.693987929106, -0.10200000000000001, 0.964, -0.134, 192.0, 0.0, 0.0, 0.0, 0.0, 0.0, 0.0, 0.0, 0.0, 0.0, 1.6989590910358543E9, 0.0, 2023-11-02 17:04:51.035
16.0, -60542.9408601452, 187500.0, 29929.008177400614, 25576.765904041044, 187500.0, 187500.0, -187500.02235174447, 29645.230429796033, -0.10200000000000001, 0.964, -0.134, 192.0, 0.0, 0.0, 0.0, 0.0, 0.0, 0.0, 0.0, 0.0, 0.0, 1.6989590910358741E9, 0.0, 2023-11-02 17:04:51.035
17.0, -60460.26175740502, 187500.0, 29933.724395480684, 25584.45490413367, 187500.0, 187500.0, -187500.02235174447, 29652.293581043912, -0.10200000000000001, 0.964, -0.134, 192.0, 0.0, 0.0, 0.0, 0.0, 0.0, 0.0, 0.0, 0.0, 0.0, 1.698959091035884E9, 0.0, 2023-11-02 17:04:51.035
18.0, -60297.45165079256, 187500.0, 29931.086889634957, 25583.270261677535, 187500.0, 187500.0, -187500.02235174447, 29648.694950186607, -0.10200000000000001, 0.964, -0.134, 192.0, 0.0, 0.0, 0.0, 0.0, 0.0, 0.0, 0.0, 0.0, 0.0, 1.6989590910358937E9, 0.0, 2023-11-02 17:04:51.035
19.0, -60176.416954567074, 187500.0, 29934.0149681586, 25578.598747086377, 187500.0, 187500.0, -187500.02235174447, 29648.940819375614, -0.10200000000000001, 0.964, -0.134, 192.0, 0.0, 0.0, 0.0, 0.0, 0.0, 0.0, 0.0, 0.0, 0.0, 1.6989590910359032E9, 0.0, 2023-11-02 17:04:51.035
20.0, -60128.42775922153, 187500.0, 29936.20543911522, 25583.113799466348, 187500.0, 187500.0, -187500.02235174447, 29650.57249672085, -0.098, 0.972, -0.134, 192.0, 252.0, 240.0, 30.0, 96.0, 251.0, 208.0, 0.0, 0.0, 0.0, 1.6989590910359128E9, 0.0, 2023-11-02 17:04:51.035
21.0, -60039.57957501168, 187500.0, 29931.176296612775, 25585.326622167424, 187500.0, 187500.0, -187500.02235174447, 29645.83392689633, -0.098, 0.972, -0.134, 192.0, 0.0, 0.0, 0.0, 0.0, 0.0, 0.0, 0.0, 0.0, 0.0, 1.6989590910359228E9, 0.0, 2023-11-02 17:04:51.035
22.0, -59867.51584619473, 187500.0, 29927.19768609973, 25582.085619221405, 187500.0, 187500.0, -187500.02235174447, 29642.637627439217, -0.098, 0.972, -0.134, 192.0, 0.0, 0.0, 0.0, 0.0, 0.0, 0.0, 0.0, 0.0, 0.0, 1.6989590910359323E9, 0.0, 2023-11-02 17:04:51.035
23.0, -59727.3480567155, 187500.0, 29930.12576462338, 25573.189624928193, 187500.0, 187500.0, -187500.02235174447, 29645.141022818214, -0.098, 0.972, -0.134, 192.0, 0.0, 0.0, 0.0, 0.0, 0.0, 0.0, 0.0, 0.0, 0.0, 1.698959091035942E9, 0.0, 2023-11-02 17:04:51.035
24.0, -59697.35201565648, 187500.0, 29939.60290427243, 25575.15657844026, 187500.0, 187500.0, -187500.02235174447, 29654.43934851162, -0.098, 0.972, -0.134, 192.0, 0.0, 0.0, 0.0, 0.0, 0.0, 0.0, 0.0, 0.0, 0.0, 1.6989590910359516E9, 0.0, 2023-11-02 17:04:51.035
25.0, -59631.3249625355, 187500.0, 29933.63498850286, 25573.055514461463, 187500.0, 187500.0, -187500.02235174447, 29651.10893858778, -0.098, 0.972, -0.134, 192.0, 0.0, 0.0, 0.0, 0.0, 0.0, 0.0, 0.0, 0.0, 0.0, 1.6989590910359612E9, 0.0, 2023-11-02 17:04:51.035
26.0, -59467.44197218919, 187500.0, 29927.711776222204, 25563.91365097924, 187500.0, 187500.0, -187500.02235174447, 29646.86210714127, -0.098, 0.972, -0.134, 192.0, 0.0, 0.0, 0.0, 0.0, 0.0, 0.0, 0.0, 0.0, 0.0, 1.6989590910359724E9, 0.0, 2023-11-02 17:04:51.035
27.0, -59323.16146173018, 187500.0, 29929.902247178823, 25560.359723610847, 187500.0, 187500.0, -187500.02235174447, 29652.472394999553, -0.098, 0.972, -0.134, 192.0, 0.0, 0.0, 0.0, 0.0, 0.0, 0.0, 0.0, 0.0, 0.0, 1.698959091035982E9, 0.0, 2023-11-02 17:04:51.035
28.0, -59241.599946212766, 187500.0, 29922.995558142135, 25555.889374719787, 187500.0, 187500.0, -187500.02235174447, 29650.684255443128, -0.098, 0.972, -0.134, 192.0, 0.0, 0.0, 0.0, 0.0, 0.0, 0.0, 0.0, 0.0, 0.0, 1.6989590910359917E9, 0.0, 2023-11-02 17:04:51.035
29.0, -59170.074363955784, 187500.0, 29916.088869105446, 25548.06626416043, 187500.0, 187500.0, -187500.02235174447, 29645.67746468514, -0.098, 0.972, -0.134, 192.0, 0.0, 0.0, 0.0, 0.0, 0.0, 0.0, 0.0, 0.0, 0.0, 1.698959091036001E9, 0.0, 2023-11-02 17:04:51.036
30.0, -58991.70744320243, 187500.0, 29905.382383511354, 25539.952580923153, 187500.0, 187500.0, -187500.02235174447, 29634.1439645462, -0.088, 0.968, -0.14200000000000002, 192.0, 253.0, 64.0, 30.0, 64.0, 251.0, 144.0, 0.0, 0.0, 0.0, 1.6989590910360105E9, 0.0, 2023-11-02 17:04:51.036
31.0, -58811.64178987048, 187500.0, 29907.01406085659, 25531.81654594142, 187500.0, 187500.0, -187500.02235174447, 29636.692063414106, -0.088, 0.968, -0.14200000000000002, 192.0, 0.0, 0.0, 0.0, 0.0, 0.0, 0.0, 0.0, 0.0, 0.0, 1.6989590910360289E9, 0.0, 2023-11-02 17:04:51.036
32.0, -58740.18326284686, 187500.0, 29914.032508615557, 25528.508487762036, 187500.0, 187500.0, -187500.02235174447, 29644.358711762277, -0.088, 0.968, -0.14200000000000002, 192.0, 0.0, 0.0, 0.0, 0.0, 0.0, 0.0, 0.0, 0.0, 0.0, 1.6989590910360384E9, 0.0, 2023-11-02 17:04:51.036
33.0, -58662.46624737576, 187500.0, 29909.11512483539, 25521.691205703166, 187500.0, 187500.0, -187500.02235174447, 29641.140060560712, -0.088, 0.968, -0.14200000000000002, 192.0, 0.0, 0.0, 0.0, 0.0, 0.0, 0.0, 0.0, 0.0, 0.0, 1.698959091036048E9, 0.0, 2023-11-02 17:04:51.036
34.0, -58485.64159698982, 187500.0, 29898.07336307447, 25504.592121194855, 187500.0, 187500.0, -187500.02235174447, 29629.71831914405, -0.088, 0.968, -0.14200000000000002, 192.0, 0.0, 0.0, 0.0, 0.0, 0.0, 0.0, 0.0, 0.0, 0.0, 1.6989590910360577E9, 0.0, 2023-11-02 17:04:51.036
35.0, -58293.21542897409, 187500.0, 29896.53109270705, 25489.72821113208, 187500.0, 187500.0, -187500.02235174447, 29627.57255167634, -0.088, 0.968, -0.14200000000000002, 192.0, 0.0, 0.0, 0.0, 0.0, 0.0, 0.0, 0.0, 0.0, 0.0, 1.6989590910360672E9, 0.0, 2023-11-02 17:04:51.036
36.0, -58167.79979083536, 187500.0, 29895.480560717653, 25483.46972268459, 187500.0, 187500.0, -187500.02235174447, 29626.700833642582, -0.088, 0.968, -0.14200000000000002, 192.0, 0.0, 0.0, 0.0, 0.0, 0.0, 0.0, 0.0, 0.0, 0.0, 1.6989590910360768E9, 0.0, 2023-11-02 17:04:51.036
37.0, -58083.198438072024, 187500.0, 29895.01117408409, 25480.966327305596, 187500.0, 187500.0, -187500.02235174447, 29623.281016740922, -0.088, 0.968, -0.14200000000000002, 192.0, 0.0, 0.0, 0.0, 0.0, 0.0, 0.0, 0.0, 0.0, 0.0, 1.6989590910360863E9, 0.0, 2023-11-02 17:04:51.036
38.0, -57916.40972094652, 187500.0, 29889.132665292345, 25477.837083081853, 187500.0, 187500.0, -187500.02235174447, 29613.2897869694, -0.088, 0.968, -0.14200000000000002, 192.0, 0.0, 0.0, 0.0, 0.0, 0.0, 0.0, 0.0, 0.0, 0.0, 1.698959091036096E9, 0.0, 2023-11-02 17:04:51.036
39.0, -57702.5705817426, 187500.0, 29886.316345490977, 25467.197652721126, 187500.0, 187500.0, -187500.02235174447, 29605.109048498758, -0.088, 0.968, -0.14200000000000002, 192.0, 0.0, 0.0, 0.0, 0.0, 0.0, 0.0, 0.0, 0.0, 0.0, 1.6989590910361056E9, 0.0, 2023-11-02 17:04:51.036
40.0, -57570.762344689654, 187500.0, 29895.793485140024, 25465.968306776085, 187500.0, 187500.0, -187500.02235174447, 29608.81943807834, -0.088, 0.974, -0.14200000000000002, 192.0, 253.0, 64.0, 30.0, 112.0, 251.0, 144.0, 0.0, 0.0, 0.0, 1.6989590910361152E9, 0.0, 2023-11-02 17:04:51.036
41.0, -57502.23189618968, 187500.0, 29902.454304987707, 25475.95953654761, 187500.0, 187500.0, -187500.02235174447, 29613.245083480488, -0.088, 0.974, -0.14200000000000002, 192.0, 0.0, 0.0, 0.0, 0.0, 0.0, 0.0, 0.0, 0.0, 0.0, 1.6989590910361252E9, 0.0, 2023-11-02 17:04:51.036
42.0, -57345.724981513624, 187500.0, 29894.385325239342, 25470.259841711504, 187500.0, 187500.0, -187500.02235174447, 29604.08086825381, -0.088, 0.974, -0.14200000000000002, 192.0, 0.0, 0.0, 0.0, 0.0, 0.0, 0.0, 0.0, 0.0, 0.0, 1.6989590910361347E9, 0.0, 2023-11-02 17:04:51.036
43.0, -57130.88001380921, 187500.0, 29891.323136248964, 25462.6602485967, 187500.0, 187500.0, -187500.02235174447, 29598.783504817904, -0.088, 0.974, -0.14200000000000002, 192.0, 0.0, 0.0, 0.0, 0.0, 0.0, 0.0, 0.0, 0.0, 0.0, 1.6989590910361445E9, 0.0, 2023-11-02 17:04:51.036
44.0, -56967.80168626329, 187500.0, 29887.54569143602, 25450.746768802022, 187500.0, 187500.0, -187500.02235174447, 29592.2344436925, -0.088, 0.974, -0.14200000000000002, 192.0, 0.0, 0.0, 0.0, 0.0, 0.0, 0.0, 0.0, 0.0, 0.0, 1.6989590910361545E9, 0.0, 2023-11-02 17:04:51.036
45.0, -56880.54047590977, 187500.0, 29884.170578023266, 25448.332780400848, 187500.0, 187500.0, -187500.02235174447, 29588.009963990447, -0.088, 0.974, -0.14200000000000002, 192.0, 0.0, 0.0, 0.0, 0.0, 0.0, 0.0, 0.0, 0.0, 0.0, 1.6989590910361643E9, 0.0, 2023-11-02 17:04:51.036
46.0, -56760.37749771804, 187500.0, 29881.19779601071, 25453.831309536854, 187500.0, 187500.0, -187500.02235174447, 29585.81949303383, -0.088, 0.974, -0.14200000000000002, 192.0, 0.0, 0.0, 0.0, 0.0, 0.0, 0.0, 0.0, 0.0, 0.0, 1.6989590910362077E9, 0.0, 2023-11-02 17:04:51.036
47.0, -56547.18655910332, 187500.0, 29874.0005342961, 25447.08108271135, 187500.0, 187500.0, -187500.02235174447, 29578.532824341397, -0.088, 0.974, -0.14200000000000002, 192.0, 0.0, 0.0, 0.0, 0.0, 0.0, 0.0, 0.0, 0.0, 0.0, 1.6989590910362196E9, 0.0, 2023-11-02 17:04:51.036
48.0, -56374.07229829697, 187500.0, 29880.370781465863, 25450.813824035387, 187500.0, 187500.0, -187500.02235174447, 29586.020658733927, -0.088, 0.974, -0.14200000000000002, 192.0, 0.0, 0.0, 0.0, 0.0, 0.0, 0.0, 0.0, 0.0, 0.0, 1.6989590910362475E9, 0.0, 2023-11-02 17:04:51.036
49.0, -56276.35047153837, 187500.0, 29883.701191389704, 25454.837138037343, 187500.0, 187500.0, -187500.02235174447, 29590.401600647165, -0.088, 0.968, -0.152, 192.0, 253.0, 64.0, 30.0, 64.0, 251.0, 64.0, 0.0, 0.0, 0.0, 1.6989590910362573E9, 0.0, 2023-11-02 17:04:51.036
50.0, -56157.618004991775, 187500.0, 29881.24249949962, 25457.161719460695, 187500.0, 187500.0, -187500.02235174447, 29588.61346109074, -0.088, 0.968, -0.152, 192.0, 0.0, 0.0, 0.0, 0.0, 0.0, 0.0, 0.0, 0.0, 0.0, 1.6989590910362685E9, 0.0, 2023-11-02 17:04:51.036
51.0, -55956.564063616286, 187500.0, 29882.181272766746, 25458.748693317022, 187500.0, 187500.0, -187500.02235174447, 29589.03814423539, -0.088, 0.968, -0.152, 192.0, 0.0, 0.0, 0.0, 0.0, 0.0, 0.0, 0.0, 0.0, 0.0, 1.698959091036278E9, 0.0, 2023-11-02 17:04:51.036
52.0, -55781.66166325351, 187500.0, 29889.669107159272, 25462.74965557452, 187500.0, 187500.0, -187500.02235174447, 29595.453094894066, -0.088, 0.968, -0.152, 192.0, 0.0, 0.0, 0.0, 0.0, 0.0, 0.0, 0.0, 0.0, 0.0, 1.6989590910362892E9, 0.0, 2023-11-02 17:04:51.036
53.0, -55673.32275787864, 187500.0, 29892.083095560443, 25457.966382261086, 187500.0, 187500.0, -187500.02235174447, 29596.749496072473, -0.088, 0.968, -0.152, 192.0, 0.0, 0.0, 0.0, 0.0, 0.0, 0.0, 0.0, 0.0, 0.0, 1.6989590910363004E9, 0.0, 2023-11-02 17:04:51.036
54.0, -55560.26763442369, 187500.0, 29892.73129614965, 25456.04413223793, 187500.0, 187500.0, -187500.02235174447, 29597.062420494847, -0.088, 0.968, -0.152, 192.0, 0.0, 0.0, 0.0, 0.0, 0.0, 0.0, 0.0, 0.0, 0.0, 1.698959091036311E9, 0.0, 2023-11-02 17:04:51.036
55.0, -55369.49549549765, 187500.0, 29898.319232263475, 25462.302620685416, 187500.0, 187500.0, -187500.02235174447, 29602.560949630853, -0.088, 0.968, -0.152, 192.0, 0.0, 0.0, 0.0, 0.0, 0.0, 0.0, 0.0, 0.0, 0.0, 1.6989590910363228E9, 0.0, 2023-11-02 17:04:51.036
56.0, -55167.65924306623, 187500.0, 29907.86342714589, 25471.80211207892, 187500.0, 187500.0, -187500.02235174447, 29612.395717191186, -0.088, 0.968, -0.152, 192.0, 0.0, 0.0, 0.0, 0.0, 0.0, 0.0, 0.0, 0.0, 0.0, 1.6989590910363345E9, 0.0, 2023-11-02 17:04:51.036
57.0, -55028.25141289848, 187500.0, 29908.86925564638, 25471.62329812328, 187500.0, 187500.0, -187500.02235174447, 29613.401545691675, -0.088, 0.968, -0.152, 192.0, 0.0, 0.0, 0.0, 0.0, 0.0, 0.0, 0.0, 0.0, 0.0, 1.6989590910363457E9, 0.0, 2023-11-02 17:04:51.036
58.0, -54952.05431605033, 187500.0, 29916.222979572176, 25478.440580182145, 187500.0, 187500.0, -187500.02235174447, 29618.207170749567, -0.088, 0.968, -0.152, 192.0, 0.0, 0.0, 0.0, 0.0, 0.0, 0.0, 0.0, 0.0, 0.0, 1.6989590910363564E9, 0.0, 2023-11-02 17:04:51.036
59.0, -54787.947808259465, 187500.0, 29909.383345768852, 25475.5125016585, 187500.0, 187500.0, -187500.02235174447, 29610.115839256745, -0.088, 0.968, -0.15, 192.0, 253.0, 64.0, 30.0, 64.0, 251.0, 80.0, 0.0, 0.0, 0.0, 1.6989590910363672E9, 0.0, 2023-11-02 17:04:51.036
60.0, -54571.8287911211, 187500.0, 29903.750706166116, 25462.839062552343, 187500.0, 187500.0, -187500.02235174447, 29604.19262697609, -0.088, 0.968, -0.15, 192.0, 0.0, 0.0, 0.0, 0.0, 0.0, 0.0, 0.0, 0.0, 0.0, 1.6989590910363796E9, 0.0, 2023-11-02 17:04:51.036
61.0, -54447.977775094245, 187500.0, 29908.44457250173, 25464.917774786685, 187500.0, 187500.0, -187500.02235174447, 29607.970071789037, -0.088, 0.968, -0.15, 192.0, 0.0, 0.0, 0.0, 0.0, 0.0, 0.0, 0.0, 0.0, 0.0, 1.6989590910363898E9, 0.0, 2023-11-02 17:04:51.036
62.0, -54388.633893565406, 187500.0, 29914.233674315656, 25474.28315571346, 187500.0, 187500.0, -187500.02235174447, 29615.748478859485, -0.088, 0.968, -0.15, 192.0, 0.0, 0.0, 0.0, 0.0, 0.0, 0.0, 0.0, 0.0, 0.0, 1.69895909103643E9, 0.0, 2023-11-02 17:04:51.036
63.0, -54252.48941808813, 187500.0, 29909.517456235586, 25474.4619696691, 187500.0, 187500.0, -187500.02235174447, 29614.362670703256, -0.088, 0.968, -0.15, 192.0, 0.0, 0.0, 0.0, 0.0, 0.0, 0.0, 0.0, 0.0, 0.0, 1.6989590910364416E9, 0.0, 2023-11-02 17:04:51.036
64.0, -54056.73284014855, 187500.0, 29908.9586626242, 25477.054772025916, 187500.0, 187500.0, -187500.02235174447, 29617.581321904818, -0.088, 0.968, -0.15, 192.0, 0.0, 0.0, 0.0, 0.0, 0.0, 0.0, 0.0, 0.0, 0.0, 1.698959091036455E9, 0.0, 2023-11-02 17:04:51.036
65.0, -53921.5271379384, 187500.0, 29912.557293481506, 25481.502769172523, 187500.0, 187500.0, -187500.02235174447, 29623.43747895211, -0.088, 0.968, -0.15, 192.0, 0.0, 0.0, 0.0, 0.0, 0.0, 0.0, 0.0, 0.0, 0.0, 1.6989590910364664E9, 0.0, 2023-11-02 17:04:51.036
66.0, -53843.09486664473, 187500.0, 29915.999462127624, 25488.074182042383, 187500.0, 187500.0, -187500.02235174447, 29627.885476098716, -0.088, 0.968, -0.15, 192.0, 0.0, 0.0, 0.0, 0.0, 0.0, 0.0, 0.0, 0.0, 0.0, 1.698959091036478E9, 0.0, 2023-11-02 17:04:51.036
