%OpenBCI Raw EEG Data
%Number of channels = 8
%Sample Rate = 250 Hz
%Board = OpenBCI_GUI$BoardCytonSerial
Sample Index, EXG Channel 0, EXG Channel 1, EXG Channel 2, EXG Channel 3, EXG Channel 4, EXG Channel 5, EXG Channel 6, EXG Channel 7, Accel Channel 0, Accel Channel 1, Accel Channel 2, Other, Other, Other, Other, Other, Other, Other, Analog Channel 0, Analog Channel 1, Analog Channel 2, Timestamp, Other, Timestamp (Formatted)
182.0, -137929.5528447095, 187500.0, 30632.81990680932, 25967.675562819906, 187500.0, 187500.0, -187500.02235174447, 29822.01037669306, 0.0, 0.0, 0.0, 192.0, 0.0, 0.0, 0.0, 0.0, 0.0, 0.0, 0.0, 0.0, 0.0, 1.698959076734034E9, 0.0, 2023-11-02 17:04:36.734
183.0, -137812.16148283024, 187500.0, 30628.17074396262, 25955.4268068584, 187500.0, 187500.0, -187500.02235174447, 29817.741193502094, 0.0, 0.0, 0.0, 192.0, 0.0, 0.0, 0.0, 0.0, 0.0, 0.0, 0.0, 0.0, 0.0, 1.6989590767340565E9, 0.0, 2023-11-02 17:04:36.734
184.0, -137790.9720290866, 187500.0, 30629.802421307853, 25953.817481257618, 187500.0, 187500.0, -187500.02235174447, 29820.04342318099, -0.092, 0.972, -0.062, 192.0, 253.0, 32.0, 30.0, 96.0, 254.0, 16.0, 0.0, 0.0, 0.0, 1.6989590767340667E9, 0.0, 2023-11-02 17:04:36.734
185.0, -137839.3412040879, 187500.0, 30633.44575565407, 25956.90202199245, 187500.0, 187500.0, -187500.02235174447, 29824.066737182944, -0.092, 0.972, -0.062, 192.0, 0.0, 0.0, 0.0, 0.0, 0.0, 0.0, 0.0, 0.0, 0.0, 1.6989590767340784E9, 0.0, 2023-11-02 17:04:36.734
186.0, -137826.3771923038, 187500.0, 30633.982197520996, 25962.80288252865, 187500.0, 187500.0, -187500.02235174447, 29823.954978460668, -0.092, 0.972, -0.062, 192.0, 0.0, 0.0, 0.0, 0.0, 0.0, 0.0, 0.0, 0.0, 0.0, 1.6989590767340884E9, 0.0, 2023-11-02 17:04:36.734
187.0, -137710.9080804477, 187500.0, 30627.34372941777, 25958.287830148678, 187500.0, 187500.0, -187500.02235174447, 29816.60125453487, -0.092, 0.972, -0.062, 192.0, 0.0, 0.0, 0.0, 0.0, 0.0, 0.0, 0.0, 0.0, 0.0, 1.6989590767340984E9, 0.0, 2023-11-02 17:04:36.734
188.0, -137654.0452425534, 187500.0, 30621.375813648203, 25950.241202144767, 187500.0, 187500.0, -187500.02235174447, 29810.834504465405, -0.092, 0.972, -0.062, 192.0, 0.0, 0.0, 0.0, 0.0, 0.0, 0.0, 0.0, 0.0, 0.0, 1.698959076734108E9, 0.0, 2023-11-02 17:04:36.734
189.0, -137687.8410801698, 187500.0, 30621.219351437016, 25952.61048705703, 187500.0, 187500.0, -187500.02235174447, 29811.8850364548, -0.092, 0.972, -0.062, 192.0, 0.0, 0.0, 0.0, 0.0, 0.0, 0.0, 0.0, 0.0, 0.0, 1.6989590767341175E9, 0.0, 2023-11-02 17:04:36.734
190.0, -137665.2434665255, 187500.0, 30621.465220626025, 25957.259649903735, 187500.0, 187500.0, -187500.02235174447, 29812.220312621634, -0.092, 0.972, -0.062, 192.0, 0.0, 0.0, 0.0, 0.0, 0.0, 0.0, 0.0, 0.0, 0.0, 1.6989590767341273E9, 0.0, 2023-11-02 17:04:36.734
191.0, -137541.16893305408, 187500.0, 30618.000700235454, 25955.47151034731, 187500.0, 187500.0, -187500.02235174447, 29807.32528058592, -0.092, 0.972, -0.062, 192.0, 0.0, 0.0, 0.0, 0.0, 0.0, 0.0, 0.0, 0.0, 0.0, 1.6989590767341373E9, 0.0, 2023-11-02 17:04:36.734
192.0, -137466.60351355118, 187500.0, 30617.62072057971, 25950.531774822688, 187500.0, 187500.0, -187500.02235174447, 29804.441905551186, -0.092, 0.972, -0.062, 192.0, 0.0, 0.0, 0.0, 0.0, 0.0, 0.0, 0.0, 0.0, 0.0, 1.6989590767341468E9, 0.0, 2023-11-02 17:04:36.734
193.0, -137497.53832787732, 187500.0, 30617.10663045724, 25948.117786421513, 187500.0, 187500.0, -187500.02235174447, 29802.542007272485, -0.092, 0.972, -0.062, 192.0, 0.0, 0.0, 0.0, 0.0, 0.0, 0.0, 0.0, 0.0, 0.0, 1.6989590767341564E9, 0.0, 2023-11-02 17:04:36.734
194.0, -137497.2477551994, 187500.0, 30617.799534535356, 25952.342266123567, 187500.0, 187500.0, -187500.02235174447, 29802.810228205948, -0.078, 0.976, -0.064, 192.0, 253.0, 144.0, 30.0, 128.0, 254.0, 0.0, 0.0, 0.0, 0.0, 1.698959076734166E9, 0.0, 2023-11-02 17:04:36.734
195.0, -137393.20038475996, 187500.0, 30619.565322347324, 25954.04099870217, 187500.0, 187500.0, -187500.02235174447, 29802.407896805755, -0.078, 0.976, -0.064, 192.0, 0.0, 0.0, 0.0, 0.0, 0.0, 0.0, 0.0, 0.0, 0.0, 1.6989590767341762E9, 0.0, 2023-11-02 17:04:36.734
196.0, -137303.32402030518, 187500.0, 30620.034708980886, 25948.073082932602, 187500.0, 187500.0, -187500.02235174447, 29799.435114793196, -0.078, 0.976, -0.064, 192.0, 0.0, 0.0, 0.0, 0.0, 0.0, 0.0, 0.0, 0.0, 0.0, 1.698959076734186E9, 0.0, 2023-11-02 17:04:36.734
197.0, -137316.0645146447, 187500.0, 30620.884075270187, 25943.98271369728, 187500.0, 187500.0, -187500.02235174447, 29797.89284442578, -0.078, 0.976, -0.064, 192.0, 0.0, 0.0, 0.0, 0.0, 0.0, 0.0, 0.0, 0.0, 0.0, 1.6989590767341957E9, 0.0, 2023-11-02 17:04:36.734
198.0, -137333.25300613084, 187500.0, 30622.91808401562, 25946.776681754196, 187500.0, 187500.0, -187500.02235174447, 29799.211597348643, -0.078, 0.976, -0.064, 192.0, 0.0, 0.0, 0.0, 0.0, 0.0, 0.0, 0.0, 0.0, 0.0, 1.6989590767343106E9, 0.0, 2023-11-02 17:04:36.734
199.0, -137238.01222300675, 187500.0, 30624.706223572044, 25949.10126317755, 187500.0, 187500.0, -187500.02235174447, 29800.396239804777, -0.078, 0.976, -0.064, 192.0, 0.0, 0.0, 0.0, 0.0, 0.0, 0.0, 0.0, 0.0, 0.0, 1.6989590767343204E9, 0.0, 2023-11-02 17:04:36.734
200.0, -137154.2155330438, 187500.0, 30629.7800695634, 25949.436539344377, 187500.0, 187500.0, -187500.02235174447, 29801.402068305266, -0.078, 0.976, -0.064, 192.0, 0.0, 0.0, 0.0, 0.0, 0.0, 0.0, 0.0, 0.0, 0.0, 1.6989590767343304E9, 0.0, 2023-11-02 17:04:36.734
201.0, -137162.39627151444, 187500.0, 30633.155182976152, 25949.347132366554, 187500.0, 187500.0, -187500.02235174447, 29801.80439970546, -0.078, 0.976, -0.064, 192.0, 0.0, 0.0, 0.0, 0.0, 0.0, 0.0, 0.0, 0.0, 0.0, 1.69895907673434E9, 0.0, 2023-11-02 17:04:36.734
202.0, -137176.8354984326, 187500.0, 30629.511848629936, 25947.2237166433, 187500.0, 187500.0, -187500.02235174447, 29796.931719414202, -0.078, 0.976, -0.064, 192.0, 0.0, 0.0, 0.0, 0.0, 0.0, 0.0, 0.0, 0.0, 0.0, 1.6989590767343495E9, 0.0, 2023-11-02 17:04:36.734
203.0, -137081.77352926417, 187500.0, 30625.19796195006, 25942.105167163038, 187500.0, 187500.0, -187500.02235174447, 29791.14261760028, -0.078, 0.976, -0.064, 192.0, 0.0, 0.0, 0.0, 0.0, 0.0, 0.0, 0.0, 0.0, 0.0, 1.6989590767343593E9, 0.0, 2023-11-02 17:04:36.734
204.0, -136985.66102810635, 187500.0, 30633.512810887434, 25947.2237166433, 187500.0, 187500.0, -187500.02235174447, 29796.976422903113, -0.078, 0.984, -0.056, 192.0, 253.0, 144.0, 30.0, 192.0, 254.0, 64.0, 0.0, 0.0, 0.0, 1.6989590767343712E9, 0.0, 2023-11-02 17:04:36.734
205.0, -137005.330563227, 187500.0, 30644.219296481526, 25952.99046671277, 187500.0, 187500.0, -187500.02235174447, 29803.793704961983, -0.078, 0.984, -0.056, 192.0, 0.0, 0.0, 0.0, 0.0, 0.0, 0.0, 0.0, 0.0, 0.0, 1.698959076734382E9, 0.0, 2023-11-02 17:04:36.734
206.0, -137057.11955512996, 187500.0, 30641.604142380256, 25949.5259463222, 187500.0, 187500.0, -187500.02235174447, 29797.244643836577, -0.078, 0.984, -0.056, 192.0, 0.0, 0.0, 0.0, 0.0, 0.0, 0.0, 0.0, 0.0, 0.0, 1.6989590767343915E9, 0.0, 2023-11-02 17:04:36.734
207.0, -137002.9389265703, 187500.0, 30633.53516263189, 25939.713530506317, 187500.0, 187500.0, -187500.02235174447, 29787.0298966205, -0.078, 0.984, -0.056, 192.0, 0.0, 0.0, 0.0, 0.0, 0.0, 0.0, 0.0, 0.0, 0.0, 1.6989590767344012E9, 0.0, 2023-11-02 17:04:36.734
208.0, -136898.2657072861, 187500.0, 30632.81990680932, 25935.064367659616, 187500.0, 187500.0, -187500.02235174447, 29783.94535588567, -0.078, 0.984, -0.056, 192.0, 0.0, 0.0, 0.0, 0.0, 0.0, 0.0, 0.0, 0.0, 0.0, 1.6989590767344112E9, 0.0, 2023-11-02 17:04:36.734
209.0, -136899.3162392755, 187500.0, 30636.731462089, 25930.79518446865, 187500.0, 187500.0, -187500.02235174447, 29787.678097209704, -0.078, 0.984, -0.056, 192.0, 0.0, 0.0, 0.0, 0.0, 0.0, 0.0, 0.0, 0.0, 0.0, 1.6989590767344213E9, 0.0, 2023-11-02 17:04:36.734
210.0, -136958.50365859314, 187500.0, 30635.30095044386, 25928.001216411736, 187500.0, 187500.0, -187500.02235174447, 29786.00171637556, -0.078, 0.984, -0.056, 192.0, 0.0, 0.0, 0.0, 0.0, 0.0, 0.0, 0.0, 0.0, 0.0, 1.6989590767344308E9, 0.0, 2023-11-02 17:04:36.734
211.0, -136927.70295473374, 187500.0, 30631.568209119825, 25933.03035891418, 187500.0, 187500.0, -187500.02235174447, 29781.866643651327, -0.078, 0.984, -0.056, 192.0, 0.0, 0.0, 0.0, 0.0, 0.0, 0.0, 0.0, 0.0, 0.0, 1.6989590767344403E9, 0.0, 2023-11-02 17:04:36.734
212.0, -136822.4485900937, 187500.0, 30632.43992715358, 25933.566800781107, 187500.0, 187500.0, -187500.02235174447, 29784.481797752596, -0.078, 0.984, -0.056, 192.0, 0.0, 0.0, 0.0, 0.0, 0.0, 0.0, 0.0, 0.0, 0.0, 1.69895907673445E9, 0.0, 2023-11-02 17:04:36.734
213.0, -136771.35250226886, 187500.0, 30629.288331185384, 25930.303446090635, 187500.0, 187500.0, -187500.02235174447, 29783.855948907847, -0.078, 0.984, -0.056, 192.0, 0.0, 0.0, 0.0, 0.0, 0.0, 0.0, 0.0, 0.0, 0.0, 1.6989590767344851E9, 0.0, 2023-11-02 17:04:36.734
214.0, -136806.17652013022, 187500.0, 30623.58863634928, 25925.296655332644, 187500.0, 187500.0, -187500.02235174447, 29780.03380060599, -0.074, 0.964, -0.058, 192.0, 253.0, 176.0, 30.0, 32.0, 254.0, 48.0, 0.0, 0.0, 0.0, 1.698959076734495E9, 0.0, 2023-11-02 17:04:36.734
215.0, -136809.30576435398, 187500.0, 30624.30389217185, 25933.879725203482, 187500.0, 187500.0, -187500.02235174447, 29782.961879129634, -0.074, 0.964, -0.058, 192.0, 0.0, 0.0, 0.0, 0.0, 0.0, 0.0, 0.0, 0.0, 0.0, 1.6989590767345052E9, 0.0, 2023-11-02 17:04:36.734
216.0, -136709.66168757222, 187500.0, 30618.380679891194, 25935.198478126345, 187500.0, 187500.0, -187500.02235174447, 29779.65382095025, -0.074, 0.964, -0.058, 192.0, 0.0, 0.0, 0.0, 0.0, 0.0, 0.0, 0.0, 0.0, 0.0, 1.6989590767345147E9, 0.0, 2023-11-02 17:04:36.734
217.0, -136650.29545429893, 187500.0, 30613.619758322213, 25929.521135034698, 187500.0, 187500.0, -187500.02235174447, 29778.312716282933, -0.074, 0.964, -0.058, 192.0, 0.0, 0.0, 0.0, 0.0, 0.0, 0.0, 0.0, 0.0, 0.0, 1.6989590767345245E9, 0.0, 2023-11-02 17:04:36.734
218.0, -136699.33518163385, 187500.0, 30609.752906531445, 25927.822402456095, 187500.0, 187500.0, -187500.02235174447, 29778.715047683127, -0.074, 0.964, -0.058, 192.0, 0.0, 0.0, 0.0, 0.0, 0.0, 0.0, 0.0, 0.0, 0.0, 1.698959076734534E9, 0.0, 2023-11-02 17:04:36.734
219.0, -136704.45373111413, 187500.0, 30603.583825061778, 25929.498783290244, 187500.0, 187500.0, -187500.02235174447, 29777.284536037987, -0.074, 0.964, -0.058, 192.0, 0.0, 0.0, 0.0, 0.0, 0.0, 0.0, 0.0, 0.0, 0.0, 1.6989590767345436E9, 0.0, 2023-11-02 17:04:36.734
220.0, -136603.4461979206, 187500.0, 30599.493455826458, 25926.07896638858, 187500.0, 187500.0, -187500.02235174447, 29772.389504002276, -0.074, 0.964, -0.058, 192.0, 0.0, 0.0, 0.0, 0.0, 0.0, 0.0, 0.0, 0.0, 0.0, 1.6989590767345533E9, 0.0, 2023-11-02 17:04:36.734
221.0, -136521.19177832507, 187500.0, 30600.745153515956, 25924.42493729889, 187500.0, 187500.0, -187500.02235174447, 29772.993001102568, -0.074, 0.964, -0.058, 192.0, 0.0, 0.0, 0.0, 0.0, 0.0, 0.0, 0.0, 0.0, 0.0, 1.698959076734563E9, 0.0, 2023-11-02 17:04:36.734
222.0, -136559.32385436582, 187500.0, 30610.356403631737, 25932.94095193636, 187500.0, 187500.0, -187500.02235174447, 29783.677134952206, -0.074, 0.964, -0.058, 192.0, 0.0, 0.0, 0.0, 0.0, 0.0, 0.0, 0.0, 0.0, 0.0, 1.6989590767345726E9, 0.0, 2023-11-02 17:04:36.734
223.0, -136602.7979973314, 187500.0, 30619.006528735943, 25941.90400146294, 187500.0, 187500.0, -187500.02235174447, 29790.98615538909, -0.074, 0.964, -0.058, 192.0, 0.0, 0.0, 0.0, 0.0, 0.0, 0.0, 0.0, 0.0, 0.0, 1.698959076734582E9, 0.0, 2023-11-02 17:04:36.734
224.0, -136525.59507198277, 187500.0, 30617.01722347942, 25941.94870495185, 187500.0, 187500.0, -187500.02235174447, 29785.21940531962, -0.076, 0.978, -0.052000000000000005, 192.0, 253.0, 160.0, 30.0, 144.0, 254.0, 96.0, 0.0, 0.0, 0.0, 1.6989590767345915E9, 0.0, 2023-11-02 17:04:36.734
225.0, -136446.33578614425, 187500.0, 30618.939473502574, 25937.500707805244, 187500.0, 187500.0, -187500.02235174447, 29786.80637917595, -0.076, 0.978, -0.052000000000000005, 192.0, 0.0, 0.0, 0.0, 0.0, 0.0, 0.0, 0.0, 0.0, 0.0, 1.6989590767346036E9, 0.0, 2023-11-02 17:04:36.734
226.0, -136462.13846947413, 187500.0, 30620.90642701464, 25932.6727310029, 187500.0, 187500.0, -187500.02235174447, 29786.85108266486, -0.076, 0.978, -0.052000000000000005, 192.0, 0.0, 0.0, 0.0, 0.0, 0.0, 0.0, 0.0, 0.0, 0.0, 1.6989590767346132E9, 0.0, 2023-11-02 17:04:36.734
227.0, -136517.39198176767, 187500.0, 30630.674139341612, 25938.640646772463, 187500.0, 187500.0, -187500.02235174447, 29793.08721936789, -0.076, 0.978, -0.052000000000000005, 192.0, 0.0, 0.0, 0.0, 0.0, 0.0, 0.0, 0.0, 0.0, 0.0, 1.6989590767346227E9, 0.0, 2023-11-02 17:04:36.734
228.0, -136518.28605154587, 187500.0, 30637.91610454513, 25946.441405587364, 187500.0, 187500.0, -187500.02235174447, 29796.149408358266, -0.076, 0.978, -0.052000000000000005, 192.0, 0.0, 0.0, 0.0, 0.0, 0.0, 0.0, 0.0, 0.0, 0.0, 1.6989590767346418E9, 0.0, 2023-11-02 17:04:36.734
229.0, -136425.3027946118, 187500.0, 30633.06577599833, 25940.585248540076, 187500.0, 187500.0, -187500.02235174447, 29788.482760010098, -0.076, 0.978, -0.052000000000000005, 192.0, 0.0, 0.0, 0.0, 0.0, 0.0, 0.0, 0.0, 0.0, 0.0, 1.6989590767346516E9, 0.0, 2023-11-02 17:04:36.734
230.0, -136437.52919882885, 187500.0, 30640.7324243465, 25941.03228342918, 187500.0, 187500.0, -187500.02235174447, 29791.209672833644, -0.076, 0.978, -0.052000000000000005, 192.0, 0.0, 0.0, 0.0, 0.0, 0.0, 0.0, 0.0, 0.0, 0.0, 1.698959076734661E9, 0.0, 2023-11-02 17:04:36.734
231.0, -136524.1198568487, 187500.0, 30646.119194760227, 25947.335475365577, 187500.0, 187500.0, -187500.02235174447, 29793.42249553472, -0.076, 0.978, -0.052000000000000005, 192.0, 0.0, 0.0, 0.0, 0.0, 0.0, 0.0, 0.0, 0.0, 0.0, 1.698959076734671E9, 0.0, 2023-11-02 17:04:36.734
232.0, -136502.23749902696, 187500.0, 30643.39228193668, 25948.073082932602, 187500.0, 187500.0, -187500.02235174447, 29790.69558271117, -0.076, 0.978, -0.052000000000000005, 192.0, 0.0, 0.0, 0.0, 0.0, 0.0, 0.0, 0.0, 0.0, 0.0, 1.6989590767346804E9, 0.0, 2023-11-02 17:04:36.734
233.0, -136403.8898234236, 187500.0, 30642.028825524907, 25944.51915556421, 187500.0, 187500.0, -187500.02235174447, 29791.38848678929, -0.076, 0.978, -0.052000000000000005, 192.0, 0.0, 0.0, 0.0, 0.0, 0.0, 0.0, 0.0, 0.0, 0.0, 1.69895907673469E9, 0.0, 2023-11-02 17:04:36.734
234.0, -136390.948163384, 187500.0, 30642.520563902923, 25942.12751890749, 187500.0, 187500.0, -187500.02235174447, 29793.37779204581, -0.09, 0.984, -0.056, 192.0, 253.0, 48.0, 30.0, 192.0, 254.0, 64.0, 0.0, 0.0, 0.0, 1.6989590767346997E9, 0.0, 2023-11-02 17:04:36.734
235.0, -136425.16868414506, 187500.0, 30637.49142140048, 25936.56193453812, 187500.0, 187500.0, -187500.02235174447, 29788.482760010098, -0.09, 0.984, -0.056, 192.0, 0.0, 0.0, 0.0, 0.0, 0.0, 0.0, 0.0, 0.0, 0.0, 1.69895907673471E9, 0.0, 2023-11-02 17:04:36.734
236.0, -136410.7518089714, 187500.0, 30635.77033707742, 25937.14307989396, 187500.0, 187500.0, -187500.02235174447, 29786.582861731396, -0.09, 0.984, -0.056, 192.0, 0.0, 0.0, 0.0, 0.0, 0.0, 0.0, 0.0, 0.0, 0.0, 1.6989590767347195E9, 0.0, 2023-11-02 17:04:36.734
237.0, -136291.34879009114, 187500.0, 30630.696491086066, 25934.594981026054, 187500.0, 187500.0, -187500.02235174447, 29780.972573873114, -0.09, 0.984, -0.056, 192.0, 0.0, 0.0, 0.0, 0.0, 0.0, 0.0, 0.0, 0.0, 0.0, 1.6989590767347293E9, 0.0, 2023-11-02 17:04:36.734
238.0, -136233.41306846298, 187500.0, 30636.262075455437, 25934.147946136945, 187500.0, 187500.0, -187500.02235174447, 29784.817073919425, -0.09, 0.984, -0.056, 192.0, 0.0, 0.0, 0.0, 0.0, 0.0, 0.0, 0.0, 0.0, 0.0, 1.698959076734739E9, 0.0, 2023-11-02 17:04:36.734
239.0, -136266.3595397901, 187500.0, 30637.066738255828, 25934.997312426247, 187500.0, 187500.0, -187500.02235174447, 29786.113475097834, -0.09, 0.984, -0.056, 192.0, 0.0, 0.0, 0.0, 0.0, 0.0, 0.0, 0.0, 0.0, 0.0, 1.6989590767347484E9, 0.0, 2023-11-02 17:04:36.734
240.0, -136220.91844331246, 187500.0, 30626.74023231748, 25933.365635081012, 187500.0, 187500.0, -187500.02235174447, 29779.69852443916, -0.09, 0.984, -0.056, 192.0, 0.0, 0.0, 0.0, 0.0, 0.0, 0.0, 0.0, 0.0, 0.0, 1.6989590767347608E9, 0.0, 2023-11-02 17:04:36.734
241.0, -136072.90519152943, 187500.0, 30621.688738070578, 25929.14115537896, 187500.0, 187500.0, -187500.02235174447, 29776.725742426606, -0.09, 0.984, -0.056, 192.0, 0.0, 0.0, 0.0, 0.0, 0.0, 0.0, 0.0, 0.0, 0.0, 1.6989590767347796E9, 0.0, 2023-11-02 17:04:36.734
242.0, -135946.70724233476, 187500.0, 30623.8792090272, 25928.716472234308, 187500.0, 187500.0, -187500.02235174447, 29779.340896527876, -0.09, 0.984, -0.056, 192.0, 0.0, 0.0, 0.0, 0.0, 0.0, 0.0, 0.0, 0.0, 0.0, 1.69895907673479E9, 0.0, 2023-11-02 17:04:36.734
243.0, -135917.9405472208, 187500.0, 30624.482706127492, 25929.029396656682, 187500.0, 187500.0, -187500.02235174447, 29780.0785040949, -0.09, 0.984, -0.056, 192.0, 0.0, 0.0, 0.0, 0.0, 0.0, 0.0, 0.0, 0.0, 0.0, 1.6989590767348256E9, 0.0, 2023-11-02 17:04:36.734
244.0, -135876.85804091193, 187500.0, 30629.243627696473, 25938.372425839, 187500.0, 187500.0, -187500.02235174447, 29785.241757064076, -0.076, 0.976, -0.06, 192.0, 253.0, 160.0, 30.0, 128.0, 254.0, 32.0, 0.0, 0.0, 0.0, 1.6989590767348356E9, 0.0, 2023-11-02 17:04:36.734
245.0, -135730.9905565966, 187500.0, 30632.149354475663, 25943.98271369728, 187500.0, 187500.0, -187500.02235174447, 29789.175664088212, -0.076, 0.976, -0.06, 192.0, 0.0, 0.0, 0.0, 0.0, 0.0, 0.0, 0.0, 0.0, 0.0, 1.698959076734846E9, 0.0, 2023-11-02 17:04:36.734
246.0, -135572.87431631977, 187500.0, 30631.59056086428, 25940.674655517898, 187500.0, 187500.0, -187500.02235174447, 29789.577995488406, -0.076, 0.976, -0.06, 192.0, 0.0, 0.0, 0.0, 0.0, 0.0, 0.0, 0.0, 0.0, 0.0, 1.6989590767348573E9, 0.0, 2023-11-02 17:04:36.734
247.0, -135499.8735189287, 187500.0, 30625.130906716695, 25936.405472326933, 187500.0, 187500.0, -187500.02235174447, 29783.27480355201, -0.076, 0.976, -0.06, 192.0, 0.0, 0.0, 0.0, 0.0, 0.0, 0.0, 0.0, 0.0, 0.0, 1.698959076734867E9, 0.0, 2023-11-02 17:04:36.734
248.0, -135435.969881531, 187500.0, 30614.513828100426, 25933.119765892003, 187500.0, 187500.0, -187500.02235174447, 29773.79766390296, -0.076, 0.976, -0.06, 192.0, 0.0, 0.0, 0.0, 0.0, 0.0, 0.0, 0.0, 0.0, 0.0, 1.6989590767348769E9, 0.0, 2023-11-02 17:04:36.734
249.0, -135270.65637953955, 187500.0, 30610.69167979857, 25934.997312426247, 187500.0, 187500.0, -187500.02235174447, 29771.60719294634, -0.076, 0.976, -0.06, 192.0, 0.0, 0.0, 0.0, 0.0, 0.0, 0.0, 0.0, 0.0, 0.0, 1.6989590767348864E9, 0.0, 2023-11-02 17:04:36.734
250.0, -135048.7259088428, 187500.0, 30603.29325238386, 25929.342321079057, 187500.0, 187500.0, -187500.02235174447, 29763.739378898073, -0.076, 0.976, -0.06, 192.0, 0.0, 0.0, 0.0, 0.0, 0.0, 0.0, 0.0, 0.0, 0.0, 1.698959076734896E9, 0.0, 2023-11-02 17:04:36.734
251.0, -134944.3432622365, 187500.0, 30606.40014486315, 25925.85544894403, 187500.0, 187500.0, -187500.02235174447, 29766.93567835518, -0.076, 0.976, -0.06, 192.0, 0.0, 0.0, 0.0, 0.0, 0.0, 0.0, 0.0, 0.0, 0.0, 1.6989590767349055E9, 0.0, 2023-11-02 17:04:36.734
252.0, -134873.7788049911, 187500.0, 30609.48468559798, 25930.392853068457, 187500.0, 187500.0, -187500.02235174447, 29770.780178401492, -0.076, 0.976, -0.06, 192.0, 0.0, 0.0, 0.0, 0.0, 0.0, 0.0, 0.0, 0.0, 0.0, 1.6989590767349153E9, 0.0, 2023-11-02 17:04:36.734
253.0, -134700.6421924403, 187500.0, 30604.25437739544, 25922.681501231375, 187500.0, 187500.0, -187500.02235174447, 29764.007599831537, -0.076, 0.976, -0.06, 192.0, 0.0, 0.0, 0.0, 0.0, 0.0, 0.0, 0.0, 0.0, 0.0, 1.6989590767349248E9, 0.0, 2023-11-02 17:04:36.734
254.0, -134502.35986737726, 187500.0, 30606.891883241165, 25916.534771506165, 187500.0, 187500.0, -187500.02235174447, 29766.667457421718, -0.08, 0.976, -0.07, 192.0, 253.0, 128.0, 30.0, 128.0, 253.0, 208.0, 0.0, 0.0, 0.0, 1.6989590767349343E9, 0.0, 2023-11-02 17:04:36.734
255.0, -134409.3766104432, 187500.0, 30613.887979255676, 25916.110088361514, 187500.0, 187500.0, -187500.02235174447, 29772.501262724552, -0.08, 0.976, -0.07, 192.0, 0.0, 0.0, 0.0, 0.0, 0.0, 0.0, 0.0, 0.0, 0.0, 1.698959076734945E9, 0.0, 2023-11-02 17:04:36.734
0.0, -134367.33297912276, 187500.0, 30617.576017090803, 25921.474507030787, 187500.0, 187500.0, -187500.02235174447, 29776.12224532631, -0.08, 0.976, -0.07, 192.0, 0.0, 0.0, 0.0, 0.0, 0.0, 0.0, 0.0, 0.0, 0.0, 1.6989590767349544E9, 0.0, 2023-11-02 17:04:36.734
1.0, -134243.0349282068, 187500.0, 30618.559493846835, 25928.93998967886, 187500.0, 187500.0, -187500.02235174447, 29777.93273662719, -0.08, 0.976, -0.07, 192.0, 0.0, 0.0, 0.0, 0.0, 0.0, 0.0, 0.0, 0.0, 0.0, 1.698959076734964E9, 0.0, 2023-11-02 17:04:36.734
2.0, -134056.21904804936, 187500.0, 30620.97348224801, 25930.79518446865, 187500.0, 187500.0, -187500.02235174447, 29780.972573873114, -0.08, 0.976, -0.07, 192.0, 0.0, 0.0, 0.0, 0.0, 0.0, 0.0, 0.0, 0.0, 0.0, 1.6989590767349827E9, 0.0, 2023-11-02 17:04:36.734
3.0, -133953.62454099947, 187500.0, 30624.996796249965, 25926.50364953323, 187500.0, 187500.0, -187500.02235174447, 29784.906480897247, -0.08, 0.976, -0.07, 192.0, 0.0, 0.0, 0.0, 0.0, 0.0, 0.0, 0.0, 0.0, 0.0, 1.6989590767349925E9, 0.0, 2023-11-02 17:04:36.734
4.0, -133933.35150877852, 187500.0, 30623.63333983819, 25925.810745455117, 187500.0, 187500.0, -187500.02235174447, 29783.31950704092, -0.08, 0.976, -0.07, 192.0, 0.0, 0.0, 0.0, 0.0, 0.0, 0.0, 0.0, 0.0, 0.0, 1.698959076735002E9, 0.0, 2023-11-02 17:04:36.735
5.0, -133845.37504260242, 187500.0, 30619.520618858412, 25925.40841405492, 187500.0, 187500.0, -187500.02235174447, 29777.686867438184, -0.08, 0.976, -0.07, 192.0, 0.0, 0.0, 0.0, 0.0, 0.0, 0.0, 0.0, 0.0, 0.0, 1.6989590767350116E9, 0.0, 2023-11-02 17:04:36.735
6.0, -133684.37542729086, 187500.0, 30621.800496792854, 25921.809783197616, 187500.0, 187500.0, -187500.02235174447, 29777.865681393825, -0.08, 0.976, -0.07, 192.0, 0.0, 0.0, 0.0, 0.0, 0.0, 0.0, 0.0, 0.0, 0.0, 1.698959076735021E9, 0.0, 2023-11-02 17:04:36.735
7.0, -133588.8440714889, 187500.0, 30622.91808401562, 25917.27237907319, 187500.0, 187500.0, -187500.02235174447, 29780.570242472917, -0.084, 0.98, -0.064, 192.0, 253.0, 96.0, 30.0, 160.0, 254.0, 0.0, 0.0, 0.0, 0.0, 1.698959076735031E9, 0.0, 2023-11-02 17:04:36.735
8.0, -133588.15116741078, 187500.0, 30625.041499738873, 25919.664015729908, 187500.0, 187500.0, -187500.02235174447, 29784.146521585768, -0.084, 0.98, -0.064, 192.0, 0.0, 0.0, 0.0, 0.0, 0.0, 0.0, 0.0, 0.0, 0.0, 1.698959076735041E9, 0.0, 2023-11-02 17:04:36.735
9.0, -133548.18624832467, 187500.0, 30625.533238116892, 25925.69898673284, 187500.0, 187500.0, -187500.02235174447, 29786.024068120012, -0.084, 0.98, -0.064, 192.0, 0.0, 0.0, 0.0, 0.0, 0.0, 0.0, 0.0, 0.0, 0.0, 1.698959076735051E9, 0.0, 2023-11-02 17:04:36.735
10.0, -133428.17973234414, 187500.0, 30630.316511430326, 25930.437556557365, 187500.0, 187500.0, -187500.02235174447, 29789.89091991078, -0.084, 0.98, -0.064, 192.0, 0.0, 0.0, 0.0, 0.0, 0.0, 0.0, 0.0, 0.0, 0.0, 1.6989590767350605E9, 0.0, 2023-11-02 17:04:36.735
11.0, -133352.83200178528, 187500.0, 30639.078395256805, 25936.092547904558, 187500.0, 187500.0, -187500.02235174447, 29799.524521771018, -0.084, 0.98, -0.064, 192.0, 0.0, 0.0, 0.0, 0.0, 0.0, 0.0, 0.0, 0.0, 0.0, 1.69895907673507E9, 0.0, 2023-11-02 17:04:36.735
12.0, -133386.985467313, 187500.0, 30645.292180215383, 25943.356864852532, 187500.0, 187500.0, -187500.02235174447, 29809.068716653434, -0.084, 0.98, -0.064, 192.0, 0.0, 0.0, 0.0, 0.0, 0.0, 0.0, 0.0, 0.0, 0.0, 1.6989590767350812E9, 0.0, 2023-11-02 17:04:36.735
13.0, -133394.1827290276, 187500.0, 30644.755738348456, 25950.08473993358, 187500.0, 187500.0, -187500.02235174447, 29811.013318421046, -0.084, 0.98, -0.064, 192.0, 0.0, 0.0, 0.0, 0.0, 0.0, 0.0, 0.0, 0.0, 0.0, 1.698959076735091E9, 0.0, 2023-11-02 17:04:36.735
14.0, -133289.42010276558, 187500.0, 30638.430194667602, 25946.642571287462, 187500.0, 187500.0, -187500.02235174447, 29807.74996373057, -0.084, 0.98, -0.064, 192.0, 0.0, 0.0, 0.0, 0.0, 0.0, 0.0, 0.0, 0.0, 0.0, 1.6989590767351007E9, 0.0, 2023-11-02 17:04:36.735
15.0, -133203.45529359046, 187500.0, 30637.49142140048, 25939.04297817266, 187500.0, 187500.0, -187500.02235174447, 29808.085239897402, -0.084, 0.98, -0.064, 192.0, 0.0, 0.0, 0.0, 0.0, 0.0, 0.0, 0.0, 0.0, 0.0, 1.6989590767351108E9, 0.0, 2023-11-02 17:04:36.735
16.0, -133235.194770717, 187500.0, 30635.815040566333, 25933.387986825466, 187500.0, 187500.0, -187500.02235174447, 29806.028879407513, -0.084, 0.98, -0.064, 192.0, 0.0, 0.0, 0.0, 0.0, 0.0, 0.0, 0.0, 0.0, 0.0, 1.6989590767351205E9, 0.0, 2023-11-02 17:04:36.735
17.0, -133303.1664256056, 187500.0, 30635.077432999307, 25933.298579847644, 187500.0, 187500.0, -187500.02235174447, 29806.31945208543, -0.068, 0.982, -0.062, 192.0, 253.0, 224.0, 30.0, 176.0, 254.0, 16.0, 0.0, 0.0, 0.0, 1.6989590767351403E9, 0.0, 2023-11-02 17:04:36.735
18.0, -133272.03044557935, 187500.0, 30628.39426140717, 25927.978864667282, 187500.0, 187500.0, -187500.02235174447, 29800.776219460517, -0.068, 0.982, -0.062, 192.0, 0.0, 0.0, 0.0, 0.0, 0.0, 0.0, 0.0, 0.0, 0.0, 1.6989590767351513E9, 0.0, 2023-11-02 17:04:36.735
19.0, -133215.50288385188, 187500.0, 30625.91321777263, 25921.27334133069, 187500.0, 187500.0, -187500.02235174447, 29798.1834171037, -0.068, 0.982, -0.062, 192.0, 0.0, 0.0, 0.0, 0.0, 0.0, 0.0, 0.0, 0.0, 0.0, 1.6989590767351635E9, 0.0, 2023-11-02 17:04:36.735
20.0, -133304.79810295082, 187500.0, 30636.552648133358, 25933.589152525565, 187500.0, 187500.0, -187500.02235174447, 29810.812152720948, -0.068, 0.982, -0.062, 192.0, 0.0, 0.0, 0.0, 0.0, 0.0, 0.0, 0.0, 0.0, 0.0, 1.6989590767351742E9, 0.0, 2023-11-02 17:04:36.735
21.0, -133413.62874670373, 187500.0, 30632.127002731206, 25940.2723241177, 187500.0, 187500.0, -187500.02235174447, 29809.202827120167, -0.068, 0.982, -0.062, 192.0, 0.0, 0.0, 0.0, 0.0, 0.0, 0.0, 0.0, 0.0, 0.0, 1.6989590767351847E9, 0.0, 2023-11-02 17:04:36.735
22.0, -133403.68222042112, 187500.0, 30625.332072416793, 25934.349111837044, 187500.0, 187500.0, -187500.02235174447, 29802.60906250585, -0.068, 0.982, -0.062, 192.0, 0.0, 0.0, 0.0, 0.0, 0.0, 0.0, 0.0, 0.0, 0.0, 1.6989590767351952E9, 0.0, 2023-11-02 17:04:36.735
23.0, -133353.05551922985, 187500.0, 30624.706223572044, 25926.95068442234, 187500.0, 187500.0, -187500.02235174447, 29799.926853171215, -0.068, 0.982, -0.062, 192.0, 0.0, 0.0, 0.0, 0.0, 0.0, 0.0, 0.0, 0.0, 0.0, 1.6989590767352052E9, 0.0, 2023-11-02 17:04:36.735
24.0, -133398.9436505966, 187500.0, 30630.115345730228, 25925.810745455117, 187500.0, 187500.0, -187500.02235174447, 29805.581844518405, -0.068, 0.982, -0.062, 192.0, 0.0, 0.0, 0.0, 0.0, 0.0, 0.0, 0.0, 0.0, 0.0, 1.6989590767352147E9, 0.0, 2023-11-02 17:04:36.735
25.0, -133515.84327409783, 187500.0, 30633.87043879872, 25932.829193214082, 187500.0, 187500.0, -187500.02235174447, 29813.270844611034, -0.068, 0.982, -0.062, 192.0, 0.0, 0.0, 0.0, 0.0, 0.0, 0.0, 0.0, 0.0, 0.0, 1.6989590767352247E9, 0.0, 2023-11-02 17:04:36.735
26.0, -133561.59729499786, 187500.0, 30636.01620626643, 25940.875821217993, 187500.0, 187500.0, -187500.02235174447, 29817.47297256863, -0.068, 0.982, -0.062, 192.0, 0.0, 0.0, 0.0, 0.0, 0.0, 0.0, 0.0, 0.0, 0.0, 1.698959076735235E9, 0.0, 2023-11-02 17:04:36.735
27.0, -133532.04828882794, 187500.0, 30638.050215011863, 25944.76502475322, 187500.0, 187500.0, -187500.02235174447, 29820.401051092274, -0.078, 0.98, -0.066, 192.0, 253.0, 144.0, 30.0, 160.0, 253.0, 240.0, 0.0, 0.0, 0.0, 1.6989590767352452E9, 0.0, 2023-11-02 17:04:36.735
28.0, -133579.65750451773, 187500.0, 30642.34174994728, 25942.95453345234, 187500.0, 187500.0, -187500.02235174447, 29824.536123816506, -0.078, 0.98, -0.066, 192.0, 0.0, 0.0, 0.0, 0.0, 0.0, 0.0, 0.0, 0.0, 0.0, 1.698959076735257E9, 0.0, 2023-11-02 17:04:36.735
29.0, -133741.68530007426, 187500.0, 30649.91899131763, 25950.33060912259, 187500.0, 187500.0, -187500.02235174447, 29832.158068675766, -0.078, 0.98, -0.066, 192.0, 0.0, 0.0, 0.0, 0.0, 0.0, 0.0, 0.0, 0.0, 0.0, 1.6989590767352676E9, 0.0, 2023-11-02 17:04:36.735
30.0, -133840.3906035889, 187500.0, 30650.321322717828, 25951.671713789907, 187500.0, 187500.0, -187500.02235174447, 29832.00160646458, -0.078, 0.98, -0.066, 192.0, 0.0, 0.0, 0.0, 0.0, 0.0, 0.0, 0.0, 0.0, 0.0, 1.698959076735279E9, 0.0, 2023-11-02 17:04:36.735
31.0, -133862.51883059964, 187500.0, 30650.857764584754, 25950.218850400313, 187500.0, 187500.0, -187500.02235174447, 29831.822792508938, -0.078, 0.98, -0.066, 192.0, 0.0, 0.0, 0.0, 0.0, 0.0, 0.0, 0.0, 0.0, 0.0, 1.69895907673529E9, 0.0, 2023-11-02 17:04:36.735
32.0, -133948.72950896376, 187500.0, 30651.93064831861, 25947.938972465872, 187500.0, 187500.0, -187500.02235174447, 29832.605103564874, -0.078, 0.98, -0.066, 192.0, 0.0, 0.0, 0.0, 0.0, 0.0, 0.0, 0.0, 0.0, 0.0, 1.6989590767353227E9, 0.0, 2023-11-02 17:04:36.735
33.0, -134122.1119907036, 187500.0, 30650.92481981812, 25947.60369629904, 187500.0, 187500.0, -187500.02235174447, 29832.180420420224, -0.078, 0.98, -0.066, 192.0, 0.0, 0.0, 0.0, 0.0, 0.0, 0.0, 0.0, 0.0, 0.0, 1.6989590767353392E9, 0.0, 2023-11-02 17:04:36.735
34.0, -134267.15246047408, 187500.0, 30649.136680261694, 25949.70476027784, 187500.0, 187500.0, -187500.02235174447, 29832.00160646458, -0.078, 0.98, -0.066, 192.0, 0.0, 0.0, 0.0, 0.0, 0.0, 0.0, 0.0, 0.0, 0.0, 1.6989590767353504E9, 0.0, 2023-11-02 17:04:36.735
35.0, -134306.98326909344, 187500.0, 30647.01326453844, 25954.689199291373, 187500.0, 187500.0, -187500.02235174447, 29832.67215879824, -0.078, 0.98, -0.066, 192.0, 0.0, 0.0, 0.0, 0.0, 0.0, 0.0, 0.0, 0.0, 0.0, 1.698959076735361E9, 0.0, 2023-11-02 17:04:36.735
36.0, -134352.73728999344, 187500.0, 30645.515697659936, 25952.901059734948, 187500.0, 187500.0, -187500.02235174447, 29832.42628960923, -0.078, 0.98, -0.066, 192.0, 0.0, 0.0, 0.0, 0.0, 0.0, 0.0, 0.0, 0.0, 0.0, 1.6989590767353728E9, 0.0, 2023-11-02 17:04:36.735
37.0, -134501.21992841005, 187500.0, 30646.96856104953, 25950.420016100412, 187500.0, 187500.0, -187500.02235174447, 29835.421423366242, -0.064, 0.972, -0.07, 192.0, 254.0, 0.0, 30.0, 96.0, 253.0, 208.0, 0.0, 0.0, 0.0, 1.698959076735384E9, 0.0, 2023-11-02 17:04:36.735
38.0, -134644.98634874658, 187500.0, 30649.74017736199, 25951.85052774555, 187500.0, 187500.0, -187500.02235174447, 29837.209562922668, -0.064, 0.972, -0.07, 192.0, 0.0, 0.0, 0.0, 0.0, 0.0, 0.0, 0.0, 0.0, 0.0, 1.6989590767353954E9, 0.0, 2023-11-02 17:04:36.735
39.0, -134686.2476690111, 187500.0, 30648.130851761205, 25952.655190545942, 187500.0, 187500.0, -187500.02235174447, 29834.214429165655, -0.064, 0.972, -0.07, 192.0, 0.0, 0.0, 0.0, 0.0, 0.0, 0.0, 0.0, 0.0, 0.0, 1.6989590767354093E9, 0.0, 2023-11-02 17:04:36.735
40.0, -134701.6927244297, 187500.0, 30644.97925579301, 25945.3238183646, 187500.0, 187500.0, -187500.02235174447, 29830.36992911934, -0.064, 0.972, -0.07, 192.0, 0.0, 0.0, 0.0, 0.0, 0.0, 0.0, 0.0, 0.0, 0.0, 1.6989590767354212E9, 0.0, 2023-11-02 17:04:36.735
41.0, -134831.6234149484, 187500.0, 30650.09780527327, 25943.98271369728, 187500.0, 187500.0, -187500.02235174447, 29836.18138267772, -0.064, 0.972, -0.07, 192.0, 0.0, 0.0, 0.0, 0.0, 0.0, 0.0, 0.0, 0.0, 0.0, 1.6989590767354317E9, 0.0, 2023-11-02 17:04:36.735
42.0, -134977.7591201972, 187500.0, 30655.86455534274, 25954.108053935535, 187500.0, 187500.0, -187500.02235174447, 29843.982141492623, -0.064, 0.972, -0.07, 192.0, 0.0, 0.0, 0.0, 0.0, 0.0, 0.0, 0.0, 0.0, 0.0, 1.698959076735443E9, 0.0, 2023-11-02 17:04:36.735
43.0, -135003.62008853198, 187500.0, 30656.423348954126, 25955.247992902758, 187500.0, 187500.0, -187500.02235174447, 29843.043368225502, -0.064, 0.972, -0.07, 192.0, 0.0, 0.0, 0.0, 0.0, 0.0, 0.0, 0.0, 0.0, 0.0, 1.6989590767354562E9, 0.0, 2023-11-02 17:04:36.735
44.0, -134997.45100706234, 187500.0, 30654.143471019685, 25949.056559688637, 187500.0, 187500.0, -187500.02235174447, 29841.05406296898, -0.064, 0.972, -0.07, 192.0, 0.0, 0.0, 0.0, 0.0, 0.0, 0.0, 0.0, 0.0, 0.0, 1.6989590767354672E9, 0.0, 2023-11-02 17:04:36.735
45.0, -135111.42255203993, 187500.0, 30656.669218143135, 25947.80486199914, 187500.0, 187500.0, -187500.02235174447, 29843.62451358134, -0.064, 0.972, -0.07, 192.0, 0.0, 0.0, 0.0, 0.0, 0.0, 0.0, 0.0, 0.0, 0.0, 1.6989590767354789E9, 0.0, 2023-11-02 17:04:36.735
46.0, -135254.78664097626, 187500.0, 30653.092939030284, 25948.60952479953, 187500.0, 187500.0, -187500.02235174447, 29841.65756006927, -0.064, 0.972, -0.07, 192.0, 0.0, 0.0, 0.0, 0.0, 0.0, 0.0, 0.0, 0.0, 0.0, 1.6989590767354932E9, 0.0, 2023-11-02 17:04:36.735
47.0, -135298.2384321974, 187500.0, 30649.628418639713, 25948.296600377154, 187500.0, 187500.0, -187500.02235174447, 29838.28244665652, -0.078, 0.98, -0.07200000000000001, 192.0, 253.0, 144.0, 30.0, 160.0, 253.0, 192.0, 0.0, 0.0, 0.0, 1.6989590767355049E9, 0.0, 2023-11-02 17:04:36.735
48.0, -135295.5338711183, 187500.0, 30652.757662863456, 25947.737806765774, 187500.0, 187500.0, -187500.02235174447, 29841.94813274719, -0.078, 0.98, -0.07200000000000001, 192.0, 0.0, 0.0, 0.0, 0.0, 0.0, 0.0, 0.0, 0.0, 0.0, 1.698959076735641E9, 0.0, 2023-11-02 17:04:36.735
0.0, 0.0, 0.0, 0.0, 0.0, 0.0, 0.0, 0.0, 0.0, -0.078, 0.98, -0.07200000000000001, 192.0, 0.0, 0.0, 0.0, 0.0, 0.0, 0.0, 0.0, 0.0, 0.0, 1.6989590768219872E9, 0.0, 2023-11-02 17:04:36.821
1.0, -124372.72809418775, 187500.0, 30186.746142714757, 25730.300036704546, 187500.0, 187500.0, -187500.02235174447, 29806.006527663056, -0.084, 0.984, -0.098, 192.0, 253.0, 96.0, 30.0, 192.0, 252.0, 240.0, 0.0, 0.0, 0.0, 1.6989590773113449E9, 0.0, 2023-11-02 17:04:37.311
2.0, -124356.54543120212, 187500.0, 30182.409904290427, 25732.982246039184, 187500.0, 187500.0, -187500.02235174447, 29804.620719506827, -0.084, 0.984, -0.098, 192.0, 0.0, 0.0, 0.0, 0.0, 0.0, 0.0, 0.0, 0.0, 0.0, 1.6989590773114116E9, 0.0, 2023-11-02 17:04:37.311
3.0, -124279.49896806467, 187500.0, 30186.50027352575, 25739.06192053103, 187500.0, 187500.0, -187500.02235174447, 29811.840332965894, -0.084, 0.984, -0.098, 192.0, 0.0, 0.0, 0.0, 0.0, 0.0, 0.0, 0.0, 0.0, 0.0, 1.6989590773114269E9, 0.0, 2023-11-02 17:04:37.311
4.0, -124275.90033720736, 187500.0, 30190.16595961642, 25745.18629851178, 187500.0, 187500.0, -187500.02235174447, 29818.881132469316, -0.084, 0.984, -0.098, 192.0, 0.0, 0.0, 0.0, 0.0, 0.0, 0.0, 0.0, 0.0, 0.0, 1.698959077311439E9, 0.0, 2023-11-02 17:04:37.311
5.0, -124322.66018660787, 187500.0, 30191.618823006014, 25751.310676492536, 187500.0, 187500.0, -187500.02235174447, 29822.345652859887, -0.084, 0.984, -0.098, 192.0, 0.0, 0.0, 0.0, 0.0, 0.0, 0.0, 0.0, 0.0, 0.0, 1.6989590773114824E9, 0.0, 2023-11-02 17:04:37.311
6.0, -124275.05097091806, 187500.0, 30183.59454674656, 25749.4778334472, 187500.0, 187500.0, -187500.02235174447, 29815.394260334288, -0.084, 0.984, -0.098, 192.0, 0.0, 0.0, 0.0, 0.0, 0.0, 0.0, 0.0, 0.0, 0.0, 1.698959077311493E9, 0.0, 2023-11-02 17:04:37.311
7.0, -124183.52057737358, 187500.0, 30185.472093280805, 25749.164909024825, 187500.0, 187500.0, -187500.02235174447, 29815.126039400824, -0.084, 0.984, -0.098, 192.0, 0.0, 0.0, 0.0, 0.0, 0.0, 0.0, 0.0, 0.0, 0.0, 1.6989590773115032E9, 0.0, 2023-11-02 17:04:37.311
8.0, -124168.63431556635, 187500.0, 30193.049334651154, 25754.596382927466, 187500.0, 187500.0, -187500.02235174447, 29821.56334180395, -0.076, 0.974, -0.11, 192.0, 253.0, 160.0, 30.0, 112.0, 252.0, 144.0, 0.0, 0.0, 0.0, 1.6989590773115144E9, 0.0, 2023-11-02 17:04:37.311
9.0, -124198.89857755884, 187500.0, 30194.748067229757, 25755.49045270568, 187500.0, 187500.0, -187500.02235174447, 29818.009414435557, -0.076, 0.974, -0.11, 192.0, 0.0, 0.0, 0.0, 0.0, 0.0, 0.0, 0.0, 0.0, 0.0, 1.698959077311526E9, 0.0, 2023-11-02 17:04:37.311
10.0, -124168.76842603309, 187500.0, 30193.16109337343, 25756.943316095272, 187500.0, 187500.0, -187500.02235174447, 29814.723708000627, -0.076, 0.974, -0.11, 192.0, 0.0, 0.0, 0.0, 0.0, 0.0, 0.0, 0.0, 0.0, 0.0, 1.6989590773115363E9, 0.0, 2023-11-02 17:04:37.311
11.0, -124096.25936702006, 187500.0, 30204.51577955673, 25761.90540336435, 187500.0, 187500.0, -187500.02235174447, 29821.652748781773, -0.076, 0.974, -0.11, 192.0, 0.0, 0.0, 0.0, 0.0, 0.0, 0.0, 0.0, 0.0, 0.0, 1.698959077311546E9, 0.0, 2023-11-02 17:04:37.311
12.0, -124050.9300292647, 187500.0, 30209.120238914522, 25760.497243463666, 187500.0, 187500.0, -187500.02235174447, 29824.46906858314, -0.076, 0.974, -0.11, 192.0, 0.0, 0.0, 0.0, 0.0, 0.0, 0.0, 0.0, 0.0, 0.0, 1.698959077311556E9, 0.0, 2023-11-02 17:04:37.311
13.0, -124086.31284073745, 187500.0, 30211.802448249156, 25761.726589408707, 187500.0, 187500.0, -187500.02235174447, 29823.99968194958, -0.076, 0.974, -0.11, 192.0, 0.0, 0.0, 0.0, 0.0, 0.0, 0.0, 0.0, 0.0, 0.0, 1.6989590773115675E9, 0.0, 2023-11-02 17:04:37.311
14.0, -124057.90377353475, 187500.0, 30206.79565749117, 25757.94914459576, 187500.0, 187500.0, -187500.02235174447, 29816.310681856954, -0.076, 0.974, -0.11, 192.0, 0.0, 0.0, 0.0, 0.0, 0.0, 0.0, 0.0, 0.0, 0.0, 1.6989590773117585E9, 0.0, 2023-11-02 17:04:37.311
15.0, -123965.12168230077, 187500.0, 30207.332099358096, 25756.630391672898, 187500.0, 187500.0, -187500.02235174447, 29814.924873700726, -0.076, 0.974, -0.11, 192.0, 0.0, 0.0, 0.0, 0.0, 0.0, 0.0, 0.0, 0.0, 0.0, 1.6989590773117683E9, 0.0, 2023-11-02 17:04:37.311
16.0, -123885.90709995118, 187500.0, 30211.154247659953, 25752.85294685995, 187500.0, 187500.0, -187500.02235174447, 29813.673176011227, -0.076, 0.974, -0.11, 192.0, 0.0, 0.0, 0.0, 0.0, 0.0, 0.0, 0.0, 0.0, 0.0, 1.698959077311778E9, 0.0, 2023-11-02 17:04:37.311
17.0, -123911.67866130813, 187500.0, 30214.261140139242, 25748.650818902355, 187500.0, 187500.0, -187500.02235174447, 29814.61194927835, -0.076, 0.974, -0.11, 192.0, 0.0, 0.0, 0.0, 0.0, 0.0, 0.0, 0.0, 0.0, 0.0, 1.6989590773117876E9, 0.0, 2023-11-02 17:04:37.311
18.0, -123936.93613254263, 187500.0, 30212.45064883836, 25747.644990401866, 187500.0, 187500.0, -187500.02235174447, 29812.354423088364, -0.08, 0.972, -0.10200000000000001, 192.0, 253.0, 128.0, 30.0, 96.0, 252.0, 208.0, 0.0, 0.0, 0.0, 1.6989590773117971E9, 0.0, 2023-11-02 17:04:37.311
19.0, -123869.27740207642, 187500.0, 30208.136762158487, 25748.740225880174, 187500.0, 187500.0, -187500.02235174447, 29808.59933001987, -0.08, 0.972, -0.10200000000000001, 192.0, 0.0, 0.0, 0.0, 0.0, 0.0, 0.0, 0.0, 0.0, 0.0, 1.698959077311808E9, 0.0, 2023-11-02 17:04:37.311
20.0, -123810.80523858134, 187500.0, 30210.997785448766, 25753.165871282326, 187500.0, 187500.0, -187500.02235174447, 29812.779106233014, -0.08, 0.972, -0.10200000000000001, 192.0, 0.0, 0.0, 0.0, 0.0, 0.0, 0.0, 0.0, 0.0, 0.0, 1.6989590773118176E9, 0.0, 2023-11-02 17:04:37.311
21.0, -123826.2279422555, 187500.0, 30208.85201798106, 25751.064807303526, 187500.0, 187500.0, -187500.02235174447, 29810.879207954313, -0.08, 0.972, -0.10200000000000001, 192.0, 0.0, 0.0, 0.0, 0.0, 0.0, 0.0, 0.0, 0.0, 0.0, 1.6989590773118272E9, 0.0, 2023-11-02 17:04:37.311
22.0, -123862.72834095101, 187500.0, 30208.181465647398, 25752.249449759656, 187500.0, 187500.0, -187500.02235174447, 29809.873379453824, -0.08, 0.972, -0.10200000000000001, 192.0, 0.0, 0.0, 0.0, 0.0, 0.0, 0.0, 0.0, 0.0, 0.0, 1.698959077311837E9, 0.0, 2023-11-02 17:04:37.311
23.0, -123772.98608696296, 187500.0, 30202.660584766938, 25752.942353837774, 187500.0, 187500.0, -187500.02235174447, 29806.3865073188, -0.08, 0.972, -0.10200000000000001, 192.0, 0.0, 0.0, 0.0, 0.0, 0.0, 0.0, 0.0, 0.0, 0.0, 1.6989590773118467E9, 0.0, 2023-11-02 17:04:37.311
24.0, -123652.57723958221, 187500.0, 30195.284509096684, 25743.53226942209, 187500.0, 187500.0, -187500.02235174447, 29800.306832826955, -0.08, 0.972, -0.10200000000000001, 192.0, 0.0, 0.0, 0.0, 0.0, 0.0, 0.0, 0.0, 0.0, 0.0, 1.6989590773118567E9, 0.0, 2023-11-02 17:04:37.311
25.0, -123619.96604442192, 187500.0, 30196.715020741824, 25744.18047001129, 187500.0, 187500.0, -187500.02235174447, 29803.32431832842, -0.08, 0.972, -0.10200000000000001, 192.0, 0.0, 0.0, 0.0, 0.0, 0.0, 0.0, 0.0, 0.0, 0.0, 1.6989590773118663E9, 0.0, 2023-11-02 17:04:37.311
26.0, -123626.53745729178, 187500.0, 30202.347660344563, 25754.23875501618, 187500.0, 187500.0, -187500.02235174447, 29810.65569050976, -0.08, 0.972, -0.10200000000000001, 192.0, 0.0, 0.0, 0.0, 0.0, 0.0, 0.0, 0.0, 0.0, 0.0, 1.6989590773118763E9, 0.0, 2023-11-02 17:04:37.311
27.0, -123546.3617499306, 187500.0, 30205.007517934744, 25757.94914459576, 187500.0, 187500.0, -187500.02235174447, 29812.89086495529, -0.08, 0.972, -0.10200000000000001, 192.0, 0.0, 0.0, 0.0, 0.0, 0.0, 0.0, 0.0, 0.0, 0.0, 1.6989590773118882E9, 0.0, 2023-11-02 17:04:37.311
28.0, -123415.1793617224, 187500.0, 30205.342794101573, 25755.758673639142, 187500.0, 187500.0, -187500.02235174447, 29811.974443432624, -0.084, 0.964, -0.094, 192.0, 253.0, 96.0, 30.0, 32.0, 253.0, 16.0, 0.0, 0.0, 0.0, 1.6989590773118985E9, 0.0, 2023-11-02 17:04:37.311
29.0, -123346.55950624461, 187500.0, 30207.443858080373, 25758.3291242515, 187500.0, 187500.0, -187500.02235174447, 29812.51088529955, -0.084, 0.964, -0.094, 192.0, 0.0, 0.0, 0.0, 0.0, 0.0, 0.0, 0.0, 0.0, 0.0, 1.6989590773119507E9, 0.0, 2023-11-02 17:04:37.311
30.0, -123347.58768648955, 187500.0, 30213.903512227957, 25765.548737710567, 187500.0, 187500.0, -187500.02235174447, 29817.562379546453, -0.084, 0.964, -0.094, 192.0, 0.0, 0.0, 0.0, 0.0, 0.0, 0.0, 0.0, 0.0, 0.0, 1.6989590773119612E9, 0.0, 2023-11-02 17:04:37.311
31.0, -123270.7423890522, 187500.0, 30215.334023873096, 25772.030743602605, 187500.0, 187500.0, -187500.02235174447, 29818.61291153585, -0.084, 0.964, -0.094, 192.0, 0.0, 0.0, 0.0, 0.0, 0.0, 0.0, 0.0, 0.0, 0.0, 1.6989590773119707E9, 0.0, 2023-11-02 17:04:37.311
32.0, -123115.55422729901, 187500.0, 30209.723736014814, 25765.34757201047, 187500.0, 187500.0, -187500.02235174447, 29811.929739943713, -0.084, 0.964, -0.094, 192.0, 0.0, 0.0, 0.0, 0.0, 0.0, 0.0, 0.0, 0.0, 0.0, 1.6989590773119807E9, 0.0, 2023-11-02 17:04:37.311
33.0, -123013.71967956063, 187500.0, 30215.714003528836, 25764.028819087605, 187500.0, 187500.0, -187500.02235174447, 29814.32137660043, -0.084, 0.964, -0.094, 192.0, 0.0, 0.0, 0.0, 0.0, 0.0, 0.0, 0.0, 0.0, 0.0, 1.6989590773119915E9, 0.0, 2023-11-02 17:04:37.311
34.0, -122959.56140274543, 187500.0, 30215.378727362007, 25762.48654872019, 187500.0, 187500.0, -187500.02235174447, 29812.33207134391, -0.084, 0.964, -0.094, 192.0, 0.0, 0.0, 0.0, 0.0, 0.0, 0.0, 0.0, 0.0, 0.0, 1.6989590773120012E9, 0.0, 2023-11-02 17:04:37.312
35.0, -122882.42553263016, 187500.0, 30214.395250605972, 25762.57595569801, 187500.0, 187500.0, -187500.02235174447, 29809.918082942735, -0.084, 0.964, -0.094, 192.0, 0.0, 0.0, 0.0, 0.0, 0.0, 0.0, 0.0, 0.0, 0.0, 1.6989590773120108E9, 0.0, 2023-11-02 17:04:37.312
36.0, -122714.85450444873, 187500.0, 30214.12702967251, 25762.553603953555, 187500.0, 187500.0, -187500.02235174447, 29806.61002476335, -0.084, 0.964, -0.094, 192.0, 0.0, 0.0, 0.0, 0.0, 0.0, 0.0, 0.0, 0.0, 0.0, 1.6989590773120208E9, 0.0, 2023-11-02 17:04:37.312
37.0, -122588.90242444306, 187500.0, 30213.30001512766, 25756.00454282815, 187500.0, 187500.0, -187500.02235174447, 29804.598367762374, -0.084, 0.964, -0.094, 192.0, 0.0, 0.0, 0.0, 0.0, 0.0, 0.0, 0.0, 0.0, 0.0, 1.6989590773120308E9, 0.0, 2023-11-02 17:04:37.312
38.0, -122558.16877581702, 187500.0, 30211.02013719322, 25757.77033064012, 187500.0, 187500.0, -187500.02235174447, 29802.452600294662, -0.074, 0.9580000000000001, -0.096, 192.0, 253.0, 176.0, 29.0, 240.0, 253.0, 0.0, 0.0, 0.0, 0.0, 1.6989590773120408E9, 0.0, 2023-11-02 17:04:37.312
39.0, -122479.66944928998, 187500.0, 30205.253387123754, 25754.28345850509, 187500.0, 187500.0, -187500.02235174447, 29795.32239381342, -0.074, 0.9580000000000001, -0.096, 192.0, 0.0, 0.0, 0.0, 0.0, 0.0, 0.0, 0.0, 0.0, 0.0, 1.6989590773120513E9, 0.0, 2023-11-02 17:04:37.312
40.0, -122336.03713942018, 187500.0, 30205.990994690776, 25755.28928700558, 187500.0, 187500.0, -187500.02235174447, 29796.015297891536, -0.074, 0.9580000000000001, -0.096, 192.0, 0.0, 0.0, 0.0, 0.0, 0.0, 0.0, 0.0, 0.0, 0.0, 1.6989590773120615E9, 0.0, 2023-11-02 17:04:37.312
41.0, -122190.57198650503, 187500.0, 30206.438029579884, 25754.81990037202, 187500.0, 187500.0, -187500.02235174447, 29796.305870569453, -0.074, 0.9580000000000001, -0.096, 192.0, 0.0, 0.0, 0.0, 0.0, 0.0, 0.0, 0.0, 0.0, 0.0, 1.698959077312072E9, 0.0, 2023-11-02 17:04:37.312
42.0, -122118.48761063667, 187500.0, 30205.521608057217, 25756.317467250523, 187500.0, 187500.0, -187500.02235174447, 29799.14454211528, -0.074, 0.9580000000000001, -0.096, 192.0, 0.0, 0.0, 0.0, 0.0, 0.0, 0.0, 0.0, 0.0, 0.0, 1.6989590773120828E9, 0.0, 2023-11-02 17:04:37.312
43.0, -122043.8104324115, 187500.0, 30203.845227223068, 25758.82086262952, 187500.0, 187500.0, -187500.02235174447, 29797.982251403602, -0.074, 0.9580000000000001, -0.096, 192.0, 0.0, 0.0, 0.0, 0.0, 0.0, 0.0, 0.0, 0.0, 0.0, 1.698959077312094E9, 0.0, 2023-11-02 17:04:37.312
44.0, -121859.78852031095, 187500.0, 30195.753895730246, 25753.970534082717, 187500.0, 187500.0, -187500.02235174447, 29791.880225167304, -0.074, 0.9580000000000001, -0.096, 192.0, 0.0, 0.0, 0.0, 0.0, 0.0, 0.0, 0.0, 0.0, 0.0, 1.6989590773121195E9, 0.0, 2023-11-02 17:04:37.312
45.0, -121650.97852360948, 187500.0, 30195.619785263516, 25750.61777241442, 187500.0, 187500.0, -187500.02235174447, 29792.55077750096, -0.074, 0.9580000000000001, -0.096, 192.0, 0.0, 0.0, 0.0, 0.0, 0.0, 0.0, 0.0, 0.0, 0.0, 1.69895907731213E9, 0.0, 2023-11-02 17:04:37.312
46.0, -121545.03125489132, 187500.0, 30199.710154498836, 25753.367036982425, 187500.0, 187500.0, -187500.02235174447, 29797.065829880936, -0.074, 0.9580000000000001, -0.096, 192.0, 0.0, 0.0, 0.0, 0.0, 0.0, 0.0, 0.0, 0.0, 0.0, 1.6989590773121405E9, 0.0, 2023-11-02 17:04:37.312
47.0, -121469.10237897663, 187500.0, 30204.672241767916, 25765.302868521558, 187500.0, 187500.0, -187500.02235174447, 29803.07844913941, -0.058, 0.964, -0.098, 192.0, 254.0, 48.0, 30.0, 32.0, 252.0, 240.0, 0.0, 0.0, 0.0, 1.6989590773121512E9, 0.0, 2023-11-02 17:04:37.312
48.0, -121284.11934186451, 187500.0, 30202.749991744757, 25767.158063311348, 187500.0, 187500.0, -187500.02235174447, 29803.346670072875, -0.058, 0.964, -0.098, 192.0, 0.0, 0.0, 0.0, 0.0, 0.0, 0.0, 0.0, 0.0, 0.0, 1.6989590773121653E9, 0.0, 2023-11-02 17:04:37.312
49.0, -121059.55136532204, 187500.0, 30197.29616609766, 25761.748941153164, 187500.0, 187500.0, -187500.02235174447, 29799.211597348643, -0.058, 0.964, -0.098, 192.0, 0.0, 0.0, 0.0, 0.0, 0.0, 0.0, 0.0, 0.0, 0.0, 1.6989590773121762E9, 0.0, 2023-11-02 17:04:37.312
50.0, -120922.08813692191, 187500.0, 30193.496369540262, 25753.501147449155, 187500.0, 187500.0, -187500.02235174447, 29795.501207769063, -0.058, 0.964, -0.098, 192.0, 0.0, 0.0, 0.0, 0.0, 0.0, 0.0, 0.0, 0.0, 0.0, 1.6989590773121865E9, 0.0, 2023-11-02 17:04:37.312
51.0, -120827.7637753205, 187500.0, 30187.59550900406, 25753.18822302678, 187500.0, 187500.0, -187500.02235174447, 29790.717934455628, -0.058, 0.964, -0.098, 192.0, 0.0, 0.0, 0.0, 0.0, 0.0, 0.0, 0.0, 0.0, 0.0, 1.6989590773121972E9, 0.0, 2023-11-02 17:04:37.312
52.0, -120664.70779951905, 187500.0, 30185.717962469815, 25752.025932315104, 187500.0, 187500.0, -187500.02235174447, 29790.069733866425, -0.058, 0.964, -0.098, 192.0, 0.0, 0.0, 0.0, 0.0, 0.0, 0.0, 0.0, 0.0, 0.0, 1.6989590773122084E9, 0.0, 2023-11-02 17:04:37.312
53.0, -120457.03774178479, 187500.0, 30188.377820059995, 25752.875298604406, 187500.0, 187500.0, -187500.02235174447, 29792.930757156704, -0.058, 0.964, -0.098, 192.0, 0.0, 0.0, 0.0, 0.0, 0.0, 0.0, 0.0, 0.0, 0.0, 1.698959077312219E9, 0.0, 2023-11-02 17:04:37.312
54.0, -120313.53954238172, 187500.0, 30185.717962469815, 25751.53419393709, 187500.0, 187500.0, -187500.02235174447, 29791.52259725602, -0.058, 0.964, -0.098, 192.0, 0.0, 0.0, 0.0, 0.0, 0.0, 0.0, 0.0, 0.0, 0.0, 1.6989590773122292E9, 0.0, 2023-11-02 17:04:37.312
55.0, -120221.80798313714, 187500.0, 30186.45557003684, 25756.563336439533, 187500.0, 187500.0, -187500.02235174447, 29793.333088556898, -0.058, 0.964, -0.098, 192.0, 0.0, 0.0, 0.0, 0.0, 0.0, 0.0, 0.0, 0.0, 0.0, 1.6989590773122392E9, 0.0, 2023-11-02 17:04:37.312
56.0, -120071.24663248619, 187500.0, 30193.0269829067, 25767.448635989265, 187500.0, 187500.0, -187500.02235174447, 29800.37388806032, -0.058, 0.964, -0.098, 192.0, 0.0, 0.0, 0.0, 0.0, 0.0, 0.0, 0.0, 0.0, 0.0, 1.6989590773122504E9, 0.0, 2023-11-02 17:04:37.312
57.0, -119866.05761838648, 187500.0, 30196.290337597173, 25769.840272645986, 187500.0, 187500.0, -187500.02235174447, 29803.592539261885, -0.044, 0.966, -0.10400000000000001, 192.0, 254.0, 160.0, 30.0, 48.0, 252.0, 192.0, 0.0, 0.0, 0.0, 1.698959077312261E9, 0.0, 2023-11-02 17:04:37.312
58.0, -119700.34178499482, 187500.0, 30193.16109337343, 25768.745037167675, 187500.0, 187500.0, -187500.02235174447, 29800.306832826955, -0.044, 0.966, -0.10400000000000001, 192.0, 0.0, 0.0, 0.0, 0.0, 0.0, 0.0, 0.0, 0.0, 0.0, 1.6989590773122737E9, 0.0, 2023-11-02 17:04:37.312
59.0, -119588.60541446274, 187500.0, 30186.612032248027, 25760.05020857456, 187500.0, 187500.0, -187500.02235174447, 29791.902576911758, -0.044, 0.966, -0.10400000000000001, 192.0, 0.0, 0.0, 0.0, 0.0, 0.0, 0.0, 0.0, 0.0, 0.0, 1.6989590773123107E9, 0.0, 2023-11-02 17:04:37.312
60.0, -119449.91284011757, 187500.0, 30191.484712539284, 25763.33591500949, 187500.0, 187500.0, -187500.02235174447, 29794.67419322422, -0.044, 0.966, -0.10400000000000001, 192.0, 0.0, 0.0, 0.0, 0.0, 0.0, 0.0, 0.0, 0.0, 0.0, 1.6989590773123238E9, 0.0, 2023-11-02 17:04:37.312
61.0, -119230.97750317783, 187500.0, 30187.170825859408, 25761.972458597716, 187500.0, 187500.0, -187500.02235174447, 29789.980326888603, -0.044, 0.966, -0.10400000000000001, 192.0, 0.0, 0.0, 0.0, 0.0, 0.0, 0.0, 0.0, 0.0, 0.0, 1.6989590773123355E9, 0.0, 2023-11-02 17:04:37.312
62.0, -119043.06638754206, 187500.0, 30185.53914851417, 25756.47392946171, 187500.0, 187500.0, -187500.02235174447, 29788.03572512099, -0.044, 0.966, -0.10400000000000001, 192.0, 0.0, 0.0, 0.0, 0.0, 0.0, 0.0, 0.0, 0.0, 0.0, 1.6989590773123467E9, 0.0, 2023-11-02 17:04:37.312
63.0, -118969.01505816163, 187500.0, 30187.908433426433, 25757.122130050913, 187500.0, 187500.0, -187500.02235174447, 29788.147483843266, -0.044, 0.966, -0.10400000000000001, 192.0, 0.0, 0.0, 0.0, 0.0, 0.0, 0.0, 0.0, 0.0, 0.0, 1.6989590773123593E9, 0.0, 2023-11-02 17:04:37.312
64.0, -118868.0075249681, 187500.0, 30190.25536659424, 25760.05020857456, 187500.0, 187500.0, -187500.02235174447, 29790.717934455628, -0.044, 0.966, -0.10400000000000001, 192.0, 0.0, 0.0, 0.0, 0.0, 0.0, 0.0, 0.0, 0.0, 0.0, 1.69895907731237E9, 0.0, 2023-11-02 17:04:37.312
65.0, -118682.44334250013, 187500.0, 30199.576044032103, 25771.270784291126, 187500.0, 187500.0, -187500.02235174447, 29798.51869327053, -0.044, 0.966, -0.10400000000000001, 192.0, 0.0, 0.0, 0.0, 0.0, 0.0, 0.0, 0.0, 0.0, 0.0, 1.69895907731238E9, 0.0, 2023-11-02 17:04:37.312
66.0, -118502.28828219036, 187500.0, 30200.425410321404, 25765.258165032647, 187500.0, 187500.0, -187500.02235174447, 29797.1328851143, -0.044, 0.966, -0.10400000000000001, 192.0, 0.0, 0.0, 0.0, 0.0, 0.0, 0.0, 0.0, 0.0, 0.0, 1.6989590773123915E9, 0.0, 2023-11-02 17:04:37.312
67.0, -118422.29138878483, 187500.0, 30205.78982899068, 25767.96272611174, 187500.0, 187500.0, -187500.02235174447, 29799.591577004383, -0.058, 0.98, -0.10200000000000001, 192.0, 254.0, 48.0, 30.0, 160.0, 252.0, 208.0, 0.0, 0.0, 0.0, 1.6989590773124025E9, 0.0, 2023-11-02 17:04:37.312
68.0, -118352.24102166189, 187500.0, 30207.108581913544, 25767.940374367285, 187500.0, 187500.0, -187500.02235174447, 29798.429286292707, -0.058, 0.98, -0.10200000000000001, 192.0, 0.0, 0.0, 0.0, 0.0, 0.0, 0.0, 0.0, 0.0, 0.0, 1.6989590773124154E9, 0.0, 2023-11-02 17:04:37.312
69.0, -118160.2395367908, 187500.0, 30196.69266899737, 25753.523499193612, 187500.0, 187500.0, -187500.02235174447, 29785.018239619523, -0.058, 0.98, -0.10200000000000001, 192.0, 0.0, 0.0, 0.0, 0.0, 0.0, 0.0, 0.0, 0.0, 0.0, 1.6989590773124335E9, 0.0, 2023-11-02 17:04:37.312
70.0, -117992.93672954282, 187500.0, 30197.16205563093, 25751.109510792438, 187500.0, 187500.0, -187500.02235174447, 29785.286460552987, -0.058, 0.98, -0.10200000000000001, 192.0, 0.0, 0.0, 0.0, 0.0, 0.0, 0.0, 0.0, 0.0, 0.0, 1.698959077312446E9, 0.0, 2023-11-02 17:04:37.312
71.0, -117924.83096418751, 187500.0, 30196.64796550846, 25756.09394980597, 187500.0, 187500.0, -187500.02235174447, 29785.308812297444, -0.058, 0.98, -0.10200000000000001, 192.0, 0.0, 0.0, 0.0, 0.0, 0.0, 0.0, 0.0, 0.0, 0.0, 1.6989590773124611E9, 0.0, 2023-11-02 17:04:37.312
72.0, -117869.30923096053, 187500.0, 30192.803465462148, 25753.18822302678, 187500.0, 187500.0, -187500.02235174447, 29782.358382029342, -0.058, 0.98, -0.10200000000000001, 192.0, 0.0, 0.0, 0.0, 0.0, 0.0, 0.0, 0.0, 0.0, 0.0, 1.6989590773124747E9, 0.0, 2023-11-02 17:04:37.312
73.0, -117725.45340364617, 187500.0, 30194.54690152966, 25752.450615459755, 187500.0, 187500.0, -187500.02235174447, 29782.31367854043, -0.058, 0.98, -0.10200000000000001, 192.0, 0.0, 0.0, 0.0, 0.0, 0.0, 0.0, 0.0, 0.0, 0.0, 1.6989590773124876E9, 0.0, 2023-11-02 17:04:37.312
74.0, -117551.80270097288, 187500.0, 30198.50316029825, 25752.249449759656, 187500.0, 187500.0, -187500.02235174447, 29786.024068120012, -0.058, 0.98, -0.10200000000000001, 192.0, 0.0, 0.0, 0.0, 0.0, 0.0, 0.0, 0.0, 0.0, 0.0, 1.6989590773125007E9, 0.0, 2023-11-02 17:04:37.312
75.0, -117474.9350517911, 187500.0, 30203.59935803406, 25757.233888773193, 187500.0, 187500.0, -187500.02235174447, 29792.684887967695, -0.058, 0.98, -0.10200000000000001, 192.0, 0.0, 0.0, 0.0, 0.0, 0.0, 0.0, 0.0, 0.0, 0.0, 1.698959077312568E9, 0.0, 2023-11-02 17:04:37.312
76.0, -117427.214077379, 187500.0, 30199.821913221112, 25760.00550508565, 187500.0, 187500.0, -187500.02235174447, 29791.030858878003, -0.058, 0.98, -0.10200000000000001, 192.0, 0.0, 0.0, 0.0, 0.0, 0.0, 0.0, 0.0, 0.0, 0.0, 1.698959077312587E9, 0.0, 2023-11-02 17:04:37.312
77.0, -117286.7780669663, 187500.0, 30194.25632885174, 25761.01133358614, 187500.0, 187500.0, -187500.02235174447, 29786.694620453673, -0.054, 0.976, -0.1, 192.0, 254.0, 80.0, 30.0, 128.0, 252.0, 224.0, 0.0, 0.0, 0.0, 1.6989590773126109E9, 0.0, 2023-11-02 17:04:37.312
78.0, -117106.89122759, 187500.0, 30203.375840589506, 25769.214423801237, 187500.0, 187500.0, -187500.02235174447, 29794.964765902136, -0.054, 0.976, -0.1, 192.0, 0.0, 0.0, 0.0, 0.0, 0.0, 0.0, 0.0, 0.0, 0.0, 1.6989590773126311E9, 0.0, 2023-11-02 17:04:37.312
79.0, -117002.0168426057, 187500.0, 30205.70042201286, 25769.974383112716, 187500.0, 187500.0, -187500.02235174447, 29797.222292092123, -0.054, 0.976, -0.1, 192.0, 0.0, 0.0, 0.0, 0.0, 0.0, 0.0, 0.0, 0.0, 0.0, 1.6989590773126504E9, 0.0, 2023-11-02 17:04:37.312
80.0, -116955.6593246054, 187500.0, 30204.091096412078, 25770.421418001824, 187500.0, 187500.0, -187500.02235174447, 29796.060001380447, -0.054, 0.976, -0.1, 192.0, 0.0, 0.0, 0.0, 0.0, 0.0, 0.0, 0.0, 0.0, 0.0, 1.6989590773126657E9, 0.0, 2023-11-02 17:04:37.312
81.0, -116849.08620704249, 187500.0, 30201.185369632887, 25769.10266507896, 187500.0, 187500.0, -187500.02235174447, 29793.60130949036, -0.054, 0.976, -0.1, 192.0, 0.0, 0.0, 0.0, 0.0, 0.0, 0.0, 0.0, 0.0, 0.0, 1.6989590773126783E9, 0.0, 2023-11-02 17:04:37.312
82.0, -116675.14493169129, 187500.0, 30199.240767865274, 25766.57691795551, 187500.0, 187500.0, -187500.02235174447, 29791.097914111368, -0.054, 0.976, -0.1, 192.0, 0.0, 0.0, 0.0, 0.0, 0.0, 0.0, 0.0, 0.0, 0.0, 1.6989590773126917E9, 0.0, 2023-11-02 17:04:37.312
83.0, -116526.25996187449, 187500.0, 30194.681011996392, 25756.33981899498, 187500.0, 187500.0, -187500.02235174447, 29783.14069308528, -0.054, 0.976, -0.1, 192.0, 0.0, 0.0, 0.0, 0.0, 0.0, 0.0, 0.0, 0.0, 0.0, 1.6989590773127077E9, 0.0, 2023-11-02 17:04:37.312
84.0, -116470.26884201395, 187500.0, 30191.149436372452, 25754.305810249545, 187500.0, 187500.0, -187500.02235174447, 29779.98909711708, -0.054, 0.976, -0.1, 192.0, 0.0, 0.0, 0.0, 0.0, 0.0, 0.0, 0.0, 0.0, 0.0, 1.6989590773127227E9, 0.0, 2023-11-02 17:04:37.312
85.0, -116360.65588720512, 187500.0, 30186.79084620367, 25754.5293276941, 187500.0, 187500.0, -187500.02235174447, 29776.56928021542, -0.054, 0.976, -0.1, 192.0, 0.0, 0.0, 0.0, 0.0, 0.0, 0.0, 0.0, 0.0, 0.0, 1.6989590773127348E9, 0.0, 2023-11-02 17:04:37.312
86.0, -116151.912945737, 187500.0, 30186.992011903767, 25751.422435214812, 187500.0, 187500.0, -187500.02235174447, 29777.306887782444, -0.054, 0.976, -0.1, 192.0, 0.0, 0.0, 0.0, 0.0, 0.0, 0.0, 0.0, 0.0, 0.0, 1.6989590773127496E9, 0.0, 2023-11-02 17:04:37.312
87.0, -115989.57222575811, 187500.0, 30191.954099172843, 25753.076464304504, 187500.0, 187500.0, -187500.02235174447, 29785.286460552987, -0.066, 0.9520000000000001, -0.094, 192.0, 253.0, 240.0, 29.0, 192.0, 253.0, 16.0, 0.0, 0.0, 0.0, 1.6989590773127668E9, 0.0, 2023-11-02 17:04:37.312
88.0, -115902.86980901597, 187500.0, 30194.45749455184, 25759.781987641098, 187500.0, 187500.0, -187500.02235174447, 29790.94145190018, -0.066, 0.9520000000000001, -0.094, 192.0, 0.0, 0.0, 0.0, 0.0, 0.0, 0.0, 0.0, 0.0, 0.0, 1.698959077312785E9, 0.0, 2023-11-02 17:04:37.312
89.0, -115804.4327264348, 187500.0, 30197.989070175776, 25769.259127290148, 187500.0, 187500.0, -187500.02235174447, 29796.641146736285, -0.066, 0.9520000000000001, -0.094, 192.0, 0.0, 0.0, 0.0, 0.0, 0.0, 0.0, 0.0, 0.0, 0.0, 1.698959077312801E9, 0.0, 2023-11-02 17:04:37.312
90.0, -115581.2282063041, 187500.0, 30192.53524452868, 25769.214423801237, 187500.0, 187500.0, -187500.02235174447, 29793.266033323533, -0.066, 0.9520000000000001, -0.094, 192.0, 0.0, 0.0, 0.0, 0.0, 0.0, 0.0, 0.0, 0.0, 0.0, 1.698959077312877E9, 0.0, 2023-11-02 17:04:37.312
91.0, -115378.07320094982, 187500.0, 30194.41279106293, 25766.666324933332, 187500.0, 187500.0, -187500.02235174447, 29794.89771066877, -0.066, 0.9520000000000001, -0.094, 192.0, 0.0, 0.0, 0.0, 0.0, 0.0, 0.0, 0.0, 0.0, 0.0, 1.6989590773129015E9, 0.0, 2023-11-02 17:04:37.312
92.0, -115263.8557867832, 187500.0, 30194.25632885174, 25762.598307442466, 187500.0, 187500.0, -187500.02235174447, 29795.076524624412, -0.066, 0.9520000000000001, -0.094, 192.0, 0.0, 0.0, 0.0, 0.0, 0.0, 0.0, 0.0, 0.0, 0.0, 1.6989590773129196E9, 0.0, 2023-11-02 17:04:37.312
93.0, -115152.74526509587, 187500.0, 30197.407924819938, 25763.872356876418, 187500.0, 187500.0, -187500.02235174447, 29798.250472337066, -0.066, 0.9520000000000001, -0.094, 192.0, 0.0, 0.0, 0.0, 0.0, 0.0, 0.0, 0.0, 0.0, 0.0, 1.6989590773129325E9, 0.0, 2023-11-02 17:04:37.312
94.0, -114959.29091683519, 187500.0, 30197.11735214202, 25764.922888865818, 187500.0, 187500.0, -187500.02235174447, 29799.099838626367, -0.066, 0.9520000000000001, -0.094, 192.0, 0.0, 0.0, 0.0, 0.0, 0.0, 0.0, 0.0, 0.0, 0.0, 1.6989590773129475E9, 0.0, 2023-11-02 17:04:37.312
95.0, -114713.7793557381, 187500.0, 30188.109599126532, 25753.4787957047, 187500.0, 187500.0, -187500.02235174447, 29790.94145190018, -0.066, 0.9520000000000001, -0.094, 192.0, 0.0, 0.0, 0.0, 0.0, 0.0, 0.0, 0.0, 0.0, 0.0, 1.6989590773129623E9, 0.0, 2023-11-02 17:04:37.312
96.0, -114570.30350807948, 187500.0, 30189.182482860386, 25746.28153399009, 187500.0, 187500.0, -187500.02235174447, 29790.673230966717, -0.066, 0.9520000000000001, -0.094, 192.0, 0.0, 0.0, 0.0, 0.0, 0.0, 0.0, 0.0, 0.0, 0.0, 1.698959077312978E9, 0.0, 2023-11-02 17:04:37.312
97.0, -114469.29597488594, 187500.0, 30195.88800619698, 25752.98705732668, 187500.0, 187500.0, -187500.02235174447, 29795.635318235796, -0.08, 0.96, -0.106, 192.0, 253.0, 128.0, 30.0, 0.0, 252.0, 176.0, 0.0, 0.0, 0.0, 1.6989590773129888E9, 0.0, 2023-11-02 17:04:37.312
98.0, -114274.20994928002, 187500.0, 30198.011421920233, 25756.116301550424, 187500.0, 187500.0, -187500.02235174447, 29795.747076958072, -0.08, 0.96, -0.106, 192.0, 0.0, 0.0, 0.0, 0.0, 0.0, 0.0, 0.0, 0.0, 0.0, 1.6989590773130038E9, 0.0, 2023-11-02 17:04:37.313
99.0, -114049.23964133736, 187500.0, 30200.917148699424, 25755.311638750034, 187500.0, 187500.0, -187500.02235174447, 29795.009469391047, -0.08, 0.96, -0.106, 192.0, 0.0, 0.0, 0.0, 0.0, 0.0, 0.0, 0.0, 0.0, 0.0, 1.698959077313014E9, 0.0, 2023-11-02 17:04:37.313
100.0, -113900.80170640966, 187500.0, 30202.548826044662, 25751.355379981447, 187500.0, 187500.0, -187500.02235174447, 29793.690716468183, -0.08, 0.96, -0.106, 192.0, 0.0, 0.0, 0.0, 0.0, 0.0, 0.0, 0.0, 0.0, 0.0, 1.6989590773130252E9, 0.0, 2023-11-02 17:04:37.313
101.0, -113824.55990607261, 187500.0, 30210.68486102639, 25758.083255062495, 187500.0, 187500.0, -187500.02235174447, 29799.94920491567, -0.08, 0.96, -0.106, 192.0, 0.0, 0.0, 0.0, 0.0, 0.0, 0.0, 0.0, 0.0, 0.0, 1.6989590773130355E9, 0.0, 2023-11-02 17:04:37.313
102.0, -113673.64092751038, 187500.0, 30214.50700932825, 25764.878185376907, 187500.0, 187500.0, -187500.02235174447, 29805.224216607123, -0.08, 0.96, -0.106, 192.0, 0.0, 0.0, 0.0, 0.0, 0.0, 0.0, 0.0, 0.0, 0.0, 1.698959077313046E9, 0.0, 2023-11-02 17:04:37.313
103.0, -113465.12150348682, 187500.0, 30217.390384362985, 25766.688676677786, 187500.0, 187500.0, -187500.02235174447, 29809.18047537571, -0.08, 0.96, -0.106, 192.0, 0.0, 0.0, 0.0, 0.0, 0.0, 0.0, 0.0, 0.0, 0.0, 1.6989590773130567E9, 0.0, 2023-11-02 17:04:37.313
104.0, -113322.20444943958, 187500.0, 30213.32236687212, 25759.692580663275, 187500.0, 187500.0, -187500.02235174447, 29807.302928841465, -0.08, 0.96, -0.106, 192.0, 0.0, 0.0, 0.0, 0.0, 0.0, 0.0, 0.0, 0.0, 0.0, 1.6989590773130665E9, 0.0, 2023-11-02 17:04:37.313
105.0, -113260.91596614313, 187500.0, 30213.143552916477, 25762.48654872019, 187500.0, 187500.0, -187500.02235174447, 29809.068716653434, -0.08, 0.96, -0.106, 192.0, 0.0, 0.0, 0.0, 0.0, 0.0, 0.0, 0.0, 0.0, 0.0, 1.6989590773131218E9, 0.0, 2023-11-02 17:04:37.313
106.0, -113128.92891513454, 187500.0, 30202.59352953357, 25761.01133358614, 187500.0, 187500.0, -187500.02235174447, 29799.99390840458, -0.08, 0.96, -0.106, 192.0, 0.0, 0.0, 0.0, 0.0, 0.0, 0.0, 0.0, 0.0, 0.0, 1.6989590773131332E9, 0.0, 2023-11-02 17:04:37.313
107.0, -112931.94299124993, 187500.0, 30199.330174843097, 25762.754769653653, 187500.0, 187500.0, -187500.02235174447, 29798.585748503894, -0.076, 0.97, -0.10200000000000001, 192.0, 253.0, 160.0, 30.0, 80.0, 252.0, 208.0, 0.0, 0.0, 0.0, 1.6989590773131473E9, 0.0, 2023-11-02 17:04:37.313
108.0, -112803.26399842072, 187500.0, 30203.30878535614, 25770.846101146475, 187500.0, 187500.0, -187500.02235174447, 29806.3865073188, -0.076, 0.97, -0.10200000000000001, 192.0, 0.0, 0.0, 0.0, 0.0, 0.0, 0.0, 0.0, 0.0, 0.0, 1.6989590773131871E9, 0.0, 2023-11-02 17:04:37.313
109.0, -112743.89776514743, 187500.0, 30201.542997544173, 25773.036572103094, 187500.0, 187500.0, -187500.02235174447, 29806.632376507805, -0.076, 0.97, -0.10200000000000001, 192.0, 0.0, 0.0, 0.0, 0.0, 0.0, 0.0, 0.0, 0.0, 0.0, 1.6989590773132E9, 0.0, 2023-11-02 17:04:37.313
110.0, -112618.01274037514, 187500.0, 30194.21162536283, 25773.282441292104, 187500.0, 187500.0, -187500.02235174447, 29803.70429798416, -0.076, 0.97, -0.10200000000000001, 192.0, 0.0, 0.0, 0.0, 0.0, 0.0, 0.0, 0.0, 0.0, 0.0, 1.6989590773132107E9, 0.0, 2023-11-02 17:04:37.313
111.0, -112399.14445866877, 187500.0, 30192.95992767333, 25775.092932592983, 187500.0, 187500.0, -187500.02235174447, 29807.705260241662, -0.076, 0.97, -0.10200000000000001, 192.0, 0.0, 0.0, 0.0, 0.0, 0.0, 0.0, 0.0, 0.0, 0.0, 1.6989590773132212E9, 0.0, 2023-11-02 17:04:37.313
112.0, -112220.0399303484, 187500.0, 30195.44097130787, 25780.01031637315, 187500.0, 187500.0, -187500.02235174447, 29813.00262367757, -0.076, 0.97, -0.10200000000000001, 192.0, 0.0, 0.0, 0.0, 0.0, 0.0, 0.0, 0.0, 0.0, 0.0, 1.6989590773132522E9, 0.0, 2023-11-02 17:04:37.313
113.0, -112128.73305424847, 187500.0, 30195.955061430344, 25787.744019954687, 187500.0, 187500.0, -187500.02235174447, 29813.673176011227, -0.076, 0.97, -0.10200000000000001, 192.0, 0.0, 0.0, 0.0, 0.0, 0.0, 0.0, 0.0, 0.0, 0.0, 1.6989590773132637E9, 0.0, 2023-11-02 17:04:37.313
114.0, -112023.90337275308, 187500.0, 30196.49150329727, 25788.638089732896, 187500.0, 187500.0, -187500.02235174447, 29813.404955077764, -0.076, 0.97, -0.10200000000000001, 192.0, 0.0, 0.0, 0.0, 0.0, 0.0, 0.0, 0.0, 0.0, 0.0, 1.6989590773132749E9, 0.0, 2023-11-02 17:04:37.313
115.0, -111845.87172816656, 187500.0, 30199.7772097322, 25789.82273218903, 187500.0, 187500.0, -187500.02235174447, 29815.41661207874, -0.076, 0.97, -0.10200000000000001, 192.0, 0.0, 0.0, 0.0, 0.0, 0.0, 0.0, 0.0, 0.0, 0.0, 1.6989590773132849E9, 0.0, 2023-11-02 17:04:37.313
116.0, -111642.24733617871, 187500.0, 30196.87148295301, 25785.374735042424, 187500.0, 187500.0, -187500.02235174447, 29811.75092598807, -0.076, 0.97, -0.10200000000000001, 192.0, 0.0, 0.0, 0.0, 0.0, 0.0, 0.0, 0.0, 0.0, 0.0, 1.698959077313295E9, 0.0, 2023-11-02 17:04:37.313
117.0, -111524.78891906606, 187500.0, 30196.64796550846, 25777.976307627716, 187500.0, 187500.0, -187500.02235174447, 29809.71691724264, -0.076, 0.982, -0.108, 192.0, 253.0, 160.0, 30.0, 176.0, 252.0, 160.0, 0.0, 0.0, 0.0, 1.698959077313306E9, 0.0, 2023-11-02 17:04:37.313
118.0, -111422.1497085273, 187500.0, 30200.872445210513, 25778.736266939195, 187500.0, 187500.0, -187500.02235174447, 29811.840332965894, -0.076, 0.982, -0.108, 192.0, 0.0, 0.0, 0.0, 0.0, 0.0, 0.0, 0.0, 0.0, 0.0, 1.6989590773133197E9, 0.0, 2023-11-02 17:04:37.313
119.0, -111224.31441835337, 187500.0, 30202.88410221149, 25781.10555185146, 187500.0, 187500.0, -187500.02235174447, 29811.0356701655, -0.076, 0.982, -0.108, 192.0, 0.0, 0.0, 0.0, 0.0, 0.0, 0.0, 0.0, 0.0, 0.0, 1.6989590773133304E9, 0.0, 2023-11-02 17:04:37.313
120.0, -111006.96605526996, 187500.0, 30201.36418358853, 25774.690601192786, 187500.0, 187500.0, -187500.02235174447, 29808.576978275418, -0.076, 0.982, -0.108, 192.0, 0.0, 0.0, 0.0, 0.0, 0.0, 0.0, 0.0, 0.0, 0.0, 1.6989590773133633E9, 0.0, 2023-11-02 17:04:37.313
121.0, -110891.72046085841, 187500.0, 30197.16205563093, 25766.666324933332, 187500.0, 187500.0, -187500.02235174447, 29806.073582896424, -0.076, 0.982, -0.108, 192.0, 0.0, 0.0, 0.0, 0.0, 0.0, 0.0, 0.0, 0.0, 0.0, 1.6989590777931654E9, 0.0, 2023-11-02 17:04:37.793
122.0, -110816.10450936611, 187500.0, 30194.50219804075, 25767.269822033624, 187500.0, 187500.0, -187500.02235174447, 29806.52061778553, -0.076, 0.982, -0.108, 192.0, 0.0, 0.0, 0.0, 0.0, 0.0, 0.0, 0.0, 0.0, 0.0, 1.6989590777932699E9, 0.0, 2023-11-02 17:04:37.793
123.0, -110665.40904824842, 187500.0, 30188.26606133772, 25766.82278714452, 187500.0, 187500.0, -187500.02235174447, 29801.938510172193, -0.076, 0.982, -0.108, 192.0, 0.0, 0.0, 0.0, 0.0, 0.0, 0.0, 0.0, 0.0, 0.0, 1.6989590777932866E9, 0.0, 2023-11-02 17:04:37.793
124.0, -110472.44643836576, 187500.0, 30182.9239944129, 25761.368961497425, 187500.0, 187500.0, -187500.02235174447, 29797.401106047764, -0.076, 0.982, -0.108, 192.0, 0.0, 0.0, 0.0, 0.0, 0.0, 0.0, 0.0, 0.0, 0.0, 1.6989590777933035E9, 0.0, 2023-11-02 17:04:37.793
125.0, -110361.93941377872, 187500.0, 30182.67812522389, 25762.598307442466, 187500.0, 187500.0, -187500.02235174447, 29799.032783393002, -0.076, 0.982, -0.108, 192.0, 0.0, 0.0, 0.0, 0.0, 0.0, 0.0, 0.0, 0.0, 0.0, 1.6989590777933176E9, 0.0, 2023-11-02 17:04:37.793
126.0, -110298.19223859218, 187500.0, 30184.041581635665, 25764.699371421262, 187500.0, 187500.0, -187500.02235174447, 29803.2349113506, -0.076, 0.982, -0.108, 192.0, 0.0, 0.0, 0.0, 0.0, 0.0, 0.0, 0.0, 0.0, 0.0, 1.698959077793332E9, 0.0, 2023-11-02 17:04:37.793
127.0, -110137.52789944744, 187500.0, 30181.851110679047, 25771.89663313587, 187500.0, 187500.0, -187500.02235174447, 29804.576016017916, -0.074, 0.984, -0.10400000000000001, 192.0, 253.0, 176.0, 30.0, 192.0, 252.0, 192.0, 0.0, 0.0, 0.0, 1.698959077793353E9, 0.0, 2023-11-02 17:04:37.793
128.0, -109936.22808888294, 187500.0, 30192.870520695513, 25784.033630375103, 187500.0, 187500.0, -187500.02235174447, 29819.10464991387, -0.074, 0.984, -0.10400000000000001, 192.0, 0.0, 0.0, 0.0, 0.0, 0.0, 0.0, 0.0, 0.0, 0.0, 1.6989590777933712E9, 0.0, 2023-11-02 17:04:37.793
129.0, -109803.2128576294, 187500.0, 30198.9278434429, 25791.946147912284, 187500.0, 187500.0, -187500.02235174447, 29826.212504650655, -0.074, 0.984, -0.10400000000000001, 192.0, 0.0, 0.0, 0.0, 0.0, 0.0, 0.0, 0.0, 0.0, 0.0, 1.6989590777933855E9, 0.0, 2023-11-02 17:04:37.793
130.0, -109751.84854887112, 187500.0, 30210.908378470944, 25805.983043430217, 187500.0, 187500.0, -187500.02235174447, 29836.42725186673, -0.074, 0.984, -0.10400000000000001, 192.0, 0.0, 0.0, 0.0, 0.0, 0.0, 0.0, 0.0, 0.0, 0.0, 1.6989590777934022E9, 0.0, 2023-11-02 17:04:37.793
131.0, -109637.89935563796, 187500.0, 30217.748012274267, 25816.77893600213, 187500.0, 187500.0, -187500.02235174447, 29842.506926358576, -0.074, 0.984, -0.10400000000000001, 192.0, 0.0, 0.0, 0.0, 0.0, 0.0, 0.0, 0.0, 0.0, 0.0, 1.6989590777934175E9, 0.0, 2023-11-02 17:04:37.793
132.0, -109444.98144924421, 187500.0, 30222.039547209686, 25819.3940901034, 187500.0, 187500.0, -187500.02235174447, 29843.244533925597, -0.074, 0.984, -0.10400000000000001, 192.0, 0.0, 0.0, 0.0, 0.0, 0.0, 0.0, 0.0, 0.0, 0.0, 1.6989590777934344E9, 0.0, 2023-11-02 17:04:37.793
133.0, -109319.56581110548, 187500.0, 30229.013291479743, 25826.5466483291, 187500.0, 187500.0, -187500.02235174447, 29847.71488281666, -0.074, 0.984, -0.10400000000000001, 192.0, 0.0, 0.0, 0.0, 0.0, 0.0, 0.0, 0.0, 0.0, 0.0, 1.6989590777934768E9, 0.0, 2023-11-02 17:04:37.793
134.0, -109268.55913025847, 187500.0, 30228.879181013013, 25828.468898352254, 187500.0, 187500.0, -187500.02235174447, 29847.133737460823, -0.074, 0.984, -0.10400000000000001, 192.0, 0.0, 0.0, 0.0, 0.0, 0.0, 0.0, 0.0, 0.0, 0.0, 1.6989590777934892E9, 0.0, 2023-11-02 17:04:37.793
135.0, -109173.9665477236, 187500.0, 30225.884047256, 25828.960636730273, 187500.0, 187500.0, -187500.02235174447, 29842.99866473659, -0.074, 0.984, -0.10400000000000001, 192.0, 0.0, 0.0, 0.0, 0.0, 0.0, 0.0, 0.0, 0.0, 0.0, 1.6989590777937396E9, 0.0, 2023-11-02 17:04:37.793
136.0, -108964.48599868847, 187500.0, 30216.78688726269, 25822.389223860413, 187500.0, 187500.0, -187500.02235174447, 29831.889847742303, -0.074, 0.984, -0.10400000000000001, 192.0, 0.0, 0.0, 0.0, 0.0, 0.0, 0.0, 0.0, 0.0, 0.0, 1.6989590777937589E9, 0.0, 2023-11-02 17:04:37.793
137.0, -108780.44173484347, 187500.0, 30212.003613949255, 25811.01218593266, 187500.0, 187500.0, -187500.02235174447, 29825.09491742789, -0.07, 0.976, -0.096, 192.0, 253.0, 208.0, 30.0, 128.0, 253.0, 0.0, 0.0, 0.0, 0.0, 1.698959077793805E9, 0.0, 2023-11-02 17:04:37.793
138.0, -108726.01523709479, 187500.0, 30216.74218377378, 25812.86738072245, 187500.0, 187500.0, -187500.02235174447, 29828.96176921866, -0.07, 0.976, -0.096, 192.0, 0.0, 0.0, 0.0, 0.0, 0.0, 0.0, 0.0, 0.0, 0.0, 1.6989590777938244E9, 0.0, 2023-11-02 17:04:37.793
139.0, -108638.8434337191, 187500.0, 30212.651814538458, 25816.264845879658, 187500.0, 187500.0, -187500.02235174447, 29824.357309860865, -0.07, 0.976, -0.096, 192.0, 0.0, 0.0, 0.0, 0.0, 0.0, 0.0, 0.0, 0.0, 0.0, 1.6989590777938373E9, 0.0, 2023-11-02 17:04:37.793
140.0, -108453.12278903995, 187500.0, 30208.002651691753, 25810.743964999197, 187500.0, 187500.0, -187500.02235174447, 29818.992891191592, -0.07, 0.976, -0.096, 192.0, 0.0, 0.0, 0.0, 0.0, 0.0, 0.0, 0.0, 0.0, 0.0, 1.6989590777938533E9, 0.0, 2023-11-02 17:04:37.793
141.0, -108276.09697295392, 187500.0, 30207.64502378047, 25805.334842841014, 187500.0, 187500.0, -187500.02235174447, 29818.52350455803, -0.07, 0.976, -0.096, 192.0, 0.0, 0.0, 0.0, 0.0, 0.0, 0.0, 0.0, 0.0, 0.0, 1.6989590777938657E9, 0.0, 2023-11-02 17:04:37.793
142.0, -108211.72394892263, 187500.0, 30212.584759305093, 25804.507828296166, 187500.0, 187500.0, -187500.02235174447, 29822.56917030444, -0.07, 0.976, -0.096, 192.0, 0.0, 0.0, 0.0, 0.0, 0.0, 0.0, 0.0, 0.0, 0.0, 1.6989590777938814E9, 0.0, 2023-11-02 17:04:37.793
143.0, -108158.70561107465, 187500.0, 30211.422468593417, 25806.787706230607, 187500.0, 187500.0, -187500.02235174447, 29822.122135415335, -0.07, 0.976, -0.096, 192.0, 0.0, 0.0, 0.0, 0.0, 0.0, 0.0, 0.0, 0.0, 0.0, 1.6989590777938955E9, 0.0, 2023-11-02 17:04:37.793
144.0, -107987.67006250264, 187500.0, 30200.693631254868, 25799.81396196055, 187500.0, 187500.0, -187500.02235174447, 29813.58376903341, -0.07, 0.976, -0.096, 192.0, 0.0, 0.0, 0.0, 0.0, 0.0, 0.0, 0.0, 0.0, 0.0, 1.6989590777939308E9, 0.0, 2023-11-02 17:04:37.793
145.0, -107814.89107786311, 187500.0, 30193.384610817986, 25792.86256943495, 187500.0, 187500.0, -187500.02235174447, 29812.108553899358, -0.07, 0.976, -0.096, 192.0, 0.0, 0.0, 0.0, 0.0, 0.0, 0.0, 0.0, 0.0, 0.0, 1.6989590777939465E9, 0.0, 2023-11-02 17:04:37.793
146.0, -107744.684248529, 187500.0, 30186.321459570107, 25786.15704609836, 187500.0, 187500.0, -187500.02235174447, 29811.370946332332, -0.07, 0.976, -0.096, 192.0, 0.0, 0.0, 0.0, 0.0, 0.0, 0.0, 0.0, 0.0, 0.0, 1.6989590777939594E9, 0.0, 2023-11-02 17:04:37.793
147.0, -107719.69499822796, 187500.0, 30182.186386845875, 25787.72166821023, 187500.0, 187500.0, -187500.02235174447, 29812.421478321732, -0.06, 0.972, -0.084, 192.0, 254.0, 32.0, 30.0, 96.0, 253.0, 96.0, 0.0, 0.0, 0.0, 1.6989590777939732E9, 0.0, 2023-11-02 17:04:37.793
148.0, -107568.12781907653, 187500.0, 30170.36231402902, 25786.402915287366, 187500.0, 187500.0, -187500.02235174447, 29806.073582896424, -0.06, 0.972, -0.084, 192.0, 0.0, 0.0, 0.0, 0.0, 0.0, 0.0, 0.0, 0.0, 0.0, 1.698959077793989E9, 0.0, 2023-11-02 17:04:37.793
149.0, -107365.6433660559, 187500.0, 30159.186441801365, 25776.72460993822, 187500.0, 187500.0, -187500.02235174447, 29798.853969437358, -0.06, 0.972, -0.084, 192.0, 0.0, 0.0, 0.0, 0.0, 0.0, 0.0, 0.0, 0.0, 0.0, 1.698959077794004E9, 0.0, 2023-11-02 17:04:37.794
150.0, -107251.62711758938, 187500.0, 30152.54797369814, 25769.43794124579, 187500.0, 187500.0, -187500.02235174447, 29797.04347813648, -0.06, 0.972, -0.084, 192.0, 0.0, 0.0, 0.0, 0.0, 0.0, 0.0, 0.0, 0.0, 0.0, 1.6989590777940545E9, 0.0, 2023-11-02 17:04:37.794
151.0, -107163.40478222427, 187500.0, 30141.953246826324, 25763.134749309393, 187500.0, 187500.0, -187500.02235174447, 29793.936585657193, -0.06, 0.972, -0.084, 192.0, 0.0, 0.0, 0.0, 0.0, 0.0, 0.0, 0.0, 0.0, 0.0, 1.6989590777940674E9, 0.0, 2023-11-02 17:04:37.794
152.0, -107018.05138803141, 187500.0, 30139.852182847524, 25766.62162144442, 187500.0, 187500.0, -187500.02235174447, 29799.435114793196, -0.06, 0.972, -0.084, 192.0, 0.0, 0.0, 0.0, 0.0, 0.0, 0.0, 0.0, 0.0, 0.0, 1.6989590777940826E9, 0.0, 2023-11-02 17:04:37.794
153.0, -106786.7555364079, 187500.0, 30135.046557789632, 25762.19597604227, 187500.0, 187500.0, -187500.02235174447, 29798.74221071508, -0.06, 0.972, -0.084, 192.0, 0.0, 0.0, 0.0, 0.0, 0.0, 0.0, 0.0, 0.0, 0.0, 1.6989590777941E9, 0.0, 2023-11-02 17:04:37.794
154.0, -106620.07857800467, 187500.0, 30139.58396191406, 25765.213461543735, 187500.0, 187500.0, -187500.02235174447, 29804.576016017916, -0.06, 0.972, -0.084, 192.0, 0.0, 0.0, 0.0, 0.0, 0.0, 0.0, 0.0, 0.0, 0.0, 1.6989590777941127E9, 0.0, 2023-11-02 17:04:37.794
155.0, -106516.90292559897, 187500.0, 30140.455679947816, 25771.427246502313, 187500.0, 187500.0, -187500.02235174447, 29806.967652674637, -0.06, 0.972, -0.084, 192.0, 0.0, 0.0, 0.0, 0.0, 0.0, 0.0, 0.0, 0.0, 0.0, 1.6989590777941368E9, 0.0, 2023-11-02 17:04:37.794
156.0, -106362.96646153528, 187500.0, 30140.835659603556, 25775.316450037535, 187500.0, 187500.0, -187500.02235174447, 29803.816056706437, -0.06, 0.972, -0.084, 192.0, 0.0, 0.0, 0.0, 0.0, 0.0, 0.0, 0.0, 0.0, 0.0, 1.698959077794152E9, 0.0, 2023-11-02 17:04:37.794
157.0, -106084.26255992205, 187500.0, 30129.30215946462, 25764.54290921008, 187500.0, 187500.0, -187500.02235174447, 29787.2310623206, -0.048, 0.9580000000000001, -0.09, 192.0, 254.0, 128.0, 29.0, 240.0, 253.0, 48.0, 0.0, 0.0, 0.0, 1.6989590777941685E9, 0.0, 2023-11-02 17:04:37.794
158.0, -105846.97644078452, 187500.0, 30122.842505317036, 25748.270839246612, 187500.0, 187500.0, -187500.02235174447, 29777.03866684898, -0.048, 0.9580000000000001, -0.09, 192.0, 0.0, 0.0, 0.0, 0.0, 0.0, 0.0, 0.0, 0.0, 0.0, 1.6989590777941868E9, 0.0, 2023-11-02 17:04:37.794
159.0, -105726.0087997924, 187500.0, 30127.24579897473, 25744.6275049004, 187500.0, 187500.0, -187500.02235174447, 29779.0279721055, -0.048, 0.9580000000000001, -0.09, 192.0, 0.0, 0.0, 0.0, 0.0, 0.0, 0.0, 0.0, 0.0, 0.0, 1.6989590777942047E9, 0.0, 2023-11-02 17:04:37.794
160.0, -105600.95078956494, 187500.0, 30127.536371652648, 25745.588629911977, 187500.0, 187500.0, -187500.02235174447, 29777.642163949273, -0.048, 0.9580000000000001, -0.09, 192.0, 0.0, 0.0, 0.0, 0.0, 0.0, 0.0, 0.0, 0.0, 0.0, 1.6989590777942195E9, 0.0, 2023-11-02 17:04:37.794
161.0, -105364.64814718344, 187500.0, 30119.713261093293, 25735.66445537382, 187500.0, 187500.0, -187500.02235174447, 29769.03674233398, -0.048, 0.9580000000000001, -0.09, 192.0, 0.0, 0.0, 0.0, 0.0, 0.0, 0.0, 0.0, 0.0, 0.0, 1.6989590777942343E9, 0.0, 2023-11-02 17:04:37.794
162.0, -105140.12487412988, 187500.0, 30122.127249494464, 25730.300036704546, 187500.0, 187500.0, -187500.02235174447, 29769.9755156011, -0.048, 0.9580000000000001, -0.09, 192.0, 0.0, 0.0, 0.0, 0.0, 0.0, 0.0, 0.0, 0.0, 0.0, 1.6989590777942493E9, 0.0, 2023-11-02 17:04:37.794
163.0, -105034.06584668945, 187500.0, 30127.268150719185, 25740.626542642898, 187500.0, 187500.0, -187500.02235174447, 29776.234004048587, -0.048, 0.9580000000000001, -0.09, 192.0, 0.0, 0.0, 0.0, 0.0, 0.0, 0.0, 0.0, 0.0, 0.0, 1.698959077794269E9, 0.0, 2023-11-02 17:04:37.794
164.0, -104904.78335675996, 187500.0, 30115.689947091338, 25740.961818809727, 187500.0, 187500.0, -187500.02235174447, 29763.381750986788, -0.048, 0.9580000000000001, -0.09, 192.0, 0.0, 0.0, 0.0, 0.0, 0.0, 0.0, 0.0, 0.0, 0.0, 1.6989590777942867E9, 0.0, 2023-11-02 17:04:37.794
165.0, -104679.07544125027, 187500.0, 30110.32552842206, 25736.983208296682, 187500.0, 187500.0, -187500.02235174447, 29754.441053204664, -0.048, 0.9580000000000001, -0.09, 192.0, 0.0, 0.0, 0.0, 0.0, 0.0, 0.0, 0.0, 0.0, 0.0, 1.6989590777943575E9, 0.0, 2023-11-02 17:04:37.794
166.0, -104484.95054065592, 187500.0, 30116.136981980442, 25736.446766429755, 187500.0, 187500.0, -187500.02235174447, 29758.151442784245, -0.048, 0.9580000000000001, -0.09, 192.0, 0.0, 0.0, 0.0, 0.0, 0.0, 0.0, 0.0, 0.0, 0.0, 1.6989590777943766E9, 0.0, 2023-11-02 17:04:37.794
167.0, -104386.15583016346, 187500.0, 30119.288577948642, 25734.56921989551, 187500.0, 187500.0, -187500.02235174447, 29760.967762585613, -0.038, 0.974, -0.098, 192.0, 254.0, 208.0, 30.0, 112.0, 252.0, 240.0, 0.0, 0.0, 0.0, 1.6989590777943964E9, 0.0, 2023-11-02 17:04:37.794
168.0, -104289.59629411653, 187500.0, 30113.566531368084, 25734.926847806793, 187500.0, 187500.0, -187500.02235174447, 29755.78215787198, -0.038, 0.974, -0.098, 192.0, 0.0, 0.0, 0.0, 0.0, 0.0, 0.0, 0.0, 0.0, 0.0, 1.6989590777944143E9, 0.0, 2023-11-02 17:04:37.794
169.0, -104083.55791372752, 187500.0, 30107.71037432079, 25733.988074539673, 187500.0, 187500.0, -187500.02235174447, 29747.444957190153, -0.038, 0.974, -0.098, 192.0, 0.0, 0.0, 0.0, 0.0, 0.0, 0.0, 0.0, 0.0, 0.0, 1.69895907779443E9, 0.0, 2023-11-02 17:04:37.794
170.0, -103874.41264085921, 187500.0, 30108.559740610093, 25732.311693705524, 187500.0, 187500.0, -187500.02235174447, 29743.958085055125, -0.038, 0.974, -0.098, 192.0, 0.0, 0.0, 0.0, 0.0, 0.0, 0.0, 0.0, 0.0, 0.0, 1.6989590777944455E9, 0.0, 2023-11-02 17:04:37.794
171.0, -103778.68011935713, 187500.0, 30112.605406356506, 25725.136783735372, 187500.0, 187500.0, -187500.02235174447, 29745.433300189175, -0.038, 0.974, -0.098, 192.0, 0.0, 0.0, 0.0, 0.0, 0.0, 0.0, 0.0, 0.0, 0.0, 1.698959077794458E9, 0.0, 2023-11-02 17:04:37.794
172.0, -103746.87358699723, 187500.0, 30119.690909348836, 25733.85396407294, 187500.0, 187500.0, -187500.02235174447, 29749.83659384687, -0.038, 0.974, -0.098, 192.0, 0.0, 0.0, 0.0, 0.0, 0.0, 0.0, 0.0, 0.0, 0.0, 1.6989590777944748E9, 0.0, 2023-11-02 17:04:37.794
173.0, -103599.57559103676, 187500.0, 30116.76283082519, 25735.70915886273, 187500.0, 187500.0, -187500.02235174447, 29743.779271099484, -0.038, 0.974, -0.098, 192.0, 0.0, 0.0, 0.0, 0.0, 0.0, 0.0, 0.0, 0.0, 0.0, 1.6989590777944877E9, 0.0, 2023-11-02 17:04:37.794
174.0, -103427.78008315327, 187500.0, 30117.835714559045, 25731.350568693946, 187500.0, 187500.0, -187500.02235174447, 29741.924076309693, -0.038, 0.974, -0.098, 192.0, 0.0, 0.0, 0.0, 0.0, 0.0, 0.0, 0.0, 0.0, 0.0, 1.6989590777945015E9, 0.0, 2023-11-02 17:04:37.794
175.0, -103375.9463877614, 187500.0, 30126.038804774144, 25735.642103629365, 187500.0, 187500.0, -187500.02235174447, 29748.40608220173, -0.038, 0.974, -0.098, 192.0, 0.0, 0.0, 0.0, 0.0, 0.0, 0.0, 0.0, 0.0, 0.0, 1.6989590777945185E9, 0.0, 2023-11-02 17:04:37.794
176.0, -103376.46047788388, 187500.0, 30133.079604277566, 25742.504089177142, 187500.0, 187500.0, -187500.02235174447, 29752.87643109279, -0.04, 0.99, -0.10200000000000001, 192.0, 254.0, 192.0, 30.0, 240.0, 252.0, 208.0, 0.0, 0.0, 0.0, 1.6989590777945504E9, 0.0, 2023-11-02 17:04:37.794
177.0, -103297.60352344556, 187500.0, 30133.504287422216, 25742.034702543584, 187500.0, 187500.0, -187500.02235174447, 29749.948352569147, -0.04, 0.99, -0.10200000000000001, 192.0, 0.0, 0.0, 0.0, 0.0, 0.0, 0.0, 0.0, 0.0, 0.0, 1.6989590777945704E9, 0.0, 2023-11-02 17:04:37.794
178.0, -103171.74085041773, 187500.0, 30138.667540391394, 25742.749958366152, 187500.0, 187500.0, -187500.02235174447, 29751.84825084785, -0.04, 0.99, -0.10200000000000001, 192.0, 0.0, 0.0, 0.0, 0.0, 0.0, 0.0, 0.0, 0.0, 0.0, 1.6989590777945867E9, 0.0, 2023-11-02 17:04:37.794
179.0, -103119.01308524766, 187500.0, 30139.852182847524, 25740.693597876263, 187500.0, 187500.0, -187500.02235174447, 29752.65291364824, -0.04, 0.99, -0.10200000000000001, 192.0, 0.0, 0.0, 0.0, 0.0, 0.0, 0.0, 0.0, 0.0, 0.0, 1.698959077794603E9, 0.0, 2023-11-02 17:04:37.794
180.0, -103141.36482970296, 187500.0, 30137.147621768432, 25738.704292619743, 187500.0, 187500.0, -187500.02235174447, 29750.976532814093, -0.04, 0.99, -0.10200000000000001, 192.0, 0.0, 0.0, 0.0, 0.0, 0.0, 0.0, 0.0, 0.0, 0.0, 1.698959077794624E9, 0.0, 2023-11-02 17:04:37.794
181.0, -103089.55348605556, 187500.0, 30129.369214697985, 25733.965722795216, 187500.0, 187500.0, -187500.02235174447, 29743.175773999188, -0.04, 0.99, -0.10200000000000001, 192.0, 0.0, 0.0, 0.0, 0.0, 0.0, 0.0, 0.0, 0.0, 0.0, 1.6989590777947326E9, 0.0, 2023-11-02 17:04:37.794
182.0, -102952.31377509997, 187500.0, 30123.53540939515, 25723.75097557914, 187500.0, 187500.0, -187500.02235174447, 29737.610189629817, -0.04, 0.99, -0.10200000000000001, 192.0, 0.0, 0.0, 0.0, 0.0, 0.0, 0.0, 0.0, 0.0, 0.0, 1.6989590777947533E9, 0.0, 2023-11-02 17:04:37.794
183.0, -102878.17303874172, 187500.0, 30124.92121755138, 25718.61007435442, 187500.0, 187500.0, -187500.02235174447, 29738.45955591912, -0.04, 0.99, -0.10200000000000001, 192.0, 0.0, 0.0, 0.0, 0.0, 0.0, 0.0, 0.0, 0.0, 0.0, 1.6989590777947943E9, 0.0, 2023-11-02 17:04:37.794
184.0, -102925.58108873143, 187500.0, 30132.856086833013, 25726.768461080606, 187500.0, 187500.0, -187500.02235174447, 29748.495489179553, -0.04, 0.99, -0.10200000000000001, 192.0, 0.0, 0.0, 0.0, 0.0, 0.0, 0.0, 0.0, 0.0, 0.0, 1.698959077794813E9, 0.0, 2023-11-02 17:04:37.794
185.0, -102914.27110603703, 187500.0, 30129.548028653626, 25734.70333036224, 187500.0, 187500.0, -187500.02235174447, 29749.36720721331, -0.04, 0.99, -0.10200000000000001, 192.0, 0.0, 0.0, 0.0, 0.0, 0.0, 0.0, 0.0, 0.0, 0.0, 1.6989590777948356E9, 0.0, 2023-11-02 17:04:37.794
186.0, -102806.8709739293, 187500.0, 30131.179705998864, 25733.80926058403, 187500.0, 187500.0, -187500.02235174447, 29751.825899103394, -0.05, 0.982, -0.114, 192.0, 254.0, 112.0, 30.0, 176.0, 252.0, 112.0, 0.0, 0.0, 0.0, 1.6989590777948673E9, 0.0, 2023-11-02 17:04:37.794
187.0, -102718.492176353, 187500.0, 30130.576208898572, 25730.680016360286, 187500.0, 187500.0, -187500.02235174447, 29752.228230503588, -0.05, 0.982, -0.114, 192.0, 0.0, 0.0, 0.0, 0.0, 0.0, 0.0, 0.0, 0.0, 0.0, 1.698959077794922E9, 0.0, 2023-11-02 17:04:37.794
188.0, -102725.35416190079, 187500.0, 30131.559685654604, 25731.596437882956, 187500.0, 187500.0, -187500.02235174447, 29755.826861360893, -0.05, 0.982, -0.114, 192.0, 0.0, 0.0, 0.0, 0.0, 0.0, 0.0, 0.0, 0.0, 0.0, 1.698959077794947E9, 0.0, 2023-11-02 17:04:37.794
189.0, -102738.00524926248, 187500.0, 30132.811383344102, 25739.24073448667, 187500.0, 187500.0, -187500.02235174447, 29757.302076494943, -0.05, 0.982, -0.114, 192.0, 0.0, 0.0, 0.0, 0.0, 0.0, 0.0, 0.0, 0.0, 0.0, 1.6989590777949677E9, 0.0, 2023-11-02 17:04:37.794
190.0, -102614.28834370237, 187500.0, 30125.234141973753, 25735.865621073917, 187500.0, 187500.0, -187500.02235174447, 29748.428433946185, -0.05, 0.982, -0.114, 192.0, 0.0, 0.0, 0.0, 0.0, 0.0, 0.0, 0.0, 0.0, 0.0, 1.6989590777949877E9, 0.0, 2023-11-02 17:04:37.794
191.0, -102502.82019410376, 187500.0, 30128.49749666423, 25733.29517046156, 187500.0, 187500.0, -187500.02235174447, 29752.183527014677, -0.05, 0.982, -0.114, 192.0, 0.0, 0.0, 0.0, 0.0, 0.0, 0.0, 0.0, 0.0, 0.0, 1.6989590777950065E9, 0.0, 2023-11-02 17:04:37.795
192.0, -102490.61614163115, 187500.0, 30132.364348454998, 25739.86658333142, 187500.0, 187500.0, -187500.02235174447, 29756.542117183464, -0.05, 0.982, -0.114, 192.0, 0.0, 0.0, 0.0, 0.0, 0.0, 0.0, 0.0, 0.0, 0.0, 1.6989590777950196E9, 0.0, 2023-11-02 17:04:37.795
193.0, -102494.68415912201, 187500.0, 30138.600485158026, 25751.020103814615, 187500.0, 187500.0, -187500.02235174447, 29765.102835309845, -0.05, 0.982, -0.114, 192.0, 0.0, 0.0, 0.0, 0.0, 0.0, 0.0, 0.0, 0.0, 0.0, 1.6989590777950337E9, 0.0, 2023-11-02 17:04:37.795
194.0, -102392.8719631281, 187500.0, 30138.935761324858, 25756.67509516181, 187500.0, 187500.0, -187500.02235174447, 29765.572221943406, -0.05, 0.982, -0.114, 192.0, 0.0, 0.0, 0.0, 0.0, 0.0, 0.0, 0.0, 0.0, 0.0, 1.698959077795049E9, 0.0, 2023-11-02 17:04:37.795
195.0, -102262.44953423137, 187500.0, 30137.974636313276, 25754.149348038358, 187500.0, 187500.0, -187500.02235174447, 29765.125187054302, -0.05, 0.982, -0.114, 192.0, 0.0, 0.0, 0.0, 0.0, 0.0, 0.0, 0.0, 0.0, 0.0, 1.698959077795071E9, 0.0, 2023-11-02 17:04:37.795
196.0, -102227.84903381456, 187500.0, 30140.232162503264, 25755.33399049449, 187500.0, 187500.0, -187500.02235174447, 29767.472120222108, -0.06, 0.98, -0.11800000000000001, 192.0, 254.0, 32.0, 30.0, 160.0, 252.0, 80.0, 0.0, 0.0, 0.0, 1.6989590777951999E9, 0.0, 2023-11-02 17:04:37.795
197.0, -102226.35146693606, 187500.0, 30136.20884850131, 25757.837385873485, 187500.0, 187500.0, -187500.02235174447, 29762.59943993085, -0.06, 0.98, -0.11800000000000001, 192.0, 0.0, 0.0, 0.0, 0.0, 0.0, 0.0, 0.0, 0.0, 0.0, 1.6989590777952554E9, 0.0, 2023-11-02 17:04:37.795
198.0, -102131.13303555644, 187500.0, 30134.934799067356, 25754.976362583206, 187500.0, 187500.0, -187500.02235174447, 29760.94541084116, -0.06, 0.98, -0.11800000000000001, 192.0, 0.0, 0.0, 0.0, 0.0, 0.0, 0.0, 0.0, 0.0, 0.0, 1.6989590777952745E9, 0.0, 2023-11-02 17:04:37.795
199.0, -102025.2304703272, 187500.0, 30145.06013930561, 25759.96080159674, 187500.0, 187500.0, -187500.02235174447, 29772.501262724552, -0.06, 0.98, -0.11800000000000001, 192.0, 0.0, 0.0, 0.0, 0.0, 0.0, 0.0, 0.0, 0.0, 0.0, 1.6989590777952924E9, 0.0, 2023-11-02 17:04:37.795
200.0, -102011.81942365401, 187500.0, 30153.91143010991, 25762.48654872019, 187500.0, 187500.0, -187500.02235174447, 29782.47014075162, -0.06, 0.98, -0.11800000000000001, 192.0, 0.0, 0.0, 0.0, 0.0, 0.0, 0.0, 0.0, 0.0, 0.0, 1.69895907779531E9, 0.0, 2023-11-02 17:04:37.795
201.0, -102044.67648800332, 187500.0, 30157.06302607811, 25767.493339478176, 187500.0, 187500.0, -187500.02235174447, 29786.13582684229, -0.06, 0.98, -0.11800000000000001, 192.0, 0.0, 0.0, 0.0, 0.0, 0.0, 0.0, 0.0, 0.0, 0.0, 1.6989590777953265E9, 0.0, 2023-11-02 17:04:37.795
202.0, -101987.18780126427, 187500.0, 30151.9668283423, 25769.01325810114, 187500.0, 187500.0, -187500.02235174447, 29782.201919818155, -0.06, 0.98, -0.11800000000000001, 192.0, 0.0, 0.0, 0.0, 0.0, 0.0, 0.0, 0.0, 0.0, 0.0, 1.6989590777953463E9, 0.0, 2023-11-02 17:04:37.795
203.0, -101852.58559615441, 187500.0, 30145.753043383724, 25767.739208667186, 187500.0, 187500.0, -187500.02235174447, 29778.200957560657, -0.06, 0.98, -0.11800000000000001, 192.0, 0.0, 0.0, 0.0, 0.0, 0.0, 0.0, 0.0, 0.0, 0.0, 1.6989590777953627E9, 0.0, 2023-11-02 17:04:37.795
204.0, -101793.66639777023, 187500.0, 30145.261305005708, 25762.710066164742, 187500.0, 187500.0, -187500.02235174447, 29777.910384882736, -0.06, 0.98, -0.11800000000000001, 192.0, 0.0, 0.0, 0.0, 0.0, 0.0, 0.0, 0.0, 0.0, 0.0, 1.6989590777953768E9, 0.0, 2023-11-02 17:04:37.795
205.0, -101834.74890407908, 187500.0, 30145.708339894813, 25762.799473142564, 187500.0, 187500.0, -187500.02235174447, 29778.536233727486, -0.06, 0.98, -0.11800000000000001, 192.0, 0.0, 0.0, 0.0, 0.0, 0.0, 0.0, 0.0, 0.0, 0.0, 1.6989590777953932E9, 0.0, 2023-11-02 17:04:37.795
206.0, -101820.3320289054, 187500.0, 30148.435252718362, 25767.180415055802, 187500.0, 187500.0, -187500.02235174447, 29779.65382095025, -0.07, 0.978, -0.122, 192.0, 253.0, 208.0, 30.0, 144.0, 252.0, 48.0, 0.0, 0.0, 0.0, 1.698959077795412E9, 0.0, 2023-11-02 17:04:37.795
207.0, -101721.98435330205, 187500.0, 30146.28948525065, 25765.90636562185, 187500.0, 187500.0, -187500.02235174447, 29775.965783115123, -0.07, 0.978, -0.122, 192.0, 0.0, 0.0, 0.0, 0.0, 0.0, 0.0, 0.0, 0.0, 0.0, 1.69895907779545E9, 0.0, 2023-11-02 17:04:37.795
208.0, -101665.5014950635, 187500.0, 30147.317665495597, 25759.893746363374, 187500.0, 187500.0, -187500.02235174447, 29776.0775418374, -0.07, 0.978, -0.122, 192.0, 0.0, 0.0, 0.0, 0.0, 0.0, 0.0, 0.0, 0.0, 0.0, 1.6989590777954657E9, 0.0, 2023-11-02 17:04:37.795
209.0, -101713.26717296448, 187500.0, 30151.25157251973, 25761.301906264056, 187500.0, 187500.0, -187500.02235174447, 29779.631469205797, -0.07, 0.978, -0.122, 192.0, 0.0, 0.0, 0.0, 0.0, 0.0, 0.0, 0.0, 0.0, 0.0, 1.6989590777954829E9, 0.0, 2023-11-02 17:04:37.795
210.0, -101732.78024587396, 187500.0, 30154.82785163258, 25770.086141834992, 187500.0, 187500.0, -187500.02235174447, 29785.308812297444, -0.07, 0.978, -0.122, 192.0, 0.0, 0.0, 0.0, 0.0, 0.0, 0.0, 0.0, 0.0, 0.0, 1.6989590777954977E9, 0.0, 2023-11-02 17:04:37.795
211.0, -101666.93200670862, 187500.0, 30159.87934587948, 25772.231909302704, 187500.0, 187500.0, -187500.02235174447, 29791.164969344733, -0.07, 0.978, -0.122, 192.0, 0.0, 0.0, 0.0, 0.0, 0.0, 0.0, 0.0, 0.0, 0.0, 1.6989590777955585E9, 0.0, 2023-11-02 17:04:37.795
212.0, -101637.71827670555, 187500.0, 30165.333171526574, 25774.82471165952, 187500.0, 187500.0, -187500.02235174447, 29796.95407115866, -0.07, 0.978, -0.122, 192.0, 0.0, 0.0, 0.0, 0.0, 0.0, 0.0, 0.0, 0.0, 0.0, 1.6989590777955723E9, 0.0, 2023-11-02 17:04:37.795
213.0, -101670.7541550105, 187500.0, 30158.180613300876, 25768.05213308956, 187500.0, 187500.0, -187500.02235174447, 29789.51094025504, -0.07, 0.978, -0.122, 192.0, 0.0, 0.0, 0.0, 0.0, 0.0, 0.0, 0.0, 0.0, 0.0, 1.6989590777955873E9, 0.0, 2023-11-02 17:04:37.795
214.0, -101718.07279802237, 187500.0, 30156.39247374445, 25767.023952844615, 187500.0, 187500.0, -187500.02235174447, 29785.018239619523, -0.07, 0.978, -0.122, 192.0, 0.0, 0.0, 0.0, 0.0, 0.0, 0.0, 0.0, 0.0, 0.0, 1.698959077795603E9, 0.0, 2023-11-02 17:04:37.795
215.0, -101686.93681799613, 187500.0, 30157.599467945038, 25765.39227549938, 187500.0, 187500.0, -187500.02235174447, 29782.783065173993, -0.07, 0.978, -0.122, 192.0, 0.0, 0.0, 0.0, 0.0, 0.0, 0.0, 0.0, 0.0, 0.0, 1.6989590777956185E9, 0.0, 2023-11-02 17:04:37.795
216.0, -101675.98446321303, 187500.0, 30160.013456346212, 25763.805301643053, 187500.0, 187500.0, -187500.02235174447, 29784.12416984131, -0.078, 0.98, -0.11800000000000001, 192.0, 253.0, 144.0, 30.0, 160.0, 252.0, 80.0, 0.0, 0.0, 0.0, 1.698959077795634E9, 0.0, 2023-11-02 17:04:37.795
217.0, -101745.81131289141, 187500.0, 30154.939610354857, 25760.34078125248, 187500.0, 187500.0, -187500.02235174447, 29778.759751172038, -0.078, 0.98, -0.11800000000000001, 192.0, 0.0, 0.0, 0.0, 0.0, 0.0, 0.0, 0.0, 0.0, 0.0, 1.6989590777956522E9, 0.0, 2023-11-02 17:04:37.795
218.0, -101846.46121817366, 187500.0, 30157.130081311476, 25765.39227549938, 187500.0, 187500.0, -187500.02235174447, 29782.425437262707, -0.078, 0.98, -0.11800000000000001, 192.0, 0.0, 0.0, 0.0, 0.0, 0.0, 0.0, 0.0, 0.0, 0.0, 1.6989590777956681E9, 0.0, 2023-11-02 17:04:37.795
219.0, -101853.47966593262, 187500.0, 30152.905601609422, 25763.939412109783, 187500.0, 187500.0, -187500.02235174447, 29779.542062227974, -0.078, 0.98, -0.11800000000000001, 192.0, 0.0, 0.0, 0.0, 0.0, 0.0, 0.0, 0.0, 0.0, 0.0, 1.6989590777956877E9, 0.0, 2023-11-02 17:04:37.795
220.0, -101826.34464816388, 187500.0, 30152.369159742495, 25759.96080159674, 187500.0, 187500.0, -187500.02235174447, 29780.36907677282, -0.078, 0.98, -0.11800000000000001, 192.0, 0.0, 0.0, 0.0, 0.0, 0.0, 0.0, 0.0, 0.0, 0.0, 1.6989590777957027E9, 0.0, 2023-11-02 17:04:37.795
221.0, -101901.46886127816, 187500.0, 30156.280715022174, 25756.228060272704, 187500.0, 187500.0, -187500.02235174447, 29785.018239619523, -0.078, 0.98, -0.11800000000000001, 192.0, 0.0, 0.0, 0.0, 0.0, 0.0, 0.0, 0.0, 0.0, 0.0, 1.698959077795718E9, 0.0, 2023-11-02 17:04:37.795
222.0, -102043.49184554719, 187500.0, 30162.762720914212, 25763.022990587117, 187500.0, 187500.0, -187500.02235174447, 29789.153312343755, -0.078, 0.98, -0.11800000000000001, 192.0, 0.0, 0.0, 0.0, 0.0, 0.0, 0.0, 0.0, 0.0, 0.0, 1.698959077795734E9, 0.0, 2023-11-02 17:04:37.795
223.0, -102077.75706979717, 187500.0, 30156.63834293346, 25766.19693829977, 187500.0, 187500.0, -187500.02235174447, 29783.408914018743, -0.078, 0.98, -0.11800000000000001, 192.0, 0.0, 0.0, 0.0, 0.0, 0.0, 0.0, 0.0, 0.0, 0.0, 1.6989590777957516E9, 0.0, 2023-11-02 17:04:37.795
224.0, -102041.90487169086, 187500.0, 30149.664598663403, 25757.367999239923, 187500.0, 187500.0, -187500.02235174447, 29776.56928021542, -0.078, 0.98, -0.11800000000000001, 192.0, 0.0, 0.0, 0.0, 0.0, 0.0, 0.0, 0.0, 0.0, 0.0, 1.6989590777957664E9, 0.0, 2023-11-02 17:04:37.795
225.0, -102097.40425317339, 187500.0, 30150.759834141714, 25753.63525791589, 187500.0, 187500.0, -187500.02235174447, 29776.79279765997, -0.078, 0.98, -0.11800000000000001, 192.0, 0.0, 0.0, 0.0, 0.0, 0.0, 0.0, 0.0, 0.0, 0.0, 1.6989590777957802E9, 0.0, 2023-11-02 17:04:37.795
226.0, -102234.39809493997, 187500.0, 30157.353598756028, 25762.084217319993, 187500.0, 187500.0, -187500.02235174447, 29782.157216329244, -0.078, 0.974, -0.114, 192.0, 253.0, 144.0, 30.0, 112.0, 252.0, 112.0, 0.0, 0.0, 0.0, 1.6989590777958703E9, 0.0, 2023-11-02 17:04:37.795
227.0, -102287.75170895478, 187500.0, 30156.995970844746, 25762.41949348682, 187500.0, 187500.0, -187500.02235174447, 29778.871509894314, -0.078, 0.974, -0.114, 192.0, 0.0, 0.0, 0.0, 0.0, 0.0, 0.0, 0.0, 0.0, 0.0, 1.698959077795894E9, 0.0, 2023-11-02 17:04:37.795
228.0, -102275.7935256712, 187500.0, 30159.700531923838, 25759.96080159674, 187500.0, 187500.0, -187500.02235174447, 29780.123207583812, -0.078, 0.974, -0.114, 192.0, 0.0, 0.0, 0.0, 0.0, 0.0, 0.0, 0.0, 0.0, 0.0, 1.6989590777959101E9, 0.0, 2023-11-02 17:04:37.795
229.0, -102343.2063869484, 187500.0, 30165.377875015485, 25761.771292897618, 187500.0, 187500.0, -187500.02235174447, 29785.957012886647, -0.078, 0.974, -0.114, 192.0, 0.0, 0.0, 0.0, 0.0, 0.0, 0.0, 0.0, 0.0, 0.0, 1.698959077795931E9, 0.0, 2023-11-02 17:04:37.795
230.0, -102475.05932749025, 187500.0, 30165.19906105984, 25764.073522576517, 187500.0, 187500.0, -187500.02235174447, 29787.543986742974, -0.078, 0.974, -0.114, 192.0, 0.0, 0.0, 0.0, 0.0, 0.0, 0.0, 0.0, 0.0, 0.0, 1.6989590777959487E9, 0.0, 2023-11-02 17:04:37.795
231.0, -102545.93670915804, 187500.0, 30160.34873251304, 25766.666324933332, 187500.0, 187500.0, -187500.02235174447, 29784.839425663882, -0.078, 0.974, -0.114, 192.0, 0.0, 0.0, 0.0, 0.0, 0.0, 0.0, 0.0, 0.0, 0.0, 1.698959077795967E9, 0.0, 2023-11-02 17:04:37.795
232.0, -102499.0427492908, 187500.0, 30149.910467852413, 25760.13961555238, 187500.0, 187500.0, -187500.02235174447, 29774.64703019226, -0.078, 0.974, -0.114, 192.0, 0.0, 0.0, 0.0, 0.0, 0.0, 0.0, 0.0, 0.0, 0.0, 1.698959077795988E9, 0.0, 2023-11-02 17:04:37.795
233.0, -102517.92997335554, 187500.0, 30152.54797369814, 25758.28442076259, 187500.0, 187500.0, -187500.02235174447, 29778.04449534947, -0.078, 0.974, -0.114, 192.0, 0.0, 0.0, 0.0, 0.0, 0.0, 0.0, 0.0, 0.0, 0.0, 1.6989590777960067E9, 0.0, 2023-11-02 17:04:37.796
234.0, -102641.66923066012, 187500.0, 30158.471185978793, 25765.593441199475, 187500.0, 187500.0, -187500.02235174447, 29785.1299983418, -0.078, 0.974, -0.114, 192.0, 0.0, 0.0, 0.0, 0.0, 0.0, 0.0, 0.0, 0.0, 0.0, 1.698959077796024E9, 0.0, 2023-11-02 17:04:37.796
235.0, -102753.47265642555, 187500.0, 30164.43910174836, 25778.222176816726, 187500.0, 187500.0, -187500.02235174447, 29792.99781239007, -0.078, 0.974, -0.114, 192.0, 0.0, 0.0, 0.0, 0.0, 0.0, 0.0, 0.0, 0.0, 0.0, 1.698959077796042E9, 0.0, 2023-11-02 17:04:37.796
236.0, -102729.15395845819, 187500.0, 30157.241840033752, 25773.260089547646, 187500.0, 187500.0, -187500.02235174447, 29786.873434409314, -0.076, 0.98, -0.108, 192.0, 253.0, 160.0, 30.0, 160.0, 252.0, 160.0, 0.0, 0.0, 0.0, 1.698959077796065E9, 0.0, 2023-11-02 17:04:37.796
237.0, -102724.23657467803, 187500.0, 30158.44883423434, 25765.548737710567, 187500.0, 187500.0, -187500.02235174447, 29786.292289053476, -0.076, 0.98, -0.108, 192.0, 0.0, 0.0, 0.0, 0.0, 0.0, 0.0, 0.0, 0.0, 0.0, 1.698959077796091E9, 0.0, 2023-11-02 17:04:37.796
238.0, -102817.17512812318, 187500.0, 30161.39926450244, 25767.24747028917, 187500.0, 187500.0, -187500.02235174447, 29787.83455942089, -0.076, 0.98, -0.108, 192.0, 0.0, 0.0, 0.0, 0.0, 0.0, 0.0, 0.0, 0.0, 0.0, 1.6989590777961197E9, 0.0, 2023-11-02 17:04:37.796
239.0, -102900.033044819, 187500.0, 30157.890040622955, 25766.688676677786, 187500.0, 187500.0, -187500.02235174447, 29784.37003903032, -0.076, 0.98, -0.108, 192.0, 0.0, 0.0, 0.0, 0.0, 0.0, 0.0, 0.0, 0.0, 0.0, 1.6989590777961423E9, 0.0, 2023-11-02 17:04:37.796
240.0, -102886.15261151227, 187500.0, 30155.431348732873, 25764.4311504878, 187500.0, 187500.0, -187500.02235174447, 29782.827768662904, -0.076, 0.98, -0.108, 192.0, 0.0, 0.0, 0.0, 0.0, 0.0, 0.0, 0.0, 0.0, 0.0, 1.698959077796178E9, 0.0, 2023-11-02 17:04:37.796
241.0, -102873.14389623927, 187500.0, 30159.454662734828, 25764.922888865818, 187500.0, 187500.0, -187500.02235174447, 29787.85691116535, -0.076, 0.98, -0.108, 192.0, 0.0, 0.0, 0.0, 0.0, 0.0, 0.0, 0.0, 0.0, 0.0, 1.6989590782717168E9, 0.0, 2023-11-02 17:04:38.271
242.0, -102953.87839721184, 187500.0, 30158.24766853424, 25764.587612698986, 187500.0, 187500.0, -187500.02235174447, 29789.37682978831, -0.076, 0.98, -0.108, 192.0, 0.0, 0.0, 0.0, 0.0, 0.0, 0.0, 0.0, 0.0, 0.0, 1.6989590782718048E9, 0.0, 2023-11-02 17:04:38.271
243.0, -103042.1230843214, 187500.0, 30156.884212122466, 25766.442807488776, 187500.0, 187500.0, -187500.02235174447, 29789.734457699593, -0.076, 0.98, -0.108, 192.0, 0.0, 0.0, 0.0, 0.0, 0.0, 0.0, 0.0, 0.0, 0.0, 1.698959078271818E9, 0.0, 2023-11-02 17:04:38.271
244.0, -103035.3728574959, 187500.0, 30160.12521506849, 25774.735304681697, 187500.0, 187500.0, -187500.02235174447, 29792.03668737849, -0.076, 0.98, -0.108, 192.0, 0.0, 0.0, 0.0, 0.0, 0.0, 0.0, 0.0, 0.0, 0.0, 1.69895907827183E9, 0.0, 2023-11-02 17:04:38.271
245.0, -102978.68883355723, 187500.0, 30159.611124946015, 25773.058923847548, 187500.0, 187500.0, -187500.02235174447, 29791.656707722752, -0.076, 0.98, -0.108, 192.0, 0.0, 0.0, 0.0, 0.0, 0.0, 0.0, 0.0, 0.0, 0.0, 1.6989590782718492E9, 0.0, 2023-11-02 17:04:38.271
246.0, -103043.28537503307, 187500.0, 30165.668447693402, 25775.137636081894, 187500.0, 187500.0, -187500.02235174447, 29796.50703626955, -0.08, 0.976, -0.1, 192.0, 253.0, 128.0, 30.0, 128.0, 252.0, 224.0, 0.0, 0.0, 0.0, 1.6989590782718613E9, 0.0, 2023-11-02 17:04:38.271
247.0, -103128.91490804135, 187500.0, 30163.9697151148, 25773.975345370218, 187500.0, 187500.0, -187500.02235174447, 29792.930757156704, -0.08, 0.976, -0.1, 192.0, 0.0, 0.0, 0.0, 0.0, 0.0, 0.0, 0.0, 0.0, 0.0, 1.698959078271878E9, 0.0, 2023-11-02 17:04:38.271
248.0, -103151.8477978525, 187500.0, 30162.382741258472, 25773.684772692297, 187500.0, 187500.0, -187500.02235174447, 29790.51676875553, -0.08, 0.976, -0.1, 192.0, 0.0, 0.0, 0.0, 0.0, 0.0, 0.0, 0.0, 0.0, 0.0, 1.69895907827189E9, 0.0, 2023-11-02 17:04:38.271
249.0, -103109.44653862079, 187500.0, 30166.003723860234, 25775.83054016001, 187500.0, 187500.0, -187500.02235174447, 29792.61783273433, -0.08, 0.976, -0.1, 192.0, 0.0, 0.0, 0.0, 0.0, 0.0, 0.0, 0.0, 0.0, 0.0, 1.6989590782719028E9, 0.0, 2023-11-02 17:04:38.271
250.0, -103123.10345448297, 187500.0, 30161.55572671363, 25771.270784291126, 187500.0, 187500.0, -187500.02235174447, 29789.600347232863, -0.08, 0.976, -0.1, 192.0, 0.0, 0.0, 0.0, 0.0, 0.0, 0.0, 0.0, 0.0, 0.0, 1.6989590782719147E9, 0.0, 2023-11-02 17:04:38.271
251.0, -103184.97308313526, 187500.0, 30152.43621497586, 25767.71685692273, 187500.0, 187500.0, -187500.02235174447, 29782.447789007165, -0.08, 0.976, -0.1, 192.0, 0.0, 0.0, 0.0, 0.0, 0.0, 0.0, 0.0, 0.0, 0.0, 1.6989590782719274E9, 0.0, 2023-11-02 17:04:38.271
252.0, -103194.65138848442, 187500.0, 30156.63834293346, 25774.109455836948, 187500.0, 187500.0, -187500.02235174447, 29788.192187332177, -0.08, 0.976, -0.1, 192.0, 0.0, 0.0, 0.0, 0.0, 0.0, 0.0, 0.0, 0.0, 0.0, 1.6989590782719393E9, 0.0, 2023-11-02 17:04:38.271
253.0, -103138.36969594595, 187500.0, 30160.616953446504, 25782.5360634966, 187500.0, 187500.0, -187500.02235174447, 29794.04834437947, -0.08, 0.976, -0.1, 192.0, 0.0, 0.0, 0.0, 0.0, 0.0, 0.0, 0.0, 0.0, 0.0, 1.6989590782719522E9, 0.0, 2023-11-02 17:04:38.271
254.0, -103119.08014048102, 187500.0, 30160.05815983512, 25784.48066526421, 187500.0, 187500.0, -187500.02235174447, 29795.90353916926, -0.08, 0.976, -0.1, 192.0, 0.0, 0.0, 0.0, 0.0, 0.0, 0.0, 0.0, 0.0, 0.0, 1.6989590782719653E9, 0.0, 2023-11-02 17:04:38.271
255.0, -103192.77384195017, 187500.0, 30161.242802291254, 25787.52050251013, 187500.0, 187500.0, -187500.02235174447, 29797.69167872568, -0.08, 0.976, -0.1, 192.0, 0.0, 0.0, 0.0, 0.0, 0.0, 0.0, 0.0, 0.0, 0.0, 1.6989590782719855E9, 0.0, 2023-11-02 17:04:38.271
0.0, -103248.85436878852, 187500.0, 30165.981372115777, 25795.500075280677, 187500.0, 187500.0, -187500.02235174447, 29801.871454938824, -0.064, 0.978, -0.1, 192.0, 254.0, 0.0, 30.0, 144.0, 252.0, 224.0, 0.0, 0.0, 0.0, 1.698959078272146E9, 0.0, 2023-11-02 17:04:38.272
1.0, -103190.65042622692, 187500.0, 30159.342904012552, 25791.29794732308, 187500.0, 187500.0, -187500.02235174447, 29793.489550768085, -0.064, 0.978, -0.1, 192.0, 0.0, 0.0, 0.0, 0.0, 0.0, 0.0, 0.0, 0.0, 0.0, 1.6989590782721698E9, 0.0, 2023-11-02 17:04:38.272
2.0, -103154.23943450922, 187500.0, 30157.77828190068, 25786.805246687563, 187500.0, 187500.0, -187500.02235174447, 29790.717934455628, -0.064, 0.978, -0.1, 192.0, 0.0, 0.0, 0.0, 0.0, 0.0, 0.0, 0.0, 0.0, 0.0, 1.6989590782721832E9, 0.0, 2023-11-02 17:04:38.272
3.0, -103219.97591495227, 187500.0, 30157.711226667314, 25781.172607084824, 187500.0, 187500.0, -187500.02235174447, 29792.23785307859, -0.064, 0.978, -0.1, 192.0, 0.0, 0.0, 0.0, 0.0, 0.0, 0.0, 0.0, 0.0, 0.0, 1.6989590782721963E9, 0.0, 2023-11-02 17:04:38.272
4.0, -103284.21482851682, 187500.0, 30158.135909811965, 25785.86647342044, 187500.0, 187500.0, -187500.02235174447, 29794.763600202037, -0.064, 0.978, -0.1, 192.0, 0.0, 0.0, 0.0, 0.0, 0.0, 0.0, 0.0, 0.0, 0.0, 1.698959078272208E9, 0.0, 2023-11-02 17:04:38.272
5.0, -103231.30824939112, 187500.0, 30152.145642297943, 25781.19495882928, 187500.0, 187500.0, -187500.02235174447, 29788.102780354355, -0.064, 0.978, -0.1, 192.0, 0.0, 0.0, 0.0, 0.0, 0.0, 0.0, 0.0, 0.0, 0.0, 1.698959078272233E9, 0.0, 2023-11-02 17:04:38.272
6.0, -103170.48915272823, 187500.0, 30150.58102018607, 25773.14833082537, 187500.0, 187500.0, -187500.02235174447, 29785.957012886647, -0.064, 0.978, -0.1, 192.0, 0.0, 0.0, 0.0, 0.0, 0.0, 0.0, 0.0, 0.0, 0.0, 1.6989590782722435E9, 0.0, 2023-11-02 17:04:38.272
7.0, -103221.5628888086, 187500.0, 30154.067892321098, 25776.836368660497, 187500.0, 187500.0, -187500.02235174447, 29790.673230966717, -0.064, 0.978, -0.1, 192.0, 0.0, 0.0, 0.0, 0.0, 0.0, 0.0, 0.0, 0.0, 0.0, 1.6989590782722542E9, 0.0, 2023-11-02 17:04:38.272
8.0, -103270.8261335881, 187500.0, 30150.960999841813, 25781.262014062646, 187500.0, 187500.0, -187500.02235174447, 29789.175664088212, -0.064, 0.978, -0.1, 192.0, 0.0, 0.0, 0.0, 0.0, 0.0, 0.0, 0.0, 0.0, 0.0, 1.6989590782722642E9, 0.0, 2023-11-02 17:04:38.272
9.0, -103196.93126641885, 187500.0, 30142.78026137117, 25775.472912248722, 187500.0, 187500.0, -187500.02235174447, 29781.03962910648, -0.064, 0.978, -0.1, 192.0, 0.0, 0.0, 0.0, 0.0, 0.0, 0.0, 0.0, 0.0, 0.0, 1.6989590782722745E9, 0.0, 2023-11-02 17:04:38.272
10.0, -103118.54369861408, 187500.0, 30144.188421271854, 25777.953955883262, 187500.0, 187500.0, -187500.02235174447, 29781.821940162416, -0.052000000000000005, 0.976, -0.098, 192.0, 254.0, 96.0, 30.0, 128.0, 252.0, 240.0, 0.0, 0.0, 0.0, 1.698959078272284E9, 0.0, 2023-11-02 17:04:38.272
11.0, -103172.54551321811, 187500.0, 30154.045540576644, 25780.77027568463, 187500.0, 187500.0, -187500.02235174447, 29790.717934455628, -0.052000000000000005, 0.976, -0.098, 192.0, 0.0, 0.0, 0.0, 0.0, 0.0, 0.0, 0.0, 0.0, 0.0, 1.6989590782722957E9, 0.0, 2023-11-02 17:04:38.272
12.0, -103255.82811305858, 187500.0, 30157.554764456127, 25782.37960128541, 187500.0, 187500.0, -187500.02235174447, 29791.52259725602, -0.052000000000000005, 0.976, -0.098, 192.0, 0.0, 0.0, 0.0, 0.0, 0.0, 0.0, 0.0, 0.0, 0.0, 1.6989590782723053E9, 0.0, 2023-11-02 17:04:38.272
13.0, -103194.15965010639, 187500.0, 30146.58005792857, 25774.891766892884, 187500.0, 187500.0, -187500.02235174447, 29780.74905642856, -0.052000000000000005, 0.976, -0.098, 192.0, 0.0, 0.0, 0.0, 0.0, 0.0, 0.0, 0.0, 0.0, 0.0, 1.6989590782723148E9, 0.0, 2023-11-02 17:04:38.272
14.0, -103090.7828320006, 187500.0, 30143.361406727006, 25761.279554519602, 187500.0, 187500.0, -187500.02235174447, 29775.161120314733, -0.052000000000000005, 0.976, -0.098, 192.0, 0.0, 0.0, 0.0, 0.0, 0.0, 0.0, 0.0, 0.0, 0.0, 1.6989590782723248E9, 0.0, 2023-11-02 17:04:38.272
15.0, -103108.083082209, 187500.0, 30153.73261615427, 25763.91706036533, 187500.0, 187500.0, -187500.02235174447, 29781.598422717863, -0.052000000000000005, 0.976, -0.098, 192.0, 0.0, 0.0, 0.0, 0.0, 0.0, 0.0, 0.0, 0.0, 0.0, 1.698959078272346E9, 0.0, 2023-11-02 17:04:38.272
16.0, -103170.17622830585, 187500.0, 30155.63251443297, 25774.310621537046, 187500.0, 187500.0, -187500.02235174447, 29785.62173671982, -0.052000000000000005, 0.976, -0.098, 192.0, 0.0, 0.0, 0.0, 0.0, 0.0, 0.0, 0.0, 0.0, 0.0, 1.698959078272356E9, 0.0, 2023-11-02 17:04:38.272
17.0, -103138.68262036833, 187500.0, 30151.58684868656, 25775.20469131526, 187500.0, 187500.0, -187500.02235174447, 29781.75488492905, -0.052000000000000005, 0.976, -0.098, 192.0, 0.0, 0.0, 0.0, 0.0, 0.0, 0.0, 0.0, 0.0, 0.0, 1.6989590782723656E9, 0.0, 2023-11-02 17:04:38.272
18.0, -103067.00057590015, 187500.0, 30156.370121999997, 25774.221214559224, 187500.0, 187500.0, -187500.02235174447, 29785.286460552987, -0.052000000000000005, 0.976, -0.098, 192.0, 0.0, 0.0, 0.0, 0.0, 0.0, 0.0, 0.0, 0.0, 0.0, 1.698959078272375E9, 0.0, 2023-11-02 17:04:38.272
19.0, -103069.5263230236, 187500.0, 30164.43910174836, 25780.72557219572, 187500.0, 187500.0, -187500.02235174447, 29795.83648393589, -0.052000000000000005, 0.976, -0.098, 192.0, 0.0, 0.0, 0.0, 0.0, 0.0, 0.0, 0.0, 0.0, 0.0, 1.698959078272385E9, 0.0, 2023-11-02 17:04:38.272
20.0, -103136.8944808119, 187500.0, 30165.713151182314, 25789.755676955665, 187500.0, 187500.0, -187500.02235174447, 29801.513827027542, -0.064, 0.982, -0.10400000000000001, 192.0, 254.0, 0.0, 30.0, 176.0, 252.0, 192.0, 0.0, 0.0, 0.0, 1.6989590782723947E9, 0.0, 2023-11-02 17:04:38.272
21.0, -103152.33953623052, 187500.0, 30166.182537815876, 25797.467028792744, 187500.0, 187500.0, -187500.02235174447, 29802.989042161593, -0.064, 0.982, -0.10400000000000001, 192.0, 0.0, 0.0, 0.0, 0.0, 0.0, 0.0, 0.0, 0.0, 0.0, 1.698959078272405E9, 0.0, 2023-11-02 17:04:38.272
22.0, -103095.81197450304, 187500.0, 30161.756892413723, 25790.62739498942, 187500.0, 187500.0, -187500.02235174447, 29795.724725213615, -0.064, 0.982, -0.10400000000000001, 192.0, 0.0, 0.0, 0.0, 0.0, 0.0, 0.0, 0.0, 0.0, 0.0, 1.6989590782724144E9, 0.0, 2023-11-02 17:04:38.272
23.0, -103115.23564043471, 187500.0, 30163.366218014507, 25785.508845509154, 187500.0, 187500.0, -187500.02235174447, 29796.641146736285, -0.064, 0.982, -0.10400000000000001, 192.0, 0.0, 0.0, 0.0, 0.0, 0.0, 0.0, 0.0, 0.0, 0.0, 1.6989590782724245E9, 0.0, 2023-11-02 17:04:38.272
24.0, -103214.54444104964, 187500.0, 30162.96388661431, 25784.882996664408, 187500.0, 187500.0, -187500.02235174447, 29797.915196170237, -0.064, 0.982, -0.10400000000000001, 192.0, 0.0, 0.0, 0.0, 0.0, 0.0, 0.0, 0.0, 0.0, 0.0, 1.698959078272434E9, 0.0, 2023-11-02 17:04:38.272
25.0, -103297.17884030091, 187500.0, 30168.06008435012, 25797.176456114827, 187500.0, 187500.0, -187500.02235174447, 29807.504094541564, -0.064, 0.982, -0.10400000000000001, 192.0, 0.0, 0.0, 0.0, 0.0, 0.0, 0.0, 0.0, 0.0, 0.0, 1.698959078272444E9, 0.0, 2023-11-02 17:04:38.272
26.0, -103261.86308406152, 187500.0, 30164.8190814041, 25799.85866544946, 187500.0, 187500.0, -187500.02235174447, 29804.844236951383, -0.064, 0.982, -0.10400000000000001, 192.0, 0.0, 0.0, 0.0, 0.0, 0.0, 0.0, 0.0, 0.0, 0.0, 1.6989590782724535E9, 0.0, 2023-11-02 17:04:38.272
27.0, -103255.8728165475, 187500.0, 30163.477976736784, 25795.72359272523, 187500.0, 187500.0, -187500.02235174447, 29803.45842879515, -0.064, 0.982, -0.10400000000000001, 192.0, 0.0, 0.0, 0.0, 0.0, 0.0, 0.0, 0.0, 0.0, 0.0, 1.6989590782724693E9, 0.0, 2023-11-02 17:04:38.272
28.0, -103354.35460261758, 187500.0, 30167.098959338542, 25799.657499749363, 187500.0, 187500.0, -187500.02235174447, 29810.43217306521, -0.064, 0.982, -0.10400000000000001, 192.0, 0.0, 0.0, 0.0, 0.0, 0.0, 0.0, 0.0, 0.0, 0.0, 1.6989590782724793E9, 0.0, 2023-11-02 17:04:38.272
29.0, -103431.37871401057, 187500.0, 30167.121311083, 25800.618624760944, 187500.0, 187500.0, -187500.02235174447, 29812.37677483282, -0.064, 0.982, -0.10400000000000001, 192.0, 0.0, 0.0, 0.0, 0.0, 0.0, 0.0, 0.0, 0.0, 0.0, 1.6989590782724893E9, 0.0, 2023-11-02 17:04:38.272
30.0, -103424.06969357368, 187500.0, 30170.63053496248, 25807.033575419617, 187500.0, 187500.0, -187500.02235174447, 29817.025937679522, -0.056, 0.988, -0.11, 192.0, 254.0, 64.0, 30.0, 224.0, 252.0, 144.0, 0.0, 0.0, 0.0, 1.698959078272499E9, 0.0, 2023-11-02 17:04:38.272
31.0, -103416.82772837016, 187500.0, 30171.34579078505, 25804.753697485176, 187500.0, 187500.0, -187500.02235174447, 29815.461315567652, -0.056, 0.988, -0.11, 192.0, 0.0, 0.0, 0.0, 0.0, 0.0, 0.0, 0.0, 0.0, 0.0, 1.69895907827252E9, 0.0, 2023-11-02 17:04:38.272
32.0, -103500.35619739964, 187500.0, 30167.434235505374, 25798.025822404128, 187500.0, 187500.0, -187500.02235174447, 29810.43217306521, -0.056, 0.988, -0.11, 192.0, 0.0, 0.0, 0.0, 0.0, 0.0, 0.0, 0.0, 0.0, 0.0, 1.6989590782725298E9, 0.0, 2023-11-02 17:04:38.272
33.0, -103597.74274799142, 187500.0, 30169.669409950904, 25800.797438716585, 187500.0, 187500.0, -187500.02235174447, 29813.42730682222, -0.056, 0.988, -0.11, 192.0, 0.0, 0.0, 0.0, 0.0, 0.0, 0.0, 0.0, 0.0, 0.0, 1.6989590782725396E9, 0.0, 2023-11-02 17:04:38.272
34.0, -103595.1052421457, 187500.0, 30168.037732605666, 25799.970424171737, 187500.0, 187500.0, -187500.02235174447, 29810.09689689838, -0.056, 0.988, -0.11, 192.0, 0.0, 0.0, 0.0, 0.0, 0.0, 0.0, 0.0, 0.0, 0.0, 1.6989590782725494E9, 0.0, 2023-11-02 17:04:38.272
35.0, -103566.4950092429, 187500.0, 30164.68497093737, 25790.135656611405, 187500.0, 187500.0, -187500.02235174447, 29802.542007272485, -0.056, 0.988, -0.11, 192.0, 0.0, 0.0, 0.0, 0.0, 0.0, 0.0, 0.0, 0.0, 0.0, 1.6989590782725592E9, 0.0, 2023-11-02 17:04:38.272
36.0, -103640.27811768987, 187500.0, 30170.45172100684, 25794.09191537999, 187500.0, 187500.0, -187500.02235174447, 29808.152295130767, -0.056, 0.988, -0.11, 192.0, 0.0, 0.0, 0.0, 0.0, 0.0, 0.0, 0.0, 0.0, 0.0, 1.6989590782725692E9, 0.0, 2023-11-02 17:04:38.272
37.0, -103745.19720616308, 187500.0, 30169.334133784072, 25800.30570033857, 187500.0, 187500.0, -187500.02235174447, 29810.543931787484, -0.056, 0.988, -0.11, 192.0, 0.0, 0.0, 0.0, 0.0, 0.0, 0.0, 0.0, 0.0, 0.0, 1.6989590782725792E9, 0.0, 2023-11-02 17:04:38.272
38.0, -103749.7346102875, 187500.0, 30160.30402902413, 25796.997642159182, 187500.0, 187500.0, -187500.02235174447, 29804.46425729564, -0.056, 0.988, -0.11, 192.0, 0.0, 0.0, 0.0, 0.0, 0.0, 0.0, 0.0, 0.0, 0.0, 1.6989590782725887E9, 0.0, 2023-11-02 17:04:38.272
39.0, -103709.05443537884, 187500.0, 30153.44204347635, 25788.883958921906, 187500.0, 187500.0, -187500.02235174447, 29798.921024670726, -0.06, 0.982, -0.10400000000000001, 192.0, 254.0, 32.0, 30.0, 176.0, 252.0, 192.0, 0.0, 0.0, 0.0, 1.6989590782725987E9, 0.0, 2023-11-02 17:04:38.272
40.0, -103762.63156683822, 187500.0, 30151.229220775276, 25785.128865853414, 187500.0, 187500.0, -187500.02235174447, 29800.99973690507, -0.06, 0.982, -0.10400000000000001, 192.0, 0.0, 0.0, 0.0, 0.0, 0.0, 0.0, 0.0, 0.0, 0.0, 1.6989590782726104E9, 0.0, 2023-11-02 17:04:38.272
41.0, -103888.36012939933, 187500.0, 30152.34680799804, 25793.980156657715, 187500.0, 187500.0, -187500.02235174447, 29806.051231151967, -0.06, 0.982, -0.10400000000000001, 192.0, 0.0, 0.0, 0.0, 0.0, 0.0, 0.0, 0.0, 0.0, 0.0, 1.698959078272621E9, 0.0, 2023-11-02 17:04:38.272
42.0, -103915.00340879004, 187500.0, 30153.30793300962, 25804.329014340525, 187500.0, 187500.0, -187500.02235174447, 29809.359289331354, -0.06, 0.982, -0.10400000000000001, 192.0, 0.0, 0.0, 0.0, 0.0, 0.0, 0.0, 0.0, 0.0, 0.0, 1.6989590782726312E9, 0.0, 2023-11-02 17:04:38.272
43.0, -103862.1191814088, 187500.0, 30151.340979497552, 25805.178380629826, 187500.0, 187500.0, -187500.02235174447, 29807.928777686215, -0.06, 0.982, -0.10400000000000001, 192.0, 0.0, 0.0, 0.0, 0.0, 0.0, 0.0, 0.0, 0.0, 0.0, 1.6989590782726429E9, 0.0, 2023-11-02 17:04:38.272
44.0, -103890.72941431159, 187500.0, 30153.799671387635, 25800.596273016487, 187500.0, 187500.0, -187500.02235174447, 29807.705260241662, -0.06, 0.982, -0.10400000000000001, 192.0, 0.0, 0.0, 0.0, 0.0, 0.0, 0.0, 0.0, 0.0, 0.0, 1.6989590782726552E9, 0.0, 2023-11-02 17:04:38.272
45.0, -103989.41236608177, 187500.0, 30148.502307951727, 25792.996679901684, 187500.0, 187500.0, -187500.02235174447, 29801.156199116256, -0.06, 0.982, -0.10400000000000001, 192.0, 0.0, 0.0, 0.0, 0.0, 0.0, 0.0, 0.0, 0.0, 0.0, 1.6989590782726693E9, 0.0, 2023-11-02 17:04:38.272
46.0, -104017.88848851783, 187500.0, 30140.612142159003, 25785.82176993153, 187500.0, 187500.0, -187500.02235174447, 29794.383620546298, -0.06, 0.982, -0.10400000000000001, 192.0, 0.0, 0.0, 0.0, 0.0, 0.0, 0.0, 0.0, 0.0, 0.0, 1.698959078272704E9, 0.0, 2023-11-02 17:04:38.272
47.0, -103959.6845459562, 187500.0, 30132.811383344102, 25781.463179762744, 187500.0, 187500.0, -187500.02235174447, 29789.198015832666, -0.06, 0.982, -0.10400000000000001, 192.0, 0.0, 0.0, 0.0, 0.0, 0.0, 0.0, 0.0, 0.0, 0.0, 1.6989590782727168E9, 0.0, 2023-11-02 17:04:38.272
48.0, -103942.80897889246, 187500.0, 30130.464450176296, 25778.378639027913, 187500.0, 187500.0, -187500.02235174447, 29789.80151293296, -0.06, 0.982, -0.10400000000000001, 192.0, 0.0, 0.0, 0.0, 0.0, 0.0, 0.0, 0.0, 0.0, 0.0, 1.6989590782727356E9, 0.0, 2023-11-02 17:04:38.272
49.0, -104021.26360193058, 187500.0, 30130.66561587639, 25778.333935539, 187500.0, 187500.0, -187500.02235174447, 29793.310736812444, -0.044, 0.964, -0.098, 192.0, 254.0, 160.0, 30.0, 32.0, 252.0, 240.0, 0.0, 0.0, 0.0, 1.698959078272746E9, 0.0, 2023-11-02 17:04:38.272
50.0, -104078.05938459151, 187500.0, 30129.50332516472, 25785.73236295371, 187500.0, 187500.0, -187500.02235174447, 29796.52938801401, -0.044, 0.964, -0.098, 192.0, 0.0, 0.0, 0.0, 0.0, 0.0, 0.0, 0.0, 0.0, 0.0, 1.6989590782727573E9, 0.0, 2023-11-02 17:04:38.272
51.0, -104033.98174452565, 187500.0, 30128.944531553334, 25791.72263046773, 187500.0, 187500.0, -187500.02235174447, 29800.19507410468, -0.044, 0.964, -0.098, 192.0, 0.0, 0.0, 0.0, 0.0, 0.0, 0.0, 0.0, 0.0, 0.0, 1.6989590782727673E9, 0.0, 2023-11-02 17:04:38.272
52.0, -103994.4415085842, 187500.0, 30127.9610547973, 25791.275595578623, 187500.0, 187500.0, -187500.02235174447, 29800.776219460517, -0.044, 0.964, -0.098, 192.0, 0.0, 0.0, 0.0, 0.0, 0.0, 0.0, 0.0, 0.0, 0.0, 1.6989590782727776E9, 0.0, 2023-11-02 17:04:38.272
53.0, -104064.60363442941, 187500.0, 30131.49263042124, 25794.941281669293, 187500.0, 187500.0, -187500.02235174447, 29806.453562552164, -0.044, 0.964, -0.098, 192.0, 0.0, 0.0, 0.0, 0.0, 0.0, 0.0, 0.0, 0.0, 0.0, 1.6989590782727876E9, 0.0, 2023-11-02 17:04:38.272
54.0, -104090.68812020877, 187500.0, 30123.58011288406, 25796.14827586988, 187500.0, 187500.0, -187500.02235174447, 29801.692640983183, -0.044, 0.964, -0.098, 192.0, 0.0, 0.0, 0.0, 0.0, 0.0, 0.0, 0.0, 0.0, 0.0, 1.6989590782727973E9, 0.0, 2023-11-02 17:04:38.272
55.0, -104031.7018665912, 187500.0, 30123.803630328614, 25797.37762181492, 187500.0, 187500.0, -187500.02235174447, 29802.09497238338, -0.044, 0.964, -0.098, 192.0, 0.0, 0.0, 0.0, 0.0, 0.0, 0.0, 0.0, 0.0, 0.0, 1.6989590782728076E9, 0.0, 2023-11-02 17:04:38.272
56.0, -104008.18783142422, 187500.0, 30125.77058384068, 25796.215331103245, 187500.0, 187500.0, -187500.02235174447, 29801.871454938824, -0.044, 0.964, -0.098, 192.0, 0.0, 0.0, 0.0, 0.0, 0.0, 0.0, 0.0, 0.0, 0.0, 1.6989590782728183E9, 0.0, 2023-11-02 17:04:38.272
57.0, -104068.62694843137, 187500.0, 30123.982444284255, 25792.370831056935, 187500.0, 187500.0, -187500.02235174447, 29799.770390960028, -0.044, 0.964, -0.098, 192.0, 0.0, 0.0, 0.0, 0.0, 0.0, 0.0, 0.0, 0.0, 0.0, 1.6989590782728295E9, 0.0, 2023-11-02 17:04:38.272
58.0, -104133.2234899072, 187500.0, 30123.624816372972, 25789.085124622005, 187500.0, 187500.0, -187500.02235174447, 29799.636280493294, -0.044, 0.964, -0.098, 192.0, 0.0, 0.0, 0.0, 0.0, 0.0, 0.0, 0.0, 0.0, 0.0, 1.698959078272842E9, 0.0, 2023-11-02 17:04:38.272
59.0, -104124.68512352528, 187500.0, 30123.53540939515, 25784.145389097383, 187500.0, 187500.0, -187500.02235174447, 29796.41762929173, -0.046, 0.98, -0.098, 192.0, 254.0, 144.0, 30.0, 160.0, 252.0, 240.0, 0.0, 0.0, 0.0, 1.6989590782728531E9, 0.0, 2023-11-02 17:04:38.272
60.0, -104095.87372492239, 187500.0, 30121.0096622717, 25777.6857349498, 187500.0, 187500.0, -187500.02235174447, 29791.880225167304, -0.046, 0.98, -0.098, 192.0, 0.0, 0.0, 0.0, 0.0, 0.0, 0.0, 0.0, 0.0, 0.0, 1.6989590782728643E9, 0.0, 2023-11-02 17:04:38.272
61.0, -104157.8327605525, 187500.0, 30124.362423939994, 25772.09779883597, 187500.0, 187500.0, -187500.02235174447, 29792.886053667793, -0.046, 0.98, -0.098, 192.0, 0.0, 0.0, 0.0, 0.0, 0.0, 0.0, 0.0, 0.0, 0.0, 1.6989590782728865E9, 0.0, 2023-11-02 17:04:38.272
62.0, -104269.97146248478, 187500.0, 30130.9114850654, 25778.088066349992, 187500.0, 187500.0, -187500.02235174447, 29798.89867292627, -0.046, 0.98, -0.098, 192.0, 0.0, 0.0, 0.0, 0.0, 0.0, 0.0, 0.0, 0.0, 0.0, 1.6989590782728968E9, 0.0, 2023-11-02 17:04:38.272
63.0, -104299.9675035438, 187500.0, 30131.760851354702, 25779.406819272856, 187500.0, 187500.0, -187500.02235174447, 29798.630451992805, -0.046, 0.98, -0.098, 192.0, 0.0, 0.0, 0.0, 0.0, 0.0, 0.0, 0.0, 0.0, 0.0, 1.6989590782729073E9, 0.0, 2023-11-02 17:04:38.272
64.0, -104313.2220880058, 187500.0, 30133.750156611226, 25773.751827925662, 187500.0, 187500.0, -187500.02235174447, 29799.032783393002, -0.046, 0.98, -0.098, 192.0, 0.0, 0.0, 0.0, 0.0, 0.0, 0.0, 0.0, 0.0, 0.0, 1.6989590782729173E9, 0.0, 2023-11-02 17:04:38.272
65.0, -104413.76023456577, 187500.0, 30136.097089779032, 25766.5322144666, 187500.0, 187500.0, -187500.02235174447, 29800.284481082497, -0.046, 0.98, -0.098, 192.0, 0.0, 0.0, 0.0, 0.0, 0.0, 0.0, 0.0, 0.0, 0.0, 1.698959078272927E9, 0.0, 2023-11-02 17:04:38.272
