%OpenBCI Raw EEG Data
%Number of channels = 8
%Sample Rate = 250 Hz
%Board = OpenBCI_GUI$BoardCytonSerial
Sample Index, EXG Channel 0, EXG Channel 1, EXG Channel 2, EXG Channel 3, EXG Channel 4, EXG Channel 5, EXG Channel 6, EXG Channel 7, Accel Channel 0, Accel Channel 1, Accel Channel 2, Other, Other, Other, Other, Other, Other, Other, Analog Channel 0, Analog Channel 1, Analog Channel 2, Timestamp, Other, Timestamp (Formatted)
36.0, -187500.02235174447, 187500.0, 31157.21418347528, 29196.07212496664, 187500.0, 187500.0, -187500.02235174447, 30386.302517211738, 0.0, 0.0, 0.0, 192.0, 0.0, 0.0, 0.0, 0.0, 0.0, 0.0, 0.0, 0.0, 0.0, 1.6989590505256689E9, 0.0, 2023-11-02 17:04:10.525
37.0, -187500.02235174447, 187500.0, 31151.983875272737, 29190.663002808455, 187500.0, 187500.0, -187500.02235174447, 30380.468711908903, -0.062, 0.976, -0.06, 192.0, 254.0, 16.0, 30.0, 128.0, 254.0, 32.0, 0.0, 0.0, 0.0, 1.6989590505256858E9, 0.0, 2023-11-02 17:04:10.525
38.0, -187500.02235174447, 187500.0, 31155.31428519658, 29188.986621974305, 187500.0, 187500.0, -187500.02235174447, 30381.899223554043, -0.062, 0.976, -0.06, 192.0, 0.0, 0.0, 0.0, 0.0, 0.0, 0.0, 0.0, 0.0, 0.0, 1.6989590505256977E9, 0.0, 2023-11-02 17:04:10.525
39.0, -187500.02235174447, 187500.0, 31155.336636941036, 29195.31216565516, 187500.0, 187500.0, -187500.02235174447, 30382.30155495424, -0.062, 0.976, -0.06, 192.0, 0.0, 0.0, 0.0, 0.0, 0.0, 0.0, 0.0, 0.0, 0.0, 1.6989590505257075E9, 0.0, 2023-11-02 17:04:10.525
40.0, -187500.02235174447, 187500.0, 31149.41342466038, 29189.29954639668, 187500.0, 187500.0, -187500.02235174447, 30377.004191518332, -0.062, 0.976, -0.06, 192.0, 0.0, 0.0, 0.0, 0.0, 0.0, 0.0, 0.0, 0.0, 0.0, 1.6989590505257173E9, 0.0, 2023-11-02 17:04:10.525
41.0, -187500.02235174447, 187500.0, 31153.190869473325, 29185.63386030601, 187500.0, 187500.0, -187500.02235174447, 30381.027505520287, -0.062, 0.976, -0.06, 192.0, 0.0, 0.0, 0.0, 0.0, 0.0, 0.0, 0.0, 0.0, 0.0, 1.6989590505257268E9, 0.0, 2023-11-02 17:04:10.525
42.0, -187500.02235174447, 187500.0, 31155.35898868549, 29184.896252738985, 187500.0, 187500.0, -187500.02235174447, 30385.743723600357, -0.062, 0.976, -0.06, 192.0, 0.0, 0.0, 0.0, 0.0, 0.0, 0.0, 0.0, 0.0, 0.0, 1.6989590505257366E9, 0.0, 2023-11-02 17:04:10.525
43.0, -187500.02235174447, 187500.0, 31157.683570108842, 29186.527930084223, 187500.0, 187500.0, -187500.02235174447, 30388.381229446084, -0.062, 0.976, -0.06, 192.0, 0.0, 0.0, 0.0, 0.0, 0.0, 0.0, 0.0, 0.0, 0.0, 1.6989590505257463E9, 0.0, 2023-11-02 17:04:10.525
44.0, -187500.02235174447, 187500.0, 31161.997456788715, 29191.177092930928, 187500.0, 187500.0, -187500.02235174447, 30393.700944626446, -0.062, 0.976, -0.06, 192.0, 0.0, 0.0, 0.0, 0.0, 0.0, 0.0, 0.0, 0.0, 0.0, 1.698959050525756E9, 0.0, 2023-11-02 17:04:10.525
45.0, -187500.02235174447, 187500.0, 31164.12087251197, 29190.68535455291, 187500.0, 187500.0, -187500.02235174447, 30396.04787779425, -0.062, 0.976, -0.06, 192.0, 0.0, 0.0, 0.0, 0.0, 0.0, 0.0, 0.0, 0.0, 0.0, 1.6989590505257657E9, 0.0, 2023-11-02 17:04:10.525
46.0, -187500.02235174447, 187500.0, 31163.338561456036, 29188.003145218274, 187500.0, 187500.0, -187500.02235174447, 30394.01386904882, -0.062, 0.976, -0.06, 192.0, 0.0, 0.0, 0.0, 0.0, 0.0, 0.0, 0.0, 0.0, 0.0, 1.6989590505257752E9, 0.0, 2023-11-02 17:04:10.525
47.0, -187500.02235174447, 187500.0, 31163.78559634514, 29191.668831308943, 187500.0, 187500.0, -187500.02235174447, 30394.036220793274, -0.066, 0.976, -0.058, 192.0, 253.0, 240.0, 30.0, 128.0, 254.0, 48.0, 0.0, 0.0, 0.0, 1.6989590505257847E9, 0.0, 2023-11-02 17:04:10.525
48.0, -187500.02235174447, 187500.0, 31164.07616902306, 29192.20527317587, 187500.0, 187500.0, -187500.02235174447, 30393.63388939308, -0.066, 0.976, -0.058, 192.0, 0.0, 0.0, 0.0, 0.0, 0.0, 0.0, 0.0, 0.0, 0.0, 1.6989590505257952E9, 0.0, 2023-11-02 17:04:10.525
49.0, -187500.02235174447, 187500.0, 31167.07130278007, 29194.574558088134, 187500.0, 187500.0, -187500.02235174447, 30397.456037694938, -0.066, 0.976, -0.058, 192.0, 0.0, 0.0, 0.0, 0.0, 0.0, 0.0, 0.0, 0.0, 0.0, 1.6989590505258048E9, 0.0, 2023-11-02 17:04:10.525
50.0, -187500.02235174447, 187500.0, 31173.486253438743, 29199.044906979194, 187500.0, 187500.0, -187500.02235174447, 30403.24513950886, -0.066, 0.976, -0.058, 192.0, 0.0, 0.0, 0.0, 0.0, 0.0, 0.0, 0.0, 0.0, 0.0, 1.6989590505258143E9, 0.0, 2023-11-02 17:04:10.525
51.0, -187500.02235174447, 187500.0, 31174.335619728045, 29202.040040736207, 187500.0, 187500.0, -187500.02235174447, 30405.659127910036, -0.066, 0.976, -0.058, 192.0, 0.0, 0.0, 0.0, 0.0, 0.0, 0.0, 0.0, 0.0, 0.0, 1.698959050525824E9, 0.0, 2023-11-02 17:04:10.525
52.0, -187500.02235174447, 187500.0, 31169.395884203423, 29197.25676742277, 187500.0, 187500.0, -187500.02235174447, 30401.83697960818, -0.066, 0.976, -0.058, 192.0, 0.0, 0.0, 0.0, 0.0, 0.0, 0.0, 0.0, 0.0, 0.0, 1.6989590505259235E9, 0.0, 2023-11-02 17:04:10.525
53.0, -187500.02235174447, 187500.0, 31167.11600626898, 29191.4900173533, 187500.0, 187500.0, -187500.02235174447, 30398.014831306322, -0.066, 0.976, -0.058, 192.0, 0.0, 0.0, 0.0, 0.0, 0.0, 0.0, 0.0, 0.0, 0.0, 1.6989590505259347E9, 0.0, 2023-11-02 17:04:10.525
54.0, -187500.02235174447, 187500.0, 31168.12183476947, 29188.606642318566, 187500.0, 187500.0, -187500.02235174447, 30399.288880740274, -0.066, 0.976, -0.058, 192.0, 0.0, 0.0, 0.0, 0.0, 0.0, 0.0, 0.0, 0.0, 0.0, 1.6989590505259447E9, 0.0, 2023-11-02 17:04:10.525
55.0, -187500.02235174447, 187500.0, 31165.5066806682, 29188.62899406302, 187500.0, 187500.0, -187500.02235174447, 30398.439514450973, -0.066, 0.976, -0.058, 192.0, 0.0, 0.0, 0.0, 0.0, 0.0, 0.0, 0.0, 0.0, 0.0, 1.698959050525976E9, 0.0, 2023-11-02 17:04:10.525
56.0, -187500.02235174447, 187500.0, 31168.904145825407, 29192.697011553886, 187500.0, 187500.0, -187500.02235174447, 30403.781581375788, -0.066, 0.976, -0.058, 192.0, 0.0, 0.0, 0.0, 0.0, 0.0, 0.0, 0.0, 0.0, 0.0, 1.6989590505259864E9, 0.0, 2023-11-02 17:04:10.525
57.0, -187500.02235174447, 187500.0, 31171.251078993213, 29197.279119167226, 187500.0, 187500.0, -187500.02235174447, 30406.39673547706, -0.07, 0.98, -0.06, 192.0, 253.0, 208.0, 30.0, 160.0, 254.0, 32.0, 0.0, 0.0, 0.0, 1.6989590505259964E9, 0.0, 2023-11-02 17:04:10.525
58.0, -187500.02235174447, 187500.0, 31171.65341039341, 29194.149874943483, 187500.0, 187500.0, -187500.02235174447, 30405.97205233241, -0.07, 0.98, -0.06, 192.0, 0.0, 0.0, 0.0, 0.0, 0.0, 0.0, 0.0, 0.0, 0.0, 1.6989590505260093E9, 0.0, 2023-11-02 17:04:10.526
59.0, -187500.02235174447, 187500.0, 31173.17332901637, 29193.25580516527, 187500.0, 187500.0, -187500.02235174447, 30406.329680243696, -0.07, 0.98, -0.06, 192.0, 0.0, 0.0, 0.0, 0.0, 0.0, 0.0, 0.0, 0.0, 0.0, 1.69895905052602E9, 0.0, 2023-11-02 17:04:10.526
60.0, -187500.02235174447, 187500.0, 31173.150977271915, 29192.62995632052, 187500.0, 187500.0, -187500.02235174447, 30404.832113365188, -0.07, 0.98, -0.06, 192.0, 0.0, 0.0, 0.0, 0.0, 0.0, 0.0, 0.0, 0.0, 0.0, 1.6989590505260465E9, 0.0, 2023-11-02 17:04:10.526
61.0, -187500.02235174447, 187500.0, 31171.474596437765, 29187.19848241788, 187500.0, 187500.0, -187500.02235174447, 30402.01579356382, -0.07, 0.98, -0.06, 192.0, 0.0, 0.0, 0.0, 0.0, 0.0, 0.0, 0.0, 0.0, 0.0, 1.6989590505260558E9, 0.0, 2023-11-02 17:04:10.526
62.0, -187500.02235174447, 187500.0, 31164.724369612264, 29175.91085146795, 187500.0, 187500.0, -187500.02235174447, 30394.930290571487, -0.07, 0.98, -0.06, 192.0, 0.0, 0.0, 0.0, 0.0, 0.0, 0.0, 0.0, 0.0, 0.0, 1.6989590505260653E9, 0.0, 2023-11-02 17:04:10.526
63.0, -187500.02235174447, 187500.0, 31171.049913293115, 29174.145063655982, 187500.0, 187500.0, -187500.02235174447, 30399.043011551264, -0.07, 0.98, -0.06, 192.0, 0.0, 0.0, 0.0, 0.0, 0.0, 0.0, 0.0, 0.0, 0.0, 1.6989590505260751E9, 0.0, 2023-11-02 17:04:10.526
64.0, -187500.02235174447, 187500.0, 31169.619401647975, 29176.871976479528, 187500.0, 187500.0, -187500.02235174447, 30396.31609872772, -0.07, 0.98, -0.06, 192.0, 0.0, 0.0, 0.0, 0.0, 0.0, 0.0, 0.0, 0.0, 0.0, 1.698959050526085E9, 0.0, 2023-11-02 17:04:10.526
65.0, -187500.02235174447, 187500.0, 31166.847785335518, 29169.7864734872, 187500.0, 187500.0, -187500.02235174447, 30392.069267281207, -0.07, 0.98, -0.06, 192.0, 0.0, 0.0, 0.0, 0.0, 0.0, 0.0, 0.0, 0.0, 0.0, 1.6989590505260944E9, 0.0, 2023-11-02 17:04:10.526
66.0, -187500.02235174447, 187500.0, 31166.40075044641, 29168.758293242252, 187500.0, 187500.0, -187500.02235174447, 30392.181026003484, -0.07, 0.98, -0.06, 192.0, 0.0, 0.0, 0.0, 0.0, 0.0, 0.0, 0.0, 0.0, 0.0, 1.6989590505261037E9, 0.0, 2023-11-02 17:04:10.526
67.0, -187500.02235174447, 187500.0, 31161.438663177334, 29165.450235062868, 187500.0, 187500.0, -187500.02235174447, 30389.945851557954, -0.078, 0.974, -0.064, 192.0, 253.0, 144.0, 30.0, 112.0, 254.0, 0.0, 0.0, 0.0, 0.0, 1.6989590505261407E9, 0.0, 2023-11-02 17:04:10.526
68.0, -187500.02235174447, 187500.0, 31157.996494531217, 29165.11495889604, 187500.0, 187500.0, -187500.02235174447, 30390.52699691379, -0.078, 0.974, -0.064, 192.0, 0.0, 0.0, 0.0, 0.0, 0.0, 0.0, 0.0, 0.0, 0.0, 1.698959050526151E9, 0.0, 2023-11-02 17:04:10.526
69.0, -187500.02235174447, 187500.0, 31157.54945964211, 29166.232546118805, 187500.0, 187500.0, -187500.02235174447, 30394.080924282185, -0.078, 0.974, -0.064, 192.0, 0.0, 0.0, 0.0, 0.0, 0.0, 0.0, 0.0, 0.0, 0.0, 1.6989590505261607E9, 0.0, 2023-11-02 17:04:10.526
70.0, -187500.02235174447, 187500.0, 31152.69913109531, 29166.567822285633, 187500.0, 187500.0, -187500.02235174447, 30392.046915536754, -0.078, 0.974, -0.064, 192.0, 0.0, 0.0, 0.0, 0.0, 0.0, 0.0, 0.0, 0.0, 0.0, 1.69895905052617E9, 0.0, 2023-11-02 17:04:10.526
71.0, -187500.02235174447, 187500.0, 31142.104404223493, 29157.42595880341, 187500.0, 187500.0, -187500.02235174447, 30383.597956132646, -0.078, 0.974, -0.064, 192.0, 0.0, 0.0, 0.0, 0.0, 0.0, 0.0, 0.0, 0.0, 0.0, 1.6989590505261796E9, 0.0, 2023-11-02 17:04:10.526
72.0, -187500.02235174447, 187500.0, 31136.58352334303, 29154.6319907465, 187500.0, 187500.0, -187500.02235174447, 30380.11108399762, -0.078, 0.974, -0.064, 192.0, 0.0, 0.0, 0.0, 0.0, 0.0, 0.0, 0.0, 0.0, 0.0, 1.698959050526189E9, 0.0, 2023-11-02 17:04:10.526
73.0, -187500.02235174447, 187500.0, 31132.78372678563, 29153.380293057002, 187500.0, 187500.0, -187500.02235174447, 30377.697095596446, -0.078, 0.974, -0.064, 192.0, 0.0, 0.0, 0.0, 0.0, 0.0, 0.0, 0.0, 0.0, 0.0, 1.6989590505261989E9, 0.0, 2023-11-02 17:04:10.526
74.0, -187500.02235174447, 187500.0, 31141.299741423103, 29158.700008237363, 187500.0, 187500.0, -187500.02235174447, 30387.10718001213, -0.078, 0.974, -0.064, 192.0, 0.0, 0.0, 0.0, 0.0, 0.0, 0.0, 0.0, 0.0, 0.0, 1.6989590505262084E9, 0.0, 2023-11-02 17:04:10.526
75.0, -187500.02235174447, 187500.0, 31141.63501758993, 29163.237412361792, 187500.0, 187500.0, -187500.02235174447, 30387.375400945595, -0.078, 0.974, -0.064, 192.0, 0.0, 0.0, 0.0, 0.0, 0.0, 0.0, 0.0, 0.0, 0.0, 1.698959050526218E9, 0.0, 2023-11-02 17:04:10.526
76.0, -187500.02235174447, 187500.0, 31129.02863371714, 29153.313237823637, 187500.0, 187500.0, -187500.02235174447, 30375.707790339922, -0.078, 0.974, -0.064, 192.0, 0.0, 0.0, 0.0, 0.0, 0.0, 0.0, 0.0, 0.0, 0.0, 1.6989590505262277E9, 0.0, 2023-11-02 17:04:10.526
77.0, -187500.02235174447, 187500.0, 31123.77597377014, 29147.77000519872, 187500.0, 187500.0, -187500.02235174447, 30370.276316437285, -0.06, 0.968, -0.058, 192.0, 254.0, 32.0, 30.0, 64.0, 254.0, 48.0, 0.0, 0.0, 0.0, 1.6989590505262372E9, 0.0, 2023-11-02 17:04:10.526
78.0, -187500.02235174447, 187500.0, 31127.799287772097, 29147.99352264327, 187500.0, 187500.0, -187500.02235174447, 30374.321982183694, -0.06, 0.968, -0.058, 192.0, 0.0, 0.0, 0.0, 0.0, 0.0, 0.0, 0.0, 0.0, 0.0, 1.6989590505262473E9, 0.0, 2023-11-02 17:04:10.526
79.0, -187500.02235174447, 187500.0, 31133.946017497306, 29147.881763920996, 187500.0, 187500.0, -187500.02235174447, 30379.462883408414, -0.06, 0.968, -0.058, 192.0, 0.0, 0.0, 0.0, 0.0, 0.0, 0.0, 0.0, 0.0, 0.0, 1.6989590505262585E9, 0.0, 2023-11-02 17:04:10.526
80.0, -187500.02235174447, 187500.0, 31135.44358437581, 29150.899249422462, 187500.0, 187500.0, -187500.02235174447, 30382.234499720875, -0.06, 0.968, -0.058, 192.0, 0.0, 0.0, 0.0, 0.0, 0.0, 0.0, 0.0, 0.0, 0.0, 1.698959050526268E9, 0.0, 2023-11-02 17:04:10.526
81.0, -187500.02235174447, 187500.0, 31126.502886593687, 29147.14415635397, 187500.0, 187500.0, -187500.02235174447, 30374.076112994688, -0.06, 0.968, -0.058, 192.0, 0.0, 0.0, 0.0, 0.0, 0.0, 0.0, 0.0, 0.0, 0.0, 1.6989590505262775E9, 0.0, 2023-11-02 17:04:10.526
82.0, -187500.02235174447, 187500.0, 31123.06071794757, 29139.365749283523, 187500.0, 187500.0, -187500.02235174447, 30369.62811584808, -0.06, 0.968, -0.058, 192.0, 0.0, 0.0, 0.0, 0.0, 0.0, 0.0, 0.0, 0.0, 0.0, 1.6989590505262961E9, 0.0, 2023-11-02 17:04:10.526
83.0, -187500.02235174447, 187500.0, 31130.280331406633, 29144.43959527488, 187500.0, 187500.0, -187500.02235174447, 30376.8700810516, -0.06, 0.968, -0.058, 192.0, 0.0, 0.0, 0.0, 0.0, 0.0, 0.0, 0.0, 0.0, 0.0, 1.698959050526306E9, 0.0, 2023-11-02 17:04:10.526
84.0, -187500.02235174447, 187500.0, 31131.464973862767, 29149.938124410884, 187500.0, 187500.0, -187500.02235174447, 30380.781636331278, -0.06, 0.968, -0.058, 192.0, 0.0, 0.0, 0.0, 0.0, 0.0, 0.0, 0.0, 0.0, 0.0, 1.6989590505263157E9, 0.0, 2023-11-02 17:04:10.526
85.0, -187500.02235174447, 187500.0, 31124.602988314986, 29149.736958710786, 187500.0, 187500.0, -187500.02235174447, 30375.819549062202, -0.06, 0.968, -0.058, 192.0, 0.0, 0.0, 0.0, 0.0, 0.0, 0.0, 0.0, 0.0, 0.0, 1.6989590505263252E9, 0.0, 2023-11-02 17:04:10.526
86.0, -187500.02235174447, 187500.0, 31121.87607549144, 29151.256877333748, 187500.0, 187500.0, -187500.02235174447, 30374.590203117157, -0.06, 0.968, -0.058, 192.0, 0.0, 0.0, 0.0, 0.0, 0.0, 0.0, 0.0, 0.0, 0.0, 1.6989590505263345E9, 0.0, 2023-11-02 17:04:10.526
87.0, -187500.02235174447, 187500.0, 31121.25022664669, 29153.268534334726, 187500.0, 187500.0, -187500.02235174447, 30378.278240952284, -0.048, 0.97, -0.068, 192.0, 254.0, 128.0, 30.0, 80.0, 253.0, 224.0, 0.0, 0.0, 0.0, 1.6989590505263443E9, 0.0, 2023-11-02 17:04:10.526
88.0, -187500.02235174447, 187500.0, 31122.188999913815, 29156.040150647183, 187500.0, 187500.0, -187500.02235174447, 30382.994459032354, -0.048, 0.97, -0.068, 192.0, 0.0, 0.0, 0.0, 0.0, 0.0, 0.0, 0.0, 0.0, 0.0, 1.6989590505263543E9, 0.0, 2023-11-02 17:04:10.526
89.0, -187500.02235174447, 187500.0, 31123.530104581132, 29164.712627495843, 187500.0, 187500.0, -187500.02235174447, 30388.82826433519, -0.048, 0.97, -0.068, 192.0, 0.0, 0.0, 0.0, 0.0, 0.0, 0.0, 0.0, 0.0, 0.0, 1.698959050526364E9, 0.0, 2023-11-02 17:04:10.526
90.0, -187500.02235174447, 187500.0, 31124.223008659246, 29167.752464741763, 187500.0, 187500.0, -187500.02235174447, 30390.795217847255, -0.048, 0.97, -0.068, 192.0, 0.0, 0.0, 0.0, 0.0, 0.0, 0.0, 0.0, 0.0, 0.0, 1.6989590505263736E9, 0.0, 2023-11-02 17:04:10.526
91.0, -187500.02235174447, 187500.0, 31126.30172089359, 29163.975019928817, 187500.0, 187500.0, -187500.02235174447, 30390.236424235874, -0.048, 0.97, -0.068, 192.0, 0.0, 0.0, 0.0, 0.0, 0.0, 0.0, 0.0, 0.0, 0.0, 1.698959050526383E9, 0.0, 2023-11-02 17:04:10.526
92.0, -187500.02235174447, 187500.0, 31131.55438084059, 29168.087740908595, 187500.0, 187500.0, -187500.02235174447, 30394.68442138248, -0.048, 0.97, -0.068, 192.0, 0.0, 0.0, 0.0, 0.0, 0.0, 0.0, 0.0, 0.0, 0.0, 1.6989590505263925E9, 0.0, 2023-11-02 17:04:10.526
93.0, -187500.02235174447, 187500.0, 31122.747793525195, 29164.5338135402, 187500.0, 187500.0, -187500.02235174447, 30384.760246844322, -0.048, 0.97, -0.068, 192.0, 0.0, 0.0, 0.0, 0.0, 0.0, 0.0, 0.0, 0.0, 0.0, 1.698959050526402E9, 0.0, 2023-11-02 17:04:10.526
94.0, -187500.02235174447, 187500.0, 31122.591331314008, 29160.398740815966, 187500.0, 187500.0, -187500.02235174447, 30381.96627878741, -0.048, 0.97, -0.068, 192.0, 0.0, 0.0, 0.0, 0.0, 0.0, 0.0, 0.0, 0.0, 0.0, 1.6989590505264115E9, 0.0, 2023-11-02 17:04:10.526
95.0, -187500.02235174447, 187500.0, 31129.900351750894, 29163.952668184364, 187500.0, 187500.0, -187500.02235174447, 30387.15188350104, -0.048, 0.97, -0.068, 192.0, 0.0, 0.0, 0.0, 0.0, 0.0, 0.0, 0.0, 0.0, 0.0, 1.6989590505264213E9, 0.0, 2023-11-02 17:04:10.526
96.0, -187500.02235174447, 187500.0, 31130.414441873367, 29163.39387457298, 187500.0, 187500.0, -187500.02235174447, 30386.72720035639, -0.048, 0.97, -0.068, 192.0, 0.0, 0.0, 0.0, 0.0, 0.0, 0.0, 0.0, 0.0, 0.0, 1.6989590505264308E9, 0.0, 2023-11-02 17:04:10.526
97.0, -187500.02235174447, 187500.0, 31131.35321514049, 29165.20436587386, 187500.0, 187500.0, -187500.02235174447, 30388.53769165727, -0.044, 0.984, -0.07200000000000001, 192.0, 254.0, 160.0, 30.0, 192.0, 253.0, 192.0, 0.0, 0.0, 0.0, 1.6989590505264597E9, 0.0, 2023-11-02 17:04:10.526
98.0, -187500.02235174447, 187500.0, 31126.614645315964, 29157.358903570046, 187500.0, 187500.0, -187500.02235174447, 30382.614479376614, -0.044, 0.984, -0.07200000000000001, 192.0, 0.0, 0.0, 0.0, 0.0, 0.0, 0.0, 0.0, 0.0, 0.0, 1.6989590505264702E9, 0.0, 2023-11-02 17:04:10.526
99.0, -187500.02235174447, 187500.0, 31125.139430181913, 29149.42403428841, 187500.0, 187500.0, -187500.02235174447, 30378.099426996643, -0.044, 0.984, -0.07200000000000001, 192.0, 0.0, 0.0, 0.0, 0.0, 0.0, 0.0, 0.0, 0.0, 0.0, 1.6989590505264797E9, 0.0, 2023-11-02 17:04:10.526
100.0, -187500.02235174447, 187500.0, 31133.811907030573, 29154.6319907465, 187500.0, 187500.0, -187500.02235174447, 30387.44245617896, -0.044, 0.984, -0.07200000000000001, 192.0, 0.0, 0.0, 0.0, 0.0, 0.0, 0.0, 0.0, 0.0, 0.0, 1.6989590505264907E9, 0.0, 2023-11-02 17:04:10.526
101.0, -187500.02235174447, 187500.0, 31135.331825653535, 29159.43761580439, 187500.0, 187500.0, -187500.02235174447, 30391.06343878072, -0.044, 0.984, -0.07200000000000001, 192.0, 0.0, 0.0, 0.0, 0.0, 0.0, 0.0, 0.0, 0.0, 0.0, 1.6989590505265005E9, 0.0, 2023-11-02 17:04:10.526
102.0, -187500.02235174447, 187500.0, 31132.671968063354, 29163.952668184364, 187500.0, 187500.0, -187500.02235174447, 30389.185892246474, -0.044, 0.984, -0.07200000000000001, 192.0, 0.0, 0.0, 0.0, 0.0, 0.0, 0.0, 0.0, 0.0, 0.0, 1.69895905052651E9, 0.0, 2023-11-02 17:04:10.526
103.0, -187500.02235174447, 187500.0, 31120.78084001313, 29155.63781924699, 187500.0, 187500.0, -187500.02235174447, 30379.552290386237, -0.044, 0.984, -0.07200000000000001, 192.0, 0.0, 0.0, 0.0, 0.0, 0.0, 0.0, 0.0, 0.0, 0.0, 1.6989590505265195E9, 0.0, 2023-11-02 17:04:10.526
104.0, -187500.02235174447, 187500.0, 31120.959653968774, 29156.084854136094, 187500.0, 187500.0, -187500.02235174447, 30384.894357311056, -0.044, 0.984, -0.07200000000000001, 192.0, 0.0, 0.0, 0.0, 0.0, 0.0, 0.0, 0.0, 0.0, 0.0, 1.6989590505265293E9, 0.0, 2023-11-02 17:04:10.526
105.0, -187500.02235174447, 187500.0, 31119.01505220116, 29163.416226317433, 187500.0, 187500.0, -187500.02235174447, 30388.336525957173, -0.044, 0.984, -0.07200000000000001, 192.0, 0.0, 0.0, 0.0, 0.0, 0.0, 0.0, 0.0, 0.0, 0.0, 1.6989590505265388E9, 0.0, 2023-11-02 17:04:10.526
106.0, -187500.02235174447, 187500.0, 31112.77891549813, 29168.758293242252, 187500.0, 187500.0, -187500.02235174447, 30387.44245617896, -0.044, 0.984, -0.07200000000000001, 192.0, 0.0, 0.0, 0.0, 0.0, 0.0, 0.0, 0.0, 0.0, 0.0, 1.6989590505265484E9, 0.0, 2023-11-02 17:04:10.526
107.0, -187500.02235174447, 187500.0, 31110.186113141313, 29168.95945894235, 187500.0, 187500.0, -187500.02235174447, 30388.604746890636, -0.03, 0.98, -0.08, 192.0, 255.0, 16.0, 30.0, 160.0, 253.0, 128.0, 0.0, 0.0, 0.0, 1.6989590505265577E9, 0.0, 2023-11-02 17:04:10.526
108.0, -187484.97962772605, 187500.0, 31110.92372070834, 29165.87491820752, 187500.0, 187500.0, -187500.02235174447, 30391.15284575854, -0.03, 0.98, -0.08, 192.0, 0.0, 0.0, 0.0, 0.0, 0.0, 0.0, 0.0, 0.0, 0.0, 1.698959050526568E9, 0.0, 2023-11-02 17:04:10.526
109.0, -187497.98834299904, 187500.0, 31113.807095743075, 29165.561993785144, 187500.0, 187500.0, -187500.02235174447, 30393.76799985981, -0.03, 0.98, -0.08, 192.0, 0.0, 0.0, 0.0, 0.0, 0.0, 0.0, 0.0, 0.0, 0.0, 1.698959050526578E9, 0.0, 2023-11-02 17:04:10.526
110.0, -187475.97187471055, 187500.0, 31112.264825375656, 29163.05859840615, 187500.0, 187500.0, -187500.02235174447, 30390.68345912498, -0.03, 0.98, -0.08, 192.0, 0.0, 0.0, 0.0, 0.0, 0.0, 0.0, 0.0, 0.0, 0.0, 1.6989590505265875E9, 0.0, 2023-11-02 17:04:10.526
111.0, -187405.27330699842, 187500.0, 31117.15985741137, 29159.705836737852, 187500.0, 187500.0, -187500.02235174447, 30394.483255682382, -0.03, 0.98, -0.08, 192.0, 0.0, 0.0, 0.0, 0.0, 0.0, 0.0, 0.0, 0.0, 0.0, 1.6989590505265973E9, 0.0, 2023-11-02 17:04:10.526
112.0, -187340.0732684223, 187500.0, 31124.647691803897, 29159.594078015576, 187500.0, 187500.0, -187500.02235174447, 30402.596938919658, -0.03, 0.98, -0.08, 192.0, 0.0, 0.0, 0.0, 0.0, 0.0, 0.0, 0.0, 0.0, 0.0, 1.698959050526615E9, 0.0, 2023-11-02 17:04:10.526
113.0, -187350.62329180518, 187500.0, 31128.78276452813, 29163.460929806344, 187500.0, 187500.0, -187500.02235174447, 30406.374383732604, -0.03, 0.98, -0.08, 192.0, 0.0, 0.0, 0.0, 0.0, 0.0, 0.0, 0.0, 0.0, 0.0, 1.698959050526625E9, 0.0, 2023-11-02 17:04:10.526
114.0, -187341.45907657853, 187500.0, 31128.223970916748, 29159.30350533766, 187500.0, 187500.0, -187500.02235174447, 30404.8768168541, -0.03, 0.98, -0.08, 192.0, 0.0, 0.0, 0.0, 0.0, 0.0, 0.0, 0.0, 0.0, 0.0, 1.6989590505266345E9, 0.0, 2023-11-02 17:04:10.526
115.0, -187243.22315969746, 187500.0, 31129.63213081743, 29157.850641948062, 187500.0, 187500.0, -187500.02235174447, 30404.943872087464, -0.03, 0.98, -0.08, 192.0, 0.0, 0.0, 0.0, 0.0, 0.0, 0.0, 0.0, 0.0, 0.0, 1.698959050526644E9, 0.0, 2023-11-02 17:04:10.526
116.0, -187124.80361757323, 187500.0, 31127.955749983284, 29153.134423867992, 187500.0, 187500.0, -187500.02235174447, 30402.82045636421, -0.03, 0.98, -0.08, 192.0, 0.0, 0.0, 0.0, 0.0, 0.0, 0.0, 0.0, 0.0, 0.0, 1.6989590505266535E9, 0.0, 2023-11-02 17:04:10.526
117.0, -187105.2681929193, 187500.0, 31128.49219185021, 29151.458043033846, 187500.0, 187500.0, -187500.02235174447, 30403.40160172005, -0.044, 0.988, -0.078, 192.0, 254.0, 160.0, 30.0, 224.0, 253.0, 144.0, 0.0, 0.0, 0.0, 1.6989590505266633E9, 0.0, 2023-11-02 17:04:10.526
118.0, -187120.73560008235, 187500.0, 31128.335729639024, 29151.01100814474, 187500.0, 187500.0, -187500.02235174447, 30404.20626452044, -0.044, 0.988, -0.078, 192.0, 0.0, 0.0, 0.0, 0.0, 0.0, 0.0, 0.0, 0.0, 0.0, 1.6989590505266733E9, 0.0, 2023-11-02 17:04:10.526
119.0, -187059.0000818968, 187500.0, 31126.72640403824, 29150.631028489, 187500.0, 187500.0, -187500.02235174447, 30403.468656953417, -0.044, 0.988, -0.078, 192.0, 0.0, 0.0, 0.0, 0.0, 0.0, 0.0, 0.0, 0.0, 0.0, 1.698959050526683E9, 0.0, 2023-11-02 17:04:10.526
120.0, -186977.6397320795, 187500.0, 31120.758488268675, 29146.920638909418, 187500.0, 187500.0, -187500.02235174447, 30402.64164240857, -0.044, 0.988, -0.078, 192.0, 0.0, 0.0, 0.0, 0.0, 0.0, 0.0, 0.0, 0.0, 0.0, 1.6989590505266929E9, 0.0, 2023-11-02 17:04:10.526
121.0, -186957.90314172546, 187500.0, 31111.482514319723, 29140.95272313985, 187500.0, 187500.0, -187500.02235174447, 30398.864197595623, -0.044, 0.988, -0.078, 192.0, 0.0, 0.0, 0.0, 0.0, 0.0, 0.0, 0.0, 0.0, 0.0, 1.6989590505267024E9, 0.0, 2023-11-02 17:04:10.526
122.0, -186980.8360315366, 187500.0, 31107.63801427341, 29144.86427841953, 187500.0, 187500.0, -187500.02235174447, 30399.177122017998, -0.044, 0.988, -0.078, 192.0, 0.0, 0.0, 0.0, 0.0, 0.0, 0.0, 0.0, 0.0, 0.0, 1.6989590505267131E9, 0.0, 2023-11-02 17:04:10.526
123.0, -186911.59032721404, 187500.0, 31101.31247059256, 29145.08779586408, 187500.0, 187500.0, -187500.02235174447, 30396.11493302762, -0.044, 0.988, -0.078, 192.0, 0.0, 0.0, 0.0, 0.0, 0.0, 0.0, 0.0, 0.0, 0.0, 1.698959050526723E9, 0.0, 2023-11-02 17:04:10.526
124.0, -186796.00945663566, 187500.0, 31101.15600838137, 29143.4784702633, 187500.0, 187500.0, -187500.02235174447, 30399.132418529087, -0.044, 0.988, -0.078, 192.0, 0.0, 0.0, 0.0, 0.0, 0.0, 0.0, 0.0, 0.0, 0.0, 1.6989590505267327E9, 0.0, 2023-11-02 17:04:10.526
125.0, -186762.16891553032, 187500.0, 31102.92179619334, 29144.28313306369, 187500.0, 187500.0, -187500.02235174447, 30402.462828452928, -0.044, 0.988, -0.078, 192.0, 0.0, 0.0, 0.0, 0.0, 0.0, 0.0, 0.0, 0.0, 0.0, 1.6989590505267427E9, 0.0, 2023-11-02 17:04:10.526
126.0, -186762.95122658627, 187500.0, 31096.171569367838, 29145.870106920018, 187500.0, 187500.0, -187500.02235174447, 30398.439514450973, -0.034, 0.974, -0.082, 192.0, 254.0, 240.0, 30.0, 112.0, 253.0, 112.0, 0.0, 0.0, 0.0, 1.6989590505267527E9, 0.0, 2023-11-02 17:04:10.526
127.0, -186689.27987686158, 187500.0, 31090.58363325401, 29146.76417669823, 187500.0, 187500.0, -187500.02235174447, 30396.852540594646, -0.034, 0.974, -0.082, 192.0, 0.0, 0.0, 0.0, 0.0, 0.0, 0.0, 0.0, 0.0, 0.0, 1.698959050526772E9, 0.0, 2023-11-02 17:04:10.526
128.0, -186547.9274449262, 187500.0, 31087.007354141162, 29145.646589475466, 187500.0, 187500.0, -187500.02235174447, 30396.003174305344, -0.034, 0.974, -0.082, 192.0, 0.0, 0.0, 0.0, 0.0, 0.0, 0.0, 0.0, 0.0, 0.0, 1.6989590505267825E9, 0.0, 2023-11-02 17:04:10.526
129.0, -186462.18615319565, 187500.0, 31089.555453009067, 29146.58536274259, 187500.0, 187500.0, -187500.02235174447, 30399.244177251363, -0.034, 0.974, -0.082, 192.0, 0.0, 0.0, 0.0, 0.0, 0.0, 0.0, 0.0, 0.0, 0.0, 1.6989590505267944E9, 0.0, 2023-11-02 17:04:10.526
130.0, -186447.4116501107, 187500.0, 31093.86933968894, 29148.038226132183, 187500.0, 187500.0, -187500.02235174447, 30402.149904030553, -0.034, 0.974, -0.082, 192.0, 0.0, 0.0, 0.0, 0.0, 0.0, 0.0, 0.0, 0.0, 0.0, 1.6989590505268047E9, 0.0, 2023-11-02 17:04:10.526
131.0, -186371.05809105135, 187500.0, 31095.3892583119, 29147.43472903189, 187500.0, 187500.0, -187500.02235174447, 30402.708697641934, -0.034, 0.974, -0.082, 192.0, 0.0, 0.0, 0.0, 0.0, 0.0, 0.0, 0.0, 0.0, 0.0, 1.6989590505268145E9, 0.0, 2023-11-02 17:04:10.526
132.0, -186221.0108305229, 187500.0, 31101.513636292653, 29147.367673798522, 187500.0, 187500.0, -187500.02235174447, 30407.514322699826, -0.034, 0.974, -0.082, 192.0, 0.0, 0.0, 0.0, 0.0, 0.0, 0.0, 0.0, 0.0, 0.0, 1.698959050526826E9, 0.0, 2023-11-02 17:04:10.526
133.0, -186124.29483226477, 187500.0, 31112.175418397837, 29148.686426721386, 187500.0, 187500.0, -187500.02235174447, 30414.890398370077, -0.034, 0.974, -0.082, 192.0, 0.0, 0.0, 0.0, 0.0, 0.0, 0.0, 0.0, 0.0, 0.0, 1.698959050526836E9, 0.0, 2023-11-02 17:04:10.526
134.0, -186124.6301084316, 187500.0, 31123.530104581132, 29155.123729124516, 187500.0, 187500.0, -187500.02235174447, 30424.568703719226, -0.034, 0.974, -0.082, 192.0, 0.0, 0.0, 0.0, 0.0, 0.0, 0.0, 0.0, 0.0, 0.0, 1.6989590505268464E9, 0.0, 2023-11-02 17:04:10.526
135.0, -186102.8818610766, 187500.0, 31126.100555193494, 29158.767063470732, 187500.0, 187500.0, -187500.02235174447, 30427.049747353765, -0.034, 0.974, -0.082, 192.0, 0.0, 0.0, 0.0, 0.0, 0.0, 0.0, 0.0, 0.0, 0.0, 1.6989590505268564E9, 0.0, 2023-11-02 17:04:10.526
136.0, -185985.71401664187, 187500.0, 31124.06654644806, 29152.307409323148, 187500.0, 187500.0, -187500.02235174447, 30425.39571826407, -0.052000000000000005, 0.984, -0.08, 192.0, 254.0, 96.0, 30.0, 192.0, 253.0, 128.0, 0.0, 0.0, 0.0, 1.6989590505268664E9, 0.0, 2023-11-02 17:04:10.526
137.0, -185882.7842334252, 187500.0, 31117.696299278297, 29145.177202841904, 187500.0, 187500.0, -187500.02235174447, 30422.244122295873, -0.052000000000000005, 0.984, -0.08, 192.0, 0.0, 0.0, 0.0, 0.0, 0.0, 0.0, 0.0, 0.0, 0.0, 1.6989590505268774E9, 0.0, 2023-11-02 17:04:10.526
138.0, -185869.99903559673, 187500.0, 31112.19777014229, 29144.596057486066, 187500.0, 187500.0, -187500.02235174447, 30422.132363573597, -0.052000000000000005, 0.984, -0.08, 192.0, 0.0, 0.0, 0.0, 0.0, 0.0, 0.0, 0.0, 0.0, 0.0, 1.698959050526889E9, 0.0, 2023-11-02 17:04:10.526
139.0, -185857.59381742406, 187500.0, 31106.609834028466, 29143.612580730034, 187500.0, 187500.0, -187500.02235174447, 30419.67367168351, -0.052000000000000005, 0.984, -0.08, 192.0, 0.0, 0.0, 0.0, 0.0, 0.0, 0.0, 0.0, 0.0, 0.0, 1.6989590505269E9, 0.0, 2023-11-02 17:04:10.526
140.0, -185755.31223479655, 187500.0, 31102.20654037077, 29144.86427841953, 187500.0, 187500.0, -187500.02235174447, 30418.377270505105, -0.052000000000000005, 0.984, -0.08, 192.0, 0.0, 0.0, 0.0, 0.0, 0.0, 0.0, 0.0, 0.0, 0.0, 1.6989590505269113E9, 0.0, 2023-11-02 17:04:10.526
141.0, -185644.42523055378, 187500.0, 31100.73132523672, 29144.126670852504, 187500.0, 187500.0, -187500.02235174447, 30420.567741461724, -0.052000000000000005, 0.984, -0.08, 192.0, 0.0, 0.0, 0.0, 0.0, 0.0, 0.0, 0.0, 0.0, 0.0, 1.6989590505269225E9, 0.0, 2023-11-02 17:04:10.526
142.0, -185624.62158496637, 187500.0, 31097.266804846146, 29140.326874295104, 187500.0, 187500.0, -187500.02235174447, 30421.014776350832, -0.052000000000000005, 0.984, -0.08, 192.0, 0.0, 0.0, 0.0, 0.0, 0.0, 0.0, 0.0, 0.0, 0.0, 1.698959050526934E9, 0.0, 2023-11-02 17:04:10.526
143.0, -185610.87526212638, 187500.0, 31090.96361290975, 29139.94689463936, 187500.0, 187500.0, -187500.02235174447, 30418.153753060553, -0.052000000000000005, 0.984, -0.08, 192.0, 0.0, 0.0, 0.0, 0.0, 0.0, 0.0, 0.0, 0.0, 0.0, 1.698959050527027E9, 0.0, 2023-11-02 17:04:10.527
144.0, -185501.70934220665, 187500.0, 31085.040400629092, 29138.91871439442, 187500.0, 187500.0, -187500.02235174447, 30413.54929370276, -0.052000000000000005, 0.984, -0.08, 192.0, 0.0, 0.0, 0.0, 0.0, 0.0, 0.0, 0.0, 0.0, 0.0, 1.6989590505270388E9, 0.0, 2023-11-02 17:04:10.527
145.0, -185355.39482300222, 187500.0, 31083.274612817124, 29131.877914890996, 187500.0, 187500.0, -187500.02235174447, 30411.44822972396, -0.052000000000000005, 0.984, -0.08, 192.0, 0.0, 0.0, 0.0, 0.0, 0.0, 0.0, 0.0, 0.0, 0.0, 1.6989590505270505E9, 0.0, 2023-11-02 17:04:10.527
146.0, -185267.19483938158, 187500.0, 31078.334877292502, 29120.880856618984, 187500.0, 187500.0, -187500.02235174447, 30405.703831398947, -0.044, 0.972, -0.092, 192.0, 254.0, 160.0, 30.0, 96.0, 253.0, 32.0, 0.0, 0.0, 0.0, 1.6989590505270653E9, 0.0, 2023-11-02 17:04:10.527
147.0, -185275.24146738547, 187500.0, 31087.499092519178, 29122.065499075117, 187500.0, 187500.0, -187500.02235174447, 30414.286901269785, -0.044, 0.972, -0.092, 192.0, 0.0, 0.0, 0.0, 0.0, 0.0, 0.0, 0.0, 0.0, 0.0, 1.6989590505270798E9, 0.0, 2023-11-02 17:04:10.527
148.0, -185193.34467570123, 187500.0, 31089.35428730897, 29129.48627823428, 187500.0, 187500.0, -187500.02235174447, 30418.39962224956, -0.044, 0.972, -0.092, 192.0, 0.0, 0.0, 0.0, 0.0, 0.0, 0.0, 0.0, 0.0, 0.0, 1.6989590505270913E9, 0.0, 2023-11-02 17:04:10.527
149.0, -185046.56076986322, 187500.0, 31093.556415266565, 29132.123784080006, 187500.0, 187500.0, -187500.02235174447, 30421.59592170667, -0.044, 0.972, -0.092, 192.0, 0.0, 0.0, 0.0, 0.0, 0.0, 0.0, 0.0, 0.0, 0.0, 1.6989590505271015E9, 0.0, 2023-11-02 17:04:10.527
150.0, -184986.99337088983, 187500.0, 31100.73132523672, 29135.364787026025, 187500.0, 187500.0, -187500.02235174447, 30428.12263108762, -0.044, 0.972, -0.092, 192.0, 0.0, 0.0, 0.0, 0.0, 0.0, 0.0, 0.0, 0.0, 0.0, 1.6989590505271187E9, 0.0, 2023-11-02 17:04:10.527
151.0, -184985.38404528904, 187500.0, 31099.121999635936, 29134.67188294791, 187500.0, 187500.0, -187500.02235174447, 30427.54148573178, -0.044, 0.972, -0.092, 192.0, 0.0, 0.0, 0.0, 0.0, 0.0, 0.0, 0.0, 0.0, 0.0, 1.698959050527131E9, 0.0, 2023-11-02 17:04:10.527
152.0, -184920.5416346242, 187500.0, 31098.719668235743, 29131.252066046247, 187500.0, 187500.0, -187500.02235174447, 30426.222732808917, -0.044, 0.972, -0.092, 192.0, 0.0, 0.0, 0.0, 0.0, 0.0, 0.0, 0.0, 0.0, 0.0, 1.6989590505271432E9, 0.0, 2023-11-02 17:04:10.527
153.0, -184798.1211302425, 187500.0, 31101.357174081466, 29129.419223000914, 187500.0, 187500.0, -187500.02235174447, 30429.35197703266, -0.044, 0.972, -0.092, 192.0, 0.0, 0.0, 0.0, 0.0, 0.0, 0.0, 0.0, 0.0, 0.0, 1.6989590505271611E9, 0.0, 2023-11-02 17:04:10.527
154.0, -184745.39336507244, 187500.0, 31102.653575259876, 29127.42991774439, 187500.0, 187500.0, -187500.02235174447, 30432.481221256403, -0.044, 0.972, -0.092, 192.0, 0.0, 0.0, 0.0, 0.0, 0.0, 0.0, 0.0, 0.0, 0.0, 1.6989590505271733E9, 0.0, 2023-11-02 17:04:10.527
155.0, -184758.6479495344, 187500.0, 31099.72549673623, 29125.932350865885, 187500.0, 187500.0, -187500.02235174447, 30432.07888985621, -0.044, 0.972, -0.092, 192.0, 0.0, 0.0, 0.0, 0.0, 0.0, 0.0, 0.0, 0.0, 0.0, 1.6989590505271845E9, 0.0, 2023-11-02 17:04:10.527
156.0, -184742.24176910424, 187500.0, 31097.15504612387, 29130.201534056847, 187500.0, 187500.0, -187500.02235174447, 30431.475392755914, -0.054, 0.982, -0.084, 192.0, 254.0, 80.0, 30.0, 176.0, 253.0, 96.0, 0.0, 0.0, 0.0, 1.6989590505271952E9, 0.0, 2023-11-02 17:04:10.527
157.0, -184611.5734710185, 187500.0, 31082.268784316635, 29122.825458386596, 187500.0, 187500.0, -187500.02235174447, 30420.523037972813, -0.054, 0.982, -0.084, 192.0, 0.0, 0.0, 0.0, 0.0, 0.0, 0.0, 0.0, 0.0, 0.0, 1.6989590505272095E9, 0.0, 2023-11-02 17:04:10.527
158.0, -184536.69512709323, 187500.0, 31078.06665635904, 29116.365804239013, 187500.0, 187500.0, -187500.02235174447, 30418.131401316095, -0.054, 0.982, -0.084, 192.0, 0.0, 0.0, 0.0, 0.0, 0.0, 0.0, 0.0, 0.0, 0.0, 1.6989590505274296E9, 0.0, 2023-11-02 17:04:10.527
0.0, 0.0, 0.0, 0.0, 0.0, 0.0, 0.0, 0.0, 0.0, -0.048, 0.978, -0.07200000000000001, 192.0, 254.0, 128.0, 30.0, 144.0, 253.0, 192.0, 0.0, 0.0, 0.0, 1.6989590506046972E9, 0.0, 2023-11-02 17:04:10.604
1.0, -187500.02235174447, 187500.0, 31109.090877663002, 28859.544260447536, 187500.0, 187500.0, -187500.02235174447, 30360.642714577047, -0.048, 0.978, -0.07200000000000001, 192.0, 0.0, 0.0, 0.0, 0.0, 0.0, 0.0, 0.0, 0.0, 0.0, 1.6989590510923595E9, 0.0, 2023-11-02 17:04:11.092
2.0, -187500.02235174447, 187500.0, 31107.369793339945, 28860.013647081098, 187500.0, 187500.0, -187500.02235174447, 30357.312304653206, -0.048, 0.978, -0.07200000000000001, 192.0, 0.0, 0.0, 0.0, 0.0, 0.0, 0.0, 0.0, 0.0, 0.0, 1.6989590510924537E9, 0.0, 2023-11-02 17:04:11.092
3.0, -187500.02235174447, 187500.0, 31108.01799392915, 28855.72211214568, 187500.0, 187500.0, -187500.02235174447, 30354.875964507577, -0.048, 0.978, -0.07200000000000001, 192.0, 0.0, 0.0, 0.0, 0.0, 0.0, 0.0, 0.0, 0.0, 0.0, 1.6989590510924697E9, 0.0, 2023-11-02 17:04:11.092
4.0, -187500.02235174447, 187500.0, 31119.14916266789, 28860.818309881488, 187500.0, 187500.0, -187500.02235174447, 30363.883717523066, -0.048, 0.978, -0.07200000000000001, 192.0, 0.0, 0.0, 0.0, 0.0, 0.0, 0.0, 0.0, 0.0, 0.0, 1.6989590510924823E9, 0.0, 2023-11-02 17:04:11.092
5.0, -187500.02235174447, 187500.0, 31118.63507254542, 28859.99129533664, 187500.0, 187500.0, -187500.02235174447, 30361.96146749991, -0.048, 0.978, -0.07200000000000001, 192.0, 0.0, 0.0, 0.0, 0.0, 0.0, 0.0, 0.0, 0.0, 0.0, 1.6989590510925438E9, 0.0, 2023-11-02 17:04:11.092
6.0, -187500.02235174447, 187500.0, 31117.606892300475, 28859.633667425358, 187500.0, 187500.0, -187500.02235174447, 30358.787519787256, -0.048, 0.978, -0.07200000000000001, 192.0, 0.0, 0.0, 0.0, 0.0, 0.0, 0.0, 0.0, 0.0, 0.0, 1.6989590510925555E9, 0.0, 2023-11-02 17:04:11.092
7.0, -187500.02235174447, 187500.0, 31121.697261535795, 28865.55687970601, 187500.0, 187500.0, -187500.02235174447, 30364.934249512466, -0.048, 0.978, -0.07200000000000001, 192.0, 0.0, 0.0, 0.0, 0.0, 0.0, 0.0, 0.0, 0.0, 0.0, 1.6989590510925677E9, 0.0, 2023-11-02 17:04:11.092
8.0, -187500.02235174447, 187500.0, 31122.546627825097, 28865.19925179473, 187500.0, 187500.0, -187500.02235174447, 30368.085845480666, -0.056, 0.986, -0.07200000000000001, 192.0, 254.0, 64.0, 30.0, 208.0, 253.0, 192.0, 0.0, 0.0, 0.0, 1.6989590510925777E9, 0.0, 2023-11-02 17:04:11.092
9.0, -187500.02235174447, 187500.0, 31121.093764435504, 28860.03599882555, 187500.0, 187500.0, -187500.02235174447, 30364.934249512466, -0.056, 0.986, -0.07200000000000001, 192.0, 0.0, 0.0, 0.0, 0.0, 0.0, 0.0, 0.0, 0.0, 0.0, 1.6989590510925896E9, 0.0, 2023-11-02 17:04:11.092
10.0, -187500.02235174447, 187500.0, 31115.215255643758, 28854.09043480044, 187500.0, 187500.0, -187500.02235174447, 30358.586354087158, -0.056, 0.986, -0.07200000000000001, 192.0, 0.0, 0.0, 0.0, 0.0, 0.0, 0.0, 0.0, 0.0, 0.0, 1.6989590510926013E9, 0.0, 2023-11-02 17:04:11.092
11.0, -187500.02235174447, 187500.0, 31110.92372070834, 28850.692969643234, 187500.0, 187500.0, -187500.02235174447, 30353.646618562536, -0.056, 0.986, -0.07200000000000001, 192.0, 0.0, 0.0, 0.0, 0.0, 0.0, 0.0, 0.0, 0.0, 0.0, 1.6989590510926113E9, 0.0, 2023-11-02 17:04:11.092
12.0, -187500.02235174447, 187500.0, 31113.650633531888, 28848.860126597898, 187500.0, 187500.0, -187500.02235174447, 30356.44058661945, -0.056, 0.986, -0.07200000000000001, 192.0, 0.0, 0.0, 0.0, 0.0, 0.0, 0.0, 0.0, 0.0, 0.0, 1.6989590510926228E9, 0.0, 2023-11-02 17:04:11.092
13.0, -187500.02235174447, 187500.0, 31114.05296493208, 28846.08851028544, 187500.0, 187500.0, -187500.02235174447, 30358.49694710934, -0.056, 0.986, -0.07200000000000001, 192.0, 0.0, 0.0, 0.0, 0.0, 0.0, 0.0, 0.0, 0.0, 0.0, 1.698959051092633E9, 0.0, 2023-11-02 17:04:11.092
14.0, -187500.02235174447, 187500.0, 31116.82458124454, 28848.547202175523, 187500.0, 187500.0, -187500.02235174447, 30359.614534332104, -0.056, 0.986, -0.07200000000000001, 192.0, 0.0, 0.0, 0.0, 0.0, 0.0, 0.0, 0.0, 0.0, 0.0, 1.698959051093011E9, 0.0, 2023-11-02 17:04:11.093
15.0, -187500.02235174447, 187500.0, 31109.24733987419, 28844.635646895844, 187500.0, 187500.0, -187500.02235174447, 30351.67966505047, -0.056, 0.986, -0.07200000000000001, 192.0, 0.0, 0.0, 0.0, 0.0, 0.0, 0.0, 0.0, 0.0, 0.0, 1.6989590510930247E9, 0.0, 2023-11-02 17:04:11.093
16.0, -187500.02235174447, 187500.0, 31103.860569460463, 28839.539449160035, 187500.0, 187500.0, -187500.02235174447, 30348.10338593762, -0.056, 0.986, -0.07200000000000001, 192.0, 0.0, 0.0, 0.0, 0.0, 0.0, 0.0, 0.0, 0.0, 0.0, 1.6989590510930347E9, 0.0, 2023-11-02 17:04:11.093
17.0, -187500.02235174447, 187500.0, 31110.566092797053, 28843.048673039517, 187500.0, 187500.0, -187500.02235174447, 30355.14418544104, -0.056, 0.986, -0.07200000000000001, 192.0, 0.0, 0.0, 0.0, 0.0, 0.0, 0.0, 0.0, 0.0, 0.0, 1.6989590510930457E9, 0.0, 2023-11-02 17:04:11.093
18.0, -187500.02235174447, 187500.0, 31114.120020165446, 28847.876649841866, 187500.0, 187500.0, -187500.02235174447, 30359.23455467636, -0.058, 0.982, -0.066, 192.0, 254.0, 48.0, 30.0, 176.0, 253.0, 240.0, 0.0, 0.0, 0.0, 1.698959051093057E9, 0.0, 2023-11-02 17:04:11.093
19.0, -187500.02235174447, 187500.0, 31110.63314803042, 28846.781414363555, 187500.0, 187500.0, -187500.02235174447, 30356.887621508555, -0.058, 0.982, -0.066, 192.0, 0.0, 0.0, 0.0, 0.0, 0.0, 0.0, 0.0, 0.0, 0.0, 1.6989590510930693E9, 0.0, 2023-11-02 17:04:11.093
20.0, -187500.02235174447, 187500.0, 31110.141409652402, 28841.95343756121, 187500.0, 187500.0, -187500.02235174447, 30355.97119998589, -0.058, 0.982, -0.066, 192.0, 0.0, 0.0, 0.0, 0.0, 0.0, 0.0, 0.0, 0.0, 0.0, 1.6989590510930812E9, 0.0, 2023-11-02 17:04:11.093
21.0, -187500.02235174447, 187500.0, 31113.24830213169, 28838.980655548654, 187500.0, 187500.0, -187500.02235174447, 30360.73212155487, -0.058, 0.982, -0.066, 192.0, 0.0, 0.0, 0.0, 0.0, 0.0, 0.0, 0.0, 0.0, 0.0, 1.698959051093092E9, 0.0, 2023-11-02 17:04:11.093
22.0, -187500.02235174447, 187500.0, 31124.424174359345, 28850.603562665412, 187500.0, 187500.0, -187500.02235174447, 30372.846767049643, -0.058, 0.982, -0.066, 192.0, 0.0, 0.0, 0.0, 0.0, 0.0, 0.0, 0.0, 0.0, 0.0, 1.6989590510931027E9, 0.0, 2023-11-02 17:04:11.093
23.0, -187500.02235174447, 187500.0, 31128.045156961103, 28861.33240000396, 187500.0, 187500.0, -187500.02235174447, 30375.43956940646, -0.058, 0.982, -0.066, 192.0, 0.0, 0.0, 0.0, 0.0, 0.0, 0.0, 0.0, 0.0, 0.0, 1.6989590510931137E9, 0.0, 2023-11-02 17:04:11.093
24.0, -187500.02235174447, 187500.0, 31126.30172089359, 28857.13027204636, 187500.0, 187500.0, -187500.02235174447, 30372.62324960509, -0.058, 0.982, -0.066, 192.0, 0.0, 0.0, 0.0, 0.0, 0.0, 0.0, 0.0, 0.0, 0.0, 1.6989590510931244E9, 0.0, 2023-11-02 17:04:11.093
25.0, -187500.02235174447, 187500.0, 31131.12969769594, 28856.973809835174, 187500.0, 187500.0, -187500.02235174447, 30376.53480488477, -0.058, 0.982, -0.066, 192.0, 0.0, 0.0, 0.0, 0.0, 0.0, 0.0, 0.0, 0.0, 0.0, 1.6989590510931344E9, 0.0, 2023-11-02 17:04:11.093
26.0, -187500.02235174447, 187500.0, 31131.68849130732, 28858.33726624695, 187500.0, 187500.0, -187500.02235174447, 30375.97601127339, -0.058, 0.982, -0.066, 192.0, 0.0, 0.0, 0.0, 0.0, 0.0, 0.0, 0.0, 0.0, 0.0, 1.698959051093144E9, 0.0, 2023-11-02 17:04:11.093
27.0, -187500.02235174447, 187500.0, 31124.468877848256, 28855.967981334685, 187500.0, 187500.0, -187500.02235174447, 30368.95756351442, -0.06, 0.988, -0.066, 192.0, 254.0, 32.0, 30.0, 224.0, 253.0, 240.0, 0.0, 0.0, 0.0, 1.6989590510931597E9, 0.0, 2023-11-02 17:04:11.093
28.0, -187500.02235174447, 187500.0, 31116.846932988996, 28848.033112053054, 187500.0, 187500.0, -187500.02235174447, 30361.08974946615, -0.06, 0.988, -0.066, 192.0, 0.0, 0.0, 0.0, 0.0, 0.0, 0.0, 0.0, 0.0, 0.0, 1.698959051093171E9, 0.0, 2023-11-02 17:04:11.093
29.0, -187500.02235174447, 187500.0, 31121.965482469262, 28846.28967598554, 187500.0, 187500.0, -187500.02235174447, 30365.87302277959, -0.06, 0.988, -0.066, 192.0, 0.0, 0.0, 0.0, 0.0, 0.0, 0.0, 0.0, 0.0, 0.0, 1.698959051094015E9, 0.0, 2023-11-02 17:04:11.094
30.0, -187500.02235174447, 187500.0, 31131.621436073954, 28857.19732727973, 187500.0, 187500.0, -187500.02235174447, 30377.853557807633, -0.06, 0.988, -0.066, 192.0, 0.0, 0.0, 0.0, 0.0, 0.0, 0.0, 0.0, 0.0, 0.0, 1.6989590510940447E9, 0.0, 2023-11-02 17:04:11.094
31.0, -187500.02235174447, 187500.0, 31128.291026150113, 28859.410149980802, 187500.0, 187500.0, -187500.02235174447, 30375.707790339922, -0.06, 0.988, -0.066, 192.0, 0.0, 0.0, 0.0, 0.0, 0.0, 0.0, 0.0, 0.0, 0.0, 1.6989590510940547E9, 0.0, 2023-11-02 17:04:11.094
32.0, -187500.02235174447, 187500.0, 31131.26380816267, 28859.94659184773, 187500.0, 187500.0, -187500.02235174447, 30378.278240952284, -0.06, 0.988, -0.066, 192.0, 0.0, 0.0, 0.0, 0.0, 0.0, 0.0, 0.0, 0.0, 0.0, 1.6989590510940652E9, 0.0, 2023-11-02 17:04:11.094
33.0, -187500.02235174447, 187500.0, 31137.432889632335, 28857.778472635568, 187500.0, 187500.0, -187500.02235174447, 30382.949755543443, -0.06, 0.988, -0.066, 192.0, 0.0, 0.0, 0.0, 0.0, 0.0, 0.0, 0.0, 0.0, 0.0, 1.698959051094075E9, 0.0, 2023-11-02 17:04:11.094
34.0, -187500.02235174447, 187500.0, 31143.132584468436, 28860.48303371466, 187500.0, 187500.0, -187500.02235174447, 30387.26364222332, -0.06, 0.988, -0.066, 192.0, 0.0, 0.0, 0.0, 0.0, 0.0, 0.0, 0.0, 0.0, 0.0, 1.6989590510940857E9, 0.0, 2023-11-02 17:04:11.094
35.0, -187500.02235174447, 187500.0, 31137.723462310252, 28861.734731404154, 187500.0, 187500.0, -187500.02235174447, 30382.390961932062, -0.06, 0.988, -0.066, 192.0, 0.0, 0.0, 0.0, 0.0, 0.0, 0.0, 0.0, 0.0, 0.0, 1.6989590510940955E9, 0.0, 2023-11-02 17:04:11.094
36.0, -187500.02235174447, 187500.0, 31136.561171598576, 28857.689065657745, 187500.0, 187500.0, -187500.02235174447, 30383.083866010176, -0.06, 0.988, -0.066, 192.0, 0.0, 0.0, 0.0, 0.0, 0.0, 0.0, 0.0, 0.0, 0.0, 1.698959051094106E9, 0.0, 2023-11-02 17:04:11.094
37.0, -187500.02235174447, 187500.0, 31139.869229777963, 28859.812481381, 187500.0, 187500.0, -187500.02235174447, 30387.889491068065, -0.07, 0.988, -0.066, 192.0, 253.0, 208.0, 30.0, 224.0, 253.0, 240.0, 0.0, 0.0, 0.0, 1.698959051094116E9, 0.0, 2023-11-02 17:04:11.094
38.0, -187500.02235174447, 187500.0, 31134.25894191968, 28855.409187723304, 187500.0, 187500.0, -187500.02235174447, 30382.592127632157, -0.07, 0.988, -0.066, 192.0, 0.0, 0.0, 0.0, 0.0, 0.0, 0.0, 0.0, 0.0, 0.0, 1.698959051094128E9, 0.0, 2023-11-02 17:04:11.094
39.0, -187500.02235174447, 187500.0, 31134.81773553106, 28855.498594701126, 187500.0, 187500.0, -187500.02235174447, 30383.30738345473, -0.07, 0.988, -0.066, 192.0, 0.0, 0.0, 0.0, 0.0, 0.0, 0.0, 0.0, 0.0, 0.0, 1.698959051094138E9, 0.0, 2023-11-02 17:04:11.094
40.0, -187500.02235174447, 187500.0, 31129.67683430634, 28851.788205121542, 187500.0, 187500.0, -187500.02235174447, 30379.306421197227, -0.07, 0.988, -0.066, 192.0, 0.0, 0.0, 0.0, 0.0, 0.0, 0.0, 0.0, 0.0, 0.0, 1.6989590510941489E9, 0.0, 2023-11-02 17:04:11.094
41.0, -187500.02235174447, 187500.0, 31130.772069784653, 28849.776548120564, 187500.0, 187500.0, -187500.02235174447, 30380.424008419992, -0.07, 0.988, -0.066, 192.0, 0.0, 0.0, 0.0, 0.0, 0.0, 0.0, 0.0, 0.0, 0.0, 1.6989590510941608E9, 0.0, 2023-11-02 17:04:11.094
42.0, -187500.02235174447, 187500.0, 31128.223970916748, 28841.95343756121, 187500.0, 187500.0, -187500.02235174447, 30378.7699793303, -0.07, 0.988, -0.066, 192.0, 0.0, 0.0, 0.0, 0.0, 0.0, 0.0, 0.0, 0.0, 0.0, 1.6989590510941713E9, 0.0, 2023-11-02 17:04:11.094
43.0, -187500.02235174447, 187500.0, 31130.68266280683, 28846.46848994118, 187500.0, 187500.0, -187500.02235174447, 30382.078037509687, -0.07, 0.988, -0.066, 192.0, 0.0, 0.0, 0.0, 0.0, 0.0, 0.0, 0.0, 0.0, 0.0, 1.698959051094182E9, 0.0, 2023-11-02 17:04:11.094
44.0, -187500.02235174447, 187500.0, 31126.92756973834, 28844.345074217927, 187500.0, 187500.0, -187500.02235174447, 30378.546461885748, -0.07, 0.988, -0.066, 192.0, 0.0, 0.0, 0.0, 0.0, 0.0, 0.0, 0.0, 0.0, 0.0, 1.6989590510942645E9, 0.0, 2023-11-02 17:04:11.094
45.0, -187500.02235174447, 187500.0, 31127.329901138535, 28842.042844539028, 187500.0, 187500.0, -187500.02235174447, 30380.312249697716, -0.07, 0.988, -0.066, 192.0, 0.0, 0.0, 0.0, 0.0, 0.0, 0.0, 0.0, 0.0, 0.0, 1.6989590510942795E9, 0.0, 2023-11-02 17:04:11.094
46.0, -187500.02235174447, 187500.0, 31136.427061131846, 28847.183745763752, 187500.0, 187500.0, -187500.02235174447, 30389.409409691027, -0.07, 0.988, -0.066, 192.0, 0.0, 0.0, 0.0, 0.0, 0.0, 0.0, 0.0, 0.0, 0.0, 1.6989590510942924E9, 0.0, 2023-11-02 17:04:11.094
47.0, -187500.02235174447, 187500.0, 31138.30460766609, 28852.682274899755, 187500.0, 187500.0, -187500.02235174447, 30390.750514358344, -0.064, 0.984, -0.06, 192.0, 254.0, 0.0, 30.0, 192.0, 254.0, 32.0, 0.0, 0.0, 0.0, 1.6989590510943072E9, 0.0, 2023-11-02 17:04:11.094
48.0, -187500.02235174447, 187500.0, 31130.88382850693, 28849.441271953736, 187500.0, 187500.0, -187500.02235174447, 30383.575604388192, -0.064, 0.984, -0.06, 192.0, 0.0, 0.0, 0.0, 0.0, 0.0, 0.0, 0.0, 0.0, 0.0, 1.6989590510943315E9, 0.0, 2023-11-02 17:04:11.094
49.0, -187500.02235174447, 187500.0, 31131.97906398524, 28846.781414363555, 187500.0, 187500.0, -187500.02235174447, 30384.91670905551, -0.064, 0.984, -0.06, 192.0, 0.0, 0.0, 0.0, 0.0, 0.0, 0.0, 0.0, 0.0, 0.0, 1.6989590510943458E9, 0.0, 2023-11-02 17:04:11.094
50.0, -187500.02235174447, 187500.0, 31132.806078530084, 28844.6579986403, 187500.0, 187500.0, -187500.02235174447, 30386.146055000554, -0.064, 0.984, -0.06, 192.0, 0.0, 0.0, 0.0, 0.0, 0.0, 0.0, 0.0, 0.0, 0.0, 1.6989590510943584E9, 0.0, 2023-11-02 17:04:11.094
51.0, -187500.02235174447, 187500.0, 31130.101517450992, 28841.03701603854, 187500.0, 187500.0, -187500.02235174447, 30382.279203209786, -0.064, 0.984, -0.06, 192.0, 0.0, 0.0, 0.0, 0.0, 0.0, 0.0, 0.0, 0.0, 0.0, 1.698959051094373E9, 0.0, 2023-11-02 17:04:11.094
52.0, -187500.02235174447, 187500.0, 31127.240494160713, 28842.33341721695, 187500.0, 187500.0, -187500.02235174447, 30381.00515377583, -0.064, 0.984, -0.06, 192.0, 0.0, 0.0, 0.0, 0.0, 0.0, 0.0, 0.0, 0.0, 0.0, 1.6989590510943868E9, 0.0, 2023-11-02 17:04:11.094
53.0, -187500.02235174447, 187500.0, 31121.83137200253, 28835.829059580454, 187500.0, 187500.0, -187500.02235174447, 30377.20535721843, -0.064, 0.984, -0.06, 192.0, 0.0, 0.0, 0.0, 0.0, 0.0, 0.0, 0.0, 0.0, 0.0, 1.6989590510943975E9, 0.0, 2023-11-02 17:04:11.094
54.0, -187500.02235174447, 187500.0, 31127.374604627446, 28834.867934568876, 187500.0, 187500.0, -187500.02235174447, 30383.15092124354, -0.064, 0.984, -0.06, 192.0, 0.0, 0.0, 0.0, 0.0, 0.0, 0.0, 0.0, 0.0, 0.0, 1.6989590510944095E9, 0.0, 2023-11-02 17:04:11.094
55.0, -187500.02235174447, 187500.0, 31131.755546540684, 28836.56666714748, 187500.0, 187500.0, -187500.02235174447, 30386.123703256097, -0.064, 0.984, -0.06, 192.0, 0.0, 0.0, 0.0, 0.0, 0.0, 0.0, 0.0, 0.0, 0.0, 1.6989590510944383E9, 0.0, 2023-11-02 17:04:11.094
56.0, -187500.02235174447, 187500.0, 31129.565075584065, 28838.980655548654, 187500.0, 187500.0, -187500.02235174447, 30383.91088055502, -0.064, 0.984, -0.06, 192.0, 0.0, 0.0, 0.0, 0.0, 0.0, 0.0, 0.0, 0.0, 0.0, 1.69895905109445E9, 0.0, 2023-11-02 17:04:11.094
57.0, -187500.02235174447, 187500.0, 31129.92270349535, 28838.399510192816, 187500.0, 187500.0, -187500.02235174447, 30381.96627878741, -0.068, 0.986, -0.06, 192.0, 253.0, 224.0, 30.0, 208.0, 254.0, 32.0, 0.0, 0.0, 0.0, 1.6989590510944612E9, 0.0, 2023-11-02 17:04:11.094
58.0, -187500.02235174447, 187500.0, 31129.341558139513, 28832.72216710117, 187500.0, 187500.0, -187500.02235174447, 30379.217014219408, -0.068, 0.986, -0.06, 192.0, 0.0, 0.0, 0.0, 0.0, 0.0, 0.0, 0.0, 0.0, 0.0, 1.6989590510944753E9, 0.0, 2023-11-02 17:04:11.094
59.0, -187500.02235174447, 187500.0, 31133.253113419192, 28833.593885134924, 187500.0, 187500.0, -187500.02235174447, 30384.91670905551, -0.068, 0.986, -0.06, 192.0, 0.0, 0.0, 0.0, 0.0, 0.0, 0.0, 0.0, 0.0, 0.0, 1.6989590510945036E9, 0.0, 2023-11-02 17:04:11.094
60.0, -187500.02235174447, 187500.0, 31131.219104673757, 28832.31983570097, 187500.0, 187500.0, -187500.02235174447, 30383.933232299478, -0.068, 0.986, -0.06, 192.0, 0.0, 0.0, 0.0, 0.0, 0.0, 0.0, 0.0, 0.0, 0.0, 1.698959051094515E9, 0.0, 2023-11-02 17:04:11.094
61.0, -187500.02235174447, 187500.0, 31123.194828414304, 28822.306254184994, 187500.0, 187500.0, -187500.02235174447, 30374.411389161516, -0.068, 0.986, -0.06, 192.0, 0.0, 0.0, 0.0, 0.0, 0.0, 0.0, 0.0, 0.0, 0.0, 1.6989590510945253E9, 0.0, 2023-11-02 17:04:11.094
62.0, -187500.02235174447, 187500.0, 31126.25701740468, 28818.662919838778, 187500.0, 187500.0, -187500.02235174447, 30374.411389161516, -0.068, 0.986, -0.06, 192.0, 0.0, 0.0, 0.0, 0.0, 0.0, 0.0, 0.0, 0.0, 0.0, 1.698959051094535E9, 0.0, 2023-11-02 17:04:11.094
63.0, -187500.02235174447, 187500.0, 31128.02280521665, 28820.56281811748, 187500.0, 187500.0, -187500.02235174447, 30376.378342673583, -0.068, 0.986, -0.06, 192.0, 0.0, 0.0, 0.0, 0.0, 0.0, 0.0, 0.0, 0.0, 0.0, 1.698959051094545E9, 0.0, 2023-11-02 17:04:11.094
64.0, -187500.02235174447, 187500.0, 31131.621436073954, 28827.961245532188, 187500.0, 187500.0, -187500.02235174447, 30382.92740379899, -0.068, 0.986, -0.06, 192.0, 0.0, 0.0, 0.0, 0.0, 0.0, 0.0, 0.0, 0.0, 0.0, 1.6989590510945544E9, 0.0, 2023-11-02 17:04:11.094
65.0, -187500.02235174447, 187500.0, 31135.108308208983, 28841.7075683722, 187500.0, 187500.0, -187500.02235174447, 30389.387057946573, -0.068, 0.986, -0.06, 192.0, 0.0, 0.0, 0.0, 0.0, 0.0, 0.0, 0.0, 0.0, 0.0, 1.698959051094564E9, 0.0, 2023-11-02 17:04:11.094
66.0, -187500.02235174447, 187500.0, 31129.07333720605, 28838.131289259352, 187500.0, 187500.0, -187500.02235174447, 30385.050819522243, -0.068, 0.986, -0.06, 192.0, 0.0, 0.0, 0.0, 0.0, 0.0, 0.0, 0.0, 0.0, 0.0, 1.6989590510945735E9, 0.0, 2023-11-02 17:04:11.094
67.0, -187500.02235174447, 187500.0, 31133.320168652557, 28837.304274714505, 187500.0, 187500.0, -187500.02235174447, 30390.750514358344, -0.068, 0.982, -0.06, 192.0, 253.0, 224.0, 30.0, 176.0, 254.0, 32.0, 0.0, 0.0, 0.0, 1.6989590510945833E9, 0.0, 2023-11-02 17:04:11.094
68.0, -187500.02235174447, 187500.0, 31129.855648261982, 28836.6560741253, 187500.0, 187500.0, -187500.02235174447, 30389.387057946573, -0.068, 0.982, -0.06, 192.0, 0.0, 0.0, 0.0, 0.0, 0.0, 0.0, 0.0, 0.0, 0.0, 1.6989590510945942E9, 0.0, 2023-11-02 17:04:11.094
69.0, -187500.02235174447, 187500.0, 31128.559247083576, 28837.527792159057, 187500.0, 187500.0, -187500.02235174447, 30387.733028856877, -0.068, 0.982, -0.06, 192.0, 0.0, 0.0, 0.0, 0.0, 0.0, 0.0, 0.0, 0.0, 0.0, 1.6989590510946054E9, 0.0, 2023-11-02 17:04:11.094
70.0, -187500.02235174447, 187500.0, 31130.92853199584, 28836.477260169657, 187500.0, 187500.0, -187500.02235174447, 30389.29765096875, -0.068, 0.982, -0.06, 192.0, 0.0, 0.0, 0.0, 0.0, 0.0, 0.0, 0.0, 0.0, 0.0, 1.698959051094615E9, 0.0, 2023-11-02 17:04:11.094
71.0, -187500.02235174447, 187500.0, 31130.86147676247, 28832.878629312352, 187500.0, 187500.0, -187500.02235174447, 30389.11883701311, -0.068, 0.982, -0.06, 192.0, 0.0, 0.0, 0.0, 0.0, 0.0, 0.0, 0.0, 0.0, 0.0, 1.6989590510946245E9, 0.0, 2023-11-02 17:04:11.094
72.0, -187500.02235174447, 187500.0, 31131.286159907122, 28831.626931622857, 187500.0, 187500.0, -187500.02235174447, 30388.940023057465, -0.068, 0.982, -0.06, 192.0, 0.0, 0.0, 0.0, 0.0, 0.0, 0.0, 0.0, 0.0, 0.0, 1.698959051094634E9, 0.0, 2023-11-02 17:04:11.094
73.0, -187500.02235174447, 187500.0, 31124.804154015084, 28829.905847299797, 187500.0, 187500.0, -187500.02235174447, 30383.91088055502, -0.068, 0.982, -0.06, 192.0, 0.0, 0.0, 0.0, 0.0, 0.0, 0.0, 0.0, 0.0, 0.0, 1.6989590510946438E9, 0.0, 2023-11-02 17:04:11.094
74.0, -187500.02235174447, 187500.0, 31121.809020258075, 28826.396623420314, 187500.0, 187500.0, -187500.02235174447, 30383.48619741037, -0.068, 0.982, -0.06, 192.0, 0.0, 0.0, 0.0, 0.0, 0.0, 0.0, 0.0, 0.0, 0.0, 1.6989590510946536E9, 0.0, 2023-11-02 17:04:11.094
75.0, -187500.02235174447, 187500.0, 31125.430002859834, 28828.475335654657, 187500.0, 187500.0, -187500.02235174447, 30388.06830502371, -0.068, 0.982, -0.06, 192.0, 0.0, 0.0, 0.0, 0.0, 0.0, 0.0, 0.0, 0.0, 0.0, 1.698959051094673E9, 0.0, 2023-11-02 17:04:11.094
76.0, -187500.02235174447, 187500.0, 31131.01793897366, 28835.51613515808, 187500.0, 187500.0, -187500.02235174447, 30394.170331260008, -0.068, 0.982, -0.06, 192.0, 0.0, 0.0, 0.0, 0.0, 0.0, 0.0, 0.0, 0.0, 0.0, 1.6989590510946825E9, 0.0, 2023-11-02 17:04:11.094
77.0, -187500.02235174447, 187500.0, 31125.653520304386, 28838.71243461519, 187500.0, 187500.0, -187500.02235174447, 30390.9740318029, -0.064, 0.974, -0.06, 192.0, 254.0, 0.0, 30.0, 112.0, 254.0, 32.0, 0.0, 0.0, 0.0, 1.6989590510946925E9, 0.0, 2023-11-02 17:04:11.094
78.0, -187500.02235174447, 187500.0, 31116.86928473345, 28827.245989709616, 187500.0, 187500.0, -187500.02235174447, 30380.938098542465, -0.064, 0.974, -0.06, 192.0, 0.0, 0.0, 0.0, 0.0, 0.0, 0.0, 0.0, 0.0, 0.0, 1.6989590510947032E9, 0.0, 2023-11-02 17:04:11.094
79.0, -187500.02235174447, 187500.0, 31117.74100276721, 28825.390794919826, 187500.0, 187500.0, -187500.02235174447, 30380.53576714227, -0.064, 0.974, -0.06, 192.0, 0.0, 0.0, 0.0, 0.0, 0.0, 0.0, 0.0, 0.0, 0.0, 1.6989590510947127E9, 0.0, 2023-11-02 17:04:11.094
80.0, -187500.02235174447, 187500.0, 31125.273540648646, 28830.41993742227, 187500.0, 187500.0, -187500.02235174447, 30389.409409691027, -0.064, 0.974, -0.06, 192.0, 0.0, 0.0, 0.0, 0.0, 0.0, 0.0, 0.0, 0.0, 0.0, 1.6989590510947225E9, 0.0, 2023-11-02 17:04:11.094
81.0, -187500.02235174447, 187500.0, 31126.480534849234, 28832.07396651196, 187500.0, 187500.0, -187500.02235174447, 30390.39288644706, -0.064, 0.974, -0.06, 192.0, 0.0, 0.0, 0.0, 0.0, 0.0, 0.0, 0.0, 0.0, 0.0, 1.6989590510947328E9, 0.0, 2023-11-02 17:04:11.094
82.0, -187500.02235174447, 187500.0, 31125.72057553775, 28829.704681599702, 187500.0, 187500.0, -187500.02235174447, 30387.218938734408, -0.064, 0.974, -0.06, 192.0, 0.0, 0.0, 0.0, 0.0, 0.0, 0.0, 0.0, 0.0, 0.0, 1.6989590510947423E9, 0.0, 2023-11-02 17:04:11.094
83.0, -187500.02235174447, 187500.0, 31126.435831360322, 28830.59875137791, 187500.0, 187500.0, -187500.02235174447, 30387.509511412325, -0.064, 0.974, -0.06, 192.0, 0.0, 0.0, 0.0, 0.0, 0.0, 0.0, 0.0, 0.0, 0.0, 1.698959051094752E9, 0.0, 2023-11-02 17:04:11.094
84.0, -187500.02235174447, 187500.0, 31130.325034895544, 28831.917504300774, 187500.0, 187500.0, -187500.02235174447, 30393.41037194853, -0.064, 0.974, -0.06, 192.0, 0.0, 0.0, 0.0, 0.0, 0.0, 0.0, 0.0, 0.0, 0.0, 1.6989590510947618E9, 0.0, 2023-11-02 17:04:11.094
85.0, -187500.02235174447, 187500.0, 31130.593255829008, 28837.86306832589, 187500.0, 187500.0, -187500.02235174447, 30395.8243603497, -0.064, 0.974, -0.06, 192.0, 0.0, 0.0, 0.0, 0.0, 0.0, 0.0, 0.0, 0.0, 0.0, 1.6989590510947716E9, 0.0, 2023-11-02 17:04:11.094
86.0, -187500.02235174447, 187500.0, 31124.647691803897, 28832.252780467606, 187500.0, 187500.0, -187500.02235174447, 30388.783560846277, -0.064, 0.974, -0.06, 192.0, 0.0, 0.0, 0.0, 0.0, 0.0, 0.0, 0.0, 0.0, 0.0, 1.698959051094781E9, 0.0, 2023-11-02 17:04:11.094
87.0, -187500.02235174447, 187500.0, 31125.899389493396, 28829.704681599702, 187500.0, 187500.0, -187500.02235174447, 30388.716505612912, -0.068, 0.98, -0.056, 192.0, 253.0, 224.0, 30.0, 160.0, 254.0, 64.0, 0.0, 0.0, 0.0, 1.6989590510947907E9, 0.0, 2023-11-02 17:04:11.094
88.0, -187500.02235174447, 187500.0, 31134.281293664135, 28833.14685024582, 187500.0, 187500.0, -187500.02235174447, 30397.97012781741, -0.068, 0.98, -0.056, 192.0, 0.0, 0.0, 0.0, 0.0, 0.0, 0.0, 0.0, 0.0, 0.0, 1.6989590510948012E9, 0.0, 2023-11-02 17:04:11.094
89.0, -187500.02235174447, 187500.0, 31135.3988808869, 28836.23139098065, 187500.0, 187500.0, -187500.02235174447, 30398.886549340077, -0.068, 0.98, -0.056, 192.0, 0.0, 0.0, 0.0, 0.0, 0.0, 0.0, 0.0, 0.0, 0.0, 1.6989590510948107E9, 0.0, 2023-11-02 17:04:11.094
90.0, -187500.02235174447, 187500.0, 31130.01211047317, 28829.056481010495, 187500.0, 187500.0, -187500.02235174447, 30392.40454344804, -0.068, 0.98, -0.056, 192.0, 0.0, 0.0, 0.0, 0.0, 0.0, 0.0, 0.0, 0.0, 0.0, 1.6989590510948384E9, 0.0, 2023-11-02 17:04:11.094
91.0, -187500.02235174447, 187500.0, 31123.172476669846, 28817.32181517146, 187500.0, 187500.0, -187500.02235174447, 30384.872005566598, -0.068, 0.98, -0.056, 192.0, 0.0, 0.0, 0.0, 0.0, 0.0, 0.0, 0.0, 0.0, 0.0, 1.6989590510948508E9, 0.0, 2023-11-02 17:04:11.094
92.0, -187500.02235174447, 187500.0, 31128.469840105754, 28815.444268637213, 187500.0, 187500.0, -187500.02235174447, 30387.8224358347, -0.068, 0.98, -0.056, 192.0, 0.0, 0.0, 0.0, 0.0, 0.0, 0.0, 0.0, 0.0, 0.0, 1.698959051094861E9, 0.0, 2023-11-02 17:04:11.094
93.0, -187500.02235174447, 187500.0, 31124.759450526173, 28814.37138490336, 187500.0, 187500.0, -187500.02235174447, 30385.073171266697, -0.068, 0.98, -0.056, 192.0, 0.0, 0.0, 0.0, 0.0, 0.0, 0.0, 0.0, 0.0, 0.0, 1.698959051094872E9, 0.0, 2023-11-02 17:04:11.094
94.0, -187500.02235174447, 187500.0, 31118.16568591186, 28808.783448789534, 187500.0, 187500.0, -187500.02235174447, 30379.217014219408, -0.068, 0.98, -0.056, 192.0, 0.0, 0.0, 0.0, 0.0, 0.0, 0.0, 0.0, 0.0, 0.0, 1.6989590510948896E9, 0.0, 2023-11-02 17:04:11.094
95.0, -187500.02235174447, 187500.0, 31122.188999913815, 28809.9010360123, 187500.0, 187500.0, -187500.02235174447, 30384.134397999576, -0.068, 0.98, -0.056, 192.0, 0.0, 0.0, 0.0, 0.0, 0.0, 0.0, 0.0, 0.0, 0.0, 1.698959051094902E9, 0.0, 2023-11-02 17:04:11.094
96.0, -187500.02235174447, 187500.0, 31121.54079932461, 28807.21882667766, 187500.0, 187500.0, -187500.02235174447, 30384.58143288868, -0.068, 0.98, -0.056, 192.0, 0.0, 0.0, 0.0, 0.0, 0.0, 0.0, 0.0, 0.0, 0.0, 1.698959051094912E9, 0.0, 2023-11-02 17:04:11.094
97.0, -187500.02235174447, 187500.0, 31124.088898192516, 28807.330585399937, 187500.0, 187500.0, -187500.02235174447, 30385.140226500065, -0.08, 0.974, -0.052000000000000005, 192.0, 253.0, 128.0, 30.0, 112.0, 254.0, 96.0, 0.0, 0.0, 0.0, 1.698959051094922E9, 0.0, 2023-11-02 17:04:11.094
98.0, -187500.02235174447, 187500.0, 31128.000453472192, 28814.773716303556, 187500.0, 187500.0, -187500.02235174447, 30388.180063745986, -0.08, 0.974, -0.052000000000000005, 192.0, 0.0, 0.0, 0.0, 0.0, 0.0, 0.0, 0.0, 0.0, 0.0, 1.6989590510949347E9, 0.0, 2023-11-02 17:04:11.094
99.0, -187500.02235174447, 187500.0, 31125.228837159735, 28808.89520751181, 187500.0, 187500.0, -187500.02235174447, 30384.804950333233, -0.08, 0.974, -0.052000000000000005, 192.0, 0.0, 0.0, 0.0, 0.0, 0.0, 0.0, 0.0, 0.0, 0.0, 1.6989590510949464E9, 0.0, 2023-11-02 17:04:11.094
100.0, -187500.02235174447, 187500.0, 31128.40278487239, 28803.26256790907, 187500.0, 187500.0, -187500.02235174447, 30387.978898045887, -0.08, 0.974, -0.052000000000000005, 192.0, 0.0, 0.0, 0.0, 0.0, 0.0, 0.0, 0.0, 0.0, 0.0, 1.6989590510949583E9, 0.0, 2023-11-02 17:04:11.094
101.0, -187500.02235174447, 187500.0, 31132.694319807808, 28809.789277290023, 187500.0, 187500.0, -187500.02235174447, 30391.73399111438, -0.08, 0.974, -0.052000000000000005, 192.0, 0.0, 0.0, 0.0, 0.0, 0.0, 0.0, 0.0, 0.0, 0.0, 1.6989590510949748E9, 0.0, 2023-11-02 17:04:11.094
102.0, -187500.02235174447, 187500.0, 31133.096651208005, 28814.058460480985, 187500.0, 187500.0, -187500.02235174447, 30390.236424235874, -0.08, 0.974, -0.052000000000000005, 192.0, 0.0, 0.0, 0.0, 0.0, 0.0, 0.0, 0.0, 0.0, 0.0, 1.6989590510949895E9, 0.0, 2023-11-02 17:04:11.094
103.0, -187500.02235174447, 187500.0, 31126.39112787141, 28808.917559256264, 187500.0, 187500.0, -187500.02235174447, 30379.932270041976, -0.08, 0.974, -0.052000000000000005, 192.0, 0.0, 0.0, 0.0, 0.0, 0.0, 0.0, 0.0, 0.0, 0.0, 1.698959051095009E9, 0.0, 2023-11-02 17:04:11.095
104.0, -187500.02235174447, 187500.0, 31127.73223253873, 28800.17802717424, 187500.0, 187500.0, -187500.02235174447, 30377.451226407436, -0.08, 0.974, -0.052000000000000005, 192.0, 0.0, 0.0, 0.0, 0.0, 0.0, 0.0, 0.0, 0.0, 0.0, 1.6989590510950198E9, 0.0, 2023-11-02 17:04:11.095
105.0, -187500.02235174447, 187500.0, 31129.520372095154, 28797.495817839605, 187500.0, 187500.0, -187500.02235174447, 30378.322944441195, -0.08, 0.974, -0.052000000000000005, 192.0, 0.0, 0.0, 0.0, 0.0, 0.0, 0.0, 0.0, 0.0, 0.0, 1.6989590510950432E9, 0.0, 2023-11-02 17:04:11.095
106.0, -187500.02235174447, 187500.0, 31127.866343005462, 28801.295614397004, 187500.0, 187500.0, -187500.02235174447, 30377.58533687417, -0.08, 0.974, -0.052000000000000005, 192.0, 0.0, 0.0, 0.0, 0.0, 0.0, 0.0, 0.0, 0.0, 0.0, 1.698959051095053E9, 0.0, 2023-11-02 17:04:11.095
107.0, -187500.02235174447, 187500.0, 31129.967406984262, 28802.815533019966, 187500.0, 187500.0, -187500.02235174447, 30380.20049097544, -0.082, 0.98, -0.044, 192.0, 253.0, 112.0, 30.0, 160.0, 254.0, 160.0, 0.0, 0.0, 0.0, 1.6989590510950627E9, 0.0, 2023-11-02 17:04:11.095
108.0, -187500.02235174447, 187500.0, 31133.36487214147, 28802.03322196403, 187500.0, 187500.0, -187500.02235174447, 30381.7204095984, -0.082, 0.98, -0.044, 192.0, 0.0, 0.0, 0.0, 0.0, 0.0, 0.0, 0.0, 0.0, 0.0, 1.6989590510950735E9, 0.0, 2023-11-02 17:04:11.095
109.0, -187500.02235174447, 187500.0, 31139.131622210938, 28804.201341176195, 187500.0, 187500.0, -187500.02235174447, 30386.324868956195, -0.082, 0.98, -0.044, 192.0, 0.0, 0.0, 0.0, 0.0, 0.0, 0.0, 0.0, 0.0, 0.0, 1.6989590510950832E9, 0.0, 2023-11-02 17:04:11.095
110.0, -187500.02235174447, 187500.0, 31139.802174544595, 28808.872855767353, 187500.0, 187500.0, -187500.02235174447, 30384.20145323294, -0.082, 0.98, -0.044, 192.0, 0.0, 0.0, 0.0, 0.0, 0.0, 0.0, 0.0, 0.0, 0.0, 1.698959051095093E9, 0.0, 2023-11-02 17:04:11.095
111.0, -187500.02235174447, 187500.0, 31140.808003045084, 28812.002099991096, 187500.0, 187500.0, -187500.02235174447, 30380.11108399762, -0.082, 0.98, -0.044, 192.0, 0.0, 0.0, 0.0, 0.0, 0.0, 0.0, 0.0, 0.0, 0.0, 1.698959051095103E9, 0.0, 2023-11-02 17:04:11.095
112.0, -187500.02235174447, 187500.0, 31142.39497690141, 28812.89616976931, 187500.0, 187500.0, -187500.02235174447, 30380.69222935346, -0.082, 0.98, -0.044, 192.0, 0.0, 0.0, 0.0, 0.0, 0.0, 0.0, 0.0, 0.0, 0.0, 1.6989590510951157E9, 0.0, 2023-11-02 17:04:11.095
113.0, -187500.02235174447, 187500.0, 31147.222953703757, 28814.97488200365, 187500.0, 187500.0, -187500.02235174447, 30386.39192418956, -0.082, 0.98, -0.044, 192.0, 0.0, 0.0, 0.0, 0.0, 0.0, 0.0, 0.0, 0.0, 0.0, 1.698959051095127E9, 0.0, 2023-11-02 17:04:11.095
114.0, -187500.02235174447, 187500.0, 31147.02178800366, 28816.159524459785, 187500.0, 187500.0, -187500.02235174447, 30387.44245617896, -0.082, 0.98, -0.044, 192.0, 0.0, 0.0, 0.0, 0.0, 0.0, 0.0, 0.0, 0.0, 0.0, 1.6989590510951445E9, 0.0, 2023-11-02 17:04:11.095
115.0, -187500.02235174447, 187500.0, 31142.484383879233, 28815.04193723702, 187500.0, 187500.0, -187500.02235174447, 30384.715543355414, -0.082, 0.98, -0.044, 192.0, 0.0, 0.0, 0.0, 0.0, 0.0, 0.0, 0.0, 0.0, 0.0, 1.6989590510951588E9, 0.0, 2023-11-02 17:04:11.095
116.0, -187500.02235174447, 187500.0, 31140.74094781172, 28812.471486624658, 187500.0, 187500.0, -187500.02235174447, 30382.72623809889, -0.082, 0.98, -0.044, 192.0, 0.0, 0.0, 0.0, 0.0, 0.0, 0.0, 0.0, 0.0, 0.0, 1.6989590510951712E9, 0.0, 2023-11-02 17:04:11.095
117.0, -187500.02235174447, 187500.0, 31145.21129670278, 28812.94087325822, 187500.0, 187500.0, -187500.02235174447, 30385.699020111446, -0.078, 0.974, -0.042, 192.0, 253.0, 144.0, 30.0, 112.0, 254.0, 176.0, 0.0, 0.0, 0.0, 1.6989590510951903E9, 0.0, 2023-11-02 17:04:11.095
118.0, -187500.02235174447, 187500.0, 31150.531011883144, 28815.6007308484, 187500.0, 187500.0, -187500.02235174447, 30387.934194556976, -0.078, 0.974, -0.042, 192.0, 0.0, 0.0, 0.0, 0.0, 0.0, 0.0, 0.0, 0.0, 0.0, 1.698959051095204E9, 0.0, 2023-11-02 17:04:11.095
119.0, -187500.02235174447, 187500.0, 31147.848802548506, 28815.24310293712, 187500.0, 187500.0, -187500.02235174447, 30382.323906698693, -0.078, 0.974, -0.042, 192.0, 0.0, 0.0, 0.0, 0.0, 0.0, 0.0, 0.0, 0.0, 0.0, 1.6989590510952225E9, 0.0, 2023-11-02 17:04:11.095
120.0, -187500.02235174447, 187500.0, 31146.574753114553, 28812.650300580302, 187500.0, 187500.0, -187500.02235174447, 30381.04985726474, -0.078, 0.974, -0.042, 192.0, 0.0, 0.0, 0.0, 0.0, 0.0, 0.0, 0.0, 0.0, 0.0, 1.6989590510952685E9, 0.0, 2023-11-02 17:04:11.095
121.0, -187500.02235174447, 187500.0, 31149.480479893744, 28813.209094191683, 187500.0, 187500.0, -187500.02235174447, 30387.330697456684, -0.078, 0.974, -0.042, 192.0, 0.0, 0.0, 0.0, 0.0, 0.0, 0.0, 0.0, 0.0, 0.0, 1.6989590515729434E9, 0.0, 2023-11-02 17:04:11.572
122.0, -187500.02235174447, 187500.0, 31153.772014829163, 28817.45592563819, 187500.0, 187500.0, -187500.02235174447, 30393.700944626446, -0.078, 0.974, -0.042, 192.0, 0.0, 0.0, 0.0, 0.0, 0.0, 0.0, 0.0, 0.0, 0.0, 1.6989590515730567E9, 0.0, 2023-11-02 17:04:11.573
123.0, -187500.02235174447, 187500.0, 31146.865325792474, 28813.454963380693, 187500.0, 187500.0, -187500.02235174447, 30386.548386400747, -0.078, 0.974, -0.042, 192.0, 0.0, 0.0, 0.0, 0.0, 0.0, 0.0, 0.0, 0.0, 0.0, 1.6989590515730689E9, 0.0, 2023-11-02 17:04:11.573
124.0, -187500.02235174447, 187500.0, 31140.249209433703, 28803.396678375804, 187500.0, 187500.0, -187500.02235174447, 30380.736932842367, -0.078, 0.974, -0.042, 192.0, 0.0, 0.0, 0.0, 0.0, 0.0, 0.0, 0.0, 0.0, 0.0, 1.6989590515730803E9, 0.0, 2023-11-02 17:04:11.573
125.0, -187500.02235174447, 187500.0, 31144.898372280404, 28800.40154461879, 187500.0, 187500.0, -187500.02235174447, 30383.77677008829, -0.078, 0.974, -0.042, 192.0, 0.0, 0.0, 0.0, 0.0, 0.0, 0.0, 0.0, 0.0, 0.0, 1.6989590515730915E9, 0.0, 2023-11-02 17:04:11.573
126.0, -187500.02235174447, 187500.0, 31145.568924614065, 28800.93798648572, 187500.0, 187500.0, -187500.02235174447, 30383.262679965817, -0.078, 0.974, -0.042, 192.0, 0.0, 0.0, 0.0, 0.0, 0.0, 0.0, 0.0, 0.0, 0.0, 1.698959051573102E9, 0.0, 2023-11-02 17:04:11.573
127.0, -187500.02235174447, 187500.0, 31136.605875087487, 28792.533730570525, 187500.0, 187500.0, -187500.02235174447, 30373.830243805678, -0.066, 0.974, -0.038, 192.0, 253.0, 240.0, 30.0, 112.0, 254.0, 208.0, 0.0, 0.0, 0.0, 1.6989590515731156E9, 0.0, 2023-11-02 17:04:11.573
128.0, -187500.02235174447, 187500.0, 31140.137450711427, 28792.310213125973, 187500.0, 187500.0, -187500.02235174447, 30376.177176973484, -0.066, 0.974, -0.038, 192.0, 0.0, 0.0, 0.0, 0.0, 0.0, 0.0, 0.0, 0.0, 0.0, 1.6989590515731277E9, 0.0, 2023-11-02 17:04:11.573
129.0, -187500.02235174447, 187500.0, 31141.433851889833, 28793.36074511537, 187500.0, 187500.0, -187500.02235174447, 30376.82537756269, -0.066, 0.974, -0.038, 192.0, 0.0, 0.0, 0.0, 0.0, 0.0, 0.0, 0.0, 0.0, 0.0, 1.6989590515731392E9, 0.0, 2023-11-02 17:04:11.573
130.0, -187500.02235174447, 187500.0, 31137.790517543617, 28788.51041656857, 187500.0, 187500.0, -187500.02235174447, 30370.276316437285, -0.066, 0.974, -0.038, 192.0, 0.0, 0.0, 0.0, 0.0, 0.0, 0.0, 0.0, 0.0, 0.0, 1.69895905157315E9, 0.0, 2023-11-02 17:04:11.573
131.0, -187500.02235174447, 187500.0, 31130.235627917726, 28779.927346697732, 187500.0, 187500.0, -187500.02235174447, 30358.899278509532, -0.066, 0.974, -0.038, 192.0, 0.0, 0.0, 0.0, 0.0, 0.0, 0.0, 0.0, 0.0, 0.0, 1.6989590515731604E9, 0.0, 2023-11-02 17:04:11.573
132.0, -187500.02235174447, 187500.0, 31129.609779072976, 28775.88168095132, 187500.0, 187500.0, -187500.02235174447, 30353.020769717787, -0.066, 0.974, -0.038, 192.0, 0.0, 0.0, 0.0, 0.0, 0.0, 0.0, 0.0, 0.0, 0.0, 1.6989590515731711E9, 0.0, 2023-11-02 17:04:11.573
133.0, -187500.02235174447, 187500.0, 31130.86147676247, 28771.858366949367, 187500.0, 187500.0, -187500.02235174447, 30351.411444117006, -0.066, 0.974, -0.038, 192.0, 0.0, 0.0, 0.0, 0.0, 0.0, 0.0, 0.0, 0.0, 0.0, 1.6989590515731888E9, 0.0, 2023-11-02 17:04:11.573
134.0, -187500.02235174447, 187500.0, 31133.40957563038, 28769.466730292646, 187500.0, 187500.0, -187500.02235174447, 30351.836127261657, -0.066, 0.974, -0.038, 192.0, 0.0, 0.0, 0.0, 0.0, 0.0, 0.0, 0.0, 0.0, 0.0, 1.6989590515731988E9, 0.0, 2023-11-02 17:04:11.573
135.0, -187500.02235174447, 187500.0, 31130.749718040195, 28768.12562562533, 187500.0, 187500.0, -187500.02235174447, 30346.181135914463, -0.066, 0.974, -0.038, 192.0, 0.0, 0.0, 0.0, 0.0, 0.0, 0.0, 0.0, 0.0, 0.0, 1.698959051573256E9, 0.0, 2023-11-02 17:04:11.573
136.0, -187500.02235174447, 187500.0, 31129.050985461592, 28767.92445992523, 187500.0, 187500.0, -187500.02235174447, 30342.33663586815, -0.066, 0.974, -0.038, 192.0, 0.0, 0.0, 0.0, 0.0, 0.0, 0.0, 0.0, 0.0, 0.0, 1.698959051573266E9, 0.0, 2023-11-02 17:04:11.573
137.0, -187500.02235174447, 187500.0, 31126.122906937948, 28765.30930582396, 187500.0, 187500.0, -187500.02235174447, 30336.23460963185, -0.054, 0.978, -0.04, 192.0, 254.0, 80.0, 30.0, 144.0, 254.0, 192.0, 0.0, 0.0, 0.0, 1.6989590515732756E9, 0.0, 2023-11-02 17:04:11.573
138.0, -187500.02235174447, 187500.0, 31131.084994207027, 28768.147977369783, 187500.0, 187500.0, -187500.02235174447, 30338.380377099562, -0.054, 0.978, -0.04, 192.0, 0.0, 0.0, 0.0, 0.0, 0.0, 0.0, 0.0, 0.0, 0.0, 1.698959051573286E9, 0.0, 2023-11-02 17:04:11.573
139.0, -187500.02235174447, 187500.0, 31126.83816276052, 28765.06343663495, 187500.0, 187500.0, -187500.02235174447, 30331.563095040692, -0.054, 0.978, -0.04, 192.0, 0.0, 0.0, 0.0, 0.0, 0.0, 0.0, 0.0, 0.0, 0.0, 1.6989590515732956E9, 0.0, 2023-11-02 17:04:11.573
140.0, -187500.02235174447, 187500.0, 31122.278406891633, 28757.84382317589, 187500.0, 187500.0, -187500.02235174447, 30325.37166182657, -0.054, 0.978, -0.04, 192.0, 0.0, 0.0, 0.0, 0.0, 0.0, 0.0, 0.0, 0.0, 0.0, 1.6989590515733051E9, 0.0, 2023-11-02 17:04:11.573
141.0, -187500.02235174447, 187500.0, 31121.20552315778, 28753.12760509582, 187500.0, 187500.0, -187500.02235174447, 30322.980025169854, -0.054, 0.978, -0.04, 192.0, 0.0, 0.0, 0.0, 0.0, 0.0, 0.0, 0.0, 0.0, 0.0, 1.698959051573315E9, 0.0, 2023-11-02 17:04:11.573
142.0, -187500.02235174447, 187500.0, 31118.500962078688, 28745.751529425568, 187500.0, 187500.0, -187500.02235174447, 30318.084993134144, -0.054, 0.978, -0.04, 192.0, 0.0, 0.0, 0.0, 0.0, 0.0, 0.0, 0.0, 0.0, 0.0, 1.6989590515733244E9, 0.0, 2023-11-02 17:04:11.573
143.0, -187500.02235174447, 187500.0, 31127.26284590517, 28750.40069227227, 187500.0, 187500.0, -187500.02235174447, 30324.34348158163, -0.054, 0.978, -0.04, 192.0, 0.0, 0.0, 0.0, 0.0, 0.0, 0.0, 0.0, 0.0, 0.0, 1.698959051573334E9, 0.0, 2023-11-02 17:04:11.573
144.0, -187500.02235174447, 187500.0, 31121.63020630243, 28748.992532371587, 187500.0, 187500.0, -187500.02235174447, 30318.889655934534, -0.054, 0.978, -0.04, 192.0, 0.0, 0.0, 0.0, 0.0, 0.0, 0.0, 0.0, 0.0, 0.0, 1.698959051573344E9, 0.0, 2023-11-02 17:04:11.573
145.0, -187500.02235174447, 187500.0, 31116.846932988996, 28742.778747413013, 187500.0, 187500.0, -187500.02235174447, 30313.43583028744, -0.054, 0.978, -0.04, 192.0, 0.0, 0.0, 0.0, 0.0, 0.0, 0.0, 0.0, 0.0, 0.0, 1.6989590515733538E9, 0.0, 2023-11-02 17:04:11.573
146.0, -187500.02235174447, 187500.0, 31117.71865102275, 28741.862325890343, 187500.0, 187500.0, -187500.02235174447, 30313.167609353975, -0.054, 0.978, -0.04, 192.0, 0.0, 0.0, 0.0, 0.0, 0.0, 0.0, 0.0, 0.0, 0.0, 1.6989590515733633E9, 0.0, 2023-11-02 17:04:11.573
147.0, -187500.02235174447, 187500.0, 31120.914950479862, 28743.49400323558, 187500.0, 187500.0, -187500.02235174447, 30315.134562866042, -0.052000000000000005, 0.978, -0.036000000000000004, 192.0, 254.0, 96.0, 30.0, 144.0, 254.0, 224.0, 0.0, 0.0, 0.0, 1.6989590515733728E9, 0.0, 2023-11-02 17:04:11.573
148.0, -187500.02235174447, 187500.0, 31128.69335755031, 28755.5862969859, 187500.0, 187500.0, -187500.02235174447, 30323.449411803416, -0.052000000000000005, 0.978, -0.036000000000000004, 192.0, 0.0, 0.0, 0.0, 0.0, 0.0, 0.0, 0.0, 0.0, 0.0, 1.698959051573383E9, 0.0, 2023-11-02 17:04:11.573
149.0, -187500.02235174447, 187500.0, 31128.738061039217, 28757.285029564504, 187500.0, 187500.0, -187500.02235174447, 30322.778859469756, -0.052000000000000005, 0.978, -0.036000000000000004, 192.0, 0.0, 0.0, 0.0, 0.0, 0.0, 0.0, 0.0, 0.0, 0.0, 1.698959051573393E9, 0.0, 2023-11-02 17:04:11.573
150.0, -187500.02235174447, 187500.0, 31132.649616318897, 28756.770939442034, 187500.0, 187500.0, -187500.02235174447, 30323.89644669252, -0.052000000000000005, 0.978, -0.036000000000000004, 192.0, 0.0, 0.0, 0.0, 0.0, 0.0, 0.0, 0.0, 0.0, 0.0, 1.6989590515734117E9, 0.0, 2023-11-02 17:04:11.573
151.0, -187500.02235174447, 187500.0, 31129.945055239805, 28749.59602947188, 187500.0, 187500.0, -187500.02235174447, 30320.208408857397, -0.052000000000000005, 0.978, -0.036000000000000004, 192.0, 0.0, 0.0, 0.0, 0.0, 0.0, 0.0, 0.0, 0.0, 0.0, 1.6989590515734212E9, 0.0, 2023-11-02 17:04:11.573
152.0, -187500.02235174447, 187500.0, 31130.88382850693, 28748.50079399357, 187500.0, 187500.0, -187500.02235174447, 30319.04611814572, -0.052000000000000005, 0.978, -0.036000000000000004, 192.0, 0.0, 0.0, 0.0, 0.0, 0.0, 0.0, 0.0, 0.0, 0.0, 1.6989590515734308E9, 0.0, 2023-11-02 17:04:11.573
153.0, -187500.02235174447, 187500.0, 31127.486363349723, 28740.185945056197, 187500.0, 187500.0, -187500.02235174447, 30313.167609353975, -0.052000000000000005, 0.978, -0.036000000000000004, 192.0, 0.0, 0.0, 0.0, 0.0, 0.0, 0.0, 0.0, 0.0, 0.0, 1.6989590515734403E9, 0.0, 2023-11-02 17:04:11.573
154.0, -187500.02235174447, 187500.0, 31130.570904084554, 28738.97895085561, 187500.0, 187500.0, -187500.02235174447, 30316.922702422467, -0.052000000000000005, 0.978, -0.036000000000000004, 192.0, 0.0, 0.0, 0.0, 0.0, 0.0, 0.0, 0.0, 0.0, 0.0, 1.6989590515734499E9, 0.0, 2023-11-02 17:04:11.573
155.0, -187500.02235174447, 187500.0, 31131.196752929303, 28738.911895622245, 187500.0, 187500.0, -187500.02235174447, 30317.012109400286, -0.052000000000000005, 0.978, -0.036000000000000004, 192.0, 0.0, 0.0, 0.0, 0.0, 0.0, 0.0, 0.0, 0.0, 0.0, 1.6989590515734615E9, 0.0, 2023-11-02 17:04:11.573
156.0, -187500.02235174447, 187500.0, 31125.385299370922, 28733.703939164156, 187500.0, 187500.0, -187500.02235174447, 30306.84206567312, -0.05, 0.986, -0.032, 192.0, 254.0, 112.0, 30.0, 208.0, 255.0, 0.0, 0.0, 0.0, 0.0, 1.6989590515734713E9, 0.0, 2023-11-02 17:04:11.573
157.0, -187500.02235174447, 187500.0, 31116.82458124454, 28724.070337303918, 187500.0, 187500.0, -187500.02235174447, 30295.12975157854, -0.05, 0.986, -0.032, 192.0, 0.0, 0.0, 0.0, 0.0, 0.0, 0.0, 0.0, 0.0, 0.0, 1.698959051573481E9, 0.0, 2023-11-02 17:04:11.573
158.0, -187500.02235174447, 187500.0, 31123.48540109222, 28726.037290815984, 187500.0, 187500.0, -187500.02235174447, 30300.158894080985, -0.05, 0.986, -0.032, 192.0, 0.0, 0.0, 0.0, 0.0, 0.0, 0.0, 0.0, 0.0, 0.0, 1.6989590515734909E9, 0.0, 2023-11-02 17:04:11.573
159.0, -187500.02235174447, 187500.0, 31126.614645315964, 28729.322997250918, 187500.0, 187500.0, -187500.02235174447, 30305.23274007234, -0.05, 0.986, -0.032, 192.0, 0.0, 0.0, 0.0, 0.0, 0.0, 0.0, 0.0, 0.0, 0.0, 1.6989590515735004E9, 0.0, 2023-11-02 17:04:11.573
160.0, -187500.02235174447, 187500.0, 31123.150124925392, 28730.664101918235, 187500.0, 187500.0, -187500.02235174447, 30303.243434815817, -0.05, 0.986, -0.032, 192.0, 0.0, 0.0, 0.0, 0.0, 0.0, 0.0, 0.0, 0.0, 0.0, 1.69895905157351E9, 0.0, 2023-11-02 17:04:11.573
161.0, -187500.02235174447, 187500.0, 31117.53983706711, 28726.81960187192, 187500.0, 187500.0, -187500.02235174447, 30297.52138823526, -0.05, 0.986, -0.032, 192.0, 0.0, 0.0, 0.0, 0.0, 0.0, 0.0, 0.0, 0.0, 0.0, 1.6989590515735197E9, 0.0, 2023-11-02 17:04:11.573
162.0, -187500.02235174447, 187500.0, 31120.892598735405, 28726.484325705092, 187500.0, 187500.0, -187500.02235174447, 30300.04713535871, -0.05, 0.986, -0.032, 192.0, 0.0, 0.0, 0.0, 0.0, 0.0, 0.0, 0.0, 0.0, 0.0, 1.6989590515735292E9, 0.0, 2023-11-02 17:04:11.573
163.0, -187500.02235174447, 187500.0, 31123.887732492418, 28729.233590273096, 187500.0, 187500.0, -187500.02235174447, 30302.349365037608, -0.05, 0.986, -0.032, 192.0, 0.0, 0.0, 0.0, 0.0, 0.0, 0.0, 0.0, 0.0, 0.0, 1.6989590515735388E9, 0.0, 2023-11-02 17:04:11.573
164.0, -187500.02235174447, 187500.0, 31120.803191757586, 28727.7807268835, 187500.0, 187500.0, -187500.02235174447, 30297.923719635455, -0.05, 0.986, -0.032, 192.0, 0.0, 0.0, 0.0, 0.0, 0.0, 0.0, 0.0, 0.0, 0.0, 1.6989590515735483E9, 0.0, 2023-11-02 17:04:11.573
165.0, -187500.02235174447, 187500.0, 31116.399898099888, 28729.837087373387, 187500.0, 187500.0, -187500.02235174447, 30295.487379489827, -0.05, 0.986, -0.032, 192.0, 0.0, 0.0, 0.0, 0.0, 0.0, 0.0, 0.0, 0.0, 0.0, 1.6989590515735657E9, 0.0, 2023-11-02 17:04:11.573
166.0, -187500.02235174447, 187500.0, 31115.192903899304, 28726.998415827566, 187500.0, 187500.0, -187500.02235174447, 30296.76142892378, -0.048, 0.978, -0.036000000000000004, 192.0, 254.0, 128.0, 30.0, 144.0, 254.0, 224.0, 0.0, 0.0, 0.0, 1.6989590515735776E9, 0.0, 2023-11-02 17:04:11.573
167.0, -187500.02235174447, 187500.0, 31120.602026057488, 28729.278293762007, 187500.0, 187500.0, -187500.02235174447, 30303.690469704925, -0.048, 0.978, -0.036000000000000004, 192.0, 0.0, 0.0, 0.0, 0.0, 0.0, 0.0, 0.0, 0.0, 0.0, 1.698959051573588E9, 0.0, 2023-11-02 17:04:11.573
168.0, -187500.02235174447, 187500.0, 31124.200656914792, 28733.078090319406, 187500.0, 187500.0, -187500.02235174447, 30308.496094762817, -0.048, 0.978, -0.036000000000000004, 192.0, 0.0, 0.0, 0.0, 0.0, 0.0, 0.0, 0.0, 0.0, 0.0, 1.6989590515735977E9, 0.0, 2023-11-02 17:04:11.573
169.0, -187500.02235174447, 187500.0, 31125.988796471214, 28734.486250220092, 187500.0, 187500.0, -187500.02235174447, 30309.94895815241, -0.048, 0.978, -0.036000000000000004, 192.0, 0.0, 0.0, 0.0, 0.0, 0.0, 0.0, 0.0, 0.0, 0.0, 1.6989590515736072E9, 0.0, 2023-11-02 17:04:11.573
170.0, -187500.02235174447, 187500.0, 31132.49315410771, 28734.68741592019, 187500.0, 187500.0, -187500.02235174447, 30311.848856431112, -0.048, 0.978, -0.036000000000000004, 192.0, 0.0, 0.0, 0.0, 0.0, 0.0, 0.0, 0.0, 0.0, 0.0, 1.6989590515736165E9, 0.0, 2023-11-02 17:04:11.573
171.0, -187500.02235174447, 187500.0, 31127.68752904982, 28723.39978497026, 187500.0, 187500.0, -187500.02235174447, 30304.09280110512, -0.048, 0.978, -0.036000000000000004, 192.0, 0.0, 0.0, 0.0, 0.0, 0.0, 0.0, 0.0, 0.0, 0.0, 1.6989590515736263E9, 0.0, 2023-11-02 17:04:11.573
172.0, -187500.02235174447, 187500.0, 31126.994624971703, 28720.181133768696, 187500.0, 187500.0, -187500.02235174447, 30301.47764700385, -0.048, 0.978, -0.036000000000000004, 192.0, 0.0, 0.0, 0.0, 0.0, 0.0, 0.0, 0.0, 0.0, 0.0, 1.6989590515736356E9, 0.0, 2023-11-02 17:04:11.573
173.0, -187500.02235174447, 187500.0, 31128.939226739316, 28720.941093080175, 187500.0, 187500.0, -187500.02235174447, 30302.32701329315, -0.048, 0.978, -0.036000000000000004, 192.0, 0.0, 0.0, 0.0, 0.0, 0.0, 0.0, 0.0, 0.0, 0.0, 1.698959051573645E9, 0.0, 2023-11-02 17:04:11.573
174.0, -187500.02235174447, 187500.0, 31135.957674498284, 28722.751584381054, 187500.0, 187500.0, -187500.02235174447, 30307.803190684703, -0.048, 0.978, -0.036000000000000004, 192.0, 0.0, 0.0, 0.0, 0.0, 0.0, 0.0, 0.0, 0.0, 0.0, 1.698959051573655E9, 0.0, 2023-11-02 17:04:11.573
175.0, -187500.02235174447, 187500.0, 31143.043177490614, 28724.02563381501, 187500.0, 187500.0, -187500.02235174447, 30313.56994075417, -0.048, 0.978, -0.036000000000000004, 192.0, 0.0, 0.0, 0.0, 0.0, 0.0, 0.0, 0.0, 0.0, 0.0, 1.6989590515736644E9, 0.0, 2023-11-02 17:04:11.573
176.0, -187500.02235174447, 187500.0, 31149.011093260182, 28727.333691994394, 187500.0, 187500.0, -187500.02235174447, 30319.04611814572, -0.056, 0.988, -0.04, 192.0, 254.0, 64.0, 30.0, 224.0, 254.0, 192.0, 0.0, 0.0, 0.0, 1.6989590515736752E9, 0.0, 2023-11-02 17:04:11.573
177.0, -187500.02235174447, 187500.0, 31145.390110658424, 28726.39491872727, 187500.0, 187500.0, -187500.02235174447, 30316.56507451118, -0.056, 0.988, -0.04, 192.0, 0.0, 0.0, 0.0, 0.0, 0.0, 0.0, 0.0, 0.0, 0.0, 1.6989590515736856E9, 0.0, 2023-11-02 17:04:11.573
178.0, -187500.02235174447, 187500.0, 31142.64084609042, 28724.472668704115, 187500.0, 187500.0, -187500.02235174447, 30315.91687392198, -0.056, 0.988, -0.04, 192.0, 0.0, 0.0, 0.0, 0.0, 0.0, 0.0, 0.0, 0.0, 0.0, 1.6989590515736952E9, 0.0, 2023-11-02 17:04:11.573
179.0, -187500.02235174447, 187500.0, 31145.412462402877, 28724.137392537286, 187500.0, 187500.0, -187500.02235174447, 30319.269635590274, -0.056, 0.988, -0.04, 192.0, 0.0, 0.0, 0.0, 0.0, 0.0, 0.0, 0.0, 0.0, 0.0, 1.6989590515737045E9, 0.0, 2023-11-02 17:04:11.573
180.0, -187500.02235174447, 187500.0, 31147.98291301524, 28724.45031695966, 187500.0, 187500.0, -187500.02235174447, 30320.700147235413, -0.056, 0.988, -0.04, 192.0, 0.0, 0.0, 0.0, 0.0, 0.0, 0.0, 0.0, 0.0, 0.0, 1.6989590515737143E9, 0.0, 2023-11-02 17:04:11.573
181.0, -187500.02235174447, 187500.0, 31141.523258867655, 28721.63399715829, 187500.0, 187500.0, -187500.02235174447, 30314.03932738773, -0.056, 0.988, -0.04, 192.0, 0.0, 0.0, 0.0, 0.0, 0.0, 0.0, 0.0, 0.0, 0.0, 1.6989590515737317E9, 0.0, 2023-11-02 17:04:11.573
182.0, -187500.02235174447, 187500.0, 31138.863401277475, 28719.331767479394, 187500.0, 187500.0, -187500.02235174447, 30311.871208175566, -0.056, 0.988, -0.04, 192.0, 0.0, 0.0, 0.0, 0.0, 0.0, 0.0, 0.0, 0.0, 0.0, 1.6989590515737412E9, 0.0, 2023-11-02 17:04:11.573
183.0, -187500.02235174447, 187500.0, 31138.572828599554, 28715.755488366543, 187500.0, 187500.0, -187500.02235174447, 30312.47470527586, -0.056, 0.988, -0.04, 192.0, 0.0, 0.0, 0.0, 0.0, 0.0, 0.0, 0.0, 0.0, 0.0, 1.6989590515737507E9, 0.0, 2023-11-02 17:04:11.573
184.0, -187500.02235174447, 187500.0, 31134.84008727552, 28712.313319720426, 187500.0, 187500.0, -187500.02235174447, 30310.9547866529, -0.056, 0.988, -0.04, 192.0, 0.0, 0.0, 0.0, 0.0, 0.0, 0.0, 0.0, 0.0, 0.0, 1.6989590515737603E9, 0.0, 2023-11-02 17:04:11.573
185.0, -187500.02235174447, 187500.0, 31132.671968063354, 28713.05092728745, 187500.0, 187500.0, -187500.02235174447, 30310.552455252702, -0.056, 0.988, -0.04, 192.0, 0.0, 0.0, 0.0, 0.0, 0.0, 0.0, 0.0, 0.0, 0.0, 1.6989590515737698E9, 0.0, 2023-11-02 17:04:11.573
186.0, -187500.02235174447, 187500.0, 31133.58838958602, 28714.324976721404, 187500.0, 187500.0, -187500.02235174447, 30310.70891746389, -0.052000000000000005, 0.984, -0.042, 192.0, 254.0, 96.0, 30.0, 192.0, 254.0, 176.0, 0.0, 0.0, 0.0, 1.6989590515737793E9, 0.0, 2023-11-02 17:04:11.573
187.0, -187500.02235174447, 187500.0, 31135.01890123116, 28713.989700554575, 187500.0, 187500.0, -187500.02235174447, 30312.38529829804, -0.052000000000000005, 0.984, -0.042, 192.0, 0.0, 0.0, 0.0, 0.0, 0.0, 0.0, 0.0, 0.0, 0.0, 1.6989590515737896E9, 0.0, 2023-11-02 17:04:11.573
188.0, -187500.02235174447, 187500.0, 31137.11996520996, 28712.849761587357, 187500.0, 187500.0, -187500.02235174447, 30314.642824488026, -0.052000000000000005, 0.984, -0.042, 192.0, 0.0, 0.0, 0.0, 0.0, 0.0, 0.0, 0.0, 0.0, 0.0, 1.6989590515737991E9, 0.0, 2023-11-02 17:04:11.573
189.0, -187500.02235174447, 187500.0, 31136.82939253204, 28713.095630776363, 187500.0, 187500.0, -187500.02235174447, 30313.972272154366, -0.052000000000000005, 0.984, -0.042, 192.0, 0.0, 0.0, 0.0, 0.0, 0.0, 0.0, 0.0, 0.0, 0.0, 1.698959051573809E9, 0.0, 2023-11-02 17:04:11.573
190.0, -187500.02235174447, 187500.0, 31130.235627917726, 28709.273482474506, 187500.0, 187500.0, -187500.02235174447, 30307.378507540052, -0.052000000000000005, 0.984, -0.042, 192.0, 0.0, 0.0, 0.0, 0.0, 0.0, 0.0, 0.0, 0.0, 0.0, 1.6989590515738182E9, 0.0, 2023-11-02 17:04:11.573
191.0, -187500.02235174447, 187500.0, 31132.090822707516, 28710.279310974995, 187500.0, 187500.0, -187500.02235174447, 30310.060716874686, -0.052000000000000005, 0.984, -0.042, 192.0, 0.0, 0.0, 0.0, 0.0, 0.0, 0.0, 0.0, 0.0, 0.0, 1.6989590515738277E9, 0.0, 2023-11-02 17:04:11.573
192.0, -187500.02235174447, 187500.0, 31132.806078530084, 28710.614587141823, 187500.0, 187500.0, -187500.02235174447, 30313.167609353975, -0.052000000000000005, 0.984, -0.042, 192.0, 0.0, 0.0, 0.0, 0.0, 0.0, 0.0, 0.0, 0.0, 0.0, 1.6989590515738378E9, 0.0, 2023-11-02 17:04:11.573
193.0, -187500.02235174447, 187500.0, 31129.25215116169, 28709.273482474506, 187500.0, 187500.0, -187500.02235174447, 30310.306586063696, -0.052000000000000005, 0.984, -0.042, 192.0, 0.0, 0.0, 0.0, 0.0, 0.0, 0.0, 0.0, 0.0, 0.0, 1.6989590515738473E9, 0.0, 2023-11-02 17:04:11.573
194.0, -187500.02235174447, 187500.0, 31130.72736629574, 28710.59223539737, 187500.0, 187500.0, -187500.02235174447, 30310.57480699716, -0.052000000000000005, 0.984, -0.042, 192.0, 0.0, 0.0, 0.0, 0.0, 0.0, 0.0, 0.0, 0.0, 0.0, 1.6989590515738568E9, 0.0, 2023-11-02 17:04:11.573
195.0, -187500.02235174447, 187500.0, 31128.961578483773, 28708.78174409649, 187500.0, 187500.0, -187500.02235174447, 30308.630205229547, -0.052000000000000005, 0.984, -0.042, 192.0, 0.0, 0.0, 0.0, 0.0, 0.0, 0.0, 0.0, 0.0, 0.0, 1.6989590515738664E9, 0.0, 2023-11-02 17:04:11.573
196.0, -187500.02235174447, 187500.0, 31131.464973862767, 28707.68650861818, 187500.0, 187500.0, -187500.02235174447, 30314.016975643277, -0.046, 0.98, -0.044, 192.0, 254.0, 144.0, 30.0, 160.0, 254.0, 160.0, 0.0, 0.0, 0.0, 1.6989590515738833E9, 0.0, 2023-11-02 17:04:11.573
197.0, -187500.02235174447, 187500.0, 31133.029595974636, 28710.77104935301, 187500.0, 187500.0, -187500.02235174447, 30318.464972789883, -0.046, 0.98, -0.044, 192.0, 0.0, 0.0, 0.0, 0.0, 0.0, 0.0, 0.0, 0.0, 0.0, 1.698959051573895E9, 0.0, 2023-11-02 17:04:11.573
198.0, -187500.02235174447, 187500.0, 31128.82746801704, 28709.385241196782, 187500.0, 187500.0, -187500.02235174447, 30314.24049308783, -0.046, 0.98, -0.044, 192.0, 0.0, 0.0, 0.0, 0.0, 0.0, 0.0, 0.0, 0.0, 0.0, 1.6989590515739045E9, 0.0, 2023-11-02 17:04:11.573
199.0, -187500.02235174447, 187500.0, 31130.07916570654, 28709.005261541042, 187500.0, 187500.0, -187500.02235174447, 30315.96157741089, -0.046, 0.98, -0.044, 192.0, 0.0, 0.0, 0.0, 0.0, 0.0, 0.0, 0.0, 0.0, 0.0, 1.698959051573914E9, 0.0, 2023-11-02 17:04:11.573
200.0, -187500.02235174447, 187500.0, 31131.12969769594, 28709.72051736361, 187500.0, 187500.0, -187500.02235174447, 30319.023766401264, -0.046, 0.98, -0.044, 192.0, 0.0, 0.0, 0.0, 0.0, 0.0, 0.0, 0.0, 0.0, 0.0, 1.6989590515739236E9, 0.0, 2023-11-02 17:04:11.573
201.0, -187500.02235174447, 187500.0, 31133.76720354166, 28710.882808075286, 187500.0, 187500.0, -187500.02235174447, 30321.840086202636, -0.046, 0.98, -0.044, 192.0, 0.0, 0.0, 0.0, 0.0, 0.0, 0.0, 0.0, 0.0, 0.0, 1.6989590515739331E9, 0.0, 2023-11-02 17:04:11.573
202.0, -187500.02235174447, 187500.0, 31133.36487214147, 28716.135468022287, 187500.0, 187500.0, -187500.02235174447, 30319.739022223835, -0.046, 0.98, -0.044, 192.0, 0.0, 0.0, 0.0, 0.0, 0.0, 0.0, 0.0, 0.0, 0.0, 1.698959051573943E9, 0.0, 2023-11-02 17:04:11.573
203.0, -187500.02235174447, 187500.0, 31127.329901138535, 28709.519351663515, 187500.0, 187500.0, -187500.02235174447, 30314.799286699214, -0.046, 0.98, -0.044, 192.0, 0.0, 0.0, 0.0, 0.0, 0.0, 0.0, 0.0, 0.0, 0.0, 1.6989590515739524E9, 0.0, 2023-11-02 17:04:11.573
204.0, -187500.02235174447, 187500.0, 31125.83233426003, 28699.617528869814, 187500.0, 187500.0, -187500.02235174447, 30311.066545375175, -0.046, 0.98, -0.044, 192.0, 0.0, 0.0, 0.0, 0.0, 0.0, 0.0, 0.0, 0.0, 0.0, 1.698959051573962E9, 0.0, 2023-11-02 17:04:11.573
205.0, -187500.02235174447, 187500.0, 31125.944092982307, 28696.331822434884, 187500.0, 187500.0, -187500.02235174447, 30310.418344785972, -0.046, 0.98, -0.044, 192.0, 0.0, 0.0, 0.0, 0.0, 0.0, 0.0, 0.0, 0.0, 0.0, 1.698959051573972E9, 0.0, 2023-11-02 17:04:11.573
206.0, -187500.02235174447, 187500.0, 31129.58742732852, 28696.890616046265, 187500.0, 187500.0, -187500.02235174447, 30312.80998144269, -0.054, 0.98, -0.042, 192.0, 254.0, 80.0, 30.0, 160.0, 254.0, 176.0, 0.0, 0.0, 0.0, 1.6989590515739815E9, 0.0, 2023-11-02 17:04:11.573
207.0, -187500.02235174447, 187500.0, 31141.277389678646, 28707.038308028976, 187500.0, 187500.0, -187500.02235174447, 30323.225894358864, -0.054, 0.98, -0.042, 192.0, 0.0, 0.0, 0.0, 0.0, 0.0, 0.0, 0.0, 0.0, 0.0, 1.698959051573992E9, 0.0, 2023-11-02 17:04:11.573
208.0, -187500.02235174447, 187500.0, 31144.943075769315, 28707.28417721798, 187500.0, 187500.0, -187500.02235174447, 30326.042214160232, -0.054, 0.98, -0.042, 192.0, 0.0, 0.0, 0.0, 0.0, 0.0, 0.0, 0.0, 0.0, 0.0, 1.6989590515740016E9, 0.0, 2023-11-02 17:04:11.574
209.0, -187500.02235174447, 187500.0, 31152.229744461747, 28712.335671464883, 187500.0, 187500.0, -187500.02235174447, 30334.20060088642, -0.054, 0.98, -0.042, 192.0, 0.0, 0.0, 0.0, 0.0, 0.0, 0.0, 0.0, 0.0, 0.0, 1.698959051574011E9, 0.0, 2023-11-02 17:04:11.574
210.0, -187500.02235174447, 187500.0, 31153.146165984414, 28717.051889544953, 187500.0, 187500.0, -187500.02235174447, 30335.094670664632, -0.054, 0.98, -0.042, 192.0, 0.0, 0.0, 0.0, 0.0, 0.0, 0.0, 0.0, 0.0, 0.0, 1.6989590515740209E9, 0.0, 2023-11-02 17:04:11.574
211.0, -187500.02235174447, 187500.0, 31146.194773458814, 28716.314281977928, 187500.0, 187500.0, -187500.02235174447, 30330.400804329016, -0.054, 0.98, -0.042, 192.0, 0.0, 0.0, 0.0, 0.0, 0.0, 0.0, 0.0, 0.0, 0.0, 1.6989590515740378E9, 0.0, 2023-11-02 17:04:11.574
212.0, -187500.02235174447, 187500.0, 31134.035424475125, 28704.26669171652, 187500.0, 187500.0, -187500.02235174447, 30318.979062912356, -0.054, 0.98, -0.042, 192.0, 0.0, 0.0, 0.0, 0.0, 0.0, 0.0, 0.0, 0.0, 0.0, 1.6989590515740476E9, 0.0, 2023-11-02 17:04:11.574
213.0, -187500.02235174447, 187500.0, 31135.376529142446, 28698.276424202493, 187500.0, 187500.0, -187500.02235174447, 30319.20258035691, -0.054, 0.98, -0.042, 192.0, 0.0, 0.0, 0.0, 0.0, 0.0, 0.0, 0.0, 0.0, 0.0, 1.698959051574057E9, 0.0, 2023-11-02 17:04:11.574
214.0, -187500.02235174447, 187500.0, 31134.97419774225, 28700.668060859214, 187500.0, 187500.0, -187500.02235174447, 30318.71084197889, -0.054, 0.98, -0.042, 192.0, 0.0, 0.0, 0.0, 0.0, 0.0, 0.0, 0.0, 0.0, 0.0, 1.6989590515740669E9, 0.0, 2023-11-02 17:04:11.574
215.0, -187500.02235174447, 187500.0, 31134.616569830963, 28702.500903904547, 187500.0, 187500.0, -187500.02235174447, 30317.74971696731, -0.054, 0.98, -0.042, 192.0, 0.0, 0.0, 0.0, 0.0, 0.0, 0.0, 0.0, 0.0, 0.0, 1.6989590515740762E9, 0.0, 2023-11-02 17:04:11.574
216.0, -187500.02235174447, 187500.0, 31138.50577336619, 28704.6243196278, 187500.0, 187500.0, -187500.02235174447, 30320.99071991333, -0.046, 0.982, -0.042, 192.0, 254.0, 144.0, 30.0, 176.0, 254.0, 176.0, 0.0, 0.0, 0.0, 1.6989590515740857E9, 0.0, 2023-11-02 17:04:11.574
217.0, -187500.02235174447, 187500.0, 31140.450375133798, 28705.92072080621, 187500.0, 187500.0, -187500.02235174447, 30324.432888559448, -0.046, 0.982, -0.042, 192.0, 0.0, 0.0, 0.0, 0.0, 0.0, 0.0, 0.0, 0.0, 0.0, 1.698959051574096E9, 0.0, 2023-11-02 17:04:11.574
218.0, -187500.02235174447, 187500.0, 31144.563096113576, 28707.10536326234, 187500.0, 187500.0, -187500.02235174447, 30326.712766493893, -0.046, 0.982, -0.042, 192.0, 0.0, 0.0, 0.0, 0.0, 0.0, 0.0, 0.0, 0.0, 0.0, 1.6989590515741055E9, 0.0, 2023-11-02 17:04:11.574
219.0, -187500.02235174447, 187500.0, 31145.278351936147, 28711.44160168667, 187500.0, 187500.0, -187500.02235174447, 30326.57865602716, -0.046, 0.982, -0.042, 192.0, 0.0, 0.0, 0.0, 0.0, 0.0, 0.0, 0.0, 0.0, 0.0, 1.6989590515741165E9, 0.0, 2023-11-02 17:04:11.574
220.0, -187500.02235174447, 187500.0, 31147.714692081776, 28712.134505764785, 187500.0, 187500.0, -187500.02235174447, 30329.23851361734, -0.046, 0.982, -0.042, 192.0, 0.0, 0.0, 0.0, 0.0, 0.0, 0.0, 0.0, 0.0, 0.0, 1.698959051574126E9, 0.0, 2023-11-02 17:04:11.574
221.0, -187500.02235174447, 187500.0, 31146.798270559106, 28704.19963648315, 187500.0, 187500.0, -187500.02235174447, 30326.779821727258, -0.046, 0.982, -0.042, 192.0, 0.0, 0.0, 0.0, 0.0, 0.0, 0.0, 0.0, 0.0, 0.0, 1.6989590515741355E9, 0.0, 2023-11-02 17:04:11.574
222.0, -187500.02235174447, 187500.0, 31145.45716589179, 28701.405668426236, 187500.0, 187500.0, -187500.02235174447, 30326.62335951607, -0.046, 0.982, -0.042, 192.0, 0.0, 0.0, 0.0, 0.0, 0.0, 0.0, 0.0, 0.0, 0.0, 1.6989590515741453E9, 0.0, 2023-11-02 17:04:11.574
223.0, -187500.02235174447, 187500.0, 31139.466898377766, 28695.59421486786, 187500.0, 187500.0, -187500.02235174447, 30319.493153034826, -0.046, 0.982, -0.042, 192.0, 0.0, 0.0, 0.0, 0.0, 0.0, 0.0, 0.0, 0.0, 0.0, 1.6989590515741549E9, 0.0, 2023-11-02 17:04:11.574
224.0, -187500.02235174447, 187500.0, 31136.963502998773, 28688.508711875525, 187500.0, 187500.0, -187500.02235174447, 30315.581597755147, -0.046, 0.982, -0.042, 192.0, 0.0, 0.0, 0.0, 0.0, 0.0, 0.0, 0.0, 0.0, 0.0, 1.6989590515741642E9, 0.0, 2023-11-02 17:04:11.574
225.0, -187500.02235174447, 187500.0, 31141.143279211916, 28688.598118853348, 187500.0, 187500.0, -187500.02235174447, 30322.175362369464, -0.046, 0.982, -0.042, 192.0, 0.0, 0.0, 0.0, 0.0, 0.0, 0.0, 0.0, 0.0, 0.0, 1.6989590515741737E9, 0.0, 2023-11-02 17:04:11.574
226.0, -187500.02235174447, 187500.0, 31142.529087368144, 28691.63795609927, 187500.0, 187500.0, -187500.02235174447, 30325.796344971222, -0.034, 0.98, -0.038, 192.0, 254.0, 240.0, 30.0, 160.0, 254.0, 208.0, 0.0, 0.0, 0.0, 1.6989590515741928E9, 0.0, 2023-11-02 17:04:11.574
227.0, -187500.02235174447, 187500.0, 31136.40470938739, 28691.973232266097, 187500.0, 187500.0, -187500.02235174447, 30320.722498979867, -0.034, 0.98, -0.038, 192.0, 0.0, 0.0, 0.0, 0.0, 0.0, 0.0, 0.0, 0.0, 0.0, 1.6989590515742033E9, 0.0, 2023-11-02 17:04:11.574
228.0, -187500.02235174447, 187500.0, 31136.762337298675, 28693.046115999954, 187500.0, 187500.0, -187500.02235174447, 30323.248246103318, -0.034, 0.98, -0.038, 192.0, 0.0, 0.0, 0.0, 0.0, 0.0, 0.0, 0.0, 0.0, 0.0, 1.6989590515742128E9, 0.0, 2023-11-02 17:04:11.574
229.0, -187500.02235174447, 187500.0, 31135.3988808869, 28696.19771196815, 187500.0, 187500.0, -187500.02235174447, 30324.745812981822, -0.034, 0.98, -0.038, 192.0, 0.0, 0.0, 0.0, 0.0, 0.0, 0.0, 0.0, 0.0, 0.0, 1.6989590515742223E9, 0.0, 2023-11-02 17:04:11.574
230.0, -187500.02235174447, 187500.0, 31134.527162853145, 28694.320165433906, 187500.0, 187500.0, -187500.02235174447, 30326.265731604784, -0.034, 0.98, -0.038, 192.0, 0.0, 0.0, 0.0, 0.0, 0.0, 0.0, 0.0, 0.0, 0.0, 1.6989590515742319E9, 0.0, 2023-11-02 17:04:11.574
231.0, -187500.02235174447, 187500.0, 31134.21423843077, 28695.9741945236, 187500.0, 187500.0, -187500.02235174447, 30326.19867637142, -0.034, 0.98, -0.038, 192.0, 0.0, 0.0, 0.0, 0.0, 0.0, 0.0, 0.0, 0.0, 0.0, 1.6989590515742414E9, 0.0, 2023-11-02 17:04:11.574
232.0, -187500.02235174447, 187500.0, 31132.202581429792, 28696.912967790722, 187500.0, 187500.0, -187500.02235174447, 30324.231722859353, -0.034, 0.98, -0.038, 192.0, 0.0, 0.0, 0.0, 0.0, 0.0, 0.0, 0.0, 0.0, 0.0, 1.698959051574251E9, 0.0, 2023-11-02 17:04:11.574
233.0, -187500.02235174447, 187500.0, 31132.604912829986, 28694.074296244897, 187500.0, 187500.0, -187500.02235174447, 30325.729289737857, -0.034, 0.98, -0.038, 192.0, 0.0, 0.0, 0.0, 0.0, 0.0, 0.0, 0.0, 0.0, 0.0, 1.6989590515742607E9, 0.0, 2023-11-02 17:04:11.574
234.0, -187500.02235174447, 187500.0, 31132.15787794088, 28688.53106361998, 187500.0, 187500.0, -187500.02235174447, 30323.561170525692, -0.034, 0.98, -0.038, 192.0, 0.0, 0.0, 0.0, 0.0, 0.0, 0.0, 0.0, 0.0, 0.0, 1.6989590515742702E9, 0.0, 2023-11-02 17:04:11.574
235.0, -187500.02235174447, 187500.0, 31139.153973955392, 28690.587424109868, 187500.0, 187500.0, -187500.02235174447, 30329.082051406152, -0.034, 0.98, -0.038, 192.0, 0.0, 0.0, 0.0, 0.0, 0.0, 0.0, 0.0, 0.0, 0.0, 1.69895905157428E9, 0.0, 2023-11-02 17:04:11.574
236.0, -187500.02235174447, 187500.0, 31140.83035478954, 28692.77789506649, 187500.0, 187500.0, -187500.02235174447, 30328.925589194965, -0.042, 0.978, -0.042, 192.0, 254.0, 176.0, 30.0, 144.0, 254.0, 176.0, 0.0, 0.0, 0.0, 1.6989590515742893E9, 0.0, 2023-11-02 17:04:11.574
237.0, -187500.02235174447, 187500.0, 31143.78078505764, 28688.21813919761, 187500.0, 187500.0, -187500.02235174447, 30328.880885706054, -0.042, 0.978, -0.042, 192.0, 0.0, 0.0, 0.0, 0.0, 0.0, 0.0, 0.0, 0.0, 0.0, 1.6989590515742996E9, 0.0, 2023-11-02 17:04:11.574
238.0, -187500.02235174447, 187500.0, 31151.469785150268, 28690.38625840977, 187500.0, 187500.0, -187500.02235174447, 30333.708862508403, -0.042, 0.978, -0.042, 192.0, 0.0, 0.0, 0.0, 0.0, 0.0, 0.0, 0.0, 0.0, 0.0, 1.698959051574309E9, 0.0, 2023-11-02 17:04:11.574
239.0, -187500.02235174447, 187500.0, 31153.772014829163, 28689.62629909829, 187500.0, 187500.0, -187500.02235174447, 30335.072318920174, -0.042, 0.978, -0.042, 192.0, 0.0, 0.0, 0.0, 0.0, 0.0, 0.0, 0.0, 0.0, 0.0, 1.698959051574319E9, 0.0, 2023-11-02 17:04:11.574
240.0, -187500.02235174447, 187500.0, 31157.437700919832, 28693.24728170005, 187500.0, 187500.0, -187500.02235174447, 30338.223914888375, -0.042, 0.978, -0.042, 192.0, 0.0, 0.0, 0.0, 0.0, 0.0, 0.0, 0.0, 0.0, 0.0, 1.6989590515743299E9, 0.0, 2023-11-02 17:04:11.574
241.0, -187500.02235174447, 187500.0, 31148.899334537906, 28682.898424017243, 187500.0, 187500.0, -187500.02235174447, 30329.0596996617, -0.042, 0.978, -0.042, 192.0, 0.0, 0.0, 0.0, 0.0, 0.0, 0.0, 0.0, 0.0, 0.0, 1.6989590520524905E9, 0.0, 2023-11-02 17:04:12.052
242.0, -187500.02235174447, 187500.0, 31146.798270559106, 28673.510691346015, 187500.0, 187500.0, -187500.02235174447, 30327.04804266072, -0.042, 0.978, -0.042, 192.0, 0.0, 0.0, 0.0, 0.0, 0.0, 0.0, 0.0, 0.0, 0.0, 1.698959052052581E9, 0.0, 2023-11-02 17:04:12.052
243.0, -187500.02235174447, 187500.0, 31147.06649149257, 28678.33866814836, 187500.0, 187500.0, -187500.02235174447, 30329.61849327308, -0.042, 0.978, -0.042, 192.0, 0.0, 0.0, 0.0, 0.0, 0.0, 0.0, 0.0, 0.0, 0.0, 1.6989590520525968E9, 0.0, 2023-11-02 17:04:12.052
244.0, -187500.02235174447, 187500.0, 31136.896447765404, 28671.275516900485, 187500.0, 187500.0, -187500.02235174447, 30322.577693769657, -0.042, 0.978, -0.042, 192.0, 0.0, 0.0, 0.0, 0.0, 0.0, 0.0, 0.0, 0.0, 0.0, 1.6989590520526097E9, 0.0, 2023-11-02 17:04:12.052
245.0, -187489.47232836156, 187500.0, 31128.11221219447, 28664.90526973072, 187500.0, 187500.0, -187500.02235174447, 30317.839123945134, -0.042, 0.978, -0.042, 192.0, 0.0, 0.0, 0.0, 0.0, 0.0, 0.0, 0.0, 0.0, 0.0, 1.698959052052622E9, 0.0, 2023-11-02 17:04:12.052
246.0, -187426.4851124865, 187500.0, 31123.887732492418, 28663.452406341126, 187500.0, 187500.0, -187500.02235174447, 30316.587426255635, -0.042, 0.974, -0.038, 192.0, 254.0, 176.0, 30.0, 112.0, 254.0, 208.0, 0.0, 0.0, 0.0, 1.6989590520526345E9, 0.0, 2023-11-02 17:04:12.052
247.0, -187458.4481070576, 187500.0, 31123.887732492418, 28667.81099650991, 187500.0, 187500.0, -187500.02235174447, 30318.733193723347, -0.042, 0.974, -0.038, 192.0, 0.0, 0.0, 0.0, 0.0, 0.0, 0.0, 0.0, 0.0, 0.0, 1.6989590520526524E9, 0.0, 2023-11-02 17:04:12.052
248.0, -187418.57259494934, 187500.0, 31119.506790579177, 28671.230813411574, 187500.0, 187500.0, -187500.02235174447, 30316.453315788905, -0.042, 0.974, -0.038, 192.0, 0.0, 0.0, 0.0, 0.0, 0.0, 0.0, 0.0, 0.0, 0.0, 1.6989590520526645E9, 0.0, 2023-11-02 17:04:12.052
249.0, -187286.98787534094, 187500.0, 31117.33867136701, 28667.967458721098, 187500.0, 187500.0, -187500.02235174447, 30315.983929155344, -0.042, 0.974, -0.038, 192.0, 0.0, 0.0, 0.0, 0.0, 0.0, 0.0, 0.0, 0.0, 0.0, 1.698959052052678E9, 0.0, 2023-11-02 17:04:12.052
250.0, -187197.8938219421, 187500.0, 31116.802229500085, 28666.402836609228, 187500.0, 187500.0, -187500.02235174447, 30316.05098438871, -0.042, 0.974, -0.038, 192.0, 0.0, 0.0, 0.0, 0.0, 0.0, 0.0, 0.0, 0.0, 0.0, 1.6989590520526922E9, 0.0, 2023-11-02 17:04:12.052
251.0, -187198.72083648693, 187500.0, 31118.143334167402, 28670.09087444435, 187500.0, 187500.0, -187500.02235174447, 30320.655443746502, -0.042, 0.974, -0.038, 192.0, 0.0, 0.0, 0.0, 0.0, 0.0, 0.0, 0.0, 0.0, 0.0, 1.6989590520527053E9, 0.0, 2023-11-02 17:04:12.052
252.0, -187194.1387288736, 187500.0, 31125.430002859834, 28675.47764485808, 187500.0, 187500.0, -187500.02235174447, 30328.724423494867, -0.042, 0.974, -0.038, 192.0, 0.0, 0.0, 0.0, 0.0, 0.0, 0.0, 0.0, 0.0, 0.0, 1.6989590520527177E9, 0.0, 2023-11-02 17:04:12.052
253.0, -187080.32364610716, 187500.0, 31122.97131096975, 28676.170548936196, 187500.0, 187500.0, -187500.02235174447, 30322.845914703124, -0.042, 0.974, -0.038, 192.0, 0.0, 0.0, 0.0, 0.0, 0.0, 0.0, 0.0, 0.0, 0.0, 1.6989590520527313E9, 0.0, 2023-11-02 17:04:12.052
254.0, -186982.4453571374, 187500.0, 31124.73709878172, 28670.426150611183, 187500.0, 187500.0, -187500.02235174447, 30320.67779549096, -0.042, 0.974, -0.038, 192.0, 0.0, 0.0, 0.0, 0.0, 0.0, 0.0, 0.0, 0.0, 0.0, 1.698959052052745E9, 0.0, 2023-11-02 17:04:12.052
255.0, -186988.10034848456, 187500.0, 31125.36294762647, 28668.86152849931, 187500.0, 187500.0, -187500.02235174447, 30320.275464090762, -0.042, 0.974, -0.038, 192.0, 0.0, 0.0, 0.0, 0.0, 0.0, 0.0, 0.0, 0.0, 0.0, 1.6989590520527656E9, 0.0, 2023-11-02 17:04:12.052
0.0, -186987.9885897623, 187500.0, 31131.710843051773, 28674.941202991155, 187500.0, 187500.0, -187500.02235174447, 30326.221028115873, -0.038, 0.982, -0.044, 192.0, 254.0, 208.0, 30.0, 176.0, 254.0, 160.0, 0.0, 0.0, 0.0, 1.6989590520529969E9, 0.0, 2023-11-02 17:04:12.052
1.0, -186885.61760015698, 187500.0, 31136.40470938739, 28680.260918171516, 187500.0, 187500.0, -187500.02235174447, 30330.512563051292, -0.038, 0.982, -0.044, 192.0, 0.0, 0.0, 0.0, 0.0, 0.0, 0.0, 0.0, 0.0, 0.0, 1.6989590520530193E9, 0.0, 2023-11-02 17:04:12.053
2.0, -186759.30789224006, 187500.0, 31135.600046587, 28675.142368691253, 187500.0, 187500.0, -187500.02235174447, 30328.0091676723, -0.038, 0.982, -0.044, 192.0, 0.0, 0.0, 0.0, 0.0, 0.0, 0.0, 0.0, 0.0, 0.0, 1.6989590520530329E9, 0.0, 2023-11-02 17:04:12.053
3.0, -186737.78316232958, 187500.0, 31137.410537887878, 28668.66036279921, 187500.0, 187500.0, -187500.02235174447, 30330.221990373375, -0.038, 0.982, -0.044, 192.0, 0.0, 0.0, 0.0, 0.0, 0.0, 0.0, 0.0, 0.0, 0.0, 1.6989590520530472E9, 0.0, 2023-11-02 17:04:12.053
4.0, -186769.5449912006, 187500.0, 31141.098575723005, 28675.701162302634, 187500.0, 187500.0, -187500.02235174447, 30337.419252087984, -0.038, 0.982, -0.044, 192.0, 0.0, 0.0, 0.0, 0.0, 0.0, 0.0, 0.0, 0.0, 0.0, 1.6989590520530612E9, 0.0, 2023-11-02 17:04:12.053
5.0, -186686.7094262492, 187500.0, 31135.331825653535, 28677.019915225497, 187500.0, 187500.0, -187500.02235174447, 30335.944036953933, -0.038, 0.982, -0.044, 192.0, 0.0, 0.0, 0.0, 0.0, 0.0, 0.0, 0.0, 0.0, 0.0, 1.6989590520531025E9, 0.0, 2023-11-02 17:04:12.053
6.0, -186561.36084334383, 187500.0, 31127.77693602764, 28667.967458721098, 187500.0, 187500.0, -187500.02235174447, 30330.557266540203, -0.038, 0.982, -0.044, 192.0, 0.0, 0.0, 0.0, 0.0, 0.0, 0.0, 0.0, 0.0, 0.0, 1.698959052053114E9, 0.0, 2023-11-02 17:04:12.053
7.0, -186524.10048533685, 187500.0, 31123.10542143648, 28660.993714451044, 187500.0, 187500.0, -187500.02235174447, 30327.986815927845, -0.038, 0.982, -0.044, 192.0, 0.0, 0.0, 0.0, 0.0, 0.0, 0.0, 0.0, 0.0, 0.0, 1.6989590520531247E9, 0.0, 2023-11-02 17:04:12.053
8.0, -186546.13930536978, 187500.0, 31121.45139234679, 28661.328990617872, 187500.0, 187500.0, -187500.02235174447, 30328.6573682615, -0.038, 0.982, -0.044, 192.0, 0.0, 0.0, 0.0, 0.0, 0.0, 0.0, 0.0, 0.0, 0.0, 1.6989590520531373E9, 0.0, 2023-11-02 17:04:12.053
9.0, -186485.275505218, 187500.0, 31114.768220754653, 28661.843080740346, 187500.0, 187500.0, -187500.02235174447, 30324.611702515092, -0.038, 0.982, -0.044, 192.0, 0.0, 0.0, 0.0, 0.0, 0.0, 0.0, 0.0, 0.0, 0.0, 1.6989590520531476E9, 0.0, 2023-11-02 17:04:12.053
10.0, -186333.39540164417, 187500.0, 31101.513636292653, 28653.036493424952, 187500.0, 187500.0, -187500.02235174447, 30314.084030876642, -0.028, 0.974, -0.04, 192.0, 255.0, 32.0, 30.0, 112.0, 254.0, 192.0, 0.0, 0.0, 0.0, 1.6989590520531585E9, 0.0, 2023-11-02 17:04:12.053
11.0, -186275.5714387383, 187500.0, 31102.877092704428, 28649.236696867552, 187500.0, 187500.0, -187500.02235174447, 30316.96740591138, -0.028, 0.974, -0.04, 192.0, 0.0, 0.0, 0.0, 0.0, 0.0, 0.0, 0.0, 0.0, 0.0, 1.6989590520531712E9, 0.0, 2023-11-02 17:04:12.053
12.0, -186288.5130987779, 187500.0, 31105.112267149958, 28650.778967234968, 187500.0, 187500.0, -187500.02235174447, 30320.498981535315, -0.028, 0.974, -0.04, 192.0, 0.0, 0.0, 0.0, 0.0, 0.0, 0.0, 0.0, 0.0, 0.0, 1.6989590520531888E9, 0.0, 2023-11-02 17:04:12.053
13.0, -186210.08082748426, 187500.0, 31103.16766538235, 28654.891688214742, 187500.0, 187500.0, -187500.02235174447, 30319.113173379086, -0.028, 0.974, -0.04, 192.0, 0.0, 0.0, 0.0, 0.0, 0.0, 0.0, 0.0, 0.0, 0.0, 1.6989590520531998E9, 0.0, 2023-11-02 17:04:12.053
14.0, -186050.60113079564, 187500.0, 31101.4912845482, 28653.43882482515, 187500.0, 187500.0, -187500.02235174447, 30316.76624021128, -0.028, 0.974, -0.04, 192.0, 0.0, 0.0, 0.0, 0.0, 0.0, 0.0, 0.0, 0.0, 0.0, 1.6989590520532098E9, 0.0, 2023-11-02 17:04:12.053
15.0, -185977.93560957143, 187500.0, 31105.20167412778, 28652.25418236902, 187500.0, 187500.0, -187500.02235174447, 30319.090821634632, -0.028, 0.974, -0.04, 192.0, 0.0, 0.0, 0.0, 0.0, 0.0, 0.0, 0.0, 0.0, 0.0, 1.6989590520532684E9, 0.0, 2023-11-02 17:04:12.053
16.0, -185962.51290589725, 187500.0, 31104.799342727583, 28647.24739161103, 187500.0, 187500.0, -187500.02235174447, 30314.173437854464, -0.028, 0.974, -0.04, 192.0, 0.0, 0.0, 0.0, 0.0, 0.0, 0.0, 0.0, 0.0, 0.0, 1.6989590520532832E9, 0.0, 2023-11-02 17:04:12.053
17.0, -185913.40612332895, 187500.0, 31109.448505574288, 28648.588496278346, 187500.0, 187500.0, -187500.02235174447, 30314.642824488026, -0.028, 0.974, -0.04, 192.0, 0.0, 0.0, 0.0, 0.0, 0.0, 0.0, 0.0, 0.0, 0.0, 1.698959052053294E9, 0.0, 2023-11-02 17:04:12.053
18.0, -185789.71156951328, 187500.0, 31115.416421343856, 28649.639028267746, 187500.0, 187500.0, -187500.02235174447, 30317.7050134784, -0.028, 0.974, -0.04, 192.0, 0.0, 0.0, 0.0, 0.0, 0.0, 0.0, 0.0, 0.0, 0.0, 1.6989590520533104E9, 0.0, 2023-11-02 17:04:12.053
19.0, -185728.7807141281, 187500.0, 31131.464973862767, 28650.53309804596, 187500.0, 187500.0, -187500.02235174447, 30330.065528162188, -0.048, 0.988, -0.048, 192.0, 254.0, 128.0, 30.0, 224.0, 254.0, 128.0, 0.0, 0.0, 0.0, 1.6989590520533235E9, 0.0, 2023-11-02 17:04:12.053
20.0, -185764.25293257867, 187500.0, 31143.64667459091, 28653.43882482515, 187500.0, 187500.0, -187500.02235174447, 30337.799231743724, -0.048, 0.988, -0.048, 192.0, 0.0, 0.0, 0.0, 0.0, 0.0, 0.0, 0.0, 0.0, 0.0, 1.698959052053338E9, 0.0, 2023-11-02 17:04:12.053
21.0, -185770.17614485935, 187500.0, 31149.614590360474, 28654.802281236924, 187500.0, 187500.0, -187500.02235174447, 30339.38620560005, -0.048, 0.988, -0.048, 192.0, 0.0, 0.0, 0.0, 0.0, 0.0, 0.0, 0.0, 0.0, 0.0, 1.6989590520533495E9, 0.0, 2023-11-02 17:04:12.053
22.0, -185688.99460899766, 187500.0, 31155.046064263115, 28653.774100991977, 187500.0, 187500.0, -187500.02235174447, 30339.1626881555, -0.048, 0.988, -0.048, 192.0, 0.0, 0.0, 0.0, 0.0, 0.0, 0.0, 0.0, 0.0, 0.0, 1.698959052053366E9, 0.0, 2023-11-02 17:04:12.053
23.0, -185617.3125645295, 187500.0, 31156.16365148588, 28645.973342177076, 187500.0, 187500.0, -187500.02235174447, 30337.374548599073, -0.048, 0.988, -0.048, 192.0, 0.0, 0.0, 0.0, 0.0, 0.0, 0.0, 0.0, 0.0, 0.0, 1.6989590520533788E9, 0.0, 2023-11-02 17:04:12.053
24.0, -185654.9752539367, 187500.0, 31157.750625342207, 28641.70415898611, 187500.0, 187500.0, -187500.02235174447, 30338.603894544114, -0.048, 0.988, -0.048, 192.0, 0.0, 0.0, 0.0, 0.0, 0.0, 0.0, 0.0, 0.0, 0.0, 1.6989590520533931E9, 0.0, 2023-11-02 17:04:12.053
25.0, -185690.73804506517, 187500.0, 31154.397863673912, 28639.91601942969, 187500.0, 187500.0, -187500.02235174447, 30338.626246288568, -0.048, 0.988, -0.048, 192.0, 0.0, 0.0, 0.0, 0.0, 0.0, 0.0, 0.0, 0.0, 0.0, 1.6989590520534053E9, 0.0, 2023-11-02 17:04:12.053
26.0, -185610.85291038192, 187500.0, 31146.239476947725, 28636.473850783572, 187500.0, 187500.0, -187500.02235174447, 30332.0101299298, -0.048, 0.988, -0.048, 192.0, 0.0, 0.0, 0.0, 0.0, 0.0, 0.0, 0.0, 0.0, 0.0, 1.6989590520534194E9, 0.0, 2023-11-02 17:04:12.053
27.0, -185536.9356914682, 187500.0, 31142.886715279426, 28632.986978648543, 187500.0, 187500.0, -187500.02235174447, 30329.551438039714, -0.048, 0.988, -0.048, 192.0, 0.0, 0.0, 0.0, 0.0, 0.0, 0.0, 0.0, 0.0, 0.0, 1.6989590520534413E9, 0.0, 2023-11-02 17:04:12.053
28.0, -185561.47790688014, 187500.0, 31137.187020443325, 28629.38834779124, 187500.0, 187500.0, -187500.02235174447, 30327.226856616362, -0.048, 0.988, -0.048, 192.0, 0.0, 0.0, 0.0, 0.0, 0.0, 0.0, 0.0, 0.0, 0.0, 1.6989590520534563E9, 0.0, 2023-11-02 17:04:12.053
29.0, -185592.7032938842, 187500.0, 31129.565075584065, 28628.829554179854, 187500.0, 187500.0, -187500.02235174447, 30323.158839125495, -0.05, 0.976, -0.046, 192.0, 254.0, 112.0, 30.0, 128.0, 254.0, 144.0, 0.0, 0.0, 0.0, 1.6989590520534687E9, 0.0, 2023-11-02 17:04:12.053
30.0, -185543.797677016, 187500.0, 31128.358081383478, 28634.037510637943, 187500.0, 187500.0, -187500.02235174447, 30325.863400204587, -0.05, 0.976, -0.046, 192.0, 0.0, 0.0, 0.0, 0.0, 0.0, 0.0, 0.0, 0.0, 0.0, 1.6989590520535307E9, 0.0, 2023-11-02 17:04:12.053
31.0, -185448.04280376947, 187500.0, 31125.184133670824, 28636.250333339016, 187500.0, 187500.0, -187500.02235174447, 30326.265731604784, -0.05, 0.976, -0.046, 192.0, 0.0, 0.0, 0.0, 0.0, 0.0, 0.0, 0.0, 0.0, 0.0, 1.698959052053549E9, 0.0, 2023-11-02 17:04:12.053
32.0, -185447.8192863249, 187500.0, 31125.228837159735, 28635.42331879417, 187500.0, 187500.0, -187500.02235174447, 30330.266693862286, -0.05, 0.976, -0.046, 192.0, 0.0, 0.0, 0.0, 0.0, 0.0, 0.0, 0.0, 0.0, 0.0, 1.6989590520535655E9, 0.0, 2023-11-02 17:04:12.053
33.0, -185483.9844088536, 187500.0, 31122.01018595817, 28634.28337982695, 187500.0, 187500.0, -187500.02235174447, 30329.417327572985, -0.05, 0.976, -0.046, 192.0, 0.0, 0.0, 0.0, 0.0, 0.0, 0.0, 0.0, 0.0, 0.0, 1.6989590520535774E9, 0.0, 2023-11-02 17:04:12.053
34.0, -185451.84260032687, 187500.0, 31126.189962171313, 28639.111356629295, 187500.0, 187500.0, -187500.02235174447, 30333.127717152565, -0.05, 0.976, -0.046, 192.0, 0.0, 0.0, 0.0, 0.0, 0.0, 0.0, 0.0, 0.0, 0.0, 1.6989590520535913E9, 0.0, 2023-11-02 17:04:12.053
35.0, -185369.52112549797, 187500.0, 31132.046119218605, 28641.70415898611, 187500.0, 187500.0, -187500.02235174447, 30335.698167764924, -0.05, 0.976, -0.046, 192.0, 0.0, 0.0, 0.0, 0.0, 0.0, 0.0, 0.0, 0.0, 0.0, 1.698959052053608E9, 0.0, 2023-11-02 17:04:12.053
36.0, -185355.75245091348, 187500.0, 31136.717633809763, 28636.898533928223, 187500.0, 187500.0, -187500.02235174447, 30337.642769532536, -0.05, 0.976, -0.046, 192.0, 0.0, 0.0, 0.0, 0.0, 0.0, 0.0, 0.0, 0.0, 0.0, 1.6989590520536225E9, 0.0, 2023-11-02 17:04:12.053
37.0, -185422.76298079052, 187500.0, 31141.500907123198, 28638.0608246399, 187500.0, 187500.0, -187500.02235174447, 30340.369682356082, -0.05, 0.976, -0.046, 192.0, 0.0, 0.0, 0.0, 0.0, 0.0, 0.0, 0.0, 0.0, 0.0, 1.6989590520536404E9, 0.0, 2023-11-02 17:04:12.053
38.0, -185418.42674236617, 187500.0, 31140.96446525627, 28634.663359482693, 187500.0, 187500.0, -187500.02235174447, 30337.754528254813, -0.05, 0.976, -0.046, 192.0, 0.0, 0.0, 0.0, 0.0, 0.0, 0.0, 0.0, 0.0, 0.0, 1.6989590520536544E9, 0.0, 2023-11-02 17:04:12.053
39.0, -185348.62224443225, 187500.0, 31144.83131704704, 28634.126917615762, 187500.0, 187500.0, -187500.02235174447, 30337.687473021448, -0.07200000000000001, 0.99, -0.048, 192.0, 253.0, 192.0, 30.0, 240.0, 254.0, 128.0, 0.0, 0.0, 0.0, 1.698959052053666E9, 0.0, 2023-11-02 17:04:12.053
40.0, -185356.02067184696, 187500.0, 31157.97414278676, 28637.39027230624, 187500.0, 187500.0, -187500.02235174447, 30345.376473114073, -0.07200000000000001, 0.99, -0.048, 192.0, 0.0, 0.0, 0.0, 0.0, 0.0, 0.0, 0.0, 0.0, 0.0, 1.6989590520536838E9, 0.0, 2023-11-02 17:04:12.053
41.0, -185452.2225799826, 187500.0, 31166.847785335518, 28639.08900488484, 187500.0, 187500.0, -187500.02235174447, 30348.662179549003, -0.07200000000000001, 0.99, -0.048, 192.0, 0.0, 0.0, 0.0, 0.0, 0.0, 0.0, 0.0, 0.0, 0.0, 1.6989590520537033E9, 0.0, 2023-11-02 17:04:12.053
42.0, -185504.52566200803, 187500.0, 31168.4571109363, 28639.178411862664, 187500.0, 187500.0, -187500.02235174447, 30345.912914981, -0.07200000000000001, 0.99, -0.048, 192.0, 0.0, 0.0, 0.0, 0.0, 0.0, 0.0, 0.0, 0.0, 0.0, 1.6989590520537183E9, 0.0, 2023-11-02 17:04:12.053
43.0, -185462.34792022087, 187500.0, 31168.010076047194, 28639.223115351575, 187500.0, 187500.0, -187500.02235174447, 30346.650522548025, -0.07200000000000001, 0.99, -0.048, 192.0, 0.0, 0.0, 0.0, 0.0, 0.0, 0.0, 0.0, 0.0, 0.0, 1.6989590520537324E9, 0.0, 2023-11-02 17:04:12.053
44.0, -185465.4324609557, 187500.0, 31168.635924891943, 28640.72068223008, 187500.0, 187500.0, -187500.02235174447, 30349.489194093847, -0.07200000000000001, 0.99, -0.048, 192.0, 0.0, 0.0, 0.0, 0.0, 0.0, 0.0, 0.0, 0.0, 0.0, 1.6989590520537484E9, 0.0, 2023-11-02 17:04:12.053
45.0, -185568.8986860393, 187500.0, 31170.60287840401, 28648.744958489533, 187500.0, 187500.0, -187500.02235174447, 30355.8147377747, -0.07200000000000001, 0.99, -0.048, 192.0, 0.0, 0.0, 0.0, 0.0, 0.0, 0.0, 0.0, 0.0, 0.0, 1.698959052053764E9, 0.0, 2023-11-02 17:04:12.053
46.0, -185642.2124078527, 187500.0, 31168.4571109363, 28655.249316126028, 187500.0, 187500.0, -187500.02235174447, 30356.664104064002, -0.07200000000000001, 0.99, -0.048, 192.0, 0.0, 0.0, 0.0, 0.0, 0.0, 0.0, 0.0, 0.0, 0.0, 1.698959052053828E9, 0.0, 2023-11-02 17:04:12.053
47.0, -185604.52736670108, 187500.0, 31157.16947998637, 28650.220173623584, 187500.0, 187500.0, -187500.02235174447, 30347.678702792968, -0.07200000000000001, 0.99, -0.048, 192.0, 0.0, 0.0, 0.0, 0.0, 0.0, 0.0, 0.0, 0.0, 0.0, 1.698959052053846E9, 0.0, 2023-11-02 17:04:12.053
48.0, -185570.68682559574, 187500.0, 31153.995532273715, 28646.554487532914, 187500.0, 187500.0, -187500.02235174447, 30346.248191147828, -0.07200000000000001, 0.99, -0.048, 192.0, 0.0, 0.0, 0.0, 0.0, 0.0, 0.0, 0.0, 0.0, 0.0, 1.6989590520538943E9, 0.0, 2023-11-02 17:04:12.053
49.0, -185649.3649660784, 187500.0, 31153.280276451147, 28649.99665617903, 187500.0, 187500.0, -187500.02235174447, 30349.600952816127, -0.06, 0.974, -0.046, 192.0, 254.0, 32.0, 30.0, 112.0, 254.0, 144.0, 0.0, 0.0, 0.0, 1.6989590520539138E9, 0.0, 2023-11-02 17:04:12.053
50.0, -185714.11796976544, 187500.0, 31144.160764713382, 28654.444653325638, 187500.0, 187500.0, -187500.02235174447, 30347.879868493066, -0.06, 0.974, -0.046, 192.0, 0.0, 0.0, 0.0, 0.0, 0.0, 0.0, 0.0, 0.0, 0.0, 1.698959052053957E9, 0.0, 2023-11-02 17:04:12.053
51.0, -185648.2697306001, 187500.0, 31132.71667155226, 28654.33289460336, 187500.0, 187500.0, -187500.02235174447, 30343.610685302105, -0.06, 0.974, -0.046, 192.0, 0.0, 0.0, 0.0, 0.0, 0.0, 0.0, 0.0, 0.0, 0.0, 1.6989590520539787E9, 0.0, 2023-11-02 17:04:12.053
52.0, -185558.46042137867, 187500.0, 31125.519409837656, 28648.633199767257, 187500.0, 187500.0, -187500.02235174447, 30341.040234689743, -0.06, 0.974, -0.046, 192.0, 0.0, 0.0, 0.0, 0.0, 0.0, 0.0, 0.0, 0.0, 0.0, 1.6989590520540068E9, 0.0, 2023-11-02 17:04:12.054
53.0, -185574.37486343086, 187500.0, 31124.49122959271, 28646.129804388263, 187500.0, 187500.0, -187500.02235174447, 30342.962484712898, -0.06, 0.974, -0.046, 192.0, 0.0, 0.0, 0.0, 0.0, 0.0, 0.0, 0.0, 0.0, 0.0, 1.6989590520540297E9, 0.0, 2023-11-02 17:04:12.054
54.0, -185634.72457346017, 187500.0, 31129.743889539706, 28651.605981779812, 187500.0, 187500.0, -187500.02235174447, 30347.72340628188, -0.06, 0.974, -0.046, 192.0, 0.0, 0.0, 0.0, 0.0, 0.0, 0.0, 0.0, 0.0, 0.0, 1.698959052054063E9, 0.0, 2023-11-02 17:04:12.054
55.0, -185594.37967471837, 187500.0, 31129.87800000644, 28658.289153371952, 187500.0, 187500.0, -187500.02235174447, 30349.332731882663, -0.06, 0.974, -0.046, 192.0, 0.0, 0.0, 0.0, 0.0, 0.0, 0.0, 0.0, 0.0, 0.0, 1.6989590520540853E9, 0.0, 2023-11-02 17:04:12.054
56.0, -185503.98922014108, 187500.0, 31131.196752929303, 28658.870298727787, 187500.0, 187500.0, -187500.02235174447, 30352.05964470621, -0.06, 0.974, -0.046, 192.0, 0.0, 0.0, 0.0, 0.0, 0.0, 0.0, 0.0, 0.0, 0.0, 1.698959052054105E9, 0.0, 2023-11-02 17:04:12.054
57.0, -185504.72682770813, 187500.0, 31134.705976808786, 28652.76827249149, 187500.0, 187500.0, -187500.02235174447, 30354.495984851837, -0.06, 0.974, -0.046, 192.0, 0.0, 0.0, 0.0, 0.0, 0.0, 0.0, 0.0, 0.0, 0.0, 1.69895905205412E9, 0.0, 2023-11-02 17:04:12.054
58.0, -185562.66254933627, 187500.0, 31136.896447765404, 28651.58363003536, 187500.0, 187500.0, -187500.02235174447, 30356.8652697641, -0.06, 0.974, -0.046, 192.0, 0.0, 0.0, 0.0, 0.0, 0.0, 0.0, 0.0, 0.0, 0.0, 1.6989590520541382E9, 0.0, 2023-11-02 17:04:12.054
59.0, -185520.35069708238, 187500.0, 31132.694319807808, 28645.749824732524, 187500.0, 187500.0, -187500.02235174447, 30351.456147605917, -0.052000000000000005, 0.986, -0.044, 192.0, 254.0, 96.0, 30.0, 208.0, 254.0, 160.0, 0.0, 0.0, 0.0, 1.6989590520541573E9, 0.0, 2023-11-02 17:04:12.054
60.0, -185448.33337644738, 187500.0, 31141.21033444528, 28645.794528221435, 187500.0, 187500.0, -187500.02235174447, 30357.535822097758, -0.052000000000000005, 0.986, -0.044, 192.0, 0.0, 0.0, 0.0, 0.0, 0.0, 0.0, 0.0, 0.0, 0.0, 1.6989590520541935E9, 0.0, 2023-11-02 17:04:12.054
61.0, -185431.5695681059, 187500.0, 31143.803136802097, 28644.073443898375, 187500.0, 187500.0, -187500.02235174447, 30358.38518838706, -0.052000000000000005, 0.986, -0.044, 192.0, 0.0, 0.0, 0.0, 0.0, 0.0, 0.0, 0.0, 0.0, 0.0, 1.6989590520543694E9, 0.0, 2023-11-02 17:04:12.054
62.0, -185502.31283930695, 187500.0, 31148.49700313771, 28646.018045665987, 187500.0, 187500.0, -187500.02235174447, 30362.609668089113, -0.052000000000000005, 0.986, -0.044, 192.0, 0.0, 0.0, 0.0, 0.0, 0.0, 0.0, 0.0, 0.0, 0.0, 1.6989590520543995E9, 0.0, 2023-11-02 17:04:12.054
63.0, -185508.30310682097, 187500.0, 31144.87602053595, 28641.838269452845, 187500.0, 187500.0, -187500.02235174447, 30357.781691286767, -0.052000000000000005, 0.986, -0.044, 192.0, 0.0, 0.0, 0.0, 0.0, 0.0, 0.0, 0.0, 0.0, 0.0, 1.6989590520544207E9, 0.0, 2023-11-02 17:04:12.054
64.0, -185418.76201853302, 187500.0, 31137.63405533243, 28630.707100714102, 187500.0, 187500.0, -187500.02235174447, 30351.702016794923, -0.052000000000000005, 0.986, -0.044, 192.0, 0.0, 0.0, 0.0, 0.0, 0.0, 0.0, 0.0, 0.0, 0.0, 1.6989590520544367E9, 0.0, 2023-11-02 17:04:12.054
65.0, -185411.65416379622, 187500.0, 31141.433851889833, 28626.370862289772, 187500.0, 187500.0, -187500.02235174447, 30357.535822097758, -0.052000000000000005, 0.986, -0.044, 192.0, 0.0, 0.0, 0.0, 0.0, 0.0, 0.0, 0.0, 0.0, 0.0, 1.6989590520544567E9, 0.0, 2023-11-02 17:04:12.054
66.0, -185504.4809585191, 187500.0, 31143.64667459091, 28626.7061384566, 187500.0, 187500.0, -187500.02235174447, 30360.218031432396, -0.052000000000000005, 0.986, -0.044, 192.0, 0.0, 0.0, 0.0, 0.0, 0.0, 0.0, 0.0, 0.0, 0.0, 1.6989590520544796E9, 0.0, 2023-11-02 17:04:12.054
67.0, -185548.804467774, 187500.0, 31139.623360588954, 28627.33198730135, 187500.0, 187500.0, -187500.02235174447, 30355.09948195213, -0.052000000000000005, 0.986, -0.044, 192.0, 0.0, 0.0, 0.0, 0.0, 0.0, 0.0, 0.0, 0.0, 0.0, 1.698959052054505E9, 0.0, 2023-11-02 17:04:12.054
