%OpenBCI Raw EEG Data
%Number of channels = 8
%Sample Rate = 250 Hz
%Board = OpenBCI_GUI$BoardCytonSerial
Sample Index, EXG Channel 0, EXG Channel 1, EXG Channel 2, EXG Channel 3, EXG Channel 4, EXG Channel 5, EXG Channel 6, EXG Channel 7, Accel Channel 0, Accel Channel 1, Accel Channel 2, Other, Other, Other, Other, Other, Other, Other, Analog Channel 0, Analog Channel 1, Analog Channel 2, Timestamp, Other, Timestamp (Formatted)
207.0, -7943.698220693854, -17264.62152774591, -76080.80072174082, -95187.96595191551, -76847.46555655784, -37825.8794934606, -64815.16388835477, -71884.35010723473, 0.0, 0.0, 0.0, 192.0, 0.0, 0.0, 0.0, 0.0, 0.0, 0.0, 0.0, 0.0, 0.0, 1.6962774803672323E9, 0.0, 2023-10-02 16:11:20.367
208.0, -7940.323107281102, -17264.241548090165, -76086.38865785464, -95189.24000134946, -76848.7396059918, -37827.5782260392, -64816.3485308109, -71882.42785721157, 0.0, 0.0, 0.0, 192.0, 0.0, 0.0, 0.0, 0.0, 0.0, 0.0, 0.0, 0.0, 0.0, 1.6962774803672552E9, 0.0, 2023-10-02 16:11:20.367
209.0, -7945.486360250278, -17269.203635359245, -76091.93189047955, -95189.57527751628, -76842.48111754432, -37838.61998780012, -64816.16971685526, -71881.6678979001, 0.0, 0.0, 0.0, 192.0, 0.0, 0.0, 0.0, 0.0, 0.0, 0.0, 0.0, 0.0, 0.0, 1.6962774803672652E9, 0.0, 2023-10-02 16:11:20.367
210.0, -7949.599081230054, -17270.723553982207, -76083.97466945347, -95192.07867289528, -76841.20706811037, -37829.18755163998, -64811.140574352816, -71874.69415363004, 0.0, 0.0, 0.0, 192.0, 0.0, 0.0, 0.0, 0.0, 0.0, 0.0, 0.0, 0.0, 0.0, 1.6962774803672752E9, 0.0, 2023-10-02 16:11:20.367
211.0, -7950.135523096982, -17272.332879582988, -76083.01354444188, -95203.27689686739, -76849.20899262535, -37817.36347882313, -64813.26399007607, -71878.24808099844, 0.0, 0.0, 0.0, 192.0, 0.0, 0.0, 0.0, 0.0, 0.0, 0.0, 0.0, 0.0, 0.0, 1.6962774803672843E9, 0.0, 2023-10-02 16:11:20.367
212.0, -7956.371659800013, -17279.99952793116, -76091.5072073349, -95208.6189637922, -76846.90676294647, -37823.21963587042, -64800.992882370105, -71878.1139705317, 0.0, 0.0, 0.0, 192.0, 0.0, 0.0, 0.0, 0.0, 0.0, 0.0, 0.0, 0.0, 0.0, 1.6962774803672943E9, 0.0, 2023-10-02 16:11:20.367
213.0, -7964.1947703593705, -17287.062679179035, -76103.53244585186, -95210.25064113745, -76844.42571931193, -37834.14963890906, -64796.88016139033, -71875.8117408528, 0.0, 0.0, 0.0, 192.0, 0.0, 0.0, 0.0, 0.0, 0.0, 0.0, 0.0, 0.0, 0.0, 1.696277480367304E9, 0.0, 2023-10-02 16:11:20.367
214.0, -7959.0315173901945, -17282.055888421048, -76095.59757657023, -95204.975629446, -76836.26733258573, -37828.53935105078, -64784.497294962086, -71864.03237152487, 0.0, 0.0, 0.0, 192.0, 0.0, 0.0, 0.0, 0.0, 0.0, 0.0, 0.0, 0.0, 0.0, 1.6962774803673131E9, 0.0, 2023-10-02 16:11:20.367
215.0, -7953.309470809636, -17279.261920364133, -76084.30994562029, -95205.06503642381, -76832.82516393962, -37810.85912118663, -64773.47788494562, -71854.59993536472, 0.0, 0.0, 0.0, 192.0, 0.0, 0.0, 0.0, 0.0, 0.0, 0.0, 0.0, 0.0, 0.0, 1.6962774803673227E9, 0.0, 2023-10-02 16:11:20.367
216.0, -7957.265729578225, -17286.99562394567, -76088.62383230017, -95211.54704231585, -76836.69201573038, -37805.11472286162, -64772.71792563414, -71855.3598946762, -0.10400000000000001, 1.002, 0.054, 192.0, 252.0, 192.0, 31.0, 80.0, 1.0, 176.0, 0.0, 0.0, 0.0, 1.6962774803673325E9, 0.0, 2023-10-02 16:11:20.367
217.0, -7960.819656946619, -17290.10251642496, -76099.39737312763, -95209.84830973725, -76830.81350693865, -37818.97280442391, -64773.25436750107, -71854.17525222007, -0.10400000000000001, 1.002, 0.054, 192.0, 0.0, 0.0, 0.0, 0.0, 0.0, 0.0, 0.0, 0.0, 0.0, 1.6962774803673449E9, 0.0, 2023-10-02 16:11:20.367
218.0, -7965.133543626493, -17293.835257748993, -76096.49164634844, -95212.95520221653, -76830.90291391646, -37821.40914456954, -64767.6887831317, -71854.46582489798, -0.10400000000000001, 1.002, 0.054, 192.0, 0.0, 0.0, 0.0, 0.0, 0.0, 0.0, 0.0, 0.0, 0.0, 1.6962774803673563E9, 0.0, 2023-10-02 16:11:20.367
219.0, -7959.947938912862, -17290.10251642496, -76089.78612301184, -95215.77152201791, -76834.81446919614, -37814.70362123294, -64768.47109418763, -71862.89243255764, -0.10400000000000001, 1.002, 0.054, 192.0, 0.0, 0.0, 0.0, 0.0, 0.0, 0.0, 0.0, 0.0, 0.0, 1.6962774803673663E9, 0.0, 2023-10-02 16:11:20.367
220.0, -7960.305566824147, -17288.716708268727, -76096.60340507071, -95218.81135926383, -76842.27995184422, -37818.34695557916, -64774.26019600156, -71874.09065652975, -0.10400000000000001, 1.002, 0.054, 192.0, 0.0, 0.0, 0.0, 0.0, 0.0, 0.0, 0.0, 0.0, 0.0, 1.6962774803673763E9, 0.0, 2023-10-02 16:11:20.367
221.0, -7964.172418614915, -17288.89552222437, -76110.72970756647, -95219.92894648659, -76843.12931813352, -37836.22835114341, -64783.75968739506, -71880.90793858861, -0.10400000000000001, 1.002, 0.054, 192.0, 0.0, 0.0, 0.0, 0.0, 0.0, 0.0, 0.0, 0.0, 0.0, 1.696277480367386E9, 0.0, 2023-10-02 16:11:20.367
222.0, -7966.921683182917, -17290.214275147235, -76107.44400113155, -95219.57131857531, -76846.90676294647, -37847.29246464878, -64796.455478245676, -71885.69121190206, -0.10400000000000001, 1.002, 0.054, 192.0, 0.0, 0.0, 0.0, 0.0, 0.0, 0.0, 0.0, 0.0, 0.0, 1.6962774803673956E9, 0.0, 2023-10-02 16:11:20.367
223.0, -7965.558226771144, -17289.566074558028, -76097.78804752685, -95221.47121685401, -76851.6900362599, -37843.06798494673, -64811.98994064212, -71891.90499686063, -0.10400000000000001, 1.002, 0.054, 192.0, 0.0, 0.0, 0.0, 0.0, 0.0, 0.0, 0.0, 0.0, 0.0, 1.696277480367529E9, 0.0, 2023-10-02 16:11:20.367
224.0, -7963.1442383699705, -17289.85664723595, -76096.82692251528, -95225.82980702279, -76856.67447527344, -37841.34690062367, -64821.78000471354, -71904.15375282214, -0.10400000000000001, 1.002, 0.054, 192.0, 0.0, 0.0, 0.0, 0.0, 0.0, 0.0, 0.0, 0.0, 0.0, 1.6962774803675387E9, 0.0, 2023-10-02 16:11:20.367
225.0, -7962.898369180963, -17291.95771121475, -76108.89686452113, -95224.98044073349, -76856.9426962069, -37854.89205776359, -64826.89855419381, -71912.26743605941, -0.10400000000000001, 1.002, 0.054, 192.0, 0.0, 0.0, 0.0, 0.0, 0.0, 0.0, 0.0, 0.0, 0.0, 1.6962774803675504E9, 0.0, 2023-10-02 16:11:20.367
226.0, -7960.1491046129595, -17288.403783846356, -76106.32641390877, -95216.30796388483, -76850.75126299278, -37866.55966836926, -64823.434033803234, -71912.78152618189, -0.114, 1.004, 0.056, 192.0, 252.0, 112.0, 31.0, 96.0, 1.0, 192.0, 0.0, 0.0, 0.0, 1.69627748036756E9, 0.0, 2023-10-02 16:11:20.367
227.0, -7951.454276019845, -17280.692432009273, -76092.24481490193, -95210.13888241517, -76848.67255075843, -37859.630627588114, -64816.30382732199, -71911.79804942585, -0.114, 1.004, 0.056, 192.0, 0.0, 0.0, 0.0, 0.0, 0.0, 0.0, 0.0, 0.0, 0.0, 1.6962774803675709E9, 0.0, 2023-10-02 16:11:20.367
228.0, -7945.598118972554, -17278.32314709701, -76094.211768414, -95210.4294550931, -76855.71335026185, -37848.90179024956, -64820.997693657606, -71912.60271222625, -0.114, 1.004, 0.056, 192.0, 0.0, 0.0, 0.0, 0.0, 0.0, 0.0, 0.0, 0.0, 0.0, 1.696277480367581E9, 0.0, 2023-10-02 16:11:20.367
229.0, -7940.412514258924, -17274.635109261886, -76099.84440801674, -95198.89595495415, -76841.18471636591, -37848.8347350162, -64816.929676166736, -71904.4666772445, -0.114, 1.004, 0.056, 192.0, 0.0, 0.0, 0.0, 0.0, 0.0, 0.0, 0.0, 0.0, 0.0, 1.6962774803675928E9, 0.0, 2023-10-02 16:11:20.367
230.0, -7939.1384648249705, -17273.27165285011, -76096.3128323928, -95192.12337638419, -76832.64634998397, -37852.18749668449, -64811.475850519644, -71897.60469169673, -0.114, 1.004, 0.056, 192.0, 0.0, 0.0, 0.0, 0.0, 0.0, 0.0, 0.0, 0.0, 0.0, 1.6962774803676023E9, 0.0, 2023-10-02 16:11:20.367
231.0, -7936.366848512513, -17270.768257471118, -76086.03102994336, -95194.20208861853, -76833.18279185091, -37844.67731054751, -64809.48654526312, -71891.68147941607, -0.114, 1.004, 0.056, 192.0, 0.0, 0.0, 0.0, 0.0, 0.0, 0.0, 0.0, 0.0, 0.0, 1.696277480367612E9, 0.0, 2023-10-02 16:11:20.367
232.0, -7937.484435735279, -17273.115190638924, -76085.53929156534, -95197.91247819811, -76836.51320177475, -37836.02718544331, -64808.190144084714, -71891.23444452697, -0.114, 1.004, 0.056, 192.0, 0.0, 0.0, 0.0, 0.0, 0.0, 0.0, 0.0, 0.0, 0.0, 1.6962774803676217E9, 0.0, 2023-10-02 16:11:20.367
233.0, -7939.80901715863, -17274.188074372778, -76095.23994865894, -95195.7220072415, -76835.61913199653, -37838.88820873359, -64809.799469685495, -71889.62511892618, -0.114, 1.004, 0.056, 192.0, 0.0, 0.0, 0.0, 0.0, 0.0, 0.0, 0.0, 0.0, 0.0, 1.6962774803676312E9, 0.0, 2023-10-02 16:11:20.367
234.0, -7950.493151008267, -17285.676871022806, -76101.4090301286, -95199.9241351991, -76840.98355066581, -37842.93387448, -64813.085176120425, -71888.93221484807, -0.114, 1.004, 0.056, 192.0, 0.0, 0.0, 0.0, 0.0, 0.0, 0.0, 0.0, 0.0, 0.0, 1.696277480367641E9, 0.0, 2023-10-02 16:11:20.367
235.0, -7944.4134765164235, -17282.391164587876, -76088.26620438888, -95192.48100429548, -76834.79211745168, -37834.37315635361, -64806.96079813967, -71875.8117408528, -0.10200000000000001, 1.002, 0.054, 192.0, 252.0, 208.0, 31.0, 80.0, 1.0, 176.0, 0.0, 0.0, 0.0, 1.6962774803676507E9, 0.0, 2023-10-02 16:11:20.367
236.0, -7935.740999667764, -17275.819751718016, -76072.21765186997, -95187.49656528194, -76834.00980639576, -37811.90965317603, -64798.86946664685, -71863.85355756922, -0.10200000000000001, 1.002, 0.054, 192.0, 0.0, 0.0, 0.0, 0.0, 0.0, 0.0, 0.0, 0.0, 0.0, 1.6962774803676617E9, 0.0, 2023-10-02 16:11:20.367
237.0, -7943.1841305713815, -17283.978138444203, -76082.76767525288, -95191.74339672845, -76840.80473671017, -37806.209958339925, -64798.51183873557, -71859.91965054508, -0.10200000000000001, 1.002, 0.054, 192.0, 0.0, 0.0, 0.0, 0.0, 0.0, 0.0, 0.0, 0.0, 0.0, 1.6962774803676713E9, 0.0, 2023-10-02 16:11:20.367
238.0, -7959.836180190585, -17301.211333419244, -76100.47025686149, -95201.13112939968, -76852.04766417119, -37816.89409218956, -64804.05507136048, -71863.11595000219, -0.10200000000000001, 1.002, 0.054, 192.0, 0.0, 0.0, 0.0, 0.0, 0.0, 0.0, 0.0, 0.0, 0.0, 1.6962774803677475E9, 0.0, 2023-10-02 16:11:20.367
239.0, -7958.137447611982, -17301.770127030628, -76091.46250384599, -95195.61024851922, -76850.86302171505, -37816.13413287808, -64797.23778930162, -71854.97991502046, -0.10200000000000001, 1.002, 0.054, 192.0, 0.0, 0.0, 0.0, 0.0, 0.0, 0.0, 0.0, 0.0, 0.0, 1.6962774803677573E9, 0.0, 2023-10-02 16:11:20.367
240.0, -7948.325031796102, -17294.505810082654, -76081.13599790764, -95193.8668124517, -76847.6890740024, -37802.365458293614, -64788.36414675286, -71845.81569979379, -0.10200000000000001, 1.002, 0.054, 192.0, 0.0, 0.0, 0.0, 0.0, 0.0, 0.0, 0.0, 0.0, 0.0, 1.696277480367767E9, 0.0, 2023-10-02 16:11:20.367
241.0, -7947.296851551158, -17292.740022270682, -76084.37700085367, -95189.84349844974, -76848.60549552507, -37802.14194084906, -64787.02304208554, -71845.12279571567, -0.10200000000000001, 1.002, 0.054, 192.0, 0.0, 0.0, 0.0, 0.0, 0.0, 0.0, 0.0, 0.0, 0.0, 1.6962774803677769E9, 0.0, 2023-10-02 16:11:20.367
242.0, -7950.671964963909, -17296.89744673937, -76091.86483524619, -95187.29539958184, -76844.26925710074, -37818.36930732361, -64789.392326997804, -71848.07322598377, -0.10200000000000001, 1.002, 0.054, 192.0, 0.0, 0.0, 0.0, 0.0, 0.0, 0.0, 0.0, 0.0, 0.0, 1.6962774803677864E9, 0.0, 2023-10-02 16:11:20.367
243.0, -7951.3425172975685, -17296.00337696116, -76089.85317824522, -95189.26235309392, -76839.91066693196, -37825.63362427159, -64786.28543451851, -71850.0625312403, -0.10200000000000001, 1.002, 0.054, 192.0, 0.0, 0.0, 0.0, 0.0, 0.0, 0.0, 0.0, 0.0, 0.0, 1.6962774803677962E9, 0.0, 2023-10-02 16:11:20.367
244.0, -7954.471761521311, -17298.03738570659, -76086.58982355474, -95198.42656832059, -76850.66185601495, -37822.43732481448, -64791.44868748769, -71862.69126685754, -0.10200000000000001, 1.002, 0.054, 192.0, 0.0, 0.0, 0.0, 0.0, 0.0, 0.0, 0.0, 0.0, 0.0, 1.6962774803678057E9, 0.0, 2023-10-02 16:11:20.367
245.0, -7953.532988254188, -17296.562170572543, -76091.28368989035, -95202.5169375559, -76852.89703046049, -37828.96403419543, -64801.86460040386, -71880.28208974387, -0.10200000000000001, 1.004, 0.056, 192.0, 252.0, 208.0, 31.0, 96.0, 1.0, 192.0, 0.0, 0.0, 0.0, 1.6962774803678155E9, 0.0, 2023-10-02 16:11:20.367
246.0, -7959.389145301479, -17300.719595041228, -76105.4099923861, -95208.55190855885, -76858.3955595965, -37845.72784253691, -64818.82957444544, -71893.84959862824, -0.10200000000000001, 1.004, 0.056, 192.0, 0.0, 0.0, 0.0, 0.0, 0.0, 0.0, 0.0, 0.0, 0.0, 1.6962774803678255E9, 0.0, 2023-10-02 16:11:20.367
247.0, -7957.422191789412, -17298.774993273615, -76104.00183248542, -95203.9698009455, -76858.30615261866, -37855.67436881952, -64824.10458613689, -71894.58720619527, -0.10200000000000001, 1.004, 0.056, 192.0, 0.0, 0.0, 0.0, 0.0, 0.0, 0.0, 0.0, 0.0, 0.0, 1.6962774803678353E9, 0.0, 2023-10-02 16:11:20.367
248.0, -7956.461066777834, -17300.31726364103, -76094.6140998142, -95208.35074285875, -76860.11664391955, -37850.86874376163, -64827.61381001637, -71903.08086908828, -0.10200000000000001, 1.004, 0.056, 192.0, 0.0, 0.0, 0.0, 0.0, 0.0, 0.0, 0.0, 0.0, 0.0, 1.696277480367845E9, 0.0, 2023-10-02 16:11:20.367
249.0, -7948.9955841297615, -17296.115135683434, -76092.71420153549, -95206.78612074687, -76855.2439636283, -37850.265246661336, -64831.055978662494, -71907.59592146825, -0.10200000000000001, 1.004, 0.056, 192.0, 0.0, 0.0, 0.0, 0.0, 0.0, 0.0, 0.0, 0.0, 0.0, 1.6962774803678548E9, 0.0, 2023-10-02 16:11:20.367
250.0, -7946.805113173141, -17294.595217060472, -76096.26812890389, -95202.2710683669, -76852.49469906029, -37862.424595645025, -64835.59338278692, -71908.89232264666, -0.10200000000000001, 1.004, 0.056, 192.0, 0.0, 0.0, 0.0, 0.0, 0.0, 0.0, 0.0, 0.0, 0.0, 1.6962774803678656E9, 0.0, 2023-10-02 16:11:20.367
251.0, -7951.521331253211, -17297.47859209521, -76092.26716664639, -95199.5218037989, -76849.92424844793, -37871.70056959397, -64837.135653154335, -71908.73586043548, -0.10200000000000001, 1.004, 0.056, 192.0, 0.0, 0.0, 0.0, 0.0, 0.0, 0.0, 0.0, 0.0, 0.0, 1.6962774803678756E9, 0.0, 2023-10-02 16:11:20.367
252.0, -7950.470799263811, -17297.47859209521, -76081.02423918537, -95202.62869627819, -76848.89606820299, -37862.31283692275, -64832.665304263275, -71901.73976442096, -0.10200000000000001, 1.004, 0.056, 192.0, 0.0, 0.0, 0.0, 0.0, 0.0, 0.0, 0.0, 0.0, 0.0, 1.696277480367885E9, 0.0, 2023-10-02 16:11:20.367
253.0, -7942.804150915641, -17291.354214114453, -76073.3128873483, -95201.98049568899, -76845.69976874588, -37851.53929609529, -64831.36890308487, -71894.56485445081, -0.10200000000000001, 1.004, 0.056, 192.0, 0.0, 0.0, 0.0, 0.0, 0.0, 0.0, 0.0, 0.0, 0.0, 1.6962774803679037E9, 0.0, 2023-10-02 16:11:20.367
254.0, -7944.167607327415, -17294.461106593742, -76083.23706188644, -95200.68409451058, -76843.62105651153, -37852.12044145113, -64835.459272320186, -71894.36368875072, -0.10200000000000001, 1.004, 0.056, 192.0, 0.0, 0.0, 0.0, 0.0, 0.0, 0.0, 0.0, 0.0, 0.0, 1.6962774803679135E9, 0.0, 2023-10-02 16:11:20.367
255.0, -7949.219101574315, -17298.484420595698, -76085.91927122108, -95198.94065844305, -76837.98841690879, -37854.95911299695, -64830.36307458438, -71890.49683695994, -0.108, 1.002, 0.06, 192.0, 252.0, 160.0, 31.0, 80.0, 1.0, 224.0, 0.0, 0.0, 0.0, 1.6962774803679233E9, 0.0, 2023-10-02 16:11:20.367
0.0, -7954.874092921507, -17303.133583442403, -76079.54902405132, -95205.98145794649, -76841.87762044402, -37848.655921060556, -64832.732359496644, -71892.68730791657, -0.108, 1.002, 0.06, 192.0, 0.0, 0.0, 0.0, 0.0, 0.0, 0.0, 0.0, 0.0, 0.0, 1.6962774803679335E9, 0.0, 2023-10-02 16:11:20.367
1.0, -7958.137447611982, -17308.43094687831, -76084.15348340911, -95215.79387376236, -76850.81831822614, -37841.72688027941, -64839.41553108878, -71894.38604049517, -0.108, 1.002, 0.06, 192.0, 0.0, 0.0, 0.0, 0.0, 0.0, 0.0, 0.0, 0.0, 0.0, 1.6962774803679433E9, 0.0, 2023-10-02 16:11:20.367
2.0, -7955.119962110515, -17308.050967222567, -76093.34005038024, -95210.76473125991, -76841.51999253273, -37845.683139048, -64836.17452814276, -71883.70190664553, -0.108, 1.002, 0.06, 192.0, 0.0, 0.0, 0.0, 0.0, 0.0, 0.0, 0.0, 0.0, 0.0, 1.6962774803679528E9, 0.0, 2023-10-02 16:11:20.367
3.0, -7963.85949419254, -17314.71178707025, -76097.22925391546, -95211.14471091566, -76842.70463498887, -37850.622874572626, -64834.967533942174, -71874.82826409677, -0.108, 1.002, 0.06, 192.0, 0.0, 0.0, 0.0, 0.0, 0.0, 0.0, 0.0, 0.0, 0.0, 1.6962774803679628E9, 0.0, 2023-10-02 16:11:20.367
4.0, -7962.38427905849, -17312.1860399468, -76087.9085764776, -95210.0271236929, -76840.13418437651, -37839.91638897853, -64828.887859450326, -71866.87104307069, -0.108, 1.002, 0.06, 192.0, 0.0, 0.0, 0.0, 0.0, 0.0, 0.0, 0.0, 0.0, 0.0, 1.6962774803679724E9, 0.0, 2023-10-02 16:11:20.367
5.0, -7958.897406923463, -17309.61558933444, -76084.42170434257, -95211.34587661576, -76844.35866407857, -37822.16910388102, -64823.299923336504, -71860.63490636765, -0.108, 1.002, 0.06, 192.0, 0.0, 0.0, 0.0, 0.0, 0.0, 0.0, 0.0, 0.0, 0.0, 1.696277480367982E9, 0.0, 2023-10-02 16:11:20.367
6.0, -7961.736078469286, -17313.862420780948, -76098.0562684603, -95215.03391445088, -76849.16428913645, -37817.83286545669, -64825.959780926685, -71859.94200228954, -0.108, 1.002, 0.06, 192.0, 0.0, 0.0, 0.0, 0.0, 0.0, 0.0, 0.0, 0.0, 0.0, 1.6962774803679917E9, 0.0, 2023-10-02 16:11:20.367
7.0, -7969.715651239831, -17319.919743528335, -76110.97557675547, -95218.78900751937, -76846.54913503518, -37830.39454584057, -64827.99378967212, -71862.33363894626, -0.108, 1.002, 0.06, 192.0, 0.0, 0.0, 0.0, 0.0, 0.0, 0.0, 0.0, 0.0, 0.0, 1.6962774803680012E9, 0.0, 2023-10-02 16:11:20.368
8.0, -7967.569883772121, -17316.209353948754, -76104.60532958571, -95213.98338246148, -76843.33048383362, -37827.24294987237, -64817.73433896713, -71853.28118244186, -0.108, 1.002, 0.06, 192.0, 0.0, 0.0, 0.0, 0.0, 0.0, 0.0, 0.0, 0.0, 0.0, 1.6962774803680108E9, 0.0, 2023-10-02 16:11:20.368
9.0, -7959.724421468309, -17307.55922884455, -76095.15054168113, -95213.33518187227, -76846.30326584617, -37816.17883636699, -64810.82764993044, -71849.19081320653, -0.106, 1.002, 0.07, 192.0, 252.0, 176.0, 31.0, 80.0, 2.0, 48.0, 0.0, 0.0, 0.0, 1.6962774803680203E9, 0.0, 2023-10-02 16:11:20.368
10.0, -7955.298776066158, -17304.318225898533, -76095.21759691449, -95210.6753242821, -76844.62688501203, -37811.462618286925, -64812.25816157558, -71849.70490332901, -0.106, 1.002, 0.07, 192.0, 0.0, 0.0, 0.0, 0.0, 0.0, 0.0, 0.0, 0.0, 0.0, 1.696277480368049E9, 0.0, 2023-10-02 16:11:20.368
11.0, -7961.579616258099, -17311.22491493522, -76105.67821331957, -95211.10000742675, -76849.47721355883, -37824.0242986708, -64819.14249886781, -71856.94686853253, -0.106, 1.002, 0.07, 192.0, 0.0, 0.0, 0.0, 0.0, 0.0, 0.0, 0.0, 0.0, 0.0, 1.6962774803680592E9, 0.0, 2023-10-02 16:11:20.368
12.0, -7962.943072669873, -17308.52035385613, -76103.80066678532, -95208.95423995904, -76851.64533277099, -37829.79104874028, -64822.29409483601, -71865.75345584792, -0.106, 1.002, 0.07, 192.0, 0.0, 0.0, 0.0, 0.0, 0.0, 0.0, 0.0, 0.0, 0.0, 1.6962774803680918E9, 0.0, 2023-10-02 16:11:20.368
13.0, -7954.3376510545795, -17296.42806010581, -76090.59078581224, -95206.2273271355, -76850.19246938139, -37824.448981815454, -64818.78487095653, -71869.15092100513, -0.106, 1.002, 0.07, 192.0, 0.0, 0.0, 0.0, 0.0, 0.0, 0.0, 0.0, 0.0, 0.0, 1.696277480368102E9, 0.0, 2023-10-02 16:11:20.368
14.0, -7952.616566731521, -17296.405708361355, -76091.57426256828, -95210.0271236929, -76852.22647812683, -37828.13701965058, -64827.23383036064, -71880.34914497724, -0.106, 1.002, 0.07, 192.0, 0.0, 0.0, 0.0, 0.0, 0.0, 0.0, 0.0, 0.0, 0.0, 1.696277480368112E9, 0.0, 2023-10-02 16:11:20.368
15.0, -7955.209369088337, -17298.66323455134, -76102.75013479592, -95208.93188821457, -76846.90676294647, -37846.10782219265, -64828.08319664994, -71886.54057819136, -0.106, 1.002, 0.07, 192.0, 0.0, 0.0, 0.0, 0.0, 0.0, 0.0, 0.0, 0.0, 0.0, 1.6962774803681235E9, 0.0, 2023-10-02 16:11:20.368
16.0, -7958.2715580787135, -17300.160801429844, -76098.77152428289, -95210.474158582, -76845.81152746815, -37860.72586306642, -64826.67503674925, -71895.03424108437, -0.106, 1.002, 0.07, 192.0, 0.0, 0.0, 0.0, 0.0, 0.0, 0.0, 0.0, 0.0, 0.0, 1.696277480368135E9, 0.0, 2023-10-02 16:11:20.368
17.0, -7957.891578422974, -17300.56313283004, -76092.64714630213, -95213.40223710565, -76846.48207980182, -37860.52469736632, -64829.98309492864, -71902.05268884334, -0.106, 1.002, 0.07, 192.0, 0.0, 0.0, 0.0, 0.0, 0.0, 0.0, 0.0, 0.0, 0.0, 1.6962774803681488E9, 0.0, 2023-10-02 16:11:20.368
18.0, -7950.604909730543, -17297.90327523986, -76095.88814924815, -95212.75403651645, -76844.26925710074, -37859.004778743365, -64834.56520254198, -71904.98076736699, -0.106, 1.002, 0.07, 192.0, 0.0, 0.0, 0.0, 0.0, 0.0, 0.0, 0.0, 0.0, 0.0, 1.6962774803681624E9, 0.0, 2023-10-02 16:11:20.368
19.0, -7949.710839952331, -17299.89258049638, -76106.6616900756, -95210.31769637081, -76840.15653612097, -37867.453738147466, -64829.871336206365, -71907.43945925706, -0.10400000000000001, 1.0, 0.066, 192.0, 252.0, 192.0, 31.0, 64.0, 2.0, 16.0, 0.0, 0.0, 0.0, 1.6962774803681731E9, 0.0, 2023-10-02 16:11:20.368
20.0, -7953.331822554091, -17305.56992358803, -76106.48287611996, -95209.73655101497, -76839.24011459829, -37874.06985450624, -64826.160946626784, -71912.73682269297, -0.10400000000000001, 1.0, 0.066, 192.0, 0.0, 0.0, 0.0, 0.0, 0.0, 0.0, 0.0, 0.0, 0.0, 1.6962774803681843E9, 0.0, 2023-10-02 16:11:20.368
21.0, -7954.136485354482, -17306.486345110698, -76099.84440801674, -95214.2739551394, -76847.95729493587, -37867.677255592025, -64833.93935369723, -71916.60367448375, -0.10400000000000001, 1.0, 0.066, 192.0, 0.0, 0.0, 0.0, 0.0, 0.0, 0.0, 0.0, 0.0, 0.0, 1.6962774803681948E9, 0.0, 2023-10-02 16:11:20.368
22.0, -7946.849816662052, -17301.18898167479, -76100.87258826169, -95215.07861793978, -76848.09140540259, -37855.093223463686, -64832.59824902991, -71913.0720988598, -0.10400000000000001, 1.0, 0.066, 192.0, 0.0, 0.0, 0.0, 0.0, 0.0, 0.0, 0.0, 0.0, 0.0, 1.696277480368205E9, 0.0, 2023-10-02 16:11:20.368
23.0, -7946.156912583937, -17298.864400251437, -76106.8181522868, -95211.18941440457, -76840.04477739868, -37852.03103447331, -64828.53023153904, -71905.33839527826, -0.10400000000000001, 1.0, 0.066, 192.0, 0.0, 0.0, 0.0, 0.0, 0.0, 0.0, 0.0, 0.0, 0.0, 1.696277480368215E9, 0.0, 2023-10-02 16:11:20.368
24.0, -7957.377488300502, -17310.889638768393, -76115.42357390208, -95214.49747258396, -76843.41989081143, -37860.97173225543, -64830.60894377339, -71907.88649414618, -0.10400000000000001, 1.0, 0.066, 192.0, 0.0, 0.0, 0.0, 0.0, 0.0, 0.0, 0.0, 0.0, 0.0, 1.696277480368225E9, 0.0, 2023-10-02 16:11:20.368
25.0, -7951.566034742122, -17305.815792777037, -76106.88520752016, -95210.51886207091, -76838.32369307562, -37850.891095506086, -64818.58370525643, -71895.83890388477, -0.10400000000000001, 1.0, 0.066, 192.0, 0.0, 0.0, 0.0, 0.0, 0.0, 0.0, 0.0, 0.0, 0.0, 1.6962774803682353E9, 0.0, 2023-10-02 16:11:20.368
26.0, -7944.391124771968, -17296.450411850263, -76103.64420457414, -95208.86483298121, -76837.00494015276, -37830.10397316265, -64808.72658595164, -71885.37828747967, -0.10400000000000001, 1.0, 0.066, 192.0, 0.0, 0.0, 0.0, 0.0, 0.0, 0.0, 0.0, 0.0, 0.0, 1.6962774803682456E9, 0.0, 2023-10-02 16:11:20.368
27.0, -7952.19188358687, -17303.37945263141, -76116.42940240257, -95213.8269202503, -76843.4869460448, -37828.13701965058, -64810.62648423034, -71881.9137670891, -0.10400000000000001, 1.0, 0.066, 192.0, 0.0, 0.0, 0.0, 0.0, 0.0, 0.0, 0.0, 0.0, 0.0, 1.6962774803682556E9, 0.0, 2023-10-02 16:11:20.368
28.0, -7963.792438959174, -17315.09176672599, -76132.09797526574, -95217.40319936314, -76848.29257110269, -37841.97274946842, -64820.438900046225, -71888.95456659253, -0.10400000000000001, 1.0, 0.066, 192.0, 0.0, 0.0, 0.0, 0.0, 0.0, 0.0, 0.0, 0.0, 0.0, 1.6962774803682964E9, 0.0, 2023-10-02 16:11:20.368
29.0, -7961.221988346814, -17313.28127542511, -76122.24085596095, -95212.99990570545, -76846.48207980182, -37837.01066219934, -64819.74599596811, -71880.28208974387, -0.1, 1.002, 0.064, 192.0, 252.0, 224.0, 31.0, 80.0, 2.0, 0.0, 0.0, 0.0, 0.0, 1.696277480368308E9, 0.0, 2023-10-02 16:11:20.368
30.0, -7957.846874934063, -17308.98974048969, -76118.64222510364, -95215.23508015097, -76851.24300137079, -37825.43245857149, -64830.60894377339, -71875.3647059637, -0.1, 1.002, 0.064, 192.0, 0.0, 0.0, 0.0, 0.0, 0.0, 0.0, 0.0, 0.0, 0.0, 1.6962774803683193E9, 0.0, 2023-10-02 16:11:20.368
31.0, -7956.796342944664, -17305.07818521001, -76121.19032397155, -95204.72976025699, -76846.70559724637, -37821.63266201409, -64832.173565885256, -71867.18396749305, -0.1, 1.002, 0.064, 192.0, 0.0, 0.0, 0.0, 0.0, 0.0, 0.0, 0.0, 0.0, 0.0, 1.6962774803683293E9, 0.0, 2023-10-02 16:11:20.368
32.0, -7967.77104947222, -17314.063586481047, -76125.14658274014, -95207.5237283139, -76851.22064962634, -37821.20797886944, -64832.64295251882, -71864.47940641397, -0.1, 1.002, 0.064, 192.0, 0.0, 0.0, 0.0, 0.0, 0.0, 0.0, 0.0, 0.0, 0.0, 1.6962774803683393E9, 0.0, 2023-10-02 16:11:20.368
33.0, -7971.10145939606, -17318.511583627653, -76127.3147019523, -95211.9270219716, -76857.50148981829, -37819.285728846284, -64845.42815034725, -71866.91574655959, -0.1, 1.002, 0.064, 192.0, 0.0, 0.0, 0.0, 0.0, 0.0, 0.0, 0.0, 0.0, 0.0, 1.6962774803683496E9, 0.0, 2023-10-02 16:11:20.368
34.0, -7955.656403977443, -17305.52522009912, -76104.3147569078, -95198.9183066986, -76849.56662053664, -37797.44807451345, -64837.493281065625, -71850.37545566267, -0.1, 1.002, 0.064, 192.0, 0.0, 0.0, 0.0, 0.0, 0.0, 0.0, 0.0, 0.0, 0.0, 1.69627748036836E9, 0.0, 2023-10-02 16:11:20.368
35.0, -7953.912967909929, -17304.02765322061, -76101.5654923398, -95200.92996369959, -76854.28283861671, -37790.42962675448, -64839.728455511155, -71848.63201959516, -0.1, 1.002, 0.064, 192.0, 0.0, 0.0, 0.0, 0.0, 0.0, 0.0, 0.0, 0.0, 0.0, 1.6962774803683703E9, 0.0, 2023-10-02 16:11:20.368
36.0, -7957.533950511689, -17305.748737543672, -76112.13786746716, -95195.92317294159, -76850.25952461475, -37800.689077459465, -64845.182281158246, -71850.48721438495, -0.1, 1.002, 0.064, 192.0, 0.0, 0.0, 0.0, 0.0, 0.0, 0.0, 0.0, 0.0, 0.0, 1.696277480368381E9, 0.0, 2023-10-02 16:11:20.368
37.0, -7958.472723778811, -17307.04513872208, -76099.464428361, -95191.69869323954, -76847.39850132448, -37802.43251352698, -64845.07052243597, -71846.82152829427, -0.1, 1.002, 0.064, 192.0, 0.0, 0.0, 0.0, 0.0, 0.0, 0.0, 0.0, 0.0, 0.0, 1.6962774803683927E9, 0.0, 2023-10-02 16:11:20.368
38.0, -7956.505770266745, -17308.699167811774, -76088.24385264443, -95196.68313225308, -76853.03114092721, -37800.86789141511, -64851.97721147266, -71857.70682784401, -0.1, 1.002, 0.064, 192.0, 0.0, 0.0, 0.0, 0.0, 0.0, 0.0, 0.0, 0.0, 0.0, 1.696277480368403E9, 0.0, 2023-10-02 16:11:20.368
39.0, -7949.152046340949, -17302.775955531117, -76082.14182640813, -95191.966914173, -76848.15846063595, -37804.757094950335, -64853.67594405126, -71866.1110837592, -0.10200000000000001, 1.006, 0.06, 192.0, 252.0, 208.0, 31.0, 112.0, 1.0, 224.0, 0.0, 0.0, 0.0, 1.6962774803684132E9, 0.0, 2023-10-02 16:11:20.368
40.0, -7950.359040541535, -17302.641845064383, -76086.14278866563, -95188.97178041599, -76846.79500422419, -37819.55394977974, -64850.09966493842, -71877.0634385423, -0.10200000000000001, 1.006, 0.06, 192.0, 0.0, 0.0, 0.0, 0.0, 0.0, 0.0, 0.0, 0.0, 0.0, 1.6962774803684416E9, 0.0, 2023-10-02 16:11:20.368
41.0, -7958.405668545445, -17309.593237589987, -76086.47806483247, -95196.43726306407, -76855.4898328173, -37836.18364765449, -64856.782836530554, -71897.31411901882, -0.10200000000000001, 1.006, 0.06, 192.0, 0.0, 0.0, 0.0, 0.0, 0.0, 0.0, 0.0, 0.0, 0.0, 1.6962774803684716E9, 0.0, 2023-10-02 16:11:20.368
42.0, -7946.402781772946, -17298.842048506984, -76070.1612913801, -95188.86002169372, -76851.37711183753, -37833.65790053104, -64858.816845275986, -71906.34422377875, -0.10200000000000001, 1.006, 0.06, 192.0, 0.0, 0.0, 0.0, 0.0, 0.0, 0.0, 0.0, 0.0, 0.0, 1.696277480368482E9, 0.0, 2023-10-02 16:11:20.368
43.0, -7934.310488022625, -17287.353251856955, -76063.56752676578, -95180.7686902009, -76841.94467567738, -37829.12049640662, -64845.49520558062, -71904.64549120015, -0.10200000000000001, 1.006, 0.06, 192.0, 0.0, 0.0, 0.0, 0.0, 0.0, 0.0, 0.0, 0.0, 0.0, 1.6962774803685188E9, 0.0, 2023-10-02 16:11:20.368
44.0, -7936.344496768057, -17285.676871022806, -76070.76478848039, -95179.56169600031, -76837.7872512087, -37840.51988607882, -64840.488414822634, -71907.03712785686, -0.10200000000000001, 1.006, 0.06, 192.0, 0.0, 0.0, 0.0, 0.0, 0.0, 0.0, 0.0, 0.0, 0.0, 1.6962774803685355E9, 0.0, 2023-10-02 16:11:20.368
45.0, -7947.81094167363, -17293.56703681553, -76076.82211122777, -95186.51308852591, -76842.70463498887, -37849.92997049451, -64841.71776076767, -71906.88066564569, -0.10200000000000001, 1.006, 0.06, 192.0, 0.0, 0.0, 0.0, 0.0, 0.0, 0.0, 0.0, 0.0, 0.0, 1.696277480368546E9, 0.0, 2023-10-02 16:11:20.368
46.0, -7951.364869042024, -17294.595217060472, -76069.11075939069, -95188.05535889333, -76844.00103616728, -37842.553894824254, -64839.34847585541, -71898.74463066395, -0.10200000000000001, 1.006, 0.06, 192.0, 0.0, 0.0, 0.0, 0.0, 0.0, 0.0, 0.0, 0.0, 0.0, 1.6962774803685558E9, 0.0, 2023-10-02 16:11:20.368
47.0, -7953.331822554091, -17297.635054306396, -76077.73853275043, -95198.40421657613, -76853.32171360514, -37837.99413895537, -64844.39997010231, -71903.25968304393, -0.10200000000000001, 1.006, 0.06, 192.0, 0.0, 0.0, 0.0, 0.0, 0.0, 0.0, 0.0, 0.0, 0.0, 1.6962774803685656E9, 0.0, 2023-10-02 16:11:20.368
48.0, -7947.274499806703, -17290.32603386951, -76085.24871888742, -95189.08353913827, -76842.30230358867, -37838.865856989134, -64835.056940919996, -71894.54250270636, -0.10200000000000001, 1.006, 0.06, 192.0, 0.0, 0.0, 0.0, 0.0, 0.0, 0.0, 0.0, 0.0, 0.0, 1.6962774803685756E9, 0.0, 2023-10-02 16:11:20.368
49.0, -7949.554377741144, -17289.387260602387, -76081.22540488547, -95183.13797511316, -76834.09921337357, -37834.171990653515, -64817.66728373376, -71878.87392984319, -0.108, 1.006, 0.058, 192.0, 252.0, 160.0, 31.0, 112.0, 1.0, 208.0, 0.0, 0.0, 0.0, 1.6962774803685853E9, 0.0, 2023-10-02 16:11:20.368
50.0, -7952.4601045203335, -17289.007280946647, -76076.17391063856, -95185.64137049216, -76835.0379866407, -37821.83382771419, -64807.58664698442, -71873.73302861846, -0.108, 1.006, 0.058, 192.0, 0.0, 0.0, 0.0, 0.0, 0.0, 0.0, 0.0, 0.0, 0.0, 1.696277480368596E9, 0.0, 2023-10-02 16:11:20.368
51.0, -7948.615604474021, -17286.95092045676, -76067.99317216792, -95184.56848675829, -76832.80281219516, -37802.81249318272, -64797.215437557155, -71859.02558076687, -0.108, 1.006, 0.058, 192.0, 0.0, 0.0, 0.0, 0.0, 0.0, 0.0, 0.0, 0.0, 0.0, 1.6962774803686063E9, 0.0, 2023-10-02 16:11:20.368
52.0, -7950.8731306640075, -17292.069469937025, -76080.55485255181, -95187.18364085957, -76835.99911165227, -37804.66768797251, -64802.19987657069, -71854.28701094235, -0.108, 1.006, 0.058, 192.0, 0.0, 0.0, 0.0, 0.0, 0.0, 0.0, 0.0, 0.0, 0.0, 1.696277480368617E9, 0.0, 2023-10-02 16:11:20.368
53.0, -7956.796342944664, -17297.679757795308, -76089.38379161165, -95185.32844606978, -76831.4393557834, -37811.86494968712, -64796.947216623696, -71845.83805153825, -0.108, 1.006, 0.058, 192.0, 0.0, 0.0, 0.0, 0.0, 0.0, 0.0, 0.0, 0.0, 0.0, 1.6962774803686557E9, 0.0, 2023-10-02 16:11:20.368
54.0, -7961.736078469286, -17303.871191009428, -76087.75211426642, -95192.88333569567, -76839.41892855393, -37807.126379862595, -64797.707175935175, -71843.64758058162, -0.108, 1.006, 0.058, 192.0, 0.0, 0.0, 0.0, 0.0, 0.0, 0.0, 0.0, 0.0, 0.0, 1.6962774803686683E9, 0.0, 2023-10-02 16:11:20.368
55.0, -7958.696241223364, -17302.75360378666, -76084.06407643128, -95199.23123112098, -76843.59870476708, -37798.11862684711, -64795.293187534, -71843.51347011489, -0.108, 1.006, 0.058, 192.0, 0.0, 0.0, 0.0, 0.0, 0.0, 0.0, 0.0, 0.0, 0.0, 1.6962774803686817E9, 0.0, 2023-10-02 16:11:20.368
56.0, -7961.221988346814, -17305.10053695447, -76093.89884399163, -95200.88526021068, -76838.59191400908, -37803.706562960935, -64798.4447835022, -71843.64758058162, -0.108, 1.006, 0.058, 192.0, 0.0, 0.0, 0.0, 0.0, 0.0, 0.0, 0.0, 0.0, 0.0, 1.696277480368693E9, 0.0, 2023-10-02 16:11:20.368
57.0, -7969.089802395082, -17310.219086434732, -76104.04653597434, -95202.15930964463, -76840.69297798788, -37812.8260746987, -64806.89374290631, -71850.55426961831, -0.108, 1.006, 0.058, 192.0, 0.0, 0.0, 0.0, 0.0, 0.0, 0.0, 0.0, 0.0, 0.0, 1.696277480368706E9, 0.0, 2023-10-02 16:11:20.368
58.0, -7966.049965149161, -17304.541743343085, -76099.75500103891, -95199.41004507663, -76844.38101582302, -37814.591862510664, -64814.895667421304, -71859.29380170033, -0.108, 1.006, 0.058, 192.0, 0.0, 0.0, 0.0, 0.0, 0.0, 0.0, 0.0, 0.0, 0.0, 1.696277480368781E9, 0.0, 2023-10-02 16:11:20.368
59.0, -7952.4601045203335, -17290.4824960807, -76081.94066070803, -95193.15155662913, -76839.28481808721, -37803.93008040549, -64810.090042363416, -71854.68934234254, -0.112, 1.0, 0.058, 192.0, 252.0, 128.0, 31.0, 64.0, 1.0, 208.0, 0.0, 0.0, 0.0, 1.6962774803687973E9, 0.0, 2023-10-02 16:11:20.368
60.0, -7949.442619018868, -17288.22496989071, -76082.16417815258, -95196.66078050862, -76842.39171056649, -37805.07001937271, -64816.1473651108, -71859.40556042262, -0.112, 1.0, 0.058, 192.0, 0.0, 0.0, 0.0, 0.0, 0.0, 0.0, 0.0, 0.0, 0.0, 1.6962774803688147E9, 0.0, 2023-10-02 16:11:20.368
61.0, -7951.9907178867725, -17288.67200477982, -76096.26812890389, -95196.68313225308, -76848.35962633605, -37820.403316069045, -64834.09581590841, -71870.5143774169, -0.112, 1.0, 0.058, 192.0, 0.0, 0.0, 0.0, 0.0, 0.0, 0.0, 0.0, 0.0, 0.0, 1.696277480368826E9, 0.0, 2023-10-02 16:11:20.368
62.0, -7953.845912676563, -17286.146257656368, -76092.08835269074, -95194.33619908527, -76851.31005660415, -37825.90184520505, -64840.846042733916, -71881.19851126654, -0.112, 1.0, 0.058, 192.0, 0.0, 0.0, 0.0, 0.0, 0.0, 0.0, 0.0, 0.0, 0.0, 1.6962774803688412E9, 0.0, 2023-10-02 16:11:20.368
63.0, -7943.452351504845, -17277.09380115197, -76078.56554729528, -95187.89889668213, -76853.5899345386, -37822.7278974924, -64845.0034672026, -71888.30636600332, -0.112, 1.0, 0.058, 192.0, 0.0, 0.0, 0.0, 0.0, 0.0, 0.0, 0.0, 0.0, 0.0, 1.6962774803688571E9, 0.0, 2023-10-02 16:11:20.368
64.0, -7938.244395046759, -17274.32218483951, -76071.79296872532, -95186.42368154808, -76858.52967006322, -37826.706508005445, -64852.42424636176, -71894.56485445081, -0.112, 1.0, 0.058, 192.0, 0.0, 0.0, 0.0, 0.0, 0.0, 0.0, 0.0, 0.0, 0.0, 1.6962774803688755E9, 0.0, 2023-10-02 16:11:20.368
65.0, -7940.211348558825, -17273.361059827934, -76080.93483220755, -95181.34983555673, -76857.5461933072, -37838.083545933194, -64857.81101677549, -71897.53763646337, -0.112, 1.0, 0.058, 192.0, 0.0, 0.0, 0.0, 0.0, 0.0, 0.0, 0.0, 0.0, 0.0, 1.696277480368888E9, 0.0, 2023-10-02 16:11:20.368
66.0, -7943.899386393951, -17277.004394174146, -76077.00092518341, -95179.80756518932, -76853.29936186069, -37844.8337727587, -64856.559319086, -71896.73297366298, -0.112, 1.0, 0.058, 192.0, 0.0, 0.0, 0.0, 0.0, 0.0, 0.0, 0.0, 0.0, 0.0, 1.6962774803689022E9, 0.0, 2023-10-02 16:11:20.368
67.0, -7949.241453318769, -17284.13460065539, -76070.22834661345, -95188.61415250471, -76860.67543753094, -37842.26332214634, -64858.48156910916, -71903.86318014422, -0.112, 1.0, 0.058, 192.0, 0.0, 0.0, 0.0, 0.0, 0.0, 0.0, 0.0, 0.0, 0.0, 1.6962774803689215E9, 0.0, 2023-10-02 16:11:20.368
68.0, -7949.330860296591, -17284.045193677568, -76072.9105559481, -95192.21278336202, -76863.17883290992, -37847.7842030268, -64856.425208619265, -71910.90397964764, -0.112, 1.0, 0.058, 192.0, 0.0, 0.0, 0.0, 0.0, 0.0, 0.0, 0.0, 0.0, 0.0, 1.6962774803689435E9, 0.0, 2023-10-02 16:11:20.368
69.0, -7946.71570619532, -17282.52527505461, -76076.97857343896, -95185.37314955868, -76858.48496657431, -37858.42363338752, -64820.26008609058, -71904.6231394557, -0.10200000000000001, 1.002, 0.058, 192.0, 252.0, 208.0, 31.0, 80.0, 1.0, 208.0, 0.0, 0.0, 0.0, 1.6962774803689592E9, 0.0, 2023-10-02 16:11:20.368
70.0, -7950.694316708365, -17286.99562394567, -76077.96205019498, -95179.47228902248, -76852.15942289346, -37865.06210149075, -64797.282492790524, -71892.37438349419, -0.10200000000000001, 1.002, 0.058, 192.0, 0.0, 0.0, 0.0, 0.0, 0.0, 0.0, 0.0, 0.0, 0.0, 1.6962774803689747E9, 0.0, 2023-10-02 16:11:20.368
71.0, -7958.830351690096, -17296.025728705612, -76072.61998327017, -95188.61415250471, -76859.6919607749, -37855.60731358616, -64793.236827044115, -71888.66399391461, -0.10200000000000001, 1.002, 0.058, 192.0, 0.0, 0.0, 0.0, 0.0, 0.0, 0.0, 0.0, 0.0, 0.0, 1.6962774803689911E9, 0.0, 2023-10-02 16:11:20.368
72.0, -7954.292947565669, -17294.03642344909, -76073.62581177066, -95191.18460311707, -76859.0884636746, -37845.571380325724, -64797.416603257254, -71892.50849396092, -0.10200000000000001, 1.002, 0.058, 192.0, 0.0, 0.0, 0.0, 0.0, 0.0, 0.0, 0.0, 0.0, 0.0, 1.6962774803690057E9, 0.0, 2023-10-02 16:11:20.369
73.0, -7950.33668879708, -17292.427097848307, -76082.29828861932, -95184.21085884701, -76853.7911002387, -37845.81724951473, -64799.56237072497, -71885.0206595684, -0.10200000000000001, 1.002, 0.058, 192.0, 0.0, 0.0, 0.0, 0.0, 0.0, 0.0, 0.0, 0.0, 0.0, 1.6962774803690991E9, 0.0, 2023-10-02 16:11:20.369
74.0, -7951.230758575292, -17293.455278093254, -76083.12530316417, -95179.27112332238, -76847.8902397025, -37849.25941816085, -64793.370937510845, -71874.13536001866, -0.10200000000000001, 1.002, 0.058, 192.0, 0.0, 0.0, 0.0, 0.0, 0.0, 0.0, 0.0, 0.0, 0.0, 1.6962774803691232E9, 0.0, 2023-10-02 16:11:20.369
0.0, 0.0, 0.0, 0.0, 0.0, 0.0, 0.0, 0.0, 0.0, -0.1, 1.006, 0.062, 192.0, 252.0, 224.0, 31.0, 112.0, 1.0, 240.0, 0.0, 0.0, 0.0, 1.6962774804907944E9, 0.0, 2023-10-02 16:11:20.490
1.0, -7961.311395324636, -17309.213257934243, -76067.8590617012, -95180.43341403407, -76849.23134436982, -37837.77062151082, -64758.25634697156, -71845.79334804932, -0.1, 1.006, 0.062, 192.0, 0.0, 0.0, 0.0, 0.0, 0.0, 0.0, 0.0, 0.0, 0.0, 1.6962774809699004E9, 0.0, 2023-10-02 16:11:20.969
2.0, -7956.818694689119, -17306.57575208852, -76060.90766917559, -95187.27304783739, -76851.2877048597, -37828.449944072956, -64754.925937047716, -71839.31134215729, -0.1, 1.006, 0.062, 192.0, 0.0, 0.0, 0.0, 0.0, 0.0, 0.0, 0.0, 0.0, 0.0, 1.6962774809700184E9, 0.0, 2023-10-02 16:11:20.970
3.0, -7956.416363288923, -17307.670987566828, -76067.81435821229, -95189.32940832728, -76847.13028039102, -37837.01066219934, -64757.161111493246, -71842.99937999241, -0.1, 1.006, 0.062, 192.0, 0.0, 0.0, 0.0, 0.0, 0.0, 0.0, 0.0, 0.0, 0.0, 1.69627748097003E9, 0.0, 2023-10-02 16:11:20.970
4.0, -7956.729287711298, -17304.42998462081, -76068.03787565684, -95183.80852744682, -76836.75907096376, -37853.10391820716, -64747.97454452212, -71843.40171139261, -0.1, 1.006, 0.062, 192.0, 0.0, 0.0, 0.0, 0.0, 0.0, 0.0, 0.0, 0.0, 0.0, 1.6962774809700449E9, 0.0, 2023-10-02 16:11:20.970
5.0, -7960.394973801968, -17304.85466776546, -76063.2546023434, -95188.61415250471, -76836.64731224148, -37856.79195604229, -64745.53820437649, -71851.06835974078, -0.1, 1.006, 0.062, 192.0, 0.0, 0.0, 0.0, 0.0, 0.0, 0.0, 0.0, 0.0, 0.0, 1.696277480970055E9, 0.0, 2023-10-02 16:11:20.970
6.0, -7952.124828353504, -17297.56799907303, -76057.97959065194, -95190.42464380559, -76835.4850215298, -37850.98050248391, -64746.72284683262, -71862.55715639082, -0.1, 1.006, 0.062, 192.0, 0.0, 0.0, 0.0, 0.0, 0.0, 0.0, 0.0, 0.0, 0.0, 1.696277480970065E9, 0.0, 2023-10-02 16:11:20.970
7.0, -7946.425133517401, -17293.36587111543, -76057.24198308492, -95185.70842572552, -76831.97579765032, -37850.35465363916, -64751.59552712388, -71867.4074849376, -0.1, 1.006, 0.062, 192.0, 0.0, 0.0, 0.0, 0.0, 0.0, 0.0, 0.0, 0.0, 0.0, 1.6962774809700751E9, 0.0, 2023-10-02 16:11:20.970
8.0, -7946.358078284035, -17293.52233332662, -76056.92905866254, -95181.88627742366, -76826.2313993253, -37860.41293864405, -64757.921070804725, -71872.0119442954, -0.1, 1.004, 0.062, 192.0, 252.0, 224.0, 31.0, 96.0, 1.0, 240.0, 0.0, 0.0, 0.0, 1.696277480970085E9, 0.0, 2023-10-02 16:11:20.970
9.0, -7941.038363103672, -17285.632167533895, -76046.58020097973, -95177.0135971324, -76822.76687893474, -37859.429461888016, -64754.791826580986, -71872.36957220669, -0.1, 1.004, 0.062, 192.0, 0.0, 0.0, 0.0, 0.0, 0.0, 0.0, 0.0, 0.0, 0.0, 1.6962774809700956E9, 0.0, 2023-10-02 16:11:20.970
10.0, -7928.990772842261, -17273.361059827934, -76032.96798860646, -95173.213800575, -76819.54822773316, -37845.34786288117, -64749.85209105636, -71869.5085489164, -0.1, 1.004, 0.062, 192.0, 0.0, 0.0, 0.0, 0.0, 0.0, 0.0, 0.0, 0.0, 0.0, 1.6962774809701052E9, 0.0, 2023-10-02 16:11:20.970
11.0, -7929.147235053449, -17277.451429063254, -76040.27700904335, -95181.97568440148, -76828.77949819321, -37849.25941816085, -64761.02796328402, -71881.73495313346, -0.1, 1.004, 0.062, 192.0, 0.0, 0.0, 0.0, 0.0, 0.0, 0.0, 0.0, 0.0, 0.0, 1.6962774809701152E9, 0.0, 2023-10-02 16:11:20.970
12.0, -7930.108360065027, -17277.80905697454, -76040.61228521017, -95174.64431222015, -76825.51614350274, -37862.11167122265, -64762.547881906976, -71885.0653630573, -0.1, 1.004, 0.062, 192.0, 0.0, 0.0, 0.0, 0.0, 0.0, 0.0, 0.0, 0.0, 0.0, 1.6962774809701252E9, 0.0, 2023-10-02 16:11:20.970
13.0, -7941.597156715055, -17289.70018502476, -76041.5510584773, -95185.17198385859, -76833.27219882872, -37869.10776723716, -64773.96962332364, -71894.16252305062, -0.1, 1.004, 0.062, 192.0, 0.0, 0.0, 0.0, 0.0, 0.0, 0.0, 0.0, 0.0, 0.0, 1.6962774809701347E9, 0.0, 2023-10-02 16:11:20.970
14.0, -7944.391124771968, -17293.410574604342, -76036.65602644159, -95189.84349844974, -76835.26150408525, -37862.67046483403, -64778.81995187044, -71890.20626428202, -0.1, 1.004, 0.062, 192.0, 0.0, 0.0, 0.0, 0.0, 0.0, 0.0, 0.0, 0.0, 0.0, 1.6962774809701724E9, 0.0, 2023-10-02 16:11:20.970
15.0, -7941.731267181786, -17290.616606547428, -76042.62394221115, -95190.84932695024, -76834.1886203514, -37859.34005491019, -64777.657661158766, -71887.32288924728, -0.1, 1.004, 0.062, 192.0, 0.0, 0.0, 0.0, 0.0, 0.0, 0.0, 0.0, 0.0, 0.0, 1.6962774809701824E9, 0.0, 2023-10-02 16:11:20.970
16.0, -7953.130656853993, -17302.37362413092, -76059.56656450828, -95195.09615839674, -76839.41892855393, -37871.03001726032, -64780.89866410478, -71885.71356364651, -0.1, 1.004, 0.062, 192.0, 0.0, 0.0, 0.0, 0.0, 0.0, 0.0, 0.0, 0.0, 0.0, 1.696277480970192E9, 0.0, 2023-10-02 16:11:20.970
17.0, -7957.28808132268, -17306.218124177234, -76062.89697443211, -95188.23417284897, -76828.80184993766, -37871.27588644932, -64771.39917271128, -71876.32583097529, -0.1, 1.004, 0.062, 192.0, 0.0, 0.0, 0.0, 0.0, 0.0, 0.0, 0.0, 0.0, 0.0, 1.6962774809702022E9, 0.0, 2023-10-02 16:11:20.970
18.0, -7961.624319747009, -17310.19673469028, -76058.82895694124, -95192.1680798731, -76833.9874546513, -37854.377967641114, -64762.07849527342, -71868.50272041593, -0.10400000000000001, 0.994, 0.066, 192.0, 252.0, 192.0, 31.0, 16.0, 2.0, 16.0, 0.0, 0.0, 0.0, 1.696277480970212E9, 0.0, 2023-10-02 16:11:20.970
19.0, -7964.775915715208, -17316.075243482024, -76070.63067801365, -95202.80751023383, -76845.34214083459, -37845.571380325724, -64771.086248288906, -71872.23546173995, -0.10400000000000001, 0.994, 0.066, 192.0, 0.0, 0.0, 0.0, 0.0, 0.0, 0.0, 0.0, 0.0, 0.0, 1.696277480970223E9, 0.0, 2023-10-02 16:11:20.970
20.0, -7964.977081415306, -17315.58350510401, -76077.78323623935, -95196.63842876416, -76838.72602447582, -37847.672444304524, -64763.82193134093, -71867.27337447088, -0.10400000000000001, 0.994, 0.066, 192.0, 0.0, 0.0, 0.0, 0.0, 0.0, 0.0, 0.0, 0.0, 0.0, 1.6962774809702327E9, 0.0, 2023-10-02 16:11:20.970
21.0, -7972.219046618825, -17319.76328131715, -76082.25358513041, -95196.52667004189, -76833.65217848447, -37849.974673983415, -64754.233032969605, -71863.60768838022, -0.10400000000000001, 0.994, 0.066, 192.0, 0.0, 0.0, 0.0, 0.0, 0.0, 0.0, 0.0, 0.0, 0.0, 1.6962774809702425E9, 0.0, 2023-10-02 16:11:20.970
22.0, -7967.972215172317, -17314.264752181145, -76076.1068554052, -95196.95135318654, -76831.30524531666, -37837.122420921616, -64743.750064820066, -71858.15386273312, -0.10400000000000001, 0.994, 0.066, 192.0, 0.0, 0.0, 0.0, 0.0, 0.0, 0.0, 0.0, 0.0, 0.0, 1.6962774809702523E9, 0.0, 2023-10-02 16:11:20.970
23.0, -7963.524218025711, -17312.454260880266, -76071.68121000305, -95201.15348114414, -76832.42283253942, -37827.44411557247, -64737.69274207268, -71858.55619413331, -0.10400000000000001, 0.994, 0.066, 192.0, 0.0, 0.0, 0.0, 0.0, 0.0, 0.0, 0.0, 0.0, 0.0, 1.6962774809702618E9, 0.0, 2023-10-02 16:11:20.970
24.0, -7964.507694781744, -17313.750662058672, -76078.14086415063, -95199.54415554335, -76834.05450988466, -37834.28374937579, -64730.6295908248, -71855.44930165402, -0.10400000000000001, 0.994, 0.066, 192.0, 0.0, 0.0, 0.0, 0.0, 0.0, 0.0, 0.0, 0.0, 0.0, 1.6962774809702716E9, 0.0, 2023-10-02 16:11:20.970
25.0, -7968.083973894593, -17313.862420780948, -76076.9562216945, -95194.02327466289, -76834.14391686248, -37840.07285118972, -64726.94155298967, -71846.41919689407, -0.10400000000000001, 0.994, 0.066, 192.0, 0.0, 0.0, 0.0, 0.0, 0.0, 0.0, 0.0, 0.0, 0.0, 1.696277480970281E9, 0.0, 2023-10-02 16:11:20.970
26.0, -7966.206427360347, -17311.71665331324, -76066.22738435595, -95189.30705658282, -76835.97675990782, -37831.10980166314, -64725.511041344536, -71838.0596444678, -0.10400000000000001, 0.994, 0.066, 192.0, 0.0, 0.0, 0.0, 0.0, 0.0, 0.0, 0.0, 0.0, 0.0, 1.696277480970292E9, 0.0, 2023-10-02 16:11:20.970
27.0, -7960.171456357415, -17307.1345456999, -76058.09134937423, -95190.20112636103, -76841.40823381046, -37820.87270270261, -64728.41676812372, -71837.0538159673, -0.10400000000000001, 0.994, 0.066, 192.0, 0.0, 0.0, 0.0, 0.0, 0.0, 0.0, 0.0, 0.0, 0.0, 1.6962774809703016E9, 0.0, 2023-10-02 16:11:20.970
28.0, -7960.797305202163, -17312.253095180167, -76072.53057629235, -95196.23609736397, -76851.80179498218, -37831.95916795244, -64738.45270138416, -71849.14610971762, -0.10200000000000001, 1.0, 0.066, 192.0, 252.0, 208.0, 31.0, 64.0, 2.0, 16.0, 0.0, 0.0, 0.0, 1.6962774809703112E9, 0.0, 2023-10-02 16:11:20.970
29.0, -7958.919758667917, -17310.75552830166, -76072.19530012552, -95188.34593157124, -76845.05156815668, -37842.218618657425, -64735.59167809388, -71844.5640021043, -0.10200000000000001, 1.0, 0.066, 192.0, 0.0, 0.0, 0.0, 0.0, 0.0, 0.0, 0.0, 0.0, 0.0, 1.69627748097033E9, 0.0, 2023-10-02 16:11:20.970
30.0, -7954.67292722141, -17303.491211353685, -76054.58212549474, -95182.91445766861, -76838.90483843147, -37838.28471163329, -64734.094111215374, -71843.37935964816, -0.10200000000000001, 1.0, 0.066, 192.0, 0.0, 0.0, 0.0, 0.0, 0.0, 0.0, 0.0, 0.0, 0.0, 1.6962774809703395E9, 0.0, 2023-10-02 16:11:20.970
31.0, -7945.329898039091, -17293.008243204145, -76038.8464973982, -95177.3712250437, -76839.32952157612, -37828.27113011732, -64743.63830609779, -71847.49208062793, -0.10200000000000001, 1.0, 0.066, 192.0, 0.0, 0.0, 0.0, 0.0, 0.0, 0.0, 0.0, 0.0, 0.0, 1.6962774809703493E9, 0.0, 2023-10-02 16:11:20.970
32.0, -7938.870243891507, -17287.107382667946, -76038.82414565375, -95172.34208254125, -76836.31203607465, -37832.04857493026, -64751.6849341017, -71854.08584524225, -0.10200000000000001, 1.0, 0.066, 192.0, 0.0, 0.0, 0.0, 0.0, 0.0, 0.0, 0.0, 0.0, 0.0, 1.6962774809703588E9, 0.0, 2023-10-02 16:11:20.970
33.0, -7939.831368903086, -17287.55441755705, -76043.16038407807, -95171.53741974085, -76838.92719017592, -37844.319682636225, -64758.25634697156, -71859.51731914488, -0.10200000000000001, 1.0, 0.066, 192.0, 0.0, 0.0, 0.0, 0.0, 0.0, 0.0, 0.0, 0.0, 0.0, 1.6962774809703684E9, 0.0, 2023-10-02 16:11:20.970
34.0, -7943.921738138407, -17290.147219913866, -76038.31005553127, -95172.92322789709, -76845.72212049033, -37846.9348367375, -64766.81706509794, -71863.40652268012, -0.10200000000000001, 1.0, 0.066, 192.0, 0.0, 0.0, 0.0, 0.0, 0.0, 0.0, 0.0, 0.0, 0.0, 1.6962774809703782E9, 0.0, 2023-10-02 16:11:20.970
35.0, -7936.925642123895, -17282.592330287975, -76032.27508452834, -95171.62682671867, -76849.27604785873, -37831.71329876343, -64771.4885796891, -71861.23840346794, -0.10200000000000001, 1.0, 0.066, 192.0, 0.0, 0.0, 0.0, 0.0, 0.0, 0.0, 0.0, 0.0, 0.0, 1.696277480970388E9, 0.0, 2023-10-02 16:11:20.970
36.0, -7927.4708542193, -17274.813923217527, -76035.62784619664, -95165.2565795489, -76845.72212049033, -37822.504380047845, -64772.606166911864, -71862.62421162418, -0.10200000000000001, 1.0, 0.066, 192.0, 0.0, 0.0, 0.0, 0.0, 0.0, 0.0, 0.0, 0.0, 0.0, 1.6962774809703977E9, 0.0, 2023-10-02 16:11:20.970
37.0, -7930.778912398686, -17283.28523436609, -76040.0534915988, -95164.25075104843, -76843.82222221163, -37832.04857493026, -64773.72375413463, -71864.38999943614, -0.106, 1.0, 0.066, 192.0, 252.0, 176.0, 31.0, 64.0, 2.0, 16.0, 0.0, 0.0, 0.0, 1.6962774809704072E9, 0.0, 2023-10-02 16:11:20.970
38.0, -7933.572880455599, -17288.42613559081, -76036.65602644159, -95165.6142074602, -76845.45389955687, -37838.10589767765, -64774.081382045915, -71862.98183953547, -0.106, 1.0, 0.066, 192.0, 0.0, 0.0, 0.0, 0.0, 0.0, 0.0, 0.0, 0.0, 0.0, 1.6962774809704173E9, 0.0, 2023-10-02 16:11:20.970
39.0, -7929.147235053449, -17282.03353667659, -76027.62592168164, -95163.98253011495, -76843.46459430034, -37828.33818535068, -64770.236881999605, -71859.60672612271, -0.106, 1.0, 0.066, 192.0, 0.0, 0.0, 0.0, 0.0, 0.0, 0.0, 0.0, 0.0, 0.0, 1.6962774809704268E9, 0.0, 2023-10-02 16:11:20.970
40.0, -7930.086008320572, -17281.497094809663, -76036.16428806356, -95169.8610389067, -76847.75612923577, -37822.48202830339, -64771.53328317801, -71860.54549938983, -0.106, 1.0, 0.066, 192.0, 0.0, 0.0, 0.0, 0.0, 0.0, 0.0, 0.0, 0.0, 0.0, 1.6962774809704363E9, 0.0, 2023-10-02 16:11:20.970
41.0, -7939.719610180809, -17291.689490281286, -76055.31973306177, -95174.0184633754, -76852.27118161574, -37829.701641762455, -64775.22132101314, -71860.07611275627, -0.106, 1.0, 0.066, 192.0, 0.0, 0.0, 0.0, 0.0, 0.0, 0.0, 0.0, 0.0, 0.0, 1.696277480970446E9, 0.0, 2023-10-02 16:11:20.970
42.0, -7944.86051140553, -17295.154010671857, -76057.3537418072, -95168.45287900601, -76846.21385886834, -37827.82409522821, -64766.39238195329, -71849.79431030682, -0.106, 1.0, 0.066, 192.0, 0.0, 0.0, 0.0, 0.0, 0.0, 0.0, 0.0, 0.0, 0.0, 1.6962774809704556E9, 0.0, 2023-10-02 16:11:20.970
43.0, -7941.395991014957, -17289.27550188011, -76049.84355567022, -95168.85521040621, -76839.21776285383, -37816.31294683373, -64756.28939345949, -71841.16653694709, -0.106, 1.0, 0.066, 192.0, 0.0, 0.0, 0.0, 0.0, 0.0, 0.0, 0.0, 0.0, 0.0, 1.6962774809704652E9, 0.0, 2023-10-02 16:11:20.970
44.0, -7936.120979323505, -17282.83819947698, -76049.37416903666, -95172.29737905234, -76840.62592275452, -37807.193435095964, -64756.26704171504, -71841.72533055846, -0.106, 1.0, 0.066, 192.0, 0.0, 0.0, 0.0, 0.0, 0.0, 0.0, 0.0, 0.0, 0.0, 1.6962774809704826E9, 0.0, 2023-10-02 16:11:20.970
45.0, -7941.865377648518, -17289.543722813574, -76060.9523726645, -95179.29347506685, -76842.68228324442, -37815.68709798898, -64761.11737026184, -71849.50373762891, -0.106, 1.0, 0.066, 192.0, 0.0, 0.0, 0.0, 0.0, 0.0, 0.0, 0.0, 0.0, 0.0, 1.696277480970492E9, 0.0, 2023-10-02 16:11:20.970
46.0, -7955.030555132695, -17302.552438086565, -76071.4576925585, -95190.42464380559, -76848.56079203615, -37829.567531295725, -64768.694611632185, -71858.08680749974, -0.106, 1.0, 0.066, 192.0, 0.0, 0.0, 0.0, 0.0, 0.0, 0.0, 0.0, 0.0, 0.0, 1.696277480970502E9, 0.0, 2023-10-02 16:11:20.970
47.0, -7951.186055086381, -17298.618531062428, -76061.5558697648, -95190.29053333886, -76843.37518732253, -37826.3265283497, -64764.3360214634, -71852.87885104166, -0.10400000000000001, 1.0, 0.064, 192.0, 252.0, 192.0, 31.0, 64.0, 2.0, 0.0, 0.0, 0.0, 0.0, 1.6962774809705126E9, 0.0, 2023-10-02 16:11:20.970
48.0, -7952.2812905646915, -17301.077222952514, -76061.13118662014, -95199.90178345464, -76850.30422810368, -37819.06221140173, -64761.54205340649, -71856.81275806579, -0.10400000000000001, 1.0, 0.064, 192.0, 0.0, 0.0, 0.0, 0.0, 0.0, 0.0, 0.0, 0.0, 0.0, 1.696277480970523E9, 0.0, 2023-10-02 16:11:20.970
49.0, -7957.980985400794, -17306.598103832974, -76076.1068554052, -95204.10391141224, -76852.9417339494, -37833.52379006431, -64765.118332519334, -71864.14413024714, -0.10400000000000001, 1.0, 0.064, 192.0, 0.0, 0.0, 0.0, 0.0, 0.0, 0.0, 0.0, 0.0, 0.0, 1.6962774809705331E9, 0.0, 2023-10-02 16:11:20.970
50.0, -7962.71955522532, -17306.866324766437, -76075.23513737145, -95197.77836773139, -76846.2362106128, -37844.744365780876, -64757.40698068226, -71855.51635688738, -0.10400000000000001, 1.0, 0.064, 192.0, 0.0, 0.0, 0.0, 0.0, 0.0, 0.0, 0.0, 0.0, 0.0, 1.696277480970543E9, 0.0, 2023-10-02 16:11:20.970
51.0, -7964.0830116370935, -17305.994606732682, -76063.58987851023, -95196.83959446425, -76845.7891757237, -37838.7317465224, -64749.472111400624, -71847.1568044611, -0.10400000000000001, 1.0, 0.064, 192.0, 0.0, 0.0, 0.0, 0.0, 0.0, 0.0, 0.0, 0.0, 0.0, 1.6962774809705524E9, 0.0, 2023-10-02 16:11:20.970
52.0, -7959.3220900681135, -17304.340577642986, -76056.19145109552, -95197.19722237554, -76845.31978909014, -37836.87655173261, -64745.22527995412, -71851.67185684107, -0.10400000000000001, 1.0, 0.064, 192.0, 0.0, 0.0, 0.0, 0.0, 0.0, 0.0, 0.0, 0.0, 0.0, 1.696277480970562E9, 0.0, 2023-10-02 16:11:20.970
53.0, -7956.90810166694, -17302.641845064383, -76055.29738131732, -95193.03979790685, -76842.12348963303, -37841.14573492357, -64740.35259966286, -71849.213164951, -0.10400000000000001, 1.0, 0.064, 192.0, 0.0, 0.0, 0.0, 0.0, 0.0, 0.0, 0.0, 0.0, 0.0, 1.6962774809705715E9, 0.0, 2023-10-02 16:11:20.970
54.0, -7963.054831392149, -17307.670987566828, -76059.65597148609, -95195.63260026368, -76845.16332687894, -37850.06408096124, -64743.99593400907, -71857.460958655, -0.10400000000000001, 1.0, 0.064, 192.0, 0.0, 0.0, 0.0, 0.0, 0.0, 0.0, 0.0, 0.0, 0.0, 1.6962774809705813E9, 0.0, 2023-10-02 16:11:20.970
55.0, -7953.577691743099, -17298.03738570659, -76047.31780854677, -95185.95429491453, -76831.30524531666, -37849.125307694114, -64738.85503278435, -71860.34433368973, -0.10400000000000001, 1.0, 0.064, 192.0, 0.0, 0.0, 0.0, 0.0, 0.0, 0.0, 0.0, 0.0, 0.0, 1.6962774809705908E9, 0.0, 2023-10-02 16:11:20.970
56.0, -7941.552453226144, -17288.64965303536, -76031.82804963924, -95179.65110297812, -76823.01274812374, -37836.407165099045, -64729.690817557675, -71855.82928130977, -0.10400000000000001, 1.0, 0.064, 192.0, 0.0, 0.0, 0.0, 0.0, 0.0, 0.0, 0.0, 0.0, 0.0, 1.6962774809706004E9, 0.0, 2023-10-02 16:11:20.970
57.0, -7936.009220601228, -17286.392126845378, -76033.05739558428, -95177.55003899932, -76819.0341376107, -37837.323586621715, -64733.69177981518, -71860.45609241202, -0.10400000000000001, 1.002, 0.062, 192.0, 252.0, 192.0, 31.0, 80.0, 1.0, 240.0, 0.0, 0.0, 0.0, 1.69627748097061E9, 0.0, 2023-10-02 16:11:20.970
58.0, -7938.0208776022055, -17288.403783846356, -76033.41502349556, -95176.09717560974, -76818.94473063288, -37843.93970298048, -64734.027055982006, -71864.0100197804, -0.10400000000000001, 1.002, 0.062, 192.0, 0.0, 0.0, 0.0, 0.0, 0.0, 0.0, 0.0, 0.0, 0.0, 1.6962774809706202E9, 0.0, 2023-10-02 16:11:20.970
59.0, -7939.04905784715, -17289.141391413377, -76033.01269209536, -95177.12535585467, -76822.878637657, -37845.705490792454, -64737.938611261685, -71869.8661768277, -0.10400000000000001, 1.002, 0.062, 192.0, 0.0, 0.0, 0.0, 0.0, 0.0, 0.0, 0.0, 0.0, 0.0, 1.6962774809706376E9, 0.0, 2023-10-02 16:11:20.970
60.0, -7926.353266996535, -17276.982042429692, -76021.45684021198, -95167.46940224999, -76816.95542537635, -37830.752173751855, -64740.68787582969, -71864.45705466952, -0.10400000000000001, 1.002, 0.062, 192.0, 0.0, 0.0, 0.0, 0.0, 0.0, 0.0, 0.0, 0.0, 0.0, 1.6962774809706478E9, 0.0, 2023-10-02 16:11:20.970
61.0, -7923.2240227727925, -17274.121019139413, -76025.01076758037, -95168.05054760583, -76820.10702134455, -37826.550045794254, -64746.96871602163, -71867.8098163378, -0.10400000000000001, 1.002, 0.062, 192.0, 0.0, 0.0, 0.0, 0.0, 0.0, 0.0, 0.0, 0.0, 0.0, 1.6962774809706573E9, 0.0, 2023-10-02 16:11:20.970
62.0, -7924.565127440111, -17273.830446461492, -76030.37518624964, -95166.73179468296, -76820.50935274475, -37834.01552844233, -64747.46045439965, -71868.54742390483, -0.10400000000000001, 1.002, 0.062, 192.0, 0.0, 0.0, 0.0, 0.0, 0.0, 0.0, 0.0, 0.0, 0.0, 1.696277480970667E9, 0.0, 2023-10-02 16:11:20.970
63.0, -7923.268726261703, -17272.46699004972, -76024.85430536918, -95164.13899232614, -76818.90002714396, -37837.189476154985, -64749.22624221161, -71864.70292385852, -0.10400000000000001, 1.002, 0.062, 192.0, 0.0, 0.0, 0.0, 0.0, 0.0, 0.0, 0.0, 0.0, 0.0, 1.6962774809706767E9, 0.0, 2023-10-02 16:11:20.970
64.0, -7911.601115656033, -17263.839216689972, -76011.59972090718, -95161.54618996933, -76820.129373089, -37822.39262132557, -64745.67231484322, -71858.80206332232, -0.10400000000000001, 1.002, 0.062, 192.0, 0.0, 0.0, 0.0, 0.0, 0.0, 0.0, 0.0, 0.0, 0.0, 1.6962774809706864E9, 0.0, 2023-10-02 16:11:20.970
65.0, -7906.951952809329, -17259.771199199105, -76014.97483431993, -95162.3061492808, -76822.58806497909, -37811.84259794266, -64742.85599504185, -71860.38903717864, -0.10400000000000001, 1.002, 0.062, 192.0, 0.0, 0.0, 0.0, 0.0, 0.0, 0.0, 0.0, 0.0, 0.0, 1.696277480970696E9, 0.0, 2023-10-02 16:11:20.970
66.0, -7908.874202832485, -17262.788684700572, -76025.12252630264, -95162.77553591438, -76822.47630625681, -37816.491760789366, -64741.917221774725, -71860.76901683438, -0.10400000000000001, 1.002, 0.062, 192.0, 0.0, 0.0, 0.0, 0.0, 0.0, 0.0, 0.0, 0.0, 0.0, 1.6962774809707057E9, 0.0, 2023-10-02 16:11:20.970
67.0, -7916.540851180655, -17270.79060921557, -76028.38588099311, -95169.12343133969, -76826.65608246996, -37824.53838879328, -64744.644134598275, -71861.84190056824, -0.10400000000000001, 1.002, 0.058, 192.0, 252.0, 192.0, 31.0, 80.0, 1.0, 208.0, 0.0, 0.0, 0.0, 1.6962774809707153E9, 0.0, 2023-10-02 16:11:20.970
68.0, -7913.165737767904, -17264.75563821264, -76023.91553210205, -95169.8163354178, -76827.0807656146, -37817.58699626768, -64745.89583228777, -71860.36668543419, -0.10400000000000001, 1.002, 0.058, 192.0, 0.0, 0.0, 0.0, 0.0, 0.0, 0.0, 0.0, 0.0, 0.0, 1.6962774809707267E9, 0.0, 2023-10-02 16:11:20.970
69.0, -7912.4281302008785, -17264.42036204581, -76021.3450814897, -95174.08551860876, -76828.131297604, -37813.04959214325, -64747.34869567737, -71859.83024356727, -0.10400000000000001, 1.002, 0.058, 192.0, 0.0, 0.0, 0.0, 0.0, 0.0, 0.0, 0.0, 0.0, 0.0, 1.6962774809707365E9, 0.0, 2023-10-02 16:11:20.970
70.0, -7911.914040078407, -17266.18614985778, -76026.5977414367, -95171.22449531849, -76824.62207372452, -37819.10691489064, -64746.81225381044, -71859.22674646697, -0.10400000000000001, 1.002, 0.058, 192.0, 0.0, 0.0, 0.0, 0.0, 0.0, 0.0, 0.0, 0.0, 0.0, 1.6962774809707465E9, 0.0, 2023-10-02 16:11:20.970
71.0, -7918.887784348462, -17273.0257836611, -76029.83874438271, -95173.32555929727, -76821.64929171196, -37822.75024923685, -64742.92305027522, -71855.47165339848, -0.10400000000000001, 1.002, 0.058, 192.0, 0.0, 0.0, 0.0, 0.0, 0.0, 0.0, 0.0, 0.0, 0.0, 1.696277480970756E9, 0.0, 2023-10-02 16:11:20.970
72.0, -7920.251240760236, -17274.85862670644, -76021.3897849786, -95176.58891398775, -76825.20321908036, -37815.95531892244, -64742.38660840829, -71849.50373762891, -0.10400000000000001, 1.002, 0.058, 192.0, 0.0, 0.0, 0.0, 0.0, 0.0, 0.0, 0.0, 0.0, 0.0, 1.6962774809707663E9, 0.0, 2023-10-02 16:11:20.970
73.0, -7921.190014027359, -17275.26095810663, -76022.61913092365, -95182.2662570794, -76832.37812905051, -37816.089429389176, -64741.358428163345, -71854.64463885363, -0.10400000000000001, 1.002, 0.058, 192.0, 0.0, 0.0, 0.0, 0.0, 0.0, 0.0, 0.0, 0.0, 0.0, 1.696277480970776E9, 0.0, 2023-10-02 16:11:20.970
74.0, -7932.164720554915, -17286.079202423003, -76039.78527066532, -95191.72104498399, -76842.14584137748, -37829.835752229184, -64747.72867533311, -71865.46288317, -0.10400000000000001, 1.002, 0.058, 192.0, 0.0, 0.0, 0.0, 0.0, 0.0, 0.0, 0.0, 0.0, 0.0, 1.6962774809707856E9, 0.0, 2023-10-02 16:11:20.970
75.0, -7937.0821043350825, -17289.18609490229, -76048.25658181388, -95188.92707692708, -76840.13418437651, -37839.62581630061, -64752.35548643536, -71861.52897614587, -0.10400000000000001, 1.002, 0.058, 192.0, 0.0, 0.0, 0.0, 0.0, 0.0, 0.0, 0.0, 0.0, 0.0, 1.6962774809708083E9, 0.0, 2023-10-02 16:11:20.970
76.0, -7937.350325268546, -17286.347423356467, -76038.93590437602, -95188.77061471589, -76837.29551283068, -37828.13701965058, -64749.91914628973, -71853.57175511977, -0.10400000000000001, 1.002, 0.058, 192.0, 0.0, 0.0, 0.0, 0.0, 0.0, 0.0, 0.0, 0.0, 0.0, 1.696277480970853E9, 0.0, 2023-10-02 16:11:20.970
77.0, -7935.338668267569, -17285.69922276726, -76033.57148570675, -95190.17877461658, -76838.56956226463, -37815.9776706669, -64752.48959690209, -71851.1130632297, -0.10200000000000001, 0.998, 0.062, 192.0, 252.0, 208.0, 31.0, 48.0, 1.0, 240.0, 0.0, 0.0, 0.0, 1.6962774809708636E9, 0.0, 2023-10-02 16:11:20.970
78.0, -7930.868319376507, -17279.954824442248, -76035.96312236346, -95181.93098091257, -76831.37230055002, -37811.28380433128, -64752.28843120199, -71846.35214166071, -0.10200000000000001, 0.998, 0.062, 192.0, 0.0, 0.0, 0.0, 0.0, 0.0, 0.0, 0.0, 0.0, 0.0, 1.6962774809708743E9, 0.0, 2023-10-02 16:11:20.970
79.0, -7932.410589743923, -17282.368812843422, -76040.67934044354, -95180.72398671198, -76827.12546910351, -37818.324603834706, -64750.76851257903, -71845.48042362696, -0.10200000000000001, 0.998, 0.062, 192.0, 0.0, 0.0, 0.0, 0.0, 0.0, 0.0, 0.0, 0.0, 0.0, 1.6962774809708843E9, 0.0, 2023-10-02 16:11:20.970
80.0, -7931.762389154719, -17284.156952399844, -76035.53843921881, -95179.3158268113, -76817.1789428209, -37816.71527823392, -64741.96192526364, -71839.9595427465, -0.10200000000000001, 0.998, 0.062, 192.0, 0.0, 0.0, 0.0, 0.0, 0.0, 0.0, 0.0, 0.0, 0.0, 1.6962774809709108E9, 0.0, 2023-10-02 16:11:20.970
81.0, -7925.548604196144, -17279.820713975514, -76031.17984905004, -95180.85809717872, -76821.53753298969, -37803.19247283846, -64739.4808816291, -71837.54555434533, -0.10200000000000001, 0.998, 0.062, 192.0, 0.0, 0.0, 0.0, 0.0, 0.0, 0.0, 0.0, 0.0, 0.0, 1.6962774809709203E9, 0.0, 2023-10-02 16:11:20.970
82.0, -7928.677848419888, -17282.145295398866, -76040.5005264879, -95185.35079781423, -76826.56667549214, -37803.706562960935, -64750.36618117883, -71846.9109352721, -0.10200000000000001, 0.998, 0.062, 192.0, 0.0, 0.0, 0.0, 0.0, 0.0, 0.0, 0.0, 0.0, 0.0, 1.69627748097093E9, 0.0, 2023-10-02 16:11:20.970
83.0, -7938.825540402597, -17289.968405958225, -76054.17979409454, -95189.91055368312, -76833.45101278437, -37820.98446142489, -64766.615899397846, -71862.91478430209, -0.10200000000000001, 0.998, 0.062, 192.0, 0.0, 0.0, 0.0, 0.0, 0.0, 0.0, 0.0, 0.0, 0.0, 1.6962774809709396E9, 0.0, 2023-10-02 16:11:20.970
84.0, -7936.925642123895, -17285.207484389244, -76050.67057021506, -95185.52961176987, -76827.41604178144, -37834.10493542015, -64768.3369837209, -71868.8156448383, -0.10200000000000001, 0.998, 0.062, 192.0, 0.0, 0.0, 0.0, 0.0, 0.0, 0.0, 0.0, 0.0, 0.0, 1.6962774809709492E9, 0.0, 2023-10-02 16:11:20.970
85.0, -7935.718647923309, -17282.301757610054, -76045.93200039053, -95194.78323397438, -76835.06033838516, -37832.16033365254, -64774.81898961294, -71879.83505485476, -0.10200000000000001, 0.998, 0.062, 192.0, 0.0, 0.0, 0.0, 0.0, 0.0, 0.0, 0.0, 0.0, 0.0, 1.6962774809709587E9, 0.0, 2023-10-02 16:11:20.970
86.0, -7937.3726770130015, -17285.14042915588, -76051.98932313792, -95196.32550434179, -76839.79890820968, -37836.87655173261, -64782.66445191675, -71889.82628462628, -0.10200000000000001, 0.998, 0.062, 192.0, 0.0, 0.0, 0.0, 0.0, 0.0, 0.0, 0.0, 0.0, 0.0, 1.6962774809709685E9, 0.0, 2023-10-02 16:11:20.970
87.0, -7941.820674159608, -17288.09085942398, -76060.5500412643, -95195.78906247485, -76836.44614654138, -37849.974673983415, -64781.43510597171, -71895.74949690694, -0.098, 0.996, 0.062, 192.0, 252.0, 240.0, 31.0, 32.0, 1.0, 240.0, 0.0, 0.0, 0.0, 1.6962774809709783E9, 0.0, 2023-10-02 16:11:20.970
88.0, -7944.033496860683, -17287.80028674606, -76064.84157619973, -95196.01257991942, -76837.36256806405, -37855.294389163784, -64784.273777517534, -71895.03424108437, -0.098, 0.996, 0.062, 192.0, 0.0, 0.0, 0.0, 0.0, 0.0, 0.0, 0.0, 0.0, 0.0, 1.6962774809709885E9, 0.0, 2023-10-02 16:11:20.970
89.0, -7940.144293325459, -17283.687565766282, -76053.37513129415, -95195.00675141893, -76834.47919302931, -37847.24776115987, -64778.283510003515, -71885.71356364651, -0.098, 0.996, 0.062, 192.0, 0.0, 0.0, 0.0, 0.0, 0.0, 0.0, 0.0, 0.0, 0.0, 1.6962774809709983E9, 0.0, 2023-10-02 16:11:20.970
90.0, -7934.601060700544, -17276.602062773953, -76048.48009925844, -95193.55388802933, -76830.14295460498, -37840.56458956774, -64772.337945978405, -71885.31123224631, -0.098, 0.996, 0.062, 192.0, 0.0, 0.0, 0.0, 0.0, 0.0, 0.0, 0.0, 0.0, 0.0, 1.69627748097102E9, 0.0, 2023-10-02 16:11:20.971
91.0, -7933.23760428877, -17272.511693538632, -76051.09525335972, -95187.04953039283, -76827.95248364836, -37842.95622622445, -64767.509969176055, -71887.90403460313, -0.098, 0.996, 0.062, 192.0, 0.0, 0.0, 0.0, 0.0, 0.0, 0.0, 0.0, 0.0, 0.0, 1.6962774809710295E9, 0.0, 2023-10-02 16:11:20.971
92.0, -7945.754581183742, -17285.028670433603, -76052.81633768277, -95193.6209432627, -76832.98162615081, -37849.79586002778, -64763.84428308538, -71891.72618290498, -0.098, 0.996, 0.062, 192.0, 0.0, 0.0, 0.0, 0.0, 0.0, 0.0, 0.0, 0.0, 0.0, 1.6962774809710393E9, 0.0, 2023-10-02 16:11:20.971
93.0, -7947.81094167363, -17288.22496989071, -76046.53549749083, -95198.49362355395, -76840.55886752116, -37844.27497914732, -64766.12416101983, -71894.94483410654, -0.098, 0.996, 0.062, 192.0, 0.0, 0.0, 0.0, 0.0, 0.0, 0.0, 0.0, 0.0, 0.0, 1.6962774809710493E9, 0.0, 2023-10-02 16:11:20.971
94.0, -7943.854682905041, -17286.637996034384, -76044.97087537896, -95198.73949274296, -76842.97285592233, -37836.16129591004, -64766.66060288675, -71891.45796197152, -0.098, 0.996, 0.062, 192.0, 0.0, 0.0, 0.0, 0.0, 0.0, 0.0, 0.0, 0.0, 0.0, 1.6962774809710588E9, 0.0, 2023-10-02 16:11:20.971
95.0, -7944.033496860683, -17288.64965303536, -76055.23032608394, -95194.9173444411, -76839.68714948739, -37841.369252368124, -64764.62659414132, -71887.47935145847, -0.098, 0.996, 0.062, 192.0, 0.0, 0.0, 0.0, 0.0, 0.0, 0.0, 0.0, 0.0, 0.0, 1.6962774809710684E9, 0.0, 2023-10-02 16:11:20.971
96.0, -7941.060714848128, -17285.431001833796, -76054.17979409454, -95185.82018444779, -76834.36743430703, -37838.664691289036, -64758.39045743829, -71873.42010419609, -0.098, 0.996, 0.062, 192.0, 0.0, 0.0, 0.0, 0.0, 0.0, 0.0, 0.0, 0.0, 0.0, 1.6962774809710782E9, 0.0, 2023-10-02 16:11:20.971
97.0, -7944.055848605139, -17287.822638490517, -76044.3003230453, -95187.65302749313, -76844.04573965618, -37818.726935234896, -64761.09501851738, -71859.94200228954, -0.10200000000000001, 0.996, 0.066, 192.0, 252.0, 208.0, 31.0, 32.0, 2.0, 16.0, 0.0, 0.0, 0.0, 1.69627748097109E9, 0.0, 2023-10-02 16:11:20.971
98.0, -7940.636031703477, -17285.967443700727, -76045.37320677916, -95184.25556233592, -76845.94563793488, -37795.83874891266, -64765.699477875176, -71848.25203993941, -0.10200000000000001, 0.996, 0.066, 192.0, 0.0, 0.0, 0.0, 0.0, 0.0, 0.0, 0.0, 0.0, 0.0, 1.6962774809711003E9, 0.0, 2023-10-02 16:11:20.971
99.0, -7941.977136370795, -17287.308548368044, -76055.31973306177, -95182.93680941306, -76846.54913503518, -37787.94858311994, -64770.661565144255, -71837.16557468958, -0.10200000000000001, 0.996, 0.066, 192.0, 0.0, 0.0, 0.0, 0.0, 0.0, 0.0, 0.0, 0.0, 0.0, 1.69627748097111E9, 0.0, 2023-10-02 16:11:20.971
100.0, -7949.867302163519, -17292.56120831504, -76066.98734366744, -95183.54030651336, -76852.9417339494, -37790.25081279884, -64779.35639373737, -71829.32011238577, -0.10200000000000001, 0.996, 0.066, 192.0, 0.0, 0.0, 0.0, 0.0, 0.0, 0.0, 0.0, 0.0, 0.0, 1.6962774809711196E9, 0.0, 2023-10-02 16:11:20.971
101.0, -7949.532025996688, -17292.874132737415, -76058.11370111868, -95180.03108263387, -76852.27118161574, -37781.757149905825, -64779.736373393105, -71823.32984487174, -0.10200000000000001, 0.996, 0.066, 192.0, 0.0, 0.0, 0.0, 0.0, 0.0, 0.0, 0.0, 0.0, 0.0, 1.69627748097113E9, 0.0, 2023-10-02 16:11:20.971
102.0, -7938.534967724678, -17283.70991751074, -76039.47234624295, -95170.5092394959, -76842.70463498887, -37765.79800436473, -64780.89866410478, -71815.3055686123, -0.10200000000000001, 0.996, 0.066, 192.0, 0.0, 0.0, 0.0, 0.0, 0.0, 0.0, 0.0, 0.0, 0.0, 1.6962774809711394E9, 0.0, 2023-10-02 16:11:20.971
103.0, -7936.188034556871, -17283.441696577276, -76040.99226486591, -95169.32459703978, -76843.84457395608, -37768.63667591056, -64792.56627471045, -71822.90516172709, -0.10200000000000001, 0.996, 0.066, 192.0, 0.0, 0.0, 0.0, 0.0, 0.0, 0.0, 0.0, 0.0, 0.0, 1.6962774809711492E9, 0.0, 2023-10-02 16:11:20.971
104.0, -7937.95382236884, -17284.51458031113, -76046.87077365766, -95167.17882957206, -76842.36935882203, -37788.37326626459, -64797.5954172129, -71839.64661832411, -0.10200000000000001, 0.996, 0.066, 192.0, 0.0, 0.0, 0.0, 0.0, 0.0, 0.0, 0.0, 0.0, 0.0, 1.6962774809711587E9, 0.0, 2023-10-02 16:11:20.971
105.0, -7940.814845659119, -17285.542760556076, -76040.63463695462, -95174.15257384212, -76842.48111754432, -37802.20899608243, -64795.36024276737, -71861.35016219023, -0.10200000000000001, 0.996, 0.066, 192.0, 0.0, 0.0, 0.0, 0.0, 0.0, 0.0, 0.0, 0.0, 0.0, 1.696277480971176E9, 0.0, 2023-10-02 16:11:20.971
106.0, -7937.126807823994, -17282.592330287975, -76032.67741592854, -95180.05343437832, -76848.67255075843, -37808.51218801882, -64797.95304512418, -71877.6669356426, -0.10200000000000001, 0.996, 0.066, 192.0, 0.0, 0.0, 0.0, 0.0, 0.0, 0.0, 0.0, 0.0, 0.0, 1.6962774809711857E9, 0.0, 2023-10-02 16:11:20.971
107.0, -7927.4708542193, -17270.902367937848, -76023.91553210205, -95170.44218426255, -76838.61426575354, -37815.21771135541, -64794.0414898445, -71880.79617986635, -0.10200000000000001, 0.998, 0.064, 192.0, 252.0, 208.0, 31.0, 48.0, 2.0, 0.0, 0.0, 0.0, 0.0, 1.6962774809711955E9, 0.0, 2023-10-02 16:11:20.971
108.0, -7928.7449036532535, -17269.807132459537, -76025.81543038075, -95164.18369581505, -76834.32273081812, -37830.79687724076, -64795.136725322816, -71887.21113052501, -0.10200000000000001, 0.998, 0.064, 192.0, 0.0, 0.0, 0.0, 0.0, 0.0, 0.0, 0.0, 0.0, 0.0, 1.6962774809712057E9, 0.0, 2023-10-02 16:11:20.971
109.0, -7927.537909452666, -17269.538911526073, -76018.88638959962, -95158.61811144568, -76831.32759706111, -37838.7317465224, -64787.224207785635, -71888.88751135916, -0.10200000000000001, 0.998, 0.064, 192.0, 0.0, 0.0, 0.0, 0.0, 0.0, 0.0, 0.0, 0.0, 0.0, 1.6962774809712152E9, 0.0, 2023-10-02 16:11:20.971
110.0, -7921.704104149831, -17266.141446368867, -76008.0904970277, -95157.74639341193, -76825.09146035809, -37836.25070288786, -64778.32821349242, -71892.50849396092, -0.10200000000000001, 0.998, 0.064, 192.0, 0.0, 0.0, 0.0, 0.0, 0.0, 0.0, 0.0, 0.0, 0.0, 1.6962774809712248E9, 0.0, 2023-10-02 16:11:20.971
111.0, -7924.833348373574, -17271.818789460514, -76010.72800287342, -95161.94852136953, -76827.57250399262, -37834.954301709455, -64773.72375413463, -71896.93413936307, -0.10200000000000001, 0.998, 0.064, 192.0, 0.0, 0.0, 0.0, 0.0, 0.0, 0.0, 0.0, 0.0, 0.0, 1.6962774809712358E9, 0.0, 2023-10-02 16:11:20.971
112.0, -7933.841101389063, -17283.03936517708, -76022.79794487929, -95166.28475979385, -76829.29358831568, -37848.097127449175, -64775.131914035315, -71899.72810741999, -0.10200000000000001, 0.998, 0.064, 192.0, 0.0, 0.0, 0.0, 0.0, 0.0, 0.0, 0.0, 0.0, 0.0, 1.6962774809712453E9, 0.0, 2023-10-02 16:11:20.971
113.0, -7931.985906599272, -17281.94412969877, -76021.65800591208, -95159.40042250163, -76818.20712306585, -37851.33813039519, -64769.72279187713, -71891.59207243826, -0.10200000000000001, 0.998, 0.064, 192.0, 0.0, 0.0, 0.0, 0.0, 0.0, 0.0, 0.0, 0.0, 0.0, 1.6962774809712553E9, 0.0, 2023-10-02 16:11:20.971
114.0, -7930.756560654231, -17280.89359770937, -76017.27706399883, -95159.60158820172, -76818.49769574376, -37840.16225816754, -64763.84428308538, -71882.60667116722, -0.10200000000000001, 0.998, 0.064, 192.0, 0.0, 0.0, 0.0, 0.0, 0.0, 0.0, 0.0, 0.0, 0.0, 1.6962774809712648E9, 0.0, 2023-10-02 16:11:20.971
115.0, -7933.170549055404, -17284.3804698444, -76026.68714841451, -95164.29545453734, -76825.22557082481, -37834.171990653515, -64760.647983628274, -71880.95264207752, -0.10200000000000001, 0.998, 0.064, 192.0, 0.0, 0.0, 0.0, 0.0, 0.0, 0.0, 0.0, 0.0, 0.0, 1.6962774809712744E9, 0.0, 2023-10-02 16:11:20.971
116.0, -7934.891633378463, -17287.442658834774, -76036.36545376366, -95163.1555155701, -76826.34315804759, -37840.29636863427, -64758.569271393935, -71874.9176710746, -0.10200000000000001, 0.998, 0.064, 192.0, 0.0, 0.0, 0.0, 0.0, 0.0, 0.0, 0.0, 0.0, 0.0, 1.696277480971284E9, 0.0, 2023-10-02 16:11:20.971
117.0, -7933.684639177876, -17283.441696577276, -76029.36935774915, -95155.69003292204, -76819.83880041109, -37838.01649069983, -64748.1310067333, -71859.58437437826, -0.11, 0.996, 0.062, 192.0, 252.0, 144.0, 31.0, 32.0, 1.0, 240.0, 0.0, 0.0, 0.0, 1.6962774809712937E9, 0.0, 2023-10-02 16:11:20.971
118.0, -7930.287174020669, -17281.05005992056, -76016.22653200943, -95153.09723056522, -76818.98943412179, -37818.27990034579, -64745.5829078654, -71850.84484229622, -0.11, 0.996, 0.062, 192.0, 0.0, 0.0, 0.0, 0.0, 0.0, 0.0, 0.0, 0.0, 0.0, 1.6962774809713042E9, 0.0, 2023-10-02 16:11:20.971
119.0, -7927.135578052471, -17282.122943654413, -76016.00301456488, -95153.87954162117, -76826.47726851431, -37802.58897573817, -64755.93176554821, -71852.87885104166, -0.11, 0.996, 0.062, 192.0, 0.0, 0.0, 0.0, 0.0, 0.0, 0.0, 0.0, 0.0, 0.0, 1.6962774809713137E9, 0.0, 2023-10-02 16:11:20.971
120.0, -7934.221081044803, -17288.47083907972, -76025.7930786363, -95154.28187302136, -76831.77463195022, -37799.48208325888, -64764.224262741125, -71848.4085021506, -0.11, 0.996, 0.062, 192.0, 0.0, 0.0, 0.0, 0.0, 0.0, 0.0, 0.0, 0.0, 0.0, 1.6962774809713812E9, 0.0, 2023-10-02 16:11:20.971
121.0, -7941.261880548225, -17292.89648448187, -76036.65602644159, -95153.87954162117, -76834.94857966287, -37796.33048729068, -64765.63242264181, -71840.33952240224, -0.11, 0.996, 0.062, 192.0, 0.0, 0.0, 0.0, 0.0, 0.0, 0.0, 0.0, 0.0, 0.0, 1.696277481451096E9, 0.0, 2023-10-02 16:11:21.451
122.0, -7943.452351504845, -17292.672967037317, -76038.86884914266, -95160.89798938013, -76840.44710879888, -37786.205147052424, -64769.92395757723, -71833.20931592099, -0.11, 0.996, 0.062, 192.0, 0.0, 0.0, 0.0, 0.0, 0.0, 0.0, 0.0, 0.0, 0.0, 1.6962774814511993E9, 0.0, 2023-10-02 16:11:21.451
123.0, -7939.719610180809, -17288.42613559081, -76036.52191597485, -95162.88729463665, -76841.81056521066, -37771.743568389844, -64773.097905289884, -71824.31332162778, -0.11, 0.996, 0.062, 192.0, 0.0, 0.0, 0.0, 0.0, 0.0, 0.0, 0.0, 0.0, 0.0, 1.6962774814512167E9, 0.0, 2023-10-02 16:11:21.451
124.0, -7938.646726446954, -17286.41447858983, -76037.52774447534, -95157.14289631163, -76833.24984708427, -37767.832013110165, -64773.88021634582, -71816.24434187941, -0.11, 0.996, 0.062, 192.0, 0.0, 0.0, 0.0, 0.0, 0.0, 0.0, 0.0, 0.0, 0.0, 1.6962774814512305E9, 0.0, 2023-10-02 16:11:21.451
125.0, -7940.032534603183, -17286.526237312108, -76040.0981950877, -95151.53260845336, -76830.94761740537, -37768.72608288838, -64773.20966401216, -71806.43192606354, -0.11, 0.996, 0.062, 192.0, 0.0, 0.0, 0.0, 0.0, 0.0, 0.0, 0.0, 0.0, 0.0, 1.6962774814512455E9, 0.0, 2023-10-02 16:11:21.451
126.0, -7939.652554947443, -17285.31924311152, -76028.02825308184, -95153.96894859898, -76831.46170752785, -37757.99724554983, -64769.52162617703, -71798.22883584844, -0.11, 0.996, 0.062, 192.0, 0.0, 0.0, 0.0, 0.0, 0.0, 0.0, 0.0, 0.0, 0.0, 1.696277481451264E9, 0.0, 2023-10-02 16:11:21.451
127.0, -7936.590365957066, -17283.799324488562, -76025.86013386968, -95158.99809110143, -76836.62496049702, -37751.00114953532, -64777.858826858865, -71801.98392891693, -0.108, 1.0, 0.066, 192.0, 252.0, 160.0, 31.0, 64.0, 2.0, 16.0, 0.0, 0.0, 0.0, 1.6962774814512756E9, 0.0, 2023-10-02 16:11:21.451
128.0, -7936.813883401619, -17285.431001833796, -76035.42668049654, -95159.64629169063, -76834.97093140733, -37762.2664287408, -64783.35735599487, -71809.62822552065, -0.108, 1.0, 0.066, 192.0, 0.0, 0.0, 0.0, 0.0, 0.0, 0.0, 0.0, 0.0, 0.0, 1.6962774814512932E9, 0.0, 2023-10-02 16:11:21.451
129.0, -7939.987831114273, -17285.74392625617, -76040.79109916581, -95156.87467537817, -76829.07007087112, -37779.67843767148, -64776.942405336194, -71809.09178365371, -0.108, 1.0, 0.066, 192.0, 0.0, 0.0, 0.0, 0.0, 0.0, 0.0, 0.0, 0.0, 0.0, 1.696277481451306E9, 0.0, 2023-10-02 16:11:21.451
130.0, -7939.8984241364515, -17285.296891367067, -76030.93397986103, -95156.60645444471, -76825.22557082481, -37793.33535353367, -64772.047373300484, -71811.25990286587, -0.108, 1.0, 0.066, 192.0, 0.0, 0.0, 0.0, 0.0, 0.0, 0.0, 0.0, 0.0, 0.0, 1.696277481451318E9, 0.0, 2023-10-02 16:11:21.451
131.0, -7939.294927036158, -17286.906216967847, -76023.46849721295, -95164.49662023743, -76830.03119588271, -37800.130283848084, -64767.75583836506, -71821.6534640376, -0.108, 1.0, 0.066, 192.0, 0.0, 0.0, 0.0, 0.0, 0.0, 0.0, 0.0, 0.0, 0.0, 1.6962774814513323E9, 0.0, 2023-10-02 16:11:21.451
132.0, -7944.815807916619, -17292.918836226327, -76033.68324442903, -95172.29737905234, -76833.47336452882, -37818.97280442391, -64771.33211747791, -71839.49015611294, -0.108, 1.0, 0.066, 192.0, 0.0, 0.0, 0.0, 0.0, 0.0, 0.0, 0.0, 0.0, 0.0, 1.6962774814513707E9, 0.0, 2023-10-02 16:11:21.451
133.0, -7948.570900985111, -17294.908141482847, -76040.16525032106, -95165.36833827119, -76822.36454753454, -37841.30219713476, -64765.788884853, -71842.97702824796, -0.108, 1.0, 0.066, 192.0, 0.0, 0.0, 0.0, 0.0, 0.0, 0.0, 0.0, 0.0, 0.0, 1.696277481451388E9, 0.0, 2023-10-02 16:11:21.451
134.0, -7948.794418429664, -17295.198714160768, -76025.88248561413, -95160.18273355755, -76812.68624218539, -37848.45475536046, -64748.488634644586, -71842.0606067253, -0.108, 1.0, 0.066, 192.0, 0.0, 0.0, 0.0, 0.0, 0.0, 0.0, 0.0, 0.0, 0.0, 1.6962774814514005E9, 0.0, 2023-10-02 16:11:21.451
135.0, -7946.983927128784, -17294.774031016117, -76022.17209603454, -95168.29641679484, -76816.95542537635, -37844.56555182523, -64745.87348054332, -71849.4143306511, -0.108, 1.0, 0.066, 192.0, 0.0, 0.0, 0.0, 0.0, 0.0, 0.0, 0.0, 0.0, 0.0, 1.6962774814514136E9, 0.0, 2023-10-02 16:11:21.451
136.0, -7942.960613126828, -17292.672967037317, -76024.85430536918, -95168.38582377265, -76816.84366665408, -37847.02424371532, -64750.41088466775, -71854.82345280927, -0.108, 1.0, 0.066, 192.0, 0.0, 0.0, 0.0, 0.0, 0.0, 0.0, 0.0, 0.0, 0.0, 1.6962774814515958E9, 0.0, 2023-10-02 16:11:21.451
137.0, -7949.822598674607, -17299.534952585098, -76036.9018956306, -95172.1185650967, -76824.82323942462, -37859.31770316574, -64759.53039640551, -71867.00515353742, -0.114, 0.996, 0.062, 192.0, 252.0, 112.0, 31.0, 32.0, 1.0, 240.0, 0.0, 0.0, 0.0, 1.6962774814516084E9, 0.0, 2023-10-02 16:11:21.451
138.0, -7951.208406830837, -17300.13844968539, -76040.38876776562, -95172.63265521916, -76828.6900912154, -37860.97173225543, -64761.67616387322, -71867.27337447088, -0.114, 0.996, 0.062, 192.0, 0.0, 0.0, 0.0, 0.0, 0.0, 0.0, 0.0, 0.0, 0.0, 1.6962774814516225E9, 0.0, 2023-10-02 16:11:21.451
139.0, -7944.704049194343, -17294.19288566028, -76031.62688393914, -95170.75510868491, -76829.45005052687, -37849.37117688313, -64758.85984407185, -71862.06541801279, -0.114, 0.996, 0.062, 192.0, 0.0, 0.0, 0.0, 0.0, 0.0, 0.0, 0.0, 0.0, 0.0, 1.696277481451634E9, 0.0, 2023-10-02 16:11:21.451
140.0, -7938.646726446954, -17288.940225713282, -76030.82222113875, -95168.05054760583, -76829.22653308231, -37840.92221747902, -64757.63049812681, -71862.66891511308, -0.114, 0.996, 0.062, 192.0, 0.0, 0.0, 0.0, 0.0, 0.0, 0.0, 0.0, 0.0, 0.0, 1.696277481451646E9, 0.0, 2023-10-02 16:11:21.451
141.0, -7941.1277700814935, -17292.292987381577, -76039.40529100959, -95165.83772490475, -76830.56763774963, -37846.35369138166, -64761.564405150944, -71864.09942675823, -0.114, 0.996, 0.062, 192.0, 0.0, 0.0, 0.0, 0.0, 0.0, 0.0, 0.0, 0.0, 0.0, 1.696277481451657E9, 0.0, 2023-10-02 16:11:21.451
142.0, -7943.072371849105, -17292.360042614942, -76039.8970293876, -95162.52966672536, -76831.2381900833, -37854.22150542993, -64761.206777239655, -71862.80302557982, -0.114, 0.996, 0.062, 192.0, 0.0, 0.0, 0.0, 0.0, 0.0, 0.0, 0.0, 0.0, 0.0, 1.6962774814516675E9, 0.0, 2023-10-02 16:11:21.451
143.0, -7934.198729300348, -17283.173475643813, -76028.96702634895, -95157.32171026728, -76831.99814939477, -37837.36829011062, -64749.31564918943, -71848.94494401752, -0.114, 0.996, 0.062, 192.0, 0.0, 0.0, 0.0, 0.0, 0.0, 0.0, 0.0, 0.0, 0.0, 1.6962774814516785E9, 0.0, 2023-10-02 16:11:21.451
144.0, -7933.885804877974, -17283.598158788463, -76032.11862231715, -95162.01557660289, -76841.69880648838, -37823.130228892594, -64751.93080329071, -71844.89927827111, -0.114, 0.996, 0.062, 192.0, 0.0, 0.0, 0.0, 0.0, 0.0, 0.0, 0.0, 0.0, 0.0, 1.6962774814516897E9, 0.0, 2023-10-02 16:11:21.451
145.0, -7937.149159568448, -17287.196789645768, -76041.3498927772, -95161.50148648043, -76837.09434713058, -37819.643356757566, -64753.42837016921, -71835.26567641088, -0.114, 0.996, 0.062, 192.0, 0.0, 0.0, 0.0, 0.0, 0.0, 0.0, 0.0, 0.0, 0.0, 1.6962774814517004E9, 0.0, 2023-10-02 16:11:21.451
146.0, -7947.922700395907, -17297.47859209521, -76052.7492824494, -95171.24684706294, -76845.34214083459, -37816.089429389176, -64757.83166382691, -71835.62330432216, -0.114, 0.996, 0.062, 192.0, 0.0, 0.0, 0.0, 0.0, 0.0, 0.0, 0.0, 0.0, 0.0, 1.6962774814517121E9, 0.0, 2023-10-02 16:11:21.451
147.0, -7944.346421283058, -17295.198714160768, -76050.58116323724, -95170.5092394959, -76846.884411202, -37800.46556001491, -64756.892890559786, -71828.38133911864, -0.112, 0.994, 0.064, 192.0, 252.0, 128.0, 31.0, 16.0, 2.0, 0.0, 0.0, 0.0, 0.0, 1.6962774814517229E9, 0.0, 2023-10-02 16:11:21.451
148.0, -7942.737095682275, -17293.254112393155, -76047.60838122468, -95174.28668430886, -76850.32657984813, -37783.05355108423, -64757.40698068226, -71823.82158324977, -0.112, 0.994, 0.064, 192.0, 0.0, 0.0, 0.0, 0.0, 0.0, 0.0, 0.0, 0.0, 0.0, 1.696277481451734E9, 0.0, 2023-10-02 16:11:21.451
149.0, -7949.643784718965, -17300.272560152123, -76062.56169826529, -95182.51212626841, -76853.92521070543, -37787.74741741984, -64769.02988779901, -71829.76714727488, -0.112, 0.994, 0.064, 192.0, 0.0, 0.0, 0.0, 0.0, 0.0, 0.0, 0.0, 0.0, 0.0, 1.6962774814517484E9, 0.0, 2023-10-02 16:11:21.451
150.0, -7952.1695318424145, -17301.2336851637, -76062.74051222093, -95173.95140814202, -76841.14001287699, -37794.09531284515, -64763.77722785202, -71822.23460939343, -0.112, 0.994, 0.064, 192.0, 0.0, 0.0, 0.0, 0.0, 0.0, 0.0, 0.0, 0.0, 0.0, 1.6962774814517584E9, 0.0, 2023-10-02 16:11:21.451
151.0, -7955.81286618863, -17305.65933056585, -76051.65404697109, -95178.19823958853, -76842.54817277768, -37794.20707156743, -64763.8889865743, -71819.88767622563, -0.112, 0.994, 0.064, 192.0, 0.0, 0.0, 0.0, 0.0, 0.0, 0.0, 0.0, 0.0, 0.0, 1.6962774814517915E9, 0.0, 2023-10-02 16:11:21.451
152.0, -7949.532025996688, -17301.479554352707, -76045.48496550143, -95178.89114366665, -76845.49860304578, -37792.15071107754, -64762.52553016252, -71819.954731459, -0.112, 0.994, 0.064, 192.0, 0.0, 0.0, 0.0, 0.0, 0.0, 0.0, 0.0, 0.0, 0.0, 1.6962774814518032E9, 0.0, 2023-10-02 16:11:21.451
153.0, -7950.00141263025, -17301.054871208056, -76052.23519232693, -95178.51116401091, -76844.04573965618, -37792.642449455554, -64763.62076564083, -71816.82548723526, -0.112, 0.994, 0.064, 192.0, 0.0, 0.0, 0.0, 0.0, 0.0, 0.0, 0.0, 0.0, 0.0, 1.6962774814518144E9, 0.0, 2023-10-02 16:11:21.451
154.0, -7955.142313854971, -17304.65350206536, -76056.23615458443, -95176.72302445448, -76838.39074830899, -37803.03601062727, -64763.55371040747, -71823.44160359402, -0.112, 0.994, 0.064, 192.0, 0.0, 0.0, 0.0, 0.0, 0.0, 0.0, 0.0, 0.0, 0.0, 1.6962774814518309E9, 0.0, 2023-10-02 16:11:21.451
155.0, -7952.90713940944, -17303.42415612032, -76049.03889286982, -95176.85713492121, -76830.8358586831, -37807.14873160705, -64753.42837016921, -71826.63790305113, -0.112, 0.994, 0.064, 192.0, 0.0, 0.0, 0.0, 0.0, 0.0, 0.0, 0.0, 0.0, 0.0, 1.6962774814518416E9, 0.0, 2023-10-02 16:11:21.451
156.0, -7950.1131713525265, -17304.85466776546, -76039.94173287651, -95183.38384430217, -76826.47726851431, -37806.00879263983, -64749.69562884518, -71832.06937695378, -0.112, 0.998, 0.062, 192.0, 252.0, 128.0, 31.0, 48.0, 1.0, 240.0, 0.0, 0.0, 0.0, 1.696277481451852E9, 0.0, 2023-10-02 16:11:21.451
157.0, -7955.701107466353, -17310.42025213483, -76044.18856432302, -95187.56362051531, -76827.93013190391, -37816.24589160036, -64748.220413711126, -71841.09948171371, -0.112, 0.998, 0.062, 192.0, 0.0, 0.0, 0.0, 0.0, 0.0, 0.0, 0.0, 0.0, 0.0, 1.6962774814518635E9, 0.0, 2023-10-02 16:11:21.451
158.0, -7959.702069723853, -17310.911990512846, -76053.03985512732, -95183.27208557988, -76827.10311735906, -37833.52379006431, -64750.09796024537, -71851.29187718533, -0.112, 0.998, 0.062, 192.0, 0.0, 0.0, 0.0, 0.0, 0.0, 0.0, 0.0, 0.0, 0.0, 1.6962774814518745E9, 0.0, 2023-10-02 16:11:21.451
159.0, -7956.2151975888255, -17304.27352240962, -76044.68030270103, -95174.82312617579, -76818.65415795495, -37836.49657207687, -64745.31468693193, -71847.04504573882, -0.112, 0.998, 0.062, 192.0, 0.0, 0.0, 0.0, 0.0, 0.0, 0.0, 0.0, 0.0, 0.0, 1.6962774814518852E9, 0.0, 2023-10-02 16:11:21.451
160.0, -7954.181188843392, -17302.351272386466, -76034.46555548496, -95176.7677279434, -76821.5822364786, -37828.29348186177, -64751.349657934865, -71844.8098712933, -0.112, 0.998, 0.062, 192.0, 0.0, 0.0, 0.0, 0.0, 0.0, 0.0, 0.0, 0.0, 0.0, 1.6962774814518957E9, 0.0, 2023-10-02 16:11:21.451
161.0, -7956.3940115444675, -17303.558266587053, -76040.20995380997, -95179.09230936675, -76825.27027431372, -37827.44411557247, -64759.53039640551, -71849.90606902911, -0.112, 0.998, 0.062, 192.0, 0.0, 0.0, 0.0, 0.0, 0.0, 0.0, 0.0, 0.0, 0.0, 1.6962774814519064E9, 0.0, 2023-10-02 16:11:21.451
162.0, -7961.780781958197, -17306.32988289951, -76049.79885218131, -95176.07482386527, -76831.34994880557, -37837.16712441053, -64765.92299531973, -71851.7612638189, -0.112, 0.998, 0.062, 192.0, 0.0, 0.0, 0.0, 0.0, 0.0, 0.0, 0.0, 0.0, 0.0, 1.6962774814519172E9, 0.0, 2023-10-02 16:11:21.451
163.0, -7959.299738323658, -17301.300740397066, -76037.5500962198, -95166.73179468296, -76830.88056217201, -37836.36246161014, -64765.00657379706, -71852.02948475236, -0.112, 0.998, 0.062, 192.0, 0.0, 0.0, 0.0, 0.0, 0.0, 0.0, 0.0, 0.0, 0.0, 1.696277481451928E9, 0.0, 2023-10-02 16:11:21.451
164.0, -7954.963499899328, -17295.936321727793, -76024.02729082434, -95162.5073149809, -76832.86986742853, -37819.06221140173, -64759.19512023868, -71846.15097596061, -0.112, 0.998, 0.062, 192.0, 0.0, 0.0, 0.0, 0.0, 0.0, 0.0, 0.0, 0.0, 0.0, 1.6962774814519382E9, 0.0, 2023-10-02 16:11:21.451
165.0, -7950.090819608072, -17291.778897259104, -76029.12348856014, -95163.80371615931, -76837.80960295316, -37809.00392639684, -64765.23009124161, -71841.43475788055, -0.112, 0.998, 0.062, 192.0, 0.0, 0.0, 0.0, 0.0, 0.0, 0.0, 0.0, 0.0, 0.0, 1.696277481451949E9, 0.0, 2023-10-02 16:11:21.451
166.0, -7949.040287618672, -17290.862475736438, -76040.18760206552, -95159.84745739073, -76839.73185297631, -37812.49079853187, -64768.068762787436, -71834.39395837713, -0.112, 1.002, 0.064, 192.0, 252.0, 128.0, 31.0, 80.0, 2.0, 0.0, 0.0, 0.0, 0.0, 1.696277481451981E9, 0.0, 2023-10-02 16:11:21.451
167.0, -7955.343479555068, -17297.545647328574, -76043.80858466728, -95164.27310279288, -76847.0855769021, -37814.882435188585, -64773.47788494562, -71830.1024234417, -0.112, 1.002, 0.064, 192.0, 0.0, 0.0, 0.0, 0.0, 0.0, 0.0, 0.0, 0.0, 0.0, 1.6962774814519928E9, 0.0, 2023-10-02 16:11:21.451
168.0, -7954.114133610026, -17295.46693509423, -76036.61132295267, -95166.7094429385, -76849.14193739199, -37801.53844374877, -64773.3884779678, -71824.11215592768, -0.112, 1.002, 0.064, 192.0, 0.0, 0.0, 0.0, 0.0, 0.0, 0.0, 0.0, 0.0, 0.0, 1.696277481452008E9, 0.0, 2023-10-02 16:11:21.452
169.0, -7952.728325453798, -17295.869266494425, -76036.07488108575, -95169.07872785076, -76847.46555655784, -37788.50737673132, -64774.997803568585, -71812.3551383442, -0.112, 1.002, 0.064, 192.0, 0.0, 0.0, 0.0, 0.0, 0.0, 0.0, 0.0, 0.0, 0.0, 1.6962774814520187E9, 0.0, 2023-10-02 16:11:21.452
170.0, -7949.5767294856, -17293.74585077117, -76043.92034338956, -95166.77649817188, -76846.05739665717, -37791.189586065964, -64781.16688503825, -71806.72249874145, -0.112, 1.002, 0.064, 192.0, 0.0, 0.0, 0.0, 0.0, 0.0, 0.0, 0.0, 0.0, 0.0, 1.6962774814520288E9, 0.0, 2023-10-02 16:11:21.452
171.0, -7949.9343573968845, -17290.683661780797, -76044.45678525648, -95163.73666092595, -76843.03991115569, -37794.22942331188, -64774.61782391284, -71801.06750739425, -0.112, 1.002, 0.064, 192.0, 0.0, 0.0, 0.0, 0.0, 0.0, 0.0, 0.0, 0.0, 0.0, 1.6962774814520385E9, 0.0, 2023-10-02 16:11:21.452
172.0, -7953.041249876172, -17295.310472883044, -76041.50635498838, -95173.99611163094, -76846.57148677963, -37787.5686034642, -64772.472056445135, -71803.12386788415, -0.112, 1.002, 0.064, 192.0, 0.0, 0.0, 0.0, 0.0, 0.0, 0.0, 0.0, 0.0, 0.0, 1.6962774814520512E9, 0.0, 2023-10-02 16:11:21.452
173.0, -7956.259901077736, -17301.81483051954, -76041.68516894402, -95183.27208557988, -76850.4830420593, -37780.058417327215, -64778.37291698133, -71811.43871682152, -0.112, 1.002, 0.064, 192.0, 0.0, 0.0, 0.0, 0.0, 0.0, 0.0, 0.0, 0.0, 0.0, 1.6962774814520628E9, 0.0, 2023-10-02 16:11:21.452
174.0, -7963.390107558979, -17309.66029282335, -76053.30807606078, -95188.52474552688, -76854.17107989444, -37788.23915579786, -64779.53520769301, -71824.02274894986, -0.112, 1.002, 0.064, 192.0, 0.0, 0.0, 0.0, 0.0, 0.0, 0.0, 0.0, 0.0, 0.0, 1.6962774814520736E9, 0.0, 2023-10-02 16:11:21.452
175.0, -7970.0732791511155, -17315.248228937176, -76058.98541915244, -95189.44116704955, -76853.65698977196, -37802.58897573817, -64777.702364647674, -71833.9022199991, -0.112, 1.002, 0.064, 192.0, 0.0, 0.0, 0.0, 0.0, 0.0, 0.0, 0.0, 0.0, 0.0, 1.696277481452088E9, 0.0, 2023-10-02 16:11:21.452
176.0, -7966.474648293812, -17310.017920734637, -76046.24492481291, -95186.15546061462, -76843.08461464461, -37807.551063007246, -64769.476922688125, -71834.37160663267, -0.114, 1.002, 0.058, 192.0, 252.0, 112.0, 31.0, 80.0, 1.0, 208.0, 0.0, 0.0, 0.0, 1.6962774814520988E9, 0.0, 2023-10-02 16:11:21.452
177.0, -7963.9041976814515, -17307.223952677723, -76040.83580265472, -95192.63746650667, -76840.84944019908, -37803.974783894395, -64765.61007089735, -71838.97606599046, -0.114, 1.002, 0.058, 192.0, 0.0, 0.0, 0.0, 0.0, 0.0, 0.0, 0.0, 0.0, 0.0, 1.6962774814521096E9, 0.0, 2023-10-02 16:11:21.452
178.0, -7963.658328492443, -17307.358063144453, -76047.07193935776, -95193.30801884033, -76838.23428609781, -37815.88826368908, -64764.7383528636, -71845.48042362696, -0.114, 1.002, 0.058, 192.0, 0.0, 0.0, 0.0, 0.0, 0.0, 0.0, 0.0, 0.0, 0.0, 1.6962774814521196E9, 0.0, 2023-10-02 16:11:21.452
179.0, -7964.1947703593705, -17305.301702654568, -76045.70848294598, -95184.92611466958, -76825.1808673359, -37832.495609819365, -64754.14362599178, -71845.27925792686, -0.114, 1.002, 0.058, 192.0, 0.0, 0.0, 0.0, 0.0, 0.0, 0.0, 0.0, 0.0, 0.0, 1.6962774814521308E9, 0.0, 2023-10-02 16:11:21.452
180.0, -7966.854627949551, -17311.314321913043, -76035.09140432971, -95185.82018444779, -76824.19739057987, -37834.753136009356, -64749.20389046716, -71846.37449340516, -0.114, 1.002, 0.058, 192.0, 0.0, 0.0, 0.0, 0.0, 0.0, 0.0, 0.0, 0.0, 0.0, 1.6962774814521432E9, 0.0, 2023-10-02 16:11:21.452
181.0, -7963.2559970922475, -17310.822583535028, -76027.38005249263, -95187.20599260402, -76824.9349981469, -37833.76965925332, -64746.47697764361, -71850.84484229622, -0.114, 1.002, 0.058, 192.0, 0.0, 0.0, 0.0, 0.0, 0.0, 0.0, 0.0, 0.0, 0.0, 1.6962774814521735E9, 0.0, 2023-10-02 16:11:21.452
182.0, -7960.037345890683, -17305.815792777037, -76027.938846104, -95182.53447801287, -76819.2800067997, -37833.00969994184, -64739.413826395736, -71851.51539462988, -0.114, 1.002, 0.058, 192.0, 0.0, 0.0, 0.0, 0.0, 0.0, 0.0, 0.0, 0.0, 0.0, 1.6962774814521842E9, 0.0, 2023-10-02 16:11:21.452
183.0, -7965.915854682429, -17307.402766633364, -76032.36449150616, -95177.32652155477, -76818.6318062105, -37836.071888932216, -64745.31468693193, -71853.4599963975, -0.114, 1.002, 0.058, 192.0, 0.0, 0.0, 0.0, 0.0, 0.0, 0.0, 0.0, 0.0, 0.0, 1.696277481452196E9, 0.0, 2023-10-02 16:11:21.452
184.0, -7968.754526228253, -17307.402766633364, -76027.38005249263, -95173.32555929727, -76819.45882075535, -37831.62389178561, -64749.896794545275, -71851.00130450742, -0.114, 1.002, 0.058, 192.0, 0.0, 0.0, 0.0, 0.0, 0.0, 0.0, 0.0, 0.0, 0.0, 1.696277481452207E9, 0.0, 2023-10-02 16:11:21.452
185.0, -7960.953767413351, -17299.93728398529, -76021.12156404514, -95169.74928018443, -76820.57640797811, -37821.43149631399, -64756.110579503846, -71845.4580718825, -0.114, 1.002, 0.058, 192.0, 0.0, 0.0, 0.0, 0.0, 0.0, 0.0, 0.0, 0.0, 0.0, 1.6962774814522183E9, 0.0, 2023-10-02 16:11:21.452
186.0, -7959.880883679496, -17299.780821774104, -76026.66479667005, -95174.10787035321, -76829.1371261045, -37817.43053405649, -64766.168864508734, -71844.4075398931, -0.10200000000000001, 1.002, 0.058, 192.0, 252.0, 208.0, 31.0, 80.0, 1.0, 208.0, 0.0, 0.0, 0.0, 1.6962774814522312E9, 0.0, 2023-10-02 16:11:21.452
187.0, -7959.523255768211, -17300.272560152123, -76035.18081130754, -95169.05637610631, -76828.19835283737, -37820.73859223587, -64768.560501165455, -71845.54747886032, -0.10200000000000001, 1.002, 0.058, 192.0, 0.0, 0.0, 0.0, 0.0, 0.0, 0.0, 0.0, 0.0, 0.0, 1.6962774814522443E9, 0.0, 2023-10-02 16:11:21.452
188.0, -7964.172418614915, -17304.877019509917, -76034.89023862961, -95170.68805345155, -76837.34021631959, -37815.28476658878, -64776.92005359174, -71847.46972888347, -0.10200000000000001, 1.002, 0.058, 192.0, 0.0, 0.0, 0.0, 0.0, 0.0, 0.0, 0.0, 0.0, 0.0, 1.696277481452257E9, 0.0, 2023-10-02 16:11:21.452
189.0, -7957.6233574895095, -17296.919798483825, -76031.87275312815, -95168.43052726156, -76845.14097513449, -37801.53844374877, -64790.17463805374, -71844.58635384875, -0.10200000000000001, 1.002, 0.058, 192.0, 0.0, 0.0, 0.0, 0.0, 0.0, 0.0, 0.0, 0.0, 0.0, 1.69627748145227E9, 0.0, 2023-10-02 16:11:21.452
190.0, -7947.945052140361, -17285.967443700727, -76024.0943460577, -95158.79692540133, -76843.53164953372, -37784.260545284815, -64796.164905567755, -71836.36091188919, -0.10200000000000001, 1.002, 0.058, 192.0, 0.0, 0.0, 0.0, 0.0, 0.0, 0.0, 0.0, 0.0, 0.0, 1.6962774814522839E9, 0.0, 2023-10-02 16:11:21.452
191.0, -7943.295889293658, -17277.89846395236, -76029.1905437935, -95148.00103282942, -76839.84361169858, -37776.213917280904, -64801.30580679248, -71825.22974315044, -0.10200000000000001, 1.002, 0.058, 192.0, 0.0, 0.0, 0.0, 0.0, 0.0, 0.0, 0.0, 0.0, 0.0, 1.6962774814522989E9, 0.0, 2023-10-02 16:11:21.452
192.0, -7949.040287618672, -17281.83237097649, -76031.82804963924, -95150.97381484197, -76849.11958564754, -37768.34610323264, -64807.38548128432, -71818.18894364702, -0.10200000000000001, 1.002, 0.058, 192.0, 0.0, 0.0, 0.0, 0.0, 0.0, 0.0, 0.0, 0.0, 0.0, 1.6962774814523108E9, 0.0, 2023-10-02 16:11:21.452
193.0, -7949.777895185697, -17285.207484389244, -76030.95633160548, -95156.24882653343, -76855.4898328173, -37757.79607984973, -64814.02394938755, -71820.02178669236, -0.10200000000000001, 1.002, 0.058, 192.0, 0.0, 0.0, 0.0, 0.0, 0.0, 0.0, 0.0, 0.0, 0.0, 1.6962774814523234E9, 0.0, 2023-10-02 16:11:21.452
194.0, -7952.236587075781, -17293.56703681553, -76035.80666015229, -95168.6093412172, -76866.21867015585, -37744.362681432096, -64820.7518244686, -71821.00526344839, -0.10200000000000001, 1.002, 0.058, 192.0, 0.0, 0.0, 0.0, 0.0, 0.0, 0.0, 0.0, 0.0, 0.0, 1.6962774814523368E9, 0.0, 2023-10-02 16:11:21.452
195.0, -7955.410534788434, -17299.981987474202, -76048.36834053617, -95173.63848371965, -76867.58212656762, -37749.23536172335, -64825.937429182224, -71817.74190875792, -0.10200000000000001, 1.002, 0.058, 192.0, 0.0, 0.0, 0.0, 0.0, 0.0, 0.0, 0.0, 0.0, 0.0, 1.6962774814523468E9, 0.0, 2023-10-02 16:11:21.452
196.0, -7959.076220879105, -17303.267693909133, -76050.26823881487, -95169.83868716225, -76859.0884636746, -37757.37139670508, -64822.02587390255, -71807.41540281956, -0.10400000000000001, 1.0, 0.054, 192.0, 252.0, 192.0, 31.0, 64.0, 1.0, 176.0, 0.0, 0.0, 0.0, 1.6962774814523664E9, 0.0, 2023-10-02 16:11:21.452
197.0, -7965.267654093225, -17307.693339311285, -76045.41791026806, -95178.08648086626, -76858.41791134095, -37753.39278619204, -64817.53317326703, -71808.06360340877, -0.10400000000000001, 1.0, 0.054, 192.0, 0.0, 0.0, 0.0, 0.0, 0.0, 0.0, 0.0, 0.0, 0.0, 1.696277481452377E9, 0.0, 2023-10-02 16:11:21.452
198.0, -7968.083973894593, -17311.739005057694, -76047.0495876133, -95189.39646356064, -76859.75901600826, -37754.979760048365, -64810.6488359748, -71816.98194944643, -0.10400000000000001, 1.0, 0.054, 192.0, 0.0, 0.0, 0.0, 0.0, 0.0, 0.0, 0.0, 0.0, 0.0, 1.696277481452387E9, 0.0, 2023-10-02 16:11:21.452
199.0, -7978.298721110669, -17322.15491797387, -76055.4985470174, -95196.34785608624, -76853.36641709405, -37771.92238234549, -64798.51183873557, -71824.33567337223, -0.10400000000000001, 1.0, 0.054, 192.0, 0.0, 0.0, 0.0, 0.0, 0.0, 0.0, 0.0, 0.0, 0.0, 1.6962774814523969E9, 0.0, 2023-10-02 16:11:21.452
200.0, -7988.62522704902, -17331.967333789747, -76056.77259645135, -95198.58303053178, -76844.09044314509, -37798.43155126948, -64785.324309506934, -71828.13546992964, -0.10400000000000001, 1.0, 0.054, 192.0, 0.0, 0.0, 0.0, 0.0, 0.0, 0.0, 0.0, 0.0, 0.0, 1.6962774814524095E9, 0.0, 2023-10-02 16:11:21.452
201.0, -7985.183058402903, -17328.27929595462, -76041.01461661037, -95196.52667004189, -76836.26733258573, -37813.25075784335, -64762.2349574846, -71829.85655425269, -0.10400000000000001, 1.0, 0.054, 192.0, 0.0, 0.0, 0.0, 0.0, 0.0, 0.0, 0.0, 0.0, 0.0, 1.6962774814524243E9, 0.0, 2023-10-02 16:11:21.452
202.0, -7975.907084453951, -17320.746758073183, -76027.0447763258, -95199.38769333216, -76829.47240227132, -37816.78233346729, -64750.321477689926, -71839.66897006858, -0.10400000000000001, 1.0, 0.054, 192.0, 0.0, 0.0, 0.0, 0.0, 0.0, 0.0, 0.0, 0.0, 0.0, 1.696277481452438E9, 0.0, 2023-10-02 16:11:21.452
203.0, -7969.022747161716, -17316.14229871539, -76027.38005249263, -95194.60442001873, -76820.30818704465, -37828.11466790613, -64742.14073921928, -71842.01590323639, -0.10400000000000001, 1.0, 0.054, 192.0, 0.0, 0.0, 0.0, 0.0, 0.0, 0.0, 0.0, 0.0, 0.0, 1.696277481452452E9, 0.0, 2023-10-02 16:11:21.452
204.0, -7966.653462249454, -17315.76231905965, -76023.2896832573, -95186.15546061462, -76810.4287159954, -37847.180705926505, -64732.417730381225, -71843.17819394806, -0.10400000000000001, 1.0, 0.054, 192.0, 0.0, 0.0, 0.0, 0.0, 0.0, 0.0, 0.0, 0.0, 0.0, 1.696277481452466E9, 0.0, 2023-10-02 16:11:21.452
205.0, -7961.467857535823, -17312.118984713434, -76003.95542430347, -95180.5675245008, -76801.93505310238, -37851.53929609529, -64722.94059073217, -71841.47946136945, -0.10400000000000001, 1.0, 0.054, 192.0, 0.0, 0.0, 0.0, 0.0, 0.0, 0.0, 0.0, 0.0, 0.0, 1.696277481452478E9, 0.0, 2023-10-02 16:11:21.452
206.0, -7958.875055179007, -17311.24726667968, -75997.1381422446, -95184.70259722503, -76807.50063747176, -37841.793935512775, -64730.67429431371, -71849.43668239555, -0.106, 1.004, 0.054, 192.0, 252.0, 176.0, 31.0, 96.0, 1.0, 176.0, 0.0, 0.0, 0.0, 1.6962774814524913E9, 0.0, 2023-10-02 16:11:21.452
207.0, -7952.393049286968, -17302.217161919732, -76003.97777604792, -95175.471326765, -76808.23824503878, -37837.748269766365, -64742.85599504185, -71851.962429519, -0.106, 1.004, 0.054, 192.0, 0.0, 0.0, 0.0, 0.0, 0.0, 0.0, 0.0, 0.0, 0.0, 1.696277481452508E9, 0.0, 2023-10-02 16:11:21.452
208.0, -7954.67292722141, -17299.445545607276, -76008.87280808363, -95166.77649817188, -76810.09343982858, -37844.85612450315, -64748.51098638905, -71848.85553703971, -0.106, 1.004, 0.054, 192.0, 0.0, 0.0, 0.0, 0.0, 0.0, 0.0, 0.0, 0.0, 0.0, 1.696277481452521E9, 0.0, 2023-10-02 16:11:21.452
209.0, -7956.19284584437, -17296.025728705612, -75997.92045330054, -95158.61811144568, -76816.03900385369, -37834.44021158698, -64757.094056259884, -71839.1101764572, -0.106, 1.004, 0.054, 192.0, 0.0, 0.0, 0.0, 0.0, 0.0, 0.0, 0.0, 0.0, 0.0, 1.6962774814525363E9, 0.0, 2023-10-02 16:11:21.452
210.0, -7949.129694596493, -17288.04615593507, -75980.64255483658, -95150.86205611969, -76822.1857335789, -37814.16717936601, -64764.783056352506, -71828.0013594629, -0.106, 1.004, 0.054, 192.0, 0.0, 0.0, 0.0, 0.0, 0.0, 0.0, 0.0, 0.0, 0.0, 1.6962774814525568E9, 0.0, 2023-10-02 16:11:21.452
211.0, -7946.805113173141, -17285.788629745082, -75985.00114500537, -95148.80569562981, -76828.2877598152, -37808.467484529916, -64774.79663786849, -71826.66025479558, -0.106, 1.004, 0.054, 192.0, 0.0, 0.0, 0.0, 0.0, 0.0, 0.0, 0.0, 0.0, 0.0, 1.6962774814526465E9, 0.0, 2023-10-02 16:11:21.452
212.0, -7945.2404910612695, -17283.08406866599, -75999.4403719235, -95144.60356767221, -76827.77366969272, -37815.59769101116, -64781.63627167181, -71826.03440595084, -0.106, 1.004, 0.054, 192.0, 0.0, 0.0, 0.0, 0.0, 0.0, 0.0, 0.0, 0.0, 0.0, 1.6962774814526827E9, 0.0, 2023-10-02 16:11:21.452
213.0, -7942.33476428208, -17279.507789553143, -75996.51229339985, -95143.17305602707, -76824.64442546897, -37816.60351951164, -64783.24559727259, -71819.86532448117, -0.106, 1.004, 0.054, 192.0, 0.0, 0.0, 0.0, 0.0, 0.0, 0.0, 0.0, 0.0, 0.0, 1.696277481452701E9, 0.0, 2023-10-02 16:11:21.452
214.0, -7946.581595728589, -17284.84985647796, -75991.55020613078, -95157.38876550064, -76836.33438781911, -37806.03114438429, -64787.73829790811, -71826.95082747351, -0.106, 1.004, 0.054, 192.0, 0.0, 0.0, 0.0, 0.0, 0.0, 0.0, 0.0, 0.0, 0.0, 1.6962774814527357E9, 0.0, 2023-10-02 16:11:21.452
215.0, -7942.37946777099, -17283.866379721927, -75994.00889802085, -95157.58993120074, -76833.04868138417, -37799.68324895898, -64787.02304208554, -71822.97221696046, -0.106, 1.004, 0.054, 192.0, 0.0, 0.0, 0.0, 0.0, 0.0, 0.0, 0.0, 0.0, 0.0, 1.6962774814527686E9, 0.0, 2023-10-02 16:11:21.452
216.0, -7954.650575476954, -17294.394051360377, -76007.21877899395, -95169.05637610631, -76842.90580068897, -37803.37128679411, -64792.1415915658, -71826.14616467312, -0.11, 1.006, 0.056, 192.0, 252.0, 144.0, 31.0, 112.0, 1.0, 192.0, 0.0, 0.0, 0.0, 1.6962774814528015E9, 0.0, 2023-10-02 16:11:21.452
217.0, -7960.4396772908785, -17297.61270256194, -76014.23722675291, -95170.19631507354, -76840.71532973234, -37813.34016482117, -64798.95887362467, -71830.16947867507, -0.11, 1.006, 0.056, 192.0, 0.0, 0.0, 0.0, 0.0, 0.0, 0.0, 0.0, 0.0, 0.0, 1.6962774814528356E9, 0.0, 2023-10-02 16:11:21.452
218.0, -7949.487322507778, -17284.358118099943, -75995.19354047699, -95158.88633237914, -76834.25567558476, -37797.04574311325, -64789.168809553245, -71812.42219357756, -0.11, 1.006, 0.056, 192.0, 0.0, 0.0, 0.0, 0.0, 0.0, 0.0, 0.0, 0.0, 0.0, 1.6962774814528592E9, 0.0, 2023-10-02 16:11:21.452
219.0, -7948.14621784046, -17284.402821588854, -75995.41705792154, -95162.21674230299, -76837.87665818652, -37782.96414410641, -64786.955986852176, -71810.16466738757, -0.11, 1.006, 0.056, 192.0, 0.0, 0.0, 0.0, 0.0, 0.0, 0.0, 0.0, 0.0, 0.0, 1.6962774814528751E9, 0.0, 2023-10-02 16:11:21.452
220.0, -7955.566996999622, -17293.432926348796, -76012.2926249853, -95167.20118131653, -76836.60260875257, -37789.40144650954, -64787.89476011929, -71810.99168193241, -0.11, 1.006, 0.056, 192.0, 0.0, 0.0, 0.0, 0.0, 0.0, 0.0, 0.0, 0.0, 0.0, 1.6962774814528944E9, 0.0, 2023-10-02 16:11:21.452
221.0, -7960.171456357415, -17297.94797872877, -76022.61913092365, -95165.39069001564, -76828.6900912154, -37797.35866753563, -64780.29516700449, -71804.95671092949, -0.11, 1.006, 0.056, 192.0, 0.0, 0.0, 0.0, 0.0, 0.0, 0.0, 0.0, 0.0, 0.0, 1.6962774814529116E9, 0.0, 2023-10-02 16:11:21.452
222.0, -7960.260863335236, -17298.0820891955, -76009.20808425047, -95166.5082772384, -76821.64929171196, -37784.99815285184, -64763.8889865743, -71795.68073698053, -0.11, 1.006, 0.056, 192.0, 0.0, 0.0, 0.0, 0.0, 0.0, 0.0, 0.0, 0.0, 0.0, 1.6962774814529252E9, 0.0, 2023-10-02 16:11:21.452
223.0, -7954.941148154873, -17292.963539715238, -76003.77661034782, -95165.36833827119, -76818.8329719106, -37770.916553844996, -64755.32826844791, -71790.40572528908, -0.11, 1.006, 0.056, 192.0, 0.0, 0.0, 0.0, 0.0, 0.0, 0.0, 0.0, 0.0, 0.0, 1.6962774814529383E9, 0.0, 2023-10-02 16:11:21.452
224.0, -7959.702069723853, -17299.37849037391, -76014.95248257548, -95170.03985286235, -76819.9282073889, -37769.91072534451, -64750.522643390024, -71786.44946652048, -0.11, 1.006, 0.056, 192.0, 0.0, 0.0, 0.0, 0.0, 0.0, 0.0, 0.0, 0.0, 0.0, 1.6962774814529548E9, 0.0, 2023-10-02 16:11:21.452
225.0, -7969.715651239831, -17311.04610097958, -76028.2964740153, -95177.34887329923, -76819.50352424425, -37773.643466668545, -64743.99593400907, -71790.76335320037, -0.11, 1.006, 0.056, 192.0, 0.0, 0.0, 0.0, 0.0, 0.0, 0.0, 0.0, 0.0, 0.0, 1.6962774814529774E9, 0.0, 2023-10-02 16:11:21.452
226.0, -7973.761316986242, -17318.33276967201, -76027.98354959293, -95182.93680941306, -76818.29653004368, -37772.52587944578, -64729.51200360203, -71789.13167585513, -0.116, 0.998, 0.062, 192.0, 252.0, 96.0, 31.0, 48.0, 1.0, 240.0, 0.0, 0.0, 0.0, 1.6962774814529967E9, 0.0, 2023-10-02 16:11:21.452
227.0, -7969.447430306367, -17318.24336269419, -76028.47528797094, -95184.27791408038, -76811.52395147372, -37765.41802470899, -64719.967808719615, -71785.39893453108, -0.116, 0.998, 0.062, 192.0, 0.0, 0.0, 0.0, 0.0, 0.0, 0.0, 0.0, 0.0, 0.0, 1.6962774814530983E9, 0.0, 2023-10-02 16:11:21.453
228.0, -7969.358023328546, -17318.936266772303, -76033.41502349556, -95184.38967280266, -76809.66875668392, -37772.32471374568, -64718.067910440914, -71789.46695202196, -0.116, 0.998, 0.062, 192.0, 0.0, 0.0, 0.0, 0.0, 0.0, 0.0, 0.0, 0.0, 0.0, 1.6962774814531205E9, 0.0, 2023-10-02 16:11:21.453
229.0, -7977.896389710473, -17326.42410116483, -76042.44512825551, -95191.60928626172, -76812.7309456743, -37791.748379677345, -64719.900753486254, -71800.66517599406, -0.116, 0.998, 0.062, 192.0, 0.0, 0.0, 0.0, 0.0, 0.0, 0.0, 0.0, 0.0, 0.0, 1.696277481453142E9, 0.0, 2023-10-02 16:11:21.453
230.0, -7982.858476979552, -17328.927496543827, -76039.87467764315, -95197.55485028683, -76813.6250154525, -37802.05253387124, -64728.774396035005, -71811.37166158816, -0.116, 0.998, 0.062, 192.0, 0.0, 0.0, 0.0, 0.0, 0.0, 0.0, 0.0, 0.0, 0.0, 1.6962774814531617E9, 0.0, 2023-10-02 16:11:21.453
231.0, -7970.565017529133, -17314.465917881244, -76022.61913092365, -95192.19043161755, -76809.35583226154, -37791.03312385477, -64731.009570480535, -71810.72346099895, -0.116, 0.998, 0.062, 192.0, 0.0, 0.0, 0.0, 0.0, 0.0, 0.0, 0.0, 0.0, 0.0, 1.69627748145318E9, 0.0, 2023-10-02 16:11:21.453
232.0, -7966.4299448049005, -17312.588371346996, -76028.43058448203, -95194.5150130409, -76820.30818704465, -37791.681324443976, -64752.31078294644, -71821.27348438186, -0.116, 0.998, 0.062, 192.0, 0.0, 0.0, 0.0, 0.0, 0.0, 0.0, 0.0, 0.0, 0.0, 1.696277481453195E9, 0.0, 2023-10-02 16:11:21.453
233.0, -7958.986813901283, -17305.413461376844, -76033.5491339623, -95180.74633845643, -76812.82035265212, -37805.56175775072, -64764.917166819236, -71821.49700182641, -0.116, 0.998, 0.062, 192.0, 0.0, 0.0, 0.0, 0.0, 0.0, 0.0, 0.0, 0.0, 0.0, 1.6962774814532127E9, 0.0, 2023-10-02 16:11:21.453
234.0, -7945.553415483644, -17290.95188271426, -76011.59972090718, -95163.60255045923, -76807.54534096067, -37801.69490595996, -64762.05614352896, -71809.51646679836, -0.116, 0.998, 0.062, 192.0, 0.0, 0.0, 0.0, 0.0, 0.0, 0.0, 0.0, 0.0, 0.0, 1.6962774814532301E9, 0.0, 2023-10-02 16:11:21.453
235.0, -7936.076275834594, -17280.580673286997, -75992.7348485869, -95160.98739635794, -76819.50352424425, -37787.09921683064, -64769.901605832776, -71806.946016186, -0.116, 0.998, 0.062, 192.0, 0.0, 0.0, 0.0, 0.0, 0.0, 0.0, 0.0, 0.0, 0.0, 1.6962774814532487E9, 0.0, 2023-10-02 16:11:21.453
236.0, -7929.326049009092, -17272.265824349623, -75996.06525851075, -95159.73569866845, -76824.42090802442, -37786.160443563516, -64784.832571128914, -71818.85949598068, -0.112, 0.996, 0.06, 192.0, 252.0, 128.0, 31.0, 32.0, 1.0, 224.0, 0.0, 0.0, 0.0, 1.696277481453267E9, 0.0, 2023-10-02 16:11:21.453
237.0, -7926.33091525208, -17268.197806858756, -76002.72607835842, -95152.76195439839, -76823.2362655683, -37800.24204257036, -64790.666376431756, -71823.35219661621, -0.112, 0.996, 0.06, 192.0, 0.0, 0.0, 0.0, 0.0, 0.0, 0.0, 0.0, 0.0, 0.0, 1.6962774814532864E9, 0.0, 2023-10-02 16:11:21.453
238.0, -7927.247336774748, -17267.817827203016, -75999.66388936805, -95154.55009395482, -76827.84072492609, -37806.94756590695, -64789.54878920899, -71820.44646983701, -0.112, 0.996, 0.06, 192.0, 0.0, 0.0, 0.0, 0.0, 0.0, 0.0, 0.0, 0.0, 0.0, 1.696277481453303E9, 0.0, 2023-10-02 16:11:21.453
239.0, -7921.435883216368, -17264.956803912737, -75995.79703757729, -95158.23813178994, -76828.57833249311, -37804.8241501837, -64796.388423012315, -71824.22391464996, -0.112, 0.996, 0.06, 192.0, 0.0, 0.0, 0.0, 0.0, 0.0, 0.0, 0.0, 0.0, 0.0, 1.696277481453338E9, 0.0, 2023-10-02 16:11:21.453
240.0, -7910.036493544161, -17254.451484018744, -75991.95253753097, -95147.66575666258, -76818.81062016614, -37800.80083618174, -64786.955986852176, -71817.45133608, -0.112, 0.996, 0.06, 192.0, 0.0, 0.0, 0.0, 0.0, 0.0, 0.0, 0.0, 0.0, 0.0, 1.6962774814533582E9, 0.0, 2023-10-02 16:11:21.453
241.0, -7922.888746605962, -17266.633184746886, -76005.2965289708, -95157.45582073402, -76829.47240227132, -37809.070981630204, -64789.593492697895, -71822.90516172709, -0.112, 0.996, 0.06, 192.0, 0.0, 0.0, 0.0, 0.0, 0.0, 0.0, 0.0, 0.0, 0.0, 1.6962774819320192E9, 0.0, 2023-10-02 16:11:21.932
242.0, -7929.840139131563, -17273.830446461492, -76015.75714537587, -95159.02044284588, -76836.96023666386, -37815.75415322234, -64792.610978199365, -71822.54753381581, -0.112, 0.996, 0.06, 192.0, 0.0, 0.0, 0.0, 0.0, 0.0, 0.0, 0.0, 0.0, 0.0, 1.6962774819321525E9, 0.0, 2023-10-02 16:11:21.932
243.0, -7921.592345427555, -17264.3756585569, -76000.22268297944, -95148.60452992971, -76820.91168414494, -37798.54330999176, -64773.522588434535, -71804.17439987355, -0.112, 0.996, 0.06, 192.0, 0.0, 0.0, 0.0, 0.0, 0.0, 0.0, 0.0, 0.0, 0.0, 1.6962774819321642E9, 0.0, 2023-10-02 16:11:21.932
244.0, -7920.675923904887, -17265.582652757486, -75995.30529919926, -95151.3090910088, -76820.19642832238, -37779.5666789492, -64763.6878208742, -71795.1442951136, -0.112, 0.996, 0.06, 192.0, 0.0, 0.0, 0.0, 0.0, 0.0, 0.0, 0.0, 0.0, 0.0, 1.6962774819321756E9, 0.0, 2023-10-02 16:11:21.932
245.0, -7928.700200164342, -17273.4281150613, -76006.6376336381, -95154.66185267709, -76822.07397485661, -37783.14295806205, -64758.39045743829, -71798.0947253817, -0.112, 0.996, 0.06, 192.0, 0.0, 0.0, 0.0, 0.0, 0.0, 0.0, 0.0, 0.0, 0.0, 1.696277481932187E9, 0.0, 2023-10-02 16:11:21.932
246.0, -7930.3318775095795, -17272.46699004972, -76007.79992434978, -95148.40336422961, -76814.58614046409, -37786.40631275252, -64741.42548339671, -71792.3950305456, -0.112, 1.004, 0.058, 192.0, 252.0, 128.0, 31.0, 96.0, 1.0, 208.0, 0.0, 0.0, 0.0, 1.6962774819321983E9, 0.0, 2023-10-02 16:11:21.932
247.0, -7925.369790240502, -17267.437847547277, -75998.00986027835, -95146.63757641763, -76814.34027127508, -37771.78827187875, -64728.349712890355, -71782.11322809616, -0.112, 1.004, 0.058, 192.0, 0.0, 0.0, 0.0, 0.0, 0.0, 0.0, 0.0, 0.0, 0.0, 1.6962774819322107E9, 0.0, 2023-10-02 16:11:21.932
248.0, -7920.13948203796, -17265.56030101303, -75994.52298814333, -95148.93980609653, -76813.3791462635, -37760.59004790665, -64724.304047143945, -71781.57678622923, -0.112, 1.004, 0.058, 192.0, 0.0, 0.0, 0.0, 0.0, 0.0, 0.0, 0.0, 0.0, 0.0, 1.6962774819322217E9, 0.0, 2023-10-02 16:11:21.932
249.0, -7930.935374609873, -17278.74783024166, -76006.70468887147, -95161.52383822488, -76821.91751264544, -37769.15076603303, -64732.59654433686, -71791.81388518977, -0.112, 1.004, 0.058, 192.0, 0.0, 0.0, 0.0, 0.0, 0.0, 0.0, 0.0, 0.0, 0.0, 1.696277481932233E9, 0.0, 2023-10-02 16:11:21.932
250.0, -7937.819711902108, -17288.828466991006, -76018.30524424378, -95166.10594583821, -76813.51325673024, -37786.27220228579, -64726.71803554512, -71794.33963231322, -0.112, 1.004, 0.058, 192.0, 0.0, 0.0, 0.0, 0.0, 0.0, 0.0, 0.0, 0.0, 0.0, 1.696277481932244E9, 0.0, 2023-10-02 16:11:21.932
251.0, -7934.645764189454, -17288.51554256863, -76011.39855520708, -95166.41887026059, -76803.29850951416, -37785.19931855194, -64713.93283771668, -71788.81875143276, -0.112, 1.004, 0.058, 192.0, 0.0, 0.0, 0.0, 0.0, 0.0, 0.0, 0.0, 0.0, 0.0, 1.696277481932255E9, 0.0, 2023-10-02 16:11:21.932
252.0, -7929.661325175921, -17283.799324488562, -76007.2411307384, -95168.85521040621, -76804.50550371474, -37778.04676032624, -64709.775413248, -71783.96842288596, -0.112, 1.004, 0.058, 192.0, 0.0, 0.0, 0.0, 0.0, 0.0, 0.0, 0.0, 0.0, 0.0, 1.696277481932266E9, 0.0, 2023-10-02 16:11:21.932
253.0, -7930.220118787303, -17284.447525077765, -76010.68329938452, -95171.20214357402, -76803.41026823643, -37778.98553359336, -64710.736538259574, -71787.52235025434, -0.112, 1.004, 0.058, 192.0, 0.0, 0.0, 0.0, 0.0, 0.0, 0.0, 0.0, 0.0, 0.0, 1.6962774819322767E9, 0.0, 2023-10-02 16:11:21.932
254.0, -7937.126807823994, -17289.431964091298, -76018.59581692169, -95175.13605059816, -76806.00307059326, -37795.07878960118, -64716.48093658459, -71800.75458297189, -0.112, 1.004, 0.058, 192.0, 0.0, 0.0, 0.0, 0.0, 0.0, 0.0, 0.0, 0.0, 0.0, 1.69627748193229E9, 0.0, 2023-10-02 16:11:21.932
255.0, -7941.552453226144, -17293.097650181968, -76020.31690124475, -95183.62971349117, -76812.5297799742, -37804.84650192815, -64726.94155298967, -71812.93628370002, -0.112, 1.004, 0.058, 192.0, 0.0, 0.0, 0.0, 0.0, 0.0, 0.0, 0.0, 0.0, 0.0, 1.6962774819323013E9, 0.0, 2023-10-02 16:11:21.932
0.0, -7930.71185716532, -17283.240530877178, -76015.66773839804, -95183.56265825781, -76812.28391078519, -37799.86206291462, -64735.25640192705, -71823.66512103858, -0.11, 1.002, 0.058, 192.0, 252.0, 144.0, 31.0, 80.0, 1.0, 208.0, 0.0, 0.0, 0.0, 1.6962774819323132E9, 0.0, 2023-10-02 16:11:21.932
1.0, -7924.743941395753, -17274.85862670644, -76014.28193024182, -95179.89697216713, -76810.8310473956, -37800.264394314814, -64746.65579159925, -71827.33080712924, -0.11, 1.002, 0.058, 192.0, 0.0, 0.0, 0.0, 0.0, 0.0, 0.0, 0.0, 0.0, 0.0, 1.696277481932338E9, 0.0, 2023-10-02 16:11:21.932
2.0, -7928.18611004187, -17272.712859238727, -76017.83585761022, -95174.93488489806, -76812.86505614103, -37816.04472590026, -64763.86663482984, -71834.3045513993, -0.11, 1.002, 0.058, 192.0, 0.0, 0.0, 0.0, 0.0, 0.0, 0.0, 0.0, 0.0, 0.0, 1.6962774819323492E9, 0.0, 2023-10-02 16:11:21.932
3.0, -7924.3416099955575, -17266.02968764659, -76011.84559009619, -95167.53645748335, -76811.4792479848, -37818.168141623515, -64769.43221919921, -71834.9527519885, -0.11, 1.002, 0.058, 192.0, 0.0, 0.0, 0.0, 0.0, 0.0, 0.0, 0.0, 0.0, 0.0, 1.6962774819323604E9, 0.0, 2023-10-02 16:11:21.932
4.0, -7917.747845381242, -17261.581690499985, -75999.8427033237, -95167.93878888355, -76815.05552709765, -37808.84746418565, -64772.337945978405, -71835.51154559989, -0.11, 1.002, 0.058, 192.0, 0.0, 0.0, 0.0, 0.0, 0.0, 0.0, 0.0, 0.0, 0.0, 1.696277481932376E9, 0.0, 2023-10-02 16:11:21.932
5.0, -7920.474758204789, -17264.710934723727, -76005.5871016487, -95174.0184633754, -76826.20904758085, -37808.91451941902, -64787.514780463556, -71841.77003404737, -0.11, 1.002, 0.058, 192.0, 0.0, 0.0, 0.0, 0.0, 0.0, 0.0, 0.0, 0.0, 0.0, 1.6962774819323866E9, 0.0, 2023-10-02 16:11:21.932
6.0, -7930.108360065027, -17271.014126660124, -76016.941787832, -95176.85713492121, -76836.80377445267, -37817.02820265629, -64797.12603057934, -71845.4580718825, -0.11, 1.002, 0.058, 192.0, 0.0, 0.0, 0.0, 0.0, 0.0, 0.0, 0.0, 0.0, 0.0, 1.6962774819323974E9, 0.0, 2023-10-02 16:11:21.932
7.0, -7930.1530635539375, -17269.56126327053, -76015.86890409814, -95168.4081755171, -76828.06424237064, -37820.425667813506, -64790.934597365216, -71836.33856014474, -0.11, 1.002, 0.058, 192.0, 0.0, 0.0, 0.0, 0.0, 0.0, 0.0, 0.0, 0.0, 0.0, 1.6962774819324074E9, 0.0, 2023-10-02 16:11:21.932
8.0, -7920.362999482513, -17260.553510255042, -75999.70859285696, -95160.51800972439, -76820.19642832238, -37806.7240484624, -64780.47398096013, -71823.68747278303, -0.11, 1.002, 0.058, 192.0, 0.0, 0.0, 0.0, 0.0, 0.0, 0.0, 0.0, 0.0, 0.0, 1.6962774819324172E9, 0.0, 2023-10-02 16:11:21.932
9.0, -7915.557374424622, -17258.02776313159, -75998.14397074509, -95159.98156785745, -76820.55405623365, -37794.56469947871, -64775.04250705749, -71818.03248143583, -0.11, 1.002, 0.058, 192.0, 0.0, 0.0, 0.0, 0.0, 0.0, 0.0, 0.0, 0.0, 0.0, 1.6962774819324267E9, 0.0, 2023-10-02 16:11:21.932
10.0, -7916.116168036005, -17262.811036445026, -76004.06718302575, -95158.08166957875, -76816.46368699834, -37797.73864719136, -64767.24174824259, -71814.38914708962, -0.10200000000000001, 1.0, 0.064, 192.0, 252.0, 208.0, 31.0, 64.0, 2.0, 0.0, 0.0, 0.0, 0.0, 1.6962774819324365E9, 0.0, 2023-10-02 16:11:21.932
11.0, -7922.70993265032, -17268.868359192416, -76008.62693889462, -95161.6132452027, -76816.7766114207, -37805.96408915092, -64757.921070804725, -71812.3998418331, -0.10200000000000001, 1.0, 0.064, 192.0, 0.0, 0.0, 0.0, 0.0, 0.0, 0.0, 0.0, 0.0, 0.0, 1.6962774819324467E9, 0.0, 2023-10-02 16:11:21.932
12.0, -7922.754636139231, -17267.929585925292, -76005.27417722633, -95163.20021905903, -76815.6813759424, -37800.57731873719, -64749.31564918943, -71807.70597549749, -0.10200000000000001, 1.0, 0.064, 192.0, 0.0, 0.0, 0.0, 0.0, 0.0, 0.0, 0.0, 0.0, 0.0, 1.6962774819324565E9, 0.0, 2023-10-02 16:11:21.932
13.0, -7925.034514073672, -17269.360097570432, -76001.3849736911, -95168.1623063281, -76819.39176552198, -37790.74255117685, -64745.64996309877, -71807.32599584175, -0.10200000000000001, 1.0, 0.064, 192.0, 0.0, 0.0, 0.0, 0.0, 0.0, 0.0, 0.0, 0.0, 0.0, 1.696277481932466E9, 0.0, 2023-10-02 16:11:21.932
14.0, -7925.2803832626805, -17269.33774582598, -76007.33053771622, -95163.42373650358, -76813.11092533004, -37792.374228522094, -64733.69177981518, -71796.41834454755, -0.10200000000000001, 1.0, 0.064, 192.0, 0.0, 0.0, 0.0, 0.0, 0.0, 0.0, 0.0, 0.0, 0.0, 1.696277481932476E9, 0.0, 2023-10-02 16:11:21.932
15.0, -7931.315354265614, -17274.545702284064, -76009.16338076156, -95159.93686436854, -76809.10996307254, -37798.90093790304, -64722.47120409861, -71790.15985610007, -0.10200000000000001, 1.0, 0.064, 192.0, 0.0, 0.0, 0.0, 0.0, 0.0, 0.0, 0.0, 0.0, 0.0, 1.6962774819324856E9, 0.0, 2023-10-02 16:11:21.932
16.0, -7936.4339037458785, -17276.75852498514, -76002.56961614724, -95160.87563763568, -76812.21685555183, -37797.62688846909, -64716.21271565113, -71786.40476303158, -0.10200000000000001, 1.0, 0.064, 192.0, 0.0, 0.0, 0.0, 0.0, 0.0, 0.0, 0.0, 0.0, 0.0, 1.696277481932504E9, 0.0, 2023-10-02 16:11:21.932
17.0, -7930.957726354329, -17270.231815604187, -75993.51715964284, -95154.34892825472, -76808.99820435027, -37783.366475506606, -64703.4722213116, -71777.28525129381, -0.10200000000000001, 1.0, 0.064, 192.0, 0.0, 0.0, 0.0, 0.0, 0.0, 0.0, 0.0, 0.0, 0.0, 1.6962774819325137E9, 0.0, 2023-10-02 16:11:21.932
18.0, -7935.42807524539, -17274.03161216159, -75998.188674234, -95151.95729159801, -76812.21685555183, -37781.62303943909, -64698.80070672044, -71776.32412628224, -0.10200000000000001, 1.0, 0.064, 192.0, 0.0, 0.0, 0.0, 0.0, 0.0, 0.0, 0.0, 0.0, 0.0, 1.6962774819325233E9, 0.0, 2023-10-02 16:11:21.932
19.0, -7937.059752590627, -17276.84793196296, -75995.50646489936, -95142.8601316047, -76803.96906184782, -37793.8717954006, -64691.938721172664, -71773.37369601414, -0.10200000000000001, 1.0, 0.064, 192.0, 0.0, 0.0, 0.0, 0.0, 0.0, 0.0, 0.0, 0.0, 0.0, 1.696277481932533E9, 0.0, 2023-10-02 16:11:21.932
20.0, -7936.858586890529, -17276.71382149623, -75985.42582815002, -95140.71436413699, -76805.86896012652, -37793.558870978224, -64690.35174731634, -71770.55737621276, -0.1, 1.006, 0.07, 192.0, 252.0, 224.0, 31.0, 112.0, 2.0, 48.0, 0.0, 0.0, 0.0, 1.6962774819325423E9, 0.0, 2023-10-02 16:11:21.932
