%OpenBCI Raw EEG Data
%Number of channels = 8
%Sample Rate = 250 Hz
%Board = OpenBCI_GUI$BoardCytonSerial
Sample Index, EXG Channel 0, EXG Channel 1, EXG Channel 2, EXG Channel 3, EXG Channel 4, EXG Channel 5, EXG Channel 6, EXG Channel 7, Accel Channel 0, Accel Channel 1, Accel Channel 2, Other, Other, Other, Other, Other, Other, Other, Analog Channel 0, Analog Channel 1, Analog Channel 2, Timestamp, Other, Timestamp (Formatted)
66.0, 90669.53845853072, 187500.0, 3976.397690343582, 30959.31183806799, 187500.0, 187500.0, -187500.02235174447, 54737.343458812655, 0.0, 0.0, 0.0, 192.0, 0.0, 0.0, 0.0, 0.0, 0.0, 0.0, 0.0, 0.0, 0.0, 1.6989581020508523E9, 0.0, 2023-11-02 16:48:22.050
67.0, 90722.19916846743, 187500.0, 3986.746548026389, 30962.88811718084, 187500.0, 187500.0, -187500.02235174447, 54741.16560711451, 0.0, 0.0, 0.0, 192.0, 0.0, 0.0, 0.0, 0.0, 0.0, 0.0, 0.0, 0.0, 0.0, 1.6989581020508797E9, 0.0, 2023-11-02 16:48:22.050
68.0, 90609.88165257951, 187500.0, 4013.1216064836512, 30988.100884926425, 187500.0, 187500.0, -187500.02235174447, 54766.95952021593, 0.0, 0.0, 0.0, 192.0, 0.0, 0.0, 0.0, 0.0, 0.0, 0.0, 0.0, 0.0, 0.0, 1.6989581020508912E9, 0.0, 2023-11-02 16:48:22.050
69.0, 90563.45707934584, 187500.0, 3988.802908516277, 30967.179652116258, 187500.0, 187500.0, -187500.02235174447, 54747.64761300655, 0.0, 0.0, 0.0, 192.0, 0.0, 0.0, 0.0, 0.0, 0.0, 0.0, 0.0, 0.0, 0.0, 1.6989581020509212E9, 0.0, 2023-11-02 16:48:22.050
70.0, 90675.66283651147, 187500.0, 3969.781573984811, 30953.88036416535, 187500.0, 187500.0, -187500.02235174447, 54729.162720342014, 0.0, 0.0, 0.0, 192.0, 0.0, 0.0, 0.0, 0.0, 0.0, 0.0, 0.0, 0.0, 0.0, 1.698958102050952E9, 0.0, 2023-11-02 16:48:22.050
71.0, 90733.84442732864, 187500.0, 3992.379187629126, 30970.040675406537, 187500.0, 187500.0, -187500.02235174447, 54746.910005439524, 0.0, 0.0, 0.0, 192.0, 0.0, 0.0, 0.0, 0.0, 0.0, 0.0, 0.0, 0.0, 0.0, 1.6989581020509791E9, 0.0, 2023-11-02 16:48:22.050
72.0, 90616.34130672709, 187500.0, 4017.7484175859, 30993.04062045105, 187500.0, 187500.0, -187500.02235174447, 54767.25009289385, 0.0, 0.0, 0.0, 192.0, 0.0, 0.0, 0.0, 0.0, 0.0, 0.0, 0.0, 0.0, 0.0, 1.6989581020510051E9, 0.0, 2023-11-02 16:48:22.051
73.0, 90523.89449165994, 187500.0, 4004.4938331239027, 30985.79865524753, 187500.0, 187500.0, -187500.02235174447, 54755.582482288184, -0.076, 0.978, -0.074, 192.0, 253.0, 160.0, 30.0, 144.0, 253.0, 176.0, 0.0, 0.0, 0.0, 1.6989581020510147E9, 0.0, 2023-11-02 16:48:22.051
74.0, 90622.80096087468, 187500.0, 3975.078937420719, 30961.658771235798, 187500.0, 187500.0, -187500.02235174447, 54734.34832505564, -0.076, 0.978, -0.074, 192.0, 0.0, 0.0, 0.0, 0.0, 0.0, 0.0, 0.0, 0.0, 0.0, 1.698958102051026E9, 0.0, 2023-11-02 16:48:22.051
75.0, 90729.59759588214, 187500.0, 3972.0167484303415, 30954.55091649901, 187500.0, 187500.0, -187500.02235174447, 54731.532005254274, -0.076, 0.978, -0.074, 192.0, 0.0, 0.0, 0.0, 0.0, 0.0, 0.0, 0.0, 0.0, 0.0, 1.6989581020510356E9, 0.0, 2023-11-02 16:48:22.051
76.0, 90653.15462984498, 187500.0, 3997.944771998498, 30976.14270164284, 187500.0, 187500.0, -187500.02235174447, 54753.07908690919, -0.076, 0.978, -0.074, 192.0, 0.0, 0.0, 0.0, 0.0, 0.0, 0.0, 0.0, 0.0, 0.0, 1.6989581020510452E9, 0.0, 2023-11-02 16:48:22.051
77.0, 90552.52707630719, 187500.0, 4019.670667609056, 30997.533321086565, 187500.0, 187500.0, -187500.02235174447, 54771.76514527383, -0.076, 0.978, -0.074, 192.0, 0.0, 0.0, 0.0, 0.0, 0.0, 0.0, 0.0, 0.0, 0.0, 1.6989581020510552E9, 0.0, 2023-11-02 16:48:22.051
78.0, 90637.41900174845, 187500.0, 4030.8912433256205, 31014.677109083786, 187500.0, 187500.0, -187500.02235174447, 54790.808831549744, -0.076, 0.978, -0.074, 192.0, 0.0, 0.0, 0.0, 0.0, 0.0, 0.0, 0.0, 0.0, 0.0, 1.6989581020510647E9, 0.0, 2023-11-02 16:48:22.051
79.0, 90800.40792231655, 187500.0, 3979.0798996782187, 30966.687913738242, 187500.0, 187500.0, -187500.02235174447, 54740.36094431412, -0.076, 0.978, -0.074, 192.0, 0.0, 0.0, 0.0, 0.0, 0.0, 0.0, 0.0, 0.0, 0.0, 1.6989581020510745E9, 0.0, 2023-11-02 16:48:22.051
80.0, 90781.677160463, 187500.0, 3973.7601844978553, 30951.779300186554, 187500.0, 187500.0, -187500.02235174447, 54722.524252238785, -0.076, 0.978, -0.074, 192.0, 0.0, 0.0, 0.0, 0.0, 0.0, 0.0, 0.0, 0.0, 0.0, 1.6989581020510843E9, 0.0, 2023-11-02 16:48:22.051
81.0, 90667.48209804084, 187500.0, 3975.458917076459, 30953.433329276246, 187500.0, 187500.0, -187500.02235174447, 54722.97128712789, -0.076, 0.978, -0.074, 192.0, 0.0, 0.0, 0.0, 0.0, 0.0, 0.0, 0.0, 0.0, 0.0, 1.6989581020510948E9, 0.0, 2023-11-02 16:48:22.051
82.0, 90697.6569530555, 187500.0, 3963.724251237423, 30947.532468740046, 187500.0, 187500.0, -187500.02235174447, 54714.11999632359, -0.076, 0.978, -0.074, 192.0, 0.0, 0.0, 0.0, 0.0, 0.0, 0.0, 0.0, 0.0, 0.0, 1.698958102051238E9, 0.0, 2023-11-02 16:48:22.051
83.0, 90828.8393412637, 187500.0, 3954.940015666487, 30941.698663437208, 187500.0, 187500.0, -187500.02235174447, 54709.87316487708, -0.084, 0.988, -0.068, 192.0, 253.0, 96.0, 30.0, 224.0, 253.0, 224.0, 0.0, 0.0, 0.0, 1.6989581020512493E9, 0.0, 2023-11-02 16:48:22.051
84.0, 90815.3388876127, 187500.0, 4008.9194785260534, 30986.335097114457, 187500.0, 187500.0, -187500.02235174447, 54752.25207236434, -0.084, 0.988, -0.068, 192.0, 0.0, 0.0, 0.0, 0.0, 0.0, 0.0, 0.0, 0.0, 0.0, 1.6989581020512605E9, 0.0, 2023-11-02 16:48:22.051
85.0, 90704.92127000347, 187500.0, 4012.7639785723663, 30995.342850129946, 187500.0, 187500.0, -187500.02235174447, 54762.80209574725, -0.084, 0.988, -0.068, 192.0, 0.0, 0.0, 0.0, 0.0, 0.0, 0.0, 0.0, 0.0, 0.0, 1.6989581020512705E9, 0.0, 2023-11-02 16:48:22.051
86.0, 90720.32162193318, 187500.0, 3983.282027635816, 30969.54893702852, 187500.0, 187500.0, -187500.02235174447, 54734.683601222474, -0.084, 0.988, -0.068, 192.0, 0.0, 0.0, 0.0, 0.0, 0.0, 0.0, 0.0, 0.0, 0.0, 1.69895810205128E9, 0.0, 2023-11-02 16:48:22.051
87.0, 90858.47775441143, 187500.0, 3962.4725535479256, 30948.4041867738, 187500.0, 187500.0, -187500.02235174447, 54714.3658655126, -0.084, 0.988, -0.068, 192.0, 0.0, 0.0, 0.0, 0.0, 0.0, 0.0, 0.0, 0.0, 0.0, 1.6989581020512896E9, 0.0, 2023-11-02 16:48:22.051
88.0, 90878.21434476547, 187500.0, 3992.7591672848666, 30970.84533820693, 187500.0, 187500.0, -187500.02235174447, 54738.50574952433, -0.084, 0.988, -0.068, 192.0, 0.0, 0.0, 0.0, 0.0, 0.0, 0.0, 0.0, 0.0, 0.0, 1.698958102051302E9, 0.0, 2023-11-02 16:48:22.051
89.0, 90750.89880834804, 187500.0, 4001.2751819223386, 30972.901698696816, 187500.0, 187500.0, -187500.02235174447, 54743.82546470469, -0.084, 0.988, -0.068, 192.0, 0.0, 0.0, 0.0, 0.0, 0.0, 0.0, 0.0, 0.0, 0.0, 1.6989581020513124E9, 0.0, 2023-11-02 16:48:22.051
90.0, 90702.01554322429, 187500.0, 4016.2508507073944, 30991.453646594724, 187500.0, 187500.0, -187500.02235174447, 54761.48334282439, -0.084, 0.988, -0.068, 192.0, 0.0, 0.0, 0.0, 0.0, 0.0, 0.0, 0.0, 0.0, 0.0, 1.698958102051322E9, 0.0, 2023-11-02 16:48:22.051
91.0, 90818.69164928098, 187500.0, 4007.377208158637, 30990.000783205127, 187500.0, 187500.0, -187500.02235174447, 54755.873054966105, -0.084, 0.988, -0.068, 192.0, 0.0, 0.0, 0.0, 0.0, 0.0, 0.0, 0.0, 0.0, 0.0, 1.6989581020513325E9, 0.0, 2023-11-02 16:48:22.051
92.0, 90873.14049877411, 187500.0, 3982.946751468987, 30962.485785780646, 187500.0, 187500.0, -187500.02235174447, 54729.05096161973, -0.084, 0.988, -0.068, 192.0, 0.0, 0.0, 0.0, 0.0, 0.0, 0.0, 0.0, 0.0, 0.0, 1.698958102051342E9, 0.0, 2023-11-02 16:48:22.051
93.0, 90756.19617178394, 187500.0, 3991.8650975066544, 30966.754968971607, 187500.0, 187500.0, -187500.02235174447, 54734.72830471138, -0.084, 0.988, -0.07200000000000001, 192.0, 253.0, 96.0, 30.0, 224.0, 253.0, 192.0, 0.0, 0.0, 0.0, 1.6989581020513518E9, 0.0, 2023-11-02 16:48:22.051
94.0, 90691.5549268192, 187500.0, 3972.463783319448, 30950.147622841316, 187500.0, 187500.0, -187500.02235174447, 54719.84204290415, -0.084, 0.988, -0.07200000000000001, 192.0, 0.0, 0.0, 0.0, 0.0, 0.0, 0.0, 0.0, 0.0, 0.0, 1.6989581020513625E9, 0.0, 2023-11-02 16:48:22.051
95.0, 90807.7392944979, 187500.0, 3949.7320592084006, 30932.959131355183, 187500.0, 187500.0, -187500.02235174447, 54703.569972940684, -0.084, 0.988, -0.07200000000000001, 192.0, 0.0, 0.0, 0.0, 0.0, 0.0, 0.0, 0.0, 0.0, 0.0, 1.6989581020513723E9, 0.0, 2023-11-02 16:48:22.051
96.0, 90896.56512696328, 187500.0, 3938.2432625583724, 30919.21280851517, 187500.0, 187500.0, -187500.02235174447, 54688.14726926652, -0.084, 0.988, -0.07200000000000001, 192.0, 0.0, 0.0, 0.0, 0.0, 0.0, 0.0, 0.0, 0.0, 0.0, 1.698958102051382E9, 0.0, 2023-11-02 16:48:22.051
97.0, 90790.30493382274, 187500.0, 3975.2130478874506, 30948.22537281816, 187500.0, 187500.0, -187500.02235174447, 54716.712798680404, -0.084, 0.988, -0.07200000000000001, 192.0, 0.0, 0.0, 0.0, 0.0, 0.0, 0.0, 0.0, 0.0, 0.0, 1.6989581020514257E9, 0.0, 2023-11-02 16:48:22.051
98.0, 90679.35087434661, 187500.0, 3981.9856264574087, 30952.06987286447, 187500.0, 187500.0, -187500.02235174447, 54726.77108368529, -0.084, 0.988, -0.07200000000000001, 192.0, 0.0, 0.0, 0.0, 0.0, 0.0, 0.0, 0.0, 0.0, 0.0, 1.6989581020514364E9, 0.0, 2023-11-02 16:48:22.051
99.0, 90737.97950005287, 187500.0, 3991.4627661064587, 30956.540221755535, 187500.0, 187500.0, -187500.02235174447, 54737.052886134734, -0.084, 0.988, -0.07200000000000001, 192.0, 0.0, 0.0, 0.0, 0.0, 0.0, 0.0, 0.0, 0.0, 0.0, 1.6989581020514464E9, 0.0, 2023-11-02 16:48:22.051
100.0, 90812.6343265336, 187500.0, 3979.9516177119754, 30942.03393960404, 187500.0, 187500.0, -187500.02235174447, 54728.31335405271, -0.084, 0.988, -0.07200000000000001, 192.0, 0.0, 0.0, 0.0, 0.0, 0.0, 0.0, 0.0, 0.0, 0.0, 1.6989581020514565E9, 0.0, 2023-11-02 16:48:22.051
101.0, 90722.7132585899, 187500.0, 3955.208236599951, 30908.707488621178, 187500.0, 187500.0, -187500.02235174447, 54703.45821421841, -0.084, 0.988, -0.07200000000000001, 192.0, 0.0, 0.0, 0.0, 0.0, 0.0, 0.0, 0.0, 0.0, 0.0, 1.6989581020514665E9, 0.0, 2023-11-02 16:48:22.051
102.0, 90597.632896618, 187500.0, 3962.6960709924783, 30905.77941009753, 187500.0, 187500.0, -187500.02235174447, 54711.28132477777, -0.084, 0.988, -0.07200000000000001, 192.0, 0.0, 0.0, 0.0, 0.0, 0.0, 0.0, 0.0, 0.0, 0.0, 1.6989581020514765E9, 0.0, 2023-11-02 16:48:22.051
103.0, 90651.00886237728, 187500.0, 3938.6902974474788, 30883.24885168658, 187500.0, 187500.0, -187500.02235174447, 54692.12587977957, -0.09, 0.982, -0.078, 192.0, 253.0, 48.0, 30.0, 176.0, 253.0, 144.0, 0.0, 0.0, 0.0, 1.6989581020514867E9, 0.0, 2023-11-02 16:48:22.051
104.0, 90767.5732097117, 187500.0, 3950.0896871196855, 30891.429590157222, 187500.0, 187500.0, -187500.02235174447, 54704.911077608005, -0.09, 0.982, -0.078, 192.0, 0.0, 0.0, 0.0, 0.0, 0.0, 0.0, 0.0, 0.0, 0.0, 1.6989581020514972E9, 0.0, 2023-11-02 16:48:22.051
105.0, 90747.5236949353, 187500.0, 3956.862265689643, 30880.67840107422, 187500.0, 187500.0, -187500.02235174447, 54708.57676369867, -0.09, 0.982, -0.078, 192.0, 0.0, 0.0, 0.0, 0.0, 0.0, 0.0, 0.0, 0.0, 0.0, 1.6989581020515249E9, 0.0, 2023-11-02 16:48:22.051
106.0, 90654.40632753448, 187500.0, 3978.5211060668357, 30888.479159889124, 187500.0, 187500.0, -187500.02235174447, 54729.20742383092, -0.09, 0.982, -0.078, 192.0, 0.0, 0.0, 0.0, 0.0, 0.0, 0.0, 0.0, 0.0, 0.0, 1.698958102051535E9, 0.0, 2023-11-02 16:48:22.051
107.0, 90711.47033112888, 187500.0, 3940.4784370039033, 30843.596857022865, 187500.0, 187500.0, -187500.02235174447, 54696.64093215954, -0.09, 0.982, -0.078, 192.0, 0.0, 0.0, 0.0, 0.0, 0.0, 0.0, 0.0, 0.0, 0.0, 1.698958102051545E9, 0.0, 2023-11-02 16:48:22.051
108.0, 90833.55555934377, 187500.0, 3939.271442803317, 30831.14693536126, 187500.0, 187500.0, -187500.02235174447, 54692.88583909105, -0.09, 0.982, -0.078, 192.0, 0.0, 0.0, 0.0, 0.0, 0.0, 0.0, 0.0, 0.0, 0.0, 1.698958102051555E9, 0.0, 2023-11-02 16:48:22.051
109.0, 90801.14552988358, 187500.0, 3956.102306378163, 30833.136240617783, 187500.0, 187500.0, -187500.02235174447, 54706.47569971987, -0.09, 0.982, -0.078, 192.0, 0.0, 0.0, 0.0, 0.0, 0.0, 0.0, 0.0, 0.0, 0.0, 1.6989581020515668E9, 0.0, 2023-11-02 16:48:22.051
110.0, 90664.24109509481, 187500.0, 3960.550303524769, 30826.542476003466, 187500.0, 187500.0, -187500.02235174447, 54712.62242944508, -0.09, 0.982, -0.078, 192.0, 0.0, 0.0, 0.0, 0.0, 0.0, 0.0, 0.0, 0.0, 0.0, 1.698958102051577E9, 0.0, 2023-11-02 16:48:22.051
111.0, 90658.45199328089, 187500.0, 3928.9672886094204, 30791.00320231953, 187500.0, 187500.0, -187500.02235174447, 54685.196838998425, -0.09, 0.982, -0.078, 192.0, 0.0, 0.0, 0.0, 0.0, 0.0, 0.0, 0.0, 0.0, 0.0, 1.698958102051587E9, 0.0, 2023-11-02 16:48:22.051
112.0, 90792.85303269065, 187500.0, 3899.910020817521, 30757.18501295865, 187500.0, 187500.0, -187500.02235174447, 54659.26881543027, -0.09, 0.982, -0.078, 192.0, 0.0, 0.0, 0.0, 0.0, 0.0, 0.0, 0.0, 0.0, 0.0, 1.6989581020515976E9, 0.0, 2023-11-02 16:48:22.051
113.0, 90808.65571602056, 187500.0, 3898.881840572577, 30744.355111641304, 187500.0, 187500.0, -187500.02235174447, 54655.17844619494, -0.084, 0.984, -0.076, 192.0, 253.0, 96.0, 30.0, 192.0, 253.0, 160.0, 0.0, 0.0, 0.0, 1.6989581020516174E9, 0.0, 2023-11-02 16:48:22.051
114.0, 90668.28676084123, 187500.0, 3931.2471665438616, 30770.23843172055, 187500.0, 187500.0, -187500.02235174447, 54681.687615118935, -0.084, 0.984, -0.076, 192.0, 0.0, 0.0, 0.0, 0.0, 0.0, 0.0, 0.0, 0.0, 0.0, 1.6989581020516284E9, 0.0, 2023-11-02 16:48:22.051
115.0, 90625.99726033179, 187500.0, 3939.964346881431, 30785.57172841689, 187500.0, 187500.0, -187500.02235174447, 54694.696330391926, -0.084, 0.984, -0.076, 192.0, 0.0, 0.0, 0.0, 0.0, 0.0, 0.0, 0.0, 0.0, 0.0, 1.6989581020516388E9, 0.0, 2023-11-02 16:48:22.051
116.0, 90757.71609040692, 187500.0, 3934.711686934434, 30784.007106305016, 187500.0, 187500.0, -187500.02235174447, 54694.74103388084, -0.084, 0.984, -0.076, 192.0, 0.0, 0.0, 0.0, 0.0, 0.0, 0.0, 0.0, 0.0, 0.0, 1.6989581020516489E9, 0.0, 2023-11-02 16:48:22.051
117.0, 90831.40979187605, 187500.0, 3946.3792975401043, 30783.515367927, 187500.0, 187500.0, -187500.02235174447, 54700.39602522803, -0.084, 0.984, -0.076, 192.0, 0.0, 0.0, 0.0, 0.0, 0.0, 0.0, 0.0, 0.0, 0.0, 1.698958102051659E9, 0.0, 2023-11-02 16:48:22.051
118.0, 90736.79485759675, 187500.0, 3958.3374808236936, 30785.14704527224, 187500.0, 187500.0, -187500.02235174447, 54704.19582178543, -0.084, 0.984, -0.076, 192.0, 0.0, 0.0, 0.0, 0.0, 0.0, 0.0, 0.0, 0.0, 0.0, 1.6989581020516691E9, 0.0, 2023-11-02 16:48:22.051
119.0, 90674.72406324436, 187500.0, 3954.0906493771854, 30780.967269059096, 187500.0, 187500.0, -187500.02235174447, 54701.49126070634, -0.084, 0.984, -0.076, 192.0, 0.0, 0.0, 0.0, 0.0, 0.0, 0.0, 0.0, 0.0, 0.0, 1.6989581020516791E9, 0.0, 2023-11-02 16:48:22.051
120.0, 90770.2777707908, 187500.0, 3959.4997715353697, 30792.836045364864, 187500.0, 187500.0, -187500.02235174447, 54713.1141678231, -0.084, 0.984, -0.076, 192.0, 0.0, 0.0, 0.0, 0.0, 0.0, 0.0, 0.0, 0.0, 0.0, 1.6989581020516891E9, 0.0, 2023-11-02 16:48:22.051
121.0, 90862.38930969112, 187500.0, 3920.7641983943226, 30752.64760883422, 187500.0, 187500.0, -187500.02235174447, 54674.93738829344, -0.084, 0.984, -0.076, 192.0, 0.0, 0.0, 0.0, 0.0, 0.0, 0.0, 0.0, 0.0, 0.0, 1.6989581020516992E9, 0.0, 2023-11-02 16:48:22.051
122.0, 90779.15141333955, 187500.0, 3929.1237508206073, 30753.385216401246, 187500.0, 187500.0, -187500.02235174447, 54677.1055075056, -0.084, 0.984, -0.076, 192.0, 0.0, 0.0, 0.0, 0.0, 0.0, 0.0, 0.0, 0.0, 0.0, 1.6989581020517094E9, 0.0, 2023-11-02 16:48:22.051
123.0, 90685.47525232736, 187500.0, 3954.7612017108445, 30780.877862081274, 187500.0, 187500.0, -187500.02235174447, 54701.82653687317, -0.08, 0.978, -0.074, 192.0, 253.0, 128.0, 30.0, 144.0, 253.0, 176.0, 0.0, 0.0, 0.0, 1.6989581020517197E9, 0.0, 2023-11-02 16:48:22.051
124.0, 90774.39049177057, 187500.0, 3946.2228353289174, 30777.659210879712, 187500.0, 187500.0, -187500.02235174447, 54699.12197579408, -0.08, 0.978, -0.074, 192.0, 0.0, 0.0, 0.0, 0.0, 0.0, 0.0, 0.0, 0.0, 0.0, 1.6989581020517464E9, 0.0, 2023-11-02 16:48:22.051
125.0, 90891.49128097192, 187500.0, 3945.127599850607, 30777.8156730909, 187500.0, 187500.0, -187500.02235174447, 54698.71964439388, -0.08, 0.978, -0.074, 192.0, 0.0, 0.0, 0.0, 0.0, 0.0, 0.0, 0.0, 0.0, 0.0, 1.698958102051756E9, 0.0, 2023-11-02 16:48:22.051
126.0, 90847.5477513728, 187500.0, 3932.744733422367, 30763.510556639503, 187500.0, 187500.0, -187500.02235174447, 54683.34164420863, -0.08, 0.978, -0.074, 192.0, 0.0, 0.0, 0.0, 0.0, 0.0, 0.0, 0.0, 0.0, 0.0, 1.6989581020517657E9, 0.0, 2023-11-02 16:48:22.051
127.0, 90757.13494505108, 187500.0, 3927.2462042863617, 30756.290943180436, 187500.0, 187500.0, -187500.02235174447, 54677.01610052778, -0.08, 0.978, -0.074, 192.0, 0.0, 0.0, 0.0, 0.0, 0.0, 0.0, 0.0, 0.0, 0.0, 1.6989581020517752E9, 0.0, 2023-11-02 16:48:22.051
128.0, 90825.17365517303, 187500.0, 3911.979962823387, 30747.32789365386, 187500.0, 187500.0, -187500.02235174447, 54666.01904225577, -0.08, 0.978, -0.074, 192.0, 0.0, 0.0, 0.0, 0.0, 0.0, 0.0, 0.0, 0.0, 0.0, 1.698958102051812E9, 0.0, 2023-11-02 16:48:22.051
129.0, 90956.42309861458, 187500.0, 3908.001352310342, 30744.332759896846, 187500.0, 187500.0, -187500.02235174447, 54660.520513119765, -0.08, 0.978, -0.074, 192.0, 0.0, 0.0, 0.0, 0.0, 0.0, 0.0, 0.0, 0.0, 0.0, 1.6989581020518217E9, 0.0, 2023-11-02 16:48:22.051
130.0, 90915.45235102801, 187500.0, 3932.2976985332607, 30757.22971644756, 187500.0, 187500.0, -187500.02235174447, 54676.032623771745, -0.08, 0.978, -0.074, 192.0, 0.0, 0.0, 0.0, 0.0, 0.0, 0.0, 0.0, 0.0, 0.0, 1.698958102051833E9, 0.0, 2023-11-02 16:48:22.051
131.0, 90785.38755004258, 187500.0, 3960.483248291403, 30782.978926060074, 187500.0, 187500.0, -187500.02235174447, 54707.705045664916, -0.08, 0.978, -0.074, 192.0, 0.0, 0.0, 0.0, 0.0, 0.0, 0.0, 0.0, 0.0, 0.0, 1.6989581020518596E9, 0.0, 2023-11-02 16:48:22.051
132.0, 90821.8879487381, 187500.0, 3943.87590216111, 30773.121806755284, 187500.0, 187500.0, -187500.02235174447, 54698.898458349526, -0.08, 0.978, -0.074, 192.0, 0.0, 0.0, 0.0, 0.0, 0.0, 0.0, 0.0, 0.0, 0.0, 1.6989581020518696E9, 0.0, 2023-11-02 16:48:22.051
133.0, 90964.96146499652, 187500.0, 3932.7000299334563, 30765.4104549182, 187500.0, 187500.0, -187500.02235174447, 54689.376615211564, -0.08, 0.978, -0.07200000000000001, 192.0, 253.0, 128.0, 30.0, 144.0, 253.0, 192.0, 0.0, 0.0, 0.0, 1.6989581020518806E9, 0.0, 2023-11-02 16:48:22.051
134.0, 90974.52801162339, 187500.0, 3935.2257770569063, 30761.923582783176, 187500.0, 187500.0, -187500.02235174447, 54683.87808607556, -0.08, 0.978, -0.07200000000000001, 192.0, 0.0, 0.0, 0.0, 0.0, 0.0, 0.0, 0.0, 0.0, 0.0, 1.6989581020519197E9, 0.0, 2023-11-02 16:48:22.051
135.0, 90862.7469376024, 187500.0, 3936.097495090663, 30757.117957725284, 187500.0, 187500.0, -187500.02235174447, 54677.373728439066, -0.08, 0.978, -0.07200000000000001, 192.0, 0.0, 0.0, 0.0, 0.0, 0.0, 0.0, 0.0, 0.0, 0.0, 1.6989581020519316E9, 0.0, 2023-11-02 16:48:22.051
136.0, 90858.50010615589, 187500.0, 3908.9624773219202, 30733.00042545801, 187500.0, 187500.0, -187500.02235174447, 54653.658527571984, -0.08, 0.978, -0.07200000000000001, 192.0, 0.0, 0.0, 0.0, 0.0, 0.0, 0.0, 0.0, 0.0, 0.0, 1.6989581020519426E9, 0.0, 2023-11-02 16:48:22.051
137.0, 90987.55907864083, 187500.0, 3906.72730287639, 30728.306559122393, 187500.0, 187500.0, -187500.02235174447, 54654.03850722772, -0.08, 0.978, -0.07200000000000001, 192.0, 0.0, 0.0, 0.0, 0.0, 0.0, 0.0, 0.0, 0.0, 0.0, 1.6989581020519693E9, 0.0, 2023-11-02 16:48:22.051
138.0, 90991.91766880962, 187500.0, 3935.583404968191, 30754.480451879557, 187500.0, 187500.0, -187500.02235174447, 54678.67012961747, -0.08, 0.978, -0.07200000000000001, 192.0, 0.0, 0.0, 0.0, 0.0, 0.0, 0.0, 0.0, 0.0, 0.0, 1.6989581020519955E9, 0.0, 2023-11-02 16:48:22.051
139.0, 90847.16777171705, 187500.0, 3942.3783352826044, 30761.27538219397, 187500.0, 187500.0, -187500.02235174447, 54681.37469069656, -0.08, 0.978, -0.07200000000000001, 192.0, 0.0, 0.0, 0.0, 0.0, 0.0, 0.0, 0.0, 0.0, 0.0, 1.6989581020520053E9, 0.0, 2023-11-02 16:48:22.052
140.0, 90777.74325343886, 187500.0, 3952.302509820761, 30774.32880095587, 187500.0, 187500.0, -187500.02235174447, 54694.47281294737, -0.08, 0.978, -0.07200000000000001, 192.0, 0.0, 0.0, 0.0, 0.0, 0.0, 0.0, 0.0, 0.0, 0.0, 1.698958102052015E9, 0.0, 2023-11-02 16:48:22.052
141.0, 90880.13659478862, 187500.0, 3956.884617434099, 30788.09747554034, 187500.0, 187500.0, -187500.02235174447, 54702.63119967356, -0.08, 0.978, -0.07200000000000001, 192.0, 0.0, 0.0, 0.0, 0.0, 0.0, 0.0, 0.0, 0.0, 0.0, 1.6989581020520246E9, 0.0, 2023-11-02 16:48:22.052
142.0, 90933.5125605479, 187500.0, 3933.1470648225627, 30764.00229501752, 187500.0, 187500.0, -187500.02235174447, 54679.29597846222, -0.08, 0.978, -0.07200000000000001, 192.0, 0.0, 0.0, 0.0, 0.0, 0.0, 0.0, 0.0, 0.0, 0.0, 1.6989581020520344E9, 0.0, 2023-11-02 16:48:22.052
143.0, 90805.437064819, 187500.0, 3944.166474839029, 30770.886632309754, 187500.0, 187500.0, -187500.02235174447, 54684.92861806496, -0.078, 0.978, -0.076, 192.0, 253.0, 144.0, 30.0, 144.0, 253.0, 160.0, 0.0, 0.0, 0.0, 1.6989581020520592E9, 0.0, 2023-11-02 16:48:22.052
144.0, 90711.47033112888, 187500.0, 3961.9137599365426, 30793.908929098718, 187500.0, 187500.0, -187500.02235174447, 54705.51457470829, -0.078, 0.978, -0.076, 192.0, 0.0, 0.0, 0.0, 0.0, 0.0, 0.0, 0.0, 0.0, 0.0, 1.6989581020520694E9, 0.0, 2023-11-02 16:48:22.052
145.0, 90816.8364544912, 187500.0, 3936.611585213135, 30775.401684689725, 187500.0, 187500.0, -187500.02235174447, 54682.69344361943, -0.078, 0.978, -0.076, 192.0, 0.0, 0.0, 0.0, 0.0, 0.0, 0.0, 0.0, 0.0, 0.0, 1.6989581020520792E9, 0.0, 2023-11-02 16:48:22.052
146.0, 90916.52523476187, 187500.0, 3925.6368786855796, 30761.543603127433, 187500.0, 187500.0, -187500.02235174447, 54665.90728353349, -0.078, 0.978, -0.076, 192.0, 0.0, 0.0, 0.0, 0.0, 0.0, 0.0, 0.0, 0.0, 0.0, 1.6989581020520887E9, 0.0, 2023-11-02 16:48:22.052
147.0, 90843.3456234152, 187500.0, 3945.2170068284286, 30775.647553878734, 187500.0, 187500.0, -187500.02235174447, 54678.93835055093, -0.078, 0.978, -0.076, 192.0, 0.0, 0.0, 0.0, 0.0, 0.0, 0.0, 0.0, 0.0, 0.0, 1.698958102052116E9, 0.0, 2023-11-02 16:48:22.052
148.0, 90766.14269806656, 187500.0, 3928.4308467424926, 30764.695199095633, 187500.0, 187500.0, -187500.02235174447, 54664.0520887437, -0.078, 0.978, -0.076, 192.0, 0.0, 0.0, 0.0, 0.0, 0.0, 0.0, 0.0, 0.0, 0.0, 1.6989581020521424E9, 0.0, 2023-11-02 16:48:22.052
149.0, 90851.50401014138, 187500.0, 3894.679712614979, 30738.923637738662, 187500.0, 187500.0, -187500.02235174447, 54631.709114516874, -0.078, 0.978, -0.076, 192.0, 0.0, 0.0, 0.0, 0.0, 0.0, 0.0, 0.0, 0.0, 0.0, 1.698958102052152E9, 0.0, 2023-11-02 16:48:22.052
150.0, 90963.03921497337, 187500.0, 3898.5689161502028, 30743.88572500774, 187500.0, 187500.0, -187500.02235174447, 54636.894719230506, -0.078, 0.978, -0.076, 192.0, 0.0, 0.0, 0.0, 0.0, 0.0, 0.0, 0.0, 0.0, 0.0, 1.6989581020521617E9, 0.0, 2023-11-02 16:48:22.052
151.0, 90905.01408636739, 187500.0, 3948.1897888409844, 30790.198539519137, 187500.0, 187500.0, -187500.02235174447, 54681.93348430795, -0.078, 0.978, -0.076, 192.0, 0.0, 0.0, 0.0, 0.0, 0.0, 0.0, 0.0, 0.0, 0.0, 1.6989581020521712E9, 0.0, 2023-11-02 16:48:22.052
152.0, 90809.90741371005, 187500.0, 3939.897291648065, 30788.544510429445, 187500.0, 187500.0, -187500.02235174447, 54679.69830986242, -0.078, 0.978, -0.076, 192.0, 0.0, 0.0, 0.0, 0.0, 0.0, 0.0, 0.0, 0.0, 0.0, 1.6989581020521824E9, 0.0, 2023-11-02 16:48:22.052
153.0, 90876.8508883537, 187500.0, 3906.168509265007, 30761.56595487189, 187500.0, 187500.0, -187500.02235174447, 54654.30672816119, -0.08, 0.98, -0.078, 192.0, 253.0, 128.0, 30.0, 160.0, 253.0, 144.0, 0.0, 0.0, 0.0, 1.698958102052192E9, 0.0, 2023-11-02 16:48:22.052
154.0, 91013.68826790909, 187500.0, 3874.227866438373, 30730.765251012475, 187500.0, 187500.0, -187500.02235174447, 54625.38357083602, -0.08, 0.98, -0.078, 192.0, 0.0, 0.0, 0.0, 0.0, 0.0, 0.0, 0.0, 0.0, 0.0, 1.6989581020522025E9, 0.0, 2023-11-02 16:48:22.052
155.0, 90983.4240059166, 187500.0, 3876.6642065840015, 30730.07234693436, 187500.0, 187500.0, -187500.02235174447, 54620.868518456045, -0.08, 0.98, -0.078, 192.0, 0.0, 0.0, 0.0, 0.0, 0.0, 0.0, 0.0, 0.0, 0.0, 1.6989581020522125E9, 0.0, 2023-11-02 16:48:22.052
156.0, 90837.51181811235, 187500.0, 3930.0625240877303, 30783.96240281611, 187500.0, 187500.0, -187500.02235174447, 54670.31057719119, -0.08, 0.98, -0.078, 192.0, 0.0, 0.0, 0.0, 0.0, 0.0, 0.0, 0.0, 0.0, 0.0, 1.698958102052222E9, 0.0, 2023-11-02 16:48:22.052
157.0, 90836.4389343785, 187500.0, 3936.075143346208, 30796.09940005534, 187500.0, 187500.0, -187500.02235174447, 54680.77119359627, -0.08, 0.98, -0.078, 192.0, 0.0, 0.0, 0.0, 0.0, 0.0, 0.0, 0.0, 0.0, 0.0, 1.6989581020522316E9, 0.0, 2023-11-02 16:48:22.052
158.0, 90965.60966558573, 187500.0, 3914.4163029690153, 30776.98865854605, 187500.0, 187500.0, -187500.02235174447, 54662.8003910542, -0.08, 0.98, -0.078, 192.0, 0.0, 0.0, 0.0, 0.0, 0.0, 0.0, 0.0, 0.0, 0.0, 1.6989581020522494E9, 0.0, 2023-11-02 16:48:22.052
159.0, 90974.99739825695, 187500.0, 3900.4688144289034, 30757.319123425383, 187500.0, 187500.0, -187500.02235174447, 54646.66243155747, -0.08, 0.98, -0.078, 192.0, 0.0, 0.0, 0.0, 0.0, 0.0, 0.0, 0.0, 0.0, 0.0, 1.6989581020522609E9, 0.0, 2023-11-02 16:48:22.052
160.0, 90857.36016718867, 187500.0, 3909.744788377856, 30765.008123518008, 187500.0, 187500.0, -187500.02235174447, 54649.948137992404, -0.08, 0.98, -0.078, 192.0, 0.0, 0.0, 0.0, 0.0, 0.0, 0.0, 0.0, 0.0, 0.0, 1.6989581020522707E9, 0.0, 2023-11-02 16:48:22.052
161.0, 90844.66437633806, 187500.0, 3895.260857970817, 30754.56985885738, 187500.0, 187500.0, -187500.02235174447, 54640.85097799909, -0.08, 0.98, -0.078, 192.0, 0.0, 0.0, 0.0, 0.0, 0.0, 0.0, 0.0, 0.0, 0.0, 1.6989581020522804E9, 0.0, 2023-11-02 16:48:22.052
162.0, 90971.10819472173, 187500.0, 3875.7030815724233, 30738.968341227574, 187500.0, 187500.0, -187500.02235174447, 54626.188233636414, -0.08, 0.98, -0.078, 192.0, 0.0, 0.0, 0.0, 0.0, 0.0, 0.0, 0.0, 0.0, 0.0, 1.69895810205229E9, 0.0, 2023-11-02 16:48:22.052
163.0, 91017.2868987664, 187500.0, 3870.0257384807755, 30730.87700973475, 187500.0, 187500.0, -187500.02235174447, 54616.01818990925, -0.09, 0.982, -0.07200000000000001, 192.0, 253.0, 48.0, 30.0, 176.0, 253.0, 192.0, 0.0, 0.0, 0.0, 1.6989581020522995E9, 0.0, 2023-11-02 16:48:22.052
164.0, 90916.8605109287, 187500.0, 3898.0548260277305, 30756.872088536275, 187500.0, 187500.0, -187500.02235174447, 54638.77226576475, -0.09, 0.982, -0.07200000000000001, 192.0, 0.0, 0.0, 0.0, 0.0, 0.0, 0.0, 0.0, 0.0, 0.0, 1.69895810205231E9, 0.0, 2023-11-02 16:48:22.052
165.0, 90880.56127793327, 187500.0, 3880.2851891857613, 30738.297788893917, 187500.0, 187500.0, -187500.02235174447, 54621.53907078971, -0.09, 0.982, -0.07200000000000001, 192.0, 0.0, 0.0, 0.0, 0.0, 0.0, 0.0, 0.0, 0.0, 0.0, 1.6989581020523195E9, 0.0, 2023-11-02 16:48:22.052
166.0, 90988.52020365241, 187500.0, 3868.8410960246442, 30729.737070767533, 187500.0, 187500.0, -187500.02235174447, 54615.52645153123, -0.09, 0.982, -0.07200000000000001, 192.0, 0.0, 0.0, 0.0, 0.0, 0.0, 0.0, 0.0, 0.0, 0.0, 1.6989581020523293E9, 0.0, 2023-11-02 16:48:22.052
167.0, 91058.83879170881, 187500.0, 3869.265779169295, 30727.36778585527, 187500.0, 187500.0, -187500.02235174447, 54616.55463177618, -0.09, 0.982, -0.07200000000000001, 192.0, 0.0, 0.0, 0.0, 0.0, 0.0, 0.0, 0.0, 0.0, 0.0, 1.6989581020523388E9, 0.0, 2023-11-02 16:48:22.052
168.0, 90965.78847954137, 187500.0, 3891.6398753690573, 30746.74674829802, 187500.0, 187500.0, -187500.02235174447, 54635.128931418534, -0.09, 0.982, -0.07200000000000001, 192.0, 0.0, 0.0, 0.0, 0.0, 0.0, 0.0, 0.0, 0.0, 0.0, 1.6989581020523484E9, 0.0, 2023-11-02 16:48:22.052
169.0, 90906.60106022371, 187500.0, 3863.4990290998257, 30724.663224776177, 187500.0, 187500.0, -187500.02235174447, 54613.35833231906, -0.09, 0.982, -0.07200000000000001, 192.0, 0.0, 0.0, 0.0, 0.0, 0.0, 0.0, 0.0, 0.0, 0.0, 1.698958102052358E9, 0.0, 2023-11-02 16:48:22.052
170.0, 90997.48325317899, 187500.0, 3869.198723935929, 30733.961550469587, 187500.0, 187500.0, -187500.02235174447, 54619.1921376219, -0.09, 0.982, -0.07200000000000001, 192.0, 0.0, 0.0, 0.0, 0.0, 0.0, 0.0, 0.0, 0.0, 0.0, 1.6989581020523677E9, 0.0, 2023-11-02 16:48:22.052
171.0, 91079.31298962986, 187500.0, 3872.9538170044207, 30738.633065060745, 187500.0, 187500.0, -187500.02235174447, 54625.18240513592, -0.09, 0.982, -0.07200000000000001, 192.0, 0.0, 0.0, 0.0, 0.0, 0.0, 0.0, 0.0, 0.0, 0.0, 1.6989581020523772E9, 0.0, 2023-11-02 16:48:22.052
172.0, 91005.731046883, 187500.0, 3869.042261724742, 30727.680710277644, 187500.0, 187500.0, -187500.02235174447, 54616.264059098256, -0.09, 0.982, -0.07200000000000001, 192.0, 0.0, 0.0, 0.0, 0.0, 0.0, 0.0, 0.0, 0.0, 0.0, 1.6989581020523868E9, 0.0, 2023-11-02 16:48:22.052
173.0, 90916.94991790652, 187500.0, 3858.4028313640156, 30718.80706772889, 187500.0, 187500.0, -187500.02235174447, 54609.111500872554, -0.088, 0.982, -0.07, 192.0, 253.0, 64.0, 30.0, 176.0, 253.0, 208.0, 0.0, 0.0, 0.0, 1.6989581020523977E9, 0.0, 2023-11-02 16:48:22.052
174.0, 90996.36566595623, 187500.0, 3831.6701449954685, 30698.064648874362, 187500.0, 187500.0, -187500.02235174447, 54588.52554422922, -0.088, 0.982, -0.07, 192.0, 0.0, 0.0, 0.0, 0.0, 0.0, 0.0, 0.0, 0.0, 0.0, 1.698958102052416E9, 0.0, 2023-11-02 16:48:22.052
175.0, 91109.8007690669, 187500.0, 3845.461171324393, 30708.234692601527, 187500.0, 187500.0, -187500.02235174447, 54594.292294298684, -0.088, 0.982, -0.07, 192.0, 0.0, 0.0, 0.0, 0.0, 0.0, 0.0, 0.0, 0.0, 0.0, 1.6989581020524256E9, 0.0, 2023-11-02 16:48:22.052
176.0, 91055.75425097397, 187500.0, 3879.9052095300212, 30739.08009994985, 187500.0, 187500.0, -187500.02235174447, 54624.891832458, -0.088, 0.982, -0.07, 192.0, 0.0, 0.0, 0.0, 0.0, 0.0, 0.0, 0.0, 0.0, 0.0, 1.6989581020524352E9, 0.0, 2023-11-02 16:48:22.052
177.0, 90956.15487768113, 187500.0, 3848.52336031477, 30706.960643167575, 187500.0, 187500.0, -187500.02235174447, 54595.94632338838, -0.088, 0.982, -0.07, 192.0, 0.0, 0.0, 0.0, 0.0, 0.0, 0.0, 0.0, 0.0, 0.0, 1.6989581020524452E9, 0.0, 2023-11-02 16:48:22.052
178.0, 90992.11883450972, 187500.0, 3847.04814518072, 30706.178332111638, 187500.0, 187500.0, -187500.02235174447, 54598.494422256284, -0.088, 0.982, -0.07, 192.0, 0.0, 0.0, 0.0, 0.0, 0.0, 0.0, 0.0, 0.0, 0.0, 1.6989581020524547E9, 0.0, 2023-11-02 16:48:22.052
179.0, 91118.31678370439, 187500.0, 3834.1958921189184, 30695.449494773093, 187500.0, 187500.0, -187500.02235174447, 54584.92691337191, -0.088, 0.982, -0.07, 192.0, 0.0, 0.0, 0.0, 0.0, 0.0, 0.0, 0.0, 0.0, 0.0, 1.6989581020524645E9, 0.0, 2023-11-02 16:48:22.052
180.0, 91097.70847531658, 187500.0, 3866.0918314566416, 30719.209399129082, 187500.0, 187500.0, -187500.02235174447, 54603.255343825265, -0.088, 0.982, -0.07, 192.0, 0.0, 0.0, 0.0, 0.0, 0.0, 0.0, 0.0, 0.0, 0.0, 1.698958102052474E9, 0.0, 2023-11-02 16:48:22.052
181.0, 90975.77970931289, 187500.0, 3897.3842736940715, 30751.79824254492, 187500.0, 187500.0, -187500.02235174447, 54638.16876866446, -0.088, 0.982, -0.07, 192.0, 0.0, 0.0, 0.0, 0.0, 0.0, 0.0, 0.0, 0.0, 0.0, 1.6989581020524833E9, 0.0, 2023-11-02 16:48:22.052
182.0, 90988.94488679706, 187500.0, 3865.264816911795, 30726.674881777155, 187500.0, 187500.0, -187500.02235174447, 54611.41373055145, -0.084, 0.982, -0.076, 192.0, 253.0, 96.0, 30.0, 176.0, 253.0, 160.0, 0.0, 0.0, 0.0, 1.698958102052493E9, 0.0, 2023-11-02 16:48:22.052
183.0, 91113.86878655778, 187500.0, 3827.3562583155945, 30693.05785811637, 187500.0, 187500.0, -187500.02235174447, 54576.679119667904, -0.084, 0.982, -0.076, 192.0, 0.0, 0.0, 0.0, 0.0, 0.0, 0.0, 0.0, 0.0, 0.0, 1.698958102052503E9, 0.0, 2023-11-02 16:48:22.052
184.0, 91102.13412071874, 187500.0, 3863.789601777745, 30719.455268318092, 187500.0, 187500.0, -187500.02235174447, 54608.82092819464, -0.084, 0.982, -0.076, 192.0, 0.0, 0.0, 0.0, 0.0, 0.0, 0.0, 0.0, 0.0, 0.0, 1.698958102052513E9, 0.0, 2023-11-02 16:48:22.052
185.0, 90965.96729349701, 187500.0, 3893.29390445875, 30746.456175620104, 187500.0, 187500.0, -187500.02235174447, 54639.42046635395, -0.084, 0.982, -0.076, 192.0, 0.0, 0.0, 0.0, 0.0, 0.0, 0.0, 0.0, 0.0, 0.0, 1.6989581020525224E9, 0.0, 2023-11-02 16:48:22.052
186.0, 90948.2647118884, 187500.0, 3882.8332880536664, 30740.42120461717, 187500.0, 187500.0, -187500.02235174447, 54633.609012795576, -0.084, 0.982, -0.076, 192.0, 0.0, 0.0, 0.0, 0.0, 0.0, 0.0, 0.0, 0.0, 0.0, 1.6989581020525324E9, 0.0, 2023-11-02 16:48:22.052
187.0, 91087.4043211227, 187500.0, 3855.005366206809, 30719.499971807003, 187500.0, 187500.0, -187500.02235174447, 54613.71596023035, -0.084, 0.982, -0.076, 192.0, 0.0, 0.0, 0.0, 0.0, 0.0, 0.0, 0.0, 0.0, 0.0, 1.6989581020525417E9, 0.0, 2023-11-02 16:48:22.052
188.0, 91139.32742349237, 187500.0, 3833.078304896153, 30694.17544533914, 187500.0, 187500.0, -187500.02235174447, 54589.2855035407, -0.084, 0.982, -0.076, 192.0, 0.0, 0.0, 0.0, 0.0, 0.0, 0.0, 0.0, 0.0, 0.0, 1.6989581020525534E9, 0.0, 2023-11-02 16:48:22.052
189.0, 91014.91761385414, 187500.0, 3859.0063284643093, 30706.580663511835, 187500.0, 187500.0, -187500.02235174447, 54600.48372751281, -0.084, 0.982, -0.076, 192.0, 0.0, 0.0, 0.0, 0.0, 0.0, 0.0, 0.0, 0.0, 0.0, 1.6989581020525856E9, 0.0, 2023-11-02 16:48:22.052
0.0, 0.0, 0.0, 0.0, 0.0, 0.0, 0.0, 0.0, 0.0, -0.084, 0.982, -0.076, 192.0, 0.0, 0.0, 0.0, 0.0, 0.0, 0.0, 0.0, 0.0, 0.0, 1.698958102164462E9, 0.0, 2023-11-02 16:48:22.164
1.0, -187500.02235174447, 187500.0, -4062.8765896411646, 19593.06980288861, 187500.0, 187500.0, -187500.02235174447, 42147.70104261649, -0.08600000000000001, 0.972, -0.066, 192.0, 253.0, 80.0, 30.0, 96.0, 253.0, 240.0, 0.0, 0.0, 0.0, 1.698958102642918E9, 0.0, 2023-11-02 16:48:22.642
2.0, -187500.02235174447, 187500.0, -4058.450944239014, 19587.414811541417, 187500.0, 187500.0, -187500.02235174447, 42148.10337401669, -0.08600000000000001, 0.972, -0.066, 192.0, 0.0, 0.0, 0.0, 0.0, 0.0, 0.0, 0.0, 0.0, 0.0, 1.698958102643052E9, 0.0, 2023-11-02 16:48:22.643
3.0, -187500.02235174447, 187500.0, -4046.5821679332457, 19590.477000531795, 187500.0, 187500.0, -187500.02235174447, 42159.05572879979, -0.08600000000000001, 0.972, -0.066, 192.0, 0.0, 0.0, 0.0, 0.0, 0.0, 0.0, 0.0, 0.0, 0.0, 1.6989581026430805E9, 0.0, 2023-11-02 16:48:22.643
4.0, -187500.02235174447, 187500.0, -4050.51607495738, 19600.78115472569, 187500.0, 187500.0, -187500.02235174447, 42158.18401076603, -0.08600000000000001, 0.972, -0.066, 192.0, 0.0, 0.0, 0.0, 0.0, 0.0, 0.0, 0.0, 0.0, 0.0, 1.698958102643113E9, 0.0, 2023-11-02 16:48:22.643
5.0, -187500.02235174447, 187500.0, -4065.6929094425336, 19592.086326132576, 187500.0, 187500.0, -187500.02235174447, 42142.895417558604, -0.08600000000000001, 0.972, -0.066, 192.0, 0.0, 0.0, 0.0, 0.0, 0.0, 0.0, 0.0, 0.0, 0.0, 1.698958102643123E9, 0.0, 2023-11-02 16:48:22.643
6.0, -187500.02235174447, 187500.0, -4061.356671018204, 19591.371070310008, 187500.0, 187500.0, -187500.02235174447, 42144.77296409285, -0.08600000000000001, 0.972, -0.066, 192.0, 0.0, 0.0, 0.0, 0.0, 0.0, 0.0, 0.0, 0.0, 0.0, 1.6989581026431324E9, 0.0, 2023-11-02 16:48:22.643
7.0, -187500.02235174447, 187500.0, -4062.161333818595, 19588.040660386167, 187500.0, 187500.0, -187500.02235174447, 42139.92263554605, -0.08600000000000001, 0.972, -0.066, 192.0, 0.0, 0.0, 0.0, 0.0, 0.0, 0.0, 0.0, 0.0, 0.0, 1.6989581026431425E9, 0.0, 2023-11-02 16:48:22.643
8.0, -187500.02235174447, 187500.0, -4069.202133322017, 19592.622767999503, 187500.0, 187500.0, -187500.02235174447, 42133.10535348718, -0.092, 0.97, -0.054, 192.0, 253.0, 32.0, 30.0, 80.0, 254.0, 80.0, 0.0, 0.0, 0.0, 1.698958102643152E9, 0.0, 2023-11-02 16:48:22.643
9.0, -187500.02235174447, 187500.0, -4077.5393340038463, 19590.320538320608, 187500.0, 187500.0, -187500.02235174447, 42128.29972842929, -0.092, 0.97, -0.054, 192.0, 0.0, 0.0, 0.0, 0.0, 0.0, 0.0, 0.0, 0.0, 0.0, 1.6989581026431625E9, 0.0, 2023-11-02 16:48:22.643
10.0, -187500.02235174447, 187500.0, -4066.989310620941, 19592.287491832674, 187500.0, 187500.0, -187500.02235174447, 42137.53099888933, -0.092, 0.97, -0.054, 192.0, 0.0, 0.0, 0.0, 0.0, 0.0, 0.0, 0.0, 0.0, 0.0, 1.698958102643172E9, 0.0, 2023-11-02 16:48:22.643
11.0, -187500.02235174447, 187500.0, -4053.064173825285, 19606.59260828407, 187500.0, 187500.0, -187500.02235174447, 42148.72922286144, -0.092, 0.97, -0.054, 192.0, 0.0, 0.0, 0.0, 0.0, 0.0, 0.0, 0.0, 0.0, 0.0, 1.6989581026431818E9, 0.0, 2023-11-02 16:48:22.643
12.0, -187500.02235174447, 187500.0, -4058.1156680721842, 19613.92398046541, 187500.0, 187500.0, -187500.02235174447, 42147.097545516204, -0.092, 0.97, -0.054, 192.0, 0.0, 0.0, 0.0, 0.0, 0.0, 0.0, 0.0, 0.0, 0.0, 1.6989581026431916E9, 0.0, 2023-11-02 16:48:22.643
13.0, -187500.02235174447, 187500.0, -4058.9873861059414, 19621.434166602394, 187500.0, 187500.0, -187500.02235174447, 42146.20347573799, -0.092, 0.97, -0.054, 192.0, 0.0, 0.0, 0.0, 0.0, 0.0, 0.0, 0.0, 0.0, 0.0, 1.698958102643201E9, 0.0, 2023-11-02 16:48:22.643
14.0, -187500.02235174447, 187500.0, -4058.227426794461, 19617.589666556083, 187500.0, 187500.0, -187500.02235174447, 42141.93429254703, -0.092, 0.97, -0.054, 192.0, 0.0, 0.0, 0.0, 0.0, 0.0, 0.0, 0.0, 0.0, 0.0, 1.698958102643272E9, 0.0, 2023-11-02 16:48:22.643
15.0, -187500.02235174447, 187500.0, -4047.833865622743, 19618.88606773449, 187500.0, 187500.0, -187500.02235174447, 42149.10920251718, -0.092, 0.97, -0.054, 192.0, 0.0, 0.0, 0.0, 0.0, 0.0, 0.0, 0.0, 0.0, 0.0, 1.6989581026432822E9, 0.0, 2023-11-02 16:48:22.643
16.0, -187500.02235174447, 187500.0, -4050.024336579363, 19625.32337013762, 187500.0, 187500.0, -187500.02235174447, 42148.75157460589, -0.092, 0.97, -0.054, 192.0, 0.0, 0.0, 0.0, 0.0, 0.0, 0.0, 0.0, 0.0, 0.0, 1.6989581026432917E9, 0.0, 2023-11-02 16:48:22.643
17.0, -187500.02235174447, 187500.0, -4055.031127337352, 19632.49828010777, 187500.0, 187500.0, -187500.02235174447, 42143.90124605909, -0.092, 0.97, -0.054, 192.0, 0.0, 0.0, 0.0, 0.0, 0.0, 0.0, 0.0, 0.0, 0.0, 1.6989581026433015E9, 0.0, 2023-11-02 16:48:22.643
18.0, -187500.02235174447, 187500.0, -4056.416935493581, 19631.961838240844, 187500.0, 187500.0, -187500.02235174447, 42139.58735937922, -0.084, 0.978, -0.044, 192.0, 253.0, 96.0, 30.0, 144.0, 254.0, 160.0, 0.0, 0.0, 0.0, 1.6989581026433113E9, 0.0, 2023-11-02 16:48:22.643
19.0, -187500.02235174447, 187500.0, -4052.4606767249916, 19626.910343993946, 187500.0, 187500.0, -187500.02235174447, 42141.44255416901, -0.084, 0.978, -0.044, 192.0, 0.0, 0.0, 0.0, 0.0, 0.0, 0.0, 0.0, 0.0, 0.0, 1.6989581026433215E9, 0.0, 2023-11-02 16:48:22.643
20.0, -187500.02235174447, 187500.0, -4054.7852581483435, 19626.843288760578, 187500.0, 187500.0, -187500.02235174447, 42139.16267623457, -0.084, 0.978, -0.044, 192.0, 0.0, 0.0, 0.0, 0.0, 0.0, 0.0, 0.0, 0.0, 0.0, 1.698958102643331E9, 0.0, 2023-11-02 16:48:22.643
21.0, -187500.02235174447, 187500.0, -4058.1156680721842, 19633.615867330536, 187500.0, 187500.0, -187500.02235174447, 42136.92750178904, -0.084, 0.978, -0.044, 192.0, 0.0, 0.0, 0.0, 0.0, 0.0, 0.0, 0.0, 0.0, 0.0, 1.6989581026433408E9, 0.0, 2023-11-02 16:48:22.643
22.0, -187500.02235174447, 187500.0, -4062.071926840774, 19633.6829225639, 187500.0, 187500.0, -187500.02235174447, 42136.92750178904, -0.084, 0.978, -0.044, 192.0, 0.0, 0.0, 0.0, 0.0, 0.0, 0.0, 0.0, 0.0, 0.0, 1.6989581026433504E9, 0.0, 2023-11-02 16:48:22.643
23.0, -187500.02235174447, 187500.0, -4050.381964490648, 19639.583783100104, 187500.0, 187500.0, -187500.02235174447, 42146.20347573799, -0.084, 0.978, -0.044, 192.0, 0.0, 0.0, 0.0, 0.0, 0.0, 0.0, 0.0, 0.0, 0.0, 1.69895810264336E9, 0.0, 2023-11-02 16:48:22.643
24.0, -187500.02235174447, 187500.0, -4046.090429555229, 19648.27861169322, 187500.0, 187500.0, -187500.02235174447, 42151.59024615172, -0.084, 0.978, -0.044, 192.0, 0.0, 0.0, 0.0, 0.0, 0.0, 0.0, 0.0, 0.0, 0.0, 1.6989581026433697E9, 0.0, 2023-11-02 16:48:22.643
25.0, -187500.02235174447, 187500.0, -4048.996156334419, 19655.788797830202, 187500.0, 187500.0, -187500.02235174447, 42150.450307184496, -0.084, 0.978, -0.044, 192.0, 0.0, 0.0, 0.0, 0.0, 0.0, 0.0, 0.0, 0.0, 0.0, 1.6989581026433792E9, 0.0, 2023-11-02 16:48:22.643
26.0, -187500.02235174447, 187500.0, -4054.89701687062, 19656.258184463764, 187500.0, 187500.0, -187500.02235174447, 42146.98578679393, -0.084, 0.978, -0.044, 192.0, 0.0, 0.0, 0.0, 0.0, 0.0, 0.0, 0.0, 0.0, 0.0, 1.698958102643391E9, 0.0, 2023-11-02 16:48:22.643
27.0, -187500.02235174447, 187500.0, -4063.681252441556, 19637.817995288133, 187500.0, 187500.0, -187500.02235174447, 42135.564045377265, -0.084, 0.978, -0.044, 192.0, 0.0, 0.0, 0.0, 0.0, 0.0, 0.0, 0.0, 0.0, 0.0, 1.6989581026434004E9, 0.0, 2023-11-02 16:48:22.643
28.0, -187500.02235174447, 187500.0, -4053.2429877809273, 19646.46812039234, 187500.0, 187500.0, -187500.02235174447, 42142.96247279197, -0.088, 0.984, -0.044, 192.0, 253.0, 64.0, 30.0, 192.0, 254.0, 160.0, 0.0, 0.0, 0.0, 1.69895810264341E9, 0.0, 2023-11-02 16:48:22.643
29.0, -187500.02235174447, 187500.0, -4053.7347261589443, 19659.83446357661, 187500.0, 187500.0, -187500.02235174447, 42143.05187976979, -0.088, 0.984, -0.044, 192.0, 0.0, 0.0, 0.0, 0.0, 0.0, 0.0, 0.0, 0.0, 0.0, 1.6989581026434486E9, 0.0, 2023-11-02 16:48:22.643
30.0, -187500.02235174447, 187500.0, -4057.80274364981, 19658.716876353847, 187500.0, 187500.0, -187500.02235174447, 42140.1461529906, -0.088, 0.984, -0.044, 192.0, 0.0, 0.0, 0.0, 0.0, 0.0, 0.0, 0.0, 0.0, 0.0, 1.6989581026434588E9, 0.0, 2023-11-02 16:48:22.643
31.0, -187500.02235174447, 187500.0, -4050.359612746193, 19652.726608839825, 187500.0, 187500.0, -187500.02235174447, 42143.65537687008, -0.088, 0.984, -0.044, 192.0, 0.0, 0.0, 0.0, 0.0, 0.0, 0.0, 0.0, 0.0, 0.0, 1.6989581026434684E9, 0.0, 2023-11-02 16:48:22.643
32.0, -187500.02235174447, 187500.0, -4043.9446620875196, 19655.766446085745, 187500.0, 187500.0, -187500.02235174447, 42148.66216762807, -0.088, 0.984, -0.044, 192.0, 0.0, 0.0, 0.0, 0.0, 0.0, 0.0, 0.0, 0.0, 0.0, 1.698958102643478E9, 0.0, 2023-11-02 16:48:22.643
33.0, -187500.02235174447, 187500.0, -4045.9563190884974, 19666.160007257462, 187500.0, 187500.0, -187500.02235174447, 42148.23748448342, -0.088, 0.984, -0.044, 192.0, 0.0, 0.0, 0.0, 0.0, 0.0, 0.0, 0.0, 0.0, 0.0, 1.6989581026434875E9, 0.0, 2023-11-02 16:48:22.643
34.0, -187500.02235174447, 187500.0, -4056.8863221271426, 19668.953975314376, 187500.0, 187500.0, -187500.02235174447, 42139.14032449011, -0.088, 0.984, -0.044, 192.0, 0.0, 0.0, 0.0, 0.0, 0.0, 0.0, 0.0, 0.0, 0.0, 1.698958102643497E9, 0.0, 2023-11-02 16:48:22.643
35.0, -187500.02235174447, 187500.0, -4056.6851564270446, 19660.8402920771, 187500.0, 187500.0, -187500.02235174447, 42138.0450890118, -0.088, 0.984, -0.044, 192.0, 0.0, 0.0, 0.0, 0.0, 0.0, 0.0, 0.0, 0.0, 0.0, 1.6989581026435063E9, 0.0, 2023-11-02 16:48:22.643
36.0, -187500.02235174447, 187500.0, -4032.746438115411, 19678.341707985604, 187500.0, 187500.0, -187500.02235174447, 42161.11208928968, -0.088, 0.984, -0.044, 192.0, 0.0, 0.0, 0.0, 0.0, 0.0, 0.0, 0.0, 0.0, 0.0, 1.698958102643516E9, 0.0, 2023-11-02 16:48:22.643
37.0, -187500.02235174447, 187500.0, -4039.809589363288, 19690.501056969293, 187500.0, 187500.0, -187500.02235174447, 42160.95562707849, -0.088, 0.984, -0.044, 192.0, 0.0, 0.0, 0.0, 0.0, 0.0, 0.0, 0.0, 0.0, 0.0, 1.6989581026435256E9, 0.0, 2023-11-02 16:48:22.643
38.0, -187500.02235174447, 187500.0, -4059.7249936729663, 19685.248397022297, 187500.0, 187500.0, -187500.02235174447, 42144.080060014734, -0.082, 0.98, -0.046, 192.0, 253.0, 112.0, 30.0, 160.0, 254.0, 144.0, 0.0, 0.0, 0.0, 1.6989581026435351E9, 0.0, 2023-11-02 16:48:22.643
39.0, -187500.02235174447, 187500.0, -4059.188551806039, 19676.03947830671, 187500.0, 187500.0, -187500.02235174447, 42137.06161225577, -0.082, 0.98, -0.046, 192.0, 0.0, 0.0, 0.0, 0.0, 0.0, 0.0, 0.0, 0.0, 0.0, 1.6989581026435454E9, 0.0, 2023-11-02 16:48:22.643
40.0, -187500.02235174447, 187500.0, -4054.584092448246, 19673.60313816108, 187500.0, 187500.0, -187500.02235174447, 42139.38619367912, -0.082, 0.98, -0.046, 192.0, 0.0, 0.0, 0.0, 0.0, 0.0, 0.0, 0.0, 0.0, 0.0, 1.6989581026435556E9, 0.0, 2023-11-02 16:48:22.643
41.0, -187500.02235174447, 187500.0, -4043.5646824317796, 19692.51271397027, 187500.0, 187500.0, -187500.02235174447, 42153.51249617487, -0.082, 0.98, -0.046, 192.0, 0.0, 0.0, 0.0, 0.0, 0.0, 0.0, 0.0, 0.0, 0.0, 1.6989581026435652E9, 0.0, 2023-11-02 16:48:22.643
42.0, -187500.02235174447, 187500.0, -4051.387792991137, 19697.765373917267, 187500.0, 187500.0, -187500.02235174447, 42150.60676939569, -0.082, 0.98, -0.046, 192.0, 0.0, 0.0, 0.0, 0.0, 0.0, 0.0, 0.0, 0.0, 0.0, 1.6989581026435747E9, 0.0, 2023-11-02 16:48:22.643
43.0, -187500.02235174447, 187500.0, -4050.739592401933, 19692.691527925912, 187500.0, 187500.0, -187500.02235174447, 42146.047013526804, -0.082, 0.98, -0.046, 192.0, 0.0, 0.0, 0.0, 0.0, 0.0, 0.0, 0.0, 0.0, 0.0, 1.6989581026435845E9, 0.0, 2023-11-02 16:48:22.643
44.0, -187500.02235174447, 187500.0, -4038.4237812070587, 19699.32999602914, 187500.0, 187500.0, -187500.02235174447, 42154.67478688655, -0.082, 0.98, -0.046, 192.0, 0.0, 0.0, 0.0, 0.0, 0.0, 0.0, 0.0, 0.0, 0.0, 1.698958102643594E9, 0.0, 2023-11-02 16:48:22.643
45.0, -187500.02235174447, 187500.0, -4044.32464174326, 19695.686661682925, 187500.0, 187500.0, -187500.02235174447, 42150.67382462905, -0.082, 0.98, -0.046, 192.0, 0.0, 0.0, 0.0, 0.0, 0.0, 0.0, 0.0, 0.0, 0.0, 1.6989581026436124E9, 0.0, 2023-11-02 16:48:22.643
46.0, -187500.02235174447, 187500.0, -4054.3382232592376, 19697.98889136182, 187500.0, 187500.0, -187500.02235174447, 42145.73408910443, -0.082, 0.98, -0.046, 192.0, 0.0, 0.0, 0.0, 0.0, 0.0, 0.0, 0.0, 0.0, 0.0, 1.698958102643622E9, 0.0, 2023-11-02 16:48:22.643
47.0, -187500.02235174447, 187500.0, -4058.450944239014, 19699.777030918245, 187500.0, 187500.0, -187500.02235174447, 42139.98969077941, -0.088, 0.98, -0.042, 192.0, 253.0, 64.0, 30.0, 160.0, 254.0, 176.0, 0.0, 0.0, 0.0, 1.6989581026436331E9, 0.0, 2023-11-02 16:48:22.643
48.0, -187500.02235174447, 187500.0, -4042.4694469534693, 19704.89558039851, 187500.0, 187500.0, -187500.02235174447, 42151.03145254034, -0.088, 0.98, -0.042, 192.0, 0.0, 0.0, 0.0, 0.0, 0.0, 0.0, 0.0, 0.0, 0.0, 1.6989581026436434E9, 0.0, 2023-11-02 16:48:22.643
49.0, -187500.02235174447, 187500.0, -4037.708525384489, 19709.164763589473, 187500.0, 187500.0, -187500.02235174447, 42155.21122875348, -0.088, 0.98, -0.042, 192.0, 0.0, 0.0, 0.0, 0.0, 0.0, 0.0, 0.0, 0.0, 0.0, 1.698958102643653E9, 0.0, 2023-11-02 16:48:22.643
50.0, -187500.02235174447, 187500.0, -4040.4354382080364, 19717.457260782394, 187500.0, 187500.0, -187500.02235174447, 42154.719490375464, -0.088, 0.98, -0.042, 192.0, 0.0, 0.0, 0.0, 0.0, 0.0, 0.0, 0.0, 0.0, 0.0, 1.6989581026436625E9, 0.0, 2023-11-02 16:48:22.643
51.0, -187500.02235174447, 187500.0, -4041.262452752883, 19721.972313162365, 187500.0, 187500.0, -187500.02235174447, 42155.63591189813, -0.088, 0.98, -0.042, 192.0, 0.0, 0.0, 0.0, 0.0, 0.0, 0.0, 0.0, 0.0, 0.0, 1.698958102643672E9, 0.0, 2023-11-02 16:48:22.643
52.0, -187500.02235174447, 187500.0, -4043.475275453958, 19715.065624125677, 187500.0, 187500.0, -187500.02235174447, 42151.992577551915, -0.088, 0.98, -0.042, 192.0, 0.0, 0.0, 0.0, 0.0, 0.0, 0.0, 0.0, 0.0, 0.0, 1.6989581026436815E9, 0.0, 2023-11-02 16:48:22.643
53.0, -187500.02235174447, 187500.0, -4036.2109585059834, 19717.14433636002, 187500.0, 187500.0, -187500.02235174447, 42157.379347965645, -0.088, 0.98, -0.042, 192.0, 0.0, 0.0, 0.0, 0.0, 0.0, 0.0, 0.0, 0.0, 0.0, 1.6989581026436913E9, 0.0, 2023-11-02 16:48:22.643
54.0, -187500.02235174447, 187500.0, -4038.937871329531, 19729.750720232812, 187500.0, 187500.0, -187500.02235174447, 42158.832211355235, -0.088, 0.98, -0.042, 192.0, 0.0, 0.0, 0.0, 0.0, 0.0, 0.0, 0.0, 0.0, 0.0, 1.6989581026437008E9, 0.0, 2023-11-02 16:48:22.643
55.0, -187500.02235174447, 187500.0, -4048.057383067296, 19730.823603966666, 187500.0, 187500.0, -187500.02235174447, 42150.96439730697, -0.088, 0.98, -0.042, 192.0, 0.0, 0.0, 0.0, 0.0, 0.0, 0.0, 0.0, 0.0, 0.0, 1.6989581026437104E9, 0.0, 2023-11-02 16:48:22.643
56.0, -187500.02235174447, 187500.0, -4045.6880981550335, 19724.453356796905, 187500.0, 187500.0, -187500.02235174447, 42148.215132738966, -0.088, 0.98, -0.042, 192.0, 0.0, 0.0, 0.0, 0.0, 0.0, 0.0, 0.0, 0.0, 0.0, 1.69895810264372E9, 0.0, 2023-11-02 16:48:22.643
57.0, -187500.02235174447, 187500.0, -4038.870816096165, 19728.72253998787, 187500.0, 187500.0, -187500.02235174447, 42153.4007374526, -0.094, 0.978, -0.04, 192.0, 253.0, 16.0, 30.0, 144.0, 254.0, 192.0, 0.0, 0.0, 0.0, 1.6989581026437297E9, 0.0, 2023-11-02 16:48:22.643
58.0, -187500.02235174447, 187500.0, -4039.9884033189305, 19735.964505191387, 187500.0, 187500.0, -187500.02235174447, 42152.1490397631, -0.094, 0.978, -0.04, 192.0, 0.0, 0.0, 0.0, 0.0, 0.0, 0.0, 0.0, 0.0, 0.0, 1.69895810264374E9, 0.0, 2023-11-02 16:48:22.643
59.0, -187500.02235174447, 187500.0, -4042.938833587031, 19739.049045926222, 187500.0, 187500.0, -187500.02235174447, 42151.00910079588, -0.094, 0.978, -0.04, 192.0, 0.0, 0.0, 0.0, 0.0, 0.0, 0.0, 0.0, 0.0, 0.0, 1.6989581026437497E9, 0.0, 2023-11-02 16:48:22.643
60.0, -187500.02235174447, 187500.0, -4047.073906311263, 19729.594258021625, 187500.0, 187500.0, -187500.02235174447, 42142.87306581415, -0.094, 0.978, -0.04, 192.0, 0.0, 0.0, 0.0, 0.0, 0.0, 0.0, 0.0, 0.0, 0.0, 1.6989581026437669E9, 0.0, 2023-11-02 16:48:22.643
61.0, -187500.02235174447, 187500.0, -4044.190531276528, 19727.694359742924, 187500.0, 187500.0, -187500.02235174447, 42145.51057165988, -0.094, 0.978, -0.04, 192.0, 0.0, 0.0, 0.0, 0.0, 0.0, 0.0, 0.0, 0.0, 0.0, 1.6989581026437764E9, 0.0, 2023-11-02 16:48:22.643
62.0, -187500.02235174447, 187500.0, -4047.699755156011, 19735.539822046736, 187500.0, 187500.0, -187500.02235174447, 42145.59997863769, -0.094, 0.978, -0.04, 192.0, 0.0, 0.0, 0.0, 0.0, 0.0, 0.0, 0.0, 0.0, 0.0, 1.698958102643786E9, 0.0, 2023-11-02 16:48:22.643
63.0, -187500.02235174447, 187500.0, -4058.4956477279247, 19741.66420002749, 187500.0, 187500.0, -187500.02235174447, 42140.41437392407, -0.094, 0.978, -0.04, 192.0, 0.0, 0.0, 0.0, 0.0, 0.0, 0.0, 0.0, 0.0, 0.0, 1.6989581026437955E9, 0.0, 2023-11-02 16:48:22.643
64.0, -187500.02235174447, 187500.0, -4062.317796029782, 19732.14235688953, 187500.0, 187500.0, -187500.02235174447, 42135.45228665499, -0.094, 0.978, -0.04, 192.0, 0.0, 0.0, 0.0, 0.0, 0.0, 0.0, 0.0, 0.0, 0.0, 1.6989581026438053E9, 0.0, 2023-11-02 16:48:22.643
65.0, -187500.02235174447, 187500.0, -4045.352821988204, 19736.05391216921, 187500.0, 187500.0, -187500.02235174447, 42147.18695249402, -0.094, 0.978, -0.04, 192.0, 0.0, 0.0, 0.0, 0.0, 0.0, 0.0, 0.0, 0.0, 0.0, 1.6989581026438148E9, 0.0, 2023-11-02 16:48:22.643
66.0, -187500.02235174447, 187500.0, -4044.749324887911, 19745.173423906974, 187500.0, 187500.0, -187500.02235174447, 42149.48918217292, -0.094, 0.978, -0.04, 192.0, 0.0, 0.0, 0.0, 0.0, 0.0, 0.0, 0.0, 0.0, 0.0, 1.6989581026438243E9, 0.0, 2023-11-02 16:48:22.643
67.0, -187500.02235174447, 187500.0, -4051.5666069467793, 19750.29197338724, 187500.0, 187500.0, -187500.02235174447, 42140.25791171288, -0.092, 0.978, -0.04, 192.0, 253.0, 32.0, 30.0, 144.0, 254.0, 192.0, 0.0, 0.0, 0.0, 1.698958102643834E9, 0.0, 2023-11-02 16:48:22.643
68.0, -187500.02235174447, 187500.0, -4048.2809005118493, 19754.449397855926, 187500.0, 187500.0, -187500.02235174447, 42141.48725765792, -0.092, 0.978, -0.04, 192.0, 0.0, 0.0, 0.0, 0.0, 0.0, 0.0, 0.0, 0.0, 0.0, 1.698958102643849E9, 0.0, 2023-11-02 16:48:22.643
69.0, -187500.02235174447, 187500.0, -4038.7143538849778, 19751.47661584337, 187500.0, 187500.0, -187500.02235174447, 42148.572760650255, -0.092, 0.978, -0.04, 192.0, 0.0, 0.0, 0.0, 0.0, 0.0, 0.0, 0.0, 0.0, 0.0, 1.6989581026438584E9, 0.0, 2023-11-02 16:48:22.643
70.0, -187500.02235174447, 187500.0, -4025.236251978428, 19765.155883450017, 187500.0, 187500.0, -187500.02235174447, 42159.614522411175, -0.092, 0.978, -0.04, 192.0, 0.0, 0.0, 0.0, 0.0, 0.0, 0.0, 0.0, 0.0, 0.0, 1.6989581026438682E9, 0.0, 2023-11-02 16:48:22.643
71.0, -187500.02235174447, 187500.0, -4035.2498334944053, 19779.6174621126, 187500.0, 187500.0, -187500.02235174447, 42154.63008339764, -0.092, 0.978, -0.04, 192.0, 0.0, 0.0, 0.0, 0.0, 0.0, 0.0, 0.0, 0.0, 0.0, 1.6989581026438777E9, 0.0, 2023-11-02 16:48:22.643
72.0, -187500.02235174447, 187500.0, -4046.4927609554247, 19769.469770129894, 187500.0, 187500.0, -187500.02235174447, 42143.72243210345, -0.092, 0.978, -0.04, 192.0, 0.0, 0.0, 0.0, 0.0, 0.0, 0.0, 0.0, 0.0, 0.0, 1.6989581026438873E9, 0.0, 2023-11-02 16:48:22.643
73.0, -187500.02235174447, 187500.0, -4043.7881998763323, 19763.591261338148, 187500.0, 187500.0, -187500.02235174447, 42145.44351642651, -0.092, 0.978, -0.04, 192.0, 0.0, 0.0, 0.0, 0.0, 0.0, 0.0, 0.0, 0.0, 0.0, 1.6989581026438968E9, 0.0, 2023-11-02 16:48:22.643
74.0, -187500.02235174447, 187500.0, -4049.9125778570865, 19759.657354314015, 187500.0, 187500.0, -187500.02235174447, 42138.916807045556, -0.092, 0.978, -0.04, 192.0, 0.0, 0.0, 0.0, 0.0, 0.0, 0.0, 0.0, 0.0, 0.0, 1.6989581026439068E9, 0.0, 2023-11-02 16:48:22.643
75.0, -187500.02235174447, 187500.0, -4051.4995517134134, 19767.90514801802, 187500.0, 187500.0, -187500.02235174447, 42137.1957227225, -0.092, 0.978, -0.04, 192.0, 0.0, 0.0, 0.0, 0.0, 0.0, 0.0, 0.0, 0.0, 0.0, 1.6989581026439521E9, 0.0, 2023-11-02 16:48:22.643
76.0, -187500.02235174447, 187500.0, -4052.9524151030087, 19770.475598630383, 187500.0, 187500.0, -187500.02235174447, 42135.67580409954, -0.092, 0.978, -0.04, 192.0, 0.0, 0.0, 0.0, 0.0, 0.0, 0.0, 0.0, 0.0, 0.0, 1.6989581026439624E9, 0.0, 2023-11-02 16:48:22.643
77.0, -187500.02235174447, 187500.0, -4047.61034817819, 19772.420200397995, 187500.0, 187500.0, -187500.02235174447, 42139.43089716803, -0.094, 0.978, -0.04, 192.0, 253.0, 16.0, 30.0, 144.0, 254.0, 192.0, 0.0, 0.0, 0.0, 1.6989581026439736E9, 0.0, 2023-11-02 16:48:22.643
78.0, -187500.02235174447, 187500.0, -4053.8241331367653, 19769.849749785633, 187500.0, 187500.0, -187500.02235174447, 42136.189894222014, -0.094, 0.978, -0.04, 192.0, 0.0, 0.0, 0.0, 0.0, 0.0, 0.0, 0.0, 0.0, 0.0, 1.6989581026439843E9, 0.0, 2023-11-02 16:48:22.643
79.0, -187500.02235174447, 187500.0, -4052.281862769349, 19781.606767369125, 187500.0, 187500.0, -187500.02235174447, 42140.50378090188, -0.094, 0.978, -0.04, 192.0, 0.0, 0.0, 0.0, 0.0, 0.0, 0.0, 0.0, 0.0, 0.0, 1.6989581026439943E9, 0.0, 2023-11-02 16:48:22.643
80.0, -187500.02235174447, 187500.0, -4048.1467900451175, 19795.26368323132, 187500.0, 187500.0, -187500.02235174447, 42144.303577459286, -0.094, 0.978, -0.04, 192.0, 0.0, 0.0, 0.0, 0.0, 0.0, 0.0, 0.0, 0.0, 0.0, 1.6989581026440043E9, 0.0, 2023-11-02 16:48:22.644
81.0, -187500.02235174447, 187500.0, -4040.7260108859555, 19795.174276253496, 187500.0, 187500.0, -187500.02235174447, 42149.10920251718, -0.094, 0.978, -0.04, 192.0, 0.0, 0.0, 0.0, 0.0, 0.0, 0.0, 0.0, 0.0, 0.0, 1.6989581026440144E9, 0.0, 2023-11-02 16:48:22.644
82.0, -187500.02235174447, 187500.0, -4030.421856692059, 19803.936160079975, 187500.0, 187500.0, -187500.02235174447, 42157.46875494346, -0.094, 0.978, -0.04, 192.0, 0.0, 0.0, 0.0, 0.0, 0.0, 0.0, 0.0, 0.0, 0.0, 1.6989581026440403E9, 0.0, 2023-11-02 16:48:22.644
83.0, -187500.02235174447, 187500.0, -4030.84653983671, 19812.8768578621, 187500.0, 187500.0, -187500.02235174447, 42156.9993683099, -0.094, 0.978, -0.04, 192.0, 0.0, 0.0, 0.0, 0.0, 0.0, 0.0, 0.0, 0.0, 0.0, 1.69895810264405E9, 0.0, 2023-11-02 16:48:22.644
84.0, -187500.02235174447, 187500.0, -4042.447095209014, 19816.475488719403, 187500.0, 187500.0, -187500.02235174447, 42145.979958293436, -0.094, 0.978, -0.04, 192.0, 0.0, 0.0, 0.0, 0.0, 0.0, 0.0, 0.0, 0.0, 0.0, 1.6989581026440597E9, 0.0, 2023-11-02 16:48:22.644
85.0, -187500.02235174447, 187500.0, -4051.700717413511, 19805.25491300284, 187500.0, 187500.0, -187500.02235174447, 42136.36870817765, -0.094, 0.978, -0.04, 192.0, 0.0, 0.0, 0.0, 0.0, 0.0, 0.0, 0.0, 0.0, 0.0, 1.6989581026440692E9, 0.0, 2023-11-02 16:48:22.644
86.0, -187500.02235174447, 187500.0, -4042.1788742755502, 19808.07123280421, 187500.0, 187500.0, -187500.02235174447, 42142.60484488068, -0.094, 0.978, -0.04, 192.0, 0.0, 0.0, 0.0, 0.0, 0.0, 0.0, 0.0, 0.0, 0.0, 1.6989581026440787E9, 0.0, 2023-11-02 16:48:22.644
87.0, -187500.02235174447, 187500.0, -4044.704621399, 19816.430785230492, 187500.0, 187500.0, -187500.02235174447, 42141.42020242455, -0.084, 0.976, -0.046, 192.0, 253.0, 96.0, 30.0, 128.0, 254.0, 144.0, 0.0, 0.0, 0.0, 1.6989581026440885E9, 0.0, 2023-11-02 16:48:22.644
88.0, -187500.02235174447, 187500.0, -4048.057383067296, 19824.63387544559, 187500.0, 187500.0, -187500.02235174447, 42138.46977215645, -0.084, 0.976, -0.046, 192.0, 0.0, 0.0, 0.0, 0.0, 0.0, 0.0, 0.0, 0.0, 0.0, 1.6989581026440988E9, 0.0, 2023-11-02 16:48:22.644
89.0, -187500.02235174447, 187500.0, -4045.41987722157, 19826.01968360182, 187500.0, 187500.0, -187500.02235174447, 42141.57666463574, -0.084, 0.976, -0.046, 192.0, 0.0, 0.0, 0.0, 0.0, 0.0, 0.0, 0.0, 0.0, 0.0, 1.6989581026441083E9, 0.0, 2023-11-02 16:48:22.644
90.0, -187500.02235174447, 187500.0, -4041.508321941891, 19820.990541099374, 187500.0, 187500.0, -187500.02235174447, 42143.27539721435, -0.084, 0.976, -0.046, 192.0, 0.0, 0.0, 0.0, 0.0, 0.0, 0.0, 0.0, 0.0, 0.0, 1.698958102644127E9, 0.0, 2023-11-02 16:48:22.644
91.0, -187500.02235174447, 187500.0, -4042.51415044238, 19825.50559347935, 187500.0, 187500.0, -187500.02235174447, 42141.55431289128, -0.084, 0.976, -0.046, 192.0, 0.0, 0.0, 0.0, 0.0, 0.0, 0.0, 0.0, 0.0, 0.0, 1.6989581026441364E9, 0.0, 2023-11-02 16:48:22.644
92.0, -187500.02235174447, 187500.0, -4032.120589270662, 19845.108073366653, 187500.0, 187500.0, -187500.02235174447, 42151.61259789617, -0.084, 0.976, -0.046, 192.0, 0.0, 0.0, 0.0, 0.0, 0.0, 0.0, 0.0, 0.0, 0.0, 1.698958102644146E9, 0.0, 2023-11-02 16:48:22.644
93.0, -187500.02235174447, 187500.0, -4032.9923073044192, 19849.801939702265, 187500.0, 187500.0, -187500.02235174447, 42154.652435142096, -0.084, 0.976, -0.046, 192.0, 0.0, 0.0, 0.0, 0.0, 0.0, 0.0, 0.0, 0.0, 0.0, 1.6989581026441555E9, 0.0, 2023-11-02 16:48:22.644
94.0, -187500.02235174447, 187500.0, -4044.101124298707, 19836.145023840076, 187500.0, 187500.0, -187500.02235174447, 42142.18016173603, -0.084, 0.976, -0.046, 192.0, 0.0, 0.0, 0.0, 0.0, 0.0, 0.0, 0.0, 0.0, 0.0, 1.6989581026441655E9, 0.0, 2023-11-02 16:48:22.644
95.0, -187500.02235174447, 187500.0, -4034.9816125609414, 19847.857337934656, 187500.0, 187500.0, -187500.02235174447, 42147.81280133877, -0.084, 0.976, -0.046, 192.0, 0.0, 0.0, 0.0, 0.0, 0.0, 0.0, 0.0, 0.0, 0.0, 1.6989581026441753E9, 0.0, 2023-11-02 16:48:22.644
96.0, -187500.02235174447, 187500.0, -4045.2410632659276, 19851.232451347405, 187500.0, 187500.0, -187500.02235174447, 42142.53778964732, -0.084, 0.976, -0.046, 192.0, 0.0, 0.0, 0.0, 0.0, 0.0, 0.0, 0.0, 0.0, 0.0, 1.6989581026441855E9, 0.0, 2023-11-02 16:48:22.644
97.0, -187500.02235174447, 187500.0, -4053.0865255697404, 19841.12946285361, 187500.0, 187500.0, -187500.02235174447, 42132.43480115352, -0.08600000000000001, 0.976, -0.038, 192.0, 253.0, 80.0, 30.0, 128.0, 254.0, 208.0, 0.0, 0.0, 0.0, 1.698958102644197E9, 0.0, 2023-11-02 16:48:22.644
98.0, -187500.02235174447, 187500.0, -4052.706545914, 19834.178070328006, 187500.0, 187500.0, -187500.02235174447, 42129.1937982075, -0.08600000000000001, 0.976, -0.038, 192.0, 0.0, 0.0, 0.0, 0.0, 0.0, 0.0, 0.0, 0.0, 0.0, 1.6989581026442077E9, 0.0, 2023-11-02 16:48:22.644
99.0, -187500.02235174447, 187500.0, -4045.4645807104807, 19838.491957007882, 187500.0, 187500.0, -187500.02235174447, 42132.94889127599, -0.08600000000000001, 0.976, -0.038, 192.0, 0.0, 0.0, 0.0, 0.0, 0.0, 0.0, 0.0, 0.0, 0.0, 1.6989581026442173E9, 0.0, 2023-11-02 16:48:22.644
100.0, -187500.02235174447, 187500.0, -4040.5024934414023, 19852.439445547992, 187500.0, 187500.0, -187500.02235174447, 42137.35218493369, -0.08600000000000001, 0.976, -0.038, 192.0, 0.0, 0.0, 0.0, 0.0, 0.0, 0.0, 0.0, 0.0, 0.0, 1.6989581026442268E9, 0.0, 2023-11-02 16:48:22.644
101.0, -187500.02235174447, 187500.0, -4050.51607495738, 19847.54441351228, 187500.0, 187500.0, -187500.02235174447, 42132.211283708966, -0.08600000000000001, 0.976, -0.038, 192.0, 0.0, 0.0, 0.0, 0.0, 0.0, 0.0, 0.0, 0.0, 0.0, 1.6989581026442366E9, 0.0, 2023-11-02 16:48:22.644
102.0, -187500.02235174447, 187500.0, -4047.99032783393, 19837.039093618285, 187500.0, 187500.0, -187500.02235174447, 42131.58543486422, -0.08600000000000001, 0.976, -0.038, 192.0, 0.0, 0.0, 0.0, 0.0, 0.0, 0.0, 0.0, 0.0, 0.0, 1.698958102644246E9, 0.0, 2023-11-02 16:48:22.644
103.0, -187500.02235174447, 187500.0, -4041.79889461981, 19833.216945316428, 187500.0, 187500.0, -187500.02235174447, 42139.36384193467, -0.08600000000000001, 0.976, -0.038, 192.0, 0.0, 0.0, 0.0, 0.0, 0.0, 0.0, 0.0, 0.0, 0.0, 1.6989581026442556E9, 0.0, 2023-11-02 16:48:22.644
104.0, -187500.02235174447, 187500.0, -4033.126417771151, 19838.15668084105, 187500.0, 187500.0, -187500.02235174447, 42151.00910079588, -0.08600000000000001, 0.976, -0.038, 192.0, 0.0, 0.0, 0.0, 0.0, 0.0, 0.0, 0.0, 0.0, 0.0, 1.6989581026442652E9, 0.0, 2023-11-02 16:48:22.644
105.0, -187500.02235174447, 187500.0, -4032.8581968376875, 19831.138233082085, 187500.0, 187500.0, -187500.02235174447, 42150.83028684024, -0.08600000000000001, 0.976, -0.038, 192.0, 0.0, 0.0, 0.0, 0.0, 0.0, 0.0, 0.0, 0.0, 0.0, 1.6989581026442826E9, 0.0, 2023-11-02 16:48:22.644
106.0, -187500.02235174447, 187500.0, -4040.0554585522964, 19803.377366468594, 187500.0, 187500.0, -187500.02235174447, 42143.56596989226, -0.08600000000000001, 0.976, -0.038, 192.0, 0.0, 0.0, 0.0, 0.0, 0.0, 0.0, 0.0, 0.0, 0.0, 1.6989581026442924E9, 0.0, 2023-11-02 16:48:22.644
107.0, -187500.02235174447, 187500.0, -4042.3576882311927, 19776.75643882232, 187500.0, 187500.0, -187500.02235174447, 42140.25791171288, -0.088, 0.98, -0.036000000000000004, 192.0, 253.0, 64.0, 30.0, 160.0, 254.0, 224.0, 0.0, 0.0, 0.0, 1.698958102644302E9, 0.0, 2023-11-02 16:48:22.644
108.0, -187500.02235174447, 187500.0, -4042.7600196313883, 19759.389133380548, 187500.0, 187500.0, -187500.02235174447, 42141.5990163802, -0.088, 0.98, -0.036000000000000004, 192.0, 0.0, 0.0, 0.0, 0.0, 0.0, 0.0, 0.0, 0.0, 0.0, 1.6989581026443129E9, 0.0, 2023-11-02 16:48:22.644
109.0, -187500.02235174447, 187500.0, -4045.151656288106, 19738.892583715035, 187500.0, 187500.0, -187500.02235174447, 42142.560141391776, -0.088, 0.98, -0.036000000000000004, 192.0, 0.0, 0.0, 0.0, 0.0, 0.0, 0.0, 0.0, 0.0, 0.0, 1.6989581026443224E9, 0.0, 2023-11-02 16:48:22.644
110.0, -187500.02235174447, 187500.0, -4038.1108567846845, 19710.438813023426, 187500.0, 187500.0, -187500.02235174447, 42149.37742345064, -0.088, 0.98, -0.036000000000000004, 192.0, 0.0, 0.0, 0.0, 0.0, 0.0, 0.0, 0.0, 0.0, 0.0, 1.6989581026443324E9, 0.0, 2023-11-02 16:48:22.644
111.0, -187500.02235174447, 187500.0, -4034.042839293819, 19679.392239975004, 187500.0, 187500.0, -187500.02235174447, 42153.22192349695, -0.088, 0.98, -0.036000000000000004, 192.0, 0.0, 0.0, 0.0, 0.0, 0.0, 0.0, 0.0, 0.0, 0.0, 1.6989581026443431E9, 0.0, 2023-11-02 16:48:22.644
112.0, -187500.02235174447, 187500.0, -4045.129304543651, 19648.8374053046, 187500.0, 187500.0, -187500.02235174447, 42144.97412979295, -0.088, 0.98, -0.036000000000000004, 192.0, 0.0, 0.0, 0.0, 0.0, 0.0, 0.0, 0.0, 0.0, 0.0, 1.698958102644353E9, 0.0, 2023-11-02 16:48:22.644
113.0, -187500.02235174447, 187500.0, -4055.5899209487347, 19618.908419478943, 187500.0, 187500.0, -187500.02235174447, 42135.362879677166, -0.088, 0.98, -0.036000000000000004, 192.0, 0.0, 0.0, 0.0, 0.0, 0.0, 0.0, 0.0, 0.0, 0.0, 1.698958102644363E9, 0.0, 2023-11-02 16:48:22.644
114.0, -187500.02235174447, 187500.0, -4054.807609892799, 19589.44882028685, 187500.0, 187500.0, -187500.02235174447, 42132.412449409065, -0.088, 0.98, -0.036000000000000004, 192.0, 0.0, 0.0, 0.0, 0.0, 0.0, 0.0, 0.0, 0.0, 0.0, 1.6989581026443727E9, 0.0, 2023-11-02 16:48:22.644
115.0, -187500.02235174447, 187500.0, -4043.6317376651455, 19572.103866589532, 187500.0, 187500.0, -187500.02235174447, 42140.77200183535, -0.088, 0.98, -0.036000000000000004, 192.0, 0.0, 0.0, 0.0, 0.0, 0.0, 0.0, 0.0, 0.0, 0.0, 1.6989581026443822E9, 0.0, 2023-11-02 16:48:22.644
116.0, -187500.02235174447, 187500.0, -4039.7425341299218, 19567.74527642075, 187500.0, 187500.0, -187500.02235174447, 42146.33758620472, -0.088, 0.98, -0.036000000000000004, 192.0, 0.0, 0.0, 0.0, 0.0, 0.0, 0.0, 0.0, 0.0, 0.0, 1.698958102644392E9, 0.0, 2023-11-02 16:48:22.644
117.0, -187500.02235174447, 187500.0, -4051.4101447355924, 19560.90564261742, 187500.0, 187500.0, -187500.02235174447, 42137.28512970032, -0.088, 0.974, -0.034, 192.0, 253.0, 64.0, 30.0, 112.0, 254.0, 240.0, 0.0, 0.0, 0.0, 1.6989581026444016E9, 0.0, 2023-11-02 16:48:22.644
118.0, -187500.02235174447, 187500.0, -4066.162296076095, 19534.664694626892, 187500.0, 187500.0, -187500.02235174447, 42118.46496086895, -0.088, 0.974, -0.034, 192.0, 0.0, 0.0, 0.0, 0.0, 0.0, 0.0, 0.0, 0.0, 0.0, 1.6989581026444116E9, 0.0, 2023-11-02 16:48:22.644
119.0, -187500.02235174447, 187500.0, -4052.3042145138047, 19530.127290502463, 187500.0, 187500.0, -187500.02235174447, 42126.80216155078, -0.088, 0.974, -0.034, 192.0, 0.0, 0.0, 0.0, 0.0, 0.0, 0.0, 0.0, 0.0, 0.0, 1.698958102644421E9, 0.0, 2023-11-02 16:48:22.644
120.0, -187500.02235174447, 187500.0, -4056.3275285157597, 19521.72303458727, 187500.0, 187500.0, -187500.02235174447, 42122.421219637545, -0.088, 0.974, -0.034, 192.0, 0.0, 0.0, 0.0, 0.0, 0.0, 0.0, 0.0, 0.0, 0.0, 1.698958102644439E9, 0.0, 2023-11-02 16:48:22.644
121.0, -187500.02235174447, 187500.0, -4059.6579384396005, 19527.28861895664, 187500.0, 187500.0, -187500.02235174447, 42120.27545216983, -0.088, 0.974, -0.034, 192.0, 0.0, 0.0, 0.0, 0.0, 0.0, 0.0, 0.0, 0.0, 0.0, 1.6989581031237175E9, 0.0, 2023-11-02 16:48:23.123
122.0, -187500.02235174447, 187500.0, -4060.395546006626, 19532.451871925816, 187500.0, 187500.0, -187500.02235174447, 42118.2414434244, -0.088, 0.974, -0.034, 192.0, 0.0, 0.0, 0.0, 0.0, 0.0, 0.0, 0.0, 0.0, 0.0, 1.6989581031237798E9, 0.0, 2023-11-02 16:48:23.123
123.0, -187500.02235174447, 187500.0, -4050.9184063575753, 19536.385778949953, 187500.0, 187500.0, -187500.02235174447, 42126.466885383954, -0.088, 0.974, -0.034, 192.0, 0.0, 0.0, 0.0, 0.0, 0.0, 0.0, 0.0, 0.0, 0.0, 1.6989581031238844E9, 0.0, 2023-11-02 16:48:23.123
124.0, -187500.02235174447, 187500.0, -4053.131229058651, 19533.882383570955, 187500.0, 187500.0, -187500.02235174447, 42125.19283595, -0.088, 0.974, -0.034, 192.0, 0.0, 0.0, 0.0, 0.0, 0.0, 0.0, 0.0, 0.0, 0.0, 1.6989581031238947E9, 0.0, 2023-11-02 16:48:23.123
125.0, -187500.02235174447, 187500.0, -4060.0826215842512, 19540.274982485174, 187500.0, 187500.0, -187500.02235174447, 42118.82258878024, -0.088, 0.974, -0.034, 192.0, 0.0, 0.0, 0.0, 0.0, 0.0, 0.0, 0.0, 0.0, 0.0, 1.6989581031239223E9, 0.0, 2023-11-02 16:48:23.123
126.0, -187500.02235174447, 187500.0, -4067.481048998958, 19532.429520181362, 187500.0, 187500.0, -187500.02235174447, 42110.55244333178, -0.088, 0.974, -0.034, 192.0, 0.0, 0.0, 0.0, 0.0, 0.0, 0.0, 0.0, 0.0, 0.0, 1.698958103123934E9, 0.0, 2023-11-02 16:48:23.123
127.0, -187500.02235174447, 187500.0, -4054.1370575591395, 19534.15060450442, 187500.0, 187500.0, -187500.02235174447, 42121.90712951507, -0.09, 0.974, -0.032, 192.0, 253.0, 48.0, 30.0, 112.0, 255.0, 0.0, 0.0, 0.0, 0.0, 1.698958103123944E9, 0.0, 2023-11-02 16:48:23.123
128.0, -187500.02235174447, 187500.0, -4054.874665126165, 19530.82019458058, 187500.0, 187500.0, -187500.02235174447, 42122.063591726255, -0.09, 0.974, -0.032, 192.0, 0.0, 0.0, 0.0, 0.0, 0.0, 0.0, 0.0, 0.0, 0.0, 1.6989581031239545E9, 0.0, 2023-11-02 16:48:23.123
129.0, -187500.02235174447, 187500.0, -4055.23229303745, 19529.836717824546, 187500.0, 187500.0, -187500.02235174447, 42120.92365275904, -0.09, 0.974, -0.032, 192.0, 0.0, 0.0, 0.0, 0.0, 0.0, 0.0, 0.0, 0.0, 0.0, 1.6989581031239643E9, 0.0, 2023-11-02 16:48:23.123
130.0, -187500.02235174447, 187500.0, -4062.5189617298797, 19530.373159691473, 187500.0, 187500.0, -187500.02235174447, 42112.16176893256, -0.09, 0.974, -0.032, 192.0, 0.0, 0.0, 0.0, 0.0, 0.0, 0.0, 0.0, 0.0, 0.0, 1.698958103123974E9, 0.0, 2023-11-02 16:48:23.123
131.0, -187500.02235174447, 187500.0, -4062.004871607408, 19529.970828291276, 187500.0, 187500.0, -187500.02235174447, 42108.80900726426, -0.09, 0.974, -0.032, 192.0, 0.0, 0.0, 0.0, 0.0, 0.0, 0.0, 0.0, 0.0, 0.0, 1.698958103123984E9, 0.0, 2023-11-02 16:48:23.123
132.0, -187500.02235174447, 187500.0, -4057.6239296941676, 19531.91543005889, 187500.0, 187500.0, -187500.02235174447, 42110.887719498605, -0.09, 0.974, -0.032, 192.0, 0.0, 0.0, 0.0, 0.0, 0.0, 0.0, 0.0, 0.0, 0.0, 1.6989581031239989E9, 0.0, 2023-11-02 16:48:23.123
133.0, -187500.02235174447, 187500.0, -4053.578263947757, 19544.90179358742, 187500.0, 187500.0, -187500.02235174447, 42119.11316145815, -0.09, 0.974, -0.032, 192.0, 0.0, 0.0, 0.0, 0.0, 0.0, 0.0, 0.0, 0.0, 0.0, 1.6989581031240084E9, 0.0, 2023-11-02 16:48:23.124
134.0, -187500.02235174447, 187500.0, -4069.0680228552847, 19541.303162730117, 187500.0, 187500.0, -187500.02235174447, 42105.366838618145, -0.09, 0.974, -0.032, 192.0, 0.0, 0.0, 0.0, 0.0, 0.0, 0.0, 0.0, 0.0, 0.0, 1.698958103124018E9, 0.0, 2023-11-02 16:48:23.124
135.0, -187500.02235174447, 187500.0, -4058.674461683567, 19541.48197668576, 187500.0, 187500.0, -187500.02235174447, 42109.30074564228, -0.09, 0.974, -0.032, 192.0, 0.0, 0.0, 0.0, 0.0, 0.0, 0.0, 0.0, 0.0, 0.0, 1.698958103124028E9, 0.0, 2023-11-02 16:48:23.124
136.0, -187500.02235174447, 187500.0, -4047.9456243450195, 19548.83570061156, 187500.0, 187500.0, -187500.02235174447, 42117.43678062401, -0.09, 0.974, -0.032, 192.0, 0.0, 0.0, 0.0, 0.0, 0.0, 0.0, 0.0, 0.0, 0.0, 1.6989581031240778E9, 0.0, 2023-11-02 16:48:23.124
137.0, -187500.02235174447, 187500.0, -4053.131229058651, 19544.00772380921, 187500.0, 187500.0, -187500.02235174447, 42108.11610318615, -0.088, 0.976, -0.034, 192.0, 253.0, 64.0, 30.0, 128.0, 254.0, 240.0, 0.0, 0.0, 0.0, 1.6989581031240876E9, 0.0, 2023-11-02 16:48:23.124
138.0, -187500.02235174447, 187500.0, -4058.808572150299, 19545.68410464336, 187500.0, 187500.0, -187500.02235174447, 42102.55051881677, -0.088, 0.976, -0.034, 192.0, 0.0, 0.0, 0.0, 0.0, 0.0, 0.0, 0.0, 0.0, 0.0, 1.698958103124098E9, 0.0, 2023-11-02 16:48:23.124
139.0, -187500.02235174447, 187500.0, -4069.7832786778545, 19530.86489806949, 187500.0, 187500.0, -187500.02235174447, 42089.5865070327, -0.088, 0.976, -0.034, 192.0, 0.0, 0.0, 0.0, 0.0, 0.0, 0.0, 0.0, 0.0, 0.0, 1.6989581031241076E9, 0.0, 2023-11-02 16:48:23.124
140.0, -187500.02235174447, 187500.0, -4058.89797912812, 19526.685121856346, 187500.0, 187500.0, -187500.02235174447, 42092.08990241169, -0.088, 0.976, -0.034, 192.0, 0.0, 0.0, 0.0, 0.0, 0.0, 0.0, 0.0, 0.0, 0.0, 1.6989581031241171E9, 0.0, 2023-11-02 16:48:23.124
141.0, -187500.02235174447, 187500.0, -4058.3391855167374, 19534.508232415705, 187500.0, 187500.0, -187500.02235174447, 42097.81194899225, -0.088, 0.976, -0.034, 192.0, 0.0, 0.0, 0.0, 0.0, 0.0, 0.0, 0.0, 0.0, 0.0, 1.698958103124127E9, 0.0, 2023-11-02 16:48:23.124
142.0, -187500.02235174447, 187500.0, -4068.7103949439997, 19535.737578360746, 187500.0, 187500.0, -187500.02235174447, 42091.017018677834, -0.088, 0.976, -0.034, 192.0, 0.0, 0.0, 0.0, 0.0, 0.0, 0.0, 0.0, 0.0, 0.0, 1.6989581031241364E9, 0.0, 2023-11-02 16:48:23.124
143.0, -187500.02235174447, 187500.0, -4076.444098525536, 19524.38289217745, 187500.0, 187500.0, -187500.02235174447, 42079.93055342801, -0.088, 0.976, -0.034, 192.0, 0.0, 0.0, 0.0, 0.0, 0.0, 0.0, 0.0, 0.0, 0.0, 1.698958103124146E9, 0.0, 2023-11-02 16:48:23.124
144.0, -187500.02235174447, 187500.0, -4060.5520082178127, 19526.461604411794, 187500.0, 187500.0, -187500.02235174447, 42088.71478899894, -0.088, 0.976, -0.034, 192.0, 0.0, 0.0, 0.0, 0.0, 0.0, 0.0, 0.0, 0.0, 0.0, 1.6989581031241555E9, 0.0, 2023-11-02 16:48:23.124
145.0, -187500.02235174447, 187500.0, -4057.154543060606, 19535.402302193917, 187500.0, 187500.0, -187500.02235174447, 42089.631210521606, -0.088, 0.976, -0.034, 192.0, 0.0, 0.0, 0.0, 0.0, 0.0, 0.0, 0.0, 0.0, 0.0, 1.6989581031241653E9, 0.0, 2023-11-02 16:48:23.124
146.0, -187500.02235174447, 187500.0, -4060.730822173455, 19543.270116242187, 187500.0, 187500.0, -187500.02235174447, 42087.79836747627, -0.088, 0.976, -0.034, 192.0, 0.0, 0.0, 0.0, 0.0, 0.0, 0.0, 0.0, 0.0, 0.0, 1.6989581031241748E9, 0.0, 2023-11-02 16:48:23.124
147.0, -187500.02235174447, 187500.0, -4063.971825119475, 19545.72880813227, 187500.0, 187500.0, -187500.02235174447, 42085.74200698638, -0.09, 0.982, -0.032, 192.0, 253.0, 48.0, 30.0, 176.0, 255.0, 0.0, 0.0, 0.0, 0.0, 1.6989581031241844E9, 0.0, 2023-11-02 16:48:23.124
148.0, -187500.02235174447, 187500.0, -4058.8532756392096, 19544.387703464952, 187500.0, 187500.0, -187500.02235174447, 42088.62538202112, -0.09, 0.982, -0.032, 192.0, 0.0, 0.0, 0.0, 0.0, 0.0, 0.0, 0.0, 0.0, 0.0, 1.6989581031241949E9, 0.0, 2023-11-02 16:48:23.124
149.0, -187500.02235174447, 187500.0, -4052.5053802139023, 19549.26038375621, 187500.0, 187500.0, -187500.02235174447, 42098.54955655927, -0.09, 0.982, -0.032, 192.0, 0.0, 0.0, 0.0, 0.0, 0.0, 0.0, 0.0, 0.0, 0.0, 1.6989581031242044E9, 0.0, 2023-11-02 16:48:23.124
150.0, -187500.02235174447, 187500.0, -4052.572435447268, 19564.05723858562, 187500.0, 187500.0, -187500.02235174447, 42103.0869606837, -0.09, 0.982, -0.032, 192.0, 0.0, 0.0, 0.0, 0.0, 0.0, 0.0, 0.0, 0.0, 0.0, 1.698958103124214E9, 0.0, 2023-11-02 16:48:23.124
151.0, -187500.02235174447, 187500.0, -4067.7269181879665, 19560.59271819505, 187500.0, 187500.0, -187500.02235174447, 42089.02771342131, -0.09, 0.982, -0.032, 192.0, 0.0, 0.0, 0.0, 0.0, 0.0, 0.0, 0.0, 0.0, 0.0, 1.6989581031242332E9, 0.0, 2023-11-02 16:48:23.124
152.0, -187500.02235174447, 187500.0, -4064.977653619964, 19548.545127933638, 187500.0, 187500.0, -187500.02235174447, 42085.294972097276, -0.09, 0.982, -0.032, 192.0, 0.0, 0.0, 0.0, 0.0, 0.0, 0.0, 0.0, 0.0, 0.0, 1.6989581031242428E9, 0.0, 2023-11-02 16:48:23.124
153.0, -187500.02235174447, 187500.0, -4051.924234858064, 19556.077665815075, 187500.0, 187500.0, -187500.02235174447, 42096.04616118028, -0.09, 0.982, -0.032, 192.0, 0.0, 0.0, 0.0, 0.0, 0.0, 0.0, 0.0, 0.0, 0.0, 1.6989581031242526E9, 0.0, 2023-11-02 16:48:23.124
154.0, -187500.02235174447, 187500.0, -4065.603502464712, 19555.40711348142, 187500.0, 187500.0, -187500.02235174447, 42083.551536029765, -0.09, 0.982, -0.032, 192.0, 0.0, 0.0, 0.0, 0.0, 0.0, 0.0, 0.0, 0.0, 0.0, 1.6989581031242645E9, 0.0, 2023-11-02 16:48:23.124
155.0, -187500.02235174447, 187500.0, -4067.7269181879665, 19560.860939128514, 187500.0, 187500.0, -187500.02235174447, 42081.62928600661, -0.09, 0.982, -0.032, 192.0, 0.0, 0.0, 0.0, 0.0, 0.0, 0.0, 0.0, 0.0, 0.0, 1.698958103124274E9, 0.0, 2023-11-02 16:48:23.124
156.0, -187500.02235174447, 187500.0, -4064.932950131053, 19563.230224040773, 187500.0, 187500.0, -187500.02235174447, 42083.88681219659, -0.09, 0.982, -0.032, 192.0, 0.0, 0.0, 0.0, 0.0, 0.0, 0.0, 0.0, 0.0, 0.0, 1.6989581031242836E9, 0.0, 2023-11-02 16:48:23.124
157.0, -187500.02235174447, 187500.0, -4060.999043106919, 19563.16316880741, 187500.0, 187500.0, -187500.02235174447, 42086.054931408755, -0.088, 0.984, -0.04, 192.0, 253.0, 64.0, 30.0, 192.0, 254.0, 192.0, 0.0, 0.0, 0.0, 1.698958103124293E9, 0.0, 2023-11-02 16:48:23.124
158.0, -187500.02235174447, 187500.0, -4059.3450140172263, 19570.651003199935, 187500.0, 187500.0, -187500.02235174447, 42086.14433838658, -0.088, 0.984, -0.04, 192.0, 0.0, 0.0, 0.0, 0.0, 0.0, 0.0, 0.0, 0.0, 0.0, 1.6989581031243036E9, 0.0, 2023-11-02 16:48:23.124
159.0, -187500.02235174447, 187500.0, -4074.9241799025754, 19567.67822118738, 187500.0, 187500.0, -187500.02235174447, 42074.18615510299, -0.088, 0.984, -0.04, 192.0, 0.0, 0.0, 0.0, 0.0, 0.0, 0.0, 0.0, 0.0, 0.0, 1.698958103124313E9, 0.0, 2023-11-02 16:48:23.124
160.0, -187500.02235174447, 187500.0, -4073.739537446444, 19562.87259612949, 187500.0, 187500.0, -187500.02235174447, 42072.88975392458, -0.088, 0.984, -0.04, 192.0, 0.0, 0.0, 0.0, 0.0, 0.0, 0.0, 0.0, 0.0, 0.0, 1.698958103124323E9, 0.0, 2023-11-02 16:48:23.124
161.0, -187500.02235174447, 187500.0, -4055.4334587375474, 19570.24867179974, 187500.0, 187500.0, -187500.02235174447, 42086.12198664212, -0.088, 0.984, -0.04, 192.0, 0.0, 0.0, 0.0, 0.0, 0.0, 0.0, 0.0, 0.0, 0.0, 1.6989581031243327E9, 0.0, 2023-11-02 16:48:23.124
162.0, -187500.02235174447, 187500.0, -4049.622005179168, 19583.905587661935, 187500.0, 187500.0, -187500.02235174447, 42092.67104776753, -0.088, 0.984, -0.04, 192.0, 0.0, 0.0, 0.0, 0.0, 0.0, 0.0, 0.0, 0.0, 0.0, 1.698958103124342E9, 0.0, 2023-11-02 16:48:23.124
163.0, -187500.02235174447, 187500.0, -4061.960168118497, 19584.77730569569, 187500.0, 187500.0, -187500.02235174447, 42081.942210428984, -0.088, 0.984, -0.04, 192.0, 0.0, 0.0, 0.0, 0.0, 0.0, 0.0, 0.0, 0.0, 0.0, 1.6989581031243515E9, 0.0, 2023-11-02 16:48:23.124
164.0, -187500.02235174447, 187500.0, -4062.5860169632456, 19579.83757017107, 187500.0, 187500.0, -187500.02235174447, 42080.31053308374, -0.088, 0.984, -0.04, 192.0, 0.0, 0.0, 0.0, 0.0, 0.0, 0.0, 0.0, 0.0, 0.0, 1.6989581031243613E9, 0.0, 2023-11-02 16:48:23.124
165.0, -187500.02235174447, 187500.0, -4057.9815576054525, 19573.713192190313, 187500.0, 187500.0, -187500.02235174447, 42082.433948806996, -0.088, 0.984, -0.04, 192.0, 0.0, 0.0, 0.0, 0.0, 0.0, 0.0, 0.0, 0.0, 0.0, 1.6989581031243725E9, 0.0, 2023-11-02 16:48:23.124
166.0, -187500.02235174447, 187500.0, -4053.600615692212, 19578.02707887019, 187500.0, 187500.0, -187500.02235174447, 42086.79253897578, -0.092, 0.98, -0.042, 192.0, 253.0, 32.0, 30.0, 160.0, 254.0, 176.0, 0.0, 0.0, 0.0, 1.6989581031244085E9, 0.0, 2023-11-02 16:48:23.124
167.0, -187500.02235174447, 187500.0, -4059.032089594852, 19585.894892918455, 187500.0, 187500.0, -187500.02235174447, 42085.80906221975, -0.092, 0.98, -0.042, 192.0, 0.0, 0.0, 0.0, 0.0, 0.0, 0.0, 0.0, 0.0, 0.0, 1.6989581031244197E9, 0.0, 2023-11-02 16:48:23.124
168.0, -187500.02235174447, 187500.0, -4070.4091275226033, 19578.87644515949, 187500.0, 187500.0, -187500.02235174447, 42073.49325102488, -0.092, 0.98, -0.042, 192.0, 0.0, 0.0, 0.0, 0.0, 0.0, 0.0, 0.0, 0.0, 0.0, 1.6989581031244297E9, 0.0, 2023-11-02 16:48:23.124
169.0, -187500.02235174447, 187500.0, -4056.483990726947, 19581.24573007175, 187500.0, 187500.0, -187500.02235174447, 42081.56223077324, -0.092, 0.98, -0.042, 192.0, 0.0, 0.0, 0.0, 0.0, 0.0, 0.0, 0.0, 0.0, 0.0, 1.6989581031244557E9, 0.0, 2023-11-02 16:48:23.124
170.0, -187500.02235174447, 187500.0, -4066.7657931763883, 19571.656831700424, 187500.0, 187500.0, -187500.02235174447, 42072.24155333538, -0.092, 0.98, -0.042, 192.0, 0.0, 0.0, 0.0, 0.0, 0.0, 0.0, 0.0, 0.0, 0.0, 1.6989581031244652E9, 0.0, 2023-11-02 16:48:23.124
171.0, -187500.02235174447, 187500.0, -4078.9474939045303, 19566.650040942437, 187500.0, 187500.0, -187500.02235174447, 42059.74692818486, -0.092, 0.98, -0.042, 192.0, 0.0, 0.0, 0.0, 0.0, 0.0, 0.0, 0.0, 0.0, 0.0, 1.6989581031244748E9, 0.0, 2023-11-02 16:48:23.124
172.0, -187500.02235174447, 187500.0, -4083.7531189624215, 19560.34684900604, 187500.0, 187500.0, -187500.02235174447, 42055.723614182905, -0.092, 0.98, -0.042, 192.0, 0.0, 0.0, 0.0, 0.0, 0.0, 0.0, 0.0, 0.0, 0.0, 1.6989581031244843E9, 0.0, 2023-11-02 16:48:23.124
173.0, -187500.02235174447, 187500.0, -4073.0466333683294, 19558.0669710716, 187500.0, 187500.0, -187500.02235174447, 42062.04915786376, -0.092, 0.98, -0.042, 192.0, 0.0, 0.0, 0.0, 0.0, 0.0, 0.0, 0.0, 0.0, 0.0, 1.6989581031244943E9, 0.0, 2023-11-02 16:48:23.124
174.0, -187500.02235174447, 187500.0, -4067.3916420211367, 19565.10777057502, 187500.0, 187500.0, -187500.02235174447, 42067.77120444432, -0.092, 0.98, -0.042, 192.0, 0.0, 0.0, 0.0, 0.0, 0.0, 0.0, 0.0, 0.0, 0.0, 1.6989581031245039E9, 0.0, 2023-11-02 16:48:23.124
175.0, -187500.02235174447, 187500.0, -4067.704566443511, 19577.468285258805, 187500.0, 187500.0, -187500.02235174447, 42074.20850684745, -0.092, 0.98, -0.042, 192.0, 0.0, 0.0, 0.0, 0.0, 0.0, 0.0, 0.0, 0.0, 0.0, 1.6989581031245153E9, 0.0, 2023-11-02 16:48:23.124
176.0, -187500.02235174447, 187500.0, -4076.086470614251, 19572.148570078443, 187500.0, 187500.0, -187500.02235174447, 42067.99472188887, -0.092, 0.982, -0.038, 192.0, 253.0, 32.0, 30.0, 176.0, 254.0, 208.0, 0.0, 0.0, 0.0, 1.6989581031245248E9, 0.0, 2023-11-02 16:48:23.124
177.0, -187500.02235174447, 187500.0, -4074.1418688466397, 19565.91243337541, 187500.0, 187500.0, -187500.02235174447, 42065.513678254334, -0.092, 0.982, -0.038, 192.0, 0.0, 0.0, 0.0, 0.0, 0.0, 0.0, 0.0, 0.0, 0.0, 1.6989581031245353E9, 0.0, 2023-11-02 16:48:23.124
178.0, -187500.02235174447, 187500.0, -4064.2400460529384, 19569.868692144002, 187500.0, 187500.0, -187500.02235174447, 42072.9791609024, -0.092, 0.982, -0.038, 192.0, 0.0, 0.0, 0.0, 0.0, 0.0, 0.0, 0.0, 0.0, 0.0, 1.698958103124545E9, 0.0, 2023-11-02 16:48:23.124
179.0, -187500.02235174447, 187500.0, -4067.1681245765835, 19575.277814302186, 187500.0, 187500.0, -187500.02235174447, 42071.41453879053, -0.092, 0.982, -0.038, 192.0, 0.0, 0.0, 0.0, 0.0, 0.0, 0.0, 0.0, 0.0, 0.0, 1.698958103124555E9, 0.0, 2023-11-02 16:48:23.124
180.0, -187500.02235174447, 187500.0, -4080.4674125274914, 19570.651003199935, 187500.0, 187500.0, -187500.02235174447, 42056.5282769833, -0.092, 0.982, -0.038, 192.0, 0.0, 0.0, 0.0, 0.0, 0.0, 0.0, 0.0, 0.0, 0.0, 1.6989581031245646E9, 0.0, 2023-11-02 16:48:23.124
181.0, -187500.02235174447, 187500.0, -4071.8843426566536, 19568.39347700995, 187500.0, 187500.0, -187500.02235174447, 42063.88200090909, -0.092, 0.982, -0.038, 192.0, 0.0, 0.0, 0.0, 0.0, 0.0, 0.0, 0.0, 0.0, 0.0, 1.698958103124582E9, 0.0, 2023-11-02 16:48:23.124
182.0, -187500.02235174447, 187500.0, -4054.740554659433, 19572.506197989725, 187500.0, 187500.0, -187500.02235174447, 42080.84697495067, -0.092, 0.982, -0.038, 192.0, 0.0, 0.0, 0.0, 0.0, 0.0, 0.0, 0.0, 0.0, 0.0, 1.6989581031245918E9, 0.0, 2023-11-02 16:48:23.124
183.0, -187500.02235174447, 187500.0, -4047.7221069004668, 19583.413849283916, 187500.0, 187500.0, -187500.02235174447, 42088.24540236538, -0.092, 0.982, -0.038, 192.0, 0.0, 0.0, 0.0, 0.0, 0.0, 0.0, 0.0, 0.0, 0.0, 1.698958103124602E9, 0.0, 2023-11-02 16:48:23.124
184.0, -187500.02235174447, 187500.0, -4072.4654880124917, 19573.601433468037, 187500.0, 187500.0, -187500.02235174447, 42068.575867244705, -0.092, 0.982, -0.038, 192.0, 0.0, 0.0, 0.0, 0.0, 0.0, 0.0, 0.0, 0.0, 0.0, 1.6989581031246116E9, 0.0, 2023-11-02 16:48:23.124
185.0, -187500.02235174447, 187500.0, -4079.5286392603684, 19563.073761829586, 187500.0, 187500.0, -187500.02235174447, 42061.244495063365, -0.092, 0.982, -0.038, 192.0, 0.0, 0.0, 0.0, 0.0, 0.0, 0.0, 0.0, 0.0, 0.0, 1.6989581031246212E9, 0.0, 2023-11-02 16:48:23.124
186.0, -187500.02235174447, 187500.0, -4065.4246885090697, 19569.82398865509, 187500.0, 187500.0, -187500.02235174447, 42075.013169647835, -0.098, 0.982, -0.044, 192.0, 252.0, 240.0, 30.0, 176.0, 254.0, 160.0, 0.0, 0.0, 0.0, 1.6989581031246307E9, 0.0, 2023-11-02 16:48:23.124
187.0, -187500.02235174447, 187500.0, -4065.938778631542, 19574.45079975734, 187500.0, 187500.0, -187500.02235174447, 42071.593352746175, -0.098, 0.982, -0.044, 192.0, 0.0, 0.0, 0.0, 0.0, 0.0, 0.0, 0.0, 0.0, 0.0, 1.698958103124641E9, 0.0, 2023-11-02 16:48:23.124
188.0, -187500.02235174447, 187500.0, -4067.5928077212347, 19578.362355037018, 187500.0, 187500.0, -187500.02235174447, 42070.65457947905, -0.098, 0.982, -0.044, 192.0, 0.0, 0.0, 0.0, 0.0, 0.0, 0.0, 0.0, 0.0, 0.0, 1.698958103124651E9, 0.0, 2023-11-02 16:48:23.124
189.0, -187500.02235174447, 187500.0, -4063.703604186011, 19588.35358480854, 187500.0, 187500.0, -187500.02235174447, 42077.91889642703, -0.098, 0.982, -0.044, 192.0, 0.0, 0.0, 0.0, 0.0, 0.0, 0.0, 0.0, 0.0, 0.0, 1.6989581031246605E9, 0.0, 2023-11-02 16:48:23.124
190.0, -187500.02235174447, 187500.0, -4059.3450140172263, 19582.765648694713, 187500.0, 187500.0, -187500.02235174447, 42079.68468423899, -0.098, 0.982, -0.044, 192.0, 0.0, 0.0, 0.0, 0.0, 0.0, 0.0, 0.0, 0.0, 0.0, 1.6989581031246705E9, 0.0, 2023-11-02 16:48:23.124
191.0, -187500.02235174447, 187500.0, -4058.5627029612906, 19582.653889972436, 187500.0, 187500.0, -187500.02235174447, 42078.61180050514, -0.098, 0.982, -0.044, 192.0, 0.0, 0.0, 0.0, 0.0, 0.0, 0.0, 0.0, 0.0, 0.0, 1.6989581031246808E9, 0.0, 2023-11-02 16:48:23.124
192.0, -187500.02235174447, 187500.0, -4057.713336671989, 19593.963872666824, 187500.0, 187500.0, -187500.02235174447, 42078.56709701623, -0.098, 0.982, -0.044, 192.0, 0.0, 0.0, 0.0, 0.0, 0.0, 0.0, 0.0, 0.0, 0.0, 1.6989581031246903E9, 0.0, 2023-11-02 16:48:23.124
193.0, -187500.02235174447, 187500.0, -4064.3071012863043, 19594.299148833652, 187500.0, 187500.0, -187500.02235174447, 42072.37566380211, -0.098, 0.982, -0.044, 192.0, 0.0, 0.0, 0.0, 0.0, 0.0, 0.0, 0.0, 0.0, 0.0, 1.6989581031247003E9, 0.0, 2023-11-02 16:48:23.124
194.0, -187500.02235174447, 187500.0, -4061.1778570625615, 19590.275834831697, 187500.0, 187500.0, -187500.02235174447, 42071.32513181271, -0.098, 0.982, -0.044, 192.0, 0.0, 0.0, 0.0, 0.0, 0.0, 0.0, 0.0, 0.0, 0.0, 1.69895810312471E9, 0.0, 2023-11-02 16:48:23.124
195.0, -187500.02235174447, 187500.0, -4061.669595440578, 19590.20877959833, 187500.0, 187500.0, -187500.02235174447, 42068.55351550025, -0.098, 0.982, -0.044, 192.0, 0.0, 0.0, 0.0, 0.0, 0.0, 0.0, 0.0, 0.0, 0.0, 1.6989581031247196E9, 0.0, 2023-11-02 16:48:23.124
196.0, -187500.02235174447, 187500.0, -4065.2011710645165, 19594.522666278204, 187500.0, 187500.0, -187500.02235174447, 42065.62543697661, -0.096, 0.98, -0.046, 192.0, 253.0, 0.0, 30.0, 160.0, 254.0, 144.0, 0.0, 0.0, 0.0, 1.6989581031247406E9, 0.0, 2023-11-02 16:48:23.124
197.0, -187500.02235174447, 187500.0, -4073.09133685724, 19590.521704020706, 187500.0, 187500.0, -187500.02235174447, 42058.13760258408, -0.096, 0.98, -0.046, 192.0, 0.0, 0.0, 0.0, 0.0, 0.0, 0.0, 0.0, 0.0, 0.0, 1.6989581031247509E9, 0.0, 2023-11-02 16:48:23.124
198.0, -187500.02235174447, 187500.0, -4061.2672640403825, 19587.101887119043, 187500.0, 187500.0, -187500.02235174447, 42065.021939876315, -0.096, 0.98, -0.046, 192.0, 0.0, 0.0, 0.0, 0.0, 0.0, 0.0, 0.0, 0.0, 0.0, 1.6989581031247604E9, 0.0, 2023-11-02 16:48:23.124
199.0, -187500.02235174447, 187500.0, -4053.3100430142936, 19595.43908780087, 187500.0, 187500.0, -187500.02235174447, 42073.35914055815, -0.096, 0.98, -0.046, 192.0, 0.0, 0.0, 0.0, 0.0, 0.0, 0.0, 0.0, 0.0, 0.0, 1.6989581031247702E9, 0.0, 2023-11-02 16:48:23.124
200.0, -187500.02235174447, 187500.0, -4061.2002088070167, 19605.31855885012, 187500.0, 187500.0, -187500.02235174447, 42066.921838155016, -0.096, 0.98, -0.046, 192.0, 0.0, 0.0, 0.0, 0.0, 0.0, 0.0, 0.0, 0.0, 0.0, 1.6989581031247797E9, 0.0, 2023-11-02 16:48:23.124
201.0, -187500.02235174447, 187500.0, -4061.580188462757, 19610.05712867464, 187500.0, 187500.0, -187500.02235174447, 42065.35721604314, -0.096, 0.98, -0.046, 192.0, 0.0, 0.0, 0.0, 0.0, 0.0, 0.0, 0.0, 0.0, 0.0, 1.6989581031247897E9, 0.0, 2023-11-02 16:48:23.124
202.0, -187500.02235174447, 187500.0, -4063.1448105746285, 19606.011462928233, 187500.0, 187500.0, -187500.02235174447, 42065.22310557641, -0.096, 0.98, -0.046, 192.0, 0.0, 0.0, 0.0, 0.0, 0.0, 0.0, 0.0, 0.0, 0.0, 1.698958103124799E9, 0.0, 2023-11-02 16:48:23.124
203.0, -187500.02235174447, 187500.0, -4067.570455976779, 19595.327329078595, 187500.0, 187500.0, -187500.02235174447, 42059.4787072514, -0.096, 0.98, -0.046, 192.0, 0.0, 0.0, 0.0, 0.0, 0.0, 0.0, 0.0, 0.0, 0.0, 1.6989581031248085E9, 0.0, 2023-11-02 16:48:23.124
204.0, -187500.02235174447, 187500.0, -4062.2283890519607, 19607.710195506836, 187500.0, 187500.0, -187500.02235174447, 42062.18326833049, -0.096, 0.98, -0.046, 192.0, 0.0, 0.0, 0.0, 0.0, 0.0, 0.0, 0.0, 0.0, 0.0, 1.6989581031248183E9, 0.0, 2023-11-02 16:48:23.124
205.0, -187500.02235174447, 187500.0, -4077.941665404042, 19600.8258582146, 187500.0, 187500.0, -187500.02235174447, 42048.19107630147, -0.096, 0.98, -0.046, 192.0, 0.0, 0.0, 0.0, 0.0, 0.0, 0.0, 0.0, 0.0, 0.0, 1.698958103124828E9, 0.0, 2023-11-02 16:48:23.124
206.0, -187500.02235174447, 187500.0, -4076.7570229479106, 19591.661642987925, 187500.0, 187500.0, -187500.02235174447, 42047.833448390185, -0.09, 0.974, -0.044, 192.0, 253.0, 48.0, 30.0, 112.0, 254.0, 160.0, 0.0, 0.0, 0.0, 1.6989581031248376E9, 0.0, 2023-11-02 16:48:23.124
207.0, -187500.02235174447, 187500.0, -4064.351804775215, 19593.44978254435, 187500.0, 187500.0, -187500.02235174447, 42055.723614182905, -0.09, 0.974, -0.044, 192.0, 0.0, 0.0, 0.0, 0.0, 0.0, 0.0, 0.0, 0.0, 0.0, 1.698958103124848E9, 0.0, 2023-11-02 16:48:23.124
208.0, -187500.02235174447, 187500.0, -4055.2769965263606, 19616.78500375569, 187500.0, 187500.0, -187500.02235174447, 42065.312512554236, -0.09, 0.974, -0.044, 192.0, 0.0, 0.0, 0.0, 0.0, 0.0, 0.0, 0.0, 0.0, 0.0, 1.6989581031248574E9, 0.0, 2023-11-02 16:48:23.124
209.0, -187500.02235174447, 187500.0, -4058.2721302833716, 19629.36903588403, 187500.0, 187500.0, -187500.02235174447, 42062.652654964055, -0.09, 0.974, -0.044, 192.0, 0.0, 0.0, 0.0, 0.0, 0.0, 0.0, 0.0, 0.0, 0.0, 1.698958103124867E9, 0.0, 2023-11-02 16:48:23.124
210.0, -187500.02235174447, 187500.0, -4054.740554659433, 19625.92686723791, 187500.0, 187500.0, -187500.02235174447, 42061.870343908115, -0.09, 0.974, -0.044, 192.0, 0.0, 0.0, 0.0, 0.0, 0.0, 0.0, 0.0, 0.0, 0.0, 1.6989581031248765E9, 0.0, 2023-11-02 16:48:23.124
211.0, -187500.02235174447, 187500.0, -4044.9281388435534, 19631.671265562924, 187500.0, 187500.0, -187500.02235174447, 42068.017073633324, -0.09, 0.974, -0.044, 192.0, 0.0, 0.0, 0.0, 0.0, 0.0, 0.0, 0.0, 0.0, 0.0, 1.6989581031248937E9, 0.0, 2023-11-02 16:48:23.124
212.0, -187500.02235174447, 187500.0, -4050.4266679795587, 19632.386521385495, 187500.0, 187500.0, -187500.02235174447, 42062.004454374844, -0.09, 0.974, -0.044, 192.0, 0.0, 0.0, 0.0, 0.0, 0.0, 0.0, 0.0, 0.0, 0.0, 1.6989581031249037E9, 0.0, 2023-11-02 16:48:23.124
213.0, -187500.02235174447, 187500.0, -4052.907711614098, 19642.69067557939, 187500.0, 187500.0, -187500.02235174447, 42065.26780906532, -0.09, 0.974, -0.044, 192.0, 0.0, 0.0, 0.0, 0.0, 0.0, 0.0, 0.0, 0.0, 0.0, 1.6989581031249132E9, 0.0, 2023-11-02 16:48:23.124
214.0, -187500.02235174447, 187500.0, -4060.1720285620727, 19637.683884821403, 187500.0, 187500.0, -187500.02235174447, 42059.344596784664, -0.09, 0.974, -0.044, 192.0, 0.0, 0.0, 0.0, 0.0, 0.0, 0.0, 0.0, 0.0, 0.0, 1.6989581031249225E9, 0.0, 2023-11-02 16:48:23.124
215.0, -187500.02235174447, 187500.0, -4050.225502279461, 19639.360265655552, 187500.0, 187500.0, -187500.02235174447, 42065.33486429869, -0.09, 0.974, -0.044, 192.0, 0.0, 0.0, 0.0, 0.0, 0.0, 0.0, 0.0, 0.0, 0.0, 1.6989581031249323E9, 0.0, 2023-11-02 16:48:23.124
216.0, -187500.02235174447, 187500.0, -4050.449019724014, 19644.300001180174, 187500.0, 187500.0, -187500.02235174447, 42066.18423058799, -0.092, 0.976, -0.046, 192.0, 253.0, 32.0, 30.0, 128.0, 254.0, 144.0, 0.0, 0.0, 0.0, 1.698958103124942E9, 0.0, 2023-11-02 16:48:23.124
217.0, -187500.02235174447, 187500.0, -4052.348918002715, 19654.671210607437, 187500.0, 187500.0, -187500.02235174447, 42063.36791078662, -0.092, 0.976, -0.046, 192.0, 0.0, 0.0, 0.0, 0.0, 0.0, 0.0, 0.0, 0.0, 0.0, 1.698958103124952E9, 0.0, 2023-11-02 16:48:23.124
218.0, -187500.02235174447, 187500.0, -4062.9212931300754, 19652.346629184085, 187500.0, 187500.0, -187500.02235174447, 42052.19203855897, -0.092, 0.976, -0.046, 192.0, 0.0, 0.0, 0.0, 0.0, 0.0, 0.0, 0.0, 0.0, 0.0, 1.6989581031249628E9, 0.0, 2023-11-02 16:48:23.124
219.0, -187500.02235174447, 187500.0, -4057.355708760704, 19646.490472136793, 187500.0, 187500.0, -187500.02235174447, 42050.98504435838, -0.092, 0.976, -0.046, 192.0, 0.0, 0.0, 0.0, 0.0, 0.0, 0.0, 0.0, 0.0, 0.0, 1.6989581031249726E9, 0.0, 2023-11-02 16:48:23.124
220.0, -187500.02235174447, 187500.0, -4048.2809005118493, 19651.7878355727, 187500.0, 187500.0, -187500.02235174447, 42053.60019845965, -0.092, 0.976, -0.046, 192.0, 0.0, 0.0, 0.0, 0.0, 0.0, 0.0, 0.0, 0.0, 0.0, 1.698958103124982E9, 0.0, 2023-11-02 16:48:23.124
221.0, -187500.02235174447, 187500.0, -4049.376135990159, 19663.03076303372, 187500.0, 187500.0, -187500.02235174447, 42056.70709093894, -0.092, 0.976, -0.046, 192.0, 0.0, 0.0, 0.0, 0.0, 0.0, 0.0, 0.0, 0.0, 0.0, 1.698958103124992E9, 0.0, 2023-11-02 16:48:23.124
222.0, -187500.02235174447, 187500.0, -4055.0534790818074, 19661.957879299865, 187500.0, 187500.0, -187500.02235174447, 42055.34363452717, -0.092, 0.976, -0.046, 192.0, 0.0, 0.0, 0.0, 0.0, 0.0, 0.0, 0.0, 0.0, 0.0, 1.6989581031250014E9, 0.0, 2023-11-02 16:48:23.125
223.0, -187500.02235174447, 187500.0, -4041.173045775062, 19664.215405489853, 187500.0, 187500.0, -187500.02235174447, 42064.887829409585, -0.092, 0.976, -0.046, 192.0, 0.0, 0.0, 0.0, 0.0, 0.0, 0.0, 0.0, 0.0, 0.0, 1.698958103125011E9, 0.0, 2023-11-02 16:48:23.125
224.0, -187500.02235174447, 187500.0, -4036.5238829283576, 19669.244547992297, 187500.0, 187500.0, -187500.02235174447, 42068.64292247807, -0.092, 0.976, -0.046, 192.0, 0.0, 0.0, 0.0, 0.0, 0.0, 0.0, 0.0, 0.0, 0.0, 1.6989581031250207E9, 0.0, 2023-11-02 16:48:23.125
225.0, -187500.02235174447, 187500.0, -4040.3460312302154, 19679.727516141837, 187500.0, 187500.0, -187500.02235174447, 42066.85478292165, -0.092, 0.976, -0.046, 192.0, 0.0, 0.0, 0.0, 0.0, 0.0, 0.0, 0.0, 0.0, 0.0, 1.698958103125032E9, 0.0, 2023-11-02 16:48:23.125
226.0, -187500.02235174447, 187500.0, -4058.674461683567, 19671.50207418228, 187500.0, 187500.0, -187500.02235174447, 42050.73917516937, -0.092, 0.978, -0.044, 192.0, 253.0, 32.0, 30.0, 144.0, 254.0, 160.0, 0.0, 0.0, 0.0, 1.6989581031250496E9, 0.0, 2023-11-02 16:48:23.125
227.0, -187500.02235174447, 187500.0, -4052.997118591919, 19665.51180666826, 187500.0, 187500.0, -187500.02235174447, 42051.18621005848, -0.092, 0.978, -0.044, 192.0, 0.0, 0.0, 0.0, 0.0, 0.0, 0.0, 0.0, 0.0, 0.0, 1.6989581031250598E9, 0.0, 2023-11-02 16:48:23.125
228.0, -187500.02235174447, 187500.0, -4048.2809005118493, 19669.84804509259, 187500.0, 187500.0, -187500.02235174447, 42054.114288582125, -0.092, 0.978, -0.044, 192.0, 0.0, 0.0, 0.0, 0.0, 0.0, 0.0, 0.0, 0.0, 0.0, 1.6989581031250694E9, 0.0, 2023-11-02 16:48:23.125
229.0, -187500.02235174447, 187500.0, -4059.032089594852, 19666.00354504628, 187500.0, 187500.0, -187500.02235174447, 42044.324224510696, -0.092, 0.978, -0.044, 192.0, 0.0, 0.0, 0.0, 0.0, 0.0, 0.0, 0.0, 0.0, 0.0, 1.6989581031250792E9, 0.0, 2023-11-02 16:48:23.125
230.0, -187500.02235174447, 187500.0, -4063.7483076749218, 19668.70810612537, 187500.0, 187500.0, -187500.02235174447, 42040.45737271993, -0.092, 0.978, -0.044, 192.0, 0.0, 0.0, 0.0, 0.0, 0.0, 0.0, 0.0, 0.0, 0.0, 1.6989581031250887E9, 0.0, 2023-11-02 16:48:23.125
231.0, -187500.02235174447, 187500.0, -4057.0204325938744, 19673.580786416627, 187500.0, 187500.0, -187500.02235174447, 42047.0734890787, -0.092, 0.978, -0.044, 192.0, 0.0, 0.0, 0.0, 0.0, 0.0, 0.0, 0.0, 0.0, 0.0, 1.6989581031250985E9, 0.0, 2023-11-02 16:48:23.125
232.0, -187500.02235174447, 187500.0, -4054.3829267481483, 19675.41362946196, 187500.0, 187500.0, -187500.02235174447, 42051.96852111442, -0.092, 0.978, -0.044, 192.0, 0.0, 0.0, 0.0, 0.0, 0.0, 0.0, 0.0, 0.0, 0.0, 1.698958103125108E9, 0.0, 2023-11-02 16:48:23.125
233.0, -187500.02235174447, 187500.0, -4046.9844993334414, 19684.555492944182, 187500.0, 187500.0, -187500.02235174447, 42058.40582351754, -0.092, 0.978, -0.044, 192.0, 0.0, 0.0, 0.0, 0.0, 0.0, 0.0, 0.0, 0.0, 0.0, 1.6989581031251173E9, 0.0, 2023-11-02 16:48:23.125
234.0, -187500.02235174447, 187500.0, -4057.8921506276315, 19692.065679081166, 187500.0, 187500.0, -187500.02235174447, 42048.95103561295, -0.092, 0.978, -0.044, 192.0, 0.0, 0.0, 0.0, 0.0, 0.0, 0.0, 0.0, 0.0, 0.0, 1.698958103125127E9, 0.0, 2023-11-02 16:48:23.125
235.0, -187500.02235174447, 187500.0, -4064.7094326865, 19679.32518474164, 187500.0, 187500.0, -187500.02235174447, 42040.45737271993, -0.092, 0.978, -0.044, 192.0, 0.0, 0.0, 0.0, 0.0, 0.0, 0.0, 0.0, 0.0, 0.0, 1.6989581031251366E9, 0.0, 2023-11-02 16:48:23.125
236.0, -187500.02235174447, 187500.0, -4045.6880981550335, 19687.19299878991, 187500.0, 187500.0, -187500.02235174447, 42055.65655894954, -0.092, 0.974, -0.044, 192.0, 253.0, 32.0, 30.0, 112.0, 254.0, 160.0, 0.0, 0.0, 0.0, 1.698958103125146E9, 0.0, 2023-11-02 16:48:23.125
237.0, -187500.02235174447, 187500.0, -4048.9514528455084, 19693.362080259572, 187500.0, 187500.0, -187500.02235174447, 42054.56132347123, -0.092, 0.974, -0.044, 192.0, 0.0, 0.0, 0.0, 0.0, 0.0, 0.0, 0.0, 0.0, 0.0, 1.6989581031251564E9, 0.0, 2023-11-02 16:48:23.125
238.0, -187500.02235174447, 187500.0, -4066.2069995650054, 19688.75762090178, 187500.0, 187500.0, -187500.02235174447, 42039.8762273641, -0.092, 0.974, -0.044, 192.0, 0.0, 0.0, 0.0, 0.0, 0.0, 0.0, 0.0, 0.0, 0.0, 1.698958103125166E9, 0.0, 2023-11-02 16:48:23.125
239.0, -187500.02235174447, 187500.0, -4069.448002511025, 19685.13663830002, 187500.0, 187500.0, -187500.02235174447, 42035.89761685105, -0.092, 0.974, -0.044, 192.0, 0.0, 0.0, 0.0, 0.0, 0.0, 0.0, 0.0, 0.0, 0.0, 1.698958103125177E9, 0.0, 2023-11-02 16:48:23.125
240.0, -187500.02235174447, 187500.0, -4055.1428860596284, 19689.025841835242, 187500.0, 187500.0, -187500.02235174447, 42047.18524780098, -0.092, 0.974, -0.044, 192.0, 0.0, 0.0, 0.0, 0.0, 0.0, 0.0, 0.0, 0.0, 0.0, 1.6989581031251864E9, 0.0, 2023-11-02 16:48:23.125
241.0, -187500.02235174447, 187500.0, -4048.7279354009556, 19699.352347773594, 187500.0, 187500.0, -187500.02235174447, 42054.94130312697, -0.092, 0.974, -0.044, 192.0, 0.0, 0.0, 0.0, 0.0, 0.0, 0.0, 0.0, 0.0, 0.0, 1.698958103603567E9, 0.0, 2023-11-02 16:48:23.603
242.0, -187500.02235174447, 187500.0, -4056.4392872380363, 19713.52335375826, 187500.0, 187500.0, -187500.02235174447, 42050.0239193468, -0.092, 0.974, -0.044, 192.0, 0.0, 0.0, 0.0, 0.0, 0.0, 0.0, 0.0, 0.0, 0.0, 1.6989581036036954E9, 0.0, 2023-11-02 16:48:23.603
243.0, -187500.02235174447, 187500.0, -4069.3362437887486, 19705.879057154543, 187500.0, 187500.0, -187500.02235174447, 42036.27759650679, -0.092, 0.974, -0.044, 192.0, 0.0, 0.0, 0.0, 0.0, 0.0, 0.0, 0.0, 0.0, 0.0, 1.6989581036037145E9, 0.0, 2023-11-02 16:48:23.603
244.0, -187500.02235174447, 187500.0, -4063.5918454637344, 19701.833391408134, 187500.0, 187500.0, -187500.02235174447, 42037.3728319851, -0.092, 0.974, -0.044, 192.0, 0.0, 0.0, 0.0, 0.0, 0.0, 0.0, 0.0, 0.0, 0.0, 1.698958103603729E9, 0.0, 2023-11-02 16:48:23.603
245.0, -187500.02235174447, 187500.0, -4062.384851263148, 19703.57682747565, 187500.0, 187500.0, -187500.02235174447, 42039.33978549716, -0.092, 0.974, -0.044, 192.0, 0.0, 0.0, 0.0, 0.0, 0.0, 0.0, 0.0, 0.0, 0.0, 1.6989581036037428E9, 0.0, 2023-11-02 16:48:23.603
246.0, -187500.02235174447, 187500.0, -4059.0097378503965, 19718.552496260705, 187500.0, 187500.0, -187500.02235174447, 42045.374756500096, -0.088, 0.976, -0.042, 192.0, 253.0, 64.0, 30.0, 128.0, 254.0, 176.0, 0.0, 0.0, 0.0, 1.698958103603757E9, 0.0, 2023-11-02 16:48:23.603
247.0, -187500.02235174447, 187500.0, -4067.257531554405, 19719.223048594362, 187500.0, 187500.0, -187500.02235174447, 42040.39031748656, -0.088, 0.976, -0.042, 192.0, 0.0, 0.0, 0.0, 0.0, 0.0, 0.0, 0.0, 0.0, 0.0, 1.698958103603791E9, 0.0, 2023-11-02 16:48:23.603
248.0, -187500.02235174447, 187500.0, -4054.0923540702292, 19719.62537999456, 187500.0, 187500.0, -187500.02235174447, 42051.40972750303, -0.088, 0.976, -0.042, 192.0, 0.0, 0.0, 0.0, 0.0, 0.0, 0.0, 0.0, 0.0, 0.0, 1.6989581036038032E9, 0.0, 2023-11-02 16:48:23.603
249.0, -187500.02235174447, 187500.0, -4048.3703074896707, 19723.58163876315, 187500.0, 187500.0, -187500.02235174447, 42056.39416651656, -0.088, 0.976, -0.042, 192.0, 0.0, 0.0, 0.0, 0.0, 0.0, 0.0, 0.0, 0.0, 0.0, 1.6989581036038144E9, 0.0, 2023-11-02 16:48:23.603
250.0, -187500.02235174447, 187500.0, -4048.1691417895727, 19735.539822046736, 187500.0, 187500.0, -187500.02235174447, 42058.450527006455, -0.088, 0.976, -0.042, 192.0, 0.0, 0.0, 0.0, 0.0, 0.0, 0.0, 0.0, 0.0, 0.0, 1.6989581036038241E9, 0.0, 2023-11-02 16:48:23.603
251.0, -187500.02235174447, 187500.0, -4047.8785691116536, 19745.262830884796, 187500.0, 187500.0, -187500.02235174447, 42059.65752120704, -0.088, 0.976, -0.042, 192.0, 0.0, 0.0, 0.0, 0.0, 0.0, 0.0, 0.0, 0.0, 0.0, 1.698958103603834E9, 0.0, 2023-11-02 16:48:23.603
252.0, -187500.02235174447, 187500.0, -4060.6637669400893, 19732.56704003418, 187500.0, 187500.0, -187500.02235174447, 42048.660462935026, -0.088, 0.976, -0.042, 192.0, 0.0, 0.0, 0.0, 0.0, 0.0, 0.0, 0.0, 0.0, 0.0, 1.698958103603861E9, 0.0, 2023-11-02 16:48:23.603
253.0, -187500.02235174447, 187500.0, -4048.8173423787766, 19737.216202880885, 187500.0, 187500.0, -187500.02235174447, 42058.98696887338, -0.088, 0.976, -0.042, 192.0, 0.0, 0.0, 0.0, 0.0, 0.0, 0.0, 0.0, 0.0, 0.0, 1.6989581036038768E9, 0.0, 2023-11-02 16:48:23.603
254.0, -187500.02235174447, 187500.0, -4043.095295798218, 19753.10829318861, 187500.0, 187500.0, -187500.02235174447, 42066.60891373264, -0.088, 0.976, -0.042, 192.0, 0.0, 0.0, 0.0, 0.0, 0.0, 0.0, 0.0, 0.0, 0.0, 1.6989581036039147E9, 0.0, 2023-11-02 16:48:23.603
255.0, -187500.02235174447, 187500.0, -4060.999043106919, 19746.53688031875, 187500.0, 187500.0, -187500.02235174447, 42051.320320525214, -0.088, 0.976, -0.042, 192.0, 0.0, 0.0, 0.0, 0.0, 0.0, 0.0, 0.0, 0.0, 0.0, 1.69895810360393E9, 0.0, 2023-11-02 16:48:23.603
0.0, -187500.02235174447, 187500.0, -4064.418860008581, 19735.22689762436, 187500.0, 187500.0, -187500.02235174447, 42044.48068672189, -0.08, 0.98, -0.038, 192.0, 253.0, 128.0, 30.0, 160.0, 254.0, 208.0, 0.0, 0.0, 0.0, 1.6989581036041415E9, 0.0, 2023-11-02 16:48:23.604
1.0, -187500.02235174447, 187500.0, -4053.7123744144887, 19735.405711580006, 187500.0, 187500.0, -187500.02235174447, 42052.28144553679, -0.08, 0.98, -0.038, 192.0, 0.0, 0.0, 0.0, 0.0, 0.0, 0.0, 0.0, 0.0, 0.0, 1.6989581036041672E9, 0.0, 2023-11-02 16:48:23.604
2.0, -187500.02235174447, 187500.0, -4051.7454209024218, 19742.357104105606, 187500.0, 187500.0, -187500.02235174447, 42053.80136415975, -0.08, 0.98, -0.038, 192.0, 0.0, 0.0, 0.0, 0.0, 0.0, 0.0, 0.0, 0.0, 0.0, 1.698958103604182E9, 0.0, 2023-11-02 16:48:23.604
3.0, -187500.02235174447, 187500.0, -4065.8270199092653, 19739.18315639295, 187500.0, 187500.0, -187500.02235174447, 42042.021994831804, -0.08, 0.98, -0.038, 192.0, 0.0, 0.0, 0.0, 0.0, 0.0, 0.0, 0.0, 0.0, 0.0, 1.698958103604197E9, 0.0, 2023-11-02 16:48:23.604
4.0, -187500.02235174447, 187500.0, -4066.2740547983713, 19739.51843255978, 187500.0, 187500.0, -187500.02235174447, 42038.15514304103, -0.08, 0.98, -0.038, 192.0, 0.0, 0.0, 0.0, 0.0, 0.0, 0.0, 0.0, 0.0, 0.0, 1.698958103604226E9, 0.0, 2023-11-02 16:48:23.604
5.0, -187500.02235174447, 187500.0, -4058.070964583274, 19742.20064189442, 187500.0, 187500.0, -187500.02235174447, 42045.732384411385, -0.08, 0.98, -0.038, 192.0, 0.0, 0.0, 0.0, 0.0, 0.0, 0.0, 0.0, 0.0, 0.0, 1.6989581036042376E9, 0.0, 2023-11-02 16:48:23.604
6.0, -187500.02235174447, 187500.0, -4056.9980808494192, 19754.941136233945, 187500.0, 187500.0, -187500.02235174447, 42049.53218096879, -0.08, 0.98, -0.038, 192.0, 0.0, 0.0, 0.0, 0.0, 0.0, 0.0, 0.0, 0.0, 0.0, 1.698958103604251E9, 0.0, 2023-11-02 16:48:23.604
7.0, -187500.02235174447, 187500.0, -4065.1341158311507, 19752.638906555047, 187500.0, 187500.0, -187500.02235174447, 42043.832486132684, -0.08, 0.98, -0.038, 192.0, 0.0, 0.0, 0.0, 0.0, 0.0, 0.0, 0.0, 0.0, 0.0, 1.698958103604266E9, 0.0, 2023-11-02 16:48:23.604
8.0, -187500.02235174447, 187500.0, -4060.060269839796, 19757.355124635116, 187500.0, 187500.0, -187500.02235174447, 42047.90050362355, -0.08, 0.98, -0.038, 192.0, 0.0, 0.0, 0.0, 0.0, 0.0, 0.0, 0.0, 0.0, 0.0, 1.6989581036042817E9, 0.0, 2023-11-02 16:48:23.604
9.0, -187500.02235174447, 187500.0, -4050.1137435571845, 19766.787560795256, 187500.0, 187500.0, -187500.02235174447, 42055.05306184925, -0.08, 0.98, -0.038, 192.0, 0.0, 0.0, 0.0, 0.0, 0.0, 0.0, 0.0, 0.0, 0.0, 1.698958103604294E9, 0.0, 2023-11-02 16:48:23.604
10.0, -187500.02235174447, 187500.0, -4052.1254005581623, 19770.20737769692, 187500.0, 187500.0, -187500.02235174447, 42052.929646125995, -0.08600000000000001, 0.978, -0.042, 192.0, 253.0, 80.0, 30.0, 144.0, 254.0, 176.0, 0.0, 0.0, 0.0, 1.6989581036043074E9, 0.0, 2023-11-02 16:48:23.604
11.0, -187500.02235174447, 187500.0, -4054.248816281416, 19780.19860746844, 187500.0, 187500.0, -187500.02235174447, 42051.85676239214, -0.08600000000000001, 0.978, -0.042, 192.0, 0.0, 0.0, 0.0, 0.0, 0.0, 0.0, 0.0, 0.0, 0.0, 1.6989581036043303E9, 0.0, 2023-11-02 16:48:23.604
12.0, -187500.02235174447, 187500.0, -4055.098182570718, 19786.63590987157, 187500.0, 187500.0, -187500.02235174447, 42051.16385831402, -0.08600000000000001, 0.978, -0.042, 192.0, 0.0, 0.0, 0.0, 0.0, 0.0, 0.0, 0.0, 0.0, 0.0, 1.6989581036043503E9, 0.0, 2023-11-02 16:48:23.604
13.0, -187500.02235174447, 187500.0, -4046.738630144433, 19788.8710843171, 187500.0, 187500.0, -187500.02235174447, 42060.01514911833, -0.08600000000000001, 0.978, -0.042, 192.0, 0.0, 0.0, 0.0, 0.0, 0.0, 0.0, 0.0, 0.0, 0.0, 1.6989581036043684E9, 0.0, 2023-11-02 16:48:23.604
14.0, -187500.02235174447, 187500.0, -4047.4985894559136, 19789.988671539864, 187500.0, 187500.0, -187500.02235174447, 42058.875210151105, -0.08600000000000001, 0.978, -0.042, 192.0, 0.0, 0.0, 0.0, 0.0, 0.0, 0.0, 0.0, 0.0, 0.0, 1.6989581036043842E9, 0.0, 2023-11-02 16:48:23.604
15.0, -187500.02235174447, 187500.0, -4051.298386013316, 19794.48137217538, 187500.0, 187500.0, -187500.02235174447, 42057.15412582805, -0.08600000000000001, 0.978, -0.042, 192.0, 0.0, 0.0, 0.0, 0.0, 0.0, 0.0, 0.0, 0.0, 0.0, 1.698958103604402E9, 0.0, 2023-11-02 16:48:23.604
16.0, -187500.02235174447, 187500.0, -4053.7794296478546, 19797.25298848784, 187500.0, 187500.0, -187500.02235174447, 42055.0754135937, -0.08600000000000001, 0.978, -0.042, 192.0, 0.0, 0.0, 0.0, 0.0, 0.0, 0.0, 0.0, 0.0, 0.0, 1.6989581036044817E9, 0.0, 2023-11-02 16:48:23.604
17.0, -187500.02235174447, 187500.0, -4048.9514528455084, 19793.989633797366, 187500.0, 187500.0, -187500.02235174447, 42055.164820571525, -0.08600000000000001, 0.978, -0.042, 192.0, 0.0, 0.0, 0.0, 0.0, 0.0, 0.0, 0.0, 0.0, 0.0, 1.6989581036045089E9, 0.0, 2023-11-02 16:48:23.604
18.0, -187500.02235174447, 187500.0, -4042.3800399756483, 19792.425011685493, 187500.0, 187500.0, -187500.02235174447, 42058.249361306356, -0.08600000000000001, 0.978, -0.042, 192.0, 0.0, 0.0, 0.0, 0.0, 0.0, 0.0, 0.0, 0.0, 0.0, 1.6989581036045294E9, 0.0, 2023-11-02 16:48:23.604
19.0, -187500.02235174447, 187500.0, -4046.3362987442374, 19796.29186347626, 187500.0, 187500.0, -187500.02235174447, 42057.198829316956, -0.08600000000000001, 0.978, -0.042, 192.0, 0.0, 0.0, 0.0, 0.0, 0.0, 0.0, 0.0, 0.0, 0.0, 1.6989581036045537E9, 0.0, 2023-11-02 16:48:23.604
20.0, -187500.02235174447, 187500.0, -4052.192455791528, 19800.985729811877, 187500.0, 187500.0, -187500.02235174447, 42052.08027983669, -0.09, 0.976, -0.046, 192.0, 253.0, 48.0, 30.0, 128.0, 254.0, 144.0, 0.0, 0.0, 0.0, 1.6989581036045728E9, 0.0, 2023-11-02 16:48:23.604
21.0, -187500.02235174447, 187500.0, -4041.3742114751594, 19805.411375214026, 187500.0, 187500.0, -187500.02235174447, 42059.299893295756, -0.09, 0.976, -0.046, 192.0, 0.0, 0.0, 0.0, 0.0, 0.0, 0.0, 0.0, 0.0, 0.0, 1.6989581036045885E9, 0.0, 2023-11-02 16:48:23.604
22.0, -187500.02235174447, 187500.0, -4037.4403044510254, 19809.658206660533, 187500.0, 187500.0, -187500.02235174447, 42062.18326833049, -0.09, 0.976, -0.046, 192.0, 0.0, 0.0, 0.0, 0.0, 0.0, 0.0, 0.0, 0.0, 0.0, 1.6989581036046128E9, 0.0, 2023-11-02 16:48:23.604
23.0, -187500.02235174447, 187500.0, -4049.1079150566957, 19813.055671817743, 187500.0, 187500.0, -187500.02235174447, 42055.90242813855, -0.09, 0.976, -0.046, 192.0, 0.0, 0.0, 0.0, 0.0, 0.0, 0.0, 0.0, 0.0, 0.0, 1.6989581036046615E9, 0.0, 2023-11-02 16:48:23.604
24.0, -187500.02235174447, 187500.0, -4055.0758308262625, 19822.286942277784, 187500.0, 187500.0, -187500.02235174447, 42054.404861260045, -0.09, 0.976, -0.046, 192.0, 0.0, 0.0, 0.0, 0.0, 0.0, 0.0, 0.0, 0.0, 0.0, 1.6989581036046996E9, 0.0, 2023-11-02 16:48:23.604
25.0, -187500.02235174447, 187500.0, -4054.293519770327, 19818.129517809095, 187500.0, 187500.0, -187500.02235174447, 42050.60506470264, -0.09, 0.976, -0.046, 192.0, 0.0, 0.0, 0.0, 0.0, 0.0, 0.0, 0.0, 0.0, 0.0, 1.6989581036047556E9, 0.0, 2023-11-02 16:48:23.604
26.0, -187500.02235174447, 187500.0, -4045.710449899489, 19819.582381198692, 187500.0, 187500.0, -187500.02235174447, 42056.058890349734, -0.09, 0.976, -0.046, 192.0, 0.0, 0.0, 0.0, 0.0, 0.0, 0.0, 0.0, 0.0, 0.0, 1.6989581036048076E9, 0.0, 2023-11-02 16:48:23.604
27.0, -187500.02235174447, 187500.0, -4045.9563190884974, 19832.8816691496, 187500.0, 187500.0, -187500.02235174447, 42056.1259455831, -0.09, 0.976, -0.046, 192.0, 0.0, 0.0, 0.0, 0.0, 0.0, 0.0, 0.0, 0.0, 0.0, 1.6989581036048295E9, 0.0, 2023-11-02 16:48:23.604
28.0, -187500.02235174447, 187500.0, -4054.204112792506, 19839.69895120847, 187500.0, 187500.0, -187500.02235174447, 42050.0239193468, -0.09, 0.976, -0.046, 192.0, 0.0, 0.0, 0.0, 0.0, 0.0, 0.0, 0.0, 0.0, 0.0, 1.6989581036048515E9, 0.0, 2023-11-02 16:48:23.604
29.0, -187500.02235174447, 187500.0, -4049.622005179168, 19842.090587865187, 187500.0, 187500.0, -187500.02235174447, 42053.42138450401, -0.09, 0.976, -0.046, 192.0, 0.0, 0.0, 0.0, 0.0, 0.0, 0.0, 0.0, 0.0, 0.0, 1.6989581036048741E9, 0.0, 2023-11-02 16:48:23.604
30.0, -187500.02235174447, 187500.0, -4044.794028376821, 19840.59302098668, 187500.0, 187500.0, -187500.02235174447, 42057.243532805864, -0.088, 0.976, -0.042, 192.0, 253.0, 64.0, 30.0, 128.0, 254.0, 176.0, 0.0, 0.0, 0.0, 1.698958103604931E9, 0.0, 2023-11-02 16:48:23.604
31.0, -187500.02235174447, 187500.0, -4045.397525477115, 19849.48901527989, 187500.0, 187500.0, -187500.02235174447, 42059.36694852912, -0.088, 0.976, -0.042, 192.0, 0.0, 0.0, 0.0, 0.0, 0.0, 0.0, 0.0, 0.0, 0.0, 1.698958103605067E9, 0.0, 2023-11-02 16:48:23.605
32.0, -187500.02235174447, 187500.0, -4053.846484881221, 19857.35682932816, 187500.0, 187500.0, -187500.02235174447, 42055.12011708261, -0.088, 0.976, -0.042, 192.0, 0.0, 0.0, 0.0, 0.0, 0.0, 0.0, 0.0, 0.0, 0.0, 1.6989581036050916E9, 0.0, 2023-11-02 16:48:23.605
33.0, -187500.02235174447, 187500.0, -4053.578263947757, 19856.239242105396, 187500.0, 187500.0, -187500.02235174447, 42052.929646125995, -0.088, 0.976, -0.042, 192.0, 0.0, 0.0, 0.0, 0.0, 0.0, 0.0, 0.0, 0.0, 0.0, 1.6989581036051047E9, 0.0, 2023-11-02 16:48:23.605
34.0, -187500.02235174447, 187500.0, -4029.8854148251316, 19867.057486421763, 187500.0, 187500.0, -187500.02235174447, 42068.75468120035, -0.088, 0.976, -0.042, 192.0, 0.0, 0.0, 0.0, 0.0, 0.0, 0.0, 0.0, 0.0, 0.0, 1.698958103605121E9, 0.0, 2023-11-02 16:48:23.605
35.0, -187500.02235174447, 187500.0, -4028.253737479894, 19880.379126117128, 187500.0, 187500.0, -187500.02235174447, 42071.74981495736, -0.088, 0.976, -0.042, 192.0, 0.0, 0.0, 0.0, 0.0, 0.0, 0.0, 0.0, 0.0, 0.0, 1.6989581036051388E9, 0.0, 2023-11-02 16:48:23.605
36.0, -187500.02235174447, 187500.0, -4033.484045682436, 19890.16919018855, 187500.0, 187500.0, -187500.02235174447, 42072.55447775775, -0.088, 0.976, -0.042, 192.0, 0.0, 0.0, 0.0, 0.0, 0.0, 0.0, 0.0, 0.0, 0.0, 1.6989581036051564E9, 0.0, 2023-11-02 16:48:23.605
37.0, -187500.02235174447, 187500.0, -4039.94369983002, 19886.436448864515, 187500.0, 187500.0, -187500.02235174447, 42065.33486429869, -0.088, 0.976, -0.042, 192.0, 0.0, 0.0, 0.0, 0.0, 0.0, 0.0, 0.0, 0.0, 0.0, 1.698958103605173E9, 0.0, 2023-11-02 16:48:23.605
38.0, -187500.02235174447, 187500.0, -4037.3061939842937, 19878.479227838427, 187500.0, 187500.0, -187500.02235174447, 42062.98793113088, -0.088, 0.976, -0.042, 192.0, 0.0, 0.0, 0.0, 0.0, 0.0, 0.0, 0.0, 0.0, 0.0, 1.6989581036051917E9, 0.0, 2023-11-02 16:48:23.605
39.0, -187500.02235174447, 187500.0, -4030.51126366988, 19887.486980853915, 187500.0, 187500.0, -187500.02235174447, 42069.5816957452, -0.088, 0.978, -0.042, 192.0, 253.0, 64.0, 30.0, 144.0, 254.0, 176.0, 0.0, 0.0, 0.0, 1.6989581036052096E9, 0.0, 2023-11-02 16:48:23.605
40.0, -187500.02235174447, 187500.0, -4030.51126366988, 19900.56275136027, 187500.0, 187500.0, -187500.02235174447, 42070.6322277346, -0.088, 0.978, -0.042, 192.0, 0.0, 0.0, 0.0, 0.0, 0.0, 0.0, 0.0, 0.0, 0.0, 1.698958103605234E9, 0.0, 2023-11-02 16:48:23.605
41.0, -187500.02235174447, 187500.0, -4036.255661994894, 19902.105021727686, 187500.0, 187500.0, -187500.02235174447, 42065.06664336522, -0.088, 0.978, -0.042, 192.0, 0.0, 0.0, 0.0, 0.0, 0.0, 0.0, 0.0, 0.0, 0.0, 1.6989581036052551E9, 0.0, 2023-11-02 16:48:23.605
42.0, -187500.02235174447, 187500.0, -4028.544310157813, 19898.439335637016, 187500.0, 187500.0, -187500.02235174447, 42069.73815795638, -0.088, 0.978, -0.042, 192.0, 0.0, 0.0, 0.0, 0.0, 0.0, 0.0, 0.0, 0.0, 0.0, 1.6989581036052723E9, 0.0, 2023-11-02 16:48:23.605
43.0, -187500.02235174447, 187500.0, -4017.8825280526316, 19901.613283349667, 187500.0, 187500.0, -187500.02235174447, 42078.07535863821, -0.088, 0.978, -0.042, 192.0, 0.0, 0.0, 0.0, 0.0, 0.0, 0.0, 0.0, 0.0, 0.0, 1.6989581036052964E9, 0.0, 2023-11-02 16:48:23.605
44.0, -187500.02235174447, 187500.0, -4032.5676241597685, 19898.439335637016, 187500.0, 187500.0, -187500.02235174447, 42065.53602999879, -0.088, 0.978, -0.042, 192.0, 0.0, 0.0, 0.0, 0.0, 0.0, 0.0, 0.0, 0.0, 0.0, 1.69895810360532E9, 0.0, 2023-11-02 16:48:23.605
45.0, -187500.02235174447, 187500.0, -4042.3129847422824, 19892.44906812299, 187500.0, 187500.0, -187500.02235174447, 42059.03167236229, -0.088, 0.978, -0.042, 192.0, 0.0, 0.0, 0.0, 0.0, 0.0, 0.0, 0.0, 0.0, 0.0, 1.698958103605335E9, 0.0, 2023-11-02 16:48:23.605
46.0, -187500.02235174447, 187500.0, -4043.5870341762347, 19876.244053392897, 187500.0, 187500.0, -187500.02235174447, 42056.03653860528, -0.088, 0.978, -0.042, 192.0, 0.0, 0.0, 0.0, 0.0, 0.0, 0.0, 0.0, 0.0, 0.0, 1.6989581036054423E9, 0.0, 2023-11-02 16:48:23.605
47.0, -187500.02235174447, 187500.0, -4042.290632997827, 19860.508425296357, 187500.0, 187500.0, -187500.02235174447, 42057.60116071715, -0.088, 0.978, -0.042, 192.0, 0.0, 0.0, 0.0, 0.0, 0.0, 0.0, 0.0, 0.0, 0.0, 1.6989581036055057E9, 0.0, 2023-11-02 16:48:23.605
48.0, -187500.02235174447, 187500.0, -4037.708525384489, 19857.021553161332, 187500.0, 187500.0, -187500.02235174447, 42064.3290357982, -0.088, 0.978, -0.042, 192.0, 0.0, 0.0, 0.0, 0.0, 0.0, 0.0, 0.0, 0.0, 0.0, 1.69895810360553E9, 0.0, 2023-11-02 16:48:23.605
49.0, -187500.02235174447, 187500.0, -4041.3295079862487, 19845.957439655955, 187500.0, 187500.0, -187500.02235174447, 42062.429137519495, -0.092, 0.978, -0.036000000000000004, 192.0, 253.0, 32.0, 30.0, 144.0, 254.0, 224.0, 0.0, 0.0, 0.0, 1.6989581036055508E9, 0.0, 2023-11-02 16:48:23.605
50.0, -187500.02235174447, 187500.0, -4051.61131043569, 19813.882686362587, 187500.0, 187500.0, -187500.02235174447, 42050.47095423591, -0.092, 0.978, -0.036000000000000004, 192.0, 0.0, 0.0, 0.0, 0.0, 0.0, 0.0, 0.0, 0.0, 0.0, 1.6989581036055722E9, 0.0, 2023-11-02 16:48:23.605
51.0, -187500.02235174447, 187500.0, -4040.234272507939, 19787.597034883147, 187500.0, 187500.0, -187500.02235174447, 42059.434003762486, -0.092, 0.978, -0.036000000000000004, 192.0, 0.0, 0.0, 0.0, 0.0, 0.0, 0.0, 0.0, 0.0, 0.0, 1.698958103605595E9, 0.0, 2023-11-02 16:48:23.605
52.0, -187500.02235174447, 187500.0, -4041.575377175257, 19758.740932791345, 187500.0, 187500.0, -187500.02235174447, 42060.08220435169, -0.092, 0.978, -0.036000000000000004, 192.0, 0.0, 0.0, 0.0, 0.0, 0.0, 0.0, 0.0, 0.0, 0.0, 1.6989581036056232E9, 0.0, 2023-11-02 16:48:23.605
53.0, -187500.02235174447, 187500.0, -4052.348918002715, 19727.18026962045, 187500.0, 187500.0, -187500.02235174447, 42052.48261123689, -0.092, 0.978, -0.036000000000000004, 192.0, 0.0, 0.0, 0.0, 0.0, 0.0, 0.0, 0.0, 0.0, 0.0, 1.698958103605683E9, 0.0, 2023-11-02 16:48:23.605
54.0, -187500.02235174447, 187500.0, -4052.997118591919, 19694.591426204614, 187500.0, 187500.0, -187500.02235174447, 42050.35919551363, -0.092, 0.978, -0.036000000000000004, 192.0, 0.0, 0.0, 0.0, 0.0, 0.0, 0.0, 0.0, 0.0, 0.0, 1.698958103605726E9, 0.0, 2023-11-02 16:48:23.605
55.0, -187500.02235174447, 187500.0, -4042.581205675746, 19668.059905536164, 187500.0, 187500.0, -187500.02235174447, 42056.88590489458, -0.092, 0.978, -0.036000000000000004, 192.0, 0.0, 0.0, 0.0, 0.0, 0.0, 0.0, 0.0, 0.0, 0.0, 1.698958103605775E9, 0.0, 2023-11-02 16:48:23.605
56.0, -187500.02235174447, 187500.0, -4038.1108567846845, 19653.08423675111, 187500.0, 187500.0, -187500.02235174447, 42062.27267530831, -0.092, 0.978, -0.036000000000000004, 192.0, 0.0, 0.0, 0.0, 0.0, 0.0, 0.0, 0.0, 0.0, 0.0, 1.6989581036058E9, 0.0, 2023-11-02 16:48:23.605
57.0, -187500.02235174447, 187500.0, -4045.9339673440422, 19642.623620346025, 187500.0, 187500.0, -187500.02235174447, 42059.74692818486, -0.092, 0.978, -0.036000000000000004, 192.0, 0.0, 0.0, 0.0, 0.0, 0.0, 0.0, 0.0, 0.0, 0.0, 1.698958103605827E9, 0.0, 2023-11-02 16:48:23.605
58.0, -187500.02235174447, 187500.0, -4047.2303685224497, 19621.098890435565, 187500.0, 187500.0, -187500.02235174447, 42056.59533221666, -0.092, 0.978, -0.036000000000000004, 192.0, 0.0, 0.0, 0.0, 0.0, 0.0, 0.0, 0.0, 0.0, 0.0, 1.6989581036058488E9, 0.0, 2023-11-02 16:48:23.605
59.0, -187500.02235174447, 187500.0, -4034.869853838665, 19603.664529760426, 187500.0, 187500.0, -187500.02235174447, 42063.94905614246, -0.098, 0.972, -0.036000000000000004, 192.0, 252.0, 240.0, 30.0, 96.0, 254.0, 224.0, 0.0, 0.0, 0.0, 1.69895810360587E9, 0.0, 2023-11-02 16:48:23.605
60.0, -187500.02235174447, 187500.0, -4032.724086370956, 19590.58875925407, 187500.0, 187500.0, -187500.02235174447, 42062.67500670851, -0.098, 0.972, -0.036000000000000004, 192.0, 0.0, 0.0, 0.0, 0.0, 0.0, 0.0, 0.0, 0.0, 0.0, 1.6989581036058888E9, 0.0, 2023-11-02 16:48:23.605
61.0, -187500.02235174447, 187500.0, -4047.096258055718, 19576.440105013862, 187500.0, 187500.0, -187500.02235174447, 42049.24160829087, -0.098, 0.972, -0.036000000000000004, 192.0, 0.0, 0.0, 0.0, 0.0, 0.0, 0.0, 0.0, 0.0, 0.0, 1.6989581036060655E9, 0.0, 2023-11-02 16:48:23.606
62.0, -187500.02235174447, 187500.0, -4062.295444285327, 19555.16124429241, 187500.0, 187500.0, -187500.02235174447, 42033.30481449423, -0.098, 0.972, -0.036000000000000004, 192.0, 0.0, 0.0, 0.0, 0.0, 0.0, 0.0, 0.0, 0.0, 0.0, 1.6989581036060896E9, 0.0, 2023-11-02 16:48:23.606
63.0, -187500.02235174447, 187500.0, -4060.2837872843493, 19539.425616195873, 187500.0, 187500.0, -187500.02235174447, 42033.5730354277, -0.098, 0.972, -0.036000000000000004, 192.0, 0.0, 0.0, 0.0, 0.0, 0.0, 0.0, 0.0, 0.0, 0.0, 1.6989581036061013E9, 0.0, 2023-11-02 16:48:23.606
64.0, -187500.02235174447, 187500.0, -4058.160371561095, 19531.378988191962, 187500.0, 187500.0, -187500.02235174447, 42032.74602088285, -0.098, 0.972, -0.036000000000000004, 192.0, 0.0, 0.0, 0.0, 0.0, 0.0, 0.0, 0.0, 0.0, 0.0, 1.6989581036061113E9, 0.0, 2023-11-02 16:48:23.606
65.0, -187500.02235174447, 187500.0, -4057.3333570162486, 19534.664694626892, 187500.0, 187500.0, -187500.02235174447, 42033.26011100532, -0.098, 0.972, -0.036000000000000004, 192.0, 0.0, 0.0, 0.0, 0.0, 0.0, 0.0, 0.0, 0.0, 0.0, 1.698958103606122E9, 0.0, 2023-11-02 16:48:23.606
66.0, -187500.02235174447, 187500.0, -4055.768734904377, 19540.43144469636, 187500.0, 187500.0, -187500.02235174447, 42032.07546854919, -0.098, 0.972, -0.036000000000000004, 192.0, 0.0, 0.0, 0.0, 0.0, 0.0, 0.0, 0.0, 0.0, 0.0, 1.698958103606132E9, 0.0, 2023-11-02 16:48:23.606
67.0, -187500.02235174447, 187500.0, -4049.733763901444, 19538.419787695384, 187500.0, 187500.0, -187500.02235174447, 42032.90248309404, -0.098, 0.972, -0.036000000000000004, 192.0, 0.0, 0.0, 0.0, 0.0, 0.0, 0.0, 0.0, 0.0, 0.0, 1.6989581036061463E9, 0.0, 2023-11-02 16:48:23.606
