%OpenBCI Raw EEG Data
%Number of channels = 8
%Sample Rate = 250 Hz
%Board = OpenBCI_GUI$BoardCytonSerial
Sample Index, EXG Channel 0, EXG Channel 1, EXG Channel 2, EXG Channel 3, EXG Channel 4, EXG Channel 5, EXG Channel 6, EXG Channel 7, Accel Channel 0, Accel Channel 1, Accel Channel 2, Other, Other, Other, Other, Other, Other, Other, Analog Channel 0, Analog Channel 1, Analog Channel 2, Timestamp, Other, Timestamp (Formatted)
235.0, -187500.02235174447, 187500.0, 31930.47278290663, 38699.34096328509, 187500.0, 187500.0, -187500.02235174447, 32051.8651070434, 0.0, 0.0, 0.0, 192.0, 0.0, 0.0, 0.0, 0.0, 0.0, 0.0, 0.0, 0.0, 0.0, 1.6989589466232128E9, 0.0, 2023-11-02 17:02:26.623
236.0, -187500.02235174447, 187500.0, 31932.46208816315, 38702.134931342, 187500.0, 187500.0, -187500.02235174447, 32056.223697212186, 0.0, 0.0, 0.0, 192.0, 0.0, 0.0, 0.0, 0.0, 0.0, 0.0, 0.0, 0.0, 0.0, 1.6989589466232307E9, 0.0, 2023-11-02 17:02:26.623
237.0, -187500.02235174447, 187500.0, 31927.142372982787, 38693.06012309314, 187500.0, 187500.0, -187500.02235174447, 32049.33935991995, 0.0, 0.0, 0.0, 192.0, 0.0, 0.0, 0.0, 0.0, 0.0, 0.0, 0.0, 0.0, 0.0, 1.6989589466232405E9, 0.0, 2023-11-02 17:02:26.623
238.0, -187500.02235174447, 187500.0, 31923.163762469743, 38680.67725666491, 187500.0, 187500.0, -187500.02235174447, 32043.840830783945, 0.0, 0.0, 0.0, 192.0, 0.0, 0.0, 0.0, 0.0, 0.0, 0.0, 0.0, 0.0, 0.0, 1.69895894662325E9, 0.0, 2023-11-02 17:02:26.623
239.0, -187500.02235174447, 187500.0, 31925.68950959319, 38685.57228870062, 187500.0, 187500.0, -187500.02235174447, 32045.58426685146, 0.0, 0.0, 0.0, 192.0, 0.0, 0.0, 0.0, 0.0, 0.0, 0.0, 0.0, 0.0, 0.0, 1.6989589466232593E9, 0.0, 2023-11-02 17:02:26.623
240.0, -187500.02235174447, 187500.0, 31927.254131705064, 38695.78703591669, 187500.0, 187500.0, -187500.02235174447, 32046.455984885215, 0.0, 0.0, 0.0, 192.0, 0.0, 0.0, 0.0, 0.0, 0.0, 0.0, 0.0, 0.0, 0.0, 1.698958946623269E9, 0.0, 2023-11-02 17:02:26.623
241.0, -187500.02235174447, 187500.0, 31929.66812010624, 38698.7821696737, 187500.0, 187500.0, -187500.02235174447, 32047.10418547442, 0.0, 0.0, 0.0, 192.0, 0.0, 0.0, 0.0, 0.0, 0.0, 0.0, 0.0, 0.0, 0.0, 1.6989589466232784E9, 0.0, 2023-11-02 17:02:26.623
242.0, -187500.02235174447, 187500.0, 31927.097669493876, 38690.221451547324, 187500.0, 187500.0, -187500.02235174447, 32042.991464494644, 0.0, 0.0, 0.0, 192.0, 0.0, 0.0, 0.0, 0.0, 0.0, 0.0, 0.0, 0.0, 0.0, 1.6989589466232877E9, 0.0, 2023-11-02 17:02:26.623
243.0, -187500.02235174447, 187500.0, 31921.777954313515, 38686.82398639012, 187500.0, 187500.0, -187500.02235174447, 32037.559990592003, 0.0, 0.0, 0.0, 192.0, 0.0, 0.0, 0.0, 0.0, 0.0, 0.0, 0.0, 0.0, 0.0, 1.6989589466232967E9, 0.0, 2023-11-02 17:02:26.623
244.0, -187500.02235174447, 187500.0, 31921.912064780245, 38685.46052997834, 187500.0, 187500.0, -187500.02235174447, 32035.883609757857, -0.026000000000000002, 0.976, -0.052000000000000005, 192.0, 255.0, 48.0, 30.0, 128.0, 254.0, 96.0, 0.0, 0.0, 0.0, 1.6989589466233065E9, 0.0, 2023-11-02 17:02:26.623
245.0, -187500.02235174447, 187500.0, 31925.30952993745, 38682.89007936598, 187500.0, 187500.0, -187500.02235174447, 32036.53181034706, -0.026000000000000002, 0.976, -0.052000000000000005, 192.0, 0.0, 0.0, 0.0, 0.0, 0.0, 0.0, 0.0, 0.0, 0.0, 1.6989589466233177E9, 0.0, 2023-11-02 17:02:26.623
246.0, -187500.02235174447, 187500.0, 31930.428079417718, 38676.13985254048, 187500.0, 187500.0, -187500.02235174447, 32039.728109804168, -0.026000000000000002, 0.976, -0.052000000000000005, 192.0, 0.0, 0.0, 0.0, 0.0, 0.0, 0.0, 0.0, 0.0, 0.0, 1.6989589466233273E9, 0.0, 2023-11-02 17:02:26.623
247.0, -187500.02235174447, 187500.0, 31933.691434108194, 38678.64324791947, 187500.0, 187500.0, -187500.02235174447, 32041.85152552742, -0.026000000000000002, 0.976, -0.052000000000000005, 192.0, 0.0, 0.0, 0.0, 0.0, 0.0, 0.0, 0.0, 0.0, 0.0, 1.698958946623337E9, 0.0, 2023-11-02 17:02:26.623
248.0, -187500.02235174447, 187500.0, 31931.679777107216, 38679.246745019766, 187500.0, 187500.0, -187500.02235174447, 32037.224714425174, -0.026000000000000002, 0.976, -0.052000000000000005, 192.0, 0.0, 0.0, 0.0, 0.0, 0.0, 0.0, 0.0, 0.0, 0.0, 1.6989589466233466E9, 0.0, 2023-11-02 17:02:26.623
249.0, -187500.02235174447, 187500.0, 31939.07820452192, 38684.968791600324, 187500.0, 187500.0, -187500.02235174447, 32043.080871472466, -0.026000000000000002, 0.976, -0.052000000000000005, 192.0, 0.0, 0.0, 0.0, 0.0, 0.0, 0.0, 0.0, 0.0, 0.0, 1.698958946623356E9, 0.0, 2023-11-02 17:02:26.623
250.0, -187500.02235174447, 187500.0, 31938.541762654993, 38688.92505036891, 187500.0, 187500.0, -187500.02235174447, 32042.29856041653, -0.026000000000000002, 0.976, -0.052000000000000005, 192.0, 0.0, 0.0, 0.0, 0.0, 0.0, 0.0, 0.0, 0.0, 0.0, 1.6989589466233659E9, 0.0, 2023-11-02 17:02:26.623
251.0, -187500.02235174447, 187500.0, 31938.586466143905, 38687.762759657235, 187500.0, 187500.0, -187500.02235174447, 32040.86804877139, -0.026000000000000002, 0.976, -0.052000000000000005, 192.0, 0.0, 0.0, 0.0, 0.0, 0.0, 0.0, 0.0, 0.0, 0.0, 1.6989589466234915E9, 0.0, 2023-11-02 17:02:26.623
252.0, -187500.02235174447, 187500.0, 31938.161782999254, 38685.50523346725, 187500.0, 187500.0, -187500.02235174447, 32038.14113594784, -0.026000000000000002, 0.976, -0.052000000000000005, 192.0, 0.0, 0.0, 0.0, 0.0, 0.0, 0.0, 0.0, 0.0, 0.0, 1.6989589466235018E9, 0.0, 2023-11-02 17:02:26.623
253.0, -187500.02235174447, 187500.0, 31938.09472776589, 38680.45373922035, 187500.0, 187500.0, -187500.02235174447, 32038.074080714476, -0.026000000000000002, 0.976, -0.052000000000000005, 192.0, 0.0, 0.0, 0.0, 0.0, 0.0, 0.0, 0.0, 0.0, 0.0, 1.6989589466235113E9, 0.0, 2023-11-02 17:02:26.623
254.0, -187500.02235174447, 187500.0, 31944.532030169015, 38673.927029839404, 187500.0, 187500.0, -187500.02235174447, 32043.840830783945, -0.04, 0.982, -0.052000000000000005, 192.0, 254.0, 192.0, 30.0, 176.0, 254.0, 96.0, 0.0, 0.0, 0.0, 1.698958946623521E9, 0.0, 2023-11-02 17:02:26.623
255.0, -187500.02235174447, 187500.0, 31945.85078309188, 38675.71516939583, 187500.0, 187500.0, -187500.02235174447, 32044.690197073247, -0.04, 0.982, -0.052000000000000005, 192.0, 0.0, 0.0, 0.0, 0.0, 0.0, 0.0, 0.0, 0.0, 0.0, 1.6989589466235318E9, 0.0, 2023-11-02 17:02:26.623
0.0, -187500.02235174447, 187500.0, 31943.637960390803, 38679.53731769769, 187500.0, 187500.0, -187500.02235174447, 32040.957455749212, -0.04, 0.982, -0.052000000000000005, 192.0, 0.0, 0.0, 0.0, 0.0, 0.0, 0.0, 0.0, 0.0, 0.0, 1.698958946623541E9, 0.0, 2023-11-02 17:02:26.623
1.0, -187500.02235174447, 187500.0, 31941.648655134282, 38678.978524086306, 187500.0, 187500.0, -187500.02235174447, 32037.984673736653, -0.04, 0.982, -0.052000000000000005, 192.0, 0.0, 0.0, 0.0, 0.0, 0.0, 0.0, 0.0, 0.0, 0.0, 1.6989589466235528E9, 0.0, 2023-11-02 17:02:26.623
2.0, -187500.02235174447, 187500.0, 31946.1413557698, 38672.47416644981, 187500.0, 187500.0, -187500.02235174447, 32041.471545871682, -0.04, 0.982, -0.052000000000000005, 192.0, 0.0, 0.0, 0.0, 0.0, 0.0, 0.0, 0.0, 0.0, 0.0, 1.6989589466235623E9, 0.0, 2023-11-02 17:02:26.623
3.0, -187500.02235174447, 187500.0, 31948.55534417097, 38675.670465906915, 187500.0, 187500.0, -187500.02235174447, 32041.091566215942, -0.04, 0.982, -0.052000000000000005, 192.0, 0.0, 0.0, 0.0, 0.0, 0.0, 0.0, 0.0, 0.0, 0.0, 1.698958946623574E9, 0.0, 2023-11-02 17:02:26.623
4.0, -187500.02235174447, 187500.0, 31948.734158126616, 38676.07279730711, 187500.0, 187500.0, -187500.02235174447, 32039.504592359615, -0.04, 0.982, -0.052000000000000005, 192.0, 0.0, 0.0, 0.0, 0.0, 0.0, 0.0, 0.0, 0.0, 0.0, 1.6989589466235836E9, 0.0, 2023-11-02 17:02:26.623
5.0, -187500.02235174447, 187500.0, 31952.355140728374, 38680.09611130907, 187500.0, 187500.0, -187500.02235174447, 32039.750461548625, -0.04, 0.982, -0.052000000000000005, 192.0, 0.0, 0.0, 0.0, 0.0, 0.0, 0.0, 0.0, 0.0, 0.0, 1.698958946623593E9, 0.0, 2023-11-02 17:02:26.623
6.0, -187500.02235174447, 187500.0, 31959.932382098723, 38678.55384094165, 187500.0, 187500.0, -187500.02235174447, 32042.633836583358, -0.04, 0.982, -0.052000000000000005, 192.0, 0.0, 0.0, 0.0, 0.0, 0.0, 0.0, 0.0, 0.0, 0.0, 1.6989589466236029E9, 0.0, 2023-11-02 17:02:26.623
7.0, -187500.02235174447, 187500.0, 31967.397864746796, 38677.436253718886, 187500.0, 187500.0, -187500.02235174447, 32044.39962439533, -0.04, 0.982, -0.052000000000000005, 192.0, 0.0, 0.0, 0.0, 0.0, 0.0, 0.0, 0.0, 0.0, 0.0, 1.6989589466236122E9, 0.0, 2023-11-02 17:02:26.623
8.0, -187500.02235174447, 187500.0, 31968.314286269462, 38674.84345136207, 187500.0, 187500.0, -187500.02235174447, 32043.214981939196, -0.056, 0.982, -0.058, 192.0, 254.0, 64.0, 30.0, 176.0, 254.0, 48.0, 0.0, 0.0, 0.0, 1.698958946623623E9, 0.0, 2023-11-02 17:02:26.623
9.0, -187500.02235174447, 187500.0, 31967.979010102634, 38675.87163160701, 187500.0, 187500.0, -187500.02235174447, 32042.745595305634, -0.056, 0.982, -0.058, 192.0, 0.0, 0.0, 0.0, 0.0, 0.0, 0.0, 0.0, 0.0, 0.0, 1.6989589466236331E9, 0.0, 2023-11-02 17:02:26.623
10.0, -187500.02235174447, 187500.0, 31970.728274670637, 38672.60827691654, 187500.0, 187500.0, -187500.02235174447, 32045.606618595913, -0.056, 0.982, -0.058, 192.0, 0.0, 0.0, 0.0, 0.0, 0.0, 0.0, 0.0, 0.0, 0.0, 1.6989589466236691E9, 0.0, 2023-11-02 17:02:26.623
11.0, -187500.02235174447, 187500.0, 31974.349257272395, 38675.201079273356, 187500.0, 187500.0, -187500.02235174447, 32048.065310486, -0.056, 0.982, -0.058, 192.0, 0.0, 0.0, 0.0, 0.0, 0.0, 0.0, 0.0, 0.0, 0.0, 1.698958946623679E9, 0.0, 2023-11-02 17:02:26.623
12.0, -187500.02235174447, 187500.0, 31970.95179211519, 38673.63645716148, 187500.0, 187500.0, -187500.02235174447, 32041.62800808287, -0.056, 0.982, -0.058, 192.0, 0.0, 0.0, 0.0, 0.0, 0.0, 0.0, 0.0, 0.0, 0.0, 1.6989589466236887E9, 0.0, 2023-11-02 17:02:26.623
13.0, -187500.02235174447, 187500.0, 31972.717579927157, 38677.36919848552, 187500.0, 187500.0, -187500.02235174447, 32041.449194127228, -0.056, 0.982, -0.058, 192.0, 0.0, 0.0, 0.0, 0.0, 0.0, 0.0, 0.0, 0.0, 0.0, 1.698958946623698E9, 0.0, 2023-11-02 17:02:26.623
14.0, -187500.02235174447, 187500.0, 31984.34048704392, 38686.22048928982, 187500.0, 187500.0, -187500.02235174447, 32051.842755298945, -0.056, 0.982, -0.058, 192.0, 0.0, 0.0, 0.0, 0.0, 0.0, 0.0, 0.0, 0.0, 0.0, 1.6989589466237075E9, 0.0, 2023-11-02 17:02:26.623
15.0, -187500.02235174447, 187500.0, 31983.28995505452, 38687.80746314615, 187500.0, 187500.0, -187500.02235174447, 32050.144022720342, -0.056, 0.982, -0.058, 192.0, 0.0, 0.0, 0.0, 0.0, 0.0, 0.0, 0.0, 0.0, 0.0, 1.6989589466237173E9, 0.0, 2023-11-02 17:02:26.623
16.0, -187500.02235174447, 187500.0, 31980.18306257523, 38685.79580614517, 187500.0, 187500.0, -187500.02235174447, 32047.305351174517, -0.056, 0.982, -0.058, 192.0, 0.0, 0.0, 0.0, 0.0, 0.0, 0.0, 0.0, 0.0, 0.0, 1.6989589466237268E9, 0.0, 2023-11-02 17:02:26.623
17.0, -187500.02235174447, 187500.0, 31976.316210784462, 38691.830777148105, 187500.0, 187500.0, -187500.02235174447, 32044.421976139784, -0.056, 0.982, -0.058, 192.0, 0.0, 0.0, 0.0, 0.0, 0.0, 0.0, 0.0, 0.0, 0.0, 1.6989589466237364E9, 0.0, 2023-11-02 17:02:26.623
18.0, -187500.02235174447, 187500.0, 31974.058684594478, 38686.06402707863, 187500.0, 187500.0, -187500.02235174447, 32045.271342429085, -0.062, 0.98, -0.064, 192.0, 254.0, 16.0, 30.0, 160.0, 254.0, 0.0, 0.0, 0.0, 0.0, 1.698958946623746E9, 0.0, 2023-11-02 17:02:26.623
19.0, -187500.02235174447, 187500.0, 31976.919707884757, 38682.9794863438, 187500.0, 187500.0, -187500.02235174447, 32051.038092498555, -0.062, 0.98, -0.064, 192.0, 0.0, 0.0, 0.0, 0.0, 0.0, 0.0, 0.0, 0.0, 0.0, 1.6989589466237562E9, 0.0, 2023-11-02 17:02:26.623
20.0, -187500.02235174447, 187500.0, 31974.595126461405, 38683.35946599954, 187500.0, 187500.0, -187500.02235174447, 32050.68046458727, -0.062, 0.98, -0.064, 192.0, 0.0, 0.0, 0.0, 0.0, 0.0, 0.0, 0.0, 0.0, 0.0, 1.6989589466237657E9, 0.0, 2023-11-02 17:02:26.623
21.0, -187500.02235174447, 187500.0, 31971.063550837465, 38687.427483490406, 187500.0, 187500.0, -187500.02235174447, 32048.065310486, -0.062, 0.98, -0.064, 192.0, 0.0, 0.0, 0.0, 0.0, 0.0, 0.0, 0.0, 0.0, 0.0, 1.6989589466237755E9, 0.0, 2023-11-02 17:02:26.623
22.0, -187500.02235174447, 187500.0, 31970.549460714992, 38684.78997764468, 187500.0, 187500.0, -187500.02235174447, 32047.64062734135, -0.062, 0.98, -0.064, 192.0, 0.0, 0.0, 0.0, 0.0, 0.0, 0.0, 0.0, 0.0, 0.0, 1.6989589466237864E9, 0.0, 2023-11-02 17:02:26.623
23.0, -187500.02235174447, 187500.0, 31976.495024740107, 38681.95130609886, 187500.0, 187500.0, -187500.02235174447, 32053.854412299923, -0.062, 0.98, -0.064, 192.0, 0.0, 0.0, 0.0, 0.0, 0.0, 0.0, 0.0, 0.0, 0.0, 1.698958946623796E9, 0.0, 2023-11-02 17:02:26.623
24.0, -187500.02235174447, 187500.0, 31983.08878935442, 38685.885213122994, 187500.0, 187500.0, -187500.02235174447, 32057.788319324056, -0.062, 0.98, -0.064, 192.0, 0.0, 0.0, 0.0, 0.0, 0.0, 0.0, 0.0, 0.0, 0.0, 1.6989589466238055E9, 0.0, 2023-11-02 17:02:26.623
25.0, -187500.02235174447, 187500.0, 31979.825434663944, 38691.65196319246, 187500.0, 187500.0, -187500.02235174447, 32053.7650053221, -0.062, 0.98, -0.064, 192.0, 0.0, 0.0, 0.0, 0.0, 0.0, 0.0, 0.0, 0.0, 0.0, 1.6989589466238244E9, 0.0, 2023-11-02 17:02:26.623
26.0, -187500.02235174447, 187500.0, 31976.27150729555, 38693.10482658206, 187500.0, 187500.0, -187500.02235174447, 32050.90398203182, -0.062, 0.98, -0.064, 192.0, 0.0, 0.0, 0.0, 0.0, 0.0, 0.0, 0.0, 0.0, 0.0, 1.698958946623834E9, 0.0, 2023-11-02 17:02:26.623
27.0, -187500.02235174447, 187500.0, 31972.672876438246, 38688.36625675753, 187500.0, 187500.0, -187500.02235174447, 32048.937028519755, -0.056, 0.984, -0.06, 192.0, 254.0, 64.0, 30.0, 192.0, 254.0, 32.0, 0.0, 0.0, 0.0, 1.6989589466238437E9, 0.0, 2023-11-02 17:02:26.623
28.0, -187500.02235174447, 187500.0, 31966.05676007948, 38678.755006641746, 187500.0, 187500.0, -187500.02235174447, 32042.25385692762, -0.056, 0.984, -0.06, 192.0, 0.0, 0.0, 0.0, 0.0, 0.0, 0.0, 0.0, 0.0, 0.0, 1.6989589466238537E9, 0.0, 2023-11-02 17:02:26.623
29.0, -187500.02235174447, 187500.0, 31965.14033855681, 38682.666561921425, 187500.0, 187500.0, -187500.02235174447, 32040.15279294882, -0.056, 0.984, -0.06, 192.0, 0.0, 0.0, 0.0, 0.0, 0.0, 0.0, 0.0, 0.0, 0.0, 1.6989589466238632E9, 0.0, 2023-11-02 17:02:26.623
30.0, -187500.02235174447, 187500.0, 31967.353161257884, 38686.131082312, 187500.0, 187500.0, -187500.02235174447, 32042.43267088326, -0.056, 0.984, -0.06, 192.0, 0.0, 0.0, 0.0, 0.0, 0.0, 0.0, 0.0, 0.0, 0.0, 1.6989589466238728E9, 0.0, 2023-11-02 17:02:26.623
31.0, -187500.02235174447, 187500.0, 31965.073283323443, 38687.04750383467, 187500.0, 187500.0, -187500.02235174447, 32043.34909240593, -0.056, 0.984, -0.06, 192.0, 0.0, 0.0, 0.0, 0.0, 0.0, 0.0, 0.0, 0.0, 0.0, 1.6989589466238823E9, 0.0, 2023-11-02 17:02:26.623
32.0, -187500.02235174447, 187500.0, 31962.12285305534, 38685.86286137853, 187500.0, 187500.0, -187500.02235174447, 32043.192630194742, -0.056, 0.984, -0.06, 192.0, 0.0, 0.0, 0.0, 0.0, 0.0, 0.0, 0.0, 0.0, 0.0, 1.698958946623892E9, 0.0, 2023-11-02 17:02:26.623
33.0, -187500.02235174447, 187500.0, 31959.731216398624, 38686.26519277873, 187500.0, 187500.0, -187500.02235174447, 32044.556086606513, -0.056, 0.984, -0.06, 192.0, 0.0, 0.0, 0.0, 0.0, 0.0, 0.0, 0.0, 0.0, 0.0, 1.6989589466239016E9, 0.0, 2023-11-02 17:02:26.623
34.0, -187500.02235174447, 187500.0, 31951.684588394714, 38683.33711425509, 187500.0, 187500.0, -187500.02235174447, 32039.415185381793, -0.056, 0.984, -0.06, 192.0, 0.0, 0.0, 0.0, 0.0, 0.0, 0.0, 0.0, 0.0, 0.0, 1.6989589466239111E9, 0.0, 2023-11-02 17:02:26.623
35.0, -187500.02235174447, 187500.0, 31954.94794308519, 38684.633515433496, 187500.0, 187500.0, -187500.02235174447, 32044.9137145178, -0.056, 0.984, -0.06, 192.0, 0.0, 0.0, 0.0, 0.0, 0.0, 0.0, 0.0, 0.0, 0.0, 1.698958946623921E9, 0.0, 2023-11-02 17:02:26.623
36.0, -187500.02235174447, 187500.0, 31955.37262622984, 38688.612125946536, 187500.0, 187500.0, -187500.02235174447, 32048.132365719364, -0.056, 0.984, -0.06, 192.0, 0.0, 0.0, 0.0, 0.0, 0.0, 0.0, 0.0, 0.0, 0.0, 1.6989589466239305E9, 0.0, 2023-11-02 17:02:26.623
37.0, -187500.02235174447, 187500.0, 31950.499945938584, 38690.221451547324, 187500.0, 187500.0, -187500.02235174447, 32045.047824984533, -0.044, 0.972, -0.06, 192.0, 254.0, 160.0, 30.0, 96.0, 254.0, 32.0, 0.0, 0.0, 0.0, 1.69895894662394E9, 0.0, 2023-11-02 17:02:26.623
38.0, -187500.02235174447, 187500.0, 31941.31337896745, 38688.76858815773, 187500.0, 187500.0, -187500.02235174447, 32038.051728970022, -0.044, 0.972, -0.06, 192.0, 0.0, 0.0, 0.0, 0.0, 0.0, 0.0, 0.0, 0.0, 0.0, 1.6989589466239502E9, 0.0, 2023-11-02 17:02:26.623
39.0, -187500.02235174447, 187500.0, 31937.02184403203, 38674.88815485098, 187500.0, 187500.0, -187500.02235174447, 32035.81655452449, -0.044, 0.972, -0.06, 192.0, 0.0, 0.0, 0.0, 0.0, 0.0, 0.0, 0.0, 0.0, 0.0, 1.6989589466239598E9, 0.0, 2023-11-02 17:02:26.623
40.0, -187500.02235174447, 187500.0, 31932.55149514097, 38669.814308859626, 187500.0, 187500.0, -187500.02235174447, 32034.117821945885, -0.044, 0.972, -0.06, 192.0, 0.0, 0.0, 0.0, 0.0, 0.0, 0.0, 0.0, 0.0, 0.0, 1.69895894662399E9, 0.0, 2023-11-02 17:02:26.623
41.0, -187500.02235174447, 187500.0, 31927.03061426051, 38673.0776635501, 187500.0, 187500.0, -187500.02235174447, 32029.178086421263, -0.044, 0.972, -0.06, 192.0, 0.0, 0.0, 0.0, 0.0, 0.0, 0.0, 0.0, 0.0, 0.0, 1.698958946624E9, 0.0, 2023-11-02 17:02:26.624
42.0, -187500.02235174447, 187500.0, 31924.661329348248, 38667.75794836974, 187500.0, 187500.0, -187500.02235174447, 32023.925426474267, -0.044, 0.972, -0.06, 192.0, 0.0, 0.0, 0.0, 0.0, 0.0, 0.0, 0.0, 0.0, 0.0, 1.6989589466240096E9, 0.0, 2023-11-02 17:02:26.624
43.0, -187500.02235174447, 187500.0, 31925.465992148638, 38664.51694542372, 187500.0, 187500.0, -187500.02235174447, 32025.646510797324, -0.044, 0.972, -0.06, 192.0, 0.0, 0.0, 0.0, 0.0, 0.0, 0.0, 0.0, 0.0, 0.0, 1.6989589466240208E9, 0.0, 2023-11-02 17:02:26.624
44.0, -187500.02235174447, 187500.0, 31927.56705612744, 38661.52181166671, 187500.0, 187500.0, -187500.02235174447, 32027.993443965133, -0.044, 0.972, -0.06, 192.0, 0.0, 0.0, 0.0, 0.0, 0.0, 0.0, 0.0, 0.0, 0.0, 1.6989589466240304E9, 0.0, 2023-11-02 17:02:26.624
45.0, -187500.02235174447, 187500.0, 31930.338672439895, 38669.948419326356, 187500.0, 187500.0, -187500.02235174447, 32027.389946864838, -0.044, 0.972, -0.06, 192.0, 0.0, 0.0, 0.0, 0.0, 0.0, 0.0, 0.0, 0.0, 0.0, 1.69895894662404E9, 0.0, 2023-11-02 17:02:26.624
46.0, -187500.02235174447, 187500.0, 31920.59331185738, 38665.70158787985, 187500.0, 187500.0, -187500.02235174447, 32017.778696749057, -0.044, 0.972, -0.06, 192.0, 0.0, 0.0, 0.0, 0.0, 0.0, 0.0, 0.0, 0.0, 0.0, 1.6989589466240497E9, 0.0, 2023-11-02 17:02:26.624
47.0, -187500.02235174447, 187500.0, 31918.827524045413, 38662.952323311845, 187500.0, 187500.0, -187500.02235174447, 32017.733993260146, -0.048, 0.972, -0.062, 192.0, 254.0, 128.0, 30.0, 96.0, 254.0, 16.0, 0.0, 0.0, 0.0, 1.6989589466240592E9, 0.0, 2023-11-02 17:02:26.624
48.0, -187500.02235174447, 187500.0, 31923.052003747467, 38661.16418375542, 187500.0, 187500.0, -187500.02235174447, 32025.892379986333, -0.048, 0.972, -0.062, 192.0, 0.0, 0.0, 0.0, 0.0, 0.0, 0.0, 0.0, 0.0, 0.0, 1.6989589466240697E9, 0.0, 2023-11-02 17:02:26.624
49.0, -187500.02235174447, 187500.0, 31923.141410725286, 38660.38187269949, 187500.0, 187500.0, -187500.02235174447, 32030.452135855216, -0.048, 0.972, -0.062, 192.0, 0.0, 0.0, 0.0, 0.0, 0.0, 0.0, 0.0, 0.0, 0.0, 1.698958946624079E9, 0.0, 2023-11-02 17:02:26.624
50.0, -187500.02235174447, 187500.0, 31918.089916478388, 38672.27300074971, 187500.0, 187500.0, -187500.02235174447, 32029.491010843638, -0.048, 0.972, -0.062, 192.0, 0.0, 0.0, 0.0, 0.0, 0.0, 0.0, 0.0, 0.0, 0.0, 1.6989589466240885E9, 0.0, 2023-11-02 17:02:26.624
51.0, -187500.02235174447, 187500.0, 31911.473800119616, 38667.53443092518, 187500.0, 187500.0, -187500.02235174447, 32024.305406130006, -0.048, 0.972, -0.062, 192.0, 0.0, 0.0, 0.0, 0.0, 0.0, 0.0, 0.0, 0.0, 0.0, 1.698958946624098E9, 0.0, 2023-11-02 17:02:26.624
52.0, -187500.02235174447, 187500.0, 31909.26097741854, 38663.55582041214, 187500.0, 187500.0, -187500.02235174447, 32024.37246136337, -0.048, 0.972, -0.062, 192.0, 0.0, 0.0, 0.0, 0.0, 0.0, 0.0, 0.0, 0.0, 0.0, 1.6989589466241076E9, 0.0, 2023-11-02 17:02:26.624
53.0, -187500.02235174447, 187500.0, 31905.394125627772, 38664.293427979166, 187500.0, 187500.0, -187500.02235174447, 32023.366632862882, -0.048, 0.972, -0.062, 192.0, 0.0, 0.0, 0.0, 0.0, 0.0, 0.0, 0.0, 0.0, 0.0, 1.6989589466241171E9, 0.0, 2023-11-02 17:02:26.624
54.0, -187500.02235174447, 187500.0, 31908.8809977628, 38672.56357342763, 187500.0, 187500.0, -187500.02235174447, 32028.66399629879, -0.048, 0.972, -0.062, 192.0, 0.0, 0.0, 0.0, 0.0, 0.0, 0.0, 0.0, 0.0, 0.0, 1.698958946624127E9, 0.0, 2023-11-02 17:02:26.624
55.0, -187500.02235174447, 187500.0, 31902.22017791512, 38674.08349205059, 187500.0, 187500.0, -187500.02235174447, 32023.880722985356, -0.048, 0.972, -0.062, 192.0, 0.0, 0.0, 0.0, 0.0, 0.0, 0.0, 0.0, 0.0, 0.0, 1.6989589466241443E9, 0.0, 2023-11-02 17:02:26.624
56.0, -187500.02235174447, 187500.0, 31902.51075059304, 38664.47224193481, 187500.0, 187500.0, -187500.02235174447, 32023.701909029714, -0.048, 0.972, -0.062, 192.0, 0.0, 0.0, 0.0, 0.0, 0.0, 0.0, 0.0, 0.0, 0.0, 1.6989589466241543E9, 0.0, 2023-11-02 17:02:26.624
57.0, -187500.02235174447, 187500.0, 31906.064677961433, 38667.24385824727, 187500.0, 187500.0, -187500.02235174447, 32030.496839344127, -0.036000000000000004, 0.98, -0.06, 192.0, 254.0, 224.0, 30.0, 160.0, 254.0, 32.0, 0.0, 0.0, 0.0, 1.698958946624164E9, 0.0, 2023-11-02 17:02:26.624
58.0, -187500.02235174447, 187500.0, 31907.249320417563, 38673.927029839404, 187500.0, 187500.0, -187500.02235174447, 32032.57555157847, -0.036000000000000004, 0.98, -0.06, 192.0, 0.0, 0.0, 0.0, 0.0, 0.0, 0.0, 0.0, 0.0, 0.0, 1.698958946624174E9, 0.0, 2023-11-02 17:02:26.624
59.0, -187500.02235174447, 187500.0, 31913.820733287423, 38679.09028280858, 187500.0, 187500.0, -187500.02235174447, 32035.324816146473, -0.036000000000000004, 0.98, -0.06, 192.0, 0.0, 0.0, 0.0, 0.0, 0.0, 0.0, 0.0, 0.0, 0.0, 1.6989589466241837E9, 0.0, 2023-11-02 17:02:26.624
60.0, -187500.02235174447, 187500.0, 31918.469896134127, 38676.095149051565, 187500.0, 187500.0, -187500.02235174447, 32037.7611562921, -0.036000000000000004, 0.98, -0.06, 192.0, 0.0, 0.0, 0.0, 0.0, 0.0, 0.0, 0.0, 0.0, 0.0, 1.6989589466241932E9, 0.0, 2023-11-02 17:02:26.624
61.0, -187500.02235174447, 187500.0, 31918.201675200664, 38675.402244973455, 187500.0, 187500.0, -187500.02235174447, 32036.665920813793, -0.036000000000000004, 0.98, -0.06, 192.0, 0.0, 0.0, 0.0, 0.0, 0.0, 0.0, 0.0, 0.0, 0.0, 1.6989589466242027E9, 0.0, 2023-11-02 17:02:26.624
62.0, -187500.02235174447, 187500.0, 31917.9334542672, 38680.45373922035, 187500.0, 187500.0, -187500.02235174447, 32036.889438258346, -0.036000000000000004, 0.98, -0.06, 192.0, 0.0, 0.0, 0.0, 0.0, 0.0, 0.0, 0.0, 0.0, 0.0, 1.6989589466242125E9, 0.0, 2023-11-02 17:02:26.624
63.0, -187500.02235174447, 187500.0, 31919.922759523724, 38689.39443700248, 187500.0, 187500.0, -187500.02235174447, 32039.661054570803, -0.036000000000000004, 0.98, -0.06, 192.0, 0.0, 0.0, 0.0, 0.0, 0.0, 0.0, 0.0, 0.0, 0.0, 1.698958946624222E9, 0.0, 2023-11-02 17:02:26.624
64.0, -187500.02235174447, 187500.0, 31919.36396591234, 38686.89104162348, 187500.0, 187500.0, -187500.02235174447, 32042.991464494644, -0.036000000000000004, 0.98, -0.06, 192.0, 0.0, 0.0, 0.0, 0.0, 0.0, 0.0, 0.0, 0.0, 0.0, 1.6989589466242318E9, 0.0, 2023-11-02 17:02:26.624
65.0, -187500.02235174447, 187500.0, 31918.51459962304, 38687.02515209021, 187500.0, 187500.0, -187500.02235174447, 32046.120708718387, -0.036000000000000004, 0.98, -0.06, 192.0, 0.0, 0.0, 0.0, 0.0, 0.0, 0.0, 0.0, 0.0, 0.0, 1.6989589466242428E9, 0.0, 2023-11-02 17:02:26.624
66.0, -187500.02235174447, 187500.0, 31915.385355399296, 38693.19423355988, 187500.0, 187500.0, -187500.02235174447, 32047.841793041443, -0.036000000000000004, 0.98, -0.06, 192.0, 0.0, 0.0, 0.0, 0.0, 0.0, 0.0, 0.0, 0.0, 0.0, 1.6989589466242523E9, 0.0, 2023-11-02 17:02:26.624
67.0, -187500.02235174447, 187500.0, 31908.299852406963, 38693.68597193789, 187500.0, 187500.0, -187500.02235174447, 32042.745595305634, -0.052000000000000005, 0.974, -0.068, 192.0, 254.0, 96.0, 30.0, 112.0, 253.0, 224.0, 0.0, 0.0, 0.0, 1.698958946624262E9, 0.0, 2023-11-02 17:02:26.624
68.0, -187500.02235174447, 187500.0, 31909.0821634629, 38686.578117201105, 187500.0, 187500.0, -187500.02235174447, 32045.00312149562, -0.052000000000000005, 0.974, -0.068, 192.0, 0.0, 0.0, 0.0, 0.0, 0.0, 0.0, 0.0, 0.0, 0.0, 1.6989589466242726E9, 0.0, 2023-11-02 17:02:26.624
69.0, -187500.02235174447, 187500.0, 31911.026765230512, 38680.45373922035, 187500.0, 187500.0, -187500.02235174447, 32047.8641447859, -0.052000000000000005, 0.974, -0.068, 192.0, 0.0, 0.0, 0.0, 0.0, 0.0, 0.0, 0.0, 0.0, 0.0, 1.6989589466242821E9, 0.0, 2023-11-02 17:02:26.624
70.0, -187500.02235174447, 187500.0, 31910.60208208586, 38679.69377990887, 187500.0, 187500.0, -187500.02235174447, 32047.05948198551, -0.052000000000000005, 0.974, -0.068, 192.0, 0.0, 0.0, 0.0, 0.0, 0.0, 0.0, 0.0, 0.0, 0.0, 1.698958946624292E9, 0.0, 2023-11-02 17:02:26.624
71.0, -187500.02235174447, 187500.0, 31908.165741940233, 38681.548974698664, 187500.0, 187500.0, -187500.02235174447, 32044.53373486206, -0.052000000000000005, 0.974, -0.068, 192.0, 0.0, 0.0, 0.0, 0.0, 0.0, 0.0, 0.0, 0.0, 0.0, 1.6989589466243129E9, 0.0, 2023-11-02 17:02:26.624
72.0, -187500.02235174447, 187500.0, 31904.656518060747, 38675.335189740086, 187500.0, 187500.0, -187500.02235174447, 32041.583304593958, -0.052000000000000005, 0.974, -0.068, 192.0, 0.0, 0.0, 0.0, 0.0, 0.0, 0.0, 0.0, 0.0, 0.0, 1.698958946624325E9, 0.0, 2023-11-02 17:02:26.624
73.0, -187500.02235174447, 187500.0, 31909.104515207353, 38667.713244880826, 187500.0, 187500.0, -187500.02235174447, 32047.461813385704, -0.052000000000000005, 0.974, -0.068, 192.0, 0.0, 0.0, 0.0, 0.0, 0.0, 0.0, 0.0, 0.0, 0.0, 1.6989589466243353E9, 0.0, 2023-11-02 17:02:26.624
74.0, -187500.02235174447, 187500.0, 31904.902387249756, 38669.255515248246, 187500.0, 187500.0, -187500.02235174447, 32045.78543255156, -0.052000000000000005, 0.974, -0.068, 192.0, 0.0, 0.0, 0.0, 0.0, 0.0, 0.0, 0.0, 0.0, 0.0, 1.6989589466243453E9, 0.0, 2023-11-02 17:02:26.624
75.0, -187500.02235174447, 187500.0, 31901.0802389479, 38667.579134414096, 187500.0, 187500.0, -187500.02235174447, 32040.62217958238, -0.052000000000000005, 0.974, -0.068, 192.0, 0.0, 0.0, 0.0, 0.0, 0.0, 0.0, 0.0, 0.0, 0.0, 1.6989589466243565E9, 0.0, 2023-11-02 17:02:26.624
76.0, -187500.02235174447, 187500.0, 31904.276538405007, 38671.73655888278, 187500.0, 187500.0, -187500.02235174447, 32041.538601105047, -0.052000000000000005, 0.974, -0.068, 192.0, 0.0, 0.0, 0.0, 0.0, 0.0, 0.0, 0.0, 0.0, 0.0, 1.6989589466243672E9, 0.0, 2023-11-02 17:02:26.624
77.0, -187500.02235174447, 187500.0, 31903.807151771445, 38667.8250036031, 187500.0, 187500.0, -187500.02235174447, 32039.370481892885, -0.042, 0.984, -0.066, 192.0, 254.0, 176.0, 30.0, 192.0, 253.0, 240.0, 0.0, 0.0, 0.0, 1.6989589466243773E9, 0.0, 2023-11-02 17:02:26.624
78.0, -187500.02235174447, 187500.0, 31905.41647737223, 38668.69672163686, 187500.0, 187500.0, -187500.02235174447, 32040.331606904463, -0.042, 0.984, -0.066, 192.0, 0.0, 0.0, 0.0, 0.0, 0.0, 0.0, 0.0, 0.0, 0.0, 1.6989589466243904E9, 0.0, 2023-11-02 17:02:26.624
79.0, -187500.02235174447, 187500.0, 31896.945166223668, 38668.204983258845, 187500.0, 187500.0, -187500.02235174447, 32030.899170744324, -0.042, 0.984, -0.066, 192.0, 0.0, 0.0, 0.0, 0.0, 0.0, 0.0, 0.0, 0.0, 0.0, 1.6989589466244013E9, 0.0, 2023-11-02 17:02:26.624
80.0, -187500.02235174447, 187500.0, 31900.588500569884, 38663.64522738996, 187500.0, 187500.0, -187500.02235174447, 32032.419089367282, -0.042, 0.984, -0.066, 192.0, 0.0, 0.0, 0.0, 0.0, 0.0, 0.0, 0.0, 0.0, 0.0, 1.6989589466244113E9, 0.0, 2023-11-02 17:02:26.624
81.0, -187500.02235174447, 187500.0, 31908.41161112924, 38664.74046286827, 187500.0, 187500.0, -187500.02235174447, 32038.789336537047, -0.042, 0.984, -0.066, 192.0, 0.0, 0.0, 0.0, 0.0, 0.0, 0.0, 0.0, 0.0, 0.0, 1.6989589466244228E9, 0.0, 2023-11-02 17:02:26.624
82.0, -187500.02235174447, 187500.0, 31904.522407594017, 38667.623837903004, 187500.0, 187500.0, -187500.02235174447, 32035.548333591025, -0.042, 0.984, -0.066, 192.0, 0.0, 0.0, 0.0, 0.0, 0.0, 0.0, 0.0, 0.0, 0.0, 1.698958946624434E9, 0.0, 2023-11-02 17:02:26.624
83.0, -187500.02235174447, 187500.0, 31898.59919531336, 38670.21664025982, 187500.0, 187500.0, -187500.02235174447, 32033.134345189854, -0.042, 0.984, -0.066, 192.0, 0.0, 0.0, 0.0, 0.0, 0.0, 0.0, 0.0, 0.0, 0.0, 1.698958946624446E9, 0.0, 2023-11-02 17:02:26.624
84.0, -187500.02235174447, 187500.0, 31901.236701159087, 38670.931896082395, 187500.0, 187500.0, -187500.02235174447, 32035.883609757857, -0.042, 0.984, -0.066, 192.0, 0.0, 0.0, 0.0, 0.0, 0.0, 0.0, 0.0, 0.0, 0.0, 1.6989589466244571E9, 0.0, 2023-11-02 17:02:26.624
85.0, -187500.02235174447, 187500.0, 31901.996660470566, 38667.13209952499, 187500.0, 187500.0, -187500.02235174447, 32037.045900469533, -0.042, 0.984, -0.066, 192.0, 0.0, 0.0, 0.0, 0.0, 0.0, 0.0, 0.0, 0.0, 0.0, 1.6989589466244693E9, 0.0, 2023-11-02 17:02:26.624
86.0, -187500.02235174447, 187500.0, 31898.80036101346, 38655.01745403021, 187500.0, 187500.0, -187500.02235174447, 32033.693138801234, -0.042, 0.984, -0.066, 192.0, 0.0, 0.0, 0.0, 0.0, 0.0, 0.0, 0.0, 0.0, 0.0, 1.6989589466245103E9, 0.0, 2023-11-02 17:02:26.624
87.0, -187500.02235174447, 187500.0, 31892.83244524389, 38650.70356735034, 187500.0, 187500.0, -187500.02235174447, 32029.62512131037, -0.034, 0.988, -0.06, 192.0, 254.0, 240.0, 30.0, 224.0, 254.0, 32.0, 0.0, 0.0, 0.0, 1.6989589466245265E9, 0.0, 2023-11-02 17:02:26.624
88.0, -187500.02235174447, 187500.0, 31890.709029520636, 38654.771584841204, 187500.0, 187500.0, -187500.02235174447, 32029.647473054825, -0.034, 0.988, -0.06, 192.0, 0.0, 0.0, 0.0, 0.0, 0.0, 0.0, 0.0, 0.0, 0.0, 1.6989589466245403E9, 0.0, 2023-11-02 17:02:26.624
89.0, -187500.02235174447, 187500.0, 31887.87035797481, 38652.402299928945, 187500.0, 187500.0, -187500.02235174447, 32031.05563295551, -0.034, 0.988, -0.06, 192.0, 0.0, 0.0, 0.0, 0.0, 0.0, 0.0, 0.0, 0.0, 0.0, 1.6989589466245515E9, 0.0, 2023-11-02 17:02:26.624
90.0, -187500.02235174447, 187500.0, 31884.383485839786, 38640.98055851228, 187500.0, 187500.0, -187500.02235174447, 32031.033281211054, -0.034, 0.988, -0.06, 192.0, 0.0, 0.0, 0.0, 0.0, 0.0, 0.0, 0.0, 0.0, 0.0, 1.6989589466245694E9, 0.0, 2023-11-02 17:02:26.624
91.0, -187500.02235174447, 187500.0, 31885.41166608473, 38637.583093355075, 187500.0, 187500.0, -187500.02235174447, 32034.38604287935, -0.034, 0.988, -0.06, 192.0, 0.0, 0.0, 0.0, 0.0, 0.0, 0.0, 0.0, 0.0, 0.0, 1.6989589466245813E9, 0.0, 2023-11-02 17:02:26.624
92.0, -187500.02235174447, 187500.0, 31881.902442205246, 38642.36636666851, 187500.0, 187500.0, -187500.02235174447, 32032.57555157847, -0.034, 0.988, -0.06, 192.0, 0.0, 0.0, 0.0, 0.0, 0.0, 0.0, 0.0, 0.0, 0.0, 1.6989589466245935E9, 0.0, 2023-11-02 17:02:26.624
93.0, -187500.02235174447, 187500.0, 31878.706142748135, 38632.44219213035, 187500.0, 187500.0, -187500.02235174447, 32032.24027541164, -0.034, 0.988, -0.06, 192.0, 0.0, 0.0, 0.0, 0.0, 0.0, 0.0, 0.0, 0.0, 0.0, 1.6989589466246097E9, 0.0, 2023-11-02 17:02:26.624
94.0, -187500.02235174447, 187500.0, 31877.521500292005, 38621.31102339161, 187500.0, 187500.0, -187500.02235174447, 32031.18974342224, -0.034, 0.988, -0.06, 192.0, 0.0, 0.0, 0.0, 0.0, 0.0, 0.0, 0.0, 0.0, 0.0, 1.698958946624631E9, 0.0, 2023-11-02 17:02:26.624
95.0, -187500.02235174447, 187500.0, 31872.090026389367, 38607.92232846288, 187500.0, 187500.0, -187500.02235174447, 32024.95360671921, -0.034, 0.988, -0.06, 192.0, 0.0, 0.0, 0.0, 0.0, 0.0, 0.0, 0.0, 0.0, 0.0, 1.698958946624644E9, 0.0, 2023-11-02 17:02:26.624
96.0, -187500.02235174447, 187500.0, 31875.085160146376, 38605.4636365728, 187500.0, 187500.0, -187500.02235174447, 32027.76992652058, -0.034, 0.988, -0.06, 192.0, 0.0, 0.0, 0.0, 0.0, 0.0, 0.0, 0.0, 0.0, 0.0, 1.69895894662466E9, 0.0, 2023-11-02 17:02:26.624
97.0, -187500.02235174447, 187500.0, 31869.273706587996, 38604.25664237221, 187500.0, 187500.0, -187500.02235174447, 32023.254874140606, -0.028, 0.986, -0.06, 192.0, 255.0, 32.0, 30.0, 208.0, 254.0, 32.0, 0.0, 0.0, 0.0, 1.6989589466247325E9, 0.0, 2023-11-02 17:02:26.624
98.0, -187500.02235174447, 187500.0, 31862.83640418487, 38583.22365083977, 187500.0, 187500.0, -187500.02235174447, 32017.041089182032, -0.028, 0.986, -0.06, 192.0, 0.0, 0.0, 0.0, 0.0, 0.0, 0.0, 0.0, 0.0, 0.0, 1.6989589466247864E9, 0.0, 2023-11-02 17:02:26.624
99.0, -187500.02235174447, 187500.0, 31860.131843105777, 38569.47732799975, 187500.0, 187500.0, -187500.02235174447, 32013.71067925819, -0.028, 0.986, -0.06, 192.0, 0.0, 0.0, 0.0, 0.0, 0.0, 0.0, 0.0, 0.0, 0.0, 1.6989589466248279E9, 0.0, 2023-11-02 17:02:26.624
100.0, -187500.02235174447, 187500.0, 31861.22707858409, 38566.549249476106, 187500.0, 187500.0, -187500.02235174447, 32014.04595542502, -0.028, 0.986, -0.06, 192.0, 0.0, 0.0, 0.0, 0.0, 0.0, 0.0, 0.0, 0.0, 0.0, 1.6989589466248524E9, 0.0, 2023-11-02 17:02:26.624
101.0, -187500.02235174447, 187500.0, 31859.662456472215, 38566.92922913185, 187500.0, 187500.0, -187500.02235174447, 32013.04012692453, -0.028, 0.986, -0.06, 192.0, 0.0, 0.0, 0.0, 0.0, 0.0, 0.0, 0.0, 0.0, 0.0, 1.6989589466252596E9, 0.0, 2023-11-02 17:02:26.625
0.0, 0.0, 0.0, 0.0, 0.0, 0.0, 0.0, 0.0, 0.0, -0.026000000000000002, 0.98, -0.066, 192.0, 255.0, 48.0, 30.0, 160.0, 253.0, 240.0, 0.0, 0.0, 0.0, 1.6989589467100508E9, 0.0, 2023-11-02 17:02:26.710
1.0, -187500.02235174447, 187500.0, 31712.006832600455, 38277.20591750216, 187500.0, 187500.0, -187500.02235174447, 31945.02376854703, -0.026000000000000002, 0.98, -0.066, 192.0, 0.0, 0.0, 0.0, 0.0, 0.0, 0.0, 0.0, 0.0, 0.0, 1.6989589468581748E9, 0.0, 2023-11-02 17:02:26.858
2.0, -187500.02235174447, 187500.0, 31717.550065225372, 38279.91047858125, 187500.0, 187500.0, -187500.02235174447, 31949.829393604923, -0.026000000000000002, 0.98, -0.066, 192.0, 0.0, 0.0, 0.0, 0.0, 0.0, 0.0, 0.0, 0.0, 0.0, 1.6989589468581975E9, 0.0, 2023-11-02 17:02:26.858
3.0, -187500.02235174447, 187500.0, 31722.80272517237, 38275.95421981266, 187500.0, 187500.0, -187500.02235174447, 31955.238515763107, -0.026000000000000002, 0.98, -0.066, 192.0, 0.0, 0.0, 0.0, 0.0, 0.0, 0.0, 0.0, 0.0, 0.0, 1.6989589468582091E9, 0.0, 2023-11-02 17:02:26.858
4.0, -187500.02235174447, 187500.0, 31725.060251362356, 38280.78219661501, 187500.0, 187500.0, -187500.02235174447, 31958.479518709126, -0.026000000000000002, 0.98, -0.066, 192.0, 0.0, 0.0, 0.0, 0.0, 0.0, 0.0, 0.0, 0.0, 0.0, 1.6989589468582203E9, 0.0, 2023-11-02 17:02:26.858
5.0, -187500.02235174447, 187500.0, 31714.37611751272, 38276.490661679585, 187500.0, 187500.0, -187500.02235174447, 31946.297817980987, -0.026000000000000002, 0.98, -0.066, 192.0, 0.0, 0.0, 0.0, 0.0, 0.0, 0.0, 0.0, 0.0, 0.0, 1.698958946858238E9, 0.0, 2023-11-02 17:02:26.858
6.0, -187500.02235174447, 187500.0, 31711.112762822246, 38260.218591716126, 187500.0, 187500.0, -187500.02235174447, 31941.335730711908, -0.026000000000000002, 0.98, -0.066, 192.0, 0.0, 0.0, 0.0, 0.0, 0.0, 0.0, 0.0, 0.0, 0.0, 1.698958946858249E9, 0.0, 2023-11-02 17:02:26.858
7.0, -187500.02235174447, 187500.0, 31719.472315248528, 38244.03592873048, 187500.0, 187500.0, -187500.02235174447, 31949.13648952681, -0.026000000000000002, 0.98, -0.066, 192.0, 0.0, 0.0, 0.0, 0.0, 0.0, 0.0, 0.0, 0.0, 0.0, 1.6989589468582587E9, 0.0, 2023-11-02 17:02:26.858
8.0, -187500.02235174447, 187500.0, 31717.483009992007, 38241.331367651386, 187500.0, 187500.0, -187500.02235174447, 31946.56603891445, -0.034, 0.978, -0.07, 192.0, 254.0, 240.0, 30.0, 144.0, 253.0, 208.0, 0.0, 0.0, 0.0, 1.6989589468582687E9, 0.0, 2023-11-02 17:02:26.858
9.0, -187500.02235174447, 187500.0, 31719.919350137636, 38243.074803718904, 187500.0, 187500.0, -187500.02235174447, 31949.047082548987, -0.034, 0.978, -0.07, 192.0, 0.0, 0.0, 0.0, 0.0, 0.0, 0.0, 0.0, 0.0, 0.0, 1.6989589468582797E9, 0.0, 2023-11-02 17:02:26.858
10.0, -187500.02235174447, 187500.0, 31722.22157981653, 38242.024271729504, 187500.0, 187500.0, -187500.02235174447, 31950.32113198294, -0.034, 0.978, -0.07, 192.0, 0.0, 0.0, 0.0, 0.0, 0.0, 0.0, 0.0, 0.0, 0.0, 1.6989589468582892E9, 0.0, 2023-11-02 17:02:26.858
11.0, -187500.02235174447, 187500.0, 31720.65695770466, 38230.624882057295, 187500.0, 187500.0, -187500.02235174447, 31945.537858669504, -0.034, 0.978, -0.07, 192.0, 0.0, 0.0, 0.0, 0.0, 0.0, 0.0, 0.0, 0.0, 0.0, 1.6989589468582988E9, 0.0, 2023-11-02 17:02:26.858
12.0, -187500.02235174447, 187500.0, 31717.728879181017, 38225.23811164357, 187500.0, 187500.0, -187500.02235174447, 31939.391128944295, -0.034, 0.978, -0.07, 192.0, 0.0, 0.0, 0.0, 0.0, 0.0, 0.0, 0.0, 0.0, 0.0, 1.6989589468583083E9, 0.0, 2023-11-02 17:02:26.858
13.0, -187500.02235174447, 187500.0, 31715.71722218004, 38225.64044304376, 187500.0, 187500.0, -187500.02235174447, 31934.518448653038, -0.034, 0.978, -0.07, 192.0, 0.0, 0.0, 0.0, 0.0, 0.0, 0.0, 0.0, 0.0, 0.0, 1.6989589468583188E9, 0.0, 2023-11-02 17:02:26.858
14.0, -187500.02235174447, 187500.0, 31719.204094315064, 38222.667661031206, 187500.0, 187500.0, -187500.02235174447, 31935.144297497787, -0.034, 0.978, -0.07, 192.0, 0.0, 0.0, 0.0, 0.0, 0.0, 0.0, 0.0, 0.0, 0.0, 1.6989589468583915E9, 0.0, 2023-11-02 17:02:26.858
15.0, -187500.02235174447, 187500.0, 31723.160353083655, 38218.4208295847, 187500.0, 187500.0, -187500.02235174447, 31936.574809142927, -0.034, 0.978, -0.07, 192.0, 0.0, 0.0, 0.0, 0.0, 0.0, 0.0, 0.0, 0.0, 0.0, 1.6989589468584015E9, 0.0, 2023-11-02 17:02:26.858
16.0, -187500.02235174447, 187500.0, 31724.56851298434, 38216.69974526164, 187500.0, 187500.0, -187500.02235174447, 31936.150125998276, -0.034, 0.978, -0.07, 192.0, 0.0, 0.0, 0.0, 0.0, 0.0, 0.0, 0.0, 0.0, 0.0, 1.6989589468584113E9, 0.0, 2023-11-02 17:02:26.858
17.0, -187500.02235174447, 187500.0, 31722.445097261087, 38220.83481798587, 187500.0, 187500.0, -187500.02235174447, 31933.423213174727, -0.036000000000000004, 0.982, -0.08, 192.0, 254.0, 224.0, 30.0, 176.0, 253.0, 128.0, 0.0, 0.0, 0.0, 1.6989589468584208E9, 0.0, 2023-11-02 17:02:26.858
18.0, -187500.02235174447, 187500.0, 31722.71331819455, 38220.23132088558, 187500.0, 187500.0, -187500.02235174447, 31934.1384689973, -0.036000000000000004, 0.982, -0.08, 192.0, 0.0, 0.0, 0.0, 0.0, 0.0, 0.0, 0.0, 0.0, 0.0, 1.698958946858431E9, 0.0, 2023-11-02 17:02:26.858
19.0, -187500.02235174447, 187500.0, 31726.356652540762, 38218.37612609579, 187500.0, 187500.0, -187500.02235174447, 31936.395995187286, -0.036000000000000004, 0.982, -0.08, 192.0, 0.0, 0.0, 0.0, 0.0, 0.0, 0.0, 0.0, 0.0, 0.0, 1.6989589468584409E9, 0.0, 2023-11-02 17:02:26.858
20.0, -187500.02235174447, 187500.0, 31728.56947524184, 38215.872730716794, 187500.0, 187500.0, -187500.02235174447, 31938.60881788836, -0.036000000000000004, 0.982, -0.08, 192.0, 0.0, 0.0, 0.0, 0.0, 0.0, 0.0, 0.0, 0.0, 0.0, 1.6989589468584502E9, 0.0, 2023-11-02 17:02:26.858
21.0, -187500.02235174447, 187500.0, 31732.033995632413, 38222.578254053384, 187500.0, 187500.0, -187500.02235174447, 31942.900352823777, -0.036000000000000004, 0.982, -0.08, 192.0, 0.0, 0.0, 0.0, 0.0, 0.0, 0.0, 0.0, 0.0, 0.0, 1.6989589468584597E9, 0.0, 2023-11-02 17:02:26.858
22.0, -187500.02235174447, 187500.0, 31729.66471072015, 38222.265329631016, 187500.0, 187500.0, -187500.02235174447, 31939.99462604459, -0.036000000000000004, 0.982, -0.08, 192.0, 0.0, 0.0, 0.0, 0.0, 0.0, 0.0, 0.0, 0.0, 0.0, 1.6989589468584692E9, 0.0, 2023-11-02 17:02:26.858
23.0, -187500.02235174447, 187500.0, 31732.1904578436, 38215.738620250064, 187500.0, 187500.0, -187500.02235174447, 31940.843992333892, -0.036000000000000004, 0.982, -0.08, 192.0, 0.0, 0.0, 0.0, 0.0, 0.0, 0.0, 0.0, 0.0, 0.0, 1.6989589468584788E9, 0.0, 2023-11-02 17:02:26.858
24.0, -187500.02235174447, 187500.0, 31734.023300888934, 38218.75610575153, 187500.0, 187500.0, -187500.02235174447, 31940.687530122705, -0.036000000000000004, 0.982, -0.08, 192.0, 0.0, 0.0, 0.0, 0.0, 0.0, 0.0, 0.0, 0.0, 0.0, 1.698958946858489E9, 0.0, 2023-11-02 17:02:26.858
25.0, -187500.02235174447, 187500.0, 31730.26820782044, 38221.058335430425, 187500.0, 187500.0, -187500.02235174447, 31936.440698676193, -0.036000000000000004, 0.982, -0.08, 192.0, 0.0, 0.0, 0.0, 0.0, 0.0, 0.0, 0.0, 0.0, 0.0, 1.6989589468584988E9, 0.0, 2023-11-02 17:02:26.858
26.0, -187500.02235174447, 187500.0, 31728.323606052832, 38219.0690301739, 187500.0, 187500.0, -187500.02235174447, 31935.457221920162, -0.036000000000000004, 0.982, -0.08, 192.0, 0.0, 0.0, 0.0, 0.0, 0.0, 0.0, 0.0, 0.0, 0.0, 1.6989589468585083E9, 0.0, 2023-11-02 17:02:26.858
27.0, -187500.02235174447, 187500.0, 31731.676367721127, 38213.168169637705, 187500.0, 187500.0, -187500.02235174447, 31938.742928355092, -0.04, 0.98, -0.076, 192.0, 254.0, 192.0, 30.0, 160.0, 253.0, 160.0, 0.0, 0.0, 0.0, 1.6989589468585198E9, 0.0, 2023-11-02 17:02:26.858
28.0, -187500.02235174447, 187500.0, 31734.738556711505, 38216.07389641689, 187500.0, 187500.0, -187500.02235174447, 31939.838163833403, -0.04, 0.98, -0.076, 192.0, 0.0, 0.0, 0.0, 0.0, 0.0, 0.0, 0.0, 0.0, 0.0, 1.69895894685853E9, 0.0, 2023-11-02 17:02:26.858
29.0, -187500.02235174447, 187500.0, 31726.714280452048, 38214.95630919413, 187500.0, 187500.0, -187500.02235174447, 31929.824582317426, -0.04, 0.98, -0.076, 192.0, 0.0, 0.0, 0.0, 0.0, 0.0, 0.0, 0.0, 0.0, 0.0, 1.6989589468585663E9, 0.0, 2023-11-02 17:02:26.858
30.0, -187500.02235174447, 187500.0, 31728.480068264016, 38214.39751558274, 187500.0, 187500.0, -187500.02235174447, 31930.07045150643, -0.04, 0.98, -0.076, 192.0, 0.0, 0.0, 0.0, 0.0, 0.0, 0.0, 0.0, 0.0, 0.0, 1.6989589468585763E9, 0.0, 2023-11-02 17:02:26.858
31.0, -187500.02235174447, 187500.0, 31729.32943455332, 38217.88438771777, 187500.0, 187500.0, -187500.02235174447, 31931.27744570702, -0.04, 0.98, -0.076, 192.0, 0.0, 0.0, 0.0, 0.0, 0.0, 0.0, 0.0, 0.0, 0.0, 1.698958946858586E9, 0.0, 2023-11-02 17:02:26.858
32.0, -187500.02235174447, 187500.0, 31723.674443206128, 38210.6200707698, 187500.0, 187500.0, -187500.02235174447, 31925.913027037746, -0.04, 0.98, -0.076, 192.0, 0.0, 0.0, 0.0, 0.0, 0.0, 0.0, 0.0, 0.0, 0.0, 1.6989589468585956E9, 0.0, 2023-11-02 17:02:26.858
33.0, -187500.02235174447, 187500.0, 31722.400393772175, 38207.33436433487, 187500.0, 187500.0, -187500.02235174447, 31925.75656482656, -0.04, 0.98, -0.076, 192.0, 0.0, 0.0, 0.0, 0.0, 0.0, 0.0, 0.0, 0.0, 0.0, 1.6989589468586051E9, 0.0, 2023-11-02 17:02:26.858
34.0, -187500.02235174447, 187500.0, 31719.092335592788, 38215.42569582769, 187500.0, 187500.0, -187500.02235174447, 31924.348404925873, -0.04, 0.98, -0.076, 192.0, 0.0, 0.0, 0.0, 0.0, 0.0, 0.0, 0.0, 0.0, 0.0, 1.6989589473278265E9, 0.0, 2023-11-02 17:02:27.327
35.0, -187500.02235174447, 187500.0, 31716.32071928033, 38212.78818998196, 187500.0, 187500.0, -187500.02235174447, 31922.40380315826, -0.04, 0.98, -0.076, 192.0, 0.0, 0.0, 0.0, 0.0, 0.0, 0.0, 0.0, 0.0, 0.0, 1.69895894732794E9, 0.0, 2023-11-02 17:02:27.327
36.0, -187500.02235174447, 187500.0, 31712.163294811642, 38203.445160799645, 187500.0, 187500.0, -187500.02235174447, 31917.486419378096, -0.04, 0.98, -0.076, 192.0, 0.0, 0.0, 0.0, 0.0, 0.0, 0.0, 0.0, 0.0, 0.0, 1.6989589473279707E9, 0.0, 2023-11-02 17:02:27.327
37.0, -187500.02235174447, 187500.0, 31711.403335500163, 38199.55595726442, 187500.0, 187500.0, -187500.02235174447, 31916.41353564424, -0.036000000000000004, 0.982, -0.076, 192.0, 254.0, 224.0, 30.0, 176.0, 253.0, 160.0, 0.0, 0.0, 0.0, 1.698958947328006E9, 0.0, 2023-11-02 17:02:27.328
38.0, -187500.02235174447, 187500.0, 31717.930044881112, 38206.19442536765, 187500.0, 187500.0, -187500.02235174447, 31922.873189791822, -0.036000000000000004, 0.982, -0.076, 192.0, 0.0, 0.0, 0.0, 0.0, 0.0, 0.0, 0.0, 0.0, 0.0, 1.698958947328041E9, 0.0, 2023-11-02 17:02:27.328
39.0, -187500.02235174447, 187500.0, 31718.42178325913, 38207.69199224615, 187500.0, 187500.0, -187500.02235174447, 31923.74490782558, -0.036000000000000004, 0.982, -0.076, 192.0, 0.0, 0.0, 0.0, 0.0, 0.0, 0.0, 0.0, 0.0, 0.0, 1.6989589473280544E9, 0.0, 2023-11-02 17:02:27.328
40.0, -187500.02235174447, 187500.0, 31719.405260015163, 38199.77947470897, 187500.0, 187500.0, -187500.02235174447, 31925.823620059924, -0.036000000000000004, 0.982, -0.076, 192.0, 0.0, 0.0, 0.0, 0.0, 0.0, 0.0, 0.0, 0.0, 0.0, 1.6989589473280668E9, 0.0, 2023-11-02 17:02:27.328
41.0, -187500.02235174447, 187500.0, 31719.338204781798, 38198.974811908585, 187500.0, 187500.0, -187500.02235174447, 31925.868323548835, -0.036000000000000004, 0.982, -0.076, 192.0, 0.0, 0.0, 0.0, 0.0, 0.0, 0.0, 0.0, 0.0, 0.0, 1.6989589473280802E9, 0.0, 2023-11-02 17:02:27.328
42.0, -187500.02235174447, 187500.0, 31723.763850183946, 38203.35575382182, 187500.0, 187500.0, -187500.02235174447, 31929.757527084057, -0.036000000000000004, 0.982, -0.076, 192.0, 0.0, 0.0, 0.0, 0.0, 0.0, 0.0, 0.0, 0.0, 0.0, 1.6989589473280995E9, 0.0, 2023-11-02 17:02:27.328
43.0, -187500.02235174447, 187500.0, 31728.837696175302, 38208.38489632427, 187500.0, 187500.0, -187500.02235174447, 31933.847896319377, -0.036000000000000004, 0.982, -0.076, 192.0, 0.0, 0.0, 0.0, 0.0, 0.0, 0.0, 0.0, 0.0, 0.0, 1.6989589473281124E9, 0.0, 2023-11-02 17:02:27.328
44.0, -187500.02235174447, 187500.0, 31723.85325716177, 38199.91358517571, 187500.0, 187500.0, -187500.02235174447, 31929.377547428317, -0.036000000000000004, 0.982, -0.076, 192.0, 0.0, 0.0, 0.0, 0.0, 0.0, 0.0, 0.0, 0.0, 0.0, 1.6989589473281274E9, 0.0, 2023-11-02 17:02:27.328
45.0, -187500.02235174447, 187500.0, 31717.818286158836, 38193.52098626149, 187500.0, 187500.0, -187500.02235174447, 31923.722556081124, -0.036000000000000004, 0.982, -0.076, 192.0, 0.0, 0.0, 0.0, 0.0, 0.0, 0.0, 0.0, 0.0, 0.0, 1.6989589473284292E9, 0.0, 2023-11-02 17:02:27.328
46.0, -187500.02235174447, 187500.0, 31716.99127161399, 38196.739637463055, 187500.0, 187500.0, -187500.02235174447, 31922.26969269153, -0.036000000000000004, 0.982, -0.076, 192.0, 0.0, 0.0, 0.0, 0.0, 0.0, 0.0, 0.0, 0.0, 0.0, 1.6989589473284447E9, 0.0, 2023-11-02 17:02:27.328
47.0, -187500.02235174447, 187500.0, 31715.694870435582, 38198.03603864146, 187500.0, 187500.0, -187500.02235174447, 31920.906236279756, -0.032, 0.98, -0.068, 192.0, 255.0, 0.0, 30.0, 160.0, 253.0, 224.0, 0.0, 0.0, 0.0, 1.698958947328456E9, 0.0, 2023-11-02 17:02:27.328
48.0, -187500.02235174447, 187500.0, 31713.951434368068, 38187.709532703106, 187500.0, 187500.0, -187500.02235174447, 31917.195846700175, -0.032, 0.98, -0.068, 192.0, 0.0, 0.0, 0.0, 0.0, 0.0, 0.0, 0.0, 0.0, 0.0, 1.6989589473285403E9, 0.0, 2023-11-02 17:02:27.328
49.0, -187500.02235174447, 187500.0, 31713.59380645678, 38179.75231167702, 187500.0, 187500.0, -187500.02235174447, 31913.865436776334, -0.032, 0.98, -0.068, 192.0, 0.0, 0.0, 0.0, 0.0, 0.0, 0.0, 0.0, 0.0, 0.0, 1.698958947328555E9, 0.0, 2023-11-02 17:02:27.328
50.0, -187500.02235174447, 187500.0, 31703.55787319635, 38177.24891629803, 187500.0, 187500.0, -187500.02235174447, 31902.041363959477, -0.032, 0.98, -0.068, 192.0, 0.0, 0.0, 0.0, 0.0, 0.0, 0.0, 0.0, 0.0, 0.0, 1.698958947328567E9, 0.0, 2023-11-02 17:02:27.328
51.0, -187500.02235174447, 187500.0, 31700.294518505874, 38177.76300642049, 187500.0, 187500.0, -187500.02235174447, 31899.761486025036, -0.032, 0.98, -0.068, 192.0, 0.0, 0.0, 0.0, 0.0, 0.0, 0.0, 0.0, 0.0, 0.0, 1.6989589473285837E9, 0.0, 2023-11-02 17:02:27.328
52.0, -187500.02235174447, 187500.0, 31700.741553394982, 38180.33345703286, 187500.0, 187500.0, -187500.02235174447, 31902.846026759868, -0.032, 0.98, -0.068, 192.0, 0.0, 0.0, 0.0, 0.0, 0.0, 0.0, 0.0, 0.0, 0.0, 1.6989589473286E9, 0.0, 2023-11-02 17:02:27.328
53.0, -187500.02235174447, 187500.0, 31704.921329608125, 38181.763968677995, 187500.0, 187500.0, -187500.02235174447, 31907.919872751223, -0.032, 0.98, -0.068, 192.0, 0.0, 0.0, 0.0, 0.0, 0.0, 0.0, 0.0, 0.0, 0.0, 1.6989589473286169E9, 0.0, 2023-11-02 17:02:27.328
54.0, -187500.02235174447, 187500.0, 31699.378096983208, 38183.01566636749, 187500.0, 187500.0, -187500.02235174447, 31902.041363959477, -0.032, 0.98, -0.068, 192.0, 0.0, 0.0, 0.0, 0.0, 0.0, 0.0, 0.0, 0.0, 0.0, 1.698958947328631E9, 0.0, 2023-11-02 17:02:27.328
55.0, -187500.02235174447, 187500.0, 31694.639527158684, 38184.22266056808, 187500.0, 187500.0, -187500.02235174447, 31898.956823224646, -0.032, 0.98, -0.068, 192.0, 0.0, 0.0, 0.0, 0.0, 0.0, 0.0, 0.0, 0.0, 0.0, 1.6989589473286436E9, 0.0, 2023-11-02 17:02:27.328
56.0, -187500.02235174447, 187500.0, 31689.833902100792, 38177.584192464856, 187500.0, 187500.0, -187500.02235174447, 31893.793570255468, -0.032, 0.98, -0.068, 192.0, 0.0, 0.0, 0.0, 0.0, 0.0, 0.0, 0.0, 0.0, 0.0, 1.6989589473286617E9, 0.0, 2023-11-02 17:02:27.328
57.0, -187500.02235174447, 187500.0, 31687.17404451061, 38168.68819817164, 187500.0, 187500.0, -187500.02235174447, 31890.239642887074, -0.026000000000000002, 0.982, -0.07200000000000001, 192.0, 255.0, 48.0, 30.0, 176.0, 253.0, 192.0, 0.0, 0.0, 0.0, 1.6989589473286765E9, 0.0, 2023-11-02 17:02:27.328
58.0, -187500.02235174447, 187500.0, 31686.65995438814, 38168.93406736065, 187500.0, 187500.0, -187500.02235174447, 31890.820788242912, -0.026000000000000002, 0.982, -0.07200000000000001, 192.0, 0.0, 0.0, 0.0, 0.0, 0.0, 0.0, 0.0, 0.0, 0.0, 1.698958947328693E9, 0.0, 2023-11-02 17:02:27.328
59.0, -187500.02235174447, 187500.0, 31681.496701418964, 38167.9058871157, 187500.0, 187500.0, -187500.02235174447, 31887.535081807982, -0.026000000000000002, 0.982, -0.07200000000000001, 192.0, 0.0, 0.0, 0.0, 0.0, 0.0, 0.0, 0.0, 0.0, 0.0, 1.698958947328709E9, 0.0, 2023-11-02 17:02:27.328
60.0, -187500.02235174447, 187500.0, 31675.953468794047, 38157.579381177355, 187500.0, 187500.0, -187500.02235174447, 31883.623526528303, -0.026000000000000002, 0.982, -0.07200000000000001, 192.0, 0.0, 0.0, 0.0, 0.0, 0.0, 0.0, 0.0, 0.0, 0.0, 1.6989589473287885E9, 0.0, 2023-11-02 17:02:27.328
61.0, -187500.02235174447, 187500.0, 31679.68621011808, 38152.37142471927, 187500.0, 187500.0, -187500.02235174447, 31888.093875419367, -0.026000000000000002, 0.982, -0.07200000000000001, 192.0, 0.0, 0.0, 0.0, 0.0, 0.0, 0.0, 0.0, 0.0, 0.0, 1.6989589473288188E9, 0.0, 2023-11-02 17:02:27.328
62.0, -187500.02235174447, 187500.0, 31683.642468886672, 38161.356825990304, 187500.0, 187500.0, -187500.02235174447, 31891.379581854297, -0.026000000000000002, 0.982, -0.07200000000000001, 192.0, 0.0, 0.0, 0.0, 0.0, 0.0, 0.0, 0.0, 0.0, 0.0, 1.698958947328848E9, 0.0, 2023-11-02 17:02:27.328
63.0, -187500.02235174447, 187500.0, 31679.03800952888, 38166.14009930374, 187500.0, 187500.0, -187500.02235174447, 31886.864529474326, -0.026000000000000002, 0.982, -0.07200000000000001, 192.0, 0.0, 0.0, 0.0, 0.0, 0.0, 0.0, 0.0, 0.0, 0.0, 1.6989589473288906E9, 0.0, 2023-11-02 17:02:27.328
64.0, -187500.02235174447, 187500.0, 31671.3266576918, 38154.38308172025, 187500.0, 187500.0, -187500.02235174447, 31878.415570070218, -0.026000000000000002, 0.982, -0.07200000000000001, 192.0, 0.0, 0.0, 0.0, 0.0, 0.0, 0.0, 0.0, 0.0, 0.0, 1.6989589473289275E9, 0.0, 2023-11-02 17:02:27.328
65.0, -187500.02235174447, 187500.0, 31670.589050124774, 38141.32966295835, 187500.0, 187500.0, -187500.02235174447, 31876.69448574716, -0.026000000000000002, 0.982, -0.07200000000000001, 192.0, 0.0, 0.0, 0.0, 0.0, 0.0, 0.0, 0.0, 0.0, 0.0, 1.698958947328946E9, 0.0, 2023-11-02 17:02:27.328
66.0, -187500.02235174447, 187500.0, 31669.47146290201, 38142.64841588121, 187500.0, 187500.0, -187500.02235174447, 31877.20857586963, -0.026000000000000002, 0.982, -0.07200000000000001, 192.0, 0.0, 0.0, 0.0, 0.0, 0.0, 0.0, 0.0, 0.0, 0.0, 1.6989589473289628E9, 0.0, 2023-11-02 17:02:27.328
67.0, -187500.02235174447, 187500.0, 31664.822300055304, 38152.99727356402, 187500.0, 187500.0, -187500.02235174447, 31874.92869793519, -0.022, 0.996, -0.076, 192.0, 255.0, 80.0, 31.0, 32.0, 253.0, 160.0, 0.0, 0.0, 0.0, 1.6989589473289871E9, 0.0, 2023-11-02 17:02:27.328
68.0, -187500.02235174447, 187500.0, 31669.113834990723, 38154.89717184272, 187500.0, 187500.0, -187500.02235174447, 31878.348514836853, -0.022, 0.996, -0.076, 192.0, 0.0, 0.0, 0.0, 0.0, 0.0, 0.0, 0.0, 0.0, 0.0, 1.6989589473290296E9, 0.0, 2023-11-02 17:02:27.329
69.0, -187500.02235174447, 187500.0, 31678.769788595415, 38156.57355267686, 187500.0, 187500.0, -187500.02235174447, 31886.953936452144, -0.022, 0.996, -0.076, 192.0, 0.0, 0.0, 0.0, 0.0, 0.0, 0.0, 0.0, 0.0, 0.0, 1.6989589473290825E9, 0.0, 2023-11-02 17:02:27.329
70.0, -187500.02235174447, 187500.0, 31683.55306190885, 38160.529811445456, 187500.0, 187500.0, -187500.02235174447, 31892.541872565973, -0.022, 0.996, -0.076, 192.0, 0.0, 0.0, 0.0, 0.0, 0.0, 0.0, 0.0, 0.0, 0.0, 1.6989589473291192E9, 0.0, 2023-11-02 17:02:27.329
71.0, -187500.02235174447, 187500.0, 31672.93598329258, 38159.255762011504, 187500.0, 187500.0, -187500.02235174447, 31880.78485498248, -0.022, 0.996, -0.076, 192.0, 0.0, 0.0, 0.0, 0.0, 0.0, 0.0, 0.0, 0.0, 0.0, 1.6989589473291392E9, 0.0, 2023-11-02 17:02:27.329
72.0, -187500.02235174447, 187500.0, 31670.723160591504, 38156.327683487856, 187500.0, 187500.0, -187500.02235174447, 31877.946183436656, -0.022, 0.996, -0.076, 192.0, 0.0, 0.0, 0.0, 0.0, 0.0, 0.0, 0.0, 0.0, 0.0, 1.6989589473291583E9, 0.0, 2023-11-02 17:02:27.329
73.0, -187500.02235174447, 187500.0, 31673.74064609297, 38151.58911366333, 187500.0, 187500.0, -187500.02235174447, 31881.99184918307, -0.022, 0.996, -0.076, 192.0, 0.0, 0.0, 0.0, 0.0, 0.0, 0.0, 0.0, 0.0, 0.0, 1.6989589473291829E9, 0.0, 2023-11-02 17:02:27.329
74.0, -187500.02235174447, 187500.0, 31684.871814831713, 38150.806802607396, 187500.0, 187500.0, -187500.02235174447, 31892.363058610328, -0.022, 0.996, -0.076, 192.0, 0.0, 0.0, 0.0, 0.0, 0.0, 0.0, 0.0, 0.0, 0.0, 1.6989589473292325E9, 0.0, 2023-11-02 17:02:27.329
75.0, -187500.02235174447, 187500.0, 31688.068114288824, 38159.70279690061, 187500.0, 187500.0, -187500.02235174447, 31894.59823305586, -0.022, 0.996, -0.076, 192.0, 0.0, 0.0, 0.0, 0.0, 0.0, 0.0, 0.0, 0.0, 0.0, 1.6989589473293526E9, 0.0, 2023-11-02 17:02:27.329
76.0, -187500.02235174447, 187500.0, 31684.961221809535, 38164.35195974731, 187500.0, 187500.0, -187500.02235174447, 31894.21825340012, -0.022, 0.996, -0.076, 192.0, 0.0, 0.0, 0.0, 0.0, 0.0, 0.0, 0.0, 0.0, 0.0, 1.6989589473293715E9, 0.0, 2023-11-02 17:02:27.329
77.0, -187500.02235174447, 187500.0, 31680.669686874116, 38162.31795100188, 187500.0, 187500.0, -187500.02235174447, 31893.70416327765, -0.026000000000000002, 0.99, -0.078, 192.0, 255.0, 48.0, 30.0, 240.0, 253.0, 144.0, 0.0, 0.0, 0.0, 1.698958947329388E9, 0.0, 2023-11-02 17:02:27.329
78.0, -187500.02235174447, 187500.0, 31686.995230554967, 38162.56382019089, 187500.0, 187500.0, -187500.02235174447, 31900.297927891963, -0.026000000000000002, 0.99, -0.078, 192.0, 0.0, 0.0, 0.0, 0.0, 0.0, 0.0, 0.0, 0.0, 0.0, 1.6989589473294084E9, 0.0, 2023-11-02 17:02:27.329
79.0, -187500.02235174447, 187500.0, 31684.447131687062, 38165.693064414634, 187500.0, 187500.0, -187500.02235174447, 31898.040401701975, -0.026000000000000002, 0.99, -0.078, 192.0, 0.0, 0.0, 0.0, 0.0, 0.0, 0.0, 0.0, 0.0, 0.0, 1.6989589473294332E9, 0.0, 2023-11-02 17:02:27.329
80.0, -187500.02235174447, 187500.0, 31682.457826430542, 38160.55216318991, 187500.0, 187500.0, -187500.02235174447, 31895.447599345163, -0.026000000000000002, 0.99, -0.078, 192.0, 0.0, 0.0, 0.0, 0.0, 0.0, 0.0, 0.0, 0.0, 0.0, 1.6989589473294568E9, 0.0, 2023-11-02 17:02:27.329
81.0, -187500.02235174447, 187500.0, 31684.46948343152, 38154.24897125352, 187500.0, 187500.0, -187500.02235174447, 31897.906291235246, -0.026000000000000002, 0.99, -0.078, 192.0, 0.0, 0.0, 0.0, 0.0, 0.0, 0.0, 0.0, 0.0, 0.0, 1.6989589473294735E9, 0.0, 2023-11-02 17:02:27.329
82.0, -187500.02235174447, 187500.0, 31688.381038711195, 38154.38308172025, 187500.0, 187500.0, -187500.02235174447, 31902.846026759868, -0.026000000000000002, 0.99, -0.078, 192.0, 0.0, 0.0, 0.0, 0.0, 0.0, 0.0, 0.0, 0.0, 0.0, 1.6989589473294897E9, 0.0, 2023-11-02 17:02:27.329
83.0, -187500.02235174447, 187500.0, 31689.40921895614, 38157.17704977716, 187500.0, 187500.0, -187500.02235174447, 31903.60598607135, -0.026000000000000002, 0.99, -0.078, 192.0, 0.0, 0.0, 0.0, 0.0, 0.0, 0.0, 0.0, 0.0, 0.0, 1.6989589473295026E9, 0.0, 2023-11-02 17:02:27.329
84.0, -187500.02235174447, 187500.0, 31692.1808352686, 38163.12261380227, 187500.0, 187500.0, -187500.02235174447, 31905.17060818322, -0.026000000000000002, 0.99, -0.078, 192.0, 0.0, 0.0, 0.0, 0.0, 0.0, 0.0, 0.0, 0.0, 0.0, 1.6989589473295171E9, 0.0, 2023-11-02 17:02:27.329
85.0, -187500.02235174447, 187500.0, 31693.41018121364, 38163.56964869137, 187500.0, 187500.0, -187500.02235174447, 31905.863512261334, -0.026000000000000002, 0.99, -0.078, 192.0, 0.0, 0.0, 0.0, 0.0, 0.0, 0.0, 0.0, 0.0, 0.0, 1.6989589473295305E9, 0.0, 2023-11-02 17:02:27.329
86.0, -187500.02235174447, 187500.0, 31693.588995169284, 38160.41805272318, 187500.0, 187500.0, -187500.02235174447, 31906.131733194798, -0.026000000000000002, 0.99, -0.078, 192.0, 0.0, 0.0, 0.0, 0.0, 0.0, 0.0, 0.0, 0.0, 0.0, 1.6989589473295422E9, 0.0, 2023-11-02 17:02:27.329
87.0, -187500.02235174447, 187500.0, 31696.31590799283, 38156.97588407706, 187500.0, 187500.0, -187500.02235174447, 31909.909178007747, -0.024, 0.988, -0.078, 192.0, 255.0, 64.0, 30.0, 224.0, 253.0, 144.0, 0.0, 0.0, 0.0, 1.6989589473295565E9, 0.0, 2023-11-02 17:02:27.329
88.0, -187500.02235174447, 187500.0, 31696.897053348668, 38155.43361370965, 187500.0, 187500.0, -187500.02235174447, 31913.396050142772, -0.024, 0.988, -0.078, 192.0, 0.0, 0.0, 0.0, 0.0, 0.0, 0.0, 0.0, 0.0, 0.0, 1.6989589473295746E9, 0.0, 2023-11-02 17:02:27.329
89.0, -187500.02235174447, 187500.0, 31699.60161442776, 38153.33254973085, 187500.0, 187500.0, -187500.02235174447, 31916.592349599883, -0.024, 0.988, -0.078, 192.0, 0.0, 0.0, 0.0, 0.0, 0.0, 0.0, 0.0, 0.0, 0.0, 1.698958947329599E9, 0.0, 2023-11-02 17:02:27.329
90.0, -187500.02235174447, 187500.0, 31699.825131872316, 38150.27036074047, 187500.0, 187500.0, -187500.02235174447, 31918.55930311195, -0.024, 0.988, -0.078, 192.0, 0.0, 0.0, 0.0, 0.0, 0.0, 0.0, 0.0, 0.0, 0.0, 1.6989589473296983E9, 0.0, 2023-11-02 17:02:27.329
91.0, -187500.02235174447, 187500.0, 31699.780428383405, 38147.76696536147, 187500.0, 187500.0, -187500.02235174447, 31921.286215935495, -0.024, 0.988, -0.078, 192.0, 0.0, 0.0, 0.0, 0.0, 0.0, 0.0, 0.0, 0.0, 0.0, 1.6989589473297336E9, 0.0, 2023-11-02 17:02:27.329
92.0, -187500.02235174447, 187500.0, 31699.065172560833, 38154.003102064504, 187500.0, 187500.0, -187500.02235174447, 31921.755602569057, -0.024, 0.988, -0.078, 192.0, 0.0, 0.0, 0.0, 0.0, 0.0, 0.0, 0.0, 0.0, 0.0, 1.6989589473297508E9, 0.0, 2023-11-02 17:02:27.329
93.0, -187500.02235174447, 187500.0, 31697.522902193417, 38154.4054334647, 187500.0, 187500.0, -187500.02235174447, 31922.336747924895, -0.024, 0.988, -0.078, 192.0, 0.0, 0.0, 0.0, 0.0, 0.0, 0.0, 0.0, 0.0, 0.0, 1.698958947329769E9, 0.0, 2023-11-02 17:02:27.329
94.0, -187500.02235174447, 187500.0, 31696.829998115303, 38146.671729883165, 187500.0, 187500.0, -187500.02235174447, 31923.163762469743, -0.024, 0.988, -0.078, 192.0, 0.0, 0.0, 0.0, 0.0, 0.0, 0.0, 0.0, 0.0, 0.0, 1.6989589473297825E9, 0.0, 2023-11-02 17:02:27.329
95.0, -187500.02235174447, 187500.0, 31702.50734120695, 38148.906904328695, 187500.0, 187500.0, -187500.02235174447, 31929.55636138396, -0.024, 0.988, -0.078, 192.0, 0.0, 0.0, 0.0, 0.0, 0.0, 0.0, 0.0, 0.0, 0.0, 1.6989589473297963E9, 0.0, 2023-11-02 17:02:27.329
96.0, -187500.02235174447, 187500.0, 31705.0330883304, 38158.36169223329, 187500.0, 187500.0, -187500.02235174447, 31934.56315214195, -0.024, 0.988, -0.078, 192.0, 0.0, 0.0, 0.0, 0.0, 0.0, 0.0, 0.0, 0.0, 0.0, 1.6989589473298194E9, 0.0, 2023-11-02 17:02:27.329
97.0, -187500.02235174447, 187500.0, 31705.32366100832, 38167.88353537125, 187500.0, 187500.0, -187500.02235174447, 31936.932437054213, -0.024, 0.978, -0.078, 192.0, 255.0, 64.0, 30.0, 144.0, 253.0, 144.0, 0.0, 0.0, 0.0, 1.698958947329834E9, 0.0, 2023-11-02 17:02:27.329
98.0, -187500.02235174447, 187500.0, 31708.005870342957, 38166.45302372611, 187500.0, 187500.0, -187500.02235174447, 31939.145259755285, -0.024, 0.978, -0.078, 192.0, 0.0, 0.0, 0.0, 0.0, 0.0, 0.0, 0.0, 0.0, 0.0, 1.6989589473298583E9, 0.0, 2023-11-02 17:02:27.329
99.0, -187500.02235174447, 187500.0, 31710.062230832846, 38160.32864574536, 187500.0, 187500.0, -187500.02235174447, 31939.480535922117, -0.024, 0.978, -0.078, 192.0, 0.0, 0.0, 0.0, 0.0, 0.0, 0.0, 0.0, 0.0, 0.0, 1.6989589473299794E9, 0.0, 2023-11-02 17:02:27.329
100.0, -187500.02235174447, 187500.0, 31712.476219234017, 38165.29073301444, 187500.0, 187500.0, -187500.02235174447, 31940.687530122705, -0.024, 0.978, -0.078, 192.0, 0.0, 0.0, 0.0, 0.0, 0.0, 0.0, 0.0, 0.0, 0.0, 1.698958947330018E9, 0.0, 2023-11-02 17:02:27.330
101.0, -187500.02235174447, 187500.0, 31709.771658154925, 38166.69889291512, 187500.0, 187500.0, -187500.02235174447, 31938.94409405519, -0.024, 0.978, -0.078, 192.0, 0.0, 0.0, 0.0, 0.0, 0.0, 0.0, 0.0, 0.0, 0.0, 1.698958947330031E9, 0.0, 2023-11-02 17:02:27.330
102.0, -187500.02235174447, 187500.0, 31704.966033097036, 38163.30142775791, 187500.0, 187500.0, -187500.02235174447, 31935.859553320355, -0.024, 0.978, -0.078, 192.0, 0.0, 0.0, 0.0, 0.0, 0.0, 0.0, 0.0, 0.0, 0.0, 1.698958947330043E9, 0.0, 2023-11-02 17:02:27.330
103.0, -187500.02235174447, 187500.0, 31704.071963318824, 38154.427785209155, 187500.0, 187500.0, -187500.02235174447, 31933.490268408095, -0.024, 0.978, -0.078, 192.0, 0.0, 0.0, 0.0, 0.0, 0.0, 0.0, 0.0, 0.0, 0.0, 1.6989589473300643E9, 0.0, 2023-11-02 17:02:27.330
104.0, -187500.02235174447, 187500.0, 31703.80374238536, 38156.97588407706, 187500.0, 187500.0, -187500.02235174447, 31932.439736418695, -0.024, 0.978, -0.078, 192.0, 0.0, 0.0, 0.0, 0.0, 0.0, 0.0, 0.0, 0.0, 0.0, 1.6989589473300788E9, 0.0, 2023-11-02 17:02:27.330
105.0, -187500.02235174447, 187500.0, 31694.12543703621, 38159.389872478234, 187500.0, 187500.0, -187500.02235174447, 31924.95190202617, -0.024, 0.978, -0.078, 192.0, 0.0, 0.0, 0.0, 0.0, 0.0, 0.0, 0.0, 0.0, 0.0, 1.6989589473301673E9, 0.0, 2023-11-02 17:02:27.330
106.0, -187500.02235174447, 187500.0, 31691.21971025702, 38150.583285162844, 187500.0, 187500.0, -187500.02235174447, 31921.442678146683, -0.024, 0.978, -0.078, 192.0, 0.0, 0.0, 0.0, 0.0, 0.0, 0.0, 0.0, 0.0, 0.0, 1.6989589473301835E9, 0.0, 2023-11-02 17:02:27.330
107.0, -187500.02235174447, 187500.0, 31693.343125980275, 38147.07406128336, 187500.0, 187500.0, -187500.02235174447, 31924.191942714686, -0.026000000000000002, 0.984, -0.084, 192.0, 255.0, 48.0, 30.0, 192.0, 253.0, 96.0, 0.0, 0.0, 0.0, 1.698958947330197E9, 0.0, 2023-11-02 17:02:27.330
108.0, -187500.02235174447, 187500.0, 31700.205111528056, 38151.54441017442, 187500.0, 187500.0, -187500.02235174447, 31931.210390473654, -0.026000000000000002, 0.984, -0.084, 192.0, 0.0, 0.0, 0.0, 0.0, 0.0, 0.0, 0.0, 0.0, 0.0, 1.6989589473302162E9, 0.0, 2023-11-02 17:02:27.330
109.0, -187500.02235174447, 187500.0, 31693.47723644701, 38157.60173292181, 187500.0, 187500.0, -187500.02235174447, 31927.209428216152, -0.026000000000000002, 0.984, -0.084, 192.0, 0.0, 0.0, 0.0, 0.0, 0.0, 0.0, 0.0, 0.0, 0.0, 1.698958947330231E9, 0.0, 2023-11-02 17:02:27.330
110.0, -187500.02235174447, 187500.0, 31686.861120088237, 38143.877761826254, 187500.0, 187500.0, -187500.02235174447, 31921.017995002032, -0.026000000000000002, 0.984, -0.084, 192.0, 0.0, 0.0, 0.0, 0.0, 0.0, 0.0, 0.0, 0.0, 0.0, 1.6989589473302462E9, 0.0, 2023-11-02 17:02:27.330
111.0, -187500.02235174447, 187500.0, 31684.380076453697, 38128.79033431892, 187500.0, 187500.0, -187500.02235174447, 31917.776992056013, -0.026000000000000002, 0.984, -0.084, 192.0, 0.0, 0.0, 0.0, 0.0, 0.0, 0.0, 0.0, 0.0, 0.0, 1.698958947330259E9, 0.0, 2023-11-02 17:02:27.330
112.0, -187500.02235174447, 187500.0, 31689.99036431198, 38133.41714542117, 187500.0, 187500.0, -187500.02235174447, 31925.0860124929, -0.026000000000000002, 0.984, -0.084, 192.0, 0.0, 0.0, 0.0, 0.0, 0.0, 0.0, 0.0, 0.0, 0.0, 1.6989589473302956E9, 0.0, 2023-11-02 17:02:27.330
113.0, -187500.02235174447, 187500.0, 31698.349916738265, 38154.31602648688, 187500.0, 187500.0, -187500.02235174447, 31936.016015531543, -0.026000000000000002, 0.984, -0.084, 192.0, 0.0, 0.0, 0.0, 0.0, 0.0, 0.0, 0.0, 0.0, 0.0, 1.6989589473303113E9, 0.0, 2023-11-02 17:02:27.330
114.0, -187500.02235174447, 187500.0, 31699.489855705484, 38157.53467768845, 187500.0, 187500.0, -187500.02235174447, 31939.07820452192, -0.026000000000000002, 0.984, -0.084, 192.0, 0.0, 0.0, 0.0, 0.0, 0.0, 0.0, 0.0, 0.0, 0.0, 1.698958947330328E9, 0.0, 2023-11-02 17:02:27.330
115.0, -187500.02235174447, 187500.0, 31705.256605774954, 38155.52302068747, 187500.0, 187500.0, -187500.02235174447, 31945.068472035942, -0.026000000000000002, 0.984, -0.084, 192.0, 0.0, 0.0, 0.0, 0.0, 0.0, 0.0, 0.0, 0.0, 0.0, 1.6989589473303487E9, 0.0, 2023-11-02 17:02:27.330
116.0, -187500.02235174447, 187500.0, 31703.647280174173, 38156.75236663251, 187500.0, 187500.0, -187500.02235174447, 31943.503849924073, -0.026000000000000002, 0.984, -0.084, 192.0, 0.0, 0.0, 0.0, 0.0, 0.0, 0.0, 0.0, 0.0, 0.0, 1.6989589473303647E9, 0.0, 2023-11-02 17:02:27.330
117.0, -187500.02235174447, 187500.0, 31696.293556248376, 38159.09929980031, 187500.0, 187500.0, -187500.02235174447, 31936.261884720552, -0.028, 0.984, -0.08600000000000001, 192.0, 255.0, 32.0, 30.0, 192.0, 253.0, 80.0, 0.0, 0.0, 0.0, 1.6989589473303845E9, 0.0, 2023-11-02 17:02:27.330
118.0, -187500.02235174447, 187500.0, 31689.69979163406, 38150.516229929475, 187500.0, 187500.0, -187500.02235174447, 31929.22108521713, -0.028, 0.984, -0.08600000000000001, 192.0, 0.0, 0.0, 0.0, 0.0, 0.0, 0.0, 0.0, 0.0, 0.0, 1.6989589473304052E9, 0.0, 2023-11-02 17:02:27.330
119.0, -187500.02235174447, 187500.0, 31694.50541669195, 38148.81749735087, 187500.0, 187500.0, -187500.02235174447, 31934.294931208486, -0.028, 0.984, -0.08600000000000001, 192.0, 0.0, 0.0, 0.0, 0.0, 0.0, 0.0, 0.0, 0.0, 0.0, 1.6989589473304276E9, 0.0, 2023-11-02 17:02:27.330
120.0, -187500.02235174447, 187500.0, 31693.27607074691, 38150.53858167393, 187500.0, 187500.0, -187500.02235174447, 31933.065585263445, -0.028, 0.984, -0.08600000000000001, 192.0, 0.0, 0.0, 0.0, 0.0, 0.0, 0.0, 0.0, 0.0, 0.0, 1.698958947330505E9, 0.0, 2023-11-02 17:02:27.330
121.0, -187500.02235174447, 187500.0, 31693.94662308057, 38153.62312240877, 187500.0, 187500.0, -187500.02235174447, 31934.473745164127, -0.028, 0.984, -0.08600000000000001, 192.0, 0.0, 0.0, 0.0, 0.0, 0.0, 0.0, 0.0, 0.0, 0.0, 1.6989589473305345E9, 0.0, 2023-11-02 17:02:27.330
122.0, -187500.02235174447, 187500.0, 31694.84069285878, 38160.105128300806, 187500.0, 187500.0, -187500.02235174447, 31936.64186437629, -0.028, 0.984, -0.08600000000000001, 192.0, 0.0, 0.0, 0.0, 0.0, 0.0, 0.0, 0.0, 0.0, 0.0, 1.6989589473305538E9, 0.0, 2023-11-02 17:02:27.330
123.0, -187500.02235174447, 187500.0, 31693.164312024634, 38156.43944221013, 187500.0, 187500.0, -187500.02235174447, 31937.982969043613, -0.028, 0.984, -0.08600000000000001, 192.0, 0.0, 0.0, 0.0, 0.0, 0.0, 0.0, 0.0, 0.0, 0.0, 1.6989589473305724E9, 0.0, 2023-11-02 17:02:27.330
124.0, -187500.02235174447, 187500.0, 31692.963146324535, 38151.857334596796, 187500.0, 187500.0, -187500.02235174447, 31936.820678331937, -0.028, 0.984, -0.08600000000000001, 192.0, 0.0, 0.0, 0.0, 0.0, 0.0, 0.0, 0.0, 0.0, 0.0, 1.6989589473305902E9, 0.0, 2023-11-02 17:02:27.330
125.0, -187500.02235174447, 187500.0, 31685.676477632103, 38148.281055483945, 187500.0, 187500.0, -187500.02235174447, 31928.84110556139, -0.028, 0.984, -0.08600000000000001, 192.0, 0.0, 0.0, 0.0, 0.0, 0.0, 0.0, 0.0, 0.0, 0.0, 1.6989589473306084E9, 0.0, 2023-11-02 17:02:27.330
126.0, -187500.02235174447, 187500.0, 31676.244041471964, 38143.36367170378, 187500.0, 187500.0, -187500.02235174447, 31919.386317656794, -0.028, 0.984, -0.08600000000000001, 192.0, 0.0, 0.0, 0.0, 0.0, 0.0, 0.0, 0.0, 0.0, 0.0, 1.6989589473306231E9, 0.0, 2023-11-02 17:02:27.330
127.0, -187500.02235174447, 187500.0, 31669.203241968542, 38139.09448851281, 187500.0, 187500.0, -187500.02235174447, 31912.658442575746, -0.02, 0.982, -0.076, 192.0, 255.0, 96.0, 30.0, 176.0, 253.0, 160.0, 0.0, 0.0, 0.0, 1.6989589473306503E9, 0.0, 2023-11-02 17:02:27.330
128.0, -187500.02235174447, 187500.0, 31681.94373630807, 38140.14502050221, 187500.0, 187500.0, -187500.02235174447, 31926.002434015565, -0.02, 0.982, -0.076, 192.0, 0.0, 0.0, 0.0, 0.0, 0.0, 0.0, 0.0, 0.0, 0.0, 1.698958947330676E9, 0.0, 2023-11-02 17:02:27.330
129.0, -187500.02235174447, 187500.0, 31691.376172468208, 38152.23731425254, 187500.0, 187500.0, -187500.02235174447, 31935.524277153527, -0.02, 0.982, -0.076, 192.0, 0.0, 0.0, 0.0, 0.0, 0.0, 0.0, 0.0, 0.0, 0.0, 1.698958947330712E9, 0.0, 2023-11-02 17:02:27.330
130.0, -187500.02235174447, 187500.0, 31687.71048637754, 38155.053634053904, 187500.0, 187500.0, -187500.02235174447, 31931.50096315157, -0.02, 0.982, -0.076, 192.0, 0.0, 0.0, 0.0, 0.0, 0.0, 0.0, 0.0, 0.0, 0.0, 1.6989589473307412E9, 0.0, 2023-11-02 17:02:27.330
131.0, -187500.02235174447, 187500.0, 31684.871814831713, 38149.331587473345, 187500.0, 187500.0, -187500.02235174447, 31927.634111360803, -0.02, 0.982, -0.076, 192.0, 0.0, 0.0, 0.0, 0.0, 0.0, 0.0, 0.0, 0.0, 0.0, 1.6989589473307607E9, 0.0, 2023-11-02 17:02:27.330
132.0, -187500.02235174447, 187500.0, 31690.012716056433, 38152.1032037858, 187500.0, 187500.0, -187500.02235174447, 31932.819716074435, -0.02, 0.982, -0.076, 192.0, 0.0, 0.0, 0.0, 0.0, 0.0, 0.0, 0.0, 0.0, 0.0, 1.698958947330786E9, 0.0, 2023-11-02 17:02:27.330
133.0, -187500.02235174447, 187500.0, 31690.772675367916, 38154.718357887075, 187500.0, 187500.0, -187500.02235174447, 31932.55149514097, -0.02, 0.982, -0.076, 192.0, 0.0, 0.0, 0.0, 0.0, 0.0, 0.0, 0.0, 0.0, 0.0, 1.6989589473308353E9, 0.0, 2023-11-02 17:02:27.330
134.0, -187500.02235174447, 187500.0, 31689.386867211684, 38155.52302068747, 187500.0, 187500.0, -187500.02235174447, 31931.90329455177, -0.02, 0.982, -0.076, 192.0, 0.0, 0.0, 0.0, 0.0, 0.0, 0.0, 0.0, 0.0, 0.0, 1.698958947330861E9, 0.0, 2023-11-02 17:02:27.330
135.0, -187500.02235174447, 187500.0, 31696.56177718184, 38155.83594510984, 187500.0, 187500.0, -187500.02235174447, 31939.145259755285, -0.02, 0.982, -0.076, 192.0, 0.0, 0.0, 0.0, 0.0, 0.0, 0.0, 0.0, 0.0, 0.0, 1.698958947331036E9, 0.0, 2023-11-02 17:02:27.331
136.0, -187500.02235174447, 187500.0, 31694.907748092148, 38155.411261965186, 187500.0, 187500.0, -187500.02235174447, 31937.0888992654, -0.02, 0.982, -0.076, 192.0, 0.0, 0.0, 0.0, 0.0, 0.0, 0.0, 0.0, 0.0, 0.0, 1.6989589473310857E9, 0.0, 2023-11-02 17:02:27.331
137.0, -187500.02235174447, 187500.0, 31687.397561955164, 38147.230523494545, 187500.0, 187500.0, -187500.02235174447, 31929.17638172822, -0.026000000000000002, 0.984, -0.076, 192.0, 255.0, 48.0, 30.0, 192.0, 253.0, 160.0, 0.0, 0.0, 0.0, 1.6989589473311007E9, 0.0, 2023-11-02 17:02:27.331
138.0, -187500.02235174447, 187500.0, 31684.134207264688, 38149.21982875107, 187500.0, 187500.0, -187500.02235174447, 31928.729346839114, -0.026000000000000002, 0.984, -0.076, 192.0, 0.0, 0.0, 0.0, 0.0, 0.0, 0.0, 0.0, 0.0, 0.0, 1.6989589473311257E9, 0.0, 2023-11-02 17:02:27.331
139.0, -187500.02235174447, 187500.0, 31686.950527066056, 38157.48997419953, 187500.0, 187500.0, -187500.02235174447, 31934.451393419673, -0.026000000000000002, 0.984, -0.076, 192.0, 0.0, 0.0, 0.0, 0.0, 0.0, 0.0, 0.0, 0.0, 0.0, 1.6989589473311453E9, 0.0, 2023-11-02 17:02:27.331
140.0, -187500.02235174447, 187500.0, 31692.60551841325, 38154.785413120444, 187500.0, 187500.0, -187500.02235174447, 31940.016977789044, -0.026000000000000002, 0.984, -0.076, 192.0, 0.0, 0.0, 0.0, 0.0, 0.0, 0.0, 0.0, 0.0, 0.0, 1.6989589473311665E9, 0.0, 2023-11-02 17:02:27.331
141.0, -187500.02235174447, 187500.0, 31688.246928244465, 38153.84663985332, 187500.0, 187500.0, -187500.02235174447, 31935.121945753333, -0.026000000000000002, 0.984, -0.076, 192.0, 0.0, 0.0, 0.0, 0.0, 0.0, 0.0, 0.0, 0.0, 0.0, 1.6989589473311903E9, 0.0, 2023-11-02 17:02:27.331
142.0, -187500.02235174447, 187500.0, 31682.904861319646, 38152.37142471927, 187500.0, 187500.0, -187500.02235174447, 31930.09280325089, -0.026000000000000002, 0.984, -0.076, 192.0, 0.0, 0.0, 0.0, 0.0, 0.0, 0.0, 0.0, 0.0, 0.0, 1.6989589473312073E9, 0.0, 2023-11-02 17:02:27.331
143.0, -187500.02235174447, 187500.0, 31677.115759505723, 38153.28784624193, 187500.0, 187500.0, -187500.02235174447, 31926.51652413804, -0.026000000000000002, 0.984, -0.076, 192.0, 0.0, 0.0, 0.0, 0.0, 0.0, 0.0, 0.0, 0.0, 0.0, 1.6989589473312323E9, 0.0, 2023-11-02 17:02:27.331
144.0, -187500.02235174447, 187500.0, 31675.79700658286, 38148.68338688414, 187500.0, 187500.0, -187500.02235174447, 31925.667157848737, -0.026000000000000002, 0.984, -0.076, 192.0, 0.0, 0.0, 0.0, 0.0, 0.0, 0.0, 0.0, 0.0, 0.0, 1.698958947331252E9, 0.0, 2023-11-02 17:02:27.331
145.0, -187500.02235174447, 187500.0, 31672.89127980367, 38145.352976960305, 187500.0, 187500.0, -187500.02235174447, 31922.292044435984, -0.026000000000000002, 0.984, -0.076, 192.0, 0.0, 0.0, 0.0, 0.0, 0.0, 0.0, 0.0, 0.0, 0.0, 1.698958947331267E9, 0.0, 2023-11-02 17:02:27.331
146.0, -187500.02235174447, 187500.0, 31665.49285238896, 38141.88845656973, 187500.0, 187500.0, -187500.02235174447, 31913.083125720397, -0.018000000000000002, 0.978, -0.07, 192.0, 255.0, 112.0, 30.0, 144.0, 253.0, 208.0, 0.0, 0.0, 0.0, 1.6989589473312883E9, 0.0, 2023-11-02 17:02:27.331
147.0, -187500.02235174447, 187500.0, 31659.92726801959, 38136.9040175562, 187500.0, 187500.0, -187500.02235174447, 31906.243491917074, -0.018000000000000002, 0.978, -0.07, 192.0, 0.0, 0.0, 0.0, 0.0, 0.0, 0.0, 0.0, 0.0, 0.0, 1.6989589473313093E9, 0.0, 2023-11-02 17:02:27.331
148.0, -187500.02235174447, 187500.0, 31662.65418084314, 38136.36757568927, 187500.0, 187500.0, -187500.02235174447, 31907.383430884296, -0.018000000000000002, 0.978, -0.07, 192.0, 0.0, 0.0, 0.0, 0.0, 0.0, 0.0, 0.0, 0.0, 0.0, 1.698958947331328E9, 0.0, 2023-11-02 17:02:27.331
149.0, -187500.02235174447, 187500.0, 31656.485099373473, 38127.40452616269, 187500.0, 187500.0, -187500.02235174447, 31901.996660470566, -0.018000000000000002, 0.978, -0.07, 192.0, 0.0, 0.0, 0.0, 0.0, 0.0, 0.0, 0.0, 0.0, 0.0, 1.698958947331345E9, 0.0, 2023-11-02 17:02:27.331
150.0, -187500.02235174447, 187500.0, 31653.624076083193, 38130.377308175244, 187500.0, 187500.0, -187500.02235174447, 31898.64389880227, -0.018000000000000002, 0.978, -0.07, 192.0, 0.0, 0.0, 0.0, 0.0, 0.0, 0.0, 0.0, 0.0, 0.0, 1.6989589473313646E9, 0.0, 2023-11-02 17:02:27.331
151.0, -187500.02235174447, 187500.0, 31657.178003451587, 38136.948721045104, 187500.0, 187500.0, -187500.02235174447, 31902.376640126306, -0.018000000000000002, 0.978, -0.07, 192.0, 0.0, 0.0, 0.0, 0.0, 0.0, 0.0, 0.0, 0.0, 0.0, 1.698958947331483E9, 0.0, 2023-11-02 17:02:27.331
152.0, -187500.02235174447, 187500.0, 31655.971009251003, 38128.41035466318, 187500.0, 187500.0, -187500.02235174447, 31904.16477968273, -0.018000000000000002, 0.978, -0.07, 192.0, 0.0, 0.0, 0.0, 0.0, 0.0, 0.0, 0.0, 0.0, 0.0, 1.6989589473315053E9, 0.0, 2023-11-02 17:02:27.331
153.0, -187500.02235174447, 187500.0, 31660.21784069751, 38125.16935171716, 187500.0, 187500.0, -187500.02235174447, 31910.26680591903, -0.018000000000000002, 0.978, -0.07, 192.0, 0.0, 0.0, 0.0, 0.0, 0.0, 0.0, 0.0, 0.0, 0.0, 1.6989589473315227E9, 0.0, 2023-11-02 17:02:27.331
154.0, -187500.02235174447, 187500.0, 31656.88743077367, 38133.953587288095, 187500.0, 187500.0, -187500.02235174447, 31909.149218696264, -0.018000000000000002, 0.978, -0.07, 192.0, 0.0, 0.0, 0.0, 0.0, 0.0, 0.0, 0.0, 0.0, 0.0, 1.698958947808696E9, 0.0, 2023-11-02 17:02:27.808
155.0, -187500.02235174447, 187500.0, 31656.529802862384, 38141.30731121389, 187500.0, 187500.0, -187500.02235174447, 31908.50101810706, -0.018000000000000002, 0.978, -0.07, 192.0, 0.0, 0.0, 0.0, 0.0, 0.0, 0.0, 0.0, 0.0, 0.0, 1.698958947808818E9, 0.0, 2023-11-02 17:02:27.808
156.0, -187500.02235174447, 187500.0, 31653.31115166082, 38139.630930379746, 187500.0, 187500.0, -187500.02235174447, 31905.97527098361, -0.012, 0.974, -0.07, 192.0, 255.0, 160.0, 30.0, 112.0, 253.0, 208.0, 0.0, 0.0, 0.0, 1.6989589478088531E9, 0.0, 2023-11-02 17:02:27.808
157.0, -187500.02235174447, 187500.0, 31653.35585514973, 38136.613444878276, 187500.0, 187500.0, -187500.02235174447, 31908.813942529436, -0.012, 0.974, -0.07, 192.0, 0.0, 0.0, 0.0, 0.0, 0.0, 0.0, 0.0, 0.0, 0.0, 1.6989589478088698E9, 0.0, 2023-11-02 17:02:27.808
158.0, -187500.02235174447, 187500.0, 31655.903954017635, 38143.29661647041, 187500.0, 187500.0, -187500.02235174447, 31912.680794320204, -0.012, 0.974, -0.07, 192.0, 0.0, 0.0, 0.0, 0.0, 0.0, 0.0, 0.0, 0.0, 0.0, 1.6989589478088832E9, 0.0, 2023-11-02 17:02:27.808
159.0, -187500.02235174447, 187500.0, 31652.662951071616, 38152.25966599699, 187500.0, 187500.0, -187500.02235174447, 31911.40674488625, -0.012, 0.974, -0.07, 192.0, 0.0, 0.0, 0.0, 0.0, 0.0, 0.0, 0.0, 0.0, 0.0, 1.6989589478088946E9, 0.0, 2023-11-02 17:02:27.808
160.0, -187500.02235174447, 187500.0, 31659.100253474746, 38152.72905263055, 187500.0, 187500.0, -187500.02235174447, 31920.83918104639, -0.012, 0.974, -0.07, 192.0, 0.0, 0.0, 0.0, 0.0, 0.0, 0.0, 0.0, 0.0, 0.0, 1.6989589478089132E9, 0.0, 2023-11-02 17:02:27.808
161.0, -187500.02235174447, 187500.0, 31660.41900639761, 38155.6571311542, 187500.0, 187500.0, -187500.02235174447, 31924.527218881518, -0.012, 0.974, -0.07, 192.0, 0.0, 0.0, 0.0, 0.0, 0.0, 0.0, 0.0, 0.0, 0.0, 1.698958947808926E9, 0.0, 2023-11-02 17:02:27.808
162.0, -187500.02235174447, 187500.0, 31660.955448264536, 38159.41222422269, 187500.0, 187500.0, -187500.02235174447, 31924.974253770622, -0.012, 0.974, -0.07, 192.0, 0.0, 0.0, 0.0, 0.0, 0.0, 0.0, 0.0, 0.0, 0.0, 1.69895894780894E9, 0.0, 2023-11-02 17:02:27.808
163.0, -187500.02235174447, 187500.0, 31664.576430866295, 38166.36361674829, 187500.0, 187500.0, -187500.02235174447, 31927.522352638527, -0.012, 0.974, -0.07, 192.0, 0.0, 0.0, 0.0, 0.0, 0.0, 0.0, 0.0, 0.0, 0.0, 1.6989589478089511E9, 0.0, 2023-11-02 17:02:27.808
164.0, -187500.02235174447, 187500.0, 31664.017637254914, 38165.80482313691, 187500.0, 187500.0, -187500.02235174447, 31925.98008227111, -0.012, 0.974, -0.07, 192.0, 0.0, 0.0, 0.0, 0.0, 0.0, 0.0, 0.0, 0.0, 0.0, 1.6989589478089628E9, 0.0, 2023-11-02 17:02:27.808
165.0, -187500.02235174447, 187500.0, 31658.653218585638, 38155.83594510984, 187500.0, 187500.0, -187500.02235174447, 31919.855704290356, -0.012, 0.974, -0.07, 192.0, 0.0, 0.0, 0.0, 0.0, 0.0, 0.0, 0.0, 0.0, 0.0, 1.6989589478089767E9, 0.0, 2023-11-02 17:02:27.808
166.0, -187500.02235174447, 187500.0, 31660.262544186422, 38147.11876477227, 187500.0, 187500.0, -187500.02235174447, 31919.40866940125, -0.01, 0.972, -0.07200000000000001, 192.0, 255.0, 176.0, 30.0, 96.0, 253.0, 192.0, 0.0, 0.0, 0.0, 1.698958947809231E9, 0.0, 2023-11-02 17:02:27.809
167.0, -187500.02235174447, 187500.0, 31661.737759320473, 38153.06432879738, 187500.0, 187500.0, -187500.02235174447, 31920.280387435007, -0.01, 0.972, -0.07200000000000001, 192.0, 0.0, 0.0, 0.0, 0.0, 0.0, 0.0, 0.0, 0.0, 0.0, 1.6989589478092556E9, 0.0, 2023-11-02 17:02:27.809
168.0, -187500.02235174447, 187500.0, 31664.26350644392, 38156.9088288437, 187500.0, 187500.0, -187500.02235174447, 31924.214294459143, -0.01, 0.972, -0.07200000000000001, 192.0, 0.0, 0.0, 0.0, 0.0, 0.0, 0.0, 0.0, 0.0, 0.0, 1.6989589478092675E9, 0.0, 2023-11-02 17:02:27.809
169.0, -187500.02235174447, 187500.0, 31658.429701141085, 38155.478317198555, 187500.0, 187500.0, -187500.02235174447, 31919.36396591234, -0.01, 0.972, -0.07200000000000001, 192.0, 0.0, 0.0, 0.0, 0.0, 0.0, 0.0, 0.0, 0.0, 0.0, 1.698958947809301E9, 0.0, 2023-11-02 17:02:27.809
170.0, -187500.02235174447, 187500.0, 31651.813584782314, 38144.25774148199, 187500.0, 187500.0, -187500.02235174447, 31912.658442575746, -0.01, 0.972, -0.07200000000000001, 192.0, 0.0, 0.0, 0.0, 0.0, 0.0, 0.0, 0.0, 0.0, 0.0, 1.6989589478093169E9, 0.0, 2023-11-02 17:02:27.809
171.0, -187500.02235174447, 187500.0, 31650.94186674856, 38144.21303799308, 187500.0, 187500.0, -187500.02235174447, 31911.004413486055, -0.01, 0.972, -0.07200000000000001, 192.0, 0.0, 0.0, 0.0, 0.0, 0.0, 0.0, 0.0, 0.0, 0.0, 1.6989589478093345E9, 0.0, 2023-11-02 17:02:27.809
172.0, -187500.02235174447, 187500.0, 31651.277142915387, 38145.73295661604, 187500.0, 187500.0, -187500.02235174447, 31909.976233241112, -0.01, 0.972, -0.07200000000000001, 192.0, 0.0, 0.0, 0.0, 0.0, 0.0, 0.0, 0.0, 0.0, 0.0, 1.6989589478093495E9, 0.0, 2023-11-02 17:02:27.809
173.0, -187500.02235174447, 187500.0, 31650.830108026283, 38143.22956123704, 187500.0, 187500.0, -187500.02235174447, 31910.959709997143, -0.01, 0.972, -0.07200000000000001, 192.0, 0.0, 0.0, 0.0, 0.0, 0.0, 0.0, 0.0, 0.0, 0.0, 1.6989589478093636E9, 0.0, 2023-11-02 17:02:27.809
174.0, -187500.02235174447, 187500.0, 31652.50648886043, 38138.31217745688, 187500.0, 187500.0, -187500.02235174447, 31913.284291420496, -0.01, 0.972, -0.07200000000000001, 192.0, 0.0, 0.0, 0.0, 0.0, 0.0, 0.0, 0.0, 0.0, 0.0, 1.6989589478093755E9, 0.0, 2023-11-02 17:02:27.809
175.0, -187500.02235174447, 187500.0, 31654.629904583682, 38140.97203504706, 187500.0, 187500.0, -187500.02235174447, 31916.41353564424, -0.01, 0.972, -0.07200000000000001, 192.0, 0.0, 0.0, 0.0, 0.0, 0.0, 0.0, 0.0, 0.0, 0.0, 1.6989589478093882E9, 0.0, 2023-11-02 17:02:27.809
176.0, -187500.02235174447, 187500.0, 31648.93020974758, 38142.78252634794, 187500.0, 187500.0, -187500.02235174447, 31911.004413486055, -0.006, 0.982, -0.068, 192.0, 255.0, 208.0, 30.0, 176.0, 253.0, 224.0, 0.0, 0.0, 0.0, 1.698958947809415E9, 0.0, 2023-11-02 17:02:27.809
177.0, -187500.02235174447, 187500.0, 31643.252866655934, 38133.93123554364, 187500.0, 187500.0, -187500.02235174447, 31904.276538405007, -0.006, 0.982, -0.068, 192.0, 0.0, 0.0, 0.0, 0.0, 0.0, 0.0, 0.0, 0.0, 0.0, 1.6989589478094325E9, 0.0, 2023-11-02 17:02:27.809
178.0, -187500.02235174447, 187500.0, 31646.516221346406, 38130.35495643079, 187500.0, 187500.0, -187500.02235174447, 31906.958747739645, -0.006, 0.982, -0.068, 192.0, 0.0, 0.0, 0.0, 0.0, 0.0, 0.0, 0.0, 0.0, 0.0, 1.6989589478094463E9, 0.0, 2023-11-02 17:02:27.809
179.0, -187500.02235174447, 187500.0, 31650.9195150041, 38139.29565421291, 187500.0, 187500.0, -187500.02235174447, 31912.479628620105, -0.006, 0.982, -0.068, 192.0, 0.0, 0.0, 0.0, 0.0, 0.0, 0.0, 0.0, 0.0, 0.0, 1.6989589478094645E9, 0.0, 2023-11-02 17:02:27.809
180.0, -187500.02235174447, 187500.0, 31647.276180657886, 38142.15667750319, 187500.0, 187500.0, -187500.02235174447, 31907.65165181776, -0.006, 0.982, -0.068, 192.0, 0.0, 0.0, 0.0, 0.0, 0.0, 0.0, 0.0, 0.0, 0.0, 1.6989589478094847E9, 0.0, 2023-11-02 17:02:27.809
181.0, -187500.02235174447, 187500.0, 31648.192602180556, 38136.36757568927, 187500.0, 187500.0, -187500.02235174447, 31906.958747739645, -0.006, 0.982, -0.068, 192.0, 0.0, 0.0, 0.0, 0.0, 0.0, 0.0, 0.0, 0.0, 0.0, 1.698958947809562E9, 0.0, 2023-11-02 17:02:27.809
182.0, -187500.02235174447, 187500.0, 31646.15859343512, 38133.68536635463, 187500.0, 187500.0, -187500.02235174447, 31903.874207004814, -0.006, 0.982, -0.068, 192.0, 0.0, 0.0, 0.0, 0.0, 0.0, 0.0, 0.0, 0.0, 0.0, 1.6989589478095813E9, 0.0, 2023-11-02 17:02:27.809
183.0, -187500.02235174447, 187500.0, 31640.861229999213, 38129.192665719114, 187500.0, 187500.0, -187500.02235174447, 31897.481608090595, -0.006, 0.982, -0.068, 192.0, 0.0, 0.0, 0.0, 0.0, 0.0, 0.0, 0.0, 0.0, 0.0, 1.6989589478095932E9, 0.0, 2023-11-02 17:02:27.809
184.0, -187500.02235174447, 187500.0, 31643.342273633752, 38132.344261687314, 187500.0, 187500.0, -187500.02235174447, 31899.44856160266, -0.006, 0.982, -0.068, 192.0, 0.0, 0.0, 0.0, 0.0, 0.0, 0.0, 0.0, 0.0, 0.0, 1.698958947809612E9, 0.0, 2023-11-02 17:02:27.809
185.0, -187500.02235174447, 187500.0, 31645.30922714582, 38138.44628792361, 187500.0, 187500.0, -187500.02235174447, 31902.35428838185, -0.006, 0.982, -0.068, 192.0, 0.0, 0.0, 0.0, 0.0, 0.0, 0.0, 0.0, 0.0, 0.0, 1.6989589478096285E9, 0.0, 2023-11-02 17:02:27.809
186.0, -187500.02235174447, 187500.0, 31652.1712126936, 38134.713546599574, 187500.0, 187500.0, -187500.02235174447, 31908.50101810706, -0.018000000000000002, 0.98, -0.058, 192.0, 255.0, 112.0, 30.0, 160.0, 254.0, 48.0, 0.0, 0.0, 0.0, 1.698958947809644E9, 0.0, 2023-11-02 17:02:27.809
187.0, -187500.02235174447, 187500.0, 31651.1206807042, 38136.613444878276, 187500.0, 187500.0, -187500.02235174447, 31907.02580297301, -0.018000000000000002, 0.98, -0.058, 192.0, 0.0, 0.0, 0.0, 0.0, 0.0, 0.0, 0.0, 0.0, 0.0, 1.6989589478096702E9, 0.0, 2023-11-02 17:02:27.809
188.0, -187500.02235174447, 187500.0, 31648.46082311402, 38138.31217745688, 187500.0, 187500.0, -187500.02235174447, 31905.528236094506, -0.018000000000000002, 0.98, -0.058, 192.0, 0.0, 0.0, 0.0, 0.0, 0.0, 0.0, 0.0, 0.0, 0.0, 1.698958947809694E9, 0.0, 2023-11-02 17:02:27.809
189.0, -187500.02235174447, 187500.0, 31647.991436480457, 38138.08866001233, 187500.0, 187500.0, -187500.02235174447, 31908.70218380716, -0.018000000000000002, 0.98, -0.058, 192.0, 0.0, 0.0, 0.0, 0.0, 0.0, 0.0, 0.0, 0.0, 0.0, 1.6989589478097167E9, 0.0, 2023-11-02 17:02:27.809
190.0, -187500.02235174447, 187500.0, 31649.13137544768, 38134.17710473265, 187500.0, 187500.0, -187500.02235174447, 31911.40674488625, -0.018000000000000002, 0.98, -0.058, 192.0, 0.0, 0.0, 0.0, 0.0, 0.0, 0.0, 0.0, 0.0, 0.0, 1.6989589478097365E9, 0.0, 2023-11-02 17:02:27.809
191.0, -187500.02235174447, 187500.0, 31647.365587635708, 38127.02454650695, 187500.0, 187500.0, -187500.02235174447, 31910.333861152398, -0.018000000000000002, 0.98, -0.058, 192.0, 0.0, 0.0, 0.0, 0.0, 0.0, 0.0, 0.0, 0.0, 0.0, 1.698958947809758E9, 0.0, 2023-11-02 17:02:27.809
192.0, -187500.02235174447, 187500.0, 31652.55119234934, 38126.51045638448, 187500.0, 187500.0, -187500.02235174447, 31915.69827982167, -0.018000000000000002, 0.98, -0.058, 192.0, 0.0, 0.0, 0.0, 0.0, 0.0, 0.0, 0.0, 0.0, 0.0, 1.698958947809776E9, 0.0, 2023-11-02 17:02:27.809
193.0, -187500.02235174447, 187500.0, 31655.948657506546, 38127.02454650695, 187500.0, 187500.0, -187500.02235174447, 31917.151143211264, -0.018000000000000002, 0.98, -0.058, 192.0, 0.0, 0.0, 0.0, 0.0, 0.0, 0.0, 0.0, 0.0, 0.0, 1.6989589478097968E9, 0.0, 2023-11-02 17:02:27.809
194.0, -187500.02235174447, 187500.0, 31657.64739008515, 38120.14020921472, 187500.0, 187500.0, -187500.02235174447, 31915.69827982167, -0.018000000000000002, 0.98, -0.058, 192.0, 0.0, 0.0, 0.0, 0.0, 0.0, 0.0, 0.0, 0.0, 0.0, 1.6989589478098228E9, 0.0, 2023-11-02 17:02:27.809
195.0, -187500.02235174447, 187500.0, 31655.233401683978, 38107.46677010856, 187500.0, 187500.0, -187500.02235174447, 31911.429096630705, -0.018000000000000002, 0.98, -0.058, 192.0, 0.0, 0.0, 0.0, 0.0, 0.0, 0.0, 0.0, 0.0, 0.0, 1.6989589478098395E9, 0.0, 2023-11-02 17:02:27.809
196.0, -187500.02235174447, 187500.0, 31655.680436573082, 38099.66601129365, 187500.0, 187500.0, -187500.02235174447, 31908.344555895874, -0.018000000000000002, 0.982, -0.058, 192.0, 255.0, 112.0, 30.0, 176.0, 254.0, 48.0, 0.0, 0.0, 0.0, 1.6989589478099332E9, 0.0, 2023-11-02 17:02:27.809
197.0, -187500.02235174447, 187500.0, 31659.88256453068, 38094.05572343537, 187500.0, 187500.0, -187500.02235174447, 31911.026765230512, -0.018000000000000002, 0.982, -0.058, 192.0, 0.0, 0.0, 0.0, 0.0, 0.0, 0.0, 0.0, 0.0, 0.0, 1.69895894780996E9, 0.0, 2023-11-02 17:02:27.809
198.0, -187500.02235174447, 187500.0, 31661.26837268691, 38084.82445297533, 187500.0, 187500.0, -187500.02235174447, 31911.429096630705, -0.018000000000000002, 0.982, -0.058, 192.0, 0.0, 0.0, 0.0, 0.0, 0.0, 0.0, 0.0, 0.0, 0.0, 1.698958947809971E9, 0.0, 2023-11-02 17:02:27.809
199.0, -187500.02235174447, 187500.0, 31662.676532587593, 38073.02273190293, 187500.0, 187500.0, -187500.02235174447, 31910.065640218934, -0.018000000000000002, 0.982, -0.058, 192.0, 0.0, 0.0, 0.0, 0.0, 0.0, 0.0, 0.0, 0.0, 0.0, 1.6989589478099847E9, 0.0, 2023-11-02 17:02:27.809
200.0, -187500.02235174447, 187500.0, 31670.723160591504, 38070.049949890374, 187500.0, 187500.0, -187500.02235174447, 31917.642881589283, -0.018000000000000002, 0.982, -0.058, 192.0, 0.0, 0.0, 0.0, 0.0, 0.0, 0.0, 0.0, 0.0, 0.0, 1.6989589478100076E9, 0.0, 2023-11-02 17:02:27.810
201.0, -187500.02235174447, 187500.0, 31671.952506536545, 38074.36383657024, 187500.0, 187500.0, -187500.02235174447, 31917.732288567102, -0.018000000000000002, 0.982, -0.058, 192.0, 0.0, 0.0, 0.0, 0.0, 0.0, 0.0, 0.0, 0.0, 0.0, 1.6989589478100293E9, 0.0, 2023-11-02 17:02:27.810
202.0, -187500.02235174447, 187500.0, 31674.210032726533, 38069.26763883443, 187500.0, 187500.0, -187500.02235174447, 31916.83821878889, -0.018000000000000002, 0.982, -0.058, 192.0, 0.0, 0.0, 0.0, 0.0, 0.0, 0.0, 0.0, 0.0, 0.0, 1.698958947810061E9, 0.0, 2023-11-02 17:02:27.810
203.0, -187500.02235174447, 187500.0, 31678.233346728488, 38063.34442655378, 187500.0, 187500.0, -187500.02235174447, 31916.815867044435, -0.018000000000000002, 0.982, -0.058, 192.0, 0.0, 0.0, 0.0, 0.0, 0.0, 0.0, 0.0, 0.0, 0.0, 1.6989589478100784E9, 0.0, 2023-11-02 17:02:27.810
204.0, -187500.02235174447, 187500.0, 31674.902936804647, 38058.82937417381, 187500.0, 187500.0, -187500.02235174447, 31908.165741940233, -0.018000000000000002, 0.982, -0.058, 192.0, 0.0, 0.0, 0.0, 0.0, 0.0, 0.0, 0.0, 0.0, 0.0, 1.6989589478100903E9, 0.0, 2023-11-02 17:02:27.810
205.0, -187500.02235174447, 187500.0, 31669.426759413098, 38054.33667353829, 187500.0, 187500.0, -187500.02235174447, 31898.710954035636, -0.018000000000000002, 0.982, -0.058, 192.0, 0.0, 0.0, 0.0, 0.0, 0.0, 0.0, 0.0, 0.0, 0.0, 1.6989589478101232E9, 0.0, 2023-11-02 17:02:27.810
206.0, -187500.02235174447, 187500.0, 31669.739683835473, 38047.608798457244, 187500.0, 187500.0, -187500.02235174447, 31896.07344818991, -0.034, 0.986, -0.054, 192.0, 254.0, 240.0, 30.0, 208.0, 254.0, 80.0, 0.0, 0.0, 0.0, 1.6989589478101597E9, 0.0, 2023-11-02 17:02:27.810
207.0, -187500.02235174447, 187500.0, 31670.365532680218, 38033.81777212832, 187500.0, 187500.0, -187500.02235174447, 31892.8771487328, -0.034, 0.986, -0.054, 192.0, 0.0, 0.0, 0.0, 0.0, 0.0, 0.0, 0.0, 0.0, 0.0, 1.6989589478102052E9, 0.0, 2023-11-02 17:02:27.810
208.0, -187500.02235174447, 187500.0, 31671.728989091993, 38023.20069351205, 187500.0, 187500.0, -187500.02235174447, 31891.111360920833, -0.034, 0.986, -0.054, 192.0, 0.0, 0.0, 0.0, 0.0, 0.0, 0.0, 0.0, 0.0, 0.0, 1.6989589478102212E9, 0.0, 2023-11-02 17:02:27.810
209.0, -187500.02235174447, 187500.0, 31667.92919253459, 38020.6749463886, 187500.0, 187500.0, -187500.02235174447, 31884.69641026216, -0.034, 0.986, -0.054, 192.0, 0.0, 0.0, 0.0, 0.0, 0.0, 0.0, 0.0, 0.0, 0.0, 1.6989589478102348E9, 0.0, 2023-11-02 17:02:27.810
210.0, -187500.02235174447, 187500.0, 31664.397616910654, 38010.99664103945, 187500.0, 187500.0, -187500.02235174447, 31877.566203780916, -0.034, 0.986, -0.054, 192.0, 0.0, 0.0, 0.0, 0.0, 0.0, 0.0, 0.0, 0.0, 0.0, 1.6989589478102527E9, 0.0, 2023-11-02 17:02:27.810
211.0, -187500.02235174447, 187500.0, 31664.956410522034, 38003.97819328048, 187500.0, 187500.0, -187500.02235174447, 31875.129863635288, -0.034, 0.986, -0.054, 192.0, 0.0, 0.0, 0.0, 0.0, 0.0, 0.0, 0.0, 0.0, 0.0, 1.6989589478103943E9, 0.0, 2023-11-02 17:02:27.810
212.0, -187500.02235174447, 187500.0, 31665.246983199955, 38000.82659731228, 187500.0, 187500.0, -187500.02235174447, 31871.173604866697, -0.034, 0.986, -0.054, 192.0, 0.0, 0.0, 0.0, 0.0, 0.0, 0.0, 0.0, 0.0, 0.0, 1.6989589478104167E9, 0.0, 2023-11-02 17:02:27.810
213.0, -187500.02235174447, 187500.0, 31667.012771011923, 38007.93445204907, 187500.0, 187500.0, -187500.02235174447, 31868.245526343053, -0.034, 0.986, -0.054, 192.0, 0.0, 0.0, 0.0, 0.0, 0.0, 0.0, 0.0, 0.0, 0.0, 1.6989589478104336E9, 0.0, 2023-11-02 17:02:27.810
214.0, -187500.02235174447, 187500.0, 31666.9233640341, 38008.04621077135, 187500.0, 187500.0, -187500.02235174447, 31864.8704129303, -0.034, 0.986, -0.054, 192.0, 0.0, 0.0, 0.0, 0.0, 0.0, 0.0, 0.0, 0.0, 0.0, 1.6989589478104532E9, 0.0, 2023-11-02 17:02:27.810
215.0, -187500.02235174447, 187500.0, 31669.382055924187, 38003.37469618019, 187500.0, 187500.0, -187500.02235174447, 31864.44572978565, -0.034, 0.986, -0.054, 192.0, 0.0, 0.0, 0.0, 0.0, 0.0, 0.0, 0.0, 0.0, 0.0, 1.69895894781047E9, 0.0, 2023-11-02 17:02:27.810
216.0, -187500.02235174447, 187500.0, 31669.717332091015, 37998.01027751092, 187500.0, 187500.0, -187500.02235174447, 31862.724645462593, -0.028, 0.982, -0.056, 192.0, 255.0, 32.0, 30.0, 176.0, 254.0, 64.0, 0.0, 0.0, 0.0, 1.6989589478104885E9, 0.0, 2023-11-02 17:02:27.810
217.0, -187500.02235174447, 187500.0, 31665.626962855695, 37997.1162077327, 187500.0, 187500.0, -187500.02235174447, 31855.952066892634, -0.028, 0.982, -0.056, 192.0, 0.0, 0.0, 0.0, 0.0, 0.0, 0.0, 0.0, 0.0, 0.0, 1.6989589478105147E9, 0.0, 2023-11-02 17:02:27.810
218.0, -187500.02235174447, 187500.0, 31667.1245297342, 38002.63708861316, 187500.0, 187500.0, -187500.02235174447, 31854.521555247495, -0.028, 0.982, -0.056, 192.0, 0.0, 0.0, 0.0, 0.0, 0.0, 0.0, 0.0, 0.0, 0.0, 1.698958947810531E9, 0.0, 2023-11-02 17:02:27.810
219.0, -187500.02235174447, 187500.0, 31665.470500644507, 38003.32999269128, 187500.0, 187500.0, -187500.02235174447, 31851.615828468304, -0.028, 0.982, -0.056, 192.0, 0.0, 0.0, 0.0, 0.0, 0.0, 0.0, 0.0, 0.0, 0.0, 1.6989589478105583E9, 0.0, 2023-11-02 17:02:27.810
220.0, -187500.02235174447, 187500.0, 31663.570602365806, 38000.89365254565, 187500.0, 187500.0, -187500.02235174447, 31850.341779034352, -0.028, 0.982, -0.056, 192.0, 0.0, 0.0, 0.0, 0.0, 0.0, 0.0, 0.0, 0.0, 0.0, 1.6989589478105717E9, 0.0, 2023-11-02 17:02:27.810
221.0, -187500.02235174447, 187500.0, 31665.470500644507, 38007.30860320433, 187500.0, 187500.0, -187500.02235174447, 31852.666360457704, -0.028, 0.982, -0.056, 192.0, 0.0, 0.0, 0.0, 0.0, 0.0, 0.0, 0.0, 0.0, 0.0, 1.698958947810586E9, 0.0, 2023-11-02 17:02:27.810
222.0, -187500.02235174447, 187500.0, 31663.88352678818, 38011.28721371737, 187500.0, 187500.0, -187500.02235174447, 31851.861697657314, -0.028, 0.982, -0.056, 192.0, 0.0, 0.0, 0.0, 0.0, 0.0, 0.0, 0.0, 0.0, 0.0, 1.6989589478106005E9, 0.0, 2023-11-02 17:02:27.810
223.0, -187500.02235174447, 187500.0, 31668.84561405726, 38013.209463740524, 187500.0, 187500.0, -187500.02235174447, 31857.337875048863, -0.028, 0.982, -0.056, 192.0, 0.0, 0.0, 0.0, 0.0, 0.0, 0.0, 0.0, 0.0, 0.0, 1.6989589478106155E9, 0.0, 2023-11-02 17:02:27.810
224.0, -187500.02235174447, 187500.0, 31669.560869879828, 38014.550568407845, 187500.0, 187500.0, -187500.02235174447, 31860.556526250428, -0.028, 0.982, -0.056, 192.0, 0.0, 0.0, 0.0, 0.0, 0.0, 0.0, 0.0, 0.0, 0.0, 1.698958947810636E9, 0.0, 2023-11-02 17:02:27.810
225.0, -187500.02235174447, 187500.0, 31665.805776811336, 38010.25903347242, 187500.0, 187500.0, -187500.02235174447, 31857.24846807104, -0.028, 0.982, -0.056, 192.0, 0.0, 0.0, 0.0, 0.0, 0.0, 0.0, 0.0, 0.0, 0.0, 1.6989589478106513E9, 0.0, 2023-11-02 17:02:27.810
226.0, -187500.02235174447, 187500.0, 31668.84561405726, 38010.30373696134, 187500.0, 187500.0, -187500.02235174447, 31858.34370354935, -0.034, 0.978, -0.062, 192.0, 254.0, 240.0, 30.0, 144.0, 254.0, 16.0, 0.0, 0.0, 0.0, 1.698958947810752E9, 0.0, 2023-11-02 17:02:27.810
227.0, -187500.02235174447, 187500.0, 31671.952506536545, 38007.71093460452, 187500.0, 187500.0, -187500.02235174447, 31860.57887799488, -0.034, 0.978, -0.062, 192.0, 0.0, 0.0, 0.0, 0.0, 0.0, 0.0, 0.0, 0.0, 0.0, 1.698958947810784E9, 0.0, 2023-11-02 17:02:27.810
228.0, -187500.02235174447, 187500.0, 31669.65027685765, 37998.122036233195, 187500.0, 187500.0, -187500.02235174447, 31857.427282026685, -0.034, 0.978, -0.062, 192.0, 0.0, 0.0, 0.0, 0.0, 0.0, 0.0, 0.0, 0.0, 0.0, 1.6989589478108008E9, 0.0, 2023-11-02 17:02:27.810
229.0, -187500.02235174447, 187500.0, 31668.867965801714, 38001.675963601585, 187500.0, 187500.0, -187500.02235174447, 31854.230982569574, -0.034, 0.978, -0.062, 192.0, 0.0, 0.0, 0.0, 0.0, 0.0, 0.0, 0.0, 0.0, 0.0, 1.6989589478108196E9, 0.0, 2023-11-02 17:02:27.810
230.0, -187500.02235174447, 187500.0, 31670.097311746755, 38008.29207996036, 187500.0, 187500.0, -187500.02235174447, 31853.96276163611, -0.034, 0.978, -0.062, 192.0, 0.0, 0.0, 0.0, 0.0, 0.0, 0.0, 0.0, 0.0, 0.0, 1.6989589478108385E9, 0.0, 2023-11-02 17:02:27.810
231.0, -187500.02235174447, 187500.0, 31664.956410522034, 37997.04915249934, 187500.0, 187500.0, -187500.02235174447, 31845.893781887746, -0.034, 0.978, -0.062, 192.0, 0.0, 0.0, 0.0, 0.0, 0.0, 0.0, 0.0, 0.0, 0.0, 1.6989589478108587E9, 0.0, 2023-11-02 17:02:27.810
232.0, -187500.02235174447, 187500.0, 31664.97876226649, 37985.85092852723, 187500.0, 187500.0, -187500.02235174447, 31843.97153186459, -0.034, 0.978, -0.062, 192.0, 0.0, 0.0, 0.0, 0.0, 0.0, 0.0, 0.0, 0.0, 0.0, 1.6989589478108745E9, 0.0, 2023-11-02 17:02:27.810
233.0, -187500.02235174447, 187500.0, 31669.337352435276, 37991.550623363335, 187500.0, 187500.0, -187500.02235174447, 31845.692616187647, -0.034, 0.978, -0.062, 192.0, 0.0, 0.0, 0.0, 0.0, 0.0, 0.0, 0.0, 0.0, 0.0, 1.6989589478108935E9, 0.0, 2023-11-02 17:02:27.810
234.0, -187500.02235174447, 187500.0, 31672.846576314758, 37998.7702368224, 187500.0, 187500.0, -187500.02235174447, 31846.139651076755, -0.034, 0.978, -0.062, 192.0, 0.0, 0.0, 0.0, 0.0, 0.0, 0.0, 0.0, 0.0, 0.0, 1.6989589478109107E9, 0.0, 2023-11-02 17:02:27.810
235.0, -187500.02235174447, 187500.0, 31677.808663583837, 38001.0724665013, 187500.0, 187500.0, -187500.02235174447, 31850.006502867524, -0.034, 0.978, -0.062, 192.0, 0.0, 0.0, 0.0, 0.0, 0.0, 0.0, 0.0, 0.0, 0.0, 1.698958947810932E9, 0.0, 2023-11-02 17:02:27.810
236.0, -187500.02235174447, 187500.0, 31679.619154884716, 37999.597251367246, 187500.0, 187500.0, -187500.02235174447, 31851.794642423945, -0.048, 0.976, -0.068, 192.0, 254.0, 128.0, 30.0, 128.0, 253.0, 224.0, 0.0, 0.0, 0.0, 1.6989589478109624E9, 0.0, 2023-11-02 17:02:27.810
237.0, -187500.02235174447, 187500.0, 31677.115759505723, 37995.79745480984, 187500.0, 187500.0, -187500.02235174447, 31846.810203410412, -0.048, 0.976, -0.068, 192.0, 0.0, 0.0, 0.0, 0.0, 0.0, 0.0, 0.0, 0.0, 0.0, 1.6989589478109848E9, 0.0, 2023-11-02 17:02:27.810
238.0, -187500.02235174447, 187500.0, 31676.333448449786, 37999.06080950032, 187500.0, 187500.0, -187500.02235174447, 31844.59738070934, -0.048, 0.976, -0.068, 192.0, 0.0, 0.0, 0.0, 0.0, 0.0, 0.0, 0.0, 0.0, 0.0, 1.6989589478110063E9, 0.0, 2023-11-02 17:02:27.811
239.0, -187500.02235174447, 187500.0, 31676.288744960875, 37994.970440264995, 187500.0, 187500.0, -187500.02235174447, 31842.74218591955, -0.048, 0.976, -0.068, 192.0, 0.0, 0.0, 0.0, 0.0, 0.0, 0.0, 0.0, 0.0, 0.0, 1.6989589478110297E9, 0.0, 2023-11-02 17:02:27.811
240.0, -187500.02235174447, 187500.0, 31678.143939750666, 37991.394161152144, 187500.0, 187500.0, -187500.02235174447, 31845.379691765273, -0.048, 0.976, -0.068, 192.0, 0.0, 0.0, 0.0, 0.0, 0.0, 0.0, 0.0, 0.0, 0.0, 1.698958947811076E9, 0.0, 2023-11-02 17:02:27.811
241.0, -187500.02235174447, 187500.0, 31680.08854151828, 37992.176472208084, 187500.0, 187500.0, -187500.02235174447, 31847.279590043974, -0.048, 0.976, -0.068, 192.0, 0.0, 0.0, 0.0, 0.0, 0.0, 0.0, 0.0, 0.0, 0.0, 1.6989589478112135E9, 0.0, 2023-11-02 17:02:27.811
242.0, -187500.02235174447, 187500.0, 31678.769788595415, 37994.90338503163, 187500.0, 187500.0, -187500.02235174447, 31844.48562198706, -0.048, 0.976, -0.068, 192.0, 0.0, 0.0, 0.0, 0.0, 0.0, 0.0, 0.0, 0.0, 0.0, 1.698958947811257E9, 0.0, 2023-11-02 17:02:27.811
243.0, -187500.02235174447, 187500.0, 31680.379114196196, 37996.49035888795, 187500.0, 187500.0, -187500.02235174447, 31843.92682837568, -0.048, 0.976, -0.068, 192.0, 0.0, 0.0, 0.0, 0.0, 0.0, 0.0, 0.0, 0.0, 0.0, 1.698958947811292E9, 0.0, 2023-11-02 17:02:27.811
244.0, -187500.02235174447, 187500.0, 31678.90389906215, 37987.99669599494, 187500.0, 187500.0, -187500.02235174447, 31839.45647948462, -0.048, 0.976, -0.068, 192.0, 0.0, 0.0, 0.0, 0.0, 0.0, 0.0, 0.0, 0.0, 0.0, 1.698958947811325E9, 0.0, 2023-11-02 17:02:27.811
245.0, -187500.02235174447, 187500.0, 31682.0778467748, 37987.03557098336, 187500.0, 187500.0, -187500.02235174447, 31841.043453340943, -0.048, 0.976, -0.068, 192.0, 0.0, 0.0, 0.0, 0.0, 0.0, 0.0, 0.0, 0.0, 0.0, 1.6989589478113606E9, 0.0, 2023-11-02 17:02:27.811
246.0, -187500.02235174447, 187500.0, 31680.624983385205, 37989.53896636236, 187500.0, 187500.0, -187500.02235174447, 31840.037624840454, -0.048, 0.982, -0.07, 192.0, 254.0, 128.0, 30.0, 176.0, 253.0, 208.0, 0.0, 0.0, 0.0, 1.6989589478113775E9, 0.0, 2023-11-02 17:02:27.811
247.0, -187500.02235174447, 187500.0, 31679.194471740066, 37998.30085018883, 187500.0, 187500.0, -187500.02235174447, 31839.747052162536, -0.048, 0.982, -0.07, 192.0, 0.0, 0.0, 0.0, 0.0, 0.0, 0.0, 0.0, 0.0, 0.0, 1.698958947811399E9, 0.0, 2023-11-02 17:02:27.811
248.0, -187500.02235174447, 187500.0, 31681.407294441142, 37997.78676006637, 187500.0, 187500.0, -187500.02235174447, 31843.882124886768, -0.048, 0.982, -0.07, 192.0, 0.0, 0.0, 0.0, 0.0, 0.0, 0.0, 0.0, 0.0, 0.0, 1.698958947811422E9, 0.0, 2023-11-02 17:02:27.811
249.0, -187500.02235174447, 187500.0, 31685.45296018755, 37996.24448969895, 187500.0, 187500.0, -187500.02235174447, 31848.68774994466, -0.048, 0.982, -0.07, 192.0, 0.0, 0.0, 0.0, 0.0, 0.0, 0.0, 0.0, 0.0, 0.0, 1.698958947811438E9, 0.0, 2023-11-02 17:02:27.811
250.0, -187500.02235174447, 187500.0, 31680.848500829758, 38000.75954207892, 187500.0, 187500.0, -187500.02235174447, 31843.993883609044, -0.048, 0.982, -0.07, 192.0, 0.0, 0.0, 0.0, 0.0, 0.0, 0.0, 0.0, 0.0, 0.0, 1.6989589478114564E9, 0.0, 2023-11-02 17:02:27.811
251.0, -187500.02235174447, 187500.0, 31676.579317638796, 37999.798417067344, 187500.0, 187500.0, -187500.02235174447, 31839.25531378452, -0.048, 0.982, -0.07, 192.0, 0.0, 0.0, 0.0, 0.0, 0.0, 0.0, 0.0, 0.0, 0.0, 1.6989589478114743E9, 0.0, 2023-11-02 17:02:27.811
252.0, -187500.02235174447, 187500.0, 31680.803797340846, 37996.04332399885, 187500.0, 187500.0, -187500.02235174447, 31843.658607442216, -0.048, 0.982, -0.07, 192.0, 0.0, 0.0, 0.0, 0.0, 0.0, 0.0, 0.0, 0.0, 0.0, 1.698958947811494E9, 0.0, 2023-11-02 17:02:27.811
253.0, -187500.02235174447, 187500.0, 31688.425742200106, 37997.02680075488, 187500.0, 187500.0, -187500.02235174447, 31852.196973824142, -0.048, 0.982, -0.07, 192.0, 0.0, 0.0, 0.0, 0.0, 0.0, 0.0, 0.0, 0.0, 0.0, 1.6989589478115096E9, 0.0, 2023-11-02 17:02:27.811
254.0, -187500.02235174447, 187500.0, 31689.54332942287, 38005.27459445889, 187500.0, 187500.0, -187500.02235174447, 31853.649837213736, -0.048, 0.982, -0.07, 192.0, 0.0, 0.0, 0.0, 0.0, 0.0, 0.0, 0.0, 0.0, 0.0, 1.6989589478115313E9, 0.0, 2023-11-02 17:02:27.811
255.0, -187500.02235174447, 187500.0, 31688.35868696674, 38011.77895209539, 187500.0, 187500.0, -187500.02235174447, 31849.53711623396, -0.048, 0.982, -0.07, 192.0, 0.0, 0.0, 0.0, 0.0, 0.0, 0.0, 0.0, 0.0, 0.0, 1.6989589478115537E9, 0.0, 2023-11-02 17:02:27.811
0.0, -187500.02235174447, 187500.0, 31692.94079458008, 38007.822693326794, 187500.0, 187500.0, -187500.02235174447, 31852.53224999097, -0.056, 0.982, -0.078, 192.0, 254.0, 64.0, 30.0, 176.0, 253.0, 144.0, 0.0, 0.0, 0.0, 1.698958947811686E9, 0.0, 2023-11-02 17:02:27.811
1.0, -187500.02235174447, 187500.0, 31695.980631826, 38012.62831838469, 187500.0, 187500.0, -187500.02235174447, 31859.193069838653, -0.056, 0.982, -0.078, 192.0, 0.0, 0.0, 0.0, 0.0, 0.0, 0.0, 0.0, 0.0, 0.0, 1.698958947811716E9, 0.0, 2023-11-02 17:02:27.811
2.0, -187500.02235174447, 187500.0, 31692.1808352686, 38014.125885263195, 187500.0, 187500.0, -187500.02235174447, 31857.49433726005, -0.056, 0.982, -0.078, 192.0, 0.0, 0.0, 0.0, 0.0, 0.0, 0.0, 0.0, 0.0, 0.0, 1.698958947811735E9, 0.0, 2023-11-02 17:02:27.811
3.0, -187500.02235174447, 187500.0, 31687.1293410217, 38014.52821666339, 187500.0, 187500.0, -187500.02235174447, 31853.515726747006, -0.056, 0.982, -0.078, 192.0, 0.0, 0.0, 0.0, 0.0, 0.0, 0.0, 0.0, 0.0, 0.0, 1.6989589478117557E9, 0.0, 2023-11-02 17:02:27.811
4.0, -187500.02235174447, 187500.0, 31681.831977585793, 38008.31443170481, 187500.0, 187500.0, -187500.02235174447, 31847.63721795526, -0.056, 0.982, -0.078, 192.0, 0.0, 0.0, 0.0, 0.0, 0.0, 0.0, 0.0, 0.0, 0.0, 1.6989589478117776E9, 0.0, 2023-11-02 17:02:27.811
5.0, -187500.02235174447, 187500.0, 31687.531672421894, 37999.03845775586, 187500.0, 187500.0, -187500.02235174447, 31852.95693313562, -0.056, 0.982, -0.078, 192.0, 0.0, 0.0, 0.0, 0.0, 0.0, 0.0, 0.0, 0.0, 0.0, 1.6989589478118272E9, 0.0, 2023-11-02 17:02:27.811
6.0, -187500.02235174447, 187500.0, 31690.66091664564, 37996.42330365459, 187500.0, 187500.0, -187500.02235174447, 31856.555563992926, -0.056, 0.982, -0.078, 192.0, 0.0, 0.0, 0.0, 0.0, 0.0, 0.0, 0.0, 0.0, 0.0, 1.698958947811852E9, 0.0, 2023-11-02 17:02:27.811
7.0, -187500.02235174447, 187500.0, 31681.675515374605, 37993.495225130944, 187500.0, 187500.0, -187500.02235174447, 31848.799508666936, -0.056, 0.982, -0.078, 192.0, 0.0, 0.0, 0.0, 0.0, 0.0, 0.0, 0.0, 0.0, 0.0, 1.6989589478118763E9, 0.0, 2023-11-02 17:02:27.811
8.0, -187500.02235174447, 187500.0, 31673.11479724822, 37989.717780317995, 187500.0, 187500.0, -187500.02235174447, 31843.05511034192, -0.056, 0.982, -0.078, 192.0, 0.0, 0.0, 0.0, 0.0, 0.0, 0.0, 0.0, 0.0, 0.0, 1.6989589478118925E9, 0.0, 2023-11-02 17:02:27.811
9.0, -187500.02235174447, 187500.0, 31670.432587913587, 37994.59046060925, 187500.0, 187500.0, -187500.02235174447, 31845.379691765273, -0.056, 0.982, -0.078, 192.0, 0.0, 0.0, 0.0, 0.0, 0.0, 0.0, 0.0, 0.0, 0.0, 1.698958947811906E9, 0.0, 2023-11-02 17:02:27.811
10.0, -187500.02235174447, 187500.0, 31671.728989091993, 37996.08802748776, 187500.0, 187500.0, -187500.02235174447, 31852.711063946615, -0.034, 0.988, -0.088, 192.0, 254.0, 240.0, 30.0, 224.0, 253.0, 64.0, 0.0, 0.0, 0.0, 1.6989589478119268E9, 0.0, 2023-11-02 17:02:27.811
11.0, -187500.02235174447, 187500.0, 31664.174099466098, 38003.68762060256, 187500.0, 187500.0, -187500.02235174447, 31850.29707554544, -0.034, 0.988, -0.088, 192.0, 0.0, 0.0, 0.0, 0.0, 0.0, 0.0, 0.0, 0.0, 0.0, 1.6989589478119657E9, 0.0, 2023-11-02 17:02:27.811
12.0, -187500.02235174447, 187500.0, 31655.814547039816, 37999.597251367246, 187500.0, 187500.0, -187500.02235174447, 31845.558505720917, -0.034, 0.988, -0.088, 192.0, 0.0, 0.0, 0.0, 0.0, 0.0, 0.0, 0.0, 0.0, 0.0, 1.6989589478119955E9, 0.0, 2023-11-02 17:02:27.811
13.0, -187500.02235174447, 187500.0, 31655.45691912853, 37991.260050685414, 187500.0, 187500.0, -187500.02235174447, 31848.575991222384, -0.034, 0.988, -0.088, 192.0, 0.0, 0.0, 0.0, 0.0, 0.0, 0.0, 0.0, 0.0, 0.0, 1.69895894781201E9, 0.0, 2023-11-02 17:02:27.812
14.0, -187500.02235174447, 187500.0, 31654.40638713913, 37992.35528616372, 187500.0, 187500.0, -187500.02235174447, 31851.25820055702, -0.034, 0.988, -0.088, 192.0, 0.0, 0.0, 0.0, 0.0, 0.0, 0.0, 0.0, 0.0, 0.0, 1.698958947812035E9, 0.0, 2023-11-02 17:02:27.812
15.0, -187500.02235174447, 187500.0, 31650.807756281825, 37996.95974552152, 187500.0, 187500.0, -187500.02235174447, 31848.017197611, -0.034, 0.988, -0.088, 192.0, 0.0, 0.0, 0.0, 0.0, 0.0, 0.0, 0.0, 0.0, 0.0, 1.6989589478120673E9, 0.0, 2023-11-02 17:02:27.812
16.0, -187500.02235174447, 187500.0, 31648.192602180556, 37995.19395770955, 187500.0, 187500.0, -187500.02235174447, 31844.887953387257, -0.034, 0.988, -0.088, 192.0, 0.0, 0.0, 0.0, 0.0, 0.0, 0.0, 0.0, 0.0, 0.0, 1.6989589478122585E9, 0.0, 2023-11-02 17:02:27.812
17.0, -187500.02235174447, 187500.0, 31647.857326013724, 37996.22213795449, 187500.0, 187500.0, -187500.02235174447, 31847.30194178843, -0.034, 0.988, -0.088, 192.0, 0.0, 0.0, 0.0, 0.0, 0.0, 0.0, 0.0, 0.0, 0.0, 1.698958947812282E9, 0.0, 2023-11-02 17:02:27.812
18.0, -187500.02235174447, 187500.0, 31653.065282471813, 37998.27849844438, 187500.0, 187500.0, -187500.02235174447, 31854.20863082512, -0.034, 0.988, -0.088, 192.0, 0.0, 0.0, 0.0, 0.0, 0.0, 0.0, 0.0, 0.0, 0.0, 1.6989589482888465E9, 0.0, 2023-11-02 17:02:28.288
19.0, -187500.02235174447, 187500.0, 31641.822355010794, 37996.937393777065, 187500.0, 187500.0, -187500.02235174447, 31845.11147083181, -0.028, 0.988, -0.092, 192.0, 255.0, 32.0, 30.0, 224.0, 253.0, 32.0, 0.0, 0.0, 0.0, 1.6989589482889469E9, 0.0, 2023-11-02 17:02:28.288
20.0, -187500.02235174447, 187500.0, 31631.428793839073, 37988.13080646167, 187500.0, 187500.0, -187500.02235174447, 31835.455517227118, -0.028, 0.988, -0.092, 192.0, 0.0, 0.0, 0.0, 0.0, 0.0, 0.0, 0.0, 0.0, 0.0, 1.6989589482889657E9, 0.0, 2023-11-02 17:02:28.288
21.0, -187500.02235174447, 187500.0, 31628.143087404143, 37977.84900401223, 187500.0, 187500.0, -187500.02235174447, 31832.974473592578, -0.028, 0.988, -0.092, 192.0, 0.0, 0.0, 0.0, 0.0, 0.0, 0.0, 0.0, 0.0, 0.0, 1.6989589482889812E9, 0.0, 2023-11-02 17:02:28.288
22.0, -187500.02235174447, 187500.0, 31630.244151382944, 37983.34753314823, 187500.0, 187500.0, -187500.02235174447, 31836.77427014998, -0.028, 0.988, -0.092, 192.0, 0.0, 0.0, 0.0, 0.0, 0.0, 0.0, 0.0, 0.0, 0.0, 1.6989589482889953E9, 0.0, 2023-11-02 17:02:28.288
23.0, -187500.02235174447, 187500.0, 31629.17126764909, 37991.66238208561, 187500.0, 187500.0, -187500.02235174447, 31837.757746906012, -0.028, 0.988, -0.092, 192.0, 0.0, 0.0, 0.0, 0.0, 0.0, 0.0, 0.0, 0.0, 0.0, 1.6989589482890077E9, 0.0, 2023-11-02 17:02:28.289
24.0, -187500.02235174447, 187500.0, 31625.371471091687, 37992.89172803065, 187500.0, 187500.0, -187500.02235174447, 31832.996825337035, -0.028, 0.988, -0.092, 192.0, 0.0, 0.0, 0.0, 0.0, 0.0, 0.0, 0.0, 0.0, 0.0, 1.6989589482890189E9, 0.0, 2023-11-02 17:02:28.289
25.0, -187500.02235174447, 187500.0, 31622.823372223782, 37990.209518696014, 187500.0, 187500.0, -187500.02235174447, 31830.851057869324, -0.028, 0.988, -0.092, 192.0, 0.0, 0.0, 0.0, 0.0, 0.0, 0.0, 0.0, 0.0, 0.0, 1.6989589482890296E9, 0.0, 2023-11-02 17:02:28.289
26.0, -187500.02235174447, 187500.0, 31624.432697824563, 37983.638105826154, 187500.0, 187500.0, -187500.02235174447, 31835.67903467167, -0.028, 0.988, -0.092, 192.0, 0.0, 0.0, 0.0, 0.0, 0.0, 0.0, 0.0, 0.0, 0.0, 1.698958948289041E9, 0.0, 2023-11-02 17:02:28.289
27.0, -187500.02235174447, 187500.0, 31631.1158694167, 37992.109416974716, 187500.0, 187500.0, -187500.02235174447, 31844.195049309143, -0.028, 0.988, -0.092, 192.0, 0.0, 0.0, 0.0, 0.0, 0.0, 0.0, 0.0, 0.0, 0.0, 1.698958948289096E9, 0.0, 2023-11-02 17:02:28.289
28.0, -187500.02235174447, 187500.0, 31631.495849072442, 38001.47479790149, 187500.0, 187500.0, -187500.02235174447, 31843.47979348657, -0.028, 0.988, -0.092, 192.0, 0.0, 0.0, 0.0, 0.0, 0.0, 0.0, 0.0, 0.0, 0.0, 1.6989589482891104E9, 0.0, 2023-11-02 17:02:28.289
29.0, -187500.02235174447, 187500.0, 31633.708671773515, 38002.68179210208, 187500.0, 187500.0, -187500.02235174447, 31846.78785166596, -0.03, 0.976, -0.09, 192.0, 255.0, 16.0, 30.0, 128.0, 253.0, 48.0, 0.0, 0.0, 0.0, 1.6989589482891214E9, 0.0, 2023-11-02 17:02:28.289
30.0, -187500.02235174447, 187500.0, 31634.64744504064, 38001.541853134855, 187500.0, 187500.0, -187500.02235174447, 31848.240715055552, -0.03, 0.976, -0.09, 192.0, 0.0, 0.0, 0.0, 0.0, 0.0, 0.0, 0.0, 0.0, 0.0, 1.6989589482891347E9, 0.0, 2023-11-02 17:02:28.289
31.0, -187500.02235174447, 187500.0, 31628.768936248893, 37994.52340537589, 187500.0, 187500.0, -187500.02235174447, 31842.54102021945, -0.03, 0.976, -0.09, 192.0, 0.0, 0.0, 0.0, 0.0, 0.0, 0.0, 0.0, 0.0, 0.0, 1.69895894828931E9, 0.0, 2023-11-02 17:02:28.289
32.0, -187500.02235174447, 187500.0, 31624.946787947036, 37995.529233876376, 187500.0, 187500.0, -187500.02235174447, 31839.300017273432, -0.03, 0.976, -0.09, 192.0, 0.0, 0.0, 0.0, 0.0, 0.0, 0.0, 0.0, 0.0, 0.0, 1.6989589482893212E9, 0.0, 2023-11-02 17:02:28.289
33.0, -187500.02235174447, 187500.0, 31630.266503127397, 37996.71387633251, 187500.0, 187500.0, -187500.02235174447, 31844.262104542508, -0.03, 0.976, -0.09, 192.0, 0.0, 0.0, 0.0, 0.0, 0.0, 0.0, 0.0, 0.0, 0.0, 1.698958948289332E9, 0.0, 2023-11-02 17:02:28.289
34.0, -187500.02235174447, 187500.0, 31635.1168316742, 38000.60307986773, 187500.0, 187500.0, -187500.02235174447, 31851.705235446127, -0.03, 0.976, -0.09, 192.0, 0.0, 0.0, 0.0, 0.0, 0.0, 0.0, 0.0, 0.0, 0.0, 1.698958948289343E9, 0.0, 2023-11-02 17:02:28.289
35.0, -187500.02235174447, 187500.0, 31639.520125331896, 38004.693449103055, 187500.0, 187500.0, -187500.02235174447, 31856.980247137577, -0.03, 0.976, -0.09, 192.0, 0.0, 0.0, 0.0, 0.0, 0.0, 0.0, 0.0, 0.0, 0.0, 1.6989589482893536E9, 0.0, 2023-11-02 17:02:28.289
36.0, -187500.02235174447, 187500.0, 31636.279122385877, 38010.214329983515, 187500.0, 187500.0, -187500.02235174447, 31853.87335465829, -0.03, 0.976, -0.09, 192.0, 0.0, 0.0, 0.0, 0.0, 0.0, 0.0, 0.0, 0.0, 0.0, 1.6989589482893636E9, 0.0, 2023-11-02 17:02:28.289
37.0, -187500.02235174447, 187500.0, 31632.367567106197, 38009.81199858332, 187500.0, 187500.0, -187500.02235174447, 31850.855869156825, -0.03, 0.976, -0.09, 192.0, 0.0, 0.0, 0.0, 0.0, 0.0, 0.0, 0.0, 0.0, 0.0, 1.6989589482893753E9, 0.0, 2023-11-02 17:02:28.289
38.0, -187500.02235174447, 187500.0, 31634.51333457391, 38002.5700333798, 187500.0, 187500.0, -187500.02235174447, 31852.97928488008, -0.03, 0.976, -0.09, 192.0, 0.0, 0.0, 0.0, 0.0, 0.0, 0.0, 0.0, 0.0, 0.0, 1.6989589482893856E9, 0.0, 2023-11-02 17:02:28.289
39.0, -187500.02235174447, 187500.0, 31629.193619393543, 37996.8703385437, 187500.0, 187500.0, -187500.02235174447, 31847.43605225516, -0.024, 0.986, -0.084, 192.0, 255.0, 64.0, 30.0, 208.0, 253.0, 96.0, 0.0, 0.0, 0.0, 1.6989589482893956E9, 0.0, 2023-11-02 17:02:28.289
40.0, -187500.02235174447, 187500.0, 31627.606645537217, 37998.256146699925, 187500.0, 187500.0, -187500.02235174447, 31845.223229554085, -0.024, 0.986, -0.084, 192.0, 0.0, 0.0, 0.0, 0.0, 0.0, 0.0, 0.0, 0.0, 0.0, 1.6989589482894075E9, 0.0, 2023-11-02 17:02:28.289
41.0, -187500.02235174447, 187500.0, 31625.572636791785, 38001.00541126793, 187500.0, 187500.0, -187500.02235174447, 31841.602246952327, -0.024, 0.986, -0.084, 192.0, 0.0, 0.0, 0.0, 0.0, 0.0, 0.0, 0.0, 0.0, 0.0, 1.6989589482894187E9, 0.0, 2023-11-02 17:02:28.289
42.0, -187500.02235174447, 187500.0, 31629.77476474938, 37991.77414080789, 187500.0, 187500.0, -187500.02235174447, 31845.625560954282, -0.024, 0.986, -0.084, 192.0, 0.0, 0.0, 0.0, 0.0, 0.0, 0.0, 0.0, 0.0, 0.0, 1.698958948289429E9, 0.0, 2023-11-02 17:02:28.289
43.0, -187500.02235174447, 187500.0, 31629.193619393543, 37983.302829659326, 187500.0, 187500.0, -187500.02235174447, 31844.77619466498, -0.024, 0.986, -0.084, 192.0, 0.0, 0.0, 0.0, 0.0, 0.0, 0.0, 0.0, 0.0, 0.0, 1.6989589482894385E9, 0.0, 2023-11-02 17:02:28.289
44.0, -187500.02235174447, 187500.0, 31635.1168316742, 37988.30962041731, 187500.0, 187500.0, -187500.02235174447, 31850.945276134644, -0.024, 0.986, -0.084, 192.0, 0.0, 0.0, 0.0, 0.0, 0.0, 0.0, 0.0, 0.0, 0.0, 1.6989589482894485E9, 0.0, 2023-11-02 17:02:28.289
45.0, -187500.02235174447, 187500.0, 31633.731023517972, 37998.72553333349, 187500.0, 187500.0, -187500.02235174447, 31847.8160319109, -0.024, 0.986, -0.084, 192.0, 0.0, 0.0, 0.0, 0.0, 0.0, 0.0, 0.0, 0.0, 0.0, 1.698958948289459E9, 0.0, 2023-11-02 17:02:28.289
46.0, -187500.02235174447, 187500.0, 31630.758241505417, 37990.12011171819, 187500.0, 187500.0, -187500.02235174447, 31844.59738070934, -0.024, 0.986, -0.084, 192.0, 0.0, 0.0, 0.0, 0.0, 0.0, 0.0, 0.0, 0.0, 0.0, 1.698958948289488E9, 0.0, 2023-11-02 17:02:28.289
47.0, -187500.02235174447, 187500.0, 31633.105174673223, 37983.146367448135, 187500.0, 187500.0, -187500.02235174447, 31847.950142377635, -0.024, 0.986, -0.084, 192.0, 0.0, 0.0, 0.0, 0.0, 0.0, 0.0, 0.0, 0.0, 0.0, 1.698958948289498E9, 0.0, 2023-11-02 17:02:28.289
48.0, -187500.02235174447, 187500.0, 31632.59108455075, 37992.55645186382, 187500.0, 187500.0, -187500.02235174447, 31849.805337167425, -0.024, 0.986, -0.084, 192.0, 0.0, 0.0, 0.0, 0.0, 0.0, 0.0, 0.0, 0.0, 0.0, 1.698958948289513E9, 0.0, 2023-11-02 17:02:28.289
49.0, -187500.02235174447, 187500.0, 31632.680491528572, 37999.88782404516, 187500.0, 187500.0, -187500.02235174447, 31851.034683112466, -0.028, 0.986, -0.088, 192.0, 255.0, 32.0, 30.0, 208.0, 253.0, 64.0, 0.0, 0.0, 0.0, 1.698958948289526E9, 0.0, 2023-11-02 17:02:28.289
50.0, -187500.02235174447, 187500.0, 31631.428793839073, 38001.29598394585, 187500.0, 187500.0, -187500.02235174447, 31850.87822090128, -0.028, 0.986, -0.088, 192.0, 0.0, 0.0, 0.0, 0.0, 0.0, 0.0, 0.0, 0.0, 0.0, 1.6989589482895384E9, 0.0, 2023-11-02 17:02:28.289
51.0, -187500.02235174447, 187500.0, 31628.634825782163, 37994.545757120344, 187500.0, 187500.0, -187500.02235174447, 31849.380654022774, -0.028, 0.986, -0.088, 192.0, 0.0, 0.0, 0.0, 0.0, 0.0, 0.0, 0.0, 0.0, 0.0, 1.698958948289549E9, 0.0, 2023-11-02 17:02:28.289
52.0, -187500.02235174447, 187500.0, 31624.678567013572, 37990.16481520711, 187500.0, 187500.0, -187500.02235174447, 31847.324293532885, -0.028, 0.986, -0.088, 192.0, 0.0, 0.0, 0.0, 0.0, 0.0, 0.0, 0.0, 0.0, 0.0, 1.6989589482895598E9, 0.0, 2023-11-02 17:02:28.289
53.0, -187500.02235174447, 187500.0, 31616.45312505402, 37985.58270759376, 187500.0, 187500.0, -187500.02235174447, 31840.81993589639, -0.028, 0.986, -0.088, 192.0, 0.0, 0.0, 0.0, 0.0, 0.0, 0.0, 0.0, 0.0, 0.0, 1.6989589482895703E9, 0.0, 2023-11-02 17:02:28.289
54.0, -187500.02235174447, 187500.0, 31614.285005841855, 37985.0686174713, 187500.0, 187500.0, -187500.02235174447, 31839.188258551152, -0.028, 0.986, -0.088, 192.0, 0.0, 0.0, 0.0, 0.0, 0.0, 0.0, 0.0, 0.0, 0.0, 1.6989589482895815E9, 0.0, 2023-11-02 17:02:28.289
55.0, -187500.02235174447, 187500.0, 31615.35788957571, 37985.5156523604, 187500.0, 187500.0, -187500.02235174447, 31843.25627604202, -0.028, 0.986, -0.088, 192.0, 0.0, 0.0, 0.0, 0.0, 0.0, 0.0, 0.0, 0.0, 0.0, 1.6989589482895925E9, 0.0, 2023-11-02 17:02:28.289
56.0, -187500.02235174447, 187500.0, 31616.766049476395, 37988.73430356196, 187500.0, 187500.0, -187500.02235174447, 31847.167831321698, -0.028, 0.986, -0.088, 192.0, 0.0, 0.0, 0.0, 0.0, 0.0, 0.0, 0.0, 0.0, 0.0, 1.6989589482896028E9, 0.0, 2023-11-02 17:02:28.289
57.0, -187500.02235174447, 187500.0, 31616.319014587287, 37994.970440264995, 187500.0, 187500.0, -187500.02235174447, 31845.82672665438, -0.028, 0.986, -0.088, 192.0, 0.0, 0.0, 0.0, 0.0, 0.0, 0.0, 0.0, 0.0, 0.0, 1.6989589482896128E9, 0.0, 2023-11-02 17:02:28.289
58.0, -187500.02235174447, 187500.0, 31617.16838087659, 37992.467044886, 187500.0, 187500.0, -187500.02235174447, 31845.625560954282, -0.028, 0.986, -0.088, 192.0, 0.0, 0.0, 0.0, 0.0, 0.0, 0.0, 0.0, 0.0, 0.0, 1.6989589482896228E9, 0.0, 2023-11-02 17:02:28.289
59.0, -187500.02235174447, 187500.0, 31616.810752965303, 37987.46025412801, 187500.0, 187500.0, -187500.02235174447, 31844.999712109533, -0.02, 0.984, -0.08, 192.0, 255.0, 96.0, 30.0, 192.0, 253.0, 128.0, 0.0, 0.0, 0.0, 1.6989589482896335E9, 0.0, 2023-11-02 17:02:28.289
60.0, -187500.02235174447, 187500.0, 31614.374412819674, 37980.8664895137, 187500.0, 187500.0, -187500.02235174447, 31843.211572553108, -0.02, 0.984, -0.08, 192.0, 0.0, 0.0, 0.0, 0.0, 0.0, 0.0, 0.0, 0.0, 0.0, 1.6989589482896454E9, 0.0, 2023-11-02 17:02:28.289
61.0, -187500.02235174447, 187500.0, 31617.950691932525, 37979.25716391292, 187500.0, 187500.0, -187500.02235174447, 31846.20670631012, -0.02, 0.984, -0.08, 192.0, 0.0, 0.0, 0.0, 0.0, 0.0, 0.0, 0.0, 0.0, 0.0, 1.69895894828967E9, 0.0, 2023-11-02 17:02:28.289
62.0, -187500.02235174447, 187500.0, 31612.31805232979, 37981.201765680526, 187500.0, 187500.0, -187500.02235174447, 31839.76940390699, -0.02, 0.984, -0.08, 192.0, 0.0, 0.0, 0.0, 0.0, 0.0, 0.0, 0.0, 0.0, 0.0, 1.6989589482896805E9, 0.0, 2023-11-02 17:02:28.289
63.0, -187500.02235174447, 187500.0, 31605.321956315274, 37969.75767251941, 187500.0, 187500.0, -187500.02235174447, 31833.73443290406, -0.02, 0.984, -0.08, 192.0, 0.0, 0.0, 0.0, 0.0, 0.0, 0.0, 0.0, 0.0, 0.0, 1.69895894828969E9, 0.0, 2023-11-02 17:02:28.289
