%OpenBCI Raw EEG Data
%Number of channels = 8
%Sample Rate = 250 Hz
%Board = OpenBCI_GUI$BoardCytonSerial
Sample Index, EXG Channel 0, EXG Channel 1, EXG Channel 2, EXG Channel 3, EXG Channel 4, EXG Channel 5, EXG Channel 6, EXG Channel 7, Accel Channel 0, Accel Channel 1, Accel Channel 2, Other, Other, Other, Other, Other, Other, Other, Analog Channel 0, Analog Channel 1, Analog Channel 2, Timestamp, Other, Timestamp (Formatted)
216.0, -187500.02235174447, 187500.0, 31473.916050662527, 36616.96304285086, 187500.0, 187500.0, -187500.02235174447, 31434.286407743268, 0.0, 0.0, 0.0, 192.0, 0.0, 0.0, 0.0, 0.0, 0.0, 0.0, 0.0, 0.0, 0.0, 1.6989589594842386E9, 0.0, 2023-11-02 17:02:39.484
217.0, -187500.02235174447, 187500.0, 31467.076416859203, 36617.52183646224, 187500.0, 187500.0, -187500.02235174447, 31429.88311408557, 0.0, 0.0, 0.0, 192.0, 0.0, 0.0, 0.0, 0.0, 0.0, 0.0, 0.0, 0.0, 0.0, 1.6989589594842932E9, 0.0, 2023-11-02 17:02:39.484
218.0, -187500.02235174447, 187500.0, 31467.031713370292, 36611.53156894822, 187500.0, 187500.0, -187500.02235174447, 31431.98417806437, 0.0, 0.0, 0.0, 192.0, 0.0, 0.0, 0.0, 0.0, 0.0, 0.0, 0.0, 0.0, 0.0, 1.6989589594843216E9, 0.0, 2023-11-02 17:02:39.484
219.0, -187500.02235174447, 187500.0, 31469.266887815822, 36613.81144688266, 187500.0, 187500.0, -187500.02235174447, 31435.627512410585, 0.0, 0.0, 0.0, 192.0, 0.0, 0.0, 0.0, 0.0, 0.0, 0.0, 0.0, 0.0, 0.0, 1.6989589594843311E9, 0.0, 2023-11-02 17:02:39.484
220.0, -187500.02235174447, 187500.0, 31468.1269488486, 36613.74439164929, 187500.0, 187500.0, -187500.02235174447, 31435.336939732664, 0.0, 0.0, 0.0, 192.0, 0.0, 0.0, 0.0, 0.0, 0.0, 0.0, 0.0, 0.0, 0.0, 1.6989589594843411E9, 0.0, 2023-11-02 17:02:39.484
221.0, -187500.02235174447, 187500.0, 31460.3261900337, 36616.89598761749, 187500.0, 187500.0, -187500.02235174447, 31429.212561751912, 0.0, 0.0, 0.0, 192.0, 0.0, 0.0, 0.0, 0.0, 0.0, 0.0, 0.0, 0.0, 0.0, 1.6989589594843507E9, 0.0, 2023-11-02 17:02:39.484
222.0, -187500.02235174447, 187500.0, 31456.213469053924, 36612.89502535999, 187500.0, 187500.0, -187500.02235174447, 31425.27865472778, 0.0, 0.0, 0.0, 192.0, 0.0, 0.0, 0.0, 0.0, 0.0, 0.0, 0.0, 0.0, 0.0, 1.6989589594843776E9, 0.0, 2023-11-02 17:02:39.484
223.0, -187500.02235174447, 187500.0, 31464.95300113595, 36615.644289927994, 187500.0, 187500.0, -187500.02235174447, 31435.471050199398, 0.0, 0.0, 0.0, 192.0, 0.0, 0.0, 0.0, 0.0, 0.0, 0.0, 0.0, 0.0, 0.0, 1.6989589594843867E9, 0.0, 2023-11-02 17:02:39.484
224.0, -187500.02235174447, 187500.0, 31475.547728007765, 36623.981490609825, 187500.0, 187500.0, -187500.02235174447, 31447.742157905363, -0.05, 0.986, -0.084, 192.0, 254.0, 112.0, 30.0, 208.0, 253.0, 96.0, 0.0, 0.0, 0.0, 1.698958959484396E9, 0.0, 2023-11-02 17:02:39.484
225.0, -187500.02235174447, 187500.0, 31474.072512873714, 36627.15543832248, 187500.0, 187500.0, -187500.02235174447, 31447.585695694175, -0.05, 0.986, -0.084, 192.0, 0.0, 0.0, 0.0, 0.0, 0.0, 0.0, 0.0, 0.0, 0.0, 1.6989589594844077E9, 0.0, 2023-11-02 17:02:39.484
226.0, -187500.02235174447, 187500.0, 31473.80429194025, 36628.20597031188, 187500.0, 187500.0, -187500.02235174447, 31445.864611371115, -0.05, 0.986, -0.084, 192.0, 0.0, 0.0, 0.0, 0.0, 0.0, 0.0, 0.0, 0.0, 0.0, 1.6989589594844174E9, 0.0, 2023-11-02 17:02:39.484
227.0, -187500.02235174447, 187500.0, 31466.76349243683, 36616.650118428486, 187500.0, 187500.0, -187500.02235174447, 31440.142564790556, -0.05, 0.986, -0.084, 192.0, 0.0, 0.0, 0.0, 0.0, 0.0, 0.0, 0.0, 0.0, 0.0, 1.6989589594844272E9, 0.0, 2023-11-02 17:02:39.484
228.0, -187500.02235174447, 187500.0, 31459.54387897776, 36607.888234602004, 187500.0, 187500.0, -187500.02235174447, 31433.727614131883, -0.05, 0.986, -0.084, 192.0, 0.0, 0.0, 0.0, 0.0, 0.0, 0.0, 0.0, 0.0, 0.0, 1.6989589594844368E9, 0.0, 2023-11-02 17:02:39.484
229.0, -187500.02235174447, 187500.0, 31466.830547670193, 36614.30318526068, 187500.0, 187500.0, -187500.02235174447, 31439.18143977898, -0.05, 0.986, -0.084, 192.0, 0.0, 0.0, 0.0, 0.0, 0.0, 0.0, 0.0, 0.0, 0.0, 1.6989589594844468E9, 0.0, 2023-11-02 17:02:39.484
230.0, -187500.02235174447, 187500.0, 31470.89856516106, 36625.322595277146, 187500.0, 187500.0, -187500.02235174447, 31446.199887537947, -0.05, 0.986, -0.084, 192.0, 0.0, 0.0, 0.0, 0.0, 0.0, 0.0, 0.0, 0.0, 0.0, 1.6989589594844563E9, 0.0, 2023-11-02 17:02:39.484
231.0, -187500.02235174447, 187500.0, 31467.769320937317, 36616.918339361946, 187500.0, 187500.0, -187500.02235174447, 31443.785899136772, -0.05, 0.986, -0.084, 192.0, 0.0, 0.0, 0.0, 0.0, 0.0, 0.0, 0.0, 0.0, 0.0, 1.6989589594844663E9, 0.0, 2023-11-02 17:02:39.484
232.0, -187500.02235174447, 187500.0, 31461.3767220231, 36611.41981022595, 187500.0, 187500.0, -187500.02235174447, 31436.275712999788, -0.05, 0.986, -0.084, 192.0, 0.0, 0.0, 0.0, 0.0, 0.0, 0.0, 0.0, 0.0, 0.0, 1.6989589594845817E9, 0.0, 2023-11-02 17:02:39.484
233.0, -187500.02235174447, 187500.0, 31458.69451268846, 36608.75995263576, 187500.0, 187500.0, -187500.02235174447, 31432.162992020014, -0.05, 0.986, -0.084, 192.0, 0.0, 0.0, 0.0, 0.0, 0.0, 0.0, 0.0, 0.0, 0.0, 1.6989589594845915E9, 0.0, 2023-11-02 17:02:39.484
234.0, -187500.02235174447, 187500.0, 31458.873326644105, 36617.63359518452, 187500.0, 187500.0, -187500.02235174447, 31434.88990484356, -0.052000000000000005, 0.978, -0.08600000000000001, 192.0, 254.0, 96.0, 30.0, 144.0, 253.0, 80.0, 0.0, 0.0, 0.0, 1.6989589594846015E9, 0.0, 2023-11-02 17:02:39.484
235.0, -187500.02235174447, 187500.0, 31456.928724876492, 36619.28762427421, 187500.0, 187500.0, -187500.02235174447, 31437.281541500277, -0.052000000000000005, 0.978, -0.08600000000000001, 192.0, 0.0, 0.0, 0.0, 0.0, 0.0, 0.0, 0.0, 0.0, 0.0, 1.6989589594846125E9, 0.0, 2023-11-02 17:02:39.484
236.0, -187500.02235174447, 187500.0, 31450.446718984454, 36612.6938596599, 187500.0, 187500.0, -187500.02235174447, 31434.666387399007, -0.052000000000000005, 0.978, -0.08600000000000001, 192.0, 0.0, 0.0, 0.0, 0.0, 0.0, 0.0, 0.0, 0.0, 0.0, 1.698958959484622E9, 0.0, 2023-11-02 17:02:39.484
237.0, -187500.02235174447, 187500.0, 31445.97637009339, 36613.11854280455, 187500.0, 187500.0, -187500.02235174447, 31433.21352400941, -0.052000000000000005, 0.978, -0.08600000000000001, 192.0, 0.0, 0.0, 0.0, 0.0, 0.0, 0.0, 0.0, 0.0, 0.0, 1.6989589594846315E9, 0.0, 2023-11-02 17:02:39.484
238.0, -187500.02235174447, 187500.0, 31444.657617170527, 36615.06314457216, 187500.0, 187500.0, -187500.02235174447, 31433.369986220598, -0.052000000000000005, 0.978, -0.08600000000000001, 192.0, 0.0, 0.0, 0.0, 0.0, 0.0, 0.0, 0.0, 0.0, 0.0, 1.6989589594846437E9, 0.0, 2023-11-02 17:02:39.484
239.0, -187500.02235174447, 187500.0, 31438.242666511855, 36606.5918334236, 187500.0, 187500.0, -187500.02235174447, 31428.296140229246, -0.052000000000000005, 0.978, -0.08600000000000001, 192.0, 0.0, 0.0, 0.0, 0.0, 0.0, 0.0, 0.0, 0.0, 0.0, 1.6989589594846532E9, 0.0, 2023-11-02 17:02:39.484
240.0, -187500.02235174447, 187500.0, 31440.27667525729, 36601.38387696551, 187500.0, 187500.0, -187500.02235174447, 31430.97834956388, -0.052000000000000005, 0.978, -0.08600000000000001, 192.0, 0.0, 0.0, 0.0, 0.0, 0.0, 0.0, 0.0, 0.0, 0.0, 1.6989589594846628E9, 0.0, 2023-11-02 17:02:39.484
241.0, -187500.02235174447, 187500.0, 31438.265018256312, 36600.065124042645, 187500.0, 187500.0, -187500.02235174447, 31430.397204208042, -0.052000000000000005, 0.978, -0.08600000000000001, 192.0, 0.0, 0.0, 0.0, 0.0, 0.0, 0.0, 0.0, 0.0, 0.0, 1.6989589594846723E9, 0.0, 2023-11-02 17:02:39.484
242.0, -187500.02235174447, 187500.0, 31431.42538445299, 36600.89213858749, 187500.0, 187500.0, -187500.02235174447, 31425.569227405696, -0.052000000000000005, 0.978, -0.08600000000000001, 192.0, 0.0, 0.0, 0.0, 0.0, 0.0, 0.0, 0.0, 0.0, 0.0, 1.698958959484682E9, 0.0, 2023-11-02 17:02:39.484
243.0, -187500.02235174447, 187500.0, 31426.08331752817, 36593.67252512843, 187500.0, 187500.0, -187500.02235174447, 31422.864666326604, -0.052000000000000005, 0.978, -0.08600000000000001, 192.0, 0.0, 0.0, 0.0, 0.0, 0.0, 0.0, 0.0, 0.0, 0.0, 1.698958959484692E9, 0.0, 2023-11-02 17:02:39.484
244.0, -187500.02235174447, 187500.0, 31427.69264312895, 36584.44125466839, 187500.0, 187500.0, -187500.02235174447, 31426.46329718391, -0.042, 0.98, -0.08600000000000001, 192.0, 254.0, 176.0, 30.0, 160.0, 253.0, 80.0, 0.0, 0.0, 0.0, 1.6989589594847016E9, 0.0, 2023-11-02 17:02:39.484
245.0, -187500.02235174447, 187500.0, 31436.678044399985, 36589.04571402618, 187500.0, 187500.0, -187500.02235174447, 31436.78980312226, -0.042, 0.98, -0.08600000000000001, 192.0, 0.0, 0.0, 0.0, 0.0, 0.0, 0.0, 0.0, 0.0, 0.0, 1.698958959484712E9, 0.0, 2023-11-02 17:02:39.484
246.0, -187500.02235174447, 187500.0, 31439.717881645905, 36602.50146418827, 187500.0, 187500.0, -187500.02235174447, 31443.048291569747, -0.042, 0.98, -0.08600000000000001, 192.0, 0.0, 0.0, 0.0, 0.0, 0.0, 0.0, 0.0, 0.0, 0.0, 1.6989589594847217E9, 0.0, 2023-11-02 17:02:39.484
247.0, -187500.02235174447, 187500.0, 31437.259189755823, 36603.26142349976, 187500.0, 187500.0, -187500.02235174447, 31443.785899136772, -0.042, 0.98, -0.08600000000000001, 192.0, 0.0, 0.0, 0.0, 0.0, 0.0, 0.0, 0.0, 0.0, 0.0, 1.6989589594847603E9, 0.0, 2023-11-02 17:02:39.484
248.0, -187500.02235174447, 187500.0, 31429.3690239631, 36592.55493790566, 187500.0, 187500.0, -187500.02235174447, 31438.60029442314, -0.042, 0.98, -0.08600000000000001, 192.0, 0.0, 0.0, 0.0, 0.0, 0.0, 0.0, 0.0, 0.0, 0.0, 1.69895895948477E9, 0.0, 2023-11-02 17:02:39.484
249.0, -187500.02235174447, 187500.0, 31418.863704069103, 36586.96700179184, 187500.0, 187500.0, -187500.02235174447, 31429.637244896563, -0.042, 0.98, -0.08600000000000001, 192.0, 0.0, 0.0, 0.0, 0.0, 0.0, 0.0, 0.0, 0.0, 0.0, 1.69895895948478E9, 0.0, 2023-11-02 17:02:39.484
250.0, -187500.02235174447, 187500.0, 31409.431267908963, 36587.25757446975, 187500.0, 187500.0, -187500.02235174447, 31424.563398905208, -0.042, 0.98, -0.08600000000000001, 192.0, 0.0, 0.0, 0.0, 0.0, 0.0, 0.0, 0.0, 0.0, 0.0, 1.6989589594847896E9, 0.0, 2023-11-02 17:02:39.484
251.0, -187500.02235174447, 187500.0, 31413.588692377652, 36596.220623996334, 187500.0, 187500.0, -187500.02235174447, 31432.69943388694, -0.042, 0.98, -0.08600000000000001, 192.0, 0.0, 0.0, 0.0, 0.0, 0.0, 0.0, 0.0, 0.0, 0.0, 1.6989589594847994E9, 0.0, 2023-11-02 17:02:39.484
252.0, -187500.02235174447, 187500.0, 31417.20967497941, 36600.19923450938, 187500.0, 187500.0, -187500.02235174447, 31436.70039614444, -0.042, 0.98, -0.08600000000000001, 192.0, 0.0, 0.0, 0.0, 0.0, 0.0, 0.0, 0.0, 0.0, 0.0, 1.6989589594848087E9, 0.0, 2023-11-02 17:02:39.484
253.0, -187500.02235174447, 187500.0, 31410.526503387275, 36592.666696627944, 187500.0, 187500.0, -187500.02235174447, 31429.100803029636, -0.042, 0.98, -0.08600000000000001, 192.0, 0.0, 0.0, 0.0, 0.0, 0.0, 0.0, 0.0, 0.0, 0.0, 1.6989589594848185E9, 0.0, 2023-11-02 17:02:39.484
254.0, -187500.02235174447, 187500.0, 31407.576073119173, 36589.00101053727, 187500.0, 187500.0, -187500.02235174447, 31427.357366962122, -0.04, 0.986, -0.08, 192.0, 254.0, 192.0, 30.0, 208.0, 253.0, 128.0, 0.0, 0.0, 0.0, 1.6989589594848332E9, 0.0, 2023-11-02 17:02:39.484
255.0, -187500.02235174447, 187500.0, 31416.02503252328, 36597.71819087484, 187500.0, 187500.0, -187500.02235174447, 31439.382605479077, -0.04, 0.986, -0.08, 192.0, 0.0, 0.0, 0.0, 0.0, 0.0, 0.0, 0.0, 0.0, 0.0, 1.6989589594848437E9, 0.0, 2023-11-02 17:02:39.484
0.0, -187500.02235174447, 187500.0, 31410.54885513173, 36592.018496038734, 187500.0, 187500.0, -187500.02235174447, 31435.001663565836, -0.04, 0.986, -0.08, 192.0, 0.0, 0.0, 0.0, 0.0, 0.0, 0.0, 0.0, 0.0, 0.0, 1.6989589594848535E9, 0.0, 2023-11-02 17:02:39.484
1.0, -187500.02235174447, 187500.0, 31409.341860931145, 36584.75417909076, 187500.0, 187500.0, -187500.02235174447, 31432.61002690912, -0.04, 0.986, -0.08, 192.0, 0.0, 0.0, 0.0, 0.0, 0.0, 0.0, 0.0, 0.0, 0.0, 1.69895895948489E9, 0.0, 2023-11-02 17:02:39.484
2.0, -187500.02235174447, 187500.0, 31407.956052774916, 36590.699743115874, 187500.0, 187500.0, -187500.02235174447, 31431.112460030614, -0.04, 0.986, -0.08, 192.0, 0.0, 0.0, 0.0, 0.0, 0.0, 0.0, 0.0, 0.0, 0.0, 1.6989589594849005E9, 0.0, 2023-11-02 17:02:39.484
3.0, -187500.02235174447, 187500.0, 31407.464314396897, 36590.94561230488, 187500.0, 187500.0, -187500.02235174447, 31431.492439686353, -0.04, 0.986, -0.08, 192.0, 0.0, 0.0, 0.0, 0.0, 0.0, 0.0, 0.0, 0.0, 0.0, 1.698958959484912E9, 0.0, 2023-11-02 17:02:39.484
4.0, -187500.02235174447, 187500.0, 31409.274805697776, 36586.81053958065, 187500.0, 187500.0, -187500.02235174447, 31434.442869954455, -0.04, 0.986, -0.08, 192.0, 0.0, 0.0, 0.0, 0.0, 0.0, 0.0, 0.0, 0.0, 0.0, 1.698958959484938E9, 0.0, 2023-11-02 17:02:39.484
5.0, -187500.02235174447, 187500.0, 31408.917177786494, 36588.464568670344, 187500.0, 187500.0, -187500.02235174447, 31434.912256588013, -0.04, 0.986, -0.08, 192.0, 0.0, 0.0, 0.0, 0.0, 0.0, 0.0, 0.0, 0.0, 0.0, 1.6989589594849472E9, 0.0, 2023-11-02 17:02:39.484
6.0, -187500.02235174447, 187500.0, 31406.50318938532, 36589.5374524042, 187500.0, 187500.0, -187500.02235174447, 31434.576980421185, -0.04, 0.986, -0.08, 192.0, 0.0, 0.0, 0.0, 0.0, 0.0, 0.0, 0.0, 0.0, 0.0, 1.6989589594849665E9, 0.0, 2023-11-02 17:02:39.484
7.0, -187500.02235174447, 187500.0, 31407.754887074818, 36590.833853582604, 187500.0, 187500.0, -187500.02235174447, 31435.962788577413, -0.032, 0.988, -0.08, 192.0, 255.0, 0.0, 30.0, 224.0, 253.0, 128.0, 0.0, 0.0, 0.0, 1.6989589594849763E9, 0.0, 2023-11-02 17:02:39.484
8.0, -187500.02235174447, 187500.0, 31402.748096316827, 36583.636591867995, 187500.0, 187500.0, -187500.02235174447, 31429.234913496366, -0.032, 0.988, -0.08, 192.0, 0.0, 0.0, 0.0, 0.0, 0.0, 0.0, 0.0, 0.0, 0.0, 1.6989589594849863E9, 0.0, 2023-11-02 17:02:39.484
9.0, -187500.02235174447, 187500.0, 31406.436134151954, 36581.28965870019, 187500.0, 187500.0, -187500.02235174447, 31432.319454231198, -0.032, 0.988, -0.08, 192.0, 0.0, 0.0, 0.0, 0.0, 0.0, 0.0, 0.0, 0.0, 0.0, 1.6989589594849958E9, 0.0, 2023-11-02 17:02:39.484
10.0, -187500.02235174447, 187500.0, 31405.184436462456, 36590.72209486033, 187500.0, 187500.0, -187500.02235174447, 31431.64890189754, -0.032, 0.988, -0.08, 192.0, 0.0, 0.0, 0.0, 0.0, 0.0, 0.0, 0.0, 0.0, 0.0, 1.6989589594850054E9, 0.0, 2023-11-02 17:02:39.485
11.0, -187500.02235174447, 187500.0, 31400.244700937834, 36593.82898733961, 187500.0, 187500.0, -187500.02235174447, 31428.519657673798, -0.032, 0.988, -0.08, 192.0, 0.0, 0.0, 0.0, 0.0, 0.0, 0.0, 0.0, 0.0, 0.0, 1.698958959485015E9, 0.0, 2023-11-02 17:02:39.485
12.0, -187500.02235174447, 187500.0, 31399.998831748824, 36597.87465308603, 187500.0, 187500.0, -187500.02235174447, 31429.480782685376, -0.032, 0.988, -0.08, 192.0, 0.0, 0.0, 0.0, 0.0, 0.0, 0.0, 0.0, 0.0, 0.0, 1.6989589594850247E9, 0.0, 2023-11-02 17:02:39.485
13.0, -187500.02235174447, 187500.0, 31402.949262016926, 36594.61129839555, 187500.0, 187500.0, -187500.02235174447, 31433.63820715406, -0.032, 0.988, -0.08, 192.0, 0.0, 0.0, 0.0, 0.0, 0.0, 0.0, 0.0, 0.0, 0.0, 1.6989589594850342E9, 0.0, 2023-11-02 17:02:39.485
14.0, -187500.02235174447, 187500.0, 31411.68879409895, 36601.3391734766, 187500.0, 187500.0, -187500.02235174447, 31444.3223410037, -0.032, 0.988, -0.08, 192.0, 0.0, 0.0, 0.0, 0.0, 0.0, 0.0, 0.0, 0.0, 0.0, 1.6989589594850435E9, 0.0, 2023-11-02 17:02:39.485
15.0, -187500.02235174447, 187500.0, 31407.240796952345, 36599.26046124226, 187500.0, 187500.0, -187500.02235174447, 31439.60612292363, -0.032, 0.988, -0.08, 192.0, 0.0, 0.0, 0.0, 0.0, 0.0, 0.0, 0.0, 0.0, 0.0, 1.6989589594850533E9, 0.0, 2023-11-02 17:02:39.485
16.0, -187500.02235174447, 187500.0, 31401.40699164951, 36586.5870221361, 187500.0, 187500.0, -187500.02235174447, 31432.990006564858, -0.032, 0.988, -0.08, 192.0, 0.0, 0.0, 0.0, 0.0, 0.0, 0.0, 0.0, 0.0, 0.0, 1.6989589594850628E9, 0.0, 2023-11-02 17:02:39.485
17.0, -187500.02235174447, 187500.0, 31404.26801493979, 36577.93689703189, 187500.0, 187500.0, -187500.02235174447, 31436.141602533058, -0.032, 0.986, -0.076, 192.0, 255.0, 0.0, 30.0, 208.0, 253.0, 160.0, 0.0, 0.0, 0.0, 1.6989589594850724E9, 0.0, 2023-11-02 17:02:39.485
18.0, -187500.02235174447, 187500.0, 31400.803494549218, 36575.634667353, 187500.0, 187500.0, -187500.02235174447, 31432.185343764468, -0.032, 0.986, -0.076, 192.0, 0.0, 0.0, 0.0, 0.0, 0.0, 0.0, 0.0, 0.0, 0.0, 1.6989589594850826E9, 0.0, 2023-11-02 17:02:39.485
19.0, -187500.02235174447, 187500.0, 31398.031878236758, 36576.439330153386, 187500.0, 187500.0, -187500.02235174447, 31428.631416396074, -0.032, 0.986, -0.076, 192.0, 0.0, 0.0, 0.0, 0.0, 0.0, 0.0, 0.0, 0.0, 0.0, 1.6989589594850922E9, 0.0, 2023-11-02 17:02:39.485
20.0, -187500.02235174447, 187500.0, 31402.770448061285, 36578.5850976211, 187500.0, 187500.0, -187500.02235174447, 31431.78301236427, -0.032, 0.986, -0.076, 192.0, 0.0, 0.0, 0.0, 0.0, 0.0, 0.0, 0.0, 0.0, 0.0, 1.6989589594851017E9, 0.0, 2023-11-02 17:02:39.485
21.0, -187500.02235174447, 187500.0, 31403.910387028503, 36568.750330060764, 187500.0, 187500.0, -187500.02235174447, 31432.297102486744, -0.032, 0.986, -0.076, 192.0, 0.0, 0.0, 0.0, 0.0, 0.0, 0.0, 0.0, 0.0, 0.0, 1.6989589594851336E9, 0.0, 2023-11-02 17:02:39.485
22.0, -187500.02235174447, 187500.0, 31400.714087571396, 36562.89417301347, 187500.0, 187500.0, -187500.02235174447, 31430.531314674776, -0.032, 0.986, -0.076, 192.0, 0.0, 0.0, 0.0, 0.0, 0.0, 0.0, 0.0, 0.0, 0.0, 1.6989589594851434E9, 0.0, 2023-11-02 17:02:39.485
23.0, -187500.02235174447, 187500.0, 31400.848198038126, 36560.32372240111, 187500.0, 187500.0, -187500.02235174447, 31429.860762341115, -0.032, 0.986, -0.076, 192.0, 0.0, 0.0, 0.0, 0.0, 0.0, 0.0, 0.0, 0.0, 0.0, 1.698958959485153E9, 0.0, 2023-11-02 17:02:39.485
24.0, -187500.02235174447, 187500.0, 31404.044497495237, 36554.378158376, 187500.0, 187500.0, -187500.02235174447, 31432.140640275557, -0.032, 0.986, -0.076, 192.0, 0.0, 0.0, 0.0, 0.0, 0.0, 0.0, 0.0, 0.0, 0.0, 1.698958959485164E9, 0.0, 2023-11-02 17:02:39.485
25.0, -187500.02235174447, 187500.0, 31401.921081771983, 36542.822306492606, 187500.0, 187500.0, -187500.02235174447, 31428.98904430736, -0.032, 0.986, -0.076, 192.0, 0.0, 0.0, 0.0, 0.0, 0.0, 0.0, 0.0, 0.0, 0.0, 1.6989589594851737E9, 0.0, 2023-11-02 17:02:39.485
26.0, -187500.02235174447, 187500.0, 31399.820017793183, 36528.71835574131, 187500.0, 187500.0, -187500.02235174447, 31425.748041361338, -0.032, 0.986, -0.076, 192.0, 0.0, 0.0, 0.0, 0.0, 0.0, 0.0, 0.0, 0.0, 0.0, 1.6989589594851832E9, 0.0, 2023-11-02 17:02:39.485
27.0, -187500.02235174447, 187500.0, 31403.061020739202, 36531.199399375844, 187500.0, 187500.0, -187500.02235174447, 31429.525486174287, -0.032, 0.984, -0.076, 192.0, 255.0, 0.0, 30.0, 192.0, 253.0, 160.0, 0.0, 0.0, 0.0, 1.6989589594851935E9, 0.0, 2023-11-02 17:02:39.485
28.0, -187500.02235174447, 187500.0, 31401.764619560796, 36538.59782679055, 187500.0, 187500.0, -187500.02235174447, 31427.826753595684, -0.032, 0.984, -0.076, 192.0, 0.0, 0.0, 0.0, 0.0, 0.0, 0.0, 0.0, 0.0, 0.0, 1.6989589594852035E9, 0.0, 2023-11-02 17:02:39.485
29.0, -187500.02235174447, 187500.0, 31403.955090517415, 36526.61729176251, 187500.0, 187500.0, -187500.02235174447, 31428.45260244043, -0.032, 0.984, -0.076, 192.0, 0.0, 0.0, 0.0, 0.0, 0.0, 0.0, 0.0, 0.0, 0.0, 1.6989589594852133E9, 0.0, 2023-11-02 17:02:39.485
30.0, -187500.02235174447, 187500.0, 31403.709221328405, 36519.531788770175, 187500.0, 187500.0, -187500.02235174447, 31426.329186717176, -0.032, 0.984, -0.076, 192.0, 0.0, 0.0, 0.0, 0.0, 0.0, 0.0, 0.0, 0.0, 0.0, 1.6989589594852228E9, 0.0, 2023-11-02 17:02:39.485
31.0, -187500.02235174447, 187500.0, 31398.36715440359, 36515.955509657324, 187500.0, 187500.0, -187500.02235174447, 31420.808305836716, -0.032, 0.984, -0.076, 192.0, 0.0, 0.0, 0.0, 0.0, 0.0, 0.0, 0.0, 0.0, 0.0, 1.6989589594852324E9, 0.0, 2023-11-02 17:02:39.485
32.0, -187500.02235174447, 187500.0, 31397.182511947456, 36512.02160263319, 187500.0, 187500.0, -187500.02235174447, 31416.561474390208, -0.032, 0.984, -0.076, 192.0, 0.0, 0.0, 0.0, 0.0, 0.0, 0.0, 0.0, 0.0, 0.0, 1.698958959485242E9, 0.0, 2023-11-02 17:02:39.485
33.0, -187500.02235174447, 187500.0, 31397.11545671409, 36514.502646267734, 187500.0, 187500.0, -187500.02235174447, 31412.672270854986, -0.032, 0.984, -0.076, 192.0, 0.0, 0.0, 0.0, 0.0, 0.0, 0.0, 0.0, 0.0, 0.0, 1.6989589594852517E9, 0.0, 2023-11-02 17:02:39.485
34.0, -187500.02235174447, 187500.0, 31395.64024158004, 36508.15475084243, 187500.0, 187500.0, -187500.02235174447, 31407.35255567462, -0.032, 0.984, -0.076, 192.0, 0.0, 0.0, 0.0, 0.0, 0.0, 0.0, 0.0, 0.0, 0.0, 1.698958959485262E9, 0.0, 2023-11-02 17:02:39.485
35.0, -187500.02235174447, 187500.0, 31398.903596270517, 36505.53959674115, 187500.0, 187500.0, -187500.02235174447, 31405.340898673643, -0.032, 0.984, -0.076, 192.0, 0.0, 0.0, 0.0, 0.0, 0.0, 0.0, 0.0, 0.0, 0.0, 1.6989589594852715E9, 0.0, 2023-11-02 17:02:39.485
36.0, -187500.02235174447, 187500.0, 31394.992040990837, 36500.801026916626, 187500.0, 187500.0, -187500.02235174447, 31397.808360792205, -0.032, 0.984, -0.076, 192.0, 0.0, 0.0, 0.0, 0.0, 0.0, 0.0, 0.0, 0.0, 0.0, 1.698958959485289E9, 0.0, 2023-11-02 17:02:39.485
37.0, -187500.02235174447, 187500.0, 31390.722857799872, 36493.737875668754, 187500.0, 187500.0, -187500.02235174447, 31388.085351954145, -0.042, 0.976, -0.07, 192.0, 254.0, 176.0, 30.0, 128.0, 253.0, 208.0, 0.0, 0.0, 0.0, 1.698958959485299E9, 0.0, 2023-11-02 17:02:39.485
38.0, -187500.02235174447, 187500.0, 31387.370096131577, 36483.23255577476, 187500.0, 187500.0, -187500.02235174447, 31381.40218036201, -0.042, 0.976, -0.07, 192.0, 0.0, 0.0, 0.0, 0.0, 0.0, 0.0, 0.0, 0.0, 0.0, 1.6989589594853091E9, 0.0, 2023-11-02 17:02:39.485
39.0, -187500.02235174447, 187500.0, 31384.55377633021, 36483.2102040303, 187500.0, 187500.0, -187500.02235174447, 31375.389561103533, -0.042, 0.976, -0.07, 192.0, 0.0, 0.0, 0.0, 0.0, 0.0, 0.0, 0.0, 0.0, 0.0, 1.698958959485319E9, 0.0, 2023-11-02 17:02:39.485
40.0, -187500.02235174447, 187500.0, 31384.084389696647, 36483.63488717495, 187500.0, 187500.0, -187500.02235174447, 31371.478005823854, -0.042, 0.976, -0.07, 192.0, 0.0, 0.0, 0.0, 0.0, 0.0, 0.0, 0.0, 0.0, 0.0, 1.6989589594853284E9, 0.0, 2023-11-02 17:02:39.485
41.0, -187500.02235174447, 187500.0, 31393.98621249035, 36486.69707616533, 187500.0, 187500.0, -187500.02235174447, 31377.49062508233, -0.042, 0.976, -0.07, 192.0, 0.0, 0.0, 0.0, 0.0, 0.0, 0.0, 0.0, 0.0, 0.0, 1.698958959485338E9, 0.0, 2023-11-02 17:02:39.485
42.0, -187500.02235174447, 187500.0, 31394.03091597926, 36482.964334841294, 187500.0, 187500.0, -187500.02235174447, 31374.11551166958, -0.042, 0.976, -0.07, 192.0, 0.0, 0.0, 0.0, 0.0, 0.0, 0.0, 0.0, 0.0, 0.0, 1.6989589594853475E9, 0.0, 2023-11-02 17:02:39.485
43.0, -187500.02235174447, 187500.0, 31394.321488657177, 36472.12373878047, 187500.0, 187500.0, -187500.02235174447, 31369.91338371198, -0.042, 0.976, -0.07, 192.0, 0.0, 0.0, 0.0, 0.0, 0.0, 0.0, 0.0, 0.0, 0.0, 1.6989589594853573E9, 0.0, 2023-11-02 17:02:39.485
44.0, -187500.02235174447, 187500.0, 31395.68494506895, 36474.00128531471, 187500.0, 187500.0, -187500.02235174447, 31369.53340405624, -0.042, 0.976, -0.07, 192.0, 0.0, 0.0, 0.0, 0.0, 0.0, 0.0, 0.0, 0.0, 0.0, 1.6989589594853668E9, 0.0, 2023-11-02 17:02:39.485
45.0, -187500.02235174447, 187500.0, 31395.237910179843, 36472.011980058196, 187500.0, 187500.0, -187500.02235174447, 31367.365284844076, -0.042, 0.976, -0.07, 192.0, 0.0, 0.0, 0.0, 0.0, 0.0, 0.0, 0.0, 0.0, 0.0, 1.6989589594853764E9, 0.0, 2023-11-02 17:02:39.485
46.0, -187500.02235174447, 187500.0, 31395.84140728014, 36469.79915735712, 187500.0, 187500.0, -187500.02235174447, 31364.16898538697, -0.042, 0.976, -0.07, 192.0, 0.0, 0.0, 0.0, 0.0, 0.0, 0.0, 0.0, 0.0, 0.0, 1.698958959485387E9, 0.0, 2023-11-02 17:02:39.485
47.0, -187500.02235174447, 187500.0, 31401.094067227135, 36467.11694802248, 187500.0, 187500.0, -187500.02235174447, 31366.717084254873, -0.052000000000000005, 0.978, -0.068, 192.0, 254.0, 96.0, 30.0, 144.0, 253.0, 224.0, 0.0, 0.0, 0.0, 1.698958959485397E9, 0.0, 2023-11-02 17:02:39.485
48.0, -187500.02235174447, 187500.0, 31404.3127184287, 36474.090692292535, 187500.0, 187500.0, -187500.02235174447, 31368.54992730021, -0.052000000000000005, 0.978, -0.068, 192.0, 0.0, 0.0, 0.0, 0.0, 0.0, 0.0, 0.0, 0.0, 0.0, 1.698958959485408E9, 0.0, 2023-11-02 17:02:39.485
49.0, -187500.02235174447, 187500.0, 31406.100857985126, 36482.204375529815, 187500.0, 187500.0, -187500.02235174447, 31368.214651133378, -0.052000000000000005, 0.978, -0.068, 192.0, 0.0, 0.0, 0.0, 0.0, 0.0, 0.0, 0.0, 0.0, 0.0, 1.6989589594854176E9, 0.0, 2023-11-02 17:02:39.485
50.0, -187500.02235174447, 187500.0, 31405.296195184732, 36479.343352239535, 187500.0, 187500.0, -187500.02235174447, 31366.15829064349, -0.052000000000000005, 0.978, -0.068, 192.0, 0.0, 0.0, 0.0, 0.0, 0.0, 0.0, 0.0, 0.0, 0.0, 1.6989589594854271E9, 0.0, 2023-11-02 17:02:39.485
51.0, -187500.02235174447, 187500.0, 31402.613985850097, 36477.06347430509, 187500.0, 187500.0, -187500.02235174447, 31362.023217919257, -0.052000000000000005, 0.978, -0.068, 192.0, 0.0, 0.0, 0.0, 0.0, 0.0, 0.0, 0.0, 0.0, 0.0, 1.6989589594854448E9, 0.0, 2023-11-02 17:02:39.485
52.0, -187500.02235174447, 187500.0, 31402.993965505837, 36477.242288260735, 187500.0, 187500.0, -187500.02235174447, 31361.30796209669, -0.052000000000000005, 0.978, -0.068, 192.0, 0.0, 0.0, 0.0, 0.0, 0.0, 0.0, 0.0, 0.0, 0.0, 1.6989589594854548E9, 0.0, 2023-11-02 17:02:39.485
53.0, -187500.02235174447, 187500.0, 31405.11738122909, 36479.477462706265, 187500.0, 187500.0, -187500.02235174447, 31363.364322586578, -0.052000000000000005, 0.978, -0.068, 192.0, 0.0, 0.0, 0.0, 0.0, 0.0, 0.0, 0.0, 0.0, 0.0, 1.6989589594854667E9, 0.0, 2023-11-02 17:02:39.485
54.0, -187500.02235174447, 187500.0, 31406.25732019631, 36473.37543646996, 187500.0, 187500.0, -187500.02235174447, 31364.01252317578, -0.052000000000000005, 0.978, -0.068, 192.0, 0.0, 0.0, 0.0, 0.0, 0.0, 0.0, 0.0, 0.0, 0.0, 1.6989589594854765E9, 0.0, 2023-11-02 17:02:39.485
55.0, -187500.02235174447, 187500.0, 31405.720878329383, 36475.36474172649, 187500.0, 187500.0, -187500.02235174447, 31363.58784003113, -0.052000000000000005, 0.978, -0.068, 192.0, 0.0, 0.0, 0.0, 0.0, 0.0, 0.0, 0.0, 0.0, 0.0, 1.698958959485486E9, 0.0, 2023-11-02 17:02:39.485
56.0, -187500.02235174447, 187500.0, 31408.3136806862, 36482.60670693001, 187500.0, 187500.0, -187500.02235174447, 31365.26422086528, -0.052000000000000005, 0.978, -0.068, 192.0, 0.0, 0.0, 0.0, 0.0, 0.0, 0.0, 0.0, 0.0, 0.0, 1.698958959485496E9, 0.0, 2023-11-02 17:02:39.485
57.0, -187500.02235174447, 187500.0, 31400.825846293672, 36485.26656452019, 187500.0, 187500.0, -187500.02235174447, 31356.904668438994, -0.062, 0.98, -0.07200000000000001, 192.0, 254.0, 16.0, 30.0, 160.0, 253.0, 192.0, 0.0, 0.0, 0.0, 1.698958959485506E9, 0.0, 2023-11-02 17:02:39.485
58.0, -187500.02235174447, 187500.0, 31395.237910179843, 36474.11304403699, 187500.0, 187500.0, -187500.02235174447, 31352.05433989219, -0.062, 0.98, -0.07200000000000001, 192.0, 0.0, 0.0, 0.0, 0.0, 0.0, 0.0, 0.0, 0.0, 0.0, 1.6989589594855168E9, 0.0, 2023-11-02 17:02:39.485
59.0, -187500.02235174447, 187500.0, 31397.003697991815, 36473.040160303135, 187500.0, 187500.0, -187500.02235174447, 31352.88135443704, -0.062, 0.98, -0.07200000000000001, 192.0, 0.0, 0.0, 0.0, 0.0, 0.0, 0.0, 0.0, 0.0, 0.0, 1.698958959485527E9, 0.0, 2023-11-02 17:02:39.485
60.0, -187500.02235174447, 187500.0, 31402.144599216535, 36480.12566329547, 187500.0, 187500.0, -187500.02235174447, 31357.01642716127, -0.062, 0.98, -0.07200000000000001, 192.0, 0.0, 0.0, 0.0, 0.0, 0.0, 0.0, 0.0, 0.0, 0.0, 1.6989589594855373E9, 0.0, 2023-11-02 17:02:39.485
61.0, -187500.02235174447, 187500.0, 31400.043535237735, 36487.34527675453, 187500.0, 187500.0, -187500.02235174447, 31353.44014804842, -0.062, 0.98, -0.07200000000000001, 192.0, 0.0, 0.0, 0.0, 0.0, 0.0, 0.0, 0.0, 0.0, 0.0, 1.6989589594855473E9, 0.0, 2023-11-02 17:02:39.485
62.0, -187500.02235174447, 187500.0, 31400.64703233803, 36480.2597737622, 187500.0, 187500.0, -187500.02235174447, 31351.652008491998, -0.062, 0.98, -0.07200000000000001, 192.0, 0.0, 0.0, 0.0, 0.0, 0.0, 0.0, 0.0, 0.0, 0.0, 1.6989589594855585E9, 0.0, 2023-11-02 17:02:39.485
63.0, -187500.02235174447, 187500.0, 31400.53527361575, 36470.13443352395, 187500.0, 187500.0, -187500.02235174447, 31348.34395031261, -0.062, 0.98, -0.07200000000000001, 192.0, 0.0, 0.0, 0.0, 0.0, 0.0, 0.0, 0.0, 0.0, 0.0, 1.6989589594855683E9, 0.0, 2023-11-02 17:02:39.485
64.0, -187500.02235174447, 187500.0, 31405.385602162554, 36472.4590149473, 187500.0, 187500.0, -187500.02235174447, 31350.1991451024, -0.062, 0.98, -0.07200000000000001, 192.0, 0.0, 0.0, 0.0, 0.0, 0.0, 0.0, 0.0, 0.0, 0.0, 1.6989589594855788E9, 0.0, 2023-11-02 17:02:39.485
65.0, -187500.02235174447, 187500.0, 31409.095991742135, 36479.23159351726, 187500.0, 187500.0, -187500.02235174447, 31351.473194536353, -0.062, 0.98, -0.07200000000000001, 192.0, 0.0, 0.0, 0.0, 0.0, 0.0, 0.0, 0.0, 0.0, 0.0, 1.6989589594855893E9, 0.0, 2023-11-02 17:02:39.485
66.0, -187500.02235174447, 187500.0, 31411.21940746539, 36476.99641907173, 187500.0, 187500.0, -187500.02235174447, 31351.361435814077, -0.062, 0.98, -0.07200000000000001, 192.0, 0.0, 0.0, 0.0, 0.0, 0.0, 0.0, 0.0, 0.0, 0.0, 1.6989589594855995E9, 0.0, 2023-11-02 17:02:39.485
67.0, -187500.02235174447, 187500.0, 31413.70045109993, 36472.32490448057, 187500.0, 187500.0, -187500.02235174447, 31351.562601514175, -0.064, 0.976, -0.07, 192.0, 254.0, 0.0, 30.0, 128.0, 253.0, 208.0, 0.0, 0.0, 0.0, 1.6989589594856353E9, 0.0, 2023-11-02 17:02:39.485
68.0, -187500.02235174447, 187500.0, 31415.30977670071, 36474.60478241501, 187500.0, 187500.0, -187500.02235174447, 31352.92605792595, -0.064, 0.976, -0.07, 192.0, 0.0, 0.0, 0.0, 0.0, 0.0, 0.0, 0.0, 0.0, 0.0, 1.6989589594856465E9, 0.0, 2023-11-02 17:02:39.485
69.0, -187500.02235174447, 187500.0, 31418.662538369008, 36480.90797435141, 187500.0, 187500.0, -187500.02235174447, 31355.183584115934, -0.064, 0.976, -0.07, 192.0, 0.0, 0.0, 0.0, 0.0, 0.0, 0.0, 0.0, 0.0, 0.0, 1.698958959485658E9, 0.0, 2023-11-02 17:02:39.485
70.0, -187500.02235174447, 187500.0, 31419.042518024748, 36482.02556157417, 187500.0, 187500.0, -187500.02235174447, 31356.435281805432, -0.064, 0.976, -0.07, 192.0, 0.0, 0.0, 0.0, 0.0, 0.0, 0.0, 0.0, 0.0, 0.0, 1.6989589594856687E9, 0.0, 2023-11-02 17:02:39.485
71.0, -187500.02235174447, 187500.0, 31419.22133198039, 36481.019733073685, 187500.0, 187500.0, -187500.02235174447, 31358.469290550864, -0.064, 0.976, -0.07, 192.0, 0.0, 0.0, 0.0, 0.0, 0.0, 0.0, 0.0, 0.0, 0.0, 1.69895895948568E9, 0.0, 2023-11-02 17:02:39.485
72.0, -187500.02235174447, 187500.0, 31421.434154681465, 36479.36570398399, 187500.0, 187500.0, -187500.02235174447, 31361.263258607778, -0.064, 0.976, -0.07, 192.0, 0.0, 0.0, 0.0, 0.0, 0.0, 0.0, 0.0, 0.0, 0.0, 1.6989589594856913E9, 0.0, 2023-11-02 17:02:39.485
73.0, -187500.02235174447, 187500.0, 31425.546875661243, 36483.12079705248, 187500.0, 187500.0, -187500.02235174447, 31363.431377819943, -0.064, 0.976, -0.07, 192.0, 0.0, 0.0, 0.0, 0.0, 0.0, 0.0, 0.0, 0.0, 0.0, 1.6989589594857035E9, 0.0, 2023-11-02 17:02:39.485
74.0, -187500.02235174447, 187500.0, 31430.240741996855, 36485.110102309, 187500.0, 187500.0, -187500.02235174447, 31364.280744109245, -0.064, 0.976, -0.07, 192.0, 0.0, 0.0, 0.0, 0.0, 0.0, 0.0, 0.0, 0.0, 0.0, 1.6989589594857135E9, 0.0, 2023-11-02 17:02:39.485
75.0, -187500.02235174447, 187500.0, 31426.955035561925, 36475.767073126684, 187500.0, 187500.0, -187500.02235174447, 31358.670456250962, -0.064, 0.976, -0.07, 192.0, 0.0, 0.0, 0.0, 0.0, 0.0, 0.0, 0.0, 0.0, 0.0, 1.6989589594857252E9, 0.0, 2023-11-02 17:02:39.485
76.0, -187500.02235174447, 187500.0, 31430.30779723022, 36474.13539578145, 187500.0, 187500.0, -187500.02235174447, 31361.754996985794, -0.064, 0.976, -0.07, 192.0, 0.0, 0.0, 0.0, 0.0, 0.0, 0.0, 0.0, 0.0, 0.0, 1.6989589594857364E9, 0.0, 2023-11-02 17:02:39.485
77.0, -187500.02235174447, 187500.0, 31432.319454231198, 36479.65627666191, 187500.0, 187500.0, -187500.02235174447, 31364.057226664692, -0.06, 0.976, -0.074, 192.0, 254.0, 32.0, 30.0, 128.0, 253.0, 176.0, 0.0, 0.0, 0.0, 1.6989589594857492E9, 0.0, 2023-11-02 17:02:39.485
78.0, -187500.02235174447, 187500.0, 31427.960864062414, 36481.1091400515, 187500.0, 187500.0, -187500.02235174447, 31360.63740976303, -0.06, 0.976, -0.074, 192.0, 0.0, 0.0, 0.0, 0.0, 0.0, 0.0, 0.0, 0.0, 0.0, 1.6989589594857612E9, 0.0, 2023-11-02 17:02:39.485
79.0, -187500.02235174447, 187500.0, 31430.35250071913, 36475.87883184896, 187500.0, 187500.0, -187500.02235174447, 31362.894935953016, -0.06, 0.976, -0.074, 192.0, 0.0, 0.0, 0.0, 0.0, 0.0, 0.0, 0.0, 0.0, 0.0, 1.6989589594857724E9, 0.0, 2023-11-02 17:02:39.485
80.0, -187500.02235174447, 187500.0, 31435.60516066613, 36477.95754408331, 187500.0, 187500.0, -187500.02235174447, 31367.655857521997, -0.06, 0.976, -0.074, 192.0, 0.0, 0.0, 0.0, 0.0, 0.0, 0.0, 0.0, 0.0, 0.0, 1.698958959485787E9, 0.0, 2023-11-02 17:02:39.485
81.0, -187500.02235174447, 187500.0, 31434.867553099106, 36485.9594685983, 187500.0, 187500.0, -187500.02235174447, 31367.07471216616, -0.06, 0.976, -0.074, 192.0, 0.0, 0.0, 0.0, 0.0, 0.0, 0.0, 0.0, 0.0, 0.0, 1.6989589594858005E9, 0.0, 2023-11-02 17:02:39.485
82.0, -187500.02235174447, 187500.0, 31436.07454729969, 36488.30640176611, 187500.0, 187500.0, -187500.02235174447, 31369.39929358951, -0.06, 0.976, -0.074, 192.0, 0.0, 0.0, 0.0, 0.0, 0.0, 0.0, 0.0, 0.0, 0.0, 1.698958959486044E9, 0.0, 2023-11-02 17:02:39.486
0.0, 0.0, 0.0, 0.0, 0.0, 0.0, 0.0, 0.0, 0.0, -0.06, 0.976, -0.074, 192.0, 0.0, 0.0, 0.0, 0.0, 0.0, 0.0, 0.0, 0.0, 0.0, 1.6989589595604253E9, 0.0, 2023-11-02 17:02:39.560
1.0, -187500.02235174447, 187500.0, 31290.072952517625, 36325.56335038702, 187500.0, 187500.0, -187500.02235174447, 31307.2390922593, -0.04, 0.984, -0.078, 192.0, 254.0, 192.0, 30.0, 192.0, 253.0, 144.0, 0.0, 0.0, 0.0, 1.6989589600471115E9, 0.0, 2023-11-02 17:02:40.047
2.0, -187500.02235174447, 187500.0, 31291.347001951577, 36317.628481105385, 187500.0, 187500.0, -187500.02235174447, 31309.943653338392, -0.04, 0.984, -0.078, 192.0, 0.0, 0.0, 0.0, 0.0, 0.0, 0.0, 0.0, 0.0, 0.0, 1.6989589600472193E9, 0.0, 2023-11-02 17:02:40.047
3.0, -187500.02235174447, 187500.0, 31291.19053974039, 36318.16492297231, 187500.0, 187500.0, -187500.02235174447, 31311.664737661453, -0.04, 0.984, -0.078, 192.0, 0.0, 0.0, 0.0, 0.0, 0.0, 0.0, 0.0, 0.0, 0.0, 1.698958960047237E9, 0.0, 2023-11-02 17:02:40.047
4.0, -187500.02235174447, 187500.0, 31287.927185049917, 36321.45062940724, 187500.0, 187500.0, -187500.02235174447, 31309.72013589384, -0.04, 0.984, -0.078, 192.0, 0.0, 0.0, 0.0, 0.0, 0.0, 0.0, 0.0, 0.0, 0.0, 1.6989589600472555E9, 0.0, 2023-11-02 17:02:40.047
5.0, -187500.02235174447, 187500.0, 31277.399513411467, 36321.04829800705, 187500.0, 187500.0, -187500.02235174447, 31301.785266612205, -0.04, 0.984, -0.078, 192.0, 0.0, 0.0, 0.0, 0.0, 0.0, 0.0, 0.0, 0.0, 0.0, 1.698958960047297E9, 0.0, 2023-11-02 17:02:40.047
6.0, -187500.02235174447, 187500.0, 31278.137120978492, 36308.93365251227, 187500.0, 187500.0, -187500.02235174447, 31302.29935673468, -0.04, 0.984, -0.078, 192.0, 0.0, 0.0, 0.0, 0.0, 0.0, 0.0, 0.0, 0.0, 0.0, 1.69895896004731E9, 0.0, 2023-11-02 17:02:40.047
7.0, -187500.02235174447, 187500.0, 31284.082685003603, 36312.97931825868, 187500.0, 187500.0, -187500.02235174447, 31306.85911260356, -0.04, 0.984, -0.078, 192.0, 0.0, 0.0, 0.0, 0.0, 0.0, 0.0, 0.0, 0.0, 0.0, 1.6989589600473223E9, 0.0, 2023-11-02 17:02:40.047
8.0, -187500.02235174447, 187500.0, 31292.598699641076, 36320.154228228836, 187500.0, 187500.0, -187500.02235174447, 31314.145781295992, -0.032, 0.98, -0.078, 192.0, 255.0, 0.0, 30.0, 160.0, 253.0, 144.0, 0.0, 0.0, 0.0, 1.6989589600473378E9, 0.0, 2023-11-02 17:02:40.047
9.0, -187500.02235174447, 187500.0, 31288.70949610585, 36319.66248985082, 187500.0, 187500.0, -187500.02235174447, 31310.211874271856, -0.032, 0.98, -0.078, 192.0, 0.0, 0.0, 0.0, 0.0, 0.0, 0.0, 0.0, 0.0, 0.0, 1.6989589600473523E9, 0.0, 2023-11-02 17:02:40.047
10.0, -187500.02235174447, 187500.0, 31288.2848129612, 36315.28154793758, 187500.0, 187500.0, -187500.02235174447, 31309.451914960377, -0.032, 0.98, -0.078, 192.0, 0.0, 0.0, 0.0, 0.0, 0.0, 0.0, 0.0, 0.0, 0.0, 1.6989589600473652E9, 0.0, 2023-11-02 17:02:40.047
11.0, -187500.02235174447, 187500.0, 31288.485978661298, 36310.27475717959, 187500.0, 187500.0, -187500.02235174447, 31310.81537137215, -0.032, 0.98, -0.078, 192.0, 0.0, 0.0, 0.0, 0.0, 0.0, 0.0, 0.0, 0.0, 0.0, 1.6989589600473752E9, 0.0, 2023-11-02 17:02:40.047
12.0, -187500.02235174447, 187500.0, 31277.511272133743, 36313.2698909366, 187500.0, 187500.0, -187500.02235174447, 31299.01365029975, -0.032, 0.98, -0.078, 192.0, 0.0, 0.0, 0.0, 0.0, 0.0, 0.0, 0.0, 0.0, 0.0, 1.698958960047388E9, 0.0, 2023-11-02 17:02:40.047
13.0, -187500.02235174447, 187500.0, 31275.343152921578, 36307.12316121139, 187500.0, 187500.0, -187500.02235174447, 31298.030173543713, -0.032, 0.98, -0.078, 192.0, 0.0, 0.0, 0.0, 0.0, 0.0, 0.0, 0.0, 0.0, 0.0, 1.6989589600474005E9, 0.0, 2023-11-02 17:02:40.047
14.0, -187500.02235174447, 187500.0, 31281.556937880152, 36309.98418450167, 187500.0, 187500.0, -187500.02235174447, 31303.685164890907, -0.032, 0.98, -0.078, 192.0, 0.0, 0.0, 0.0, 0.0, 0.0, 0.0, 0.0, 0.0, 0.0, 1.6989589600478985E9, 0.0, 2023-11-02 17:02:40.047
15.0, -187500.02235174447, 187500.0, 31286.47432166032, 36311.63821359137, 187500.0, 187500.0, -187500.02235174447, 31308.177865526424, -0.032, 0.98, -0.078, 192.0, 0.0, 0.0, 0.0, 0.0, 0.0, 0.0, 0.0, 0.0, 0.0, 1.6989589600479193E9, 0.0, 2023-11-02 17:02:40.047
16.0, -187500.02235174447, 187500.0, 31285.803769326663, 36314.23101594818, 187500.0, 187500.0, -187500.02235174447, 31307.395554470488, -0.032, 0.98, -0.078, 192.0, 0.0, 0.0, 0.0, 0.0, 0.0, 0.0, 0.0, 0.0, 0.0, 1.6989589600479517E9, 0.0, 2023-11-02 17:02:40.047
17.0, -187500.02235174447, 187500.0, 31288.351868194568, 36318.701364839246, 187500.0, 187500.0, -187500.02235174447, 31308.222569015335, -0.032, 0.98, -0.078, 192.0, 0.0, 0.0, 0.0, 0.0, 0.0, 0.0, 0.0, 0.0, 0.0, 1.6989589600479634E9, 0.0, 2023-11-02 17:02:40.047
18.0, -187500.02235174447, 187500.0, 31295.90675782046, 36320.60126311794, 187500.0, 187500.0, -187500.02235174447, 31314.25754001827, -0.036000000000000004, 0.982, -0.082, 192.0, 254.0, 224.0, 30.0, 176.0, 253.0, 112.0, 0.0, 0.0, 0.0, 1.6989589600479782E9, 0.0, 2023-11-02 17:02:40.047
19.0, -187500.02235174447, 187500.0, 31297.069048532136, 36321.405925918334, 187500.0, 187500.0, -187500.02235174447, 31316.0903830636, -0.036000000000000004, 0.982, -0.082, 192.0, 0.0, 0.0, 0.0, 0.0, 0.0, 0.0, 0.0, 0.0, 0.0, 1.698958960047995E9, 0.0, 2023-11-02 17:02:40.047
20.0, -187500.02235174447, 187500.0, 31289.536510650698, 36319.886007295376, 187500.0, 187500.0, -187500.02235174447, 31309.004880071272, -0.036000000000000004, 0.982, -0.082, 192.0, 0.0, 0.0, 0.0, 0.0, 0.0, 0.0, 0.0, 0.0, 0.0, 1.6989589600480092E9, 0.0, 2023-11-02 17:02:40.048
21.0, -187500.02235174447, 187500.0, 31288.262461216746, 36321.42827766279, 187500.0, 187500.0, -187500.02235174447, 31306.702650392373, -0.036000000000000004, 0.982, -0.082, 192.0, 0.0, 0.0, 0.0, 0.0, 0.0, 0.0, 0.0, 0.0, 0.0, 1.698958960048044E9, 0.0, 2023-11-02 17:02:40.048
22.0, -187500.02235174447, 187500.0, 31292.397533940977, 36321.271815451604, 187500.0, 187500.0, -187500.02235174447, 31309.11663879355, -0.036000000000000004, 0.982, -0.082, 192.0, 0.0, 0.0, 0.0, 0.0, 0.0, 0.0, 0.0, 0.0, 0.0, 1.6989589600480592E9, 0.0, 2023-11-02 17:02:40.048
23.0, -187500.02235174447, 187500.0, 31297.873711332526, 36313.42635314779, 187500.0, 187500.0, -187500.02235174447, 31311.597682428084, -0.036000000000000004, 0.982, -0.082, 192.0, 0.0, 0.0, 0.0, 0.0, 0.0, 0.0, 0.0, 0.0, 0.0, 1.6989589600480704E9, 0.0, 2023-11-02 17:02:40.048
24.0, -187500.02235174447, 187500.0, 31299.885368333504, 36314.85686479293, 187500.0, 187500.0, -187500.02235174447, 31312.022365572735, -0.036000000000000004, 0.982, -0.082, 192.0, 0.0, 0.0, 0.0, 0.0, 0.0, 0.0, 0.0, 0.0, 0.0, 1.6989589600480824E9, 0.0, 2023-11-02 17:02:40.048
25.0, -187500.02235174447, 187500.0, 31302.031135801215, 36321.405925918334, 187500.0, 187500.0, -187500.02235174447, 31314.01167082926, -0.036000000000000004, 0.982, -0.082, 192.0, 0.0, 0.0, 0.0, 0.0, 0.0, 0.0, 0.0, 0.0, 0.0, 1.698958960048095E9, 0.0, 2023-11-02 17:02:40.048
26.0, -187500.02235174447, 187500.0, 31299.885368333504, 36323.641100363864, 187500.0, 187500.0, -187500.02235174447, 31312.469400461843, -0.036000000000000004, 0.982, -0.082, 192.0, 0.0, 0.0, 0.0, 0.0, 0.0, 0.0, 0.0, 0.0, 0.0, 1.698958960048108E9, 0.0, 2023-11-02 17:02:40.048
27.0, -187500.02235174447, 187500.0, 31297.739600865796, 36315.5721206155, 187500.0, 187500.0, -187500.02235174447, 31311.57533068363, -0.036000000000000004, 0.982, -0.082, 192.0, 0.0, 0.0, 0.0, 0.0, 0.0, 0.0, 0.0, 0.0, 0.0, 1.6989589600481277E9, 0.0, 2023-11-02 17:02:40.048
28.0, -187500.02235174447, 187500.0, 31294.029211286215, 36312.889911280865, 187500.0, 187500.0, -187500.02235174447, 31309.809542871662, -0.038, 0.984, -0.076, 192.0, 254.0, 208.0, 30.0, 192.0, 253.0, 160.0, 0.0, 0.0, 0.0, 1.6989589600481384E9, 0.0, 2023-11-02 17:02:40.048
29.0, -187500.02235174447, 187500.0, 31300.555920667164, 36323.75285908614, 187500.0, 187500.0, -187500.02235174447, 31313.072897562135, -0.038, 0.984, -0.076, 192.0, 0.0, 0.0, 0.0, 0.0, 0.0, 0.0, 0.0, 0.0, 0.0, 1.698958960048253E9, 0.0, 2023-11-02 17:02:40.048
30.0, -187500.02235174447, 187500.0, 31298.67837413292, 36323.775210830594, 187500.0, 187500.0, -187500.02235174447, 31307.328499237123, -0.038, 0.984, -0.076, 192.0, 0.0, 0.0, 0.0, 0.0, 0.0, 0.0, 0.0, 0.0, 0.0, 1.698958960048266E9, 0.0, 2023-11-02 17:02:40.048
31.0, -187500.02235174447, 187500.0, 31305.160380024958, 36316.577949115985, 187500.0, 187500.0, -187500.02235174447, 31313.586987684608, -0.038, 0.984, -0.076, 192.0, 0.0, 0.0, 0.0, 0.0, 0.0, 0.0, 0.0, 0.0, 0.0, 1.698958960048277E9, 0.0, 2023-11-02 17:02:40.048
32.0, -187500.02235174447, 187500.0, 31307.842589359596, 36324.11048699743, 187500.0, 187500.0, -187500.02235174447, 31317.610301686564, -0.038, 0.984, -0.076, 192.0, 0.0, 0.0, 0.0, 0.0, 0.0, 0.0, 0.0, 0.0, 0.0, 1.6989589600482907E9, 0.0, 2023-11-02 17:02:40.048
33.0, -187500.02235174447, 187500.0, 31311.642385916995, 36333.81114409103, 187500.0, 187500.0, -187500.02235174447, 31325.656929690474, -0.038, 0.984, -0.076, 192.0, 0.0, 0.0, 0.0, 0.0, 0.0, 0.0, 0.0, 0.0, 0.0, 1.6989589600483017E9, 0.0, 2023-11-02 17:02:40.048
34.0, -187500.02235174447, 187500.0, 31310.614205672053, 36342.461269195235, 187500.0, 187500.0, -187500.02235174447, 31327.266255291255, -0.038, 0.984, -0.076, 192.0, 0.0, 0.0, 0.0, 0.0, 0.0, 0.0, 0.0, 0.0, 0.0, 1.698958960048313E9, 0.0, 2023-11-02 17:02:40.048
35.0, -187500.02235174447, 187500.0, 31300.175941011425, 36335.30871096953, 187500.0, 187500.0, -187500.02235174447, 31317.67735691993, -0.038, 0.984, -0.076, 192.0, 0.0, 0.0, 0.0, 0.0, 0.0, 0.0, 0.0, 0.0, 0.0, 1.6989589600483236E9, 0.0, 2023-11-02 17:02:40.048
36.0, -187500.02235174447, 187500.0, 31297.225510743323, 36328.60318763294, 187500.0, 187500.0, -187500.02235174447, 31316.15743829697, -0.038, 0.984, -0.076, 192.0, 0.0, 0.0, 0.0, 0.0, 0.0, 0.0, 0.0, 0.0, 0.0, 1.6989589600483365E9, 0.0, 2023-11-02 17:02:40.048
37.0, -187500.02235174447, 187500.0, 31303.551054424177, 36332.38063244589, 187500.0, 187500.0, -187500.02235174447, 31322.48298197782, -0.038, 0.984, -0.076, 192.0, 0.0, 0.0, 0.0, 0.0, 0.0, 0.0, 0.0, 0.0, 0.0, 1.6989589600483472E9, 0.0, 2023-11-02 17:02:40.048
38.0, -187500.02235174447, 187500.0, 31303.640461401996, 36337.45447843725, 187500.0, 187500.0, -187500.02235174447, 31324.24876978979, -0.042, 0.98, -0.088, 192.0, 254.0, 176.0, 30.0, 160.0, 253.0, 64.0, 0.0, 0.0, 0.0, 1.6989589600483584E9, 0.0, 2023-11-02 17:02:40.048
39.0, -187500.02235174447, 187500.0, 31304.2886619912, 36334.79462084706, 187500.0, 187500.0, -187500.02235174447, 31325.880447135027, -0.042, 0.98, -0.088, 192.0, 0.0, 0.0, 0.0, 0.0, 0.0, 0.0, 0.0, 0.0, 0.0, 1.69895896004837E9, 0.0, 2023-11-02 17:02:40.048
40.0, -187500.02235174447, 187500.0, 31307.507313192764, 36330.10075451145, 187500.0, 187500.0, -187500.02235174447, 31330.30609253718, -0.042, 0.98, -0.088, 192.0, 0.0, 0.0, 0.0, 0.0, 0.0, 0.0, 0.0, 0.0, 0.0, 1.69895896004838E9, 0.0, 2023-11-02 17:02:40.048
41.0, -187500.02235174447, 187500.0, 31305.406249213967, 36334.705213869245, 187500.0, 187500.0, -187500.02235174447, 31329.099098336592, -0.042, 0.98, -0.088, 192.0, 0.0, 0.0, 0.0, 0.0, 0.0, 0.0, 0.0, 0.0, 0.0, 1.6989589600483909E9, 0.0, 2023-11-02 17:02:40.048
42.0, -187500.02235174447, 187500.0, 31301.181769511913, 36333.31940571301, 187500.0, 187500.0, -187500.02235174447, 31323.824086645138, -0.042, 0.98, -0.088, 192.0, 0.0, 0.0, 0.0, 0.0, 0.0, 0.0, 0.0, 0.0, 0.0, 1.6989589600484009E9, 0.0, 2023-11-02 17:02:40.048
43.0, -187500.02235174447, 187500.0, 31301.89702533448, 36330.70425161174, 187500.0, 187500.0, -187500.02235174447, 31324.561694212163, -0.042, 0.98, -0.088, 192.0, 0.0, 0.0, 0.0, 0.0, 0.0, 0.0, 0.0, 0.0, 0.0, 1.6989589600484107E9, 0.0, 2023-11-02 17:02:40.048
44.0, -187500.02235174447, 187500.0, 31299.4383334444, 36327.75382134364, 187500.0, 187500.0, -187500.02235174447, 31323.10883082257, -0.042, 0.98, -0.088, 192.0, 0.0, 0.0, 0.0, 0.0, 0.0, 0.0, 0.0, 0.0, 0.0, 1.6989589600484493E9, 0.0, 2023-11-02 17:02:40.048
45.0, -187500.02235174447, 187500.0, 31298.05252528817, 36324.199893975245, 187500.0, 187500.0, -187500.02235174447, 31319.644310431995, -0.042, 0.98, -0.088, 192.0, 0.0, 0.0, 0.0, 0.0, 0.0, 0.0, 0.0, 0.0, 0.0, 1.6989589600484645E9, 0.0, 2023-11-02 17:02:40.048
46.0, -187500.02235174447, 187500.0, 31298.67837413292, 36328.111449254924, 187500.0, 187500.0, -187500.02235174447, 31321.20893254387, -0.042, 0.98, -0.088, 192.0, 0.0, 0.0, 0.0, 0.0, 0.0, 0.0, 0.0, 0.0, 0.0, 1.6989589600484755E9, 0.0, 2023-11-02 17:02:40.048
47.0, -187500.02235174447, 187500.0, 31300.91354857845, 36333.632330135384, 187500.0, 187500.0, -187500.02235174447, 31324.24876978979, -0.046, 0.982, -0.092, 192.0, 254.0, 144.0, 30.0, 176.0, 253.0, 32.0, 0.0, 0.0, 0.0, 1.6989589600484865E9, 0.0, 2023-11-02 17:02:40.048
48.0, -187500.02235174447, 187500.0, 31299.728906122316, 36332.827667335, 187500.0, 187500.0, -187500.02235174447, 31324.2934732787, -0.046, 0.982, -0.092, 192.0, 0.0, 0.0, 0.0, 0.0, 0.0, 0.0, 0.0, 0.0, 0.0, 1.698958960048501E9, 0.0, 2023-11-02 17:02:40.048
49.0, -187500.02235174447, 187500.0, 31302.075839290126, 36334.14642025786, 187500.0, 187500.0, -187500.02235174447, 31326.99803435779, -0.046, 0.982, -0.092, 192.0, 0.0, 0.0, 0.0, 0.0, 0.0, 0.0, 0.0, 0.0, 0.0, 1.6989589600485117E9, 0.0, 2023-11-02 17:02:40.048
50.0, -187500.02235174447, 187500.0, 31296.443199687386, 36340.60607440544, 187500.0, 187500.0, -187500.02235174447, 31320.38191799902, -0.046, 0.982, -0.092, 192.0, 0.0, 0.0, 0.0, 0.0, 0.0, 0.0, 0.0, 0.0, 0.0, 1.698958960048523E9, 0.0, 2023-11-02 17:02:40.048
51.0, -187500.02235174447, 187500.0, 31296.91258632095, 36339.82376334951, 187500.0, 187500.0, -187500.02235174447, 31321.119525566046, -0.046, 0.982, -0.092, 192.0, 0.0, 0.0, 0.0, 0.0, 0.0, 0.0, 0.0, 0.0, 0.0, 1.6989589600485332E9, 0.0, 2023-11-02 17:02:40.048
52.0, -187500.02235174447, 187500.0, 31302.94755732388, 36335.62163539191, 187500.0, 187500.0, -187500.02235174447, 31326.685109935417, -0.046, 0.982, -0.092, 192.0, 0.0, 0.0, 0.0, 0.0, 0.0, 0.0, 0.0, 0.0, 0.0, 1.698958960048544E9, 0.0, 2023-11-02 17:02:40.048
53.0, -187500.02235174447, 187500.0, 31296.599661898574, 36333.83349583548, 187500.0, 187500.0, -187500.02235174447, 31319.666662176453, -0.046, 0.982, -0.092, 192.0, 0.0, 0.0, 0.0, 0.0, 0.0, 0.0, 0.0, 0.0, 0.0, 1.6989589600485575E9, 0.0, 2023-11-02 17:02:40.048
54.0, -187500.02235174447, 187500.0, 31290.743504851285, 36329.69842311125, 187500.0, 187500.0, -187500.02235174447, 31313.832856873618, -0.046, 0.982, -0.092, 192.0, 0.0, 0.0, 0.0, 0.0, 0.0, 0.0, 0.0, 0.0, 0.0, 1.6989589600485704E9, 0.0, 2023-11-02 17:02:40.048
55.0, -187500.02235174447, 187500.0, 31290.721153106828, 36326.23390272068, 187500.0, 187500.0, -187500.02235174447, 31313.76580164025, -0.046, 0.982, -0.092, 192.0, 0.0, 0.0, 0.0, 0.0, 0.0, 0.0, 0.0, 0.0, 0.0, 1.698958960048582E9, 0.0, 2023-11-02 17:02:40.048
56.0, -187500.02235174447, 187500.0, 31294.90092931997, 36325.36218468692, 187500.0, 187500.0, -187500.02235174447, 31318.549074953688, -0.046, 0.982, -0.092, 192.0, 0.0, 0.0, 0.0, 0.0, 0.0, 0.0, 0.0, 0.0, 0.0, 1.6989589600485945E9, 0.0, 2023-11-02 17:02:40.048
57.0, -187500.02235174447, 187500.0, 31302.031135801215, 36337.09685052596, 187500.0, 187500.0, -187500.02235174447, 31326.95333086888, -0.038, 0.982, -0.084, 192.0, 254.0, 208.0, 30.0, 176.0, 253.0, 96.0, 0.0, 0.0, 0.0, 1.6989589600486057E9, 0.0, 2023-11-02 17:02:40.048
58.0, -187500.02235174447, 187500.0, 31294.72211536433, 36345.0764232965, 187500.0, 187500.0, -187500.02235174447, 31322.415926744456, -0.038, 0.982, -0.084, 192.0, 0.0, 0.0, 0.0, 0.0, 0.0, 0.0, 0.0, 0.0, 0.0, 1.6989589600486174E9, 0.0, 2023-11-02 17:02:40.048
59.0, -187500.02235174447, 187500.0, 31292.688106618894, 36339.28732148258, 187500.0, 187500.0, -187500.02235174447, 31320.80660114367, -0.038, 0.982, -0.084, 192.0, 0.0, 0.0, 0.0, 0.0, 0.0, 0.0, 0.0, 0.0, 0.0, 1.698958960048628E9, 0.0, 2023-11-02 17:02:40.048
60.0, -187500.02235174447, 187500.0, 31296.53260666521, 36340.494315683165, 187500.0, 187500.0, -187500.02235174447, 31327.266255291255, -0.038, 0.982, -0.084, 192.0, 0.0, 0.0, 0.0, 0.0, 0.0, 0.0, 0.0, 0.0, 0.0, 1.698958960048665E9, 0.0, 2023-11-02 17:02:40.048
61.0, -187500.02235174447, 187500.0, 31301.3382317231, 36341.72366162821, 187500.0, 187500.0, -187500.02235174447, 31333.748261183297, -0.038, 0.982, -0.084, 192.0, 0.0, 0.0, 0.0, 0.0, 0.0, 0.0, 0.0, 0.0, 0.0, 1.6989589600486767E9, 0.0, 2023-11-02 17:02:40.048
62.0, -187500.02235174447, 187500.0, 31300.131237522513, 36344.71879538522, 187500.0, 187500.0, -187500.02235174447, 31329.903761136982, -0.038, 0.982, -0.084, 192.0, 0.0, 0.0, 0.0, 0.0, 0.0, 0.0, 0.0, 0.0, 0.0, 1.6989589600486872E9, 0.0, 2023-11-02 17:02:40.048
63.0, -187500.02235174447, 187500.0, 31298.320746221634, 36344.45057445176, 187500.0, 187500.0, -187500.02235174447, 31327.556827969176, -0.038, 0.982, -0.084, 192.0, 0.0, 0.0, 0.0, 0.0, 0.0, 0.0, 0.0, 0.0, 0.0, 1.698958960048697E9, 0.0, 2023-11-02 17:02:40.048
64.0, -187500.02235174447, 187500.0, 31293.89510081948, 36342.05893779504, 187500.0, 187500.0, -187500.02235174447, 31323.578217456132, -0.038, 0.982, -0.084, 192.0, 0.0, 0.0, 0.0, 0.0, 0.0, 0.0, 0.0, 0.0, 0.0, 1.6989589600487077E9, 0.0, 2023-11-02 17:02:40.048
65.0, -187500.02235174447, 187500.0, 31292.732810107806, 36334.213475491226, 187500.0, 187500.0, -187500.02235174447, 31323.980548856325, -0.038, 0.982, -0.084, 192.0, 0.0, 0.0, 0.0, 0.0, 0.0, 0.0, 0.0, 0.0, 0.0, 1.6989589600487185E9, 0.0, 2023-11-02 17:02:40.048
66.0, -187500.02235174447, 187500.0, 31291.347001951577, 36333.81114409103, 187500.0, 187500.0, -187500.02235174447, 31324.874618634538, -0.038, 0.982, -0.084, 192.0, 0.0, 0.0, 0.0, 0.0, 0.0, 0.0, 0.0, 0.0, 0.0, 1.6989589600487287E9, 0.0, 2023-11-02 17:02:40.048
67.0, -187500.02235174447, 187500.0, 31283.99327802578, 36332.6265016349, 187500.0, 187500.0, -187500.02235174447, 31319.219627287344, -0.038, 0.976, -0.082, 192.0, 254.0, 208.0, 30.0, 128.0, 253.0, 112.0, 0.0, 0.0, 0.0, 1.698958960048741E9, 0.0, 2023-11-02 17:02:40.048
68.0, -187500.02235174447, 187500.0, 31281.065199502136, 36325.18337073128, 187500.0, 187500.0, -187500.02235174447, 31317.05150807518, -0.038, 0.976, -0.082, 192.0, 0.0, 0.0, 0.0, 0.0, 0.0, 0.0, 0.0, 0.0, 0.0, 1.6989589600487528E9, 0.0, 2023-11-02 17:02:40.048
69.0, -187500.02235174447, 187500.0, 31292.24107172979, 36324.78103933109, 187500.0, 187500.0, -187500.02235174447, 31328.406194258478, -0.038, 0.976, -0.082, 192.0, 0.0, 0.0, 0.0, 0.0, 0.0, 0.0, 0.0, 0.0, 0.0, 1.69895896004877E9, 0.0, 2023-11-02 17:02:40.048
70.0, -187500.02235174447, 187500.0, 31297.851359588072, 36337.09685052596, 187500.0, 187500.0, -187500.02235174447, 31335.4469937619, -0.038, 0.976, -0.082, 192.0, 0.0, 0.0, 0.0, 0.0, 0.0, 0.0, 0.0, 0.0, 0.0, 1.6989589600487826E9, 0.0, 2023-11-02 17:02:40.048
71.0, -187500.02235174447, 187500.0, 31297.605490399063, 36345.29994074106, 187500.0, 187500.0, -187500.02235174447, 31335.648159461995, -0.038, 0.976, -0.082, 192.0, 0.0, 0.0, 0.0, 0.0, 0.0, 0.0, 0.0, 0.0, 0.0, 1.6989589600487924E9, 0.0, 2023-11-02 17:02:40.048
72.0, -187500.02235174447, 187500.0, 31293.693935119383, 36337.09685052596, 187500.0, 187500.0, -187500.02235174447, 31331.758955926773, -0.038, 0.976, -0.082, 192.0, 0.0, 0.0, 0.0, 0.0, 0.0, 0.0, 0.0, 0.0, 0.0, 1.6989589600488036E9, 0.0, 2023-11-02 17:02:40.048
73.0, -187500.02235174447, 187500.0, 31290.967022295838, 36330.23486497818, 187500.0, 187500.0, -187500.02235174447, 31328.38384251402, -0.038, 0.976, -0.082, 192.0, 0.0, 0.0, 0.0, 0.0, 0.0, 0.0, 0.0, 0.0, 0.0, 1.6989589600488436E9, 0.0, 2023-11-02 17:02:40.048
74.0, -187500.02235174447, 187500.0, 31287.457798416355, 36331.62067313441, 187500.0, 187500.0, -187500.02235174447, 31324.71815642335, -0.038, 0.976, -0.082, 192.0, 0.0, 0.0, 0.0, 0.0, 0.0, 0.0, 0.0, 0.0, 0.0, 1.698958960048855E9, 0.0, 2023-11-02 17:02:40.048
75.0, -187500.02235174447, 187500.0, 31287.27898446071, 36338.59441740446, 187500.0, 187500.0, -187500.02235174447, 31323.10883082257, -0.038, 0.976, -0.082, 192.0, 0.0, 0.0, 0.0, 0.0, 0.0, 0.0, 0.0, 0.0, 0.0, 1.6989589600489075E9, 0.0, 2023-11-02 17:02:40.048
76.0, -187500.02235174447, 187500.0, 31292.03990602969, 36338.19208600427, 187500.0, 187500.0, -187500.02235174447, 31325.880447135027, -0.038, 0.976, -0.082, 192.0, 0.0, 0.0, 0.0, 0.0, 0.0, 0.0, 0.0, 0.0, 0.0, 1.6989589600489187E9, 0.0, 2023-11-02 17:02:40.048
77.0, -187500.02235174447, 187500.0, 31305.473304447332, 36340.650777894356, 187500.0, 187500.0, -187500.02235174447, 31337.39159552951, -0.038, 0.972, -0.076, 192.0, 254.0, 208.0, 30.0, 96.0, 253.0, 160.0, 0.0, 0.0, 0.0, 1.6989589600489287E9, 0.0, 2023-11-02 17:02:40.048
78.0, -187500.02235174447, 187500.0, 31307.507313192764, 36347.825687864504, 187500.0, 187500.0, -187500.02235174447, 31339.403252530486, -0.038, 0.972, -0.076, 192.0, 0.0, 0.0, 0.0, 0.0, 0.0, 0.0, 0.0, 0.0, 0.0, 1.6989589600489397E9, 0.0, 2023-11-02 17:02:40.048
79.0, -187500.02235174447, 187500.0, 31301.785266612205, 36349.85969660994, 187500.0, 187500.0, -187500.02235174447, 31332.742432682808, -0.038, 0.972, -0.076, 192.0, 0.0, 0.0, 0.0, 0.0, 0.0, 0.0, 0.0, 0.0, 0.0, 1.6989589600489504E9, 0.0, 2023-11-02 17:02:40.048
80.0, -187500.02235174447, 187500.0, 31299.214815999847, 36349.61382742093, 187500.0, 187500.0, -187500.02235174447, 31329.412022758966, -0.038, 0.972, -0.076, 192.0, 0.0, 0.0, 0.0, 0.0, 0.0, 0.0, 0.0, 0.0, 0.0, 1.6989589600489612E9, 0.0, 2023-11-02 17:02:40.048
81.0, -187500.02235174447, 187500.0, 31306.25561550327, 36345.29994074106, 187500.0, 187500.0, -187500.02235174447, 31335.715214695363, -0.038, 0.972, -0.076, 192.0, 0.0, 0.0, 0.0, 0.0, 0.0, 0.0, 0.0, 0.0, 0.0, 1.698958960048972E9, 0.0, 2023-11-02 17:02:40.048
82.0, -187500.02235174447, 187500.0, 31311.083592305615, 36343.73531862919, 187500.0, 187500.0, -187500.02235174447, 31340.498488008798, -0.038, 0.972, -0.076, 192.0, 0.0, 0.0, 0.0, 0.0, 0.0, 0.0, 0.0, 0.0, 0.0, 1.6989589600489836E9, 0.0, 2023-11-02 17:02:40.048
83.0, -187500.02235174447, 187500.0, 31311.374164983532, 36346.68574889729, 187500.0, 187500.0, -187500.02235174447, 31339.805583930683, -0.038, 0.972, -0.076, 192.0, 0.0, 0.0, 0.0, 0.0, 0.0, 0.0, 0.0, 0.0, 0.0, 1.698958960048993E9, 0.0, 2023-11-02 17:02:40.048
84.0, -187500.02235174447, 187500.0, 31309.3401562381, 36346.48458319719, 187500.0, 187500.0, -187500.02235174447, 31338.10685135208, -0.038, 0.972, -0.076, 192.0, 0.0, 0.0, 0.0, 0.0, 0.0, 0.0, 0.0, 0.0, 0.0, 1.6989589600490031E9, 0.0, 2023-11-02 17:02:40.049
85.0, -187500.02235174447, 187500.0, 31310.48009520532, 36341.50014418366, 187500.0, 187500.0, -187500.02235174447, 31340.38672928652, -0.038, 0.972, -0.076, 192.0, 0.0, 0.0, 0.0, 0.0, 0.0, 0.0, 0.0, 0.0, 0.0, 1.6989589600490148E9, 0.0, 2023-11-02 17:02:40.049
86.0, -187500.02235174447, 187500.0, 31305.853284103072, 36344.45057445176, 187500.0, 187500.0, -187500.02235174447, 31338.553886241185, -0.038, 0.972, -0.076, 192.0, 0.0, 0.0, 0.0, 0.0, 0.0, 0.0, 0.0, 0.0, 0.0, 1.6989589600490255E9, 0.0, 2023-11-02 17:02:40.049
87.0, -187500.02235174447, 187500.0, 31301.137066023002, 36343.44474595127, 187500.0, 187500.0, -187500.02235174447, 31336.966912384858, -0.036000000000000004, 0.976, -0.08, 192.0, 254.0, 224.0, 30.0, 128.0, 253.0, 128.0, 0.0, 0.0, 0.0, 1.6989589600490353E9, 0.0, 2023-11-02 17:02:40.049
88.0, -187500.02235174447, 187500.0, 31301.5393974232, 36346.75280413065, 187500.0, 187500.0, -187500.02235174447, 31338.755051941283, -0.036000000000000004, 0.976, -0.08, 192.0, 0.0, 0.0, 0.0, 0.0, 0.0, 0.0, 0.0, 0.0, 0.0, 1.6989589600490477E9, 0.0, 2023-11-02 17:02:40.049
89.0, -187500.02235174447, 187500.0, 31298.99129855529, 36343.10946978444, 187500.0, 187500.0, -187500.02235174447, 31336.67633970694, -0.036000000000000004, 0.976, -0.08, 192.0, 0.0, 0.0, 0.0, 0.0, 0.0, 0.0, 0.0, 0.0, 0.0, 1.6989589600490575E9, 0.0, 2023-11-02 17:02:40.049
90.0, -187500.02235174447, 187500.0, 31303.081667790615, 36338.34854821546, 187500.0, 187500.0, -187500.02235174447, 31340.699653708896, -0.036000000000000004, 0.976, -0.08, 192.0, 0.0, 0.0, 0.0, 0.0, 0.0, 0.0, 0.0, 0.0, 0.0, 1.69895896004909E9, 0.0, 2023-11-02 17:02:40.049
91.0, -187500.02235174447, 187500.0, 31311.083592305615, 36351.558429188546, 187500.0, 187500.0, -187500.02235174447, 31349.126261368547, -0.036000000000000004, 0.976, -0.08, 192.0, 0.0, 0.0, 0.0, 0.0, 0.0, 0.0, 0.0, 0.0, 0.0, 1.698958960049106E9, 0.0, 2023-11-02 17:02:40.049
92.0, -187500.02235174447, 187500.0, 31303.886330591005, 36352.56425768903, 187500.0, 187500.0, -187500.02235174447, 31343.49362176581, -0.036000000000000004, 0.976, -0.08, 192.0, 0.0, 0.0, 0.0, 0.0, 0.0, 0.0, 0.0, 0.0, 0.0, 1.6989589600491168E9, 0.0, 2023-11-02 17:02:40.049
93.0, -187500.02235174447, 187500.0, 31297.493731676786, 36343.936484329286, 187500.0, 187500.0, -187500.02235174447, 31338.576237985642, -0.036000000000000004, 0.976, -0.08, 192.0, 0.0, 0.0, 0.0, 0.0, 0.0, 0.0, 0.0, 0.0, 0.0, 1.6989589600491264E9, 0.0, 2023-11-02 17:02:40.049
94.0, -187500.02235174447, 187500.0, 31301.829970101116, 36343.221228506714, 187500.0, 187500.0, -187500.02235174447, 31344.2982845662, -0.036000000000000004, 0.976, -0.08, 192.0, 0.0, 0.0, 0.0, 0.0, 0.0, 0.0, 0.0, 0.0, 0.0, 1.698958960049137E9, 0.0, 2023-11-02 17:02:40.049
95.0, -187500.02235174447, 187500.0, 31307.999051570783, 36348.94327508727, 187500.0, 187500.0, -187500.02235174447, 31353.127223626045, -0.036000000000000004, 0.976, -0.08, 192.0, 0.0, 0.0, 0.0, 0.0, 0.0, 0.0, 0.0, 0.0, 0.0, 1.6989589600491471E9, 0.0, 2023-11-02 17:02:40.049
96.0, -187500.02235174447, 187500.0, 31305.696821891885, 36357.59340019148, 187500.0, 187500.0, -187500.02235174447, 31351.473194536353, -0.036000000000000004, 0.976, -0.08, 192.0, 0.0, 0.0, 0.0, 0.0, 0.0, 0.0, 0.0, 0.0, 0.0, 1.6989589600491576E9, 0.0, 2023-11-02 17:02:40.049
97.0, -187500.02235174447, 187500.0, 31305.495656191786, 36354.03947282308, 187500.0, 187500.0, -187500.02235174447, 31350.668531735962, -0.018000000000000002, 0.984, -0.078, 192.0, 255.0, 112.0, 30.0, 192.0, 253.0, 144.0, 0.0, 0.0, 0.0, 1.698958960049168E9, 0.0, 2023-11-02 17:02:40.049
98.0, -187500.02235174447, 187500.0, 31308.446086459888, 36356.6322751799, 187500.0, 187500.0, -187500.02235174447, 31353.149575370502, -0.018000000000000002, 0.984, -0.078, 192.0, 0.0, 0.0, 0.0, 0.0, 0.0, 0.0, 0.0, 0.0, 0.0, 1.6989589600491862E9, 0.0, 2023-11-02 17:02:40.049
99.0, -187500.02235174447, 187500.0, 31307.417906214945, 36359.783871148094, 187500.0, 187500.0, -187500.02235174447, 31351.339084069623, -0.018000000000000002, 0.984, -0.078, 192.0, 0.0, 0.0, 0.0, 0.0, 0.0, 0.0, 0.0, 0.0, 0.0, 1.6989589600491977E9, 0.0, 2023-11-02 17:02:40.049
100.0, -187500.02235174447, 187500.0, 31305.272138747234, 36361.43790023779, 187500.0, 187500.0, -187500.02235174447, 31350.15444161349, -0.018000000000000002, 0.984, -0.078, 192.0, 0.0, 0.0, 0.0, 0.0, 0.0, 0.0, 0.0, 0.0, 0.0, 1.6989589600492084E9, 0.0, 2023-11-02 17:02:40.049
101.0, -187500.02235174447, 187500.0, 31309.831894616116, 36363.069577583025, 187500.0, 187500.0, -187500.02235174447, 31355.20593586039, -0.018000000000000002, 0.984, -0.078, 192.0, 0.0, 0.0, 0.0, 0.0, 0.0, 0.0, 0.0, 0.0, 0.0, 1.69895896004922E9, 0.0, 2023-11-02 17:02:40.049
102.0, -187500.02235174447, 187500.0, 31310.52479869423, 36363.40485374985, 187500.0, 187500.0, -187500.02235174447, 31354.78125271574, -0.018000000000000002, 0.984, -0.078, 192.0, 0.0, 0.0, 0.0, 0.0, 0.0, 0.0, 0.0, 0.0, 0.0, 1.6989589600492332E9, 0.0, 2023-11-02 17:02:40.049
103.0, -187500.02235174447, 187500.0, 31308.848417860085, 36357.973379847215, 187500.0, 187500.0, -187500.02235174447, 31351.786118958727, -0.018000000000000002, 0.984, -0.078, 192.0, 0.0, 0.0, 0.0, 0.0, 0.0, 0.0, 0.0, 0.0, 0.0, 1.6989589600492437E9, 0.0, 2023-11-02 17:02:40.049
104.0, -187500.02235174447, 187500.0, 31304.75804862476, 36362.28726652709, 187500.0, 187500.0, -187500.02235174447, 31347.29341832321, -0.018000000000000002, 0.984, -0.078, 192.0, 0.0, 0.0, 0.0, 0.0, 0.0, 0.0, 0.0, 0.0, 0.0, 1.6989589600492537E9, 0.0, 2023-11-02 17:02:40.049
105.0, -187500.02235174447, 187500.0, 31301.584100912107, 36362.801356649565, 187500.0, 187500.0, -187500.02235174447, 31342.95717989888, -0.018000000000000002, 0.984, -0.078, 192.0, 0.0, 0.0, 0.0, 0.0, 0.0, 0.0, 0.0, 0.0, 0.0, 1.6989589600492892E9, 0.0, 2023-11-02 17:02:40.049
106.0, -187500.02235174447, 187500.0, 31305.227435258323, 36351.35726348845, 187500.0, 187500.0, -187500.02235174447, 31344.4994502663, -0.018000000000000002, 0.984, -0.078, 192.0, 0.0, 0.0, 0.0, 0.0, 0.0, 0.0, 0.0, 0.0, 0.0, 1.6989589600493E9, 0.0, 2023-11-02 17:02:40.049
107.0, -187500.02235174447, 187500.0, 31307.730830637316, 36345.56816167452, 187500.0, 187500.0, -187500.02235174447, 31347.2487148343, -0.028, 0.976, -0.076, 192.0, 255.0, 32.0, 30.0, 128.0, 253.0, 160.0, 0.0, 0.0, 0.0, 1.6989589600493114E9, 0.0, 2023-11-02 17:02:40.049
108.0, -187500.02235174447, 187500.0, 31305.942691080894, 36347.982150075695, 187500.0, 187500.0, -187500.02235174447, 31344.72296771085, -0.028, 0.976, -0.076, 192.0, 0.0, 0.0, 0.0, 0.0, 0.0, 0.0, 0.0, 0.0, 0.0, 1.6989589600493264E9, 0.0, 2023-11-02 17:02:40.049
109.0, -187500.02235174447, 187500.0, 31302.29935673468, 36346.46223145274, 187500.0, 187500.0, -187500.02235174447, 31342.554848498687, -0.028, 0.976, -0.076, 192.0, 0.0, 0.0, 0.0, 0.0, 0.0, 0.0, 0.0, 0.0, 0.0, 1.698958960049337E9, 0.0, 2023-11-02 17:02:40.049
110.0, -187500.02235174447, 187500.0, 31311.508275450266, 36350.44084196578, 187500.0, 187500.0, -187500.02235174447, 31353.30603758169, -0.028, 0.976, -0.076, 192.0, 0.0, 0.0, 0.0, 0.0, 0.0, 0.0, 0.0, 0.0, 0.0, 1.6989589600493479E9, 0.0, 2023-11-02 17:02:40.049
111.0, -187500.02235174447, 187500.0, 31315.0398510742, 36349.09973729846, 187500.0, 187500.0, -187500.02235174447, 31353.708368981883, -0.028, 0.976, -0.076, 192.0, 0.0, 0.0, 0.0, 0.0, 0.0, 0.0, 0.0, 0.0, 0.0, 1.6989589600493584E9, 0.0, 2023-11-02 17:02:40.049
112.0, -187500.02235174447, 187500.0, 31314.01167082926, 36346.41752796382, 187500.0, 187500.0, -187500.02235174447, 31350.310903824677, -0.028, 0.976, -0.076, 192.0, 0.0, 0.0, 0.0, 0.0, 0.0, 0.0, 0.0, 0.0, 0.0, 1.698958960049373E9, 0.0, 2023-11-02 17:02:40.049
113.0, -187500.02235174447, 187500.0, 31310.05541206067, 36342.461269195235, 187500.0, 187500.0, -187500.02235174447, 31345.05824387768, -0.028, 0.976, -0.076, 192.0, 0.0, 0.0, 0.0, 0.0, 0.0, 0.0, 0.0, 0.0, 0.0, 1.6989589600493834E9, 0.0, 2023-11-02 17:02:40.049
114.0, -187500.02235174447, 187500.0, 31315.15160979648, 36336.158077258835, 187500.0, 187500.0, -187500.02235174447, 31351.115566625067, -0.028, 0.976, -0.076, 192.0, 0.0, 0.0, 0.0, 0.0, 0.0, 0.0, 0.0, 0.0, 0.0, 1.698958960049393E9, 0.0, 2023-11-02 17:02:40.049
115.0, -187500.02235174447, 187500.0, 31321.164229054957, 36336.649815636854, 187500.0, 187500.0, -187500.02235174447, 31359.2516016068, -0.028, 0.976, -0.076, 192.0, 0.0, 0.0, 0.0, 0.0, 0.0, 0.0, 0.0, 0.0, 0.0, 1.6989589600494027E9, 0.0, 2023-11-02 17:02:40.049
116.0, -187500.02235174447, 187500.0, 31323.377051756033, 36335.576931903, 187500.0, 187500.0, -187500.02235174447, 31362.425549319454, -0.028, 0.976, -0.076, 192.0, 0.0, 0.0, 0.0, 0.0, 0.0, 0.0, 0.0, 0.0, 0.0, 1.6989589600494125E9, 0.0, 2023-11-02 17:02:40.049
117.0, -187500.02235174447, 187500.0, 31323.62292094504, 36332.51474291262, 187500.0, 187500.0, -187500.02235174447, 31363.610191775584, -0.034, 0.984, -0.08, 192.0, 254.0, 240.0, 30.0, 192.0, 253.0, 128.0, 0.0, 0.0, 0.0, 1.6989589600494225E9, 0.0, 2023-11-02 17:02:40.049
118.0, -187500.02235174447, 187500.0, 31325.38870875701, 36325.02690852009, 187500.0, 187500.0, -187500.02235174447, 31365.331276098645, -0.034, 0.984, -0.08, 192.0, 0.0, 0.0, 0.0, 0.0, 0.0, 0.0, 0.0, 0.0, 0.0, 1.698958960049433E9, 0.0, 2023-11-02 17:02:40.049
119.0, -187500.02235174447, 187500.0, 31320.404269743478, 36310.162998457316, 187500.0, 187500.0, -187500.02235174447, 31361.39736907451, -0.034, 0.984, -0.08, 192.0, 0.0, 0.0, 0.0, 0.0, 0.0, 0.0, 0.0, 0.0, 0.0, 1.6989589600494428E9, 0.0, 2023-11-02 17:02:40.049
120.0, -187500.02235174447, 187500.0, 31318.079688320126, 36305.60324258843, 187500.0, 187500.0, -187500.02235174447, 31358.78221497324, -0.034, 0.984, -0.08, 192.0, 0.0, 0.0, 0.0, 0.0, 0.0, 0.0, 0.0, 0.0, 0.0, 1.6989589600494635E9, 0.0, 2023-11-02 17:02:40.049
121.0, -187500.02235174447, 187500.0, 31319.77842089873, 36307.436085633766, 187500.0, 187500.0, -187500.02235174447, 31358.312828339676, -0.034, 0.984, -0.08, 192.0, 0.0, 0.0, 0.0, 0.0, 0.0, 0.0, 0.0, 0.0, 0.0, 1.6989589604820578E9, 0.0, 2023-11-02 17:02:40.482
122.0, -187500.02235174447, 187500.0, 31316.760935397262, 36298.09305645145, 187500.0, 187500.0, -187500.02235174447, 31354.088348637626, -0.034, 0.984, -0.08, 192.0, 0.0, 0.0, 0.0, 0.0, 0.0, 0.0, 0.0, 0.0, 0.0, 1.698958960482138E9, 0.0, 2023-11-02 17:02:40.482
123.0, -187500.02235174447, 187500.0, 31313.72109815134, 36282.44683533273, 187500.0, 187500.0, -187500.02235174447, 31348.835688690626, -0.034, 0.984, -0.08, 192.0, 0.0, 0.0, 0.0, 0.0, 0.0, 0.0, 0.0, 0.0, 0.0, 1.69895896048215E9, 0.0, 2023-11-02 17:02:40.482
124.0, -187500.02235174447, 187500.0, 31313.989319084805, 36275.473091062675, 187500.0, 187500.0, -187500.02235174447, 31347.2487148343, -0.034, 0.984, -0.08, 192.0, 0.0, 0.0, 0.0, 0.0, 0.0, 0.0, 0.0, 0.0, 0.0, 1.6989589604821615E9, 0.0, 2023-11-02 17:02:40.482
125.0, -187500.02235174447, 187500.0, 31310.97183358334, 36275.204870129215, 187500.0, 187500.0, -187500.02235174447, 31342.800717687696, -0.034, 0.984, -0.08, 192.0, 0.0, 0.0, 0.0, 0.0, 0.0, 0.0, 0.0, 0.0, 0.0, 1.6989589604821725E9, 0.0, 2023-11-02 17:02:40.482
126.0, -187500.02235174447, 187500.0, 31310.97183358334, 36267.78409097005, 187500.0, 187500.0, -187500.02235174447, 31342.800717687696, -0.034, 0.984, -0.08, 192.0, 0.0, 0.0, 0.0, 0.0, 0.0, 0.0, 0.0, 0.0, 0.0, 1.6989589604821837E9, 0.0, 2023-11-02 17:02:40.482
127.0, -187500.02235174447, 187500.0, 31313.81050512916, 36263.22433510117, 187500.0, 187500.0, -187500.02235174447, 31347.405177045486, -0.046, 0.976, -0.084, 192.0, 254.0, 144.0, 30.0, 128.0, 253.0, 96.0, 0.0, 0.0, 0.0, 1.6989589604821968E9, 0.0, 2023-11-02 17:02:40.482
128.0, -187500.02235174447, 187500.0, 31319.800772643182, 36274.86959396239, 187500.0, 187500.0, -187500.02235174447, 31354.267162593267, -0.046, 0.976, -0.084, 192.0, 0.0, 0.0, 0.0, 0.0, 0.0, 0.0, 0.0, 0.0, 0.0, 1.6989589604822087E9, 0.0, 2023-11-02 17:02:40.482
129.0, -187500.02235174447, 187500.0, 31313.899912106983, 36275.58484978496, 187500.0, 187500.0, -187500.02235174447, 31347.025197389747, -0.046, 0.976, -0.084, 192.0, 0.0, 0.0, 0.0, 0.0, 0.0, 0.0, 0.0, 0.0, 0.0, 1.6989589604822197E9, 0.0, 2023-11-02 17:02:40.482
130.0, -187500.02235174447, 187500.0, 31311.083592305615, 36269.61693401539, 187500.0, 187500.0, -187500.02235174447, 31343.717139210363, -0.046, 0.976, -0.084, 192.0, 0.0, 0.0, 0.0, 0.0, 0.0, 0.0, 0.0, 0.0, 0.0, 1.6989589604822304E9, 0.0, 2023-11-02 17:02:40.482
131.0, -187500.02235174447, 187500.0, 31321.3430430106, 36269.058140404006, 187500.0, 187500.0, -187500.02235174447, 31354.423624804454, -0.046, 0.976, -0.084, 192.0, 0.0, 0.0, 0.0, 0.0, 0.0, 0.0, 0.0, 0.0, 0.0, 1.6989589604822416E9, 0.0, 2023-11-02 17:02:40.482
132.0, -187500.02235174447, 187500.0, 31323.824086645138, 36269.549878782025, 187500.0, 187500.0, -187500.02235174447, 31355.451805049397, -0.046, 0.976, -0.084, 192.0, 0.0, 0.0, 0.0, 0.0, 0.0, 0.0, 0.0, 0.0, 0.0, 1.6989589604822524E9, 0.0, 2023-11-02 17:02:40.482
133.0, -187500.02235174447, 187500.0, 31327.690938435906, 36275.74131199614, 187500.0, 187500.0, -187500.02235174447, 31359.2516016068, -0.046, 0.976, -0.084, 192.0, 0.0, 0.0, 0.0, 0.0, 0.0, 0.0, 0.0, 0.0, 0.0, 1.6989589604822688E9, 0.0, 2023-11-02 17:02:40.482
134.0, -187500.02235174447, 187500.0, 31326.215723301855, 36277.35063759692, 187500.0, 187500.0, -187500.02235174447, 31358.06695915067, -0.046, 0.976, -0.084, 192.0, 0.0, 0.0, 0.0, 0.0, 0.0, 0.0, 0.0, 0.0, 0.0, 1.6989589604822788E9, 0.0, 2023-11-02 17:02:40.482
135.0, -187500.02235174447, 187500.0, 31329.099098336592, 36269.8628032044, 187500.0, 187500.0, -187500.02235174447, 31360.145671385013, -0.046, 0.976, -0.084, 192.0, 0.0, 0.0, 0.0, 0.0, 0.0, 0.0, 0.0, 0.0, 0.0, 1.6989589604823194E9, 0.0, 2023-11-02 17:02:40.482
136.0, -187500.02235174447, 187500.0, 31326.34983376859, 36264.07370139047, 187500.0, 187500.0, -187500.02235174447, 31355.72002598286, -0.046, 0.976, -0.084, 192.0, 0.0, 0.0, 0.0, 0.0, 0.0, 0.0, 0.0, 0.0, 0.0, 1.6989589604823291E9, 0.0, 2023-11-02 17:02:40.482
137.0, -187500.02235174447, 187500.0, 31326.215723301855, 36265.16893686878, 187500.0, 187500.0, -187500.02235174447, 31354.691845737918, -0.036000000000000004, 0.98, -0.082, 192.0, 254.0, 224.0, 30.0, 160.0, 253.0, 112.0, 0.0, 0.0, 0.0, 1.698958960482339E9, 0.0, 2023-11-02 17:02:40.482
138.0, -187500.02235174447, 187500.0, 31330.954293126382, 36277.55180329702, 187500.0, 187500.0, -187500.02235174447, 31359.385712073534, -0.036000000000000004, 0.98, -0.082, 192.0, 0.0, 0.0, 0.0, 0.0, 0.0, 0.0, 0.0, 0.0, 0.0, 1.6989589604823496E9, 0.0, 2023-11-02 17:02:40.482
139.0, -187500.02235174447, 187500.0, 31328.719118680852, 36276.97065794119, 187500.0, 187500.0, -187500.02235174447, 31354.088348637626, -0.036000000000000004, 0.98, -0.082, 192.0, 0.0, 0.0, 0.0, 0.0, 0.0, 0.0, 0.0, 0.0, 0.0, 1.6989589604823592E9, 0.0, 2023-11-02 17:02:40.482
140.0, -187500.02235174447, 187500.0, 31326.506295979776, 36270.84627996043, 187500.0, 187500.0, -187500.02235174447, 31349.461537535375, -0.036000000000000004, 0.98, -0.082, 192.0, 0.0, 0.0, 0.0, 0.0, 0.0, 0.0, 0.0, 0.0, 0.0, 1.698958960482369E9, 0.0, 2023-11-02 17:02:40.482
141.0, -187500.02235174447, 187500.0, 31321.030118588227, 36270.42159681578, 187500.0, 187500.0, -187500.02235174447, 31341.57137174265, -0.036000000000000004, 0.98, -0.082, 192.0, 0.0, 0.0, 0.0, 0.0, 0.0, 0.0, 0.0, 0.0, 0.0, 1.6989589604823785E9, 0.0, 2023-11-02 17:02:40.482
142.0, -187500.02235174447, 187500.0, 31319.86782787655, 36269.8628032044, 187500.0, 187500.0, -187500.02235174447, 31336.542229240207, -0.036000000000000004, 0.98, -0.082, 192.0, 0.0, 0.0, 0.0, 0.0, 0.0, 0.0, 0.0, 0.0, 0.0, 1.6989589604823883E9, 0.0, 2023-11-02 17:02:40.482
143.0, -187500.02235174447, 187500.0, 31321.544208710697, 36265.347750824425, 187500.0, 187500.0, -187500.02235174447, 31335.558752484176, -0.036000000000000004, 0.98, -0.082, 192.0, 0.0, 0.0, 0.0, 0.0, 0.0, 0.0, 0.0, 0.0, 0.0, 1.6989589604823976E9, 0.0, 2023-11-02 17:02:40.482
144.0, -187500.02235174447, 187500.0, 31330.641368704008, 36266.9123729363, 187500.0, 187500.0, -187500.02235174447, 31342.465441520864, -0.036000000000000004, 0.98, -0.082, 192.0, 0.0, 0.0, 0.0, 0.0, 0.0, 0.0, 0.0, 0.0, 0.0, 1.698958960482407E9, 0.0, 2023-11-02 17:02:40.482
145.0, -187500.02235174447, 187500.0, 31335.178772828436, 36276.72478875217, 187500.0, 187500.0, -187500.02235174447, 31345.48292702233, -0.036000000000000004, 0.98, -0.082, 192.0, 0.0, 0.0, 0.0, 0.0, 0.0, 0.0, 0.0, 0.0, 0.0, 1.6989589604824169E9, 0.0, 2023-11-02 17:02:40.482
146.0, -187500.02235174447, 187500.0, 31332.809487916173, 36277.19417538574, 187500.0, 187500.0, -187500.02235174447, 31342.979531643337, -0.036000000000000004, 0.98, -0.082, 192.0, 0.0, 0.0, 0.0, 0.0, 0.0, 0.0, 0.0, 0.0, 0.0, 1.6989589604824266E9, 0.0, 2023-11-02 17:02:40.482
147.0, -187500.02235174447, 187500.0, 31326.662758190963, 36270.28748634905, 187500.0, 187500.0, -187500.02235174447, 31338.263313563268, -0.032, 0.978, -0.078, 192.0, 255.0, 0.0, 30.0, 144.0, 253.0, 144.0, 0.0, 0.0, 0.0, 1.698958960482436E9, 0.0, 2023-11-02 17:02:40.482
148.0, -187500.02235174447, 187500.0, 31319.689013920906, 36256.87643967586, 187500.0, 187500.0, -187500.02235174447, 31330.171982070446, -0.032, 0.978, -0.078, 192.0, 0.0, 0.0, 0.0, 0.0, 0.0, 0.0, 0.0, 0.0, 0.0, 1.6989589604824464E9, 0.0, 2023-11-02 17:02:40.482
149.0, -187500.02235174447, 187500.0, 31321.63361568852, 36262.59848625642, 187500.0, 187500.0, -187500.02235174447, 31332.58597047162, -0.032, 0.978, -0.078, 192.0, 0.0, 0.0, 0.0, 0.0, 0.0, 0.0, 0.0, 0.0, 0.0, 1.698958960482456E9, 0.0, 2023-11-02 17:02:40.482
150.0, -187500.02235174447, 187500.0, 31322.48298197782, 36272.63441951686, 187500.0, 187500.0, -187500.02235174447, 31333.480040249833, -0.032, 0.978, -0.078, 192.0, 0.0, 0.0, 0.0, 0.0, 0.0, 0.0, 0.0, 0.0, 0.0, 1.6989589604824772E9, 0.0, 2023-11-02 17:02:40.482
151.0, -187500.02235174447, 187500.0, 31319.62195868754, 36271.18155612726, 187500.0, 187500.0, -187500.02235174447, 31332.16128732697, -0.032, 0.978, -0.078, 192.0, 0.0, 0.0, 0.0, 0.0, 0.0, 0.0, 0.0, 0.0, 0.0, 1.6989589604824872E9, 0.0, 2023-11-02 17:02:40.482
152.0, -187500.02235174447, 187500.0, 31320.717194165853, 36261.436195544746, 187500.0, 187500.0, -187500.02235174447, 31333.547095483198, -0.032, 0.978, -0.078, 192.0, 0.0, 0.0, 0.0, 0.0, 0.0, 0.0, 0.0, 0.0, 0.0, 1.6989589604824967E9, 0.0, 2023-11-02 17:02:40.482
153.0, -187500.02235174447, 187500.0, 31319.95723485437, 36258.86574493239, 187500.0, 187500.0, -187500.02235174447, 31330.171982070446, -0.032, 0.978, -0.078, 192.0, 0.0, 0.0, 0.0, 0.0, 0.0, 0.0, 0.0, 0.0, 0.0, 1.6989589604825065E9, 0.0, 2023-11-02 17:02:40.482
154.0, -187500.02235174447, 187500.0, 31315.19631328539, 36255.93766640874, 187500.0, 187500.0, -187500.02235174447, 31322.415926744456, -0.032, 0.978, -0.078, 192.0, 0.0, 0.0, 0.0, 0.0, 0.0, 0.0, 0.0, 0.0, 0.0, 1.698958960482516E9, 0.0, 2023-11-02 17:02:40.482
155.0, -187500.02235174447, 187500.0, 31317.38678424201, 36255.71414896419, 187500.0, 187500.0, -187500.02235174447, 31322.773554655738, -0.032, 0.978, -0.078, 192.0, 0.0, 0.0, 0.0, 0.0, 0.0, 0.0, 0.0, 0.0, 0.0, 1.6989589604825273E9, 0.0, 2023-11-02 17:02:40.482
156.0, -187500.02235174447, 187500.0, 31321.72302266634, 36260.452718788714, 187500.0, 187500.0, -187500.02235174447, 31328.96498786986, -0.032, 0.978, -0.078, 192.0, 0.0, 0.0, 0.0, 0.0, 0.0, 0.0, 0.0, 0.0, 0.0, 1.6989589604825368E9, 0.0, 2023-11-02 17:02:40.482
157.0, -187500.02235174447, 187500.0, 31320.471324976843, 36261.905582178304, 187500.0, 187500.0, -187500.02235174447, 31330.976644870836, -0.032, 0.974, -0.082, 192.0, 255.0, 0.0, 30.0, 112.0, 253.0, 112.0, 0.0, 0.0, 0.0, 1.6989589604825463E9, 0.0, 2023-11-02 17:02:40.482
158.0, -187500.02235174447, 187500.0, 31317.72206040884, 36263.69372173473, 187500.0, 187500.0, -187500.02235174447, 31329.970816370347, -0.032, 0.974, -0.082, 192.0, 0.0, 0.0, 0.0, 0.0, 0.0, 0.0, 0.0, 0.0, 0.0, 1.6989589604825563E9, 0.0, 2023-11-02 17:02:40.482
159.0, -187500.02235174447, 187500.0, 31320.270159276744, 36272.477957305666, 187500.0, 187500.0, -187500.02235174447, 31334.1952960724, -0.032, 0.974, -0.082, 192.0, 0.0, 0.0, 0.0, 0.0, 0.0, 0.0, 0.0, 0.0, 0.0, 1.698958960482566E9, 0.0, 2023-11-02 17:02:40.482
160.0, -187500.02235174447, 187500.0, 31317.789115642205, 36268.36523632589, 187500.0, 187500.0, -187500.02235174447, 31330.127278581534, -0.032, 0.974, -0.082, 192.0, 0.0, 0.0, 0.0, 0.0, 0.0, 0.0, 0.0, 0.0, 0.0, 1.6989589604825754E9, 0.0, 2023-11-02 17:02:40.482
161.0, -187500.02235174447, 187500.0, 31314.749278396284, 36256.71997746467, 187500.0, 187500.0, -187500.02235174447, 31324.91932212345, -0.032, 0.974, -0.082, 192.0, 0.0, 0.0, 0.0, 0.0, 0.0, 0.0, 0.0, 0.0, 0.0, 1.698958960482585E9, 0.0, 2023-11-02 17:02:40.482
162.0, -187500.02235174447, 187500.0, 31314.883388863014, 36255.065948374984, 187500.0, 187500.0, -187500.02235174447, 31323.86879013405, -0.032, 0.974, -0.082, 192.0, 0.0, 0.0, 0.0, 0.0, 0.0, 0.0, 0.0, 0.0, 0.0, 1.6989589604825945E9, 0.0, 2023-11-02 17:02:40.482
163.0, -187500.02235174447, 187500.0, 31312.491752206297, 36258.32930306546, 187500.0, 187500.0, -187500.02235174447, 31321.141877310503, -0.032, 0.974, -0.082, 192.0, 0.0, 0.0, 0.0, 0.0, 0.0, 0.0, 0.0, 0.0, 0.0, 1.698958960482604E9, 0.0, 2023-11-02 17:02:40.482
164.0, -187500.02235174447, 187500.0, 31315.576292941132, 36258.19519259872, 187500.0, 187500.0, -187500.02235174447, 31322.348871511087, -0.032, 0.974, -0.082, 192.0, 0.0, 0.0, 0.0, 0.0, 0.0, 0.0, 0.0, 0.0, 0.0, 1.6989589604826136E9, 0.0, 2023-11-02 17:02:40.482
165.0, -187500.02235174447, 187500.0, 31318.34790925359, 36264.006646157104, 187500.0, 187500.0, -187500.02235174447, 31324.137011067513, -0.032, 0.974, -0.082, 192.0, 0.0, 0.0, 0.0, 0.0, 0.0, 0.0, 0.0, 0.0, 0.0, 1.6989589604826245E9, 0.0, 2023-11-02 17:02:40.482
166.0, -187500.02235174447, 187500.0, 31312.022365572735, 36262.3079135785, 187500.0, 187500.0, -187500.02235174447, 31317.3420807531, -0.03, 0.974, -0.08600000000000001, 192.0, 255.0, 16.0, 30.0, 112.0, 253.0, 80.0, 0.0, 0.0, 0.0, 1.698958960482643E9, 0.0, 2023-11-02 17:02:40.482
167.0, -187500.02235174447, 187500.0, 31310.748316138783, 36265.99595141363, 187500.0, 187500.0, -187500.02235174447, 31316.000976085783, -0.03, 0.974, -0.08600000000000001, 192.0, 0.0, 0.0, 0.0, 0.0, 0.0, 0.0, 0.0, 0.0, 0.0, 1.6989589604826536E9, 0.0, 2023-11-02 17:02:40.482
168.0, -187500.02235174447, 187500.0, 31312.290586506202, 36269.818099715485, 187500.0, 187500.0, -187500.02235174447, 31320.068993576646, -0.03, 0.974, -0.08600000000000001, 192.0, 0.0, 0.0, 0.0, 0.0, 0.0, 0.0, 0.0, 0.0, 0.0, 1.698958960482663E9, 0.0, 2023-11-02 17:02:40.482
169.0, -187500.02235174447, 187500.0, 31315.755106896773, 36269.30400959301, 187500.0, 187500.0, -187500.02235174447, 31324.382880256522, -0.03, 0.974, -0.08600000000000001, 192.0, 0.0, 0.0, 0.0, 0.0, 0.0, 0.0, 0.0, 0.0, 0.0, 1.6989589604826727E9, 0.0, 2023-11-02 17:02:40.482
170.0, -187500.02235174447, 187500.0, 31313.028194073224, 36272.50030905012, 187500.0, 187500.0, -187500.02235174447, 31323.511162222763, -0.03, 0.974, -0.08600000000000001, 192.0, 0.0, 0.0, 0.0, 0.0, 0.0, 0.0, 0.0, 0.0, 0.0, 1.6989589604826825E9, 0.0, 2023-11-02 17:02:40.482
171.0, -187500.02235174447, 187500.0, 31309.697784149386, 36276.92595445227, 187500.0, 187500.0, -187500.02235174447, 31319.890179621005, -0.03, 0.974, -0.08600000000000001, 192.0, 0.0, 0.0, 0.0, 0.0, 0.0, 0.0, 0.0, 0.0, 0.0, 1.6989589604826915E9, 0.0, 2023-11-02 17:02:40.482
172.0, -187500.02235174447, 187500.0, 31300.91354857845, 36267.33705608095, 187500.0, 187500.0, -187500.02235174447, 31309.89894984948, -0.03, 0.974, -0.08600000000000001, 192.0, 0.0, 0.0, 0.0, 0.0, 0.0, 0.0, 0.0, 0.0, 0.0, 1.6989589604827013E9, 0.0, 2023-11-02 17:02:40.482
173.0, -187500.02235174447, 187500.0, 31295.90675782046, 36254.17187859677, 187500.0, 187500.0, -187500.02235174447, 31305.71917363634, -0.03, 0.974, -0.08600000000000001, 192.0, 0.0, 0.0, 0.0, 0.0, 0.0, 0.0, 0.0, 0.0, 0.0, 1.6989589604827108E9, 0.0, 2023-11-02 17:02:40.482
174.0, -187500.02235174447, 187500.0, 31298.790132855196, 36251.422614028765, 187500.0, 187500.0, -187500.02235174447, 31311.463571961354, -0.03, 0.974, -0.08600000000000001, 192.0, 0.0, 0.0, 0.0, 0.0, 0.0, 0.0, 0.0, 0.0, 0.0, 1.6989589604827204E9, 0.0, 2023-11-02 17:02:40.482
175.0, -187500.02235174447, 187500.0, 31302.455818945866, 36260.29625657752, 187500.0, 187500.0, -187500.02235174447, 31317.140915053, -0.03, 0.974, -0.08600000000000001, 192.0, 0.0, 0.0, 0.0, 0.0, 0.0, 0.0, 0.0, 0.0, 0.0, 1.69895896048273E9, 0.0, 2023-11-02 17:02:40.482
176.0, -187500.02235174447, 187500.0, 31311.083592305615, 36264.431329301755, 187500.0, 187500.0, -187500.02235174447, 31326.372185513042, -0.018000000000000002, 0.988, -0.082, 192.0, 255.0, 112.0, 30.0, 224.0, 253.0, 112.0, 0.0, 0.0, 0.0, 1.6989589604827409E9, 0.0, 2023-11-02 17:02:40.482
177.0, -187500.02235174447, 187500.0, 31312.089420806104, 36263.51490777909, 187500.0, 187500.0, -187500.02235174447, 31327.355662269078, -0.018000000000000002, 0.988, -0.082, 192.0, 0.0, 0.0, 0.0, 0.0, 0.0, 0.0, 0.0, 0.0, 0.0, 1.698958960482751E9, 0.0, 2023-11-02 17:02:40.482
178.0, -187500.02235174447, 187500.0, 31309.943653338392, 36263.738425223644, 187500.0, 187500.0, -187500.02235174447, 31326.550999468687, -0.018000000000000002, 0.988, -0.082, 192.0, 0.0, 0.0, 0.0, 0.0, 0.0, 0.0, 0.0, 0.0, 0.0, 1.6989589604827607E9, 0.0, 2023-11-02 17:02:40.482
179.0, -187500.02235174447, 187500.0, 31314.10107780708, 36274.646076517834, 187500.0, 187500.0, -187500.02235174447, 31332.25069430479, -0.018000000000000002, 0.988, -0.082, 192.0, 0.0, 0.0, 0.0, 0.0, 0.0, 0.0, 0.0, 0.0, 0.0, 1.69895896048277E9, 0.0, 2023-11-02 17:02:40.482
180.0, -187500.02235174447, 187500.0, 31310.681260905418, 36277.88707946385, 187500.0, 187500.0, -187500.02235174447, 31330.52960998173, -0.018000000000000002, 0.988, -0.082, 192.0, 0.0, 0.0, 0.0, 0.0, 0.0, 0.0, 0.0, 0.0, 0.0, 1.6989589604827795E9, 0.0, 2023-11-02 17:02:40.482
181.0, -187500.02235174447, 187500.0, 31312.134124295015, 36272.612067772396, 187500.0, 187500.0, -187500.02235174447, 31330.86488614856, -0.018000000000000002, 0.988, -0.082, 192.0, 0.0, 0.0, 0.0, 0.0, 0.0, 0.0, 0.0, 0.0, 0.0, 1.698958960482798E9, 0.0, 2023-11-02 17:02:40.482
182.0, -187500.02235174447, 187500.0, 31312.022365572735, 36270.46630030469, 187500.0, 187500.0, -187500.02235174447, 31329.30026403669, -0.018000000000000002, 0.988, -0.082, 192.0, 0.0, 0.0, 0.0, 0.0, 0.0, 0.0, 0.0, 0.0, 0.0, 1.6989589604828076E9, 0.0, 2023-11-02 17:02:40.482
183.0, -187500.02235174447, 187500.0, 31313.095249306592, 36272.38855032784, 187500.0, 187500.0, -187500.02235174447, 31326.72981342433, -0.018000000000000002, 0.988, -0.082, 192.0, 0.0, 0.0, 0.0, 0.0, 0.0, 0.0, 0.0, 0.0, 0.0, 1.6989589604828176E9, 0.0, 2023-11-02 17:02:40.482
184.0, -187500.02235174447, 187500.0, 31314.346946996087, 36276.523623052075, 187500.0, 187500.0, -187500.02235174447, 31326.43924074641, -0.018000000000000002, 0.988, -0.082, 192.0, 0.0, 0.0, 0.0, 0.0, 0.0, 0.0, 0.0, 0.0, 0.0, 1.6989589604828272E9, 0.0, 2023-11-02 17:02:40.482
185.0, -187500.02235174447, 187500.0, 31314.749278396284, 36280.39047484285, 187500.0, 187500.0, -187500.02235174447, 31328.04856634719, -0.018000000000000002, 0.988, -0.082, 192.0, 0.0, 0.0, 0.0, 0.0, 0.0, 0.0, 0.0, 0.0, 0.0, 1.6989589604828367E9, 0.0, 2023-11-02 17:02:40.482
186.0, -187500.02235174447, 187500.0, 31313.29641500669, 36273.528489295066, 187500.0, 187500.0, -187500.02235174447, 31328.24973204729, -0.026000000000000002, 0.974, -0.078, 192.0, 255.0, 48.0, 30.0, 112.0, 253.0, 144.0, 0.0, 0.0, 0.0, 1.6989589604828465E9, 0.0, 2023-11-02 17:02:40.482
187.0, -187500.02235174447, 187500.0, 31313.00584232877, 36274.46726256219, 187500.0, 187500.0, -187500.02235174447, 31326.886275635516, -0.026000000000000002, 0.974, -0.078, 192.0, 0.0, 0.0, 0.0, 0.0, 0.0, 0.0, 0.0, 0.0, 0.0, 1.6989589604828568E9, 0.0, 2023-11-02 17:02:40.482
188.0, -187500.02235174447, 187500.0, 31301.09236253409, 36268.23112585916, 187500.0, 187500.0, -187500.02235174447, 31312.82702837313, -0.026000000000000002, 0.974, -0.078, 192.0, 0.0, 0.0, 0.0, 0.0, 0.0, 0.0, 0.0, 0.0, 0.0, 1.6989589604828663E9, 0.0, 2023-11-02 17:02:40.482
189.0, -187500.02235174447, 187500.0, 31301.628804401018, 36265.772433969076, 187500.0, 187500.0, -187500.02235174447, 31313.38582198451, -0.026000000000000002, 0.974, -0.078, 192.0, 0.0, 0.0, 0.0, 0.0, 0.0, 0.0, 0.0, 0.0, 0.0, 1.698958960482876E9, 0.0, 2023-11-02 17:02:40.482
190.0, -187500.02235174447, 187500.0, 31308.24492075979, 36270.64511426033, 187500.0, 187500.0, -187500.02235174447, 31320.180752298922, -0.026000000000000002, 0.974, -0.078, 192.0, 0.0, 0.0, 0.0, 0.0, 0.0, 0.0, 0.0, 0.0, 0.0, 1.698958960482886E9, 0.0, 2023-11-02 17:02:40.482
191.0, -187500.02235174447, 187500.0, 31313.497580706786, 36281.17278589878, 187500.0, 187500.0, -187500.02235174447, 31324.896970378995, -0.026000000000000002, 0.974, -0.078, 192.0, 0.0, 0.0, 0.0, 0.0, 0.0, 0.0, 0.0, 0.0, 0.0, 1.6989589604828956E9, 0.0, 2023-11-02 17:02:40.482
192.0, -187500.02235174447, 187500.0, 31303.461647446355, 36277.864727719396, 187500.0, 187500.0, -187500.02235174447, 31312.782324884218, -0.026000000000000002, 0.974, -0.078, 192.0, 0.0, 0.0, 0.0, 0.0, 0.0, 0.0, 0.0, 0.0, 0.0, 1.698958960482906E9, 0.0, 2023-11-02 17:02:40.482
193.0, -187500.02235174447, 187500.0, 31298.76778111074, 36269.48282354866, 187500.0, 187500.0, -187500.02235174447, 31308.736659137805, -0.026000000000000002, 0.974, -0.078, 192.0, 0.0, 0.0, 0.0, 0.0, 0.0, 0.0, 0.0, 0.0, 0.0, 1.6989589604829168E9, 0.0, 2023-11-02 17:02:40.482
194.0, -187500.02235174447, 187500.0, 31301.29352823419, 36267.91820143678, 187500.0, 187500.0, -187500.02235174447, 31311.664737661453, -0.026000000000000002, 0.974, -0.078, 192.0, 0.0, 0.0, 0.0, 0.0, 0.0, 0.0, 0.0, 0.0, 0.0, 1.6989589604829264E9, 0.0, 2023-11-02 17:02:40.482
195.0, -187500.02235174447, 187500.0, 31302.209949756856, 36272.209736372206, 187500.0, 187500.0, -187500.02235174447, 31312.58115918412, -0.026000000000000002, 0.974, -0.078, 192.0, 0.0, 0.0, 0.0, 0.0, 0.0, 0.0, 0.0, 0.0, 0.0, 1.698958960482936E9, 0.0, 2023-11-02 17:02:40.482
196.0, -187500.02235174447, 187500.0, 31298.47720843282, 36273.88611720635, 187500.0, 187500.0, -187500.02235174447, 31309.071935304637, -0.03, 0.976, -0.068, 192.0, 255.0, 16.0, 30.0, 128.0, 253.0, 224.0, 0.0, 0.0, 0.0, 1.6989589604829545E9, 0.0, 2023-11-02 17:02:40.482
197.0, -187500.02235174447, 187500.0, 31299.326574722123, 36272.38855032784, 187500.0, 187500.0, -187500.02235174447, 31309.5413219382, -0.03, 0.976, -0.068, 192.0, 0.0, 0.0, 0.0, 0.0, 0.0, 0.0, 0.0, 0.0, 0.0, 1.6989589604829662E9, 0.0, 2023-11-02 17:02:40.482
198.0, -187500.02235174447, 187500.0, 31302.679336390418, 36266.9123729363, 187500.0, 187500.0, -187500.02235174447, 31311.53062719472, -0.03, 0.976, -0.068, 192.0, 0.0, 0.0, 0.0, 0.0, 0.0, 0.0, 0.0, 0.0, 0.0, 1.698958960482977E9, 0.0, 2023-11-02 17:02:40.482
199.0, -187500.02235174447, 187500.0, 31294.76681885324, 36262.53143102305, 187500.0, 187500.0, -187500.02235174447, 31304.19925501338, -0.03, 0.976, -0.068, 192.0, 0.0, 0.0, 0.0, 0.0, 0.0, 0.0, 0.0, 0.0, 0.0, 1.6989589604829865E9, 0.0, 2023-11-02 17:02:40.482
200.0, -187500.02235174447, 187500.0, 31296.82317934313, 36267.27000084758, 187500.0, 187500.0, -187500.02235174447, 31306.836760859107, -0.03, 0.976, -0.068, 192.0, 0.0, 0.0, 0.0, 0.0, 0.0, 0.0, 0.0, 0.0, 0.0, 1.698958960482996E9, 0.0, 2023-11-02 17:02:40.482
201.0, -187500.02235174447, 187500.0, 31294.76681885324, 36270.84627996043, 187500.0, 187500.0, -187500.02235174447, 31305.942691080894, -0.03, 0.976, -0.068, 192.0, 0.0, 0.0, 0.0, 0.0, 0.0, 0.0, 0.0, 0.0, 0.0, 1.6989589604830055E9, 0.0, 2023-11-02 17:02:40.483
202.0, -187500.02235174447, 187500.0, 31295.70559212036, 36265.638323502346, 187500.0, 187500.0, -187500.02235174447, 31305.830932358618, -0.03, 0.976, -0.068, 192.0, 0.0, 0.0, 0.0, 0.0, 0.0, 0.0, 0.0, 0.0, 0.0, 1.6989589604830153E9, 0.0, 2023-11-02 17:02:40.483
203.0, -187500.02235174447, 187500.0, 31294.3868391975, 36263.98429441265, 187500.0, 187500.0, -187500.02235174447, 31306.993223070294, -0.03, 0.976, -0.068, 192.0, 0.0, 0.0, 0.0, 0.0, 0.0, 0.0, 0.0, 0.0, 0.0, 1.6989589604830248E9, 0.0, 2023-11-02 17:02:40.483
204.0, -187500.02235174447, 187500.0, 31293.068086274638, 36271.27096310508, 187500.0, 187500.0, -187500.02235174447, 31306.81440911465, -0.03, 0.976, -0.068, 192.0, 0.0, 0.0, 0.0, 0.0, 0.0, 0.0, 0.0, 0.0, 0.0, 1.6989589604830344E9, 0.0, 2023-11-02 17:02:40.483
205.0, -187500.02235174447, 187500.0, 31297.449028187875, 36270.77922472706, 187500.0, 187500.0, -187500.02235174447, 31309.831894616116, -0.03, 0.976, -0.068, 192.0, 0.0, 0.0, 0.0, 0.0, 0.0, 0.0, 0.0, 0.0, 0.0, 1.698958960483044E9, 0.0, 2023-11-02 17:02:40.483
206.0, -187500.02235174447, 187500.0, 31308.781362626716, 36271.02509391607, 187500.0, 187500.0, -187500.02235174447, 31321.38774649951, -0.018000000000000002, 0.982, -0.062, 192.0, 255.0, 112.0, 30.0, 176.0, 254.0, 16.0, 0.0, 0.0, 0.0, 1.6989589604830537E9, 0.0, 2023-11-02 17:02:40.483
207.0, -187500.02235174447, 187500.0, 31308.87076960454, 36274.579021284466, 187500.0, 187500.0, -187500.02235174447, 31323.645272689497, -0.018000000000000002, 0.982, -0.062, 192.0, 0.0, 0.0, 0.0, 0.0, 0.0, 0.0, 0.0, 0.0, 0.0, 1.6989589604830637E9, 0.0, 2023-11-02 17:02:40.483
208.0, -187500.02235174447, 187500.0, 31302.232301501313, 36272.03092241656, 187500.0, 187500.0, -187500.02235174447, 31315.263368518757, -0.018000000000000002, 0.982, -0.062, 192.0, 0.0, 0.0, 0.0, 0.0, 0.0, 0.0, 0.0, 0.0, 0.0, 1.6989589604830735E9, 0.0, 2023-11-02 17:02:40.483
209.0, -187500.02235174447, 187500.0, 31299.99712705578, 36267.49351829213, 187500.0, 187500.0, -187500.02235174447, 31312.447048717386, -0.018000000000000002, 0.982, -0.062, 192.0, 0.0, 0.0, 0.0, 0.0, 0.0, 0.0, 0.0, 0.0, 0.0, 1.698958960483083E9, 0.0, 2023-11-02 17:02:40.483
210.0, -187500.02235174447, 187500.0, 31300.354754967066, 36266.57709676946, 187500.0, 187500.0, -187500.02235174447, 31311.262406261256, -0.018000000000000002, 0.982, -0.062, 192.0, 0.0, 0.0, 0.0, 0.0, 0.0, 0.0, 0.0, 0.0, 0.0, 1.6989589604830923E9, 0.0, 2023-11-02 17:02:40.483
211.0, -187500.02235174447, 187500.0, 31299.974775311326, 36258.150489109816, 187500.0, 187500.0, -187500.02235174447, 31307.61907191504, -0.018000000000000002, 0.982, -0.062, 192.0, 0.0, 0.0, 0.0, 0.0, 0.0, 0.0, 0.0, 0.0, 0.0, 1.6989589604831104E9, 0.0, 2023-11-02 17:02:40.483
212.0, -187500.02235174447, 187500.0, 31303.52870267972, 36261.88323043385, 187500.0, 187500.0, -187500.02235174447, 31312.134124295015, -0.018000000000000002, 0.982, -0.062, 192.0, 0.0, 0.0, 0.0, 0.0, 0.0, 0.0, 0.0, 0.0, 0.0, 1.69895896048312E9, 0.0, 2023-11-02 17:02:40.483
213.0, -187500.02235174447, 187500.0, 31298.05252528817, 36268.18642237025, 187500.0, 187500.0, -187500.02235174447, 31307.999051570783, -0.018000000000000002, 0.982, -0.062, 192.0, 0.0, 0.0, 0.0, 0.0, 0.0, 0.0, 0.0, 0.0, 0.0, 1.6989589604831297E9, 0.0, 2023-11-02 17:02:40.483
214.0, -187500.02235174447, 187500.0, 31296.107923520558, 36264.431329301755, 187500.0, 187500.0, -187500.02235174447, 31305.20508351387, -0.018000000000000002, 0.982, -0.062, 192.0, 0.0, 0.0, 0.0, 0.0, 0.0, 0.0, 0.0, 0.0, 0.0, 1.6989589604831395E9, 0.0, 2023-11-02 17:02:40.483
215.0, -187500.02235174447, 187500.0, 31299.281871233212, 36261.70441647821, 187500.0, 187500.0, -187500.02235174447, 31307.350850981577, -0.018000000000000002, 0.982, -0.062, 192.0, 0.0, 0.0, 0.0, 0.0, 0.0, 0.0, 0.0, 0.0, 0.0, 1.6989589604831488E9, 0.0, 2023-11-02 17:02:40.483
216.0, -187500.02235174447, 187500.0, 31299.99712705578, 36260.519774022076, 187500.0, 187500.0, -187500.02235174447, 31307.931996337415, -0.018000000000000002, 0.978, -0.06, 192.0, 255.0, 112.0, 30.0, 144.0, 254.0, 32.0, 0.0, 0.0, 0.0, 1.6989589604831583E9, 0.0, 2023-11-02 17:02:40.483
217.0, -187500.02235174447, 187500.0, 31300.824141600628, 36261.83852694494, 187500.0, 187500.0, -187500.02235174447, 31308.11081029306, -0.018000000000000002, 0.978, -0.06, 192.0, 0.0, 0.0, 0.0, 0.0, 0.0, 0.0, 0.0, 0.0, 0.0, 1.6989589604831688E9, 0.0, 2023-11-02 17:02:40.483
218.0, -187500.02235174447, 187500.0, 31298.723077621828, 36259.49159377714, 187500.0, 187500.0, -187500.02235174447, 31306.81440911465, -0.018000000000000002, 0.978, -0.06, 192.0, 0.0, 0.0, 0.0, 0.0, 0.0, 0.0, 0.0, 0.0, 0.0, 1.6989589604831784E9, 0.0, 2023-11-02 17:02:40.483
219.0, -187500.02235174447, 187500.0, 31297.940766565895, 36252.71901520718, 187500.0, 187500.0, -187500.02235174447, 31306.881464348015, -0.018000000000000002, 0.978, -0.06, 192.0, 0.0, 0.0, 0.0, 0.0, 0.0, 0.0, 0.0, 0.0, 0.0, 1.698958960483189E9, 0.0, 2023-11-02 17:02:40.483
220.0, -187500.02235174447, 187500.0, 31300.690031133898, 36258.351654809914, 187500.0, 187500.0, -187500.02235174447, 31311.374164983532, -0.018000000000000002, 0.978, -0.06, 192.0, 0.0, 0.0, 0.0, 0.0, 0.0, 0.0, 0.0, 0.0, 0.0, 1.698958960483199E9, 0.0, 2023-11-02 17:02:40.483
221.0, -187500.02235174447, 187500.0, 31297.046696787682, 36262.59848625642, 187500.0, 187500.0, -187500.02235174447, 31306.881464348015, -0.018000000000000002, 0.978, -0.06, 192.0, 0.0, 0.0, 0.0, 0.0, 0.0, 0.0, 0.0, 0.0, 0.0, 1.6989589604832084E9, 0.0, 2023-11-02 17:02:40.483
222.0, -187500.02235174447, 187500.0, 31303.14872302398, 36261.436195544746, 187500.0, 187500.0, -187500.02235174447, 31313.028194073224, -0.018000000000000002, 0.978, -0.06, 192.0, 0.0, 0.0, 0.0, 0.0, 0.0, 0.0, 0.0, 0.0, 0.0, 1.698958960483218E9, 0.0, 2023-11-02 17:02:40.483
223.0, -187500.02235174447, 187500.0, 31311.016537072246, 36264.47603279067, 187500.0, 187500.0, -187500.02235174447, 31318.280854020224, -0.018000000000000002, 0.978, -0.06, 192.0, 0.0, 0.0, 0.0, 0.0, 0.0, 0.0, 0.0, 0.0, 0.0, 1.6989589604832275E9, 0.0, 2023-11-02 17:02:40.483
224.0, -187500.02235174447, 187500.0, 31299.550092166675, 36258.73163446565, 187500.0, 187500.0, -187500.02235174447, 31305.987394569805, -0.018000000000000002, 0.978, -0.06, 192.0, 0.0, 0.0, 0.0, 0.0, 0.0, 0.0, 0.0, 0.0, 0.0, 1.6989589604832373E9, 0.0, 2023-11-02 17:02:40.483
225.0, -187500.02235174447, 187500.0, 31295.459722931355, 36257.79286119853, 187500.0, 187500.0, -187500.02235174447, 31301.47234218983, -0.018000000000000002, 0.978, -0.06, 192.0, 0.0, 0.0, 0.0, 0.0, 0.0, 0.0, 0.0, 0.0, 0.0, 1.6989589604832468E9, 0.0, 2023-11-02 17:02:40.483
226.0, -187500.02235174447, 187500.0, 31306.881464348015, 36259.58100075495, 187500.0, 187500.0, -187500.02235174447, 31309.317804493643, -0.014, 0.986, -0.052000000000000005, 192.0, 255.0, 144.0, 30.0, 208.0, 254.0, 96.0, 0.0, 0.0, 0.0, 1.698958960483266E9, 0.0, 2023-11-02 17:02:40.483
227.0, -187500.02235174447, 187500.0, 31313.43052547342, 36256.76468095359, 187500.0, 187500.0, -187500.02235174447, 31314.63751967401, -0.014, 0.986, -0.052000000000000005, 192.0, 0.0, 0.0, 0.0, 0.0, 0.0, 0.0, 0.0, 0.0, 0.0, 1.6989589604832764E9, 0.0, 2023-11-02 17:02:40.483
228.0, -187500.02235174447, 187500.0, 31310.010708571757, 36253.814250685486, 187500.0, 187500.0, -187500.02235174447, 31311.35181323908, -0.014, 0.986, -0.052000000000000005, 192.0, 0.0, 0.0, 0.0, 0.0, 0.0, 0.0, 0.0, 0.0, 0.0, 1.6989589609543145E9, 0.0, 2023-11-02 17:02:40.954
229.0, -187500.02235174447, 187500.0, 31301.561749167653, 36253.83660242994, 187500.0, 187500.0, -187500.02235174447, 31304.132199780015, -0.014, 0.986, -0.052000000000000005, 192.0, 0.0, 0.0, 0.0, 0.0, 0.0, 0.0, 0.0, 0.0, 0.0, 1.69895896095441E9, 0.0, 2023-11-02 17:02:40.954
230.0, -187500.02235174447, 187500.0, 31298.499560177275, 36248.561590738485, 187500.0, 187500.0, -187500.02235174447, 31301.47234218983, -0.014, 0.986, -0.052000000000000005, 192.0, 0.0, 0.0, 0.0, 0.0, 0.0, 0.0, 0.0, 0.0, 0.0, 1.6989589609544215E9, 0.0, 2023-11-02 17:02:40.954
231.0, -187500.02235174447, 187500.0, 31303.57340616863, 36249.29919830551, 187500.0, 187500.0, -187500.02235174447, 31306.590891670097, -0.014, 0.986, -0.052000000000000005, 192.0, 0.0, 0.0, 0.0, 0.0, 0.0, 0.0, 0.0, 0.0, 0.0, 1.698958960954434E9, 0.0, 2023-11-02 17:02:40.954
232.0, -187500.02235174447, 187500.0, 31307.61907191504, 36251.914352406784, 187500.0, 187500.0, -187500.02235174447, 31309.51897019374, -0.014, 0.986, -0.052000000000000005, 192.0, 0.0, 0.0, 0.0, 0.0, 0.0, 0.0, 0.0, 0.0, 0.0, 1.6989589609544454E9, 0.0, 2023-11-02 17:02:40.954
233.0, -187500.02235174447, 187500.0, 31311.39651672799, 36256.49646002012, 187500.0, 187500.0, -187500.02235174447, 31310.837723116605, -0.014, 0.986, -0.052000000000000005, 192.0, 0.0, 0.0, 0.0, 0.0, 0.0, 0.0, 0.0, 0.0, 0.0, 1.6989589609544568E9, 0.0, 2023-11-02 17:02:40.954
234.0, -187500.02235174447, 187500.0, 31306.948519581383, 36256.116480364384, 187500.0, 187500.0, -187500.02235174447, 31303.99808931328, -0.014, 0.986, -0.052000000000000005, 192.0, 0.0, 0.0, 0.0, 0.0, 0.0, 0.0, 0.0, 0.0, 0.0, 1.698958960954468E9, 0.0, 2023-11-02 17:02:40.954
235.0, -187500.02235174447, 187500.0, 31309.988356827304, 36249.63447447235, 187500.0, 187500.0, -187500.02235174447, 31306.322670736634, -0.014, 0.986, -0.052000000000000005, 192.0, 0.0, 0.0, 0.0, 0.0, 0.0, 0.0, 0.0, 0.0, 0.0, 1.6989589609544816E9, 0.0, 2023-11-02 17:02:40.954
236.0, -187500.02235174447, 187500.0, 31316.179790041424, 36251.37791053986, 187500.0, 187500.0, -187500.02235174447, 31311.86590336155, -0.022, 0.984, -0.048, 192.0, 255.0, 80.0, 30.0, 192.0, 254.0, 128.0, 0.0, 0.0, 0.0, 1.698958960954496E9, 0.0, 2023-11-02 17:02:40.954
237.0, -187500.02235174447, 187500.0, 31311.53062719472, 36252.11551810688, 187500.0, 187500.0, -187500.02235174447, 31305.830932358618, -0.022, 0.984, -0.048, 192.0, 0.0, 0.0, 0.0, 0.0, 0.0, 0.0, 0.0, 0.0, 0.0, 1.6989589609545135E9, 0.0, 2023-11-02 17:02:40.954
238.0, -187500.02235174447, 187500.0, 31313.00584232877, 36253.63543672984, 187500.0, 187500.0, -187500.02235174447, 31305.361545725056, -0.022, 0.984, -0.048, 192.0, 0.0, 0.0, 0.0, 0.0, 0.0, 0.0, 0.0, 0.0, 0.0, 1.6989589609545271E9, 0.0, 2023-11-02 17:02:40.954
239.0, -187500.02235174447, 187500.0, 31314.704574907373, 36252.65195997381, 187500.0, 187500.0, -187500.02235174447, 31302.925205579428, -0.022, 0.984, -0.048, 192.0, 0.0, 0.0, 0.0, 0.0, 0.0, 0.0, 0.0, 0.0, 0.0, 1.698958960954543E9, 0.0, 2023-11-02 17:02:40.954
240.0, -187500.02235174447, 187500.0, 31312.24588301729, 36245.81232617048, 187500.0, 187500.0, -187500.02235174447, 31297.024345043224, -0.022, 0.984, -0.048, 192.0, 0.0, 0.0, 0.0, 0.0, 0.0, 0.0, 0.0, 0.0, 0.0, 1.698958960954584E9, 0.0, 2023-11-02 17:02:40.954
241.0, -187500.02235174447, 187500.0, 31311.687089405907, 36242.772488924566, 187500.0, 187500.0, -187500.02235174447, 31294.47624617532, -0.022, 0.984, -0.048, 192.0, 0.0, 0.0, 0.0, 0.0, 0.0, 0.0, 0.0, 0.0, 0.0, 1.6989589609547024E9, 0.0, 2023-11-02 17:02:40.954
242.0, -187500.02235174447, 187500.0, 31310.681260905418, 36248.44983201621, 187500.0, 187500.0, -187500.02235174447, 31292.62105138553, -0.022, 0.984, -0.048, 192.0, 0.0, 0.0, 0.0, 0.0, 0.0, 0.0, 0.0, 0.0, 0.0, 1.6989589609547217E9, 0.0, 2023-11-02 17:02:40.954
243.0, -187500.02235174447, 187500.0, 31309.943653338392, 36240.85023890141, 187500.0, 187500.0, -187500.02235174447, 31290.452932173364, -0.022, 0.984, -0.048, 192.0, 0.0, 0.0, 0.0, 0.0, 0.0, 0.0, 0.0, 0.0, 0.0, 1.698958960954733E9, 0.0, 2023-11-02 17:02:40.954
244.0, -187500.02235174447, 187500.0, 31310.256577760767, 36234.390584753826, 187500.0, 187500.0, -187500.02235174447, 31290.296469962177, -0.022, 0.984, -0.048, 192.0, 0.0, 0.0, 0.0, 0.0, 0.0, 0.0, 0.0, 0.0, 0.0, 1.6989589609547498E9, 0.0, 2023-11-02 17:02:40.954
245.0, -187500.02235174447, 187500.0, 31309.38485972701, 36237.452773744204, 187500.0, 187500.0, -187500.02235174447, 31290.408228684453, -0.022, 0.984, -0.048, 192.0, 0.0, 0.0, 0.0, 0.0, 0.0, 0.0, 0.0, 0.0, 0.0, 1.6989589609547627E9, 0.0, 2023-11-02 17:02:40.954
246.0, -187500.02235174447, 187500.0, 31308.33432773761, 36239.15150632281, 187500.0, 187500.0, -187500.02235174447, 31287.614260627543, -0.032, 0.976, -0.048, 192.0, 255.0, 0.0, 30.0, 128.0, 254.0, 128.0, 0.0, 0.0, 0.0, 1.698958960954774E9, 0.0, 2023-11-02 17:02:40.954
247.0, -187500.02235174447, 187500.0, 31308.267272504247, 36239.956169123194, 187500.0, 187500.0, -187500.02235174447, 31288.32951645011, -0.032, 0.976, -0.048, 192.0, 0.0, 0.0, 0.0, 0.0, 0.0, 0.0, 0.0, 0.0, 0.0, 1.6989589609547887E9, 0.0, 2023-11-02 17:02:40.954
248.0, -187500.02235174447, 187500.0, 31310.52479869423, 36238.302140033506, 187500.0, 187500.0, -187500.02235174447, 31291.2352432293, -0.032, 0.976, -0.048, 192.0, 0.0, 0.0, 0.0, 0.0, 0.0, 0.0, 0.0, 0.0, 0.0, 1.6989589609548051E9, 0.0, 2023-11-02 17:02:40.954
249.0, -187500.02235174447, 187500.0, 31310.34598473859, 36238.726823178156, 187500.0, 187500.0, -187500.02235174447, 31291.57051939613, -0.032, 0.976, -0.048, 192.0, 0.0, 0.0, 0.0, 0.0, 0.0, 0.0, 0.0, 0.0, 0.0, 1.6989589609548187E9, 0.0, 2023-11-02 17:02:40.954
250.0, -187500.02235174447, 187500.0, 31306.546188181186, 36241.140811579324, 187500.0, 187500.0, -187500.02235174447, 31289.402400183964, -0.032, 0.976, -0.048, 192.0, 0.0, 0.0, 0.0, 0.0, 0.0, 0.0, 0.0, 0.0, 0.0, 1.6989589609548297E9, 0.0, 2023-11-02 17:02:40.954
251.0, -187500.02235174447, 187500.0, 31310.72596439433, 36243.1524685803, 187500.0, 187500.0, -187500.02235174447, 31293.381010697012, -0.032, 0.976, -0.048, 192.0, 0.0, 0.0, 0.0, 0.0, 0.0, 0.0, 0.0, 0.0, 0.0, 1.6989589609548469E9, 0.0, 2023-11-02 17:02:40.954
252.0, -187500.02235174447, 187500.0, 31311.016537072246, 36240.179686567746, 187500.0, 187500.0, -187500.02235174447, 31293.91745256394, -0.032, 0.976, -0.048, 192.0, 0.0, 0.0, 0.0, 0.0, 0.0, 0.0, 0.0, 0.0, 0.0, 1.6989589609548614E9, 0.0, 2023-11-02 17:02:40.954
253.0, -187500.02235174447, 187500.0, 31306.546188181186, 36232.24481728611, 187500.0, 187500.0, -187500.02235174447, 31289.67062111743, -0.032, 0.976, -0.048, 192.0, 0.0, 0.0, 0.0, 0.0, 0.0, 0.0, 0.0, 0.0, 0.0, 1.6989589609548743E9, 0.0, 2023-11-02 17:02:40.954
254.0, -187500.02235174447, 187500.0, 31302.366411968043, 36229.71907016267, 187500.0, 187500.0, -187500.02235174447, 31283.278022203212, -0.032, 0.976, -0.048, 192.0, 0.0, 0.0, 0.0, 0.0, 0.0, 0.0, 0.0, 0.0, 0.0, 1.69895896095489E9, 0.0, 2023-11-02 17:02:40.954
255.0, -187500.02235174447, 187500.0, 31305.294490491688, 36230.59078819642, 187500.0, 187500.0, -187500.02235174447, 31283.099208247568, -0.032, 0.976, -0.048, 192.0, 0.0, 0.0, 0.0, 0.0, 0.0, 0.0, 0.0, 0.0, 0.0, 1.6989589609549112E9, 0.0, 2023-11-02 17:02:40.954
0.0, -187500.02235174447, 187500.0, 31309.51897019374, 36230.45667772969, 187500.0, 187500.0, -187500.02235174447, 31285.42378967092, -0.038, 0.962, -0.05, 192.0, 254.0, 208.0, 30.0, 16.0, 254.0, 112.0, 0.0, 0.0, 0.0, 1.6989589609549687E9, 0.0, 2023-11-02 17:02:40.954
1.0, -187500.02235174447, 187500.0, 31315.084554563113, 36238.436250500235, 187500.0, 187500.0, -187500.02235174447, 31289.80473158416, -0.038, 0.962, -0.05, 192.0, 0.0, 0.0, 0.0, 0.0, 0.0, 0.0, 0.0, 0.0, 0.0, 1.698958960954986E9, 0.0, 2023-11-02 17:02:40.954
2.0, -187500.02235174447, 187500.0, 31310.010708571757, 36240.738480179134, 187500.0, 187500.0, -187500.02235174447, 31283.14391173648, -0.038, 0.962, -0.05, 192.0, 0.0, 0.0, 0.0, 0.0, 0.0, 0.0, 0.0, 0.0, 0.0, 1.6989589609549973E9, 0.0, 2023-11-02 17:02:40.954
3.0, -187500.02235174447, 187500.0, 31313.654042917973, 36244.158297080794, 187500.0, 187500.0, -187500.02235174447, 31284.19444372588, -0.038, 0.962, -0.05, 192.0, 0.0, 0.0, 0.0, 0.0, 0.0, 0.0, 0.0, 0.0, 0.0, 1.6989589609550097E9, 0.0, 2023-11-02 17:02:40.955
4.0, -187500.02235174447, 187500.0, 31323.354700011576, 36248.11455584938, 187500.0, 187500.0, -187500.02235174447, 31290.944670551384, -0.038, 0.962, -0.05, 192.0, 0.0, 0.0, 0.0, 0.0, 0.0, 0.0, 0.0, 0.0, 0.0, 1.6989589609550204E9, 0.0, 2023-11-02 17:02:40.955
5.0, -187500.02235174447, 187500.0, 31330.10492683708, 36250.9085239063, 187500.0, 187500.0, -187500.02235174447, 31296.666717131942, -0.038, 0.962, -0.05, 192.0, 0.0, 0.0, 0.0, 0.0, 0.0, 0.0, 0.0, 0.0, 0.0, 1.6989589609550445E9, 0.0, 2023-11-02 17:02:40.955
6.0, -187500.02235174447, 187500.0, 31327.556827969176, 36257.21171584269, 187500.0, 187500.0, -187500.02235174447, 31297.20315899887, -0.038, 0.962, -0.05, 192.0, 0.0, 0.0, 0.0, 0.0, 0.0, 0.0, 0.0, 0.0, 0.0, 1.698958960955056E9, 0.0, 2023-11-02 17:02:40.955
7.0, -187500.02235174447, 187500.0, 31322.86296163356, 36256.809384442495, 187500.0, 187500.0, -187500.02235174447, 31295.012688042247, -0.038, 0.962, -0.05, 192.0, 0.0, 0.0, 0.0, 0.0, 0.0, 0.0, 0.0, 0.0, 0.0, 1.698958960955068E9, 0.0, 2023-11-02 17:02:40.955
8.0, -187500.02235174447, 187500.0, 31322.43827848891, 36254.41774778578, 187500.0, 187500.0, -187500.02235174447, 31293.04573453018, -0.038, 0.962, -0.05, 192.0, 0.0, 0.0, 0.0, 0.0, 0.0, 0.0, 0.0, 0.0, 0.0, 1.6989589609550788E9, 0.0, 2023-11-02 17:02:40.955
9.0, -187500.02235174447, 187500.0, 31328.897932636493, 36254.864782674886, 187500.0, 187500.0, -187500.02235174447, 31297.56078691015, -0.038, 0.962, -0.05, 192.0, 0.0, 0.0, 0.0, 0.0, 0.0, 0.0, 0.0, 0.0, 0.0, 1.6989589609550908E9, 0.0, 2023-11-02 17:02:40.955
10.0, -187500.02235174447, 187500.0, 31326.260426790766, 36256.22823908666, 187500.0, 187500.0, -187500.02235174447, 31295.794999098183, -0.048, 0.972, -0.066, 192.0, 254.0, 128.0, 30.0, 96.0, 253.0, 240.0, 0.0, 0.0, 0.0, 1.6989589609551027E9, 0.0, 2023-11-02 17:02:40.955
11.0, -187500.02235174447, 187500.0, 31330.350796026087, 36262.64318974533, 187500.0, 187500.0, -187500.02235174447, 31299.66185088895, -0.048, 0.972, -0.066, 192.0, 0.0, 0.0, 0.0, 0.0, 0.0, 0.0, 0.0, 0.0, 0.0, 1.6989589609551153E9, 0.0, 2023-11-02 17:02:40.955
12.0, -187500.02235174447, 187500.0, 31329.836705903617, 36266.57709676946, 187500.0, 187500.0, -187500.02235174447, 31299.81831310014, -0.048, 0.972, -0.066, 192.0, 0.0, 0.0, 0.0, 0.0, 0.0, 0.0, 0.0, 0.0, 0.0, 1.6989589609551291E9, 0.0, 2023-11-02 17:02:40.955
13.0, -187500.02235174447, 187500.0, 31332.183639071423, 36265.81713745798, 187500.0, 187500.0, -187500.02235174447, 31302.187598012402, -0.048, 0.972, -0.066, 192.0, 0.0, 0.0, 0.0, 0.0, 0.0, 0.0, 0.0, 0.0, 0.0, 1.6989589609551404E9, 0.0, 2023-11-02 17:02:40.955
14.0, -187500.02235174447, 187500.0, 31334.307054794677, 36265.50421303561, 187500.0, 187500.0, -187500.02235174447, 31302.29935673468, -0.048, 0.972, -0.066, 192.0, 0.0, 0.0, 0.0, 0.0, 0.0, 0.0, 0.0, 0.0, 0.0, 1.6989589609551585E9, 0.0, 2023-11-02 17:02:40.955
15.0, -187500.02235174447, 187500.0, 31334.687034450417, 36267.73938748114, 187500.0, 187500.0, -187500.02235174447, 31300.555920667164, -0.048, 0.972, -0.066, 192.0, 0.0, 0.0, 0.0, 0.0, 0.0, 0.0, 0.0, 0.0, 0.0, 1.698958960955362E9, 0.0, 2023-11-02 17:02:40.955
16.0, -187500.02235174447, 187500.0, 31343.404214787988, 36270.108672393406, 187500.0, 187500.0, -187500.02235174447, 31306.412077714456, -0.048, 0.972, -0.066, 192.0, 0.0, 0.0, 0.0, 0.0, 0.0, 0.0, 0.0, 0.0, 0.0, 1.6989589609553976E9, 0.0, 2023-11-02 17:02:40.955
17.0, -187500.02235174447, 187500.0, 31347.96397065687, 36273.21556487269, 187500.0, 187500.0, -187500.02235174447, 31308.71430739335, -0.048, 0.972, -0.066, 192.0, 0.0, 0.0, 0.0, 0.0, 0.0, 0.0, 0.0, 0.0, 0.0, 1.6989589609554143E9, 0.0, 2023-11-02 17:02:40.955
18.0, -187500.02235174447, 187500.0, 31342.57720024314, 36273.662599761796, 187500.0, 187500.0, -187500.02235174447, 31302.72403987933, -0.048, 0.972, -0.066, 192.0, 0.0, 0.0, 0.0, 0.0, 0.0, 0.0, 0.0, 0.0, 0.0, 1.698958960955449E9, 0.0, 2023-11-02 17:02:40.955
19.0, -187500.02235174447, 187500.0, 31340.92317115345, 36276.59067828544, 187500.0, 187500.0, -187500.02235174447, 31301.070010789637, -0.048, 0.972, -0.066, 192.0, 0.0, 0.0, 0.0, 0.0, 0.0, 0.0, 0.0, 0.0, 0.0, 1.6989589609554608E9, 0.0, 2023-11-02 17:02:40.955
20.0, -187500.02235174447, 187500.0, 31343.940656654915, 36278.065893419494, 187500.0, 187500.0, -187500.02235174447, 31304.132199780015, -0.046, 0.98, -0.066, 192.0, 254.0, 144.0, 30.0, 160.0, 253.0, 240.0, 0.0, 0.0, 0.0, 1.698958960955475E9, 0.0, 2023-11-02 17:02:40.955
21.0, -187500.02235174447, 187500.0, 31342.756014198785, 36278.9599631977, 187500.0, 187500.0, -187500.02235174447, 31302.656984645964, -0.046, 0.98, -0.066, 192.0, 0.0, 0.0, 0.0, 0.0, 0.0, 0.0, 0.0, 0.0, 0.0, 1.6989589609554887E9, 0.0, 2023-11-02 17:02:40.955
22.0, -187500.02235174447, 187500.0, 31341.906647909484, 36276.121291651885, 187500.0, 187500.0, -187500.02235174447, 31300.220644500336, -0.046, 0.98, -0.066, 192.0, 0.0, 0.0, 0.0, 0.0, 0.0, 0.0, 0.0, 0.0, 0.0, 1.6989589609555025E9, 0.0, 2023-11-02 17:02:40.955
23.0, -187500.02235174447, 187500.0, 31342.934828154426, 36280.34577135393, 187500.0, 187500.0, -187500.02235174447, 31299.594795655586, -0.046, 0.98, -0.066, 192.0, 0.0, 0.0, 0.0, 0.0, 0.0, 0.0, 0.0, 0.0, 0.0, 1.6989589609555209E9, 0.0, 2023-11-02 17:02:40.955
24.0, -187500.02235174447, 187500.0, 31344.275932821743, 36281.150434154326, 187500.0, 187500.0, -187500.02235174447, 31299.885368333504, -0.046, 0.98, -0.066, 192.0, 0.0, 0.0, 0.0, 0.0, 0.0, 0.0, 0.0, 0.0, 0.0, 1.6989589609555347E9, 0.0, 2023-11-02 17:02:40.955
25.0, -187500.02235174447, 187500.0, 31347.896915423506, 36280.90456496532, 187500.0, 187500.0, -187500.02235174447, 31304.82510385813, -0.046, 0.98, -0.066, 192.0, 0.0, 0.0, 0.0, 0.0, 0.0, 0.0, 0.0, 0.0, 0.0, 1.6989589609555533E9, 0.0, 2023-11-02 17:02:40.955
26.0, -187500.02235174447, 187500.0, 31346.041720633715, 36278.5129283086, 187500.0, 187500.0, -187500.02235174447, 31303.57340616863, -0.046, 0.98, -0.066, 192.0, 0.0, 0.0, 0.0, 0.0, 0.0, 0.0, 0.0, 0.0, 0.0, 1.6989589609555674E9, 0.0, 2023-11-02 17:02:40.955
27.0, -187500.02235174447, 187500.0, 31338.553886241185, 36278.624687030875, 187500.0, 187500.0, -187500.02235174447, 31298.700725877374, -0.046, 0.98, -0.066, 192.0, 0.0, 0.0, 0.0, 0.0, 0.0, 0.0, 0.0, 0.0, 0.0, 1.6989589609555888E9, 0.0, 2023-11-02 17:02:40.955
28.0, -187500.02235174447, 187500.0, 31333.97177862785, 36268.65580900381, 187500.0, 187500.0, -187500.02235174447, 31293.5374729082, -0.046, 0.98, -0.066, 192.0, 0.0, 0.0, 0.0, 0.0, 0.0, 0.0, 0.0, 0.0, 0.0, 1.6989589609556072E9, 0.0, 2023-11-02 17:02:40.955
29.0, -187500.02235174447, 187500.0, 31334.619979217052, 36261.74911996712, 187500.0, 187500.0, -187500.02235174447, 31293.805693841663, -0.046, 0.98, -0.066, 192.0, 0.0, 0.0, 0.0, 0.0, 0.0, 0.0, 0.0, 0.0, 0.0, 1.698958960955619E9, 0.0, 2023-11-02 17:02:40.955
30.0, -187500.02235174447, 187500.0, 31331.602493715585, 36255.26711407508, 187500.0, 187500.0, -187500.02235174447, 31291.726981607317, -0.044, 0.986, -0.08, 192.0, 254.0, 160.0, 30.0, 208.0, 253.0, 128.0, 0.0, 0.0, 0.0, 1.6989589609556313E9, 0.0, 2023-11-02 17:02:40.955
31.0, -187500.02235174447, 187500.0, 31324.874618634538, 36252.94253265173, 187500.0, 187500.0, -187500.02235174447, 31284.753237337263, -0.044, 0.986, -0.08, 192.0, 0.0, 0.0, 0.0, 0.0, 0.0, 0.0, 0.0, 0.0, 0.0, 1.6989589609557137E9, 0.0, 2023-11-02 17:02:40.955
32.0, -187500.02235174447, 187500.0, 31325.791040157204, 36252.69666346272, 187500.0, 187500.0, -187500.02235174447, 31287.077818760616, -0.044, 0.986, -0.08, 192.0, 0.0, 0.0, 0.0, 0.0, 0.0, 0.0, 0.0, 0.0, 0.0, 1.698958960955727E9, 0.0, 2023-11-02 17:02:40.955
33.0, -187500.02235174447, 187500.0, 31328.495601236296, 36247.64516921582, 187500.0, 187500.0, -187500.02235174447, 31290.38587694, -0.044, 0.986, -0.08, 192.0, 0.0, 0.0, 0.0, 0.0, 0.0, 0.0, 0.0, 0.0, 0.0, 1.6989589609557376E9, 0.0, 2023-11-02 17:02:40.955
34.0, -187500.02235174447, 187500.0, 31319.82312438764, 36231.104878318896, 187500.0, 187500.0, -187500.02235174447, 31283.52389139222, -0.044, 0.986, -0.08, 192.0, 0.0, 0.0, 0.0, 0.0, 0.0, 0.0, 0.0, 0.0, 0.0, 1.6989589609557483E9, 0.0, 2023-11-02 17:02:40.955
35.0, -187500.02235174447, 187500.0, 31311.418868472443, 36219.347860735405, 187500.0, 187500.0, -187500.02235174447, 31279.210004712346, -0.044, 0.986, -0.08, 192.0, 0.0, 0.0, 0.0, 0.0, 0.0, 0.0, 0.0, 0.0, 0.0, 1.6989589609557588E9, 0.0, 2023-11-02 17:02:40.955
36.0, -187500.02235174447, 187500.0, 31305.42860095842, 36218.4984944461, 187500.0, 187500.0, -187500.02235174447, 31275.85724304405, -0.044, 0.986, -0.08, 192.0, 0.0, 0.0, 0.0, 0.0, 0.0, 0.0, 0.0, 0.0, 0.0, 1.6989589609557693E9, 0.0, 2023-11-02 17:02:40.955
37.0, -187500.02235174447, 187500.0, 31306.501484692275, 36212.53057867653, 187500.0, 187500.0, -187500.02235174447, 31273.398551153965, -0.044, 0.986, -0.08, 192.0, 0.0, 0.0, 0.0, 0.0, 0.0, 0.0, 0.0, 0.0, 0.0, 1.6989589609557796E9, 0.0, 2023-11-02 17:02:40.955
38.0, -187500.02235174447, 187500.0, 31308.781362626716, 36207.546139663, 187500.0, 187500.0, -187500.02235174447, 31274.247917443266, -0.044, 0.986, -0.08, 192.0, 0.0, 0.0, 0.0, 0.0, 0.0, 0.0, 0.0, 0.0, 0.0, 1.6989589609557903E9, 0.0, 2023-11-02 17:02:40.955
39.0, -187500.02235174447, 187500.0, 31304.311013735656, 36200.3935814373, 187500.0, 187500.0, -187500.02235174447, 31270.537527863686, -0.048, 0.986, -0.068, 192.0, 254.0, 128.0, 30.0, 208.0, 253.0, 224.0, 0.0, 0.0, 0.0, 1.6989589609558003E9, 0.0, 2023-11-02 17:02:40.955
40.0, -187500.02235174447, 187500.0, 31299.751257866774, 36195.63265986832, 187500.0, 187500.0, -187500.02235174447, 31268.458815629343, -0.048, 0.986, -0.068, 192.0, 0.0, 0.0, 0.0, 0.0, 0.0, 0.0, 0.0, 0.0, 0.0, 1.6989589609558115E9, 0.0, 2023-11-02 17:02:40.955
41.0, -187500.02235174447, 187500.0, 31296.443199687386, 36191.9893255221, 187500.0, 187500.0, -187500.02235174447, 31267.050655728657, -0.048, 0.986, -0.068, 192.0, 0.0, 0.0, 0.0, 0.0, 0.0, 0.0, 0.0, 0.0, 0.0, 1.6989589609558215E9, 0.0, 2023-11-02 17:02:40.955
42.0, -187500.02235174447, 187500.0, 31300.2876997337, 36187.45192139768, 187500.0, 187500.0, -187500.02235174447, 31269.598754596565, -0.048, 0.986, -0.068, 192.0, 0.0, 0.0, 0.0, 0.0, 0.0, 0.0, 0.0, 0.0, 0.0, 1.6989589609558313E9, 0.0, 2023-11-02 17:02:40.955
43.0, -187500.02235174447, 187500.0, 31293.738638608294, 36188.07777024243, 187500.0, 187500.0, -187500.02235174447, 31263.29556266017, -0.048, 0.986, -0.068, 192.0, 0.0, 0.0, 0.0, 0.0, 0.0, 0.0, 0.0, 0.0, 0.0, 1.6989589609558413E9, 0.0, 2023-11-02 17:02:40.955
44.0, -187500.02235174447, 187500.0, 31288.508330405755, 36184.72500857413, 187500.0, 187500.0, -187500.02235174447, 31257.797033524163, -0.048, 0.986, -0.068, 192.0, 0.0, 0.0, 0.0, 0.0, 0.0, 0.0, 0.0, 0.0, 0.0, 1.698958960955852E9, 0.0, 2023-11-02 17:02:40.955
45.0, -187500.02235174447, 187500.0, 31288.32951645011, 36187.42956965322, 187500.0, 187500.0, -187500.02235174447, 31257.193536423867, -0.048, 0.986, -0.068, 192.0, 0.0, 0.0, 0.0, 0.0, 0.0, 0.0, 0.0, 0.0, 0.0, 1.6989589609558616E9, 0.0, 2023-11-02 17:02:40.955
46.0, -187500.02235174447, 187500.0, 31290.117656006536, 36182.62394459533, 187500.0, 187500.0, -187500.02235174447, 31257.417053868423, -0.048, 0.986, -0.068, 192.0, 0.0, 0.0, 0.0, 0.0, 0.0, 0.0, 0.0, 0.0, 0.0, 1.6989589609558961E9, 0.0, 2023-11-02 17:02:40.955
47.0, -187500.02235174447, 187500.0, 31294.565653153142, 36179.226479438126, 187500.0, 187500.0, -187500.02235174447, 31260.61335332553, -0.048, 0.986, -0.068, 192.0, 0.0, 0.0, 0.0, 0.0, 0.0, 0.0, 0.0, 0.0, 0.0, 1.6989589609559069E9, 0.0, 2023-11-02 17:02:40.955
48.0, -187500.02235174447, 187500.0, 31289.223586228323, 36173.415025879745, 187500.0, 187500.0, -187500.02235174447, 31252.410263110432, -0.048, 0.986, -0.068, 192.0, 0.0, 0.0, 0.0, 0.0, 0.0, 0.0, 0.0, 0.0, 0.0, 1.6989589609559195E9, 0.0, 2023-11-02 17:02:40.955
49.0, -187500.02235174447, 187500.0, 31291.90579556296, 36169.503470600066, 187500.0, 187500.0, -187500.02235174447, 31252.164393921423, -0.056, 0.96, -0.08, 192.0, 254.0, 64.0, 30.0, 0.0, 253.0, 128.0, 0.0, 0.0, 0.0, 1.6989589609559307E9, 0.0, 2023-11-02 17:02:40.955
50.0, -187500.02235174447, 187500.0, 31296.934938065406, 36162.663836796746, 187500.0, 187500.0, -187500.02235174447, 31253.125518933004, -0.056, 0.96, -0.08, 192.0, 0.0, 0.0, 0.0, 0.0, 0.0, 0.0, 0.0, 0.0, 0.0, 1.6989589609559424E9, 0.0, 2023-11-02 17:02:40.955
51.0, -187500.02235174447, 187500.0, 31295.303260720168, 36153.54432505898, 187500.0, 187500.0, -187500.02235174447, 31249.3257223756, -0.056, 0.96, -0.08, 192.0, 0.0, 0.0, 0.0, 0.0, 0.0, 0.0, 0.0, 0.0, 0.0, 1.6989589609559543E9, 0.0, 2023-11-02 17:02:40.955
52.0, -187500.02235174447, 187500.0, 31298.320746221634, 36147.21878137813, 187500.0, 187500.0, -187500.02235174447, 31249.370425864512, -0.056, 0.96, -0.08, 192.0, 0.0, 0.0, 0.0, 0.0, 0.0, 0.0, 0.0, 0.0, 0.0, 1.6989589609559653E9, 0.0, 2023-11-02 17:02:40.955
53.0, -187500.02235174447, 187500.0, 31299.728906122316, 36152.29262736948, 187500.0, 187500.0, -187500.02235174447, 31248.2751903862, -0.056, 0.96, -0.08, 192.0, 0.0, 0.0, 0.0, 0.0, 0.0, 0.0, 0.0, 0.0, 0.0, 1.6989589609559765E9, 0.0, 2023-11-02 17:02:40.955
54.0, -187500.02235174447, 187500.0, 31302.075839290126, 36144.603627276854, 187500.0, 187500.0, -187500.02235174447, 31250.242143898267, -0.056, 0.96, -0.08, 192.0, 0.0, 0.0, 0.0, 0.0, 0.0, 0.0, 0.0, 0.0, 0.0, 1.6989589609559891E9, 0.0, 2023-11-02 17:02:40.955
55.0, -187500.02235174447, 187500.0, 31301.96408056785, 36142.100231897864, 187500.0, 187500.0, -187500.02235174447, 31249.99627470926, -0.056, 0.96, -0.08, 192.0, 0.0, 0.0, 0.0, 0.0, 0.0, 0.0, 0.0, 0.0, 0.0, 1.6989589609560013E9, 0.0, 2023-11-02 17:02:40.956
56.0, -187500.02235174447, 187500.0, 31302.3887637125, 36137.831048706896, 187500.0, 187500.0, -187500.02235174447, 31250.89034448747, -0.056, 0.96, -0.08, 192.0, 0.0, 0.0, 0.0, 0.0, 0.0, 0.0, 0.0, 0.0, 0.0, 1.6989589609560125E9, 0.0, 2023-11-02 17:02:40.956
57.0, -187500.02235174447, 187500.0, 31300.779438111716, 36138.4792492961, 187500.0, 187500.0, -187500.02235174447, 31249.616295053518, -0.056, 0.96, -0.08, 192.0, 0.0, 0.0, 0.0, 0.0, 0.0, 0.0, 0.0, 0.0, 0.0, 1.6989589609560246E9, 0.0, 2023-11-02 17:02:40.956
58.0, -187500.02235174447, 187500.0, 31300.84649334508, 36136.355833572845, 187500.0, 187500.0, -187500.02235174447, 31246.867030485515, -0.056, 0.96, -0.08, 192.0, 0.0, 0.0, 0.0, 0.0, 0.0, 0.0, 0.0, 0.0, 0.0, 1.698958960956036E9, 0.0, 2023-11-02 17:02:40.956
59.0, -187500.02235174447, 187500.0, 31300.91354857845, 36131.50550502605, 187500.0, 187500.0, -187500.02235174447, 31244.22952463979, -0.058, 0.962, -0.078, 192.0, 254.0, 48.0, 30.0, 16.0, 253.0, 144.0, 0.0, 0.0, 0.0, 1.6989589609560475E9, 0.0, 2023-11-02 17:02:40.956
60.0, -187500.02235174447, 187500.0, 31303.036964301704, 36139.10509814085, 187500.0, 187500.0, -187500.02235174447, 31246.59880955205, -0.058, 0.962, -0.078, 192.0, 0.0, 0.0, 0.0, 0.0, 0.0, 0.0, 0.0, 0.0, 0.0, 1.6989589609560611E9, 0.0, 2023-11-02 17:02:40.956
61.0, -187500.02235174447, 187500.0, 31298.901891577472, 36142.01082492004, 187500.0, 187500.0, -187500.02235174447, 31241.547315305153, -0.058, 0.962, -0.078, 192.0, 0.0, 0.0, 0.0, 0.0, 0.0, 0.0, 0.0, 0.0, 0.0, 1.6989589609560895E9, 0.0, 2023-11-02 17:02:40.956
62.0, -187500.02235174447, 187500.0, 31301.628804401018, 36145.40829007725, 187500.0, 187500.0, -187500.02235174447, 31242.66490252792, -0.058, 0.962, -0.078, 192.0, 0.0, 0.0, 0.0, 0.0, 0.0, 0.0, 0.0, 0.0, 0.0, 1.6989589609561007E9, 0.0, 2023-11-02 17:02:40.956
63.0, -187500.02235174447, 187500.0, 31303.305185235167, 36145.162420888235, 187500.0, 187500.0, -187500.02235174447, 31242.37432985, -0.058, 0.962, -0.078, 192.0, 0.0, 0.0, 0.0, 0.0, 0.0, 0.0, 0.0, 0.0, 0.0, 1.6989589609561114E9, 0.0, 2023-11-02 17:02:40.956
64.0, -187500.02235174447, 187500.0, 31299.304222977666, 36147.196429633674, 187500.0, 187500.0, -187500.02235174447, 31236.69698675835, -0.058, 0.962, -0.078, 192.0, 0.0, 0.0, 0.0, 0.0, 0.0, 0.0, 0.0, 0.0, 0.0, 1.6989589609561224E9, 0.0, 2023-11-02 17:02:40.956
65.0, -187500.02235174447, 187500.0, 31303.10401953507, 36155.041891937486, 187500.0, 187500.0, -187500.02235174447, 31241.301446116144, -0.058, 0.962, -0.078, 192.0, 0.0, 0.0, 0.0, 0.0, 0.0, 0.0, 0.0, 0.0, 0.0, 1.6989589609561327E9, 0.0, 2023-11-02 17:02:40.956
