%OpenBCI Raw EEG Data
%Number of channels = 8
%Sample Rate = 250 Hz
%Board = OpenBCI_GUI$BoardCytonSerial
Sample Index, EXG Channel 0, EXG Channel 1, EXG Channel 2, EXG Channel 3, EXG Channel 4, EXG Channel 5, EXG Channel 6, EXG Channel 7, Accel Channel 0, Accel Channel 1, Accel Channel 2, Other, Other, Other, Other, Other, Other, Other, Analog Channel 0, Analog Channel 1, Analog Channel 2, Timestamp, Other, Timestamp (Formatted)
56.0, -7180.542609756304, -15547.247594266844, -77197.38211600568, -95318.92482267915, -76814.6755474419, -38147.02935779445, -65047.130292311944, -72202.59424478939, 0.0, 0.0, 0.0, 192.0, 0.0, 0.0, 0.0, 0.0, 0.0, 0.0, 0.0, 0.0, 0.0, 1.6962774222393603E9, 0.0, 2023-10-02 16:10:22.239
57.0, -7165.768106671347, -15536.339942972654, -77185.80391237783, -95308.97829639654, -76808.59587295007, -38136.814610578374, -65045.118635310966, -72198.3921168318, 0.0, 0.0, 0.0, 192.0, 0.0, 0.0, 0.0, 0.0, 0.0, 0.0, 0.0, 0.0, 0.0, 1.6962774222393885E9, 0.0, 2023-10-02 16:10:22.239
58.0, -7157.60971994516, -15530.372027203088, -77178.58429891877, -95297.06481660185, -76799.83398912358, -38135.18293323314, -65038.3013532521, -72191.82070396194, 0.0, 0.0, 0.0, 192.0, 0.0, 0.0, 0.0, 0.0, 0.0, 0.0, 0.0, 0.0, 0.0, 1.6962774222393994E9, 0.0, 2023-10-02 16:10:22.239
59.0, -7166.125734582632, -15538.977448818381, -77184.44045596606, -95298.20475556908, -76807.61239619403, -38140.390889691225, -65042.749350398706, -72194.41350631876, 0.0, 0.0, 0.0, 192.0, 0.0, 0.0, 0.0, 0.0, 0.0, 0.0, 0.0, 0.0, 0.0, 1.6962774222394097E9, 0.0, 2023-10-02 16:10:22.239
60.0, -7166.908045638567, -15537.390474962054, -77185.87096761119, -95299.67997070313, -76813.46855324133, -38140.5026484135, -65050.66186793589, -72199.77792498803, 0.0, 0.0, 0.0, 192.0, 0.0, 0.0, 0.0, 0.0, 0.0, 0.0, 0.0, 0.0, 0.0, 1.6962774222394195E9, 0.0, 2023-10-02 16:10:22.239
61.0, -7163.622339203637, -15535.110597027613, -77182.11587454271, -95306.497252762, -76817.31305328764, -38128.857389552286, -65057.412094761385, -72206.68461402472, -0.116, 1.006, 0.006, 192.0, 252.0, 96.0, 31.0, 112.0, 0.0, 48.0, 0.0, 0.0, 0.0, 1.6962774222394292E9, 0.0, 2023-10-02 16:10:22.239
62.0, -7162.7282694254245, -15534.55180341623, -77197.20330205004, -95308.88888941871, -76816.55309397615, -38132.65718610969, -65067.38097278845, -72213.61365480586, -0.116, 1.006, 0.006, 192.0, 0.0, 0.0, 0.0, 0.0, 0.0, 0.0, 0.0, 0.0, 0.0, 1.6962774222394404E9, 0.0, 2023-10-02 16:10:22.239
63.0, -7163.42117350354, -15533.88125108257, -77196.4209909941, -95304.73146495003, -76806.78538164918, -38143.4530786816, -65061.10013259651, -72207.84690473639, -0.116, 1.006, 0.006, 192.0, 0.0, 0.0, 0.0, 0.0, 0.0, 0.0, 0.0, 0.0, 0.0, 1.6962774222394507E9, 0.0, 2023-10-02 16:10:22.239
64.0, -7170.37256602914, -15541.480844197375, -77194.3646305042, -95311.70520922009, -76812.75329741875, -38146.805840349894, -65061.68127795235, -72208.40569834778, -0.116, 1.006, 0.006, 192.0, 0.0, 0.0, 0.0, 0.0, 0.0, 0.0, 0.0, 0.0, 0.0, 1.6962774222394605E9, 0.0, 2023-10-02 16:10:22.239
65.0, -7168.942054384, -15540.005629063324, -77186.40740947812, -95318.41073255667, -76815.25669279775, -38136.00994777798, -65062.374182030464, -72203.98005294563, -0.116, 1.006, 0.006, 192.0, 0.0, 0.0, 0.0, 0.0, 0.0, 0.0, 0.0, 0.0, 0.0, 1.6962774222394705E9, 0.0, 2023-10-02 16:10:22.239
66.0, -7168.964406128455, -15540.854995352627, -77200.04197359586, -95325.92091869366, -76823.19156207939, -38136.41227917818, -65069.81731293408, -72211.84786699389, -0.116, 1.006, 0.006, 192.0, 0.0, 0.0, 0.0, 0.0, 0.0, 0.0, 0.0, 0.0, 0.0, 1.6962774222394805E9, 0.0, 2023-10-02 16:10:22.239
67.0, -7168.495019494894, -15539.759759874316, -77202.85829339724, -95318.79071221242, -76808.86409388353, -38144.95064556011, -65062.508292497194, -72202.70600351167, -0.116, 1.006, 0.006, 192.0, 0.0, 0.0, 0.0, 0.0, 0.0, 0.0, 0.0, 0.0, 0.0, 1.69627742223949E9, 0.0, 2023-10-02 16:10:22.239
68.0, -7173.680624208525, -15542.777245375783, -77194.63285143768, -95319.39420931271, -76804.77372464821, -38151.0526717964, -65052.27119353667, -72198.05684066497, -0.116, 1.006, 0.006, 192.0, 0.0, 0.0, 0.0, 0.0, 0.0, 0.0, 0.0, 0.0, 0.0, 1.6962774222394998E9, 0.0, 2023-10-02 16:10:22.239
69.0, -7177.927455655034, -15548.633402423073, -77185.468636211, -95331.88883446323, -76813.64736719697, -38146.962302561085, -65052.71822842577, -72206.32698611343, -0.116, 1.006, 0.006, 192.0, 0.0, 0.0, 0.0, 0.0, 0.0, 0.0, 0.0, 0.0, 0.0, 1.6962774222395096E9, 0.0, 2023-10-02 16:10:22.239
70.0, -7172.384223030117, -15546.2194140219, -77189.15667404613, -95330.503026307, -76812.26155904074, -38146.51526767198, -65056.987411616734, -72211.53494257152, -0.112, 1.006, 0.01, 192.0, 252.0, 128.0, 31.0, 112.0, 0.0, 80.0, 0.0, 0.0, 0.0, 1.696277422239546E9, 0.0, 2023-10-02 16:10:22.239
71.0, -7174.75350794238, -15547.515815200308, -77189.22372927949, -95328.37961058374, -76809.06525958363, -38149.37629096226, -65055.13221682695, -72208.69627102569, -0.112, 1.006, 0.01, 192.0, 0.0, 0.0, 0.0, 0.0, 0.0, 0.0, 0.0, 0.0, 0.0, 1.6962774222395656E9, 0.0, 2023-10-02 16:10:22.239
72.0, -7187.225781348441, -15557.238824038366, -77199.8184561513, -95338.05791593289, -76817.44716375438, -38164.776642891964, -65068.76678094469, -72224.72247180015, -0.112, 1.006, 0.01, 192.0, 0.0, 0.0, 0.0, 0.0, 0.0, 0.0, 0.0, 0.0, 0.0, 1.696277422239746E9, 0.0, 2023-10-02 16:10:22.239
73.0, -7178.03921437731, -15545.88413785507, -77191.66006942512, -95331.86648271877, -76813.35679451904, -38160.39570097873, -65060.921318640874, -72221.88380025432, -0.112, 1.006, 0.01, 192.0, 0.0, 0.0, 0.0, 0.0, 0.0, 0.0, 0.0, 0.0, 0.0, 1.6962774222397566E9, 0.0, 2023-10-02 16:10:22.239
74.0, -7177.256903321374, -15543.157225031522, -77196.35393576074, -95336.91797696568, -76820.88933240049, -38150.382119462745, -65062.374182030464, -72221.19089617621, -0.112, 1.006, 0.01, 192.0, 0.0, 0.0, 0.0, 0.0, 0.0, 0.0, 0.0, 0.0, 0.0, 1.6962774222397673E9, 0.0, 2023-10-02 16:10:22.239
75.0, -7172.875961408135, -15538.999800562837, -77199.41612475111, -95326.07738090484, -76812.26155904074, -38154.45013695361, -65057.03211510565, -72215.6923670402, -0.112, 1.006, 0.01, 192.0, 0.0, 0.0, 0.0, 0.0, 0.0, 0.0, 0.0, 0.0, 0.0, 1.696277422239778E9, 0.0, 2023-10-02 16:10:22.239
76.0, -7175.17819108703, -15541.369085475098, -77198.09737182825, -95320.4000378132, -76808.68527992789, -38152.55023867491, -65050.75127491371, -72207.91395996977, -0.112, 1.006, 0.01, 192.0, 0.0, 0.0, 0.0, 0.0, 0.0, 0.0, 0.0, 0.0, 0.0, 1.6962774222397883E9, 0.0, 2023-10-02 16:10:22.239
77.0, -7167.757411927869, -15532.02605629278, -77187.48029321198, -95314.67799123265, -76802.6279571805, -38140.68146236914, -65046.079760322544, -72197.25217786458, -0.112, 1.006, 0.01, 192.0, 0.0, 0.0, 0.0, 0.0, 0.0, 0.0, 0.0, 0.0, 0.0, 1.6962774222397995E9, 0.0, 2023-10-02 16:10:22.239
78.0, -7160.694260679992, -15525.387588189555, -77178.7184093855, -95312.3981132982, -76802.13621880248, -38127.47158139606, -65040.04478931961, -72193.9441196852, -0.112, 1.006, 0.01, 192.0, 0.0, 0.0, 0.0, 0.0, 0.0, 0.0, 0.0, 0.0, 0.0, 1.6962774222398124E9, 0.0, 2023-10-02 16:10:22.239
79.0, -7167.019804360843, -15532.942477815448, -77195.30340377134, -95317.13668312272, -76808.86409388353, -38131.293729697914, -65047.085588823036, -72201.38725058881, -0.112, 1.006, 0.01, 192.0, 0.0, 0.0, 0.0, 0.0, 0.0, 0.0, 0.0, 0.0, 0.0, 1.6962774222398229E9, 0.0, 2023-10-02 16:10:22.239
80.0, -7177.078089365732, -15541.369085475098, -77205.65226145415, -95319.751837224, -76812.01568985173, -38140.77086934696, -65055.959231371795, -72201.90134071128, -0.106, 1.004, 0.014, 192.0, 252.0, 176.0, 31.0, 96.0, 0.0, 112.0, 0.0, 0.0, 0.0, 1.696277422239833E9, 0.0, 2023-10-02 16:10:22.239
81.0, -7172.138353841109, -15535.065893538702, -77194.3646305042, -95313.0463138874, -76808.21589329433, -38134.55708438839, -65052.56176621459, -72198.63798602081, -0.106, 1.004, 0.014, 192.0, 0.0, 0.0, 0.0, 0.0, 0.0, 0.0, 0.0, 0.0, 0.0, 1.696277422239844E9, 0.0, 2023-10-02 16:10:22.239
82.0, -7164.650519448581, -15528.807405091216, -77183.34522048774, -95312.21929934256, -76810.85339914005, -38122.285976682426, -65047.24205103422, -72196.24634936408, -0.106, 1.004, 0.014, 192.0, 0.0, 0.0, 0.0, 0.0, 0.0, 0.0, 0.0, 0.0, 0.0, 1.6962774222398543E9, 0.0, 2023-10-02 16:10:22.239
83.0, -7166.75158342738, -15531.377855703577, -77194.45403748204, -95318.72365697905, -76817.96125387684, -38124.96818601706, -65045.900946366906, -72201.56606454446, -0.106, 1.004, 0.014, 192.0, 0.0, 0.0, 0.0, 0.0, 0.0, 0.0, 0.0, 0.0, 0.0, 1.6962774222398825E9, 0.0, 2023-10-02 16:10:22.239
84.0, -7169.590254973204, -15530.707303369916, -77198.65616543964, -95315.19208135511, -76820.2858353002, -38134.95941578858, -65051.44417899182, -72203.98005294563, -0.106, 1.004, 0.014, 192.0, 0.0, 0.0, 0.0, 0.0, 0.0, 0.0, 0.0, 0.0, 0.0, 1.6962774222398922E9, 0.0, 2023-10-02 16:10:22.239
85.0, -7166.572769471738, -15523.063006766202, -77184.17223503259, -95308.26304057396, -76814.8320096531, -38132.67953785414, -65047.46556847877, -72197.67686100923, -0.106, 1.004, 0.014, 192.0, 0.0, 0.0, 0.0, 0.0, 0.0, 0.0, 0.0, 0.0, 0.0, 1.6962774222399025E9, 0.0, 2023-10-02 16:10:22.239
86.0, -7157.833237389713, -15513.585867117152, -77178.13726402966, -95308.53126150744, -76814.72025093083, -38122.554197615886, -65047.219699289766, -72201.14138139981, -0.106, 1.004, 0.014, 192.0, 0.0, 0.0, 0.0, 0.0, 0.0, 0.0, 0.0, 0.0, 0.0, 1.696277422239912E9, 0.0, 2023-10-02 16:10:22.239
87.0, -7154.480475721416, -15512.580038616663, -77182.09352279826, -95310.20764234157, -76811.36748926253, -38124.94583427261, -65045.56567020008, -72201.20843663317, -0.106, 1.004, 0.014, 192.0, 0.0, 0.0, 0.0, 0.0, 0.0, 0.0, 0.0, 0.0, 0.0, 1.696277422239963E9, 0.0, 2023-10-02 16:10:22.239
88.0, -7167.958577627966, -15527.063969023702, -77198.723220673, -95322.83637795883, -76824.44325976889, -38140.92733155815, -65064.78817043164, -72217.7487275301, -0.106, 1.004, 0.014, 192.0, 0.0, 0.0, 0.0, 0.0, 0.0, 0.0, 0.0, 0.0, 0.0, 1.696277422239973E9, 0.0, 2023-10-02 16:10:22.239
89.0, -7174.395880031095, -15534.797672605238, -77195.90690087163, -95326.47971230504, -76828.4889255153, -38146.31410197188, -65065.63753672094, -72221.30265489849, -0.106, 1.004, 0.014, 192.0, 0.0, 0.0, 0.0, 0.0, 0.0, 0.0, 0.0, 0.0, 0.0, 1.6962774222399828E9, 0.0, 2023-10-02 16:10:22.239
90.0, -7179.201505088986, -15543.939536087459, -77193.73878165946, -95340.29309037841, -76833.89804767347, -38141.82140133636, -65072.72303971327, -72230.37746314735, -0.106, 1.008, 0.008, 192.0, 252.0, 176.0, 31.0, 128.0, 0.0, 64.0, 0.0, 0.0, 0.0, 1.6962774222399929E9, 0.0, 2023-10-02 16:10:22.239
91.0, -7179.894409167101, -15549.192196034455, -77200.4219532516, -95345.32223288086, -76835.61913199653, -38146.85054383881, -65079.80854270561, -72233.86433528237, -0.106, 1.008, 0.008, 192.0, 0.0, 0.0, 0.0, 0.0, 0.0, 0.0, 0.0, 0.0, 0.0, 1.696277422240003E9, 0.0, 2023-10-02 16:10:22.240
92.0, -7184.789441202813, -15555.517739715307, -77206.59103472126, -95342.19298865712, -76831.10407961656, -38159.92631434516, -65078.02040314918, -72230.06453872497, -0.106, 1.008, 0.008, 192.0, 0.0, 0.0, 0.0, 0.0, 0.0, 0.0, 0.0, 0.0, 0.0, 1.696277422240013E9, 0.0, 2023-10-02 16:10:22.240
93.0, -7195.250057607896, -15564.83841715317, -77207.3733457772, -95348.1609044267, -76835.59678025208, -38168.57643944937, -65078.802714205114, -72233.79728004901, -0.106, 1.008, 0.008, 192.0, 0.0, 0.0, 0.0, 0.0, 0.0, 0.0, 0.0, 0.0, 0.0, 1.6962774222400227E9, 0.0, 2023-10-02 16:10:22.240
94.0, -7195.630037263637, -15565.687783442472, -77201.9195201301, -95350.93252073915, -76833.65217848447, -38166.74359640403, -65080.74731597273, -72235.09368122742, -0.106, 1.008, 0.008, 192.0, 0.0, 0.0, 0.0, 0.0, 0.0, 0.0, 0.0, 0.0, 0.0, 1.696277422240033E9, 0.0, 2023-10-02 16:10:22.240
95.0, -7187.583409259726, -15559.518701972807, -77203.64060445316, -95345.81397125889, -76834.90387617396, -38161.37917773476, -65085.86586545299, -72233.59611434891, -0.106, 1.008, 0.008, 192.0, 0.0, 0.0, 0.0, 0.0, 0.0, 0.0, 0.0, 0.0, 0.0, 1.6962774222400427E9, 0.0, 2023-10-02 16:10:22.240
96.0, -7186.04113889231, -15556.367106004609, -77208.8262091668, -95338.43789558864, -76830.52293426072, -38167.52590745997, -65087.609301520504, -72228.74578580211, -0.106, 1.008, 0.008, 192.0, 0.0, 0.0, 0.0, 0.0, 0.0, 0.0, 0.0, 0.0, 0.0, 1.6962774222400525E9, 0.0, 2023-10-02 16:10:22.240
97.0, -7183.560095257771, -15550.578004190686, -77202.05363059684, -95326.65852626068, -76822.96804463484, -38171.146890061726, -65079.87559793897, -72220.58739907591, -0.106, 1.008, 0.008, 192.0, 0.0, 0.0, 0.0, 0.0, 0.0, 0.0, 0.0, 0.0, 0.0, 1.696277422240062E9, 0.0, 2023-10-02 16:10:22.240
98.0, -7180.855534178679, -15546.621745422095, -77193.80583689283, -95324.57981402634, -76825.27027431372, -38157.378215477256, -65076.88046418196, -72215.26768389555, -0.106, 1.008, 0.008, 192.0, 0.0, 0.0, 0.0, 0.0, 0.0, 0.0, 0.0, 0.0, 0.0, 1.6962774222400715E9, 0.0, 2023-10-02 16:10:22.240
99.0, -7184.051833635787, -15551.98616409137, -77201.11485732971, -95333.0511251749, -76841.31882683263, -38151.38794796324, -65079.56267351659, -72217.90518974129, -0.106, 1.008, 0.008, 192.0, 0.0, 0.0, 0.0, 0.0, 0.0, 0.0, 0.0, 0.0, 0.0, 1.6962774222400832E9, 0.0, 2023-10-02 16:10:22.240
100.0, -7187.270484837352, -15557.93172811648, -77216.76107844843, -95333.2969943639, -76843.2857803447, -38155.903000343205, -65081.86490319549, -72219.6933292977, -0.112, 1.004, 0.008, 192.0, 252.0, 128.0, 31.0, 96.0, 0.0, 64.0, 0.0, 0.0, 0.0, 1.696277422240093E9, 0.0, 2023-10-02 16:10:22.240
101.0, -7185.370586558651, -15553.640193181061, -77218.48216277148, -95322.00936341398, -76829.7853266937, -38153.3549014753, -65072.67833622436, -72209.92561697074, -0.112, 1.004, 0.008, 192.0, 0.0, 0.0, 0.0, 0.0, 0.0, 0.0, 0.0, 0.0, 0.0, 1.6962774222401032E9, 0.0, 2023-10-02 16:10:22.240
102.0, -7177.793345188302, -15543.224280264889, -77206.25575855444, -95312.6439824872, -76821.15755333395, -38143.877761826254, -65064.74346694273, -72201.45430582218, -0.112, 1.004, 0.008, 192.0, 0.0, 0.0, 0.0, 0.0, 0.0, 0.0, 0.0, 0.0, 0.0, 1.696277422240126E9, 0.0, 2023-10-02 16:10:22.240
103.0, -7169.903179395578, -15533.143643515545, -77195.30340377134, -95309.15711035219, -76826.09728885857, -38130.06438375287, -65062.48594075274, -72198.01213717606, -0.112, 1.004, 0.008, 192.0, 0.0, 0.0, 0.0, 0.0, 0.0, 0.0, 0.0, 0.0, 0.0, 1.6962774222401364E9, 0.0, 2023-10-02 16:10:22.240
104.0, -7169.187923573008, -15532.249573737334, -77198.1197235727, -95309.17946209664, -76826.41021328095, -38127.650395351695, -65063.87174890897, -72200.49318081059, -0.112, 1.004, 0.008, 192.0, 0.0, 0.0, 0.0, 0.0, 0.0, 0.0, 0.0, 0.0, 0.0, 1.696277422240146E9, 0.0, 2023-10-02 16:10:22.240
105.0, -7180.609664989671, -15542.821948864694, -77203.41708700861, -95314.63328774372, -76827.72896620381, -38136.12170650026, -65070.107885612, -72208.96449195915, -0.112, 1.004, 0.008, 192.0, 0.0, 0.0, 0.0, 0.0, 0.0, 0.0, 0.0, 0.0, 0.0, 1.6962774222401557E9, 0.0, 2023-10-02 16:10:22.240
106.0, -7174.8205631757455, -15538.083379040168, -77190.34131650225, -95308.21833708505, -76820.86698065604, -38135.428802422146, -65064.81052217609, -72204.42708783473, -0.112, 1.004, 0.008, 192.0, 0.0, 0.0, 0.0, 0.0, 0.0, 0.0, 0.0, 0.0, 0.0, 1.6962774222401655E9, 0.0, 2023-10-02 16:10:22.240
107.0, -7165.432830504517, -15531.154338259023, -77176.4161797066, -95302.51864224895, -76816.66485269844, -38125.5493313729, -65057.47914999475, -72197.20747437567, -0.112, 1.004, 0.008, 192.0, 0.0, 0.0, 0.0, 0.0, 0.0, 0.0, 0.0, 0.0, 0.0, 1.6962774222401752E9, 0.0, 2023-10-02 16:10:22.240
108.0, -7166.997452616389, -15533.344809215643, -77181.98176407597, -95303.12213934925, -76822.65512021245, -38124.096467983305, -65058.08264709505, -72200.49318081059, -0.112, 1.004, 0.008, 192.0, 0.0, 0.0, 0.0, 0.0, 0.0, 0.0, 0.0, 0.0, 0.0, 1.6962774222401848E9, 0.0, 2023-10-02 16:10:22.240
109.0, -7175.200542831486, -15538.038675551257, -77199.25966253993, -95306.22903182854, -76822.85628591255, -38136.054651266895, -65060.54133898513, -72202.99657618959, -0.112, 1.004, 0.008, 192.0, 0.0, 0.0, 0.0, 0.0, 0.0, 0.0, 0.0, 0.0, 0.0, 1.6962774222401943E9, 0.0, 2023-10-02 16:10:22.240
110.0, -7175.17819108703, -15539.893870341048, -77191.32479325829, -95303.47976726053, -76817.9836056213, -38139.69798561311, -65053.41113250389, -72200.20260813268, -0.11800000000000001, 1.0, 0.01, 192.0, 252.0, 80.0, 31.0, 64.0, 0.0, 80.0, 0.0, 0.0, 0.0, 1.696277422240204E9, 0.0, 2023-10-02 16:10:22.240
111.0, -7171.80307767428, -15543.02311456479, -77177.60082216273, -95309.31357256336, -76822.76687893474, -38132.478372154044, -65054.77458891566, -72204.76236400157, -0.11800000000000001, 1.0, 0.01, 192.0, 0.0, 0.0, 0.0, 0.0, 0.0, 0.0, 0.0, 0.0, 0.0, 1.6962774222402148E9, 0.0, 2023-10-02 16:10:22.240
112.0, -7166.1927898159975, -15543.64896340954, -77181.15474953112, -95308.33009580734, -76820.62111146703, -38137.3510524453, -65060.04960060711, -72208.0927739254, -0.11800000000000001, 1.0, 0.01, 192.0, 0.0, 0.0, 0.0, 0.0, 0.0, 0.0, 0.0, 0.0, 0.0, 1.6962774222402248E9, 0.0, 2023-10-02 16:10:22.240
113.0, -7173.121830597142, -15551.248556524344, -77190.34131650225, -95310.9005464197, -76820.44229751138, -38150.96326481858, -65065.16815008738, -72209.09860242589, -0.11800000000000001, 1.0, 0.01, 192.0, 0.0, 0.0, 0.0, 0.0, 0.0, 0.0, 0.0, 0.0, 0.0, 1.6962774222402344E9, 0.0, 2023-10-02 16:10:22.240
114.0, -7180.520258011849, -15554.668373426006, -77188.59788043474, -95313.49334877651, -76825.91847490294, -38150.31506422938, -65068.29739431112, -72206.81872449144, -0.11800000000000001, 1.0, 0.01, 192.0, 0.0, 0.0, 0.0, 0.0, 0.0, 0.0, 0.0, 0.0, 0.0, 1.696277422240244E9, 0.0, 2023-10-02 16:10:22.240
115.0, -7170.37256602914, -15545.101826799135, -77172.83990059375, -95304.53029924993, -76820.19642832238, -38137.999253034504, -65064.58700473154, -72199.97909068812, -0.11800000000000001, 1.0, 0.01, 192.0, 0.0, 0.0, 0.0, 0.0, 0.0, 0.0, 0.0, 0.0, 0.0, 1.6962774222402537E9, 0.0, 2023-10-02 16:10:22.240
116.0, -7166.058679349266, -15543.112521542613, -77170.18004300357, -95303.01038062696, -76821.26931205623, -38135.272340210955, -65071.1584176014, -72194.25704410757, -0.11800000000000001, 1.0, 0.01, 192.0, 0.0, 0.0, 0.0, 0.0, 0.0, 0.0, 0.0, 0.0, 0.0, 1.6962774222402632E9, 0.0, 2023-10-02 16:10:22.240
117.0, -7175.17819108703, -15552.74612340285, -77185.2674705109, -95309.11240686326, -76827.12546910351, -38150.22565725156, -65082.62486250697, -72203.28714886752, -0.11800000000000001, 1.0, 0.01, 192.0, 0.0, 0.0, 0.0, 0.0, 0.0, 0.0, 0.0, 0.0, 0.0, 1.696277422240297E9, 0.0, 2023-10-02 16:10:22.240
118.0, -7176.742813198903, -15555.60714669313, -77189.35783974623, -95306.81017718436, -76823.2362655683, -38155.210096265095, -65081.887254939946, -72206.3940413468, -0.11800000000000001, 1.0, 0.01, 192.0, 0.0, 0.0, 0.0, 0.0, 0.0, 0.0, 0.0, 0.0, 0.0, 1.696277422240307E9, 0.0, 2023-10-02 16:10:22.240
119.0, -7167.802115416779, -15547.404056478032, -77178.5172436854, -95300.41757827015, -76814.85436139755, -38142.44725018111, -65073.438295535845, -72196.11223889736, -0.11800000000000001, 1.0, 0.01, 192.0, 0.0, 0.0, 0.0, 0.0, 0.0, 0.0, 0.0, 0.0, 0.0, 1.6962774222403166E9, 0.0, 2023-10-02 16:10:22.240
120.0, -7169.076164850732, -15548.834568123171, -77180.14892103063, -95307.03369462892, -76819.81644866664, -38138.714508857076, -65076.232263592756, -72196.87219820883, -0.116, 1.002, 0.01, 192.0, 252.0, 96.0, 31.0, 80.0, 0.0, 80.0, 0.0, 0.0, 0.0, 1.6962774222403276E9, 0.0, 2023-10-02 16:10:22.240
121.0, -7171.80307767428, -15549.862748368116, -77194.61049969323, -95307.63719172921, -76817.67068119893, -38152.326721230354, -65078.84741769403, -72198.05684066497, -0.116, 1.002, 0.01, 192.0, 0.0, 0.0, 0.0, 0.0, 0.0, 0.0, 0.0, 0.0, 0.0, 1.696277422240338E9, 0.0, 2023-10-02 16:10:22.240
122.0, -7176.273426565341, -15554.511911214819, -77191.83888338077, -95307.70424696259, -76816.82131490963, -38157.82525036636, -65079.60737700551, -72192.91593944025, -0.116, 1.002, 0.01, 192.0, 0.0, 0.0, 0.0, 0.0, 0.0, 0.0, 0.0, 0.0, 0.0, 1.6962774222403476E9, 0.0, 2023-10-02 16:10:22.240
123.0, -7181.436679534517, -15560.770399662306, -77188.70963915702, -95316.86846218926, -76822.45395451236, -38145.777660104955, -65076.858112437505, -72198.99561393209, -0.116, 1.002, 0.01, 192.0, 0.0, 0.0, 0.0, 0.0, 0.0, 0.0, 0.0, 0.0, 0.0, 1.6962774222403572E9, 0.0, 2023-10-02 16:10:22.240
124.0, -7173.546513741793, -15558.401114750042, -77191.28008976938, -95318.07545638985, -76818.72121318833, -38139.42976467965, -65067.8056559331, -72201.87898896683, -0.116, 1.002, 0.01, 192.0, 0.0, 0.0, 0.0, 0.0, 0.0, 0.0, 0.0, 0.0, 0.0, 1.6962774222403672E9, 0.0, 2023-10-02 16:10:22.240
125.0, -7177.502772510383, -15563.98905086387, -77197.0244880944, -95320.89177619122, -76825.29262605819, -38142.67076762566, -65067.40332453291, -72200.20260813268, -0.116, 1.002, 0.01, 192.0, 0.0, 0.0, 0.0, 0.0, 0.0, 0.0, 0.0, 0.0, 0.0, 1.6962774222403767E9, 0.0, 2023-10-02 16:10:22.240
126.0, -7176.496944009894, -15560.010440350825, -77190.67659266909, -95315.68381973312, -76819.99526262228, -38154.65130265371, -65066.844530921524, -72204.60590179038, -0.116, 1.002, 0.01, 192.0, 0.0, 0.0, 0.0, 0.0, 0.0, 0.0, 0.0, 0.0, 0.0, 1.6962774222403865E9, 0.0, 2023-10-02 16:10:22.240
127.0, -7173.121830597142, -15558.088190327668, -77176.90791808462, -95316.66729648916, -76819.32471028861, -38151.16443051868, -65059.62491746246, -72206.75166925808, -0.116, 1.002, 0.01, 192.0, 0.0, 0.0, 0.0, 0.0, 0.0, 0.0, 0.0, 0.0, 0.0, 1.696277422240396E9, 0.0, 2023-10-02 16:10:22.240
128.0, -7162.303586280774, -15551.002687335336, -77170.22474649247, -95313.56040400987, -76816.84366665408, -38143.27426472596, -65058.93201338435, -72207.28811112502, -0.116, 1.002, 0.01, 192.0, 0.0, 0.0, 0.0, 0.0, 0.0, 0.0, 0.0, 0.0, 0.0, 1.6962774222404056E9, 0.0, 2023-10-02 16:10:22.240
129.0, -7162.214179302952, -15550.421541979498, -77170.9176505706, -95310.65467723069, -76816.26252129824, -38145.911770571685, -65061.189539574334, -72209.18800940372, -0.116, 1.002, 0.01, 192.0, 0.0, 0.0, 0.0, 0.0, 0.0, 0.0, 0.0, 0.0, 0.0, 1.6962774222404153E9, 0.0, 2023-10-02 16:10:22.240
130.0, -7166.528065982827, -15553.863710625616, -77178.98663031896, -95307.3466190513, -76811.85922764054, -38156.57355267686, -65059.04377210663, -72206.25993088007, -0.122, 1.004, 0.012, 192.0, 252.0, 48.0, 31.0, 96.0, 0.0, 96.0, 0.0, 0.0, 0.0, 1.696277422240425E9, 0.0, 2023-10-02 16:10:22.240
131.0, -7173.300644552785, -15557.574100205196, -77179.5677756748, -95317.6507732452, -76818.78826842169, -38155.4559654541, -65058.77555117316, -72203.77888724553, -0.122, 1.004, 0.012, 192.0, 0.0, 0.0, 0.0, 0.0, 0.0, 0.0, 0.0, 0.0, 0.0, 1.6962774222404351E9, 0.0, 2023-10-02 16:10:22.240
132.0, -7161.7894961583015, -15545.817082621705, -77177.220842507, -95312.62163074275, -76813.40149800795, -38143.050747281406, -65055.06516159358, -72199.97909068812, -0.122, 1.004, 0.012, 192.0, 0.0, 0.0, 0.0, 0.0, 0.0, 0.0, 0.0, 0.0, 0.0, 1.696277422240445E9, 0.0, 2023-10-02 16:10:22.240
133.0, -7167.198618316486, -15553.93076585898, -77181.71354314251, -95315.7508749665, -76818.90002714396, -38138.46863966807, -65046.75031265621, -72197.49804705358, -0.122, 1.004, 0.012, 192.0, 0.0, 0.0, 0.0, 0.0, 0.0, 0.0, 0.0, 0.0, 0.0, 1.6962774222404633E9, 0.0, 2023-10-02 16:10:22.240
134.0, -7181.101403367687, -15570.404001522542, -77200.60076720724, -95326.74793323851, -76830.50058251627, -38153.28784624193, -65058.79790291761, -72211.4902390826, -0.122, 1.004, 0.012, 192.0, 0.0, 0.0, 0.0, 0.0, 0.0, 0.0, 0.0, 0.0, 0.0, 1.6962774222404728E9, 0.0, 2023-10-02 16:10:22.240
135.0, -7176.787516687813, -15565.732486931383, -77200.28784278486, -95319.70713373508, -76822.52100974572, -38154.47248869807, -65059.91549014038, -72206.66226228027, -0.122, 1.004, 0.012, 192.0, 0.0, 0.0, 0.0, 0.0, 0.0, 0.0, 0.0, 0.0, 0.0, 1.6962774222404826E9, 0.0, 2023-10-02 16:10:22.240
136.0, -7167.332728783218, -15558.959908361425, -77188.55317694583, -95317.62842150073, -76819.86115215554, -38137.21694197857, -65053.232318548246, -72201.96839594464, -0.122, 1.004, 0.012, 192.0, 0.0, 0.0, 0.0, 0.0, 0.0, 0.0, 0.0, 0.0, 0.0, 1.696277422240492E9, 0.0, 2023-10-02 16:10:22.240
137.0, -7167.399784016584, -15558.825797894693, -77193.55996770383, -95322.94813668111, -76826.56667549214, -38137.798087334406, -65058.57438547306, -72205.16469540176, -0.122, 1.004, 0.012, 192.0, 0.0, 0.0, 0.0, 0.0, 0.0, 0.0, 0.0, 0.0, 0.0, 1.6962774222405019E9, 0.0, 2023-10-02 16:10:22.240
138.0, -7170.529028240327, -15556.836492638171, -77202.56772071931, -95319.32715407935, -76823.45978301285, -38151.38794796324, -65065.01168787619, -72207.80220124748, -0.122, 1.004, 0.012, 192.0, 0.0, 0.0, 0.0, 0.0, 0.0, 0.0, 0.0, 0.0, 0.0, 1.6962774222405117E9, 0.0, 2023-10-02 16:10:22.240
139.0, -7170.75254568488, -15554.131931559079, -77195.6163281937, -95320.17652036865, -76820.2858353002, -38156.86412535478, -65060.45193200731, -72204.9411779572, -0.122, 1.004, 0.012, 192.0, 0.0, 0.0, 0.0, 0.0, 0.0, 0.0, 0.0, 0.0, 0.0, 1.6962774222405212E9, 0.0, 2023-10-02 16:10:22.240
140.0, -7165.946920626989, -15549.460416967919, -77191.4142002361, -95321.96465992507, -76821.80575392315, -38146.31410197188, -65057.30033603911, -72203.30950061197, -0.12, 1.0, 0.016, 192.0, 252.0, 64.0, 31.0, 64.0, 0.0, 128.0, 0.0, 0.0, 0.0, 1.6962774222405324E9, 0.0, 2023-10-02 16:10:22.240
141.0, -7163.801153159279, -15548.454588467432, -77190.5648339468, -95321.58468026933, -76821.7834021787, -38139.02743327945, -65053.32172552607, -72203.44361107869, -0.12, 1.0, 0.016, 192.0, 0.0, 0.0, 0.0, 0.0, 0.0, 0.0, 0.0, 0.0, 0.0, 1.696277422240543E9, 0.0, 2023-10-02 16:10:22.240
142.0, -7176.184019587519, -15559.78692290627, -77205.24993005395, -95331.26298561848, -76827.2819313147, -38149.21982875107, -65060.02724886266, -72211.82551524944, -0.12, 1.0, 0.016, 192.0, 0.0, 0.0, 0.0, 0.0, 0.0, 0.0, 0.0, 0.0, 0.0, 1.6962774222405536E9, 0.0, 2023-10-02 16:10:22.240
143.0, -7184.320054569252, -15567.118295087612, -77215.03999412537, -95336.29212812093, -76835.21680059633, -38158.54050618893, -65069.32557455607, -72218.30752114148, -0.12, 1.0, 0.016, 192.0, 0.0, 0.0, 0.0, 0.0, 0.0, 0.0, 0.0, 0.0, 0.0, 1.6962774222405632E9, 0.0, 2023-10-02 16:10:22.240
144.0, -7175.491115509405, -15560.79275140676, -77203.43943875306, -95330.48067456254, -76826.25375106976, -38148.5045729285, -65062.82121691957, -72210.14913441529, -0.12, 1.0, 0.016, 192.0, 0.0, 0.0, 0.0, 0.0, 0.0, 0.0, 0.0, 0.0, 0.0, 1.6962774222405727E9, 0.0, 2023-10-02 16:10:22.240
145.0, -7167.735060183413, -15555.473036226396, -77200.60076720724, -95324.62451751526, -76820.9340358894, -38139.98855829103, -65050.840681891525, -72201.36489884436, -0.12, 1.0, 0.016, 192.0, 0.0, 0.0, 0.0, 0.0, 0.0, 0.0, 0.0, 0.0, 0.0, 1.6962774222405825E9, 0.0, 2023-10-02 16:10:22.240
146.0, -7174.597045731193, -15562.871463641104, -77211.7766394349, -95329.92188095117, -76819.45882075535, -38151.20913400759, -65049.70074292431, -72205.00823319057, -0.12, 1.0, 0.016, 192.0, 0.0, 0.0, 0.0, 0.0, 0.0, 0.0, 0.0, 0.0, 0.0, 1.696277422240592E9, 0.0, 2023-10-02 16:10:22.240
147.0, -7177.6368829771145, -15566.090114842667, -77210.10025860075, -95324.73627623753, -76813.69207068588, -38158.205230022104, -65043.39755098791, -72199.91203545476, -0.12, 1.0, 0.016, 192.0, 0.0, 0.0, 0.0, 0.0, 0.0, 0.0, 0.0, 0.0, 0.0, 1.6962774222406015E9, 0.0, 2023-10-02 16:10:22.240
148.0, -7177.145144599098, -15562.156207818534, -77202.2771480414, -95328.22314837255, -76814.92141663092, -38152.3043694859, -65047.01853358967, -72199.77792498803, -0.12, 1.0, 0.016, 192.0, 0.0, 0.0, 0.0, 0.0, 0.0, 0.0, 0.0, 0.0, 0.0, 1.6962774222406197E9, 0.0, 2023-10-02 16:10:22.240
149.0, -7174.954673642478, -15556.210643793422, -77203.73001143099, -95330.90535770719, -76817.29070154318, -38140.92733155815, -65050.75127491371, -72202.41543083376, -0.12, 1.0, 0.016, 192.0, 0.0, 0.0, 0.0, 0.0, 0.0, 0.0, 0.0, 0.0, 0.0, 1.6962774222406309E9, 0.0, 2023-10-02 16:10:22.240
150.0, -7175.357005042673, -15557.194120549455, -77214.63766272517, -95328.91605245067, -76818.6765096994, -38144.302444970905, -65056.4062662609, -72207.10929716937, -0.122, 0.998, 0.016, 192.0, 252.0, 48.0, 31.0, 48.0, 0.0, 128.0, 0.0, 0.0, 0.0, 1.6962774222406409E9, 0.0, 2023-10-02 16:10:22.240
151.0, -7169.970234628944, -15550.354486746131, -77211.73193594598, -95316.24261334451, -76807.81356189413, -38146.73878511653, -65048.65021093491, -72203.22009363414, -0.122, 0.998, 0.016, 192.0, 0.0, 0.0, 0.0, 0.0, 0.0, 0.0, 0.0, 0.0, 0.0, 1.6962774222406511E9, 0.0, 2023-10-02 16:10:22.240
152.0, -7171.601911974181, -15550.890928613058, -77201.71835443, -95318.63425000123, -76812.95446311885, -38138.6027501348, -65048.24787953471, -72204.38238434582, -0.122, 0.998, 0.016, 192.0, 0.0, 0.0, 0.0, 0.0, 0.0, 0.0, 0.0, 0.0, 0.0, 1.696277422240661E9, 0.0, 2023-10-02 16:10:22.240
153.0, -7172.4736300079385, -15554.444855981454, -77201.00309860744, -95327.999630928, -76820.2858353002, -38134.93706404413, -65056.31685928308, -72212.92075072775, -0.122, 0.998, 0.016, 192.0, 0.0, 0.0, 0.0, 0.0, 0.0, 0.0, 0.0, 0.0, 0.0, 1.6962774222406704E9, 0.0, 2023-10-02 16:10:22.240
154.0, -7178.530952755327, -15560.926861873491, -77221.05261338384, -95335.48746532053, -76827.19252433689, -38147.14111651672, -65073.93003391386, -72223.94016074421, -0.122, 0.998, 0.016, 192.0, 0.0, 0.0, 0.0, 0.0, 0.0, 0.0, 0.0, 0.0, 0.0, 1.69627742224068E9, 0.0, 2023-10-02 16:10:22.240
155.0, -7177.838048677212, -15560.189254306468, -77224.13715411868, -95328.98310768403, -76819.43646901089, -38158.495802700025, -65071.11371411249, -72217.01111996306, -0.122, 0.998, 0.016, 192.0, 0.0, 0.0, 0.0, 0.0, 0.0, 0.0, 0.0, 0.0, 0.0, 1.6962774222406895E9, 0.0, 2023-10-02 16:10:22.240
156.0, -7178.799173688791, -15562.26796654081, -77220.73968896148, -95330.16775014017, -76820.68816670039, -38154.785413120444, -65065.90575765441, -72216.60878856288, -0.122, 0.998, 0.016, 192.0, 0.0, 0.0, 0.0, 0.0, 0.0, 0.0, 0.0, 0.0, 0.0, 1.6962774222406995E9, 0.0, 2023-10-02 16:10:22.240
157.0, -7175.915798654056, -15560.658640940028, -77223.51130527393, -95333.56521529738, -76824.51031500225, -38141.19555249161, -65065.43637102084, -72215.29003564, -0.122, 0.998, 0.016, 192.0, 0.0, 0.0, 0.0, 0.0, 0.0, 0.0, 0.0, 0.0, 0.0, 1.6962774222407093E9, 0.0, 2023-10-02 16:10:22.240
158.0, -7173.211237574964, -15559.585757206174, -77234.37425307921, -95334.90631996469, -76825.67260571392, -38143.251912981505, -65078.24392059373, -72220.58739907591, -0.122, 0.998, 0.016, 192.0, 0.0, 0.0, 0.0, 0.0, 0.0, 0.0, 0.0, 0.0, 0.0, 1.696277422240719E9, 0.0, 2023-10-02 16:10:22.240
159.0, -7172.920664897045, -15559.742219417361, -77228.04870939835, -95325.45153206009, -76816.9777771208, -38151.83498285234, -65075.22643509227, -72213.90422748378, -0.122, 0.998, 0.016, 192.0, 0.0, 0.0, 0.0, 0.0, 0.0, 0.0, 0.0, 0.0, 0.0, 1.6962774222407286E9, 0.0, 2023-10-02 16:10:22.240
160.0, -7177.860400421668, -15564.816065408715, -77220.62793023919, -95332.33586935233, -76819.05648935515, -38153.06432879738, -65077.01457464869, -72212.83134374993, -0.11800000000000001, 1.004, 0.012, 192.0, 252.0, 80.0, 31.0, 96.0, 0.0, 96.0, 0.0, 0.0, 0.0, 1.6962774222407384E9, 0.0, 2023-10-02 16:10:22.240
161.0, -7172.808906174768, -15557.618803694108, -77216.35874704823, -95332.2017588856, -76814.96612011983, -38149.331587473345, -65076.14285661493, -72214.03833795051, -0.11800000000000001, 1.004, 0.012, 192.0, 0.0, 0.0, 0.0, 0.0, 0.0, 0.0, 0.0, 0.0, 0.0, 1.6962774222407484E9, 0.0, 2023-10-02 16:10:22.240
162.0, -7170.327862540229, -15559.138722317068, -77212.00015687945, -95329.2513286175, -76810.92045437342, -38147.431689194644, -65071.404286790406, -72213.3454338724, -0.11800000000000001, 1.004, 0.012, 192.0, 0.0, 0.0, 0.0, 0.0, 0.0, 0.0, 0.0, 0.0, 0.0, 1.696277422240758E9, 0.0, 2023-10-02 16:10:22.240
163.0, -7177.122792854642, -15566.917129387515, -77214.90588365863, -95333.2969943639, -76813.40149800795, -38156.3053317434, -65075.1593798589, -72213.5465995725, -0.11800000000000001, 1.004, 0.012, 192.0, 0.0, 0.0, 0.0, 0.0, 0.0, 0.0, 0.0, 0.0, 0.0, 1.6962774222407768E9, 0.0, 2023-10-02 16:10:22.240
164.0, -7179.80500218928, -15566.17952182049, -77212.11191560172, -95334.59339554232, -76810.58517820659, -38157.422918966164, -65074.73469671425, -72211.0432041935, -0.11800000000000001, 1.004, 0.012, 192.0, 0.0, 0.0, 0.0, 0.0, 0.0, 0.0, 0.0, 0.0, 0.0, 1.6962774222407863E9, 0.0, 2023-10-02 16:10:22.240
165.0, -7178.173324844042, -15565.285452042277, -77200.69017418506, -95341.96947121256, -76817.1789428209, -38146.42586069416, -65074.44412403633, -72210.6408727933, -0.11800000000000001, 1.004, 0.012, 192.0, 0.0, 0.0, 0.0, 0.0, 0.0, 0.0, 0.0, 0.0, 0.0, 1.696277422240796E9, 0.0, 2023-10-02 16:10:22.240
166.0, -7178.799173688791, -15567.520626487807, -77206.971014377, -95347.04331720392, -76819.16824807743, -38144.59301764882, -65072.097190868524, -72216.38527111831, -0.11800000000000001, 1.004, 0.012, 192.0, 0.0, 0.0, 0.0, 0.0, 0.0, 0.0, 0.0, 0.0, 0.0, 1.6962774222408059E9, 0.0, 2023-10-02 16:10:22.240
167.0, -7186.063490636765, -15570.202835822445, -77218.59392149377, -95345.38928811424, -76816.26252129824, -38154.69600614262, -65065.99516463222, -72215.93823622921, -0.11800000000000001, 1.004, 0.012, 192.0, 0.0, 0.0, 0.0, 0.0, 0.0, 0.0, 0.0, 0.0, 0.0, 1.6962774222408156E9, 0.0, 2023-10-02 16:10:22.240
168.0, -7194.244229107408, -15573.488542257375, -77219.06330812733, -95344.33875612484, -76817.55892247664, -38156.59590442132, -65064.36348728699, -72216.2958641405, -0.11800000000000001, 1.004, 0.012, 192.0, 0.0, 0.0, 0.0, 0.0, 0.0, 0.0, 0.0, 0.0, 0.0, 1.6962774222408252E9, 0.0, 2023-10-02 16:10:22.240
169.0, -7190.220915105452, -15569.085248599678, -77209.94379638956, -95340.96364271209, -76820.75522193375, -38149.890381084726, -65064.005859375706, -72216.8993612408, -0.11800000000000001, 1.004, 0.012, 192.0, 0.0, 0.0, 0.0, 0.0, 0.0, 0.0, 0.0, 0.0, 0.0, 1.6962774222408347E9, 0.0, 2023-10-02 16:10:22.240
170.0, -7182.733080712925, -15563.0726293412, -77208.93796788907, -95335.82274148735, -76820.39759402246, -38144.12363101526, -65061.92714714136, -72212.71958502765, -0.11800000000000001, 1.002, 0.024, 192.0, 252.0, 80.0, 31.0, 80.0, 0.0, 192.0, 0.0, 0.0, 0.0, 1.6962774222408645E9, 0.0, 2023-10-02 16:10:22.240
171.0, -7187.628112748637, -15565.46426599792, -77217.52103775991, -95332.98406994154, -76817.71538468784, -38147.230523494545, -65059.5578622291, -72208.31629136995, -0.11800000000000001, 1.002, 0.024, 192.0, 0.0, 0.0, 0.0, 0.0, 0.0, 0.0, 0.0, 0.0, 0.0, 1.6962774222408757E9, 0.0, 2023-10-02 16:10:22.240
172.0, -7197.038197164321, -15568.705268943939, -77217.31987205982, -95337.16384615468, -76820.06231785564, -38152.28201774145, -65057.36739127248, -72203.35420410088, -0.11800000000000001, 1.002, 0.024, 192.0, 0.0, 0.0, 0.0, 0.0, 0.0, 0.0, 0.0, 0.0, 0.0, 1.6962774222408855E9, 0.0, 2023-10-02 16:10:22.240
173.0, -7201.553249544293, -15573.108562601634, -77219.80091569434, -95348.09384919332, -76831.66287322795, -38151.007968307495, -65068.76678094469, -72214.35126237289, -0.11800000000000001, 1.002, 0.024, 192.0, 0.0, 0.0, 0.0, 0.0, 0.0, 0.0, 0.0, 0.0, 0.0, 1.6962774222408955E9, 0.0, 2023-10-02 16:10:22.240
174.0, -7189.371548816151, -15565.441914253464, -77217.05165112634, -95341.6565467902, -76827.17017259242, -38146.09058452733, -65068.29739431112, -72215.4464978512, -0.11800000000000001, 1.002, 0.024, 192.0, 0.0, 0.0, 0.0, 0.0, 0.0, 0.0, 0.0, 0.0, 0.0, 1.6962774222409055E9, 0.0, 2023-10-02 16:10:22.240
175.0, -7196.680569253036, -15571.633347467585, -77228.20517160954, -95345.92572998116, -76829.00301563776, -38152.88551484174, -65069.39262978943, -72220.18506767572, -0.11800000000000001, 1.002, 0.024, 192.0, 0.0, 0.0, 0.0, 0.0, 0.0, 0.0, 0.0, 0.0, 0.0, 1.6962774222409155E9, 0.0, 2023-10-02 16:10:22.240
176.0, -7203.207278633986, -15575.209626580434, -77237.9281804476, -95348.1609044267, -76835.21680059633, -38165.02251208097, -65076.34402231503, -72227.33762590142, -0.11800000000000001, 1.002, 0.024, 192.0, 0.0, 0.0, 0.0, 0.0, 0.0, 0.0, 0.0, 0.0, 0.0, 1.6962774222409256E9, 0.0, 2023-10-02 16:10:22.240
177.0, -7190.645598250103, -15562.513835729818, -77221.67846222859, -95334.81691298688, -76826.00788188075, -38153.77958461995, -65067.82800767756, -72221.66028280977, -0.11800000000000001, 1.002, 0.024, 192.0, 0.0, 0.0, 0.0, 0.0, 0.0, 0.0, 0.0, 0.0, 0.0, 1.6962774222409356E9, 0.0, 2023-10-02 16:10:22.240
178.0, -7185.594104003204, -15560.613937451119, -77215.5764359923, -95335.17454089815, -76824.59972198006, -38139.56387514638, -65061.92714714136, -72217.63696880781, -0.11800000000000001, 1.002, 0.024, 192.0, 0.0, 0.0, 0.0, 0.0, 0.0, 0.0, 0.0, 0.0, 0.0, 1.696277422240993E9, 0.0, 2023-10-02 16:10:22.240
0.0, 0.0, 0.0, 0.0, 0.0, 0.0, 0.0, 0.0, 0.0, -0.11800000000000001, 1.002, 0.024, 192.0, 0.0, 0.0, 0.0, 0.0, 0.0, 0.0, 0.0, 0.0, 0.0, 1.6962774223326793E9, 0.0, 2023-10-02 16:10:22.332
1.0, -7169.702013695481, -15638.576822111228, -77091.27838507634, -95296.12604333473, -76845.96798967934, -38089.65242977768, -65024.979713556735, -72187.46211379315, -0.122, 1.01, 0.014, 192.0, 252.0, 48.0, 31.0, 144.0, 0.0, 112.0, 0.0, 0.0, 0.0, 1.6962774228124876E9, 0.0, 2023-10-02 16:10:22.812
2.0, -7177.078089365732, -15645.19293847, -77089.91492866456, -95297.64596195769, -76848.47138505834, -38088.75835999946, -65023.28098097813, -72188.51264578255, -0.122, 1.01, 0.014, 192.0, 0.0, 0.0, 0.0, 0.0, 0.0, 0.0, 0.0, 0.0, 0.0, 1.6962774228125796E9, 0.0, 2023-10-02 16:10:22.812
3.0, -7174.664100964559, -15647.04813325979, -77083.09764660569, -95300.95402013708, -76851.46651881534, -38085.00326693097, -65025.605562401484, -72194.41350631876, -0.122, 1.01, 0.014, 192.0, 0.0, 0.0, 0.0, 0.0, 0.0, 0.0, 0.0, 0.0, 0.0, 1.6962774228125937E9, 0.0, 2023-10-02 16:10:22.812
4.0, -7168.204446816975, -15643.181281469022, -77077.12973083612, -95301.35635153728, -76850.0360071702, -38078.07422614982, -65021.58224839953, -72192.80418071797, -0.122, 1.01, 0.014, 192.0, 0.0, 0.0, 0.0, 0.0, 0.0, 0.0, 0.0, 0.0, 0.0, 1.6962774228126044E9, 0.0, 2023-10-02 16:10:22.812
5.0, -7174.328824797729, -15646.265822203855, -77090.96546065396, -95306.81017718436, -76856.18273689541, -38083.93038319712, -65030.38883571492, -72197.20747437567, -0.122, 1.01, 0.014, 192.0, 0.0, 0.0, 0.0, 0.0, 0.0, 0.0, 0.0, 0.0, 0.0, 1.6962774228126352E9, 0.0, 2023-10-02 16:10:22.812
6.0, -7179.760298700368, -15647.986906526914, -77096.73221072344, -95306.5419562509, -76858.4402630854, -38097.36378161476, -65035.06035030608, -72196.51457029756, -0.122, 1.01, 0.014, 192.0, 0.0, 0.0, 0.0, 0.0, 0.0, 0.0, 0.0, 0.0, 0.0, 1.696277422812676E9, 0.0, 2023-10-02 16:10:22.812
7.0, -7171.288987551808, -15638.375656411132, -77083.25410881688, -95297.31068579087, -76848.06905365814, -38098.74958977099, -65026.4996321797, -72191.26191035056, -0.122, 1.01, 0.014, 192.0, 0.0, 0.0, 0.0, 0.0, 0.0, 0.0, 0.0, 0.0, 0.0, 1.69627742281269E9, 0.0, 2023-10-02 16:10:22.812
8.0, -7168.740888683902, -15633.637086586607, -77073.50874823437, -95300.5963922258, -76850.70655950387, -38084.82445297533, -65022.27515247765, -72188.35618357136, -0.132, 1.006, 0.006, 192.0, 251.0, 224.0, 31.0, 112.0, 0.0, 48.0, 0.0, 0.0, 0.0, 1.6962774228127003E9, 0.0, 2023-10-02 16:10:22.812
9.0, -7177.1674963435535, -15644.38827566961, -77091.81482694326, -95309.96177315257, -76858.01557994075, -38090.65825827816, -65034.61331541697, -72200.76140174406, -0.132, 1.006, 0.006, 192.0, 0.0, 0.0, 0.0, 0.0, 0.0, 0.0, 0.0, 0.0, 0.0, 1.6962774228127143E9, 0.0, 2023-10-02 16:10:22.812
10.0, -7179.357967300173, -15649.57388038324, -77097.93920492401, -95307.86070917376, -76850.61715252604, -38106.617403819255, -65034.32274273905, -72203.75653550107, -0.132, 1.006, 0.006, 192.0, 0.0, 0.0, 0.0, 0.0, 0.0, 0.0, 0.0, 0.0, 0.0, 1.6962774228127458E9, 0.0, 2023-10-02 16:10:22.812
11.0, -7175.781688187324, -15645.461159403463, -77084.43875127302, -95301.40105502619, -76844.60453326757, -38101.5435578279, -65026.164356012865, -72194.07823015192, -0.132, 1.006, 0.006, 192.0, 0.0, 0.0, 0.0, 0.0, 0.0, 0.0, 0.0, 0.0, 0.0, 1.6962774228127565E9, 0.0, 2023-10-02 16:10:22.812
12.0, -7168.5397229838045, -15636.47575813243, -77072.65938194506, -95298.92001139164, -76839.84361169858, -38084.377418086224, -65021.33637921052, -72185.07047713644, -0.132, 1.006, 0.006, 192.0, 0.0, 0.0, 0.0, 0.0, 0.0, 0.0, 0.0, 0.0, 0.0, 1.69627742281277E9, 0.0, 2023-10-02 16:10:22.812
13.0, -7176.765164943357, -15642.421322157541, -77076.74975118038, -95308.7994824409, -76852.0923676601, -38081.7399122405, -65024.33151296753, -72187.28329983751, -0.132, 1.006, 0.006, 192.0, 0.0, 0.0, 0.0, 0.0, 0.0, 0.0, 0.0, 0.0, 0.0, 1.696277422812786E9, 0.0, 2023-10-02 16:10:22.812
14.0, -7188.343368571207, -15654.535967652319, -77093.75942871088, -95315.01326739947, -76862.48592883181, -38096.894394981195, -65035.350922984, -72196.78279123102, -0.132, 1.006, 0.006, 192.0, 0.0, 0.0, 0.0, 0.0, 0.0, 0.0, 0.0, 0.0, 0.0, 1.6962774228127985E9, 0.0, 2023-10-02 16:10:22.812
15.0, -7192.143165128608, -15656.704086864484, -77094.2958705778, -95315.63911624422, -76864.11760617705, -38103.66697355115, -65036.22264101775, -72202.66130002277, -0.132, 1.006, 0.006, 192.0, 0.0, 0.0, 0.0, 0.0, 0.0, 0.0, 0.0, 0.0, 0.0, 1.6962774228129587E9, 0.0, 2023-10-02 16:10:22.812
16.0, -7191.293798839307, -15655.854720575182, -77091.07721937624, -95320.78001746893, -76869.12439693503, -38096.96145021456, -65040.02243757516, -72202.32602385593, -0.132, 1.006, 0.006, 192.0, 0.0, 0.0, 0.0, 0.0, 0.0, 0.0, 0.0, 0.0, 0.0, 1.696277422812976E9, 0.0, 2023-10-02 16:10:22.812
17.0, -7188.522182526849, -15656.212348486466, -77097.91685317956, -95320.73531398003, -76871.11370219156, -38094.50275832448, -65043.844585877014, -72200.58258778842, -0.132, 1.006, 0.006, 192.0, 0.0, 0.0, 0.0, 0.0, 0.0, 0.0, 0.0, 0.0, 0.0, 1.6962774228129864E9, 0.0, 2023-10-02 16:10:22.812
18.0, -7190.153859872086, -15660.1462555106, -77106.2540538614, -95313.33688656532, -76863.11177767656, -38097.810816503865, -65043.352847499, -72194.01117491856, -0.136, 1.0, 0.014, 192.0, 251.0, 192.0, 31.0, 64.0, 0.0, 112.0, 0.0, 0.0, 0.0, 1.6962774228129985E9, 0.0, 2023-10-02 16:10:22.812
19.0, -7192.56784827326, -15666.941185825013, -77102.18603637052, -95314.32036332136, -76861.25658288677, -38102.705848539576, -65044.850414377506, -72192.55831152896, -0.136, 1.0, 0.014, 192.0, 0.0, 0.0, 0.0, 0.0, 0.0, 0.0, 0.0, 0.0, 0.0, 1.6962774228130229E9, 0.0, 2023-10-02 16:10:22.813
20.0, -7190.980874416933, -15666.896482336102, -77095.5475682673, -95319.61772675726, -76871.53838533621, -38099.487197338014, -65044.82806263305, -72193.51943654055, -0.136, 1.0, 0.014, 192.0, 0.0, 0.0, 0.0, 0.0, 0.0, 0.0, 0.0, 0.0, 0.0, 1.6962774228130548E9, 0.0, 2023-10-02 16:10:22.813
21.0, -7179.246208577897, -15661.219139244455, -77101.2025596145, -95315.28148833293, -76864.96697246635, -38095.19566240259, -65039.64245791942, -72193.49708479608, -0.136, 1.0, 0.014, 192.0, 0.0, 0.0, 0.0, 0.0, 0.0, 0.0, 0.0, 0.0, 0.0, 1.6962774228130684E9, 0.0, 2023-10-02 16:10:22.813
22.0, -7180.900237667589, -15659.319240965753, -77108.64569051811, -95313.67216273215, -76859.51314681926, -38101.20828166107, -65038.21194627428, -72192.53595978451, -0.136, 1.0, 0.014, 192.0, 0.0, 0.0, 0.0, 0.0, 0.0, 0.0, 0.0, 0.0, 0.0, 1.6962774228130853E9, 0.0, 2023-10-02 16:10:22.813
23.0, -7186.242304592408, -15659.76627585486, -77116.06646967727, -95312.88985167621, -76857.7920624962, -38105.72333404104, -65039.933030597334, -72190.63606150581, -0.136, 1.0, 0.014, 192.0, 0.0, 0.0, 0.0, 0.0, 0.0, 0.0, 0.0, 0.0, 0.0, 1.6962774228130968E9, 0.0, 2023-10-02 16:10:22.813
24.0, -7187.5610575152705, -15664.370735212653, -77111.59612078621, -95318.54484302341, -76862.4412253429, -38099.286031637916, -65040.31301025308, -72191.6418900063, -0.136, 1.0, 0.014, 192.0, 0.0, 0.0, 0.0, 0.0, 0.0, 0.0, 0.0, 0.0, 0.0, 1.6962774228131127E9, 0.0, 2023-10-02 16:10:22.813
25.0, -7176.56399924326, -15656.86054907567, -77104.5553212828, -95310.2970493194, -76853.32171360514, -38093.184005401614, -65034.88153635044, -72187.73033472661, -0.136, 1.0, 0.014, 192.0, 0.0, 0.0, 0.0, 0.0, 0.0, 0.0, 0.0, 0.0, 0.0, 1.6962774228131242E9, 0.0, 2023-10-02 16:10:22.813
26.0, -7181.436679534517, -15663.834293345726, -77111.30554810828, -95312.06283713137, -76856.38390259551, -38093.765150757456, -65032.534603182634, -72187.39505855979, -0.136, 1.0, 0.014, 192.0, 0.0, 0.0, 0.0, 0.0, 0.0, 0.0, 0.0, 0.0, 0.0, 1.6962774228131552E9, 0.0, 2023-10-02 16:10:22.813
27.0, -7188.209258104474, -15668.170531770056, -77121.27442613535, -95314.58858425482, -76860.18369915291, -38107.06443870836, -65041.36354224248, -72194.7934859745, -0.136, 1.0, 0.014, 192.0, 0.0, 0.0, 0.0, 0.0, 0.0, 0.0, 0.0, 0.0, 0.0, 1.6962774228131733E9, 0.0, 2023-10-02 16:10:22.813
28.0, -7185.392938303106, -15665.085991035223, -77107.79632422881, -95312.77809295394, -76861.1895276534, -38101.521206083446, -65037.83196661854, -72187.57387251544, -0.134, 0.988, 0.014, 192.0, 251.0, 208.0, 30.0, 224.0, 0.0, 112.0, 0.0, 0.0, 0.0, 1.6962774228131835E9, 0.0, 2023-10-02 16:10:22.813
29.0, -7183.314226068763, -15663.2978514788, -77107.99748992891, -95316.6002412558, -76868.43149285692, -38094.12277866874, -65047.711437667786, -72190.16667487225, -0.134, 0.988, 0.014, 192.0, 0.0, 0.0, 0.0, 0.0, 0.0, 0.0, 0.0, 0.0, 0.0, 1.696277422813194E9, 0.0, 2023-10-02 16:10:22.813
30.0, -7183.694205724502, -15660.392124699609, -77116.62526328866, -95312.82279644285, -76868.58795506811, -38102.72820028403, -65053.76876041517, -72193.05004990697, -0.134, 0.988, 0.014, 192.0, 0.0, 0.0, 0.0, 0.0, 0.0, 0.0, 0.0, 0.0, 0.0, 1.6962774228132377E9, 0.0, 2023-10-02 16:10:22.813
31.0, -7187.203429603986, -15664.706011379483, -77123.1519726696, -95310.27469757495, -76867.93975447891, -38114.01583123396, -65050.080722580045, -72192.15598012877, -0.134, 0.988, 0.014, 192.0, 0.0, 0.0, 0.0, 0.0, 0.0, 0.0, 0.0, 0.0, 0.0, 1.6962774228132524E9, 0.0, 2023-10-02 16:10:22.813
32.0, -7177.122792854642, -15657.553453153785, -77115.79824874381, -95300.6410957147, -76857.90382121847, -38108.293784653404, -65036.82613811805, -72181.24832883458, -0.134, 0.988, 0.014, 192.0, 0.0, 0.0, 0.0, 0.0, 0.0, 0.0, 0.0, 0.0, 0.0, 1.696277422813264E9, 0.0, 2023-10-02 16:10:22.813
33.0, -7172.831257919223, -15652.345496695698, -77104.17534162705, -95301.6469242152, -76860.22840264182, -38088.73600825501, -65031.484071193234, -72177.85086367738, -0.134, 0.988, 0.014, 192.0, 0.0, 0.0, 0.0, 0.0, 0.0, 0.0, 0.0, 0.0, 0.0, 1.696277422813274E9, 0.0, 2023-10-02 16:10:22.813
34.0, -7176.251074820885, -15657.15112175359, -77106.38816432812, -95305.58083123933, -76866.95627772287, -38084.35506634177, -65035.5520886841, -72181.91888116824, -0.134, 0.988, 0.014, 192.0, 0.0, 0.0, 0.0, 0.0, 0.0, 0.0, 0.0, 0.0, 0.0, 1.6962774228132846E9, 0.0, 2023-10-02 16:10:22.813
35.0, -7186.354063314684, -15667.05294454729, -77119.97802495694, -95307.36897079575, -76863.91644047695, -38100.82830200533, -65038.81544337457, -72188.60205276037, -0.134, 0.988, 0.014, 192.0, 0.0, 0.0, 0.0, 0.0, 0.0, 0.0, 0.0, 0.0, 0.0, 1.6962774228132956E9, 0.0, 2023-10-02 16:10:22.813
36.0, -7188.075147637743, -15666.784723613826, -77115.35121385471, -95304.97733413904, -76861.88243173152, -38102.37057237275, -65032.93693458282, -72184.8916631808, -0.134, 0.988, 0.014, 192.0, 0.0, 0.0, 0.0, 0.0, 0.0, 0.0, 0.0, 0.0, 0.0, 1.6962774228133075E9, 0.0, 2023-10-02 16:10:22.813
37.0, -7177.614531232659, -15658.112246765168, -77105.0470596608, -95300.5963922258, -76856.67447527344, -38091.48527282301, -65027.79603335811, -72179.32607881143, -0.134, 0.988, 0.014, 192.0, 0.0, 0.0, 0.0, 0.0, 0.0, 0.0, 0.0, 0.0, 0.0, 1.6962774228133173E9, 0.0, 2023-10-02 16:10:22.813
38.0, -7178.195676588497, -15659.185130499021, -77105.62820501665, -95303.63622947171, -76860.138995664, -38089.67478152213, -65030.433539203834, -72182.20945384615, -0.122, 0.984, 0.012, 192.0, 252.0, 48.0, 30.0, 192.0, 0.0, 96.0, 0.0, 0.0, 0.0, 1.696277422813328E9, 0.0, 2023-10-02 16:10:22.813
39.0, -7177.972159143944, -15656.167644997555, -77115.64178653262, -95294.2932002894, -76860.20605089737, -38101.25298514998, -65028.24306824721, -72180.10838986735, -0.122, 0.984, 0.012, 192.0, 0.0, 0.0, 0.0, 0.0, 0.0, 0.0, 0.0, 0.0, 0.0, 1.69627742281334E9, 0.0, 2023-10-02 16:10:22.813
40.0, -7177.525124254838, -15653.172511240544, -77106.54462653931, -95287.20769729707, -76859.33433286361, -38097.29672638139, -65021.269323977154, -72172.12881709682, -0.122, 0.984, 0.012, 192.0, 0.0, 0.0, 0.0, 0.0, 0.0, 0.0, 0.0, 0.0, 0.0, 1.6962774228133507E9, 0.0, 2023-10-02 16:10:22.813
41.0, -7170.618435218148, -15645.505862892374, -77096.44163804551, -95285.08428157381, -76855.15455665046, -38088.24426987699, -65024.599733901, -72168.91016589524, -0.122, 0.984, 0.012, 192.0, 0.0, 0.0, 0.0, 0.0, 0.0, 0.0, 0.0, 0.0, 0.0, 1.6962774228133612E9, 0.0, 2023-10-02 16:10:22.813
42.0, -7166.617472960648, -15639.225022700433, -77098.52035027985, -95285.01722634045, -76858.97670495234, -38085.092673908795, -65028.28777173612, -72164.97625887112, -0.122, 0.984, 0.012, 192.0, 0.0, 0.0, 0.0, 0.0, 0.0, 0.0, 0.0, 0.0, 0.0, 1.696277422813374E9, 0.0, 2023-10-02 16:10:22.813
43.0, -7176.631054476626, -15647.85279606018, -77109.15978064058, -95290.91808687664, -76864.72110327735, -38097.29672638139, -65033.83100436104, -72169.51366299554, -0.122, 0.984, 0.012, 192.0, 0.0, 0.0, 0.0, 0.0, 0.0, 0.0, 0.0, 0.0, 0.0, 1.6962774228133895E9, 0.0, 2023-10-02 16:10:22.813
44.0, -7177.4580690214725, -15647.651630360084, -77100.5543590253, -95285.26309552946, -76858.26144912976, -38100.71654328305, -65032.42284446036, -72166.87615714982, -0.122, 0.984, 0.012, 192.0, 0.0, 0.0, 0.0, 0.0, 0.0, 0.0, 0.0, 0.0, 0.0, 1.6962774228134243E9, 0.0, 2023-10-02 16:10:22.813
45.0, -7178.195676588497, -15648.165720482555, -77095.25699558939, -95292.05802584387, -76863.33529512111, -38094.189833902106, -65037.0496555626, -72174.16282584224, -0.122, 0.984, 0.012, 192.0, 0.0, 0.0, 0.0, 0.0, 0.0, 0.0, 0.0, 0.0, 0.0, 1.6962774228134837E9, 0.0, 2023-10-02 16:10:22.813
46.0, -7175.446412020495, -15648.992735027401, -77099.88380669164, -95297.31068579087, -76872.58891732561, -38093.78750250191, -65045.4539114778, -72174.02871537552, -0.122, 0.984, 0.012, 192.0, 0.0, 0.0, 0.0, 0.0, 0.0, 0.0, 0.0, 0.0, 0.0, 1.6962774228134985E9, 0.0, 2023-10-02 16:10:22.813
47.0, -7177.748641699392, -15652.010220528868, -77111.30554810828, -95294.40495901168, -76873.43828361492, -38105.075133451835, -65047.46556847877, -72173.76049444205, -0.122, 0.992, 0.02, 192.0, 252.0, 48.0, 31.0, 0.0, 0.0, 160.0, 0.0, 0.0, 0.0, 1.69627742281351E9, 0.0, 2023-10-02 16:10:22.813
48.0, -7179.84970567819, -15654.379505441131, -77103.61654801566, -95289.53227872042, -76868.0962166901, -38114.999307989994, -65040.581231186545, -72179.72841021161, -0.122, 0.992, 0.02, 192.0, 0.0, 0.0, 0.0, 0.0, 0.0, 0.0, 0.0, 0.0, 0.0, 1.696277422813526E9, 0.0, 2023-10-02 16:10:22.813
49.0, -7176.765164943357, -15651.250261217388, -77088.97615539744, -95292.12508107723, -76872.25364115878, -38111.020697476946, -65039.530699197145, -72180.22014858964, -0.122, 0.992, 0.02, 192.0, 0.0, 0.0, 0.0, 0.0, 0.0, 0.0, 0.0, 0.0, 0.0, 1.6962774228135383E9, 0.0, 2023-10-02 16:10:22.813
50.0, -7167.444487505494, -15640.990810512401, -77088.26089957487, -95289.42051999814, -76871.33721963612, -38108.00321197548, -65041.609411431484, -72174.05106711997, -0.122, 0.992, 0.02, 192.0, 0.0, 0.0, 0.0, 0.0, 0.0, 0.0, 0.0, 0.0, 0.0, 1.6962774228135517E9, 0.0, 2023-10-02 16:10:22.813
51.0, -7169.791420673302, -15643.807130313771, -77093.98294615543, -95292.12508107723, -76869.61613531306, -38112.78648528892, -65038.5025189522, -72171.39120952979, -0.122, 0.992, 0.02, 192.0, 0.0, 0.0, 0.0, 0.0, 0.0, 0.0, 0.0, 0.0, 0.0, 1.6962774228135653E9, 0.0, 2023-10-02 16:10:22.813
52.0, -7173.32299629724, -15647.718685593449, -77100.21908285846, -95292.01332235496, -76867.73858877881, -38117.5474068579, -65039.68716140833, -72175.61568923184, -0.122, 0.992, 0.02, 192.0, 0.0, 0.0, 0.0, 0.0, 0.0, 0.0, 0.0, 0.0, 0.0, 1.696277422813579E9, 0.0, 2023-10-02 16:10:22.813
53.0, -7171.266635807352, -15647.271650704342, -77089.80316994229, -95288.25822928647, -76863.82703349912, -38106.97503173054, -65032.64636190491, -72173.49227350859, -0.122, 0.992, 0.02, 192.0, 0.0, 0.0, 0.0, 0.0, 0.0, 0.0, 0.0, 0.0, 0.0, 1.6962774228135936E9, 0.0, 2023-10-02 16:10:22.813
54.0, -7169.254978806374, -15644.880014047625, -77089.53494900883, -95292.46035724407, -76865.21284165536, -38094.167482157645, -65035.23916426172, -72177.22501483263, -0.122, 0.992, 0.02, 192.0, 0.0, 0.0, 0.0, 0.0, 0.0, 0.0, 0.0, 0.0, 0.0, 1.6962774228136084E9, 0.0, 2023-10-02 16:10:22.813
55.0, -7170.5960834736925, -15645.662325103562, -77097.55922526828, -95288.83937464231, -76863.6482195435, -38092.58050830132, -65031.282905493135, -72173.80519793097, -0.122, 0.992, 0.02, 192.0, 0.0, 0.0, 0.0, 0.0, 0.0, 0.0, 0.0, 0.0, 0.0, 1.6962774228136203E9, 0.0, 2023-10-02 16:10:22.813
56.0, -7177.838048677212, -15651.585537384217, -77100.91198693657, -95286.58184845232, -76861.5918590536, -38100.604784560775, -65024.8008996011, -72173.26875606403, -0.122, 0.992, 0.02, 192.0, 0.0, 0.0, 0.0, 0.0, 0.0, 0.0, 0.0, 0.0, 0.0, 1.6962774228136365E9, 0.0, 2023-10-02 16:10:22.813
57.0, -7174.842914920201, -15649.059790260768, -77092.82065544375, -95284.41372924016, -76860.9436584644, -38099.621307804744, -65023.45979493378, -72167.34554378338, -0.126, 0.992, 0.018000000000000002, 192.0, 252.0, 16.0, 31.0, 0.0, 0.0, 144.0, 0.0, 0.0, 0.0, 1.6962774228136492E9, 0.0, 2023-10-02 16:10:22.813
58.0, -7170.529028240327, -15647.696333848995, -77085.13165535113, -95288.28058103092, -76868.27503064573, -38087.57371754333, -65025.337341468025, -72166.22795656061, -0.126, 0.992, 0.018000000000000002, 192.0, 0.0, 0.0, 0.0, 0.0, 0.0, 0.0, 0.0, 0.0, 0.0, 1.6962774228136644E9, 0.0, 2023-10-02 16:10:22.813
59.0, -7172.652443963581, -15651.160854239566, -77093.8935391776, -95292.43800549961, -76866.01750445575, -38094.34629611329, -65032.10992003798, -72174.76632294254, -0.126, 0.992, 0.018000000000000002, 192.0, 0.0, 0.0, 0.0, 0.0, 0.0, 0.0, 0.0, 0.0, 0.0, 1.6962774228136775E9, 0.0, 2023-10-02 16:10:22.813
60.0, -7176.116964354153, -15654.155987996577, -77096.35223106769, -95290.64986594318, -76863.26823988775, -38108.293784653404, -65031.484071193234, -72173.08994210839, -0.126, 0.992, 0.018000000000000002, 192.0, 0.0, 0.0, 0.0, 0.0, 0.0, 0.0, 0.0, 0.0, 0.0, 1.6962774228137279E9, 0.0, 2023-10-02 16:10:22.813
61.0, -7177.301606810285, -15655.273575219344, -77090.04903913129, -95291.20865955457, -76863.40235035447, -38107.310307897365, -65027.572515913555, -72169.62542171782, -0.126, 0.992, 0.018000000000000002, 192.0, 0.0, 0.0, 0.0, 0.0, 0.0, 0.0, 0.0, 0.0, 0.0, 1.6962774228137398E9, 0.0, 2023-10-02 16:10:22.813
62.0, -7169.813772417757, -15651.160854239566, -77081.37656228263, -95294.11438633376, -76866.06220794466, -38098.5931275598, -65031.975809571246, -72168.41842751723, -0.126, 0.992, 0.018000000000000002, 192.0, 0.0, 0.0, 0.0, 0.0, 0.0, 0.0, 0.0, 0.0, 0.0, 1.6962774228137524E9, 0.0, 2023-10-02 16:10:22.813
63.0, -7166.058679349266, -15648.85862456067, -77085.31046930677, -95292.28154328842, -76866.50924283377, -38098.97310721554, -65025.896135079405, -72167.21143331664, -0.126, 0.992, 0.018000000000000002, 192.0, 0.0, 0.0, 0.0, 0.0, 0.0, 0.0, 0.0, 0.0, 0.0, 1.6962774228137665E9, 0.0, 2023-10-02 16:10:22.813
64.0, -7171.691318952003, -15652.792531584804, -77092.03834438781, -95291.43217699912, -76863.0447224432, -38109.344316642804, -65018.4977076647, -72167.90433739476, -0.126, 0.992, 0.018000000000000002, 192.0, 0.0, 0.0, 0.0, 0.0, 0.0, 0.0, 0.0, 0.0, 0.0, 1.6962774228137772E9, 0.0, 2023-10-02 16:10:22.813
65.0, -7171.288987551808, -15651.071447261746, -77086.02572512934, -95286.2912757744, -76854.61811478355, -38108.83022652033, -65012.03805351711, -72165.89268039378, -0.126, 0.992, 0.018000000000000002, 192.0, 0.0, 0.0, 0.0, 0.0, 0.0, 0.0, 0.0, 0.0, 0.0, 1.6962774228137913E9, 0.0, 2023-10-02 16:10:22.813
66.0, -7164.829333404224, -15649.059790260768, -77075.81097791326, -95285.68777867411, -76856.00392293978, -38096.626174047735, -65012.70860585077, -72161.42233150272, -0.126, 0.992, 0.018000000000000002, 192.0, 0.0, 0.0, 0.0, 0.0, 0.0, 0.0, 0.0, 0.0, 0.0, 1.6962774228138046E9, 0.0, 2023-10-02 16:10:22.813
67.0, -7168.137391583609, -15655.251223474888, -77077.88969014761, -95294.80729041187, -76861.07776893112, -38093.742799012995, -65022.453966433284, -72165.82562516042, -0.128, 1.002, 0.012, 192.0, 252.0, 0.0, 31.0, 80.0, 0.0, 96.0, 0.0, 0.0, 0.0, 1.6962774228138165E9, 0.0, 2023-10-02 16:10:22.813
68.0, -7171.937188141012, -15658.313412465264, -77090.78664669833, -95295.00845611197, -76862.70944627636, -38104.71750554055, -65028.73480662523, -72171.36885778533, -0.128, 1.002, 0.012, 192.0, 0.0, 0.0, 0.0, 0.0, 0.0, 0.0, 0.0, 0.0, 0.0, 1.6962774228138297E9, 0.0, 2023-10-02 16:10:22.813
69.0, -7172.205409074475, -15656.033534530823, -77090.6972397205, -95288.03471184192, -76860.51897531975, -38108.852578264785, -65027.97484731375, -72169.49131125108, -0.128, 1.002, 0.012, 192.0, 0.0, 0.0, 0.0, 0.0, 0.0, 0.0, 0.0, 0.0, 0.0, 1.696277422813848E9, 0.0, 2023-10-02 16:10:22.813
70.0, -7160.649557191081, -15645.505862892374, -77074.44752150148, -95279.25047627097, -76856.69682701789, -38095.843862991795, -65019.1459082539, -72161.75760766956, -0.128, 1.002, 0.012, 192.0, 0.0, 0.0, 0.0, 0.0, 0.0, 0.0, 0.0, 0.0, 0.0, 1.6962774228138633E9, 0.0, 2023-10-02 16:10:22.813
71.0, -7162.147124069586, -15646.645801859595, -77077.88969014761, -95291.63334269922, -76870.39844636898, -38091.664086778655, -65023.48214667823, -72168.17255832822, -0.128, 1.002, 0.012, 192.0, 0.0, 0.0, 0.0, 0.0, 0.0, 0.0, 0.0, 0.0, 0.0, 1.6962774228138773E9, 0.0, 2023-10-02 16:10:22.813
72.0, -7157.743830411891, -15642.063694246257, -77083.32116405024, -95285.95599960757, -76864.78815851071, -38100.470674094046, -65023.28098097813, -72172.46409326364, -0.128, 1.002, 0.012, 192.0, 0.0, 0.0, 0.0, 0.0, 0.0, 0.0, 0.0, 0.0, 0.0, 1.6962774228138924E9, 0.0, 2023-10-02 16:10:22.813
73.0, -7157.117981567143, -15642.063694246257, -77078.56024248127, -95280.8374501273, -76859.84842298609, -38109.16550268716, -65018.25183847569, -72169.46895950663, -0.128, 1.002, 0.012, 192.0, 0.0, 0.0, 0.0, 0.0, 0.0, 0.0, 0.0, 0.0, 0.0, 1.6962774228139043E9, 0.0, 2023-10-02 16:10:22.813
74.0, -7157.408554245062, -15641.706066334971, -77069.57484121023, -95286.64890368568, -76864.3411236216, -38108.58435733132, -65018.85533557598, -72167.50200599457, -0.128, 1.002, 0.012, 192.0, 0.0, 0.0, 0.0, 0.0, 0.0, 0.0, 0.0, 0.0, 0.0, 1.6962774228139164E9, 0.0, 2023-10-02 16:10:22.813
75.0, -7154.525179210327, -15639.828519800725, -77070.42420749953, -95289.15229906468, -76867.11273993406, -38106.460941608064, -65025.136175767926, -72169.1336833398, -0.128, 1.002, 0.012, 192.0, 0.0, 0.0, 0.0, 0.0, 0.0, 0.0, 0.0, 0.0, 0.0, 1.696277422813931E9, 0.0, 2023-10-02 16:10:22.813
76.0, -7156.134504811109, -15638.196842455489, -77075.69921919098, -95284.95017110708, -76858.93200146341, -38108.40554337568, -65027.237239746726, -72170.92182289623, -0.128, 1.002, 0.012, 192.0, 0.0, 0.0, 0.0, 0.0, 0.0, 0.0, 0.0, 0.0, 0.0, 1.6962774228139887E9, 0.0, 2023-10-02 16:10:22.813
77.0, -7159.46491473495, -15637.503938377375, -77077.62146921414, -95280.9939123385, -76858.06028342966, -38111.46773236606, -65027.41605370236, -72167.74787518357, -0.136, 1.0, 0.014, 192.0, 251.0, 192.0, 31.0, 64.0, 0.0, 112.0, 0.0, 0.0, 0.0, 1.6962774228140051E9, 0.0, 2023-10-02 16:10:22.814
78.0, -7158.168513556542, -15638.263897688854, -77070.84889064418, -95280.88215361621, -76854.50635606126, -38101.61061306127, -65022.76689085566, -72163.25517454806, -0.136, 1.0, 0.014, 192.0, 0.0, 0.0, 0.0, 0.0, 0.0, 0.0, 0.0, 0.0, 0.0, 1.6962774228140304E9, 0.0, 2023-10-02 16:10:22.814
79.0, -7155.6204146886375, -15640.1414442231, -77072.72643717843, -95285.75483390747, -76860.36251310856, -38092.75932225696, -65022.6998356223, -72165.26683154903, -0.136, 1.0, 0.014, 192.0, 0.0, 0.0, 0.0, 0.0, 0.0, 0.0, 0.0, 0.0, 0.0, 1.6962774228140428E9, 0.0, 2023-10-02 16:10:22.814
80.0, -7157.877940878623, -15642.71189483546, -77082.20357682748, -95288.05706358637, -76865.10108293308, -38096.31324962536, -65028.57834441404, -72168.32902053942, -0.136, 1.0, 0.014, 192.0, 0.0, 0.0, 0.0, 0.0, 0.0, 0.0, 0.0, 0.0, 0.0, 1.6962774228140552E9, 0.0, 2023-10-02 16:10:22.814
81.0, -7164.6058159596705, -15647.38340942662, -77093.96059441098, -95286.11246181876, -76865.3469521221, -38105.79038927441, -65030.858222348485, -72172.41938977473, -0.136, 1.0, 0.014, 192.0, 0.0, 0.0, 0.0, 0.0, 0.0, 0.0, 0.0, 0.0, 0.0, 1.6962774228140657E9, 0.0, 2023-10-02 16:10:22.814
82.0, -7169.9478828844885, -15656.391162442109, -77089.42319028654, -95291.58863921031, -76868.00680971227, -38105.11983694075, -65031.39466421541, -72176.57681424342, -0.136, 1.0, 0.014, 192.0, 0.0, 0.0, 0.0, 0.0, 0.0, 0.0, 0.0, 0.0, 0.0, 1.6962774228140776E9, 0.0, 2023-10-02 16:10:22.814
83.0, -7161.141295569098, -15650.378543183631, -77078.91787039256, -95286.15716530767, -76862.93296372092, -38097.47554033704, -65027.237239746726, -72172.86642466384, -0.136, 1.0, 0.014, 192.0, 0.0, 0.0, 0.0, 0.0, 0.0, 0.0, 0.0, 0.0, 0.0, 1.696277422814088E9, 0.0, 2023-10-02 16:10:22.814
84.0, -7157.900292623079, -15646.087008248212, -77081.35421053818, -95284.48078447352, -76863.6482195435, -38094.033371690915, -65025.18087925683, -72172.66525896374, -0.136, 1.0, 0.014, 192.0, 0.0, 0.0, 0.0, 0.0, 0.0, 0.0, 0.0, 0.0, 0.0, 1.6962774228140996E9, 0.0, 2023-10-02 16:10:22.814
85.0, -7165.902217138078, -15649.99856352789, -77089.87022517565, -95287.40886299717, -76867.89505099, -38103.264642150956, -65029.874745592446, -72180.0860381229, -0.136, 1.0, 0.014, 192.0, 0.0, 0.0, 0.0, 0.0, 0.0, 0.0, 0.0, 0.0, 0.0, 1.696277422814113E9, 0.0, 2023-10-02 16:10:22.814
86.0, -7165.5445892267935, -15644.924717536536, -77083.09764660569, -95285.97835135202, -76863.0447224432, -38106.08096195233, -65029.69593163681, -72171.97235488563, -0.136, 1.0, 0.014, 192.0, 0.0, 0.0, 0.0, 0.0, 0.0, 0.0, 0.0, 0.0, 0.0, 1.6962774228141232E9, 0.0, 2023-10-02 16:10:22.814
87.0, -7155.665118177548, -15637.302772677276, -77075.90038489108, -95283.83258388432, -76861.25658288677, -38094.27924087992, -65028.95832406978, -72166.29501179398, -0.14, 0.998, 0.014, 192.0, 251.0, 160.0, 31.0, 48.0, 0.0, 112.0, 0.0, 0.0, 0.0, 1.6962774228141348E9, 0.0, 2023-10-02 16:10:22.814
88.0, -7152.468818720439, -15635.358170909665, -77080.75071343788, -95283.3408455063, -76868.90087949048, -38091.865252478754, -65030.14296652591, -72170.8324159184, -0.14, 0.998, 0.014, 192.0, 0.0, 0.0, 0.0, 0.0, 0.0, 0.0, 0.0, 0.0, 0.0, 1.6962774228141463E9, 0.0, 2023-10-02 16:10:22.814
89.0, -7149.27251926333, -15632.787720297305, -77082.47179776094, -95272.9919878235, -76868.00680971227, -38093.72044726854, -65031.37231247096, -72169.80423567347, -0.14, 0.998, 0.014, 192.0, 0.0, 0.0, 0.0, 0.0, 0.0, 0.0, 0.0, 0.0, 0.0, 1.696277422814157E9, 0.0, 2023-10-02 16:10:22.814
90.0, -7149.808961130258, -15633.122996464133, -77073.48639648991, -95270.0862610443, -76862.82120499865, -38089.92065071114, -65030.54529792611, -72164.77509317102, -0.14, 0.998, 0.014, 192.0, 0.0, 0.0, 0.0, 0.0, 0.0, 0.0, 0.0, 0.0, 0.0, 1.6962774228141687E9, 0.0, 2023-10-02 16:10:22.814
91.0, -7146.344440739685, -15630.887822018603, -77070.93829762201, -95274.75777563546, -76867.17979516742, -38080.197641873085, -65034.143928783415, -72170.72065719613, -0.14, 0.998, 0.014, 192.0, 0.0, 0.0, 0.0, 0.0, 0.0, 0.0, 0.0, 0.0, 0.0, 1.6962774228142092E9, 0.0, 2023-10-02 16:10:22.814
92.0, -7143.617527916137, -15628.697351061983, -77072.83819590071, -95275.71890064704, -76865.12343467755, -38079.61649651724, -65035.17210902835, -72172.39703803028, -0.14, 0.998, 0.014, 192.0, 0.0, 0.0, 0.0, 0.0, 0.0, 0.0, 0.0, 0.0, 0.0, 1.6962774228142223E9, 0.0, 2023-10-02 16:10:22.814
93.0, -7152.021783831333, -15633.346513908687, -77084.05877161727, -95277.81996462584, -76864.22936489932, -38093.00519144597, -65036.13323403994, -72178.27554682203, -0.14, 0.998, 0.014, 192.0, 0.0, 0.0, 0.0, 0.0, 0.0, 0.0, 0.0, 0.0, 0.0, 1.6962774228142335E9, 0.0, 2023-10-02 16:10:22.814
94.0, -7166.237493304908, -15647.495168148896, -77088.35030655269, -95288.52645021993, -76866.46453934486, -38102.92936598413, -65038.189594529824, -72182.27650907953, -0.14, 0.998, 0.014, 192.0, 0.0, 0.0, 0.0, 0.0, 0.0, 0.0, 0.0, 0.0, 0.0, 1.6962774228142457E9, 0.0, 2023-10-02 16:10:22.814
95.0, -7164.270539792841, -15645.639973359106, -77080.16956808204, -95289.44287174259, -76860.11664391955, -38095.75445601397, -65036.244992762215, -72178.36495379984, -0.14, 0.998, 0.014, 192.0, 0.0, 0.0, 0.0, 0.0, 0.0, 0.0, 0.0, 0.0, 0.0, 1.6962774228142598E9, 0.0, 2023-10-02 16:10:22.814
96.0, -7164.203484559475, -15643.360095424665, -77081.24245181591, -95293.95792412257, -76867.71623703436, -38087.596069287785, -65034.143928783415, -72182.3882678018, -0.14, 0.998, 0.014, 192.0, 0.0, 0.0, 0.0, 0.0, 0.0, 0.0, 0.0, 0.0, 0.0, 1.69627742281427E9, 0.0, 2023-10-02 16:10:22.814
97.0, -7168.092688094698, -15643.67301984704, -77094.34057406671, -95293.8908688892, -76867.67153354545, -38095.10625542477, -65034.0992252945, -72184.31051782495, -0.132, 0.99, 0.012, 192.0, 251.0, 224.0, 30.0, 240.0, 0.0, 96.0, 0.0, 0.0, 0.0, 1.6962774228142805E9, 0.0, 2023-10-02 16:10:22.814
98.0, -7177.838048677212, -15651.853758317682, -77095.43580954503, -95295.43313925662, -76866.86687074506, -38101.722371783544, -65035.462681706274, -72178.76728520004, -0.132, 0.99, 0.012, 192.0, 0.0, 0.0, 0.0, 0.0, 0.0, 0.0, 0.0, 0.0, 0.0, 1.696277422814296E9, 0.0, 2023-10-02 16:10:22.814
99.0, -7179.581484744726, -15653.91011880757, -77085.60104198469, -95302.18336608213, -76874.01942897076, -38097.56494731485, -65041.832928876036, -72178.16378809974, -0.132, 0.99, 0.012, 192.0, 0.0, 0.0, 0.0, 0.0, 0.0, 0.0, 0.0, 0.0, 0.0, 1.6962774228143067E9, 0.0, 2023-10-02 16:10:22.814
100.0, -7169.523199739838, -15645.438807659008, -77078.13555933662, -95293.57794446683, -76868.02916145672, -38091.306458867366, -65035.30621949509, -72172.59820373038, -0.132, 0.99, 0.012, 192.0, 0.0, 0.0, 0.0, 0.0, 0.0, 0.0, 0.0, 0.0, 0.0, 1.6962774228143184E9, 0.0, 2023-10-02 16:10:22.814
101.0, -7167.46683924995, -15648.210423971466, -77079.76723668186, -95291.16395606566, -76860.40721659746, -38095.06155193586, -65033.20515551629, -72175.59333748739, -0.132, 0.99, 0.012, 192.0, 0.0, 0.0, 0.0, 0.0, 0.0, 0.0, 0.0, 0.0, 0.0, 1.6962774228143284E9, 0.0, 2023-10-02 16:10:22.814
102.0, -7172.920664897045, -15653.306621707276, -77082.51650124986, -95289.91225837616, -76862.396521854, -38103.37640087323, -65037.92137359636, -72179.54959625598, -0.132, 0.99, 0.012, 192.0, 0.0, 0.0, 0.0, 0.0, 0.0, 0.0, 0.0, 0.0, 0.0, 1.6962774228143406E9, 0.0, 2023-10-02 16:10:22.814
103.0, -7174.150010842087, -15650.512653650363, -77079.00727737037, -95289.71109267607, -76866.30807713367, -38102.10235143928, -65037.96607708527, -72179.90722416725, -0.132, 0.99, 0.012, 192.0, 0.0, 0.0, 0.0, 0.0, 0.0, 0.0, 0.0, 0.0, 0.0, 1.696277422814353E9, 0.0, 2023-10-02 16:10:22.814
104.0, -7163.532932225816, -15639.202670955978, -77072.92760287852, -95281.50800246096, -76863.26823988775, -38083.72921749702, -65029.025379303144, -72172.4864450081, -0.132, 0.99, 0.012, 192.0, 0.0, 0.0, 0.0, 0.0, 0.0, 0.0, 0.0, 0.0, 0.0, 1.696277422814365E9, 0.0, 2023-10-02 16:10:22.814
105.0, -7165.678699693525, -15643.471854146941, -77079.47666400393, -95282.51383096146, -76867.15744342297, -38086.769054742945, -65031.26055374868, -72178.96845090014, -0.132, 0.99, 0.012, 192.0, 0.0, 0.0, 0.0, 0.0, 0.0, 0.0, 0.0, 0.0, 0.0, 1.6962774228143756E9, 0.0, 2023-10-02 16:10:22.814
106.0, -7167.51154273886, -15644.164758225055, -77080.12486459313, -95274.57896167981, -76862.32946662062, -38097.69905778159, -65028.891268836414, -72170.25127056257, -0.132, 0.99, 0.012, 192.0, 0.0, 0.0, 0.0, 0.0, 0.0, 0.0, 0.0, 0.0, 0.0, 1.6962774228144116E9, 0.0, 2023-10-02 16:10:22.814
107.0, -7169.746717184391, -15649.149197238588, -77074.4922249904, -95277.6411506702, -76868.00680971227, -38095.24036589151, -65032.959286327285, -72171.21239557414, -0.122, 1.0, 0.014, 192.0, 252.0, 48.0, 31.0, 64.0, 0.0, 112.0, 0.0, 0.0, 0.0, 1.696277422814424E9, 0.0, 2023-10-02 16:10:22.814
108.0, -7164.874036893134, -15646.914022793058, -77071.9441261225, -95278.87049661524, -76867.53742307871, -38086.21026113156, -65030.74646362621, -72168.03844786149, -0.122, 1.0, 0.014, 192.0, 0.0, 0.0, 0.0, 0.0, 0.0, 0.0, 0.0, 0.0, 0.0, 1.696277422814437E9, 0.0, 2023-10-02 16:10:22.814
109.0, -7162.951786869978, -15643.695371591493, -77073.91107963456, -95276.70237740307, -76864.25171664378, -38089.071284421836, -65026.186707757326, -72163.81396815943, -0.122, 1.0, 0.014, 192.0, 0.0, 0.0, 0.0, 0.0, 0.0, 0.0, 0.0, 0.0, 0.0, 1.6962774228144484E9, 0.0, 2023-10-02 16:10:22.814
110.0, -7164.494057237394, -15645.081179747724, -77076.45917850247, -95270.44388895559, -76863.8940887325, -38092.982839701515, -65024.82325134555, -72161.02000010252, -0.122, 1.0, 0.014, 192.0, 0.0, 0.0, 0.0, 0.0, 0.0, 0.0, 0.0, 0.0, 0.0, 1.6962774228144596E9, 0.0, 2023-10-02 16:10:22.814
111.0, -7165.343423526696, -15646.131711737122, -77065.50682371936, -95263.51484817444, -76864.20701315487, -38085.67381926463, -65019.48118442073, -72154.26977327702, -0.122, 1.0, 0.014, 192.0, 0.0, 0.0, 0.0, 0.0, 0.0, 0.0, 0.0, 0.0, 0.0, 1.6962774228144696E9, 0.0, 2023-10-02 16:10:22.814
112.0, -7162.996490358889, -15647.830444315727, -77064.07631207423, -95268.85691509926, -76871.62779231403, -38077.22485986052, -65027.281943235634, -72158.71777042362, -0.122, 1.0, 0.014, 192.0, 0.0, 0.0, 0.0, 0.0, 0.0, 0.0, 0.0, 0.0, 0.0, 1.6962774228144872E9, 0.0, 2023-10-02 16:10:22.814
113.0, -7156.670946678037, -15644.500034391885, -77067.22790804242, -95265.39239470869, -76868.63265855702, -38076.24138310449, -65028.35482696949, -72162.04818034747, -0.122, 1.0, 0.014, 192.0, 0.0, 0.0, 0.0, 0.0, 0.0, 0.0, 0.0, 0.0, 0.0, 1.6962774228144984E9, 0.0, 2023-10-02 16:10:22.814
114.0, -7164.047022348288, -15652.054924017779, -77070.02187609934, -95265.77237436443, -76867.4480161009, -38084.44447331959, -65029.89709733691, -72161.44468324717, -0.122, 1.0, 0.014, 192.0, 0.0, 0.0, 0.0, 0.0, 0.0, 0.0, 0.0, 0.0, 0.0, 1.6962774228145094E9, 0.0, 2023-10-02 16:10:22.814
115.0, -7169.590254973204, -15658.96161305447, -77069.2395650434, -95270.8909238447, -76869.01263821276, -38093.07224667934, -65033.00398981619, -72165.84797690487, -0.122, 1.0, 0.014, 192.0, 0.0, 0.0, 0.0, 0.0, 0.0, 0.0, 0.0, 0.0, 0.0, 1.6962774228145208E9, 0.0, 2023-10-02 16:10:22.814
116.0, -7160.247225790886, -15650.892633306103, -77058.22015502694, -95269.41570871064, -76865.7939870112, -38086.09850240928, -65027.639571146916, -72159.52243322402, -0.122, 1.0, 0.014, 192.0, 0.0, 0.0, 0.0, 0.0, 0.0, 0.0, 0.0, 0.0, 0.0, 1.6962774228145325E9, 0.0, 2023-10-02 16:10:22.814
117.0, -7158.883769379112, -15650.579708883728, -77061.25999227286, -95272.32143548984, -76867.51507133426, -38082.20929887406, -65027.30429498009, -72161.534090225, -0.124, 1.002, 0.01, 192.0, 252.0, 32.0, 31.0, 80.0, 0.0, 80.0, 0.0, 0.0, 0.0, 1.696277422814545E9, 0.0, 2023-10-02 16:10:22.814
118.0, -7164.158781070564, -15656.145293253101, -77072.86054764516, -95271.9414558341, -76864.76580676626, -38091.41821758964, -65030.76881537066, -72163.29987803697, -0.124, 1.002, 0.01, 192.0, 0.0, 0.0, 0.0, 0.0, 0.0, 0.0, 0.0, 0.0, 0.0, 1.6962774228145573E9, 0.0, 2023-10-02 16:10:22.814
119.0, -7164.270539792841, -15656.771142097848, -77073.21817555645, -95269.75098487748, -76865.21284165536, -38104.0469532069, -65030.63470490393, -72162.5846222144, -0.124, 1.002, 0.01, 192.0, 0.0, 0.0, 0.0, 0.0, 0.0, 0.0, 0.0, 0.0, 0.0, 1.6962774228145695E9, 0.0, 2023-10-02 16:10:22.814
120.0, -7155.173379799531, -15649.439769916507, -77055.51559394784, -95267.67227264313, -76864.98932421081, -38095.77680775843, -65024.599733901, -72159.2318605461, -0.124, 1.002, 0.01, 192.0, 0.0, 0.0, 0.0, 0.0, 0.0, 0.0, 0.0, 0.0, 0.0, 1.69627742281458E9, 0.0, 2023-10-02 16:10:22.814
121.0, -7151.708859408958, -15646.846967559692, -77057.99663758239, -95271.65088315617, -76872.18658592542, -38085.9420401981, -65033.13810028292, -72163.07636059241, -0.124, 1.002, 0.01, 192.0, 0.0, 0.0, 0.0, 0.0, 0.0, 0.0, 0.0, 0.0, 0.0, 1.6962774232929523E9, 0.0, 2023-10-02 16:10:23.292
122.0, -7155.598062944182, -15654.290098463309, -77065.3950649971, -95274.64601691319, -76870.33139113562, -38092.93813621261, -65041.609411431484, -72169.71482869564, -0.124, 1.002, 0.01, 192.0, 0.0, 0.0, 0.0, 0.0, 0.0, 0.0, 0.0, 0.0, 0.0, 1.6962774232930164E9, 0.0, 2023-10-02 16:10:23.293
123.0, -7159.5543217127715, -15660.414476444064, -77064.67980917451, -95274.64601691319, -76868.67736204593, -38106.885624752715, -65044.78335914414, -72170.58654672939, -0.124, 1.002, 0.01, 192.0, 0.0, 0.0, 0.0, 0.0, 0.0, 0.0, 0.0, 0.0, 0.0, 1.6962774232930508E9, 0.0, 2023-10-02 16:10:23.293
124.0, -7155.218083288441, -15654.915947308058, -77054.55446893627, -95269.86274359975, -76866.8445190006, -38095.642697291696, -65038.56957418557, -72161.06470359143, -0.124, 1.002, 0.01, 192.0, 0.0, 0.0, 0.0, 0.0, 0.0, 0.0, 0.0, 0.0, 0.0, 1.6962774232930663E9, 0.0, 2023-10-02 16:10:23.293
125.0, -7155.08397282171, -15656.592328142206, -77055.04620731428, -95278.66933091515, -76875.15936793797, -38085.785577986906, -65045.36450449998, -72166.83145366091, -0.124, 1.002, 0.01, 192.0, 0.0, 0.0, 0.0, 0.0, 0.0, 0.0, 0.0, 0.0, 0.0, 1.6962774232930813E9, 0.0, 2023-10-02 16:10:23.293
126.0, -7156.4474292334835, -15656.882900820125, -77065.99856209739, -95276.81413612535, -76873.19241442591, -38094.323944368836, -65047.73378941224, -72170.60889847385, -0.124, 1.002, 0.01, 192.0, 0.0, 0.0, 0.0, 0.0, 0.0, 0.0, 0.0, 0.0, 0.0, 1.6962774232930968E9, 0.0, 2023-10-02 16:10:23.293
127.0, -7166.997452616389, -15666.807075358282, -77078.02380061433, -95280.88215361621, -76873.55004233719, -38104.82926426283, -65046.45973997829, -72171.70413395217, -0.128, 0.998, 0.006, 192.0, 252.0, 0.0, 31.0, 48.0, 0.0, 48.0, 0.0, 0.0, 0.0, 1.6962774232931216E9, 0.0, 2023-10-02 16:10:23.293
128.0, -7166.282196793819, -15663.655479390083, -77068.01021909836, -95282.2903135169, -76875.47229236034, -38096.000325202986, -65045.23039403324, -72168.57488972842, -0.128, 0.998, 0.006, 192.0, 0.0, 0.0, 0.0, 0.0, 0.0, 0.0, 0.0, 0.0, 0.0, 1.6962774232931347E9, 0.0, 2023-10-02 16:10:23.293
129.0, -7155.173379799531, -15650.95968853947, -77055.24737301438, -95278.75873789296, -76872.76773128126, -38083.416293074646, -65037.80961487408, -72166.3844187718, -0.128, 0.998, 0.006, 192.0, 0.0, 0.0, 0.0, 0.0, 0.0, 0.0, 0.0, 0.0, 0.0, 1.696277423293146E9, 0.0, 2023-10-02 16:10:23.293
130.0, -7156.045097833288, -15656.257051975377, -77055.26972475884, -95276.81413612535, -76872.07482720313, -38086.120854153734, -65035.037998561624, -72166.11619783833, -0.128, 0.998, 0.006, 192.0, 0.0, 0.0, 0.0, 0.0, 0.0, 0.0, 0.0, 0.0, 0.0, 1.69627742329316E9, 0.0, 2023-10-02 16:10:23.293
131.0, -7162.191827558498, -15660.682697377528, -77060.07534981673, -95276.36710123625, -76871.51603359176, -38096.000325202986, -65034.7474258837, -72166.49617749407, -0.128, 0.998, 0.006, 192.0, 0.0, 0.0, 0.0, 0.0, 0.0, 0.0, 0.0, 0.0, 0.0, 1.6962774232931716E9, 0.0, 2023-10-02 16:10:23.293
132.0, -7161.364813013651, -15657.352287453687, -77051.40287296807, -95273.17080177914, -76868.49854809028, -38096.02267694744, -65025.56085891258, -72163.97043037062, -0.128, 0.998, 0.006, 192.0, 0.0, 0.0, 0.0, 0.0, 0.0, 0.0, 0.0, 0.0, 0.0, 1.696277423293183E9, 0.0, 2023-10-02 16:10:23.293
133.0, -7159.107286823665, -15655.38533394162, -77045.39025370959, -95276.52356344742, -76871.06899870266, -38089.138339655205, -65025.09147227901, -72168.30666879496, -0.128, 0.998, 0.006, 192.0, 0.0, 0.0, 0.0, 0.0, 0.0, 0.0, 0.0, 0.0, 0.0, 1.6962774232932196E9, 0.0, 2023-10-02 16:10:23.293
134.0, -7162.057717091766, -15661.397953200098, -77053.10160554668, -95280.7927466384, -76877.21572842787, -38094.323944368836, -65036.446158462306, -72178.14143635529, -0.128, 0.998, 0.006, 192.0, 0.0, 0.0, 0.0, 0.0, 0.0, 0.0, 0.0, 0.0, 0.0, 1.6962774232932308E9, 0.0, 2023-10-02 16:10:23.293
135.0, -7159.129638568121, -15660.883863077624, -77058.42132072704, -95273.70724364606, -76872.20893766987, -38103.264642150956, -65035.01564681717, -72176.9344421547, -0.128, 0.998, 0.006, 192.0, 0.0, 0.0, 0.0, 0.0, 0.0, 0.0, 0.0, 0.0, 0.0, 1.6962774232932432E9, 0.0, 2023-10-02 16:10:23.293
136.0, -7156.201560044475, -15655.47474091944, -77052.45340495747, -95267.62756915423, -76871.24781265829, -38097.676706037135, -65028.73480662523, -72170.02775311802, -0.128, 0.998, 0.006, 192.0, 0.0, 0.0, 0.0, 0.0, 0.0, 0.0, 0.0, 0.0, 0.0, 1.6962774232933433E9, 0.0, 2023-10-02 16:10:23.293
137.0, -7155.285138521807, -15652.85958681817, -77058.91305910505, -95273.6401884127, -76879.13797845102, -38089.96535420005, -65037.18376602933, -72177.82851193292, -0.128, 1.002, 0.01, 192.0, 252.0, 0.0, 31.0, 80.0, 0.0, 80.0, 0.0, 0.0, 0.0, 1.6962774232933576E9, 0.0, 2023-10-02 16:10:23.293
138.0, -7151.46299021995, -15645.57291812574, -77065.75269290837, -95267.9851970655, -76878.06509471717, -38083.37158958573, -65035.50738519519, -72173.42521827522, -0.128, 1.002, 0.01, 192.0, 0.0, 0.0, 0.0, 0.0, 0.0, 0.0, 0.0, 0.0, 0.0, 1.69627742329337E9, 0.0, 2023-10-02 16:10:23.293
139.0, -7157.743830411891, -15649.216252471955, -77074.93925987951, -95269.16983952164, -76884.90472852049, -38094.77097925794, -65043.10697830999, -72175.10159910937, -0.128, 1.002, 0.01, 192.0, 0.0, 0.0, 0.0, 0.0, 0.0, 0.0, 0.0, 0.0, 0.0, 1.6962774232933831E9, 0.0, 2023-10-02 16:10:23.293
140.0, -7150.904196608567, -15645.327048936731, -77062.86931787364, -95258.79863009437, -76864.51993757725, -38095.06155193586, -65021.53754491062, -72160.95294486916, -0.128, 1.002, 0.01, 192.0, 0.0, 0.0, 0.0, 0.0, 0.0, 0.0, 0.0, 0.0, 0.0, 1.6962774232933943E9, 0.0, 2023-10-02 16:10:23.293
141.0, -7146.456199461962, -15647.092836748701, -77049.21240201144, -95263.29133072989, -76866.17396666695, -38085.67381926463, -65017.76010009767, -72159.70124717966, -0.128, 1.002, 0.01, 192.0, 0.0, 0.0, 0.0, 0.0, 0.0, 0.0, 0.0, 0.0, 0.0, 1.6962774232934046E9, 0.0, 2023-10-02 16:10:23.293
142.0, -7137.3143359797405, -15641.639011101606, -77047.71483513294, -95261.99492955148, -76860.7424927643, -38082.76809248544, -65016.62016113045, -72161.26586929153, -0.128, 1.002, 0.01, 192.0, 0.0, 0.0, 0.0, 0.0, 0.0, 0.0, 0.0, 0.0, 0.0, 1.6962774232934155E9, 0.0, 2023-10-02 16:10:23.293
143.0, -7143.103437793665, -15644.209461713966, -77052.47575670193, -95266.95701682055, -76861.16717590895, -38090.30063036688, -65017.4471756753, -72168.23961356159, -0.128, 1.002, 0.01, 192.0, 0.0, 0.0, 0.0, 0.0, 0.0, 0.0, 0.0, 0.0, 0.0, 1.6962774232934303E9, 0.0, 2023-10-02 16:10:23.293
144.0, -7150.233644274908, -15648.255127460377, -77055.9849805814, -95270.9356273336, -76866.12926317802, -38091.48527282301, -65026.85726009098, -72167.97139262813, -0.128, 1.002, 0.01, 192.0, 0.0, 0.0, 0.0, 0.0, 0.0, 0.0, 0.0, 0.0, 0.0, 1.6962774232934415E9, 0.0, 2023-10-02 16:10:23.293
145.0, -7145.897405850578, -15643.740075080404, -77047.49131768839, -95273.72959539051, -76867.4480161009, -38080.01882791744, -65026.387873457425, -72165.87032864933, -0.128, 1.002, 0.01, 192.0, 0.0, 0.0, 0.0, 0.0, 0.0, 0.0, 0.0, 0.0, 0.0, 1.6962774232934537E9, 0.0, 2023-10-02 16:10:23.293
146.0, -7145.673888406025, -15644.611793114162, -77052.49810844638, -95281.1950780386, -76871.47133010285, -38075.995513915484, -65027.59486765801, -72172.53114849702, -0.128, 1.002, 0.01, 192.0, 0.0, 0.0, 0.0, 0.0, 0.0, 0.0, 0.0, 0.0, 0.0, 1.6962774232934673E9, 0.0, 2023-10-02 16:10:23.293
147.0, -7149.831312874712, -15650.222080972444, -77070.40185575507, -95284.90546761817, -76874.89114700451, -38085.49500530899, -65028.690103136316, -72180.37661080083, -0.124, 0.998, 0.016, 192.0, 252.0, 32.0, 31.0, 48.0, 0.0, 128.0, 0.0, 0.0, 0.0, 1.6962774232934778E9, 0.0, 2023-10-02 16:10:23.293
148.0, -7151.865321620146, -15647.316354193254, -77071.58649821121, -95279.58575243781, -76870.33139113562, -38091.10529316727, -65024.77854785664, -72175.8839101653, -0.124, 0.998, 0.016, 192.0, 0.0, 0.0, 0.0, 0.0, 0.0, 0.0, 0.0, 0.0, 0.0, 1.6962774232934892E9, 0.0, 2023-10-02 16:10:23.293
149.0, -7150.703030908469, -15641.974287268435, -77060.29886726128, -95279.65280767117, -76866.71040853387, -38077.806005216364, -65016.731919852726, -72171.14534034078, -0.124, 0.998, 0.016, 192.0, 0.0, 0.0, 0.0, 0.0, 0.0, 0.0, 0.0, 0.0, 0.0, 1.6962774232935007E9, 0.0, 2023-10-02 16:10:23.293
150.0, -7151.217121030942, -15644.18710996951, -77059.9859428389, -95289.82285139833, -76874.55587083768, -38075.74964472648, -65018.31889370905, -72180.35425905636, -0.124, 0.998, 0.016, 192.0, 0.0, 0.0, 0.0, 0.0, 0.0, 0.0, 0.0, 0.0, 0.0, 1.6962774232935133E9, 0.0, 2023-10-02 16:10:23.293
151.0, -7160.448391490983, -15654.133636252123, -77079.99075412641, -95300.32817129233, -76882.80366454169, -38088.62424953273, -65027.86308859147, -72186.09865738139, -0.124, 0.998, 0.016, 192.0, 0.0, 0.0, 0.0, 0.0, 0.0, 0.0, 0.0, 0.0, 0.0, 1.6962774232935271E9, 0.0, 2023-10-02 16:10:23.293
152.0, -7167.84681890569, -15659.989793299414, -77088.3950100416, -95300.41757827015, -76871.33721963612, -38093.22870889053, -65030.88057409294, -72186.41158180375, -0.124, 0.998, 0.016, 192.0, 0.0, 0.0, 0.0, 0.0, 0.0, 0.0, 0.0, 0.0, 0.0, 1.6962774232935588E9, 0.0, 2023-10-02 16:10:23.293
153.0, -7165.388127015606, -15655.541796152807, -77079.23079481492, -95299.09882534729, -76866.95627772287, -38084.86915646424, -65027.05842579108, -72181.1365701123, -0.124, 0.998, 0.016, 192.0, 0.0, 0.0, 0.0, 0.0, 0.0, 0.0, 0.0, 0.0, 0.0, 1.6962774232935705E9, 0.0, 2023-10-02 16:10:23.293
154.0, -7157.3862025006065, -15650.020915272346, -77073.82167265675, -95299.72467419204, -76867.00098121178, -38089.272450121935, -65031.64053340442, -72185.83043644791, -0.124, 0.998, 0.016, 192.0, 0.0, 0.0, 0.0, 0.0, 0.0, 0.0, 0.0, 0.0, 0.0, 1.6962774232935815E9, 0.0, 2023-10-02 16:10:23.293
155.0, -7155.12867631062, -15647.361057682165, -77072.3464575227, -95293.44383400009, -76861.45774858686, -38093.765150757456, -65028.46658569176, -72179.57194800043, -0.124, 0.998, 0.016, 192.0, 0.0, 0.0, 0.0, 0.0, 0.0, 0.0, 0.0, 0.0, 0.0, 1.6962774232936049E9, 0.0, 2023-10-02 16:10:23.293
156.0, -7171.311339296262, -15658.402819443087, -77089.62435598664, -95303.41271202716, -76872.61126907007, -38104.73985728501, -65030.925277581846, -72190.36784057235, -0.124, 0.998, 0.016, 192.0, 0.0, 0.0, 0.0, 0.0, 0.0, 0.0, 0.0, 0.0, 0.0, 1.696277423293616E9, 0.0, 2023-10-02 16:10:23.293
157.0, -7173.837086419712, -15662.627299145139, -77084.93048965103, -95303.50211900499, -76871.91836499196, -38106.907976497176, -65031.59582991551, -72194.54761678548, -0.126, 0.996, 0.012, 192.0, 252.0, 16.0, 31.0, 32.0, 0.0, 96.0, 0.0, 0.0, 0.0, 1.696277423293628E9, 0.0, 2023-10-02 16:10:23.293
158.0, -7161.029536846821, -15653.865415318658, -77068.7925301543, -95295.81311891237, -76865.57046956665, -38096.71558102555, -65029.85239384799, -72188.80321846047, -0.126, 0.996, 0.012, 192.0, 0.0, 0.0, 0.0, 0.0, 0.0, 0.0, 0.0, 0.0, 0.0, 1.6962774232936387E9, 0.0, 2023-10-02 16:10:23.293
159.0, -7158.302624023274, -15651.38437168412, -77070.53596622181, -95289.93461012062, -76864.45288234387, -38091.6417350342, -65027.840736847014, -72182.81295094645, -0.126, 0.996, 0.012, 192.0, 0.0, 0.0, 0.0, 0.0, 0.0, 0.0, 0.0, 0.0, 0.0, 1.6962774232936544E9, 0.0, 2023-10-02 16:10:23.293
160.0, -7165.365775271151, -15658.559281654274, -77083.05294311678, -95289.53227872042, -76865.07873118862, -38097.85551999277, -65023.32568446705, -72183.32704106891, -0.126, 0.996, 0.012, 192.0, 0.0, 0.0, 0.0, 0.0, 0.0, 0.0, 0.0, 0.0, 0.0, 1.696277423293671E9, 0.0, 2023-10-02 16:10:23.293
161.0, -7167.913874139056, -15660.727400866439, -77082.65061171658, -95290.38164500972, -76863.22353639884, -38096.24619439199, -65019.97292279875, -72182.5894335019, -0.126, 0.996, 0.012, 192.0, 0.0, 0.0, 0.0, 0.0, 0.0, 0.0, 0.0, 0.0, 0.0, 1.6962774232936828E9, 0.0, 2023-10-02 16:10:23.293
162.0, -7165.812810160257, -15659.028668287834, -77075.90038489108, -95294.62847645623, -76869.45967310187, -38087.8419384768, -65022.02928328863, -72185.3386980699, -0.126, 0.996, 0.012, 192.0, 0.0, 0.0, 0.0, 0.0, 0.0, 0.0, 0.0, 0.0, 0.0, 1.696277423293697E9, 0.0, 2023-10-02 16:10:23.293
163.0, -7162.191827558498, -15656.145293253101, -77079.99075412641, -95291.90156363268, -76868.05151320118, -38082.96925818554, -65021.068158277056, -72180.86834917884, -0.126, 0.996, 0.012, 192.0, 0.0, 0.0, 0.0, 0.0, 0.0, 0.0, 0.0, 0.0, 0.0, 1.6962774232937107E9, 0.0, 2023-10-02 16:10:23.293
164.0, -7169.858475906668, -15662.604947400683, -77090.7419432094, -95293.48853748901, -76867.87269924555, -38088.62424953273, -65025.58321065703, -72183.036468391, -0.126, 0.996, 0.012, 192.0, 0.0, 0.0, 0.0, 0.0, 0.0, 0.0, 0.0, 0.0, 0.0, 1.696277423293725E9, 0.0, 2023-10-02 16:10:23.293
165.0, -7176.988682387911, -15665.689488135517, -77089.75846645338, -95294.49436598949, -76865.92809747792, -38093.16165365716, -65027.43840544682, -72184.62344224734, -0.126, 0.996, 0.012, 192.0, 0.0, 0.0, 0.0, 0.0, 0.0, 0.0, 0.0, 0.0, 0.0, 1.6962774232937465E9, 0.0, 2023-10-02 16:10:23.293
166.0, -7170.998414873889, -15657.329935709231, -77076.05684710227, -95295.45549100108, -76865.5481178222, -38076.01786565994, -65025.22558274575, -72178.49906426658, -0.126, 0.996, 0.014, 192.0, 252.0, 16.0, 31.0, 32.0, 0.0, 112.0, 0.0, 0.0, 0.0, 1.6962774232937605E9, 0.0, 2023-10-02 16:10:23.293
167.0, -7165.388127015606, -15650.847929817193, -77080.28132680432, -95297.46714800205, -76871.04664695819, -38073.425063303126, -65031.126443281944, -72182.5894335019, -0.126, 0.996, 0.014, 192.0, 0.0, 0.0, 0.0, 0.0, 0.0, 0.0, 0.0, 0.0, 0.0, 1.696277423293815E9, 0.0, 2023-10-02 16:10:23.293
168.0, -7167.958577627966, -15655.206519985977, -77089.78081819783, -95295.25432530098, -76870.13022543553, -38086.29966810938, -65034.34509448351, -72184.77990445851, -0.126, 0.996, 0.014, 192.0, 0.0, 0.0, 0.0, 0.0, 0.0, 0.0, 0.0, 0.0, 0.0, 1.6962774232938263E9, 0.0, 2023-10-02 16:10:23.293
169.0, -7176.474592265438, -15664.236624745921, -77094.47468453344, -95302.31747654885, -76876.83574877212, -38096.06738043635, -65040.715341653275, -72188.15501787126, -0.126, 0.996, 0.014, 192.0, 0.0, 0.0, 0.0, 0.0, 0.0, 0.0, 0.0, 0.0, 0.0, 1.6962774232938373E9, 0.0, 2023-10-02 16:10:23.293
170.0, -7167.019804360843, -15653.53013915183, -77085.75750419588, -95298.9423631361, -76874.75703653778, -38092.11112166776, -65040.62593467545, -72190.61370976135, -0.126, 0.996, 0.014, 192.0, 0.0, 0.0, 0.0, 0.0, 0.0, 0.0, 0.0, 0.0, 0.0, 1.6962774232938516E9, 0.0, 2023-10-02 16:10:23.293
171.0, -7161.6106822026595, -15649.52917689433, -77082.20357682748, -95304.1950230831, -76880.07675171814, -38086.05379892037, -65043.33049575454, -72190.1443231278, -0.126, 0.996, 0.014, 192.0, 0.0, 0.0, 0.0, 0.0, 0.0, 0.0, 0.0, 0.0, 0.0, 1.6962774232938693E9, 0.0, 2023-10-02 16:10:23.293
172.0, -7158.7943624012905, -15650.467950161452, -77086.942146652, -95299.25528755848, -76873.48298710382, -38099.46484559355, -65045.34215275552, -72188.22207310464, -0.126, 0.996, 0.014, 192.0, 0.0, 0.0, 0.0, 0.0, 0.0, 0.0, 0.0, 0.0, 0.0, 1.6962774232938814E9, 0.0, 2023-10-02 16:10:23.293
173.0, -7160.068411835243, -15652.300793206787, -77080.59425122669, -95290.98514211002, -76864.96697246635, -38107.533825341925, -65034.65801890589, -72180.44366603419, -0.126, 0.996, 0.014, 192.0, 0.0, 0.0, 0.0, 0.0, 0.0, 0.0, 0.0, 0.0, 0.0, 1.696277423293893E9, 0.0, 2023-10-02 16:10:23.293
174.0, -7161.029536846821, -15650.892633306103, -77072.63703020061, -95295.83547065682, -76868.36443762356, -38103.73402878452, -65031.9981613157, -72183.036468391, -0.126, 0.996, 0.014, 192.0, 0.0, 0.0, 0.0, 0.0, 0.0, 0.0, 0.0, 0.0, 0.0, 1.6962774232939036E9, 0.0, 2023-10-02 16:10:23.293
175.0, -7162.102420580676, -15654.044229274301, -77071.18416681101, -95308.10657836279, -76876.5451760942, -38096.02267694744, -65037.697856151804, -72191.82070396194, -0.126, 0.996, 0.014, 192.0, 0.0, 0.0, 0.0, 0.0, 0.0, 0.0, 0.0, 0.0, 0.0, 1.696277423293918E9, 0.0, 2023-10-02 16:10:23.293
176.0, -7156.827408889224, -15650.199729227988, -77070.96064936646, -95299.61291546976, -76867.17979516742, -38102.32586888383, -65030.2994287371, -72189.31730858295, -0.126, 0.996, 0.014, 192.0, 252.0, 16.0, 31.0, 32.0, 0.0, 112.0, 0.0, 0.0, 0.0, 1.6962774232939434E9, 0.0, 2023-10-02 16:10:23.293
177.0, -7168.137391583609, -15658.380467698631, -77072.77114066735, -95303.43506377161, -76874.84644351559, -38109.768999787455, -65030.67940839284, -72190.21137836116, -0.126, 0.996, 0.014, 192.0, 0.0, 0.0, 0.0, 0.0, 0.0, 0.0, 0.0, 0.0, 0.0, 1.696277423293956E9, 0.0, 2023-10-02 16:10:23.293
178.0, -7176.541647498804, -15667.72349688095, -77075.31923953525, -95310.85584293079, -76882.0437052302, -38115.40163939019, -65032.48989969372, -72199.53205579902, -0.126, 0.996, 0.014, 192.0, 0.0, 0.0, 0.0, 0.0, 0.0, 0.0, 0.0, 0.0, 0.0, 1.6962774232939699E9, 0.0, 2023-10-02 16:10:23.293
179.0, -7172.138353841109, -15666.002412557891, -77073.08406508972, -95309.02299988545, -76879.02621972874, -38109.143150942706, -65029.248896747704, -72200.02379417703, -0.126, 0.996, 0.014, 192.0, 0.0, 0.0, 0.0, 0.0, 0.0, 0.0, 0.0, 0.0, 0.0, 1.6962774232939813E9, 0.0, 2023-10-02 16:10:23.293
180.0, -7165.231664804419, -15658.089895020712, -77073.2405273009, -95298.78590092492, -76870.91253649147, -38105.11983694075, -65023.236277489224, -72190.09961963887, -0.126, 0.996, 0.014, 192.0, 0.0, 0.0, 0.0, 0.0, 0.0, 0.0, 0.0, 0.0, 0.0, 1.696277423293995E9, 0.0, 2023-10-02 16:10:23.293
181.0, -7174.440583520006, -15665.801246857793, -77079.92369889304, -95303.1444910937, -76872.25364115878, -38111.55713934388, -65024.89030657891, -72195.59814877488, -0.126, 0.996, 0.014, 192.0, 0.0, 0.0, 0.0, 0.0, 0.0, 0.0, 0.0, 0.0, 0.0, 1.6962774232940073E9, 0.0, 2023-10-02 16:10:23.294
182.0, -7173.367699786151, -15664.258976490377, -77073.93343137902, -95297.2436305575, -76868.47619634583, -38105.67863055213, -65020.41995768785, -72187.66327949325, -0.126, 0.996, 0.014, 192.0, 0.0, 0.0, 0.0, 0.0, 0.0, 0.0, 0.0, 0.0, 0.0, 1.696277423294066E9, 0.0, 2023-10-02 16:10:23.294
183.0, -7175.491115509405, -15667.455275947486, -77072.81584415626, -95305.02203762795, -76879.2944406622, -38092.37934260123, -65022.23044898873, -72189.42906730522, -0.126, 0.996, 0.014, 192.0, 0.0, 0.0, 0.0, 0.0, 0.0, 0.0, 0.0, 0.0, 0.0, 1.6962774232940817E9, 0.0, 2023-10-02 16:10:23.294
184.0, -7174.619397475648, -15668.81873235926, -77080.61660297116, -95302.87627016024, -76881.8425395301, -38095.553290313874, -65029.740635125716, -72192.53595978451, -0.126, 0.996, 0.014, 192.0, 0.0, 0.0, 0.0, 0.0, 0.0, 0.0, 0.0, 0.0, 0.0, 1.696277423294096E9, 0.0, 2023-10-02 16:10:23.294
185.0, -7181.816659190257, -15677.20063653, -77087.7468094524, -95303.03273237143, -76882.26722267475, -38105.365706129756, -65033.47337644975, -72190.5913580169, -0.126, 0.996, 0.014, 192.0, 0.0, 0.0, 0.0, 0.0, 0.0, 0.0, 0.0, 0.0, 0.0, 1.6962774232941115E9, 0.0, 2023-10-02 16:10:23.294
186.0, -7182.084880123721, -15680.173418542556, -77086.85273967418, -95306.87723241774, -76885.68703957643, -38096.08973218081, -65034.47920495024, -72185.65162249227, -0.122, 1.0, 0.012, 192.0, 252.0, 48.0, 31.0, 64.0, 0.0, 96.0, 0.0, 0.0, 0.0, 1.6962774232941294E9, 0.0, 2023-10-02 16:10:23.294
187.0, -7174.552342242282, -15672.640880661116, -77080.30367854878, -95310.20764234157, -76884.21182444238, -38085.11502565325, -65035.57444042855, -72185.18223585871, -0.122, 1.0, 0.012, 192.0, 0.0, 0.0, 0.0, 0.0, 0.0, 0.0, 0.0, 0.0, 0.0, 1.6962774232941468E9, 0.0, 2023-10-02 16:10:23.294
188.0, -7173.971196886444, -15670.159837026578, -77084.03641987282, -95312.71103772057, -76889.30802217819, -38085.31619135335, -65041.87763236495, -72193.05004990697, -0.122, 1.0, 0.012, 192.0, 0.0, 0.0, 0.0, 0.0, 0.0, 0.0, 0.0, 0.0, 0.0, 1.6962774232941637E9, 0.0, 2023-10-02 16:10:23.294
189.0, -7180.56496150076, -15674.987813828924, -77092.46302753246, -95313.56040400987, -76888.23513844433, -38099.68836303811, -65043.17403354336, -72199.55440754347, -0.122, 1.0, 0.012, 192.0, 0.0, 0.0, 0.0, 0.0, 0.0, 0.0, 0.0, 0.0, 0.0, 1.696277423294182E9, 0.0, 2023-10-02 16:10:23.294
190.0, -7191.271447094852, -15681.603930187695, -77090.7419432094, -95319.05893314588, -76893.66661234696, -38106.21507241906, -65043.82223413256, -72199.62146277683, -0.122, 1.0, 0.012, 192.0, 0.0, 0.0, 0.0, 0.0, 0.0, 0.0, 0.0, 0.0, 0.0, 1.6962774232941964E9, 0.0, 2023-10-02 16:10:23.294
191.0, -7189.2597900938745, -15676.820656874259, -77083.38821928362, -95321.33881108032, -76897.73462983783, -38099.30838338237, -65043.665771921376, -72200.40377383278, -0.122, 1.0, 0.012, 192.0, 0.0, 0.0, 0.0, 0.0, 0.0, 0.0, 0.0, 0.0, 0.0, 1.6962774232942088E9, 0.0, 2023-10-02 16:10:23.294
192.0, -7181.8613626791675, -15670.495113193407, -77082.56120473877, -95315.37089531076, -76892.3478594241, -38094.88273798022, -65037.429635218345, -72197.63215752032, -0.122, 1.0, 0.012, 192.0, 0.0, 0.0, 0.0, 0.0, 0.0, 0.0, 0.0, 0.0, 0.0, 1.6962774232942212E9, 0.0, 2023-10-02 16:10:23.294
193.0, -7189.572714516248, -15680.352232498199, -77091.09957112069, -95315.7508749665, -76892.7501908243, -38105.20924391857, -65037.92137359636, -72202.10250641138, -0.122, 1.0, 0.012, 192.0, 0.0, 0.0, 0.0, 0.0, 0.0, 0.0, 0.0, 0.0, 0.0, 1.696277423294232E9, 0.0, 2023-10-02 16:10:23.294
194.0, -7194.735967485424, -15686.476610478952, -77093.53591126633, -95318.43308430113, -76896.1029524926, -38111.89241551071, -65042.43642597633, -72209.23271289263, -0.122, 1.0, 0.012, 192.0, 0.0, 0.0, 0.0, 0.0, 0.0, 0.0, 0.0, 0.0, 0.0, 1.696277423294243E9, 0.0, 2023-10-02 16:10:23.294
195.0, -7185.862324936667, -15675.881883607137, -77085.98102164043, -95315.23678484402, -76892.83959780211, -38109.411371876166, -65040.24595501971, -72206.17052390224, -0.122, 1.0, 0.012, 192.0, 0.0, 0.0, 0.0, 0.0, 0.0, 0.0, 0.0, 0.0, 0.0, 1.6962774232942536E9, 0.0, 2023-10-02 16:10:23.294
196.0, -7179.357967300173, -15667.321165480753, -77077.28619304732, -95312.62163074275, -76891.31967917916, -38098.660182793166, -65036.177937528846, -72201.23078837762, -0.124, 1.004, 0.01, 192.0, 252.0, 32.0, 31.0, 96.0, 0.0, 80.0, 0.0, 0.0, 0.0, 1.6962774232942653E9, 0.0, 2023-10-02 16:10:23.294
197.0, -7178.486249266416, -15663.81194160127, -77086.36100129617, -95308.7994824409, -76888.97274601135, -38101.990592717004, -65033.00398981619, -72201.16373314426, -0.124, 1.004, 0.01, 192.0, 0.0, 0.0, 0.0, 0.0, 0.0, 0.0, 0.0, 0.0, 0.0, 1.696277423294302E9, 0.0, 2023-10-02 16:10:23.294
198.0, -7184.118888869154, -15670.38335447113, -77085.93631815152, -95310.20764234157, -76885.28470817623, -38112.83118877783, -65029.472414192256, -72199.57675928793, -0.124, 1.004, 0.01, 192.0, 0.0, 0.0, 0.0, 0.0, 0.0, 0.0, 0.0, 0.0, 0.0, 1.6962774232943118E9, 0.0, 2023-10-02 16:10:23.294
199.0, -7188.410423804573, -15677.58061618574, -77084.43875127302, -95315.97439241105, -76889.50918787828, -38109.63488932072, -65030.21002175928, -72204.85177097938, -0.124, 1.004, 0.01, 192.0, 0.0, 0.0, 0.0, 0.0, 0.0, 0.0, 0.0, 0.0, 0.0, 1.6962774232943234E9, 0.0, 2023-10-02 16:10:23.294
200.0, -7178.463897521961, -15668.706973636983, -77087.23271932993, -95309.78295919692, -76886.93873726593, -38106.95267998608, -65029.96415257027, -72200.18025638822, -0.124, 1.004, 0.01, 192.0, 0.0, 0.0, 0.0, 0.0, 0.0, 0.0, 0.0, 0.0, 0.0, 1.6962774232943344E9, 0.0, 2023-10-02 16:10:23.294
201.0, -7170.4172695180505, -15663.588424156718, -77087.16566409655, -95300.14935733669, -76882.8930715195, -38108.87493000924, -65026.097300779504, -72192.8935876958, -0.124, 1.004, 0.01, 192.0, 0.0, 0.0, 0.0, 0.0, 0.0, 0.0, 0.0, 0.0, 0.0, 1.6962774232943451E9, 0.0, 2023-10-02 16:10:23.294
202.0, -7169.567903228749, -15663.81194160127, -77084.37169603964, -95296.97540962404, -76880.70260056289, -38116.02748823494, -65028.73480662523, -72194.63702376331, -0.124, 1.004, 0.01, 192.0, 0.0, 0.0, 0.0, 0.0, 0.0, 0.0, 0.0, 0.0, 0.0, 1.696277423294356E9, 0.0, 2023-10-02 16:10:23.294
203.0, -7169.925531140034, -15665.913005580069, -77073.32993427872, -95302.07160735985, -76886.894033777, -38114.88754926772, -65031.72994038224, -72201.38725058881, -0.124, 1.004, 0.01, 192.0, 0.0, 0.0, 0.0, 0.0, 0.0, 0.0, 0.0, 0.0, 0.0, 1.6962774232943687E9, 0.0, 2023-10-02 16:10:23.294
204.0, -7162.996490358889, -15661.397953200098, -77067.36201850916, -95303.7926916829, -76888.70452507789, -38109.478427109534, -65034.79212937262, -72200.47082906614, -0.124, 1.004, 0.01, 192.0, 0.0, 0.0, 0.0, 0.0, 0.0, 0.0, 0.0, 0.0, 0.0, 1.6962774232943792E9, 0.0, 2023-10-02 16:10:23.294
205.0, -7164.784629915313, -15662.33672646722, -77073.59815521218, -95307.1007498623, -76890.82794080114, -38118.5979388473, -65042.391722487424, -72204.80706749047, -0.124, 1.004, 0.01, 192.0, 0.0, 0.0, 0.0, 0.0, 0.0, 0.0, 0.0, 0.0, 0.0, 1.6962774232943895E9, 0.0, 2023-10-02 16:10:23.294
206.0, -7176.832220176723, -15669.533988181829, -77085.91396640707, -95311.43698828662, -76896.88526354852, -38127.18100871814, -65044.44808297731, -72203.2424453786, -0.11800000000000001, 1.002, 0.01, 192.0, 252.0, 80.0, 31.0, 80.0, 0.0, 80.0, 0.0, 0.0, 0.0, 1.6962774232943995E9, 0.0, 2023-10-02 16:10:23.294
207.0, -7182.554266757282, -15675.546607440307, -77086.38335304063, -95317.4496075451, -76900.21567347237, -38123.51532262746, -65044.44808297731, -72203.15303840078, -0.11800000000000001, 1.002, 0.01, 192.0, 0.0, 0.0, 0.0, 0.0, 0.0, 0.0, 0.0, 0.0, 0.0, 1.6962774232944117E9, 0.0, 2023-10-02 16:10:23.294
208.0, -7173.837086419712, -15669.131656781634, -77081.64478321609, -95314.00743889897, -76897.8016850712, -38119.268491180956, -65041.02826607565, -72198.25800636507, -0.11800000000000001, 1.002, 0.01, 192.0, 0.0, 0.0, 0.0, 0.0, 0.0, 0.0, 0.0, 0.0, 0.0, 1.696277423294422E9, 0.0, 2023-10-02 16:10:23.294
209.0, -7170.461973006961, -15666.561206169274, -77081.80124542728, -95313.06866563186, -76895.54415888121, -38118.48618012502, -65041.49765270921, -72199.06266916546, -0.11800000000000001, 1.002, 0.01, 192.0, 0.0, 0.0, 0.0, 0.0, 0.0, 0.0, 0.0, 0.0, 0.0, 1.696277423294432E9, 0.0, 2023-10-02 16:10:23.294
210.0, -7170.841952662701, -15665.600081157696, -77082.02476287184, -95304.37383703874, -76890.76088556778, -38127.091601740314, -65038.279001507646, -72193.295919096, -0.11800000000000001, 1.002, 0.01, 192.0, 0.0, 0.0, 0.0, 0.0, 0.0, 0.0, 0.0, 0.0, 0.0, 1.696277423294442E9, 0.0, 2023-10-02 16:10:23.294
211.0, -7170.461973006961, -15663.342554967709, -77067.45142548697, -95300.5963922258, -76887.45282738839, -38127.13630522923, -65031.77464387115, -72184.19875910268, -0.11800000000000001, 1.002, 0.01, 192.0, 0.0, 0.0, 0.0, 0.0, 0.0, 0.0, 0.0, 0.0, 0.0, 1.696277423294452E9, 0.0, 2023-10-02 16:10:23.294
212.0, -7164.717574681947, -15657.62050838715, -77059.22598352743, -95298.20475556908, -76884.90472852049, -38118.1956074471, -65029.248896747704, -72181.1365701123, -0.11800000000000001, 1.002, 0.01, 192.0, 0.0, 0.0, 0.0, 0.0, 0.0, 0.0, 0.0, 0.0, 0.0, 1.6962774232944744E9, 0.0, 2023-10-02 16:10:23.294
213.0, -7164.091725837198, -15658.492226420907, -77059.02481782733, -95297.71301719105, -76884.3459349091, -38115.40163939019, -65028.95832406978, -72179.01315438905, -0.11800000000000001, 1.002, 0.01, 192.0, 0.0, 0.0, 0.0, 0.0, 0.0, 0.0, 0.0, 0.0, 0.0, 1.6962774232944853E9, 0.0, 2023-10-02 16:10:23.294
214.0, -7173.9935486309, -15671.188017271521, -77072.70408543397, -95303.5915259828, -76883.4965686198, -38133.327738443346, -65032.1993270158, -72186.88096843731, -0.11800000000000001, 1.002, 0.01, 192.0, 0.0, 0.0, 0.0, 0.0, 0.0, 0.0, 0.0, 0.0, 0.0, 1.696277423294495E9, 0.0, 2023-10-02 16:10:23.294
215.0, -7175.222894575942, -15671.165665527067, -77069.01604759885, -95300.75285443699, -76880.63554532953, -38134.847657066304, -65024.48797517872, -72181.80712244596, -0.11800000000000001, 1.002, 0.01, 192.0, 0.0, 0.0, 0.0, 0.0, 0.0, 0.0, 0.0, 0.0, 0.0, 1.6962774232945054E9, 0.0, 2023-10-02 16:10:23.294
216.0, -7170.819600918246, -15667.589386414218, -77069.2395650434, -95306.38549403971, -76891.38673441252, -38127.091601740314, -65033.00398981619, -72184.6904974807, -0.116, 0.998, 0.01, 192.0, 252.0, 96.0, 31.0, 48.0, 0.0, 80.0, 0.0, 0.0, 0.0, 1.6962774232945154E9, 0.0, 2023-10-02 16:10:23.294
217.0, -7163.264711292352, -15660.548586910796, -77072.1452918226, -95304.12796784974, -76882.75896105278, -38120.76605805946, -65033.27221074966, -72181.5836050014, -0.116, 0.998, 0.01, 192.0, 0.0, 0.0, 0.0, 0.0, 0.0, 0.0, 0.0, 0.0, 0.0, 1.6962774232945275E9, 0.0, 2023-10-02 16:10:23.294
218.0, -7161.163647313553, -15657.486397920418, -77075.0957220907, -95298.16005208017, -76874.22059467084, -38126.13047672874, -65028.64539964741, -72178.34260205539, -0.116, 0.998, 0.01, 192.0, 0.0, 0.0, 0.0, 0.0, 0.0, 0.0, 0.0, 0.0, 0.0, 1.6962774232945383E9, 0.0, 2023-10-02 16:10:23.294
219.0, -7166.617472960648, -15662.202616000488, -77075.60981221317, -95296.21545031255, -76874.15353943748, -38126.24223545101, -65023.169222255856, -72170.54184324048, -0.116, 0.998, 0.01, 192.0, 0.0, 0.0, 0.0, 0.0, 0.0, 0.0, 0.0, 0.0, 0.0, 1.696277423294552E9, 0.0, 2023-10-02 16:10:23.294
220.0, -7163.46587699245, -15660.19095899951, -77068.189033054, -95296.4389677571, -76878.46742611736, -38115.46869462355, -65018.698873364796, -72168.01609611703, -0.116, 0.998, 0.01, 192.0, 0.0, 0.0, 0.0, 0.0, 0.0, 0.0, 0.0, 0.0, 0.0, 1.6962774232945619E9, 0.0, 2023-10-02 16:10:23.294
221.0, -7161.409516502562, -15659.587461899218, -77066.87028013114, -95302.2951248044, -76884.32358316465, -38106.30447939688, -65023.72801586724, -72172.84407291938, -0.116, 0.998, 0.01, 192.0, 0.0, 0.0, 0.0, 0.0, 0.0, 0.0, 0.0, 0.0, 0.0, 1.6962774232945716E9, 0.0, 2023-10-02 16:10:23.294
222.0, -7168.025632861332, -15666.427095702542, -77079.18609132602, -95304.28443006093, -76889.12920822254, -38117.45799988008, -65029.42771070334, -72179.0355061335, -0.116, 0.998, 0.01, 192.0, 0.0, 0.0, 0.0, 0.0, 0.0, 0.0, 0.0, 0.0, 0.0, 1.696277423294582E9, 0.0, 2023-10-02 16:10:23.294
223.0, -7169.366737528651, -15666.561206169274, -77080.08016110423, -95295.85782240127, -76886.35759191008, -38123.940005772114, -65027.17018451336, -72176.59916598788, -0.116, 0.998, 0.01, 192.0, 0.0, 0.0, 0.0, 0.0, 0.0, 0.0, 0.0, 0.0, 0.0, 1.6962774232945948E9, 0.0, 2023-10-02 16:10:23.294
224.0, -7171.579560229727, -15669.24341550391, -77069.73130342142, -95299.03177011393, -76888.86098728908, -38116.340412657315, -65024.48797517872, -72173.87225316433, -0.116, 0.998, 0.01, 192.0, 0.0, 0.0, 0.0, 0.0, 0.0, 0.0, 0.0, 0.0, 0.0, 1.696277423294605E9, 0.0, 2023-10-02 16:10:23.294
225.0, -7165.879865393623, -15663.968403812458, -77063.58457369621, -95301.11048234827, -76891.0961617346, -38109.32196489834, -65027.68427463583, -72177.3367735549, -0.116, 0.998, 0.01, 192.0, 0.0, 0.0, 0.0, 0.0, 0.0, 0.0, 0.0, 0.0, 0.0, 1.6962774232946148E9, 0.0, 2023-10-02 16:10:23.294
226.0, -7163.6670426925475, -15663.856645090182, -77066.95968710896, -95297.93653463562, -76890.60442335659, -38115.558101601375, -65032.042864804615, -72179.32607881143, -0.124, 0.996, 0.006, 192.0, 252.0, 32.0, 31.0, 32.0, 0.0, 48.0, 0.0, 0.0, 0.0, 1.6962774232946277E9, 0.0, 2023-10-02 16:10:23.294
227.0, -7170.126696840131, -15669.779857370837, -77074.93925987951, -95301.40105502619, -76897.3546501821, -38124.90113078369, -65041.408245731385, -72183.6399654913, -0.124, 0.996, 0.006, 192.0, 0.0, 0.0, 0.0, 0.0, 0.0, 0.0, 0.0, 0.0, 0.0, 1.6962774232946386E9, 0.0, 2023-10-02 16:10:23.294
228.0, -7169.724365439936, -15665.823598602248, -77070.26774528835, -95299.43410151413, -76894.15835072499, -38120.58724410382, -65036.78143462914, -72181.82947419041, -0.124, 0.996, 0.006, 192.0, 0.0, 0.0, 0.0, 0.0, 0.0, 0.0, 0.0, 0.0, 0.0, 1.6962774232946627E9, 0.0, 2023-10-02 16:10:23.294
229.0, -7168.18209507252, -15664.013107301369, -77063.2940010183, -95304.10561610528, -76894.71714433636, -38108.651412564686, -65033.719245638764, -72181.96358465715, -0.124, 0.996, 0.006, 192.0, 0.0, 0.0, 0.0, 0.0, 0.0, 0.0, 0.0, 0.0, 0.0, 1.6962774232946725E9, 0.0, 2023-10-02 16:10:23.294
230.0, -7165.27636829333, -15660.01214504387, -77077.10737909167, -95298.36121778027, -76892.39256291301, -38115.155770201185, -65033.76394912767, -72182.34356431289, -0.124, 0.996, 0.006, 192.0, 0.0, 0.0, 0.0, 0.0, 0.0, 0.0, 0.0, 0.0, 0.0, 1.6962774232946825E9, 0.0, 2023-10-02 16:10:23.294
231.0, -7165.209313059964, -15655.854720575182, -77068.50195747637, -95286.20186879658, -76880.61319358507, -38115.22282543455, -65018.81063208707, -72170.92182289623, -0.124, 0.996, 0.006, 192.0, 0.0, 0.0, 0.0, 0.0, 0.0, 0.0, 0.0, 0.0, 0.0, 1.6962774232946925E9, 0.0, 2023-10-02 16:10:23.294
232.0, -7170.37256602914, -15660.168607255055, -77061.25999227286, -95294.24849680049, -76894.73949608082, -38110.41720037666, -65027.505460680186, -72172.17352058573, -0.124, 0.996, 0.006, 192.0, 0.0, 0.0, 0.0, 0.0, 0.0, 0.0, 0.0, 0.0, 0.0, 1.6962774232947035E9, 0.0, 2023-10-02 16:10:23.294
233.0, -7162.013013602855, -15654.714781607961, -77053.66039915805, -95290.04636884289, -76889.5985948561, -38103.957546229074, -65024.10799552298, -72167.39024727228, -0.124, 0.996, 0.006, 192.0, 0.0, 0.0, 0.0, 0.0, 0.0, 0.0, 0.0, 0.0, 0.0, 1.6962774232947145E9, 0.0, 2023-10-02 16:10:23.294
234.0, -7155.732173410914, -15648.590403627206, -77047.5360211773, -95284.50313621797, -76876.38871388302, -38098.90605198217, -65016.798975086094, -72159.50008147956, -0.124, 0.996, 0.006, 192.0, 0.0, 0.0, 0.0, 0.0, 0.0, 0.0, 0.0, 0.0, 0.0, 1.696277423294725E9, 0.0, 2023-10-02 16:10:23.294
235.0, -7168.22679856143, -15657.15112175359, -77057.46019571545, -95292.05802584387, -76884.01065874228, -38111.847712021794, -65022.58807690002, -72164.32805828191, -0.124, 0.996, 0.006, 192.0, 0.0, 0.0, 0.0, 0.0, 0.0, 0.0, 0.0, 0.0, 0.0, 1.6962774232947347E9, 0.0, 2023-10-02 16:10:23.294
236.0, -7179.179153344531, -15668.081124792234, -77061.01412308385, -95305.08909286131, -76897.73462983783, -38121.16838945966, -65032.959286327285, -72178.70022996668, -0.122, 0.996, 0.01, 192.0, 252.0, 48.0, 31.0, 32.0, 0.0, 80.0, 0.0, 0.0, 0.0, 1.6962774232947447E9, 0.0, 2023-10-02 16:10:23.294
237.0, -7176.161667843065, -15665.95770906898, -77056.7896433818, -95307.36897079575, -76900.08156300565, -38117.88268302473, -65037.78726312963, -72184.26581433605, -0.122, 0.996, 0.01, 192.0, 0.0, 0.0, 0.0, 0.0, 0.0, 0.0, 0.0, 0.0, 0.0, 1.696277423294757E9, 0.0, 2023-10-02 16:10:23.294
238.0, -7170.998414873889, -15660.794456099804, -77055.5379456923, -95299.94819163659, -76897.91344379347, -38119.0449737364, -65037.67550440735, -72184.37757305831, -0.122, 0.996, 0.01, 192.0, 0.0, 0.0, 0.0, 0.0, 0.0, 0.0, 0.0, 0.0, 0.0, 1.6962774232947693E9, 0.0, 2023-10-02 16:10:23.294
239.0, -7168.897350895089, -15656.637031631117, -77058.22015502694, -95287.47591823053, -76883.11658896405, -38125.03524125043, -65027.080777535535, -72176.9344421547, -0.122, 0.996, 0.01, 192.0, 0.0, 0.0, 0.0, 0.0, 0.0, 0.0, 0.0, 0.0, 0.0, 1.6962774232947795E9, 0.0, 2023-10-02 16:10:23.294
240.0, -7170.864304407157, -15657.642860131606, -77050.30763748976, -95282.26796177245, -76875.11466444907, -38120.36372665927, -65016.68721636382, -72172.35233454137, -0.122, 0.996, 0.01, 192.0, 0.0, 0.0, 0.0, 0.0, 0.0, 0.0, 0.0, 0.0, 0.0, 1.6962774232947924E9, 0.0, 2023-10-02 16:10:23.294
241.0, -7165.969272371444, -15654.580671141228, -77042.57393390822, -95281.8879821167, -76876.79104528321, -38108.427895120134, -65016.21782973026, -72172.46409326364, -0.122, 0.996, 0.01, 192.0, 0.0, 0.0, 0.0, 0.0, 0.0, 0.0, 0.0, 0.0, 0.0, 1.6962774237732153E9, 0.0, 2023-10-02 16:10:23.773
242.0, -7157.229740289419, -15645.90819429257, -77048.27362874433, -95273.01433956795, -76877.14867319449, -38100.470674094046, -65012.48508840622, -72168.91016589524, -0.122, 0.996, 0.01, 192.0, 0.0, 0.0, 0.0, 0.0, 0.0, 0.0, 0.0, 0.0, 0.0, 1.6962774237732947E9, 0.0, 2023-10-02 16:10:23.773
243.0, -7159.174342057031, -15650.825578072738, -77055.1356142921, -95270.06390929985, -76881.08258021863, -38104.62809856273, -65009.601713371485, -72166.49617749407, -0.122, 0.996, 0.01, 192.0, 0.0, 0.0, 0.0, 0.0, 0.0, 0.0, 0.0, 0.0, 0.0, 1.6962774237734466E9, 0.0, 2023-10-02 16:10:23.773
244.0, -7165.008147359866, -15655.251223474888, -77056.45436721497, -95271.80734536736, -76879.58501334013, -38108.91963349815, -65010.62989361643, -72171.25709906305, -0.122, 0.996, 0.01, 192.0, 0.0, 0.0, 0.0, 0.0, 0.0, 0.0, 0.0, 0.0, 0.0, 1.696277423773458E9, 0.0, 2023-10-02 16:10:23.773
245.0, -7166.08103109372, -15653.686601363017, -77051.69344564599, -95277.6411506702, -76883.4965686198, -38102.75055202848, -65015.32375995204, -72174.94513689818, -0.122, 0.996, 0.01, 192.0, 0.0, 0.0, 0.0, 0.0, 0.0, 0.0, 0.0, 0.0, 0.0, 1.69627742377347E9, 0.0, 2023-10-02 16:10:23.773
246.0, -7166.595121216193, -15657.061714775768, -77051.24641075688, -95286.02305484093, -76888.97274601135, -38100.38126711622, -65017.380120441936, -72177.31442181044, -0.12, 0.998, 0.008, 192.0, 252.0, 64.0, 31.0, 48.0, 0.0, 64.0, 0.0, 0.0, 0.0, 1.6962774237734816E9, 0.0, 2023-10-02 16:10:23.773
247.0, -7171.5348567408155, -15661.733229366928, -77064.92567836354, -95290.26988628744, -76894.404219914, -38115.558101601375, -65022.83394608903, -72179.97427940063, -0.12, 0.998, 0.008, 192.0, 0.0, 0.0, 0.0, 0.0, 0.0, 0.0, 0.0, 0.0, 0.0, 1.696277423773494E9, 0.0, 2023-10-02 16:10:23.773
248.0, -7172.60774047467, -15659.073371776745, -77060.94706785049, -95282.11149956126, -76885.10589422059, -38123.89530228321, -65021.47048967725, -72175.92861365422, -0.12, 0.998, 0.008, 192.0, 0.0, 0.0, 0.0, 0.0, 0.0, 0.0, 0.0, 0.0, 0.0, 1.6962774237735052E9, 0.0, 2023-10-02 16:10:23.773
249.0, -7164.471705492939, -15649.037438516312, -77044.09385253118, -95272.67906340111, -76876.38871388302, -38114.95460450109, -65018.0953762645, -72168.73135193961, -0.12, 0.998, 0.008, 192.0, 0.0, 0.0, 0.0, 0.0, 0.0, 0.0, 0.0, 0.0, 0.0, 1.6962774237735164E9, 0.0, 2023-10-02 16:10:23.773
250.0, -7163.3764700146285, -15649.775046083338, -77040.40581469606, -95279.76456639345, -76885.61998434305, -38103.957546229074, -65024.555030412084, -72175.30276480947, -0.12, 0.998, 0.008, 192.0, 0.0, 0.0, 0.0, 0.0, 0.0, 0.0, 0.0, 0.0, 0.0, 1.6962774237735276E9, 0.0, 2023-10-02 16:10:23.773
251.0, -7171.870132907646, -15659.609813643672, -77059.15892829405, -95287.43121474162, -76894.69479259191, -38112.428857377636, -65036.96024858478, -72185.65162249227, -0.12, 0.998, 0.008, 192.0, 0.0, 0.0, 0.0, 0.0, 0.0, 0.0, 0.0, 0.0, 0.0, 1.6962774237735388E9, 0.0, 2023-10-02 16:10:23.773
252.0, -7179.4026707890835, -15667.0976480362, -77064.65745743006, -95286.31362751886, -76895.0524205032, -38123.180046460635, -65040.91650735337, -72184.98107015861, -0.12, 0.998, 0.008, 192.0, 0.0, 0.0, 0.0, 0.0, 0.0, 0.0, 0.0, 0.0, 0.0, 1.69627742377355E9, 0.0, 2023-10-02 16:10:23.773
253.0, -7175.08878410921, -15662.470836933951, -77059.71772190544, -95282.17855479462, -76890.2467954453, -38114.90990101217, -65031.9981613157, -72181.09186662339, -0.12, 0.998, 0.008, 192.0, 0.0, 0.0, 0.0, 0.0, 0.0, 0.0, 0.0, 0.0, 0.0, 1.6962774237735612E9, 0.0, 2023-10-02 16:10:23.773
254.0, -7166.79628691629, -15657.95578455398, -77055.20266952548, -95279.63045592672, -76886.62581284354, -38099.30838338237, -65022.6998356223, -72171.65943046325, -0.12, 0.998, 0.008, 192.0, 0.0, 0.0, 0.0, 0.0, 0.0, 0.0, 0.0, 0.0, 0.0, 1.6962774237735727E9, 0.0, 2023-10-02 16:10:23.773
255.0, -7165.164609571053, -15658.134598509623, -77052.60986716865, -95275.7412523915, -76882.6472023305, -38100.87300549424, -65013.98265528472, -72161.82466290292, -0.12, 0.998, 0.008, 192.0, 0.0, 0.0, 0.0, 0.0, 0.0, 0.0, 0.0, 0.0, 0.0, 1.6962774237735865E9, 0.0, 2023-10-02 16:10:23.773
0.0, -7172.317167796751, -15663.38725845662, -77053.4368817135, -95273.61783666824, -76879.87558601804, -38108.092618953306, -65011.09928024999, -72156.30378202246, -0.12, 1.004, 0.016, 192.0, 252.0, 64.0, 31.0, 96.0, 0.0, 128.0, 0.0, 0.0, 0.0, 1.6962774237735991E9, 0.0, 2023-10-02 16:10:23.773
1.0, -7172.898313152589, -15662.470836933951, -77052.81103286875, -95274.44485121309, -76878.8474057731, -38102.43762760611, -65005.891323791904, -72151.52050870901, -0.12, 1.004, 0.016, 192.0, 0.0, 0.0, 0.0, 0.0, 0.0, 0.0, 0.0, 0.0, 0.0, 1.6962774237736123E9, 0.0, 2023-10-02 16:10:23.773
2.0, -7170.238455562408, -15661.33089796673, -77048.65360840007, -95278.46816521505, -76880.68024881843, -38090.054761177875, -65007.90298079288, -72154.04625583247, -0.12, 1.004, 0.016, 192.0, 0.0, 0.0, 0.0, 0.0, 0.0, 0.0, 0.0, 0.0, 0.0, 1.6962774237736452E9, 0.0, 2023-10-02 16:10:23.773
3.0, -7162.996490358889, -15654.178339741033, -77046.28432348781, -95266.6887958871, -76874.93585049342, -38084.26565936395, -65008.46177440426, -72149.88883136379, -0.12, 1.004, 0.016, 192.0, 0.0, 0.0, 0.0, 0.0, 0.0, 0.0, 0.0, 0.0, 0.0, 1.6962774237736583E9, 0.0, 2023-10-02 16:10:23.773
4.0, -7158.570844956737, -15644.678848347528, -77042.08219553021, -95253.36715619173, -76862.396521854, -38083.416293074646, -65002.6950243348, -72144.18913652768, -0.12, 1.004, 0.016, 192.0, 0.0, 0.0, 0.0, 0.0, 0.0, 0.0, 0.0, 0.0, 0.0, 1.6962774237736692E9, 0.0, 2023-10-02 16:10:23.773
5.0, -7164.002318859377, -15648.344534438198, -77033.0297390258, -95259.20096149457, -76868.2973823902, -38076.57665927132, -65004.34905342449, -72150.00059008606, -0.12, 1.004, 0.016, 192.0, 0.0, 0.0, 0.0, 0.0, 0.0, 0.0, 0.0, 0.0, 0.0, 1.696277423773694E9, 0.0, 2023-10-02 16:10:23.773
6.0, -7158.36967925664, -15646.310525692765, -77027.0841750007, -95260.65382488417, -76871.15840568047, -38069.088824878796, -65010.27226570514, -72156.61670644482, -0.12, 1.004, 0.016, 192.0, 0.0, 0.0, 0.0, 0.0, 0.0, 0.0, 0.0, 0.0, 0.0, 1.696277423773704E9, 0.0, 2023-10-02 16:10:23.773
7.0, -7154.949862354978, -15642.376618668632, -77028.3805761791, -95259.42447893912, -76875.71816154936, -38068.2841620784, -65017.0448442751, -72160.26004079105, -0.12, 1.004, 0.016, 192.0, 0.0, 0.0, 0.0, 0.0, 0.0, 0.0, 0.0, 0.0, 0.0, 1.696277423773714E9, 0.0, 2023-10-02 16:10:23.773
8.0, -7153.206426287464, -15641.773121568338, -77033.36501519264, -95252.51778990243, -76869.92905973543, -38075.213202859544, -65022.58807690002, -72165.04331410448, -0.12, 1.004, 0.016, 192.0, 0.0, 0.0, 0.0, 0.0, 0.0, 0.0, 0.0, 0.0, 0.0, 1.6962774237737255E9, 0.0, 2023-10-02 16:10:23.773
9.0, -7150.121885552631, -15636.922793021537, -77026.01129126684, -95243.9347200316, -76865.10108293308, -38071.30164757987, -65017.514230908666, -72157.89075587878, -0.12, 1.004, 0.016, 192.0, 0.0, 0.0, 0.0, 0.0, 0.0, 0.0, 0.0, 0.0, 0.0, 1.6962774237737355E9, 0.0, 2023-10-02 16:10:23.773
10.0, -7151.12771405312, -15637.61569709965, -77021.6303493536, -95249.36619393423, -76875.65110631599, -38066.22780158852, -65019.28001872063, -72160.05887509095, -0.11800000000000001, 0.998, 0.018000000000000002, 192.0, 252.0, 80.0, 31.0, 48.0, 0.0, 144.0, 0.0, 0.0, 0.0, 1.6962774237737455E9, 0.0, 2023-10-02 16:10:23.773
11.0, -7152.535873953805, -15643.002467513379, -77034.05791927075, -95260.54206616188, -76887.0504959882, -38071.48046153551, -65032.86987934946, -72169.46895950663, -0.11800000000000001, 0.998, 0.018000000000000002, 192.0, 0.0, 0.0, 0.0, 0.0, 0.0, 0.0, 0.0, 0.0, 0.0, 1.6962774237737567E9, 0.0, 2023-10-02 16:10:23.773
12.0, -7154.838103632701, -15643.85183380268, -77043.60211415317, -95264.72184237503, -76884.88237677603, -38081.11406339575, -65036.06617880657, -72171.81589267444, -0.11800000000000001, 0.998, 0.018000000000000002, 192.0, 0.0, 0.0, 0.0, 0.0, 0.0, 0.0, 0.0, 0.0, 0.0, 1.6962774237737668E9, 0.0, 2023-10-02 16:10:23.773
13.0, -7171.914836396556, -15658.96161305447, -77050.50880318985, -95279.65280767117, -76893.48779839132, -38094.323944368836, -65041.2517835202, -72178.14143635529, -0.11800000000000001, 0.998, 0.018000000000000002, 192.0, 0.0, 0.0, 0.0, 0.0, 0.0, 0.0, 0.0, 0.0, 0.0, 1.6962774237737763E9, 0.0, 2023-10-02 16:10:23.773
14.0, -7170.75254568488, -15659.341592710209, -77050.6876171455, -95282.96086585056, -76896.68409784843, -38093.20635714607, -65039.173071285855, -72180.80129394548, -0.11800000000000001, 0.998, 0.018000000000000002, 192.0, 0.0, 0.0, 0.0, 0.0, 0.0, 0.0, 0.0, 0.0, 0.0, 1.6962774237737863E9, 0.0, 2023-10-02 16:10:23.773
15.0, -7168.338557283707, -15658.33576420972, -77048.74301537788, -95288.03471184192, -76899.14278973851, -38087.55136579888, -65034.903888094894, -72176.21918633213, -0.11800000000000001, 0.998, 0.018000000000000002, 192.0, 0.0, 0.0, 0.0, 0.0, 0.0, 0.0, 0.0, 0.0, 0.0, 1.696277423773796E9, 0.0, 2023-10-02 16:10:23.773
16.0, -7176.340481798707, -15671.031555060335, -77060.36592249465, -95292.68387468862, -76896.12530423705, -38095.46388333606, -65038.79309163012, -72179.90722416725, -0.11800000000000001, 0.998, 0.018000000000000002, 192.0, 0.0, 0.0, 0.0, 0.0, 0.0, 0.0, 0.0, 0.0, 0.0, 1.6962774237738066E9, 0.0, 2023-10-02 16:10:23.773
17.0, -7177.078089365732, -15669.265767248366, -77059.40479748306, -95282.78205189492, -76884.97178375385, -38092.82637749033, -65029.517117681164, -72168.55253798397, -0.11800000000000001, 0.998, 0.018000000000000002, 192.0, 0.0, 0.0, 0.0, 0.0, 0.0, 0.0, 0.0, 0.0, 0.0, 1.6962774237738297E9, 0.0, 2023-10-02 16:10:23.773
18.0, -7175.111135853665, -15667.321165480753, -77052.40870146855, -95282.02209258343, -76887.16225471048, -38082.991609929995, -65027.05842579108, -72161.44468324717, -0.11800000000000001, 0.998, 0.018000000000000002, 192.0, 0.0, 0.0, 0.0, 0.0, 0.0, 0.0, 0.0, 0.0, 0.0, 1.69627742377384E9, 0.0, 2023-10-02 16:10:23.773
19.0, -7171.020766618343, -15665.53302592433, -77049.79354736728, -95285.84424088529, -76890.8949960345, -38079.907069195164, -65033.07104504956, -72164.59627921537, -0.11800000000000001, 0.998, 0.018000000000000002, 192.0, 0.0, 0.0, 0.0, 0.0, 0.0, 0.0, 0.0, 0.0, 0.0, 1.69627742377385E9, 0.0, 2023-10-02 16:10:23.773
20.0, -7175.714632953958, -15671.858569605181, -77059.91888760554, -95290.62751419873, -76888.92804252244, -38089.697133266585, -65037.139062540424, -72172.64290721928, -0.124, 0.982, 0.018000000000000002, 192.0, 252.0, 32.0, 30.0, 176.0, 0.0, 144.0, 0.0, 0.0, 0.0, 1.6962774237738607E9, 0.0, 2023-10-02 16:10:23.773
21.0, -7181.749603956891, -15676.932415596535, -77066.42324524204, -95290.56045896537, -76886.2458331878, -38104.35987762927, -65031.975809571246, -72175.36982004283, -0.124, 0.982, 0.018000000000000002, 192.0, 0.0, 0.0, 0.0, 0.0, 0.0, 0.0, 0.0, 0.0, 0.0, 1.6962774237738721E9, 0.0, 2023-10-02 16:10:23.773
22.0, -7178.083917866221, -15672.037383560824, -77056.4320154705, -95288.14647056418, -76887.38577215503, -38097.63200254822, -65027.706626380284, -72173.35816304185, -0.124, 0.982, 0.018000000000000002, 192.0, 0.0, 0.0, 0.0, 0.0, 0.0, 0.0, 0.0, 0.0, 0.0, 1.6962774237738824E9, 0.0, 2023-10-02 16:10:23.773
23.0, -7166.572769471738, -15661.688525878017, -77044.54088742028, -95278.2446477705, -76881.64137383002, -38081.047008162386, -65027.61721940246, -72168.66429670624, -0.124, 0.982, 0.018000000000000002, 192.0, 0.0, 0.0, 0.0, 0.0, 0.0, 0.0, 0.0, 0.0, 0.0, 1.696277423773893E9, 0.0, 2023-10-02 16:10:23.773
24.0, -7169.523199739838, -15664.90717707958, -77046.37373046562, -95277.70820590356, -76883.22834768634, -38078.25304010547, -65030.858222348485, -72169.35720078436, -0.124, 0.982, 0.018000000000000002, 192.0, 0.0, 0.0, 0.0, 0.0, 0.0, 0.0, 0.0, 0.0, 0.0, 1.696277423773903E9, 0.0, 2023-10-02 16:10:23.773
25.0, -7174.41823177555, -15666.963537569469, -77056.92375384853, -95279.25047627097, -76891.83376930164, -38088.13251115471, -65038.01078057418, -72180.06368637845, -0.124, 0.982, 0.018000000000000002, 192.0, 0.0, 0.0, 0.0, 0.0, 0.0, 0.0, 0.0, 0.0, 0.0, 1.6962774237739158E9, 0.0, 2023-10-02 16:10:23.773
