%OpenBCI Raw EEG Data
%Number of channels = 8
%Sample Rate = 250 Hz
%Board = OpenBCI_GUI$BoardCytonSerial
Sample Index, EXG Channel 0, EXG Channel 1, EXG Channel 2, EXG Channel 3, EXG Channel 4, EXG Channel 5, EXG Channel 6, EXG Channel 7, Accel Channel 0, Accel Channel 1, Accel Channel 2, Other, Other, Other, Other, Other, Other, Other, Analog Channel 0, Analog Channel 1, Analog Channel 2, Timestamp, Other, Timestamp (Formatted)
9.0, 16797.22419944098, 17014.103175890825, 46142.18129422442, 77474.36493329584, 12578.891227113156, -20413.89291452085, -30053.86502192796, 11565.820761420819, 0.0, 0.0, 0.0, 192.0, 0.0, 0.0, 0.0, 0.0, 0.0, 0.0, 0.0, 0.0, 0.0, 1.6962751026775002E9, 0.0, 2023-10-02 15:31:42.677
10.0, 16794.452583128525, 17010.37043456679, 46148.50683790527, 77419.60315938033, 12582.48985797046, -20410.361338896913, -30088.174949666853, 11537.054066306839, 0.0, 0.0, 0.0, 192.0, 0.0, 0.0, 0.0, 0.0, 0.0, 0.0, 0.0, 0.0, 0.0, 1.6962751026775227E9, 0.0, 2023-10-02 15:31:42.677
11.0, 16775.4088968526, 16994.12071634778, 46152.64191062951, 77422.93356930418, 12574.44322996655, -20411.814202286507, -30086.163292665875, 11541.055028564338, 0.0, 0.0, 0.0, 192.0, 0.0, 0.0, 0.0, 0.0, 0.0, 0.0, 0.0, 0.0, 0.0, 1.6962751026775327E9, 0.0, 2023-10-02 15:31:42.677
12.0, 16769.239815382938, 16991.97494888007, 46153.29011121871, 77462.27263954552, 12574.82320962229, -20407.94735049574, -30073.467501815263, 11559.361107273235, 0.0, 0.0, 0.0, 192.0, 0.0, 0.0, 0.0, 0.0, 0.0, 0.0, 0.0, 0.0, 0.0, 1.6962751026775424E9, 0.0, 2023-10-02 15:31:42.677
13.0, 16764.478893813957, 16988.666890700686, 46134.872273787536, 77461.02094185603, 12565.882511840167, -20421.55956286902, -30073.400446581894, 11566.178389332103, 0.08, 0.9460000000000001, 0.302, 192.0, 2.0, 128.0, 29.0, 144.0, 9.0, 112.0, 0.0, 0.0, 0.0, 1.696275102677552E9, 0.0, 2023-10-02 15:31:42.677
14.0, 16770.312699116792, 16995.998262882025, 46124.54576784918, 77405.40980165121, 12564.831979850767, -20428.51095539462, -30105.274034175163, 11539.400999474645, 0.08, 0.9460000000000001, 0.302, 192.0, 0.0, 0.0, 0.0, 0.0, 0.0, 0.0, 0.0, 0.0, 0.0, 1.6962751026775632E9, 0.0, 2023-10-02 15:31:42.677
15.0, 16768.569263049278, 16995.68533845965, 46147.724526849335, 77401.49824637154, 12582.467506226005, -20415.23401918817, -30111.890150533935, 11536.830548862285, 0.08, 0.9460000000000001, 0.302, 192.0, 0.0, 0.0, 0.0, 0.0, 0.0, 0.0, 0.0, 0.0, 0.0, 1.6962751026775732E9, 0.0, 2023-10-02 15:31:42.677
16.0, 16757.88512919964, 16983.570692964877, 46155.52528566424, 77450.5826771954, 12584.72503241599, -20412.015367986605, -30091.19243516832, 11561.484522996489, 0.08, 0.9460000000000001, 0.302, 192.0, 0.0, 0.0, 0.0, 0.0, 0.0, 0.0, 0.0, 0.0, 0.0, 1.6962751026775837E9, 0.0, 2023-10-02 15:31:42.677
17.0, 16758.242757110926, 16985.805867410407, 46140.28139594572, 77462.63026745681, 12580.969939347498, -20415.99397849965, -30085.313926376573, 11573.5321132579, 0.08, 0.9460000000000001, 0.302, 192.0, 0.0, 0.0, 0.0, 0.0, 0.0, 0.0, 0.0, 0.0, 0.0, 1.6962751026775932E9, 0.0, 2023-10-02 15:31:42.677
18.0, 16763.495417057922, 16996.579408237863, 46135.11814297654, 77410.72951683159, 12584.903846371633, -20409.064937718504, -30117.612197114493, 11545.659487922132, 0.08, 0.9460000000000001, 0.302, 192.0, 0.0, 0.0, 0.0, 0.0, 0.0, 0.0, 0.0, 0.0, 0.0, 1.6962751026776028E9, 0.0, 2023-10-02 15:31:42.677
19.0, 16754.46531229798, 16991.63967271324, 46136.74982032178, 77381.02404845048, 12573.549160188337, -20411.814202286507, -30144.814270116603, 11524.648848134142, 0.08, 0.9460000000000001, 0.302, 192.0, 0.0, 0.0, 0.0, 0.0, 0.0, 0.0, 0.0, 0.0, 0.0, 1.6962751026776123E9, 0.0, 2023-10-02 15:31:42.677
20.0, 16751.716047729977, 16991.12558259077, 46146.048146015186, 77419.06671751341, 12573.325642743785, -20406.338024894958, -30139.53925842515, 11535.467092450512, 0.08, 0.9460000000000001, 0.302, 192.0, 0.0, 0.0, 0.0, 0.0, 0.0, 0.0, 0.0, 0.0, 0.0, 1.696275102677622E9, 0.0, 2023-10-02 15:31:42.677
21.0, 16753.995925664418, 16992.04200411344, 46139.56614012315, 77439.56326717894, 12581.640491681159, -20403.409946371314, -30142.78026137117, 11539.065723307816, 0.08, 0.9460000000000001, 0.302, 192.0, 0.0, 0.0, 0.0, 0.0, 0.0, 0.0, 0.0, 0.0, 0.0, 1.6962751026776333E9, 0.0, 2023-10-02 15:31:42.677
22.0, 16743.669419726066, 16979.010937095994, 46125.93157600541, 77402.19115044965, 12577.974805590487, -20414.3175976655, -30161.645133691447, 11525.47586267899, 0.08, 0.9460000000000001, 0.302, 192.0, 0.0, 0.0, 0.0, 0.0, 0.0, 0.0, 0.0, 0.0, 0.0, 1.6962751026776433E9, 0.0, 2023-10-02 15:31:42.677
23.0, 16740.942506902516, 16977.69218417313, 46130.71484931885, 77371.07752216786, 12581.841657381256, -20417.357434911424, -30183.147511857453, 11508.779109570874, 0.08, 0.9440000000000001, 0.298, 192.0, 2.0, 128.0, 29.0, 128.0, 9.0, 80.0, 0.0, 0.0, 0.0, 1.6962751026776528E9, 0.0, 2023-10-02 15:31:42.677
24.0, 16738.707332456986, 16977.088687072835, 46145.86933205955, 77403.10757197233, 12583.763907404413, -20415.144612210348, -30183.281622324186, 11513.785900328863, 0.08, 0.9440000000000001, 0.298, 192.0, 0.0, 0.0, 0.0, 0.0, 0.0, 0.0, 0.0, 0.0, 0.0, 1.696275102677663E9, 0.0, 2023-10-02 15:31:42.677
25.0, 16737.477986511945, 16977.155742306204, 46151.61373038456, 77425.57107514991, 12578.220674779497, -20412.641216831355, -30193.943404429367, 11514.299990451336, 0.08, 0.9440000000000001, 0.298, 192.0, 0.0, 0.0, 0.0, 0.0, 0.0, 0.0, 0.0, 0.0, 0.0, 1.6962751026777596E9, 0.0, 2023-10-02 15:31:42.677
26.0, 16735.55573648879, 16976.21696903908, 46144.1929512254, 77405.05217373994, 12575.851389867234, -20418.69853957874, -30207.287395869185, 11509.114385737705, 0.08, 0.9440000000000001, 0.298, 192.0, 0.0, 0.0, 0.0, 0.0, 0.0, 0.0, 0.0, 0.0, 0.0, 1.69627510267777E9, 0.0, 2023-10-02 15:31:42.677
27.0, 16728.53728872982, 16969.64555616922, 46148.39507918299, 77397.78785679195, 12575.627872422681, -20420.75490006863, -30197.45262830885, 11518.345656197745, 0.08, 0.9440000000000001, 0.298, 192.0, 0.0, 0.0, 0.0, 0.0, 0.0, 0.0, 0.0, 0.0, 0.0, 1.6962751026777809E9, 0.0, 2023-10-02 15:31:42.677
28.0, 16717.137899057616, 16958.223814752557, 46154.362994952564, 77431.11430777483, 12571.068116553799, -20428.175679227792, -30176.441988520863, 11536.003534317439, 0.08, 0.9440000000000001, 0.298, 192.0, 0.0, 0.0, 0.0, 0.0, 0.0, 0.0, 0.0, 0.0, 0.0, 1.6962751026777904E9, 0.0, 2023-10-02 15:31:42.677
29.0, 16713.136936800114, 16955.608660651287, 46154.47475367484, 77455.20948829764, 12564.720221128491, -20428.913286794817, -30178.677162966393, 11538.752798885442, 0.08, 0.9440000000000001, 0.298, 192.0, 0.0, 0.0, 0.0, 0.0, 0.0, 0.0, 0.0, 0.0, 0.0, 1.6962751026778E9, 0.0, 2023-10-02 15:31:42.677
30.0, 16705.604398918676, 16949.86426232627, 46145.60111112608, 77446.46995621562, 12558.841712336745, -20435.90938280933, -30170.563479729117, 11548.498159467956, 0.08, 0.9440000000000001, 0.298, 192.0, 0.0, 0.0, 0.0, 0.0, 0.0, 0.0, 0.0, 0.0, 0.0, 1.6962751026778097E9, 0.0, 2023-10-02 15:31:42.677
31.0, 16698.004805803874, 16941.594116877808, 46133.12883772002, 77393.1163422008, 12554.796046590334, -20447.197013759258, -30199.35252658755, 11519.820871331796, 0.08, 0.9440000000000001, 0.298, 192.0, 0.0, 0.0, 0.0, 0.0, 0.0, 0.0, 0.0, 0.0, 0.0, 1.6962751026778233E9, 0.0, 2023-10-02 15:31:42.677
32.0, 16695.344948213693, 16940.409474421678, 46145.08702100361, 77401.94528126065, 12561.188645504553, -20435.12707175339, -30201.274776610706, 11519.150318998138, 0.08, 0.9440000000000001, 0.298, 192.0, 0.0, 0.0, 0.0, 0.0, 0.0, 0.0, 0.0, 0.0, 0.0, 1.6962751026778328E9, 0.0, 2023-10-02 15:31:42.677
33.0, 16703.659797151067, 16947.964364047573, 46154.51945716375, 77438.53508693399, 12577.281901512373, -20418.922057023294, -30193.630480006992, 11531.890813337663, 0.082, 0.9520000000000001, 0.296, 192.0, 2.0, 144.0, 29.0, 192.0, 9.0, 64.0, 0.0, 0.0, 0.0, 1.6962751026778424E9, 0.0, 2023-10-02 15:31:42.677
34.0, 16711.01352107686, 16958.223814752557, 46159.056861288176, 77432.9247990757, 12595.386814521173, -20403.924036493783, -30201.45359056635, 11532.784883115875, 0.082, 0.9520000000000001, 0.296, 192.0, 0.0, 0.0, 0.0, 0.0, 0.0, 0.0, 0.0, 0.0, 0.0, 1.696275102677853E9, 0.0, 2023-10-02 15:31:42.677
35.0, 16673.417886903037, 16928.92067777165, 46138.51560813375, 77392.78106603397, 12577.863046868211, -20428.220382716703, -30213.72469827231, 11520.267906220903, 0.082, 0.9520000000000001, 0.296, 192.0, 0.0, 0.0, 0.0, 0.0, 0.0, 0.0, 0.0, 0.0, 0.0, 1.6962751026778626E9, 0.0, 2023-10-02 15:31:42.677
36.0, 16648.093360435174, 16905.3395873713, 46136.92863427742, 77409.36606041981, 12562.619157149693, -20442.033760790084, -30188.44487529336, 11538.037543062872, 0.082, 0.9520000000000001, 0.296, 192.0, 0.0, 0.0, 0.0, 0.0, 0.0, 0.0, 0.0, 0.0, 0.0, 1.6962751026778724E9, 0.0, 2023-10-02 15:31:42.677
37.0, 16655.53649133879, 16911.128689185225, 46144.81880007015, 77435.31643573243, 12572.92331134359, -20428.913286794817, -30189.607166005037, 11541.055028564338, 0.082, 0.9520000000000001, 0.296, 192.0, 0.0, 0.0, 0.0, 0.0, 0.0, 0.0, 0.0, 0.0, 0.0, 1.696275102677882E9, 0.0, 2023-10-02 15:31:42.677
38.0, 16643.421845844012, 16893.046127920883, 46128.59143359559, 77416.18334247867, 12571.448096209539, -20428.33214143898, -30216.988052962788, 11521.318438210303, 0.082, 0.9520000000000001, 0.296, 192.0, 0.0, 0.0, 0.0, 0.0, 0.0, 0.0, 0.0, 0.0, 0.0, 1.6962751026778915E9, 0.0, 2023-10-02 15:31:42.677
39.0, 16617.58322925368, 16866.224034574512, 46107.02200019622, 77373.5138623135, 12559.646375137136, -20438.166908999316, -30239.496259629283, 11501.224219944981, 0.082, 0.9520000000000001, 0.296, 192.0, 0.0, 0.0, 0.0, 0.0, 0.0, 0.0, 0.0, 0.0, 0.0, 1.6962751026779013E9, 0.0, 2023-10-02 15:31:42.677
40.0, 16595.7679266653, 16842.44177847407, 46105.993819951276, 77376.28547862596, 12553.29847971183, -20446.504109681144, -30233.058957226152, 11504.062891490805, 0.082, 0.9520000000000001, 0.296, 192.0, 0.0, 0.0, 0.0, 0.0, 0.0, 0.0, 0.0, 0.0, 0.0, 1.6962751026779108E9, 0.0, 2023-10-02 15:31:42.677
41.0, 16588.8165341397, 16835.222165015002, 46111.96173572085, 77404.269862684, 12561.322755971285, -20439.91034506683, -30243.11724223104, 11495.993911742438, 0.082, 0.9520000000000001, 0.296, 192.0, 0.0, 0.0, 0.0, 0.0, 0.0, 0.0, 0.0, 0.0, 0.0, 1.69627510267795E9, 0.0, 2023-10-02 15:31:42.677
42.0, 16574.220845010383, 16819.084205518273, 46103.22220363882, 77419.04436576896, 12560.428686193072, -20442.70431312374, -30249.107509745063, 11495.23395243096, 0.082, 0.9520000000000001, 0.296, 192.0, 0.0, 0.0, 0.0, 0.0, 0.0, 0.0, 0.0, 0.0, 0.0, 1.69627510267796E9, 0.0, 2023-10-02 15:31:42.677
43.0, 16557.859368069097, 16810.814060069806, 46095.46614831283, 77394.90448175723, 12555.511302412904, -20444.224231746703, -30256.394178437495, 11487.343786638236, 0.08, 0.9420000000000001, 0.29, 192.0, 2.0, 128.0, 29.0, 112.0, 9.0, 16.0, 0.0, 0.0, 0.0, 1.6962751026779697E9, 0.0, 2023-10-02 15:31:42.677
44.0, 16519.12379492805, 16785.84716151323, 46098.97537219231, 77393.56337708991, 12552.225595977974, -20444.939487569274, -30250.158041734463, 11489.89188550614, 0.08, 0.9420000000000001, 0.29, 192.0, 0.0, 0.0, 0.0, 0.0, 0.0, 0.0, 0.0, 0.0, 0.0, 1.6962751026779797E9, 0.0, 2023-10-02 15:31:42.677
45.0, 16491.98877715931, 16760.924966445564, 46105.703247273355, 77442.40193872475, 12549.364572687695, -20444.604211402442, -30224.922922244423, 11513.338865439757, 0.08, 0.9420000000000001, 0.29, 192.0, 0.0, 0.0, 0.0, 0.0, 0.0, 0.0, 0.0, 0.0, 0.0, 1.6962751026779895E9, 0.0, 2023-10-02 15:31:42.677
46.0, 16476.49901825178, 16746.46338778298, 46102.574003049616, 77471.72742745011, 12546.302383697317, -20445.99001955867, -30202.235901622287, 11536.13764478417, 0.08, 0.9420000000000001, 0.29, 192.0, 0.0, 0.0, 0.0, 0.0, 0.0, 0.0, 0.0, 0.0, 0.0, 1.6962751026779993E9, 0.0, 2023-10-02 15:31:42.677
47.0, 16440.289192234184, 16723.441090994012, 46087.06189239763, 77426.82277283941, 12541.139130728143, -20455.891842352372, -30215.17756166191, 11521.631362632676, 0.08, 0.9420000000000001, 0.29, 192.0, 0.0, 0.0, 0.0, 0.0, 0.0, 0.0, 0.0, 0.0, 0.0, 1.6962751026780088E9, 0.0, 2023-10-02 15:31:42.678
48.0, 16392.523514333192, 16692.372166201134, 46092.02397966671, 77393.42926662318, 12539.61921210518, -20461.14450229937, -30214.55171281716, 11517.317475952803, 0.08, 0.9420000000000001, 0.29, 192.0, 0.0, 0.0, 0.0, 0.0, 0.0, 0.0, 0.0, 0.0, 0.0, 1.696275102678018E9, 0.0, 2023-10-02 15:31:42.678
49.0, 16368.987127421753, 16668.96988975643, 46094.75089249026, 77401.87822602729, 12538.233403948952, -20462.507958711143, -30199.531340543195, 11527.196947002049, 0.08, 0.9420000000000001, 0.29, 192.0, 0.0, 0.0, 0.0, 0.0, 0.0, 0.0, 0.0, 0.0, 0.0, 1.6962751026780279E9, 0.0, 2023-10-02 15:31:42.678
50.0, 16353.251499325217, 16651.44612210347, 46083.17268886241, 77402.39231614975, 12538.322810926773, -20462.463255222232, -30199.330174843097, 11529.387417958667, 0.08, 0.9420000000000001, 0.29, 192.0, 0.0, 0.0, 0.0, 0.0, 0.0, 0.0, 0.0, 0.0, 0.0, 1.6962751026780374E9, 0.0, 2023-10-02 15:31:42.678
51.0, 16340.04161835213, 16639.689104519977, 46069.20284857784, 77360.75101622952, 12538.501624882416, -20467.023011091114, -30207.823837736112, 11522.5701358998, 0.08, 0.9420000000000001, 0.29, 192.0, 0.0, 0.0, 0.0, 0.0, 0.0, 0.0, 0.0, 0.0, 0.0, 1.6962751026780467E9, 0.0, 2023-10-02 15:31:42.678
52.0, 16331.458548481292, 16631.28484860478, 46070.85687766754, 77325.9493501126, 12538.09929348222, -20465.838368634984, -30206.37097434652, 11520.402016687634, 0.08, 0.9420000000000001, 0.29, 192.0, 0.0, 0.0, 0.0, 0.0, 0.0, 0.0, 0.0, 0.0, 0.0, 1.696275102678058E9, 0.0, 2023-10-02 15:31:42.678
53.0, 16315.454699451293, 16617.985560653873, 46080.91516267242, 77355.38659756024, 12536.422912648071, -20460.071618565515, -30177.44781702135, 11544.586604188276, 0.088, 0.9460000000000001, 0.296, 192.0, 2.0, 192.0, 29.0, 144.0, 9.0, 64.0, 0.0, 0.0, 0.0, 1.6962751026780677E9, 0.0, 2023-10-02 15:31:42.678
54.0, 16292.879437551432, 16601.08764184566, 46048.661595423415, 77386.94726073113, 12519.457938606494, -20478.86943565243, -30154.447871976838, 11563.80910441984, 0.088, 0.9460000000000001, 0.296, 192.0, 0.0, 0.0, 0.0, 0.0, 0.0, 0.0, 0.0, 0.0, 0.0, 1.696275102678078E9, 0.0, 2023-10-02 15:31:42.678
55.0, 16285.011623503164, 16597.489010988356, 46016.31862119659, 77357.06297839439, 12507.455051833995, -20487.988947390193, -30156.548935955638, 11558.936424128584, 0.088, 0.9460000000000001, 0.296, 192.0, 0.0, 0.0, 0.0, 0.0, 0.0, 0.0, 0.0, 0.0, 0.0, 1.6962751026780877E9, 0.0, 2023-10-02 15:31:42.678
56.0, 16290.823077061545, 16608.553124493734, 46013.90463279541, 77310.996033072, 12514.138223426131, -20479.115304841438, -30160.795767402145, 11548.744028656964, 0.088, 0.9460000000000001, 0.296, 192.0, 0.0, 0.0, 0.0, 0.0, 0.0, 0.0, 0.0, 0.0, 0.0, 1.696275102678106E9, 0.0, 2023-10-02 15:31:42.678
57.0, 16289.839600305511, 16612.57643849569, 46016.96682178579, 77308.6490999042, 12518.899144995112, -20473.460313494244, -30159.365255757006, 11543.446665221056, 0.088, 0.9460000000000001, 0.296, 192.0, 0.0, 0.0, 0.0, 0.0, 0.0, 0.0, 0.0, 0.0, 0.0, 1.696275102678116E9, 0.0, 2023-10-02 15:31:42.678
58.0, 16280.988309501208, 16609.067214616207, 46015.49160665174, 77353.15142311472, 12513.199450159009, -20472.76740941613, -30127.268150719185, 11571.989842890483, 0.088, 0.9460000000000001, 0.296, 192.0, 0.0, 0.0, 0.0, 0.0, 0.0, 0.0, 0.0, 0.0, 0.0, 1.6962751026781256E9, 0.0, 2023-10-02 15:31:42.678
59.0, 16280.831847290023, 16611.86118267312, 45997.74432155422, 77326.84341989082, 12505.599857044204, -20480.76933393113, -30137.035863046156, 11561.797447418863, 0.088, 0.9460000000000001, 0.296, 192.0, 0.0, 0.0, 0.0, 0.0, 0.0, 0.0, 0.0, 0.0, 0.0, 1.6962751026781352E9, 0.0, 2023-10-02 15:31:42.678
60.0, 16271.421762874337, 16600.730013934375, 45988.401292371906, 77282.67637284713, 12491.071223148254, -20493.353366059466, -30145.52952593917, 11548.118179812214, 0.088, 0.9460000000000001, 0.296, 192.0, 0.0, 0.0, 0.0, 0.0, 0.0, 0.0, 0.0, 0.0, 0.0, 1.6962751026781447E9, 0.0, 2023-10-02 15:31:42.678
61.0, 16268.001945972675, 16597.13138307707, 45991.37407438446, 77284.15158798118, 12479.113039864666, -20498.24839809518, -30137.661711890905, 11550.420409491111, 0.088, 0.9460000000000001, 0.296, 192.0, 0.0, 0.0, 0.0, 0.0, 0.0, 0.0, 0.0, 0.0, 0.0, 1.6962751026781545E9, 0.0, 2023-10-02 15:31:42.678
62.0, 16265.275033149128, 16591.163467307506, 45983.52861208065, 77322.01544308847, 12473.011013628366, -20497.086107383504, -30124.51888615118, 11566.33485154329, 0.088, 0.9460000000000001, 0.296, 192.0, 0.0, 0.0, 0.0, 0.0, 0.0, 0.0, 0.0, 0.0, 0.0, 1.696275102678164E9, 0.0, 2023-10-02 15:31:42.678
63.0, 16278.641376333402, 16611.883534417575, 45970.34108285202, 77308.71615513756, 12487.450240546494, -20489.95590090226, -30141.483860192762, 11557.058877594338, 0.08600000000000001, 0.9480000000000001, 0.304, 192.0, 2.0, 176.0, 29.0, 160.0, 9.0, 128.0, 0.0, 0.0, 0.0, 1.6962751026781738E9, 0.0, 2023-10-02 15:31:42.678
64.0, 16276.182684443318, 16620.556011266235, 45971.59278054152, 77255.67546554512, 12494.669854005559, -20494.068621882037, -30172.86570940801, 11532.315496482313, 0.08600000000000001, 0.9480000000000001, 0.304, 192.0, 0.0, 0.0, 0.0, 0.0, 0.0, 0.0, 0.0, 0.0, 0.0, 1.696275102678184E9, 0.0, 2023-10-02 15:31:42.678
65.0, 16276.674422821336, 16624.91460143502, 45981.47225159076, 77255.31783763383, 12491.741775481913, -20493.174552103825, -30168.68593319487, 11539.244537263457, 0.08600000000000001, 0.9480000000000001, 0.304, 192.0, 0.0, 0.0, 0.0, 0.0, 0.0, 0.0, 0.0, 0.0, 0.0, 1.6962751026781936E9, 0.0, 2023-10-02 15:31:42.678
66.0, 16293.013548018165, 16639.979677197894, 45986.00965571519, 77284.97860252603, 12498.290836607319, -20481.797514176073, -30173.379799530485, 11542.23967102047, 0.08600000000000001, 0.9480000000000001, 0.304, 192.0, 0.0, 0.0, 0.0, 0.0, 0.0, 0.0, 0.0, 0.0, 0.0, 1.6962751026782033E9, 0.0, 2023-10-02 15:31:42.678
67.0, 16302.647149878401, 16653.882462249097, 45981.114623679474, 77299.61899514425, 12500.011920930378, -20477.215406562736, -30170.608183218028, 11553.594357203765, 0.08600000000000001, 0.9480000000000001, 0.304, 192.0, 0.0, 0.0, 0.0, 0.0, 0.0, 0.0, 0.0, 0.0, 0.0, 1.6962751026782131E9, 0.0, 2023-10-02 15:31:42.678
68.0, 16305.776394102144, 16675.563654370744, 45977.11366142198, 77262.87272725973, 12504.19169714352, -20481.261072309146, -30178.78892168867, 11545.10069431075, 0.08600000000000001, 0.9480000000000001, 0.304, 192.0, 0.0, 0.0, 0.0, 0.0, 0.0, 0.0, 0.0, 0.0, 0.0, 1.696275102678223E9, 0.0, 2023-10-02 15:31:42.678
69.0, 16297.305082953584, 16673.01555550284, 45976.33135036604, 77244.58900029528, 12491.920589437555, -20487.117229356438, -30181.359372301027, 11538.261060507424, 0.08600000000000001, 0.9480000000000001, 0.304, 192.0, 0.0, 0.0, 0.0, 0.0, 0.0, 0.0, 0.0, 0.0, 0.0, 1.6962751026782322E9, 0.0, 2023-10-02 15:31:42.678
70.0, 16296.27690270864, 16673.01555550284, 45980.19820215681, 77282.94459378059, 12478.353080553185, -20485.30673805556, -30165.355523271028, 11555.04722059336, 0.08600000000000001, 0.9480000000000001, 0.304, 192.0, 0.0, 0.0, 0.0, 0.0, 0.0, 0.0, 0.0, 0.0, 0.0, 1.6962751026782417E9, 0.0, 2023-10-02 15:31:42.678
71.0, 16300.724899855246, 16681.19629397348, 45962.49562054821, 77300.91539632266, 12472.474571761439, -20495.789706205094, -30158.11355806751, 11565.709002698542, 0.08600000000000001, 0.9480000000000001, 0.304, 192.0, 0.0, 0.0, 0.0, 0.0, 0.0, 0.0, 0.0, 0.0, 0.0, 1.6962751026782515E9, 0.0, 2023-10-02 15:31:42.678
72.0, 16308.838583092522, 16690.405212689067, 45947.83287618552, 77259.54231733589, 12473.815676428758, -20494.940339915793, -30179.794750189158, 11546.352392000246, 0.08600000000000001, 0.9480000000000001, 0.304, 192.0, 0.0, 0.0, 0.0, 0.0, 0.0, 0.0, 0.0, 0.0, 0.0, 1.696275102678287E9, 0.0, 2023-10-02 15:31:42.678
73.0, 16317.533411685636, 16695.948445313985, 45954.2478268442, 77225.00887215244, 12474.12860085113, -20495.901464927374, -30204.605186534547, 11524.939420812061, 0.082, 0.9420000000000001, 0.308, 192.0, 2.0, 144.0, 29.0, 112.0, 9.0, 160.0, 0.0, 0.0, 0.0, 1.696275102678298E9, 0.0, 2023-10-02 15:31:42.678
74.0, 16321.199097776307, 16694.87556158013, 45970.855172974494, 77265.73375055, 12471.17817058303, -20497.37668006142, -30190.858863694535, 11540.786807630875, 0.082, 0.9420000000000001, 0.308, 192.0, 0.0, 0.0, 0.0, 0.0, 0.0, 0.0, 0.0, 0.0, 0.0, 1.6962751026783082E9, 0.0, 2023-10-02 15:31:42.678
75.0, 16339.393417762927, 16711.996997832895, 45968.57529504005, 77299.2390154885, 12477.838990430713, -20489.888845668895, -30187.036715392678, 11552.14149381417, 0.082, 0.9420000000000001, 0.308, 192.0, 0.0, 0.0, 0.0, 0.0, 0.0, 0.0, 0.0, 0.0, 0.0, 1.696275102678318E9, 0.0, 2023-10-02 15:31:42.678
76.0, 16376.229092625272, 16746.619849994167, 45968.28472236213, 77260.92812549212, 12499.564886041271, -20470.353421014956, -30224.900570499965, 11526.481691179479, 0.082, 0.9420000000000001, 0.308, 192.0, 0.0, 0.0, 0.0, 0.0, 0.0, 0.0, 0.0, 0.0, 0.0, 1.6962751026783283E9, 0.0, 2023-10-02 15:31:42.678
77.0, 16383.783982251167, 16749.25735583989, 45978.477117833754, 77209.60852022273, 12510.271371635363, -20463.49143546718, -30273.292097245707, 11491.121231451181, 0.082, 0.9420000000000001, 0.308, 192.0, 0.0, 0.0, 0.0, 0.0, 0.0, 0.0, 0.0, 0.0, 0.0, 1.6962751026783378E9, 0.0, 2023-10-02 15:31:42.678
78.0, 16389.058993942617, 16749.905556429097, 45992.469309862776, 77229.16629662113, 12505.644560533114, -20462.731476155695, -30283.86447237307, 11491.769432040386, 0.082, 0.9420000000000001, 0.308, 192.0, 0.0, 0.0, 0.0, 0.0, 0.0, 0.0, 0.0, 0.0, 0.0, 1.6962751026783473E9, 0.0, 2023-10-02 15:31:42.678
79.0, 16393.43993585586, 16751.64899249661, 45992.044626718125, 77278.9436315231, 12495.787441228324, -20464.96665060123, -30270.118149533053, 11518.435063175568, 0.082, 0.9420000000000001, 0.308, 192.0, 0.0, 0.0, 0.0, 0.0, 0.0, 0.0, 0.0, 0.0, 0.0, 1.696275102678357E9, 0.0, 2023-10-02 15:31:42.678
80.0, 16398.782002780677, 16752.78893146383, 45983.997998714214, 77277.17784371112, 12498.290836607319, -20467.470045980222, -30272.286268745218, 11529.432121447579, 0.082, 0.9420000000000001, 0.308, 192.0, 0.0, 0.0, 0.0, 0.0, 0.0, 0.0, 0.0, 0.0, 0.0, 1.6962751026783667E9, 0.0, 2023-10-02 15:31:42.678
81.0, 16407.834459285077, 16759.22623386696, 45982.880411491446, 77232.49670654496, 12497.508525551382, -20468.520577969623, -30307.75848719579, 11506.32041768079, 0.082, 0.9420000000000001, 0.308, 192.0, 0.0, 0.0, 0.0, 0.0, 0.0, 0.0, 0.0, 0.0, 0.0, 1.6962751026783764E9, 0.0, 2023-10-02 15:31:42.678
82.0, 16411.902476775944, 16762.42253332407, 46001.25354543371, 77244.6337037842, 12498.514354051871, -20463.67024942282, -30327.942112438934, 11499.793708299841, 0.082, 0.9420000000000001, 0.308, 192.0, 0.0, 0.0, 0.0, 0.0, 0.0, 0.0, 0.0, 0.0, 0.0, 1.696275102678386E9, 0.0, 2023-10-02 15:31:42.678
83.0, 16418.518593134715, 16762.377829835157, 46008.96489727079, 77293.6957828636, 12500.794231986312, -20462.373848244413, -30332.211295629895, 11510.969580527495, 0.08, 0.9420000000000001, 0.31, 192.0, 2.0, 128.0, 29.0, 112.0, 9.0, 176.0, 0.0, 0.0, 0.0, 1.6962751026783955E9, 0.0, 2023-10-02 15:31:42.678
84.0, 16426.274648460705, 16766.7587717484, 45998.95131575481, 77304.40226845769, 12501.263618619874, -20460.76452264363, -30337.329845110162, 11519.70911260952, 0.08, 0.9420000000000001, 0.31, 192.0, 0.0, 0.0, 0.0, 0.0, 0.0, 0.0, 0.0, 0.0, 0.0, 1.6962751026784055E9, 0.0, 2023-10-02 15:31:42.678
85.0, 16431.080273518597, 16767.451675826513, 45993.54219359663, 77272.52868086442, 12499.162554641076, -20465.57014770152, -30361.559136099713, 11504.912257780106, 0.08, 0.9420000000000001, 0.31, 192.0, 0.0, 0.0, 0.0, 0.0, 0.0, 0.0, 0.0, 0.0, 0.0, 1.6962751026784153E9, 0.0, 2023-10-02 15:31:42.678
86.0, 16426.520517649715, 16759.472103055967, 45998.97366749927, 77284.91154729266, 12494.71455749447, -20476.25428155116, -30365.560098357215, 11507.728577581474, 0.08, 0.9420000000000001, 0.31, 192.0, 0.0, 0.0, 0.0, 0.0, 0.0, 0.0, 0.0, 0.0, 0.0, 1.696275102678425E9, 0.0, 2023-10-02 15:31:42.678
87.0, 16430.901459562952, 16761.439056568033, 45998.95131575481, 77324.36237625628, 12493.418156316062, -20476.969537373727, -30371.975049015888, 11513.271810206392, 0.08, 0.9420000000000001, 0.31, 192.0, 0.0, 0.0, 0.0, 0.0, 0.0, 0.0, 0.0, 0.0, 0.0, 1.6962751026784437E9, 0.0, 2023-10-02 15:31:42.678
88.0, 16436.981134054797, 16763.718934502474, 45988.960085983286, 77323.82593438934, 12481.616435243659, -20479.271767052625, -30398.953604573442, 11500.978350755973, 0.08, 0.9420000000000001, 0.31, 192.0, 0.0, 0.0, 0.0, 0.0, 0.0, 0.0, 0.0, 0.0, 0.0, 1.6962751026784537E9, 0.0, 2023-10-02 15:31:42.678
89.0, 16445.92183183692, 16768.189283393538, 45994.23509767474, 77308.42558245965, 12491.47355454845, -20475.24845305067, -30404.139209287074, 11504.509926379911, 0.08, 0.9420000000000001, 0.31, 192.0, 0.0, 0.0, 0.0, 0.0, 0.0, 0.0, 0.0, 0.0, 0.0, 1.6962751026784632E9, 0.0, 2023-10-02 15:31:42.678
90.0, 16451.532119695203, 16775.297138130325, 46010.73068508276, 77303.57525391284, 12507.097423922709, -20474.063810594536, -30414.30925301424, 11499.078452477272, 0.08, 0.9420000000000001, 0.31, 192.0, 0.0, 0.0, 0.0, 0.0, 0.0, 0.0, 0.0, 0.0, 0.0, 1.6962751026784728E9, 0.0, 2023-10-02 15:31:42.678
91.0, 16441.026799801206, 16767.094047915227, 46012.094141494534, 77347.18350734515, 12498.939037196522, -20486.692546211787, -30408.095468055664, 11506.856859547719, 0.08, 0.9420000000000001, 0.31, 192.0, 0.0, 0.0, 0.0, 0.0, 0.0, 0.0, 0.0, 0.0, 0.0, 1.6962751026784823E9, 0.0, 2023-10-02 15:31:42.678
92.0, 16446.860605104044, 16775.587710808242, 45999.39835064392, 77356.05714989391, 12508.90791522359, -20485.95493864476, -30422.132363573597, 11500.106632722216, 0.08, 0.9420000000000001, 0.31, 192.0, 0.0, 0.0, 0.0, 0.0, 0.0, 0.0, 0.0, 0.0, 0.0, 1.696275102678492E9, 0.0, 2023-10-02 15:31:42.678
93.0, 16465.16668381294, 16794.94432150654, 46005.25450769121, 77309.96785282706, 12528.868023022178, -20473.884996638895, -30463.483090815917, 11471.205827141504, 0.088, 0.934, 0.304, 192.0, 2.0, 192.0, 29.0, 48.0, 9.0, 128.0, 0.0, 0.0, 0.0, 1.6962751026785016E9, 0.0, 2023-10-02 15:31:42.678
94.0, 16461.72451516682, 16781.779144022363, 46017.52561539717, 77311.1524952832, 12518.183889172542, -20474.689659439286, -30462.27609661533, 11476.905521977607, 0.088, 0.934, 0.304, 192.0, 0.0, 0.0, 0.0, 0.0, 0.0, 0.0, 0.0, 0.0, 0.0, 1.696275102678512E9, 0.0, 2023-10-02 15:31:42.678
95.0, 16444.133692280495, 16764.389486836135, 46016.47508340777, 77379.97351646108, 12497.70969125148, -20483.00450837666, -30420.36657576163, 11518.368007942201, 0.088, 0.934, 0.304, 192.0, 0.0, 0.0, 0.0, 0.0, 0.0, 0.0, 0.0, 0.0, 0.0, 1.6962751026785235E9, 0.0, 2023-10-02 15:31:42.678
96.0, 16443.06080854664, 16771.31852761728, 46002.43818788984, 77398.45840912563, 12499.52018255236, -20478.28829029659, -30421.506514728848, 11522.436025433068, 0.088, 0.934, 0.304, 192.0, 0.0, 0.0, 0.0, 0.0, 0.0, 0.0, 0.0, 0.0, 0.0, 1.6962751026785336E9, 0.0, 2023-10-02 15:31:42.678
97.0, 16442.16673876843, 16771.497341572922, 45991.35172264001, 77379.28061238297, 12493.932246438533, -20482.82569442102, -30426.222732808917, 11521.161975999115, 0.088, 0.934, 0.304, 192.0, 0.0, 0.0, 0.0, 0.0, 0.0, 0.0, 0.0, 0.0, 0.0, 1.696275102678543E9, 0.0, 2023-10-02 15:31:42.678
98.0, 16446.950012081863, 16775.16302766359, 45995.48679536424, 77358.29232433943, 12497.32971159574, -20485.23968282219, -30434.93991314649, 11511.684836350065, 0.088, 0.934, 0.304, 192.0, 0.0, 0.0, 0.0, 0.0, 0.0, 0.0, 0.0, 0.0, 0.0, 1.696275102678553E9, 0.0, 2023-10-02 15:31:42.678
99.0, 16442.904346335454, 16769.64214678313, 46009.791911815635, 77405.0745254844, 12493.865191205168, -20484.613833977444, -30414.085735569686, 11532.248441248947, 0.088, 0.934, 0.304, 192.0, 0.0, 0.0, 0.0, 0.0, 0.0, 0.0, 0.0, 0.0, 0.0, 1.6962751026785629E9, 0.0, 2023-10-02 15:31:42.678
100.0, 16440.132730022997, 16765.32826010326, 46004.58395535755, 77451.29793301797, 12487.293778335308, -20491.118191613936, -30396.20434000544, 11551.403886247146, 0.088, 0.934, 0.304, 192.0, 0.0, 0.0, 0.0, 0.0, 0.0, 0.0, 0.0, 0.0, 0.0, 1.6962751026785731E9, 0.0, 2023-10-02 15:31:42.678
101.0, 16436.310581721136, 16759.628565267154, 45990.18943192833, 77439.51856369001, 12479.560074753772, -20499.991834162694, -30394.997345804855, 11552.05208683635, 0.088, 0.934, 0.304, 192.0, 0.0, 0.0, 0.0, 0.0, 0.0, 0.0, 0.0, 0.0, 0.0, 1.6962751026785831E9, 0.0, 2023-10-02 15:31:42.678
102.0, 16437.04818928816, 16760.634393767643, 45990.14472843942, 77400.33595565987, 12486.578522512738, -20495.074450382526, -30416.052689081753, 11529.90150808114, 0.088, 0.934, 0.304, 192.0, 0.0, 0.0, 0.0, 0.0, 0.0, 0.0, 0.0, 0.0, 0.0, 1.6962751026785953E9, 0.0, 2023-10-02 15:31:42.678
103.0, 16420.5749536246, 16745.256393582393, 45997.34199015403, 77434.13179327629, 12474.687394462515, -20499.05306089557, -30396.226691749896, 11545.234804777481, 0.082, 0.9480000000000001, 0.3, 192.0, 2.0, 144.0, 29.0, 160.0, 9.0, 96.0, 0.0, 0.0, 0.0, 1.6962751026786225E9, 0.0, 2023-10-02 15:31:42.678
104.0, 16420.664360602423, 16740.83074818024, 45987.3060568936, 77466.45241575867, 12468.0936298482, -20502.91991268634, -30390.370534702604, 11551.00155484695, 0.082, 0.9480000000000001, 0.3, 192.0, 0.0, 0.0, 0.0, 0.0, 0.0, 0.0, 0.0, 0.0, 0.0, 1.6962751026786368E9, 0.0, 2023-10-02 15:31:42.678
105.0, 16422.027817014197, 16739.17671909055, 45971.838649730526, 77445.2853137595, 12473.592158984204, -20504.909217942863, -30397.97012781741, 11543.580775687788, 0.082, 0.9480000000000001, 0.3, 192.0, 0.0, 0.0, 0.0, 0.0, 0.0, 0.0, 0.0, 0.0, 0.0, 1.6962751026786475E9, 0.0, 2023-10-02 15:31:42.678
106.0, 16422.6760176034, 16737.902669656596, 45973.090347420024, 77403.53225511698, 12482.868132933156, -20497.801363206072, -30410.665918668023, 11529.968563314505, 0.082, 0.9480000000000001, 0.3, 192.0, 0.0, 0.0, 0.0, 0.0, 0.0, 0.0, 0.0, 0.0, 0.0, 1.6962751026786587E9, 0.0, 2023-10-02 15:31:42.678
107.0, 16425.58174438259, 16738.193242334513, 45989.98826622823, 77412.40589766573, 12488.277255091341, -20493.10749687046, -30411.604691935147, 11528.403941202634, 0.082, 0.9480000000000001, 0.3, 192.0, 0.0, 0.0, 0.0, 0.0, 0.0, 0.0, 0.0, 0.0, 0.0, 1.6962751026786697E9, 0.0, 2023-10-02 15:31:42.678
108.0, 16421.290209447172, 16733.477024254444, 45995.039760475134, 77457.08703483189, 12484.119830622654, -20494.11332537095, -30395.936119071976, 11546.888833867173, 0.082, 0.9480000000000001, 0.3, 192.0, 0.0, 0.0, 0.0, 0.0, 0.0, 0.0, 0.0, 0.0, 0.0, 1.6962751026786802E9, 0.0, 2023-10-02 15:31:42.678
109.0, 16424.128880992994, 16734.05816961028, 45984.10975743649, 77456.97527610962, 12481.504676521383, -20495.566188760542, -30385.83313057818, 11557.975299117006, 0.082, 0.9480000000000001, 0.3, 192.0, 0.0, 0.0, 0.0, 0.0, 0.0, 0.0, 0.0, 0.0, 0.0, 1.6962751026786907E9, 0.0, 2023-10-02 15:31:42.678
110.0, 16423.570087381613, 16731.17479457555, 45982.65689404689, 77423.33590070438, 12481.571731754748, -20497.264921339145, -30385.609613133623, 11550.62157519121, 0.082, 0.9480000000000001, 0.3, 192.0, 0.0, 0.0, 0.0, 0.0, 0.0, 0.0, 0.0, 0.0, 0.0, 1.6962751026787012E9, 0.0, 2023-10-02 15:31:42.678
111.0, 16414.182354710385, 16720.244791536905, 45987.82014701607, 77443.25130501406, 12480.387089298618, -20497.756659717164, -30357.267601164294, 11566.5807207323, 0.082, 0.9480000000000001, 0.3, 192.0, 0.0, 0.0, 0.0, 0.0, 0.0, 0.0, 0.0, 0.0, 0.0, 1.6962751026787128E9, 0.0, 2023-10-02 15:31:42.678
112.0, 16401.330101648582, 16710.342968743204, 45984.08740569203, 77489.76528522556, 12471.736964194413, -20504.082203398015, -30327.18215312745, 11586.63023550871, 0.082, 0.9480000000000001, 0.3, 192.0, 0.0, 0.0, 0.0, 0.0, 0.0, 0.0, 0.0, 0.0, 0.0, 1.696275102678726E9, 0.0, 2023-10-02 15:31:42.678
113.0, 16398.536133591668, 16710.342968743204, 45974.58791429853, 77508.65250929029, 12471.446391516494, -20508.82077322254, -30296.895539390513, 11609.227849153025, 0.094, 0.9480000000000001, 0.29, 192.0, 2.0, 240.0, 29.0, 160.0, 9.0, 16.0, 0.0, 0.0, 0.0, 1.6962751026787367E9, 0.0, 2023-10-02 15:31:42.678
114.0, 16409.264970930217, 16723.754015416387, 45967.88239096194, 77449.39803473926, 12490.154801625587, -20500.90825568536, -30321.86243794709, 11578.829476693807, 0.094, 0.9480000000000001, 0.29, 192.0, 0.0, 0.0, 0.0, 0.0, 0.0, 0.0, 0.0, 0.0, 0.0, 1.696275102678748E9, 0.0, 2023-10-02 15:31:42.678
115.0, 16407.275665673693, 16724.044588094304, 45988.893030749925, 77431.58369440839, 12504.437566332528, -20483.831522921508, -30329.350272339616, 11566.446610265566, 0.094, 0.9480000000000001, 0.29, 192.0, 0.0, 0.0, 0.0, 0.0, 0.0, 0.0, 0.0, 0.0, 0.0, 1.696275102678759E9, 0.0, 2023-10-02 15:31:42.678
116.0, 16395.67511030139, 16715.014483334362, 45996.783196542645, 77482.50096827757, 12495.563923783771, -20484.09974385497, -30295.8003039122, 11593.045186167383, 0.094, 0.9480000000000001, 0.29, 192.0, 0.0, 0.0, 0.0, 0.0, 0.0, 0.0, 0.0, 0.0, 0.0, 1.6962751026787755E9, 0.0, 2023-10-02 15:31:42.678
117.0, 16392.367052122005, 16712.555791444276, 45977.426585844354, 77494.90618645027, 12487.47259229095, -20489.24064507969, -30282.255146772284, 11599.706006015063, 0.094, 0.9480000000000001, 0.29, 192.0, 0.0, 0.0, 0.0, 0.0, 0.0, 0.0, 0.0, 0.0, 0.0, 1.6962751026787865E9, 0.0, 2023-10-02 15:31:42.678
118.0, 16395.049261456643, 16714.947428100997, 45974.207934642785, 77448.9286481057, 12495.541572039316, -20486.983118889704, -30287.776027652744, 11583.188066862593, 0.094, 0.9480000000000001, 0.29, 192.0, 0.0, 0.0, 0.0, 0.0, 0.0, 0.0, 0.0, 0.0, 0.0, 1.696275102678798E9, 0.0, 2023-10-02 15:31:42.678
119.0, 16384.454534584827, 16698.518895926347, 45972.48685031973, 77406.46033364061, 12488.210199857975, -20497.264921339145, -30297.208463812887, 11557.304746783346, 0.094, 0.9480000000000001, 0.29, 192.0, 0.0, 0.0, 0.0, 0.0, 0.0, 0.0, 0.0, 0.0, 0.0, 1.6962751026788406E9, 0.0, 2023-10-02 15:31:42.678
120.0, 16374.932691446864, 16682.380936429614, 45980.354664367995, 77421.57011289241, 12484.656272489581, -20497.4884387837, -30295.353269023093, 11548.945194357062, 0.094, 0.9480000000000001, 0.29, 192.0, 0.0, 0.0, 0.0, 0.0, 0.0, 0.0, 0.0, 0.0, 0.0, 1.6962751026788557E9, 0.0, 2023-10-02 15:31:42.678
121.0, 16364.896758186433, 16668.12052346713, 45972.41979508636, 77441.99960732456, 12477.280196819329, -20495.20856084926, -30281.092856060608, 11555.583662460287, 0.094, 0.9480000000000001, 0.29, 192.0, 0.0, 0.0, 0.0, 0.0, 0.0, 0.0, 0.0, 0.0, 0.0, 1.69627510267887E9, 0.0, 2023-10-02 15:31:42.678
122.0, 16355.509025515203, 16653.30131689326, 45952.258521587675, 77403.10757197233, 12469.479438004428, -20501.71291848575, -30279.75175139329, 11548.453455979045, 0.094, 0.9480000000000001, 0.29, 192.0, 0.0, 0.0, 0.0, 0.0, 0.0, 0.0, 0.0, 0.0, 0.0, 1.6962751026788828E9, 0.0, 2023-10-02 15:31:42.678
123.0, 16353.296202814128, 16644.606488300145, 45961.44508855881, 77360.72866448507, 12484.432755045029, -20487.877188667917, -30280.71287640487, 11537.054066306839, 0.08600000000000001, 0.9540000000000001, 0.28400000000000003, 192.0, 2.0, 176.0, 29.0, 208.0, 8.0, 224.0, 0.0, 0.0, 0.0, 1.6962751026789017E9, 0.0, 2023-10-02 15:31:42.678
124.0, 16354.503197014714, 16637.43157832999, 45970.00580668519, 77368.61883027779, 12492.52408653785, -20478.15417982986, -30273.672076901446, 11537.47874945149, 0.08600000000000001, 0.9540000000000001, 0.28400000000000003, 192.0, 0.0, 0.0, 0.0, 0.0, 0.0, 0.0, 0.0, 0.0, 0.0, 1.6962751026789181E9, 0.0, 2023-10-02 15:31:42.678
125.0, 16347.037714366641, 16623.081758389682, 45958.22643735724, 77375.99490594804, 12480.744717209902, -20485.2843863111, -30272.733303634323, 11537.456397707034, 0.08600000000000001, 0.9540000000000001, 0.28400000000000003, 192.0, 0.0, 0.0, 0.0, 0.0, 0.0, 0.0, 0.0, 0.0, 0.0, 1.69627510267893E9, 0.0, 2023-10-02 15:31:42.678
126.0, 16361.85692094051, 16628.96026718143, 45948.9951668972, 77341.14853634221, 12486.623226001648, -20483.965633388238, -30273.672076901446, 11531.980220315483, 0.08600000000000001, 0.9540000000000001, 0.28400000000000003, 192.0, 0.0, 0.0, 0.0, 0.0, 0.0, 0.0, 0.0, 0.0, 0.0, 1.696275102678942E9, 0.0, 2023-10-02 15:31:42.678
127.0, 16368.361278577004, 16626.613334013622, 45954.627806499935, 77283.81631181436, 12491.227685359441, -20479.450581008266, -30293.56512946667, 11507.259190947914, 0.08600000000000001, 0.9540000000000001, 0.28400000000000003, 192.0, 0.0, 0.0, 0.0, 0.0, 0.0, 0.0, 0.0, 0.0, 0.0, 1.6962751026789534E9, 0.0, 2023-10-02 15:31:42.678
128.0, 16364.852054697521, 16620.66776998851, 45964.507277549186, 77281.51408213546, 12483.51633352236, -20479.584691475, -30294.52625447825, 11503.682911835065, 0.08600000000000001, 0.9540000000000001, 0.28400000000000003, 192.0, 0.0, 0.0, 0.0, 0.0, 0.0, 0.0, 0.0, 0.0, 0.0, 1.696275102678965E9, 0.0, 2023-10-02 15:31:42.678
129.0, 16378.330156604072, 16623.349979323146, 45981.04756844611, 77311.44306796111, 12494.826316216746, -20470.375772759413, -30273.895594346, 11524.09005452276, 0.08600000000000001, 0.9540000000000001, 0.28400000000000003, 192.0, 0.0, 0.0, 0.0, 0.0, 0.0, 0.0, 0.0, 0.0, 0.0, 1.696275102678976E9, 0.0, 2023-10-02 15:31:42.678
130.0, 16388.500200331237, 16618.94668566545, 45974.58791429853, 77271.74636980849, 12504.795194243812, -20474.421438505822, -30289.027725342243, 11508.935571782062, 0.08600000000000001, 0.9540000000000001, 0.28400000000000003, 192.0, 0.0, 0.0, 0.0, 0.0, 0.0, 0.0, 0.0, 0.0, 0.0, 1.6962751026789932E9, 0.0, 2023-10-02 15:31:42.678
131.0, 16384.18631365136, 16606.921447148496, 45973.33621660903, 77217.83396218228, 12506.829202989245, -20477.52833098511, -30298.594271969116, 11493.55757159681, 0.08600000000000001, 0.9540000000000001, 0.28400000000000003, 192.0, 0.0, 0.0, 0.0, 0.0, 0.0, 0.0, 0.0, 0.0, 0.0, 1.6962751026790056E9, 0.0, 2023-10-02 15:31:42.679
132.0, 16366.707249487312, 16588.637720184055, 45966.317768850065, 77216.4258022816, 12492.434679560029, -20489.039479379593, -30281.584594438627, 11501.738310067452, 0.08600000000000001, 0.9540000000000001, 0.28400000000000003, 192.0, 0.0, 0.0, 0.0, 0.0, 0.0, 0.0, 0.0, 0.0, 0.0, 1.6962751026790173E9, 0.0, 2023-10-02 15:31:42.679
0.0, 0.0, 0.0, 0.0, 0.0, 0.0, 0.0, 0.0, 0.0, 0.094, 0.93, 0.322, 192.0, 2.0, 240.0, 29.0, 16.0, 10.0, 16.0, 0.0, 0.0, 0.0, 1.6962751027634897E9, 0.0, 2023-10-02 15:31:42.763
1.0, 17601.462316687386, 17933.095149170775, 45520.60163266679, 60741.9384410308, 12835.690419160179, -20514.654578525377, -29958.132500425876, 11024.70737990229, 0.094, 0.93, 0.322, 192.0, 0.0, 0.0, 0.0, 0.0, 0.0, 0.0, 0.0, 0.0, 0.0, 1.6962751032471974E9, 0.0, 2023-10-02 15:31:43.247
2.0, 17589.548836892707, 17926.143756645175, 45518.94760357709, 60777.25419727018, 12838.193814539172, -20514.587523292008, -29953.72920676818, 11033.737484662233, 0.094, 0.93, 0.322, 192.0, 0.0, 0.0, 0.0, 0.0, 0.0, 0.0, 0.0, 0.0, 0.0, 1.6962751032472715E9, 0.0, 2023-10-02 15:31:43.247
3.0, 17587.91715954747, 17928.758910746445, 45509.67162962814, 60769.45343845528, 12837.567965694425, -20519.34844486099, -29953.50568932363, 11038.029019597652, 0.094, 0.93, 0.322, 192.0, 0.0, 0.0, 0.0, 0.0, 0.0, 0.0, 0.0, 0.0, 0.0, 1.696275103247285E9, 0.0, 2023-10-02 15:31:43.247
4.0, 17594.756793350793, 17933.341018359784, 45505.2906877149, 60725.77812978961, 12833.365837736827, -20528.6467705544, -29968.9730964867, 11019.901754844399, 0.094, 0.93, 0.322, 192.0, 0.0, 0.0, 0.0, 0.0, 0.0, 0.0, 0.0, 0.0, 0.0, 1.696275103247319E9, 0.0, 2023-10-02 15:31:43.247
5.0, 17603.988063810833, 17939.64421029618, 45513.493777929994, 60726.02399897862, 12833.567003436925, -20525.741043775208, -29979.523119869606, 11007.541240160614, 0.094, 0.93, 0.322, 192.0, 0.0, 0.0, 0.0, 0.0, 0.0, 0.0, 0.0, 0.0, 0.0, 1.6962751032473316E9, 0.0, 2023-10-02 15:31:43.247
6.0, 17598.02014804127, 17929.630628780204, 45513.650240141185, 60769.00640356617, 12825.676837644201, -20528.535011832122, -29967.073198208, 11021.667542656367, 0.094, 0.93, 0.322, 192.0, 0.0, 0.0, 0.0, 0.0, 0.0, 0.0, 0.0, 0.0, 0.0, 1.6962751032473457E9, 0.0, 2023-10-02 15:31:43.247
7.0, 17594.19799973941, 17921.226372865007, 45510.02925753943, 60784.07147932905, 12827.777901623, -20531.574849078042, -29946.12961365338, 11043.460493500292, 0.094, 0.93, 0.322, 192.0, 0.0, 0.0, 0.0, 0.0, 0.0, 0.0, 0.0, 0.0, 0.0, 1.6962751032473595E9, 0.0, 2023-10-02 15:31:43.247
8.0, 17598.042499785723, 17924.199154877562, 45506.67649587113, 60748.0404672671, 12841.34541050737, -20528.669122298852, -29949.929410210778, 11035.369162007471, 0.09, 0.932, 0.338, 192.0, 2.0, 208.0, 29.0, 32.0, 10.0, 144.0, 0.0, 0.0, 0.0, 1.6962751032473724E9, 0.0, 2023-10-02 15:31:43.247
9.0, 17602.423441698964, 17927.171936890118, 45526.83776936981, 60738.47392064022, 12851.11312283434, -20514.29695061409, -29962.759311528127, 11023.478033957248, 0.09, 0.932, 0.338, 192.0, 0.0, 0.0, 0.0, 0.0, 0.0, 0.0, 0.0, 0.0, 0.0, 1.6962751032473893E9, 0.0, 2023-10-02 15:31:43.247
10.0, 17603.071642288167, 17920.242896108975, 45530.995193838506, 60803.47279351626, 12835.779826138, -20522.00830245117, -29916.670014461284, 11069.813200213099, 0.09, 0.932, 0.338, 192.0, 0.0, 0.0, 0.0, 0.0, 0.0, 0.0, 0.0, 0.0, 0.0, 1.696275103247402E9, 0.0, 2023-10-02 15:31:43.247
11.0, 17629.82668040117, 17933.899811971165, 45508.50933891646, 60783.6467961844, 12836.897413360764, -20520.041348939103, -29938.73118623867, 11054.055220372107, 0.09, 0.932, 0.338, 192.0, 0.0, 0.0, 0.0, 0.0, 0.0, 0.0, 0.0, 0.0, 0.0, 1.696275103247416E9, 0.0, 2023-10-02 15:31:43.247
12.0, 17610.268904002776, 17920.533468786893, 45513.04674304089, 60739.323286929524, 12839.892547117775, -20519.326093116535, -29956.38906435836, 11038.498406231214, 0.09, 0.932, 0.338, 192.0, 0.0, 0.0, 0.0, 0.0, 0.0, 0.0, 0.0, 0.0, 0.0, 1.6962751032474284E9, 0.0, 2023-10-02 15:31:43.247
13.0, 17599.093031775123, 17913.35855881674, 45523.574414679344, 60738.764493318144, 12841.568927951925, -20516.86740122645, -29946.219020631197, 11044.354563278504, 0.09, 0.932, 0.338, 192.0, 0.0, 0.0, 0.0, 0.0, 0.0, 0.0, 0.0, 0.0, 0.0, 1.69627510324744E9, 0.0, 2023-10-02 15:31:43.247
14.0, 17611.610008670094, 17928.982428191, 45527.03893506991, 60760.33392671752, 12841.658334929745, -20513.335825602513, -29955.45029109124, 11037.157301563895, 0.09, 0.932, 0.338, 192.0, 0.0, 0.0, 0.0, 0.0, 0.0, 0.0, 0.0, 0.0, 0.0, 1.696275103247451E9, 0.0, 2023-10-02 15:31:43.247
15.0, 17606.983197567846, 17925.964942689534, 45513.11379827426, 60777.365955992456, 12823.7769393655, -20528.892639743404, -29947.627180531883, 11047.215586568784, 0.09, 0.932, 0.338, 192.0, 0.0, 0.0, 0.0, 0.0, 0.0, 0.0, 0.0, 0.0, 0.0, 1.6962751032474627E9, 0.0, 2023-10-02 15:31:43.247
16.0, 17601.551723665205, 17918.16418387463, 45502.40731268017, 60750.588566135004, 12823.732235876589, -20539.95675324878, -29941.681616506772, 11048.154359835908, 0.09, 0.932, 0.338, 192.0, 0.0, 0.0, 0.0, 0.0, 0.0, 0.0, 0.0, 0.0, 0.0, 1.6962751032474756E9, 0.0, 2023-10-02 15:31:43.247
17.0, 17602.71401437688, 17915.571381517813, 45517.070057042845, 60740.172653218826, 12831.510642947036, -20535.933439246826, -29931.01983440159, 11052.200025582317, 0.09, 0.932, 0.338, 192.0, 0.0, 0.0, 0.0, 0.0, 0.0, 0.0, 0.0, 0.0, 0.0, 1.6962751032477107E9, 0.0, 2023-10-02 15:31:43.247
18.0, 17609.687758646938, 17920.93580018709, 45529.11764730426, 60778.21532228176, 12831.689456902679, -20526.702168786785, -29918.34639529543, 11065.164037366396, 0.094, 0.928, 0.34800000000000003, 192.0, 2.0, 240.0, 29.0, 0.0, 10.0, 224.0, 0.0, 0.0, 0.0, 1.6962751032477307E9, 0.0, 2023-10-02 15:31:43.247
19.0, 17610.67123540297, 17921.36048333174, 45521.80862686737, 60806.04324412862, 12828.761378379033, -20528.49030834321, -29909.78567716905, 11077.815124728098, 0.094, 0.928, 0.34800000000000003, 192.0, 0.0, 0.0, 0.0, 0.0, 0.0, 0.0, 0.0, 0.0, 0.0, 1.696275103247748E9, 0.0, 2023-10-02 15:31:43.247
20.0, 17618.78491864025, 17931.888154970187, 45513.38201920772, 60758.94811856129, 12837.657372672245, -20528.087976943014, -29939.088814149956, 11050.680106959357, 0.094, 0.928, 0.34800000000000003, 192.0, 0.0, 0.0, 0.0, 0.0, 0.0, 0.0, 0.0, 0.0, 0.0, 1.6962751032477665E9, 0.0, 2023-10-02 15:31:43.247
21.0, 17609.017206313278, 17925.093224655775, 45523.216786768055, 60732.550708359566, 12836.673895916212, -20529.317322888055, -29948.990636943658, 11038.431350997847, 0.094, 0.928, 0.34800000000000003, 192.0, 0.0, 0.0, 0.0, 0.0, 0.0, 0.0, 0.0, 0.0, 0.0, 1.6962751032477832E9, 0.0, 2023-10-02 15:31:43.247
22.0, 17593.28157821674, 17912.30802682734, 45533.14096130621, 60781.97041535025, 12832.091788302874, -20531.418386866855, -29916.06651736099, 11066.527493778169, 0.094, 0.928, 0.34800000000000003, 192.0, 0.0, 0.0, 0.0, 0.0, 0.0, 0.0, 0.0, 0.0, 0.0, 1.6962751032477977E9, 0.0, 2023-10-02 15:31:43.247
23.0, 17586.933682791434, 17908.73174771449, 45529.96701359356, 60821.80122396961, 12830.035427812985, -20531.217221166757, -29893.692421161228, 11088.834534744565, 0.094, 0.928, 0.34800000000000003, 192.0, 0.0, 0.0, 0.0, 0.0, 0.0, 0.0, 0.0, 0.0, 0.0, 1.6962751032478127E9, 0.0, 2023-10-02 15:31:43.247
24.0, 17589.258264214786, 17915.54902977336, 45517.070057042845, 60798.622464969456, 12822.994628309563, -20537.810985781074, -29893.58066243895, 11085.124145164984, 0.094, 0.928, 0.34800000000000003, 192.0, 0.0, 0.0, 0.0, 0.0, 0.0, 0.0, 0.0, 0.0, 0.0, 1.6962751032478251E9, 0.0, 2023-10-02 15:31:43.247
25.0, 17602.199924254408, 17931.821099736822, 45524.02144956845, 60734.11533047144, 12835.556308693447, -20529.04910195459, -29936.406604815318, 11040.957098121298, 0.094, 0.928, 0.34800000000000003, 192.0, 0.0, 0.0, 0.0, 0.0, 0.0, 0.0, 0.0, 0.0, 0.0, 1.6962751032478402E9, 0.0, 2023-10-02 15:31:43.247
26.0, 17599.271845730764, 17927.283695612394, 45550.46356325907, 60749.538034145604, 12840.473692473613, -20519.504907072176, -29938.842944960947, 11040.04067659863, 0.094, 0.928, 0.34800000000000003, 192.0, 0.0, 0.0, 0.0, 0.0, 0.0, 0.0, 0.0, 0.0, 0.0, 1.696275103247872E9, 0.0, 2023-10-02 15:31:43.247
27.0, 17578.48472338733, 17908.01649189192, 45542.12636257725, 60793.861543400475, 12825.900355088754, -20530.569020577554, -29918.704023206716, 11061.990089653742, 0.094, 0.928, 0.34800000000000003, 192.0, 0.0, 0.0, 0.0, 0.0, 0.0, 0.0, 0.0, 0.0, 0.0, 1.6962751032479024E9, 0.0, 2023-10-02 15:31:43.247
28.0, 17569.655784327482, 17899.656939465636, 45524.6472984132, 60773.20853152377, 12818.97131430761, -20535.754625291185, -29924.58253199846, 11055.686897717345, 0.1, 0.928, 0.34800000000000003, 192.0, 3.0, 32.0, 29.0, 0.0, 10.0, 224.0, 0.0, 0.0, 0.0, 1.6962751032479203E9, 0.0, 2023-10-02 15:31:43.247
29.0, 17576.897749531003, 17903.322625556306, 45523.999097823995, 60721.62070532092, 12819.261886985529, -20534.81585202406, -29941.815726973502, 11034.028057340152, 0.1, 0.928, 0.34800000000000003, 192.0, 0.0, 0.0, 0.0, 0.0, 0.0, 0.0, 0.0, 0.0, 0.0, 1.6962751032479424E9, 0.0, 2023-10-02 15:31:43.247
30.0, 17580.54108387722, 17904.350805801252, 45537.79012415292, 60730.22612693621, 12823.68753238768, -20531.016055466658, -29937.12186063789, 11034.139816062429, 0.1, 0.928, 0.34800000000000003, 192.0, 0.0, 0.0, 0.0, 0.0, 0.0, 0.0, 0.0, 0.0, 0.0, 1.6962751032479591E9, 0.0, 2023-10-02 15:31:43.247
31.0, 17573.85791228508, 17900.953340644042, 45542.48399048853, 60778.64000542641, 12823.084035287386, -20529.093805443503, -29917.40762202831, 11055.418676783882, 0.1, 0.928, 0.34800000000000003, 192.0, 0.0, 0.0, 0.0, 0.0, 0.0, 0.0, 0.0, 0.0, 0.0, 1.6962751032479756E9, 0.0, 2023-10-02 15:31:43.247
32.0, 17566.19126393691, 17898.762869687424, 45526.52484494744, 60775.53311294712, 12809.874154314299, -20537.028674725138, -29917.877008661868, 11056.983298895753, 0.1, 0.928, 0.34800000000000003, 192.0, 0.0, 0.0, 0.0, 0.0, 0.0, 0.0, 0.0, 0.0, 0.0, 1.6962751032480447E9, 0.0, 2023-10-02 15:31:43.248
33.0, 17559.396333622495, 17896.371233030706, 45520.13224603322, 60737.95983051775, 12807.974256035597, -20542.43779688332, -29926.25891283261, 11043.080513844552, 0.1, 0.928, 0.34800000000000003, 192.0, 0.0, 0.0, 0.0, 0.0, 0.0, 0.0, 0.0, 0.0, 0.0, 1.6962751032480648E9, 0.0, 2023-10-02 15:31:43.248
34.0, 17568.091162215613, 17904.507268012436, 45530.52580720494, 60728.63915307989, 12821.653523642246, -20530.72548278874, -29935.333721081464, 11031.055275327597, 0.1, 0.928, 0.34800000000000003, 192.0, 0.0, 0.0, 0.0, 0.0, 0.0, 0.0, 0.0, 0.0, 0.0, 1.6962751032480783E9, 0.0, 2023-10-02 15:31:43.248
35.0, 17552.400237607984, 17888.235198048973, 45530.3469932493, 60773.67791815734, 12810.589410136869, -20534.704093301785, -29915.01598537159, 11048.914319147387, 0.1, 0.928, 0.34800000000000003, 192.0, 0.0, 0.0, 0.0, 0.0, 0.0, 0.0, 0.0, 0.0, 0.0, 1.696275103248093E9, 0.0, 2023-10-02 15:31:43.248
36.0, 17542.006676436267, 17879.875645622687, 45517.89707158769, 60791.40285151039, 12802.38631992177, -20542.97423875025, -29893.625365927863, 11066.438086800348, 0.1, 0.928, 0.34800000000000003, 192.0, 0.0, 0.0, 0.0, 0.0, 0.0, 0.0, 0.0, 0.0, 0.0, 1.696275103248107E9, 0.0, 2023-10-02 15:31:43.248
37.0, 17559.597499322594, 17898.11466909822, 45519.95343207758, 60750.387400434905, 12814.031578782986, -20536.045197969102, -29902.38724975434, 11053.652888971912, 0.1, 0.928, 0.34800000000000003, 192.0, 0.0, 0.0, 0.0, 0.0, 0.0, 0.0, 0.0, 0.0, 0.0, 1.6962751032481265E9, 0.0, 2023-10-02 15:31:43.248
38.0, 17563.576109835638, 17901.243913321963, 45533.923272362146, 60727.92389725732, 12816.244401484062, -20536.179308435836, -29913.272549304074, 11035.369162007471, 0.09, 0.93, 0.34400000000000003, 192.0, 2.0, 208.0, 29.0, 16.0, 10.0, 192.0, 0.0, 0.0, 0.0, 1.6962751032481475E9, 0.0, 2023-10-02 15:31:43.248
39.0, 17553.696638786394, 17892.25851205093, 45560.141868608225, 60773.14147629041, 12814.769186350011, -20537.74393054771, -29885.846958857415, 11058.547921007625, 0.09, 0.93, 0.34400000000000003, 192.0, 0.0, 0.0, 0.0, 0.0, 0.0, 0.0, 0.0, 0.0, 0.0, 1.696275103248171E9, 0.0, 2023-10-02 15:31:43.248
40.0, 17566.77240929275, 17905.535448257382, 45561.86295293128, 60774.23671176872, 12823.173442265206, -20532.558325834078, -29892.261909516088, 11053.675240716368, 0.09, 0.93, 0.34400000000000003, 192.0, 0.0, 0.0, 0.0, 0.0, 0.0, 0.0, 0.0, 0.0, 0.0, 1.6962751032481897E9, 0.0, 2023-10-02 15:31:43.248
41.0, 17577.411839653472, 17914.900829184156, 45567.38383381174, 60727.96860074623, 12833.522299948014, -20528.087976943014, -29914.658357460306, 11031.457606727792, 0.09, 0.93, 0.34400000000000003, 192.0, 0.0, 0.0, 0.0, 0.0, 0.0, 0.0, 0.0, 0.0, 0.0, 1.6962751032482119E9, 0.0, 2023-10-02 15:31:43.248
42.0, 17569.789894794216, 17909.73757621498, 45572.994121670024, 60697.57022828701, 12829.320171990415, -20533.452395612287, -29930.863372190404, 11012.659789640878, 0.09, 0.93, 0.34400000000000003, 192.0, 0.0, 0.0, 0.0, 0.0, 0.0, 0.0, 0.0, 0.0, 0.0, 1.6962751032482295E9, 0.0, 2023-10-02 15:31:43.248
43.0, 17547.102874172077, 17892.526732984392, 45577.64328451673, 60744.866519554445, 12819.016017796519, -20539.06268347057, -29903.43778174374, 11036.933784119343, 0.09, 0.93, 0.34400000000000003, 192.0, 0.0, 0.0, 0.0, 0.0, 0.0, 0.0, 0.0, 0.0, 0.0, 1.696275103248256E9, 0.0, 2023-10-02 15:31:43.248
44.0, 17542.27489736973, 17892.571436473303, 45566.95915066709, 60782.260988028174, 12816.177346250695, -20534.43587236832, -29877.1521302643, 11062.258310587205, 0.09, 0.93, 0.34400000000000003, 192.0, 0.0, 0.0, 0.0, 0.0, 0.0, 0.0, 0.0, 0.0, 0.0, 1.696275103248275E9, 0.0, 2023-10-02 15:31:43.248
45.0, 17547.013467194258, 17897.533523742382, 45560.52184826396, 60744.97827827672, 12819.954791063643, -20531.97718047824, -29890.764342637583, 11047.483807502247, 0.09, 0.93, 0.34400000000000003, 192.0, 0.0, 0.0, 0.0, 0.0, 0.0, 0.0, 0.0, 0.0, 0.0, 1.6962751032482953E9, 0.0, 2023-10-02 15:31:43.248
46.0, 17554.43424635342, 17900.908637155135, 45564.4557552881, 60708.14260341437, 12819.798328852456, -20537.431006125335, -29905.82941840046, 11029.08832181553, 0.09, 0.93, 0.34400000000000003, 192.0, 0.0, 0.0, 0.0, 0.0, 0.0, 0.0, 0.0, 0.0, 0.0, 1.6962751032483144E9, 0.0, 2023-10-02 15:31:43.248
47.0, 17548.354571861575, 17891.74442192846, 45570.53542977994, 60748.33103994501, 12807.862497313321, -20542.43779688332, -29878.87321458736, 11051.216548826284, 0.09, 0.93, 0.34400000000000003, 192.0, 0.0, 0.0, 0.0, 0.0, 0.0, 0.0, 0.0, 0.0, 0.0, 1.6962751032483532E9, 0.0, 2023-10-02 15:31:43.248
48.0, 17552.55669981917, 17896.01360511942, 45563.65109248771, 60789.12297357595, 12808.756567091534, -20534.480575857233, -29855.09095848691, 11073.747107237234, 0.08600000000000001, 0.924, 0.35000000000000003, 192.0, 2.0, 176.0, 28.0, 224.0, 10.0, 240.0, 0.0, 0.0, 0.0, 1.6962751032484627E9, 0.0, 2023-10-02 15:31:43.248
49.0, 17549.606269551074, 17896.728860941992, 45545.92615913465, 60753.807217336565, 12818.434872440681, -20534.078244457036, -29876.43687444173, 11055.083400617052, 0.08600000000000001, 0.924, 0.35000000000000003, 192.0, 0.0, 0.0, 0.0, 0.0, 0.0, 0.0, 0.0, 0.0, 0.0, 1.6962751032484984E9, 0.0, 2023-10-02 15:31:43.248
50.0, 17545.471196826842, 17894.694852196557, 45547.557836479886, 60701.48178356669, 12817.719616618111, -20538.392131136912, -29903.57189221047, 11023.142757790418, 0.08600000000000001, 0.924, 0.35000000000000003, 192.0, 0.0, 0.0, 0.0, 0.0, 0.0, 0.0, 0.0, 0.0, 0.0, 1.6962751032485168E9, 0.0, 2023-10-02 15:31:43.248
51.0, 17542.85604272557, 17885.664747436615, 45568.032034400945, 60735.07645548302, 12817.138471262273, -20537.319247403055, -29879.96845006567, 11039.213662053784, 0.08600000000000001, 0.924, 0.35000000000000003, 192.0, 0.0, 0.0, 0.0, 0.0, 0.0, 0.0, 0.0, 0.0, 0.0, 1.6962751032485375E9, 0.0, 2023-10-02 15:31:43.248
52.0, 17536.306981600166, 17873.974785086488, 45557.549066251406, 60795.202648067796, 12808.06366301342, -20540.73906430472, -29841.009359480067, 11075.490543304748, 0.08600000000000001, 0.924, 0.35000000000000003, 192.0, 0.0, 0.0, 0.0, 0.0, 0.0, 0.0, 0.0, 0.0, 0.0, 1.6962751032485557E9, 0.0, 2023-10-02 15:31:43.248
53.0, 17537.13399614501, 17872.454866463526, 45532.20218803909, 60761.87619708493, 12800.419366409704, -20548.316305675067, -29866.37858943684, 11052.937633149342, 0.08600000000000001, 0.924, 0.35000000000000003, 192.0, 0.0, 0.0, 0.0, 0.0, 0.0, 0.0, 0.0, 0.0, 0.0, 1.6962751032485752E9, 0.0, 2023-10-02 15:31:43.248
54.0, 17551.863795741057, 17883.273110779897, 45532.246891528004, 60706.95796095824, 12809.941209547665, -20542.951887005795, -29900.330889264453, 11019.588830422024, 0.08600000000000001, 0.924, 0.35000000000000003, 192.0, 0.0, 0.0, 0.0, 0.0, 0.0, 0.0, 0.0, 0.0, 0.0, 1.696275103248596E9, 0.0, 2023-10-02 15:31:43.248
55.0, 17557.47408359934, 17884.68127068058, 45549.61419696977, 60704.99100744617, 12813.539840404968, -20538.883869514928, -29918.100526106424, 11003.316760458561, 0.08600000000000001, 0.924, 0.35000000000000003, 192.0, 0.0, 0.0, 0.0, 0.0, 0.0, 0.0, 0.0, 0.0, 0.0, 1.6962751032486172E9, 0.0, 2023-10-02 15:31:43.248
56.0, 17545.493548571296, 17871.091410051755, 45559.53837150793, 60757.1376272604, 12809.091843258364, -20536.335770647023, -29903.840113143935, 11023.030999068142, 0.08600000000000001, 0.924, 0.35000000000000003, 192.0, 0.0, 0.0, 0.0, 0.0, 0.0, 0.0, 0.0, 0.0, 0.0, 1.6962751032486372E9, 0.0, 2023-10-02 15:31:43.248
57.0, 17548.66749628395, 17872.00783157442, 45557.03497612893, 60774.41552572436, 12815.216221239118, -20536.291067158112, -29885.690496646228, 11043.058162100097, 0.08600000000000001, 0.924, 0.35000000000000003, 192.0, 0.0, 0.0, 0.0, 0.0, 0.0, 0.0, 0.0, 0.0, 0.0, 1.6962751032486608E9, 0.0, 2023-10-02 15:31:43.248
58.0, 17567.1970924374, 17890.91740738361, 45563.04759538741, 60733.668295582334, 12826.794424866966, -20529.764357777163, -29900.35324100891, 11028.820100882067, 0.082, 0.928, 0.35000000000000003, 192.0, 2.0, 144.0, 29.0, 0.0, 10.0, 240.0, 0.0, 0.0, 0.0, 1.6962751032486796E9, 0.0, 2023-10-02 15:31:43.248
59.0, 17551.99790620779, 17882.311985768316, 45568.456717545596, 60738.83154855151, 12811.617590381813, -20536.179308435836, -29892.954813594202, 11032.84341488402, 0.082, 0.928, 0.35000000000000003, 192.0, 0.0, 0.0, 0.0, 0.0, 0.0, 0.0, 0.0, 0.0, 0.0, 1.6962751032486987E9, 0.0, 2023-10-02 15:31:43.248
60.0, 17540.84438572459, 17876.72404965449, 45562.53350526494, 60779.06468857106, 12810.254133970038, -20530.88194499993, -29879.990801810123, 11045.963888879287, 0.082, 0.928, 0.35000000000000003, 192.0, 0.0, 0.0, 0.0, 0.0, 0.0, 0.0, 0.0, 0.0, 0.0, 1.6962751032487152E9, 0.0, 2023-10-02 15:31:43.248
61.0, 17542.498414814283, 17880.456790978526, 45547.98251962454, 60793.52626723365, 12816.356160206338, -20530.591372322007, -29864.009304524578, 11064.202912354816, 0.082, 0.928, 0.35000000000000003, 192.0, 0.0, 0.0, 0.0, 0.0, 0.0, 0.0, 0.0, 0.0, 0.0, 1.696275103248734E9, 0.0, 2023-10-02 15:31:43.248
62.0, 17545.627659038026, 17883.9213113691, 45533.27507177294, 60741.06672299704, 12809.96356129212, -20543.354218405988, -29882.516548933574, 11045.159226078895, 0.082, 0.928, 0.35000000000000003, 192.0, 0.0, 0.0, 0.0, 0.0, 0.0, 0.0, 0.0, 0.0, 0.0, 1.69627510324876E9, 0.0, 2023-10-02 15:31:43.248
63.0, 17548.46633058385, 17883.67544218009, 45550.575321981356, 60715.96571397373, 12819.753625363544, -20537.54276484761, -29896.86636887388, 11028.596583437513, 0.082, 0.928, 0.35000000000000003, 192.0, 0.0, 0.0, 0.0, 0.0, 0.0, 0.0, 0.0, 0.0, 0.0, 1.696275103248782E9, 0.0, 2023-10-02 15:31:43.248
64.0, 17546.1417491605, 17879.40625898913, 45566.64622624472, 60746.29703119958, 12822.614648653824, -20530.770186277652, -29898.67686017476, 11030.60824043849, 0.082, 0.928, 0.35000000000000003, 192.0, 0.0, 0.0, 0.0, 0.0, 0.0, 0.0, 0.0, 0.0, 0.0, 1.6962751032489371E9, 0.0, 2023-10-02 15:31:43.248
65.0, 17542.967801447845, 17879.54036945586, 45561.43826978663, 60767.26296749866, 12815.976180550597, -20524.601104807985, -29894.832360128446, 11039.99597310972, 0.082, 0.928, 0.35000000000000003, 192.0, 0.0, 0.0, 0.0, 0.0, 0.0, 0.0, 0.0, 0.0, 0.0, 1.6962751032489932E9, 0.0, 2023-10-02 15:31:43.248
66.0, 17541.269068869242, 17878.82511363329, 45552.47522026005, 60748.487502156204, 12808.86832581381, -20533.184174678823, -29887.121008291368, 11046.254461557206, 0.082, 0.928, 0.35000000000000003, 192.0, 0.0, 0.0, 0.0, 0.0, 0.0, 0.0, 0.0, 0.0, 0.0, 1.6962751032490244E9, 0.0, 2023-10-02 15:31:43.249
67.0, 17543.034856681214, 17879.674479922593, 45557.906694162695, 60727.387455390395, 12810.075320014397, -20533.675913056843, -29891.323136248964, 11038.23018529775, 0.082, 0.928, 0.35000000000000003, 192.0, 0.0, 0.0, 0.0, 0.0, 0.0, 0.0, 0.0, 0.0, 0.0, 1.6962751032490537E9, 0.0, 2023-10-02 15:31:43.249
68.0, 17550.254470140277, 17887.564645715316, 45577.01743567198, 60752.488464413706, 12826.01211381103, -20521.270694884148, -29892.463075216187, 11039.28071728715, 0.08600000000000001, 0.93, 0.354, 192.0, 2.0, 176.0, 29.0, 16.0, 11.0, 16.0, 0.0, 0.0, 0.0, 1.6962751032491164E9, 0.0, 2023-10-02 15:31:43.249
69.0, 17542.27489736973, 17882.311985768316, 45580.72782525156, 60783.80325839559, 12819.753625363544, -20525.96456121976, -29878.33677272043, 11055.508083761702, 0.08600000000000001, 0.93, 0.354, 192.0, 0.0, 0.0, 0.0, 0.0, 0.0, 0.0, 0.0, 0.0, 0.0, 1.6962751032491446E9, 0.0, 2023-10-02 15:31:43.249
70.0, 17537.37986533402, 17879.562721200316, 45563.96401691008, 60758.25521448317, 12815.484442172581, -20535.48640435772, -29878.180310509244, 11054.345793050026, 0.08600000000000001, 0.93, 0.354, 192.0, 0.0, 0.0, 0.0, 0.0, 0.0, 0.0, 0.0, 0.0, 0.0, 1.696275103249167E9, 0.0, 2023-10-02 15:31:43.249
71.0, 17532.931868187414, 17877.171084543595, 45566.713281478085, 60723.945286744274, 12820.446529441659, -20533.675913056843, -29885.221110012666, 11043.28167954465, 0.08600000000000001, 0.93, 0.354, 192.0, 0.0, 0.0, 0.0, 0.0, 0.0, 0.0, 0.0, 0.0, 0.0, 1.6962751032491865E9, 0.0, 2023-10-02 15:31:43.249
72.0, 17523.432376793906, 17864.989383815453, 45571.42949955815, 60753.76251384766, 12812.042273526464, -20539.10738695948, -29863.562269635473, 11060.38076405296, 0.08600000000000001, 0.93, 0.354, 192.0, 0.0, 0.0, 0.0, 0.0, 0.0, 0.0, 0.0, 0.0, 0.0, 1.696275103249215E9, 0.0, 2023-10-02 15:31:43.249
73.0, 17520.839574437094, 17860.29551747984, 45556.0514993729, 60772.51562744566, 12808.15306999124, -20539.822642782052, -29863.405807424286, 11063.577063510069, 0.08600000000000001, 0.93, 0.354, 192.0, 0.0, 0.0, 0.0, 0.0, 0.0, 0.0, 0.0, 0.0, 0.0, 1.6962751032492356E9, 0.0, 2023-10-02 15:31:43.249
74.0, 17527.992132662792, 17868.900939095132, 45550.03888011442, 60746.29703119958, 12811.639942126269, -20533.720616545754, -29870.804234838994, 11059.620804741478, 0.08600000000000001, 0.93, 0.354, 192.0, 0.0, 0.0, 0.0, 0.0, 0.0, 0.0, 0.0, 0.0, 0.0, 1.6962751032492535E9, 0.0, 2023-10-02 15:31:43.249
75.0, 17543.213670636855, 17884.658918936126, 45559.516019763476, 60702.64407427837, 12818.390168951772, -20525.96456121976, -29889.333830992444, 11040.487711487736, 0.08600000000000001, 0.93, 0.354, 192.0, 0.0, 0.0, 0.0, 0.0, 0.0, 0.0, 0.0, 0.0, 0.0, 1.6962751032492728E9, 0.0, 2023-10-02 15:31:43.249
76.0, 17536.418740322442, 17879.11568631121, 45561.93000816465, 60714.088167439484, 12815.685607872678, -20528.62441880994, -29892.552482194005, 11036.062066085586, 0.08600000000000001, 0.93, 0.354, 192.0, 0.0, 0.0, 0.0, 0.0, 0.0, 0.0, 0.0, 0.0, 0.0, 1.6962751032492957E9, 0.0, 2023-10-02 15:31:43.249
77.0, 17521.04074013719, 17865.995212315942, 45551.93877839312, 60759.93159531732, 12806.610799623824, -20533.005360723182, -29874.894604074314, 11057.631499484956, 0.08600000000000001, 0.93, 0.354, 192.0, 0.0, 0.0, 0.0, 0.0, 0.0, 0.0, 0.0, 0.0, 0.0, 1.6962751032493136E9, 0.0, 2023-10-02 15:31:43.249
78.0, 17524.125280872024, 17869.39267747315, 45529.587033937816, 60742.74310383119, 12806.476689157093, -20540.895526515906, -29885.176406523755, 11052.825874427066, 0.088, 0.922, 0.356, 192.0, 2.0, 192.0, 28.0, 208.0, 11.0, 32.0, 0.0, 0.0, 0.0, 1.6962751032493331E9, 0.0, 2023-10-02 15:31:43.249
79.0, 17525.75695821726, 17872.58897693026, 45531.598690938794, 60703.35933010094, 12810.745872348056, -20537.587468336522, -29896.9557758517, 11040.621821954468, 0.088, 0.922, 0.356, 192.0, 0.0, 0.0, 0.0, 0.0, 0.0, 0.0, 0.0, 0.0, 0.0, 1.696275103249456E9, 0.0, 2023-10-02 15:31:43.249
80.0, 17524.058225638655, 17873.997136830945, 45533.54329270641, 60691.40114681735, 12808.644808369258, -20533.027712467636, -29918.122877850878, 11018.89592634391, 0.088, 0.922, 0.356, 192.0, 0.0, 0.0, 0.0, 0.0, 0.0, 0.0, 0.0, 0.0, 0.0, 1.696275103249482E9, 0.0, 2023-10-02 15:31:43.249
81.0, 17515.74337670128, 17864.050610548333, 45543.24394980001, 60744.62065036543, 12804.397976922748, -20525.428119352833, -29899.72739216416, 11041.42648475486, 0.088, 0.922, 0.356, 192.0, 0.0, 0.0, 0.0, 0.0, 0.0, 0.0, 0.0, 0.0, 0.0, 1.6962751032495017E9, 0.0, 2023-10-02 15:31:43.249
82.0, 17524.728777972316, 17870.91259609611, 45533.31977526186, 60735.94817351677, 12808.06366301342, -20524.86932574145, -29911.037374858544, 11035.816196896578, 0.088, 0.922, 0.356, 192.0, 0.0, 0.0, 0.0, 0.0, 0.0, 0.0, 0.0, 0.0, 0.0, 1.6962751032495172E9, 0.0, 2023-10-02 15:31:43.249
83.0, 17524.37115006103, 17868.49860769494, 45536.82899914134, 60700.20773413274, 12808.309532202427, -20528.579715321033, -29917.273511561576, 11027.590754937024, 0.088, 0.922, 0.356, 192.0, 0.0, 0.0, 0.0, 0.0, 0.0, 0.0, 0.0, 0.0, 0.0, 1.6962751032495334E9, 0.0, 2023-10-02 15:31:43.249
84.0, 17519.006731391757, 17863.760037870412, 45543.89215038921, 60716.41274886284, 12798.474764642093, -20543.085997472524, -29888.551519936507, 11046.477979001758, 0.088, 0.922, 0.356, 192.0, 0.0, 0.0, 0.0, 0.0, 0.0, 0.0, 0.0, 0.0, 0.0, 1.696275103249555E9, 0.0, 2023-10-02 15:31:43.249
85.0, 17533.557717032163, 17876.50053220994, 45545.54617947891, 60749.22510972323, 12800.10644198733, -20543.421273639357, -29874.0005342961, 11057.407982040404, 0.088, 0.922, 0.356, 192.0, 0.0, 0.0, 0.0, 0.0, 0.0, 0.0, 0.0, 0.0, 0.0, 1.6962751032495823E9, 0.0, 2023-10-02 15:31:43.249
86.0, 17530.294362341687, 17876.567587443304, 45539.42180149815, 60742.49723464218, 12805.470860656604, -20541.521375360655, -29882.42714195575, 11052.624708726968, 0.088, 0.922, 0.356, 192.0, 0.0, 0.0, 0.0, 0.0, 0.0, 0.0, 0.0, 0.0, 0.0, 1.6962751032496035E9, 0.0, 2023-10-02 15:31:43.249
87.0, 17518.827917436116, 17871.96312808551, 45542.41693525517, 60700.945341699764, 12813.964523549621, -20535.933439246826, -29891.30078450451, 11044.600432467512, 0.088, 0.922, 0.356, 192.0, 0.0, 0.0, 0.0, 0.0, 0.0, 0.0, 0.0, 0.0, 0.0, 1.6962751032496228E9, 0.0, 2023-10-02 15:31:43.249
88.0, 17510.334254543097, 17864.363534970707, 45560.52184826396, 60676.91721641031, 12815.39503519476, -20527.104500186982, -29904.935348622246, 11031.837586383532, 0.088, 0.928, 0.362, 192.0, 2.0, 192.0, 29.0, 0.0, 11.0, 80.0, 0.0, 0.0, 0.0, 1.6962751032496464E9, 0.0, 2023-10-02 15:31:43.249
89.0, 17515.676321467916, 17865.861101849212, 45563.53933376543, 60716.41274886284, 12819.798328852456, -20524.645808296897, -29893.223034527666, 11047.416752268882, 0.088, 0.928, 0.362, 192.0, 0.0, 0.0, 0.0, 0.0, 0.0, 0.0, 0.0, 0.0, 0.0, 1.6962751032496643E9, 0.0, 2023-10-02 15:31:43.249
90.0, 17525.198164605878, 17874.220654275498, 45551.24587431501, 60736.752836317166, 12826.928535333698, -20526.188078664312, -29885.48933094613, 11057.005650640209, 0.088, 0.928, 0.362, 192.0, 0.0, 0.0, 0.0, 0.0, 0.0, 0.0, 0.0, 0.0, 0.0, 1.6962751032497096E9, 0.0, 2023-10-02 15:31:43.249
91.0, 17528.260353596255, 17880.21092178952, 45543.93685387813, 60693.23398986268, 12833.63405867029, -20521.516564073154, -29907.77402016807, 11036.084417830041, 0.088, 0.928, 0.362, 192.0, 0.0, 0.0, 0.0, 0.0, 0.0, 0.0, 0.0, 0.0, 0.0, 1.6962751032497203E9, 0.0, 2023-10-02 15:31:43.249
92.0, 17518.023254635722, 17872.7677908859, 45549.81536266987, 60675.26318732062, 12831.44358771367, -20523.192944907303, -29908.243406801634, 11030.98822009423, 0.088, 0.928, 0.362, 192.0, 0.0, 0.0, 0.0, 0.0, 0.0, 0.0, 0.0, 0.0, 0.0, 1.696275103249732E9, 0.0, 2023-10-02 15:31:43.249
93.0, 17509.909571398446, 17862.597747158736, 45559.24779883001, 60722.9841617327, 12824.268677743517, -20528.82558451004, -29879.9013948323, 11055.865711672988, 0.088, 0.928, 0.362, 192.0, 0.0, 0.0, 0.0, 0.0, 0.0, 0.0, 0.0, 0.0, 0.0, 1.6962751032497444E9, 0.0, 2023-10-02 15:31:43.249
94.0, 17523.36532156054, 17873.281881008374, 45555.380947039244, 60741.580813119515, 12822.63700039828, -20524.444642596798, -29880.080208787946, 11058.503217518713, 0.088, 0.928, 0.362, 192.0, 0.0, 0.0, 0.0, 0.0, 0.0, 0.0, 0.0, 0.0, 0.0, 1.6962751032497547E9, 0.0, 2023-10-02 15:31:43.249
95.0, 17525.444033794884, 17875.025317075888, 45544.78622016743, 60705.01335919063, 12821.474709686603, -20524.57875306353, -29903.01309859909, 11038.096074831019, 0.088, 0.928, 0.362, 192.0, 0.0, 0.0, 0.0, 0.0, 0.0, 0.0, 0.0, 0.0, 0.0, 1.6962751032498355E9, 0.0, 2023-10-02 15:31:43.249
96.0, 17518.202068591367, 17871.806665874323, 45544.62975795624, 60675.53140825408, 12827.464977200625, -20515.92862795933, -29915.127744093865, 11025.04265606912, 0.088, 0.928, 0.362, 192.0, 0.0, 0.0, 0.0, 0.0, 0.0, 0.0, 0.0, 0.0, 0.0, 1.6962751032498596E9, 0.0, 2023-10-02 15:31:43.249
97.0, 17506.355644030053, 17865.168197771098, 45546.90963589068, 60695.91619919732, 12827.286163244982, -20515.571000048043, -29918.0111191286, 11022.941592090321, 0.088, 0.928, 0.362, 192.0, 0.0, 0.0, 0.0, 0.0, 0.0, 0.0, 0.0, 0.0, 0.0, 1.6962751032498844E9, 0.0, 2023-10-02 15:31:43.249
98.0, 17498.89016138198, 17862.15071226963, 45539.42180149815, 60719.18436517529, 12829.834262112889, -20512.374700590935, -29929.030529145068, 11022.114577545473, 0.082, 0.922, 0.36, 192.0, 2.0, 144.0, 28.0, 208.0, 11.0, 64.0, 0.0, 0.0, 0.0, 1.6962751032499268E9, 0.0, 2023-10-02 15:31:43.249
99.0, 17490.955292100345, 17856.607479644714, 45525.809589124874, 60711.383606360396, 12821.161785264228, -20521.158936161868, -29924.381366298363, 11034.072760829064, 0.082, 0.922, 0.36, 192.0, 0.0, 0.0, 0.0, 0.0, 0.0, 0.0, 0.0, 0.0, 0.0, 1.6962751032499435E9, 0.0, 2023-10-02 15:31:43.249
100.0, 17486.395536231463, 17854.193491243543, 45515.594841908794, 60691.19998111725, 12812.265790971016, -20527.529183331633, -29913.384308026354, 11041.582946966046, 0.082, 0.922, 0.36, 192.0, 0.0, 0.0, 0.0, 0.0, 0.0, 0.0, 0.0, 0.0, 0.0, 1.6962751032499743E9, 0.0, 2023-10-02 15:31:43.249
101.0, 17482.305166996142, 17850.751322597425, 45521.58510942282, 60715.60808606244, 12815.529145661492, -20521.2930466286, -29891.121970548866, 11057.13976110694, 0.082, 0.922, 0.36, 192.0, 0.0, 0.0, 0.0, 0.0, 0.0, 0.0, 0.0, 0.0, 0.0, 1.6962751032500105E9, 0.0, 2023-10-02 15:31:43.250
102.0, 17488.921283354914, 17855.042857532844, 45523.03797281242, 60738.04923749557, 12824.58160216589, -20512.6429215244, -29892.06074381599, 11058.57027275208, 0.082, 0.922, 0.36, 192.0, 0.0, 0.0, 0.0, 0.0, 0.0, 0.0, 0.0, 0.0, 0.0, 1.6962751032500217E9, 0.0, 2023-10-02 15:31:43.250
103.0, 17492.229341534297, 17855.28872672185, 45514.141978519205, 60722.51477509914, 12817.339636962372, -20521.136584417414, -29899.414467741786, 11054.815179683588, 0.082, 0.922, 0.36, 192.0, 0.0, 0.0, 0.0, 0.0, 0.0, 0.0, 0.0, 0.0, 0.0, 1.6962751032500346E9, 0.0, 2023-10-02 15:31:43.250
104.0, 17492.98930084578, 17853.09825576523, 45516.42185645364, 60679.66648097831, 12817.339636962372, -20529.6973025438, -29909.025717857567, 11042.61112721099, 0.082, 0.922, 0.36, 192.0, 0.0, 0.0, 0.0, 0.0, 0.0, 0.0, 0.0, 0.0, 0.0, 1.696275103250064E9, 0.0, 2023-10-02 15:31:43.250
105.0, 17489.010690332736, 17847.95735454051, 45534.973804351546, 60668.73647793967, 12833.388189481282, -20518.83435473852, -29924.023738387077, 11027.031961325642, 0.082, 0.922, 0.36, 192.0, 0.0, 0.0, 0.0, 0.0, 0.0, 0.0, 0.0, 0.0, 0.0, 1.696275103250076E9, 0.0, 2023-10-02 15:31:43.250
106.0, 17493.235170034786, 17852.360648198206, 45547.96016788008, 60708.4778795812, 12835.958640093642, -20517.672064026843, -29914.30072954902, 11039.861862642987, 0.082, 0.922, 0.36, 192.0, 0.0, 0.0, 0.0, 0.0, 0.0, 0.0, 0.0, 0.0, 0.0, 1.6962751032500863E9, 0.0, 2023-10-02 15:31:43.250
107.0, 17504.746318429272, 17860.943718069044, 45540.29351953191, 60724.16880418883, 12821.675875386702, -20528.378549620935, -29893.759476394593, 11060.157246608407, 0.082, 0.922, 0.36, 192.0, 0.0, 0.0, 0.0, 0.0, 0.0, 0.0, 0.0, 0.0, 0.0, 1.696275103250098E9, 0.0, 2023-10-02 15:31:43.250
108.0, 17497.861981137037, 17854.014677287898, 45528.4470949706, 60690.08239389449, 12813.159860749229, -20538.25802067018, -29892.91011010529, 11055.865711672988, 0.088, 0.93, 0.352, 192.0, 2.0, 192.0, 29.0, 16.0, 11.0, 0.0, 0.0, 0.0, 0.0, 1.6962751032501087E9, 0.0, 2023-10-02 15:31:43.250
109.0, 17476.35960297103, 17842.257659704406, 45521.65216465619, 60682.54985601304, 12811.885811315276, -20541.499023616198, -29892.35131649391, 11052.848226171522, 0.088, 0.93, 0.352, 192.0, 0.0, 0.0, 0.0, 0.0, 0.0, 0.0, 0.0, 0.0, 0.0, 1.6962751032501209E9, 0.0, 2023-10-02 15:31:43.250
110.0, 17479.84647510606, 17849.29845920783, 45526.27897575843, 60710.08720518198, 12813.24926772705, -20533.273581656646, -29897.782790396548, 11051.060086615096, 0.088, 0.93, 0.352, 192.0, 0.0, 0.0, 0.0, 0.0, 0.0, 0.0, 0.0, 0.0, 0.0, 1.696275103250157E9, 0.0, 2023-10-02 15:31:43.250
111.0, 17486.17201878691, 17852.20418598702, 45526.21192052507, 60709.86368773743, 12814.165689249718, -20525.91985773085, -29912.57964522596, 11043.192272566828, 0.088, 0.93, 0.352, 192.0, 0.0, 0.0, 0.0, 0.0, 0.0, 0.0, 0.0, 0.0, 0.0, 1.6962751032501745E9, 0.0, 2023-10-02 15:31:43.250
112.0, 17488.116620554523, 17851.757151097914, 45535.42083924065, 60678.303024566536, 12835.377494737804, -20523.282351885122, -29918.100526106424, 11039.437179498336, 0.088, 0.93, 0.352, 192.0, 0.0, 0.0, 0.0, 0.0, 0.0, 0.0, 0.0, 0.0, 0.0, 1.6962751032501853E9, 0.0, 2023-10-02 15:31:43.250
113.0, 17491.424678733907, 17852.42770343157, 45549.368327780765, 60658.81230340151, 12833.63405867029, -20529.987875221716, -29925.253084332122, 11030.675295671857, 0.088, 0.93, 0.352, 192.0, 0.0, 0.0, 0.0, 0.0, 0.0, 0.0, 0.0, 0.0, 0.0, 1.696275103250195E9, 0.0, 2023-10-02 15:31:43.250
114.0, 17481.88048385149, 17845.63277311716, 45561.1029936198, 60698.55370504304, 12821.430006197692, -20535.240535168712, -29909.428049257764, 11046.969717379776, 0.088, 0.93, 0.352, 192.0, 0.0, 0.0, 0.0, 0.0, 0.0, 0.0, 0.0, 0.0, 0.0, 1.6962751032502048E9, 0.0, 2023-10-02 15:31:43.250
115.0, 17476.203140759844, 17845.364552183695, 45540.62879569874, 60709.66252203733, 12819.619514896813, -20531.77601477814, -29908.06459284599, 11054.368144794482, 0.088, 0.93, 0.352, 192.0, 0.0, 0.0, 0.0, 0.0, 0.0, 0.0, 0.0, 0.0, 0.0, 1.696275103250216E9, 0.0, 2023-10-02 15:31:43.250
116.0, 17474.01266980322, 17843.710523094003, 45534.59382469581, 60658.454675490226, 12830.482462702092, -20522.72355827374, -29940.765194984102, 11028.998914837708, 0.088, 0.93, 0.352, 192.0, 0.0, 0.0, 0.0, 0.0, 0.0, 0.0, 0.0, 0.0, 0.0, 1.6962751032502263E9, 0.0, 2023-10-02 15:31:43.250
117.0, 17461.74156209726, 17831.126490965664, 45543.53452247793, 60652.06207657601, 12828.984895823587, -20522.25417164018, -29926.0130436436, 11042.253499299706, 0.088, 0.93, 0.352, 192.0, 0.0, 0.0, 0.0, 0.0, 0.0, 0.0, 0.0, 0.0, 0.0, 1.6962751032502358E9, 0.0, 2023-10-02 15:31:43.250
118.0, 17466.41307668842, 17837.787310813346, 45546.73082193504, 60675.10672510943, 12832.20354702515, -20516.82269773754, -29932.025662902077, 11039.99597310972, 0.088, 0.924, 0.34600000000000003, 192.0, 2.0, 192.0, 28.0, 224.0, 10.0, 208.0, 0.0, 0.0, 0.0, 1.6962751032502456E9, 0.0, 2023-10-02 15:31:43.250
119.0, 17460.154588240934, 17834.121624722677, 45533.431533984134, 60710.02014994862, 12821.25119224205, -20524.757567019173, -29920.425107529773, 11056.71507796229, 0.088, 0.924, 0.34600000000000003, 192.0, 0.0, 0.0, 0.0, 0.0, 0.0, 0.0, 0.0, 0.0, 0.0, 1.6962751032502563E9, 0.0, 2023-10-02 15:31:43.250
120.0, 17457.98646902877, 17832.311133421797, 45518.053533798884, 60677.96774839971, 12820.759453864033, -20533.78767177912, -29934.953741425725, 11044.958060378798, 0.088, 0.924, 0.34600000000000003, 192.0, 0.0, 0.0, 0.0, 0.0, 0.0, 0.0, 0.0, 0.0, 0.0, 1.6962751032502663E9, 0.0, 2023-10-02 15:31:43.250
121.0, 17450.87861429198, 17822.364607139185, 45522.881510601226, 60653.425532987785, 12815.7750148505, -20543.354218405988, -29929.67872973427, 11044.019287111674, 0.088, 0.924, 0.34600000000000003, 192.0, 0.0, 0.0, 0.0, 0.0, 0.0, 0.0, 0.0, 0.0, 0.0, 1.6962751037278664E9, 0.0, 2023-10-02 15:31:43.727
122.0, 17463.954384798337, 17832.445243888527, 45538.48302823103, 60669.96582388471, 12825.855651599843, -20533.54180259011, -29932.9644361692, 11042.097037088519, 0.088, 0.924, 0.34600000000000003, 192.0, 0.0, 0.0, 0.0, 0.0, 0.0, 0.0, 0.0, 0.0, 0.0, 1.6962751037279425E9, 0.0, 2023-10-02 15:31:43.727
123.0, 17464.35671619853, 17832.400540399616, 45541.20994105458, 60712.8811732389, 12824.782767865989, -20530.949000233293, -29920.58156974096, 11060.894854175433, 0.088, 0.924, 0.34600000000000003, 192.0, 0.0, 0.0, 0.0, 0.0, 0.0, 0.0, 0.0, 0.0, 0.0, 1.6962751037279544E9, 0.0, 2023-10-02 15:31:43.727
124.0, 17455.59483237205, 17825.940886252032, 45525.876644358235, 60704.05223417905, 12814.880945072287, -20543.577735850544, -29912.78081092606, 11068.114467634496, 0.088, 0.924, 0.34600000000000003, 192.0, 0.0, 0.0, 0.0, 0.0, 0.0, 0.0, 0.0, 0.0, 0.0, 1.696275103727966E9, 0.0, 2023-10-02 15:31:43.727
125.0, 17455.706591094327, 17829.785386298347, 45524.71435364656, 60652.509111465115, 12820.312418974927, -20546.10348297399, -29934.39494781434, 11043.505196989203, 0.088, 0.924, 0.34600000000000003, 192.0, 0.0, 0.0, 0.0, 0.0, 0.0, 0.0, 0.0, 0.0, 0.0, 1.6962751037279832E9, 0.0, 2023-10-02 15:31:43.727
126.0, 17447.414093901407, 17824.935057751543, 45540.91936837666, 60667.48478025017, 12818.591334651868, -20545.790558551616, -29926.34831981043, 11050.881272659455, 0.088, 0.924, 0.34600000000000003, 192.0, 0.0, 0.0, 0.0, 0.0, 0.0, 0.0, 0.0, 0.0, 0.0, 1.6962751037281826E9, 0.0, 2023-10-02 15:31:43.728
127.0, 17449.135178224467, 17827.594915341728, 45542.104010832794, 60706.5779813025, 12821.29589573096, -20540.224974182245, -29912.534941737053, 11069.969662424286, 0.088, 0.924, 0.34600000000000003, 192.0, 0.0, 0.0, 0.0, 0.0, 0.0, 0.0, 0.0, 0.0, 0.0, 1.6962751037281995E9, 0.0, 2023-10-02 15:31:43.728
128.0, 17449.693971835848, 17824.264505417887, 45537.52190321945, 60691.53525728408, 12825.676837644201, -20541.186099193823, -29925.40954654331, 11064.627595499469, 0.08, 0.934, 0.35000000000000003, 192.0, 2.0, 128.0, 29.0, 48.0, 10.0, 240.0, 0.0, 0.0, 0.0, 1.6962751037282112E9, 0.0, 2023-10-02 15:31:43.728
129.0, 17457.338268439566, 17827.796081041823, 45538.97476660905, 60643.65782066081, 12823.821642854411, -20545.58939285152, -29950.287038122064, 11039.928917876354, 0.08, 0.934, 0.35000000000000003, 192.0, 0.0, 0.0, 0.0, 0.0, 0.0, 0.0, 0.0, 0.0, 0.0, 1.696275103728226E9, 0.0, 2023-10-02 15:31:43.728
130.0, 17454.343134682553, 17821.358778638696, 45556.16325809518, 60667.55183548354, 12820.893564330765, -20551.512605132175, -29928.002348900125, 11057.43033378486, 0.08, 0.934, 0.35000000000000003, 192.0, 0.0, 0.0, 0.0, 0.0, 0.0, 0.0, 0.0, 0.0, 0.0, 1.696275103728238E9, 0.0, 2023-10-02 15:31:43.728
131.0, 17454.67841084938, 17821.135261194144, 45557.616121484774, 60716.748025029665, 12823.843994598867, -20551.02086675416, -29905.82941840046, 11077.256331116716, 0.08, 0.934, 0.35000000000000003, 192.0, 0.0, 0.0, 0.0, 0.0, 0.0, 0.0, 0.0, 0.0, 0.0, 1.6962751037282495E9, 0.0, 2023-10-02 15:31:43.728
132.0, 17448.419922401896, 17816.24022915843, 45551.737612693025, 60718.87144075292, 12822.055855042441, -20548.651581841896, -29900.755572409103, 11084.878275975976, 0.08, 0.934, 0.35000000000000003, 192.0, 0.0, 0.0, 0.0, 0.0, 0.0, 0.0, 0.0, 0.0, 0.0, 1.6962751037282703E9, 0.0, 2023-10-02 15:31:43.728
133.0, 17443.927221766382, 17817.380168125652, 45547.82605741335, 60684.78503045858, 12823.39695970976, -20546.48346262973, -29901.649642187316, 11082.866618974998, 0.08, 0.934, 0.35000000000000003, 192.0, 0.0, 0.0, 0.0, 0.0, 0.0, 0.0, 0.0, 0.0, 0.0, 1.6962751037282803E9, 0.0, 2023-10-02 15:31:43.728
134.0, 17448.97871601328, 17824.979761240455, 45554.598635983304, 60665.83075116048, 12823.598125409857, -20540.672009071353, -29913.67488070427, 11071.62369151398, 0.08, 0.934, 0.35000000000000003, 192.0, 0.0, 0.0, 0.0, 0.0, 0.0, 0.0, 0.0, 0.0, 0.0, 1.69627510372829E9, 0.0, 2023-10-02 15:31:43.728
135.0, 17441.60264034303, 17818.72127279297, 45548.96599638057, 60702.37585334491, 12804.397976922748, -20555.066532500572, -29900.085020075447, 11085.14649690944, 0.08, 0.934, 0.35000000000000003, 192.0, 0.0, 0.0, 0.0, 0.0, 0.0, 0.0, 0.0, 0.0, 0.0, 1.696275103728301E9, 0.0, 2023-10-02 15:31:43.728
136.0, 17434.1148059505, 17814.42973785755, 45533.65505142869, 60721.62070532092, 12798.944151275653, -20564.431913427343, -29883.522377434063, 11102.200877928839, 0.08, 0.934, 0.35000000000000003, 192.0, 0.0, 0.0, 0.0, 0.0, 0.0, 0.0, 0.0, 0.0, 0.0, 1.6962751037283108E9, 0.0, 2023-10-02 15:31:43.728
137.0, 17425.576439568573, 17806.718386020468, 45520.355763477775, 60672.849198919444, 12804.308569944928, -20566.287108217133, -29901.24731078712, 11083.29130211965, 0.08, 0.934, 0.35000000000000003, 192.0, 0.0, 0.0, 0.0, 0.0, 0.0, 0.0, 0.0, 0.0, 0.0, 1.6962751037283204E9, 0.0, 2023-10-02 15:31:43.728
138.0, 17422.73776802275, 17802.42685108505, 45528.13417054823, 60641.37794272637, 12802.252209455039, -20560.386247680934, -29919.933369151757, 11062.079496631563, 0.08, 0.934, 0.35000000000000003, 192.0, 0.0, 0.0, 0.0, 0.0, 0.0, 0.0, 0.0, 0.0, 0.0, 1.69627510372833E9, 0.0, 2023-10-02 15:31:43.728
139.0, 17429.19742217033, 17806.494868575915, 45539.17593230915, 60684.53916126957, 12801.805174565932, -20553.568965622064, -29905.047107344522, 11076.898703205432, 0.084, 0.932, 0.34800000000000003, 192.0, 2.0, 160.0, 29.0, 32.0, 10.0, 224.0, 0.0, 0.0, 0.0, 1.69627510372834E9, 0.0, 2023-10-02 15:31:43.728
140.0, 17441.73675080976, 17817.782499525845, 45531.86691187226, 60699.93951319928, 12808.689511858167, -20547.332828919036, -29911.97614812567, 11076.42931657187, 0.084, 0.932, 0.34800000000000003, 192.0, 0.0, 0.0, 0.0, 0.0, 0.0, 0.0, 0.0, 0.0, 0.0, 1.6962751037283506E9, 0.0, 2023-10-02 15:31:43.728
141.0, 17453.82904456008, 17828.846613031223, 45526.81541762536, 60647.03293407356, 12818.189003251673, -20542.706017816785, -29954.623276546394, 11042.745237677722, 0.084, 0.932, 0.34800000000000003, 192.0, 0.0, 0.0, 0.0, 0.0, 0.0, 0.0, 0.0, 0.0, 0.0, 1.696275103728388E9, 0.0, 2023-10-02 15:31:43.728
142.0, 17451.54916662564, 17827.32669440826, 45537.34308926381, 60627.09517801943, 12819.86538408582, -20536.380474135934, -29962.669904550305, 11036.397342252416, 0.084, 0.932, 0.34800000000000003, 192.0, 0.0, 0.0, 0.0, 0.0, 0.0, 0.0, 0.0, 0.0, 0.0, 1.6962751037283983E9, 0.0, 2023-10-02 15:31:43.728
143.0, 17441.937916509858, 17817.134298936642, 45552.76579293797, 60674.167951842304, 12819.708921874633, -20528.15503217638, -29941.25693336212, 11060.827798942066, 0.084, 0.932, 0.34800000000000003, 192.0, 0.0, 0.0, 0.0, 0.0, 0.0, 0.0, 0.0, 0.0, 0.0, 1.6962751037284124E9, 0.0, 2023-10-02 15:31:43.728
144.0, 17437.69108506335, 17809.445298844017, 45538.12540031975, 60714.445795350766, 12813.20456423814, -20535.68757005782, -29918.34639529543, 11084.85592423152, 0.084, 0.932, 0.34800000000000003, 192.0, 0.0, 0.0, 0.0, 0.0, 0.0, 0.0, 0.0, 0.0, 0.0, 1.6962751037284255E9, 0.0, 2023-10-02 15:31:43.728
145.0, 17447.034114245667, 17815.748490780414, 45523.999097823995, 60677.63247223288, 12817.227878240095, -20538.414482881366, -29940.251104861632, 11066.929825178364, 0.084, 0.932, 0.34800000000000003, 192.0, 0.0, 0.0, 0.0, 0.0, 0.0, 0.0, 0.0, 0.0, 0.0, 1.6962751037284355E9, 0.0, 2023-10-02 15:31:43.728
146.0, 17453.82904456008, 17819.74945303791, 45532.49276071701, 60640.57327992598, 12826.570907422412, -20539.465014870766, -29960.524137082593, 11048.020249369174, 0.084, 0.932, 0.34800000000000003, 192.0, 0.0, 0.0, 0.0, 0.0, 0.0, 0.0, 0.0, 0.0, 0.0, 1.6962751037284453E9, 0.0, 2023-10-02 15:31:43.728
147.0, 17441.669695576395, 17807.47834533195, 45543.48981898902, 60656.10774232242, 12820.20066025265, -20544.158881206382, -29967.78845403057, 11042.722885933266, 0.084, 0.932, 0.34800000000000003, 192.0, 0.0, 0.0, 0.0, 0.0, 0.0, 0.0, 0.0, 0.0, 0.0, 1.6962751037284563E9, 0.0, 2023-10-02 15:31:43.728
148.0, 17434.673599561884, 17800.61635978417, 45533.18566479512, 60703.00170218965, 12806.968427535108, -20553.457206899788, -29945.280247364077, 11067.555674023113, 0.084, 0.932, 0.34800000000000003, 192.0, 0.0, 0.0, 0.0, 0.0, 0.0, 0.0, 0.0, 0.0, 0.0, 1.6962751037284665E9, 0.0, 2023-10-02 15:31:43.728
149.0, 17457.964117284315, 17818.318941392772, 45522.36742047875, 60677.744230955155, 12816.669084628713, -20551.758474321185, -29965.195651673755, 11053.697592460823, 0.084, 0.934, 0.352, 192.0, 2.0, 160.0, 29.0, 48.0, 11.0, 0.0, 0.0, 0.0, 0.0, 1.6962751037284763E9, 0.0, 2023-10-02 15:31:43.728
150.0, 17448.79990205764, 17801.91276096258, 45528.402391481686, 60654.20784404372, 12806.946075790655, -20562.844939571016, -29963.45221560624, 11052.669412215879, 0.084, 0.934, 0.352, 192.0, 0.0, 0.0, 0.0, 0.0, 0.0, 0.0, 0.0, 0.0, 0.0, 1.6962751037284875E9, 0.0, 2023-10-02 15:31:43.728
151.0, 17440.842681031547, 17791.22862711294, 45533.47623747304, 60680.20292284524, 12807.795442079956, -20565.325983205556, -29941.54750604004, 11068.561502523602, 0.084, 0.934, 0.352, 192.0, 0.0, 0.0, 0.0, 0.0, 0.0, 0.0, 0.0, 0.0, 0.0, 1.696275103728498E9, 0.0, 2023-10-02 15:31:43.728
152.0, 17449.35869566902, 17799.923455706055, 45535.37613575174, 60700.34184459947, 12819.574811407902, -20556.318230190067, -29954.086834679467, 11062.414772798393, 0.084, 0.934, 0.352, 192.0, 0.0, 0.0, 0.0, 0.0, 0.0, 0.0, 0.0, 0.0, 0.0, 1.6962751037285075E9, 0.0, 2023-10-02 15:31:43.728
153.0, 17456.77947482818, 17805.489040075427, 45521.115722789255, 60682.505152524136, 12817.361988706827, -20556.4523406568, -29974.0245907336, 11049.942499392331, 0.084, 0.934, 0.352, 192.0, 0.0, 0.0, 0.0, 0.0, 0.0, 0.0, 0.0, 0.0, 0.0, 1.6962751037285173E9, 0.0, 2023-10-02 15:31:43.728
154.0, 17452.532643381674, 17803.007996440887, 45516.26539424246, 60646.988230584655, 12816.177346250695, -20558.486349402232, -29986.899195539856, 11037.604336453001, 0.084, 0.934, 0.352, 192.0, 0.0, 0.0, 0.0, 0.0, 0.0, 0.0, 0.0, 0.0, 0.0, 1.6962751037285297E9, 0.0, 2023-10-02 15:31:43.728
155.0, 17431.67846580487, 17790.51337129037, 45527.24010077001, 60659.28169003507, 12814.34450320536, -20557.234651712733, -29979.970154758714, 11043.169920822373, 0.084, 0.934, 0.352, 192.0, 0.0, 0.0, 0.0, 0.0, 0.0, 0.0, 0.0, 0.0, 0.0, 1.6962751037285416E9, 0.0, 2023-10-02 15:31:43.728
156.0, 17426.872840746983, 17790.33455733473, 45532.98449909502, 60703.85106847895, 12817.29493347346, -20554.17246272236, -29970.381256387387, 11057.340926807037, 0.084, 0.934, 0.352, 192.0, 0.0, 0.0, 0.0, 0.0, 0.0, 0.0, 0.0, 0.0, 0.0, 1.6962751037285557E9, 0.0, 2023-10-02 15:31:43.728
157.0, 17426.649323302427, 17788.47936254494, 45519.10406578828, 60707.40499584735, 12809.20360198064, -20560.96739303677, -29970.627125576393, 11060.291357075139, 0.084, 0.934, 0.352, 192.0, 0.0, 0.0, 0.0, 0.0, 0.0, 0.0, 0.0, 0.0, 0.0, 1.696275103728582E9, 0.0, 2023-10-02 15:31:43.728
158.0, 17426.82813725807, 17784.165475865066, 45515.885414586715, 60672.75979194162, 12810.410596181226, -20561.615593625975, -29973.06346572202, 11056.826836684566, 0.084, 0.934, 0.352, 192.0, 0.0, 0.0, 0.0, 0.0, 0.0, 0.0, 0.0, 0.0, 0.0, 1.6962751037285929E9, 0.0, 2023-10-02 15:31:43.728
159.0, 17427.744558780738, 17783.450220042494, 45524.60259492428, 60661.82978890298, 12813.673950871702, -20551.26673594317, -29979.947803014256, 11050.881272659455, 0.08, 0.92, 0.352, 192.0, 2.0, 128.0, 28.0, 192.0, 11.0, 0.0, 0.0, 0.0, 0.0, 1.6962751037286048E9, 0.0, 2023-10-02 15:31:43.728
160.0, 17424.54825932363, 17781.50561827488, 45533.14096130621, 60703.98517894569, 12814.500965416548, -20541.610782338477, -29969.80011103155, 11065.655775744412, 0.08, 0.92, 0.352, 192.0, 0.0, 0.0, 0.0, 0.0, 0.0, 0.0, 0.0, 0.0, 0.0, 1.696275103728617E9, 0.0, 2023-10-02 15:31:43.728
161.0, 17428.057483203112, 17784.90308343209, 45517.9417750766, 60705.59450454647, 12806.499040901548, -20550.283259187134, -29981.98181175969, 11061.185426853352, 0.08, 0.92, 0.352, 192.0, 0.0, 0.0, 0.0, 0.0, 0.0, 0.0, 0.0, 0.0, 0.0, 1.6962751037286277E9, 0.0, 2023-10-02 15:31:43.728
162.0, 17430.06914020409, 17784.41134505407, 45515.10310353078, 60671.75396344114, 12804.24151471156, -20557.324058690556, -29990.07314325251, 11056.536264006647, 0.08, 0.92, 0.352, 192.0, 0.0, 0.0, 0.0, 0.0, 0.0, 0.0, 0.0, 0.0, 0.0, 1.696275103728649E9, 0.0, 2023-10-02 15:31:43.728
163.0, 17436.059407718112, 17788.07703114474, 45528.22357752605, 60654.878396377375, 12808.309532202427, -20549.076264986546, -29991.056620008545, 11054.61401398349, 0.08, 0.92, 0.352, 192.0, 0.0, 0.0, 0.0, 0.0, 0.0, 0.0, 0.0, 0.0, 0.0, 1.69627510372866E9, 0.0, 2023-10-02 15:31:43.728
164.0, 17423.69889303433, 17777.70582171748, 45538.460676486575, 60694.84331546346, 12808.287180457972, -20545.87996552944, -29972.25880292163, 11072.629520014469, 0.08, 0.92, 0.352, 192.0, 0.0, 0.0, 0.0, 0.0, 0.0, 0.0, 0.0, 0.0, 0.0, 1.69627510372867E9, 0.0, 2023-10-02 15:31:43.728
165.0, 17414.534677807653, 17775.358888549672, 45521.98744082302, 60711.89769648286, 12802.252209455039, -20552.518433632664, -29968.3248958975, 11077.703366005822, 0.08, 0.92, 0.352, 192.0, 0.0, 0.0, 0.0, 0.0, 0.0, 0.0, 0.0, 0.0, 0.0, 1.6962751037286801E9, 0.0, 2023-10-02 15:31:43.728
166.0, 17417.01572144219, 17779.829237440736, 45512.64441164069, 60679.51001876713, 12803.280389699983, -20554.127759233448, -29977.80203554655, 11067.28745308965, 0.08, 0.92, 0.352, 192.0, 0.0, 0.0, 0.0, 0.0, 0.0, 0.0, 0.0, 0.0, 0.0, 1.696275103728694E9, 0.0, 2023-10-02 15:31:43.728
167.0, 17418.40152959842, 17779.382202551627, 45521.562757678366, 60658.521730723594, 12806.29787520145, -20552.67489584385, -29981.64653559286, 11060.604281497514, 0.08, 0.92, 0.352, 192.0, 0.0, 0.0, 0.0, 0.0, 0.0, 0.0, 0.0, 0.0, 0.0, 1.6962751037287037E9, 0.0, 2023-10-02 15:31:43.728
168.0, 17424.05652094561, 17779.94099616301, 45540.15940906518, 60699.425423076806, 12813.830413082887, -20541.83429978303, -29961.060578949524, 11079.267988117694, 0.08, 0.92, 0.352, 192.0, 0.0, 0.0, 0.0, 0.0, 0.0, 0.0, 0.0, 0.0, 0.0, 1.6962751037287135E9, 0.0, 2023-10-02 15:31:43.728
169.0, 17431.25378266022, 17785.19365611001, 45546.61906321276, 60734.67412408282, 12819.887735830276, -20534.525279346144, -29947.78364274307, 11094.936560980865, 0.088, 0.926, 0.35000000000000003, 192.0, 2.0, 192.0, 28.0, 240.0, 10.0, 240.0, 0.0, 0.0, 0.0, 1.696275103728724E9, 0.0, 2023-10-02 15:31:43.728
170.0, 17438.987486241756, 17795.743679492913, 45537.276034030445, 60689.74711772765, 12825.498023688559, -20536.581639836033, -29982.98764026018, 11064.33702282155, 0.088, 0.926, 0.35000000000000003, 192.0, 0.0, 0.0, 0.0, 0.0, 0.0, 0.0, 0.0, 0.0, 0.0, 1.6962751037287347E9, 0.0, 2023-10-02 15:31:43.728
171.0, 17427.34222738054, 17785.23835959892, 45543.17689456665, 60653.09025682095, 12822.502889931548, -20540.49319511571, -30010.055602795557, 11037.85020564201, 0.088, 0.926, 0.35000000000000003, 192.0, 0.0, 0.0, 0.0, 0.0, 0.0, 0.0, 0.0, 0.0, 0.0, 1.6962751037287467E9, 0.0, 2023-10-02 15:31:43.728
172.0, 17428.4151111144, 17784.523103776348, 45546.90963589068, 60681.54402751256, 12825.855651599843, -20542.281334672134, -30002.590120147484, 11044.980412123254, 0.088, 0.926, 0.35000000000000003, 192.0, 0.0, 0.0, 0.0, 0.0, 0.0, 0.0, 0.0, 0.0, 0.0, 1.696275103728758E9, 0.0, 2023-10-02 15:31:43.728
173.0, 17420.234372643754, 17778.42107754005, 45529.18470253763, 60720.30195239806, 12816.467918928614, -20544.516509117664, -29995.057582266043, 11058.302051818617, 0.088, 0.926, 0.35000000000000003, 192.0, 0.0, 0.0, 0.0, 0.0, 0.0, 0.0, 0.0, 0.0, 0.0, 1.6962751037287936E9, 0.0, 2023-10-02 15:31:43.728
174.0, 17419.58617205455, 17778.398725795596, 45509.33635346131, 60714.17757441731, 12815.126814261295, -20540.560250349077, -29995.616375877427, 11061.006612897709, 0.088, 0.926, 0.35000000000000003, 192.0, 0.0, 0.0, 0.0, 0.0, 0.0, 0.0, 0.0, 0.0, 0.0, 1.6962751037288055E9, 0.0, 2023-10-02 15:31:43.728
175.0, 17419.183840654354, 17777.683469973024, 45492.77371081993, 60678.28067282208, 12805.96259903462, -20552.518433632664, -30008.155704516856, 11044.779246423155, 0.088, 0.926, 0.35000000000000003, 192.0, 0.0, 0.0, 0.0, 0.0, 0.0, 0.0, 0.0, 0.0, 0.0, 1.6962751037288215E9, 0.0, 2023-10-02 15:31:43.728
176.0, 17417.283942375656, 17771.156760592075, 45501.423835924135, 60695.715033497225, 12811.796404337456, -20550.46207314278, -30001.763105602637, 11048.46728425828, 0.088, 0.926, 0.35000000000000003, 192.0, 0.0, 0.0, 0.0, 0.0, 0.0, 0.0, 0.0, 0.0, 0.0, 1.6962751037288337E9, 0.0, 2023-10-02 15:31:43.728
177.0, 17409.840811472037, 17761.098475587187, 45507.3917516937, 60746.49819689968, 12822.838166098378, -20538.25802067018, -29983.948765271758, 11068.852075201521, 0.088, 0.926, 0.35000000000000003, 192.0, 0.0, 0.0, 0.0, 0.0, 0.0, 0.0, 0.0, 0.0, 0.0, 1.6962751037288451E9, 0.0, 2023-10-02 15:31:43.728
178.0, 17410.06432891659, 17760.651440698082, 45502.47436791353, 60743.27954569812, 12827.599087667357, -20533.452395612287, -29990.162550230332, 11063.867636187988, 0.088, 0.926, 0.35000000000000003, 192.0, 0.0, 0.0, 0.0, 0.0, 0.0, 0.0, 0.0, 0.0, 0.0, 1.6962751037288556E9, 0.0, 2023-10-02 15:31:43.728
179.0, 17425.621143057484, 17773.213121081964, 45497.60168762227, 60715.697493040265, 12828.940192334676, -20535.151128190893, -29991.905986297847, 11057.385630295948, 0.088, 0.936, 0.352, 192.0, 2.0, 192.0, 29.0, 64.0, 11.0, 0.0, 0.0, 0.0, 0.0, 1.6962751037288656E9, 0.0, 2023-10-02 15:31:43.728
180.0, 17430.471471604287, 17778.152856606586, 45500.41800742364, 60709.79663250407, 12829.610744668335, -20531.708959544776, -30004.22179749272, 11043.974583622765, 0.088, 0.936, 0.352, 192.0, 0.0, 0.0, 0.0, 0.0, 0.0, 0.0, 0.0, 0.0, 0.0, 1.696275103728876E9, 0.0, 2023-10-02 15:31:43.728
181.0, 17413.528849307164, 17764.540644233304, 45506.07299877083, 60764.33488897501, 12829.163709779228, -20528.19973566529, -29978.65140183585, 11069.835551957554, 0.088, 0.936, 0.352, 192.0, 0.0, 0.0, 0.0, 0.0, 0.0, 0.0, 0.0, 0.0, 0.0, 1.696275103728888E9, 0.0, 2023-10-02 15:31:43.728
182.0, 17405.504573047707, 17756.69518192949, 45495.56767887684, 60785.30082527409, 12824.53689867698, -20533.720616545754, -29952.477509078686, 11092.679034790879, 0.088, 0.936, 0.352, 192.0, 0.0, 0.0, 0.0, 0.0, 0.0, 0.0, 0.0, 0.0, 0.0, 1.6962751037288983E9, 0.0, 2023-10-02 15:31:43.728
183.0, 17421.575477311075, 17768.80982742427, 45491.67847534162, 60736.01522875014, 12836.450378471658, -20531.284276400125, -29968.72722729769, 11068.04741240113, 0.088, 0.936, 0.352, 192.0, 0.0, 0.0, 0.0, 0.0, 0.0, 0.0, 0.0, 0.0, 0.0, 1.696275103728908E9, 0.0, 2023-10-02 15:31:43.728
184.0, 17427.297523891633, 17770.955594891977, 45517.003001809484, 60718.87144075292, 12851.649564701267, -20519.616665794452, -29981.154797214844, 11049.830740670055, 0.088, 0.936, 0.352, 192.0, 0.0, 0.0, 0.0, 0.0, 0.0, 0.0, 0.0, 0.0, 0.0, 1.6962751037289195E9, 0.0, 2023-10-02 15:31:43.728
185.0, 17427.364579125, 17765.188844822507, 45530.12347580474, 60753.58369989201, 12855.941099636686, -20508.999587178183, -29978.83021579149, 11053.362316293993, 0.088, 0.936, 0.352, 192.0, 0.0, 0.0, 0.0, 0.0, 0.0, 0.0, 0.0, 0.0, 0.0, 1.6962751037289298E9, 0.0, 2023-10-02 15:31:43.728
186.0, 17438.383989141465, 17763.959498877466, 45522.657993156674, 60776.76245889217, 12850.263756545039, -20515.749814003684, -29964.39098887336, 11068.896778690432, 0.088, 0.936, 0.352, 192.0, 0.0, 0.0, 0.0, 0.0, 0.0, 0.0, 0.0, 0.0, 0.0, 1.6962751037289412E9, 0.0, 2023-10-02 15:31:43.728
187.0, 17465.139027254467, 17781.013879896866, 45518.07588554334, 60738.429217151315, 12856.432838014704, -20512.464107568754, -29977.891442524367, 11053.89875816092, 0.088, 0.936, 0.352, 192.0, 0.0, 0.0, 0.0, 0.0, 0.0, 0.0, 0.0, 0.0, 0.0, 1.6962751037289531E9, 0.0, 2023-10-02 15:31:43.728
188.0, 17458.813483573616, 17774.57657749374, 45525.4966647025, 60727.096882712474, 12859.807951427454, -20506.29502609909, -29980.104265225444, 11045.18157782335, 0.088, 0.936, 0.352, 192.0, 0.0, 0.0, 0.0, 0.0, 0.0, 0.0, 0.0, 0.0, 0.0, 1.6962751037290025E9, 0.0, 2023-10-02 15:31:43.729
189.0, 17443.59194559955, 17755.063504584254, 45534.258548528975, 60777.25419727018, 12855.874044403321, -20505.847991209983, -29958.288962637063, 11062.839455943044, 0.08600000000000001, 0.934, 0.354, 192.0, 2.0, 176.0, 29.0, 48.0, 11.0, 16.0, 0.0, 0.0, 0.0, 1.696275103729014E9, 0.0, 2023-10-02 15:31:43.729
190.0, 17451.437407903362, 17752.269536527343, 45519.372286721744, 60806.82555518455, 12842.641811685779, -20512.19588663529, -29946.442538075753, 11074.641177015446, 0.08600000000000001, 0.934, 0.354, 192.0, 0.0, 0.0, 0.0, 0.0, 0.0, 0.0, 0.0, 0.0, 0.0, 1.6962751037290273E9, 0.0, 2023-10-02 15:31:43.729
191.0, 17467.575367400095, 17753.543585961295, 45506.318867959846, 60765.050144797584, 12840.719561662623, -20515.05690992557, -29970.671829065304, 11048.400229024915, 0.08600000000000001, 0.934, 0.354, 192.0, 0.0, 0.0, 0.0, 0.0, 0.0, 0.0, 0.0, 0.0, 0.0, 1.6962751037290375E9, 0.0, 2023-10-02 15:31:43.729
192.0, 17474.772629114705, 17743.172376534032, 45508.889318572205, 60746.520548644134, 12836.964468594131, -20519.05787218307, -29972.102340710444, 11039.213662053784, 0.08600000000000001, 0.934, 0.354, 192.0, 0.0, 0.0, 0.0, 0.0, 0.0, 0.0, 0.0, 0.0, 0.0, 1.69627510372905E9, 0.0, 2023-10-02 15:31:43.729
193.0, 17479.93588208388, 17740.244298010384, 45523.082676301325, 60771.39804022289, 12845.055800086951, -20512.665273268853, -29972.057637221533, 11038.677220186857, 0.08600000000000001, 0.934, 0.354, 192.0, 0.0, 0.0, 0.0, 0.0, 0.0, 0.0, 0.0, 0.0, 0.0, 1.696275103729061E9, 0.0, 2023-10-02 15:31:43.729
194.0, 17484.98737633078, 17744.580536434714, 45528.111818803765, 60806.08794761753, 12846.329849520906, -20509.826601723027, -29959.02657020409, 11055.150455850418, 0.08600000000000001, 0.934, 0.354, 192.0, 0.0, 0.0, 0.0, 0.0, 0.0, 0.0, 0.0, 0.0, 0.0, 1.6962751037290716E9, 0.0, 2023-10-02 15:31:43.729
195.0, 17496.431469491898, 17750.928431860022, 45541.65697594368, 60790.48642998772, 12854.488236247093, -20500.036537651606, -29959.183032415276, 11055.485732017247, 0.08600000000000001, 0.934, 0.354, 192.0, 0.0, 0.0, 0.0, 0.0, 0.0, 0.0, 0.0, 0.0, 0.0, 1.696275103729082E9, 0.0, 2023-10-02 15:31:43.729
196.0, 17489.70359441085, 17738.32204798723, 45547.49078124652, 60763.373763963435, 12850.30846003395, -20501.73527023021, -29959.74182602666, 11047.886138902442, 0.08600000000000001, 0.934, 0.354, 192.0, 0.0, 0.0, 0.0, 0.0, 0.0, 0.0, 0.0, 0.0, 0.0, 1.6962751037290962E9, 0.0, 2023-10-02 15:31:43.729
197.0, 17489.100097310555, 17731.37065546163, 45549.502438247495, 60768.64877565489, 12840.138416306785, -20508.597255777986, -29970.15773894283, 11034.966830607276, 0.08600000000000001, 0.934, 0.354, 192.0, 0.0, 0.0, 0.0, 0.0, 0.0, 0.0, 0.0, 0.0, 0.0, 1.696275103729107E9, 0.0, 2023-10-02 15:31:43.729
198.0, 17493.57044620162, 17730.878917083613, 45555.15742959469, 60802.42226152686, 12834.885756359787, -20508.4407935668, -29966.804977274536, 11040.487711487736, 0.08600000000000001, 0.934, 0.354, 192.0, 0.0, 0.0, 0.0, 0.0, 0.0, 0.0, 0.0, 0.0, 0.0, 1.696275103729117E9, 0.0, 2023-10-02 15:31:43.729
199.0, 17495.626806691507, 17727.637914137595, 45545.166199823165, 60793.347453278, 12835.668067415723, -20508.843124966996, -29965.776797029594, 11040.152435320906, 0.09, 0.928, 0.36, 192.0, 2.0, 208.0, 29.0, 0.0, 11.0, 64.0, 0.0, 0.0, 0.0, 1.6962751037291272E9, 0.0, 2023-10-02 15:31:43.729
200.0, 17499.13603057099, 17725.42509143652, 45544.22742655605, 60751.05795276856, 12845.458131487148, -20510.497154056688, -29981.713590826228, 11020.125272288951, 0.09, 0.928, 0.36, 192.0, 0.0, 0.0, 0.0, 0.0, 0.0, 0.0, 0.0, 0.0, 0.0, 1.6962751037291412E9, 0.0, 2023-10-02 15:31:43.729
201.0, 17495.1797718024, 17717.9819605329, 45551.91642664867, 60771.53215068962, 12838.909070361742, -20515.079261670027, -29966.246183663156, 11028.7530456487, 0.09, 0.928, 0.36, 192.0, 0.0, 0.0, 0.0, 0.0, 0.0, 0.0, 0.0, 0.0, 0.0, 1.6962751037291539E9, 0.0, 2023-10-02 15:31:43.729
202.0, 17494.576274702107, 17715.277399453807, 45552.58697898233, 60820.571878024566, 12835.466901715625, -20515.25807562567, -29939.78171822807, 11051.171845337372, 0.09, 0.928, 0.36, 192.0, 0.0, 0.0, 0.0, 0.0, 0.0, 0.0, 0.0, 0.0, 0.0, 1.6962751037291656E9, 0.0, 2023-10-02 15:31:43.729
203.0, 17503.539324228685, 17725.89447807008, 45541.07583058785, 60804.500973761205, 12835.891584860276, -20518.789651249608, -29950.935238711267, 11042.499368488714, 0.09, 0.928, 0.36, 192.0, 0.0, 0.0, 0.0, 0.0, 0.0, 0.0, 0.0, 0.0, 0.0, 1.6962751037291815E9, 0.0, 2023-10-02 15:31:43.729
204.0, 17506.17683007441, 17730.431882194505, 45538.30421427539, 60777.924749603844, 12835.153977293252, -20528.982046721227, -29941.368692084397, 11044.823949912066, 0.09, 0.928, 0.36, 192.0, 0.0, 0.0, 0.0, 0.0, 0.0, 0.0, 0.0, 0.0, 0.0, 1.6962751037292452E9, 0.0, 2023-10-02 15:31:43.729
205.0, 17512.167097588434, 17732.667056640035, 45544.20507481159, 60769.051107055086, 12843.49117797508, -20524.623456552443, -29943.156831640823, 11038.274888786662, 0.09, 0.928, 0.36, 192.0, 0.0, 0.0, 0.0, 0.0, 0.0, 0.0, 0.0, 0.0, 0.0, 1.6962751037292585E9, 0.0, 2023-10-02 15:31:43.729
206.0, 17505.595684718573, 17725.290980969785, 45552.810496426886, 60799.71770044776, 12846.39690475427, -20518.901409971884, -29937.188915871255, 11046.165054579384, 0.09, 0.928, 0.36, 192.0, 0.0, 0.0, 0.0, 0.0, 0.0, 0.0, 0.0, 0.0, 0.0, 1.6962751037292695E9, 0.0, 2023-10-02 15:31:43.729
207.0, 17497.41494624793, 17723.145213502077, 45540.96407186557, 60798.91303764738, 12840.026657584509, -20519.370796605446, -29943.335645596464, 11042.745237677722, 0.09, 0.928, 0.36, 192.0, 0.0, 0.0, 0.0, 0.0, 0.0, 0.0, 0.0, 0.0, 0.0, 1.6962751037292845E9, 0.0, 2023-10-02 15:31:43.729
208.0, 17489.547132199663, 17717.84785006617, 45535.26437702947, 60761.5409209181, 12825.185099266184, -20531.194869422303, -29953.1704131568, 11027.65781017039, 0.09, 0.928, 0.36, 192.0, 0.0, 0.0, 0.0, 0.0, 0.0, 0.0, 0.0, 0.0, 0.0, 1.6962751037292955E9, 0.0, 2023-10-02 15:31:43.729
209.0, 17493.950425857358, 17717.624332621614, 45549.12245859176, 60761.719734873746, 12833.522299948014, -20523.639979796408, -29943.40270082983, 11031.435254983337, 0.09, 0.928, 0.364, 192.0, 2.0, 208.0, 29.0, 0.0, 11.0, 96.0, 0.0, 0.0, 0.0, 1.6962751037293065E9, 0.0, 2023-10-02 15:31:43.729
210.0, 17505.729795185303, 17722.452309423963, 45558.800763940904, 60798.84598241401, 12848.676782688712, -20508.10551739997, -29929.723433223182, 11047.930842391354, 0.09, 0.928, 0.364, 192.0, 0.0, 0.0, 0.0, 0.0, 0.0, 0.0, 0.0, 0.0, 0.0, 1.6962751037293217E9, 0.0, 2023-10-02 15:31:43.729
211.0, 17507.1826585749, 17723.99457979138, 45555.15742959469, 60805.79737493961, 12849.749666422567, -20504.35042433148, -29927.64472098884, 11055.99982213972, 0.09, 0.928, 0.364, 192.0, 0.0, 0.0, 0.0, 0.0, 0.0, 0.0, 0.0, 0.0, 0.0, 1.6962751037293372E9, 0.0, 2023-10-02 15:31:43.729
212.0, 17508.36730103103, 17727.012065292845, 45552.49757200451, 60766.74887737619, 12843.82645414191, -20510.944188945796, -29930.72926172367, 11050.098961603519, 0.09, 0.928, 0.364, 192.0, 0.0, 0.0, 0.0, 0.0, 0.0, 0.0, 0.0, 0.0, 0.0, 1.6962751037293468E9, 0.0, 2023-10-02 15:31:43.729
213.0, 17523.61119074955, 17741.138367788597, 45564.27694133246, 60741.3349439305, 12845.748704165067, -20507.457316810767, -29929.566971011995, 11044.421618511871, 0.09, 0.928, 0.364, 192.0, 0.0, 0.0, 0.0, 0.0, 0.0, 0.0, 0.0, 0.0, 0.0, 1.6962751037293572E9, 0.0, 2023-10-02 15:31:43.729
214.0, 17535.010580421756, 17750.056713826267, 45584.23704913104, 60755.03656328161, 12860.657317716756, -20489.330052057514, -29941.189878128753, 11037.157301563895, 0.09, 0.928, 0.364, 192.0, 0.0, 0.0, 0.0, 0.0, 0.0, 0.0, 0.0, 0.0, 0.0, 1.696275103729369E9, 0.0, 2023-10-02 15:31:43.729
215.0, 17521.2866093262, 17734.768120618835, 45581.800708985415, 60782.35039500599, 12864.50181776307, -20491.85579918096, -29930.68455823476, 11053.85405467201, 0.09, 0.928, 0.364, 192.0, 0.0, 0.0, 0.0, 0.0, 0.0, 0.0, 0.0, 0.0, 0.0, 1.6962751037293828E9, 0.0, 2023-10-02 15:31:43.729
216.0, 17510.84834466557, 17726.766196103836, 45574.536392037444, 60764.40194420838, 12865.462942774648, -20494.24743583768, -29926.504782021617, 11059.039659385642, 0.09, 0.928, 0.364, 192.0, 0.0, 0.0, 0.0, 0.0, 0.0, 0.0, 0.0, 0.0, 0.0, 1.6962751037293952E9, 0.0, 2023-10-02 15:31:43.729
217.0, 17524.728777972316, 17741.94303058899, 45566.40035705571, 60729.91320251384, 12862.177236339718, -20496.616720749942, -29938.798241472035, 11043.147569077919, 0.09, 0.928, 0.364, 192.0, 0.0, 0.0, 0.0, 0.0, 0.0, 0.0, 0.0, 0.0, 0.0, 1.6962751037294073E9, 0.0, 2023-10-02 15:31:43.729
218.0, 17518.80556569166, 17736.243335752886, 45570.267208846475, 60743.72658058722, 12846.77688441001, -20498.650729495374, -29948.185974143267, 11034.206871295795, 0.09, 0.928, 0.364, 192.0, 0.0, 0.0, 0.0, 0.0, 0.0, 0.0, 0.0, 0.0, 0.0, 1.6962751037294235E9, 0.0, 2023-10-02 15:31:43.729
219.0, 17500.298321282666, 17718.22782972191, 45555.62681622825, 60776.538941447616, 12831.15301503575, -20506.518543543643, -29938.68648274976, 11044.913356889887, 0.084, 0.924, 0.36, 192.0, 2.0, 160.0, 28.0, 224.0, 11.0, 64.0, 0.0, 0.0, 0.0, 1.6962751037294662E9, 0.0, 2023-10-02 15:31:43.729
220.0, 17483.288643752177, 17704.436803392986, 45536.94075786362, 60751.92967080232, 12827.509680689536, -20511.547686046088, -29948.051863676534, 11035.883252129943, 0.084, 0.924, 0.36, 192.0, 0.0, 0.0, 0.0, 0.0, 0.0, 0.0, 0.0, 0.0, 0.0, 1.6962751037294815E9, 0.0, 2023-10-02 15:31:43.729
221.0, 17483.154533285444, 17709.153021473056, 45536.67253693015, 60721.59835357647, 12824.53689867698, -20518.72259601624, -29953.460985834718, 11024.953249091299, 0.084, 0.924, 0.36, 192.0, 0.0, 0.0, 0.0, 0.0, 0.0, 0.0, 0.0, 0.0, 0.0, 1.6962751037294955E9, 0.0, 2023-10-02 15:31:43.729
222.0, 17493.905722368447, 17722.161736746042, 45549.01069986948, 60741.40199916387, 12824.715712632622, -20514.811040736564, -29943.715625252204, 11029.624763682457, 0.084, 0.924, 0.36, 192.0, 0.0, 0.0, 0.0, 0.0, 0.0, 0.0, 0.0, 0.0, 0.0, 1.696275103729509E9, 0.0, 2023-10-02 15:31:43.729
223.0, 17488.965986843825, 17714.718605842427, 45558.28667381843, 60784.71967991826, 12825.162747521728, -20507.569075533043, -29922.392061041843, 11051.23890057074, 0.084, 0.924, 0.36, 192.0, 0.0, 0.0, 0.0, 0.0, 0.0, 0.0, 0.0, 0.0, 0.0, 1.6962751037295213E9, 0.0, 2023-10-02 15:31:43.729
224.0, 17494.710385168837, 17716.193820976474, 45543.24394980001, 60763.954909319276, 12826.25798300004, -20507.50202029968, -29927.465907033195, 11045.71801969028, 0.084, 0.924, 0.36, 192.0, 0.0, 0.0, 0.0, 0.0, 0.0, 0.0, 0.0, 0.0, 0.0, 1.696275103729536E9, 0.0, 2023-10-02 15:31:43.729
225.0, 17504.90278064046, 17721.871164068125, 45543.713336433575, 60707.248533636164, 12832.941154592176, -20509.670139511843, -29957.93133472578, 11010.93870531782, 0.084, 0.924, 0.36, 192.0, 0.0, 0.0, 0.0, 0.0, 0.0, 0.0, 0.0, 0.0, 0.0, 1.6962751037295592E9, 0.0, 2023-10-02 15:31:43.729
226.0, 17493.61514969053, 17710.248256951363, 45556.498534262006, 60712.63530404989, 12830.840090613377, -20513.469936069243, -29957.618410303407, 11008.480013427738, 0.084, 0.924, 0.36, 192.0, 0.0, 0.0, 0.0, 0.0, 0.0, 0.0, 0.0, 0.0, 0.0, 1.6962751037295725E9, 0.0, 2023-10-02 15:31:43.729
227.0, 17484.719155397317, 17702.31338766973, 45553.61515922727, 60756.6905923713, 12826.34738997786, -20515.459241325767, -29936.1160321374, 11030.51883346067, 0.084, 0.924, 0.36, 192.0, 0.0, 0.0, 0.0, 0.0, 0.0, 0.0, 0.0, 0.0, 0.0, 1.696275103729584E9, 0.0, 2023-10-02 15:31:43.729
228.0, 17498.532533470694, 17709.35418717315, 45539.1982840536, 60756.31061271556, 12823.799291109955, -20521.44950883979, -29925.945988410236, 11039.772455665166, 0.084, 0.924, 0.36, 192.0, 0.0, 0.0, 0.0, 0.0, 0.0, 0.0, 0.0, 0.0, 0.0, 1.6962751037295997E9, 0.0, 2023-10-02 15:31:43.729
229.0, 17495.04566133567, 17705.397928404564, 45527.62008042575, 60716.07747269601, 12816.467918928614, -20533.16182293437, -29929.410508800807, 11029.267135771172, 0.08600000000000001, 0.924, 0.34600000000000003, 192.0, 2.0, 176.0, 28.0, 224.0, 10.0, 208.0, 0.0, 0.0, 0.0, 1.6962751037296119E9, 0.0, 2023-10-02 15:31:43.729
230.0, 17482.796905374158, 17699.74293705737, 45538.10304857529, 60703.8287167345, 12821.385302708783, -20522.05300594008, -29940.54167753955, 11013.486804185726, 0.08600000000000001, 0.924, 0.34600000000000003, 192.0, 0.0, 0.0, 0.0, 0.0, 0.0, 0.0, 0.0, 0.0, 0.0, 1.6962751037297752E9, 0.0, 2023-10-02 15:31:43.729
231.0, 17461.473341163797, 17683.761439771824, 45540.58409220983, 60756.86940632694, 12802.38631992177, -20527.77505252064, -29911.707927192205, 11038.476054486759, 0.08600000000000001, 0.924, 0.34600000000000003, 192.0, 0.0, 0.0, 0.0, 0.0, 0.0, 0.0, 0.0, 0.0, 0.0, 1.6962751037298212E9, 0.0, 2023-10-02 15:31:43.729
232.0, 17474.996146559257, 17698.915922512522, 45530.88343511623, 60770.660432655866, 12811.595238637357, -20528.780881021128, -29890.563176937485, 11054.681069216856, 0.08600000000000001, 0.924, 0.34600000000000003, 192.0, 0.0, 0.0, 0.0, 0.0, 0.0, 0.0, 0.0, 0.0, 0.0, 1.6962751037298553E9, 0.0, 2023-10-02 15:31:43.729
233.0, 17488.47424846581, 17713.802184319757, 45540.62879569874, 60720.05608320905, 12836.11510230483, -20524.176421663335, -29909.71862193568, 11032.686952672835, 0.08600000000000001, 0.924, 0.34600000000000003, 192.0, 0.0, 0.0, 0.0, 0.0, 0.0, 0.0, 0.0, 0.0, 0.0, 1.6962751037298899E9, 0.0, 2023-10-02 15:31:43.729
234.0, 17471.73279186878, 17698.804163790246, 45559.44896453011, 60724.302914655564, 12831.555346435947, -20525.048139697094, -29889.691458903726, 11043.527548733658, 0.08600000000000001, 0.924, 0.34600000000000003, 192.0, 0.0, 0.0, 0.0, 0.0, 0.0, 0.0, 0.0, 0.0, 0.0, 1.6962751037299228E9, 0.0, 2023-10-02 15:31:43.729
235.0, 17472.2245302468, 17697.01602423382, 45566.64622624472, 60759.99865055068, 12830.817738868922, -20517.96263670476, -29879.00732505409, 11053.719944205279, 0.08600000000000001, 0.924, 0.34600000000000003, 192.0, 0.0, 0.0, 0.0, 0.0, 0.0, 0.0, 0.0, 0.0, 0.0, 1.6962751037300007E9, 0.0, 2023-10-02 15:31:43.730
236.0, 17488.138972298977, 17712.41637616353, 45561.41591804218, 60775.57781643604, 12837.165634294228, -20514.788688992106, -29878.269717487066, 11056.491560517736, 0.08600000000000001, 0.924, 0.34600000000000003, 192.0, 0.0, 0.0, 0.0, 0.0, 0.0, 0.0, 0.0, 0.0, 0.0, 1.6962751037300167E9, 0.0, 2023-10-02 15:31:43.730
237.0, 17491.75995490074, 17716.707911098947, 45555.73857495053, 60741.64786835288, 12842.105369818852, -20510.877133712427, -29888.328002491955, 11044.399266767416, 0.08600000000000001, 0.924, 0.34600000000000003, 192.0, 0.0, 0.0, 0.0, 0.0, 0.0, 0.0, 0.0, 0.0, 0.0, 1.6962751037300272E9, 0.0, 2023-10-02 15:31:43.730
238.0, 17478.125390783, 17706.962550516433, 45561.48297327554, 60720.77133903162, 12838.618497683823, -20515.571000048043, -29893.06657231648, 11034.855071884998, 0.08600000000000001, 0.924, 0.34600000000000003, 192.0, 0.0, 0.0, 0.0, 0.0, 0.0, 0.0, 0.0, 0.0, 0.0, 1.6962751037300382E9, 0.0, 2023-10-02 15:31:43.730
239.0, 17467.50831216673, 17698.670053323516, 45562.84642968731, 60761.04918254008, 12828.135529534286, -20525.58458156402, -29876.503929675095, 11048.333173791549, 0.09, 0.93, 0.354, 192.0, 2.0, 208.0, 29.0, 16.0, 11.0, 16.0, 0.0, 0.0, 0.0, 1.696275103730054E9, 0.0, 2023-10-02 15:31:43.730
240.0, 17467.865940078012, 17702.872181281113, 45557.97374939606, 60792.45338349979, 12824.87217484381, -20520.331921617024, -29864.568098135962, 11064.024098399175, 0.09, 0.93, 0.354, 192.0, 0.0, 0.0, 0.0, 0.0, 0.0, 0.0, 0.0, 0.0, 0.0, 1.696275103730066E9, 0.0, 2023-10-02 15:31:43.730
241.0, 17470.88342557948, 17709.912980784535, 45549.74830743651, 60766.41360120936, 12828.604916167846, -20517.225029137735, -29872.704133117695, 11056.580967495558, 0.09, 0.93, 0.354, 192.0, 0.0, 0.0, 0.0, 0.0, 0.0, 0.0, 0.0, 0.0, 0.0, 1.696275104206652E9, 0.0, 2023-10-02 15:31:44.206
242.0, 17468.26827147821, 17708.41541390603, 45546.48495274603, 60720.8830977539, 12825.118044032819, -20518.610837293963, -29906.477618989662, 11021.8016531231, 0.09, 0.93, 0.354, 192.0, 0.0, 0.0, 0.0, 0.0, 0.0, 0.0, 0.0, 0.0, 0.0, 1.6962751042068007E9, 0.0, 2023-10-02 15:31:44.206
243.0, 17461.987431286267, 17705.844963293668, 45554.21865632757, 60739.70326658527, 12819.463052685625, -20520.846011739497, -29916.602959227916, 11013.732673374734, 0.09, 0.93, 0.354, 192.0, 0.0, 0.0, 0.0, 0.0, 0.0, 0.0, 0.0, 0.0, 0.0, 1.6962751042068205E9, 0.0, 2023-10-02 15:31:44.206
244.0, 17449.805730558128, 17696.41252713353, 45552.29640630441, 60794.82266841205, 12809.941209547665, -20527.909162987373, -29886.986897824634, 11045.136874334441, 0.09, 0.93, 0.354, 192.0, 0.0, 0.0, 0.0, 0.0, 0.0, 0.0, 0.0, 0.0, 0.0, 1.696275104206834E9, 0.0, 2023-10-02 15:31:44.206
245.0, 17451.50446313673, 17698.088907967678, 45532.872740372746, 60777.79063913711, 12811.259962470527, -20530.613724066465, -29885.44462745722, 11044.935708634343, 0.09, 0.93, 0.354, 192.0, 0.0, 0.0, 0.0, 0.0, 0.0, 0.0, 0.0, 0.0, 0.0, 1.69627510420685E9, 0.0, 2023-10-02 15:31:44.206
246.0, 17449.35869566902, 17696.233713177888, 45536.40431599669, 60741.9384410308, 12819.463052685625, -20528.512660087665, -29893.312441505488, 11032.32932476155, 0.09, 0.93, 0.354, 192.0, 0.0, 0.0, 0.0, 0.0, 0.0, 0.0, 0.0, 0.0, 0.0, 1.696275104206862E9, 0.0, 2023-10-02 15:31:44.206
247.0, 17441.066198476103, 17691.31632939772, 45537.901882875194, 60758.52343541664, 12809.024788024997, -20534.25705841268, -29885.06464780148, 11035.302106774105, 0.09, 0.93, 0.354, 192.0, 0.0, 0.0, 0.0, 0.0, 0.0, 0.0, 0.0, 0.0, 0.0, 1.6962751042068937E9, 0.0, 2023-10-02 15:31:44.206
248.0, 17440.038018231156, 17693.37268988761, 45530.25758627148, 60792.811011411075, 12805.068529256409, -20534.614686323963, -29876.123950019355, 11043.728714433755, 0.09, 0.93, 0.354, 192.0, 0.0, 0.0, 0.0, 0.0, 0.0, 0.0, 0.0, 0.0, 0.0, 1.6962751042069056E9, 0.0, 2023-10-02 15:31:44.206
249.0, 17441.35677115402, 17694.378518388097, 45525.20609202458, 60772.62738616794, 12819.597163152357, -20528.557363576576, -29887.791560625024, 11035.793845152122, 0.092, 0.932, 0.34800000000000003, 192.0, 2.0, 224.0, 29.0, 32.0, 10.0, 224.0, 0.0, 0.0, 0.0, 1.6962751042069168E9, 0.0, 2023-10-02 15:31:44.206
250.0, 17446.564727612105, 17695.20553293294, 45527.687135659115, 60723.49825185517, 12830.43775921318, -20522.567096062554, -29908.712793435192, 11015.453757697793, 0.092, 0.932, 0.34800000000000003, 192.0, 0.0, 0.0, 0.0, 0.0, 0.0, 0.0, 0.0, 0.0, 0.0, 1.6962751042071605E9, 0.0, 2023-10-02 15:31:44.207
251.0, 17447.145872967943, 17691.27162590881, 45544.11566783377, 60734.18238570481, 12827.15205277825, -20526.702168786785, -29901.403772998307, 11020.281734500139, 0.092, 0.932, 0.34800000000000003, 192.0, 0.0, 0.0, 0.0, 0.0, 0.0, 0.0, 0.0, 0.0, 0.0, 1.6962751042071798E9, 0.0, 2023-10-02 15:31:44.207
252.0, 17455.192500971854, 17695.16082944403, 45544.94268237861, 60776.91892110335, 12825.006285310541, -20527.43977635381, -29886.316345490977, 11036.799673652611, 0.092, 0.932, 0.34800000000000003, 192.0, 0.0, 0.0, 0.0, 0.0, 0.0, 0.0, 0.0, 0.0, 0.0, 1.6962751042071924E9, 0.0, 2023-10-02 15:31:44.207
253.0, 17448.285811935166, 17692.679785809494, 45536.40431599669, 60774.52728444664, 12823.531070176492, -20530.30079964409, -29886.71867689117, 11042.320554533071, 0.092, 0.932, 0.34800000000000003, 192.0, 0.0, 0.0, 0.0, 0.0, 0.0, 0.0, 0.0, 0.0, 0.0, 1.696275104207232E9, 0.0, 2023-10-02 15:31:44.207
254.0, 17448.68814333536, 17696.859562022633, 45535.44319098511, 60730.15907170285, 12826.302686488949, -20526.568058320056, -29897.335755507444, 11030.228260782751, 0.092, 0.932, 0.34800000000000003, 192.0, 0.0, 0.0, 0.0, 0.0, 0.0, 0.0, 0.0, 0.0, 0.0, 1.6962751042072456E9, 0.0, 2023-10-02 15:31:44.207
255.0, 17451.817387559102, 17698.64770157906, 45551.82701967085, 60728.25917342415, 12829.320171990415, -20518.72259601624, -29893.357144994396, 11031.345848005516, 0.092, 0.932, 0.34800000000000003, 192.0, 0.0, 0.0, 0.0, 0.0, 0.0, 0.0, 0.0, 0.0, 0.0, 1.6962751042072563E9, 0.0, 2023-10-02 15:31:44.207
0.0, 17443.54724211064, 17688.187085173977, 45557.77258369596, 60776.47188621425, 12824.648657399257, -20519.795479750097, -29872.279449973044, 11053.47407501627, 0.092, 0.932, 0.34800000000000003, 192.0, 0.0, 0.0, 0.0, 0.0, 0.0, 0.0, 0.0, 0.0, 0.0, 1.6962751042072692E9, 0.0, 2023-10-02 15:31:44.207
1.0, 17448.822253802093, 17694.26675966582, 45546.41789751266, 60776.98597633672, 12827.576735922901, -20521.471860584243, -29874.224051740654, 11056.245691328728, 0.092, 0.932, 0.34800000000000003, 192.0, 0.0, 0.0, 0.0, 0.0, 0.0, 0.0, 0.0, 0.0, 0.0, 1.6962751042072868E9, 0.0, 2023-10-02 15:31:44.207
2.0, 17448.621088101994, 17697.731280056392, 45542.372231766254, 60736.37285666142, 12817.026712539997, -20525.62928505293, -29882.96358382268, 11046.656792957401, 0.092, 0.932, 0.34800000000000003, 192.0, 0.0, 0.0, 0.0, 0.0, 0.0, 0.0, 0.0, 0.0, 0.0, 1.6962751042073035E9, 0.0, 2023-10-02 15:31:44.207
3.0, 17451.727980581283, 17702.22398069191, 45553.36929003827, 60723.833528022, 12817.943134062665, -20523.461165840767, -29878.940269820723, 11044.555728978603, 0.088, 0.93, 0.34800000000000003, 192.0, 2.0, 192.0, 29.0, 16.0, 10.0, 224.0, 0.0, 0.0, 0.0, 1.696275104207318E9, 0.0, 2023-10-02 15:31:44.207
4.0, 17453.158492226423, 17700.100564968656, 45563.49463027652, 60752.35435394697, 12829.655448157246, -20512.508811057665, -29878.96262156518, 11045.874481901465, 0.088, 0.93, 0.34800000000000003, 192.0, 0.0, 0.0, 0.0, 0.0, 0.0, 0.0, 0.0, 0.0, 0.0, 1.696275104207374E9, 0.0, 2023-10-02 15:31:44.207
5.0, 17451.996201514747, 17694.40087013255, 45561.57238025336, 60766.97239482074, 12834.706942404146, -20507.63613076641, -29878.04620004251, 11051.127141848463, 0.088, 0.93, 0.34800000000000003, 192.0, 0.0, 0.0, 0.0, 0.0, 0.0, 0.0, 0.0, 0.0, 0.0, 1.6962751042073944E9, 0.0, 2023-10-02 15:31:44.207
6.0, 17452.26442244821, 17696.01019573333, 45556.18560983963, 60737.69160958429, 12828.806081867944, -20518.454375082776, -29877.04037154202, 11049.271947058673, 0.088, 0.93, 0.34800000000000003, 192.0, 0.0, 0.0, 0.0, 0.0, 0.0, 0.0, 0.0, 0.0, 0.0, 1.6962751042074106E9, 0.0, 2023-10-02 15:31:44.207
7.0, 17444.664829333404, 17694.937311999478, 45556.18560983963, 60715.47397559571, 12822.68170388719, -20524.221125152246, -29876.593336652917, 11043.795769667122, 0.088, 0.93, 0.34800000000000003, 192.0, 0.0, 0.0, 0.0, 0.0, 0.0, 0.0, 0.0, 0.0, 0.0, 1.696275104207432E9, 0.0, 2023-10-02 15:31:44.207
8.0, 17439.032189730668, 17692.143343942564, 45559.8065924414, 60747.34756318898, 12814.925648561199, -20521.4942123287, -29863.182289979733, 11053.407019782904, 0.088, 0.93, 0.34800000000000003, 192.0, 0.0, 0.0, 0.0, 0.0, 0.0, 0.0, 0.0, 0.0, 0.0, 1.6962751042074492E9, 0.0, 2023-10-02 15:31:44.207
9.0, 17426.872840746983, 17682.845018249158, 45552.92225514916, 60785.16671480736, 12803.593314122358, -20528.713825787763, -29836.114327444357, 11076.719889249789, 0.088, 0.93, 0.34800000000000003, 192.0, 0.0, 0.0, 0.0, 0.0, 0.0, 0.0, 0.0, 0.0, 0.0, 1.696275104207464E9, 0.0, 2023-10-02 15:31:44.207
10.0, 17424.101224434522, 17685.661338050526, 45536.225502041045, 60763.41846745235, 12802.766299577512, -20531.999532222693, -29830.392280863798, 11076.80929622761, 0.088, 0.93, 0.34800000000000003, 192.0, 0.0, 0.0, 0.0, 0.0, 0.0, 0.0, 0.0, 0.0, 0.0, 1.696275104207539E9, 0.0, 2023-10-02 15:31:44.207
11.0, 17428.996256470236, 17690.31050089723, 45536.67253693015, 60733.69064732679, 12807.661331613224, -20526.948037975795, -29833.745042532093, 11065.47696178877, 0.088, 0.93, 0.34800000000000003, 192.0, 0.0, 0.0, 0.0, 0.0, 0.0, 0.0, 0.0, 0.0, 0.0, 1.6962751042075627E9, 0.0, 2023-10-02 15:31:44.207
12.0, 17436.68525656286, 17693.663262565526, 45547.33431903533, 60740.507929385654, 12816.222049739607, -20517.58265704902, -29847.200792694188, 11049.987202881242, 0.088, 0.93, 0.34800000000000003, 192.0, 0.0, 0.0, 0.0, 0.0, 0.0, 0.0, 0.0, 0.0, 0.0, 1.6962751042075827E9, 0.0, 2023-10-02 15:31:44.207
13.0, 17427.141061680446, 17684.70021303895, 45549.01069986948, 60770.32515648904, 12813.115157260318, -20518.275561127135, -29843.557458347972, 11055.396325039426, 0.08600000000000001, 0.924, 0.34400000000000003, 192.0, 2.0, 176.0, 28.0, 224.0, 10.0, 192.0, 0.0, 0.0, 0.0, 1.6962751042075987E9, 0.0, 2023-10-02 15:31:44.207
14.0, 17418.625047042973, 17678.754649013837, 45537.834827641826, 60759.41750519485, 12801.760471077023, -20525.76339551966, -29834.884981499315, 11062.57123500958, 0.08600000000000001, 0.924, 0.34400000000000003, 192.0, 0.0, 0.0, 0.0, 0.0, 0.0, 0.0, 0.0, 0.0, 0.0, 1.6962751042076223E9, 0.0, 2023-10-02 15:31:44.207
15.0, 17448.241108446255, 17705.576742360205, 45540.6511474432, 60716.07747269601, 12819.910087574732, -20514.118136658446, -29848.497193872598, 11042.968755122276, 0.08600000000000001, 0.924, 0.34400000000000003, 192.0, 0.0, 0.0, 0.0, 0.0, 0.0, 0.0, 0.0, 0.0, 0.0, 1.6962751042076368E9, 0.0, 2023-10-02 15:31:44.207
16.0, 17455.013687016213, 17706.26964643832, 45551.53644699293, 60706.53327781359, 12830.77303538001, -20505.95974993226, -29873.75466510709, 11019.27590599965, 0.08600000000000001, 0.924, 0.34400000000000003, 192.0, 0.0, 0.0, 0.0, 0.0, 0.0, 0.0, 0.0, 0.0, 0.0, 1.6962751042076511E9, 0.0, 2023-10-02 15:31:44.207
17.0, 17430.963209982303, 17686.39894561755, 45549.01069986948, 60754.142493503394, 12817.943134062665, -20511.905313957373, -29851.58173460743, 11044.622784211968, 0.08600000000000001, 0.924, 0.34400000000000003, 192.0, 0.0, 0.0, 0.0, 0.0, 0.0, 0.0, 0.0, 0.0, 0.0, 1.6962751042076652E9, 0.0, 2023-10-02 15:31:44.207
