%OpenBCI Raw EEG Data
%Number of channels = 8
%Sample Rate = 250 Hz
%Board = OpenBCI_GUI$BoardCytonSerial
Sample Index, EXG Channel 0, EXG Channel 1, EXG Channel 2, EXG Channel 3, EXG Channel 4, EXG Channel 5, EXG Channel 6, EXG Channel 7, Accel Channel 0, Accel Channel 1, Accel Channel 2, Other, Other, Other, Other, Other, Other, Other, Analog Channel 0, Analog Channel 1, Analog Channel 2, Timestamp, Other, Timestamp (Formatted)
10.0, 18986.66697581613, 18141.50281447206, 44467.85682056628, 64433.39609305812, 13799.989378451035, -20722.72696765983, -29600.2363682075, 10355.786723588315, 0.0, 0.0, 0.0, 192.0, 0.0, 0.0, 0.0, 0.0, 0.0, 0.0, 0.0, 0.0, 0.0, 1.696275200232884E9, 0.0, 2023-10-02 15:33:20.232
11.0, 18985.41527812663, 18140.474634227114, 44452.16589595865, 64417.973389383966, 13792.769764991972, -20729.29838052969, -29595.09546698278, 10358.625395134139, 0.0, 0.0, 0.0, 192.0, 0.0, 0.0, 0.0, 0.0, 0.0, 0.0, 0.0, 0.0, 0.0, 1.6962752002329082E9, 0.0, 2023-10-02 15:33:20.232
12.0, 18992.277263674412, 18146.464901741136, 44453.66346283716, 64393.900560605594, 13797.709500516594, -20726.280895028223, -29590.04397273588, 10354.870302065649, 0.0, 0.0, 0.0, 192.0, 0.0, 0.0, 0.0, 0.0, 0.0, 0.0, 0.0, 0.0, 0.0, 1.6962752002329185E9, 0.0, 2023-10-02 15:33:20.232
13.0, 18992.210208441044, 18148.655372697758, 44458.4914396395, 64394.21348502797, 13800.34700636232, -20725.073900827636, -29601.84569380828, 10339.872281536136, 0.124, 0.9560000000000001, 0.278, 192.0, 3.0, 224.0, 29.0, 224.0, 8.0, 176.0, 0.0, 0.0, 0.0, 1.696275200232928E9, 0.0, 2023-10-02 15:33:20.232
14.0, 18987.65045257216, 18146.82252965242, 44461.1960007186, 64430.64682849012, 13801.665759285184, -20723.889258371506, -29588.836978535295, 10359.43005793453, 0.124, 0.9560000000000001, 0.278, 192.0, 0.0, 0.0, 0.0, 0.0, 0.0, 0.0, 0.0, 0.0, 0.0, 1.6962752002329395E9, 0.0, 2023-10-02 15:33:20.232
15.0, 18996.613502098742, 18155.49500650108, 44451.60710234727, 64412.36310152568, 13808.706558788606, -20722.168174048446, -29597.66591759514, 10355.898482310591, 0.124, 0.9560000000000001, 0.278, 192.0, 0.0, 0.0, 0.0, 0.0, 0.0, 0.0, 0.0, 0.0, 0.0, 1.6962752002329495E9, 0.0, 2023-10-02 15:33:20.232
16.0, 19003.989577768993, 18161.239404826094, 44465.353425187284, 64383.88697908962, 13815.12150944728, -20716.624941423528, -29602.270376952933, 10348.678868851528, 0.124, 0.9560000000000001, 0.278, 192.0, 0.0, 0.0, 0.0, 0.0, 0.0, 0.0, 0.0, 0.0, 0.0, 1.6962752002329595E9, 0.0, 2023-10-02 15:33:20.232
17.0, 18993.752478808463, 18150.01882910953, 44467.61095137727, 64401.969540353966, 13805.823183753871, -20720.961179847858, -29586.355934900756, 10358.535988156318, 0.124, 0.9560000000000001, 0.278, 192.0, 0.0, 0.0, 0.0, 0.0, 0.0, 0.0, 0.0, 0.0, 0.0, 1.6962752002329693E9, 0.0, 2023-10-02 15:33:20.232
18.0, 18988.835095028295, 18142.083959827898, 44457.8432390503, 64426.914087166086, 13800.414061595686, -20727.91257237346, -29591.116856469736, 10356.792552088804, 0.124, 0.9560000000000001, 0.278, 192.0, 0.0, 0.0, 0.0, 0.0, 0.0, 0.0, 0.0, 0.0, 0.0, 1.6962752002329793E9, 0.0, 2023-10-02 15:33:20.232
19.0, 18996.32292942082, 18149.705904687155, 44447.114401711755, 64421.99670338592, 13803.163326163689, -20725.073900827636, -29598.068248995336, 10353.752714842882, 0.124, 0.9560000000000001, 0.278, 192.0, 0.0, 0.0, 0.0, 0.0, 0.0, 0.0, 0.0, 0.0, 0.0, 1.696275200232989E9, 0.0, 2023-10-02 15:33:20.232
20.0, 19003.363728924243, 18152.701038444167, 44445.12509645523, 64379.371926709646, 13799.698805773116, -20730.81829915265, -29620.263531239456, 10329.99281048689, 0.124, 0.9560000000000001, 0.278, 192.0, 0.0, 0.0, 0.0, 0.0, 0.0, 0.0, 0.0, 0.0, 0.0, 1.696275200232999E9, 0.0, 2023-10-02 15:33:20.232
21.0, 19000.86033354525, 18149.527090731513, 44456.189209960605, 64383.46229594497, 13793.01563418098, -20737.501470744788, -29617.603673649275, 10326.975324985424, 0.124, 0.9560000000000001, 0.278, 192.0, 0.0, 0.0, 0.0, 0.0, 0.0, 0.0, 0.0, 0.0, 0.0, 1.6962752002330084E9, 0.0, 2023-10-02 15:33:20.233
22.0, 18998.066365488336, 18149.549442475967, 44462.82767806383, 64431.89852617962, 13796.01076793799, -20731.377092764033, -29590.51335936944, 10353.126865998134, 0.124, 0.9560000000000001, 0.278, 192.0, 0.0, 0.0, 0.0, 0.0, 0.0, 0.0, 0.0, 0.0, 0.0, 1.6962752002330182E9, 0.0, 2023-10-02 15:33:20.233
23.0, 19011.745633094983, 18162.468750771135, 44456.70330008308, 64426.57881099926, 13809.555925077908, -20725.118604316547, -29596.10129548327, 10352.143389242101, 0.11, 0.9500000000000001, 0.28, 192.0, 3.0, 112.0, 29.0, 176.0, 8.0, 192.0, 0.0, 0.0, 0.0, 1.696275200233028E9, 0.0, 2023-10-02 15:33:20.233
24.0, 19012.237371473002, 18159.764189692043, 44459.45256465108, 64391.397165226605, 13810.964084978592, -20728.359607262566, -29601.510417641453, 10343.560319371261, 0.11, 0.9500000000000001, 0.28, 192.0, 0.0, 0.0, 0.0, 0.0, 0.0, 0.0, 0.0, 0.0, 0.0, 1.6962752002330382E9, 0.0, 2023-10-02 15:33:20.233
25.0, 19011.253894716967, 18158.758361191554, 44470.673140367646, 64391.48657220443, 13807.991302966037, -20724.693921171896, -29586.490045367485, 10350.690525852506, 0.11, 0.9500000000000001, 0.28, 192.0, 0.0, 0.0, 0.0, 0.0, 0.0, 0.0, 0.0, 0.0, 0.0, 1.696275200233048E9, 0.0, 2023-10-02 15:33:20.233
26.0, 19009.801031327373, 18157.908994902253, 44474.22706773604, 64423.58367724225, 13806.78430876545, -20720.894124614493, -29569.033332947893, 10368.638976650116, 0.11, 0.9500000000000001, 0.28, 192.0, 0.0, 0.0, 0.0, 0.0, 0.0, 0.0, 0.0, 0.0, 0.0, 1.6962752002331717E9, 0.0, 2023-10-02 15:33:20.233
27.0, 19014.025511029424, 18162.64756472678, 44460.7936693184, 64422.82371793076, 13804.01269245299, -20724.24688628279, -29567.80398700285, 10373.891636597114, 0.11, 0.9500000000000001, 0.28, 192.0, 0.0, 0.0, 0.0, 0.0, 0.0, 0.0, 0.0, 0.0, 0.0, 1.6962752002331822E9, 0.0, 2023-10-02 15:33:20.233
28.0, 19015.925409308125, 18166.514416517548, 44448.164933701155, 64371.52646440583, 13810.248829156022, -20725.655046183474, -29587.384115145698, 10353.52919739833, 0.11, 0.9500000000000001, 0.28, 192.0, 0.0, 0.0, 0.0, 0.0, 0.0, 0.0, 0.0, 0.0, 0.0, 1.696275200233192E9, 0.0, 2023-10-02 15:33:20.233
29.0, 19019.52404016543, 18172.728201476122, 44456.45743089407, 64332.053283697765, 13821.178832194666, -20718.52483970223, -29615.547313159386, 10324.449577861975, 0.11, 0.9500000000000001, 0.28, 192.0, 0.0, 0.0, 0.0, 0.0, 0.0, 0.0, 0.0, 0.0, 0.0, 1.6962752002332015E9, 0.0, 2023-10-02 15:33:20.233
30.0, 19008.214057471047, 18162.26758507104, 44465.33107344283, 64350.69463857349, 13816.306151903409, -20717.027272823725, -29619.10124052778, 10324.22606041742, 0.11, 0.9500000000000001, 0.28, 192.0, 0.0, 0.0, 0.0, 0.0, 0.0, 0.0, 0.0, 0.0, 0.0, 1.696275200233212E9, 0.0, 2023-10-02 15:33:20.233
31.0, 18992.634891585694, 18146.710770930145, 44448.07552672333, 64369.47010391595, 13799.654102284207, -20730.371264263544, -29597.75532457296, 10347.695392095495, 0.11, 0.9500000000000001, 0.28, 192.0, 0.0, 0.0, 0.0, 0.0, 0.0, 0.0, 0.0, 0.0, 0.0, 1.6962752002332225E9, 0.0, 2023-10-02 15:33:20.233
32.0, 19002.08967949029, 18152.87985239981, 44441.54881734238, 64327.11354817314, 13807.074881443368, -20729.23132529632, -29607.545388644387, 10339.224080946933, 0.11, 0.9500000000000001, 0.28, 192.0, 0.0, 0.0, 0.0, 0.0, 0.0, 0.0, 0.0, 0.0, 0.0, 1.696275200233234E9, 0.0, 2023-10-02 15:33:20.233
33.0, 19006.56002838135, 18152.74574193308, 44453.954035515075, 64294.14472510156, 13812.573410579374, -20723.598685693585, -29611.412240435155, 10330.037513975802, 0.10400000000000001, 0.9480000000000001, 0.278, 192.0, 3.0, 64.0, 29.0, 160.0, 8.0, 176.0, 0.0, 0.0, 0.0, 1.696275200233244E9, 0.0, 2023-10-02 15:33:20.233
34.0, 18997.485220132497, 18140.228765038108, 44461.82184956335, 64322.39733009307, 13808.058358199401, -20729.030159596226, -29588.255833179457, 10347.918909540047, 0.10400000000000001, 0.9480000000000001, 0.278, 192.0, 0.0, 0.0, 0.0, 0.0, 0.0, 0.0, 0.0, 0.0, 0.0, 1.6962752002332544E9, 0.0, 2023-10-02 15:33:20.233
35.0, 19001.329720178812, 18144.67676218471, 44454.35636691527, 64345.06199897075, 13810.539401833941, -20725.364473505553, -29576.409408618143, 10360.167665501556, 0.10400000000000001, 0.9480000000000001, 0.278, 192.0, 0.0, 0.0, 0.0, 0.0, 0.0, 0.0, 0.0, 0.0, 0.0, 1.696275200233264E9, 0.0, 2023-10-02 15:33:20.233
36.0, 19007.43174641511, 18151.31523028794, 44448.32139591234, 64293.451821023446, 13816.35085539232, -20717.96604609085, -29612.373365446732, 10328.539947097295, 0.10400000000000001, 0.9480000000000001, 0.278, 192.0, 0.0, 0.0, 0.0, 0.0, 0.0, 0.0, 0.0, 0.0, 0.0, 1.6962752002333007E9, 0.0, 2023-10-02 15:33:20.233
37.0, 18992.47842937451, 18138.95471560415, 44453.79757330389, 64255.09622753814, 13809.198297166622, -20724.313941516157, -29618.698909127583, 10315.575935313218, 0.10400000000000001, 0.9480000000000001, 0.278, 192.0, 0.0, 0.0, 0.0, 0.0, 0.0, 0.0, 0.0, 0.0, 0.0, 1.6962752002333136E9, 0.0, 2023-10-02 15:33:20.233
38.0, 18981.70488854705, 18130.77397713351, 44460.57015187385, 64267.590852688656, 13804.213858153089, -20727.80081365118, -29606.71837409954, 10322.057941205258, 0.10400000000000001, 0.9480000000000001, 0.278, 192.0, 0.0, 0.0, 0.0, 0.0, 0.0, 0.0, 0.0, 0.0, 0.0, 1.696275200233324E9, 0.0, 2023-10-02 15:33:20.233
39.0, 18979.67087980162, 18129.96931433312, 44451.07066048034, 64287.305091298236, 13798.268294127976, -20731.77942416423, -29600.4375339076, 10332.607964588162, 0.10400000000000001, 0.9480000000000001, 0.278, 192.0, 0.0, 0.0, 0.0, 0.0, 0.0, 0.0, 0.0, 0.0, 0.0, 1.696275200233334E9, 0.0, 2023-10-02 15:33:20.233
40.0, 18984.096525203768, 18129.58933467738, 44438.8889597522, 64250.55882341371, 13798.983549950546, -20730.214802052356, -29624.0409760524, 10314.972438212924, 0.10400000000000001, 0.9480000000000001, 0.278, 192.0, 0.0, 0.0, 0.0, 0.0, 0.0, 0.0, 0.0, 0.0, 0.0, 1.6962752002333615E9, 0.0, 2023-10-02 15:33:20.233
41.0, 18973.501798331952, 18114.501907170048, 44442.39818363168, 64222.10505272211, 13797.798907494416, -20736.42858701093, -29616.128458515224, 10318.973400470424, 0.10400000000000001, 0.9480000000000001, 0.278, 192.0, 0.0, 0.0, 0.0, 0.0, 0.0, 0.0, 0.0, 0.0, 0.0, 1.6962752002333908E9, 0.0, 2023-10-02 15:33:20.233
42.0, 18966.595109295264, 18108.48928791157, 44447.56143660086, 64241.61812563159, 13792.345081847321, -20742.128281847035, -29578.19754817457, 10349.058848507268, 0.10400000000000001, 0.9480000000000001, 0.278, 192.0, 0.0, 0.0, 0.0, 0.0, 0.0, 0.0, 0.0, 0.0, 0.0, 1.6962752002334611E9, 0.0, 2023-10-02 15:33:20.233
43.0, 18976.295766388866, 18118.838145594378, 44451.54004711391, 64263.187559030965, 13793.462669070086, -20732.405273008975, -29570.597955059762, 10358.312470711764, 0.10400000000000001, 0.9500000000000001, 0.28, 192.0, 3.0, 64.0, 29.0, 176.0, 8.0, 192.0, 0.0, 0.0, 0.0, 1.6962752002334938E9, 0.0, 2023-10-02 15:33:20.233
44.0, 18975.915786733127, 18114.9265903147, 44443.15814294316, 64250.75998911381, 13796.524858060464, -20735.556868977175, -29569.61447830373, 10360.301775968288, 0.10400000000000001, 0.9500000000000001, 0.28, 192.0, 0.0, 0.0, 0.0, 0.0, 0.0, 0.0, 0.0, 0.0, 0.0, 1.6962752002335243E9, 0.0, 2023-10-02 15:33:20.233
45.0, 18979.492065845974, 18117.519392671515, 44441.68292780912, 64188.75624999479, 13805.532611075952, -20733.72402593184, -29598.671746095628, 10328.607002330662, 0.10400000000000001, 0.9500000000000001, 0.28, 192.0, 0.0, 0.0, 0.0, 0.0, 0.0, 0.0, 0.0, 0.0, 0.0, 1.6962752002335622E9, 0.0, 2023-10-02 15:33:20.233
46.0, 18974.060591943336, 18112.423194935705, 44456.479782638526, 64185.090563904116, 13802.738643019038, -20729.834822396617, -29595.52015012743, 10326.885918007603, 0.10400000000000001, 0.9500000000000001, 0.28, 192.0, 0.0, 0.0, 0.0, 0.0, 0.0, 0.0, 0.0, 0.0, 0.0, 1.6962752002335813E9, 0.0, 2023-10-02 15:33:20.233
47.0, 18973.32298437631, 18110.25507572354, 44468.70618685558, 64235.58315462866, 13805.420852353676, -20727.80081365118, -29566.217013146525, 10354.266804965355, 0.10400000000000001, 0.9500000000000001, 0.28, 192.0, 0.0, 0.0, 0.0, 0.0, 0.0, 0.0, 0.0, 0.0, 0.0, 1.6962752002335963E9, 0.0, 2023-10-02 15:33:20.233
48.0, 18983.716545548028, 18120.29100898397, 44457.68677683912, 64225.59192485714, 13808.617151810784, -20730.214802052356, -29576.074132451315, 10346.376639172631, 0.10400000000000001, 0.9500000000000001, 0.28, 192.0, 0.0, 0.0, 0.0, 0.0, 0.0, 0.0, 0.0, 0.0, 0.0, 1.6962752002336175E9, 0.0, 2023-10-02 15:33:20.233
49.0, 18989.237426428488, 18124.53784043048, 44457.41855590565, 64177.8485987006, 13813.35572163531, -20728.42666249593, -29599.00702226246, 10323.04141796129, 0.10400000000000001, 0.9500000000000001, 0.28, 192.0, 0.0, 0.0, 0.0, 0.0, 0.0, 0.0, 0.0, 0.0, 0.0, 1.6962752002336328E9, 0.0, 2023-10-02 15:33:20.233
50.0, 18978.821513512317, 18113.29491296946, 44461.3971664187, 64168.14794160699, 13813.713349546595, -20722.212877537357, -29596.66008909465, 10321.365037127141, 0.10400000000000001, 0.9500000000000001, 0.28, 192.0, 0.0, 0.0, 0.0, 0.0, 0.0, 0.0, 0.0, 0.0, 0.0, 1.6962752002336524E9, 0.0, 2023-10-02 15:33:20.233
51.0, 18975.245234399466, 18110.29977921245, 44471.0978235123, 64206.682349047944, 13813.69099780214, -20718.43543272441, -29576.38705687369, 10342.2415664484, 0.10400000000000001, 0.9500000000000001, 0.28, 192.0, 0.0, 0.0, 0.0, 0.0, 0.0, 0.0, 0.0, 0.0, 0.0, 1.6962752002336645E9, 0.0, 2023-10-02 15:33:20.233
52.0, 18977.56981582282, 18112.66906412471, 44459.072584995345, 64205.90003799201, 13807.946599477125, -20722.704615915372, -29578.75634178595, 10342.800360059782, 0.10400000000000001, 0.9500000000000001, 0.28, 192.0, 0.0, 0.0, 0.0, 0.0, 0.0, 0.0, 0.0, 0.0, 0.0, 1.6962752002336748E9, 0.0, 2023-10-02 15:33:20.233
53.0, 18992.925464263615, 18126.77301487601, 44454.35636691527, 64136.90020285848, 13814.49566060253, -20721.43056648142, -29627.95253133208, 10295.057033903246, 0.112, 0.9500000000000001, 0.28600000000000003, 192.0, 3.0, 128.0, 29.0, 176.0, 8.0, 240.0, 0.0, 0.0, 0.0, 1.696275200233688E9, 0.0, 2023-10-02 15:33:20.233
54.0, 18992.634891585694, 18123.95669507464, 44475.03173053643, 64117.09655727108, 13817.06611121489, -20716.423775723433, -29644.090490828814, 10277.846190672659, 0.112, 0.9500000000000001, 0.28600000000000003, 192.0, 0.0, 0.0, 0.0, 0.0, 0.0, 0.0, 0.0, 0.0, 0.0, 1.6962752002337005E9, 0.0, 2023-10-02 15:33:20.233
55.0, 18978.24036815648, 18110.568000145915, 44485.201774263594, 64178.876778945545, 13803.453898841608, -20723.06224382666, -29593.910824526647, 10325.455406362464, 0.112, 0.9500000000000001, 0.28600000000000003, 192.0, 0.0, 0.0, 0.0, 0.0, 0.0, 0.0, 0.0, 0.0, 0.0, 1.696275200233711E9, 0.0, 2023-10-02 15:33:20.233
56.0, 18974.105295432248, 18108.466936167115, 44467.320378699354, 64201.04970944521, 13788.098250400812, -20729.834822396617, -29577.549347585365, 10341.772179814838, 0.112, 0.9500000000000001, 0.28600000000000003, 192.0, 0.0, 0.0, 0.0, 0.0, 0.0, 0.0, 0.0, 0.0, 0.0, 1.6962752002337215E9, 0.0, 2023-10-02 15:33:20.233
57.0, 18995.160638709145, 18128.002360821054, 44459.98900651801, 64148.098426830584, 13802.358663363299, -20725.476232227833, -29616.553141659875, 10306.389368342087, 0.112, 0.9500000000000001, 0.28600000000000003, 192.0, 0.0, 0.0, 0.0, 0.0, 0.0, 0.0, 0.0, 0.0, 0.0, 1.6962752002337575E9, 0.0, 2023-10-02 15:33:20.233
58.0, 18990.220903184523, 18122.77205261851, 44471.455451423586, 64116.91774331543, 13804.97381746457, -20723.442223482398, -29637.42967098113, 10287.904475677547, 0.112, 0.9500000000000001, 0.28600000000000003, 192.0, 0.0, 0.0, 0.0, 0.0, 0.0, 0.0, 0.0, 0.0, 0.0, 1.6962752002337692E9, 0.0, 2023-10-02 15:33:20.233
59.0, 18975.71462103303, 18106.63409312178, 44473.08712876882, 64151.29472628769, 13793.216799881078, -20729.3430840186, -29618.38598470521, 10308.490432320885, 0.112, 0.9500000000000001, 0.28600000000000003, 192.0, 0.0, 0.0, 0.0, 0.0, 0.0, 0.0, 0.0, 0.0, 0.0, 1.696275200233779E9, 0.0, 2023-10-02 15:33:20.233
60.0, 18984.99059498198, 18115.552439159448, 44469.91318105617, 64175.68047948844, 13798.1565354057, -20727.39848225099, -29612.52982765792, 10321.677961549516, 0.112, 0.9500000000000001, 0.28600000000000003, 192.0, 0.0, 0.0, 0.0, 0.0, 0.0, 0.0, 0.0, 0.0, 0.0, 1.6962752002337904E9, 0.0, 2023-10-02 15:33:20.233
61.0, 18986.488161860485, 18116.178288004194, 44459.98900651801, 64140.901165115974, 13797.284817371943, -20731.73472067532, -29629.96418833306, 10307.506955564852, 0.112, 0.9500000000000001, 0.28600000000000003, 192.0, 0.0, 0.0, 0.0, 0.0, 0.0, 0.0, 0.0, 0.0, 0.0, 1.6962752002338011E9, 0.0, 2023-10-02 15:33:20.233
62.0, 18984.297690903866, 18113.809003091934, 44467.76741358846, 64113.94496130288, 13796.323692360365, -20733.56756372065, -29626.52201968694, 10305.60705728615, 0.112, 0.9500000000000001, 0.28600000000000003, 192.0, 0.0, 0.0, 0.0, 0.0, 0.0, 0.0, 0.0, 0.0, 0.0, 1.696275200233812E9, 0.0, 2023-10-02 15:33:20.233
63.0, 18990.667938073628, 18120.581581661892, 44482.67602714014, 64120.426967194915, 13807.901895988214, -20722.52580195973, -29635.060386068868, 10299.773251983315, 0.114, 0.9540000000000001, 0.28200000000000003, 192.0, 3.0, 144.0, 29.0, 208.0, 8.0, 208.0, 0.0, 0.0, 0.0, 1.6962752002338235E9, 0.0, 2023-10-02 15:33:20.233
64.0, 18980.65435655765, 18109.852744323343, 44479.65854163868, 64160.25777581427, 13797.44127958313, -20730.90770613047, -29624.42095570814, 10318.101682436667, 0.114, 0.9540000000000001, 0.28200000000000003, 192.0, 0.0, 0.0, 0.0, 0.0, 0.0, 0.0, 0.0, 0.0, 0.0, 1.696275200233837E9, 0.0, 2023-10-02 15:33:20.233
65.0, 18979.939100735082, 18106.321168699404, 44460.70426234058, 64144.83507214011, 13794.11086965929, -20736.42858701093, -29631.66292091166, 10317.766406269839, 0.114, 0.9540000000000001, 0.28200000000000003, 192.0, 0.0, 0.0, 0.0, 0.0, 0.0, 0.0, 0.0, 0.0, 0.0, 1.696275200233847E9, 0.0, 2023-10-02 15:33:20.233
66.0, 18978.84386525677, 18103.86247680932, 44464.39230017571, 64110.30162695666, 13797.597741794318, -20736.138014333013, -29634.76981339095, 10315.173603913023, 0.114, 0.9540000000000001, 0.28200000000000003, 192.0, 0.0, 0.0, 0.0, 0.0, 0.0, 0.0, 0.0, 0.0, 0.0, 1.6962752002338576E9, 0.0, 2023-10-02 15:33:20.233
67.0, 18978.977975723505, 18102.543723886458, 44480.887887583725, 64126.305475986665, 13800.838744740338, -20733.791081165207, -29616.597845148786, 10329.501072108875, 0.114, 0.9540000000000001, 0.28200000000000003, 192.0, 0.0, 0.0, 0.0, 0.0, 0.0, 0.0, 0.0, 0.0, 0.0, 1.6962752002338674E9, 0.0, 2023-10-02 15:33:20.233
68.0, 18984.968243237527, 18106.947017544153, 44475.076434025344, 64153.574604222136, 13801.755166263005, -20730.997113108293, -29614.42972593662, 10333.680848322016, 0.114, 0.9540000000000001, 0.28200000000000003, 192.0, 0.0, 0.0, 0.0, 0.0, 0.0, 0.0, 0.0, 0.0, 0.0, 1.696275200233879E9, 0.0, 2023-10-02 15:33:20.233
69.0, 18984.029469970403, 18104.26480820952, 44460.21252396256, 64125.634923653, 13807.164288421189, -20730.997113108293, -29647.06327284137, 10310.457385832953, 0.114, 0.9540000000000001, 0.28200000000000003, 192.0, 0.0, 0.0, 0.0, 0.0, 0.0, 0.0, 0.0, 0.0, 0.0, 1.6962752002338896E9, 0.0, 2023-10-02 15:33:20.233
70.0, 18977.61451931173, 18097.559284872925, 44463.386471675214, 64089.22393193531, 13808.393634366232, -20736.92032538895, -29651.846546154804, 10305.428243330509, 0.114, 0.9540000000000001, 0.28200000000000003, 192.0, 0.0, 0.0, 0.0, 0.0, 0.0, 0.0, 0.0, 0.0, 0.0, 1.6962752002339003E9, 0.0, 2023-10-02 15:33:20.233
71.0, 18979.80499026835, 18098.162781973217, 44476.3504834593, 64084.82063827761, 13810.360587878298, -20731.95823811987, -29649.946647876102, 10305.741167752883, 0.114, 0.9540000000000001, 0.28200000000000003, 192.0, 0.0, 0.0, 0.0, 0.0, 0.0, 0.0, 0.0, 0.0, 0.0, 1.696275200233911E9, 0.0, 2023-10-02 15:33:20.233
72.0, 18975.602862310752, 18093.603026104334, 44481.916067828664, 64119.75641486126, 13809.488869844541, -20730.48302298582, -29642.01177859447, 10315.866507991137, 0.114, 0.9540000000000001, 0.28200000000000003, 192.0, 0.0, 0.0, 0.0, 0.0, 0.0, 0.0, 0.0, 0.0, 0.0, 1.6962752002339227E9, 0.0, 2023-10-02 15:33:20.233
73.0, 18977.391001867178, 18093.312453426417, 44471.38839619022, 64129.68058939941, 13805.711425031594, -20731.10887183057, -29639.798955893395, 10322.683790050005, 0.112, 0.9460000000000001, 0.28, 192.0, 3.0, 128.0, 29.0, 144.0, 8.0, 192.0, 0.0, 0.0, 0.0, 1.6962752002339935E9, 0.0, 2023-10-02 15:33:20.233
74.0, 18978.41918211212, 18093.446563893147, 44466.02397752094, 64101.137411729986, 13800.63757904024, -20732.047645097693, -29644.939857118115, 10317.65464754756, 0.112, 0.9460000000000001, 0.28, 192.0, 0.0, 0.0, 0.0, 0.0, 0.0, 0.0, 0.0, 0.0, 0.0, 1.6962752002340088E9, 0.0, 2023-10-02 15:33:20.234
75.0, 18974.820551254816, 18088.886808024265, 44459.00552976198, 64091.10147846955, 13789.998148679513, -20738.77552017874, -29645.38689200722, 10311.507917822351, 0.112, 0.9460000000000001, 0.28, 192.0, 0.0, 0.0, 0.0, 0.0, 0.0, 0.0, 0.0, 0.0, 0.0, 1.6962752002340193E9, 0.0, 2023-10-02 15:33:20.234
76.0, 18981.90605424715, 18095.324110427395, 44461.77714607443, 64111.50862115725, 13798.335349361343, -20733.56756372065, -29659.982581136537, 10301.270818861822, 0.112, 0.9460000000000001, 0.28, 192.0, 0.0, 0.0, 0.0, 0.0, 0.0, 0.0, 0.0, 0.0, 0.0, 1.696275200234029E9, 0.0, 2023-10-02 15:33:20.234
77.0, 18985.03529847089, 18095.279406938484, 44464.57111413135, 64134.24034526829, 13799.475288328564, -20730.460671241366, -29658.57442123585, 10309.13863291009, 0.112, 0.9460000000000001, 0.28, 192.0, 0.0, 0.0, 0.0, 0.0, 0.0, 0.0, 0.0, 0.0, 0.0, 1.6962752002340393E9, 0.0, 2023-10-02 15:33:20.234
78.0, 18987.29282466088, 18094.988834260563, 44462.55945713037, 64111.9333043019, 13799.609398795295, -20731.2429822973, -29661.100168359302, 10308.84806023217, 0.112, 0.9460000000000001, 0.28, 192.0, 0.0, 0.0, 0.0, 0.0, 0.0, 0.0, 0.0, 0.0, 0.0, 1.696275200234049E9, 0.0, 2023-10-02 15:33:20.234
79.0, 18975.647565799663, 18085.064659722408, 44464.39230017571, 64109.78753683419, 13792.859171969792, -20743.67055221445, -29641.832964638827, 10321.65560980506, 0.112, 0.9460000000000001, 0.28, 192.0, 0.0, 0.0, 0.0, 0.0, 0.0, 0.0, 0.0, 0.0, 0.0, 1.69627520023406E9, 0.0, 2023-10-02 15:33:20.234
80.0, 18987.76221129444, 18094.564151115912, 44471.030768278935, 64138.77774939272, 13797.865962727781, -20740.54130799071, -29635.507420957976, 10325.187185429, 0.112, 0.9460000000000001, 0.28, 192.0, 0.0, 0.0, 0.0, 0.0, 0.0, 0.0, 0.0, 0.0, 0.0, 1.69627520023407E9, 0.0, 2023-10-02 15:33:20.234
81.0, 18991.04791772937, 18095.05588949393, 44466.58277113233, 64158.2908223022, 13796.927189460659, -20738.239078311814, -29641.25181928299, 10324.337819139699, 0.112, 0.9460000000000001, 0.28, 192.0, 0.0, 0.0, 0.0, 0.0, 0.0, 0.0, 0.0, 0.0, 0.0, 1.69627520023408E9, 0.0, 2023-10-02 15:33:20.234
82.0, 18977.547464078365, 18082.49420911005, 44443.44871562108, 64123.9361910744, 13780.275139841455, -20753.30415407469, -29657.322723546356, 10310.122109666123, 0.112, 0.9460000000000001, 0.28, 192.0, 0.0, 0.0, 0.0, 0.0, 0.0, 0.0, 0.0, 0.0, 0.0, 1.6962752002340903E9, 0.0, 2023-10-02 15:33:20.234
83.0, 18980.497894346463, 18083.187113188163, 44449.774259301936, 64090.520333113716, 13781.258616597488, -20755.20405235339, -29670.48790103053, 10295.45936530344, 0.114, 0.9500000000000001, 0.276, 192.0, 3.0, 144.0, 29.0, 176.0, 8.0, 160.0, 0.0, 0.0, 0.0, 1.6962752002341018E9, 0.0, 2023-10-02 15:33:20.234
84.0, 18972.384211109187, 18073.173531672186, 44459.02788150643, 64122.6844933849, 13774.217817094066, -20758.780331466238, -29648.851412397795, 10312.893725978582, 0.114, 0.9500000000000001, 0.276, 192.0, 0.0, 0.0, 0.0, 0.0, 0.0, 0.0, 0.0, 0.0, 0.0, 1.6962752002341137E9, 0.0, 2023-10-02 15:33:20.234
85.0, 18981.14609493567, 18079.5661305864, 44455.02691924893, 64145.237403540305, 13772.29556707091, -20751.11368311807, -29646.549182718896, 10319.196917914978, 0.114, 0.9500000000000001, 0.276, 192.0, 0.0, 0.0, 0.0, 0.0, 0.0, 0.0, 0.0, 0.0, 0.0, 1.6962752002341244E9, 0.0, 2023-10-02 15:33:20.234
86.0, 18986.37640313821, 18082.740078299055, 44449.774259301936, 64127.423063209426, 13771.021517636958, -20749.59376449511, -29650.57249672085, 10316.42530160252, 0.114, 0.9500000000000001, 0.276, 192.0, 0.0, 0.0, 0.0, 0.0, 0.0, 0.0, 0.0, 0.0, 0.0, 1.6962752002341344E9, 0.0, 2023-10-02 15:33:20.234
87.0, 18999.072193988824, 18094.094764482354, 44462.96178853056, 64092.531990114694, 13785.572503277363, -20741.413026024464, -29658.172089835658, 10305.56235379724, 0.114, 0.9500000000000001, 0.276, 192.0, 0.0, 0.0, 0.0, 0.0, 0.0, 0.0, 0.0, 0.0, 0.0, 1.6962752002341452E9, 0.0, 2023-10-02 15:33:20.234
88.0, 18987.493990360974, 18077.643880563246, 44471.924838057144, 64100.44450765187, 13781.593892764318, -20741.837709169115, -29658.57442123585, 10303.215420629433, 0.114, 0.9500000000000001, 0.276, 192.0, 0.0, 0.0, 0.0, 0.0, 0.0, 0.0, 0.0, 0.0, 0.0, 1.6962752002341776E9, 0.0, 2023-10-02 15:33:20.234
89.0, 18985.057650215345, 18072.39122061625, 44466.403957176684, 64129.099444043575, 13776.788267706426, -20742.977648136337, -29651.980656621537, 10316.09002543569, 0.114, 0.9500000000000001, 0.276, 192.0, 0.0, 0.0, 0.0, 0.0, 0.0, 0.0, 0.0, 0.0, 0.0, 1.696275200234189E9, 0.0, 2023-10-02 15:33:20.234
90.0, 18990.1314962067, 18075.542816584446, 44456.815058805354, 64115.174307247915, 13780.163381119179, -20741.681246957927, -29657.14390959071, 10315.978266713413, 0.114, 0.9500000000000001, 0.276, 192.0, 0.0, 0.0, 0.0, 0.0, 0.0, 0.0, 0.0, 0.0, 0.0, 1.6962752002342007E9, 0.0, 2023-10-02 15:33:20.234
91.0, 18999.98861551149, 18081.890712009754, 44459.340805928805, 64071.11901892651, 13791.071032413369, -20736.517993988753, -29678.020438911968, 10294.967626925425, 0.114, 0.9500000000000001, 0.276, 192.0, 0.0, 0.0, 0.0, 0.0, 0.0, 0.0, 0.0, 0.0, 0.0, 1.6962752002342136E9, 0.0, 2023-10-02 15:33:20.234
92.0, 18988.32100490582, 18069.686659537158, 44467.40978567717, 64085.42413537791, 13781.057450897391, -20741.56948823565, -29664.29646781641, 10303.260124118344, 0.114, 0.9500000000000001, 0.276, 192.0, 0.0, 0.0, 0.0, 0.0, 0.0, 0.0, 0.0, 0.0, 0.0, 1.6962752002342243E9, 0.0, 2023-10-02 15:33:20.234
93.0, 18984.632967070695, 18065.8645112353, 44465.10755599828, 64120.51637417274, 13773.770782204962, -20738.216726567356, -29655.646342712207, 10312.603153300663, 0.124, 0.9520000000000001, 0.28200000000000003, 192.0, 3.0, 224.0, 29.0, 192.0, 8.0, 208.0, 0.0, 0.0, 0.0, 1.696275200234236E9, 0.0, 2023-10-02 15:33:20.234
94.0, 18995.540618364885, 18075.833389262367, 44458.73730882851, 64119.33173171661, 13774.82131419436, -20735.91449688846, -29660.183746836636, 10313.608981801151, 0.124, 0.9520000000000001, 0.28200000000000003, 192.0, 0.0, 0.0, 0.0, 0.0, 0.0, 0.0, 0.0, 0.0, 0.0, 1.6962752002342482E9, 0.0, 2023-10-02 15:33:20.234
95.0, 19000.90503703416, 18080.86253176481, 44462.6935675971, 64072.14719917145, 13787.96413993408, -20738.574354478642, -29688.72692450606, 10287.569199510717, 0.124, 0.9520000000000001, 0.28200000000000003, 192.0, 0.0, 0.0, 0.0, 0.0, 0.0, 0.0, 0.0, 0.0, 0.0, 1.6962752002342596E9, 0.0, 2023-10-02 15:33:20.234
96.0, 18994.534789864396, 18071.988889216052, 44479.50207942749, 64082.38429813198, 13794.692015015127, -20735.109834088067, -29675.517043532975, 10297.046339159768, 0.124, 0.9520000000000001, 0.28200000000000003, 192.0, 0.0, 0.0, 0.0, 0.0, 0.0, 0.0, 0.0, 0.0, 0.0, 1.6962752002342741E9, 0.0, 2023-10-02 15:33:20.234
97.0, 18995.026528242415, 18069.172569414684, 44481.13375677273, 64120.06933928363, 13791.696881258116, -20726.213839794855, -29661.189575337125, 10313.832499245704, 0.124, 0.9520000000000001, 0.28200000000000003, 192.0, 0.0, 0.0, 0.0, 0.0, 0.0, 0.0, 0.0, 0.0, 0.0, 1.6962752002342904E9, 0.0, 2023-10-02 15:33:20.234
98.0, 18991.539656107387, 18063.271708878485, 44464.95109378709, 64119.510545672245, 13784.656081754694, -20731.28768578621, -29666.039903883924, 10314.927734724013, 0.124, 0.9520000000000001, 0.28200000000000003, 192.0, 0.0, 0.0, 0.0, 0.0, 0.0, 0.0, 0.0, 0.0, 0.0, 1.6962752002343035E9, 0.0, 2023-10-02 15:33:20.234
99.0, 18990.846752029272, 18059.270746620983, 44460.816021062856, 64090.76620230272, 13782.286796842433, -20739.96016263487, -29667.425712040153, 10312.737263767394, 0.124, 0.9520000000000001, 0.28200000000000003, 192.0, 0.0, 0.0, 0.0, 0.0, 0.0, 0.0, 0.0, 0.0, 0.0, 1.6962752002343364E9, 0.0, 2023-10-02 15:33:20.234
100.0, 18994.62419684222, 18058.62254603178, 44461.97831177453, 64075.65642305093, 13785.416041066175, -20740.407197523975, -29674.622973754762, 10301.471984561918, 0.124, 0.9520000000000001, 0.28200000000000003, 192.0, 0.0, 0.0, 0.0, 0.0, 0.0, 0.0, 0.0, 0.0, 0.0, 1.6962752002343495E9, 0.0, 2023-10-02 15:33:20.234
101.0, 18981.32490889131, 18044.67505749167, 44463.386471675214, 64100.86919079652, 13775.760087461484, -20745.793967937705, -29675.606450510797, 10301.650798517561, 0.124, 0.9520000000000001, 0.28200000000000003, 192.0, 0.0, 0.0, 0.0, 0.0, 0.0, 0.0, 0.0, 0.0, 0.0, 1.6962752002343671E9, 0.0, 2023-10-02 15:33:20.234
102.0, 18968.38324885169, 18031.062845118387, 44453.90933202617, 64130.75347313327, 13760.829122165338, -20762.021334412257, -29648.762005419972, 10330.66336282055, 0.124, 0.9520000000000001, 0.28200000000000003, 192.0, 0.0, 0.0, 0.0, 0.0, 0.0, 0.0, 0.0, 0.0, 0.0, 1.6962752002343814E9, 0.0, 2023-10-02 15:33:20.234
103.0, 18976.80985651134, 18041.255240590006, 44441.302948153374, 64083.14425744346, 13762.796075677405, -20766.402276325498, -29670.3537905638, 10310.122109666123, 0.124, 0.9520000000000001, 0.28200000000000003, 192.0, 0.0, 0.0, 0.0, 0.0, 0.0, 0.0, 0.0, 0.0, 0.0, 1.6962752002343984E9, 0.0, 2023-10-02 15:33:20.234
104.0, 18978.687403045584, 18040.89761267872, 44451.98708200301, 64047.56028027061, 13767.512293757474, -20762.35661057909, -29690.336250106844, 10288.46326928893, 0.11800000000000001, 0.9580000000000001, 0.28800000000000003, 192.0, 3.0, 176.0, 29.0, 240.0, 9.0, 0.0, 0.0, 0.0, 0.0, 1.6962752002344415E9, 0.0, 2023-10-02 15:33:20.234
105.0, 18972.09363843127, 18033.298019563917, 44466.403957176684, 64086.98875748977, 13769.47924726954, -20757.081598887635, -29668.96798240757, 10310.166813155034, 0.11800000000000001, 0.9580000000000001, 0.28800000000000003, 192.0, 0.0, 0.0, 0.0, 0.0, 0.0, 0.0, 0.0, 0.0, 0.0, 1.696275200234452E9, 0.0, 2023-10-02 15:33:20.234
106.0, 18979.693231546073, 18038.505976022003, 44462.492401897005, 64102.746737330766, 13783.426735809653, -20750.48783427332, -29674.77943596595, 10312.491394578385, 0.11800000000000001, 0.9580000000000001, 0.28800000000000003, 192.0, 0.0, 0.0, 0.0, 0.0, 0.0, 0.0, 0.0, 0.0, 0.0, 1.6962752002344632E9, 0.0, 2023-10-02 15:33:20.234
107.0, 18989.863275273237, 18049.61479301629, 44461.06189025186, 64071.9236817269, 13796.770727249472, -20740.474252757343, -29697.801732754917, 10297.001635670858, 0.11800000000000001, 0.9580000000000001, 0.28800000000000003, 192.0, 0.0, 0.0, 0.0, 0.0, 0.0, 0.0, 0.0, 0.0, 0.0, 1.6962752002344732E9, 0.0, 2023-10-02 15:33:20.234
108.0, 18987.65045257216, 18046.32908658136, 44464.41465192016, 64055.58455653007, 13797.68714877214, -20743.2458690698, -29694.426619342164, 10296.956932181947, 0.11800000000000001, 0.9580000000000001, 0.28800000000000003, 192.0, 0.0, 0.0, 0.0, 0.0, 0.0, 0.0, 0.0, 0.0, 0.0, 1.6962752002344837E9, 0.0, 2023-10-02 15:33:20.234
109.0, 18989.058612472847, 18045.27855459196, 44474.56234390287, 64076.72930678479, 13805.331445375854, -20735.95920037737, -29689.039848928434, 10302.097833406668, 0.11800000000000001, 0.9580000000000001, 0.28800000000000003, 192.0, 0.0, 0.0, 0.0, 0.0, 0.0, 0.0, 0.0, 0.0, 0.0, 1.6962752002344942E9, 0.0, 2023-10-02 15:33:20.234
110.0, 18979.581472823797, 18035.354380053806, 44481.714902128566, 64126.61840040903, 13805.957294220603, -20729.119566574045, -29664.028246882946, 10332.160929699055, 0.11800000000000001, 0.9580000000000001, 0.28800000000000003, 192.0, 0.0, 0.0, 0.0, 0.0, 0.0, 0.0, 0.0, 0.0, 0.0, 1.696275200234506E9, 0.0, 2023-10-02 15:33:20.234
111.0, 18977.36865012272, 18031.9569148966, 44462.96178853056, 64129.92645858842, 13792.613302780785, -20740.071921357146, -29641.363578005265, 10354.75854334337, 0.11800000000000001, 0.9580000000000001, 0.28800000000000003, 192.0, 0.0, 0.0, 0.0, 0.0, 0.0, 0.0, 0.0, 0.0, 0.0, 1.696275200234517E9, 0.0, 2023-10-02 15:33:20.234
112.0, 18984.700022304063, 18040.56233651189, 44462.4476984081, 64076.61754806252, 13794.803773737405, -20738.73081668983, -29675.092360388324, 10321.677961549516, 0.11800000000000001, 0.9580000000000001, 0.28800000000000003, 192.0, 0.0, 0.0, 0.0, 0.0, 0.0, 0.0, 0.0, 0.0, 0.0, 1.6962752002345273E9, 0.0, 2023-10-02 15:33:20.234
113.0, 18980.810818768838, 18035.443787031625, 44477.4010154487, 64096.68941458338, 13793.842648725826, -20731.600610208585, -29667.62687774025, 10328.182319186011, 0.11800000000000001, 0.9580000000000001, 0.28800000000000003, 192.0, 0.0, 0.0, 0.0, 0.0, 0.0, 0.0, 0.0, 0.0, 0.0, 1.6962752002345376E9, 0.0, 2023-10-02 15:33:20.234
114.0, 18975.826379755305, 18029.118243350775, 44472.908314813176, 64136.564926691644, 13789.372299834766, -20734.416930009953, -29658.552069491398, 10337.033609990312, 0.116, 0.9580000000000001, 0.28400000000000003, 192.0, 3.0, 160.0, 29.0, 240.0, 8.0, 224.0, 0.0, 0.0, 0.0, 1.696275200234549E9, 0.0, 2023-10-02 15:33:20.234
115.0, 18979.71558329053, 18031.867507918778, 44458.647901850694, 64129.524127188226, 13791.473363813564, -20733.63461895402, -29670.286735330432, 10329.255202919865, 0.116, 0.9580000000000001, 0.28400000000000003, 192.0, 0.0, 0.0, 0.0, 0.0, 0.0, 0.0, 0.0, 0.0, 0.0, 1.6962752002345612E9, 0.0, 2023-10-02 15:33:20.234
116.0, 18984.297690903866, 18031.733397452044, 44455.80923030487, 64098.20933320634, 13791.026328924458, -20735.847441655093, -29680.836758713336, 10318.526365581318, 0.116, 0.9580000000000001, 0.28400000000000003, 192.0, 0.0, 0.0, 0.0, 0.0, 0.0, 0.0, 0.0, 0.0, 0.0, 1.696275200234572E9, 0.0, 2023-10-02 15:33:20.234
117.0, 18985.772906037917, 18028.514746250483, 44468.303855455386, 64102.61262686404, 13792.769764991972, -20734.707502687874, -29677.707514489593, 10318.034627203302, 0.116, 0.9580000000000001, 0.28400000000000003, 192.0, 0.0, 0.0, 0.0, 0.0, 0.0, 0.0, 0.0, 0.0, 0.0, 1.6962752002345855E9, 0.0, 2023-10-02 15:33:20.234
118.0, 18992.277263674412, 18034.75088295351, 44473.28829446892, 64136.05083656918, 13793.574427792362, -20730.706540430372, -29669.616182996775, 10329.389313386597, 0.116, 0.9580000000000001, 0.28400000000000003, 192.0, 0.0, 0.0, 0.0, 0.0, 0.0, 0.0, 0.0, 0.0, 0.0, 1.6962752002345982E9, 0.0, 2023-10-02 15:33:20.234
119.0, 18996.837019543294, 18040.651743489714, 44466.35925368777, 64129.41236846595, 13795.071994670869, -20728.91840087395, -29684.21187212609, 10324.404874373064, 0.116, 0.9580000000000001, 0.28400000000000003, 192.0, 0.0, 0.0, 0.0, 0.0, 0.0, 0.0, 0.0, 0.0, 0.0, 1.696275200234608E9, 0.0, 2023-10-02 15:33:20.234
120.0, 18984.2306356705, 18027.821842172365, 44455.69747158259, 64099.63984485148, 13783.605549765296, -20736.2944765442, -29689.68804951764, 10321.23092666041, 0.116, 0.9580000000000001, 0.28400000000000003, 192.0, 0.0, 0.0, 0.0, 0.0, 0.0, 0.0, 0.0, 0.0, 0.0, 1.696275200234635E9, 0.0, 2023-10-02 15:33:20.234
121.0, 18987.024603727416, 18029.09589160632, 44464.61581762026, 64091.79438254767, 13790.48988705753, -20734.126357332036, -29688.525758805965, 10319.979228970913, 0.116, 0.9580000000000001, 0.28400000000000003, 192.0, 0.0, 0.0, 0.0, 0.0, 0.0, 0.0, 0.0, 0.0, 0.0, 1.696275200234648E9, 0.0, 2023-10-02 15:33:20.234
122.0, 18979.156789679146, 18017.6517984452, 44472.43892817962, 64128.02656030972, 13786.623035266763, -20738.14967133399, -29675.382933066245, 10333.859662277659, 0.116, 0.9580000000000001, 0.28400000000000003, 192.0, 0.0, 0.0, 0.0, 0.0, 0.0, 0.0, 0.0, 0.0, 0.0, 1.6962752002346592E9, 0.0, 2023-10-02 15:33:20.234
123.0, 18978.553292578854, 18010.879219875245, 44462.47005015255, 64138.26365927025, 13782.197389864612, -20744.028180125737, -29671.404322553197, 10341.883938537114, 0.116, 0.9580000000000001, 0.28400000000000003, 192.0, 0.0, 0.0, 0.0, 0.0, 0.0, 0.0, 0.0, 0.0, 0.0, 1.696275200234669E9, 0.0, 2023-10-02 15:33:20.234
124.0, 18979.71558329053, 18005.738318650525, 44452.18824770311, 64097.292911683675, 13781.660947997683, -20748.453825527886, -29683.720133748073, 10329.098740708678, 0.12, 0.9520000000000001, 0.28600000000000003, 192.0, 3.0, 192.0, 29.0, 192.0, 8.0, 240.0, 0.0, 0.0, 0.0, 1.6962752002346804E9, 0.0, 2023-10-02 15:33:20.234
125.0, 18986.42110662712, 18010.47688847505, 44454.55753261537, 64052.56707102861, 13785.460744555086, -20744.47521501484, -29721.89691327774, 10292.71010073544, 0.12, 0.9520000000000001, 0.28600000000000003, 192.0, 0.0, 0.0, 0.0, 0.0, 0.0, 0.0, 0.0, 0.0, 0.0, 1.6962752002346928E9, 0.0, 2023-10-02 15:33:20.234
126.0, 18986.08583046029, 18006.99001634002, 44463.31941644185, 64088.061641223634, 13777.63763399573, -20742.262392313765, -29718.991186498548, 10301.829612473204, 0.12, 0.9520000000000001, 0.28600000000000003, 192.0, 0.0, 0.0, 0.0, 0.0, 0.0, 0.0, 0.0, 0.0, 0.0, 1.6962752002347054E9, 0.0, 2023-10-02 15:33:20.234
127.0, 18989.818571784326, 18013.22615304305, 44458.75966057297, 64112.26858046873, 13778.911683429682, -20743.402331280988, -29718.41004114271, 10310.166813155034, 0.12, 0.9520000000000001, 0.28600000000000003, 192.0, 0.0, 0.0, 0.0, 0.0, 0.0, 0.0, 0.0, 0.0, 0.0, 1.696275200234716E9, 0.0, 2023-10-02 15:33:20.234
128.0, 18996.211170698545, 18022.0550921029, 44460.74896582949, 64093.60487384855, 13791.987453936035, -20738.127319589534, -29722.947445267135, 10309.093929421178, 0.12, 0.9520000000000001, 0.28600000000000003, 192.0, 0.0, 0.0, 0.0, 0.0, 0.0, 0.0, 0.0, 0.0, 0.0, 1.696275200234728E9, 0.0, 2023-10-02 15:33:20.234
129.0, 18996.434688143097, 18021.94333338062, 44471.7460241015, 64077.60102481855, 13799.140012161733, -20735.02042711025, -29727.060166246913, 10303.930676452002, 0.12, 0.9520000000000001, 0.28600000000000003, 192.0, 0.0, 0.0, 0.0, 0.0, 0.0, 0.0, 0.0, 0.0, 0.0, 1.696275200234741E9, 0.0, 2023-10-02 15:33:20.234
130.0, 18987.315176405333, 18011.728586164547, 44477.62453289325, 64108.468783911325, 13794.624959781762, -20740.653066712985, -29719.706442321116, 10311.396159100075, 0.12, 0.9520000000000001, 0.28600000000000003, 192.0, 0.0, 0.0, 0.0, 0.0, 0.0, 0.0, 0.0, 0.0, 0.0, 1.6962752002347534E9, 0.0, 2023-10-02 15:33:20.234
131.0, 18984.834132770793, 18005.537152950426, 44462.626512363735, 64124.53968817469, 13788.67939575665, -20749.169081350457, -29726.814297057903, 10311.038531188791, 0.12, 0.9520000000000001, 0.28600000000000003, 192.0, 0.0, 0.0, 0.0, 0.0, 0.0, 0.0, 0.0, 0.0, 0.0, 1.696275200234764E9, 0.0, 2023-10-02 15:33:20.234
132.0, 18981.011984468936, 17998.026966813442, 44453.10466922577, 64104.557228631646, 13790.981625435546, -20746.419816782454, -29736.537305895963, 10307.37284509812, 0.12, 0.9520000000000001, 0.28600000000000003, 192.0, 0.0, 0.0, 0.0, 0.0, 0.0, 0.0, 0.0, 0.0, 0.0, 1.6962752002347817E9, 0.0, 2023-10-02 15:33:20.234
133.0, 18976.675746044606, 17992.684899888623, 44456.92681752763, 64082.13842894298, 13794.1555731482, -20746.196299337902, -29737.02904427398, 10303.126013651612, 0.12, 0.9520000000000001, 0.28600000000000003, 192.0, 0.0, 0.0, 0.0, 0.0, 0.0, 0.0, 0.0, 0.0, 0.0, 1.6962752002347949E9, 0.0, 2023-10-02 15:33:20.234
0.0, 0.0, 0.0, 0.0, 0.0, 0.0, 0.0, 0.0, 0.0, 0.094, 0.9560000000000001, 0.276, 192.0, 2.0, 240.0, 29.0, 224.0, 8.0, 160.0, 0.0, 0.0, 0.0, 1.6962752002732155E9, 0.0, 2023-10-02 15:33:20.273
1.0, 19237.766473027048, 17196.11343099039, 44000.61595447254, 72211.33377687143, 14320.092120181576, -20997.608720971195, -29542.077129134792, 10043.532853547675, 0.094, 0.9560000000000001, 0.276, 192.0, 0.0, 0.0, 0.0, 0.0, 0.0, 0.0, 0.0, 0.0, 0.0, 1.6962752007523854E9, 0.0, 2023-10-02 15:33:20.752
2.0, 19230.323342123433, 17190.816067554482, 44026.409867573966, 72213.25602689458, 14327.445844107371, -20993.853627902703, -29547.955637926538, 10040.470664557299, 0.094, 0.9560000000000001, 0.276, 192.0, 0.0, 0.0, 0.0, 0.0, 0.0, 0.0, 0.0, 0.0, 0.0, 1.6962752007524607E9, 0.0, 2023-10-02 15:33:20.752
3.0, 19207.74808022357, 17171.302994645, 44043.799524760194, 72254.58440239244, 14318.661608536437, -20997.809886671293, -29517.31139627831, 10075.13822020748, 0.094, 0.9560000000000001, 0.276, 192.0, 0.0, 0.0, 0.0, 0.0, 0.0, 0.0, 0.0, 0.0, 0.0, 1.696275200752475E9, 0.0, 2023-10-02 15:33:20.752
4.0, 19217.404033828265, 17178.410849381788, 44045.92294048345, 72234.87016378286, 14324.897745239467, -20998.502790749408, -29521.2676550469, 10077.28398767519, 0.094, 0.9560000000000001, 0.276, 192.0, 0.0, 0.0, 0.0, 0.0, 0.0, 0.0, 0.0, 0.0, 0.0, 1.6962752007525184E9, 0.0, 2023-10-02 15:33:20.752
5.0, 19225.71888276564, 17183.97643375116, 44061.12212671305, 72178.54376775549, 14334.084312210598, -20996.848761659716, -29557.253963619944, 10046.282118115678, 0.094, 0.9560000000000001, 0.276, 192.0, 0.0, 0.0, 0.0, 0.0, 0.0, 0.0, 0.0, 0.0, 0.0, 1.6962752007525291E9, 0.0, 2023-10-02 15:33:20.752
6.0, 19213.51483029304, 17169.336041132934, 44079.09292925512, 72193.65354700727, 14318.281628880695, -21010.706843222004, -29535.393957542656, 10061.816580512117, 0.094, 0.9560000000000001, 0.276, 192.0, 0.0, 0.0, 0.0, 0.0, 0.0, 0.0, 0.0, 0.0, 0.0, 1.69627520075254E9, 0.0, 2023-10-02 15:33:20.752
7.0, 19222.299065863976, 17177.561483092486, 44084.18912699093, 72218.50868684158, 14320.963838215333, -21003.710747207493, -29522.966387625504, 10073.640653328974, 0.094, 0.9560000000000001, 0.276, 192.0, 0.0, 0.0, 0.0, 0.0, 0.0, 0.0, 0.0, 0.0, 0.0, 1.6962752007525537E9, 0.0, 2023-10-02 15:33:20.752
8.0, 19218.90160070677, 17178.07557321496, 44084.6585136245, 72203.68948026771, 14330.575088331116, -20995.954691881503, -29534.45518427553, 10071.785458539183, 0.08, 0.9560000000000001, 0.268, 192.0, 2.0, 128.0, 29.0, 224.0, 8.0, 96.0, 0.0, 0.0, 0.0, 1.6962752007525651E9, 0.0, 2023-10-02 15:33:20.752
9.0, 19216.0852809054, 17179.819009282473, 44092.99571430632, 72174.81102643145, 14325.613001062036, -21002.68256696255, -29537.51737326591, 10072.053679472647, 0.08, 0.9560000000000001, 0.268, 192.0, 0.0, 0.0, 0.0, 0.0, 0.0, 0.0, 0.0, 0.0, 0.0, 1.696275200752576E9, 0.0, 2023-10-02 15:33:20.752
10.0, 19224.75775775406, 17187.038622741537, 44111.70412441542, 72168.84311066188, 14325.367131873028, -21002.34729079572, -29530.36481504021, 10076.188752196878, 0.08, 0.9560000000000001, 0.268, 192.0, 0.0, 0.0, 0.0, 0.0, 0.0, 0.0, 0.0, 0.0, 0.0, 1.6962752007525873E9, 0.0, 2023-10-02 15:33:20.752
11.0, 19229.496327578585, 17189.184390209244, 44126.88095890057, 72184.95871841416, 14340.991001247288, -20990.232645300945, -29526.56501848281, 10083.2295517003, 0.08, 0.9560000000000001, 0.268, 192.0, 0.0, 0.0, 0.0, 0.0, 0.0, 0.0, 0.0, 0.0, 0.0, 1.6962752007525988E9, 0.0, 2023-10-02 15:33:20.752
12.0, 19232.871440991337, 17194.97349202317, 44130.568996735696, 72173.04523861948, 14348.769408317734, -20983.86239813118, -29538.679663977586, 10083.94480752287, 0.08, 0.9560000000000001, 0.268, 192.0, 0.0, 0.0, 0.0, 0.0, 0.0, 0.0, 0.0, 0.0, 0.0, 1.6962752007526093E9, 0.0, 2023-10-02 15:33:20.752
13.0, 19226.300028121477, 17193.02889025556, 44130.52429324678, 72140.85872660384, 14334.419588377428, -20993.227779057954, -29545.22872510299, 10084.078917989602, 0.08, 0.9560000000000001, 0.268, 192.0, 0.0, 0.0, 0.0, 0.0, 0.0, 0.0, 0.0, 0.0, 0.0, 1.6962752007526197E9, 0.0, 2023-10-02 15:33:20.752
14.0, 19219.61685652934, 17185.563407607486, 44140.426116040486, 72125.74894735205, 14326.060035951143, -20995.708822692493, -29541.18305935658, 10088.504563391753, 0.08, 0.9560000000000001, 0.268, 192.0, 0.0, 0.0, 0.0, 0.0, 0.0, 0.0, 0.0, 0.0, 0.0, 1.6962752007526307E9, 0.0, 2023-10-02 15:33:20.752
15.0, 19204.37296681082, 17165.69270678672, 44150.8196772122, 72142.33394173789, 14321.813204504635, -20989.91972087857, -29531.392995285154, 10102.832031587604, 0.08, 0.9560000000000001, 0.268, 192.0, 0.0, 0.0, 0.0, 0.0, 0.0, 0.0, 0.0, 0.0, 0.0, 1.6962752007526422E9, 0.0, 2023-10-02 15:33:20.752
16.0, 19201.243722587078, 17161.78115150704, 44147.57867426618, 72144.41265397223, 14322.483756838294, -20988.645671444618, -29522.69816669204, 10116.220726516334, 0.08, 0.9560000000000001, 0.268, 192.0, 0.0, 0.0, 0.0, 0.0, 0.0, 0.0, 0.0, 0.0, 0.0, 1.6962752007526531E9, 0.0, 2023-10-02 15:33:20.752
17.0, 19223.573115297928, 17186.613939596886, 44146.72930797688, 72088.89092074525, 14332.78791103219, -20981.738982407926, -29551.733082739484, 10096.90881930695, 0.08, 0.9560000000000001, 0.268, 192.0, 0.0, 0.0, 0.0, 0.0, 0.0, 0.0, 0.0, 0.0, 0.0, 1.6962752007527974E9, 0.0, 2023-10-02 15:33:20.752
18.0, 19216.197039627677, 17184.44582038472, 44156.38526158158, 72052.09994937181, 14331.066826709131, -20983.236549286434, -29570.553251570855, 10082.33548192209, 0.07, 0.9540000000000001, 0.274, 192.0, 2.0, 48.0, 29.0, 208.0, 8.0, 144.0, 0.0, 0.0, 0.0, 1.6962752007528071E9, 0.0, 2023-10-02 15:33:20.752
19.0, 19202.294254576478, 17169.693669044216, 44162.35317735114, 72075.0551909274, 14318.885125980989, -20989.696203434018, -29552.31422809532, 10098.719310607828, 0.07, 0.9540000000000001, 0.274, 192.0, 0.0, 0.0, 0.0, 0.0, 0.0, 0.0, 0.0, 0.0, 0.0, 1.6962752007528183E9, 0.0, 2023-10-02 15:33:20.752
20.0, 19202.115440620833, 17169.11252368838, 44151.98196792388, 72087.4157056112, 14304.803526974145, -20997.653424460106, -29539.193754100055, 10112.62209565903, 0.07, 0.9540000000000001, 0.274, 192.0, 0.0, 0.0, 0.0, 0.0, 0.0, 0.0, 0.0, 0.0, 0.0, 1.696275200752828E9, 0.0, 2023-10-02 15:33:20.752
21.0, 19215.66059776075, 17183.97643375116, 44149.724441733895, 72039.22534456555, 14315.331198612595, -20993.227779057954, -29566.261716635432, 10092.2820082047, 0.07, 0.9540000000000001, 0.274, 192.0, 0.0, 0.0, 0.0, 0.0, 0.0, 0.0, 0.0, 0.0, 0.0, 1.6962752007528384E9, 0.0, 2023-10-02 15:33:20.752
22.0, 19217.024054172525, 17185.988090752136, 44170.71272977743, 72003.50725692598, 14327.959934229844, -20985.851703387703, -29582.019696476425, 10079.51916212072, 0.07, 0.9540000000000001, 0.274, 192.0, 0.0, 0.0, 0.0, 0.0, 0.0, 0.0, 0.0, 0.0, 0.0, 1.6962752007528486E9, 0.0, 2023-10-02 15:33:20.752
23.0, 19207.882190690303, 17175.035735969035, 44185.1296049511, 72020.29341701191, 14326.64118130698, -20986.701069677005, -29568.429835847597, 10095.500659406265, 0.07, 0.9540000000000001, 0.274, 192.0, 0.0, 0.0, 0.0, 0.0, 0.0, 0.0, 0.0, 0.0, 0.0, 1.6962752007528584E9, 0.0, 2023-10-02 15:33:20.752
24.0, 19208.820963957427, 17175.080439457946, 44179.139337437075, 72051.25058308251, 14314.861811979034, -20999.15099133861, -29541.56303901232, 10124.222651031334, 0.07, 0.9540000000000001, 0.274, 192.0, 0.0, 0.0, 0.0, 0.0, 0.0, 0.0, 0.0, 0.0, 0.0, 1.6962752007528684E9, 0.0, 2023-10-02 15:33:20.752
25.0, 19216.42055707223, 17186.68099483025, 44173.327883878694, 72013.83376286433, 14321.79085276018, -21000.603854728208, -29565.792330001874, 10104.374301955022, 0.07, 0.9540000000000001, 0.274, 192.0, 0.0, 0.0, 0.0, 0.0, 0.0, 0.0, 0.0, 0.0, 0.0, 1.696275200752878E9, 0.0, 2023-10-02 15:33:20.752
26.0, 19207.56926626793, 17185.183427951746, 44184.03436947279, 71971.70072456608, 14324.540117328183, -21000.983834383947, -29585.640679078184, 10084.2800836897, 0.07, 0.9540000000000001, 0.274, 192.0, 0.0, 0.0, 0.0, 0.0, 0.0, 0.0, 0.0, 0.0, 0.0, 1.696275200752895E9, 0.0, 2023-10-02 15:33:20.752
27.0, 19205.579961011408, 17186.2563116856, 44199.4347214025, 71972.75125655548, 14326.104739440054, -20992.57957846875, -29589.552234357863, 10078.42392664241, 0.07, 0.9540000000000001, 0.274, 192.0, 0.0, 0.0, 0.0, 0.0, 0.0, 0.0, 0.0, 0.0, 0.0, 1.696275200752906E9, 0.0, 2023-10-02 15:33:20.752
28.0, 19202.13779236529, 17179.796657538016, 44198.8312243022, 71987.81633231835, 14319.488623081283, -20994.524180236363, -29588.077019223812, 10082.51429587773, 0.066, 0.9520000000000001, 0.268, 192.0, 2.0, 16.0, 29.0, 192.0, 8.0, 96.0, 0.0, 0.0, 0.0, 1.6962752007529185E9, 0.0, 2023-10-02 15:33:20.752
29.0, 19208.999777913068, 17182.523570361565, 44196.66310509004, 71964.4364076181, 14324.808338261646, -20990.389107512132, -29600.52694088542, 10077.418098141921, 0.066, 0.9520000000000001, 0.268, 192.0, 0.0, 0.0, 0.0, 0.0, 0.0, 0.0, 0.0, 0.0, 0.0, 1.6962752007529297E9, 0.0, 2023-10-02 15:33:20.752
30.0, 19207.27869359001, 17177.226206925658, 44200.328791180706, 71936.38496832669, 14322.863736494033, -20995.150029081113, -29600.325775185323, 10076.524028363709, 0.066, 0.9520000000000001, 0.268, 192.0, 0.0, 0.0, 0.0, 0.0, 0.0, 0.0, 0.0, 0.0, 0.0, 1.69627520075294E9, 0.0, 2023-10-02 15:33:20.752
31.0, 19214.85593496036, 17181.897721516816, 44213.1363407536, 71932.40635781364, 14325.322428384117, -20995.373546525665, -29595.698964083072, 10077.37339465301, 0.066, 0.9520000000000001, 0.268, 192.0, 0.0, 0.0, 0.0, 0.0, 0.0, 0.0, 0.0, 0.0, 0.0, 1.696275200752951E9, 0.0, 2023-10-02 15:33:20.752
32.0, 19205.959940667148, 17174.745163291118, 44219.618346645635, 71964.52581459592, 14313.699521267357, -20999.888598905636, -29565.65821953514, 10102.496755420776, 0.066, 0.9520000000000001, 0.268, 192.0, 0.0, 0.0, 0.0, 0.0, 0.0, 0.0, 0.0, 0.0, 0.0, 1.6962752007529752E9, 0.0, 2023-10-02 15:33:20.752
33.0, 19201.80251619846, 17175.14749469131, 44208.867157562636, 71959.27315464892, 14311.129070654997, -21002.19082858453, -29550.213164116525, 10113.650275903974, 0.066, 0.9520000000000001, 0.268, 192.0, 0.0, 0.0, 0.0, 0.0, 0.0, 0.0, 0.0, 0.0, 0.0, 1.6962752007529852E9, 0.0, 2023-10-02 15:33:20.752
34.0, 19205.267036589034, 17178.343794148423, 44206.52022439483, 71898.36465100822, 14315.554716057148, -21002.63786347364, -29579.695115053073, 10082.626054600007, 0.066, 0.9520000000000001, 0.268, 192.0, 0.0, 0.0, 0.0, 0.0, 0.0, 0.0, 0.0, 0.0, 0.0, 1.696275200752995E9, 0.0, 2023-10-02 15:33:20.752
35.0, 19192.41478352723, 17168.44197135472, 44222.09939028018, 71888.97691833698, 14309.586800287581, -20999.06158436079, -29574.263641150435, 10084.57065636762, 0.066, 0.9520000000000001, 0.268, 192.0, 0.0, 0.0, 0.0, 0.0, 0.0, 0.0, 0.0, 0.0, 0.0, 1.696275200753005E9, 0.0, 2023-10-02 15:33:20.753
36.0, 19190.55958873744, 17166.095038186915, 44218.858387334156, 71910.94868313655, 14306.435204319383, -20995.01591861438, -29557.566888042318, 10099.501621663765, 0.066, 0.9520000000000001, 0.268, 192.0, 0.0, 0.0, 0.0, 0.0, 0.0, 0.0, 0.0, 0.0, 0.0, 1.6962752007530153E9, 0.0, 2023-10-02 15:33:20.753
37.0, 19199.56734175293, 17171.68297430074, 44205.82732031671, 71891.25679627142, 14313.051320678154, -20995.798229670316, -29573.2801643944, 10090.672682603918, 0.066, 0.9520000000000001, 0.268, 192.0, 0.0, 0.0, 0.0, 0.0, 0.0, 0.0, 0.0, 0.0, 0.0, 1.696275200753026E9, 0.0, 2023-10-02 15:33:20.753
38.0, 19203.56830401043, 17169.984241722137, 44209.26948896283, 71849.2578684399, 14320.36034111504, -20993.518351735875, -29589.842807035784, 10080.837915043583, 0.074, 0.9540000000000001, 0.27, 192.0, 2.0, 80.0, 29.0, 208.0, 8.0, 112.0, 0.0, 0.0, 0.0, 1.696275200753036E9, 0.0, 2023-10-02 15:33:20.753
39.0, 19192.83946667188, 17157.91429971627, 44218.791332100795, 71839.13252820165, 14310.458518321338, -20998.59219772723, -29581.058571464848, 10088.035176758192, 0.074, 0.9540000000000001, 0.27, 192.0, 0.0, 0.0, 0.0, 0.0, 0.0, 0.0, 0.0, 0.0, 0.0, 1.6962752007530465E9, 0.0, 2023-10-02 15:33:20.753
40.0, 19185.642204957272, 17151.409942079776, 44216.936137311, 71841.18888869154, 14296.689843736869, -21005.25301757491, -29585.528920355908, 10081.240246443778, 0.074, 0.9540000000000001, 0.27, 192.0, 0.0, 0.0, 0.0, 0.0, 0.0, 0.0, 0.0, 0.0, 0.0, 1.6962752007530572E9, 0.0, 2023-10-02 15:33:20.753
41.0, 19192.481838760596, 17160.64121253982, 44215.12564601012, 71843.60287709271, 14299.662625749424, -20999.307453549798, -29583.986649988492, 10087.766955824729, 0.074, 0.9540000000000001, 0.27, 192.0, 0.0, 0.0, 0.0, 0.0, 0.0, 0.0, 0.0, 0.0, 0.0, 1.6962752007530668E9, 0.0, 2023-10-02 15:33:20.753
42.0, 19196.862780673837, 17163.21166315218, 44211.28114596381, 71798.72057422645, 14304.468250807317, -20994.881808147646, -29609.735859601005, 10069.103249204547, 0.074, 0.9540000000000001, 0.27, 192.0, 0.0, 0.0, 0.0, 0.0, 0.0, 0.0, 0.0, 0.0, 0.0, 1.6962752007530773E9, 0.0, 2023-10-02 15:33:20.753
43.0, 19194.918178906224, 17156.215567137668, 44229.542521183794, 71764.09772206518, 14309.251524120751, -20992.624281957662, -29628.91365634366, 10049.433714083876, 0.074, 0.9540000000000001, 0.27, 192.0, 0.0, 0.0, 0.0, 0.0, 0.0, 0.0, 0.0, 0.0, 0.0, 1.6962752007530868E9, 0.0, 2023-10-02 15:33:20.753
44.0, 19187.430344513697, 17146.649020510795, 44239.332585255215, 71768.23279478941, 14307.93277119789, -20993.898331391614, -29635.708586658075, 10042.12469364699, 0.074, 0.9540000000000001, 0.27, 192.0, 0.0, 0.0, 0.0, 0.0, 0.0, 0.0, 0.0, 0.0, 0.0, 1.6962752007530963E9, 0.0, 2023-10-02 15:33:20.753
45.0, 19185.46339100163, 17141.753988475084, 44227.68732639401, 71769.37273375664, 14300.444936805361, -21003.084898362744, -29643.554048961887, 10038.146083133946, 0.074, 0.9540000000000001, 0.27, 192.0, 0.0, 0.0, 0.0, 0.0, 0.0, 0.0, 0.0, 0.0, 0.0, 1.696275200753106E9, 0.0, 2023-10-02 15:33:20.753
46.0, 19193.331205049897, 17145.57613677694, 44225.25098624838, 71745.61282940065, 14300.064957149621, -21007.376433298163, -29650.10311008729, 10034.815673210105, 0.074, 0.9540000000000001, 0.27, 192.0, 0.0, 0.0, 0.0, 0.0, 0.0, 0.0, 0.0, 0.0, 0.0, 1.696275200753116E9, 0.0, 2023-10-02 15:33:20.753
47.0, 19187.877379402802, 17140.39053206331, 44233.834056119216, 71723.01521575633, 14300.444936805361, -21009.81277344379, -29650.214868809566, 10034.011010409715, 0.074, 0.9540000000000001, 0.27, 192.0, 0.0, 0.0, 0.0, 0.0, 0.0, 0.0, 0.0, 0.0, 0.0, 1.696275200753127E9, 0.0, 2023-10-02 15:33:20.753
48.0, 19194.828771928405, 17149.130064145334, 44250.8437336497, 71742.17066075452, 14310.950256699356, -21003.643691974128, -29634.836868624316, 10047.422057082898, 0.074, 0.9540000000000001, 0.268, 192.0, 2.0, 80.0, 29.0, 208.0, 8.0, 96.0, 0.0, 0.0, 0.0, 1.6962752007531495E9, 0.0, 2023-10-02 15:33:20.753
49.0, 19204.0823941329, 17157.66843052726, 44256.543428485806, 71765.4388267325, 14321.656742293448, -20994.859456403192, -29623.929217330126, 10060.073144444603, 0.074, 0.9540000000000001, 0.268, 192.0, 0.0, 0.0, 0.0, 0.0, 0.0, 0.0, 0.0, 0.0, 0.0, 1.6962752007531614E9, 0.0, 2023-10-02 15:33:20.753
50.0, 19197.958016152148, 17156.774360749052, 44246.59690220319, 71733.4758321614, 14315.979399201799, -20989.517389478373, -29643.039958839414, 10043.666964014408, 0.074, 0.9540000000000001, 0.268, 192.0, 0.0, 0.0, 0.0, 0.0, 0.0, 0.0, 0.0, 0.0, 0.0, 1.6962752007531712E9, 0.0, 2023-10-02 15:33:20.753
51.0, 19191.855989915846, 17148.079532155934, 44251.20136156099, 71692.169808408, 14308.603323531548, -20992.75839242439, -29656.383950279233, 10026.74669346174, 0.074, 0.9540000000000001, 0.268, 192.0, 0.0, 0.0, 0.0, 0.0, 0.0, 0.0, 0.0, 0.0, 0.0, 1.6962752007531807E9, 0.0, 2023-10-02 15:33:20.753
52.0, 19169.54894894945, 17124.923124900237, 44258.26451280886, 71687.61005253912, 14299.819087960612, -21000.693261706027, -29654.372293278255, 10022.276344570679, 0.074, 0.9540000000000001, 0.268, 192.0, 0.0, 0.0, 0.0, 0.0, 0.0, 0.0, 0.0, 0.0, 0.0, 1.696275200753192E9, 0.0, 2023-10-02 15:33:20.753
53.0, 19149.588841150864, 17101.76671764454, 44234.6387189196, 71683.47497981488, 14279.300186550641, -21012.11500312269, -29663.424749782655, 10013.872088655484, 0.074, 0.9540000000000001, 0.268, 192.0, 0.0, 0.0, 0.0, 0.0, 0.0, 0.0, 0.0, 0.0, 0.0, 1.6962752007532024E9, 0.0, 2023-10-02 15:33:20.753
54.0, 19184.390507267777, 17143.877404198338, 44237.81266663226, 71658.84335742514, 14292.577122757093, -20991.841970901725, -29677.908680189692, 10008.462966497298, 0.074, 0.9540000000000001, 0.268, 192.0, 0.0, 0.0, 0.0, 0.0, 0.0, 0.0, 0.0, 0.0, 0.0, 1.6962752007532125E9, 0.0, 2023-10-02 15:33:20.753
55.0, 19192.548893993964, 17148.325401344944, 44253.90592264008, 71632.89298211253, 14301.11548913902, -20984.845874887214, -29673.863014443283, 10011.256934554212, 0.074, 0.9540000000000001, 0.268, 192.0, 0.0, 0.0, 0.0, 0.0, 0.0, 0.0, 0.0, 0.0, 0.0, 1.6962752007532222E9, 0.0, 2023-10-02 15:33:20.753
56.0, 19176.813265897425, 17125.10193885588, 44264.45594602299, 71642.0124938503, 14295.639311747469, -20992.1548953241, -29647.510307730474, 10028.735998718263, 0.074, 0.9540000000000001, 0.268, 192.0, 0.0, 0.0, 0.0, 0.0, 0.0, 0.0, 0.0, 0.0, 0.0, 1.6962752007532325E9, 0.0, 2023-10-02 15:33:20.753
57.0, 19186.580978224396, 17130.801633691983, 44262.60075123319, 71648.87447939807, 14294.700538480347, -20992.132543579646, -29643.10701407278, 10030.50178653023, 0.074, 0.9540000000000001, 0.268, 192.0, 0.0, 0.0, 0.0, 0.0, 0.0, 0.0, 0.0, 0.0, 0.0, 1.696275200753242E9, 0.0, 2023-10-02 15:33:20.753
58.0, 19194.314681805932, 17137.35069481739, 44257.25868430838, 71622.41001396299, 14292.912398923923, -20995.61941571467, -29655.53458398993, 10022.186937592858, 0.074, 0.9520000000000001, 0.27, 192.0, 2.0, 80.0, 29.0, 192.0, 8.0, 112.0, 0.0, 0.0, 0.0, 1.696275200753252E9, 0.0, 2023-10-02 15:33:20.753
59.0, 19195.633434728796, 17142.73746523112, 44261.90784715508, 71578.51118785277, 14298.813259460123, -20996.401726770608, -29668.4538922851, 10012.978018877271, 0.074, 0.9520000000000001, 0.27, 192.0, 0.0, 0.0, 0.0, 0.0, 0.0, 0.0, 0.0, 0.0, 0.0, 1.6962752007532623E9, 0.0, 2023-10-02 15:33:20.753
60.0, 19190.93956839318, 17142.357485575376, 44273.57545776075, 71564.89897547949, 14299.752032727247, -20997.58636922674, -29664.654095727696, 10014.274420055679, 0.074, 0.9520000000000001, 0.27, 192.0, 0.0, 0.0, 0.0, 0.0, 0.0, 0.0, 0.0, 0.0, 0.0, 1.6962752007532723E9, 0.0, 2023-10-02 15:33:20.753
61.0, 19177.17089380871, 17128.432348779723, 44284.12548114365, 71597.10783923959, 14299.349701327052, -20998.368680282674, -29636.557952947376, 10040.716533746307, 0.074, 0.9520000000000001, 0.27, 192.0, 0.0, 0.0, 0.0, 0.0, 0.0, 0.0, 0.0, 0.0, 0.0, 1.6962752007532816E9, 0.0, 2023-10-02 15:33:20.753
62.0, 19185.575149723907, 17131.96392440366, 44277.41995780706, 71592.5927868596, 14310.324407854607, -20989.740906922925, -29636.066214569357, 10044.829254726083, 0.074, 0.9520000000000001, 0.27, 192.0, 0.0, 0.0, 0.0, 0.0, 0.0, 0.0, 0.0, 0.0, 0.0, 1.6962752007532914E9, 0.0, 2023-10-02 15:33:20.753
63.0, 19204.820001699925, 17149.66650601226, 44277.06232989578, 71533.24890533077, 14320.06976843712, -20984.95763360949, -29677.573404022864, 10010.139347331447, 0.074, 0.9520000000000001, 0.27, 192.0, 0.0, 0.0, 0.0, 0.0, 0.0, 0.0, 0.0, 0.0, 0.0, 1.696275200753301E9, 0.0, 2023-10-02 15:33:20.753
64.0, 19206.56343776744, 17151.58875603542, 44288.88640271263, 71516.48509698929, 14315.554716057148, -20988.466857488973, -29681.708476747095, 10006.205440307313, 0.074, 0.9520000000000001, 0.27, 192.0, 0.0, 0.0, 0.0, 0.0, 0.0, 0.0, 0.0, 0.0, 0.0, 1.6962752007533216E9, 0.0, 2023-10-02 15:33:20.753
65.0, 19197.08629811839, 17145.978468177138, 44304.57732732026, 71537.85336468856, 14319.756844014746, -20982.163665552576, -29671.73959872003, 10018.029513124171, 0.074, 0.9520000000000001, 0.27, 192.0, 0.0, 0.0, 0.0, 0.0, 0.0, 0.0, 0.0, 0.0, 0.0, 1.6962752007533314E9, 0.0, 2023-10-02 15:33:20.753
66.0, 19186.80449566895, 17139.854090196382, 44294.74255975993, 71544.49183279178, 14313.230134633797, -20985.806999898792, -29668.49859577401, 10025.673809727885, 0.074, 0.9520000000000001, 0.27, 192.0, 0.0, 0.0, 0.0, 0.0, 0.0, 0.0, 0.0, 0.0, 0.0, 1.696275200753341E9, 0.0, 2023-10-02 15:33:20.753
67.0, 19197.108649862847, 17145.553785032487, 44285.37717883315, 71510.13720156398, 14308.379806086996, -20992.065488346278, -29674.265345843476, 10021.717550959296, 0.074, 0.9520000000000001, 0.27, 192.0, 0.0, 0.0, 0.0, 0.0, 0.0, 0.0, 0.0, 0.0, 0.0, 1.6962752007533512E9, 0.0, 2023-10-02 15:33:20.753
68.0, 19207.457507545652, 17153.309840358477, 44292.06035042529, 71473.01095402372, 14313.341893356073, -20989.91972087857, -29689.509235561996, 10004.730225173262, 0.068, 0.9440000000000001, 0.264, 192.0, 2.0, 32.0, 29.0, 128.0, 8.0, 64.0, 0.0, 0.0, 0.0, 1.6962752007533638E9, 0.0, 2023-10-02 15:33:20.753
69.0, 19201.020205142522, 17146.269040855055, 44306.63368781015, 71491.74171587726, 14313.028968933699, -20984.77881965385, -29678.467473801076, 10012.776853177173, 0.068, 0.9440000000000001, 0.264, 192.0, 0.0, 0.0, 0.0, 0.0, 0.0, 0.0, 0.0, 0.0, 0.0, 1.696275200753374E9, 0.0, 2023-10-02 15:33:20.753
70.0, 19199.74615570857, 17144.994991421103, 44299.704647029, 71515.99335861127, 14306.949294441856, -20985.427020243053, -29658.909697402683, 10031.664077241907, 0.068, 0.9440000000000001, 0.264, 192.0, 0.0, 0.0, 0.0, 0.0, 0.0, 0.0, 0.0, 0.0, 0.0, 1.6962752007533839E9, 0.0, 2023-10-02 15:33:20.753
71.0, 19207.524562779017, 17156.282622371033, 44288.14879514561, 71477.32484070359, 14306.88223920849, -20982.72245916396, -29682.311973847387, 10010.429920009366, 0.068, 0.9440000000000001, 0.264, 192.0, 0.0, 0.0, 0.0, 0.0, 0.0, 0.0, 0.0, 0.0, 0.0, 1.6962752007533934E9, 0.0, 2023-10-02 15:33:20.753
72.0, 19206.764603467538, 17153.600413036398, 44302.36450461918, 71441.74086353074, 14312.850154978056, -20976.48632246093, -29700.796866511926, 9992.772041889673, 0.068, 0.9440000000000001, 0.264, 192.0, 0.0, 0.0, 0.0, 0.0, 0.0, 0.0, 0.0, 0.0, 0.0, 1.6962752007534032E9, 0.0, 2023-10-02 15:33:20.753
73.0, 19194.806420183948, 17139.67527624074, 44311.64047856814, 71448.44638686733, 14308.379806086996, -20978.945014351015, -29699.813389755895, 9993.710815156795, 0.068, 0.9440000000000001, 0.264, 192.0, 0.0, 0.0, 0.0, 0.0, 0.0, 0.0, 0.0, 0.0, 0.0, 1.6962752007534127E9, 0.0, 2023-10-02 15:33:20.753
74.0, 19201.489591776084, 17146.78313097753, 44307.706571544004, 71457.27532592718, 14302.724814739802, -20977.983889339434, -29705.133104936256, 9994.113146556992, 0.068, 0.9440000000000001, 0.264, 192.0, 0.0, 0.0, 0.0, 0.0, 0.0, 0.0, 0.0, 0.0, 0.0, 1.6962752007534227E9, 0.0, 2023-10-02 15:33:20.753
75.0, 19203.07656563241, 17144.927936187738, 44300.19638540702, 71447.61937232249, 14295.438146047372, -20983.705935919996, -29697.60056705482, 10006.518364729687, 0.068, 0.9440000000000001, 0.264, 192.0, 0.0, 0.0, 0.0, 0.0, 0.0, 0.0, 0.0, 0.0, 0.0, 1.6962752007534325E9, 0.0, 2023-10-02 15:33:20.753
76.0, 19199.343824308376, 17135.696665727697, 44301.001048207414, 71412.19185736083, 14294.87935243599, -20986.20933129899, -29699.50046533352, 10001.958608860805, 0.068, 0.9440000000000001, 0.264, 192.0, 0.0, 0.0, 0.0, 0.0, 0.0, 0.0, 0.0, 0.0, 0.0, 1.696275200753442E9, 0.0, 2023-10-02 15:33:20.753
77.0, 19202.808344698948, 17136.09899712789, 44318.6589263271, 71391.51649373966, 14309.206820631842, -20976.218101527465, -29723.617997600795, 9978.779849860652, 0.068, 0.9440000000000001, 0.264, 192.0, 0.0, 0.0, 0.0, 0.0, 0.0, 0.0, 0.0, 0.0, 0.0, 1.6962752007534523E9, 0.0, 2023-10-02 15:33:20.753
78.0, 19202.584827254395, 17134.892002927303, 44324.22451069648, 71421.49018305424, 14307.21751537532, -20975.92752884955, -29709.759916038503, 9995.610713435497, 0.07200000000000001, 0.9480000000000001, 0.26, 192.0, 2.0, 64.0, 29.0, 160.0, 8.0, 32.0, 0.0, 0.0, 0.0, 1.696275200753462E9, 0.0, 2023-10-02 15:33:20.753
79.0, 19200.2825975755, 17131.114558114357, 44306.99131572143, 71405.73220321325, 14300.623750761004, -20983.81769464227, -29719.97466325458, 9991.87797211146, 0.07200000000000001, 0.9480000000000001, 0.26, 192.0, 0.0, 0.0, 0.0, 0.0, 0.0, 0.0, 0.0, 0.0, 0.0, 1.6962752007534823E9, 0.0, 2023-10-02 15:33:20.753
80.0, 19203.724766221618, 17132.276848826034, 44308.80180702231, 71368.27067950615, 14304.043567662666, -20985.82935164325, -29734.65975936172, 9980.567989417075, 0.07200000000000001, 0.9480000000000001, 0.26, 192.0, 0.0, 0.0, 0.0, 0.0, 0.0, 0.0, 0.0, 0.0, 0.0, 1.696275200753492E9, 0.0, 2023-10-02 15:33:20.753
81.0, 19200.774335953516, 17130.287543569513, 44326.19146420854, 71372.4951592082, 14310.100890410054, -20986.566959210275, -29723.327424922878, 9990.492163955232, 0.07200000000000001, 0.9480000000000001, 0.26, 192.0, 0.0, 0.0, 0.0, 0.0, 0.0, 0.0, 0.0, 0.0, 0.0, 1.696275200753502E9, 0.0, 2023-10-02 15:33:20.753
82.0, 19194.962882395135, 17119.96103763116, 44322.0116879954, 71388.18608381583, 14299.59557051606, -20998.860418660694, -29718.320634164887, 9998.404681492411, 0.07200000000000001, 0.9480000000000001, 0.26, 192.0, 0.0, 0.0, 0.0, 0.0, 0.0, 0.0, 0.0, 0.0, 0.0, 1.696275200753512E9, 0.0, 2023-10-02 15:33:20.753
83.0, 19203.07656563241, 17124.833717922418, 44315.395571636625, 71380.76530465667, 14293.359433813028, -21001.229703572953, -29721.427526644176, 10002.78562340565, 0.07200000000000001, 0.9480000000000001, 0.26, 192.0, 0.0, 0.0, 0.0, 0.0, 0.0, 0.0, 0.0, 0.0, 0.0, 1.6962752007535217E9, 0.0, 2023-10-02 15:33:20.753
84.0, 19203.680062732707, 17125.303104555976, 44316.043772225836, 71339.79455707008, 14294.789945458167, -21000.33563379474, -29738.92894255268, 9989.508687199199, 0.07200000000000001, 0.9480000000000001, 0.26, 192.0, 0.0, 0.0, 0.0, 0.0, 0.0, 0.0, 0.0, 0.0, 0.0, 1.6962752007535315E9, 0.0, 2023-10-02 15:33:20.753
85.0, 19186.379812524297, 17116.76473817405, 44326.61614735319, 71333.42430990032, 14296.287512336674, -21006.258846075398, -29732.759861083017, 9992.861448867494, 0.07200000000000001, 0.9480000000000001, 0.26, 192.0, 0.0, 0.0, 0.0, 0.0, 0.0, 0.0, 0.0, 0.0, 0.0, 1.6962752007535412E9, 0.0, 2023-10-02 15:33:20.753
86.0, 19194.761716695037, 17124.878421411326, 44332.82993231177, 71350.00930428617, 14300.757861227736, -21000.268578561376, -29730.100003492833, 9996.21421053579, 0.07200000000000001, 0.9480000000000001, 0.26, 192.0, 0.0, 0.0, 0.0, 0.0, 0.0, 0.0, 0.0, 0.0, 0.0, 1.6962752007535508E9, 0.0, 2023-10-02 15:33:20.753
87.0, 19199.477934775106, 17123.269095810545, 44325.02917349686, 71341.44858615978, 14301.048433905655, -21000.91677915058, -29742.102890265334, 9989.843963366027, 0.07200000000000001, 0.9480000000000001, 0.26, 192.0, 0.0, 0.0, 0.0, 0.0, 0.0, 0.0, 0.0, 0.0, 0.0, 1.6962752007535603E9, 0.0, 2023-10-02 15:33:20.753
88.0, 19211.190248869687, 17136.993066906103, 44331.93586253356, 71309.7314607777, 14311.68786426638, -20994.77004942537, -29751.870602592302, 9984.703062141307, 0.07200000000000001, 0.96, 0.256, 192.0, 2.0, 64.0, 30.0, 0.0, 8.0, 0.0, 0.0, 0.0, 0.0, 1.6962752007535703E9, 0.0, 2023-10-02 15:33:20.753
89.0, 19206.585789511897, 17134.556726760475, 44341.01067078241, 71288.11732388941, 14310.570277043615, -20994.859456403192, -29758.240849762067, 9978.623387649464, 0.07200000000000001, 0.96, 0.256, 192.0, 0.0, 0.0, 0.0, 0.0, 0.0, 0.0, 0.0, 0.0, 0.0, 1.6962752007535803E9, 0.0, 2023-10-02 15:33:20.753
90.0, 19200.99785339807, 17129.840508680405, 44349.30316797533, 71309.35148112196, 14310.16794564342, -20993.473648246963, -29747.13203276778, 9988.391099976434, 0.07200000000000001, 0.96, 0.256, 192.0, 0.0, 0.0, 0.0, 0.0, 0.0, 0.0, 0.0, 0.0, 0.0, 1.696275200753592E9, 0.0, 2023-10-02 15:33:20.753
91.0, 19198.829734185903, 17130.734578458618, 44342.038851027355, 71307.98802471018, 14307.552791542148, -20994.166552325078, -29760.677189907696, 9979.517457427675, 0.07200000000000001, 0.96, 0.256, 192.0, 0.0, 0.0, 0.0, 0.0, 0.0, 0.0, 0.0, 0.0, 0.0, 1.6962752007536016E9, 0.0, 2023-10-02 15:33:20.753
92.0, 19195.186399839688, 17127.001837134583, 44343.379955694676, 71299.13673390588, 14306.524611297204, -20993.54070348033, -29745.388596700264, 9994.64958842392, 0.07200000000000001, 0.96, 0.256, 192.0, 0.0, 0.0, 0.0, 0.0, 0.0, 0.0, 0.0, 0.0, 0.0, 1.696275200753611E9, 0.0, 2023-10-02 15:33:20.753
93.0, 19192.057155615945, 17127.180651090224, 44347.38091795217, 71281.7694284641, 14306.144631641464, -20996.044098859322, -29733.78804132796, 9999.902248370916, 0.07200000000000001, 0.96, 0.256, 192.0, 0.0, 0.0, 0.0, 0.0, 0.0, 0.0, 0.0, 0.0, 0.0, 1.696275200753621E9, 0.0, 2023-10-02 15:33:20.753
94.0, 19183.94347237867, 17117.14471782979, 44345.79394409584, 71281.18828310828, 14297.807430959634, -21002.749622195915, -29732.78221282747, 9995.521306457676, 0.07200000000000001, 0.96, 0.256, 192.0, 0.0, 0.0, 0.0, 0.0, 0.0, 0.0, 0.0, 0.0, 0.0, 1.6962752007536314E9, 0.0, 2023-10-02 15:33:20.753
95.0, 19195.365213795332, 17124.744310944596, 44350.59956915374, 71288.76552447863, 14306.16698338592, -20990.612624956684, -29730.971721526592, 9999.254047781713, 0.07200000000000001, 0.96, 0.256, 192.0, 0.0, 0.0, 0.0, 0.0, 0.0, 0.0, 0.0, 0.0, 0.0, 1.696275200753652E9, 0.0, 2023-10-02 15:33:20.753
96.0, 19195.45462077315, 17124.543145244497, 44347.44797318554, 71266.10085560095, 14304.803526974145, -20992.512523235386, -29734.570352383897, 9997.845887881027, 0.07200000000000001, 0.96, 0.256, 192.0, 0.0, 0.0, 0.0, 0.0, 0.0, 0.0, 0.0, 0.0, 0.0, 1.696275200753662E9, 0.0, 2023-10-02 15:33:20.753
97.0, 19206.697548234173, 17131.96392440366, 44345.950406307034, 71218.93867480024, 14307.843364220067, -20995.887636648135, -29758.911402095724, 9972.700175368807, 0.07200000000000001, 0.96, 0.256, 192.0, 0.0, 0.0, 0.0, 0.0, 0.0, 0.0, 0.0, 0.0, 0.0, 1.6962752007536747E9, 0.0, 2023-10-02 15:33:20.753
98.0, 19205.401147055763, 17127.091244112402, 44355.76282212292, 71227.11941327089, 14307.239867119773, -20996.91581689308, -29752.787024114972, 9975.807067848094, 0.076, 0.964, 0.256, 192.0, 2.0, 96.0, 30.0, 32.0, 8.0, 0.0, 0.0, 0.0, 0.0, 1.6962752007536843E9, 0.0, 2023-10-02 15:33:20.753
99.0, 19187.51975149152, 17114.14958407278, 44349.102002275235, 71252.9133263723, 14299.953198427344, -21000.492096005928, -29733.22924771658, 9993.509649456699, 0.076, 0.964, 0.256, 192.0, 0.0, 0.0, 0.0, 0.0, 0.0, 0.0, 0.0, 0.0, 0.0, 1.6962752007536948E9, 0.0, 2023-10-02 15:33:20.753
100.0, 19184.36815552332, 17117.85997365236, 44334.93099629057, 71232.72970112917, 14305.54113454117, -20995.284139547843, -29736.89493380725, 9991.140364544435, 0.076, 0.964, 0.256, 192.0, 0.0, 0.0, 0.0, 0.0, 0.0, 0.0, 0.0, 0.0, 0.0, 1.6962752007537055E9, 0.0, 2023-10-02 15:33:20.753
101.0, 19197.622739985316, 17128.857031924374, 44336.49561840244, 71180.49367433712, 14311.598457288559, -20987.572787710764, -29764.499338209553, 9964.251215964701, 0.076, 0.964, 0.256, 192.0, 0.0, 0.0, 0.0, 0.0, 0.0, 0.0, 0.0, 0.0, 0.0, 1.6962752007537155E9, 0.0, 2023-10-02 15:33:20.753
102.0, 19197.600388240862, 17127.135947601313, 44350.13018252017, 71174.07872367844, 14308.178640386897, -20989.562092967284, -29769.707294667638, 9956.11518098297, 0.076, 0.964, 0.256, 192.0, 0.0, 0.0, 0.0, 0.0, 0.0, 0.0, 0.0, 0.0, 0.0, 1.696275200753726E9, 0.0, 2023-10-02 15:33:20.753
103.0, 19200.126135364313, 17129.371122046843, 44357.30509249033, 71207.53928512803, 14304.02121591821, -20993.048965102313, -29744.405119944233, 9978.288111482634, 0.076, 0.964, 0.256, 192.0, 0.0, 0.0, 0.0, 0.0, 0.0, 0.0, 0.0, 0.0, 0.0, 1.696275200753736E9, 0.0, 2023-10-02 15:33:20.753
104.0, 19195.119344606323, 17127.53827900151, 44350.53251392037, 71200.78905830253, 14311.710216010835, -20992.311357535287, -29737.92311405219, 9985.552428430608, 0.076, 0.964, 0.256, 192.0, 0.0, 0.0, 0.0, 0.0, 0.0, 0.0, 0.0, 0.0, 0.0, 1.6962752007537477E9, 0.0, 2023-10-02 15:33:20.753
105.0, 19196.03576612899, 17128.991142391103, 44345.72688886248, 71146.45196753168, 14322.170832415919, -20993.607758713693, -29766.46629172162, 9957.25511995019, 0.076, 0.964, 0.256, 192.0, 0.0, 0.0, 0.0, 0.0, 0.0, 0.0, 0.0, 0.0, 0.0, 1.6962752007537584E9, 0.0, 2023-10-02 15:33:20.753
106.0, 19199.65674873075, 17130.4440057807, 44362.91538034861, 71137.31010404947, 14331.446806364871, -20993.116020335678, -29767.829748133394, 9952.002460003194, 0.076, 0.964, 0.256, 192.0, 0.0, 0.0, 0.0, 0.0, 0.0, 0.0, 0.0, 0.0, 0.0, 1.6962752007537687E9, 0.0, 2023-10-02 15:33:20.753
107.0, 19222.23201063061, 17147.00664842208, 44374.203011298545, 71153.33630482391, 14345.0366669937, -20982.990680097424, -29766.801567888448, 9952.181273958835, 0.076, 0.964, 0.256, 192.0, 0.0, 0.0, 0.0, 0.0, 0.0, 0.0, 0.0, 0.0, 0.0, 1.696275200753779E9, 0.0, 2023-10-02 15:33:20.753
108.0, 19209.26799884653, 17140.926973930236, 44363.51887744891, 71148.32951406593, 14339.26991692423, -20985.851703387703, -29770.914288868225, 9950.571948358054, 0.082, 0.97, 0.258, 192.0, 2.0, 144.0, 30.0, 80.0, 8.0, 16.0, 0.0, 0.0, 0.0, 1.6962752007537897E9, 0.0, 2023-10-02 15:33:20.753
109.0, 19194.202923083656, 17134.422616293745, 44359.69672914705, 71093.6794988727, 14347.562414117148, -20981.403706241097, -29807.61585326384, 9919.167747398347, 0.082, 0.97, 0.258, 192.0, 0.0, 0.0, 0.0, 0.0, 0.0, 0.0, 0.0, 0.0, 0.0, 1.6962752007538002E9, 0.0, 2023-10-02 15:33:20.753
110.0, 19179.94251012117, 17121.95034288768, 44373.04072058687, 71095.44528668467, 14343.829672793112, -20986.76812491037, -29789.533291999494, 9932.735256282718, 0.082, 0.97, 0.258, 192.0, 0.0, 0.0, 0.0, 0.0, 0.0, 0.0, 0.0, 0.0, 0.0, 1.69627520075381E9, 0.0, 2023-10-02 15:33:20.753
111.0, 19194.69466146167, 17135.0931686274, 44384.954200381544, 71120.45688873016, 14352.12216998603, -20979.48145621794, -29771.18250980169, 9948.850864034996, 0.082, 0.97, 0.258, 192.0, 0.0, 0.0, 0.0, 0.0, 0.0, 0.0, 0.0, 0.0, 0.0, 1.6962752007538314E9, 0.0, 2023-10-02 15:33:20.753
112.0, 19198.449754530164, 17137.32834307293, 44377.84634564476, 71111.31502524794, 14355.474931654328, -20973.759409637383, -29784.79472217497, 9942.234747676224, 0.082, 0.97, 0.258, 192.0, 0.0, 0.0, 0.0, 0.0, 0.0, 0.0, 0.0, 0.0, 0.0, 1.6962752007538412E9, 0.0, 2023-10-02 15:33:20.753
113.0, 19183.56349272293, 17127.761796446062, 44369.240924029466, 71085.20818772414, 14348.277669939718, -20974.742886393415, -29786.359344286844, 9944.91695701086, 0.082, 0.97, 0.258, 192.0, 0.0, 0.0, 0.0, 0.0, 0.0, 0.0, 0.0, 0.0, 0.0, 1.696275200753852E9, 0.0, 2023-10-02 15:33:20.753
114.0, 19161.658783156727, 17110.126270070825, 44355.82987735628, 71056.64265831026, 14329.457501108349, -20987.885712133135, -29792.483722267596, 9936.40094237339, 0.082, 0.97, 0.258, 192.0, 0.0, 0.0, 0.0, 0.0, 0.0, 0.0, 0.0, 0.0, 0.0, 1.696275200753862E9, 0.0, 2023-10-02 15:33:20.753
115.0, 19144.98438179307, 17092.848371606873, 44354.30995873332, 71068.73495206058, 14318.9298294699, -20999.307453549798, -29786.359344286844, 9940.021924975148, 0.082, 0.97, 0.258, 192.0, 0.0, 0.0, 0.0, 0.0, 0.0, 0.0, 0.0, 0.0, 0.0, 1.6962752007538717E9, 0.0, 2023-10-02 15:33:20.753
116.0, 19158.395428466254, 17104.828906634917, 44364.94938909404, 71103.04487979948, 14329.658666808447, -20986.097572576713, -29752.295285736953, 9974.823591092061, 0.082, 0.97, 0.258, 192.0, 0.0, 0.0, 0.0, 0.0, 0.0, 0.0, 0.0, 0.0, 0.0, 1.6962752007538824E9, 0.0, 2023-10-02 15:33:20.753
117.0, 19175.650975185752, 17120.229258564625, 44365.64229317216, 71057.29085889946, 14341.92977451441, -20974.34055499322, -29781.151387828755, 9952.270680936657, 0.082, 0.97, 0.258, 192.0, 0.0, 0.0, 0.0, 0.0, 0.0, 0.0, 0.0, 0.0, 0.0, 1.6962752007538922E9, 0.0, 2023-10-02 15:33:20.753
118.0, 19174.98042285209, 17118.61993296384, 44379.47802298999, 71031.36283533131, 14341.885071025501, -20973.692354404015, -29787.85691116535, 9944.760494799673, 0.07200000000000001, 0.962, 0.264, 192.0, 2.0, 64.0, 30.0, 16.0, 8.0, 64.0, 0.0, 0.0, 0.0, 1.6962752007539017E9, 0.0, 2023-10-02 15:33:20.753
119.0, 19174.287518773977, 17117.63645620781, 44384.127185836696, 71050.09359718485, 14335.492472111282, -20978.475627717453, -29775.98813485958, 9953.187102459324, 0.07200000000000001, 0.962, 0.264, 192.0, 0.0, 0.0, 0.0, 0.0, 0.0, 0.0, 0.0, 0.0, 0.0, 1.6962752007539132E9, 0.0, 2023-10-02 15:33:20.753
120.0, 19170.89005361677, 17119.62576146433, 44382.026121857896, 71081.81072256694, 14337.057094223153, -20972.507711947885, -29756.899745094746, 9972.051974779604, 0.07200000000000001, 0.962, 0.264, 192.0, 0.0, 0.0, 0.0, 0.0, 0.0, 0.0, 0.0, 0.0, 0.0, 1.696275200753924E9, 0.0, 2023-10-02 15:33:20.753
121.0, 19168.677230915695, 17122.442081265697, 44370.15734555213, 71060.53186184548, 14337.235908178796, -20976.642784672116, -29763.85113762035, 9965.525265398654, 0.07200000000000001, 0.962, 0.264, 192.0, 0.0, 0.0, 0.0, 0.0, 0.0, 0.0, 0.0, 0.0, 0.0, 1.696275201231656E9, 0.0, 2023-10-02 15:33:21.231
122.0, 19171.627661183797, 17120.452776009177, 44369.30797926283, 71025.26080909501, 14332.519690098727, -20986.38814525463, -29775.69756218166, 9950.214320446768, 0.07200000000000001, 0.962, 0.264, 192.0, 0.0, 0.0, 0.0, 0.0, 0.0, 0.0, 0.0, 0.0, 0.0, 1.6962752012318213E9, 0.0, 2023-10-02 15:33:21.231
123.0, 19186.64803345776, 17130.801633691983, 44379.366264267715, 71015.7166142126, 14341.639201836491, -20977.53685445033, -29794.830655435402, 9932.198814415791, 0.07200000000000001, 0.962, 0.264, 192.0, 0.0, 0.0, 0.0, 0.0, 0.0, 0.0, 0.0, 0.0, 0.0, 1.6962752012318463E9, 0.0, 2023-10-02 15:33:21.231
124.0, 19173.594614695863, 17118.86580215285, 44383.7248544365, 71058.43079786668, 14335.26895466673, -20975.27932826034, -29764.968724843115, 9963.133628741936, 0.07200000000000001, 0.962, 0.264, 192.0, 0.0, 0.0, 0.0, 0.0, 0.0, 0.0, 0.0, 0.0, 0.0, 1.6962752012318835E9, 0.0, 2023-10-02 15:33:21.231
125.0, 19180.210731054634, 17125.727787700627, 44370.40321474114, 71042.18107964768, 14335.9842104893, -20979.548511451307, -29770.199033045654, 9960.339660685022, 0.07200000000000001, 0.962, 0.264, 192.0, 0.0, 0.0, 0.0, 0.0, 0.0, 0.0, 0.0, 0.0, 0.0, 1.6962752012319272E9, 0.0, 2023-10-02 15:33:21.231
126.0, 19181.998870611056, 17122.218563821145, 44371.87842987519, 70998.84104714883, 14340.74513205828, -20981.06843007427, -29791.097914111368, 9940.223090675247, 0.07200000000000001, 0.962, 0.264, 192.0, 0.0, 0.0, 0.0, 0.0, 0.0, 0.0, 0.0, 0.0, 0.0, 1.6962752012331748E9, 0.0, 2023-10-02 15:33:21.233
127.0, 19174.93571936318, 17116.72003468514, 44388.86575566122, 71009.77105018748, 14345.595460605082, -20977.492150961418, -29775.541099970473, 9952.404791403389, 0.07200000000000001, 0.962, 0.264, 192.0, 0.0, 0.0, 0.0, 0.0, 0.0, 0.0, 0.0, 0.0, 0.0, 1.696275201233192E9, 0.0, 2023-10-02 15:33:21.233
128.0, 19175.31569901892, 17115.110709084358, 44391.659723718134, 71049.33363787338, 14341.952126258866, -20978.00624108389, -29747.35555021233, 9979.852733594505, 0.07200000000000001, 0.962, 0.264, 192.0, 0.0, 0.0, 0.0, 0.0, 0.0, 0.0, 0.0, 0.0, 0.0, 1.696275201233207E9, 0.0, 2023-10-02 15:33:21.233
129.0, 19195.45462077315, 17128.231183079624, 44383.47898524749, 71030.55817253092, 14350.445789151883, -20970.473703202453, -29758.68788465117, 9973.929521313848, 0.064, 0.9580000000000001, 0.262, 192.0, 2.0, 0.0, 29.0, 240.0, 8.0, 48.0, 0.0, 0.0, 0.0, 1.6962752012332172E9, 0.0, 2023-10-02 15:33:21.233
130.0, 19203.255379588056, 17134.020284893548, 44394.341933052776, 71000.18215181616, 14359.855873567567, -20966.025706055847, -29762.241812019565, 9971.962567801782, 0.064, 0.9580000000000001, 0.262, 192.0, 0.0, 0.0, 0.0, 0.0, 0.0, 0.0, 0.0, 0.0, 0.0, 1.6962752012332296E9, 0.0, 2023-10-02 15:33:21.233
131.0, 19203.74711796607, 17139.116482629357, 44400.84629068927, 70988.04515457692, 14355.497283398783, -20969.601985168694, -29757.905573595235, 9970.375593945455, 0.064, 0.9580000000000001, 0.262, 192.0, 0.0, 0.0, 0.0, 0.0, 0.0, 0.0, 0.0, 0.0, 0.0, 1.6962752012332401E9, 0.0, 2023-10-02 15:33:21.233
132.0, 19190.73840269308, 17125.81719467845, 44401.49449127847, 71005.97125363008, 14348.50118738427, -20972.686525903526, -29748.85311709084, 9977.326986471056, 0.064, 0.9580000000000001, 0.262, 192.0, 0.0, 0.0, 0.0, 0.0, 0.0, 0.0, 0.0, 0.0, 0.0, 1.6962752012332592E9, 0.0, 2023-10-02 15:33:21.233
133.0, 19191.073678859913, 17137.060122139468, 44399.9298691666, 71012.2073903331, 14355.430228165416, -20963.701124632495, -29738.30309370793, 9990.290998255134, 0.064, 0.9580000000000001, 0.262, 192.0, 0.0, 0.0, 0.0, 0.0, 0.0, 0.0, 0.0, 0.0, 0.0, 1.6962752012332692E9, 0.0, 2023-10-02 15:33:21.233
134.0, 19189.732574192592, 17138.088302384414, 44392.91142140763, 70973.8517968478, 14354.536158387204, -20962.58353740973, -29748.383730457277, 9981.104431284002, 0.064, 0.9580000000000001, 0.262, 192.0, 0.0, 0.0, 0.0, 0.0, 0.0, 0.0, 0.0, 0.0, 0.0, 1.6962752012332792E9, 0.0, 2023-10-02 15:33:21.233
135.0, 19196.32633880691, 17138.11065412887, 44400.73453196699, 70950.2930581919, 14355.832559565612, -20962.896461832104, -29753.189355515166, 9972.409602690888, 0.064, 0.9580000000000001, 0.262, 192.0, 0.0, 0.0, 0.0, 0.0, 0.0, 0.0, 0.0, 0.0, 0.0, 1.6962752012332888E9, 0.0, 2023-10-02 15:33:21.233
136.0, 19180.791876410472, 17119.826927164428, 44405.89778493617, 70969.11322702328, 14348.814111806645, -20959.43194144153, -29741.58880014286, 9979.338643472034, 0.064, 0.9580000000000001, 0.262, 192.0, 0.0, 0.0, 0.0, 0.0, 0.0, 0.0, 0.0, 0.0, 0.0, 1.6962752012332988E9, 0.0, 2023-10-02 15:33:21.233
137.0, 19166.151483792244, 17105.544162457485, 44390.98917138448, 70971.46016019108, 14338.599364590571, -20963.81288335477, -29737.78900358546, 9985.843001108527, 0.064, 0.9580000000000001, 0.262, 192.0, 0.0, 0.0, 0.0, 0.0, 0.0, 0.0, 0.0, 0.0, 0.0, 1.6962752012333095E9, 0.0, 2023-10-02 15:33:21.233
138.0, 19176.18741705268, 17117.927028885726, 44387.45759576054, 70940.77121505394, 14346.243661194285, -20964.01404905487, -29739.755957097528, 9985.843001108527, 0.064, 0.9580000000000001, 0.262, 192.0, 0.0, 0.0, 0.0, 0.0, 0.0, 0.0, 0.0, 0.0, 0.0, 1.6962752012333317E9, 0.0, 2023-10-02 15:33:21.233
139.0, 19186.98330962459, 17133.506194771075, 44393.64902897466, 70898.70523198906, 14351.183396718909, -20968.462046201475, -29764.499338209553, 9960.809047318584, 0.07, 0.9580000000000001, 0.266, 192.0, 2.0, 48.0, 29.0, 240.0, 8.0, 80.0, 0.0, 0.0, 0.0, 1.6962752012333488E9, 0.0, 2023-10-02 15:33:21.233
140.0, 19168.900748360247, 17122.307970798967, 44403.729665724, 70920.29701713289, 14345.573108860626, -20971.703049147494, -29750.21657350261, 9974.063631780582, 0.07, 0.9580000000000001, 0.266, 192.0, 0.0, 0.0, 0.0, 0.0, 0.0, 0.0, 0.0, 0.0, 0.0, 1.6962752012333667E9, 0.0, 2023-10-02 15:33:21.233
141.0, 19165.391524480765, 17119.71516844215, 44395.861851675734, 70932.27755216093, 14345.170777460431, -20966.87507234515, -29743.533401910474, 9981.886742339939, 0.07, 0.9580000000000001, 0.266, 192.0, 0.0, 0.0, 0.0, 0.0, 0.0, 0.0, 0.0, 0.0, 0.0, 1.6962752012333808E9, 0.0, 2023-10-02 15:33:21.233
142.0, 19180.32248977691, 17134.53437501602, 44400.66747673362, 70908.1376681492, 14356.301946199173, -20956.57091815125, -29747.154384512232, 9981.797335362118, 0.07, 0.9580000000000001, 0.266, 192.0, 0.0, 0.0, 0.0, 0.0, 0.0, 0.0, 0.0, 0.0, 0.0, 1.6962752012334108E9, 0.0, 2023-10-02 15:33:21.233
143.0, 19184.144638078767, 17135.67431398324, 44407.037723903384, 70865.51289147293, 14360.571129390137, -20955.96742105096, -29771.0260475905, 9958.77503857315, 0.07, 0.9580000000000001, 0.266, 192.0, 0.0, 0.0, 0.0, 0.0, 0.0, 0.0, 0.0, 0.0, 0.0, 1.696275201233422E9, 0.0, 2023-10-02 15:33:21.233
144.0, 19176.54504496396, 17125.705435956173, 44414.01146817344, 70871.19023456458, 14356.50311189927, -20964.19286301051, -29770.735474912584, 9956.428105405344, 0.07, 0.9580000000000001, 0.266, 192.0, 0.0, 0.0, 0.0, 0.0, 0.0, 0.0, 0.0, 0.0, 0.0, 1.696275201233432E9, 0.0, 2023-10-02 15:33:21.233
145.0, 19177.193245553168, 17130.131081358326, 44407.23888960348, 70892.22322609702, 14350.155216473964, -20967.076238045247, -29757.905573595235, 9969.63798637843, 0.07, 0.9580000000000001, 0.266, 192.0, 0.0, 0.0, 0.0, 0.0, 0.0, 0.0, 0.0, 0.0, 0.0, 1.696275201233442E9, 0.0, 2023-10-02 15:33:21.233
146.0, 19180.680117688193, 17140.614049507865, 44392.73260745199, 70869.08917058578, 14348.724704828825, -20966.070409544758, -29768.14267255577, 9963.73712584223, 0.07, 0.9580000000000001, 0.266, 192.0, 0.0, 0.0, 0.0, 0.0, 0.0, 0.0, 0.0, 0.0, 0.0, 1.6962752012334516E9, 0.0, 2023-10-02 15:33:21.233
147.0, 19170.957108850136, 17140.949325674694, 44398.32054356582, 70835.69566436954, 14353.999716520277, -20958.269650729853, -29781.911347140238, 9952.427143147845, 0.07, 0.9580000000000001, 0.266, 192.0, 0.0, 0.0, 0.0, 0.0, 0.0, 0.0, 0.0, 0.0, 0.0, 1.6962752012334611E9, 0.0, 2023-10-02 15:33:21.233
148.0, 19165.302117502943, 17141.798691963995, 44405.450750047065, 70836.99206554795, 14351.295155441185, -20957.24147048491, -29781.374905273307, 9953.142398970414, 0.07, 0.9580000000000001, 0.266, 192.0, 0.0, 0.0, 0.0, 0.0, 0.0, 0.0, 0.0, 0.0, 0.0, 1.696275201233471E9, 0.0, 2023-10-02 15:33:21.233
149.0, 19155.4226464537, 17129.72874995813, 44398.812281943836, 70857.66742916912, 14345.528405371715, -20959.275479230342, -29776.837501148882, 9960.786695574128, 0.074, 0.9580000000000001, 0.264, 192.0, 2.0, 80.0, 29.0, 240.0, 8.0, 64.0, 0.0, 0.0, 0.0, 1.6962752012334805E9, 0.0, 2023-10-02 15:33:21.233
150.0, 19153.16512026371, 17118.843450408396, 44383.52368873641, 70846.78212961939, 14342.488568125793, -20963.72347637695, -29783.341858785378, 9959.467942651265, 0.074, 0.9580000000000001, 0.264, 192.0, 0.0, 0.0, 0.0, 0.0, 0.0, 0.0, 0.0, 0.0, 0.0, 1.696275201233491E9, 0.0, 2023-10-02 15:33:21.233
151.0, 19159.26714650001, 17126.4430435232, 44388.30696204984, 70819.93768452856, 14340.543966358182, -20964.95282232199, -29787.678097209704, 9956.808085061084, 0.074, 0.9580000000000001, 0.264, 192.0, 0.0, 0.0, 0.0, 0.0, 0.0, 0.0, 0.0, 0.0, 0.0, 1.6962752012335007E9, 0.0, 2023-10-02 15:33:21.233
152.0, 19171.515902461517, 17130.131081358326, 44391.86088941823, 70825.74913808693, 14333.033780221198, -20966.696258389504, -29779.117379083324, 9961.457247907789, 0.074, 0.9580000000000001, 0.264, 192.0, 0.0, 0.0, 0.0, 0.0, 0.0, 0.0, 0.0, 0.0, 0.0, 1.6962752012335105E9, 0.0, 2023-10-02 15:33:21.233
153.0, 19172.342917006365, 17125.884249911815, 44388.64223821667, 70850.73838838797, 14333.637277321492, -20967.43386595653, -29771.40602724624, 9967.983957288738, 0.074, 0.9580000000000001, 0.264, 192.0, 0.0, 0.0, 0.0, 0.0, 0.0, 0.0, 0.0, 0.0, 0.0, 1.6962752012335207E9, 0.0, 2023-10-02 15:33:21.233
154.0, 19171.940585606168, 17125.750139445085, 44372.7724996534, 70845.44102495206, 14334.665457566436, -20966.87507234515, -29774.401161003254, 9967.291053210623, 0.074, 0.9580000000000001, 0.264, 192.0, 0.0, 0.0, 0.0, 0.0, 0.0, 0.0, 0.0, 0.0, 0.0, 1.6962752012335331E9, 0.0, 2023-10-02 15:33:21.233
155.0, 19165.682097158682, 17116.518868985044, 44369.30797926283, 70825.14564098664, 14333.681980810403, -20968.015011312367, -29771.4283789907, 9969.056841022593, 0.074, 0.9580000000000001, 0.264, 192.0, 0.0, 0.0, 0.0, 0.0, 0.0, 0.0, 0.0, 0.0, 0.0, 1.696275201233543E9, 0.0, 2023-10-02 15:33:21.233
156.0, 19180.188379310177, 17126.66656096775, 44374.44888048755, 70810.37113790169, 14341.326277414117, -20965.802188611295, -29777.9774401161, 9958.3503554285, 0.074, 0.9580000000000001, 0.264, 192.0, 0.0, 0.0, 0.0, 0.0, 0.0, 0.0, 0.0, 0.0, 0.0, 1.6962752012335534E9, 0.0, 2023-10-02 15:33:21.233
157.0, 19189.218484070123, 17132.746235459595, 44382.80843291384, 70830.46535616701, 14337.92881225691, -20963.969345565958, -29775.250527292555, 9960.809047318584, 0.074, 0.9580000000000001, 0.264, 192.0, 0.0, 0.0, 0.0, 0.0, 0.0, 0.0, 0.0, 0.0, 0.0, 1.6962752012335732E9, 0.0, 2023-10-02 15:33:21.233
158.0, 19182.1776845667, 17121.52565974303, 44375.83468864378, 70832.85699282373, 14329.41279761944, -20973.133560792634, -29772.344800513365, 9966.017003776671, 0.074, 0.9580000000000001, 0.264, 192.0, 0.0, 0.0, 0.0, 0.0, 0.0, 0.0, 0.0, 0.0, 0.0, 1.6962752012335832E9, 0.0, 2023-10-02 15:33:21.233
159.0, 19188.167952080723, 17130.019322636046, 44371.118470563706, 70802.19039943104, 14327.669361551925, -20979.123828306656, -29780.972573873114, 9958.484465895232, 0.076, 0.964, 0.264, 192.0, 2.0, 96.0, 30.0, 32.0, 8.0, 64.0, 0.0, 0.0, 0.0, 1.6962752012335927E9, 0.0, 2023-10-02 15:33:21.233
160.0, 19203.52360052152, 17148.526567045043, 44383.143709080665, 70796.1107249392, 14333.011428476744, -20969.736095635428, -29776.524576726508, 9959.4008874179, 0.076, 0.964, 0.264, 192.0, 0.0, 0.0, 0.0, 0.0, 0.0, 0.0, 0.0, 0.0, 0.0, 1.6962752012336037E9, 0.0, 2023-10-02 15:33:21.233
161.0, 19198.42740278571, 17138.82590995144, 44385.44593875956, 70817.05430949382, 14327.35643712955, -20974.765238137872, -29770.489605723575, 9961.524303141154, 0.076, 0.964, 0.264, 192.0, 0.0, 0.0, 0.0, 0.0, 0.0, 0.0, 0.0, 0.0, 0.0, 1.6962752012336144E9, 0.0, 2023-10-02 15:33:21.233
162.0, 19205.17762961121, 17147.2972211, 44384.127185836696, 70836.27680972539, 14329.882184253, -20975.458142215986, -29761.16892828571, 9970.196779989814, 0.076, 0.964, 0.264, 192.0, 0.0, 0.0, 0.0, 0.0, 0.0, 0.0, 0.0, 0.0, 0.0, 1.6962752012336247E9, 0.0, 2023-10-02 15:33:21.233
163.0, 19209.357405824354, 17146.20198562169, 44380.05916834583, 70808.06890822279, 14336.587707589593, -20971.792456125317, -29773.685905180682, 9960.093791496014, 0.076, 0.964, 0.264, 192.0, 0.0, 0.0, 0.0, 0.0, 0.0, 0.0, 0.0, 0.0, 0.0, 1.6962752012336347E9, 0.0, 2023-10-02 15:33:21.233
164.0, 19212.665464003738, 17145.5984885214, 44386.94350563807, 70790.94747197002, 14346.154254216464, -20971.077200302745, -29774.915251125727, 9954.77407631565, 0.076, 0.964, 0.264, 192.0, 0.0, 0.0, 0.0, 0.0, 0.0, 0.0, 0.0, 0.0, 0.0, 1.6962752012336445E9, 0.0, 2023-10-02 15:33:21.233
165.0, 19215.079452404912, 17143.653886753786, 44397.67234297661, 70819.69181533955, 14347.160082716953, -20966.137464778123, -29758.531422439984, 9966.151114243403, 0.076, 0.964, 0.264, 192.0, 0.0, 0.0, 0.0, 0.0, 0.0, 0.0, 0.0, 0.0, 0.0, 1.6962752012336545E9, 0.0, 2023-10-02 15:33:21.233
166.0, 19228.848126989382, 17159.97066020616, 44399.05815113284, 70831.64999862314, 14356.816036321645, -20958.2472989854, -29766.734512655083, 9964.430029920344, 0.076, 0.964, 0.264, 192.0, 0.0, 0.0, 0.0, 0.0, 0.0, 0.0, 0.0, 0.0, 0.0, 1.696275201233664E9, 0.0, 2023-10-02 15:33:21.233
167.0, 19228.289333377998, 17160.95413696219, 44391.77148244041, 70813.52273386989, 14356.301946199173, -20958.761389107873, -29779.36324827233, 9960.809047318584, 0.076, 0.964, 0.264, 192.0, 0.0, 0.0, 0.0, 0.0, 0.0, 0.0, 0.0, 0.0, 0.0, 1.6962752012336736E9, 0.0, 2023-10-02 15:33:21.233
168.0, 19224.981275198614, 17148.280697856033, 44387.9269823941, 70797.92121624008, 14352.569204875137, -20963.164682765568, -29777.03866684898, 9963.49125665322, 0.076, 0.964, 0.264, 192.0, 0.0, 0.0, 0.0, 0.0, 0.0, 0.0, 0.0, 0.0, 0.0, 1.696275201233683E9, 0.0, 2023-10-02 15:33:21.233
169.0, 19219.862725718347, 17138.15535761778, 44383.009598613935, 70810.4605448795, 14341.594498347582, -20968.037363056825, -29768.9249836117, 9968.185122988836, 0.07, 0.9560000000000001, 0.258, 192.0, 2.0, 48.0, 29.0, 224.0, 8.0, 16.0, 0.0, 0.0, 0.0, 1.696275201233693E9, 0.0, 2023-10-02 15:33:21.233
170.0, 19213.112498892846, 17132.902697670783, 44372.39251999766, 70824.76566133091, 14337.21355643434, -20969.378467724142, -29774.378809258797, 9968.11806775547, 0.07, 0.9560000000000001, 0.258, 192.0, 0.0, 0.0, 0.0, 0.0, 0.0, 0.0, 0.0, 0.0, 0.0, 1.6962752012337031E9, 0.0, 2023-10-02 15:33:21.233
171.0, 19207.815135456938, 17136.188404105713, 44373.10777582023, 70820.69764384003, 14343.941431515388, -20963.63406939913, -29771.003695846048, 9978.064594038082, 0.07, 0.9560000000000001, 0.258, 192.0, 0.0, 0.0, 0.0, 0.0, 0.0, 0.0, 0.0, 0.0, 0.0, 1.696275201233713E9, 0.0, 2023-10-02 15:33:21.233
172.0, 19198.89678941927, 17127.67238946824, 44372.43722348657, 70802.19039943104, 14337.16885294543, -20968.462046201475, -29764.521689954006, 9981.126783028458, 0.07, 0.9560000000000001, 0.258, 192.0, 0.0, 0.0, 0.0, 0.0, 0.0, 0.0, 0.0, 0.0, 0.0, 1.6962752012337227E9, 0.0, 2023-10-02 15:33:21.233
173.0, 19211.74904248107, 17137.95419191768, 44384.685979448084, 70803.64326282064, 14346.802454805667, -20961.95768856498, -29762.890012608772, 9979.249236494212, 0.07, 0.9560000000000001, 0.258, 192.0, 0.0, 0.0, 0.0, 0.0, 0.0, 0.0, 0.0, 0.0, 0.0, 1.696275201233742E9, 0.0, 2023-10-02 15:33:21.233
174.0, 19213.693644248684, 17132.81329069296, 44387.09996784925, 70822.77635607438, 14347.31654492814, -20962.67294438755, -29762.264163764023, 9982.64670165142, 0.07, 0.9560000000000001, 0.258, 192.0, 0.0, 0.0, 0.0, 0.0, 0.0, 0.0, 0.0, 0.0, 0.0, 1.6962752012337534E9, 0.0, 2023-10-02 15:33:21.233
175.0, 19222.835507730902, 17142.849223953395, 44383.38957826967, 70819.468297895, 14352.256280452762, -20959.968383308456, -29761.817128874914, 9987.318216242578, 0.07, 0.9560000000000001, 0.258, 192.0, 0.0, 0.0, 0.0, 0.0, 0.0, 0.0, 0.0, 0.0, 0.0, 1.6962752012337651E9, 0.0, 2023-10-02 15:33:21.233
176.0, 19230.099824678877, 17151.432293824233, 44385.60240097075, 70786.14184691213, 14360.191149734397, -20959.92367981955, -29777.59746046036, 9971.426125934855, 0.07, 0.9560000000000001, 0.258, 192.0, 0.0, 0.0, 0.0, 0.0, 0.0, 0.0, 0.0, 0.0, 0.0, 1.696275201233775E9, 0.0, 2023-10-02 15:33:21.233
177.0, 19223.90839146476, 17149.554747289985, 44396.711217965036, 70783.57139629977, 14354.580861876115, -20961.91298507607, -29780.167911072724, 9967.000480532704, 0.07, 0.9560000000000001, 0.258, 192.0, 0.0, 0.0, 0.0, 0.0, 0.0, 0.0, 0.0, 0.0, 0.0, 1.696275201233785E9, 0.0, 2023-10-02 15:33:21.233
178.0, 19222.90256296427, 17150.337058345922, 44397.73939820998, 70810.30408266831, 14346.713047827847, -20967.81384561227, -29768.9249836117, 9979.562160916586, 0.07, 0.9560000000000001, 0.258, 192.0, 0.0, 0.0, 0.0, 0.0, 0.0, 0.0, 0.0, 0.0, 0.0, 1.6962752012337952E9, 0.0, 2023-10-02 15:33:21.233
179.0, 19229.786900256506, 17153.35454384739, 44389.8268806728, 70810.0135099904, 14349.328201929118, -20966.763313622872, -29768.94733535616, 9983.898399340917, 0.064, 0.9500000000000001, 0.258, 192.0, 2.0, 0.0, 29.0, 176.0, 8.0, 16.0, 0.0, 0.0, 0.0, 1.6962752012338057E9, 0.0, 2023-10-02 15:33:21.233
180.0, 19224.266019376042, 17143.408017564776, 44391.033874873385, 70779.57043404227, 14354.871434554034, -20963.56701416576, -29781.017277362025, 9974.823591092061, 0.064, 0.9500000000000001, 0.258, 192.0, 0.0, 0.0, 0.0, 0.0, 0.0, 0.0, 0.0, 0.0, 0.0, 1.6962752012338169E9, 0.0, 2023-10-02 15:33:21.233
181.0, 19226.367083354842, 17144.59266002091, 44401.382732556194, 70775.7035822515, 14358.827693322623, -20962.225909498444, -29778.60328896085, 9972.700175368807, 0.064, 0.9500000000000001, 0.258, 192.0, 0.0, 0.0, 0.0, 0.0, 0.0, 0.0, 0.0, 0.0, 0.0, 1.6962752012338269E9, 0.0, 2023-10-02 15:33:21.233
182.0, 19234.99485671459, 17148.526567045043, 44396.04066563138, 70801.0057569749, 14351.004582763266, -20969.043191557314, -29770.89193712377, 9974.890646325428, 0.064, 0.9500000000000001, 0.258, 192.0, 0.0, 0.0, 0.0, 0.0, 0.0, 0.0, 0.0, 0.0, 0.0, 1.696275201233837E9, 0.0, 2023-10-02 15:33:21.233
183.0, 19239.018170716547, 17151.074665912947, 44384.01542711442, 70798.54706508483, 14343.36028615955, -20973.04415381481, -29778.60328896085, 9966.531093899142, 0.064, 0.9500000000000001, 0.258, 192.0, 0.0, 0.0, 0.0, 0.0, 0.0, 0.0, 0.0, 0.0, 0.0, 1.6962752012338464E9, 0.0, 2023-10-02 15:33:21.233
184.0, 19236.604182315372, 17151.566404290963, 44388.64223821667, 70765.1535588686, 14347.629469350513, -20969.378467724142, -29797.26699558103, 9949.25319543519, 0.064, 0.9500000000000001, 0.258, 192.0, 0.0, 0.0, 0.0, 0.0, 0.0, 0.0, 0.0, 0.0, 0.0, 1.696275201233856E9, 0.0, 2023-10-02 15:33:21.233
185.0, 19216.88994370579, 17133.752063960084, 44397.962915654534, 70764.05832339029, 14336.654762822958, -20975.43579047153, -29783.632431463295, 9958.439762406322, 0.064, 0.9500000000000001, 0.258, 192.0, 0.0, 0.0, 0.0, 0.0, 0.0, 0.0, 0.0, 0.0, 0.0, 1.6962752012338655E9, 0.0, 2023-10-02 15:33:21.233
186.0, 19220.779147241014, 17135.696665727697, 44401.02510464491, 70784.7560387559, 14333.771387788223, -20975.815770127272, -29773.820015647416, 9966.665204365874, 0.064, 0.9500000000000001, 0.258, 192.0, 0.0, 0.0, 0.0, 0.0, 0.0, 0.0, 0.0, 0.0, 0.0, 1.696275201233876E9, 0.0, 2023-10-02 15:33:21.233
187.0, 19221.069719918934, 17140.85991869687, 44401.49449127847, 70808.49359136744, 14336.610059334047, -20972.038325314323, -29757.79381487296, 9984.032509807648, 0.064, 0.9500000000000001, 0.258, 192.0, 0.0, 0.0, 0.0, 0.0, 0.0, 0.0, 0.0, 0.0, 0.0, 1.6962752012338858E9, 0.0, 2023-10-02 15:33:21.233
188.0, 19210.162068624744, 17151.879328713338, 44393.98430514149, 70792.86972199318, 14342.913251270444, -20967.277403745342, -29754.329294482388, 9988.011120320692, 0.064, 0.9500000000000001, 0.258, 192.0, 0.0, 0.0, 0.0, 0.0, 0.0, 0.0, 0.0, 0.0, 0.0, 1.6962752012339144E9, 0.0, 2023-10-02 15:33:21.233
189.0, 19214.81123147145, 17164.329250374944, 44397.44882553206, 70754.38001804113, 14349.015277506744, -20966.897424089602, -29780.23496630609, 9962.30661419709, 0.068, 0.9540000000000001, 0.258, 192.0, 2.0, 32.0, 29.0, 208.0, 8.0, 16.0, 0.0, 0.0, 0.0, 1.6962752012339718E9, 0.0, 2023-10-02 15:33:21.233
190.0, 19206.94341742318, 17153.57806129194, 44406.97066867002, 70769.51214903739, 14340.02987623571, -20967.456217700987, -29776.301059281956, 9965.279396209646, 0.068, 0.9540000000000001, 0.258, 192.0, 0.0, 0.0, 0.0, 0.0, 0.0, 0.0, 0.0, 0.0, 0.0, 1.6962752012339833E9, 0.0, 2023-10-02 15:33:21.233
191.0, 19203.367138310332, 17146.492558299607, 44407.46240704804, 70799.28467265185, 14338.353495401561, -20965.690429889015, -29759.06786430691, 9983.429012707355, 0.068, 0.9540000000000001, 0.258, 192.0, 0.0, 0.0, 0.0, 0.0, 0.0, 0.0, 0.0, 0.0, 0.0, 1.6962752012339935E9, 0.0, 2023-10-02 15:33:21.233
192.0, 19208.17276336822, 17150.180596134735, 44395.50422376445, 70782.05147767681, 14341.50509136976, -20963.9469938215, -29759.045512562458, 9984.390137718932, 0.068, 0.9540000000000001, 0.258, 192.0, 0.0, 0.0, 0.0, 0.0, 0.0, 0.0, 0.0, 0.0, 0.0, 1.6962752012340047E9, 0.0, 2023-10-02 15:33:21.234
193.0, 19212.33018783691, 17155.120331659356, 44398.45465403255, 70757.64337273162, 14340.946297758377, -20963.38820021012, -29760.11839629631, 9981.015024306182, 0.068, 0.9540000000000001, 0.258, 192.0, 0.0, 0.0, 0.0, 0.0, 0.0, 0.0, 0.0, 0.0, 0.0, 1.6962752012340152E9, 0.0, 2023-10-02 15:33:21.234
194.0, 19203.545952265973, 17146.850186210893, 44404.08729363529, 70769.02041065937, 14335.157195944454, -20971.18895902502, -29754.195184015654, 9983.652530151909, 0.068, 0.9540000000000001, 0.258, 192.0, 0.0, 0.0, 0.0, 0.0, 0.0, 0.0, 0.0, 0.0, 0.0, 1.6962752012340257E9, 0.0, 2023-10-02 15:33:21.234
195.0, 19200.2825975755, 17141.1951948637, 44404.467273291026, 70793.09323943773, 14336.945335500877, -20967.52327293435, -29745.165079255712, 9993.822573879073, 0.068, 0.9540000000000001, 0.258, 192.0, 0.0, 0.0, 0.0, 0.0, 0.0, 0.0, 0.0, 0.0, 0.0, 1.6962752012340367E9, 0.0, 2023-10-02 15:33:21.234
196.0, 19190.26901605952, 17133.10386337088, 44394.20782258604, 70781.44798057651, 14329.099873197065, -20971.121903791656, -29746.059149033925, 9996.12480355797, 0.068, 0.9540000000000001, 0.258, 192.0, 0.0, 0.0, 0.0, 0.0, 0.0, 0.0, 0.0, 0.0, 0.0, 1.6962752012340488E9, 0.0, 2023-10-02 15:33:21.234
197.0, 19182.73647817808, 17128.409997035265, 44394.40898828614, 70761.01848614437, 14319.376864359007, -20980.219063784967, -29737.654893118728, 9998.069405325581, 0.068, 0.9540000000000001, 0.258, 192.0, 0.0, 0.0, 0.0, 0.0, 0.0, 0.0, 0.0, 0.0, 0.0, 1.696275201234059E9, 0.0, 2023-10-02 15:33:21.234
198.0, 19192.526542249507, 17140.949325674694, 44406.83655820329, 70751.94367789551, 14324.763634772735, -20978.945014351015, -29743.93573331067, 9985.820649364072, 0.068, 0.9540000000000001, 0.258, 192.0, 0.0, 0.0, 0.0, 0.0, 0.0, 0.0, 0.0, 0.0, 0.0, 1.6962752012340696E9, 0.0, 2023-10-02 15:33:21.234
199.0, 19197.153353351754, 17146.604317021887, 44417.29717460837, 70768.64043100363, 14336.654762822958, -20970.67486890255, -29749.65777989123, 9981.752631873207, 0.076, 0.9520000000000001, 0.256, 192.0, 2.0, 96.0, 29.0, 192.0, 8.0, 0.0, 0.0, 0.0, 0.0, 1.6962752012340796E9, 0.0, 2023-10-02 15:33:21.234
200.0, 19194.314681805932, 17144.10092164289, 44403.3273343238, 70747.6521429601, 14333.771387788223, -20972.23949101442, -29768.857928378337, 9966.933425299338, 0.076, 0.9520000000000001, 0.256, 192.0, 0.0, 0.0, 0.0, 0.0, 0.0, 0.0, 0.0, 0.0, 0.0, 1.6962752012340903E9, 0.0, 2023-10-02 15:33:21.234
201.0, 19204.104745877357, 17152.371067091353, 44414.83848271829, 70709.40830819706, 14346.869510039034, -20962.985868809923, -29786.314640797933, 9951.331907669533, 0.076, 0.9520000000000001, 0.256, 192.0, 0.0, 0.0, 0.0, 0.0, 0.0, 0.0, 0.0, 0.0, 0.0, 1.6962752012341013E9, 0.0, 2023-10-02 15:33:21.234
202.0, 19196.52750450701, 17147.565442033465, 44430.41764860364, 70706.16730525105, 14344.053190237664, -20966.763313622872, -29787.633393720796, 9948.806160546084, 0.076, 0.9520000000000001, 0.256, 192.0, 0.0, 0.0, 0.0, 0.0, 0.0, 0.0, 0.0, 0.0, 0.0, 1.6962752012341115E9, 0.0, 2023-10-02 15:33:21.234
203.0, 19186.759792180037, 17137.77537796204, 44432.69752653808, 70754.29061106332, 14332.87731801001, -20973.848816615202, -29745.902686822737, 9984.457192952299, 0.076, 0.9520000000000001, 0.256, 192.0, 0.0, 0.0, 0.0, 0.0, 0.0, 0.0, 0.0, 0.0, 0.0, 1.6962752012341225E9, 0.0, 2023-10-02 15:33:21.234
204.0, 19186.871550902313, 17136.210755850167, 44417.45363681956, 70757.08457912023, 14326.440015606882, -20978.654441673094, -29734.011558772512, 9996.393024491434, 0.076, 0.9520000000000001, 0.256, 192.0, 0.0, 0.0, 0.0, 0.0, 0.0, 0.0, 0.0, 0.0, 0.0, 1.696275201234149E9, 0.0, 2023-10-02 15:33:21.234
205.0, 19195.633434728796, 17145.799654221493, 44407.01537215893, 70703.12746800513, 14323.377826616506, -20977.76037189488, -29767.13684405528, 9965.59232063202, 0.076, 0.9520000000000001, 0.256, 192.0, 0.0, 0.0, 0.0, 0.0, 0.0, 0.0, 0.0, 0.0, 0.0, 1.6962752012341592E9, 0.0, 2023-10-02 15:33:21.234
206.0, 19187.139771835777, 17137.52950877303, 44425.41085784565, 70704.35681395016, 14321.634390548992, -20974.87699686015, -29754.21753576011, 9973.482486424744, 0.076, 0.9520000000000001, 0.256, 192.0, 0.0, 0.0, 0.0, 0.0, 0.0, 0.0, 0.0, 0.0, 0.0, 1.6962752012341712E9, 0.0, 2023-10-02 15:33:21.234
207.0, 19180.255434543542, 17132.67918022623, 44426.32727936832, 70727.15559329458, 14316.202916646353, -20977.71566840597, -29742.929904810182, 9977.952835315804, 0.076, 0.9520000000000001, 0.256, 192.0, 0.0, 0.0, 0.0, 0.0, 0.0, 0.0, 0.0, 0.0, 0.0, 1.696275201234182E9, 0.0, 2023-10-02 15:33:21.234
208.0, 19185.17281832371, 17141.977505919636, 44420.5828810433, 70716.15853502257, 14316.851117235556, -20974.49701720441, -29760.94541084116, 9964.83236132054, 0.076, 0.9520000000000001, 0.256, 192.0, 0.0, 0.0, 0.0, 0.0, 0.0, 0.0, 0.0, 0.0, 0.0, 1.696275201234193E9, 0.0, 2023-10-02 15:33:21.234
209.0, 19200.304949319954, 17154.40507583679, 44426.059058434854, 70676.23831942539, 14326.395312117973, -20967.43386595653, -29788.50511175455, 9945.54280585561, 0.078, 0.9520000000000001, 0.252, 192.0, 2.0, 112.0, 29.0, 192.0, 7.0, 224.0, 0.0, 0.0, 0.0, 1.6962752012342055E9, 0.0, 2023-10-02 15:33:21.234
210.0, 19198.56151325244, 17152.63928802482, 44439.82773301932, 70666.29179314278, 14328.02698946321, -20965.06458104427, -29788.46040826564, 9947.375648900945, 0.078, 0.9520000000000001, 0.252, 192.0, 0.0, 0.0, 0.0, 0.0, 0.0, 0.0, 0.0, 0.0, 0.0, 1.6962752012342176E9, 0.0, 2023-10-02 15:33:21.234
211.0, 19186.200998568656, 17141.30695358598, 44448.65667207917, 70707.53076166281, 14322.170832415919, -20970.741924135917, -29756.65387590574, 9978.198704504814, 0.078, 0.9520000000000001, 0.252, 192.0, 0.0, 0.0, 0.0, 0.0, 0.0, 0.0, 0.0, 0.0, 0.0, 1.696275201234228E9, 0.0, 2023-10-02 15:33:21.234
212.0, 19189.03967011448, 17140.77051171905, 44436.474971351025, 70734.95635210948, 14321.45557659335, -20974.34055499322, -29732.201067471633, 10001.802146649617, 0.078, 0.9520000000000001, 0.252, 192.0, 0.0, 0.0, 0.0, 0.0, 0.0, 0.0, 0.0, 0.0, 0.0, 1.696275201234238E9, 0.0, 2023-10-02 15:33:21.234
213.0, 19194.09116436138, 17142.513947786563, 44427.69073578009, 70695.43846791249, 14323.176660916408, -20975.368735238164, -29756.519765439007, 9981.104431284002, 0.078, 0.9520000000000001, 0.252, 192.0, 0.0, 0.0, 0.0, 0.0, 0.0, 0.0, 0.0, 0.0, 0.0, 1.6962752012342653E9, 0.0, 2023-10-02 15:33:21.234
214.0, 19191.721879449116, 17137.931840173227, 44437.41374461815, 70665.71064778694, 14325.59064931758, -20974.899348604602, -29771.830710390892, 9965.279396209646, 0.078, 0.9520000000000001, 0.252, 192.0, 0.0, 0.0, 0.0, 0.0, 0.0, 0.0, 0.0, 0.0, 0.0, 1.696275201234275E9, 0.0, 2023-10-02 15:33:21.234
215.0, 19180.724821177104, 17125.973656889637, 44447.248512178485, 70689.51525563184, 14322.573163816114, -20974.92170034906, -29755.55864042743, 9977.282282982145, 0.078, 0.9520000000000001, 0.252, 192.0, 0.0, 0.0, 0.0, 0.0, 0.0, 0.0, 0.0, 0.0, 0.0, 1.6962752012342856E9, 0.0, 2023-10-02 15:33:21.234
216.0, 19198.405051041253, 17143.005686164583, 44440.386526630704, 70698.36654643614, 14328.541079585682, -20967.612679912174, -29765.616925432318, 9970.979091045749, 0.078, 0.9520000000000001, 0.252, 192.0, 0.0, 0.0, 0.0, 0.0, 0.0, 0.0, 0.0, 0.0, 0.0, 1.6962752012342951E9, 0.0, 2023-10-02 15:33:21.234
217.0, 19196.102821362358, 17142.73746523112, 44440.475933608526, 70688.95646202046, 14323.467233594327, -20972.351249736697, -29768.723817911607, 9971.917864312873, 0.078, 0.9520000000000001, 0.252, 192.0, 0.0, 0.0, 0.0, 0.0, 0.0, 0.0, 0.0, 0.0, 0.0, 1.6962752012343051E9, 0.0, 2023-10-02 15:33:21.234
218.0, 19184.390507267777, 17132.85799418187, 44437.01141321795, 70668.99635422186, 14306.21168687483, -20985.561130709786, -29766.309829510432, 9969.660338122885, 0.078, 0.9520000000000001, 0.252, 192.0, 0.0, 0.0, 0.0, 0.0, 0.0, 0.0, 0.0, 0.0, 0.0, 1.696275201234317E9, 0.0, 2023-10-02 15:33:21.234
219.0, 19183.13880957828, 17134.467319782652, 44446.354442400276, 70675.59011883619, 14303.440070562372, -20979.906139362593, -29767.159195799733, 9966.017003776671, 0.078, 0.9580000000000001, 0.254, 192.0, 2.0, 112.0, 29.0, 240.0, 7.0, 240.0, 0.0, 0.0, 0.0, 1.6962752012343266E9, 0.0, 2023-10-02 15:33:21.234
220.0, 19193.264149816532, 17145.911412943773, 44447.539084856406, 70685.42488639652, 14311.464346821827, -20970.943089836015, -29773.931774369692, 9962.574835130554, 0.078, 0.9580000000000001, 0.254, 192.0, 0.0, 0.0, 0.0, 0.0, 0.0, 0.0, 0.0, 0.0, 0.0, 1.696275201234351E9, 0.0, 2023-10-02 15:33:21.234
221.0, 19185.999832868558, 17139.071779140446, 44437.97253822953, 70672.34911589016, 14306.055224663643, -20980.710802162983, -29776.41281800423, 9961.747820585708, 0.078, 0.9580000000000001, 0.254, 192.0, 0.0, 0.0, 0.0, 0.0, 0.0, 0.0, 0.0, 0.0, 0.0, 1.6962752012343607E9, 0.0, 2023-10-02 15:33:21.234
222.0, 19179.562530465428, 17131.539241259008, 44453.35053841479, 70669.1304646886, 14317.812242247135, -20976.441618972018, -29748.964875813115, 9984.837172608039, 0.078, 0.9580000000000001, 0.254, 192.0, 0.0, 0.0, 0.0, 0.0, 0.0, 0.0, 0.0, 0.0, 0.0, 1.6962752012343903E9, 0.0, 2023-10-02 15:33:21.234
223.0, 19181.574187466405, 17130.354598802878, 44459.81019256237, 70677.46766537042, 14320.44974809286, -20978.945014351015, -29732.424584916185, 9994.671940168375, 0.078, 0.9580000000000001, 0.254, 192.0, 0.0, 0.0, 0.0, 0.0, 0.0, 0.0, 0.0, 0.0, 0.0, 1.6962752012344005E9, 0.0, 2023-10-02 15:33:21.234
224.0, 19187.27388230251, 17135.92018317225, 44462.4476984081, 70690.65519459906, 14326.998809218267, -20968.998488068402, -29737.45372741863, 9991.83326862255, 0.078, 0.9580000000000001, 0.254, 192.0, 0.0, 0.0, 0.0, 0.0, 0.0, 0.0, 0.0, 0.0, 0.0, 1.6962752012344108E9, 0.0, 2023-10-02 15:33:21.234
225.0, 19195.70048996216, 17146.604317021887, 44464.54876238689, 70679.97106074942, 14339.135806457498, -20960.929508320038, -29744.405119944233, 9988.994597076726, 0.078, 0.9580000000000001, 0.254, 192.0, 0.0, 0.0, 0.0, 0.0, 0.0, 0.0, 0.0, 0.0, 0.0, 1.6962752012344236E9, 0.0, 2023-10-02 15:33:21.234
226.0, 19197.689795218685, 17146.82783446644, 44466.78393683242, 70641.48135679739, 14342.533271614704, -20963.58936591022, -29762.890012608772, 9973.147210257914, 0.078, 0.9580000000000001, 0.254, 192.0, 0.0, 0.0, 0.0, 0.0, 0.0, 0.0, 0.0, 0.0, 0.0, 1.6962752012344344E9, 0.0, 2023-10-02 15:33:21.234
227.0, 19182.69177468917, 17131.740406959107, 44475.36700670326, 70653.21602263642, 14334.21842267733, -20970.20548226899, -29741.924076309693, 9991.207419777802, 0.078, 0.9580000000000001, 0.254, 192.0, 0.0, 0.0, 0.0, 0.0, 0.0, 0.0, 0.0, 0.0, 0.0, 1.6962752012344456E9, 0.0, 2023-10-02 15:33:21.234
228.0, 19188.011489869536, 17137.551860517488, 44481.223163750554, 70686.22954919691, 14333.145538943476, -20964.282269988333, -29725.02615750148, 10007.904172885916, 0.078, 0.9580000000000001, 0.254, 192.0, 0.0, 0.0, 0.0, 0.0, 0.0, 0.0, 0.0, 0.0, 0.0, 1.696275201234456E9, 0.0, 2023-10-02 15:33:21.234
229.0, 19187.989138125078, 17138.043598895503, 44475.076434025344, 70681.7815520503, 14325.83651850659, -20962.360019965177, -29733.341006438855, 10005.132556573459, 0.076, 0.962, 0.25, 192.0, 2.0, 96.0, 30.0, 16.0, 7.0, 208.0, 0.0, 0.0, 0.0, 1.6962752012344668E9, 0.0, 2023-10-02 15:33:21.234
230.0, 19180.970690366114, 17131.40513079228, 44464.77227983144, 70641.90603994204, 14313.587762545081, -20974.362906737675, -29756.85504160584, 9985.015986563682, 0.076, 0.962, 0.25, 192.0, 0.0, 0.0, 0.0, 0.0, 0.0, 0.0, 0.0, 0.0, 0.0, 1.6962752012344785E9, 0.0, 2023-10-02 15:33:21.234
231.0, 19182.959995622638, 17136.68014248373, 44472.95301830209, 70628.83026943568, 14313.833631734089, -20974.899348604602, -29766.55569869944, 9973.638948635931, 0.076, 0.962, 0.25, 192.0, 0.0, 0.0, 0.0, 0.0, 0.0, 0.0, 0.0, 0.0, 0.0, 1.6962752012344885E9, 0.0, 2023-10-02 15:33:21.234
232.0, 19170.55477744994, 17128.499404013088, 44476.66340788167, 70667.90111874355, 14305.183506629886, -20978.453275972995, -29742.192297243157, 9994.64958842392, 0.076, 0.962, 0.25, 192.0, 0.0, 0.0, 0.0, 0.0, 0.0, 0.0, 0.0, 0.0, 0.0, 1.6962752012344997E9, 0.0, 2023-10-02 15:33:21.234
233.0, 19176.299175774955, 17130.33224705842, 44463.16295423066, 70674.31606940224, 14310.123242154508, -20975.27932826034, -29741.16411699821, 9999.49991697072, 0.076, 0.962, 0.25, 192.0, 0.0, 0.0, 0.0, 0.0, 0.0, 0.0, 0.0, 0.0, 0.0, 1.69627520123451E9, 0.0, 2023-10-02 15:33:21.234
234.0, 19193.08533586089, 17140.077607640935, 44469.622608378246, 70629.90315316954, 14330.12805344201, -20963.656421143583, -29774.93760287018, 9977.550503915609, 0.076, 0.962, 0.25, 192.0, 0.0, 0.0, 0.0, 0.0, 0.0, 0.0, 0.0, 0.0, 0.0, 1.6962752012345297E9, 0.0, 2023-10-02 15:33:21.234
235.0, 19188.100896847358, 17129.616991235853, 44486.02878880844, 70618.72728094188, 14329.546908086171, -20967.00918281188, -29777.306887782444, 9976.947006815315, 0.076, 0.962, 0.25, 192.0, 0.0, 0.0, 0.0, 0.0, 0.0, 0.0, 0.0, 0.0, 0.0, 1.6962752012346065E9, 0.0, 2023-10-02 15:33:21.234
236.0, 19194.1805713392, 17130.75693020307, 44494.27658251245, 70652.50076681386, 14326.64118130698, -20968.171473523555, -29755.066902049413, 9996.862411124994, 0.076, 0.962, 0.25, 192.0, 0.0, 0.0, 0.0, 0.0, 0.0, 0.0, 0.0, 0.0, 0.0, 1.6962752012346313E9, 0.0, 2023-10-02 15:33:21.234
237.0, 19191.073678859913, 17126.465395267653, 44478.0492160379, 70660.70385702894, 14316.493489324272, -20979.034421328834, -29755.156309027236, 9998.315274514589, 0.076, 0.962, 0.25, 192.0, 0.0, 0.0, 0.0, 0.0, 0.0, 0.0, 0.0, 0.0, 0.0, 1.6962752012346528E9, 0.0, 2023-10-02 15:33:21.234
238.0, 19195.32051030642, 17132.63447673732, 44473.8470880803, 70625.05282462273, 14324.607172561547, -20975.39108698262, -29772.568317957917, 9986.513553442188, 0.076, 0.962, 0.25, 192.0, 0.0, 0.0, 0.0, 0.0, 0.0, 0.0, 0.0, 0.0, 0.0, 1.6962752012346928E9, 0.0, 2023-10-02 15:33:21.234
239.0, 19182.959995622638, 17122.799709176983, 44485.80527136389, 70600.2647400218, 14323.176660916408, -20976.016935827367, -29779.251489550054, 9980.679748139351, 0.07200000000000001, 0.9560000000000001, 0.25, 192.0, 2.0, 64.0, 29.0, 224.0, 7.0, 208.0, 0.0, 0.0, 0.0, 1.6962752012347236E9, 0.0, 2023-10-02 15:33:21.234
240.0, 19186.916254391224, 17124.878421411326, 44495.26005926848, 70619.37548153108, 14319.712140525835, -20977.805075383792, -29771.36132375733, 9986.848829609016, 0.07200000000000001, 0.9560000000000001, 0.25, 192.0, 0.0, 0.0, 0.0, 0.0, 0.0, 0.0, 0.0, 0.0, 0.0, 1.696275201234744E9, 0.0, 2023-10-02 15:33:21.234
241.0, 19196.773373696014, 17128.789976691005, 44499.9539256041, 70639.40264456304, 14325.79181501768, -20970.697220647005, -29768.36619000032, 9993.375538989967, 0.07200000000000001, 0.9560000000000001, 0.25, 192.0, 0.0, 0.0, 0.0, 0.0, 0.0, 0.0, 0.0, 0.0, 0.0, 1.6962752017125456E9, 0.0, 2023-10-02 15:33:21.712
242.0, 19203.613007499338, 17134.266154082557, 44502.122044816264, 70638.419167807, 14330.12805344201, -20964.662249644072, -29758.196146273156, 10006.630123451963, 0.07200000000000001, 0.9560000000000001, 0.25, 192.0, 0.0, 0.0, 0.0, 0.0, 0.0, 0.0, 0.0, 0.0, 0.0, 1.6962752017126424E9, 0.0, 2023-10-02 15:33:21.712
243.0, 19192.79476318297, 17127.515927257053, 44499.17161454816, 70608.89251338155, 14323.668399294425, -20969.557281679783, -29769.595535945362, 9996.951818102816, 0.07200000000000001, 0.9560000000000001, 0.25, 192.0, 0.0, 0.0, 0.0, 0.0, 0.0, 0.0, 0.0, 0.0, 0.0, 1.6962752017126565E9, 0.0, 2023-10-02 15:33:21.712
244.0, 19188.726745692104, 17123.179688832723, 44509.967507120076, 70610.59124596015, 14323.467233594327, -20970.451351457996, -29773.730608669593, 9993.889629112438, 0.07200000000000001, 0.9560000000000001, 0.25, 192.0, 0.0, 0.0, 0.0, 0.0, 0.0, 0.0, 0.0, 0.0, 0.0, 1.696275201712675E9, 0.0, 2023-10-02 15:33:21.712
245.0, 19195.164048095234, 17129.281715069024, 44512.962640877086, 70629.63493223608, 14323.914268483433, -20968.95378457949, -29775.27287903701, 9997.845887881027, 0.07200000000000001, 0.9560000000000001, 0.25, 192.0, 0.0, 0.0, 0.0, 0.0, 0.0, 0.0, 0.0, 0.0, 0.0, 1.6962752017126873E9, 0.0, 2023-10-02 15:33:21.712
246.0, 19204.596484255373, 17136.546032017, 44509.34165827533, 70626.46098452342, 14322.30494288265, -20966.49509268941, -29773.395332502765, 10007.88182114146, 0.07200000000000001, 0.9560000000000001, 0.25, 192.0, 0.0, 0.0, 0.0, 0.0, 0.0, 0.0, 0.0, 0.0, 0.0, 1.6962752017127004E9, 0.0, 2023-10-02 15:33:21.712
247.0, 19200.46141153114, 17132.142738359304, 44516.02482986746, 70606.8138011472, 14319.868602737022, -20970.987793324923, -29770.89193712377, 10011.100472343025, 0.07200000000000001, 0.9560000000000001, 0.25, 192.0, 0.0, 0.0, 0.0, 0.0, 0.0, 0.0, 0.0, 0.0, 0.0, 1.696275201712716E9, 0.0, 2023-10-02 15:33:21.712
248.0, 19196.683966718196, 17128.164127846256, 44531.44753354163, 70611.44061224945, 14325.41183536194, -20966.85272060069, -29766.108663810333, 10012.441577010344, 0.07200000000000001, 0.9560000000000001, 0.25, 192.0, 0.0, 0.0, 0.0, 0.0, 0.0, 0.0, 0.0, 0.0, 0.0, 1.6962752017127292E9, 0.0, 2023-10-02 15:33:21.712
249.0, 19205.356443566852, 17134.15439536028, 44529.94996666312, 70621.90122865453, 14327.579954574103, -20963.745828121406, -29780.994925617568, 10000.55044896012, 0.07, 0.9540000000000001, 0.252, 192.0, 2.0, 48.0, 29.0, 208.0, 7.0, 224.0, 0.0, 0.0, 0.0, 1.6962752017127488E9, 0.0, 2023-10-02 15:33:21.712
250.0, 19217.26992336153, 17141.798691963995, 44524.71965846058, 70607.12672556957, 14333.41375987694, -20963.20938625448, -29806.967652674637, 9983.898399340917, 0.07, 0.9540000000000001, 0.252, 192.0, 0.0, 0.0, 0.0, 0.0, 0.0, 0.0, 0.0, 0.0, 0.0, 1.6962752017127643E9, 0.0, 2023-10-02 15:33:21.712
251.0, 19210.184420369198, 17134.95905816067, 44526.35133580582, 70587.43483870446, 14330.9327162424, -20967.389162467618, -29813.539065544497, 9982.065556295582, 0.07, 0.9540000000000001, 0.252, 192.0, 0.0, 0.0, 0.0, 0.0, 0.0, 0.0, 0.0, 0.0, 0.0, 1.6962752017129104E9, 0.0, 2023-10-02 15:33:21.712
252.0, 19197.958016152148, 17128.007665635072, 44533.14626612023, 70595.8614463641, 14326.440015606882, -20969.020839812856, -29801.446771794173, 9991.676806411364, 0.07, 0.9540000000000001, 0.252, 192.0, 0.0, 0.0, 0.0, 0.0, 0.0, 0.0, 0.0, 0.0, 0.0, 1.6962752017129214E9, 0.0, 2023-10-02 15:33:21.712
253.0, 19192.638300971783, 17121.86093590986, 44531.93927191964, 70637.68156023999, 14311.93373345539, -20974.765238137872, -29777.351591271356, 10014.497937500231, 0.07, 0.9540000000000001, 0.252, 192.0, 0.0, 0.0, 0.0, 0.0, 0.0, 0.0, 0.0, 0.0, 0.0, 1.696275201712932E9, 0.0, 2023-10-02 15:33:21.712
254.0, 19195.186399839688, 17124.856069666872, 44511.44272225413, 70636.25104859484, 14306.412852574927, -20980.464932973973, -29784.638259963784, 10011.212231065301, 0.07, 0.9540000000000001, 0.252, 192.0, 0.0, 0.0, 0.0, 0.0, 0.0, 0.0, 0.0, 0.0, 0.0, 1.6962752017129495E9, 0.0, 2023-10-02 15:33:21.712
255.0, 19196.03576612899, 17123.850241166383, 44506.92766987415, 70606.1208970691, 14314.548887556659, -20977.939185850526, -29799.99390840458, 10001.3104082716, 0.07, 0.9540000000000001, 0.252, 192.0, 0.0, 0.0, 0.0, 0.0, 0.0, 0.0, 0.0, 0.0, 0.0, 1.6962752017129612E9, 0.0, 2023-10-02 15:33:21.712
0.0, 19192.772411438516, 17119.603409719875, 44514.929594389156, 70603.2151702899, 14313.855983478545, -20980.26376727388, -29794.56243450194, 10003.523230972676, 0.07, 0.9540000000000001, 0.252, 192.0, 0.0, 0.0, 0.0, 0.0, 0.0, 0.0, 0.0, 0.0, 0.0, 1.6962752017129743E9, 0.0, 2023-10-02 15:33:21.712
1.0, 19198.494458019075, 17123.76083418856, 44522.99857413752, 70630.52900201429, 14313.006617189243, -20980.509636462884, -29784.16887333022, 10011.391045020944, 0.07, 0.9540000000000001, 0.252, 192.0, 0.0, 0.0, 0.0, 0.0, 0.0, 0.0, 0.0, 0.0, 0.0, 1.6962752017129867E9, 0.0, 2023-10-02 15:33:21.712
2.0, 19210.184420369198, 17133.48384302662, 44523.602071237816, 70644.0741591542, 14317.275800380206, -20972.507711947885, -29780.994925617568, 10017.314257301601, 0.07, 0.9540000000000001, 0.252, 192.0, 0.0, 0.0, 0.0, 0.0, 0.0, 0.0, 0.0, 0.0, 0.0, 1.6962752017129982E9, 0.0, 2023-10-02 15:33:21.712
3.0, 19208.59744651287, 17130.33224705842, 44519.601108980314, 70620.35895828712, 14316.381730601996, -20974.809941626783, -29789.980326888603, 10012.151004332425, 0.066, 0.9540000000000001, 0.258, 192.0, 2.0, 16.0, 29.0, 208.0, 8.0, 16.0, 0.0, 0.0, 0.0, 1.6962752017130098E9, 0.0, 2023-10-02 15:33:21.713
4.0, 19203.590655754884, 17125.68308421172, 44532.49806553103, 70612.37938551657, 14318.192221902875, -20974.899348604602, -29786.359344286844, 10014.02855086667, 0.066, 0.9540000000000001, 0.258, 192.0, 0.0, 0.0, 0.0, 0.0, 0.0, 0.0, 0.0, 0.0, 0.0, 1.696275201713036E9, 0.0, 2023-10-02 15:33:21.713
5.0, 19205.42349880022, 17128.030017379526, 44537.214283611094, 70633.83706019368, 14314.21361138983, -20973.893520104113, -29780.682001195193, 10017.805995679617, 0.066, 0.9540000000000001, 0.258, 192.0, 0.0, 0.0, 0.0, 0.0, 0.0, 0.0, 0.0, 0.0, 0.0, 1.6962752017130475E9, 0.0, 2023-10-02 15:33:21.713
6.0, 19221.025016430023, 17139.96584891866, 44527.155998606206, 70637.01100790633, 14319.801547503657, -20972.686525903526, -29796.060001380447, 10006.853640896517, 0.066, 0.9540000000000001, 0.258, 192.0, 0.0, 0.0, 0.0, 0.0, 0.0, 0.0, 0.0, 0.0, 0.0, 1.6962752017130587E9, 0.0, 2023-10-02 15:33:21.713
7.0, 19232.379702613318, 17147.096055399903, 44530.84403644133, 70612.80406866122, 14339.515786113237, -20964.63989789962, -29815.528370801017, 9994.627236679464, 0.066, 0.9540000000000001, 0.258, 192.0, 0.0, 0.0, 0.0, 0.0, 0.0, 0.0, 0.0, 0.0, 0.0, 1.6962752017130733E9, 0.0, 2023-10-02 15:33:21.713
8.0, 19228.51285082255, 17140.39053206331, 44543.27160635848, 70598.29778650973, 14351.07163799663, -20960.415418197565, -29819.0375946805, 9988.905190098905, 0.066, 0.9540000000000001, 0.258, 192.0, 0.0, 0.0, 0.0, 0.0, 0.0, 0.0, 0.0, 0.0, 0.0, 1.696275201713086E9, 0.0, 2023-10-02 15:33:21.713
9.0, 19220.399167585274, 17132.522718015043, 44545.819705226386, 70614.10046983963, 14342.779140803712, -20962.270612987355, -29814.634301022805, 9989.106355799004, 0.066, 0.9540000000000001, 0.258, 192.0, 0.0, 0.0, 0.0, 0.0, 0.0, 0.0, 0.0, 0.0, 0.0, 1.696275201713096E9, 0.0, 2023-10-02 15:33:21.713
10.0, 19207.18928661219, 17124.409034777767, 44534.75559172101, 70634.32879857169, 14329.993942975278, -20966.182168267034, -29810.812152720948, 9994.560181446097, 0.066, 0.9540000000000001, 0.258, 192.0, 0.0, 0.0, 0.0, 0.0, 0.0, 0.0, 0.0, 0.0, 0.0, 1.69627520171311E9, 0.0, 2023-10-02 15:33:21.713
11.0, 19212.50900179255, 17130.891040669805, 44527.491274773034, 70621.85652516563, 14330.060998208643, -20962.605889154183, -29808.264053853043, 9998.069405325581, 0.066, 0.9540000000000001, 0.258, 192.0, 0.0, 0.0, 0.0, 0.0, 0.0, 0.0, 0.0, 0.0, 0.0, 1.6962752017131488E9, 0.0, 2023-10-02 15:33:21.713
12.0, 19218.052234417468, 17136.47897678363, 44527.20070209512, 70582.40569620201, 14337.481777367804, -20961.66711588706, -29828.38062386282, 9974.108335269491, 0.066, 0.9540000000000001, 0.258, 192.0, 0.0, 0.0, 0.0, 0.0, 0.0, 0.0, 0.0, 0.0, 0.0, 1.6962752017131596E9, 0.0, 2023-10-02 15:33:21.713
