%OpenBCI Raw EEG Data
%Number of channels = 8
%Sample Rate = 250 Hz
%Board = OpenBCI_GUI$BoardCytonSerial
Sample Index, EXG Channel 0, EXG Channel 1, EXG Channel 2, EXG Channel 3, EXG Channel 4, EXG Channel 5, EXG Channel 6, EXG Channel 7, Accel Channel 0, Accel Channel 1, Accel Channel 2, Other, Other, Other, Other, Other, Other, Other, Analog Channel 0, Analog Channel 1, Analog Channel 2, Timestamp, Other, Timestamp (Formatted)
180.0, -187500.02235174447, 187500.0, 35365.15359463139, 41924.31770853016, 187500.0, 187500.0, -187500.02235174447, 34430.47069674381, 0.0, 0.0, 0.0, 192.0, 0.0, 0.0, 0.0, 0.0, 0.0, 0.0, 0.0, 0.0, 0.0, 1.6989589250407517E9, 0.0, 2023-11-02 17:02:05.040
181.0, -187500.02235174447, 187500.0, 35360.66089399587, 41914.86292062556, 187500.0, 187500.0, -187500.02235174447, 34427.497914731255, 0.0, 0.0, 0.0, 192.0, 0.0, 0.0, 0.0, 0.0, 0.0, 0.0, 0.0, 0.0, 0.0, 1.698958925040774E9, 0.0, 2023-11-02 17:02:05.040
182.0, -187500.02235174447, 187500.0, 35352.43545203632, 41911.33134500162, 187500.0, 187500.0, -187500.02235174447, 34419.04895532715, 0.0, 0.0, 0.0, 192.0, 0.0, 0.0, 0.0, 0.0, 0.0, 0.0, 0.0, 0.0, 0.0, 1.698958925040784E9, 0.0, 2023-11-02 17:02:05.040
183.0, -187500.02235174447, 187500.0, 35347.920399656345, 41903.06119955316, 187500.0, 187500.0, -187500.02235174447, 34414.15392329144, 0.0, 0.0, 0.0, 192.0, 0.0, 0.0, 0.0, 0.0, 0.0, 0.0, 0.0, 0.0, 0.0, 1.6989589250407937E9, 0.0, 2023-11-02 17:02:05.040
184.0, -187500.02235174447, 187500.0, 35350.870829924446, 41904.06702805365, 187500.0, 187500.0, -187500.02235174447, 34416.41144948143, -0.134, 0.972, -0.108, 192.0, 251.0, 208.0, 30.0, 96.0, 252.0, 160.0, 0.0, 0.0, 0.0, 1.6989589250408027E9, 0.0, 2023-11-02 17:02:05.040
185.0, -187500.02235174447, 187500.0, 35356.1458416159, 41908.47032171134, 187500.0, 187500.0, -187500.02235174447, 34423.98869085177, -0.134, 0.972, -0.108, 192.0, 0.0, 0.0, 0.0, 0.0, 0.0, 0.0, 0.0, 0.0, 0.0, 1.6989589250408144E9, 0.0, 2023-11-02 17:02:05.040
186.0, -187500.02235174447, 187500.0, 35363.790138219614, 41922.14958931799, 187500.0, 187500.0, -187500.02235174447, 34428.973129865306, -0.134, 0.972, -0.108, 192.0, 0.0, 0.0, 0.0, 0.0, 0.0, 0.0, 0.0, 0.0, 0.0, 1.6989589250408244E9, 0.0, 2023-11-02 17:02:05.040
187.0, -187500.02235174447, 187500.0, 35356.63757999391, 41919.08740032761, 187500.0, 187500.0, -187500.02235174447, 34421.50764721724, -0.134, 0.972, -0.108, 192.0, 0.0, 0.0, 0.0, 0.0, 0.0, 0.0, 0.0, 0.0, 0.0, 1.698958925040834E9, 0.0, 2023-11-02 17:02:05.040
188.0, -187500.02235174447, 187500.0, 35364.88537369792, 41914.48294096982, 187500.0, 187500.0, -187500.02235174447, 34430.984786866284, -0.134, 0.972, -0.108, 192.0, 0.0, 0.0, 0.0, 0.0, 0.0, 0.0, 0.0, 0.0, 0.0, 1.6989589250408437E9, 0.0, 2023-11-02 17:02:05.040
189.0, -187500.02235174447, 187500.0, 35367.45582431029, 41921.68020268443, 187500.0, 187500.0, -187500.02235174447, 34435.544542735166, -0.134, 0.972, -0.108, 192.0, 0.0, 0.0, 0.0, 0.0, 0.0, 0.0, 0.0, 0.0, 0.0, 1.6989589250408535E9, 0.0, 2023-11-02 17:02:05.040
190.0, -187500.02235174447, 187500.0, 35359.54330677311, 41921.143760817504, 187500.0, 187500.0, -187500.02235174447, 34428.14611532046, -0.134, 0.972, -0.108, 192.0, 0.0, 0.0, 0.0, 0.0, 0.0, 0.0, 0.0, 0.0, 0.0, 1.6989589250408633E9, 0.0, 2023-11-02 17:02:05.040
191.0, -187500.02235174447, 187500.0, 35356.63757999391, 41925.3458887751, 187500.0, 187500.0, -187500.02235174447, 34426.022699597204, -0.134, 0.972, -0.108, 192.0, 0.0, 0.0, 0.0, 0.0, 0.0, 0.0, 0.0, 0.0, 0.0, 1.6989589250408728E9, 0.0, 2023-11-02 17:02:05.040
192.0, -187500.02235174447, 187500.0, 35351.206106091275, 41917.858054382574, 187500.0, 187500.0, -187500.02235174447, 34418.44545822686, -0.134, 0.972, -0.108, 192.0, 0.0, 0.0, 0.0, 0.0, 0.0, 0.0, 0.0, 0.0, 0.0, 1.6989589250408823E9, 0.0, 2023-11-02 17:02:05.040
193.0, -187500.02235174447, 187500.0, 35346.735757200215, 41909.58790893411, 187500.0, 187500.0, -187500.02235174447, 34411.91874884591, -0.134, 0.972, -0.108, 192.0, 0.0, 0.0, 0.0, 0.0, 0.0, 0.0, 0.0, 0.0, 0.0, 1.698958925040892E9, 0.0, 2023-11-02 17:02:05.040
194.0, -187500.02235174447, 187500.0, 35351.630789235925, 41920.83083639513, 187500.0, 187500.0, -187500.02235174447, 34415.42797272539, -0.136, 0.9480000000000001, -0.106, 192.0, 251.0, 192.0, 29.0, 160.0, 252.0, 176.0, 0.0, 0.0, 0.0, 1.6989589250409017E9, 0.0, 2023-11-02 17:02:05.040
195.0, -187500.02235174447, 187500.0, 35349.93205665732, 41931.4479150114, 187500.0, 187500.0, -187500.02235174447, 34415.94206284786, -0.136, 0.9480000000000001, -0.106, 192.0, 0.0, 0.0, 0.0, 0.0, 0.0, 0.0, 0.0, 0.0, 0.0, 1.698958925040912E9, 0.0, 2023-11-02 17:02:05.040
196.0, -187500.02235174447, 187500.0, 35356.57052476055, 41933.05724061218, 187500.0, 187500.0, -187500.02235174447, 34422.044089084164, -0.136, 0.9480000000000001, -0.106, 192.0, 0.0, 0.0, 0.0, 0.0, 0.0, 0.0, 0.0, 0.0, 0.0, 1.6989589250410273E9, 0.0, 2023-11-02 17:02:05.041
197.0, -187500.02235174447, 187500.0, 35358.51512652816, 41925.99408936431, 187500.0, 187500.0, -187500.02235174447, 34425.687423430376, -0.136, 0.9480000000000001, -0.106, 192.0, 0.0, 0.0, 0.0, 0.0, 0.0, 0.0, 0.0, 0.0, 0.0, 1.698958925041037E9, 0.0, 2023-11-02 17:02:05.041
198.0, -187500.02235174447, 187500.0, 35348.076861867536, 41912.24776652429, 187500.0, 187500.0, -187500.02235174447, 34417.350222748544, -0.136, 0.9480000000000001, -0.106, 192.0, 0.0, 0.0, 0.0, 0.0, 0.0, 0.0, 0.0, 0.0, 0.0, 1.6989589250410469E9, 0.0, 2023-11-02 17:02:05.041
199.0, -187500.02235174447, 187500.0, 35352.21193459177, 41922.08253408463, 187500.0, 187500.0, -187500.02235174447, 34425.50860947473, -0.136, 0.9480000000000001, -0.106, 192.0, 0.0, 0.0, 0.0, 0.0, 0.0, 0.0, 0.0, 0.0, 0.0, 1.6989589250410564E9, 0.0, 2023-11-02 17:02:05.041
200.0, -187500.02235174447, 187500.0, 35362.44903355229, 41934.66656621296, 187500.0, 187500.0, -187500.02235174447, 34437.489144502775, -0.136, 0.9480000000000001, -0.106, 192.0, 0.0, 0.0, 0.0, 0.0, 0.0, 0.0, 0.0, 0.0, 0.0, 1.698958925041066E9, 0.0, 2023-11-02 17:02:05.041
201.0, -187500.02235174447, 187500.0, 35366.382940576426, 41928.698650443395, 187500.0, 187500.0, -187500.02235174447, 34439.746670692766, -0.136, 0.9480000000000001, -0.106, 192.0, 0.0, 0.0, 0.0, 0.0, 0.0, 0.0, 0.0, 0.0, 0.0, 1.6989589250410757E9, 0.0, 2023-11-02 17:02:05.041
202.0, -187500.02235174447, 187500.0, 35370.294495856106, 41919.17680730543, 187500.0, 187500.0, -187500.02235174447, 34441.981845138296, -0.136, 0.9480000000000001, -0.106, 192.0, 0.0, 0.0, 0.0, 0.0, 0.0, 0.0, 0.0, 0.0, 0.0, 1.6989589250410872E9, 0.0, 2023-11-02 17:02:05.041
203.0, -187500.02235174447, 187500.0, 35370.652123767395, 41928.05044985419, 187500.0, 187500.0, -187500.02235174447, 34440.5289817487, -0.148, 0.9460000000000001, -0.10400000000000001, 192.0, 251.0, 96.0, 29.0, 144.0, 252.0, 192.0, 0.0, 0.0, 0.0, 1.6989589250410967E9, 0.0, 2023-11-02 17:02:05.041
204.0, -187500.02235174447, 187500.0, 35358.693940483805, 41921.277871284234, 187500.0, 187500.0, -187500.02235174447, 34429.598978710055, -0.148, 0.9460000000000001, -0.10400000000000001, 192.0, 0.0, 0.0, 0.0, 0.0, 0.0, 0.0, 0.0, 0.0, 0.0, 1.6989589250411096E9, 0.0, 2023-11-02 17:02:05.041
205.0, -187500.02235174447, 187500.0, 35354.96119915977, 41908.78324613372, 187500.0, 187500.0, -187500.02235174447, 34427.60967345353, -0.148, 0.9460000000000001, -0.10400000000000001, 192.0, 0.0, 0.0, 0.0, 0.0, 0.0, 0.0, 0.0, 0.0, 0.0, 1.6989589250411196E9, 0.0, 2023-11-02 17:02:05.041
206.0, -187500.02235174447, 187500.0, 35357.30813232758, 41900.870728596536, 187500.0, 187500.0, -187500.02235174447, 34428.39198450947, -0.148, 0.9460000000000001, -0.10400000000000001, 192.0, 0.0, 0.0, 0.0, 0.0, 0.0, 0.0, 0.0, 0.0, 0.0, 1.6989589250411298E9, 0.0, 2023-11-02 17:02:05.041
207.0, -187500.02235174447, 187500.0, 35351.362568302466, 41904.98344957631, 187500.0, 187500.0, -187500.02235174447, 34427.40850775343, -0.148, 0.9460000000000001, -0.10400000000000001, 192.0, 0.0, 0.0, 0.0, 0.0, 0.0, 0.0, 0.0, 0.0, 0.0, 1.6989589250411398E9, 0.0, 2023-11-02 17:02:05.041
208.0, -187500.02235174447, 187500.0, 35339.270274552146, 41902.3906472195, 187500.0, 187500.0, -187500.02235174447, 34423.18402805138, -0.148, 0.9460000000000001, -0.10400000000000001, 192.0, 0.0, 0.0, 0.0, 0.0, 0.0, 0.0, 0.0, 0.0, 0.0, 1.6989589250411494E9, 0.0, 2023-11-02 17:02:05.041
209.0, -187500.02235174447, 187500.0, 35349.61913223495, 41900.043714051695, 187500.0, 187500.0, -187500.02235174447, 34432.5270572337, -0.148, 0.9460000000000001, -0.10400000000000001, 192.0, 0.0, 0.0, 0.0, 0.0, 0.0, 0.0, 0.0, 0.0, 0.0, 1.698958925041159E9, 0.0, 2023-11-02 17:02:05.041
210.0, -187500.02235174447, 187500.0, 35358.73864397271, 41897.09328378359, 187500.0, 187500.0, -187500.02235174447, 34441.66892071592, -0.148, 0.9460000000000001, -0.10400000000000001, 192.0, 0.0, 0.0, 0.0, 0.0, 0.0, 0.0, 0.0, 0.0, 0.0, 1.6989589250411685E9, 0.0, 2023-11-02 17:02:05.041
211.0, -187500.02235174447, 187500.0, 35359.83387945103, 41906.03398156571, 187500.0, 187500.0, -187500.02235174447, 34443.233542827795, -0.148, 0.9460000000000001, -0.10400000000000001, 192.0, 0.0, 0.0, 0.0, 0.0, 0.0, 0.0, 0.0, 0.0, 0.0, 1.6989589250412056E9, 0.0, 2023-11-02 17:02:05.041
212.0, -187500.02235174447, 187500.0, 35362.33727483002, 41906.592775177094, 187500.0, 187500.0, -187500.02235174447, 34441.87008641602, -0.148, 0.9460000000000001, -0.10400000000000001, 192.0, 0.0, 0.0, 0.0, 0.0, 0.0, 0.0, 0.0, 0.0, 0.0, 1.6989589250412157E9, 0.0, 2023-11-02 17:02:05.041
213.0, -187500.02235174447, 187500.0, 35358.403367805884, 41888.89019356849, 187500.0, 187500.0, -187500.02235174447, 34434.561065979135, -0.156, 0.9520000000000001, -0.112, 192.0, 251.0, 32.0, 29.0, 192.0, 252.0, 128.0, 0.0, 0.0, 0.0, 1.6989589250412252E9, 0.0, 2023-11-02 17:02:05.041
214.0, -187500.02235174447, 187500.0, 35351.38492004692, 41879.74833008627, 187500.0, 187500.0, -187500.02235174447, 34428.36963276501, -0.156, 0.9520000000000001, -0.112, 192.0, 0.0, 0.0, 0.0, 0.0, 0.0, 0.0, 0.0, 0.0, 0.0, 1.6989589250412357E9, 0.0, 2023-11-02 17:02:05.041
215.0, -187500.02235174447, 187500.0, 35349.44031827931, 41883.123443499026, 187500.0, 187500.0, -187500.02235174447, 34429.01783335422, -0.156, 0.9520000000000001, -0.112, 192.0, 0.0, 0.0, 0.0, 0.0, 0.0, 0.0, 0.0, 0.0, 0.0, 1.6989589250412452E9, 0.0, 2023-11-02 17:02:05.041
216.0, -187500.02235174447, 187500.0, 35354.71532997076, 41899.17199601793, 187500.0, 187500.0, -187500.02235174447, 34436.57272298011, -0.156, 0.9520000000000001, -0.112, 192.0, 0.0, 0.0, 0.0, 0.0, 0.0, 0.0, 0.0, 0.0, 0.0, 1.6989589250412548E9, 0.0, 2023-11-02 17:02:05.041
217.0, -187500.02235174447, 187500.0, 35366.8970306989, 41908.24680426679, 187500.0, 187500.0, -187500.02235174447, 34450.81078419814, -0.156, 0.9520000000000001, -0.112, 192.0, 0.0, 0.0, 0.0, 0.0, 0.0, 0.0, 0.0, 0.0, 0.0, 1.6989589250412648E9, 0.0, 2023-11-02 17:02:05.041
218.0, -187500.02235174447, 187500.0, 35367.791100477116, 41904.022324564736, 187500.0, 187500.0, -187500.02235174447, 34451.52604002071, -0.156, 0.9520000000000001, -0.112, 192.0, 0.0, 0.0, 0.0, 0.0, 0.0, 0.0, 0.0, 0.0, 0.0, 1.6989589250412743E9, 0.0, 2023-11-02 17:02:05.041
219.0, -187500.02235174447, 187500.0, 35362.65019925239, 41895.17103376044, 187500.0, 187500.0, -187500.02235174447, 34446.85452542955, -0.156, 0.9520000000000001, -0.112, 192.0, 0.0, 0.0, 0.0, 0.0, 0.0, 0.0, 0.0, 0.0, 0.0, 1.6989589250412843E9, 0.0, 2023-11-02 17:02:05.041
220.0, -187500.02235174447, 187500.0, 35365.71238824277, 41898.74731287328, 187500.0, 187500.0, -187500.02235174447, 34449.84965918656, -0.156, 0.9520000000000001, -0.112, 192.0, 0.0, 0.0, 0.0, 0.0, 0.0, 0.0, 0.0, 0.0, 0.0, 1.698958925041294E9, 0.0, 2023-11-02 17:02:05.041
221.0, -187500.02235174447, 187500.0, 35361.66672249636, 41869.71239682584, 187500.0, 187500.0, -187500.02235174447, 34446.07221437361, -0.156, 0.9520000000000001, -0.112, 192.0, 0.0, 0.0, 0.0, 0.0, 0.0, 0.0, 0.0, 0.0, 0.0, 1.6989589250413036E9, 0.0, 2023-11-02 17:02:05.041
222.0, -187500.02235174447, 187500.0, 35365.958257431776, 41840.65512903394, 187500.0, 187500.0, -187500.02235174447, 34448.30738881915, -0.156, 0.9520000000000001, -0.112, 192.0, 0.0, 0.0, 0.0, 0.0, 0.0, 0.0, 0.0, 0.0, 0.0, 1.6989589250413132E9, 0.0, 2023-11-02 17:02:05.041
223.0, -187500.02235174447, 187500.0, 35364.61715276446, 41838.50936156623, 187500.0, 187500.0, -187500.02235174447, 34444.59699923957, -0.156, 0.974, -0.12, 192.0, 251.0, 32.0, 30.0, 112.0, 252.0, 64.0, 0.0, 0.0, 0.0, 1.6989589250413244E9, 0.0, 2023-11-02 17:02:05.041
224.0, -187500.02235174447, 187500.0, 35366.56175453207, 41844.6784430359, 187500.0, 187500.0, -187500.02235174447, 34447.43567078539, -0.156, 0.974, -0.12, 192.0, 0.0, 0.0, 0.0, 0.0, 0.0, 0.0, 0.0, 0.0, 0.0, 1.698958925041335E9, 0.0, 2023-11-02 17:02:05.041
225.0, -187500.02235174447, 187500.0, 35365.86885045396, 41840.07398367811, 187500.0, 187500.0, -187500.02235174447, 34447.43567078539, -0.156, 0.974, -0.12, 192.0, 0.0, 0.0, 0.0, 0.0, 0.0, 0.0, 0.0, 0.0, 0.0, 1.698958925041345E9, 0.0, 2023-11-02 17:02:05.041
226.0, -187500.02235174447, 187500.0, 35370.495661556204, 41840.20809414484, 187500.0, 187500.0, -187500.02235174447, 34452.55422026566, -0.156, 0.974, -0.12, 192.0, 0.0, 0.0, 0.0, 0.0, 0.0, 0.0, 0.0, 0.0, 0.0, 1.6989589250413632E9, 0.0, 2023-11-02 17:02:05.041
227.0, -187500.02235174447, 187500.0, 35374.8989552139, 41843.694966279865, 187500.0, 187500.0, -187500.02235174447, 34459.371502324524, -0.156, 0.974, -0.12, 192.0, 0.0, 0.0, 0.0, 0.0, 0.0, 0.0, 0.0, 0.0, 0.0, 1.6989589250413728E9, 0.0, 2023-11-02 17:02:05.041
228.0, -187500.02235174447, 187500.0, 35381.11274017247, 41855.58609433009, 187500.0, 187500.0, -187500.02235174447, 34470.50267106327, -0.156, 0.974, -0.12, 192.0, 0.0, 0.0, 0.0, 0.0, 0.0, 0.0, 0.0, 0.0, 0.0, 1.6989589250413823E9, 0.0, 2023-11-02 17:02:05.041
229.0, -187500.02235174447, 187500.0, 35376.37417034795, 41848.12061168202, 187500.0, 187500.0, -187500.02235174447, 34467.351075095066, -0.156, 0.974, -0.12, 192.0, 0.0, 0.0, 0.0, 0.0, 0.0, 0.0, 0.0, 0.0, 0.0, 1.698958925041392E9, 0.0, 2023-11-02 17:02:05.041
230.0, -187500.02235174447, 187500.0, 35373.22257437975, 41832.2732248632, 187500.0, 187500.0, -187500.02235174447, 34465.00414192726, -0.156, 0.974, -0.12, 192.0, 0.0, 0.0, 0.0, 0.0, 0.0, 0.0, 0.0, 0.0, 0.0, 1.6989589250414016E9, 0.0, 2023-11-02 17:02:05.041
231.0, -187500.02235174447, 187500.0, 35373.91547845787, 41827.17702712739, 187500.0, 187500.0, -187500.02235174447, 34467.842813473086, -0.156, 0.974, -0.12, 192.0, 0.0, 0.0, 0.0, 0.0, 0.0, 0.0, 0.0, 0.0, 0.0, 1.6989589250414112E9, 0.0, 2023-11-02 17:02:05.041
232.0, -187500.02235174447, 187500.0, 35366.65116150989, 41829.18868412837, 187500.0, 187500.0, -187500.02235174447, 34459.6844267469, -0.156, 0.974, -0.12, 192.0, 0.0, 0.0, 0.0, 0.0, 0.0, 0.0, 0.0, 0.0, 0.0, 1.6989589250414207E9, 0.0, 2023-11-02 17:02:05.041
233.0, -187500.02235174447, 187500.0, 35357.44224279431, 41823.488989292266, 187500.0, 187500.0, -187500.02235174447, 34450.31904582013, -0.156, 0.982, -0.13, 192.0, 251.0, 32.0, 30.0, 176.0, 251.0, 240.0, 0.0, 0.0, 0.0, 1.6989589250414305E9, 0.0, 2023-11-02 17:02:05.041
234.0, -187500.02235174447, 187500.0, 35363.63367600842, 41823.04195440316, 187500.0, 187500.0, -187500.02235174447, 34458.09745289057, -0.156, 0.982, -0.13, 192.0, 0.0, 0.0, 0.0, 0.0, 0.0, 0.0, 0.0, 0.0, 0.0, 1.6989589250414405E9, 0.0, 2023-11-02 17:02:05.041
235.0, -187500.02235174447, 187500.0, 35365.01948416466, 41827.668765505405, 187500.0, 187500.0, -187500.02235174447, 34462.92542969292, -0.156, 0.982, -0.13, 192.0, 0.0, 0.0, 0.0, 0.0, 0.0, 0.0, 0.0, 0.0, 0.0, 1.6989589250414503E9, 0.0, 2023-11-02 17:02:05.041
236.0, -187500.02235174447, 187500.0, 35355.63175149343, 41832.005003929735, 187500.0, 187500.0, -187500.02235174447, 34457.985694168296, -0.156, 0.982, -0.13, 192.0, 0.0, 0.0, 0.0, 0.0, 0.0, 0.0, 0.0, 0.0, 0.0, 1.6989589250414596E9, 0.0, 2023-11-02 17:02:05.041
237.0, -187500.02235174447, 187500.0, 35351.25080958019, 41828.38402132798, 187500.0, 187500.0, -187500.02235174447, 34456.9798656678, -0.156, 0.982, -0.13, 192.0, 0.0, 0.0, 0.0, 0.0, 0.0, 0.0, 0.0, 0.0, 0.0, 1.698958925041469E9, 0.0, 2023-11-02 17:02:05.041
238.0, -187500.02235174447, 187500.0, 35351.60843749147, 41823.2207683588, 187500.0, 187500.0, -187500.02235174447, 34461.405511069956, -0.156, 0.982, -0.13, 192.0, 0.0, 0.0, 0.0, 0.0, 0.0, 0.0, 0.0, 0.0, 0.0, 1.6989589250414789E9, 0.0, 2023-11-02 17:02:05.041
239.0, -187500.02235174447, 187500.0, 35351.04964388009, 41833.01083243023, 187500.0, 187500.0, -187500.02235174447, 34464.3335895936, -0.156, 0.982, -0.13, 192.0, 0.0, 0.0, 0.0, 0.0, 0.0, 0.0, 0.0, 0.0, 0.0, 1.6989589250414884E9, 0.0, 2023-11-02 17:02:05.041
240.0, -187500.02235174447, 187500.0, 35344.500582754685, 41847.181838414894, 187500.0, 187500.0, -187500.02235174447, 34460.06440640264, -0.156, 0.982, -0.13, 192.0, 0.0, 0.0, 0.0, 0.0, 0.0, 0.0, 0.0, 0.0, 0.0, 1.698958925041498E9, 0.0, 2023-11-02 17:02:05.041
241.0, -187500.02235174447, 187500.0, 35337.28096929562, 41856.30135015266, 187500.0, 187500.0, -187500.02235174447, 34456.42107205642, -0.156, 0.982, -0.13, 192.0, 0.0, 0.0, 0.0, 0.0, 0.0, 0.0, 0.0, 0.0, 0.0, 1.6989589250415275E9, 0.0, 2023-11-02 17:02:05.041
242.0, -187500.02235174447, 187500.0, 35334.911684383354, 41864.39268164548, 187500.0, 187500.0, -187500.02235174447, 34457.67276974592, -0.156, 0.982, -0.13, 192.0, 0.0, 0.0, 0.0, 0.0, 0.0, 0.0, 0.0, 0.0, 0.0, 1.6989589250415373E9, 0.0, 2023-11-02 17:02:05.041
243.0, -187500.02235174447, 187500.0, 35341.68426295331, 41869.824155548115, 187500.0, 187500.0, -187500.02235174447, 34467.14990939497, -0.146, 0.9580000000000001, -0.14, 192.0, 251.0, 112.0, 29.0, 240.0, 251.0, 160.0, 0.0, 0.0, 0.0, 1.6989589250415468E9, 0.0, 2023-11-02 17:02:05.041
244.0, -187500.02235174447, 187500.0, 35325.43454473431, 41859.363539143036, 187500.0, 187500.0, -187500.02235174447, 34453.33653132159, -0.146, 0.9580000000000001, -0.14, 192.0, 0.0, 0.0, 0.0, 0.0, 0.0, 0.0, 0.0, 0.0, 0.0, 1.6989589250415585E9, 0.0, 2023-11-02 17:02:05.041
245.0, -187500.02235174447, 187500.0, 35318.52785569762, 41858.69298680937, 187500.0, 187500.0, -187500.02235174447, 34457.31514183464, -0.146, 0.9580000000000001, -0.14, 192.0, 0.0, 0.0, 0.0, 0.0, 0.0, 0.0, 0.0, 0.0, 0.0, 1.698958925041568E9, 0.0, 2023-11-02 17:02:05.041
246.0, -187500.02235174447, 187500.0, 35308.916605581835, 41869.77945205921, 187500.0, 187500.0, -187500.02235174447, 34460.19851686937, -0.146, 0.9580000000000001, -0.14, 192.0, 0.0, 0.0, 0.0, 0.0, 0.0, 0.0, 0.0, 0.0, 0.0, 1.6989589250415795E9, 0.0, 2023-11-02 17:02:05.041
247.0, -187500.02235174447, 187500.0, 35304.96034681325, 41865.59967584606, 187500.0, 187500.0, -187500.02235174447, 34460.10910989155, -0.146, 0.9580000000000001, -0.14, 192.0, 0.0, 0.0, 0.0, 0.0, 0.0, 0.0, 0.0, 0.0, 0.0, 1.698958925041589E9, 0.0, 2023-11-02 17:02:05.041
248.0, -187500.02235174447, 187500.0, 35312.9846230727, 41868.97478925881, 187500.0, 187500.0, -187500.02235174447, 34464.065368660136, -0.146, 0.9580000000000001, -0.14, 192.0, 0.0, 0.0, 0.0, 0.0, 0.0, 0.0, 0.0, 0.0, 0.0, 1.6989589250416217E9, 0.0, 2023-11-02 17:02:05.041
249.0, -187500.02235174447, 187500.0, 35308.08959103699, 41857.08366120859, 187500.0, 187500.0, -187500.02235174447, 34457.22573485682, -0.146, 0.9580000000000001, -0.14, 192.0, 0.0, 0.0, 0.0, 0.0, 0.0, 0.0, 0.0, 0.0, 0.0, 1.6989589250416493E9, 0.0, 2023-11-02 17:02:05.041
250.0, -187500.02235174447, 187500.0, 35315.488018451695, 41851.54042858368, 187500.0, 187500.0, -187500.02235174447, 34467.14990939497, -0.146, 0.9580000000000001, -0.14, 192.0, 0.0, 0.0, 0.0, 0.0, 0.0, 0.0, 0.0, 0.0, 0.0, 1.6989589250416594E9, 0.0, 2023-11-02 17:02:05.041
251.0, -187500.02235174447, 187500.0, 35305.65325089136, 41834.03901267517, 187500.0, 187500.0, -187500.02235174447, 34460.82436571412, -0.146, 0.9580000000000001, -0.14, 192.0, 0.0, 0.0, 0.0, 0.0, 0.0, 0.0, 0.0, 0.0, 0.0, 1.698958925041669E9, 0.0, 2023-11-02 17:02:05.041
252.0, -187500.02235174447, 187500.0, 35304.155684012854, 41836.497704565256, 187500.0, 187500.0, -187500.02235174447, 34463.14894713747, -0.146, 0.9580000000000001, -0.14, 192.0, 0.0, 0.0, 0.0, 0.0, 0.0, 0.0, 0.0, 0.0, 0.0, 1.6989589250416784E9, 0.0, 2023-11-02 17:02:05.041
253.0, -187500.02235174447, 187500.0, 35311.12942828291, 41847.85239074855, 187500.0, 187500.0, -187500.02235174447, 34473.11782516454, -0.14400000000000002, 0.974, -0.136, 192.0, 251.0, 128.0, 30.0, 112.0, 251.0, 192.0, 0.0, 0.0, 0.0, 1.698958925041688E9, 0.0, 2023-11-02 17:02:05.041
254.0, -187500.02235174447, 187500.0, 35315.71153589625, 41833.94960569735, 187500.0, 187500.0, -187500.02235174447, 34475.2859443767, -0.14400000000000002, 0.974, -0.136, 192.0, 0.0, 0.0, 0.0, 0.0, 0.0, 0.0, 0.0, 0.0, 0.0, 1.6989589250416982E9, 0.0, 2023-11-02 17:02:05.041
255.0, -187500.02235174447, 187500.0, 35317.96906208623, 41822.55021602514, 187500.0, 187500.0, -187500.02235174447, 34478.72811302282, -0.14400000000000002, 0.974, -0.136, 192.0, 0.0, 0.0, 0.0, 0.0, 0.0, 0.0, 0.0, 0.0, 0.0, 1.6989589250417075E9, 0.0, 2023-11-02 17:02:05.041
0.0, -187500.02235174447, 187500.0, 35318.281986508606, 41818.63866074546, 187500.0, 187500.0, -187500.02235174447, 34484.11488343655, -0.14400000000000002, 0.974, -0.136, 192.0, 0.0, 0.0, 0.0, 0.0, 0.0, 0.0, 0.0, 0.0, 0.0, 1.698958925041726E9, 0.0, 2023-11-02 17:02:05.041
1.0, -187500.02235174447, 187500.0, 35325.635710434406, 41832.25087311875, 187500.0, 187500.0, -187500.02235174447, 34494.754313797275, -0.14400000000000002, 0.974, -0.136, 192.0, 0.0, 0.0, 0.0, 0.0, 0.0, 0.0, 0.0, 0.0, 0.0, 1.6989589250417354E9, 0.0, 2023-11-02 17:02:05.041
2.0, -187500.02235174447, 187500.0, 35328.04969883558, 41844.05259419115, 187500.0, 187500.0, -187500.02235174447, 34499.358773155065, -0.14400000000000002, 0.974, -0.136, 192.0, 0.0, 0.0, 0.0, 0.0, 0.0, 0.0, 0.0, 0.0, 0.0, 1.698958925041745E9, 0.0, 2023-11-02 17:02:05.041
3.0, -187500.02235174447, 187500.0, 35323.668756922336, 41829.9709951843, 187500.0, 187500.0, -187500.02235174447, 34494.10611320807, -0.14400000000000002, 0.974, -0.136, 192.0, 0.0, 0.0, 0.0, 0.0, 0.0, 0.0, 0.0, 0.0, 0.0, 1.6989589250417545E9, 0.0, 2023-11-02 17:02:05.041
4.0, -187500.02235174447, 187500.0, 35325.16632380084, 41812.2684135757, 187500.0, 187500.0, -187500.02235174447, 34495.804845786675, -0.14400000000000002, 0.974, -0.136, 192.0, 0.0, 0.0, 0.0, 0.0, 0.0, 0.0, 0.0, 0.0, 0.0, 1.6989589250417645E9, 0.0, 2023-11-02 17:02:05.041
5.0, -187500.02235174447, 187500.0, 35317.25380626367, 41833.94960569735, 187500.0, 187500.0, -187500.02235174447, 34492.18386318492, -0.14400000000000002, 0.974, -0.136, 192.0, 0.0, 0.0, 0.0, 0.0, 0.0, 0.0, 0.0, 0.0, 0.0, 1.6989589250417738E9, 0.0, 2023-11-02 17:02:05.041
6.0, -187500.02235174447, 187500.0, 35318.46080046425, 41854.870838507515, 187500.0, 187500.0, -187500.02235174447, 34497.190653942904, -0.14400000000000002, 0.974, -0.136, 192.0, 0.0, 0.0, 0.0, 0.0, 0.0, 0.0, 0.0, 0.0, 0.0, 1.6989589250417833E9, 0.0, 2023-11-02 17:02:05.041
7.0, -187500.02235174447, 187500.0, 35325.88157962341, 41858.20124843136, 187500.0, 187500.0, -187500.02235174447, 34502.01863074525, -0.148, 0.972, -0.136, 192.0, 251.0, 96.0, 30.0, 96.0, 251.0, 192.0, 0.0, 0.0, 0.0, 1.6989589250417929E9, 0.0, 2023-11-02 17:02:05.041
8.0, -187500.02235174447, 187500.0, 35324.361661000454, 41850.825172761106, 187500.0, 187500.0, -187500.02235174447, 34500.72222956684, -0.148, 0.972, -0.136, 192.0, 0.0, 0.0, 0.0, 0.0, 0.0, 0.0, 0.0, 0.0, 0.0, 1.6989589250418031E9, 0.0, 2023-11-02 17:02:05.041
9.0, -187500.02235174447, 187500.0, 35324.94280635629, 41841.61625404552, 187500.0, 187500.0, -187500.02235174447, 34500.901043522485, -0.148, 0.972, -0.136, 192.0, 0.0, 0.0, 0.0, 0.0, 0.0, 0.0, 0.0, 0.0, 0.0, 1.698958925041813E9, 0.0, 2023-11-02 17:02:05.041
10.0, -187500.02235174447, 187500.0, 35321.500637710174, 41848.21001865983, 187500.0, 187500.0, -187500.02235174447, 34499.44818013289, -0.148, 0.972, -0.136, 192.0, 0.0, 0.0, 0.0, 0.0, 0.0, 0.0, 0.0, 0.0, 0.0, 1.6989589250418236E9, 0.0, 2023-11-02 17:02:05.041
11.0, -187500.02235174447, 187500.0, 35311.710573638746, 41827.64641376095, 187500.0, 187500.0, -187500.02235174447, 34493.32380215214, -0.148, 0.972, -0.136, 192.0, 0.0, 0.0, 0.0, 0.0, 0.0, 0.0, 0.0, 0.0, 0.0, 1.6989589250418336E9, 0.0, 2023-11-02 17:02:05.041
12.0, -187500.02235174447, 187500.0, 35315.10803879595, 41798.119759335495, 187500.0, 187500.0, -187500.02235174447, 34499.20231094388, -0.148, 0.972, -0.136, 192.0, 0.0, 0.0, 0.0, 0.0, 0.0, 0.0, 0.0, 0.0, 0.0, 1.6989589250418432E9, 0.0, 2023-11-02 17:02:05.041
13.0, -187500.02235174447, 187500.0, 35316.15857078535, 41776.863250358496, 187500.0, 187500.0, -187500.02235174447, 34498.88938652151, -0.148, 0.972, -0.136, 192.0, 0.0, 0.0, 0.0, 0.0, 0.0, 0.0, 0.0, 0.0, 0.0, 1.6989589250418527E9, 0.0, 2023-11-02 17:02:05.041
14.0, -187500.02235174447, 187500.0, 35310.458875949254, 41766.33557872005, 187500.0, 187500.0, -187500.02235174447, 34492.92147075194, -0.148, 0.972, -0.136, 192.0, 0.0, 0.0, 0.0, 0.0, 0.0, 0.0, 0.0, 0.0, 0.0, 1.6989589250418625E9, 0.0, 2023-11-02 17:02:05.041
15.0, -187500.02235174447, 187500.0, 35318.61726267544, 41746.53193313265, 187500.0, 187500.0, -187500.02235174447, 34497.70474406538, -0.148, 0.972, -0.136, 192.0, 0.0, 0.0, 0.0, 0.0, 0.0, 0.0, 0.0, 0.0, 0.0, 1.6989589250418806E9, 0.0, 2023-11-02 17:02:05.041
16.0, -187500.02235174447, 187500.0, 35327.26738777964, 41739.044098740116, 187500.0, 187500.0, -187500.02235174447, 34501.79511330069, -0.148, 0.972, -0.136, 192.0, 0.0, 0.0, 0.0, 0.0, 0.0, 0.0, 0.0, 0.0, 0.0, 1.6989589250418904E9, 0.0, 2023-11-02 17:02:05.041
17.0, -187500.02235174447, 187500.0, 35326.84270463499, 41754.93618904784, 187500.0, 187500.0, -187500.02235174447, 34501.16926445595, -0.154, 0.962, -0.126, 192.0, 251.0, 48.0, 30.0, 16.0, 252.0, 16.0, 0.0, 0.0, 0.0, 1.6989589250419028E9, 0.0, 2023-11-02 17:02:05.041
18.0, -187500.02235174447, 187500.0, 35324.83104763401, 41771.00709331121, 187500.0, 187500.0, -187500.02235174447, 34499.582290599625, -0.154, 0.962, -0.126, 192.0, 0.0, 0.0, 0.0, 0.0, 0.0, 0.0, 0.0, 0.0, 0.0, 1.6989589250419137E9, 0.0, 2023-11-02 17:02:05.041
19.0, -187500.02235174447, 187500.0, 35322.10413481046, 41764.972122308274, 187500.0, 187500.0, -187500.02235174447, 34490.88746200651, -0.154, 0.962, -0.126, 192.0, 0.0, 0.0, 0.0, 0.0, 0.0, 0.0, 0.0, 0.0, 0.0, 1.6989589250419235E9, 0.0, 2023-11-02 17:02:05.041
20.0, -187500.02235174447, 187500.0, 35321.791210388095, 41757.99837803822, 187500.0, 187500.0, -187500.02235174447, 34484.62897355902, -0.154, 0.962, -0.126, 192.0, 0.0, 0.0, 0.0, 0.0, 0.0, 0.0, 0.0, 0.0, 0.0, 1.6989589250419335E9, 0.0, 2023-11-02 17:02:05.041
21.0, -187500.02235174447, 187500.0, 35325.85922787896, 41736.11602021647, 187500.0, 187500.0, -187500.02235174447, 34485.56774682614, -0.154, 0.962, -0.126, 192.0, 0.0, 0.0, 0.0, 0.0, 0.0, 0.0, 0.0, 0.0, 0.0, 1.6989589250419445E9, 0.0, 2023-11-02 17:02:05.041
22.0, -187500.02235174447, 187500.0, 35323.668756922336, 41711.68556352682, 187500.0, 187500.0, -187500.02235174447, 34480.22567990133, -0.154, 0.962, -0.126, 192.0, 0.0, 0.0, 0.0, 0.0, 0.0, 0.0, 0.0, 0.0, 0.0, 1.698958925041954E9, 0.0, 2023-11-02 17:02:05.041
23.0, -187500.02235174447, 187500.0, 35326.2392075347, 41669.06078685055, 187500.0, 187500.0, -187500.02235174447, 34476.358828110555, -0.154, 0.962, -0.126, 192.0, 0.0, 0.0, 0.0, 0.0, 0.0, 0.0, 0.0, 0.0, 0.0, 1.6989589250419643E9, 0.0, 2023-11-02 17:02:05.041
24.0, -187500.02235174447, 187500.0, 35325.09926856748, 41605.514777364115, 187500.0, 187500.0, -187500.02235174447, 34471.17322339692, -0.154, 0.962, -0.126, 192.0, 0.0, 0.0, 0.0, 0.0, 0.0, 0.0, 0.0, 0.0, 0.0, 1.6989589250419755E9, 0.0, 2023-11-02 17:02:05.041
25.0, -187500.02235174447, 187500.0, 35324.585178445006, 41553.144640105325, 187500.0, 187500.0, -187500.02235174447, 34464.02066517123, -0.154, 0.962, -0.126, 192.0, 0.0, 0.0, 0.0, 0.0, 0.0, 0.0, 0.0, 0.0, 0.0, 1.698958925041986E9, 0.0, 2023-11-02 17:02:05.041
26.0, -187500.02235174447, 187500.0, 35326.90975986836, 41543.30987254499, 187500.0, 187500.0, -187500.02235174447, 34461.137290136496, -0.154, 0.962, -0.126, 192.0, 0.0, 0.0, 0.0, 0.0, 0.0, 0.0, 0.0, 0.0, 0.0, 1.6989589250419972E9, 0.0, 2023-11-02 17:02:05.041
27.0, -187500.02235174447, 187500.0, 35328.697899424784, 41539.64418645432, 187500.0, 187500.0, -187500.02235174447, 34457.493955790276, -0.148, 0.966, -0.114, 192.0, 251.0, 96.0, 30.0, 48.0, 252.0, 112.0, 0.0, 0.0, 0.0, 1.698958925042008E9, 0.0, 2023-11-02 17:02:05.042
28.0, -187500.02235174447, 187500.0, 35337.34802452898, 41539.06304109848, 187500.0, 187500.0, -187500.02235174447, 34461.763138981245, -0.148, 0.966, -0.114, 192.0, 0.0, 0.0, 0.0, 0.0, 0.0, 0.0, 0.0, 0.0, 0.0, 1.6989589250420187E9, 0.0, 2023-11-02 17:02:05.042
29.0, -187500.02235174447, 187500.0, 35337.929169884825, 41555.78214595105, 187500.0, 187500.0, -187500.02235174447, 34459.505612791254, -0.148, 0.966, -0.114, 192.0, 0.0, 0.0, 0.0, 0.0, 0.0, 0.0, 0.0, 0.0, 0.0, 1.698958925042029E9, 0.0, 2023-11-02 17:02:05.042
30.0, -187500.02235174447, 187500.0, 35331.000129103675, 41573.30591360401, 187500.0, 187500.0, -187500.02235174447, 34449.91671441993, -0.148, 0.966, -0.114, 192.0, 0.0, 0.0, 0.0, 0.0, 0.0, 0.0, 0.0, 0.0, 0.0, 1.6989589250420563E9, 0.0, 2023-11-02 17:02:05.042
31.0, -187500.02235174447, 187500.0, 35330.19546630329, 41580.816099740994, 187500.0, 187500.0, -187500.02235174447, 34449.53673476419, -0.148, 0.966, -0.114, 192.0, 0.0, 0.0, 0.0, 0.0, 0.0, 0.0, 0.0, 0.0, 0.0, 1.698958925042072E9, 0.0, 2023-11-02 17:02:05.042
32.0, -187500.02235174447, 187500.0, 35331.69303318179, 41573.909410704306, 187500.0, 187500.0, -187500.02235174447, 34448.79912719716, -0.148, 0.966, -0.114, 192.0, 0.0, 0.0, 0.0, 0.0, 0.0, 0.0, 0.0, 0.0, 0.0, 1.6989589250420833E9, 0.0, 2023-11-02 17:02:05.042
33.0, -187500.02235174447, 187500.0, 35334.39759426089, 41562.84529719893, 187500.0, 187500.0, -187500.02235174447, 34447.636836485486, -0.148, 0.966, -0.114, 192.0, 0.0, 0.0, 0.0, 0.0, 0.0, 0.0, 0.0, 0.0, 0.0, 1.6989589250420945E9, 0.0, 2023-11-02 17:02:05.042
34.0, -187500.02235174447, 187500.0, 35339.35968152996, 41578.580925295464, 187500.0, 187500.0, -187500.02235174447, 34449.35792080855, -0.148, 0.966, -0.114, 192.0, 0.0, 0.0, 0.0, 0.0, 0.0, 0.0, 0.0, 0.0, 0.0, 1.6989589250421057E9, 0.0, 2023-11-02 17:02:05.042
35.0, -187500.02235174447, 187500.0, 35334.911684383354, 41589.68974228975, 187500.0, 187500.0, -187500.02235174447, 34439.43374627039, -0.148, 0.966, -0.114, 192.0, 0.0, 0.0, 0.0, 0.0, 0.0, 0.0, 0.0, 0.0, 0.0, 1.6989589250421164E9, 0.0, 2023-11-02 17:02:05.042
36.0, -187500.02235174447, 187500.0, 35327.13327731291, 41586.336980621454, 187500.0, 187500.0, -187500.02235174447, 34427.25204554225, -0.148, 0.966, -0.114, 192.0, 0.0, 0.0, 0.0, 0.0, 0.0, 0.0, 0.0, 0.0, 0.0, 1.6989589250421288E9, 0.0, 2023-11-02 17:02:05.042
37.0, -187500.02235174447, 187500.0, 35328.630844191415, 41587.58867831095, 187500.0, 187500.0, -187500.02235174447, 34426.84971414205, -0.136, 0.9560000000000001, -0.098, 192.0, 251.0, 192.0, 29.0, 224.0, 252.0, 240.0, 0.0, 0.0, 0.0, 1.6989589250421393E9, 0.0, 2023-11-02 17:02:05.042
38.0, -187500.02235174447, 187500.0, 35336.453954750774, 41594.56242258101, 187500.0, 187500.0, -187500.02235174447, 34433.13055433399, -0.136, 0.9560000000000001, -0.098, 192.0, 0.0, 0.0, 0.0, 0.0, 0.0, 0.0, 0.0, 0.0, 0.0, 1.6989589250421507E9, 0.0, 2023-11-02 17:02:05.042
39.0, -187500.02235174447, 187500.0, 35345.01467287716, 41598.786902283064, 187500.0, 187500.0, -187500.02235174447, 34439.4784497593, -0.136, 0.9560000000000001, -0.098, 192.0, 0.0, 0.0, 0.0, 0.0, 0.0, 0.0, 0.0, 0.0, 0.0, 1.6989589250421615E9, 0.0, 2023-11-02 17:02:05.042
40.0, -187500.02235174447, 187500.0, 35346.244018822195, 41606.56530935351, 187500.0, 187500.0, -187500.02235174447, 34441.64656897147, -0.136, 0.9560000000000001, -0.098, 192.0, 0.0, 0.0, 0.0, 0.0, 0.0, 0.0, 0.0, 0.0, 0.0, 1.6989589250421748E9, 0.0, 2023-11-02 17:02:05.042
41.0, -187500.02235174447, 187500.0, 35340.589027475005, 41598.92101274979, 187500.0, 187500.0, -187500.02235174447, 34436.39390902447, -0.136, 0.9560000000000001, -0.098, 192.0, 0.0, 0.0, 0.0, 0.0, 0.0, 0.0, 0.0, 0.0, 0.0, 1.6989589250421865E9, 0.0, 2023-11-02 17:02:05.042
42.0, -187500.02235174447, 187500.0, 35338.37620477393, 41593.266021402604, 187500.0, 187500.0, -187500.02235174447, 34433.06349910063, -0.136, 0.9560000000000001, -0.098, 192.0, 0.0, 0.0, 0.0, 0.0, 0.0, 0.0, 0.0, 0.0, 0.0, 1.6989589250421991E9, 0.0, 2023-11-02 17:02:05.042
43.0, -187500.02235174447, 187500.0, 35340.47726875273, 41597.02111447109, 187500.0, 187500.0, -187500.02235174447, 34433.778754923194, -0.136, 0.9560000000000001, -0.098, 192.0, 0.0, 0.0, 0.0, 0.0, 0.0, 0.0, 0.0, 0.0, 0.0, 1.6989589250422103E9, 0.0, 2023-11-02 17:02:05.042
44.0, -187500.02235174447, 187500.0, 35328.22851279122, 41591.81315801301, 187500.0, 187500.0, -187500.02235174447, 34425.10627807454, -0.136, 0.9560000000000001, -0.098, 192.0, 0.0, 0.0, 0.0, 0.0, 0.0, 0.0, 0.0, 0.0, 0.0, 1.6989589250422225E9, 0.0, 2023-11-02 17:02:05.042
45.0, -187500.02235174447, 187500.0, 35330.08370758101, 41585.39820735434, 187500.0, 187500.0, -187500.02235174447, 34424.79335365217, -0.136, 0.9560000000000001, -0.098, 192.0, 0.0, 0.0, 0.0, 0.0, 0.0, 0.0, 0.0, 0.0, 0.0, 1.698958925042234E9, 0.0, 2023-11-02 17:02:05.042
46.0, -187500.02235174447, 187500.0, 35333.727041927224, 41579.45264332923, 187500.0, 187500.0, -187500.02235174447, 34422.62523444, -0.136, 0.9560000000000001, -0.098, 192.0, 0.0, 0.0, 0.0, 0.0, 0.0, 0.0, 0.0, 0.0, 0.0, 1.6989589250423617E9, 0.0, 2023-11-02 17:02:05.042
47.0, -187500.02235174447, 187500.0, 35328.94376861379, 41581.64311428584, 187500.0, 187500.0, -187500.02235174447, 34420.05478382764, -0.128, 0.96, -0.094, 192.0, 252.0, 0.0, 30.0, 0.0, 253.0, 16.0, 0.0, 0.0, 0.0, 1.6989589250423744E9, 0.0, 2023-11-02 17:02:05.042
0.0, 0.0, 0.0, 0.0, 0.0, 0.0, 0.0, 0.0, 0.0, -0.1, 0.968, -0.088, 192.0, 252.0, 224.0, 30.0, 64.0, 253.0, 64.0, 0.0, 0.0, 0.0, 1.6989589251398892E9, 0.0, 2023-11-02 17:02:05.139
1.0, -187500.02235174447, 187500.0, 32832.11980248926, 40870.7458818848, 187500.0, 187500.0, -187500.02235174447, 33178.97417294671, -0.1, 0.968, -0.088, 192.0, 0.0, 0.0, 0.0, 0.0, 0.0, 0.0, 0.0, 0.0, 0.0, 1.6989589256234915E9, 0.0, 2023-11-02 17:02:05.623
2.0, -187500.02235174447, 187500.0, 32828.63293035423, 40871.97522782985, 187500.0, 187500.0, -187500.02235174447, 33177.6330682794, -0.1, 0.968, -0.088, 192.0, 0.0, 0.0, 0.0, 0.0, 0.0, 0.0, 0.0, 0.0, 0.0, 1.6989589256235645E9, 0.0, 2023-11-02 17:02:05.623
3.0, -187500.02235174447, 187500.0, 32831.40454666669, 40879.12778605554, 187500.0, 187500.0, -187500.02235174447, 33183.1315974154, -0.1, 0.968, -0.088, 192.0, 0.0, 0.0, 0.0, 0.0, 0.0, 0.0, 0.0, 0.0, 0.0, 1.69895892562358E9, 0.0, 2023-11-02 17:02:05.623
4.0, -187500.02235174447, 187500.0, 32830.68929084412, 40878.18901278842, 187500.0, 187500.0, -187500.02235174447, 33182.483396826196, -0.1, 0.968, -0.088, 192.0, 0.0, 0.0, 0.0, 0.0, 0.0, 0.0, 0.0, 0.0, 0.0, 1.698958925623628E9, 0.0, 2023-11-02 17:02:05.623
5.0, -187500.02235174447, 187500.0, 32834.891418801715, 40870.410605717974, 187500.0, 187500.0, -187500.02235174447, 33184.96444046074, -0.1, 0.968, -0.088, 192.0, 0.0, 0.0, 0.0, 0.0, 0.0, 0.0, 0.0, 0.0, 0.0, 1.6989589256236403E9, 0.0, 2023-11-02 17:02:05.623
6.0, -187500.02235174447, 187500.0, 32836.366633935766, 40880.066559322666, 187500.0, 187500.0, -187500.02235174447, 33188.60777480695, -0.1, 0.968, -0.088, 192.0, 0.0, 0.0, 0.0, 0.0, 0.0, 0.0, 0.0, 0.0, 0.0, 1.698958925623655E9, 0.0, 2023-11-02 17:02:05.623
7.0, -187500.02235174447, 187500.0, 32826.17423846415, 40892.82940540664, 187500.0, 187500.0, -187500.02235174447, 33181.27640262561, -0.1, 0.968, -0.088, 192.0, 0.0, 0.0, 0.0, 0.0, 0.0, 0.0, 0.0, 0.0, 0.0, 1.698958925623666E9, 0.0, 2023-11-02 17:02:05.623
8.0, -187500.02235174447, 187500.0, 32820.988633750516, 40883.486376224326, 187500.0, 187500.0, -187500.02235174447, 33176.78370199009, -0.092, 0.97, -0.098, 192.0, 253.0, 32.0, 30.0, 80.0, 252.0, 240.0, 0.0, 0.0, 0.0, 1.6989589256236775E9, 0.0, 2023-11-02 17:02:05.623
9.0, -187500.02235174447, 187500.0, 32824.49785763, 40882.927582612945, 187500.0, 187500.0, -187500.02235174447, 33182.66221078184, -0.092, 0.97, -0.098, 192.0, 0.0, 0.0, 0.0, 0.0, 0.0, 0.0, 0.0, 0.0, 0.0, 1.6989589256236925E9, 0.0, 2023-11-02 17:02:05.623
10.0, -187500.02235174447, 187500.0, 32830.5998838663, 40886.01212334778, 187500.0, 187500.0, -187500.02235174447, 33186.90904222835, -0.092, 0.97, -0.098, 192.0, 0.0, 0.0, 0.0, 0.0, 0.0, 0.0, 0.0, 0.0, 0.0, 1.698958925623704E9, 0.0, 2023-11-02 17:02:05.623
11.0, -187500.02235174447, 187500.0, 32834.37732867924, 40896.562146730685, 187500.0, 187500.0, -187500.02235174447, 33189.34538237398, -0.092, 0.97, -0.098, 192.0, 0.0, 0.0, 0.0, 0.0, 0.0, 0.0, 0.0, 0.0, 0.0, 1.6989589256237147E9, 0.0, 2023-11-02 17:02:05.623
12.0, -187500.02235174447, 187500.0, 32831.181029222134, 40901.27836481075, 187500.0, 187500.0, -187500.02235174447, 33189.94887947427, -0.092, 0.97, -0.098, 192.0, 0.0, 0.0, 0.0, 0.0, 0.0, 0.0, 0.0, 0.0, 0.0, 1.6989589256237283E9, 0.0, 2023-11-02 17:02:05.623
13.0, -187500.02235174447, 187500.0, 32836.32193044686, 40896.11511184157, 187500.0, 187500.0, -187500.02235174447, 33194.95567023226, -0.092, 0.97, -0.098, 192.0, 0.0, 0.0, 0.0, 0.0, 0.0, 0.0, 0.0, 0.0, 0.0, 1.6989589256240804E9, 0.0, 2023-11-02 17:02:05.624
14.0, -187500.02235174447, 187500.0, 32838.467697914566, 40897.83619616464, 187500.0, 187500.0, -187500.02235174447, 33197.95080398927, -0.092, 0.97, -0.098, 192.0, 0.0, 0.0, 0.0, 0.0, 0.0, 0.0, 0.0, 0.0, 0.0, 1.698958925624091E9, 0.0, 2023-11-02 17:02:05.624
15.0, -187500.02235174447, 187500.0, 32832.589189122824, 40905.83812067963, 187500.0, 187500.0, -187500.02235174447, 33192.74284753118, -0.092, 0.97, -0.098, 192.0, 0.0, 0.0, 0.0, 0.0, 0.0, 0.0, 0.0, 0.0, 0.0, 1.6989589256241033E9, 0.0, 2023-11-02 17:02:05.624
16.0, -187500.02235174447, 187500.0, 32828.92350303215, 40903.67000146747, 187500.0, 187500.0, -187500.02235174447, 33188.04898119557, -0.092, 0.97, -0.098, 192.0, 0.0, 0.0, 0.0, 0.0, 0.0, 0.0, 0.0, 0.0, 0.0, 1.698958925624113E9, 0.0, 2023-11-02 17:02:05.624
17.0, -187500.02235174447, 187500.0, 32832.365671678264, 40899.691390954424, 187500.0, 187500.0, -187500.02235174447, 33190.50767308565, -0.092, 0.97, -0.098, 192.0, 0.0, 0.0, 0.0, 0.0, 0.0, 0.0, 0.0, 0.0, 0.0, 1.6989589256241229E9, 0.0, 2023-11-02 17:02:05.624
18.0, -187500.02235174447, 187500.0, 32829.236427454525, 40893.72347518486, 187500.0, 187500.0, -187500.02235174447, 33187.89251898438, -0.088, 0.976, -0.096, 192.0, 253.0, 64.0, 30.0, 128.0, 253.0, 0.0, 0.0, 0.0, 0.0, 1.698958925624133E9, 0.0, 2023-11-02 17:02:05.624
19.0, -187500.02235174447, 187500.0, 32828.20824720958, 40899.46787350987, 187500.0, 187500.0, -187500.02235174447, 33188.13838817339, -0.088, 0.976, -0.096, 192.0, 0.0, 0.0, 0.0, 0.0, 0.0, 0.0, 0.0, 0.0, 0.0, 1.6989589256241434E9, 0.0, 2023-11-02 17:02:05.624
20.0, -187500.02235174447, 187500.0, 32821.72624131754, 40902.641821222525, 187500.0, 187500.0, -187500.02235174447, 33181.499920070164, -0.088, 0.976, -0.096, 192.0, 0.0, 0.0, 0.0, 0.0, 0.0, 0.0, 0.0, 0.0, 0.0, 1.698958925624153E9, 0.0, 2023-11-02 17:02:05.624
21.0, -187500.02235174447, 187500.0, 32824.52020937445, 40889.81191990518, 187500.0, 187500.0, -187500.02235174447, 33184.53975731609, -0.088, 0.976, -0.096, 192.0, 0.0, 0.0, 0.0, 0.0, 0.0, 0.0, 0.0, 0.0, 0.0, 1.698958925624163E9, 0.0, 2023-11-02 17:02:05.624
22.0, -187500.02235174447, 187500.0, 32826.68832858662, 40896.562146730685, 187500.0, 187500.0, -187500.02235174447, 33189.546548074075, -0.088, 0.976, -0.096, 192.0, 0.0, 0.0, 0.0, 0.0, 0.0, 0.0, 0.0, 0.0, 0.0, 1.6989589256241727E9, 0.0, 2023-11-02 17:02:05.624
23.0, -187500.02235174447, 187500.0, 32822.88853202922, 40905.10051311261, 187500.0, 187500.0, -187500.02235174447, 33185.99262070568, -0.088, 0.976, -0.096, 192.0, 0.0, 0.0, 0.0, 0.0, 0.0, 0.0, 0.0, 0.0, 0.0, 1.6989589256241827E9, 0.0, 2023-11-02 17:02:05.624
24.0, -187500.02235174447, 187500.0, 32820.720412817056, 40909.839082937135, 187500.0, 187500.0, -187500.02235174447, 33181.09758866997, -0.088, 0.976, -0.096, 192.0, 0.0, 0.0, 0.0, 0.0, 0.0, 0.0, 0.0, 0.0, 0.0, 1.6989589256241925E9, 0.0, 2023-11-02 17:02:05.624
25.0, -187500.02235174447, 187500.0, 32816.80885753738, 40900.42899852145, 187500.0, 187500.0, -187500.02235174447, 33179.488263069186, -0.088, 0.976, -0.096, 192.0, 0.0, 0.0, 0.0, 0.0, 0.0, 0.0, 0.0, 0.0, 0.0, 1.6989589256242023E9, 0.0, 2023-11-02 17:02:05.624
26.0, -187500.02235174447, 187500.0, 32811.22092142355, 40891.71181818388, 187500.0, 187500.0, -187500.02235174447, 33177.36484734593, -0.088, 0.976, -0.096, 192.0, 0.0, 0.0, 0.0, 0.0, 0.0, 0.0, 0.0, 0.0, 0.0, 1.698958925624214E9, 0.0, 2023-11-02 17:02:05.624
27.0, -187500.02235174447, 187500.0, 32813.299633657894, 40897.187995575434, 187500.0, 187500.0, -187500.02235174447, 33180.449388080764, -0.076, 0.972, -0.096, 192.0, 253.0, 160.0, 30.0, 96.0, 253.0, 0.0, 0.0, 0.0, 0.0, 1.6989589256242237E9, 0.0, 2023-11-02 17:02:05.624
28.0, -187500.02235174447, 187500.0, 32814.23840692501, 40904.22879507885, 187500.0, 187500.0, -187500.02235174447, 33180.35998110294, -0.076, 0.972, -0.096, 192.0, 0.0, 0.0, 0.0, 0.0, 0.0, 0.0, 0.0, 0.0, 0.0, 1.6989589256242676E9, 0.0, 2023-11-02 17:02:05.624
29.0, -187500.02235174447, 187500.0, 32814.95366274758, 40898.640858965024, 187500.0, 187500.0, -187500.02235174447, 33180.47173982522, -0.076, 0.972, -0.096, 192.0, 0.0, 0.0, 0.0, 0.0, 0.0, 0.0, 0.0, 0.0, 0.0, 1.6989589256242776E9, 0.0, 2023-11-02 17:02:05.624
30.0, -187500.02235174447, 187500.0, 32811.08681095682, 40891.13067282804, 187500.0, 187500.0, -187500.02235174447, 33176.60488803445, -0.076, 0.972, -0.096, 192.0, 0.0, 0.0, 0.0, 0.0, 0.0, 0.0, 0.0, 0.0, 0.0, 1.6989589256242871E9, 0.0, 2023-11-02 17:02:05.624
31.0, -187500.02235174447, 187500.0, 32817.85938952678, 40893.477605995846, 187500.0, 187500.0, -187500.02235174447, 33183.533928815596, -0.076, 0.972, -0.096, 192.0, 0.0, 0.0, 0.0, 0.0, 0.0, 0.0, 0.0, 0.0, 0.0, 1.698958925624297E9, 0.0, 2023-11-02 17:02:05.624
32.0, -187500.02235174447, 187500.0, 32817.50176161549, 40904.22879507885, 187500.0, 187500.0, -187500.02235174447, 33183.80214974906, -0.076, 0.972, -0.096, 192.0, 0.0, 0.0, 0.0, 0.0, 0.0, 0.0, 0.0, 0.0, 0.0, 1.6989589256243064E9, 0.0, 2023-11-02 17:02:05.624
33.0, -187500.02235174447, 187500.0, 32817.21118893757, 40903.67000146747, 187500.0, 187500.0, -187500.02235174447, 33183.600984048964, -0.076, 0.972, -0.096, 192.0, 0.0, 0.0, 0.0, 0.0, 0.0, 0.0, 0.0, 0.0, 0.0, 1.6989589256243165E9, 0.0, 2023-11-02 17:02:05.624
34.0, -187500.02235174447, 187500.0, 32822.665014584665, 40905.61460323508, 187500.0, 187500.0, -187500.02235174447, 33188.33955387349, -0.076, 0.972, -0.096, 192.0, 0.0, 0.0, 0.0, 0.0, 0.0, 0.0, 0.0, 0.0, 0.0, 1.6989589256243258E9, 0.0, 2023-11-02 17:02:05.624
35.0, -187500.02235174447, 187500.0, 32818.194665693605, 40910.42022829297, 187500.0, 187500.0, -187500.02235174447, 33185.65734453885, -0.076, 0.972, -0.096, 192.0, 0.0, 0.0, 0.0, 0.0, 0.0, 0.0, 0.0, 0.0, 0.0, 1.6989589256243355E9, 0.0, 2023-11-02 17:02:05.624
36.0, -187500.02235174447, 187500.0, 32821.323909917344, 40914.13061787255, 187500.0, 187500.0, -187500.02235174447, 33189.61360330744, -0.076, 0.972, -0.096, 192.0, 0.0, 0.0, 0.0, 0.0, 0.0, 0.0, 0.0, 0.0, 0.0, 1.6989589256243453E9, 0.0, 2023-11-02 17:02:05.624
37.0, -187500.02235174447, 187500.0, 32820.563950605865, 40914.19767310592, 187500.0, 187500.0, -187500.02235174447, 33189.546548074075, -0.08, 0.974, -0.094, 192.0, 253.0, 128.0, 30.0, 112.0, 253.0, 16.0, 0.0, 0.0, 0.0, 1.698958925624355E9, 0.0, 2023-11-02 17:02:05.624
38.0, -187500.02235174447, 187500.0, 32821.45802038408, 40900.36194328808, 187500.0, 187500.0, -187500.02235174447, 33190.50767308565, -0.08, 0.974, -0.094, 192.0, 0.0, 0.0, 0.0, 0.0, 0.0, 0.0, 0.0, 0.0, 0.0, 1.698958925624365E9, 0.0, 2023-11-02 17:02:05.624
39.0, -187500.02235174447, 187500.0, 32821.25685468398, 40901.43482702194, 187500.0, 187500.0, -187500.02235174447, 33190.82059750803, -0.08, 0.974, -0.094, 192.0, 0.0, 0.0, 0.0, 0.0, 0.0, 0.0, 0.0, 0.0, 0.0, 1.698958925624375E9, 0.0, 2023-11-02 17:02:05.624
40.0, -187500.02235174447, 187500.0, 32816.67474707064, 40911.448408537915, 187500.0, 187500.0, -187500.02235174447, 33185.99262070568, -0.08, 0.974, -0.094, 192.0, 0.0, 0.0, 0.0, 0.0, 0.0, 0.0, 0.0, 0.0, 0.0, 1.698958925624385E9, 0.0, 2023-11-02 17:02:05.624
41.0, -187500.02235174447, 187500.0, 32823.93906401862, 40914.84587369512, 187500.0, 187500.0, -187500.02235174447, 33193.92748998731, -0.08, 0.974, -0.094, 192.0, 0.0, 0.0, 0.0, 0.0, 0.0, 0.0, 0.0, 0.0, 0.0, 1.698958925624396E9, 0.0, 2023-11-02 17:02:05.624
42.0, -187500.02235174447, 187500.0, 32824.56491286337, 40911.49311202683, 187500.0, 187500.0, -187500.02235174447, 33194.173359176326, -0.08, 0.974, -0.094, 192.0, 0.0, 0.0, 0.0, 0.0, 0.0, 0.0, 0.0, 0.0, 0.0, 1.6989589256244059E9, 0.0, 2023-11-02 17:02:05.624
43.0, -187500.02235174447, 187500.0, 32824.83313379683, 40905.14521660152, 187500.0, 187500.0, -187500.02235174447, 33195.223891165726, -0.08, 0.974, -0.094, 192.0, 0.0, 0.0, 0.0, 0.0, 0.0, 0.0, 0.0, 0.0, 0.0, 1.698958925624426E9, 0.0, 2023-11-02 17:02:05.624
44.0, -187500.02235174447, 187500.0, 32824.81078205237, 40917.48337954085, 187500.0, 187500.0, -187500.02235174447, 33196.20736792176, -0.08, 0.974, -0.094, 192.0, 0.0, 0.0, 0.0, 0.0, 0.0, 0.0, 0.0, 0.0, 0.0, 1.698958925624436E9, 0.0, 2023-11-02 17:02:05.624
45.0, -187500.02235174447, 187500.0, 32816.853561026284, 40919.38327781955, 187500.0, 187500.0, -187500.02235174447, 33192.072295197526, -0.08, 0.974, -0.094, 192.0, 0.0, 0.0, 0.0, 0.0, 0.0, 0.0, 0.0, 0.0, 0.0, 1.6989589256244457E9, 0.0, 2023-11-02 17:02:05.624
46.0, -187500.02235174447, 187500.0, 32814.70779355858, 40910.129655615056, 187500.0, 187500.0, -187500.02235174447, 33190.462969596745, -0.08, 0.974, -0.094, 192.0, 0.0, 0.0, 0.0, 0.0, 0.0, 0.0, 0.0, 0.0, 0.0, 1.6989589256244552E9, 0.0, 2023-11-02 17:02:05.624
47.0, -187500.02235174447, 187500.0, 32825.458982641576, 40910.08495212614, 187500.0, 187500.0, -187500.02235174447, 33198.777818534116, -0.082, 0.974, -0.09, 192.0, 253.0, 112.0, 30.0, 112.0, 253.0, 48.0, 0.0, 0.0, 0.0, 1.6989589256244667E9, 0.0, 2023-11-02 17:02:05.624
48.0, -187500.02235174447, 187500.0, 32820.698061072595, 40915.89640568452, 187500.0, 187500.0, -187500.02235174447, 33193.61456556494, -0.082, 0.974, -0.09, 192.0, 0.0, 0.0, 0.0, 0.0, 0.0, 0.0, 0.0, 0.0, 0.0, 1.698958925624477E9, 0.0, 2023-11-02 17:02:05.624
49.0, -187500.02235174447, 187500.0, 32820.09456397231, 40918.13158013005, 187500.0, 187500.0, -187500.02235174447, 33192.966364975735, -0.082, 0.974, -0.09, 192.0, 0.0, 0.0, 0.0, 0.0, 0.0, 0.0, 0.0, 0.0, 0.0, 1.6989589256244864E9, 0.0, 2023-11-02 17:02:05.624
50.0, -187500.02235174447, 187500.0, 32821.055688983884, 40911.023725393265, 187500.0, 187500.0, -187500.02235174447, 33194.4862835987, -0.082, 0.974, -0.09, 192.0, 0.0, 0.0, 0.0, 0.0, 0.0, 0.0, 0.0, 0.0, 0.0, 1.698958925624496E9, 0.0, 2023-11-02 17:02:05.624
51.0, -187500.02235174447, 187500.0, 32817.010023237475, 40913.549472516715, 187500.0, 187500.0, -187500.02235174447, 33190.19474866328, -0.082, 0.974, -0.09, 192.0, 0.0, 0.0, 0.0, 0.0, 0.0, 0.0, 0.0, 0.0, 0.0, 1.6989589256245058E9, 0.0, 2023-11-02 17:02:05.624
52.0, -187500.02235174447, 187500.0, 32811.73501154602, 40918.511559785795, 187500.0, 187500.0, -187500.02235174447, 33185.05384743856, -0.082, 0.974, -0.09, 192.0, 0.0, 0.0, 0.0, 0.0, 0.0, 0.0, 0.0, 0.0, 0.0, 1.6989589256245155E9, 0.0, 2023-11-02 17:02:05.624
53.0, -187500.02235174447, 187500.0, 32810.10333420078, 40923.07131565468, 187500.0, 187500.0, -187500.02235174447, 33185.94791721677, -0.082, 0.974, -0.09, 192.0, 0.0, 0.0, 0.0, 0.0, 0.0, 0.0, 0.0, 0.0, 0.0, 1.6989589256245253E9, 0.0, 2023-11-02 17:02:05.624
54.0, -187500.02235174447, 187500.0, 32808.42695336664, 40925.59706277813, 187500.0, 187500.0, -187500.02235174447, 33189.77006551863, -0.082, 0.974, -0.09, 192.0, 0.0, 0.0, 0.0, 0.0, 0.0, 0.0, 0.0, 0.0, 0.0, 1.698958925624535E9, 0.0, 2023-11-02 17:02:05.624
55.0, -187500.02235174447, 187500.0, 32807.287014399415, 40924.27830985526, 187500.0, 187500.0, -187500.02235174447, 33192.65344055336, -0.082, 0.974, -0.09, 192.0, 0.0, 0.0, 0.0, 0.0, 0.0, 0.0, 0.0, 0.0, 0.0, 1.698958925624545E9, 0.0, 2023-11-02 17:02:05.624
56.0, -187500.02235174447, 187500.0, 32810.77388653444, 40933.129600659566, 187500.0, 187500.0, -187500.02235174447, 33194.374524876424, -0.082, 0.974, -0.09, 192.0, 0.0, 0.0, 0.0, 0.0, 0.0, 0.0, 0.0, 0.0, 0.0, 1.6989589256245549E9, 0.0, 2023-11-02 17:02:05.624
57.0, -187500.02235174447, 187500.0, 32813.16552319116, 40936.8623419836, 187500.0, 187500.0, -187500.02235174447, 33193.90513824286, -0.08, 0.98, -0.09, 192.0, 253.0, 128.0, 30.0, 160.0, 253.0, 48.0, 0.0, 0.0, 0.0, 1.698958925624565E9, 0.0, 2023-11-02 17:02:05.624
58.0, -187500.02235174447, 187500.0, 32813.567854591354, 40934.00131869332, 187500.0, 187500.0, -187500.02235174447, 33195.201539421265, -0.08, 0.98, -0.09, 192.0, 0.0, 0.0, 0.0, 0.0, 0.0, 0.0, 0.0, 0.0, 0.0, 1.698958925624585E9, 0.0, 2023-11-02 17:02:05.624
59.0, -187500.02235174447, 187500.0, 32819.06638372736, 40934.940091960445, 187500.0, 187500.0, -187500.02235174447, 33201.16945519084, -0.08, 0.98, -0.09, 192.0, 0.0, 0.0, 0.0, 0.0, 0.0, 0.0, 0.0, 0.0, 0.0, 1.6989589256245944E9, 0.0, 2023-11-02 17:02:05.624
60.0, -187500.02235174447, 187500.0, 32817.52411335994, 40946.115964188095, 187500.0, 187500.0, -187500.02235174447, 33199.694240056786, -0.08, 0.98, -0.09, 192.0, 0.0, 0.0, 0.0, 0.0, 0.0, 0.0, 0.0, 0.0, 0.0, 1.6989589256246045E9, 0.0, 2023-11-02 17:02:05.624
61.0, -187500.02235174447, 187500.0, 32811.8467702683, 40951.70390030192, 187500.0, 187500.0, -187500.02235174447, 33194.776856276614, -0.08, 0.98, -0.09, 192.0, 0.0, 0.0, 0.0, 0.0, 0.0, 0.0, 0.0, 0.0, 0.0, 1.698958925624614E9, 0.0, 2023-11-02 17:02:05.624
62.0, -187500.02235174447, 187500.0, 32811.265624912456, 40946.80886826621, 187500.0, 187500.0, -187500.02235174447, 33194.26276615414, -0.08, 0.98, -0.09, 192.0, 0.0, 0.0, 0.0, 0.0, 0.0, 0.0, 0.0, 0.0, 0.0, 1.6989589256246235E9, 0.0, 2023-11-02 17:02:05.624
63.0, -187500.02235174447, 187500.0, 32814.46192436956, 40942.38322286406, 187500.0, 187500.0, -187500.02235174447, 33198.17432143382, -0.08, 0.98, -0.09, 192.0, 0.0, 0.0, 0.0, 0.0, 0.0, 0.0, 0.0, 0.0, 0.0, 1.6989589256246336E9, 0.0, 2023-11-02 17:02:05.624
64.0, -187500.02235174447, 187500.0, 32809.790409778405, 40940.68449028546, 187500.0, 187500.0, -187500.02235174447, 33194.19571092078, -0.08, 0.98, -0.09, 192.0, 0.0, 0.0, 0.0, 0.0, 0.0, 0.0, 0.0, 0.0, 0.0, 1.698958925624643E9, 0.0, 2023-11-02 17:02:05.624
65.0, -187500.02235174447, 187500.0, 32811.66795631265, 40949.93811248995, 187500.0, 187500.0, -187500.02235174447, 33195.38035337691, -0.08, 0.98, -0.09, 192.0, 0.0, 0.0, 0.0, 0.0, 0.0, 0.0, 0.0, 0.0, 0.0, 1.698958925624653E9, 0.0, 2023-11-02 17:02:05.624
66.0, -187500.02235174447, 187500.0, 32813.21022668007, 40957.20242943793, 187500.0, 187500.0, -187500.02235174447, 33196.47558885522, -0.08, 0.98, -0.09, 192.0, 0.0, 0.0, 0.0, 0.0, 0.0, 0.0, 0.0, 0.0, 0.0, 1.6989589256246629E9, 0.0, 2023-11-02 17:02:05.624
67.0, -187500.02235174447, 187500.0, 32813.500799357986, 40942.405574608514, 187500.0, 187500.0, -187500.02235174447, 33195.15683593236, -0.08, 0.982, -0.08, 192.0, 253.0, 128.0, 30.0, 176.0, 253.0, 128.0, 0.0, 0.0, 0.0, 1.6989589256246727E9, 0.0, 2023-11-02 17:02:05.624
68.0, -187500.02235174447, 187500.0, 32814.95366274758, 40941.9138362305, 187500.0, 187500.0, -187500.02235174447, 33193.94984173177, -0.08, 0.982, -0.08, 192.0, 0.0, 0.0, 0.0, 0.0, 0.0, 0.0, 0.0, 0.0, 0.0, 1.6989589256246846E9, 0.0, 2023-11-02 17:02:05.624
69.0, -187500.02235174447, 187500.0, 32811.37738363473, 40941.10917343011, 187500.0, 187500.0, -187500.02235174447, 33190.35121087447, -0.08, 0.982, -0.08, 192.0, 0.0, 0.0, 0.0, 0.0, 0.0, 0.0, 0.0, 0.0, 0.0, 1.6989589256246943E9, 0.0, 2023-11-02 17:02:05.624
70.0, -187500.02235174447, 187500.0, 32814.908959258675, 40938.82929549567, 187500.0, 187500.0, -187500.02235174447, 33196.609699321954, -0.08, 0.982, -0.08, 192.0, 0.0, 0.0, 0.0, 0.0, 0.0, 0.0, 0.0, 0.0, 0.0, 1.6989589256247041E9, 0.0, 2023-11-02 17:02:05.624
71.0, -187500.02235174447, 187500.0, 32816.25006392599, 40938.069336184184, 187500.0, 187500.0, -187500.02235174447, 33198.12961794491, -0.08, 0.982, -0.08, 192.0, 0.0, 0.0, 0.0, 0.0, 0.0, 0.0, 0.0, 0.0, 0.0, 1.6989589256247141E9, 0.0, 2023-11-02 17:02:05.624
72.0, -187500.02235174447, 187500.0, 32816.160656948174, 40934.71657451589, 187500.0, 187500.0, -187500.02235174447, 33198.88957725639, -0.08, 0.982, -0.08, 192.0, 0.0, 0.0, 0.0, 0.0, 0.0, 0.0, 0.0, 0.0, 0.0, 1.6989589256247244E9, 0.0, 2023-11-02 17:02:05.624
73.0, -187500.02235174447, 187500.0, 32818.753459304986, 40932.213179136896, 187500.0, 187500.0, -187500.02235174447, 33203.22581568072, -0.08, 0.982, -0.08, 192.0, 0.0, 0.0, 0.0, 0.0, 0.0, 0.0, 0.0, 0.0, 0.0, 1.6989589256247344E9, 0.0, 2023-11-02 17:02:05.624
74.0, -187500.02235174447, 187500.0, 32819.53577036092, 40926.28996685624, 187500.0, 187500.0, -187500.02235174447, 33203.56109184755, -0.08, 0.982, -0.08, 192.0, 0.0, 0.0, 0.0, 0.0, 0.0, 0.0, 0.0, 0.0, 0.0, 1.6989589256247566E9, 0.0, 2023-11-02 17:02:05.624
75.0, -187500.02235174447, 187500.0, 32824.52020937445, 40909.704972470405, 187500.0, 187500.0, -187500.02235174447, 33208.67964132782, -0.08, 0.982, -0.08, 192.0, 0.0, 0.0, 0.0, 0.0, 0.0, 0.0, 0.0, 0.0, 0.0, 1.6989589256247675E9, 0.0, 2023-11-02 17:02:05.624
76.0, -187500.02235174447, 187500.0, 32817.09943021529, 40893.94699262941, 187500.0, 187500.0, -187500.02235174447, 33201.30356565757, -0.08, 0.982, -0.08, 192.0, 0.0, 0.0, 0.0, 0.0, 0.0, 0.0, 0.0, 0.0, 0.0, 1.6989589256247785E9, 0.0, 2023-11-02 17:02:05.624
77.0, -187500.02235174447, 187500.0, 32818.41818313816, 40886.66032393698, 187500.0, 187500.0, -187500.02235174447, 33198.80017027857, -0.076, 0.98, -0.08, 192.0, 253.0, 160.0, 30.0, 160.0, 253.0, 128.0, 0.0, 0.0, 0.0, 1.6989589256247888E9, 0.0, 2023-11-02 17:02:05.624
78.0, -187500.02235174447, 187500.0, 32823.96141576307, 40891.53300422824, 187500.0, 187500.0, -187500.02235174447, 33200.92358600182, -0.076, 0.98, -0.08, 192.0, 0.0, 0.0, 0.0, 0.0, 0.0, 0.0, 0.0, 0.0, 0.0, 1.6989589256247995E9, 0.0, 2023-11-02 17:02:05.624
79.0, -187500.02235174447, 187500.0, 32823.13440121822, 40893.052922851195, 187500.0, 187500.0, -187500.02235174447, 33196.76616153314, -0.076, 0.98, -0.08, 192.0, 0.0, 0.0, 0.0, 0.0, 0.0, 0.0, 0.0, 0.0, 0.0, 1.6989589256248105E9, 0.0, 2023-11-02 17:02:05.624
80.0, -187500.02235174447, 187500.0, 32820.65335758369, 40888.873146638056, 187500.0, 187500.0, -187500.02235174447, 33190.95470797476, -0.076, 0.98, -0.08, 192.0, 0.0, 0.0, 0.0, 0.0, 0.0, 0.0, 0.0, 0.0, 0.0, 1.6989589256248202E9, 0.0, 2023-11-02 17:02:05.624
81.0, -187500.02235174447, 187500.0, 32819.42401163864, 40887.397931504005, 187500.0, 187500.0, -187500.02235174447, 33187.66900153983, -0.076, 0.98, -0.08, 192.0, 0.0, 0.0, 0.0, 0.0, 0.0, 0.0, 0.0, 0.0, 0.0, 1.6989589256248298E9, 0.0, 2023-11-02 17:02:05.624
82.0, -187500.02235174447, 187500.0, 32816.04889822589, 40884.91688786947, 187500.0, 187500.0, -187500.02235174447, 33179.89059446938, -0.076, 0.98, -0.08, 192.0, 0.0, 0.0, 0.0, 0.0, 0.0, 0.0, 0.0, 0.0, 0.0, 1.6989589256248398E9, 0.0, 2023-11-02 17:02:05.624
83.0, -187500.02235174447, 187500.0, 32822.665014584665, 40881.452367478894, 187500.0, 187500.0, -187500.02235174447, 33181.83519623699, -0.076, 0.98, -0.08, 192.0, 0.0, 0.0, 0.0, 0.0, 0.0, 0.0, 0.0, 0.0, 0.0, 1.6989589256248505E9, 0.0, 2023-11-02 17:02:05.624
84.0, -187500.02235174447, 187500.0, 32826.62127335325, 40871.19291677391, 187500.0, 187500.0, -187500.02235174447, 33182.19282414828, -0.076, 0.98, -0.08, 192.0, 0.0, 0.0, 0.0, 0.0, 0.0, 0.0, 0.0, 0.0, 0.0, 1.6989589256248608E9, 0.0, 2023-11-02 17:02:05.624
85.0, -187500.02235174447, 187500.0, 32821.681537828634, 40863.638027148016, 187500.0, 187500.0, -187500.02235174447, 33174.4814723112, -0.076, 0.98, -0.08, 192.0, 0.0, 0.0, 0.0, 0.0, 0.0, 0.0, 0.0, 0.0, 0.0, 1.6989589256248708E9, 0.0, 2023-11-02 17:02:05.624
86.0, -187500.02235174447, 187500.0, 32821.72624131754, 40864.55444867068, 187500.0, 187500.0, -187500.02235174447, 33170.79343447607, -0.076, 0.98, -0.08, 192.0, 0.0, 0.0, 0.0, 0.0, 0.0, 0.0, 0.0, 0.0, 0.0, 1.6989589256248803E9, 0.0, 2023-11-02 17:02:05.624
87.0, -187500.02235174447, 187500.0, 32825.01194775247, 40859.97234105734, 187500.0, 187500.0, -187500.02235174447, 33171.19576587627, -0.08, 0.972, -0.08, 192.0, 253.0, 128.0, 30.0, 96.0, 253.0, 128.0, 0.0, 0.0, 0.0, 1.6989589256248913E9, 0.0, 2023-11-02 17:02:05.624
88.0, -187500.02235174447, 187500.0, 32830.577532121846, 40856.17254449994, 187500.0, 187500.0, -187500.02235174447, 33175.46494906723, -0.08, 0.972, -0.08, 192.0, 0.0, 0.0, 0.0, 0.0, 0.0, 0.0, 0.0, 0.0, 0.0, 1.6989589256249037E9, 0.0, 2023-11-02 17:02:05.624
89.0, -187500.02235174447, 187500.0, 32830.93516003313, 40866.99078881631, 187500.0, 187500.0, -187500.02235174447, 33176.671943267815, -0.08, 0.972, -0.08, 192.0, 0.0, 0.0, 0.0, 0.0, 0.0, 0.0, 0.0, 0.0, 0.0, 1.6989589256249464E9, 0.0, 2023-11-02 17:02:05.624
90.0, -187500.02235174447, 187500.0, 32827.47063964255, 40883.1511000575, 187500.0, 187500.0, -187500.02235174447, 33172.5815740325, -0.08, 0.972, -0.08, 192.0, 0.0, 0.0, 0.0, 0.0, 0.0, 0.0, 0.0, 0.0, 0.0, 1.698958925624967E9, 0.0, 2023-11-02 17:02:05.624
91.0, -187500.02235174447, 187500.0, 32830.26460769947, 40896.38333277504, 187500.0, 187500.0, -187500.02235174447, 33173.118015899425, -0.08, 0.972, -0.08, 192.0, 0.0, 0.0, 0.0, 0.0, 0.0, 0.0, 0.0, 0.0, 0.0, 1.6989589256249807E9, 0.0, 2023-11-02 17:02:05.624
92.0, -187500.02235174447, 187500.0, 32831.29278794441, 40901.43482702194, 187500.0, 187500.0, -187500.02235174447, 33174.8838037114, -0.08, 0.972, -0.08, 192.0, 0.0, 0.0, 0.0, 0.0, 0.0, 0.0, 0.0, 0.0, 0.0, 1.698958925624994E9, 0.0, 2023-11-02 17:02:05.624
93.0, -187500.02235174447, 187500.0, 32828.58822686532, 40899.62433572106, 187500.0, 187500.0, -187500.02235174447, 33171.39693157637, -0.08, 0.972, -0.08, 192.0, 0.0, 0.0, 0.0, 0.0, 0.0, 0.0, 0.0, 0.0, 0.0, 1.6989589256250088E9, 0.0, 2023-11-02 17:02:05.625
94.0, -187500.02235174447, 187500.0, 32834.958474035084, 40898.797321176215, 187500.0, 187500.0, -187500.02235174447, 33177.521309557116, -0.08, 0.972, -0.08, 192.0, 0.0, 0.0, 0.0, 0.0, 0.0, 0.0, 0.0, 0.0, 0.0, 1.698958925625021E9, 0.0, 2023-11-02 17:02:05.625
95.0, -187500.02235174447, 187500.0, 32832.92446528965, 40908.028591636255, 187500.0, 187500.0, -187500.02235174447, 33174.235603122186, -0.08, 0.972, -0.08, 192.0, 0.0, 0.0, 0.0, 0.0, 0.0, 0.0, 0.0, 0.0, 0.0, 1.6989589256250353E9, 0.0, 2023-11-02 17:02:05.625
96.0, -187500.02235174447, 187500.0, 32828.07413674285, 40892.47177749536, 187500.0, 187500.0, -187500.02235174447, 33166.09956814046, -0.08, 0.972, -0.08, 192.0, 0.0, 0.0, 0.0, 0.0, 0.0, 0.0, 0.0, 0.0, 0.0, 1.6989589256250482E9, 0.0, 2023-11-02 17:02:05.625
97.0, -187500.02235174447, 187500.0, 32833.05857575638, 40887.84496639311, 187500.0, 187500.0, -187500.02235174447, 33170.391103075875, -0.078, 0.982, -0.08, 192.0, 253.0, 144.0, 30.0, 176.0, 253.0, 128.0, 0.0, 0.0, 0.0, 1.6989589256250663E9, 0.0, 2023-11-02 17:02:05.625
98.0, -187500.02235174447, 187500.0, 32829.83992455482, 40900.406646776995, 187500.0, 187500.0, -187500.02235174447, 33167.48537629669, -0.078, 0.982, -0.08, 192.0, 0.0, 0.0, 0.0, 0.0, 0.0, 0.0, 0.0, 0.0, 0.0, 1.6989589256250799E9, 0.0, 2023-11-02 17:02:05.625
99.0, -187500.02235174447, 187500.0, 32821.614482595265, 40901.47953051085, 187500.0, 187500.0, -187500.02235174447, 33160.46692853772, -0.078, 0.982, -0.08, 192.0, 0.0, 0.0, 0.0, 0.0, 0.0, 0.0, 0.0, 0.0, 0.0, 1.6989589256250925E9, 0.0, 2023-11-02 17:02:05.625
100.0, -187500.02235174447, 187500.0, 32822.32973841784, 40904.742885201325, 187500.0, 187500.0, -187500.02235174447, 33164.13261462839, -0.078, 0.982, -0.08, 192.0, 0.0, 0.0, 0.0, 0.0, 0.0, 0.0, 0.0, 0.0, 0.0, 1.6989589256251097E9, 0.0, 2023-11-02 17:02:05.625
101.0, -187500.02235174447, 187500.0, 32818.64170058271, 40902.150082844506, 187500.0, 187500.0, -187500.02235174447, 33159.39404480386, -0.078, 0.982, -0.08, 192.0, 0.0, 0.0, 0.0, 0.0, 0.0, 0.0, 0.0, 0.0, 0.0, 1.6989589256251216E9, 0.0, 2023-11-02 17:02:05.625
102.0, -187500.02235174447, 187500.0, 32810.93034874563, 40908.05094338071, 187500.0, 187500.0, -187500.02235174447, 33152.39794878935, -0.078, 0.982, -0.08, 192.0, 0.0, 0.0, 0.0, 0.0, 0.0, 0.0, 0.0, 0.0, 0.0, 1.698958925625137E9, 0.0, 2023-11-02 17:02:05.625
103.0, -187500.02235174447, 187500.0, 32810.97505223454, 40919.696202241925, 187500.0, 187500.0, -187500.02235174447, 33153.80610869004, -0.078, 0.982, -0.08, 192.0, 0.0, 0.0, 0.0, 0.0, 0.0, 0.0, 0.0, 0.0, 0.0, 1.6989589256251502E9, 0.0, 2023-11-02 17:02:05.625
104.0, -187500.02235174447, 187500.0, 32805.83415100982, 40916.72342022937, 187500.0, 187500.0, -187500.02235174447, 33150.073367366, -0.078, 0.982, -0.08, 192.0, 0.0, 0.0, 0.0, 0.0, 0.0, 0.0, 0.0, 0.0, 0.0, 1.698958925625358E9, 0.0, 2023-11-02 17:02:05.625
105.0, -187500.02235174447, 187500.0, 32797.854578239276, 40910.62139399307, 187500.0, 187500.0, -187500.02235174447, 33144.306617296534, -0.078, 0.982, -0.08, 192.0, 0.0, 0.0, 0.0, 0.0, 0.0, 0.0, 0.0, 0.0, 0.0, 1.6989589256253731E9, 0.0, 2023-11-02 17:02:05.625
106.0, -187500.02235174447, 187500.0, 32791.551386302875, 40905.54754800171, 187500.0, 187500.0, -187500.02235174447, 33135.1200503254, -0.078, 0.982, -0.08, 192.0, 0.0, 0.0, 0.0, 0.0, 0.0, 0.0, 0.0, 0.0, 0.0, 1.698958925625384E9, 0.0, 2023-11-02 17:02:05.625
107.0, -187500.02235174447, 187500.0, 32791.484331069514, 40911.56016726019, 187500.0, 187500.0, -187500.02235174447, 33137.2211143042, -0.066, 0.982, -0.074, 192.0, 253.0, 240.0, 30.0, 176.0, 253.0, 176.0, 0.0, 0.0, 0.0, 1.6989589256253984E9, 0.0, 2023-11-02 17:02:05.625
108.0, -187500.02235174447, 187500.0, 32788.42214207914, 40912.65540273851, 187500.0, 187500.0, -187500.02235174447, 33139.322178283, -0.066, 0.982, -0.074, 192.0, 0.0, 0.0, 0.0, 0.0, 0.0, 0.0, 0.0, 0.0, 0.0, 1.6989589256254113E9, 0.0, 2023-11-02 17:02:05.625
109.0, -187500.02235174447, 187500.0, 32783.59416527679, 40910.08495212614, 187500.0, 187500.0, -187500.02235174447, 33136.617617203905, -0.066, 0.982, -0.074, 192.0, 0.0, 0.0, 0.0, 0.0, 0.0, 0.0, 0.0, 0.0, 0.0, 1.698958925625423E9, 0.0, 2023-11-02 17:02:05.625
110.0, -187500.02235174447, 187500.0, 32782.43187456511, 40911.314298071185, 187500.0, 187500.0, -187500.02235174447, 33135.47767823669, -0.066, 0.982, -0.074, 192.0, 0.0, 0.0, 0.0, 0.0, 0.0, 0.0, 0.0, 0.0, 0.0, 1.6989589256254346E9, 0.0, 2023-11-02 17:02:05.625
111.0, -187500.02235174447, 187500.0, 32790.25498512447, 40926.692298256436, 187500.0, 187500.0, -187500.02235174447, 33142.58553297348, -0.066, 0.982, -0.074, 192.0, 0.0, 0.0, 0.0, 0.0, 0.0, 0.0, 0.0, 0.0, 0.0, 1.6989589256254642E9, 0.0, 2023-11-02 17:02:05.625
112.0, -187500.02235174447, 187500.0, 32787.05868566736, 40924.63593776655, 187500.0, 187500.0, -187500.02235174447, 33139.54569572755, -0.066, 0.982, -0.074, 192.0, 0.0, 0.0, 0.0, 0.0, 0.0, 0.0, 0.0, 0.0, 0.0, 1.69895892562548E9, 0.0, 2023-11-02 17:02:05.625
113.0, -187500.02235174447, 187500.0, 32791.10435141377, 40903.49118751183, 187500.0, 187500.0, -187500.02235174447, 33144.91011439683, -0.066, 0.982, -0.074, 192.0, 0.0, 0.0, 0.0, 0.0, 0.0, 0.0, 0.0, 0.0, 0.0, 1.6989589256254957E9, 0.0, 2023-11-02 17:02:05.625
114.0, -187500.02235174447, 187500.0, 32788.22097637904, 40910.24141433733, 187500.0, 187500.0, -187500.02235174447, 33143.45725100723, -0.066, 0.982, -0.074, 192.0, 0.0, 0.0, 0.0, 0.0, 0.0, 0.0, 0.0, 0.0, 0.0, 1.698958925625507E9, 0.0, 2023-11-02 17:02:05.625
115.0, -187500.02235174447, 187500.0, 32783.32594434333, 40914.89057718404, 187500.0, 187500.0, -187500.02235174447, 33139.009253860626, -0.066, 0.982, -0.074, 192.0, 0.0, 0.0, 0.0, 0.0, 0.0, 0.0, 0.0, 0.0, 0.0, 1.6989589256255193E9, 0.0, 2023-11-02 17:02:05.625
116.0, -187500.02235174447, 187500.0, 32781.761322231454, 40913.77298996127, 187500.0, 187500.0, -187500.02235174447, 33137.64579744885, -0.066, 0.982, -0.074, 192.0, 0.0, 0.0, 0.0, 0.0, 0.0, 0.0, 0.0, 0.0, 0.0, 1.6989589256255329E9, 0.0, 2023-11-02 17:02:05.625
117.0, -187500.02235174447, 187500.0, 32780.12964488621, 40911.649574238014, 187500.0, 187500.0, -187500.02235174447, 33135.74589917015, -0.062, 0.972, -0.084, 192.0, 254.0, 16.0, 30.0, 96.0, 253.0, 96.0, 0.0, 0.0, 0.0, 1.6989589256255472E9, 0.0, 2023-11-02 17:02:05.625
118.0, -187500.02235174447, 187500.0, 32781.04606640888, 40908.87795792556, 187500.0, 187500.0, -187500.02235174447, 33137.243466048654, -0.062, 0.972, -0.084, 192.0, 0.0, 0.0, 0.0, 0.0, 0.0, 0.0, 0.0, 0.0, 0.0, 1.6989589256255596E9, 0.0, 2023-11-02 17:02:05.625
119.0, -187500.02235174447, 187500.0, 32773.982915161, 40912.61069924959, 187500.0, 187500.0, -187500.02235174447, 33130.336777011966, -0.062, 0.972, -0.084, 192.0, 0.0, 0.0, 0.0, 0.0, 0.0, 0.0, 0.0, 0.0, 0.0, 1.6989589256255987E9, 0.0, 2023-11-02 17:02:05.625
120.0, -187500.02235174447, 187500.0, 32776.57571751782, 40913.95180391691, 187500.0, 187500.0, -187500.02235174447, 33129.66622467831, -0.062, 0.972, -0.084, 192.0, 0.0, 0.0, 0.0, 0.0, 0.0, 0.0, 0.0, 0.0, 0.0, 1.6989589256256082E9, 0.0, 2023-11-02 17:02:05.625
121.0, -187500.02235174447, 187500.0, 32786.365781589244, 40916.4551992959, 187500.0, 187500.0, -187500.02235174447, 33139.99273061666, -0.062, 0.972, -0.084, 192.0, 0.0, 0.0, 0.0, 0.0, 0.0, 0.0, 0.0, 0.0, 0.0, 1.6989589261037705E9, 0.0, 2023-11-02 17:02:06.103
122.0, -187500.02235174447, 187500.0, 32786.72340950053, 40922.7583912323, 187500.0, 187500.0, -187500.02235174447, 33143.74782368515, -0.062, 0.972, -0.084, 192.0, 0.0, 0.0, 0.0, 0.0, 0.0, 0.0, 0.0, 0.0, 0.0, 1.6989589261038766E9, 0.0, 2023-11-02 17:02:06.103
123.0, -187500.02235174447, 187500.0, 32792.40075259218, 40940.595083307635, 187500.0, 187500.0, -187500.02235174447, 33148.91107665432, -0.062, 0.972, -0.084, 192.0, 0.0, 0.0, 0.0, 0.0, 0.0, 0.0, 0.0, 0.0, 0.0, 1.6989589261038926E9, 0.0, 2023-11-02 17:02:06.103
124.0, -187500.02235174447, 187500.0, 32779.615554763746, 40941.82442925268, 187500.0, 187500.0, -187500.02235174447, 33135.74589917015, -0.062, 0.972, -0.084, 192.0, 0.0, 0.0, 0.0, 0.0, 0.0, 0.0, 0.0, 0.0, 0.0, 1.6989589261039066E9, 0.0, 2023-11-02 17:02:06.103
125.0, -187500.02235174447, 187500.0, 32775.2346128505, 40926.58053953416, 187500.0, 187500.0, -187500.02235174447, 33132.504896224134, -0.062, 0.972, -0.084, 192.0, 0.0, 0.0, 0.0, 0.0, 0.0, 0.0, 0.0, 0.0, 0.0, 1.6989589261039195E9, 0.0, 2023-11-02 17:02:06.103
126.0, -187500.02235174447, 187500.0, 32779.459092552555, 40919.159760375, 187500.0, 187500.0, -187500.02235174447, 33134.98593985867, -0.062, 0.972, -0.084, 192.0, 0.0, 0.0, 0.0, 0.0, 0.0, 0.0, 0.0, 0.0, 0.0, 1.6989589261039357E9, 0.0, 2023-11-02 17:02:06.103
127.0, -187500.02235174447, 187500.0, 32786.656354267165, 40927.29579535673, 187500.0, 187500.0, -187500.02235174447, 33139.478640494184, -0.07, 0.974, -0.08600000000000001, 192.0, 253.0, 208.0, 30.0, 112.0, 253.0, 80.0, 0.0, 0.0, 0.0, 1.6989589261039476E9, 0.0, 2023-11-02 17:02:06.103
128.0, -187500.02235174447, 187500.0, 32779.97318267503, 40937.24232163934, 187500.0, 187500.0, -187500.02235174447, 33133.15309681334, -0.07, 0.974, -0.08600000000000001, 192.0, 0.0, 0.0, 0.0, 0.0, 0.0, 0.0, 0.0, 0.0, 0.0, 1.6989589261039653E9, 0.0, 2023-11-02 17:02:06.103
129.0, -187500.02235174447, 187500.0, 32771.47951978201, 40925.373545333576, 187500.0, 187500.0, -187500.02235174447, 33127.69927116624, -0.07, 0.974, -0.08600000000000001, 192.0, 0.0, 0.0, 0.0, 0.0, 0.0, 0.0, 0.0, 0.0, 0.0, 1.698958926103977E9, 0.0, 2023-11-02 17:02:06.103
130.0, -187500.02235174447, 187500.0, 32774.94404017258, 40918.779780719255, 187500.0, 187500.0, -187500.02235174447, 33132.10256482394, -0.07, 0.974, -0.08600000000000001, 192.0, 0.0, 0.0, 0.0, 0.0, 0.0, 0.0, 0.0, 0.0, 0.0, 1.698958926103989E9, 0.0, 2023-11-02 17:02:06.103
131.0, -187500.02235174447, 187500.0, 32776.12868262872, 40927.78753373474, 187500.0, 187500.0, -187500.02235174447, 33129.50976246712, -0.07, 0.974, -0.08600000000000001, 192.0, 0.0, 0.0, 0.0, 0.0, 0.0, 0.0, 0.0, 0.0, 0.0, 1.6989589261040027E9, 0.0, 2023-11-02 17:02:06.104
132.0, -187500.02235174447, 187500.0, 32773.89350818319, 40929.53096980226, 187500.0, 187500.0, -187500.02235174447, 33127.72162291069, -0.07, 0.974, -0.08600000000000001, 192.0, 0.0, 0.0, 0.0, 0.0, 0.0, 0.0, 0.0, 0.0, 0.0, 1.69895892610406E9, 0.0, 2023-11-02 17:02:06.104
133.0, -187500.02235174447, 187500.0, 32771.09954012627, 40926.78170523426, 187500.0, 187500.0, -187500.02235174447, 33127.92278861079, -0.07, 0.974, -0.08600000000000001, 192.0, 0.0, 0.0, 0.0, 0.0, 0.0, 0.0, 0.0, 0.0, 0.0, 1.6989589261040716E9, 0.0, 2023-11-02 17:02:06.104
134.0, -187500.02235174447, 187500.0, 32777.04510415138, 40920.43380980895, 187500.0, 187500.0, -187500.02235174447, 33133.823649146994, -0.07, 0.974, -0.08600000000000001, 192.0, 0.0, 0.0, 0.0, 0.0, 0.0, 0.0, 0.0, 0.0, 0.0, 1.69895892610429E9, 0.0, 2023-11-02 17:02:06.104
135.0, -187500.02235174447, 187500.0, 32777.82741520732, 40923.22777786586, 187500.0, 187500.0, -187500.02235174447, 33134.33773926947, -0.07, 0.974, -0.08600000000000001, 192.0, 0.0, 0.0, 0.0, 0.0, 0.0, 0.0, 0.0, 0.0, 0.0, 1.6989589261043015E9, 0.0, 2023-11-02 17:02:06.104
136.0, -187500.02235174447, 187500.0, 32774.89933668367, 40926.28996685624, 187500.0, 187500.0, -187500.02235174447, 33131.94610261275, -0.07, 0.974, -0.08600000000000001, 192.0, 0.0, 0.0, 0.0, 0.0, 0.0, 0.0, 0.0, 0.0, 0.0, 1.698958926104312E9, 0.0, 2023-11-02 17:02:06.104
137.0, -187500.02235174447, 187500.0, 32779.28027859691, 40934.180132648966, 187500.0, 187500.0, -187500.02235174447, 33135.365919514414, -0.074, 0.978, -0.096, 192.0, 253.0, 176.0, 30.0, 144.0, 253.0, 0.0, 0.0, 0.0, 0.0, 1.698958926104323E9, 0.0, 2023-11-02 17:02:06.104
138.0, -187500.02235174447, 187500.0, 32783.6388687657, 40927.47460931237, 187500.0, 187500.0, -187500.02235174447, 33137.77990791558, -0.074, 0.978, -0.096, 192.0, 0.0, 0.0, 0.0, 0.0, 0.0, 0.0, 0.0, 0.0, 0.0, 1.6989589261043344E9, 0.0, 2023-11-02 17:02:06.104
139.0, -187500.02235174447, 187500.0, 32783.4377030656, 40921.19376912043, 187500.0, 187500.0, -187500.02235174447, 33138.18223931578, -0.074, 0.978, -0.096, 192.0, 0.0, 0.0, 0.0, 0.0, 0.0, 0.0, 0.0, 0.0, 0.0, 1.6989589261043444E9, 0.0, 2023-11-02 17:02:06.104
140.0, -187500.02235174447, 187500.0, 32778.00622916296, 40923.67481275497, 187500.0, 187500.0, -187500.02235174447, 33133.957759613724, -0.074, 0.978, -0.096, 192.0, 0.0, 0.0, 0.0, 0.0, 0.0, 0.0, 0.0, 0.0, 0.0, 1.6989589261043544E9, 0.0, 2023-11-02 17:02:06.104
141.0, -187500.02235174447, 187500.0, 32777.358028573755, 40926.04409766723, 187500.0, 187500.0, -187500.02235174447, 33132.32608226849, -0.074, 0.978, -0.096, 192.0, 0.0, 0.0, 0.0, 0.0, 0.0, 0.0, 0.0, 0.0, 0.0, 1.6989589261043644E9, 0.0, 2023-11-02 17:02:06.104
142.0, -187500.02235174447, 187500.0, 32778.92265068563, 40922.82544646567, 187500.0, 187500.0, -187500.02235174447, 33132.86252413542, -0.074, 0.978, -0.096, 192.0, 0.0, 0.0, 0.0, 0.0, 0.0, 0.0, 0.0, 0.0, 0.0, 1.6989589261043751E9, 0.0, 2023-11-02 17:02:06.104
143.0, -187500.02235174447, 187500.0, 32773.96056341655, 40920.8584929536, 187500.0, 187500.0, -187500.02235174447, 33131.40966074582, -0.074, 0.978, -0.096, 192.0, 0.0, 0.0, 0.0, 0.0, 0.0, 0.0, 0.0, 0.0, 0.0, 1.698958926104386E9, 0.0, 2023-11-02 17:02:06.104
144.0, -187500.02235174447, 187500.0, 32781.11312164225, 40932.74962100382, 187500.0, 187500.0, -187500.02235174447, 33137.243466048654, -0.074, 0.978, -0.096, 192.0, 0.0, 0.0, 0.0, 0.0, 0.0, 0.0, 0.0, 0.0, 0.0, 1.6989589261043968E9, 0.0, 2023-11-02 17:02:06.104
145.0, -187500.02235174447, 187500.0, 32779.25792685246, 40941.75737401931, 187500.0, 187500.0, -187500.02235174447, 33134.51655322511, -0.074, 0.978, -0.096, 192.0, 0.0, 0.0, 0.0, 0.0, 0.0, 0.0, 0.0, 0.0, 0.0, 1.6989589261044106E9, 0.0, 2023-11-02 17:02:06.104
146.0, -187500.02235174447, 187500.0, 32781.24723210898, 40929.79919073572, 187500.0, 187500.0, -187500.02235174447, 33134.89653288085, -0.074, 0.978, -0.096, 192.0, 0.0, 0.0, 0.0, 0.0, 0.0, 0.0, 0.0, 0.0, 0.0, 1.698958926104421E9, 0.0, 2023-11-02 17:02:06.104
147.0, -187500.02235174447, 187500.0, 32787.90805195666, 40929.15099014652, 187500.0, 187500.0, -187500.02235174447, 33140.90915213933, -0.074, 0.978, -0.098, 192.0, 253.0, 176.0, 30.0, 144.0, 252.0, 240.0, 0.0, 0.0, 0.0, 1.6989589261044312E9, 0.0, 2023-11-02 17:02:06.104
148.0, -187500.02235174447, 187500.0, 32789.316211857345, 40934.98479544935, 187500.0, 187500.0, -187500.02235174447, 33144.08309985198, -0.074, 0.978, -0.098, 192.0, 0.0, 0.0, 0.0, 0.0, 0.0, 0.0, 0.0, 0.0, 0.0, 1.6989589261044424E9, 0.0, 2023-11-02 17:02:06.104
149.0, -187500.02235174447, 187500.0, 32785.24819436648, 40937.57759780617, 187500.0, 187500.0, -187500.02235174447, 33139.45628874973, -0.074, 0.978, -0.098, 192.0, 0.0, 0.0, 0.0, 0.0, 0.0, 0.0, 0.0, 0.0, 0.0, 1.698958926104472E9, 0.0, 2023-11-02 17:02:06.104
150.0, -187500.02235174447, 187500.0, 32779.883775697206, 40929.419211079985, 187500.0, 187500.0, -187500.02235174447, 33132.61665494641, -0.074, 0.978, -0.098, 192.0, 0.0, 0.0, 0.0, 0.0, 0.0, 0.0, 0.0, 0.0, 0.0, 1.6989589261044817E9, 0.0, 2023-11-02 17:02:06.104
151.0, -187500.02235174447, 187500.0, 32777.559194273854, 40925.41824882248, 187500.0, 187500.0, -187500.02235174447, 33130.828515389985, -0.074, 0.978, -0.098, 192.0, 0.0, 0.0, 0.0, 0.0, 0.0, 0.0, 0.0, 0.0, 0.0, 1.6989589261044917E9, 0.0, 2023-11-02 17:02:06.104
152.0, -187500.02235174447, 187500.0, 32778.29680184088, 40928.927472701966, 187500.0, 187500.0, -187500.02235174447, 33132.571951457496, -0.074, 0.978, -0.098, 192.0, 0.0, 0.0, 0.0, 0.0, 0.0, 0.0, 0.0, 0.0, 0.0, 1.6989589261045015E9, 0.0, 2023-11-02 17:02:06.104
153.0, -187500.02235174447, 187500.0, 32775.905165184166, 40935.96827220539, 187500.0, 187500.0, -187500.02235174447, 33134.49420148065, -0.074, 0.978, -0.098, 192.0, 0.0, 0.0, 0.0, 0.0, 0.0, 0.0, 0.0, 0.0, 0.0, 1.6989589261045113E9, 0.0, 2023-11-02 17:02:06.104
154.0, -187500.02235174447, 187500.0, 32778.1850431186, 40939.25397864032, 187500.0, 187500.0, -187500.02235174447, 33136.3717480149, -0.074, 0.978, -0.098, 192.0, 0.0, 0.0, 0.0, 0.0, 0.0, 0.0, 0.0, 0.0, 0.0, 1.6989589261045268E9, 0.0, 2023-11-02 17:02:06.104
155.0, -187500.02235174447, 187500.0, 32781.15782513116, 40930.045059924734, 187500.0, 187500.0, -187500.02235174447, 33135.790602659064, -0.074, 0.978, -0.098, 192.0, 0.0, 0.0, 0.0, 0.0, 0.0, 0.0, 0.0, 0.0, 0.0, 1.698958926104537E9, 0.0, 2023-11-02 17:02:06.104
156.0, -187500.02235174447, 187500.0, 32778.85559545226, 40924.83710346664, 187500.0, 187500.0, -187500.02235174447, 33132.48254447967, -0.08, 0.978, -0.098, 192.0, 253.0, 128.0, 30.0, 144.0, 252.0, 240.0, 0.0, 0.0, 0.0, 1.6989589261045468E9, 0.0, 2023-11-02 17:02:06.104
157.0, -187500.02235174447, 187500.0, 32778.900298941175, 40933.5095803153, 187500.0, 187500.0, -187500.02235174447, 33133.64483519135, -0.08, 0.978, -0.098, 192.0, 0.0, 0.0, 0.0, 0.0, 0.0, 0.0, 0.0, 0.0, 0.0, 1.6989589261045592E9, 0.0, 2023-11-02 17:02:06.104
158.0, -187500.02235174447, 187500.0, 32776.70982798455, 40930.62620528057, 187500.0, 187500.0, -187500.02235174447, 33131.00732934562, -0.08, 0.978, -0.098, 192.0, 0.0, 0.0, 0.0, 0.0, 0.0, 0.0, 0.0, 0.0, 0.0, 1.6989589261045697E9, 0.0, 2023-11-02 17:02:06.104
159.0, -187500.02235174447, 187500.0, 32778.1850431186, 40923.38424007705, 187500.0, 187500.0, -187500.02235174447, 33132.25902703512, -0.08, 0.978, -0.098, 192.0, 0.0, 0.0, 0.0, 0.0, 0.0, 0.0, 0.0, 0.0, 0.0, 1.6989589261045809E9, 0.0, 2023-11-02 17:02:06.104
160.0, -187500.02235174447, 187500.0, 32778.45326405207, 40926.17820813396, 187500.0, 187500.0, -187500.02235174447, 33134.76242241412, -0.08, 0.978, -0.098, 192.0, 0.0, 0.0, 0.0, 0.0, 0.0, 0.0, 0.0, 0.0, 0.0, 1.6989589261045933E9, 0.0, 2023-11-02 17:02:06.104
161.0, -187500.02235174447, 187500.0, 32783.39299957669, 40931.45321982542, 187500.0, 187500.0, -187500.02235174447, 33138.94219862726, -0.08, 0.978, -0.098, 192.0, 0.0, 0.0, 0.0, 0.0, 0.0, 0.0, 0.0, 0.0, 0.0, 1.698958926104604E9, 0.0, 2023-11-02 17:02:06.104
162.0, -187500.02235174447, 187500.0, 32778.52031928543, 40935.72240301638, 187500.0, 187500.0, -187500.02235174447, 33136.03647184807, -0.08, 0.978, -0.098, 192.0, 0.0, 0.0, 0.0, 0.0, 0.0, 0.0, 0.0, 0.0, 0.0, 1.6989589261046145E9, 0.0, 2023-11-02 17:02:06.104
163.0, -187500.02235174447, 187500.0, 32775.94986867307, 40930.29092911374, 187500.0, 187500.0, -187500.02235174447, 33135.83530614797, -0.08, 0.978, -0.098, 192.0, 0.0, 0.0, 0.0, 0.0, 0.0, 0.0, 0.0, 0.0, 0.0, 1.6989589261046245E9, 0.0, 2023-11-02 17:02:06.104
164.0, -187500.02235174447, 187500.0, 32776.64277275119, 40933.77780124877, 187500.0, 187500.0, -187500.02235174447, 33135.365919514414, -0.08, 0.978, -0.098, 192.0, 0.0, 0.0, 0.0, 0.0, 0.0, 0.0, 0.0, 0.0, 0.0, 1.6989589261046495E9, 0.0, 2023-11-02 17:02:06.104
165.0, -187500.02235174447, 187500.0, 32773.647638994174, 40942.53968507525, 187500.0, 187500.0, -187500.02235174447, 33130.62734968989, -0.08, 0.978, -0.098, 192.0, 0.0, 0.0, 0.0, 0.0, 0.0, 0.0, 0.0, 0.0, 0.0, 1.6989589261046596E9, 0.0, 2023-11-02 17:02:06.104
166.0, -187500.02235174447, 187500.0, 32774.94404017258, 40940.19275190744, 187500.0, 187500.0, -187500.02235174447, 33131.74493691265, -0.082, 0.978, -0.09, 192.0, 253.0, 112.0, 30.0, 144.0, 253.0, 48.0, 0.0, 0.0, 0.0, 1.6989589261046696E9, 0.0, 2023-11-02 17:02:06.104
167.0, -187500.02235174447, 187500.0, 32783.996496676984, 40945.221894409886, 187500.0, 187500.0, -187500.02235174447, 33142.58553297348, -0.082, 0.978, -0.09, 192.0, 0.0, 0.0, 0.0, 0.0, 0.0, 0.0, 0.0, 0.0, 0.0, 1.69895892610468E9, 0.0, 2023-11-02 17:02:06.104
168.0, -187500.02235174447, 187500.0, 32779.48144429701, 40952.843839269146, 187500.0, 187500.0, -187500.02235174447, 33140.3727102724, -0.082, 0.978, -0.09, 192.0, 0.0, 0.0, 0.0, 0.0, 0.0, 0.0, 0.0, 0.0, 0.0, 1.69895892610469E9, 0.0, 2023-11-02 17:02:06.104
169.0, -187500.02235174447, 187500.0, 32779.01205766345, 40955.570752092695, 187500.0, 187500.0, -187500.02235174447, 33138.94219862726, -0.082, 0.978, -0.09, 192.0, 0.0, 0.0, 0.0, 0.0, 0.0, 0.0, 0.0, 0.0, 0.0, 1.6989589261047008E9, 0.0, 2023-11-02 17:02:06.104
170.0, -187500.02235174447, 187500.0, 32773.088845382794, 40951.72625204638, 187500.0, 187500.0, -187500.02235174447, 33131.07438457899, -0.082, 0.978, -0.09, 192.0, 0.0, 0.0, 0.0, 0.0, 0.0, 0.0, 0.0, 0.0, 0.0, 1.6989589261047113E9, 0.0, 2023-11-02 17:02:06.104
171.0, -187500.02235174447, 187500.0, 32773.24530759398, 40935.34242336064, 187500.0, 187500.0, -187500.02235174447, 33130.51559096761, -0.082, 0.978, -0.09, 192.0, 0.0, 0.0, 0.0, 0.0, 0.0, 0.0, 0.0, 0.0, 0.0, 1.6989589261047206E9, 0.0, 2023-11-02 17:02:06.104
172.0, -187500.02235174447, 187500.0, 32776.44160705109, 40937.08585942815, 187500.0, 187500.0, -187500.02235174447, 33135.70119568124, -0.082, 0.978, -0.09, 192.0, 0.0, 0.0, 0.0, 0.0, 0.0, 0.0, 0.0, 0.0, 0.0, 1.6989589261047306E9, 0.0, 2023-11-02 17:02:06.104
173.0, -187500.02235174447, 187500.0, 32781.87308095373, 40951.6144933241, 187500.0, 187500.0, -187500.02235174447, 33140.93150388378, -0.082, 0.978, -0.09, 192.0, 0.0, 0.0, 0.0, 0.0, 0.0, 0.0, 0.0, 0.0, 0.0, 1.6989589261047404E9, 0.0, 2023-11-02 17:02:06.104
174.0, -187500.02235174447, 187500.0, 32777.60389776277, 40953.35792939162, 187500.0, 187500.0, -187500.02235174447, 33134.62831194739, -0.082, 0.978, -0.09, 192.0, 0.0, 0.0, 0.0, 0.0, 0.0, 0.0, 0.0, 0.0, 0.0, 1.69895892610475E9, 0.0, 2023-11-02 17:02:06.104
175.0, -187500.02235174447, 187500.0, 32780.75549373096, 40948.23937991135, 187500.0, 187500.0, -187500.02235174447, 33138.24929454915, -0.082, 0.978, -0.09, 192.0, 0.0, 0.0, 0.0, 0.0, 0.0, 0.0, 0.0, 0.0, 0.0, 1.6989589261047637E9, 0.0, 2023-11-02 17:02:06.104
176.0, -187500.02235174447, 187500.0, 32776.55336577337, 40942.562036819705, 187500.0, 187500.0, -187500.02235174447, 33135.5223817256, -0.082, 0.98, -0.08600000000000001, 192.0, 253.0, 112.0, 30.0, 160.0, 253.0, 80.0, 0.0, 0.0, 0.0, 1.6989589261047752E9, 0.0, 2023-11-02 17:02:06.104
177.0, -187500.02235174447, 187500.0, 32779.48144429701, 40944.70780428741, 187500.0, 187500.0, -187500.02235174447, 33138.31634978251, -0.082, 0.98, -0.08600000000000001, 192.0, 0.0, 0.0, 0.0, 0.0, 0.0, 0.0, 0.0, 0.0, 0.0, 1.698958926104786E9, 0.0, 2023-11-02 17:02:06.104
178.0, -187500.02235174447, 187500.0, 32782.49892979848, 40956.0177869818, 187500.0, 187500.0, -187500.02235174447, 33141.736166684175, -0.082, 0.98, -0.08600000000000001, 192.0, 0.0, 0.0, 0.0, 0.0, 0.0, 0.0, 0.0, 0.0, 0.0, 1.6989589261047966E9, 0.0, 2023-11-02 17:02:06.104
179.0, -187500.02235174447, 187500.0, 32786.83516822281, 40958.007092238324, 187500.0, 187500.0, -187500.02235174447, 33145.223038819204, -0.082, 0.98, -0.08600000000000001, 192.0, 0.0, 0.0, 0.0, 0.0, 0.0, 0.0, 0.0, 0.0, 0.0, 1.6989589261048064E9, 0.0, 2023-11-02 17:02:06.104
180.0, -187500.02235174447, 187500.0, 32777.38038031821, 40943.120830431086, 187500.0, 187500.0, -187500.02235174447, 33136.639968948366, -0.082, 0.98, -0.08600000000000001, 192.0, 0.0, 0.0, 0.0, 0.0, 0.0, 0.0, 0.0, 0.0, 0.0, 1.698958926104833E9, 0.0, 2023-11-02 17:02:06.104
181.0, -187500.02235174447, 187500.0, 32775.458130295054, 40946.07126069919, 187500.0, 187500.0, -187500.02235174447, 33134.56125671402, -0.082, 0.98, -0.08600000000000001, 192.0, 0.0, 0.0, 0.0, 0.0, 0.0, 0.0, 0.0, 0.0, 0.0, 1.6989589261048434E9, 0.0, 2023-11-02 17:02:06.104
182.0, -187500.02235174447, 187500.0, 32771.09954012627, 40954.29670265874, 187500.0, 187500.0, -187500.02235174447, 33130.02385258959, -0.082, 0.98, -0.08600000000000001, 192.0, 0.0, 0.0, 0.0, 0.0, 0.0, 0.0, 0.0, 0.0, 0.0, 1.698958926104853E9, 0.0, 2023-11-02 17:02:06.104
183.0, -187500.02235174447, 187500.0, 32772.64181049369, 40942.87496124208, 187500.0, 187500.0, -187500.02235174447, 33130.068556078506, -0.082, 0.98, -0.08600000000000001, 192.0, 0.0, 0.0, 0.0, 0.0, 0.0, 0.0, 0.0, 0.0, 0.0, 1.6989589261048646E9, 0.0, 2023-11-02 17:02:06.104
184.0, -187500.02235174447, 187500.0, 32780.53197628641, 40942.67379554198, 187500.0, 187500.0, -187500.02235174447, 33138.875143393896, -0.082, 0.98, -0.08600000000000001, 192.0, 0.0, 0.0, 0.0, 0.0, 0.0, 0.0, 0.0, 0.0, 0.0, 1.6989589261048741E9, 0.0, 2023-11-02 17:02:06.104
185.0, -187500.02235174447, 187500.0, 32786.96927868954, 40951.05569971272, 187500.0, 187500.0, -187500.02235174447, 33146.698253953255, -0.082, 0.98, -0.08600000000000001, 192.0, 0.0, 0.0, 0.0, 0.0, 0.0, 0.0, 0.0, 0.0, 0.0, 1.698958926104884E9, 0.0, 2023-11-02 17:02:06.104
186.0, -187500.02235174447, 187500.0, 32788.66801126814, 40961.60572309563, 187500.0, 187500.0, -187500.02235174447, 33150.65451272184, -0.08600000000000001, 0.98, -0.08600000000000001, 192.0, 253.0, 80.0, 30.0, 160.0, 253.0, 80.0, 0.0, 0.0, 0.0, 1.6989589261048946E9, 0.0, 2023-11-02 17:02:06.104
187.0, -187500.02235174447, 187500.0, 32787.30455485637, 40968.82533655469, 187500.0, 187500.0, -187500.02235174447, 33150.20747783274, -0.08600000000000001, 0.98, -0.08600000000000001, 192.0, 0.0, 0.0, 0.0, 0.0, 0.0, 0.0, 0.0, 0.0, 0.0, 1.6989589261049092E9, 0.0, 2023-11-02 17:02:06.104
188.0, -187500.02235174447, 187500.0, 32781.269583853435, 40961.04692948424, 187500.0, 187500.0, -187500.02235174447, 33145.223038819204, -0.08600000000000001, 0.98, -0.08600000000000001, 192.0, 0.0, 0.0, 0.0, 0.0, 0.0, 0.0, 0.0, 0.0, 0.0, 1.6989589261049201E9, 0.0, 2023-11-02 17:02:06.104
189.0, -187500.02235174447, 187500.0, 32787.48336881201, 40959.50465911683, 187500.0, 187500.0, -187500.02235174447, 33149.64868422135, -0.08600000000000001, 0.98, -0.08600000000000001, 192.0, 0.0, 0.0, 0.0, 0.0, 0.0, 0.0, 0.0, 0.0, 0.0, 1.6989589261049302E9, 0.0, 2023-11-02 17:02:06.104
190.0, -187500.02235174447, 187500.0, 32782.610688520756, 40967.171307464996, 187500.0, 187500.0, -187500.02235174447, 33143.56900972951, -0.08600000000000001, 0.98, -0.08600000000000001, 192.0, 0.0, 0.0, 0.0, 0.0, 0.0, 0.0, 0.0, 0.0, 0.0, 1.6989589261049423E9, 0.0, 2023-11-02 17:02:06.104
191.0, -187500.02235174447, 187500.0, 32778.29680184088, 40964.55615336372, 187500.0, 187500.0, -187500.02235174447, 33139.65745444983, -0.08600000000000001, 0.98, -0.08600000000000001, 192.0, 0.0, 0.0, 0.0, 0.0, 0.0, 0.0, 0.0, 0.0, 0.0, 1.698958926104952E9, 0.0, 2023-11-02 17:02:06.104
192.0, -187500.02235174447, 187500.0, 32777.38038031821, 40955.19077243695, 187500.0, 187500.0, -187500.02235174447, 33139.5233439831, -0.08600000000000001, 0.98, -0.08600000000000001, 192.0, 0.0, 0.0, 0.0, 0.0, 0.0, 0.0, 0.0, 0.0, 0.0, 1.698958926104962E9, 0.0, 2023-11-02 17:02:06.104
193.0, -187500.02235174447, 187500.0, 32781.984839676006, 40956.64363582655, 187500.0, 187500.0, -187500.02235174447, 33148.776966187594, -0.08600000000000001, 0.98, -0.08600000000000001, 192.0, 0.0, 0.0, 0.0, 0.0, 0.0, 0.0, 0.0, 0.0, 0.0, 1.698958926104972E9, 0.0, 2023-11-02 17:02:06.104
194.0, -187500.02235174447, 187500.0, 32791.99842119198, 40973.96623777941, 187500.0, 187500.0, -187500.02235174447, 33158.432919792285, -0.08600000000000001, 0.98, -0.08600000000000001, 192.0, 0.0, 0.0, 0.0, 0.0, 0.0, 0.0, 0.0, 0.0, 0.0, 1.6989589261049824E9, 0.0, 2023-11-02 17:02:06.104
195.0, -187500.02235174447, 187500.0, 32788.80212173487, 40976.961371536425, 187500.0, 187500.0, -187500.02235174447, 33152.353245300445, -0.08600000000000001, 0.98, -0.08600000000000001, 192.0, 0.0, 0.0, 0.0, 0.0, 0.0, 0.0, 0.0, 0.0, 0.0, 1.6989589261050105E9, 0.0, 2023-11-02 17:02:06.105
196.0, -187500.02235174447, 187500.0, 32787.371610089736, 40970.54642087775, 187500.0, 187500.0, -187500.02235174447, 33150.29688481055, -0.08600000000000001, 0.976, -0.078, 192.0, 253.0, 80.0, 30.0, 128.0, 253.0, 144.0, 0.0, 0.0, 0.0, 1.6989589261050317E9, 0.0, 2023-11-02 17:02:06.105
197.0, -187500.02235174447, 187500.0, 32788.95858394606, 40964.31028417472, 187500.0, 187500.0, -187500.02235174447, 33154.096681367955, -0.08600000000000001, 0.976, -0.078, 192.0, 0.0, 0.0, 0.0, 0.0, 0.0, 0.0, 0.0, 0.0, 0.0, 1.698958926105044E9, 0.0, 2023-11-02 17:02:06.105
198.0, -187500.02235174447, 187500.0, 32785.337601344305, 40972.558077878726, 187500.0, 187500.0, -187500.02235174447, 33154.43195753479, -0.08600000000000001, 0.976, -0.078, 192.0, 0.0, 0.0, 0.0, 0.0, 0.0, 0.0, 0.0, 0.0, 0.0, 1.6989589261050556E9, 0.0, 2023-11-02 17:02:06.105
199.0, -187500.02235174447, 187500.0, 32784.912918199654, 40968.8700400436, 187500.0, 187500.0, -187500.02235174447, 33154.4766610237, -0.08600000000000001, 0.976, -0.078, 192.0, 0.0, 0.0, 0.0, 0.0, 0.0, 0.0, 0.0, 0.0, 0.0, 1.698958926105077E9, 0.0, 2023-11-02 17:02:06.105
200.0, -187500.02235174447, 187500.0, 32787.75158974547, 40965.852554542136, 187500.0, 187500.0, -187500.02235174447, 33154.297847068054, -0.08600000000000001, 0.976, -0.078, 192.0, 0.0, 0.0, 0.0, 0.0, 0.0, 0.0, 0.0, 0.0, 0.0, 1.698958926105088E9, 0.0, 2023-11-02 17:02:06.105
201.0, -187500.02235174447, 187500.0, 32783.303592598866, 40957.00126373783, 187500.0, 187500.0, -187500.02235174447, 33149.71573945472, -0.08600000000000001, 0.976, -0.078, 192.0, 0.0, 0.0, 0.0, 0.0, 0.0, 0.0, 0.0, 0.0, 0.0, 1.6989589261050987E9, 0.0, 2023-11-02 17:02:06.105
202.0, -187500.02235174447, 187500.0, 32785.605822277765, 40961.426909139984, 187500.0, 187500.0, -187500.02235174447, 33151.9732656447, -0.08600000000000001, 0.976, -0.078, 192.0, 0.0, 0.0, 0.0, 0.0, 0.0, 0.0, 0.0, 0.0, 0.0, 1.698958926105111E9, 0.0, 2023-11-02 17:02:06.105
203.0, -187500.02235174447, 187500.0, 32779.950830930575, 40969.473537143895, 187500.0, 187500.0, -187500.02235174447, 33149.71573945472, -0.08600000000000001, 0.976, -0.078, 192.0, 0.0, 0.0, 0.0, 0.0, 0.0, 0.0, 0.0, 0.0, 0.0, 1.6989589261051233E9, 0.0, 2023-11-02 17:02:06.105
204.0, -187500.02235174447, 187500.0, 32777.38038031821, 40969.920572033, 187500.0, 187500.0, -187500.02235174447, 33149.64868422135, -0.08600000000000001, 0.976, -0.078, 192.0, 0.0, 0.0, 0.0, 0.0, 0.0, 0.0, 0.0, 0.0, 0.0, 1.6989589261051357E9, 0.0, 2023-11-02 17:02:06.105
205.0, -187500.02235174447, 187500.0, 32783.236537365505, 40971.06051100022, 187500.0, 187500.0, -187500.02235174447, 33154.029626134594, -0.08600000000000001, 0.976, -0.078, 192.0, 0.0, 0.0, 0.0, 0.0, 0.0, 0.0, 0.0, 0.0, 0.0, 1.6989589261051464E9, 0.0, 2023-11-02 17:02:06.105
206.0, -187500.02235174447, 187500.0, 32783.68357225461, 40978.66010411503, 187500.0, 187500.0, -187500.02235174447, 33155.638951735375, -0.078, 0.974, -0.078, 192.0, 253.0, 144.0, 30.0, 112.0, 253.0, 144.0, 0.0, 0.0, 0.0, 1.6989589261051571E9, 0.0, 2023-11-02 17:02:06.105
207.0, -187500.02235174447, 187500.0, 32780.91195594215, 40983.35397045064, 187500.0, 187500.0, -187500.02235174447, 33154.32019881251, -0.078, 0.974, -0.078, 192.0, 0.0, 0.0, 0.0, 0.0, 0.0, 0.0, 0.0, 0.0, 0.0, 1.69895892610517E9, 0.0, 2023-11-02 17:02:06.105
208.0, -187500.02235174447, 187500.0, 32781.738970487, 40987.66785713052, 187500.0, 187500.0, -187500.02235174447, 33152.979094145194, -0.078, 0.974, -0.078, 192.0, 0.0, 0.0, 0.0, 0.0, 0.0, 0.0, 0.0, 0.0, 0.0, 1.6989589261051812E9, 0.0, 2023-11-02 17:02:06.105
209.0, -187500.02235174447, 187500.0, 32783.32594434333, 40980.04591227126, 187500.0, 187500.0, -187500.02235174447, 33154.54371625707, -0.078, 0.974, -0.078, 192.0, 0.0, 0.0, 0.0, 0.0, 0.0, 0.0, 0.0, 0.0, 0.0, 1.698958926105191E9, 0.0, 2023-11-02 17:02:06.105
210.0, -187500.02235174447, 187500.0, 32791.59608979179, 40980.73881634937, 187500.0, 187500.0, -187500.02235174447, 33164.110262883936, -0.078, 0.974, -0.078, 192.0, 0.0, 0.0, 0.0, 0.0, 0.0, 0.0, 0.0, 0.0, 0.0, 1.6989589261052206E9, 0.0, 2023-11-02 17:02:06.105
211.0, -187500.02235174447, 187500.0, 32786.20931937806, 40995.17804326749, 187500.0, 187500.0, -187500.02235174447, 33161.11512912693, -0.078, 0.974, -0.078, 192.0, 0.0, 0.0, 0.0, 0.0, 0.0, 0.0, 0.0, 0.0, 0.0, 1.6989589261052308E9, 0.0, 2023-11-02 17:02:06.105
212.0, -187500.02235174447, 187500.0, 32777.91682218514, 40990.305362976236, 187500.0, 187500.0, -187500.02235174447, 33151.50387901114, -0.078, 0.974, -0.078, 192.0, 0.0, 0.0, 0.0, 0.0, 0.0, 0.0, 0.0, 0.0, 0.0, 1.6989589261052403E9, 0.0, 2023-11-02 17:02:06.105
213.0, -187500.02235174447, 187500.0, 32780.46492105305, 40982.9739907949, 187500.0, 187500.0, -187500.02235174447, 33154.36490230142, -0.078, 0.974, -0.078, 192.0, 0.0, 0.0, 0.0, 0.0, 0.0, 0.0, 0.0, 0.0, 0.0, 1.69895892610525E9, 0.0, 2023-11-02 17:02:06.105
214.0, -187500.02235174447, 187500.0, 32775.458130295054, 40981.54347914976, 187500.0, 187500.0, -187500.02235174447, 33151.57093424451, -0.078, 0.974, -0.078, 192.0, 0.0, 0.0, 0.0, 0.0, 0.0, 0.0, 0.0, 0.0, 0.0, 1.6989589261052597E9, 0.0, 2023-11-02 17:02:06.105
215.0, -187500.02235174447, 187500.0, 32779.324982085825, 40977.40840642553, 187500.0, 187500.0, -187500.02235174447, 33152.93439065628, -0.078, 0.974, -0.078, 192.0, 0.0, 0.0, 0.0, 0.0, 0.0, 0.0, 0.0, 0.0, 0.0, 1.6989589261052692E9, 0.0, 2023-11-02 17:02:06.105
216.0, -187500.02235174447, 187500.0, 32772.57475526032, 40988.271354230805, 187500.0, 187500.0, -187500.02235174447, 33147.65937896483, -0.08, 0.968, -0.08600000000000001, 192.0, 253.0, 128.0, 30.0, 64.0, 253.0, 80.0, 0.0, 0.0, 0.0, 1.6989589261052787E9, 0.0, 2023-11-02 17:02:06.105
217.0, -187500.02235174447, 187500.0, 32772.0830168823, 40970.322903433196, 187500.0, 187500.0, -187500.02235174447, 33145.915942897314, -0.08, 0.968, -0.08600000000000001, 192.0, 0.0, 0.0, 0.0, 0.0, 0.0, 0.0, 0.0, 0.0, 0.0, 1.6989589261052895E9, 0.0, 2023-11-02 17:02:06.105
218.0, -187500.02235174447, 187500.0, 32771.770092459934, 40961.359853906615, 187500.0, 187500.0, -187500.02235174447, 33146.13946034187, -0.08, 0.968, -0.08600000000000001, 192.0, 0.0, 0.0, 0.0, 0.0, 0.0, 0.0, 0.0, 0.0, 0.0, 1.6989589261053016E9, 0.0, 2023-11-02 17:02:06.105
219.0, -187500.02235174447, 187500.0, 32773.804101205365, 40978.01190352582, 187500.0, 187500.0, -187500.02235174447, 33150.63216097739, -0.08, 0.968, -0.08600000000000001, 192.0, 0.0, 0.0, 0.0, 0.0, 0.0, 0.0, 0.0, 0.0, 0.0, 1.6989589261053123E9, 0.0, 2023-11-02 17:02:06.105
220.0, -187500.02235174447, 187500.0, 32773.42412154962, 40983.01869428381, 187500.0, 187500.0, -187500.02235174447, 33150.76627144412, -0.08, 0.968, -0.08600000000000001, 192.0, 0.0, 0.0, 0.0, 0.0, 0.0, 0.0, 0.0, 0.0, 0.0, 1.6989589261053233E9, 0.0, 2023-11-02 17:02:06.105
221.0, -187500.02235174447, 187500.0, 32770.31722907034, 40979.196545981955, 187500.0, 187500.0, -187500.02235174447, 33147.99465513166, -0.08, 0.968, -0.08600000000000001, 192.0, 0.0, 0.0, 0.0, 0.0, 0.0, 0.0, 0.0, 0.0, 0.0, 1.6989589261053357E9, 0.0, 2023-11-02 17:02:06.105
222.0, -187500.02235174447, 187500.0, 32774.11702562774, 40975.843784313656, 187500.0, 187500.0, -187500.02235174447, 33151.593285988965, -0.08, 0.968, -0.08600000000000001, 192.0, 0.0, 0.0, 0.0, 0.0, 0.0, 0.0, 0.0, 0.0, 0.0, 1.6989589261053495E9, 0.0, 2023-11-02 17:02:06.105
223.0, -187500.02235174447, 187500.0, 32777.715656485045, 40986.63967688557, 187500.0, 187500.0, -187500.02235174447, 33153.76140520113, -0.08, 0.968, -0.08600000000000001, 192.0, 0.0, 0.0, 0.0, 0.0, 0.0, 0.0, 0.0, 0.0, 0.0, 1.6989589261053612E9, 0.0, 2023-11-02 17:02:06.105
224.0, -187500.02235174447, 187500.0, 32778.07328439633, 40996.07211304571, 187500.0, 187500.0, -187500.02235174447, 33153.56023950103, -0.08, 0.968, -0.08600000000000001, 192.0, 0.0, 0.0, 0.0, 0.0, 0.0, 0.0, 0.0, 0.0, 0.0, 1.698958926105374E9, 0.0, 2023-11-02 17:02:06.105
225.0, -187500.02235174447, 187500.0, 32773.58058376081, 40993.099331033154, 187500.0, 187500.0, -187500.02235174447, 33151.1238993554, -0.08, 0.968, -0.08600000000000001, 192.0, 0.0, 0.0, 0.0, 0.0, 0.0, 0.0, 0.0, 0.0, 0.0, 1.6989589261054037E9, 0.0, 2023-11-02 17:02:06.105
226.0, -187500.02235174447, 187500.0, 32778.81089196335, 40988.45016818645, 187500.0, 187500.0, -187500.02235174447, 33158.65643723684, -0.076, 0.974, -0.082, 192.0, 253.0, 160.0, 30.0, 112.0, 253.0, 112.0, 0.0, 0.0, 0.0, 1.6989589261054182E9, 0.0, 2023-11-02 17:02:06.105
227.0, -187500.02235174447, 187500.0, 32767.836185435797, 40992.98757231088, 187500.0, 187500.0, -187500.02235174447, 33149.15694584334, -0.076, 0.974, -0.082, 192.0, 0.0, 0.0, 0.0, 0.0, 0.0, 0.0, 0.0, 0.0, 0.0, 1.6989589261054316E9, 0.0, 2023-11-02 17:02:06.105
228.0, -187500.02235174447, 187500.0, 32767.2326883355, 41002.66587766002, 187500.0, 187500.0, -187500.02235174447, 33150.051015621546, -0.076, 0.974, -0.082, 192.0, 0.0, 0.0, 0.0, 0.0, 0.0, 0.0, 0.0, 0.0, 0.0, 1.6989589261054425E9, 0.0, 2023-11-02 17:02:06.105
229.0, -187500.02235174447, 187500.0, 32771.94890641557, 41003.69405790497, 187500.0, 187500.0, -187500.02235174447, 33151.95091390025, -0.076, 0.974, -0.082, 192.0, 0.0, 0.0, 0.0, 0.0, 0.0, 0.0, 0.0, 0.0, 0.0, 1.698958926105454E9, 0.0, 2023-11-02 17:02:06.105
230.0, -187500.02235174447, 187500.0, 32772.82062444933, 40987.712560619424, 187500.0, 187500.0, -187500.02235174447, 33150.34158829947, -0.076, 0.974, -0.082, 192.0, 0.0, 0.0, 0.0, 0.0, 0.0, 0.0, 0.0, 0.0, 0.0, 1.6989589261054642E9, 0.0, 2023-11-02 17:02:06.105
231.0, -187500.02235174447, 187500.0, 32780.86725245324, 40989.321886220205, 187500.0, 187500.0, -187500.02235174447, 33156.331855813485, -0.076, 0.974, -0.082, 192.0, 0.0, 0.0, 0.0, 0.0, 0.0, 0.0, 0.0, 0.0, 0.0, 1.698958926105476E9, 0.0, 2023-11-02 17:02:06.105
232.0, -187500.02235174447, 187500.0, 32778.25209835197, 40998.486101446884, 187500.0, 187500.0, -187500.02235174447, 33153.068501123016, -0.076, 0.974, -0.082, 192.0, 0.0, 0.0, 0.0, 0.0, 0.0, 0.0, 0.0, 0.0, 0.0, 1.6989589261054864E9, 0.0, 2023-11-02 17:02:06.105
233.0, -187500.02235174447, 187500.0, 32776.508662284454, 40990.61828739861, 187500.0, 187500.0, -187500.02235174447, 33150.20747783274, -0.076, 0.974, -0.082, 192.0, 0.0, 0.0, 0.0, 0.0, 0.0, 0.0, 0.0, 0.0, 0.0, 1.698958926105497E9, 0.0, 2023-11-02 17:02:06.105
234.0, -187500.02235174447, 187500.0, 32785.71758100004, 40993.74753162236, 187500.0, 187500.0, -187500.02235174447, 33158.008236647634, -0.076, 0.974, -0.082, 192.0, 0.0, 0.0, 0.0, 0.0, 0.0, 0.0, 0.0, 0.0, 0.0, 1.698958926105507E9, 0.0, 2023-11-02 17:02:06.105
235.0, -187500.02235174447, 187500.0, 32783.929441443615, 40999.536633436284, 187500.0, 187500.0, -187500.02235174447, 33156.08598662448, -0.076, 0.974, -0.082, 192.0, 0.0, 0.0, 0.0, 0.0, 0.0, 0.0, 0.0, 0.0, 0.0, 1.698958926105517E9, 0.0, 2023-11-02 17:02:06.105
236.0, -187500.02235174447, 187500.0, 32775.16755761714, 41008.25381377385, 187500.0, 187500.0, -187500.02235174447, 33147.681730709286, -0.08600000000000001, 0.972, -0.084, 192.0, 253.0, 80.0, 30.0, 96.0, 253.0, 96.0, 0.0, 0.0, 0.0, 1.6989589261055272E9, 0.0, 2023-11-02 17:02:06.105
237.0, -187500.02235174447, 187500.0, 32766.785653446397, 41004.36461023863, 187500.0, 187500.0, -187500.02235174447, 33142.630236462384, -0.08600000000000001, 0.972, -0.084, 192.0, 0.0, 0.0, 0.0, 0.0, 0.0, 0.0, 0.0, 0.0, 0.0, 1.6989589261055377E9, 0.0, 2023-11-02 17:02:06.105
238.0, -187500.02235174447, 187500.0, 32764.90810691215, 40991.17708101, 187500.0, 187500.0, -187500.02235174447, 33145.60301847494, -0.08600000000000001, 0.972, -0.084, 192.0, 0.0, 0.0, 0.0, 0.0, 0.0, 0.0, 0.0, 0.0, 0.0, 1.6989589261055472E9, 0.0, 2023-11-02 17:02:06.105
239.0, -187500.02235174447, 187500.0, 32766.852708679762, 40995.37920896759, 187500.0, 187500.0, -187500.02235174447, 33146.698253953255, -0.08600000000000001, 0.972, -0.084, 192.0, 0.0, 0.0, 0.0, 0.0, 0.0, 0.0, 0.0, 0.0, 0.0, 1.698958926105559E9, 0.0, 2023-11-02 17:02:06.105
240.0, -187500.02235174447, 187500.0, 32766.29391506838, 41001.68240090399, 187500.0, 187500.0, -187500.02235174447, 33145.424204519295, -0.08600000000000001, 0.972, -0.084, 192.0, 0.0, 0.0, 0.0, 0.0, 0.0, 0.0, 0.0, 0.0, 0.0, 1.6989589261055832E9, 0.0, 2023-11-02 17:02:06.105
241.0, -187500.02235174447, 187500.0, 32767.76913020243, 41002.68822940448, 187500.0, 187500.0, -187500.02235174447, 33149.29105631007, -0.08600000000000001, 0.972, -0.084, 192.0, 0.0, 0.0, 0.0, 0.0, 0.0, 0.0, 0.0, 0.0, 0.0, 1.698958926583089E9, 0.0, 2023-11-02 17:02:06.583
242.0, -187500.02235174447, 187500.0, 32766.159804601648, 40996.74266537937, 187500.0, 187500.0, -187500.02235174447, 33150.76627144412, -0.08600000000000001, 0.972, -0.084, 192.0, 0.0, 0.0, 0.0, 0.0, 0.0, 0.0, 0.0, 0.0, 0.0, 1.698958926583161E9, 0.0, 2023-11-02 17:02:06.583
243.0, -187500.02235174447, 187500.0, 32769.333752314305, 41006.7785986398, 187500.0, 187500.0, -187500.02235174447, 33157.4270912918, -0.08600000000000001, 0.972, -0.084, 192.0, 0.0, 0.0, 0.0, 0.0, 0.0, 0.0, 0.0, 0.0, 0.0, 1.6989589265831745E9, 0.0, 2023-11-02 17:02:06.583
244.0, -187500.02235174447, 187500.0, 32771.59127850429, 41015.71929642192, 187500.0, 187500.0, -187500.02235174447, 33160.57868726, -0.08600000000000001, 0.972, -0.084, 192.0, 0.0, 0.0, 0.0, 0.0, 0.0, 0.0, 0.0, 0.0, 0.0, 1.6989589265831869E9, 0.0, 2023-11-02 17:02:06.583
245.0, -187500.02235174447, 187500.0, 32768.73025521401, 41023.587110470195, 187500.0, 187500.0, -187500.02235174447, 33157.36003605843, -0.08600000000000001, 0.972, -0.084, 192.0, 0.0, 0.0, 0.0, 0.0, 0.0, 0.0, 0.0, 0.0, 0.0, 1.6989589265832E9, 0.0, 2023-11-02 17:02:06.583
246.0, -187500.02235174447, 187500.0, 32767.567964502334, 41017.75330516736, 187500.0, 187500.0, -187500.02235174447, 33155.638951735375, -0.084, 0.974, -0.08600000000000001, 192.0, 253.0, 96.0, 30.0, 112.0, 253.0, 80.0, 0.0, 0.0, 0.0, 1.6989589265832136E9, 0.0, 2023-11-02 17:02:06.583
247.0, -187500.02235174447, 187500.0, 32769.71373197004, 41013.41706674303, 187500.0, 187500.0, -187500.02235174447, 33157.4270912918, -0.084, 0.974, -0.08600000000000001, 192.0, 0.0, 0.0, 0.0, 0.0, 0.0, 0.0, 0.0, 0.0, 0.0, 1.6989589265832295E9, 0.0, 2023-11-02 17:02:06.583
248.0, -187500.02235174447, 187500.0, 32766.45037727957, 41019.519092979324, 187500.0, 187500.0, -187500.02235174447, 33154.253143579146, -0.084, 0.974, -0.08600000000000001, 192.0, 0.0, 0.0, 0.0, 0.0, 0.0, 0.0, 0.0, 0.0, 0.0, 1.6989589265832415E9, 0.0, 2023-11-02 17:02:06.583
249.0, -187500.02235174447, 187500.0, 32761.44358652158, 41020.79314241328, 187500.0, 187500.0, -187500.02235174447, 33149.15694584334, -0.084, 0.974, -0.08600000000000001, 192.0, 0.0, 0.0, 0.0, 0.0, 0.0, 0.0, 0.0, 0.0, 0.0, 1.6989589265832543E9, 0.0, 2023-11-02 17:02:06.583
250.0, -187500.02235174447, 187500.0, 32760.86244116574, 41011.60657544215, 187500.0, 187500.0, -187500.02235174447, 33150.34158829947, -0.084, 0.974, -0.08600000000000001, 192.0, 0.0, 0.0, 0.0, 0.0, 0.0, 0.0, 0.0, 0.0, 0.0, 1.6989589265832684E9, 0.0, 2023-11-02 17:02:06.583
251.0, -187500.02235174447, 187500.0, 32761.555345243854, 41004.52107244982, 187500.0, 187500.0, -187500.02235174447, 33151.928562155794, -0.084, 0.974, -0.08600000000000001, 192.0, 0.0, 0.0, 0.0, 0.0, 0.0, 0.0, 0.0, 0.0, 0.0, 1.6989589265832796E9, 0.0, 2023-11-02 17:02:06.583
252.0, -187500.02235174447, 187500.0, 32758.15788008665, 41006.84565387317, 187500.0, 187500.0, -187500.02235174447, 33148.95578014324, -0.084, 0.974, -0.08600000000000001, 192.0, 0.0, 0.0, 0.0, 0.0, 0.0, 0.0, 0.0, 0.0, 0.0, 1.6989589265832934E9, 0.0, 2023-11-02 17:02:06.583
253.0, -187500.02235174447, 187500.0, 32755.96740913003, 41020.0331831018, 187500.0, 187500.0, -187500.02235174447, 33146.72060569771, -0.084, 0.974, -0.08600000000000001, 192.0, 0.0, 0.0, 0.0, 0.0, 0.0, 0.0, 0.0, 0.0, 0.0, 1.698958926583305E9, 0.0, 2023-11-02 17:02:06.583
254.0, -187500.02235174447, 187500.0, 32757.86730740873, 41014.69111617698, 187500.0, 187500.0, -187500.02235174447, 33148.441690020765, -0.084, 0.974, -0.08600000000000001, 192.0, 0.0, 0.0, 0.0, 0.0, 0.0, 0.0, 0.0, 0.0, 0.0, 1.6989589265833185E9, 0.0, 2023-11-02 17:02:06.583
255.0, -187500.02235174447, 187500.0, 32755.67683645211, 41006.733895150894, 187500.0, 187500.0, -187500.02235174447, 33146.58649523097, -0.084, 0.974, -0.08600000000000001, 192.0, 0.0, 0.0, 0.0, 0.0, 0.0, 0.0, 0.0, 0.0, 0.0, 1.6989589265834208E9, 0.0, 2023-11-02 17:02:06.583
0.0, -187500.02235174447, 187500.0, 32757.219106819524, 41007.94088935148, 187500.0, 187500.0, -187500.02235174447, 33144.95481788574, -0.076, 0.976, -0.08600000000000001, 192.0, 253.0, 160.0, 30.0, 128.0, 253.0, 80.0, 0.0, 0.0, 0.0, 1.698958926583432E9, 0.0, 2023-11-02 17:02:06.583
1.0, -187500.02235174447, 187500.0, 32763.075263866816, 41018.960299367944, 187500.0, 187500.0, -187500.02235174447, 33145.49125975266, -0.076, 0.976, -0.08600000000000001, 192.0, 0.0, 0.0, 0.0, 0.0, 0.0, 0.0, 0.0, 0.0, 0.0, 1.6989589265834439E9, 0.0, 2023-11-02 17:02:06.583
2.0, -187500.02235174447, 187500.0, 32760.66127546564, 41016.63571794459, 187500.0, 187500.0, -187500.02235174447, 33143.16667832931, -0.076, 0.976, -0.08600000000000001, 192.0, 0.0, 0.0, 0.0, 0.0, 0.0, 0.0, 0.0, 0.0, 0.0, 1.6989589265834565E9, 0.0, 2023-11-02 17:02:06.583
3.0, -187500.02235174447, 187500.0, 32760.035426620892, 41007.69502016247, 187500.0, 187500.0, -187500.02235174447, 33143.546657985054, -0.076, 0.976, -0.08600000000000001, 192.0, 0.0, 0.0, 0.0, 0.0, 0.0, 0.0, 0.0, 0.0, 0.0, 1.6989589265834675E9, 0.0, 2023-11-02 17:02:06.583
4.0, -187500.02235174447, 187500.0, 32759.6330952207, 41008.83495912969, 187500.0, 187500.0, -187500.02235174447, 33143.546657985054, -0.076, 0.976, -0.08600000000000001, 192.0, 0.0, 0.0, 0.0, 0.0, 0.0, 0.0, 0.0, 0.0, 0.0, 1.6989589265834937E9, 0.0, 2023-11-02 17:02:06.583
5.0, -187500.02235174447, 187500.0, 32758.62726672021, 41017.775656911814, 187500.0, 187500.0, -187500.02235174447, 33142.74199518466, -0.076, 0.976, -0.08600000000000001, 192.0, 0.0, 0.0, 0.0, 0.0, 0.0, 0.0, 0.0, 0.0, 0.0, 1.698958926583505E9, 0.0, 2023-11-02 17:02:06.583
6.0, -187500.02235174447, 187500.0, 32758.694321953575, 41018.35680226765, 187500.0, 187500.0, -187500.02235174447, 33142.786698673575, -0.076, 0.976, -0.08600000000000001, 192.0, 0.0, 0.0, 0.0, 0.0, 0.0, 0.0, 0.0, 0.0, 0.0, 1.6989589265835164E9, 0.0, 2023-11-02 17:02:06.583
7.0, -187500.02235174447, 187500.0, 32751.921743383617, 41006.64448817307, 187500.0, 187500.0, -187500.02235174447, 33139.85862014993, -0.076, 0.976, -0.08600000000000001, 192.0, 0.0, 0.0, 0.0, 0.0, 0.0, 0.0, 0.0, 0.0, 0.0, 1.698958926583526E9, 0.0, 2023-11-02 17:02:06.583
8.0, -187500.02235174447, 187500.0, 32752.927571884105, 40995.692133389966, 187500.0, 187500.0, -187500.02235174447, 33141.4232422618, -0.076, 0.976, -0.08600000000000001, 192.0, 0.0, 0.0, 0.0, 0.0, 0.0, 0.0, 0.0, 0.0, 0.0, 1.698958926583536E9, 0.0, 2023-11-02 17:02:06.583
9.0, -187500.02235174447, 187500.0, 32751.944095128074, 41001.3247729927, 187500.0, 187500.0, -187500.02235174447, 33140.23859980567, -0.076, 0.976, -0.08600000000000001, 192.0, 0.0, 0.0, 0.0, 0.0, 0.0, 0.0, 0.0, 0.0, 0.0, 1.6989589265835476E9, 0.0, 2023-11-02 17:02:06.583
10.0, -187500.02235174447, 187500.0, 32755.229801563004, 40989.36658970912, 187500.0, 187500.0, -187500.02235174447, 33143.88193415188, -0.076, 0.978, -0.08600000000000001, 192.0, 253.0, 160.0, 30.0, 144.0, 253.0, 80.0, 0.0, 0.0, 0.0, 1.698958926583558E9, 0.0, 2023-11-02 17:02:06.583
11.0, -187500.02235174447, 187500.0, 32760.638923721188, 40985.29857221825, 187500.0, 187500.0, -187500.02235174447, 33149.13459409888, -0.076, 0.978, -0.08600000000000001, 192.0, 0.0, 0.0, 0.0, 0.0, 0.0, 0.0, 0.0, 0.0, 0.0, 1.6989589265835695E9, 0.0, 2023-11-02 17:02:06.583
12.0, -187500.02235174447, 187500.0, 32759.744853942975, 40976.804909325234, 187500.0, 187500.0, -187500.02235174447, 33146.631198719886, -0.076, 0.978, -0.08600000000000001, 192.0, 0.0, 0.0, 0.0, 0.0, 0.0, 0.0, 0.0, 0.0, 0.0, 1.6989589265835795E9, 0.0, 2023-11-02 17:02:06.583
13.0, -187500.02235174447, 187500.0, 32752.413481761636, 40964.42204289699, 187500.0, 187500.0, -187500.02235174447, 33139.23277130518, -0.076, 0.978, -0.08600000000000001, 192.0, 0.0, 0.0, 0.0, 0.0, 0.0, 0.0, 0.0, 0.0, 0.0, 1.6989589265835907E9, 0.0, 2023-11-02 17:02:06.583
14.0, -187500.02235174447, 187500.0, 32754.648656207166, 40952.50856310232, 187500.0, 187500.0, -187500.02235174447, 33140.260951550124, -0.076, 0.978, -0.08600000000000001, 192.0, 0.0, 0.0, 0.0, 0.0, 0.0, 0.0, 0.0, 0.0, 0.0, 1.6989589265836341E9, 0.0, 2023-11-02 17:02:06.583
15.0, -187500.02235174447, 187500.0, 32761.57769698831, 40947.72528978888, 187500.0, 187500.0, -187500.02235174447, 33145.13363184138, -0.076, 0.978, -0.08600000000000001, 192.0, 0.0, 0.0, 0.0, 0.0, 0.0, 0.0, 0.0, 0.0, 0.0, 1.698958926583645E9, 0.0, 2023-11-02 17:02:06.583
16.0, -187500.02235174447, 187500.0, 32758.068473108826, 40946.473592099384, 187500.0, 187500.0, -187500.02235174447, 33139.1210125829, -0.076, 0.978, -0.08600000000000001, 192.0, 0.0, 0.0, 0.0, 0.0, 0.0, 0.0, 0.0, 0.0, 0.0, 1.6989589265836568E9, 0.0, 2023-11-02 17:02:06.583
17.0, -187500.02235174447, 187500.0, 32758.180231831102, 40940.97506296338, 187500.0, 187500.0, -187500.02235174447, 33134.62831194739, -0.076, 0.978, -0.08600000000000001, 192.0, 0.0, 0.0, 0.0, 0.0, 0.0, 0.0, 0.0, 0.0, 0.0, 1.698958926583676E9, 0.0, 2023-11-02 17:02:06.583
18.0, -187500.02235174447, 187500.0, 32759.588391731788, 40944.171362420486, 187500.0, 187500.0, -187500.02235174447, 33131.90139912384, -0.076, 0.978, -0.08600000000000001, 192.0, 0.0, 0.0, 0.0, 0.0, 0.0, 0.0, 0.0, 0.0, 0.0, 1.6989589265836883E9, 0.0, 2023-11-02 17:02:06.583
19.0, -187500.02235174447, 187500.0, 32761.264772565937, 40941.60091180813, 187500.0, 187500.0, -187500.02235174447, 33131.54377121255, -0.084, 0.978, -0.082, 192.0, 253.0, 96.0, 30.0, 144.0, 253.0, 112.0, 0.0, 0.0, 0.0, 1.698958926583698E9, 0.0, 2023-11-02 17:02:06.583
20.0, -187500.02235174447, 187500.0, 32758.694321953575, 40929.843894224636, 187500.0, 187500.0, -187500.02235174447, 33127.72162291069, -0.084, 0.978, -0.082, 192.0, 0.0, 0.0, 0.0, 0.0, 0.0, 0.0, 0.0, 0.0, 0.0, 1.6989589265837111E9, 0.0, 2023-11-02 17:02:06.583
21.0, -187500.02235174447, 187500.0, 32761.19771733257, 40928.68160351296, 187500.0, 187500.0, -187500.02235174447, 33127.47575372169, -0.084, 0.978, -0.082, 192.0, 0.0, 0.0, 0.0, 0.0, 0.0, 0.0, 0.0, 0.0, 0.0, 1.6989589265837247E9, 0.0, 2023-11-02 17:02:06.583
22.0, -187500.02235174447, 187500.0, 32766.517432512934, 40938.918702473486, 187500.0, 187500.0, -187500.02235174447, 33127.676919421785, -0.084, 0.978, -0.082, 192.0, 0.0, 0.0, 0.0, 0.0, 0.0, 0.0, 0.0, 0.0, 0.0, 1.6989589265837438E9, 0.0, 2023-11-02 17:02:06.583
23.0, -187500.02235174447, 187500.0, 32761.24242082148, 40940.08099318516, 187500.0, 187500.0, -187500.02235174447, 33120.546712940544, -0.084, 0.978, -0.082, 192.0, 0.0, 0.0, 0.0, 0.0, 0.0, 0.0, 0.0, 0.0, 0.0, 1.698958926583755E9, 0.0, 2023-11-02 17:02:06.583
24.0, -187500.02235174447, 187500.0, 32760.974199888016, 40928.52514130177, 187500.0, 187500.0, -187500.02235174447, 33117.12689603888, -0.084, 0.978, -0.082, 192.0, 0.0, 0.0, 0.0, 0.0, 0.0, 0.0, 0.0, 0.0, 0.0, 1.698958926583766E9, 0.0, 2023-11-02 17:02:06.583
25.0, -187500.02235174447, 187500.0, 32761.689455710588, 40933.48722857085, 187500.0, 187500.0, -187500.02235174447, 33115.76343962711, -0.084, 0.978, -0.082, 192.0, 0.0, 0.0, 0.0, 0.0, 0.0, 0.0, 0.0, 0.0, 0.0, 1.6989589265837803E9, 0.0, 2023-11-02 17:02:06.583
26.0, -187500.02235174447, 187500.0, 32759.074301609315, 40939.49984782933, 187500.0, 187500.0, -187500.02235174447, 33110.331965724465, -0.084, 0.978, -0.082, 192.0, 0.0, 0.0, 0.0, 0.0, 0.0, 0.0, 0.0, 0.0, 0.0, 1.6989589265837965E9, 0.0, 2023-11-02 17:02:06.583
27.0, -187500.02235174447, 187500.0, 32761.823566177318, 40943.321996131184, 187500.0, 187500.0, -187500.02235174447, 33111.60601515842, -0.084, 0.978, -0.082, 192.0, 0.0, 0.0, 0.0, 0.0, 0.0, 0.0, 0.0, 0.0, 0.0, 1.6989589265838065E9, 0.0, 2023-11-02 17:02:06.583
28.0, -187500.02235174447, 187500.0, 32759.409577776147, 40942.15970541951, 187500.0, 187500.0, -187500.02235174447, 33108.83439884596, -0.084, 0.978, -0.082, 192.0, 0.0, 0.0, 0.0, 0.0, 0.0, 0.0, 0.0, 0.0, 0.0, 1.698958926583818E9, 0.0, 2023-11-02 17:02:06.583
29.0, -187500.02235174447, 187500.0, 32757.75554868645, 40944.10430718712, 187500.0, 187500.0, -187500.02235174447, 33105.794561600036, -0.082, 0.978, -0.082, 192.0, 253.0, 112.0, 30.0, 144.0, 253.0, 112.0, 0.0, 0.0, 0.0, 1.698958926583834E9, 0.0, 2023-11-02 17:02:06.583
30.0, -187500.02235174447, 187500.0, 32754.08986259578, 40948.641711311546, 187500.0, 187500.0, -187500.02235174447, 33100.005459786116, -0.082, 0.978, -0.082, 192.0, 0.0, 0.0, 0.0, 0.0, 0.0, 0.0, 0.0, 0.0, 0.0, 1.698958926583912E9, 0.0, 2023-11-02 17:02:06.583
31.0, -187500.02235174447, 187500.0, 32747.51844972592, 40950.07222295669, 187500.0, 187500.0, -187500.02235174447, 33092.159997482304, -0.082, 0.978, -0.082, 192.0, 0.0, 0.0, 0.0, 0.0, 0.0, 0.0, 0.0, 0.0, 0.0, 1.6989589265839248E9, 0.0, 2023-11-02 17:02:06.583
32.0, -187500.02235174447, 187500.0, 32747.138470070182, 40945.66892929899, 187500.0, 187500.0, -187500.02235174447, 33089.50013989212, -0.082, 0.978, -0.082, 192.0, 0.0, 0.0, 0.0, 0.0, 0.0, 0.0, 0.0, 0.0, 0.0, 1.698958926583938E9, 0.0, 2023-11-02 17:02:06.583
33.0, -187500.02235174447, 187500.0, 32749.463051493534, 40949.15580143402, 187500.0, 187500.0, -187500.02235174447, 33090.93065153726, -0.082, 0.978, -0.082, 192.0, 0.0, 0.0, 0.0, 0.0, 0.0, 0.0, 0.0, 0.0, 0.0, 1.6989589265839555E9, 0.0, 2023-11-02 17:02:06.583
34.0, -187500.02235174447, 187500.0, 32746.400862503157, 40961.58337135117, 187500.0, 187500.0, -187500.02235174447, 33086.415599157284, -0.082, 0.978, -0.082, 192.0, 0.0, 0.0, 0.0, 0.0, 0.0, 0.0, 0.0, 0.0, 0.0, 1.6989589265839689E9, 0.0, 2023-11-02 17:02:06.583
35.0, -187500.02235174447, 187500.0, 32746.825545647807, 40971.03815925577, 187500.0, 187500.0, -187500.02235174447, 33084.73921832314, -0.082, 0.978, -0.082, 192.0, 0.0, 0.0, 0.0, 0.0, 0.0, 0.0, 0.0, 0.0, 0.0, 1.698958926583983E9, 0.0, 2023-11-02 17:02:06.583
36.0, -187500.02235174447, 187500.0, 32750.5806387163, 40971.39578716705, 187500.0, 187500.0, -187500.02235174447, 33085.45447414571, -0.082, 0.978, -0.082, 192.0, 0.0, 0.0, 0.0, 0.0, 0.0, 0.0, 0.0, 0.0, 0.0, 1.698958926584004E9, 0.0, 2023-11-02 17:02:06.584
37.0, -187500.02235174447, 187500.0, 32747.116118325728, 40969.115909232605, 187500.0, 187500.0, -187500.02235174447, 33080.3582764099, -0.082, 0.978, -0.082, 192.0, 0.0, 0.0, 0.0, 0.0, 0.0, 0.0, 0.0, 0.0, 0.0, 1.698958926584015E9, 0.0, 2023-11-02 17:02:06.584
38.0, -187500.02235174447, 187500.0, 32751.742929427975, 40975.01676976881, 187500.0, 187500.0, -187500.02235174447, 33081.8558432884, -0.082, 0.978, -0.082, 192.0, 0.0, 0.0, 0.0, 0.0, 0.0, 0.0, 0.0, 0.0, 0.0, 1.6989589265840273E9, 0.0, 2023-11-02 17:02:06.584
39.0, -187500.02235174447, 187500.0, 32749.284237537893, 40982.750473350345, 187500.0, 187500.0, -187500.02235174447, 33077.11727346388, -0.084, 0.982, -0.078, 192.0, 253.0, 96.0, 30.0, 176.0, 253.0, 144.0, 0.0, 0.0, 0.0, 1.6989589265840387E9, 0.0, 2023-11-02 17:02:06.584
40.0, -187500.02235174447, 187500.0, 32746.49026948098, 40981.20820298293, 187500.0, 187500.0, -187500.02235174447, 33074.2562501736, -0.084, 0.982, -0.078, 192.0, 0.0, 0.0, 0.0, 0.0, 0.0, 0.0, 0.0, 0.0, 0.0, 1.69895892658405E9, 0.0, 2023-11-02 17:02:06.584
41.0, -187500.02235174447, 187500.0, 32748.300760781858, 40974.45797615743, 187500.0, 187500.0, -187500.02235174447, 33076.44672113022, -0.084, 0.982, -0.078, 192.0, 0.0, 0.0, 0.0, 0.0, 0.0, 0.0, 0.0, 0.0, 0.0, 1.69895892658406E9, 0.0, 2023-11-02 17:02:06.584
42.0, -187500.02235174447, 187500.0, 32750.602990460753, 40982.616362883615, 187500.0, 187500.0, -187500.02235174447, 33077.81017754199, -0.084, 0.982, -0.078, 192.0, 0.0, 0.0, 0.0, 0.0, 0.0, 0.0, 0.0, 0.0, 0.0, 1.69895892658407E9, 0.0, 2023-11-02 17:02:06.584
43.0, -187500.02235174447, 187500.0, 32747.29493228137, 40982.39284543906, 187500.0, 187500.0, -187500.02235174447, 33071.66344781678, -0.084, 0.982, -0.078, 192.0, 0.0, 0.0, 0.0, 0.0, 0.0, 0.0, 0.0, 0.0, 0.0, 1.6989589265840805E9, 0.0, 2023-11-02 17:02:06.584
44.0, -187500.02235174447, 187500.0, 32750.111252082737, 40979.66593261551, 187500.0, 187500.0, -187500.02235174447, 33073.74216005113, -0.084, 0.982, -0.078, 192.0, 0.0, 0.0, 0.0, 0.0, 0.0, 0.0, 0.0, 0.0, 0.0, 1.6989589265840914E9, 0.0, 2023-11-02 17:02:06.584
45.0, -187500.02235174447, 187500.0, 32753.754586428953, 40981.45407217194, 187500.0, 187500.0, -187500.02235174447, 33078.01134324209, -0.084, 0.982, -0.078, 192.0, 0.0, 0.0, 0.0, 0.0, 0.0, 0.0, 0.0, 0.0, 0.0, 1.6989589265841255E9, 0.0, 2023-11-02 17:02:06.584
46.0, -187500.02235174447, 187500.0, 32751.474708494512, 40977.18488898098, 187500.0, 187500.0, -187500.02235174447, 33075.306782163, -0.084, 0.982, -0.078, 192.0, 0.0, 0.0, 0.0, 0.0, 0.0, 0.0, 0.0, 0.0, 0.0, 1.698958926584136E9, 0.0, 2023-11-02 17:02:06.584
47.0, -187500.02235174447, 187500.0, 32752.39113001718, 40986.192641996466, 187500.0, 187500.0, -187500.02235174447, 33076.53612810804, -0.084, 0.982, -0.078, 192.0, 0.0, 0.0, 0.0, 0.0, 0.0, 0.0, 0.0, 0.0, 0.0, 1.6989589265841527E9, 0.0, 2023-11-02 17:02:06.584
48.0, -187500.02235174447, 187500.0, 32754.179269573604, 40986.34910420765, 187500.0, 187500.0, -187500.02235174447, 33076.60318334141, -0.084, 0.982, -0.078, 192.0, 0.0, 0.0, 0.0, 0.0, 0.0, 0.0, 0.0, 0.0, 0.0, 1.698958926584164E9, 0.0, 2023-11-02 17:02:06.584
49.0, -187500.02235174447, 187500.0, 32758.44845276457, 40980.89527856056, 187500.0, 187500.0, -187500.02235174447, 33078.70424732021, -0.08600000000000001, 0.98, -0.084, 192.0, 253.0, 80.0, 30.0, 160.0, 253.0, 96.0, 0.0, 0.0, 0.0, 1.6989589265841742E9, 0.0, 2023-11-02 17:02:06.584
50.0, -187500.02235174447, 187500.0, 32753.91104864014, 40985.11975826261, 187500.0, 187500.0, -187500.02235174447, 33072.40105538381, -0.08600000000000001, 0.98, -0.084, 192.0, 0.0, 0.0, 0.0, 0.0, 0.0, 0.0, 0.0, 0.0, 0.0, 1.6989589265841868E9, 0.0, 2023-11-02 17:02:06.584
51.0, -187500.02235174447, 187500.0, 32750.491231738477, 40995.06628454522, 187500.0, 187500.0, -187500.02235174447, 33070.29999140501, -0.08600000000000001, 0.98, -0.084, 192.0, 0.0, 0.0, 0.0, 0.0, 0.0, 0.0, 0.0, 0.0, 0.0, 1.6989589265841975E9, 0.0, 2023-11-02 17:02:06.584
52.0, -187500.02235174447, 187500.0, 32748.39016775968, 40998.46374970242, 187500.0, 187500.0, -187500.02235174447, 33072.95984899519, -0.08600000000000001, 0.98, -0.084, 192.0, 0.0, 0.0, 0.0, 0.0, 0.0, 0.0, 0.0, 0.0, 0.0, 1.69895892658421E9, 0.0, 2023-11-02 17:02:06.584
53.0, -187500.02235174447, 187500.0, 32746.71378692553, 40995.468615945414, 187500.0, 187500.0, -187500.02235174447, 33073.16101469529, -0.08600000000000001, 0.98, -0.084, 192.0, 0.0, 0.0, 0.0, 0.0, 0.0, 0.0, 0.0, 0.0, 0.0, 1.6989589265842216E9, 0.0, 2023-11-02 17:02:06.584
54.0, -187500.02235174447, 187500.0, 32751.497060238966, 41002.822339871214, 187500.0, 187500.0, -187500.02235174447, 33078.10075021991, -0.08600000000000001, 0.98, -0.084, 192.0, 0.0, 0.0, 0.0, 0.0, 0.0, 0.0, 0.0, 0.0, 0.0, 1.698958926584232E9, 0.0, 2023-11-02 17:02:06.584
55.0, -187500.02235174447, 187500.0, 32748.747795670963, 41014.64641268807, 187500.0, 187500.0, -187500.02235174447, 33076.424369385764, -0.08600000000000001, 0.98, -0.084, 192.0, 0.0, 0.0, 0.0, 0.0, 0.0, 0.0, 0.0, 0.0, 0.0, 1.6989589265842428E9, 0.0, 2023-11-02 17:02:06.584
56.0, -187500.02235174447, 187500.0, 32748.457222993045, 41020.100238335166, 187500.0, 187500.0, -187500.02235174447, 33075.57500309646, -0.08600000000000001, 0.98, -0.084, 192.0, 0.0, 0.0, 0.0, 0.0, 0.0, 0.0, 0.0, 0.0, 0.0, 1.6989589265842526E9, 0.0, 2023-11-02 17:02:06.584
57.0, -187500.02235174447, 187500.0, 32754.782766673896, 41018.60267145666, 187500.0, 187500.0, -187500.02235174447, 33080.98412525465, -0.08600000000000001, 0.98, -0.084, 192.0, 0.0, 0.0, 0.0, 0.0, 0.0, 0.0, 0.0, 0.0, 0.0, 1.6989589265842628E9, 0.0, 2023-11-02 17:02:06.584
58.0, -187500.02235174447, 187500.0, 32760.370702787724, 41021.39663951357, 187500.0, 187500.0, -187500.02235174447, 33083.53222412255, -0.08600000000000001, 0.98, -0.084, 192.0, 0.0, 0.0, 0.0, 0.0, 0.0, 0.0, 0.0, 0.0, 0.0, 1.698958926584273E9, 0.0, 2023-11-02 17:02:06.584
59.0, -187500.02235174447, 187500.0, 32754.53689748489, 41023.96709012593, 187500.0, 187500.0, -187500.02235174447, 33075.46324437419, -0.08600000000000001, 0.978, -0.082, 192.0, 253.0, 80.0, 30.0, 144.0, 253.0, 112.0, 0.0, 0.0, 0.0, 1.6989589265842855E9, 0.0, 2023-11-02 17:02:06.584
60.0, -187500.02235174447, 187500.0, 32747.630208448198, 41015.27226153282, 187500.0, 187500.0, -187500.02235174447, 33066.16491868078, -0.08600000000000001, 0.978, -0.082, 192.0, 0.0, 0.0, 0.0, 0.0, 0.0, 0.0, 0.0, 0.0, 0.0, 1.6989589265843163E9, 0.0, 2023-11-02 17:02:06.584
61.0, -187500.02235174447, 187500.0, 32750.357121271747, 41004.52107244982, 187500.0, 187500.0, -187500.02235174447, 33065.673180302765, -0.08600000000000001, 0.978, -0.082, 192.0, 0.0, 0.0, 0.0, 0.0, 0.0, 0.0, 0.0, 0.0, 0.0, 1.6989589265843277E9, 0.0, 2023-11-02 17:02:06.584
62.0, -187500.02235174447, 187500.0, 32749.843031149274, 41001.30242124825, 187500.0, 187500.0, -187500.02235174447, 33064.51088959109, -0.08600000000000001, 0.978, -0.082, 192.0, 0.0, 0.0, 0.0, 0.0, 0.0, 0.0, 0.0, 0.0, 0.0, 1.6989589265843396E9, 0.0, 2023-11-02 17:02:06.584
63.0, -187500.02235174447, 187500.0, 32749.731272426998, 41002.71058114894, 187500.0, 187500.0, -187500.02235174447, 33062.27571514556, -0.08600000000000001, 0.978, -0.082, 192.0, 0.0, 0.0, 0.0, 0.0, 0.0, 0.0, 0.0, 0.0, 0.0, 1.6989589265843525E9, 0.0, 2023-11-02 17:02:06.584
64.0, -187500.02235174447, 187500.0, 32745.707958425042, 41006.666839917525, 187500.0, 187500.0, -187500.02235174447, 33056.7548342651, -0.08600000000000001, 0.978, -0.082, 192.0, 0.0, 0.0, 0.0, 0.0, 0.0, 0.0, 0.0, 0.0, 0.0, 1.6989589265843637E9, 0.0, 2023-11-02 17:02:06.584
