%OpenBCI Raw EEG Data
%Number of channels = 8
%Sample Rate = 250 Hz
%Board = OpenBCI_GUI$BoardCytonSerial
Sample Index, EXG Channel 0, EXG Channel 1, EXG Channel 2, EXG Channel 3, EXG Channel 4, EXG Channel 5, EXG Channel 6, EXG Channel 7, Accel Channel 0, Accel Channel 1, Accel Channel 2, Other, Other, Other, Other, Other, Other, Other, Analog Channel 0, Analog Channel 1, Analog Channel 2, Timestamp, Other, Timestamp (Formatted)
16.0, -187500.02235174447, 187500.0, 31369.175776144955, 37411.92518614831, 187500.0, 187500.0, -187500.02235174447, 31696.472370204017, 0.0, 0.0, 0.0, 192.0, 0.0, 0.0, 0.0, 0.0, 0.0, 0.0, 0.0, 0.0, 0.0, 1.6989589532456634E9, 0.0, 2023-11-02 17:02:33.245
17.0, -187500.02235174447, 187500.0, 31366.940601699425, 37406.87369190141, 187500.0, 187500.0, -187500.02235174447, 31692.94079458008, -0.006, 0.984, -0.068, 192.0, 255.0, 208.0, 30.0, 192.0, 253.0, 224.0, 0.0, 0.0, 0.0, 1.6989589532456872E9, 0.0, 2023-11-02 17:02:33.245
18.0, -187500.02235174447, 187500.0, 31370.807453490193, 37409.28768030259, 187500.0, 187500.0, -187500.02235174447, 31695.533596936897, -0.006, 0.984, -0.068, 192.0, 0.0, 0.0, 0.0, 0.0, 0.0, 0.0, 0.0, 0.0, 0.0, 1.6989589532457001E9, 0.0, 2023-11-02 17:02:33.245
19.0, -187500.02235174447, 187500.0, 31375.769540759273, 37408.706534946745, 187500.0, 187500.0, -187500.02235174447, 31699.020469071922, -0.006, 0.984, -0.068, 192.0, 0.0, 0.0, 0.0, 0.0, 0.0, 0.0, 0.0, 0.0, 0.0, 1.6989589532457104E9, 0.0, 2023-11-02 17:02:33.245
20.0, -187500.02235174447, 187500.0, 31376.12716867056, 37400.10111333145, 187500.0, 187500.0, -187500.02235174447, 31698.439323716084, -0.006, 0.984, -0.068, 192.0, 0.0, 0.0, 0.0, 0.0, 0.0, 0.0, 0.0, 0.0, 0.0, 1.6989589532457204E9, 0.0, 2023-11-02 17:02:33.245
21.0, -187500.02235174447, 187500.0, 31375.50131982581, 37395.31784001802, 187500.0, 187500.0, -187500.02235174447, 31698.0816958048, -0.006, 0.984, -0.068, 192.0, 0.0, 0.0, 0.0, 0.0, 0.0, 0.0, 0.0, 0.0, 0.0, 1.69895895324573E9, 0.0, 2023-11-02 17:02:33.245
22.0, -187500.02235174447, 187500.0, 31373.243793635822, 37398.13415981938, 187500.0, 187500.0, -187500.02235174447, 31697.299384748865, -0.006, 0.984, -0.068, 192.0, 0.0, 0.0, 0.0, 0.0, 0.0, 0.0, 0.0, 0.0, 0.0, 1.69895895324574E9, 0.0, 2023-11-02 17:02:33.245
23.0, -187500.02235174447, 187500.0, 31378.92113672747, 37391.20511903824, 187500.0, 187500.0, -187500.02235174447, 31702.50734120695, -0.006, 0.984, -0.068, 192.0, 0.0, 0.0, 0.0, 0.0, 0.0, 0.0, 0.0, 0.0, 0.0, 1.6989589532457497E9, 0.0, 2023-11-02 17:02:33.245
24.0, -187500.02235174447, 187500.0, 31380.508110583796, 37377.34703747595, 187500.0, 187500.0, -187500.02235174447, 31703.669631918627, -0.006, 0.984, -0.068, 192.0, 0.0, 0.0, 0.0, 0.0, 0.0, 0.0, 0.0, 0.0, 0.0, 1.6989589532457592E9, 0.0, 2023-11-02 17:02:33.245
25.0, -187500.02235174447, 187500.0, 31380.21753790588, 37365.1206332589, 187500.0, 187500.0, -187500.02235174447, 31704.004908085455, -0.006, 0.984, -0.068, 192.0, 0.0, 0.0, 0.0, 0.0, 0.0, 0.0, 0.0, 0.0, 0.0, 1.6989589532457688E9, 0.0, 2023-11-02 17:02:33.245
26.0, -187500.02235174447, 187500.0, 31381.64804955102, 37355.97876977668, 187500.0, 187500.0, -187500.02235174447, 31705.390716241687, -0.006, 0.984, -0.068, 192.0, 0.0, 0.0, 0.0, 0.0, 0.0, 0.0, 0.0, 0.0, 0.0, 1.6989589532457786E9, 0.0, 2023-11-02 17:02:33.245
27.0, -187500.02235174447, 187500.0, 31385.91723274198, 37349.563819118004, 187500.0, 187500.0, -187500.02235174447, 31709.615195943737, -0.012, 0.98, -0.068, 192.0, 255.0, 160.0, 30.0, 160.0, 253.0, 224.0, 0.0, 0.0, 0.0, 1.6989589532457883E9, 0.0, 2023-11-02 17:02:33.245
28.0, -187500.02235174447, 187500.0, 31390.54404384423, 37341.49483936964, 187500.0, 187500.0, -187500.02235174447, 31711.693908178084, -0.012, 0.98, -0.068, 192.0, 0.0, 0.0, 0.0, 0.0, 0.0, 0.0, 0.0, 0.0, 0.0, 1.6989589532457983E9, 0.0, 2023-11-02 17:02:33.245
29.0, -187500.02235174447, 187500.0, 31390.789913033237, 37340.66782482479, 187500.0, 187500.0, -187500.02235174447, 31711.17981805561, -0.012, 0.98, -0.068, 192.0, 0.0, 0.0, 0.0, 0.0, 0.0, 0.0, 0.0, 0.0, 0.0, 1.6989589532458081E9, 0.0, 2023-11-02 17:02:33.245
30.0, -187500.02235174447, 187500.0, 31384.665535052485, 37343.48414462616, 187500.0, 187500.0, -187500.02235174447, 31704.071963318824, -0.012, 0.98, -0.068, 192.0, 0.0, 0.0, 0.0, 0.0, 0.0, 0.0, 0.0, 0.0, 0.0, 1.6989589532458205E9, 0.0, 2023-11-02 17:02:33.245
31.0, -187500.02235174447, 187500.0, 31378.809378005193, 37330.564836330996, 187500.0, 187500.0, -187500.02235174447, 31695.578300425805, -0.012, 0.98, -0.068, 192.0, 0.0, 0.0, 0.0, 0.0, 0.0, 0.0, 0.0, 0.0, 0.0, 1.6989589532458596E9, 0.0, 2023-11-02 17:02:33.245
32.0, -187500.02235174447, 187500.0, 31384.151444930012, 37322.56291181599, 187500.0, 187500.0, -187500.02235174447, 31697.41114347114, -0.012, 0.98, -0.068, 192.0, 0.0, 0.0, 0.0, 0.0, 0.0, 0.0, 0.0, 0.0, 0.0, 1.6989589532460124E9, 0.0, 2023-11-02 17:02:33.246
33.0, -187500.02235174447, 187500.0, 31380.3069448837, 37320.93123447076, 187500.0, 187500.0, -187500.02235174447, 31689.69979163406, -0.012, 0.98, -0.068, 192.0, 0.0, 0.0, 0.0, 0.0, 0.0, 0.0, 0.0, 0.0, 0.0, 1.6989589532460232E9, 0.0, 2023-11-02 17:02:33.246
34.0, -187500.02235174447, 187500.0, 31375.188395403435, 37325.043955450536, 187500.0, 187500.0, -187500.02235174447, 31682.234308985986, -0.012, 0.98, -0.068, 192.0, 0.0, 0.0, 0.0, 0.0, 0.0, 0.0, 0.0, 0.0, 0.0, 1.6989589532460327E9, 0.0, 2023-11-02 17:02:33.246
35.0, -187500.02235174447, 187500.0, 31373.154386658003, 37334.3646328884, 187500.0, 187500.0, -187500.02235174447, 31679.060361273336, -0.012, 0.98, -0.068, 192.0, 0.0, 0.0, 0.0, 0.0, 0.0, 0.0, 0.0, 0.0, 0.0, 1.6989589532460425E9, 0.0, 2023-11-02 17:02:33.246
36.0, -187500.02235174447, 187500.0, 31374.294325625222, 37331.30244389802, 187500.0, 187500.0, -187500.02235174447, 31676.534614149885, -0.012, 0.98, -0.068, 192.0, 0.0, 0.0, 0.0, 0.0, 0.0, 0.0, 0.0, 0.0, 0.0, 1.698958953246053E9, 0.0, 2023-11-02 17:02:33.246
37.0, -187500.02235174447, 187500.0, 31381.044552450723, 37330.67659505327, 187500.0, 187500.0, -187500.02235174447, 31679.775617095904, -0.016, 0.984, -0.07, 192.0, 255.0, 128.0, 30.0, 192.0, 253.0, 208.0, 0.0, 0.0, 0.0, 1.6989589532460628E9, 0.0, 2023-11-02 17:02:33.246
38.0, -187500.02235174447, 187500.0, 31385.626660064063, 37335.77279278908, 187500.0, 187500.0, -187500.02235174447, 31682.279012474897, -0.016, 0.984, -0.07, 192.0, 0.0, 0.0, 0.0, 0.0, 0.0, 0.0, 0.0, 0.0, 0.0, 1.698958953246076E9, 0.0, 2023-11-02 17:02:33.246
39.0, -187500.02235174447, 187500.0, 31383.369133874075, 37339.88551376886, 187500.0, 187500.0, -187500.02235174447, 31680.334410707288, -0.016, 0.984, -0.07, 192.0, 0.0, 0.0, 0.0, 0.0, 0.0, 0.0, 0.0, 0.0, 0.0, 1.6989589532460856E9, 0.0, 2023-11-02 17:02:33.246
40.0, -187500.02235174447, 187500.0, 31375.613078548085, 37330.85540900891, 187500.0, 187500.0, -187500.02235174447, 31670.589050124774, -0.016, 0.984, -0.07, 192.0, 0.0, 0.0, 0.0, 0.0, 0.0, 0.0, 0.0, 0.0, 0.0, 1.6989589532460952E9, 0.0, 2023-11-02 17:02:33.246
41.0, -187500.02235174447, 187500.0, 31380.530462328254, 37329.26843515258, 187500.0, 187500.0, -187500.02235174447, 31673.94181179307, -0.016, 0.984, -0.07, 192.0, 0.0, 0.0, 0.0, 0.0, 0.0, 0.0, 0.0, 0.0, 0.0, 1.6989589532461047E9, 0.0, 2023-11-02 17:02:33.246
42.0, -187500.02235174447, 187500.0, 31381.87156699557, 37339.23731317965, 187500.0, 187500.0, -187500.02235174447, 31674.9252885491, -0.016, 0.984, -0.07, 192.0, 0.0, 0.0, 0.0, 0.0, 0.0, 0.0, 0.0, 0.0, 0.0, 1.6989589532461145E9, 0.0, 2023-11-02 17:02:33.246
43.0, -187500.02235174447, 187500.0, 31375.30015412571, 37342.63477833686, 187500.0, 187500.0, -187500.02235174447, 31665.962239022523, -0.016, 0.984, -0.07, 192.0, 0.0, 0.0, 0.0, 0.0, 0.0, 0.0, 0.0, 0.0, 0.0, 1.6989589532461245E9, 0.0, 2023-11-02 17:02:33.246
44.0, -187500.02235174447, 187500.0, 31369.622811034063, 37338.11972595689, 187500.0, 187500.0, -187500.02235174447, 31659.480233130485, -0.016, 0.984, -0.07, 192.0, 0.0, 0.0, 0.0, 0.0, 0.0, 0.0, 0.0, 0.0, 0.0, 1.6989589532461343E9, 0.0, 2023-11-02 17:02:33.246
45.0, -187500.02235174447, 187500.0, 31368.393465089022, 37339.28201666856, 187500.0, 187500.0, -187500.02235174447, 31656.060416228822, -0.016, 0.984, -0.07, 192.0, 0.0, 0.0, 0.0, 0.0, 0.0, 0.0, 0.0, 0.0, 0.0, 1.6989589532461436E9, 0.0, 2023-11-02 17:02:33.246
46.0, -187500.02235174447, 187500.0, 31369.198127889413, 37342.03128123657, 187500.0, 187500.0, -187500.02235174447, 31655.21104993952, -0.016, 0.984, -0.07, 192.0, 0.0, 0.0, 0.0, 0.0, 0.0, 0.0, 0.0, 0.0, 0.0, 1.698958953246153E9, 0.0, 2023-11-02 17:02:33.246
47.0, -187500.02235174447, 187500.0, 31369.801624989705, 37347.70862432821, 187500.0, 187500.0, -187500.02235174447, 31654.40638713913, -0.018000000000000002, 0.982, -0.064, 192.0, 255.0, 112.0, 30.0, 176.0, 254.0, 0.0, 0.0, 0.0, 0.0, 1.6989589532461982E9, 0.0, 2023-11-02 17:02:33.246
48.0, -187500.02235174447, 187500.0, 31371.96974420187, 37343.4617928817, 187500.0, 187500.0, -187500.02235174447, 31655.971009251003, -0.018000000000000002, 0.982, -0.064, 192.0, 0.0, 0.0, 0.0, 0.0, 0.0, 0.0, 0.0, 0.0, 0.0, 1.6989589532462091E9, 0.0, 2023-11-02 17:02:33.246
49.0, -187500.02235174447, 187500.0, 31374.67430528096, 37339.75140330212, 187500.0, 187500.0, -187500.02235174447, 31659.92726801959, -0.018000000000000002, 0.982, -0.064, 192.0, 0.0, 0.0, 0.0, 0.0, 0.0, 0.0, 0.0, 0.0, 0.0, 1.6989589532462187E9, 0.0, 2023-11-02 17:02:33.246
50.0, -187500.02235174447, 187500.0, 31375.344857614622, 37345.026414993576, 187500.0, 187500.0, -187500.02235174447, 31660.59782035325, -0.018000000000000002, 0.982, -0.064, 192.0, 0.0, 0.0, 0.0, 0.0, 0.0, 0.0, 0.0, 0.0, 0.0, 1.6989589532462285E9, 0.0, 2023-11-02 17:02:33.246
51.0, -187500.02235174447, 187500.0, 31377.803549504704, 37354.86118255391, 187500.0, 187500.0, -187500.02235174447, 31661.938925020568, -0.018000000000000002, 0.982, -0.064, 192.0, 0.0, 0.0, 0.0, 0.0, 0.0, 0.0, 0.0, 0.0, 0.0, 1.698958953246238E9, 0.0, 2023-11-02 17:02:33.246
52.0, -187500.02235174447, 187500.0, 31380.530462328254, 37353.38596741986, 187500.0, 187500.0, -187500.02235174447, 31663.190622710066, -0.018000000000000002, 0.982, -0.064, 192.0, 0.0, 0.0, 0.0, 0.0, 0.0, 0.0, 0.0, 0.0, 0.0, 1.6989589532462475E9, 0.0, 2023-11-02 17:02:33.246
53.0, -187500.02235174447, 187500.0, 31381.804511762206, 37350.748461574134, 187500.0, 187500.0, -187500.02235174447, 31664.576430866295, -0.018000000000000002, 0.982, -0.064, 192.0, 0.0, 0.0, 0.0, 0.0, 0.0, 0.0, 0.0, 0.0, 0.0, 1.6989589532462573E9, 0.0, 2023-11-02 17:02:33.246
54.0, -187500.02235174447, 187500.0, 31383.011505962793, 37350.1673162183, 187500.0, 187500.0, -187500.02235174447, 31664.06234074382, -0.018000000000000002, 0.982, -0.064, 192.0, 0.0, 0.0, 0.0, 0.0, 0.0, 0.0, 0.0, 0.0, 0.0, 1.6989589532462668E9, 0.0, 2023-11-02 17:02:33.246
55.0, -187500.02235174447, 187500.0, 31379.2564128943, 37353.18480171976, 187500.0, 187500.0, -187500.02235174447, 31658.608515096726, -0.018000000000000002, 0.982, -0.064, 192.0, 0.0, 0.0, 0.0, 0.0, 0.0, 0.0, 0.0, 0.0, 0.0, 1.6989589532462764E9, 0.0, 2023-11-02 17:02:33.246
56.0, -187500.02235174447, 187500.0, 31375.657782036997, 37350.23437145166, 187500.0, 187500.0, -187500.02235174447, 31653.378206894187, -0.018000000000000002, 0.982, -0.064, 192.0, 0.0, 0.0, 0.0, 0.0, 0.0, 0.0, 0.0, 0.0, 0.0, 1.698958953246286E9, 0.0, 2023-11-02 17:02:33.246
57.0, -187500.02235174447, 187500.0, 31377.423569848965, 37350.904923785325, 187500.0, 187500.0, -187500.02235174447, 31653.78053829438, -0.022, 0.978, -0.066, 192.0, 255.0, 80.0, 30.0, 144.0, 253.0, 240.0, 0.0, 0.0, 0.0, 1.6989589532462957E9, 0.0, 2023-11-02 17:02:33.246
58.0, -187500.02235174447, 187500.0, 31376.015409948282, 37349.63087435137, 187500.0, 187500.0, -187500.02235174447, 31652.30532316033, -0.022, 0.978, -0.066, 192.0, 0.0, 0.0, 0.0, 0.0, 0.0, 0.0, 0.0, 0.0, 0.0, 1.698958953246306E9, 0.0, 2023-11-02 17:02:33.246
59.0, -187500.02235174447, 187500.0, 31378.630564049552, 37355.68819709876, 187500.0, 187500.0, -187500.02235174447, 31654.384035394676, -0.022, 0.978, -0.066, 192.0, 0.0, 0.0, 0.0, 0.0, 0.0, 0.0, 0.0, 0.0, 0.0, 1.698958953246317E9, 0.0, 2023-11-02 17:02:33.246
60.0, -187500.02235174447, 187500.0, 31375.233098892346, 37356.24699071014, 187500.0, 187500.0, -187500.02235174447, 31650.852459770736, -0.022, 0.978, -0.066, 192.0, 0.0, 0.0, 0.0, 0.0, 0.0, 0.0, 0.0, 0.0, 0.0, 1.6989589532463267E9, 0.0, 2023-11-02 17:02:33.246
61.0, -187500.02235174447, 187500.0, 31373.802587247206, 37351.933104030264, 187500.0, 187500.0, -187500.02235174447, 31647.566753335806, -0.022, 0.978, -0.066, 192.0, 0.0, 0.0, 0.0, 0.0, 0.0, 0.0, 0.0, 0.0, 0.0, 1.6989589532463365E9, 0.0, 2023-11-02 17:02:33.246
62.0, -187500.02235174447, 187500.0, 31375.50131982581, 37351.06138599651, 187500.0, 187500.0, -187500.02235174447, 31647.477346357984, -0.022, 0.978, -0.066, 192.0, 0.0, 0.0, 0.0, 0.0, 0.0, 0.0, 0.0, 0.0, 0.0, 1.6989589532463548E9, 0.0, 2023-11-02 17:02:33.246
63.0, -187500.02235174447, 187500.0, 31379.502282083307, 37356.20228722123, 187500.0, 187500.0, -187500.02235174447, 31648.88550625867, -0.022, 0.978, -0.066, 192.0, 0.0, 0.0, 0.0, 0.0, 0.0, 0.0, 0.0, 0.0, 0.0, 1.6989589532463644E9, 0.0, 2023-11-02 17:02:33.246
64.0, -187500.02235174447, 187500.0, 31381.49158733983, 37358.72803434468, 187500.0, 187500.0, -187500.02235174447, 31648.952561492035, -0.022, 0.978, -0.066, 192.0, 0.0, 0.0, 0.0, 0.0, 0.0, 0.0, 0.0, 0.0, 0.0, 1.698958953246374E9, 0.0, 2023-11-02 17:02:33.246
65.0, -187500.02235174447, 187500.0, 31383.413837362987, 37361.72316810169, 187500.0, 187500.0, -187500.02235174447, 31651.388901637663, -0.022, 0.978, -0.066, 192.0, 0.0, 0.0, 0.0, 0.0, 0.0, 0.0, 0.0, 0.0, 0.0, 1.6989589532463837E9, 0.0, 2023-11-02 17:02:33.246
66.0, -187500.02235174447, 187500.0, 31377.580032060152, 37359.10801400042, 187500.0, 187500.0, -187500.02235174447, 31645.286875401365, -0.022, 0.978, -0.066, 192.0, 0.0, 0.0, 0.0, 0.0, 0.0, 0.0, 0.0, 0.0, 0.0, 1.6989589532463932E9, 0.0, 2023-11-02 17:02:33.246
67.0, -187500.02235174447, 187500.0, 31371.746226757317, 37358.72803434468, 187500.0, 187500.0, -187500.02235174447, 31639.922456732093, -0.018000000000000002, 0.976, -0.068, 192.0, 255.0, 112.0, 30.0, 128.0, 253.0, 224.0, 0.0, 0.0, 0.0, 1.6989589532464027E9, 0.0, 2023-11-02 17:02:33.246
68.0, -187500.02235174447, 187500.0, 31373.668476780473, 37365.41120593682, 187500.0, 187500.0, -187500.02235174447, 31641.397671866143, -0.018000000000000002, 0.976, -0.068, 192.0, 0.0, 0.0, 0.0, 0.0, 0.0, 0.0, 0.0, 0.0, 0.0, 1.698958953246413E9, 0.0, 2023-11-02 17:02:33.246
69.0, -187500.02235174447, 187500.0, 31378.2058809049, 37364.047749525045, 187500.0, 187500.0, -187500.02235174447, 31643.386977122664, -0.018000000000000002, 0.976, -0.068, 192.0, 0.0, 0.0, 0.0, 0.0, 0.0, 0.0, 0.0, 0.0, 0.0, 1.6989589532464223E9, 0.0, 2023-11-02 17:02:33.246
70.0, -187500.02235174447, 187500.0, 31375.613078548085, 37355.55408663203, 187500.0, 187500.0, -187500.02235174447, 31639.520125331896, -0.018000000000000002, 0.976, -0.068, 192.0, 0.0, 0.0, 0.0, 0.0, 0.0, 0.0, 0.0, 0.0, 0.0, 1.698958953246432E9, 0.0, 2023-11-02 17:02:33.246
71.0, -187500.02235174447, 187500.0, 31375.72483727036, 37355.88936279886, 187500.0, 187500.0, -187500.02235174447, 31639.45307009853, -0.018000000000000002, 0.976, -0.068, 192.0, 0.0, 0.0, 0.0, 0.0, 0.0, 0.0, 0.0, 0.0, 0.0, 1.6989589532464416E9, 0.0, 2023-11-02 17:02:33.246
72.0, -187500.02235174447, 187500.0, 31369.086369167137, 37356.04582501004, 187500.0, 187500.0, -187500.02235174447, 31633.529857817874, -0.018000000000000002, 0.976, -0.068, 192.0, 0.0, 0.0, 0.0, 0.0, 0.0, 0.0, 0.0, 0.0, 0.0, 1.6989589532464511E9, 0.0, 2023-11-02 17:02:33.246
73.0, -187500.02235174447, 187500.0, 31372.43913083543, 37353.52007788659, 187500.0, 187500.0, -187500.02235174447, 31637.441413097553, -0.018000000000000002, 0.976, -0.068, 192.0, 0.0, 0.0, 0.0, 0.0, 0.0, 0.0, 0.0, 0.0, 0.0, 1.698958953246461E9, 0.0, 2023-11-02 17:02:33.246
74.0, -187500.02235174447, 187500.0, 31382.586822818143, 37353.29656044204, 187500.0, 187500.0, -187500.02235174447, 31646.15859343512, -0.018000000000000002, 0.976, -0.068, 192.0, 0.0, 0.0, 0.0, 0.0, 0.0, 0.0, 0.0, 0.0, 0.0, 1.6989589532464702E9, 0.0, 2023-11-02 17:02:33.246
75.0, -187500.02235174447, 187500.0, 31386.274860653266, 37360.65028436784, 187500.0, 187500.0, -187500.02235174447, 31647.186773680067, -0.018000000000000002, 0.976, -0.068, 192.0, 0.0, 0.0, 0.0, 0.0, 0.0, 0.0, 0.0, 0.0, 0.0, 1.6989589532464797E9, 0.0, 2023-11-02 17:02:33.246
76.0, -187500.02235174447, 187500.0, 31383.92792748546, 37367.0205315376, 187500.0, 187500.0, -187500.02235174447, 31646.113889946213, -0.018000000000000002, 0.976, -0.068, 192.0, 0.0, 0.0, 0.0, 0.0, 0.0, 0.0, 0.0, 0.0, 0.0, 1.6989589532464893E9, 0.0, 2023-11-02 17:02:33.246
77.0, -187500.02235174447, 187500.0, 31379.39052336103, 37360.762043090115, 187500.0, 187500.0, -187500.02235174447, 31642.73877653346, -0.028, 0.978, -0.068, 192.0, 255.0, 32.0, 30.0, 144.0, 253.0, 224.0, 0.0, 0.0, 0.0, 1.6989589532465189E9, 0.0, 2023-11-02 17:02:33.246
78.0, -187500.02235174447, 187500.0, 31388.420628120977, 37356.068176754496, 187500.0, 187500.0, -187500.02235174447, 31653.244096427454, -0.028, 0.978, -0.068, 192.0, 0.0, 0.0, 0.0, 0.0, 0.0, 0.0, 0.0, 0.0, 0.0, 1.698958953246529E9, 0.0, 2023-11-02 17:02:33.246
79.0, -187500.02235174447, 187500.0, 31394.075619468167, 37364.7183018587, 187500.0, 187500.0, -187500.02235174447, 31659.144956963657, -0.028, 0.978, -0.068, 192.0, 0.0, 0.0, 0.0, 0.0, 0.0, 0.0, 0.0, 0.0, 0.0, 1.6989589532465389E9, 0.0, 2023-11-02 17:02:33.246
80.0, -187500.02235174447, 187500.0, 31387.906537998504, 37371.08854902846, 187500.0, 187500.0, -187500.02235174447, 31652.618247582704, -0.028, 0.978, -0.068, 192.0, 0.0, 0.0, 0.0, 0.0, 0.0, 0.0, 0.0, 0.0, 0.0, 1.69895895324655E9, 0.0, 2023-11-02 17:02:33.246
81.0, -187500.02235174447, 187500.0, 31390.991078733336, 37376.05063629754, 187500.0, 187500.0, -187500.02235174447, 31657.93796276307, -0.028, 0.978, -0.068, 192.0, 0.0, 0.0, 0.0, 0.0, 0.0, 0.0, 0.0, 0.0, 0.0, 1.6989589532465596E9, 0.0, 2023-11-02 17:02:33.246
82.0, -187500.02235174447, 187500.0, 31396.131979958056, 37377.21292700922, 187500.0, 187500.0, -187500.02235174447, 31664.50937563293, -0.028, 0.978, -0.068, 192.0, 0.0, 0.0, 0.0, 0.0, 0.0, 0.0, 0.0, 0.0, 0.0, 1.6989589532465692E9, 0.0, 2023-11-02 17:02:33.246
83.0, -187500.02235174447, 187500.0, 31393.226253178866, 37377.59290666496, 187500.0, 187500.0, -187500.02235174447, 31661.581297109286, -0.028, 0.978, -0.068, 192.0, 0.0, 0.0, 0.0, 0.0, 0.0, 0.0, 0.0, 0.0, 0.0, 1.6989589532465787E9, 0.0, 2023-11-02 17:02:33.246
84.0, -187500.02235174447, 187500.0, 31391.907500256006, 37379.17988052129, 187500.0, 187500.0, -187500.02235174447, 31658.69792207455, -0.028, 0.978, -0.068, 192.0, 0.0, 0.0, 0.0, 0.0, 0.0, 0.0, 0.0, 0.0, 0.0, 1.6989589532465882E9, 0.0, 2023-11-02 17:02:33.246
85.0, -187500.02235174447, 187500.0, 31392.488645611844, 37383.31495324552, 187500.0, 187500.0, -187500.02235174447, 31657.35681740723, -0.028, 0.978, -0.068, 192.0, 0.0, 0.0, 0.0, 0.0, 0.0, 0.0, 0.0, 0.0, 0.0, 1.6989589532465975E9, 0.0, 2023-11-02 17:02:33.246
86.0, -187500.02235174447, 187500.0, 31394.097971212625, 37374.55306941904, 187500.0, 187500.0, -187500.02235174447, 31655.50162261744, -0.028, 0.978, -0.068, 192.0, 0.0, 0.0, 0.0, 0.0, 0.0, 0.0, 0.0, 0.0, 0.0, 1.6989589532466073E9, 0.0, 2023-11-02 17:02:33.246
87.0, -187500.02235174447, 187500.0, 31395.68494506895, 37368.518098416105, 187500.0, 187500.0, -187500.02235174447, 31655.322808661796, -0.024, 0.984, -0.06, 192.0, 255.0, 64.0, 30.0, 192.0, 254.0, 32.0, 0.0, 0.0, 0.0, 1.6989589532466168E9, 0.0, 2023-11-02 17:02:33.246
88.0, -187500.02235174447, 187500.0, 31390.767561288783, 37369.836851338965, 187500.0, 187500.0, -187500.02235174447, 31649.69016905906, -0.024, 0.984, -0.06, 192.0, 0.0, 0.0, 0.0, 0.0, 0.0, 0.0, 0.0, 0.0, 0.0, 1.698958953246627E9, 0.0, 2023-11-02 17:02:33.246
89.0, -187500.02235174447, 187500.0, 31391.326354900168, 37377.10116828694, 187500.0, 187500.0, -187500.02235174447, 31652.104157460235, -0.024, 0.984, -0.06, 192.0, 0.0, 0.0, 0.0, 0.0, 0.0, 0.0, 0.0, 0.0, 0.0, 1.6989589532466366E9, 0.0, 2023-11-02 17:02:33.246
90.0, -187500.02235174447, 187500.0, 31395.282613668754, 37371.55793566203, 187500.0, 187500.0, -187500.02235174447, 31655.345160406254, -0.024, 0.984, -0.06, 192.0, 0.0, 0.0, 0.0, 0.0, 0.0, 0.0, 0.0, 0.0, 0.0, 1.6989589532466464E9, 0.0, 2023-11-02 17:02:33.246
91.0, -187500.02235174447, 187500.0, 31395.796703791228, 37371.33441821747, 187500.0, 187500.0, -187500.02235174447, 31654.428738883587, -0.024, 0.984, -0.06, 192.0, 0.0, 0.0, 0.0, 0.0, 0.0, 0.0, 0.0, 0.0, 0.0, 1.6989589532466557E9, 0.0, 2023-11-02 17:02:33.246
92.0, -187500.02235174447, 187500.0, 31391.97455548937, 37372.74257811816, 187500.0, 187500.0, -187500.02235174447, 31650.49483185945, -0.024, 0.984, -0.06, 192.0, 0.0, 0.0, 0.0, 0.0, 0.0, 0.0, 0.0, 0.0, 0.0, 1.6989589532466743E9, 0.0, 2023-11-02 17:02:33.246
93.0, -187500.02235174447, 187500.0, 31382.989154218336, 37374.597772907946, 187500.0, 187500.0, -187500.02235174447, 31642.202334666534, -0.024, 0.984, -0.06, 192.0, 0.0, 0.0, 0.0, 0.0, 0.0, 0.0, 0.0, 0.0, 0.0, 1.698958953246684E9, 0.0, 2023-11-02 17:02:33.246
94.0, -187500.02235174447, 187500.0, 31380.284593139244, 37366.10411001493, 187500.0, 187500.0, -187500.02235174447, 31642.336445133264, -0.024, 0.984, -0.06, 192.0, 0.0, 0.0, 0.0, 0.0, 0.0, 0.0, 0.0, 0.0, 0.0, 1.6989589532466936E9, 0.0, 2023-11-02 17:02:33.246
95.0, -187500.02235174447, 187500.0, 31383.659706551996, 37362.05844426852, 187500.0, 187500.0, -187500.02235174447, 31646.851497513235, -0.024, 0.984, -0.06, 192.0, 0.0, 0.0, 0.0, 0.0, 0.0, 0.0, 0.0, 0.0, 0.0, 1.6989589532467031E9, 0.0, 2023-11-02 17:02:33.246
96.0, -187500.02235174447, 187500.0, 31378.183529160444, 37352.80482206403, 187500.0, 187500.0, -187500.02235174447, 31639.676587543083, -0.024, 0.984, -0.06, 192.0, 0.0, 0.0, 0.0, 0.0, 0.0, 0.0, 0.0, 0.0, 0.0, 1.6989589532467127E9, 0.0, 2023-11-02 17:02:33.246
97.0, -187500.02235174447, 187500.0, 31377.73649427134, 37354.034168009064, 187500.0, 187500.0, -187500.02235174447, 31637.441413097553, -0.028, 0.978, -0.056, 192.0, 255.0, 32.0, 30.0, 144.0, 254.0, 64.0, 0.0, 0.0, 0.0, 1.6989589532467225E9, 0.0, 2023-11-02 17:02:33.246
98.0, -187500.02235174447, 187500.0, 31379.144654172025, 37349.67557784028, 187500.0, 187500.0, -187500.02235174447, 31638.424889853584, -0.028, 0.978, -0.056, 192.0, 0.0, 0.0, 0.0, 0.0, 0.0, 0.0, 0.0, 0.0, 0.0, 1.6989589532467325E9, 0.0, 2023-11-02 17:02:33.246
99.0, -187500.02235174447, 187500.0, 31384.419665863476, 37343.551199859525, 187500.0, 187500.0, -187500.02235174447, 31642.403500366632, -0.028, 0.978, -0.056, 192.0, 0.0, 0.0, 0.0, 0.0, 0.0, 0.0, 0.0, 0.0, 0.0, 1.698958953246742E9, 0.0, 2023-11-02 17:02:33.246
100.0, -187500.02235174447, 187500.0, 31392.019258978282, 37348.55799061751, 187500.0, 187500.0, -187500.02235174447, 31648.818451025305, -0.028, 0.978, -0.056, 192.0, 0.0, 0.0, 0.0, 0.0, 0.0, 0.0, 0.0, 0.0, 0.0, 1.6989589532467515E9, 0.0, 2023-11-02 17:02:33.246
101.0, -187500.02235174447, 187500.0, 31387.325392642666, 37352.33543543046, 187500.0, 187500.0, -187500.02235174447, 31643.386977122664, -0.028, 0.978, -0.056, 192.0, 0.0, 0.0, 0.0, 0.0, 0.0, 0.0, 0.0, 0.0, 0.0, 1.698958953246761E9, 0.0, 2023-11-02 17:02:33.246
102.0, -187500.02235174447, 187500.0, 31387.4595031094, 37349.45206039573, 187500.0, 187500.0, -187500.02235174447, 31642.64936955564, -0.028, 0.978, -0.056, 192.0, 0.0, 0.0, 0.0, 0.0, 0.0, 0.0, 0.0, 0.0, 0.0, 1.698958953246772E9, 0.0, 2023-11-02 17:02:33.246
103.0, -187500.02235174447, 187500.0, 31395.573186346675, 37348.15565921732, 187500.0, 187500.0, -187500.02235174447, 31650.204259181533, -0.028, 0.978, -0.056, 192.0, 0.0, 0.0, 0.0, 0.0, 0.0, 0.0, 0.0, 0.0, 0.0, 1.6989589532467816E9, 0.0, 2023-11-02 17:02:33.246
104.0, -187500.02235174447, 187500.0, 31391.415761877986, 37349.1167842289, 187500.0, 187500.0, -187500.02235174447, 31645.957427735026, -0.028, 0.978, -0.056, 192.0, 0.0, 0.0, 0.0, 0.0, 0.0, 0.0, 0.0, 0.0, 0.0, 1.6989589532467911E9, 0.0, 2023-11-02 17:02:33.246
105.0, -187500.02235174447, 187500.0, 31382.63152630705, 37348.53563887306, 187500.0, 187500.0, -187500.02235174447, 31637.240247397454, -0.028, 0.978, -0.056, 192.0, 0.0, 0.0, 0.0, 0.0, 0.0, 0.0, 0.0, 0.0, 0.0, 1.698958953246801E9, 0.0, 2023-11-02 17:02:33.246
106.0, -187500.02235174447, 187500.0, 31382.385657118044, 37346.211057449706, 187500.0, 187500.0, -187500.02235174447, 31637.508468330918, -0.028, 0.978, -0.056, 192.0, 0.0, 0.0, 0.0, 0.0, 0.0, 0.0, 0.0, 0.0, 0.0, 1.6989589532468104E9, 0.0, 2023-11-02 17:02:33.246
107.0, -187500.02235174447, 187500.0, 31390.588747333142, 37346.92631327228, 187500.0, 187500.0, -187500.02235174447, 31645.041006212356, -0.022, 0.988, -0.054, 192.0, 255.0, 80.0, 30.0, 224.0, 254.0, 80.0, 0.0, 0.0, 0.0, 1.69895895324682E9, 0.0, 2023-11-02 17:02:33.246
108.0, -187500.02235174447, 187500.0, 31394.053267723713, 37350.39083366285, 187500.0, 187500.0, -187500.02235174447, 31647.052663213333, -0.022, 0.988, -0.054, 192.0, 0.0, 0.0, 0.0, 0.0, 0.0, 0.0, 0.0, 0.0, 0.0, 1.6989589532468398E9, 0.0, 2023-11-02 17:02:33.246
109.0, -187500.02235174447, 187500.0, 31387.39244787603, 37347.08277548347, 187500.0, 187500.0, -187500.02235174447, 31639.810698009816, -0.022, 0.988, -0.054, 192.0, 0.0, 0.0, 0.0, 0.0, 0.0, 0.0, 0.0, 0.0, 0.0, 1.6989589532468553E9, 0.0, 2023-11-02 17:02:33.246
110.0, -187500.02235174447, 187500.0, 31385.1572734305, 37344.042938237544, 187500.0, 187500.0, -187500.02235174447, 31635.07212818529, -0.022, 0.988, -0.054, 192.0, 0.0, 0.0, 0.0, 0.0, 0.0, 0.0, 0.0, 0.0, 0.0, 1.6989589532468648E9, 0.0, 2023-11-02 17:02:33.246
111.0, -187500.02235174447, 187500.0, 31385.716067041885, 37342.925351014776, 187500.0, 187500.0, -187500.02235174447, 31633.44045084005, -0.022, 0.988, -0.054, 192.0, 0.0, 0.0, 0.0, 0.0, 0.0, 0.0, 0.0, 0.0, 0.0, 1.6989589532468994E9, 0.0, 2023-11-02 17:02:33.246
112.0, -187500.02235174447, 187500.0, 31389.40410487701, 37345.7640225606, 187500.0, 187500.0, -187500.02235174447, 31637.39670960864, -0.022, 0.988, -0.054, 192.0, 0.0, 0.0, 0.0, 0.0, 0.0, 0.0, 0.0, 0.0, 0.0, 1.6989589532469113E9, 0.0, 2023-11-02 17:02:33.246
113.0, -187500.02235174447, 187500.0, 31399.37298290408, 37363.4666041692, 187500.0, 187500.0, -187500.02235174447, 31648.59493358075, -0.022, 0.988, -0.054, 192.0, 0.0, 0.0, 0.0, 0.0, 0.0, 0.0, 0.0, 0.0, 0.0, 1.698958953246941E9, 0.0, 2023-11-02 17:02:33.246
114.0, -187500.02235174447, 187500.0, 31396.802532291716, 37365.791185592556, 187500.0, 187500.0, -187500.02235174447, 31645.39863412364, -0.022, 0.988, -0.054, 192.0, 0.0, 0.0, 0.0, 0.0, 0.0, 0.0, 0.0, 0.0, 0.0, 1.698958953246951E9, 0.0, 2023-11-02 17:02:33.246
115.0, -187500.02235174447, 187500.0, 31398.702430570418, 37356.7163773437, 187500.0, 187500.0, -187500.02235174447, 31646.69503530205, -0.022, 0.988, -0.054, 192.0, 0.0, 0.0, 0.0, 0.0, 0.0, 0.0, 0.0, 0.0, 0.0, 1.698958953246961E9, 0.0, 2023-11-02 17:02:33.246
116.0, -187500.02235174447, 187500.0, 31398.054229981215, 37355.17410697629, 187500.0, 187500.0, -187500.02235174447, 31647.119718446702, -0.022, 0.988, -0.054, 192.0, 0.0, 0.0, 0.0, 0.0, 0.0, 0.0, 0.0, 0.0, 0.0, 1.698958953246971E9, 0.0, 2023-11-02 17:02:33.246
117.0, -187500.02235174447, 187500.0, 31398.568320103685, 37359.979732034175, 187500.0, 187500.0, -187500.02235174447, 31647.969084736003, -0.024, 0.988, -0.048, 192.0, 255.0, 64.0, 30.0, 224.0, 254.0, 128.0, 0.0, 0.0, 0.0, 1.6989589532469816E9, 0.0, 2023-11-02 17:02:33.246
118.0, -187500.02235174447, 187500.0, 31400.915253271494, 37360.5161739011, 187500.0, 187500.0, -187500.02235174447, 31648.88550625867, -0.024, 0.988, -0.048, 192.0, 0.0, 0.0, 0.0, 0.0, 0.0, 0.0, 0.0, 0.0, 0.0, 1.6989589532469933E9, 0.0, 2023-11-02 17:02:33.246
119.0, -187500.02235174447, 187500.0, 31400.714087571396, 37358.34805468894, 187500.0, 187500.0, -187500.02235174447, 31648.59493358075, -0.024, 0.988, -0.048, 192.0, 0.0, 0.0, 0.0, 0.0, 0.0, 0.0, 0.0, 0.0, 0.0, 1.6989589532470033E9, 0.0, 2023-11-02 17:02:33.247
120.0, -187500.02235174447, 187500.0, 31397.45073288092, 37348.75915631761, 187500.0, 187500.0, -187500.02235174447, 31645.868020757203, -0.024, 0.988, -0.048, 192.0, 0.0, 0.0, 0.0, 0.0, 0.0, 0.0, 0.0, 0.0, 0.0, 1.6989589532470171E9, 0.0, 2023-11-02 17:02:33.247
121.0, -187500.02235174447, 187500.0, 31401.317584671688, 37353.20715346422, 187500.0, 187500.0, -187500.02235174447, 31651.388901637663, -0.024, 0.988, -0.048, 192.0, 0.0, 0.0, 0.0, 0.0, 0.0, 0.0, 0.0, 0.0, 0.0, 1.6989589532470305E9, 0.0, 2023-11-02 17:02:33.247
122.0, -187500.02235174447, 187500.0, 31402.368116661088, 37362.90781055782, 187500.0, 187500.0, -187500.02235174447, 31651.612419082216, -0.024, 0.988, -0.048, 192.0, 0.0, 0.0, 0.0, 0.0, 0.0, 0.0, 0.0, 0.0, 0.0, 1.6989589532470412E9, 0.0, 2023-11-02 17:02:33.247
123.0, -187500.02235174447, 187500.0, 31400.512921871297, 37356.068176754496, 187500.0, 187500.0, -187500.02235174447, 31646.35975913522, -0.024, 0.988, -0.048, 192.0, 0.0, 0.0, 0.0, 0.0, 0.0, 0.0, 0.0, 0.0, 0.0, 1.6989589532470772E9, 0.0, 2023-11-02 17:02:33.247
124.0, -187500.02235174447, 187500.0, 31402.681041083462, 37350.480240640674, 187500.0, 187500.0, -187500.02235174447, 31646.337407390765, -0.024, 0.988, -0.048, 192.0, 0.0, 0.0, 0.0, 0.0, 0.0, 0.0, 0.0, 0.0, 0.0, 1.6989589532470884E9, 0.0, 2023-11-02 17:02:33.247
125.0, -187500.02235174447, 187500.0, 31405.45265739592, 37352.11191798591, 187500.0, 187500.0, -187500.02235174447, 31647.544401591353, -0.024, 0.988, -0.048, 192.0, 0.0, 0.0, 0.0, 0.0, 0.0, 0.0, 0.0, 0.0, 0.0, 1.6989589532470996E9, 0.0, 2023-11-02 17:02:33.247
126.0, -187500.02235174447, 187500.0, 31403.284538183754, 37358.45981341122, 187500.0, 187500.0, -187500.02235174447, 31644.839840512257, -0.024, 0.988, -0.048, 192.0, 0.0, 0.0, 0.0, 0.0, 0.0, 0.0, 0.0, 0.0, 0.0, 1.6989589532471108E9, 0.0, 2023-11-02 17:02:33.247
127.0, -187500.02235174447, 187500.0, 31400.132942215558, 37357.7669093331, 187500.0, 187500.0, -187500.02235174447, 31641.107099188222, -0.008, 0.994, -0.036000000000000004, 192.0, 255.0, 192.0, 31.0, 16.0, 254.0, 224.0, 0.0, 0.0, 0.0, 1.698958953247122E9, 0.0, 2023-11-02 17:02:33.247
128.0, -187500.02235174447, 187500.0, 31399.149465459523, 37349.60852260691, 187500.0, 187500.0, -187500.02235174447, 31639.58718056526, -0.008, 0.994, -0.036000000000000004, 192.0, 0.0, 0.0, 0.0, 0.0, 0.0, 0.0, 0.0, 0.0, 0.0, 1.6989589532471347E9, 0.0, 2023-11-02 17:02:33.247
129.0, -187500.02235174447, 187500.0, 31398.031878236758, 37344.601731848925, 187500.0, 187500.0, -187500.02235174447, 31635.54151481885, -0.008, 0.994, -0.036000000000000004, 192.0, 0.0, 0.0, 0.0, 0.0, 0.0, 0.0, 0.0, 0.0, 0.0, 1.6989589532471452E9, 0.0, 2023-11-02 17:02:33.247
130.0, -187500.02235174447, 187500.0, 31393.270956667777, 37349.60852260691, 187500.0, 187500.0, -187500.02235174447, 31629.417136838096, -0.008, 0.994, -0.036000000000000004, 192.0, 0.0, 0.0, 0.0, 0.0, 0.0, 0.0, 0.0, 0.0, 0.0, 1.698958953247157E9, 0.0, 2023-11-02 17:02:33.247
131.0, -187500.02235174447, 187500.0, 31395.43907587994, 37353.78829882006, 187500.0, 187500.0, -187500.02235174447, 31631.272331627886, -0.008, 0.994, -0.036000000000000004, 192.0, 0.0, 0.0, 0.0, 0.0, 0.0, 0.0, 0.0, 0.0, 0.0, 1.6989589532471688E9, 0.0, 2023-11-02 17:02:33.247
132.0, -187500.02235174447, 187500.0, 31396.042572980237, 37356.67167385479, 187500.0, 187500.0, -187500.02235174447, 31630.691186272048, -0.008, 0.994, -0.036000000000000004, 192.0, 0.0, 0.0, 0.0, 0.0, 0.0, 0.0, 0.0, 0.0, 0.0, 1.698958953247182E9, 0.0, 2023-11-02 17:02:33.247
133.0, -187500.02235174447, 187500.0, 31391.996907233824, 37343.908827770814, 187500.0, 187500.0, -187500.02235174447, 31624.54445654684, -0.008, 0.994, -0.036000000000000004, 192.0, 0.0, 0.0, 0.0, 0.0, 0.0, 0.0, 0.0, 0.0, 0.0, 1.6989589532471945E9, 0.0, 2023-11-02 17:02:33.247
134.0, -187500.02235174447, 187500.0, 31390.812264777695, 37342.18774344775, 187500.0, 187500.0, -187500.02235174447, 31622.77866873487, -0.008, 0.994, -0.036000000000000004, 192.0, 0.0, 0.0, 0.0, 0.0, 0.0, 0.0, 0.0, 0.0, 0.0, 1.6989589532472124E9, 0.0, 2023-11-02 17:02:33.247
135.0, -187500.02235174447, 187500.0, 31388.86766301008, 37342.54537135904, 187500.0, 187500.0, -187500.02235174447, 31621.750488489928, -0.008, 0.994, -0.036000000000000004, 192.0, 0.0, 0.0, 0.0, 0.0, 0.0, 0.0, 0.0, 0.0, 0.0, 1.6989589532472248E9, 0.0, 2023-11-02 17:02:33.247
136.0, -187500.02235174447, 187500.0, 31391.371058389075, 37338.946740501735, 187500.0, 187500.0, -187500.02235174447, 31623.896255957636, -0.016, 0.978, -0.032, 192.0, 255.0, 128.0, 30.0, 144.0, 255.0, 0.0, 0.0, 0.0, 0.0, 1.698958953247237E9, 0.0, 2023-11-02 17:02:33.247
137.0, -187500.02235174447, 187500.0, 31399.37298290408, 37336.420993378284, 187500.0, 187500.0, -187500.02235174447, 31626.86903797019, -0.016, 0.978, -0.032, 192.0, 0.0, 0.0, 0.0, 0.0, 0.0, 0.0, 0.0, 0.0, 0.0, 1.6989589532472577E9, 0.0, 2023-11-02 17:02:33.247
138.0, -187500.02235174447, 187500.0, 31398.36715440359, 37342.32185391449, 187500.0, 187500.0, -187500.02235174447, 31624.075069913277, -0.016, 0.978, -0.032, 192.0, 0.0, 0.0, 0.0, 0.0, 0.0, 0.0, 0.0, 0.0, 0.0, 1.6989589532474403E9, 0.0, 2023-11-02 17:02:33.247
0.0, 0.0, 0.0, 0.0, 0.0, 0.0, 0.0, 0.0, 0.0, -0.03, 0.988, -0.054, 192.0, 255.0, 16.0, 30.0, 224.0, 254.0, 80.0, 0.0, 0.0, 0.0, 1.6989589533215327E9, 0.0, 2023-11-02 17:02:33.321
1.0, -187500.02235174447, 187500.0, 31415.55564588972, 37228.193846725684, 187500.0, 187500.0, -187500.02235174447, 31621.370508834185, -0.03, 0.988, -0.054, 192.0, 0.0, 0.0, 0.0, 0.0, 0.0, 0.0, 0.0, 0.0, 0.0, 1.6989589534466832E9, 0.0, 2023-11-02 17:02:33.446
2.0, -187500.02235174447, 187500.0, 31411.867608054592, 37232.261864216554, 187500.0, 187500.0, -187500.02235174447, 31615.514351786896, -0.03, 0.988, -0.054, 192.0, 0.0, 0.0, 0.0, 0.0, 0.0, 0.0, 0.0, 0.0, 0.0, 1.6989589534467216E9, 0.0, 2023-11-02 17:02:33.446
3.0, -187500.02235174447, 187500.0, 31409.632433609062, 37221.71184083365, 187500.0, 187500.0, -187500.02235174447, 31612.943901174534, -0.03, 0.988, -0.054, 192.0, 0.0, 0.0, 0.0, 0.0, 0.0, 0.0, 0.0, 0.0, 0.0, 1.6989589534467332E9, 0.0, 2023-11-02 17:02:33.446
4.0, -187500.02235174447, 187500.0, 31416.807343579218, 37214.17930295221, 187500.0, 187500.0, -187500.02235174447, 31620.521142544883, -0.03, 0.988, -0.054, 192.0, 0.0, 0.0, 0.0, 0.0, 0.0, 0.0, 0.0, 0.0, 0.0, 1.698958953446745E9, 0.0, 2023-11-02 17:02:33.446
5.0, -187500.02235174447, 187500.0, 31419.93658780296, 37208.52431160502, 187500.0, 187500.0, -187500.02235174447, 31623.493924557442, -0.03, 0.988, -0.054, 192.0, 0.0, 0.0, 0.0, 0.0, 0.0, 0.0, 0.0, 0.0, 0.0, 1.698958953446787E9, 0.0, 2023-11-02 17:02:33.446
6.0, -187500.02235174447, 187500.0, 31418.50607615782, 37199.31539288943, 187500.0, 187500.0, -187500.02235174447, 31624.812677480302, -0.03, 0.988, -0.054, 192.0, 0.0, 0.0, 0.0, 0.0, 0.0, 0.0, 0.0, 0.0, 0.0, 1.6989589534467983E9, 0.0, 2023-11-02 17:02:33.446
7.0, -187500.02235174447, 187500.0, 31409.632433609062, 37184.227965382095, 187500.0, 187500.0, -187500.02235174447, 31618.911816944103, -0.03, 0.988, -0.054, 192.0, 0.0, 0.0, 0.0, 0.0, 0.0, 0.0, 0.0, 0.0, 0.0, 1.6989589534468083E9, 0.0, 2023-11-02 17:02:33.446
8.0, -187500.02235174447, 187500.0, 31407.97840451937, 37168.17941286319, 187500.0, 187500.0, -187500.02235174447, 31616.296662842833, -0.03, 0.99, -0.06, 192.0, 255.0, 16.0, 30.0, 240.0, 254.0, 32.0, 0.0, 0.0, 0.0, 1.698958953446818E9, 0.0, 2023-11-02 17:02:33.446
9.0, -187500.02235174447, 187500.0, 31417.053212768224, 37161.80916569343, 187500.0, 187500.0, -187500.02235174447, 31625.080898413766, -0.03, 0.99, -0.06, 192.0, 0.0, 0.0, 0.0, 0.0, 0.0, 0.0, 0.0, 0.0, 0.0, 1.6989589534468288E9, 0.0, 2023-11-02 17:02:33.446
10.0, -187500.02235174447, 187500.0, 31416.069736012192, 37166.16775586221, 187500.0, 187500.0, -187500.02235174447, 31624.83502922476, -0.03, 0.99, -0.06, 192.0, 0.0, 0.0, 0.0, 0.0, 0.0, 0.0, 0.0, 0.0, 0.0, 1.6989589534468384E9, 0.0, 2023-11-02 17:02:33.446
11.0, -187500.02235174447, 187500.0, 31415.957977289916, 37172.09096814287, 187500.0, 187500.0, -187500.02235174447, 31625.058546669312, -0.03, 0.99, -0.06, 192.0, 0.0, 0.0, 0.0, 0.0, 0.0, 0.0, 0.0, 0.0, 0.0, 1.698958953446848E9, 0.0, 2023-11-02 17:02:33.446
12.0, -187500.02235174447, 187500.0, 31416.717936601395, 37168.91702043021, 187500.0, 187500.0, -187500.02235174447, 31624.946787947036, -0.03, 0.99, -0.06, 192.0, 0.0, 0.0, 0.0, 0.0, 0.0, 0.0, 0.0, 0.0, 0.0, 1.698958953446858E9, 0.0, 2023-11-02 17:02:33.446
13.0, -187500.02235174447, 187500.0, 31421.5682651482, 37162.39031104926, 187500.0, 187500.0, -187500.02235174447, 31628.29954961533, -0.03, 0.99, -0.06, 192.0, 0.0, 0.0, 0.0, 0.0, 0.0, 0.0, 0.0, 0.0, 0.0, 1.6989589534468677E9, 0.0, 2023-11-02 17:02:33.446
14.0, -187500.02235174447, 187500.0, 31424.40693669402, 37163.41849129421, 187500.0, 187500.0, -187500.02235174447, 31628.634825782163, -0.03, 0.99, -0.06, 192.0, 0.0, 0.0, 0.0, 0.0, 0.0, 0.0, 0.0, 0.0, 0.0, 1.6989589534470131E9, 0.0, 2023-11-02 17:02:33.447
15.0, -187500.02235174447, 187500.0, 31422.2164657374, 37163.08321512738, 187500.0, 187500.0, -187500.02235174447, 31623.225703623975, -0.03, 0.99, -0.06, 192.0, 0.0, 0.0, 0.0, 0.0, 0.0, 0.0, 0.0, 0.0, 0.0, 1.6989589534470243E9, 0.0, 2023-11-02 17:02:33.447
16.0, -187500.02235174447, 187500.0, 31412.135828988055, 37145.60415096333, 187500.0, 187500.0, -187500.02235174447, 31608.942938917036, -0.03, 0.99, -0.06, 192.0, 0.0, 0.0, 0.0, 0.0, 0.0, 0.0, 0.0, 0.0, 0.0, 1.698958953447034E9, 0.0, 2023-11-02 17:02:33.447
17.0, -187500.02235174447, 187500.0, 31406.12320972958, 37130.24850252253, 187500.0, 187500.0, -187500.02235174447, 31599.644613223627, -0.036000000000000004, 0.982, -0.064, 192.0, 254.0, 224.0, 30.0, 176.0, 254.0, 0.0, 0.0, 0.0, 0.0, 1.6989589534470446E9, 0.0, 2023-11-02 17:02:33.447
18.0, -187500.02235174447, 187500.0, 31404.49153238434, 37129.10856355531, 187500.0, 187500.0, -187500.02235174447, 31596.738886444437, -0.036000000000000004, 0.982, -0.064, 192.0, 0.0, 0.0, 0.0, 0.0, 0.0, 0.0, 0.0, 0.0, 0.0, 1.6989589534470568E9, 0.0, 2023-11-02 17:02:33.447
19.0, -187500.02235174447, 187500.0, 31409.632433609062, 37131.83547637886, 187500.0, 187500.0, -187500.02235174447, 31602.77385744737, -0.036000000000000004, 0.982, -0.064, 192.0, 0.0, 0.0, 0.0, 0.0, 0.0, 0.0, 0.0, 0.0, 0.0, 1.6989589534470668E9, 0.0, 2023-11-02 17:02:33.447
20.0, -187500.02235174447, 187500.0, 31416.874398812583, 37132.371918245786, 187500.0, 187500.0, -187500.02235174447, 31610.82048545128, -0.036000000000000004, 0.982, -0.064, 192.0, 0.0, 0.0, 0.0, 0.0, 0.0, 0.0, 0.0, 0.0, 0.0, 1.6989589534470775E9, 0.0, 2023-11-02 17:02:33.447
21.0, -187500.02235174447, 187500.0, 31416.539122645754, 37126.64987166523, 187500.0, 187500.0, -187500.02235174447, 31609.63584299515, -0.036000000000000004, 0.982, -0.064, 192.0, 0.0, 0.0, 0.0, 0.0, 0.0, 0.0, 0.0, 0.0, 0.0, 1.698958953447087E9, 0.0, 2023-11-02 17:02:33.447
22.0, -187500.02235174447, 187500.0, 31408.336032430656, 37121.19604601813, 187500.0, 187500.0, -187500.02235174447, 31601.186883591043, -0.036000000000000004, 0.982, -0.064, 192.0, 0.0, 0.0, 0.0, 0.0, 0.0, 0.0, 0.0, 0.0, 0.0, 1.6989589534470973E9, 0.0, 2023-11-02 17:02:33.447
23.0, -187500.02235174447, 187500.0, 31401.429343393964, 37119.1620372727, 187500.0, 187500.0, -187500.02235174447, 31594.21313932099, -0.036000000000000004, 0.982, -0.064, 192.0, 0.0, 0.0, 0.0, 0.0, 0.0, 0.0, 0.0, 0.0, 0.0, 1.6989589534471073E9, 0.0, 2023-11-02 17:02:33.447
24.0, -187500.02235174447, 187500.0, 31394.857930524104, 37115.943386071136, 187500.0, 187500.0, -187500.02235174447, 31589.340459029732, -0.036000000000000004, 0.982, -0.064, 192.0, 0.0, 0.0, 0.0, 0.0, 0.0, 0.0, 0.0, 0.0, 0.0, 1.6989589534471169E9, 0.0, 2023-11-02 17:02:33.447
25.0, -187500.02235174447, 187500.0, 31400.73643931585, 37108.50025516752, 187500.0, 187500.0, -187500.02235174447, 31596.49301725543, -0.036000000000000004, 0.982, -0.064, 192.0, 0.0, 0.0, 0.0, 0.0, 0.0, 0.0, 0.0, 0.0, 0.0, 1.6989589534471269E9, 0.0, 2023-11-02 17:02:33.447
26.0, -187500.02235174447, 187500.0, 31406.234968451856, 37113.685859881145, 187500.0, 187500.0, -187500.02235174447, 31602.103305113713, -0.036000000000000004, 0.982, -0.064, 192.0, 0.0, 0.0, 0.0, 0.0, 0.0, 0.0, 0.0, 0.0, 0.0, 1.6989589534471364E9, 0.0, 2023-11-02 17:02:33.447
27.0, -187500.02235174447, 187500.0, 31397.540139858742, 37112.81414184739, 187500.0, 187500.0, -187500.02235174447, 31593.38612477614, -0.018000000000000002, 0.978, -0.066, 192.0, 255.0, 112.0, 30.0, 144.0, 253.0, 240.0, 0.0, 0.0, 0.0, 1.6989589534471495E9, 0.0, 2023-11-02 17:02:33.447
28.0, -187500.02235174447, 187500.0, 31396.623718336075, 37115.809275604406, 187500.0, 187500.0, -187500.02235174447, 31590.279232296853, -0.018000000000000002, 0.978, -0.066, 192.0, 0.0, 0.0, 0.0, 0.0, 0.0, 0.0, 0.0, 0.0, 0.0, 1.6989589539136477E9, 0.0, 2023-11-02 17:02:33.913
29.0, -187500.02235174447, 187500.0, 31403.955090517415, 37114.803447103914, 187500.0, 187500.0, -187500.02235174447, 31597.744714944925, -0.018000000000000002, 0.978, -0.066, 192.0, 0.0, 0.0, 0.0, 0.0, 0.0, 0.0, 0.0, 0.0, 0.0, 1.698958953914084E9, 0.0, 2023-11-02 17:02:33.914
30.0, -187500.02235174447, 187500.0, 31406.659651596507, 37113.64115639224, 187500.0, 187500.0, -187500.02235174447, 31600.96336614649, -0.018000000000000002, 0.978, -0.066, 192.0, 0.0, 0.0, 0.0, 0.0, 0.0, 0.0, 0.0, 0.0, 0.0, 1.6989589539141E9, 0.0, 2023-11-02 17:02:33.914
31.0, -187500.02235174447, 187500.0, 31396.73547705835, 37105.21454873259, 187500.0, 187500.0, -187500.02235174447, 31588.334630529243, -0.018000000000000002, 0.978, -0.066, 192.0, 0.0, 0.0, 0.0, 0.0, 0.0, 0.0, 0.0, 0.0, 0.0, 1.698958953914111E9, 0.0, 2023-11-02 17:02:33.914
32.0, -187500.02235174447, 187500.0, 31394.433247379453, 37099.24663296302, 187500.0, 187500.0, -187500.02235174447, 31585.495958983418, -0.018000000000000002, 0.978, -0.066, 192.0, 0.0, 0.0, 0.0, 0.0, 0.0, 0.0, 0.0, 0.0, 0.0, 1.698958953914124E9, 0.0, 2023-11-02 17:02:33.914
33.0, -187500.02235174447, 187500.0, 31399.12711371507, 37096.81029281739, 187500.0, 187500.0, -187500.02235174447, 31590.145121830123, -0.018000000000000002, 0.978, -0.066, 192.0, 0.0, 0.0, 0.0, 0.0, 0.0, 0.0, 0.0, 0.0, 0.0, 1.698958953914137E9, 0.0, 2023-11-02 17:02:33.914
34.0, -187500.02235174447, 187500.0, 31404.73740157335, 37101.459455664095, 187500.0, 187500.0, -187500.02235174447, 31595.77776143286, -0.018000000000000002, 0.978, -0.066, 192.0, 0.0, 0.0, 0.0, 0.0, 0.0, 0.0, 0.0, 0.0, 0.0, 1.6989589539141512E9, 0.0, 2023-11-02 17:02:33.914
35.0, -187500.02235174447, 187500.0, 31405.966747518392, 37112.74708661403, 187500.0, 187500.0, -187500.02235174447, 31596.53772074434, -0.018000000000000002, 0.978, -0.066, 192.0, 0.0, 0.0, 0.0, 0.0, 0.0, 0.0, 0.0, 0.0, 0.0, 1.698958953914162E9, 0.0, 2023-11-02 17:02:33.914
36.0, -187500.02235174447, 187500.0, 31397.87541602557, 37115.11637152629, 187500.0, 187500.0, -187500.02235174447, 31591.128598586158, -0.018000000000000002, 0.978, -0.066, 192.0, 0.0, 0.0, 0.0, 0.0, 0.0, 0.0, 0.0, 0.0, 0.0, 1.6989589539141731E9, 0.0, 2023-11-02 17:02:33.914
37.0, -187500.02235174447, 187500.0, 31394.567357846186, 37110.690726124136, 187500.0, 187500.0, -187500.02235174447, 31588.982831118446, -0.006, 0.978, -0.068, 192.0, 255.0, 208.0, 30.0, 144.0, 253.0, 224.0, 0.0, 0.0, 0.0, 1.698958953914185E9, 0.0, 2023-11-02 17:02:33.914
38.0, -187500.02235174447, 187500.0, 31394.2097299349, 37110.46720867958, 187500.0, 187500.0, -187500.02235174447, 31588.87107239617, -0.006, 0.978, -0.068, 192.0, 0.0, 0.0, 0.0, 0.0, 0.0, 0.0, 0.0, 0.0, 0.0, 1.698958953914199E9, 0.0, 2023-11-02 17:02:33.914
39.0, -187500.02235174447, 187500.0, 31389.91819499948, 37113.88702558124, 187500.0, 187500.0, -187500.02235174447, 31583.707819426993, -0.006, 0.978, -0.068, 192.0, 0.0, 0.0, 0.0, 0.0, 0.0, 0.0, 0.0, 0.0, 0.0, 1.6989589539142132E9, 0.0, 2023-11-02 17:02:33.914
40.0, -187500.02235174447, 187500.0, 31384.017334463282, 37112.568272658384, 187500.0, 187500.0, -187500.02235174447, 31576.175281545555, -0.006, 0.978, -0.068, 192.0, 0.0, 0.0, 0.0, 0.0, 0.0, 0.0, 0.0, 0.0, 0.0, 1.6989589539142249E9, 0.0, 2023-11-02 17:02:33.914
41.0, -187500.02235174447, 187500.0, 31388.912366498993, 37113.35058371432, 187500.0, 187500.0, -187500.02235174447, 31580.77974090335, -0.006, 0.978, -0.068, 192.0, 0.0, 0.0, 0.0, 0.0, 0.0, 0.0, 0.0, 0.0, 0.0, 1.698958953914236E9, 0.0, 2023-11-02 17:02:33.914
42.0, -187500.02235174447, 187500.0, 31386.34191588663, 37114.311708725894, 187500.0, 187500.0, -187500.02235174447, 31578.745732157917, -0.006, 0.978, -0.068, 192.0, 0.0, 0.0, 0.0, 0.0, 0.0, 0.0, 0.0, 0.0, 0.0, 1.6989589539142463E9, 0.0, 2023-11-02 17:02:33.914
43.0, -187500.02235174447, 187500.0, 31387.772427531774, 37116.16690351569, 187500.0, 187500.0, -187500.02235174447, 31581.472644981463, -0.006, 0.978, -0.068, 192.0, 0.0, 0.0, 0.0, 0.0, 0.0, 0.0, 0.0, 0.0, 0.0, 1.6989589539142578E9, 0.0, 2023-11-02 17:02:33.914
44.0, -187500.02235174447, 187500.0, 31394.88028226856, 37128.12508679928, 187500.0, 187500.0, -187500.02235174447, 31588.960479373993, -0.006, 0.978, -0.068, 192.0, 0.0, 0.0, 0.0, 0.0, 0.0, 0.0, 0.0, 0.0, 0.0, 1.6989589539143143E9, 0.0, 2023-11-02 17:02:33.914
45.0, -187500.02235174447, 187500.0, 31391.527520600263, 37132.19310429014, 187500.0, 187500.0, -187500.02235174447, 31584.043095593825, -0.006, 0.978, -0.068, 192.0, 0.0, 0.0, 0.0, 0.0, 0.0, 0.0, 0.0, 0.0, 0.0, 1.698958953914327E9, 0.0, 2023-11-02 17:02:33.914
46.0, -187500.02235174447, 187500.0, 31385.73841878634, 37122.648909407726, 187500.0, 187500.0, -187500.02235174447, 31579.550394958307, -0.006, 0.978, -0.068, 192.0, 0.0, 0.0, 0.0, 0.0, 0.0, 0.0, 0.0, 0.0, 0.0, 1.6989589539143407E9, 0.0, 2023-11-02 17:02:33.914
47.0, -187500.02235174447, 187500.0, 31389.135883943545, 37128.14743854373, 187500.0, 187500.0, -187500.02235174447, 31583.52900547135, -0.016, 0.984, -0.068, 192.0, 255.0, 128.0, 30.0, 192.0, 253.0, 224.0, 0.0, 0.0, 0.0, 1.6989589539143536E9, 0.0, 2023-11-02 17:02:33.914
48.0, -187500.02235174447, 187500.0, 31390.767561288783, 37138.27277878199, 187500.0, 187500.0, -187500.02235174447, 31582.769046159872, -0.016, 0.984, -0.068, 192.0, 0.0, 0.0, 0.0, 0.0, 0.0, 0.0, 0.0, 0.0, 0.0, 1.6989589539144187E9, 0.0, 2023-11-02 17:02:33.914
49.0, -187500.02235174447, 187500.0, 31393.852102023615, 37133.71302291311, 187500.0, 187500.0, -187500.02235174447, 31584.1548543161, -0.016, 0.984, -0.068, 192.0, 0.0, 0.0, 0.0, 0.0, 0.0, 0.0, 0.0, 0.0, 0.0, 1.6989589539144404E9, 0.0, 2023-11-02 17:02:33.914
50.0, -187500.02235174447, 187500.0, 31390.07465721067, 37123.63238616376, 187500.0, 187500.0, -187500.02235174447, 31578.857490880193, -0.016, 0.984, -0.068, 192.0, 0.0, 0.0, 0.0, 0.0, 0.0, 0.0, 0.0, 0.0, 0.0, 1.6989589539144504E9, 0.0, 2023-11-02 17:02:33.914
51.0, -187500.02235174447, 187500.0, 31384.821997263673, 37117.44095294964, 187500.0, 187500.0, -187500.02235174447, 31572.44254022152, -0.016, 0.984, -0.068, 192.0, 0.0, 0.0, 0.0, 0.0, 0.0, 0.0, 0.0, 0.0, 0.0, 1.6989589539144628E9, 0.0, 2023-11-02 17:02:33.914
52.0, -187500.02235174447, 187500.0, 31385.850177508615, 37127.38747923225, 187500.0, 187500.0, -187500.02235174447, 31572.129615799146, -0.016, 0.984, -0.068, 192.0, 0.0, 0.0, 0.0, 0.0, 0.0, 0.0, 0.0, 0.0, 0.0, 1.6989589539144816E9, 0.0, 2023-11-02 17:02:33.914
53.0, -187500.02235174447, 187500.0, 31386.96776473138, 37136.32817701437, 187500.0, 187500.0, -187500.02235174447, 31572.01785707687, -0.016, 0.984, -0.068, 192.0, 0.0, 0.0, 0.0, 0.0, 0.0, 0.0, 0.0, 0.0, 0.0, 1.6989589539144979E9, 0.0, 2023-11-02 17:02:33.914
54.0, -187500.02235174447, 187500.0, 31389.538215343742, 37133.02011883499, 187500.0, 187500.0, -187500.02235174447, 31574.85652862269, -0.016, 0.984, -0.068, 192.0, 0.0, 0.0, 0.0, 0.0, 0.0, 0.0, 0.0, 0.0, 0.0, 1.6989589539145143E9, 0.0, 2023-11-02 17:02:33.914
55.0, -187500.02235174447, 187500.0, 31392.421590378475, 37135.702328169624, 187500.0, 187500.0, -187500.02235174447, 31576.95759260149, -0.016, 0.984, -0.068, 192.0, 0.0, 0.0, 0.0, 0.0, 0.0, 0.0, 0.0, 0.0, 0.0, 1.6989589539145267E9, 0.0, 2023-11-02 17:02:33.914
56.0, -187500.02235174447, 187500.0, 31392.890977012037, 37143.79365966245, 187500.0, 187500.0, -187500.02235174447, 31575.90706061209, -0.016, 0.984, -0.068, 192.0, 0.0, 0.0, 0.0, 0.0, 0.0, 0.0, 0.0, 0.0, 0.0, 1.698958953914543E9, 0.0, 2023-11-02 17:02:33.914
57.0, -187500.02235174447, 187500.0, 31389.560567088196, 37149.40394752073, 187500.0, 187500.0, -187500.02235174447, 31571.749636143406, -0.032, 0.986, -0.068, 192.0, 255.0, 0.0, 30.0, 208.0, 253.0, 224.0, 0.0, 0.0, 0.0, 1.6989589539145813E9, 0.0, 2023-11-02 17:02:33.914
58.0, -187500.02235174447, 187500.0, 31385.850177508615, 37139.79269740495, 187500.0, 187500.0, -187500.02235174447, 31568.173357030555, -0.032, 0.986, -0.068, 192.0, 0.0, 0.0, 0.0, 0.0, 0.0, 0.0, 0.0, 0.0, 0.0, 1.6989589539146817E9, 0.0, 2023-11-02 17:02:33.914
59.0, -187500.02235174447, 187500.0, 31391.236947922345, 37135.21058979161, 187500.0, 187500.0, -187500.02235174447, 31574.0518658223, -0.032, 0.986, -0.068, 192.0, 0.0, 0.0, 0.0, 0.0, 0.0, 0.0, 0.0, 0.0, 0.0, 1.6989589539147253E9, 0.0, 2023-11-02 17:02:33.914
60.0, -187500.02235174447, 187500.0, 31389.69467755493, 37137.334005514866, 187500.0, 187500.0, -187500.02235174447, 31571.324952998755, -0.032, 0.986, -0.068, 192.0, 0.0, 0.0, 0.0, 0.0, 0.0, 0.0, 0.0, 0.0, 0.0, 1.69895895391478E9, 0.0, 2023-11-02 17:02:33.914
61.0, -187500.02235174447, 187500.0, 31391.661631066996, 37140.4185462497, 187500.0, 187500.0, -187500.02235174447, 31573.805996633295, -0.032, 0.986, -0.068, 192.0, 0.0, 0.0, 0.0, 0.0, 0.0, 0.0, 0.0, 0.0, 0.0, 1.6989589539147923E9, 0.0, 2023-11-02 17:02:33.914
62.0, -187500.02235174447, 187500.0, 31392.55570084521, 37143.45838349562, 187500.0, 187500.0, -187500.02235174447, 31575.43767397853, -0.032, 0.986, -0.068, 192.0, 0.0, 0.0, 0.0, 0.0, 0.0, 0.0, 0.0, 0.0, 0.0, 1.6989589539148023E9, 0.0, 2023-11-02 17:02:33.914
63.0, -187500.02235174447, 187500.0, 31390.968726988882, 37135.34470025834, 187500.0, 187500.0, -187500.02235174447, 31573.24720302191, -0.032, 0.986, -0.068, 192.0, 0.0, 0.0, 0.0, 0.0, 0.0, 0.0, 0.0, 0.0, 0.0, 1.698958953914812E9, 0.0, 2023-11-02 17:02:33.914
64.0, -187500.02235174447, 187500.0, 31389.202939176914, 37137.69163342615, 187500.0, 187500.0, -187500.02235174447, 31572.599002432707, -0.032, 0.986, -0.068, 192.0, 0.0, 0.0, 0.0, 0.0, 0.0, 0.0, 0.0, 0.0, 0.0, 1.6989589539148228E9, 0.0, 2023-11-02 17:02:33.914
65.0, -187500.02235174447, 187500.0, 31384.12909318556, 37141.7149474281, 187500.0, 187500.0, -187500.02235174447, 31566.87695585215, -0.032, 0.986, -0.068, 192.0, 0.0, 0.0, 0.0, 0.0, 0.0, 0.0, 0.0, 0.0, 0.0, 1.6989589539148335E9, 0.0, 2023-11-02 17:02:33.914
66.0, -187500.02235174447, 187500.0, 31383.950279229914, 37131.83547637886, 187500.0, 187500.0, -187500.02235174447, 31564.686484895527, -0.032, 0.986, -0.068, 192.0, 0.0, 0.0, 0.0, 0.0, 0.0, 0.0, 0.0, 0.0, 0.0, 1.698958953914843E9, 0.0, 2023-11-02 17:02:33.914
67.0, -187500.02235174447, 187500.0, 31386.006639719802, 37123.85590360831, 187500.0, 187500.0, -187500.02235174447, 31564.351208728698, -0.042, 0.99, -0.074, 192.0, 254.0, 176.0, 30.0, 240.0, 253.0, 176.0, 0.0, 0.0, 0.0, 1.698958953914853E9, 0.0, 2023-11-02 17:02:33.914
68.0, -187500.02235174447, 187500.0, 31391.147540944523, 37126.269892009484, 187500.0, 187500.0, -187500.02235174447, 31567.592211674717, -0.042, 0.99, -0.074, 192.0, 0.0, 0.0, 0.0, 0.0, 0.0, 0.0, 0.0, 0.0, 0.0, 1.6989589539148643E9, 0.0, 2023-11-02 17:02:33.914
69.0, -187500.02235174447, 187500.0, 31390.029953721758, 37131.83547637886, 187500.0, 187500.0, -187500.02235174447, 31564.552374428797, -0.042, 0.99, -0.074, 192.0, 0.0, 0.0, 0.0, 0.0, 0.0, 0.0, 0.0, 0.0, 0.0, 1.698958953914878E9, 0.0, 2023-11-02 17:02:33.914
70.0, -187500.02235174447, 187500.0, 31394.723820057374, 37128.46036296611, 187500.0, 187500.0, -187500.02235174447, 31566.4522727075, -0.042, 0.99, -0.074, 192.0, 0.0, 0.0, 0.0, 0.0, 0.0, 0.0, 0.0, 0.0, 0.0, 1.6989589539148881E9, 0.0, 2023-11-02 17:02:33.914
71.0, -187500.02235174447, 187500.0, 31411.375869676576, 37129.354432744316, 187500.0, 187500.0, -187500.02235174447, 31581.137368814634, -0.042, 0.99, -0.074, 192.0, 0.0, 0.0, 0.0, 0.0, 0.0, 0.0, 0.0, 0.0, 0.0, 1.6989589539148989E9, 0.0, 2023-11-02 17:02:33.914
72.0, -187500.02235174447, 187500.0, 31419.355442447122, 37143.01134860651, 187500.0, 187500.0, -187500.02235174447, 31590.033363107847, -0.042, 0.99, -0.074, 192.0, 0.0, 0.0, 0.0, 0.0, 0.0, 0.0, 0.0, 0.0, 0.0, 1.6989589539149086E9, 0.0, 2023-11-02 17:02:33.914
73.0, -187500.02235174447, 187500.0, 31416.852047068125, 37147.10171784183, 187500.0, 187500.0, -187500.02235174447, 31588.960479373993, -0.042, 0.99, -0.074, 192.0, 0.0, 0.0, 0.0, 0.0, 0.0, 0.0, 0.0, 0.0, 0.0, 1.6989589539149191E9, 0.0, 2023-11-02 17:02:33.914
74.0, -187500.02235174447, 187500.0, 31414.97450053388, 37146.833496908366, 187500.0, 187500.0, -187500.02235174447, 31588.91577588508, -0.042, 0.99, -0.074, 192.0, 0.0, 0.0, 0.0, 0.0, 0.0, 0.0, 0.0, 0.0, 0.0, 1.6989589539149296E9, 0.0, 2023-11-02 17:02:33.914
75.0, -187500.02235174447, 187500.0, 31415.667404611995, 37143.10075558433, 187500.0, 187500.0, -187500.02235174447, 31588.513444484885, -0.042, 0.99, -0.074, 192.0, 0.0, 0.0, 0.0, 0.0, 0.0, 0.0, 0.0, 0.0, 0.0, 1.6989589539149513E9, 0.0, 2023-11-02 17:02:33.914
76.0, -187500.02235174447, 187500.0, 31414.661576111506, 37139.703290427125, 187500.0, 187500.0, -187500.02235174447, 31585.942993872526, -0.042, 0.99, -0.074, 192.0, 0.0, 0.0, 0.0, 0.0, 0.0, 0.0, 0.0, 0.0, 0.0, 1.698958953914961E9, 0.0, 2023-11-02 17:02:33.914
77.0, -187500.02235174447, 187500.0, 31409.02893650877, 37145.33593002986, 187500.0, 187500.0, -187500.02235174447, 31581.29383102582, -0.048, 0.986, -0.074, 192.0, 254.0, 128.0, 30.0, 208.0, 253.0, 176.0, 0.0, 0.0, 0.0, 1.6989589539149716E9, 0.0, 2023-11-02 17:02:33.914
78.0, -187500.02235174447, 187500.0, 31408.1125149861, 37143.5701422179, 187500.0, 187500.0, -187500.02235174447, 31581.785569403837, -0.048, 0.986, -0.074, 192.0, 0.0, 0.0, 0.0, 0.0, 0.0, 0.0, 0.0, 0.0, 0.0, 1.698958953914982E9, 0.0, 2023-11-02 17:02:33.914
79.0, -187500.02235174447, 187500.0, 31405.407953907008, 37135.501162469525, 187500.0, 187500.0, -187500.02235174447, 31580.57857520325, -0.048, 0.986, -0.074, 192.0, 0.0, 0.0, 0.0, 0.0, 0.0, 0.0, 0.0, 0.0, 0.0, 1.6989589539149923E9, 0.0, 2023-11-02 17:02:33.914
80.0, -187500.02235174447, 187500.0, 31405.899692285027, 37137.78104040397, 187500.0, 187500.0, -187500.02235174447, 31580.44446473652, -0.048, 0.986, -0.074, 192.0, 0.0, 0.0, 0.0, 0.0, 0.0, 0.0, 0.0, 0.0, 0.0, 1.6989589539150033E9, 0.0, 2023-11-02 17:02:33.915
81.0, -187500.02235174447, 187500.0, 31398.948299759424, 37134.316520013395, 187500.0, 187500.0, -187500.02235174447, 31575.415322234076, -0.048, 0.986, -0.074, 192.0, 0.0, 0.0, 0.0, 0.0, 0.0, 0.0, 0.0, 0.0, 0.0, 1.6989589539150155E9, 0.0, 2023-11-02 17:02:33.915
82.0, -187500.02235174447, 187500.0, 31391.214596177888, 37129.0638600664, 187500.0, 187500.0, -187500.02235174447, 31570.185014031533, -0.048, 0.986, -0.074, 192.0, 0.0, 0.0, 0.0, 0.0, 0.0, 0.0, 0.0, 0.0, 0.0, 1.6989589539150252E9, 0.0, 2023-11-02 17:02:33.915
83.0, -187500.02235174447, 187500.0, 31395.88611076905, 37125.934615842656, 187500.0, 187500.0, -187500.02235174447, 31574.00716233339, -0.048, 0.986, -0.074, 192.0, 0.0, 0.0, 0.0, 0.0, 0.0, 0.0, 0.0, 0.0, 0.0, 1.6989589539150355E9, 0.0, 2023-11-02 17:02:33.915
84.0, -187500.02235174447, 187500.0, 31406.413782407497, 37128.996804833034, 187500.0, 187500.0, -187500.02235174447, 31582.813749648783, -0.048, 0.986, -0.074, 192.0, 0.0, 0.0, 0.0, 0.0, 0.0, 0.0, 0.0, 0.0, 0.0, 1.6989589539150457E9, 0.0, 2023-11-02 17:02:33.915
85.0, -187500.02235174447, 187500.0, 31405.564416118195, 37133.467153724094, 187500.0, 187500.0, -187500.02235174447, 31582.143197315123, -0.048, 0.986, -0.074, 192.0, 0.0, 0.0, 0.0, 0.0, 0.0, 0.0, 0.0, 0.0, 0.0, 1.6989589539150565E9, 0.0, 2023-11-02 17:02:33.915
86.0, -187500.02235174447, 187500.0, 31404.536235873253, 37136.81991539239, 187500.0, 187500.0, -187500.02235174447, 31582.746694415415, -0.048, 0.986, -0.074, 192.0, 0.0, 0.0, 0.0, 0.0, 0.0, 0.0, 0.0, 0.0, 0.0, 1.6989589539150672E9, 0.0, 2023-11-02 17:02:33.915
87.0, -187500.02235174447, 187500.0, 31403.82098005068, 37134.09300256884, 187500.0, 187500.0, -187500.02235174447, 31582.836101393237, -0.036000000000000004, 0.99, -0.066, 192.0, 254.0, 224.0, 30.0, 240.0, 253.0, 240.0, 0.0, 0.0, 0.0, 1.698958953915077E9, 0.0, 2023-11-02 17:02:33.915
88.0, -187500.02235174447, 187500.0, 31400.490570126844, 37127.00749957651, 187500.0, 187500.0, -187500.02235174447, 31580.086836825234, -0.036000000000000004, 0.99, -0.066, 192.0, 0.0, 0.0, 0.0, 0.0, 0.0, 0.0, 0.0, 0.0, 0.0, 1.6989589539150877E9, 0.0, 2023-11-02 17:02:33.915
89.0, -187500.02235174447, 187500.0, 31403.664517839497, 37135.434107236164, 187500.0, 187500.0, -187500.02235174447, 31581.763217659383, -0.036000000000000004, 0.99, -0.066, 192.0, 0.0, 0.0, 0.0, 0.0, 0.0, 0.0, 0.0, 0.0, 0.0, 1.6989589539150984E9, 0.0, 2023-11-02 17:02:33.915
90.0, -187500.02235174447, 187500.0, 31406.59259636314, 37145.67120619669, 187500.0, 187500.0, -187500.02235174447, 31583.886633382637, -0.036000000000000004, 0.99, -0.066, 192.0, 0.0, 0.0, 0.0, 0.0, 0.0, 0.0, 0.0, 0.0, 0.0, 1.6989589539151235E9, 0.0, 2023-11-02 17:02:33.915
91.0, -187500.02235174447, 187500.0, 31408.917177786494, 37142.18433406166, 187500.0, 187500.0, -187500.02235174447, 31586.2559182949, -0.036000000000000004, 0.99, -0.066, 192.0, 0.0, 0.0, 0.0, 0.0, 0.0, 0.0, 0.0, 0.0, 0.0, 1.6989589539151356E9, 0.0, 2023-11-02 17:02:33.915
92.0, -187500.02235174447, 187500.0, 31408.201921963922, 37137.62457819278, 187500.0, 187500.0, -187500.02235174447, 31585.38420026114, -0.036000000000000004, 0.99, -0.066, 192.0, 0.0, 0.0, 0.0, 0.0, 0.0, 0.0, 0.0, 0.0, 0.0, 1.698958953915146E9, 0.0, 2023-11-02 17:02:33.915
93.0, -187500.02235174447, 187500.0, 31404.916215528992, 37134.98707234706, 187500.0, 187500.0, -187500.02235174447, 31584.06544733828, -0.036000000000000004, 0.99, -0.066, 192.0, 0.0, 0.0, 0.0, 0.0, 0.0, 0.0, 0.0, 0.0, 0.0, 1.6989589539151564E9, 0.0, 2023-11-02 17:02:33.915
94.0, -187500.02235174447, 187500.0, 31398.031878236758, 37137.043432836945, 187500.0, 187500.0, -187500.02235174447, 31579.617450191672, -0.036000000000000004, 0.99, -0.066, 192.0, 0.0, 0.0, 0.0, 0.0, 0.0, 0.0, 0.0, 0.0, 0.0, 1.698958953915166E9, 0.0, 2023-11-02 17:02:33.915
95.0, -187500.02235174447, 187500.0, 31387.481854853853, 37132.88600836826, 187500.0, 187500.0, -187500.02235174447, 31571.660229165584, -0.036000000000000004, 0.99, -0.066, 192.0, 0.0, 0.0, 0.0, 0.0, 0.0, 0.0, 0.0, 0.0, 0.0, 1.6989589539151762E9, 0.0, 2023-11-02 17:02:33.915
96.0, -187500.02235174447, 187500.0, 31389.73938104384, 37128.32625249938, 187500.0, 187500.0, -187500.02235174447, 31577.270517023866, -0.036000000000000004, 0.99, -0.066, 192.0, 0.0, 0.0, 0.0, 0.0, 0.0, 0.0, 0.0, 0.0, 0.0, 1.6989589539151876E9, 0.0, 2023-11-02 17:02:33.915
97.0, -187500.02235174447, 187500.0, 31398.92594801497, 37140.127973571776, 187500.0, 187500.0, -187500.02235174447, 31587.68642994004, -0.022, 0.984, -0.07, 192.0, 255.0, 80.0, 30.0, 192.0, 253.0, 208.0, 0.0, 0.0, 0.0, 1.6989589539151988E9, 0.0, 2023-11-02 17:02:33.915
98.0, -187500.02235174447, 187500.0, 31391.862796767095, 37145.224171307585, 187500.0, 187500.0, -187500.02235174447, 31582.590232204228, -0.022, 0.984, -0.07, 192.0, 0.0, 0.0, 0.0, 0.0, 0.0, 0.0, 0.0, 0.0, 0.0, 1.6989589539152129E9, 0.0, 2023-11-02 17:02:33.915
99.0, -187500.02235174447, 187500.0, 31389.761732788294, 37136.127011314275, 187500.0, 187500.0, -187500.02235174447, 31583.461950237986, -0.022, 0.984, -0.07, 192.0, 0.0, 0.0, 0.0, 0.0, 0.0, 0.0, 0.0, 0.0, 0.0, 1.6989589539152246E9, 0.0, 2023-11-02 17:02:33.915
100.0, -187500.02235174447, 187500.0, 31388.912366498993, 37130.22615077808, 187500.0, 187500.0, -187500.02235174447, 31584.557185716294, -0.022, 0.984, -0.07, 192.0, 0.0, 0.0, 0.0, 0.0, 0.0, 0.0, 0.0, 0.0, 0.0, 1.698958953915236E9, 0.0, 2023-11-02 17:02:33.915
101.0, -187500.02235174447, 187500.0, 31384.889052497037, 37132.59543569034, 187500.0, 187500.0, -187500.02235174447, 31582.43376999304, -0.022, 0.984, -0.07, 192.0, 0.0, 0.0, 0.0, 0.0, 0.0, 0.0, 0.0, 0.0, 0.0, 1.6989589539152472E9, 0.0, 2023-11-02 17:02:33.915
102.0, -187500.02235174447, 187500.0, 31375.72483727036, 37131.455496723116, 187500.0, 187500.0, -187500.02235174447, 31573.38131348864, -0.022, 0.984, -0.07, 192.0, 0.0, 0.0, 0.0, 0.0, 0.0, 0.0, 0.0, 0.0, 0.0, 1.698958953915258E9, 0.0, 2023-11-02 17:02:33.915
103.0, -187500.02235174447, 187500.0, 31370.762750001282, 37124.48175245306, 187500.0, 187500.0, -187500.02235174447, 31568.1510052861, -0.022, 0.984, -0.07, 192.0, 0.0, 0.0, 0.0, 0.0, 0.0, 0.0, 0.0, 0.0, 0.0, 1.69895895391527E9, 0.0, 2023-11-02 17:02:33.915
104.0, -187500.02235174447, 187500.0, 31376.1048169261, 37122.76066813, 187500.0, 187500.0, -187500.02235174447, 31573.604830933196, -0.022, 0.984, -0.07, 192.0, 0.0, 0.0, 0.0, 0.0, 0.0, 0.0, 0.0, 0.0, 0.0, 1.698958953915286E9, 0.0, 2023-11-02 17:02:33.915
105.0, -187500.02235174447, 187500.0, 31373.154386658003, 37120.011403562, 187500.0, 187500.0, -187500.02235174447, 31571.369656487666, -0.022, 0.984, -0.07, 192.0, 0.0, 0.0, 0.0, 0.0, 0.0, 0.0, 0.0, 0.0, 0.0, 1.6989589539153216E9, 0.0, 2023-11-02 17:02:33.915
106.0, -187500.02235174447, 187500.0, 31372.930869213447, 37122.17952277417, 187500.0, 187500.0, -187500.02235174447, 31572.353133243698, -0.022, 0.984, -0.07, 192.0, 0.0, 0.0, 0.0, 0.0, 0.0, 0.0, 0.0, 0.0, 0.0, 1.6989589539153357E9, 0.0, 2023-11-02 17:02:33.915
107.0, -187500.02235174447, 187500.0, 31380.88809023954, 37134.472982224586, 187500.0, 187500.0, -187500.02235174447, 31581.338534514733, -0.016, 0.984, -0.068, 192.0, 255.0, 128.0, 30.0, 192.0, 253.0, 224.0, 0.0, 0.0, 0.0, 1.6989589539153512E9, 0.0, 2023-11-02 17:02:33.915
108.0, -187500.02235174447, 187500.0, 31391.214596177888, 37138.585703204364, 187500.0, 187500.0, -187500.02235174447, 31591.620336964173, -0.016, 0.984, -0.068, 192.0, 0.0, 0.0, 0.0, 0.0, 0.0, 0.0, 0.0, 0.0, 0.0, 1.6989589539153657E9, 0.0, 2023-11-02 17:02:33.915
109.0, -187500.02235174447, 187500.0, 31386.96776473138, 37135.45645898062, 187500.0, 187500.0, -187500.02235174447, 31588.938127629535, -0.016, 0.984, -0.068, 192.0, 0.0, 0.0, 0.0, 0.0, 0.0, 0.0, 0.0, 0.0, 0.0, 1.6989589539153826E9, 0.0, 2023-11-02 17:02:33.915
110.0, -187500.02235174447, 187500.0, 31386.900709498015, 37139.12214507129, 187500.0, 187500.0, -187500.02235174447, 31587.664078195583, -0.016, 0.984, -0.068, 192.0, 0.0, 0.0, 0.0, 0.0, 0.0, 0.0, 0.0, 0.0, 0.0, 1.6989589539153948E9, 0.0, 2023-11-02 17:02:33.915
111.0, -187500.02235174447, 187500.0, 31388.286517654244, 37143.97247361809, 187500.0, 187500.0, -187500.02235174447, 31588.535796229342, -0.016, 0.984, -0.068, 192.0, 0.0, 0.0, 0.0, 0.0, 0.0, 0.0, 0.0, 0.0, 0.0, 1.6989589539154065E9, 0.0, 2023-11-02 17:02:33.915
112.0, -187500.02235174447, 187500.0, 31397.3613259031, 37148.845153909344, 187500.0, 187500.0, -187500.02235174447, 31598.750543445414, -0.016, 0.984, -0.068, 192.0, 0.0, 0.0, 0.0, 0.0, 0.0, 0.0, 0.0, 0.0, 0.0, 1.6989589539154277E9, 0.0, 2023-11-02 17:02:33.915
113.0, -187500.02235174447, 187500.0, 31408.64895685303, 37153.44961326714, 187500.0, 187500.0, -187500.02235174447, 31610.01582265089, -0.016, 0.984, -0.068, 192.0, 0.0, 0.0, 0.0, 0.0, 0.0, 0.0, 0.0, 0.0, 0.0, 1.6989589539154415E9, 0.0, 2023-11-02 17:02:33.915
114.0, -187500.02235174447, 187500.0, 31407.330203930167, 37157.9199621582, 187500.0, 187500.0, -187500.02235174447, 31610.2616918399, -0.016, 0.984, -0.068, 192.0, 0.0, 0.0, 0.0, 0.0, 0.0, 0.0, 0.0, 0.0, 0.0, 1.6989589539154544E9, 0.0, 2023-11-02 17:02:33.915
115.0, -187500.02235174447, 187500.0, 31397.383677647555, 37153.9189999007, 187500.0, 187500.0, -187500.02235174447, 31600.851607424214, -0.016, 0.984, -0.068, 192.0, 0.0, 0.0, 0.0, 0.0, 0.0, 0.0, 0.0, 0.0, 0.0, 1.6989589539154687E9, 0.0, 2023-11-02 17:02:33.915
116.0, -187500.02235174447, 187500.0, 31393.98621249035, 37145.80531666343, 187500.0, 187500.0, -187500.02235174447, 31597.230624822456, -0.016, 0.984, -0.068, 192.0, 0.0, 0.0, 0.0, 0.0, 0.0, 0.0, 0.0, 0.0, 0.0, 1.6989589539154828E9, 0.0, 2023-11-02 17:02:33.915
117.0, -187500.02235174447, 187500.0, 31395.372020646577, 37142.072575339385, 187500.0, 187500.0, -187500.02235174447, 31597.901177156113, -0.016, 0.99, -0.066, 192.0, 255.0, 128.0, 30.0, 240.0, 253.0, 240.0, 0.0, 0.0, 0.0, 1.698958953915497E9, 0.0, 2023-11-02 17:02:33.915
118.0, -187500.02235174447, 187500.0, 31394.701468312916, 37144.106584084824, 187500.0, 187500.0, -187500.02235174447, 31595.733057943948, -0.016, 0.99, -0.066, 192.0, 0.0, 0.0, 0.0, 0.0, 0.0, 0.0, 0.0, 0.0, 0.0, 1.698958953915537E9, 0.0, 2023-11-02 17:02:33.915
119.0, -187500.02235174447, 187500.0, 31390.767561288783, 37144.88889514076, 187500.0, 187500.0, -187500.02235174447, 31591.262709052888, -0.016, 0.99, -0.066, 192.0, 0.0, 0.0, 0.0, 0.0, 0.0, 0.0, 0.0, 0.0, 0.0, 1.69895895391555E9, 0.0, 2023-11-02 17:02:33.915
120.0, -187500.02235174447, 187500.0, 31392.488645611844, 37142.363148017306, 187500.0, 187500.0, -187500.02235174447, 31593.184959076043, -0.016, 0.99, -0.066, 192.0, 0.0, 0.0, 0.0, 0.0, 0.0, 0.0, 0.0, 0.0, 0.0, 1.6989589539156282E9, 0.0, 2023-11-02 17:02:33.915
121.0, -187500.02235174447, 187500.0, 31391.88514851155, 37135.83643863636, 187500.0, 187500.0, -187500.02235174447, 31593.095552098224, -0.016, 0.99, -0.066, 192.0, 0.0, 0.0, 0.0, 0.0, 0.0, 0.0, 0.0, 0.0, 0.0, 1.6989589539156446E9, 0.0, 2023-11-02 17:02:33.915
122.0, -187500.02235174447, 187500.0, 31389.627622321565, 37130.136743800256, 187500.0, 187500.0, -187500.02235174447, 31590.48039799695, -0.016, 0.99, -0.066, 192.0, 0.0, 0.0, 0.0, 0.0, 0.0, 0.0, 0.0, 0.0, 0.0, 1.6989589539156568E9, 0.0, 2023-11-02 17:02:33.915
123.0, -187500.02235174447, 187500.0, 31384.91140424149, 37131.72371765658, 187500.0, 187500.0, -187500.02235174447, 31585.96534561698, -0.016, 0.99, -0.066, 192.0, 0.0, 0.0, 0.0, 0.0, 0.0, 0.0, 0.0, 0.0, 0.0, 1.6989589539156744E9, 0.0, 2023-11-02 17:02:33.915
124.0, -187500.02235174447, 187500.0, 31388.800607776717, 37130.896703111735, 187500.0, 187500.0, -187500.02235174447, 31588.960479373993, -0.016, 0.99, -0.066, 192.0, 0.0, 0.0, 0.0, 0.0, 0.0, 0.0, 0.0, 0.0, 0.0, 1.698958953915688E9, 0.0, 2023-11-02 17:02:33.915
125.0, -187500.02235174447, 187500.0, 31394.2097299349, 37130.404964733716, 187500.0, 187500.0, -187500.02235174447, 31594.034325365345, -0.016, 0.99, -0.066, 192.0, 0.0, 0.0, 0.0, 0.0, 0.0, 0.0, 0.0, 0.0, 0.0, 1.6989589539157016E9, 0.0, 2023-11-02 17:02:33.915
126.0, -187500.02235174447, 187500.0, 31397.629546836564, 37137.49046772605, 187500.0, 187500.0, -187500.02235174447, 31596.783589933348, -0.016, 0.99, -0.066, 192.0, 0.0, 0.0, 0.0, 0.0, 0.0, 0.0, 0.0, 0.0, 0.0, 1.6989589539157138E9, 0.0, 2023-11-02 17:02:33.915
127.0, -187500.02235174447, 187500.0, 31397.24956718082, 37143.77130791799, 187500.0, 187500.0, -187500.02235174447, 31596.738886444437, -0.016, 0.988, -0.07, 192.0, 255.0, 128.0, 30.0, 224.0, 253.0, 208.0, 0.0, 0.0, 0.0, 1.6989589539157274E9, 0.0, 2023-11-02 17:02:33.915
128.0, -187500.02235174447, 187500.0, 31395.327317157666, 37144.75478467403, 187500.0, 187500.0, -187500.02235174447, 31594.77193293237, -0.016, 0.988, -0.07, 192.0, 0.0, 0.0, 0.0, 0.0, 0.0, 0.0, 0.0, 0.0, 0.0, 1.69895895391575E9, 0.0, 2023-11-02 17:02:33.915
129.0, -187500.02235174447, 187500.0, 31402.03284049426, 37145.38063351878, 187500.0, 187500.0, -187500.02235174447, 31600.628089979662, -0.016, 0.988, -0.07, 192.0, 0.0, 0.0, 0.0, 0.0, 0.0, 0.0, 0.0, 0.0, 0.0, 1.6989589539157624E9, 0.0, 2023-11-02 17:02:33.915
130.0, -187500.02235174447, 187500.0, 31399.37298290408, 37142.7654794175, 187500.0, 187500.0, -187500.02235174447, 31596.336555044243, -0.016, 0.988, -0.07, 192.0, 0.0, 0.0, 0.0, 0.0, 0.0, 0.0, 0.0, 0.0, 0.0, 1.6989589539157748E9, 0.0, 2023-11-02 17:02:33.915
131.0, -187500.02235174447, 187500.0, 31395.752000302316, 37139.34566251584, 187500.0, 187500.0, -187500.02235174447, 31590.01101136339, -0.016, 0.988, -0.07, 192.0, 0.0, 0.0, 0.0, 0.0, 0.0, 0.0, 0.0, 0.0, 0.0, 1.698958953915787E9, 0.0, 2023-11-02 17:02:33.915
132.0, -187500.02235174447, 187500.0, 31394.567357846186, 37142.65372069523, 187500.0, 187500.0, -187500.02235174447, 31586.658249695094, -0.016, 0.988, -0.07, 192.0, 0.0, 0.0, 0.0, 0.0, 0.0, 0.0, 0.0, 0.0, 0.0, 1.6989589539158006E9, 0.0, 2023-11-02 17:02:33.915
133.0, -187500.02235174447, 187500.0, 31397.137808458545, 37140.73147067207, 187500.0, 187500.0, -187500.02235174447, 31590.145121830123, -0.016, 0.988, -0.07, 192.0, 0.0, 0.0, 0.0, 0.0, 0.0, 0.0, 0.0, 0.0, 0.0, 1.6989589539158304E9, 0.0, 2023-11-02 17:02:33.915
134.0, -187500.02235174447, 187500.0, 31397.40602939201, 37137.19989504813, 187500.0, 187500.0, -187500.02235174447, 31591.821502664272, -0.016, 0.988, -0.07, 192.0, 0.0, 0.0, 0.0, 0.0, 0.0, 0.0, 0.0, 0.0, 0.0, 1.698958953915841E9, 0.0, 2023-11-02 17:02:33.915
135.0, -187500.02235174447, 187500.0, 31394.83557877965, 37133.623615935285, 187500.0, 187500.0, -187500.02235174447, 31590.659211952596, -0.016, 0.988, -0.07, 192.0, 0.0, 0.0, 0.0, 0.0, 0.0, 0.0, 0.0, 0.0, 0.0, 1.6989589539159126E9, 0.0, 2023-11-02 17:02:33.915
136.0, -187500.02235174447, 187500.0, 31391.818093278183, 37138.719813671094, 187500.0, 187500.0, -187500.02235174447, 31587.14998807311, -0.016, 0.988, -0.07, 192.0, 0.0, 0.0, 0.0, 0.0, 0.0, 0.0, 0.0, 0.0, 0.0, 1.6989589539159276E9, 0.0, 2023-11-02 17:02:33.915
137.0, -187500.02235174447, 187500.0, 31388.510035098796, 37134.49533396904, 187500.0, 187500.0, -187500.02235174447, 31585.361848516688, -0.034, 0.98, -0.07, 192.0, 254.0, 240.0, 30.0, 160.0, 253.0, 208.0, 0.0, 0.0, 0.0, 1.6989589539159415E9, 0.0, 2023-11-02 17:02:33.915
138.0, -187500.02235174447, 187500.0, 31386.744247286828, 37131.20962753411, 187500.0, 187500.0, -187500.02235174447, 31584.378371760653, -0.034, 0.98, -0.07, 192.0, 0.0, 0.0, 0.0, 0.0, 0.0, 0.0, 0.0, 0.0, 0.0, 1.698958953915966E9, 0.0, 2023-11-02 17:02:33.915
139.0, -187500.02235174447, 187500.0, 31390.141712444034, 37137.669281681694, 187500.0, 187500.0, -187500.02235174447, 31586.39002876163, -0.034, 0.98, -0.07, 192.0, 0.0, 0.0, 0.0, 0.0, 0.0, 0.0, 0.0, 0.0, 0.0, 1.698958953915979E9, 0.0, 2023-11-02 17:02:33.915
140.0, -187500.02235174447, 187500.0, 31388.510035098796, 37145.984130619065, 187500.0, 187500.0, -187500.02235174447, 31585.428903750053, -0.034, 0.98, -0.07, 192.0, 0.0, 0.0, 0.0, 0.0, 0.0, 0.0, 0.0, 0.0, 0.0, 1.698958953915992E9, 0.0, 2023-11-02 17:02:33.915
141.0, -187500.02235174447, 187500.0, 31390.275822910768, 37140.48560148306, 187500.0, 187500.0, -187500.02235174447, 31587.239395050932, -0.034, 0.98, -0.07, 192.0, 0.0, 0.0, 0.0, 0.0, 0.0, 0.0, 0.0, 0.0, 0.0, 1.6989589539160051E9, 0.0, 2023-11-02 17:02:33.916
142.0, -187500.02235174447, 187500.0, 31393.270956667777, 37136.37288050329, 187500.0, 187500.0, -187500.02235174447, 31588.781665418348, -0.034, 0.98, -0.07, 192.0, 0.0, 0.0, 0.0, 0.0, 0.0, 0.0, 0.0, 0.0, 0.0, 1.698958953916022E9, 0.0, 2023-11-02 17:02:33.916
143.0, -187500.02235174447, 187500.0, 31393.60623283461, 37137.78104040397, 187500.0, 187500.0, -187500.02235174447, 31589.340459029732, -0.034, 0.98, -0.07, 192.0, 0.0, 0.0, 0.0, 0.0, 0.0, 0.0, 0.0, 0.0, 0.0, 1.6989589539160333E9, 0.0, 2023-11-02 17:02:33.916
144.0, -187500.02235174447, 187500.0, 31400.468218382386, 37145.69355794115, 187500.0, 187500.0, -187500.02235174447, 31595.666002710583, -0.034, 0.98, -0.07, 192.0, 0.0, 0.0, 0.0, 0.0, 0.0, 0.0, 0.0, 0.0, 0.0, 1.6989589539160523E9, 0.0, 2023-11-02 17:02:33.916
145.0, -187500.02235174447, 187500.0, 31406.011451007304, 37155.081290612376, 187500.0, 187500.0, -187500.02235174447, 31601.58921499124, -0.034, 0.98, -0.07, 192.0, 0.0, 0.0, 0.0, 0.0, 0.0, 0.0, 0.0, 0.0, 0.0, 1.6989589539160657E9, 0.0, 2023-11-02 17:02:33.916
146.0, -187500.02235174447, 187500.0, 31399.820017793183, 37146.56527597491, 187500.0, 187500.0, -187500.02235174447, 31595.911871899592, -0.028, 0.982, -0.066, 192.0, 255.0, 32.0, 30.0, 176.0, 253.0, 240.0, 0.0, 0.0, 0.0, 1.698958953916079E9, 0.0, 2023-11-02 17:02:33.916
147.0, -187500.02235174447, 187500.0, 31391.840445022637, 37136.886970625754, 187500.0, 187500.0, -187500.02235174447, 31589.474569496462, -0.028, 0.982, -0.066, 192.0, 0.0, 0.0, 0.0, 0.0, 0.0, 0.0, 0.0, 0.0, 0.0, 1.6989589539160922E9, 0.0, 2023-11-02 17:02:33.916
148.0, -187500.02235174447, 187500.0, 31388.577090332165, 37137.69163342615, 187500.0, 187500.0, -187500.02235174447, 31587.507615984396, -0.028, 0.982, -0.066, 192.0, 0.0, 0.0, 0.0, 0.0, 0.0, 0.0, 0.0, 0.0, 0.0, 1.69895895439271E9, 0.0, 2023-11-02 17:02:34.392
149.0, -187500.02235174447, 187500.0, 31391.97455548937, 37143.92777012918, 187500.0, 187500.0, -187500.02235174447, 31591.68739219754, -0.028, 0.982, -0.066, 192.0, 0.0, 0.0, 0.0, 0.0, 0.0, 0.0, 0.0, 0.0, 0.0, 1.6989589543928332E9, 0.0, 2023-11-02 17:02:34.392
150.0, -187500.02235174447, 187500.0, 31398.79183754824, 37143.43603175116, 187500.0, 187500.0, -187500.02235174447, 31598.10234285621, -0.028, 0.982, -0.066, 192.0, 0.0, 0.0, 0.0, 0.0, 0.0, 0.0, 0.0, 0.0, 0.0, 1.6989589543928792E9, 0.0, 2023-11-02 17:02:34.392
151.0, -187500.02235174447, 187500.0, 31404.335070173154, 37152.75670918902, 187500.0, 187500.0, -187500.02235174447, 31604.718459214982, -0.028, 0.982, -0.066, 192.0, 0.0, 0.0, 0.0, 0.0, 0.0, 0.0, 0.0, 0.0, 0.0, 1.6989589543928905E9, 0.0, 2023-11-02 17:02:34.392
152.0, -187500.02235174447, 187500.0, 31394.12032295708, 37156.44474702415, 187500.0, 187500.0, -187500.02235174447, 31594.324898043265, -0.028, 0.982, -0.066, 192.0, 0.0, 0.0, 0.0, 0.0, 0.0, 0.0, 0.0, 0.0, 0.0, 1.6989589543929017E9, 0.0, 2023-11-02 17:02:34.392
153.0, -187500.02235174447, 187500.0, 31393.226253178866, 37161.54094475996, 187500.0, 187500.0, -187500.02235174447, 31595.174264332567, -0.028, 0.982, -0.066, 192.0, 0.0, 0.0, 0.0, 0.0, 0.0, 0.0, 0.0, 0.0, 0.0, 1.6989589543929126E9, 0.0, 2023-11-02 17:02:34.392
154.0, -187500.02235174447, 187500.0, 31400.043535237735, 37163.55260176094, 187500.0, 187500.0, -187500.02235174447, 31602.371526047176, -0.028, 0.982, -0.066, 192.0, 0.0, 0.0, 0.0, 0.0, 0.0, 0.0, 0.0, 0.0, 0.0, 1.6989589543929236E9, 0.0, 2023-11-02 17:02:34.392
155.0, -187500.02235174447, 187500.0, 31408.537198130754, 37169.29700008595, 187500.0, 187500.0, -187500.02235174447, 31609.054697639313, -0.028, 0.982, -0.066, 192.0, 0.0, 0.0, 0.0, 0.0, 0.0, 0.0, 0.0, 0.0, 0.0, 1.698958954392939E9, 0.0, 2023-11-02 17:02:34.392
156.0, -187500.02235174447, 187500.0, 31408.02310800828, 37173.812052465924, 187500.0, 187500.0, -187500.02235174447, 31607.668889483084, -0.044, 0.97, -0.07, 192.0, 254.0, 160.0, 30.0, 80.0, 253.0, 208.0, 0.0, 0.0, 0.0, 1.698958954392949E9, 0.0, 2023-11-02 17:02:34.392
157.0, -187500.02235174447, 187500.0, 31410.437096409452, 37173.43207281018, 187500.0, 187500.0, -187500.02235174447, 31608.182979605554, -0.044, 0.97, -0.07, 192.0, 0.0, 0.0, 0.0, 0.0, 0.0, 0.0, 0.0, 0.0, 0.0, 1.69895895439296E9, 0.0, 2023-11-02 17:02:34.392
158.0, -187500.02235174447, 187500.0, 31406.614948107595, 37170.54869777545, 187500.0, 187500.0, -187500.02235174447, 31604.651403981617, -0.044, 0.97, -0.07, 192.0, 0.0, 0.0, 0.0, 0.0, 0.0, 0.0, 0.0, 0.0, 0.0, 1.69895895439297E9, 0.0, 2023-11-02 17:02:34.392
159.0, -187500.02235174447, 187500.0, 31411.778201076773, 37168.00059890754, 187500.0, 187500.0, -187500.02235174447, 31610.239340095442, -0.044, 0.97, -0.07, 192.0, 0.0, 0.0, 0.0, 0.0, 0.0, 0.0, 0.0, 0.0, 0.0, 1.6989589543929796E9, 0.0, 2023-11-02 17:02:34.392
160.0, -187500.02235174447, 187500.0, 31413.834561566662, 37174.996694922054, 187500.0, 187500.0, -187500.02235174447, 31612.474514540972, -0.044, 0.97, -0.07, 192.0, 0.0, 0.0, 0.0, 0.0, 0.0, 0.0, 0.0, 0.0, 0.0, 1.6989589543929892E9, 0.0, 2023-11-02 17:02:34.392
161.0, -187500.02235174447, 187500.0, 31413.87926505557, 37181.366942091816, 187500.0, 187500.0, -187500.02235174447, 31610.999299406925, -0.044, 0.97, -0.07, 192.0, 0.0, 0.0, 0.0, 0.0, 0.0, 0.0, 0.0, 0.0, 0.0, 1.6989589543929987E9, 0.0, 2023-11-02 17:02:34.392
162.0, -187500.02235174447, 187500.0, 31414.79568657824, 37176.047226911454, 187500.0, 187500.0, -187500.02235174447, 31607.624185994173, -0.044, 0.97, -0.07, 192.0, 0.0, 0.0, 0.0, 0.0, 0.0, 0.0, 0.0, 0.0, 0.0, 1.6989589543930085E9, 0.0, 2023-11-02 17:02:34.393
163.0, -187500.02235174447, 187500.0, 31421.255340725824, 37163.15027036074, 187500.0, 187500.0, -187500.02235174447, 31610.19463660653, -0.044, 0.97, -0.07, 192.0, 0.0, 0.0, 0.0, 0.0, 0.0, 0.0, 0.0, 0.0, 0.0, 1.698958954393018E9, 0.0, 2023-11-02 17:02:34.393
164.0, -187500.02235174447, 187500.0, 31424.40693669402, 37168.715854730115, 187500.0, 187500.0, -187500.02235174447, 31613.97208141948, -0.044, 0.97, -0.07, 192.0, 0.0, 0.0, 0.0, 0.0, 0.0, 0.0, 0.0, 0.0, 0.0, 1.6989589543930275E9, 0.0, 2023-11-02 17:02:34.393
165.0, -187500.02235174447, 187500.0, 31415.667404611995, 37163.93258141668, 187500.0, 187500.0, -187500.02235174447, 31605.05373538181, -0.044, 0.97, -0.07, 192.0, 0.0, 0.0, 0.0, 0.0, 0.0, 0.0, 0.0, 0.0, 0.0, 1.698958954393046E9, 0.0, 2023-11-02 17:02:34.393
166.0, -187500.02235174447, 187500.0, 31417.723765101884, 37158.9704941476, 187500.0, 187500.0, -187500.02235174447, 31606.9089301716, -0.036000000000000004, 0.986, -0.066, 192.0, 254.0, 224.0, 30.0, 208.0, 253.0, 240.0, 0.0, 0.0, 0.0, 1.6989589543930557E9, 0.0, 2023-11-02 17:02:34.393
167.0, -187500.02235174447, 187500.0, 31419.08722151366, 37154.20957257862, 187500.0, 187500.0, -187500.02235174447, 31606.73011621596, -0.036000000000000004, 0.986, -0.066, 192.0, 0.0, 0.0, 0.0, 0.0, 0.0, 0.0, 0.0, 0.0, 0.0, 1.698958954393066E9, 0.0, 2023-11-02 17:02:34.393
168.0, -187500.02235174447, 187500.0, 31424.518695416296, 37158.299941813944, 187500.0, 187500.0, -187500.02235174447, 31611.91572092959, -0.036000000000000004, 0.986, -0.066, 192.0, 0.0, 0.0, 0.0, 0.0, 0.0, 0.0, 0.0, 0.0, 0.0, 1.6989589543930757E9, 0.0, 2023-11-02 17:02:34.393
169.0, -187500.02235174447, 187500.0, 31425.546875661243, 37160.35630230383, 187500.0, 187500.0, -187500.02235174447, 31612.69803198553, -0.036000000000000004, 0.986, -0.066, 192.0, 0.0, 0.0, 0.0, 0.0, 0.0, 0.0, 0.0, 0.0, 0.0, 1.6989589543930852E9, 0.0, 2023-11-02 17:02:34.393
170.0, -187500.02235174447, 187500.0, 31420.003643036325, 37144.598322462836, 187500.0, 187500.0, -187500.02235174447, 31605.277252826367, -0.036000000000000004, 0.986, -0.066, 192.0, 0.0, 0.0, 0.0, 0.0, 0.0, 0.0, 0.0, 0.0, 0.0, 1.6989589543930945E9, 0.0, 2023-11-02 17:02:34.393
171.0, -187500.02235174447, 187500.0, 31416.293253456744, 37121.374859973774, 187500.0, 187500.0, -187500.02235174447, 31600.650441724116, -0.036000000000000004, 0.986, -0.066, 192.0, 0.0, 0.0, 0.0, 0.0, 0.0, 0.0, 0.0, 0.0, 0.0, 1.6989589543931043E9, 0.0, 2023-11-02 17:02:34.393
172.0, -187500.02235174447, 187500.0, 31411.711145843405, 37118.938519828145, 187500.0, 187500.0, -187500.02235174447, 31596.336555044243, -0.036000000000000004, 0.986, -0.066, 192.0, 0.0, 0.0, 0.0, 0.0, 0.0, 0.0, 0.0, 0.0, 0.0, 1.6989589543931139E9, 0.0, 2023-11-02 17:02:34.393
173.0, -187500.02235174447, 187500.0, 31415.80151507873, 37125.30876699791, 187500.0, 187500.0, -187500.02235174447, 31601.63391848015, -0.036000000000000004, 0.986, -0.066, 192.0, 0.0, 0.0, 0.0, 0.0, 0.0, 0.0, 0.0, 0.0, 0.0, 1.6989589543931234E9, 0.0, 2023-11-02 17:02:34.393
174.0, -187500.02235174447, 187500.0, 31418.908407558014, 37126.87338910978, 187500.0, 187500.0, -187500.02235174447, 31603.600871992217, -0.036000000000000004, 0.986, -0.066, 192.0, 0.0, 0.0, 0.0, 0.0, 0.0, 0.0, 0.0, 0.0, 0.0, 1.6989589543931327E9, 0.0, 2023-11-02 17:02:34.393
175.0, -187500.02235174447, 187500.0, 31419.824829080684, 37119.430258206165, 187500.0, 187500.0, -187500.02235174447, 31603.48911326994, -0.036000000000000004, 0.986, -0.066, 192.0, 0.0, 0.0, 0.0, 0.0, 0.0, 0.0, 0.0, 0.0, 0.0, 1.6989589543931425E9, 0.0, 2023-11-02 17:02:34.393
176.0, -187500.02235174447, 187500.0, 31416.40501217902, 37109.81900809038, 187500.0, 187500.0, -187500.02235174447, 31603.287947569843, -0.04, 0.986, -0.068, 192.0, 254.0, 192.0, 30.0, 208.0, 253.0, 224.0, 0.0, 0.0, 0.0, 1.6989589543931534E9, 0.0, 2023-11-02 17:02:34.393
177.0, -187500.02235174447, 187500.0, 31412.784029577262, 37109.95311855711, 187500.0, 187500.0, -187500.02235174447, 31600.762200446392, -0.04, 0.986, -0.068, 192.0, 0.0, 0.0, 0.0, 0.0, 0.0, 0.0, 0.0, 0.0, 0.0, 1.6989589543931637E9, 0.0, 2023-11-02 17:02:34.393
178.0, -187500.02235174447, 187500.0, 31409.02893650877, 37098.799598073914, 187500.0, 187500.0, -187500.02235174447, 31595.330726543754, -0.04, 0.986, -0.068, 192.0, 0.0, 0.0, 0.0, 0.0, 0.0, 0.0, 0.0, 0.0, 0.0, 1.6989589543931732E9, 0.0, 2023-11-02 17:02:34.393
179.0, -187500.02235174447, 187500.0, 31408.716012086395, 37087.86959503527, 187500.0, 187500.0, -187500.02235174447, 31592.067371853278, -0.04, 0.986, -0.068, 192.0, 0.0, 0.0, 0.0, 0.0, 0.0, 0.0, 0.0, 0.0, 0.0, 1.6989589543931828E9, 0.0, 2023-11-02 17:02:34.393
180.0, -187500.02235174447, 187500.0, 31404.156256217513, 37082.728693810546, 187500.0, 187500.0, -187500.02235174447, 31585.898290383615, -0.04, 0.986, -0.068, 192.0, 0.0, 0.0, 0.0, 0.0, 0.0, 0.0, 0.0, 0.0, 0.0, 1.6989589543931923E9, 0.0, 2023-11-02 17:02:34.393
181.0, -187500.02235174447, 187500.0, 31395.01439273529, 37079.62180133126, 187500.0, 187500.0, -187500.02235174447, 31576.10822631219, -0.04, 0.986, -0.068, 192.0, 0.0, 0.0, 0.0, 0.0, 0.0, 0.0, 0.0, 0.0, 0.0, 1.6989589543932097E9, 0.0, 2023-11-02 17:02:34.393
182.0, -187500.02235174447, 187500.0, 31395.21555843539, 37074.34678963981, 187500.0, 187500.0, -187500.02235174447, 31575.616487934174, -0.04, 0.986, -0.068, 192.0, 0.0, 0.0, 0.0, 0.0, 0.0, 0.0, 0.0, 0.0, 0.0, 1.6989589543932192E9, 0.0, 2023-11-02 17:02:34.393
183.0, -187500.02235174447, 187500.0, 31398.79183754824, 37063.86382149027, 187500.0, 187500.0, -187500.02235174447, 31575.035342578336, -0.04, 0.986, -0.068, 192.0, 0.0, 0.0, 0.0, 0.0, 0.0, 0.0, 0.0, 0.0, 0.0, 1.6989589543932326E9, 0.0, 2023-11-02 17:02:34.393
184.0, -187500.02235174447, 187500.0, 31399.909424771005, 37058.14177490971, 187500.0, 187500.0, -187500.02235174447, 31569.91679309807, -0.04, 0.986, -0.068, 192.0, 0.0, 0.0, 0.0, 0.0, 0.0, 0.0, 0.0, 0.0, 0.0, 1.698958954393244E9, 0.0, 2023-11-02 17:02:34.393
185.0, -187500.02235174447, 187500.0, 31398.009526492304, 37056.82302198685, 187500.0, 187500.0, -187500.02235174447, 31567.68161865254, -0.04, 0.986, -0.068, 192.0, 0.0, 0.0, 0.0, 0.0, 0.0, 0.0, 0.0, 0.0, 0.0, 1.6989589543932536E9, 0.0, 2023-11-02 17:02:34.393
186.0, -187500.02235174447, 187500.0, 31396.467256124888, 37057.828850487334, 187500.0, 187500.0, -187500.02235174447, 31566.094644796212, -0.032, 0.986, -0.066, 192.0, 255.0, 0.0, 30.0, 208.0, 253.0, 240.0, 0.0, 0.0, 0.0, 1.698958954393263E9, 0.0, 2023-11-02 17:02:34.393
187.0, -187500.02235174447, 187500.0, 31399.998831748824, 37051.838582973316, 187500.0, 187500.0, -187500.02235174447, 31567.458101207987, -0.032, 0.986, -0.066, 192.0, 0.0, 0.0, 0.0, 0.0, 0.0, 0.0, 0.0, 0.0, 0.0, 1.6989589543932734E9, 0.0, 2023-11-02 17:02:34.393
188.0, -187500.02235174447, 187500.0, 31398.88124452606, 37047.278827104434, 187500.0, 187500.0, -187500.02235174447, 31563.63595290613, -0.032, 0.986, -0.066, 192.0, 0.0, 0.0, 0.0, 0.0, 0.0, 0.0, 0.0, 0.0, 0.0, 1.698958954393283E9, 0.0, 2023-11-02 17:02:34.393
189.0, -187500.02235174447, 187500.0, 31398.478913125866, 37045.736556737014, 187500.0, 187500.0, -187500.02235174447, 31559.746749370905, -0.032, 0.986, -0.066, 192.0, 0.0, 0.0, 0.0, 0.0, 0.0, 0.0, 0.0, 0.0, 0.0, 1.6989589543932924E9, 0.0, 2023-11-02 17:02:34.393
190.0, -187500.02235174447, 187500.0, 31399.328279415167, 37050.87745796174, 187500.0, 187500.0, -187500.02235174447, 31557.109243525178, -0.032, 0.986, -0.066, 192.0, 0.0, 0.0, 0.0, 0.0, 0.0, 0.0, 0.0, 0.0, 0.0, 1.698958954393303E9, 0.0, 2023-11-02 17:02:34.393
191.0, -187500.02235174447, 187500.0, 31400.803494549218, 37051.16803063965, 187500.0, 187500.0, -187500.02235174447, 31553.86824057916, -0.032, 0.986, -0.066, 192.0, 0.0, 0.0, 0.0, 0.0, 0.0, 0.0, 0.0, 0.0, 0.0, 1.6989589543933125E9, 0.0, 2023-11-02 17:02:34.393
192.0, -187500.02235174447, 187500.0, 31405.162084718002, 37044.820135214344, 187500.0, 187500.0, -187500.02235174447, 31555.72343536895, -0.032, 0.986, -0.066, 192.0, 0.0, 0.0, 0.0, 0.0, 0.0, 0.0, 0.0, 0.0, 0.0, 1.6989589543933218E9, 0.0, 2023-11-02 17:02:34.393
193.0, -187500.02235174447, 187500.0, 31402.88220678356, 37047.32353059334, 187500.0, 187500.0, -187500.02235174447, 31552.705949867483, -0.032, 0.986, -0.066, 192.0, 0.0, 0.0, 0.0, 0.0, 0.0, 0.0, 0.0, 0.0, 0.0, 1.6989589543933313E9, 0.0, 2023-11-02 17:02:34.393
194.0, -187500.02235174447, 187500.0, 31397.69660206993, 37044.23898985851, 187500.0, 187500.0, -187500.02235174447, 31546.447461419997, -0.032, 0.986, -0.066, 192.0, 0.0, 0.0, 0.0, 0.0, 0.0, 0.0, 0.0, 0.0, 0.0, 1.6989589543933408E9, 0.0, 2023-11-02 17:02:34.393
195.0, -187500.02235174447, 187500.0, 31389.73938104384, 37034.02424264244, 187500.0, 187500.0, -187500.02235174447, 31537.90909503807, -0.032, 0.986, -0.066, 192.0, 0.0, 0.0, 0.0, 0.0, 0.0, 0.0, 0.0, 0.0, 0.0, 1.6989589543933504E9, 0.0, 2023-11-02 17:02:34.393
196.0, -187500.02235174447, 187500.0, 31398.54596835923, 37027.72105070604, 187500.0, 187500.0, -187500.02235174447, 31546.223943975445, -0.034, 0.986, -0.06, 192.0, 254.0, 240.0, 30.0, 208.0, 254.0, 32.0, 0.0, 0.0, 0.0, 1.6989589543933685E9, 0.0, 2023-11-02 17:02:34.393
197.0, -187500.02235174447, 187500.0, 31407.59842486363, 37033.19722809759, 187500.0, 187500.0, -187500.02235174447, 31553.845888834705, -0.034, 0.986, -0.06, 192.0, 0.0, 0.0, 0.0, 0.0, 0.0, 0.0, 0.0, 0.0, 0.0, 1.6989589543933802E9, 0.0, 2023-11-02 17:02:34.393
198.0, -187500.02235174447, 187500.0, 31408.090163241646, 37040.88622819021, 187500.0, 187500.0, -187500.02235174447, 31551.43190043353, -0.034, 0.986, -0.06, 192.0, 0.0, 0.0, 0.0, 0.0, 0.0, 0.0, 0.0, 0.0, 0.0, 1.6989589543933897E9, 0.0, 2023-11-02 17:02:34.393
199.0, -187500.02235174447, 187500.0, 31409.900654542525, 37041.825001457335, 187500.0, 187500.0, -187500.02235174447, 31550.560182399775, -0.034, 0.986, -0.06, 192.0, 0.0, 0.0, 0.0, 0.0, 0.0, 0.0, 0.0, 0.0, 0.0, 1.6989589543933995E9, 0.0, 2023-11-02 17:02:34.393
200.0, -187500.02235174447, 187500.0, 31414.97450053388, 37034.44892578709, 187500.0, 187500.0, -187500.02235174447, 31552.43772893402, -0.034, 0.986, -0.06, 192.0, 0.0, 0.0, 0.0, 0.0, 0.0, 0.0, 0.0, 0.0, 0.0, 1.6989589543934088E9, 0.0, 2023-11-02 17:02:34.393
201.0, -187500.02235174447, 187500.0, 31414.102782500126, 37036.21471359905, 187500.0, 187500.0, -187500.02235174447, 31550.917810311057, -0.034, 0.986, -0.06, 192.0, 0.0, 0.0, 0.0, 0.0, 0.0, 0.0, 0.0, 0.0, 0.0, 1.6989589543934183E9, 0.0, 2023-11-02 17:02:34.393
202.0, -187500.02235174447, 187500.0, 31410.124171987078, 37037.93579792211, 187500.0, 187500.0, -187500.02235174447, 31545.48633640842, -0.034, 0.986, -0.06, 192.0, 0.0, 0.0, 0.0, 0.0, 0.0, 0.0, 0.0, 0.0, 0.0, 1.698958954393428E9, 0.0, 2023-11-02 17:02:34.393
203.0, -187500.02235174447, 187500.0, 31406.413782407497, 37035.36534730975, 187500.0, 187500.0, -187500.02235174447, 31540.1442694836, -0.034, 0.986, -0.06, 192.0, 0.0, 0.0, 0.0, 0.0, 0.0, 0.0, 0.0, 0.0, 0.0, 1.6989589543934376E9, 0.0, 2023-11-02 17:02:34.393
204.0, -187500.02235174447, 187500.0, 31404.178607961967, 37026.04466987189, 187500.0, 187500.0, -187500.02235174447, 31536.90326653758, -0.034, 0.986, -0.06, 192.0, 0.0, 0.0, 0.0, 0.0, 0.0, 0.0, 0.0, 0.0, 0.0, 1.6989589543934472E9, 0.0, 2023-11-02 17:02:34.393
205.0, -187500.02235174447, 187500.0, 31401.96578526089, 37021.551969236374, 187500.0, 187500.0, -187500.02235174447, 31532.611731602163, -0.034, 0.986, -0.06, 192.0, 0.0, 0.0, 0.0, 0.0, 0.0, 0.0, 0.0, 0.0, 0.0, 1.6989589543934567E9, 0.0, 2023-11-02 17:02:34.393
206.0, -187500.02235174447, 187500.0, 31408.537198130754, 37029.48683851801, 187500.0, 187500.0, -187500.02235174447, 31536.791507815306, -0.024, 0.984, -0.056, 192.0, 255.0, 64.0, 30.0, 192.0, 254.0, 64.0, 0.0, 0.0, 0.0, 1.6989589543934665E9, 0.0, 2023-11-02 17:02:34.393
207.0, -187500.02235174447, 187500.0, 31411.93466328796, 37031.09616411879, 187500.0, 187500.0, -187500.02235174447, 31537.082080493223, -0.024, 0.984, -0.056, 192.0, 0.0, 0.0, 0.0, 0.0, 0.0, 0.0, 0.0, 0.0, 0.0, 1.6989589543934765E9, 0.0, 2023-11-02 17:02:34.393
208.0, -187500.02235174447, 187500.0, 31414.460410411408, 37022.2895768034, 187500.0, 187500.0, -187500.02235174447, 31536.500935137385, -0.024, 0.984, -0.056, 192.0, 0.0, 0.0, 0.0, 0.0, 0.0, 0.0, 0.0, 0.0, 0.0, 1.698958954393486E9, 0.0, 2023-11-02 17:02:34.393
209.0, -187500.02235174447, 187500.0, 31417.388488935056, 37023.51892274844, 187500.0, 187500.0, -187500.02235174447, 31535.651568848083, -0.024, 0.984, -0.056, 192.0, 0.0, 0.0, 0.0, 0.0, 0.0, 0.0, 0.0, 0.0, 0.0, 1.6989589543934953E9, 0.0, 2023-11-02 17:02:34.393
210.0, -187500.02235174447, 187500.0, 31410.973538276383, 37021.99900412548, 187500.0, 187500.0, -187500.02235174447, 31528.364900155655, -0.024, 0.984, -0.056, 192.0, 0.0, 0.0, 0.0, 0.0, 0.0, 0.0, 0.0, 0.0, 0.0, 1.6989589543935049E9, 0.0, 2023-11-02 17:02:34.393
211.0, -187500.02235174447, 187500.0, 31408.693660341938, 37027.09520186129, 187500.0, 187500.0, -187500.02235174447, 31527.269664677344, -0.024, 0.984, -0.056, 192.0, 0.0, 0.0, 0.0, 0.0, 0.0, 0.0, 0.0, 0.0, 0.0, 1.6989589543935225E9, 0.0, 2023-11-02 17:02:34.393
212.0, -187500.02235174447, 187500.0, 31410.370041176087, 37026.33524254981, 187500.0, 187500.0, -187500.02235174447, 31530.46596413445, -0.024, 0.984, -0.056, 192.0, 0.0, 0.0, 0.0, 0.0, 0.0, 0.0, 0.0, 0.0, 0.0, 1.698958954393532E9, 0.0, 2023-11-02 17:02:34.393
213.0, -187500.02235174447, 187500.0, 31414.34865168913, 37023.40716402616, 187500.0, 187500.0, -187500.02235174447, 31532.455269390975, -0.024, 0.984, -0.056, 192.0, 0.0, 0.0, 0.0, 0.0, 0.0, 0.0, 0.0, 0.0, 0.0, 1.6989589543935416E9, 0.0, 2023-11-02 17:02:34.393
214.0, -187500.02235174447, 187500.0, 31407.240796952345, 37020.367326780244, 187500.0, 187500.0, -187500.02235174447, 31521.279397163322, -0.024, 0.984, -0.056, 192.0, 0.0, 0.0, 0.0, 0.0, 0.0, 0.0, 0.0, 0.0, 0.0, 1.698958954393551E9, 0.0, 2023-11-02 17:02:34.393
215.0, -187500.02235174447, 187500.0, 31410.45944815391, 37027.31871930584, 187500.0, 187500.0, -187500.02235174447, 31520.340623896198, -0.024, 0.984, -0.056, 192.0, 0.0, 0.0, 0.0, 0.0, 0.0, 0.0, 0.0, 0.0, 0.0, 1.698958954393561E9, 0.0, 2023-11-02 17:02:34.393
216.0, -187500.02235174447, 187500.0, 31410.437096409452, 37029.35272805127, 187500.0, 187500.0, -187500.02235174447, 31518.172504684033, -0.036000000000000004, 0.97, -0.052000000000000005, 192.0, 254.0, 224.0, 30.0, 80.0, 254.0, 96.0, 0.0, 0.0, 0.0, 1.6989589543935704E9, 0.0, 2023-11-02 17:02:34.393
217.0, -187500.02235174447, 187500.0, 31414.34865168913, 37027.96691989504, 187500.0, 187500.0, -187500.02235174447, 31521.882894263614, -0.036000000000000004, 0.97, -0.052000000000000005, 192.0, 0.0, 0.0, 0.0, 0.0, 0.0, 0.0, 0.0, 0.0, 0.0, 1.6989589543935807E9, 0.0, 2023-11-02 17:02:34.393
218.0, -187500.02235174447, 187500.0, 31413.856913311116, 37027.25166407248, 187500.0, 187500.0, -187500.02235174447, 31521.52526635233, -0.036000000000000004, 0.97, -0.052000000000000005, 192.0, 0.0, 0.0, 0.0, 0.0, 0.0, 0.0, 0.0, 0.0, 0.0, 1.6989589543935902E9, 0.0, 2023-11-02 17:02:34.393
219.0, -187500.02235174447, 187500.0, 31419.422497680487, 37032.727841464024, 187500.0, 187500.0, -187500.02235174447, 31526.465001876953, -0.036000000000000004, 0.97, -0.052000000000000005, 192.0, 0.0, 0.0, 0.0, 0.0, 0.0, 0.0, 0.0, 0.0, 0.0, 1.6989589543936012E9, 0.0, 2023-11-02 17:02:34.393
220.0, -187500.02235174447, 187500.0, 31421.858837826116, 37035.20888509857, 187500.0, 187500.0, -187500.02235174447, 31527.56023735526, -0.036000000000000004, 0.97, -0.052000000000000005, 192.0, 0.0, 0.0, 0.0, 0.0, 0.0, 0.0, 0.0, 0.0, 0.0, 1.6989589543936107E9, 0.0, 2023-11-02 17:02:34.393
221.0, -187500.02235174447, 187500.0, 31422.59644539314, 37034.068946131345, 187500.0, 187500.0, -187500.02235174447, 31528.09667922219, -0.036000000000000004, 0.97, -0.052000000000000005, 192.0, 0.0, 0.0, 0.0, 0.0, 0.0, 0.0, 0.0, 0.0, 0.0, 1.6989589543936203E9, 0.0, 2023-11-02 17:02:34.393
222.0, -187500.02235174447, 187500.0, 31423.78108784927, 37031.11851586324, 187500.0, 187500.0, -187500.02235174447, 31527.04614723279, -0.036000000000000004, 0.97, -0.052000000000000005, 192.0, 0.0, 0.0, 0.0, 0.0, 0.0, 0.0, 0.0, 0.0, 0.0, 1.6989589543936298E9, 0.0, 2023-11-02 17:02:34.393
223.0, -187500.02235174447, 187500.0, 31421.79178259275, 37027.206960583564, 187500.0, 187500.0, -187500.02235174447, 31522.307577408264, -0.036000000000000004, 0.97, -0.052000000000000005, 192.0, 0.0, 0.0, 0.0, 0.0, 0.0, 0.0, 0.0, 0.0, 0.0, 1.698958954393639E9, 0.0, 2023-11-02 17:02:34.393
224.0, -187500.02235174447, 187500.0, 31423.2669977268, 37021.79783842538, 187500.0, 187500.0, -187500.02235174447, 31519.826533773725, -0.036000000000000004, 0.97, -0.052000000000000005, 192.0, 0.0, 0.0, 0.0, 0.0, 0.0, 0.0, 0.0, 0.0, 0.0, 1.6989589543936489E9, 0.0, 2023-11-02 17:02:34.393
225.0, -187500.02235174447, 187500.0, 31434.286407743268, 37018.46742850154, 187500.0, 187500.0, -187500.02235174447, 31526.040318732303, -0.036000000000000004, 0.97, -0.052000000000000005, 192.0, 0.0, 0.0, 0.0, 0.0, 0.0, 0.0, 0.0, 0.0, 0.0, 1.6989589543936584E9, 0.0, 2023-11-02 17:02:34.393
226.0, -187500.02235174447, 187500.0, 31440.164916535014, 37019.16033257965, 187500.0, 187500.0, -187500.02235174447, 31527.33671991071, -0.044, 0.97, -0.05, 192.0, 254.0, 160.0, 30.0, 80.0, 254.0, 112.0, 0.0, 0.0, 0.0, 1.6989589543936775E9, 0.0, 2023-11-02 17:02:34.393
227.0, -187500.02235174447, 187500.0, 31438.756756634328, 37016.74634417848, 187500.0, 187500.0, -187500.02235174447, 31520.519437851843, -0.044, 0.97, -0.05, 192.0, 0.0, 0.0, 0.0, 0.0, 0.0, 0.0, 0.0, 0.0, 0.0, 1.6989589543936875E9, 0.0, 2023-11-02 17:02:34.393
228.0, -187500.02235174447, 187500.0, 31436.812154866715, 37016.79104766739, 187500.0, 187500.0, -187500.02235174447, 31513.61274881515, -0.044, 0.97, -0.05, 192.0, 0.0, 0.0, 0.0, 0.0, 0.0, 0.0, 0.0, 0.0, 0.0, 1.6989589543936973E9, 0.0, 2023-11-02 17:02:34.393
229.0, -187500.02235174447, 187500.0, 31446.13283230458, 37016.81339941185, 187500.0, 187500.0, -187500.02235174447, 31518.820705273236, -0.044, 0.97, -0.05, 192.0, 0.0, 0.0, 0.0, 0.0, 0.0, 0.0, 0.0, 0.0, 0.0, 1.6989589543937068E9, 0.0, 2023-11-02 17:02:34.393
230.0, -187500.02235174447, 187500.0, 31450.357312006632, 37020.14380933569, 187500.0, 187500.0, -187500.02235174447, 31519.290091906798, -0.044, 0.97, -0.05, 192.0, 0.0, 0.0, 0.0, 0.0, 0.0, 0.0, 0.0, 0.0, 0.0, 1.6989589543937163E9, 0.0, 2023-11-02 17:02:34.393
231.0, -187500.02235174447, 187500.0, 31450.916105618016, 37021.0378791139, 187500.0, 187500.0, -187500.02235174447, 31515.222074415935, -0.044, 0.97, -0.05, 192.0, 0.0, 0.0, 0.0, 0.0, 0.0, 0.0, 0.0, 0.0, 0.0, 1.698958954393726E9, 0.0, 2023-11-02 17:02:34.393
232.0, -187500.02235174447, 187500.0, 31450.781995151283, 37026.42464952763, 187500.0, 187500.0, -187500.02235174447, 31514.976205226925, -0.044, 0.97, -0.05, 192.0, 0.0, 0.0, 0.0, 0.0, 0.0, 0.0, 0.0, 0.0, 0.0, 1.698958954393736E9, 0.0, 2023-11-02 17:02:34.393
233.0, -187500.02235174447, 187500.0, 31460.03561735578, 37029.84446642929, 187500.0, 187500.0, -187500.02235174447, 31523.24635067539, -0.044, 0.97, -0.05, 192.0, 0.0, 0.0, 0.0, 0.0, 0.0, 0.0, 0.0, 0.0, 0.0, 1.6989589543937454E9, 0.0, 2023-11-02 17:02:34.393
234.0, -187500.02235174447, 187500.0, 31463.298972046254, 37029.97857689602, 187500.0, 187500.0, -187500.02235174447, 31525.593283843195, -0.044, 0.97, -0.05, 192.0, 0.0, 0.0, 0.0, 0.0, 0.0, 0.0, 0.0, 0.0, 0.0, 1.6989589543937547E9, 0.0, 2023-11-02 17:02:34.393
235.0, -187500.02235174447, 187500.0, 31460.1250243336, 37026.84933267228, 187500.0, 187500.0, -187500.02235174447, 31518.664243062052, -0.044, 0.97, -0.05, 192.0, 0.0, 0.0, 0.0, 0.0, 0.0, 0.0, 0.0, 0.0, 0.0, 1.6989589543937645E9, 0.0, 2023-11-02 17:02:34.393
236.0, -187500.02235174447, 187500.0, 31462.628419712597, 37025.687041960606, 187500.0, 187500.0, -187500.02235174447, 31517.591359328195, -0.064, 0.962, -0.062, 192.0, 254.0, 0.0, 30.0, 16.0, 254.0, 16.0, 0.0, 0.0, 0.0, 1.698958954393774E9, 0.0, 2023-11-02 17:02:34.393
237.0, -187500.02235174447, 187500.0, 31465.80236742525, 37023.3401087928, 187500.0, 187500.0, -187500.02235174447, 31519.312443651255, -0.064, 0.962, -0.062, 192.0, 0.0, 0.0, 0.0, 0.0, 0.0, 0.0, 0.0, 0.0, 0.0, 1.698958954393784E9, 0.0, 2023-11-02 17:02:34.393
238.0, -187500.02235174447, 187500.0, 31465.735312191882, 37015.65110870017, 187500.0, 187500.0, -187500.02235174447, 31516.85375176117, -0.064, 0.962, -0.062, 192.0, 0.0, 0.0, 0.0, 0.0, 0.0, 0.0, 0.0, 0.0, 0.0, 1.6989589543937936E9, 0.0, 2023-11-02 17:02:34.393
239.0, -187500.02235174447, 187500.0, 31463.857765657638, 37013.63945169919, 187500.0, 187500.0, -187500.02235174447, 31513.344527881687, -0.064, 0.962, -0.062, 192.0, 0.0, 0.0, 0.0, 0.0, 0.0, 0.0, 0.0, 0.0, 0.0, 1.6989589543938031E9, 0.0, 2023-11-02 17:02:34.393
240.0, -187500.02235174447, 187500.0, 31464.595373224663, 37016.92515813412, 187500.0, 187500.0, -187500.02235174447, 31513.411583115052, -0.064, 0.962, -0.062, 192.0, 0.0, 0.0, 0.0, 0.0, 0.0, 0.0, 0.0, 0.0, 0.0, 1.698958954393814E9, 0.0, 2023-11-02 17:02:34.393
241.0, -187500.02235174447, 187500.0, 31470.384475038587, 37014.57822496632, 187500.0, 187500.0, -187500.02235174447, 31518.038394217303, -0.064, 0.962, -0.062, 192.0, 0.0, 0.0, 0.0, 0.0, 0.0, 0.0, 0.0, 0.0, 0.0, 1.6989589543938315E9, 0.0, 2023-11-02 17:02:34.393
242.0, -187500.02235174447, 187500.0, 31470.09390236067, 37010.26433828644, 187500.0, 187500.0, -187500.02235174447, 31514.149190682077, -0.064, 0.962, -0.062, 192.0, 0.0, 0.0, 0.0, 0.0, 0.0, 0.0, 0.0, 0.0, 0.0, 1.698958954393841E9, 0.0, 2023-11-02 17:02:34.393
243.0, -187500.02235174447, 187500.0, 31470.585640738685, 37005.548120206375, 187500.0, 187500.0, -187500.02235174447, 31513.299824392776, -0.064, 0.962, -0.062, 192.0, 0.0, 0.0, 0.0, 0.0, 0.0, 0.0, 0.0, 0.0, 0.0, 1.6989589543938503E9, 0.0, 2023-11-02 17:02:34.393
244.0, -187500.02235174447, 187500.0, 31478.006419897847, 37011.761905164945, 187500.0, 187500.0, -187500.02235174447, 31520.832362274214, -0.064, 0.962, -0.062, 192.0, 0.0, 0.0, 0.0, 0.0, 0.0, 0.0, 0.0, 0.0, 0.0, 1.69895895439386E9, 0.0, 2023-11-02 17:02:34.393
245.0, -187500.02235174447, 187500.0, 31481.89562343307, 37013.34887902127, 187500.0, 187500.0, -187500.02235174447, 31525.32506290973, -0.064, 0.962, -0.062, 192.0, 0.0, 0.0, 0.0, 0.0, 0.0, 0.0, 0.0, 0.0, 0.0, 1.6989589543938696E9, 0.0, 2023-11-02 17:02:34.393
246.0, -187500.02235174447, 187500.0, 31483.951983922958, 37009.63848944169, 187500.0, 187500.0, -187500.02235174447, 31525.70504256547, -0.064, 0.978, -0.064, 192.0, 254.0, 0.0, 30.0, 144.0, 254.0, 0.0, 0.0, 0.0, 0.0, 1.6989589543938792E9, 0.0, 2023-11-02 17:02:34.393
247.0, -187500.02235174447, 187500.0, 31485.85188220166, 37007.17979755161, 187500.0, 187500.0, -187500.02235174447, 31525.48152512092, -0.064, 0.978, -0.064, 192.0, 0.0, 0.0, 0.0, 0.0, 0.0, 0.0, 0.0, 0.0, 0.0, 1.6989589543938892E9, 0.0, 2023-11-02 17:02:34.393
248.0, -187500.02235174447, 187500.0, 31485.114274634634, 37014.80174241087, 187500.0, 187500.0, -187500.02235174447, 31523.022833230836, -0.064, 0.978, -0.064, 192.0, 0.0, 0.0, 0.0, 0.0, 0.0, 0.0, 0.0, 0.0, 0.0, 1.6989589543938987E9, 0.0, 2023-11-02 17:02:34.393
249.0, -187500.02235174447, 187500.0, 31482.163844366532, 37014.24294879949, 187500.0, 187500.0, -187500.02235174447, 31519.223036673433, -0.064, 0.978, -0.064, 192.0, 0.0, 0.0, 0.0, 0.0, 0.0, 0.0, 0.0, 0.0, 0.0, 1.6989589543939085E9, 0.0, 2023-11-02 17:02:34.393
250.0, -187500.02235174447, 187500.0, 31485.181329868, 37009.21380629704, 187500.0, 187500.0, -187500.02235174447, 31523.42516463103, -0.064, 0.978, -0.064, 192.0, 0.0, 0.0, 0.0, 0.0, 0.0, 0.0, 0.0, 0.0, 0.0, 1.698958954393918E9, 0.0, 2023-11-02 17:02:34.393
251.0, -187500.02235174447, 187500.0, 31480.979201910402, 37009.77259990843, 187500.0, 187500.0, -187500.02235174447, 31520.720603551938, -0.064, 0.978, -0.064, 192.0, 0.0, 0.0, 0.0, 0.0, 0.0, 0.0, 0.0, 0.0, 0.0, 1.6989589543939273E9, 0.0, 2023-11-02 17:02:34.393
252.0, -187500.02235174447, 187500.0, 31480.018076898825, 37013.70650693256, 187500.0, 187500.0, -187500.02235174447, 31520.452382618474, -0.064, 0.978, -0.064, 192.0, 0.0, 0.0, 0.0, 0.0, 0.0, 0.0, 0.0, 0.0, 0.0, 1.698958954393937E9, 0.0, 2023-11-02 17:02:34.393
253.0, -187500.02235174447, 187500.0, 31481.694457732974, 37014.846445899784, 187500.0, 187500.0, -187500.02235174447, 31522.218170430446, -0.064, 0.978, -0.064, 192.0, 0.0, 0.0, 0.0, 0.0, 0.0, 0.0, 0.0, 0.0, 0.0, 1.6989589543939464E9, 0.0, 2023-11-02 17:02:34.393
254.0, -187500.02235174447, 187500.0, 31477.693495475472, 37007.60448069626, 187500.0, 187500.0, -187500.02235174447, 31518.887760506605, -0.064, 0.978, -0.064, 192.0, 0.0, 0.0, 0.0, 0.0, 0.0, 0.0, 0.0, 0.0, 0.0, 1.698958954393956E9, 0.0, 2023-11-02 17:02:34.393
255.0, -187500.02235174447, 187500.0, 31477.827605942206, 37002.731800405, 187500.0, 187500.0, -187500.02235174447, 31520.43003087402, -0.064, 0.978, -0.064, 192.0, 0.0, 0.0, 0.0, 0.0, 0.0, 0.0, 0.0, 0.0, 0.0, 1.6989589543939655E9, 0.0, 2023-11-02 17:02:34.393
0.0, -187500.02235174447, 187500.0, 31482.208547855444, 37012.45480924306, 187500.0, 187500.0, -187500.02235174447, 31525.302711165277, -0.058, 0.982, -0.066, 192.0, 254.0, 48.0, 30.0, 176.0, 253.0, 240.0, 0.0, 0.0, 0.0, 1.6989589543939846E9, 0.0, 2023-11-02 17:02:34.393
1.0, -187500.02235174447, 187500.0, 31484.689591489983, 37018.04274535689, 187500.0, 187500.0, -187500.02235174447, 31525.883856521115, -0.058, 0.982, -0.066, 192.0, 0.0, 0.0, 0.0, 0.0, 0.0, 0.0, 0.0, 0.0, 0.0, 1.6989589543939948E9, 0.0, 2023-11-02 17:02:34.393
2.0, -187500.02235174447, 187500.0, 31480.50981527684, 37013.68415518811, 187500.0, 187500.0, -187500.02235174447, 31520.206513429468, -0.058, 0.982, -0.066, 192.0, 0.0, 0.0, 0.0, 0.0, 0.0, 0.0, 0.0, 0.0, 0.0, 1.6989589543940043E9, 0.0, 2023-11-02 17:02:34.394
3.0, -187500.02235174447, 187500.0, 31479.392228054076, 37007.000983595964, 187500.0, 187500.0, -187500.02235174447, 31521.391155885598, -0.058, 0.982, -0.066, 192.0, 0.0, 0.0, 0.0, 0.0, 0.0, 0.0, 0.0, 0.0, 0.0, 1.6989589543940141E9, 0.0, 2023-11-02 17:02:34.394
4.0, -187500.02235174447, 187500.0, 31479.772207709815, 37009.70554467506, 187500.0, 187500.0, -187500.02235174447, 31524.252179175877, -0.058, 0.982, -0.066, 192.0, 0.0, 0.0, 0.0, 0.0, 0.0, 0.0, 0.0, 0.0, 0.0, 1.698958954394024E9, 0.0, 2023-11-02 17:02:34.394
5.0, -187500.02235174447, 187500.0, 31479.347524565164, 37009.48202723051, 187500.0, 187500.0, -187500.02235174447, 31524.878028020627, -0.058, 0.982, -0.066, 192.0, 0.0, 0.0, 0.0, 0.0, 0.0, 0.0, 0.0, 0.0, 0.0, 1.6989589543940349E9, 0.0, 2023-11-02 17:02:34.394
6.0, -187500.02235174447, 187500.0, 31478.811082698237, 37003.3352975053, 187500.0, 187500.0, -187500.02235174447, 31523.42516463103, -0.058, 0.982, -0.066, 192.0, 0.0, 0.0, 0.0, 0.0, 0.0, 0.0, 0.0, 0.0, 0.0, 1.6989589543940442E9, 0.0, 2023-11-02 17:02:34.394
7.0, -187500.02235174447, 187500.0, 31477.581736753196, 37000.80955038185, 187500.0, 187500.0, -187500.02235174447, 31520.094754707192, -0.058, 0.982, -0.066, 192.0, 0.0, 0.0, 0.0, 0.0, 0.0, 0.0, 0.0, 0.0, 0.0, 1.6989589543940537E9, 0.0, 2023-11-02 17:02:34.394
8.0, -187500.02235174447, 187500.0, 31474.541899507276, 36999.982535837, 187500.0, 187500.0, -187500.02235174447, 31516.04908896078, -0.058, 0.982, -0.066, 192.0, 0.0, 0.0, 0.0, 0.0, 0.0, 0.0, 0.0, 0.0, 0.0, 1.6989589543940632E9, 0.0, 2023-11-02 17:02:34.394
9.0, -187500.02235174447, 187500.0, 31476.41944604152, 37002.86591087173, 187500.0, 187500.0, -187500.02235174447, 31517.166676183544, -0.048, 0.982, -0.056, 192.0, 254.0, 128.0, 30.0, 176.0, 254.0, 64.0, 0.0, 0.0, 0.0, 1.6989589543940728E9, 0.0, 2023-11-02 17:02:34.394
10.0, -187500.02235174447, 187500.0, 31472.351428550654, 36998.350858491765, 187500.0, 187500.0, -187500.02235174447, 31511.221112158433, -0.048, 0.982, -0.056, 192.0, 0.0, 0.0, 0.0, 0.0, 0.0, 0.0, 0.0, 0.0, 0.0, 1.698958954394083E9, 0.0, 2023-11-02 17:02:34.394
11.0, -187500.02235174447, 187500.0, 31471.94909715046, 36992.114721788734, 187500.0, 187500.0, -187500.02235174447, 31510.170580169033, -0.048, 0.982, -0.056, 192.0, 0.0, 0.0, 0.0, 0.0, 0.0, 0.0, 0.0, 0.0, 0.0, 1.6989589543940926E9, 0.0, 2023-11-02 17:02:34.394
12.0, -187500.02235174447, 187500.0, 31475.36891405212, 37000.653088170664, 187500.0, 187500.0, -187500.02235174447, 31514.551522082274, -0.048, 0.982, -0.056, 192.0, 0.0, 0.0, 0.0, 0.0, 0.0, 0.0, 0.0, 0.0, 0.0, 1.6989589547621827E9, 0.0, 2023-11-02 17:02:34.762
13.0, -187500.02235174447, 187500.0, 31470.317419805222, 37006.64335568468, 187500.0, 187500.0, -187500.02235174447, 31510.930539480516, -0.048, 0.982, -0.056, 192.0, 0.0, 0.0, 0.0, 0.0, 0.0, 0.0, 0.0, 0.0, 0.0, 1.6989589547622793E9, 0.0, 2023-11-02 17:02:34.762
14.0, -187500.02235174447, 187500.0, 31469.80332968275, 37007.023335340426, 187500.0, 187500.0, -187500.02235174447, 31508.829475501716, -0.048, 0.982, -0.056, 192.0, 0.0, 0.0, 0.0, 0.0, 0.0, 0.0, 0.0, 0.0, 0.0, 1.698958954762296E9, 0.0, 2023-11-02 17:02:34.762
15.0, -187500.02235174447, 187500.0, 31477.402922797555, 37008.52090221893, 187500.0, 187500.0, -187500.02235174447, 31515.42324011603, -0.048, 0.982, -0.056, 192.0, 0.0, 0.0, 0.0, 0.0, 0.0, 0.0, 0.0, 0.0, 0.0, 1.6989589547625058E9, 0.0, 2023-11-02 17:02:34.762
16.0, -187500.02235174447, 187500.0, 31471.03267562779, 37006.62100394023, 187500.0, 187500.0, -187500.02235174447, 31509.27651039082, -0.048, 0.982, -0.056, 192.0, 0.0, 0.0, 0.0, 0.0, 0.0, 0.0, 0.0, 0.0, 0.0, 1.6989589547625191E9, 0.0, 2023-11-02 17:02:34.762
17.0, -187500.02235174447, 187500.0, 31470.160957594035, 37005.056381828355, 187500.0, 187500.0, -187500.02235174447, 31508.1365714236, -0.048, 0.982, -0.056, 192.0, 0.0, 0.0, 0.0, 0.0, 0.0, 0.0, 0.0, 0.0, 0.0, 1.6989589547625315E9, 0.0, 2023-11-02 17:02:34.762
18.0, -187500.02235174447, 187500.0, 31470.719751205415, 37007.850349885266, 187500.0, 187500.0, -187500.02235174447, 31511.95871972546, -0.048, 0.982, -0.056, 192.0, 0.0, 0.0, 0.0, 0.0, 0.0, 0.0, 0.0, 0.0, 0.0, 1.698958954762545E9, 0.0, 2023-11-02 17:02:34.762
19.0, -187500.02235174447, 187500.0, 31472.574945995206, 37005.01167833945, 187500.0, 187500.0, -187500.02235174447, 31516.831400016716, -0.046, 0.974, -0.066, 192.0, 254.0, 144.0, 30.0, 112.0, 253.0, 240.0, 0.0, 0.0, 0.0, 1.698958954762558E9, 0.0, 2023-11-02 17:02:34.762
20.0, -187500.02235174447, 187500.0, 31470.160957594035, 36998.44026546959, 187500.0, 187500.0, -187500.02235174447, 31513.43393485951, -0.046, 0.974, -0.066, 192.0, 0.0, 0.0, 0.0, 0.0, 0.0, 0.0, 0.0, 0.0, 0.0, 1.6989589547625775E9, 0.0, 2023-11-02 17:02:34.762
21.0, -187500.02235174447, 187500.0, 31466.69643720346, 36998.820245125324, 187500.0, 187500.0, -187500.02235174447, 31509.969414468935, -0.046, 0.974, -0.066, 192.0, 0.0, 0.0, 0.0, 0.0, 0.0, 0.0, 0.0, 0.0, 0.0, 1.698958954762591E9, 0.0, 2023-11-02 17:02:34.762
22.0, -187500.02235174447, 187500.0, 31469.24453607137, 37003.9834980945, 187500.0, 187500.0, -187500.02235174447, 31513.90332149307, -0.046, 0.974, -0.066, 192.0, 0.0, 0.0, 0.0, 0.0, 0.0, 0.0, 0.0, 0.0, 0.0, 1.698958954762605E9, 0.0, 2023-11-02 17:02:34.762
23.0, -187500.02235174447, 187500.0, 31469.959791893936, 36997.926175347115, 187500.0, 187500.0, -187500.02235174447, 31514.86444650465, -0.046, 0.974, -0.066, 192.0, 0.0, 0.0, 0.0, 0.0, 0.0, 0.0, 0.0, 0.0, 0.0, 1.698958954762647E9, 0.0, 2023-11-02 17:02:34.762
24.0, -187500.02235174447, 187500.0, 31468.99866688236, 36990.19247176558, 187500.0, 187500.0, -187500.02235174447, 31512.450458103474, -0.046, 0.974, -0.066, 192.0, 0.0, 0.0, 0.0, 0.0, 0.0, 0.0, 0.0, 0.0, 0.0, 1.6989589547626593E9, 0.0, 2023-11-02 17:02:34.762
25.0, -187500.02235174447, 187500.0, 31465.869422658616, 36989.812492109835, 187500.0, 187500.0, -187500.02235174447, 31508.67301329053, -0.046, 0.974, -0.066, 192.0, 0.0, 0.0, 0.0, 0.0, 0.0, 0.0, 0.0, 0.0, 0.0, 1.6989589547626889E9, 0.0, 2023-11-02 17:02:34.762
26.0, -187500.02235174447, 187500.0, 31465.780015680793, 36991.421817710616, 187500.0, 187500.0, -187500.02235174447, 31507.22014990093, -0.046, 0.974, -0.066, 192.0, 0.0, 0.0, 0.0, 0.0, 0.0, 0.0, 0.0, 0.0, 0.0, 1.6989589547627E9, 0.0, 2023-11-02 17:02:34.762
27.0, -187500.02235174447, 187500.0, 31464.28244880229, 36986.19150950808, 187500.0, 187500.0, -187500.02235174447, 31503.241539387887, -0.046, 0.974, -0.066, 192.0, 0.0, 0.0, 0.0, 0.0, 0.0, 0.0, 0.0, 0.0, 0.0, 1.6989589547627375E9, 0.0, 2023-11-02 17:02:34.762
28.0, -187500.02235174447, 187500.0, 31459.61093421113, 36983.397541451166, 187500.0, 187500.0, -187500.02235174447, 31497.98887944089, -0.046, 0.974, -0.066, 192.0, 0.0, 0.0, 0.0, 0.0, 0.0, 0.0, 0.0, 0.0, 0.0, 1.6989589547627506E9, 0.0, 2023-11-02 17:02:34.762
29.0, -187500.02235174447, 187500.0, 31450.33496026218, 36981.631753639194, 187500.0, 187500.0, -187500.02235174447, 31489.674030503516, -0.06, 0.968, -0.07, 192.0, 254.0, 32.0, 30.0, 64.0, 253.0, 208.0, 0.0, 0.0, 0.0, 1.6989589547627609E9, 0.0, 2023-11-02 17:02:34.762
30.0, -187500.02235174447, 187500.0, 31448.993855594857, 36985.342143218775, 187500.0, 187500.0, -187500.02235174447, 31489.42816131451, -0.06, 0.968, -0.07, 192.0, 0.0, 0.0, 0.0, 0.0, 0.0, 0.0, 0.0, 0.0, 0.0, 1.6989589547627738E9, 0.0, 2023-11-02 17:02:34.762
31.0, -187500.02235174447, 187500.0, 31448.07743407219, 36987.95729732005, 187500.0, 187500.0, -187500.02235174447, 31489.674030503516, -0.06, 0.968, -0.07, 192.0, 0.0, 0.0, 0.0, 0.0, 0.0, 0.0, 0.0, 0.0, 0.0, 1.698958954762808E9, 0.0, 2023-11-02 17:02:34.762
32.0, -187500.02235174447, 187500.0, 31450.916105618016, 36987.42085545312, 187500.0, 187500.0, -187500.02235174447, 31491.953908437958, -0.06, 0.968, -0.07, 192.0, 0.0, 0.0, 0.0, 0.0, 0.0, 0.0, 0.0, 0.0, 0.0, 1.698958954762822E9, 0.0, 2023-11-02 17:02:34.762
33.0, -187500.02235174447, 187500.0, 31455.297047531254, 36995.065152056835, 187500.0, 187500.0, -187500.02235174447, 31494.56906253923, -0.06, 0.968, -0.07, 192.0, 0.0, 0.0, 0.0, 0.0, 0.0, 0.0, 0.0, 0.0, 0.0, 1.698958954762832E9, 0.0, 2023-11-02 17:02:34.762
34.0, -187500.02235174447, 187500.0, 31450.98316085138, 36995.55689043485, 187500.0, 187500.0, -187500.02235174447, 31490.165768881536, -0.06, 0.968, -0.07, 192.0, 0.0, 0.0, 0.0, 0.0, 0.0, 0.0, 0.0, 0.0, 0.0, 1.698958954762842E9, 0.0, 2023-11-02 17:02:34.762
35.0, -187500.02235174447, 187500.0, 31448.256248027832, 36993.880509600705, 187500.0, 187500.0, -187500.02235174447, 31489.450513058964, -0.06, 0.968, -0.07, 192.0, 0.0, 0.0, 0.0, 0.0, 0.0, 0.0, 0.0, 0.0, 0.0, 1.6989589547628531E9, 0.0, 2023-11-02 17:02:34.762
36.0, -187500.02235174447, 187500.0, 31437.08037580018, 36981.09531177227, 187500.0, 187500.0, -187500.02235174447, 31481.80621645525, -0.06, 0.968, -0.07, 192.0, 0.0, 0.0, 0.0, 0.0, 0.0, 0.0, 0.0, 0.0, 0.0, 1.698958954762864E9, 0.0, 2023-11-02 17:02:34.762
37.0, -187500.02235174447, 187500.0, 31435.448698454944, 36976.13322450319, 187500.0, 187500.0, -187500.02235174447, 31484.130797878603, -0.06, 0.968, -0.07, 192.0, 0.0, 0.0, 0.0, 0.0, 0.0, 0.0, 0.0, 0.0, 0.0, 1.698958954762874E9, 0.0, 2023-11-02 17:02:34.762
38.0, -187500.02235174447, 187500.0, 31442.51184970282, 36988.136111275686, 187500.0, 187500.0, -187500.02235174447, 31490.881024704104, -0.06, 0.968, -0.07, 192.0, 0.0, 0.0, 0.0, 0.0, 0.0, 0.0, 0.0, 0.0, 0.0, 1.6989589547628849E9, 0.0, 2023-11-02 17:02:34.762
39.0, -187500.02235174447, 187500.0, 31446.311646260223, 36992.15942527764, 187500.0, 187500.0, -187500.02235174447, 31493.89851020557, -0.062, 0.974, -0.082, 192.0, 254.0, 16.0, 30.0, 112.0, 253.0, 112.0, 0.0, 0.0, 0.0, 1.6989589547628956E9, 0.0, 2023-11-02 17:02:34.762
40.0, -187500.02235174447, 187500.0, 31446.110480560124, 36986.61619265273, 187500.0, 187500.0, -187500.02235174447, 31494.56906253923, -0.062, 0.974, -0.082, 192.0, 0.0, 0.0, 0.0, 0.0, 0.0, 0.0, 0.0, 0.0, 0.0, 1.6989589547629075E9, 0.0, 2023-11-02 17:02:34.762
41.0, -187500.02235174447, 187500.0, 31452.056044585235, 36991.93590783309, 187500.0, 187500.0, -187500.02235174447, 31498.927652708015, -0.062, 0.974, -0.082, 192.0, 0.0, 0.0, 0.0, 0.0, 0.0, 0.0, 0.0, 0.0, 0.0, 1.698958954762918E9, 0.0, 2023-11-02 17:02:34.762
42.0, -187500.02235174447, 187500.0, 31447.98802709437, 36997.143864291174, 187500.0, 187500.0, -187500.02235174447, 31495.15020789507, -0.062, 0.974, -0.082, 192.0, 0.0, 0.0, 0.0, 0.0, 0.0, 0.0, 0.0, 0.0, 0.0, 1.6989589547629285E9, 0.0, 2023-11-02 17:02:34.762
43.0, -187500.02235174447, 187500.0, 31446.311646260223, 36988.24786999796, 187500.0, 187500.0, -187500.02235174447, 31492.445646815977, -0.062, 0.974, -0.082, 192.0, 0.0, 0.0, 0.0, 0.0, 0.0, 0.0, 0.0, 0.0, 0.0, 1.6989589547629385E9, 0.0, 2023-11-02 17:02:34.762
44.0, -187500.02235174447, 187500.0, 31450.402015495543, 36987.085579286286, 187500.0, 187500.0, -187500.02235174447, 31498.90530096356, -0.062, 0.974, -0.082, 192.0, 0.0, 0.0, 0.0, 0.0, 0.0, 0.0, 0.0, 0.0, 0.0, 1.6989589547629511E9, 0.0, 2023-11-02 17:02:34.762
45.0, -187500.02235174447, 187500.0, 31460.23678305588, 36995.51218694594, 187500.0, 187500.0, -187500.02235174447, 31510.394097613585, -0.062, 0.974, -0.082, 192.0, 0.0, 0.0, 0.0, 0.0, 0.0, 0.0, 0.0, 0.0, 0.0, 1.6989589547629614E9, 0.0, 2023-11-02 17:02:34.762
46.0, -187500.02235174447, 187500.0, 31461.533184234286, 37006.35278300676, 187500.0, 187500.0, -187500.02235174447, 31514.57387382673, -0.062, 0.974, -0.082, 192.0, 0.0, 0.0, 0.0, 0.0, 0.0, 0.0, 0.0, 0.0, 0.0, 1.6989589547629895E9, 0.0, 2023-11-02 17:02:34.762
47.0, -187500.02235174447, 187500.0, 31458.672160944006, 37001.144826548676, 187500.0, 187500.0, -187500.02235174447, 31509.72354527993, -0.062, 0.974, -0.082, 192.0, 0.0, 0.0, 0.0, 0.0, 0.0, 0.0, 0.0, 0.0, 0.0, 1.6989589547630002E9, 0.0, 2023-11-02 17:02:34.763
48.0, -187500.02235174447, 187500.0, 31464.84124241367, 37004.8328643838, 187500.0, 187500.0, -187500.02235174447, 31515.803219771773, -0.062, 0.974, -0.082, 192.0, 0.0, 0.0, 0.0, 0.0, 0.0, 0.0, 0.0, 0.0, 0.0, 1.698958954763014E9, 0.0, 2023-11-02 17:02:34.763
49.0, -187500.02235174447, 187500.0, 31466.964658136927, 37009.75024816397, 187500.0, 187500.0, -187500.02235174447, 31518.440725617496, -0.068, 0.976, -0.08, 192.0, 253.0, 224.0, 30.0, 128.0, 253.0, 128.0, 0.0, 0.0, 0.0, 1.698958954763026E9, 0.0, 2023-11-02 17:02:34.763
50.0, -187500.02235174447, 187500.0, 31469.311591304733, 37011.80660865386, 187500.0, 187500.0, -187500.02235174447, 31519.67007156254, -0.068, 0.976, -0.08, 192.0, 0.0, 0.0, 0.0, 0.0, 0.0, 0.0, 0.0, 0.0, 0.0, 1.6989589547630372E9, 0.0, 2023-11-02 17:02:34.763
51.0, -187500.02235174447, 187500.0, 31470.51858550532, 37020.1885128246, 187500.0, 187500.0, -187500.02235174447, 31520.452382618474, -0.068, 0.976, -0.08, 192.0, 0.0, 0.0, 0.0, 0.0, 0.0, 0.0, 0.0, 0.0, 0.0, 1.698958954763048E9, 0.0, 2023-11-02 17:02:34.763
52.0, -187500.02235174447, 187500.0, 31476.03946638578, 37025.06119311586, 187500.0, 187500.0, -187500.02235174447, 31526.442650132496, -0.068, 0.976, -0.08, 192.0, 0.0, 0.0, 0.0, 0.0, 0.0, 0.0, 0.0, 0.0, 0.0, 1.6989589547630582E9, 0.0, 2023-11-02 17:02:34.763
53.0, -187500.02235174447, 187500.0, 31483.23672810039, 37030.51501876295, 187500.0, 187500.0, -187500.02235174447, 31536.210362459467, -0.068, 0.976, -0.08, 192.0, 0.0, 0.0, 0.0, 0.0, 0.0, 0.0, 0.0, 0.0, 0.0, 1.6989589547630684E9, 0.0, 2023-11-02 17:02:34.763
54.0, -187500.02235174447, 187500.0, 31483.03556240029, 37035.745326965494, 187500.0, 187500.0, -187500.02235174447, 31536.791507815306, -0.068, 0.976, -0.08, 192.0, 0.0, 0.0, 0.0, 0.0, 0.0, 0.0, 0.0, 0.0, 0.0, 1.6989589547630785E9, 0.0, 2023-11-02 17:02:34.763
55.0, -187500.02235174447, 187500.0, 31478.811082698237, 37033.66661473115, 187500.0, 187500.0, -187500.02235174447, 31532.678786835528, -0.068, 0.976, -0.08, 192.0, 0.0, 0.0, 0.0, 0.0, 0.0, 0.0, 0.0, 0.0, 0.0, 1.69895895476309E9, 0.0, 2023-11-02 17:02:34.763
56.0, -187500.02235174447, 187500.0, 31473.670181473517, 37024.055364615364, 187500.0, 187500.0, -187500.02235174447, 31530.130687967623, -0.068, 0.976, -0.08, 192.0, 0.0, 0.0, 0.0, 0.0, 0.0, 0.0, 0.0, 0.0, 0.0, 1.6989589547631006E9, 0.0, 2023-11-02 17:02:34.763
57.0, -187500.02235174447, 187500.0, 31478.498158275863, 37022.17781808112, 187500.0, 187500.0, -187500.02235174447, 31535.42805140353, -0.068, 0.976, -0.08, 192.0, 0.0, 0.0, 0.0, 0.0, 0.0, 0.0, 0.0, 0.0, 0.0, 1.698958954763111E9, 0.0, 2023-11-02 17:02:34.763
58.0, -187500.02235174447, 187500.0, 31474.676009974006, 37025.46352451605, 187500.0, 187500.0, -187500.02235174447, 31531.561199612763, -0.068, 0.976, -0.08, 192.0, 0.0, 0.0, 0.0, 0.0, 0.0, 0.0, 0.0, 0.0, 0.0, 1.6989589547631226E9, 0.0, 2023-11-02 17:02:34.763
59.0, -187500.02235174447, 187500.0, 31471.971448894914, 37029.48683851801, 187500.0, 187500.0, -187500.02235174447, 31529.706004822972, -0.058, 0.988, -0.084, 192.0, 254.0, 48.0, 30.0, 224.0, 253.0, 96.0, 0.0, 0.0, 0.0, 1.698958954763138E9, 0.0, 2023-11-02 17:02:34.763
60.0, -187500.02235174447, 187500.0, 31468.61868722662, 37033.35369030877, 187500.0, 187500.0, -187500.02235174447, 31527.023795488334, -0.058, 0.988, -0.084, 192.0, 0.0, 0.0, 0.0, 0.0, 0.0, 0.0, 0.0, 0.0, 0.0, 1.6989589547631497E9, 0.0, 2023-11-02 17:02:34.763
61.0, -187500.02235174447, 187500.0, 31463.23191681289, 37022.2895768034, 187500.0, 187500.0, -187500.02235174447, 31522.151115197077, -0.058, 0.988, -0.084, 192.0, 0.0, 0.0, 0.0, 0.0, 0.0, 0.0, 0.0, 0.0, 0.0, 1.6989589547631812E9, 0.0, 2023-11-02 17:02:34.763
62.0, -187500.02235174447, 187500.0, 31464.304800546743, 37016.56753022284, 187500.0, 187500.0, -187500.02235174447, 31522.84401927519, -0.058, 0.988, -0.084, 192.0, 0.0, 0.0, 0.0, 0.0, 0.0, 0.0, 0.0, 0.0, 0.0, 1.698958954763193E9, 0.0, 2023-11-02 17:02:34.763
63.0, -187500.02235174447, 187500.0, 31464.237745313378, 37027.31871930584, 187500.0, 187500.0, -187500.02235174447, 31522.0393564748, -0.058, 0.988, -0.084, 192.0, 0.0, 0.0, 0.0, 0.0, 0.0, 0.0, 0.0, 0.0, 0.0, 1.6989589547632031E9, 0.0, 2023-11-02 17:02:34.763
64.0, -187500.02235174447, 187500.0, 31464.237745313378, 37032.66078623066, 187500.0, 187500.0, -187500.02235174447, 31524.028661731325, -0.058, 0.988, -0.084, 192.0, 0.0, 0.0, 0.0, 0.0, 0.0, 0.0, 0.0, 0.0, 0.0, 1.6989589547632136E9, 0.0, 2023-11-02 17:02:34.763
65.0, -187500.02235174447, 187500.0, 31465.3776842806, 37030.33620480731, 187500.0, 187500.0, -187500.02235174447, 31527.33671991071, -0.058, 0.988, -0.084, 192.0, 0.0, 0.0, 0.0, 0.0, 0.0, 0.0, 0.0, 0.0, 0.0, 1.698958954763224E9, 0.0, 2023-11-02 17:02:34.763
66.0, -187500.02235174447, 187500.0, 31461.04144585627, 37024.61415822675, 187500.0, 187500.0, -187500.02235174447, 31524.185123942512, -0.058, 0.988, -0.084, 192.0, 0.0, 0.0, 0.0, 0.0, 0.0, 0.0, 0.0, 0.0, 0.0, 1.6989589547632365E9, 0.0, 2023-11-02 17:02:34.763
67.0, -187500.02235174447, 187500.0, 31464.41655926902, 37028.972748395536, 187500.0, 187500.0, -187500.02235174447, 31528.342548411198, -0.058, 0.988, -0.084, 192.0, 0.0, 0.0, 0.0, 0.0, 0.0, 0.0, 0.0, 0.0, 0.0, 1.6989589547632496E9, 0.0, 2023-11-02 17:02:34.763
68.0, -187500.02235174447, 187500.0, 31462.27079180131, 37036.035899643415, 187500.0, 187500.0, -187500.02235174447, 31526.107373965668, -0.058, 0.988, -0.084, 192.0, 0.0, 0.0, 0.0, 0.0, 0.0, 0.0, 0.0, 0.0, 0.0, 1.6989589547632616E9, 0.0, 2023-11-02 17:02:34.763
