%OpenBCI Raw EEG Data
%Number of channels = 8
%Sample Rate = 250 Hz
%Board = OpenBCI_GUI$BoardCytonSerial
Sample Index, EXG Channel 0, EXG Channel 1, EXG Channel 2, EXG Channel 3, EXG Channel 4, EXG Channel 5, EXG Channel 6, EXG Channel 7, Accel Channel 0, Accel Channel 1, Accel Channel 2, Other, Other, Other, Other, Other, Other, Other, Analog Channel 0, Analog Channel 1, Analog Channel 2, Timestamp, Other, Timestamp (Formatted)
177.0, -187500.02235174447, 187500.0, 32508.48889452087, 40965.003188252835, 187500.0, 187500.0, -187500.02235174447, 32902.99718415704, 0.0, 0.0, 0.0, 192.0, 0.0, 0.0, 0.0, 0.0, 0.0, 0.0, 0.0, 0.0, 0.0, 1.698958932315447E9, 0.0, 2023-11-02 17:02:12.315
178.0, -187500.02235174447, 187500.0, 32512.445153289456, 40971.06051100022, 187500.0, 187500.0, -187500.02235174447, 32906.70757373662, 0.0, 0.0, 0.0, 192.0, 0.0, 0.0, 0.0, 0.0, 0.0, 0.0, 0.0, 0.0, 0.0, 1.6989589323154683E9, 0.0, 2023-11-02 17:02:12.315
179.0, -187500.02235174447, 187500.0, 32510.187627099473, 40976.961371536425, 187500.0, 187500.0, -187500.02235174447, 32901.521969022986, 0.0, 0.0, 0.0, 192.0, 0.0, 0.0, 0.0, 0.0, 0.0, 0.0, 0.0, 0.0, 0.0, 1.698958932315478E9, 0.0, 2023-11-02 17:02:12.315
180.0, -187500.02235174447, 187500.0, 32513.696850978955, 40981.05174077174, 187500.0, 187500.0, -187500.02235174447, 32900.76200971151, 0.0, 0.0, 0.0, 192.0, 0.0, 0.0, 0.0, 0.0, 0.0, 0.0, 0.0, 0.0, 0.0, 1.6989589323154876E9, 0.0, 2023-11-02 17:02:12.315
181.0, -187500.02235174447, 187500.0, 32510.657013733035, 40975.39674942455, 187500.0, 187500.0, -187500.02235174447, 32895.48699802005, 0.0, 0.0, 0.0, 192.0, 0.0, 0.0, 0.0, 0.0, 0.0, 0.0, 0.0, 0.0, 0.0, 1.6989589323154974E9, 0.0, 2023-11-02 17:02:12.315
182.0, -187500.02235174447, 187500.0, 32515.261473090828, 40963.170345207494, 187500.0, 187500.0, -187500.02235174447, 32898.14685561023, 0.0, 0.0, 0.0, 192.0, 0.0, 0.0, 0.0, 0.0, 0.0, 0.0, 0.0, 0.0, 0.0, 1.6989589323155067E9, 0.0, 2023-11-02 17:02:12.315
183.0, -187500.02235174447, 187500.0, 32519.7765254708, 40970.25584819983, 187500.0, 187500.0, -187500.02235174447, 32900.22556784458, 0.0, 0.0, 0.0, 192.0, 0.0, 0.0, 0.0, 0.0, 0.0, 0.0, 0.0, 0.0, 0.0, 1.6989589323155162E9, 0.0, 2023-11-02 17:02:12.315
184.0, -187500.02235174447, 187500.0, 32521.497609793856, 40984.225688484396, 187500.0, 187500.0, -187500.02235174447, 32902.080762634374, -0.066, 0.984, -0.05, 192.0, 253.0, 240.0, 30.0, 192.0, 254.0, 112.0, 0.0, 0.0, 0.0, 1.6989589323155255E9, 0.0, 2023-11-02 17:02:12.315
185.0, -187500.02235174447, 187500.0, 32521.743478982866, 40989.43364494248, 187500.0, 187500.0, -187500.02235174447, 32903.24305334604, -0.066, 0.984, -0.05, 192.0, 0.0, 0.0, 0.0, 0.0, 0.0, 0.0, 0.0, 0.0, 0.0, 1.698958932315537E9, 0.0, 2023-11-02 17:02:12.315
186.0, -187500.02235174447, 187500.0, 32527.7784499858, 40986.23734548537, 187500.0, 187500.0, -187500.02235174447, 32908.160437126215, -0.066, 0.984, -0.05, 192.0, 0.0, 0.0, 0.0, 0.0, 0.0, 0.0, 0.0, 0.0, 0.0, 1.6989589323155468E9, 0.0, 2023-11-02 17:02:12.315
187.0, -187500.02235174447, 187500.0, 32525.230351117894, 40991.80292985475, 187500.0, 187500.0, -187500.02235174447, 32905.61233825831, -0.066, 0.984, -0.05, 192.0, 0.0, 0.0, 0.0, 0.0, 0.0, 0.0, 0.0, 0.0, 0.0, 1.6989589323155565E9, 0.0, 2023-11-02 17:02:12.315
188.0, -187500.02235174447, 187500.0, 32520.514133037825, 40997.45792120194, 187500.0, 187500.0, -187500.02235174447, 32901.097285878335, -0.066, 0.984, -0.05, 192.0, 0.0, 0.0, 0.0, 0.0, 0.0, 0.0, 0.0, 0.0, 0.0, 1.6989589323155663E9, 0.0, 2023-11-02 17:02:12.315
189.0, -187500.02235174447, 187500.0, 32522.68225224999, 40998.19552876896, 187500.0, 187500.0, -187500.02235174447, 32903.623033001786, -0.066, 0.984, -0.05, 192.0, 0.0, 0.0, 0.0, 0.0, 0.0, 0.0, 0.0, 0.0, 0.0, 1.698958932315576E9, 0.0, 2023-11-02 17:02:12.315
190.0, -187500.02235174447, 187500.0, 32529.991272686875, 40994.90982233403, 187500.0, 187500.0, -187500.02235174447, 32912.02728891698, -0.066, 0.984, -0.05, 192.0, 0.0, 0.0, 0.0, 0.0, 0.0, 0.0, 0.0, 0.0, 0.0, 1.6989589323155856E9, 0.0, 2023-11-02 17:02:12.315
191.0, -187500.02235174447, 187500.0, 32533.656958777545, 41001.011848570335, 187500.0, 187500.0, -187500.02235174447, 32917.54816979745, -0.066, 0.984, -0.05, 192.0, 0.0, 0.0, 0.0, 0.0, 0.0, 0.0, 0.0, 0.0, 0.0, 1.6989589323155951E9, 0.0, 2023-11-02 17:02:12.315
192.0, -187500.02235174447, 187500.0, 32531.645301776567, 41012.09831382016, 187500.0, 187500.0, -187500.02235174447, 32917.65992851972, -0.066, 0.984, -0.05, 192.0, 0.0, 0.0, 0.0, 0.0, 0.0, 0.0, 0.0, 0.0, 0.0, 1.6989589323156047E9, 0.0, 2023-11-02 17:02:12.315
193.0, -187500.02235174447, 187500.0, 32526.57145578521, 41012.21007254244, 187500.0, 187500.0, -187500.02235174447, 32913.815428473405, -0.066, 0.984, -0.05, 192.0, 0.0, 0.0, 0.0, 0.0, 0.0, 0.0, 0.0, 0.0, 0.0, 1.6989589323157148E9, 0.0, 2023-11-02 17:02:12.315
194.0, -187500.02235174447, 187500.0, 32517.831923703186, 40997.30145899075, 187500.0, 187500.0, -187500.02235174447, 32905.81350395841, -0.07, 0.982, -0.056, 192.0, 253.0, 208.0, 30.0, 176.0, 254.0, 64.0, 0.0, 0.0, 0.0, 1.698958932315725E9, 0.0, 2023-11-02 17:02:12.315
195.0, -187500.02235174447, 187500.0, 32521.274092349304, 40991.89233683256, 187500.0, 187500.0, -187500.02235174447, 32908.89804469324, -0.07, 0.982, -0.056, 192.0, 0.0, 0.0, 0.0, 0.0, 0.0, 0.0, 0.0, 0.0, 0.0, 1.6989589323157356E9, 0.0, 2023-11-02 17:02:12.315
196.0, -187500.02235174447, 187500.0, 32515.954377168942, 40994.93217407849, 187500.0, 187500.0, -187500.02235174447, 32902.05841088991, -0.07, 0.982, -0.056, 192.0, 0.0, 0.0, 0.0, 0.0, 0.0, 0.0, 0.0, 0.0, 0.0, 1.6989589323157454E9, 0.0, 2023-11-02 17:02:12.315
197.0, -187500.02235174447, 187500.0, 32511.752249211342, 41000.6765724035, 187500.0, 187500.0, -187500.02235174447, 32898.50448352152, -0.07, 0.982, -0.056, 192.0, 0.0, 0.0, 0.0, 0.0, 0.0, 0.0, 0.0, 0.0, 0.0, 1.698958932315755E9, 0.0, 2023-11-02 17:02:12.315
198.0, -187500.02235174447, 187500.0, 32518.278958592295, 40996.78736886828, 187500.0, 187500.0, -187500.02235174447, 32904.02536440198, -0.07, 0.982, -0.056, 192.0, 0.0, 0.0, 0.0, 0.0, 0.0, 0.0, 0.0, 0.0, 0.0, 1.698958932315765E9, 0.0, 2023-11-02 17:02:12.315
199.0, -187500.02235174447, 187500.0, 32524.47039180641, 40995.37920896759, 187500.0, 187500.0, -187500.02235174447, 32909.5685970269, -0.07, 0.982, -0.056, 192.0, 0.0, 0.0, 0.0, 0.0, 0.0, 0.0, 0.0, 0.0, 0.0, 1.6989589323157763E9, 0.0, 2023-11-02 17:02:12.315
200.0, -187500.02235174447, 187500.0, 32527.10789765214, 41010.35487775265, 187500.0, 187500.0, -187500.02235174447, 32914.173056384694, -0.07, 0.982, -0.056, 192.0, 0.0, 0.0, 0.0, 0.0, 0.0, 0.0, 0.0, 0.0, 0.0, 1.698958932315786E9, 0.0, 2023-11-02 17:02:12.315
201.0, -187500.02235174447, 187500.0, 32526.57145578521, 41023.6318139591, 187500.0, 187500.0, -187500.02235174447, 32914.240111618055, -0.07, 0.982, -0.056, 192.0, 0.0, 0.0, 0.0, 0.0, 0.0, 0.0, 0.0, 0.0, 0.0, 1.6989589323157957E9, 0.0, 2023-11-02 17:02:12.315
202.0, -187500.02235174447, 187500.0, 32528.136077897085, 41019.20616855695, 187500.0, 187500.0, -187500.02235174447, 32914.75420174053, -0.07, 0.982, -0.056, 192.0, 0.0, 0.0, 0.0, 0.0, 0.0, 0.0, 0.0, 0.0, 0.0, 1.6989589323158052E9, 0.0, 2023-11-02 17:02:12.315
203.0, -187500.02235174447, 187500.0, 32522.548141783256, 41013.17119755402, 187500.0, 187500.0, -187500.02235174447, 32909.32272783789, -0.07, 0.982, -0.056, 192.0, 0.0, 0.0, 0.0, 0.0, 0.0, 0.0, 0.0, 0.0, 0.0, 1.6989589323158147E9, 0.0, 2023-11-02 17:02:12.315
204.0, -187500.02235174447, 187500.0, 32522.794010972266, 41015.24990978836, 187500.0, 187500.0, -187500.02235174447, 32910.57442552739, -0.07200000000000001, 0.98, -0.052000000000000005, 192.0, 253.0, 192.0, 30.0, 160.0, 254.0, 96.0, 0.0, 0.0, 0.0, 1.6989589323158245E9, 0.0, 2023-11-02 17:02:12.315
205.0, -187500.02235174447, 187500.0, 32514.43445854598, 41021.17312206902, 187500.0, 187500.0, -187500.02235174447, 32903.690088235155, -0.07200000000000001, 0.98, -0.052000000000000005, 192.0, 0.0, 0.0, 0.0, 0.0, 0.0, 0.0, 0.0, 0.0, 0.0, 1.6989589323158352E9, 0.0, 2023-11-02 17:02:12.315
206.0, -187500.02235174447, 187500.0, 32514.725031223898, 41017.46273248944, 187500.0, 187500.0, -187500.02235174447, 32905.27706209148, -0.07200000000000001, 0.98, -0.052000000000000005, 192.0, 0.0, 0.0, 0.0, 0.0, 0.0, 0.0, 0.0, 0.0, 0.0, 1.6989589323158448E9, 0.0, 2023-11-02 17:02:12.315
207.0, -187500.02235174447, 187500.0, 32514.702679479444, 41015.09344757717, 187500.0, 187500.0, -187500.02235174447, 32907.266367348, -0.07200000000000001, 0.98, -0.052000000000000005, 192.0, 0.0, 0.0, 0.0, 0.0, 0.0, 0.0, 0.0, 0.0, 0.0, 1.6989589323158543E9, 0.0, 2023-11-02 17:02:12.315
208.0, -187500.02235174447, 187500.0, 32512.91453992302, 41020.54727322427, 187500.0, 187500.0, -187500.02235174447, 32906.03702140296, -0.07200000000000001, 0.98, -0.052000000000000005, 192.0, 0.0, 0.0, 0.0, 0.0, 0.0, 0.0, 0.0, 0.0, 0.0, 1.6989589323158906E9, 0.0, 2023-11-02 17:02:12.315
209.0, -187500.02235174447, 187500.0, 32507.81834218721, 41022.00013661387, 187500.0, 187500.0, -187500.02235174447, 32900.78436145596, -0.07200000000000001, 0.98, -0.052000000000000005, 192.0, 0.0, 0.0, 0.0, 0.0, 0.0, 0.0, 0.0, 0.0, 0.0, 1.6989589323159003E9, 0.0, 2023-11-02 17:02:12.315
210.0, -187500.02235174447, 187500.0, 32505.091429363663, 41020.74843892437, 187500.0, 187500.0, -187500.02235174447, 32899.063277132904, -0.07200000000000001, 0.98, -0.052000000000000005, 192.0, 0.0, 0.0, 0.0, 0.0, 0.0, 0.0, 0.0, 0.0, 0.0, 1.69895893231591E9, 0.0, 2023-11-02 17:02:12.315
211.0, -187500.02235174447, 187500.0, 32500.710487450422, 41008.11970330712, 187500.0, 187500.0, -187500.02235174447, 32893.94472765264, -0.07200000000000001, 0.98, -0.052000000000000005, 192.0, 0.0, 0.0, 0.0, 0.0, 0.0, 0.0, 0.0, 0.0, 0.0, 1.6989589323159196E9, 0.0, 2023-11-02 17:02:12.315
212.0, -187500.02235174447, 187500.0, 32501.939833395463, 40998.37434272461, 187500.0, 187500.0, -187500.02235174447, 32894.391762541745, -0.07200000000000001, 0.98, -0.052000000000000005, 192.0, 0.0, 0.0, 0.0, 0.0, 0.0, 0.0, 0.0, 0.0, 0.0, 1.6989589323159292E9, 0.0, 2023-11-02 17:02:12.315
213.0, -187500.02235174447, 187500.0, 32509.91940616601, 41002.53176719329, 187500.0, 187500.0, -187500.02235174447, 32901.387858556256, -0.07200000000000001, 0.98, -0.052000000000000005, 192.0, 0.0, 0.0, 0.0, 0.0, 0.0, 0.0, 0.0, 0.0, 0.0, 1.6989589323159387E9, 0.0, 2023-11-02 17:02:12.315
214.0, -187500.02235174447, 187500.0, 32508.690060220968, 41012.23242428689, 187500.0, 187500.0, -187500.02235174447, 32899.95734691111, -0.07, 0.98, -0.056, 192.0, 253.0, 208.0, 30.0, 160.0, 254.0, 64.0, 0.0, 0.0, 0.0, 1.6989589323159485E9, 0.0, 2023-11-02 17:02:12.315
215.0, -187500.02235174447, 187500.0, 32507.281900320282, 41007.13622655108, 187500.0, 187500.0, -187500.02235174447, 32900.7173062226, -0.07, 0.98, -0.056, 192.0, 0.0, 0.0, 0.0, 0.0, 0.0, 0.0, 0.0, 0.0, 0.0, 1.6989589323159587E9, 0.0, 2023-11-02 17:02:12.315
216.0, -187500.02235174447, 187500.0, 32509.159446854526, 41001.54829043726, 187500.0, 187500.0, -187500.02235174447, 32904.69591673564, -0.07, 0.98, -0.056, 192.0, 0.0, 0.0, 0.0, 0.0, 0.0, 0.0, 0.0, 0.0, 0.0, 1.6989589323159683E9, 0.0, 2023-11-02 17:02:12.315
217.0, -187500.02235174447, 187500.0, 32506.901920664543, 41004.141092794074, 187500.0, 187500.0, -187500.02235174447, 32904.29358533544, -0.07, 0.98, -0.056, 192.0, 0.0, 0.0, 0.0, 0.0, 0.0, 0.0, 0.0, 0.0, 0.0, 1.698958932315978E9, 0.0, 2023-11-02 17:02:12.315
218.0, -187500.02235174447, 187500.0, 32503.169179340504, 41003.58229918269, 187500.0, 187500.0, -187500.02235174447, 32901.23139634507, -0.07, 0.98, -0.056, 192.0, 0.0, 0.0, 0.0, 0.0, 0.0, 0.0, 0.0, 0.0, 0.0, 1.6989589323159876E9, 0.0, 2023-11-02 17:02:12.315
219.0, -187500.02235174447, 187500.0, 32502.878606662587, 40999.35781948064, 187500.0, 187500.0, -187500.02235174447, 32900.13616086676, -0.07, 0.98, -0.056, 192.0, 0.0, 0.0, 0.0, 0.0, 0.0, 0.0, 0.0, 0.0, 0.0, 1.6989589323159971E9, 0.0, 2023-11-02 17:02:12.315
220.0, -187500.02235174447, 187500.0, 32498.497664749346, 40989.97008680941, 187500.0, 187500.0, -187500.02235174447, 32898.303317821425, -0.07, 0.98, -0.056, 192.0, 0.0, 0.0, 0.0, 0.0, 0.0, 0.0, 0.0, 0.0, 0.0, 1.698958932316008E9, 0.0, 2023-11-02 17:02:12.316
221.0, -187500.02235174447, 187500.0, 32503.81737992971, 40984.33744720667, 187500.0, 187500.0, -187500.02235174447, 32904.07006789089, -0.07, 0.98, -0.056, 192.0, 0.0, 0.0, 0.0, 0.0, 0.0, 0.0, 0.0, 0.0, 0.0, 1.698958932316018E9, 0.0, 2023-11-02 17:02:12.316
222.0, -187500.02235174447, 187500.0, 32504.24206307436, 40984.73977860687, 187500.0, 187500.0, -187500.02235174447, 32903.4665707906, -0.07, 0.98, -0.056, 192.0, 0.0, 0.0, 0.0, 0.0, 0.0, 0.0, 0.0, 0.0, 0.0, 1.6989589323160276E9, 0.0, 2023-11-02 17:02:12.316
223.0, -187500.02235174447, 187500.0, 32502.588033984666, 40968.78063306578, 187500.0, 187500.0, -187500.02235174447, 32899.4656085331, -0.07, 0.98, -0.056, 192.0, 0.0, 0.0, 0.0, 0.0, 0.0, 0.0, 0.0, 0.0, 0.0, 1.698958932316046E9, 0.0, 2023-11-02 17:02:12.316
224.0, -187500.02235174447, 187500.0, 32502.185702584473, 40951.72625204638, 187500.0, 187500.0, -187500.02235174447, 32896.93986140965, -0.064, 0.98, -0.058, 192.0, 254.0, 0.0, 30.0, 160.0, 254.0, 48.0, 0.0, 0.0, 0.0, 1.6989589323160555E9, 0.0, 2023-11-02 17:02:12.316
225.0, -187500.02235174447, 187500.0, 32501.224577572895, 40942.09265018614, 187500.0, 187500.0, -187500.02235174447, 32895.35288755332, -0.064, 0.98, -0.058, 192.0, 0.0, 0.0, 0.0, 0.0, 0.0, 0.0, 0.0, 0.0, 0.0, 1.6989589323160655E9, 0.0, 2023-11-02 17:02:12.316
226.0, -187500.02235174447, 187500.0, 32497.916519393508, 40941.98089146386, 187500.0, 187500.0, -187500.02235174447, 32890.30139330642, -0.064, 0.98, -0.058, 192.0, 0.0, 0.0, 0.0, 0.0, 0.0, 0.0, 0.0, 0.0, 0.0, 1.698958932316075E9, 0.0, 2023-11-02 17:02:12.316
227.0, -187500.02235174447, 187500.0, 32497.447132759946, 40927.69812675692, 187500.0, 187500.0, -187500.02235174447, 32888.379143283266, -0.064, 0.98, -0.058, 192.0, 0.0, 0.0, 0.0, 0.0, 0.0, 0.0, 0.0, 0.0, 0.0, 1.6989589323160849E9, 0.0, 2023-11-02 17:02:12.316
228.0, -187500.02235174447, 187500.0, 32499.324679294194, 40917.304565585204, 187500.0, 187500.0, -187500.02235174447, 32890.2119863286, -0.064, 0.98, -0.058, 192.0, 0.0, 0.0, 0.0, 0.0, 0.0, 0.0, 0.0, 0.0, 0.0, 1.6989589323160944E9, 0.0, 2023-11-02 17:02:12.316
229.0, -187500.02235174447, 187500.0, 32495.189606569962, 40914.9576324174, 187500.0, 187500.0, -187500.02235174447, 32884.69110544814, -0.064, 0.98, -0.058, 192.0, 0.0, 0.0, 0.0, 0.0, 0.0, 0.0, 0.0, 0.0, 0.0, 1.698958932316104E9, 0.0, 2023-11-02 17:02:12.316
230.0, -187500.02235174447, 187500.0, 32490.473388489892, 40910.24141433733, 187500.0, 187500.0, -187500.02235174447, 32880.064294345895, -0.064, 0.98, -0.058, 192.0, 0.0, 0.0, 0.0, 0.0, 0.0, 0.0, 0.0, 0.0, 0.0, 1.6989589323161137E9, 0.0, 2023-11-02 17:02:12.316
231.0, -187500.02235174447, 187500.0, 32498.05062986024, 40905.54754800171, 187500.0, 187500.0, -187500.02235174447, 32887.70859094961, -0.064, 0.98, -0.058, 192.0, 0.0, 0.0, 0.0, 0.0, 0.0, 0.0, 0.0, 0.0, 0.0, 1.6989589323161232E9, 0.0, 2023-11-02 17:02:12.316
232.0, -187500.02235174447, 187500.0, 32508.734763709876, 40911.40370504901, 187500.0, 187500.0, -187500.02235174447, 32900.60554750032, -0.064, 0.98, -0.058, 192.0, 0.0, 0.0, 0.0, 0.0, 0.0, 0.0, 0.0, 0.0, 0.0, 1.6989589323161328E9, 0.0, 2023-11-02 17:02:12.316
233.0, -187500.02235174447, 187500.0, 32505.985499141872, 40914.15296961701, 187500.0, 187500.0, -187500.02235174447, 32899.68912597765, -0.064, 0.98, -0.058, 192.0, 0.0, 0.0, 0.0, 0.0, 0.0, 0.0, 0.0, 0.0, 0.0, 1.6989589323161423E9, 0.0, 2023-11-02 17:02:12.316
234.0, -187500.02235174447, 187500.0, 32493.937908880464, 40905.83812067963, 187500.0, 187500.0, -187500.02235174447, 32886.25572756001, -0.064, 0.978, -0.064, 192.0, 254.0, 0.0, 30.0, 144.0, 254.0, 0.0, 0.0, 0.0, 0.0, 1.698958932316152E9, 0.0, 2023-11-02 17:02:12.316
235.0, -187500.02235174447, 187500.0, 32485.153673309527, 40895.10928334109, 187500.0, 187500.0, -187500.02235174447, 32875.236317543546, -0.064, 0.978, -0.064, 192.0, 0.0, 0.0, 0.0, 0.0, 0.0, 0.0, 0.0, 0.0, 0.0, 1.698958932316162E9, 0.0, 2023-11-02 17:02:12.316
236.0, -187500.02235174447, 187500.0, 32482.024429085785, 40886.637972192526, 187500.0, 187500.0, -187500.02235174447, 32869.000180840514, -0.064, 0.978, -0.064, 192.0, 0.0, 0.0, 0.0, 0.0, 0.0, 0.0, 0.0, 0.0, 0.0, 1.6989589323161716E9, 0.0, 2023-11-02 17:02:12.316
237.0, -187500.02235174447, 187500.0, 32483.47729247538, 40873.42809121944, 187500.0, 187500.0, -187500.02235174447, 32866.921468606175, -0.064, 0.978, -0.064, 192.0, 0.0, 0.0, 0.0, 0.0, 0.0, 0.0, 0.0, 0.0, 0.0, 1.6989589323161812E9, 0.0, 2023-11-02 17:02:12.316
238.0, -187500.02235174447, 187500.0, 32480.258641273816, 40877.16083254347, 187500.0, 187500.0, -187500.02235174447, 32862.96520983758, -0.064, 0.978, -0.064, 192.0, 0.0, 0.0, 0.0, 0.0, 0.0, 0.0, 0.0, 0.0, 0.0, 1.6989589323162105E9, 0.0, 2023-11-02 17:02:12.316
239.0, -187500.02235174447, 187500.0, 32472.636696414556, 40880.80416688969, 187500.0, 187500.0, -187500.02235174447, 32854.337436477836, -0.064, 0.978, -0.064, 192.0, 0.0, 0.0, 0.0, 0.0, 0.0, 0.0, 0.0, 0.0, 0.0, 1.6989589323162203E9, 0.0, 2023-11-02 17:02:12.316
240.0, -187500.02235174447, 187500.0, 32468.8145481127, 40872.66813190796, 187500.0, 187500.0, -187500.02235174447, 32848.235410241534, -0.064, 0.978, -0.064, 192.0, 0.0, 0.0, 0.0, 0.0, 0.0, 0.0, 0.0, 0.0, 0.0, 1.69895893231623E9, 0.0, 2023-11-02 17:02:12.316
241.0, -187500.02235174447, 187500.0, 32474.916574348998, 40867.616637661056, 187500.0, 187500.0, -187500.02235174447, 32851.87874458775, -0.064, 0.978, -0.064, 192.0, 0.0, 0.0, 0.0, 0.0, 0.0, 0.0, 0.0, 0.0, 0.0, 1.698958932316241E9, 0.0, 2023-11-02 17:02:12.316
242.0, -187500.02235174447, 187500.0, 32471.563812680703, 40872.019931318755, 187500.0, 187500.0, -187500.02235174447, 32845.732014862544, -0.064, 0.978, -0.064, 192.0, 0.0, 0.0, 0.0, 0.0, 0.0, 0.0, 0.0, 0.0, 0.0, 1.6989589323162506E9, 0.0, 2023-11-02 17:02:12.316
243.0, -187500.02235174447, 187500.0, 32470.80385336922, 40874.61273367557, 187500.0, 187500.0, -187500.02235174447, 32843.31802646137, -0.064, 0.978, -0.064, 192.0, 0.0, 0.0, 0.0, 0.0, 0.0, 0.0, 0.0, 0.0, 0.0, 1.69895893231626E9, 0.0, 2023-11-02 17:02:12.316
244.0, -187500.02235174447, 187500.0, 32469.23923125735, 40870.678826651434, 187500.0, 187500.0, -187500.02235174447, 32839.78645083743, -0.048, 0.982, -0.062, 192.0, 254.0, 128.0, 30.0, 176.0, 254.0, 16.0, 0.0, 0.0, 0.0, 1.6989589323162699E9, 0.0, 2023-11-02 17:02:12.316
245.0, -187500.02235174447, 187500.0, 32468.32280973468, 40871.5505446852, 187500.0, 187500.0, -187500.02235174447, 32837.26070371398, -0.048, 0.982, -0.062, 192.0, 0.0, 0.0, 0.0, 0.0, 0.0, 0.0, 0.0, 0.0, 0.0, 1.6989589323162801E9, 0.0, 2023-11-02 17:02:12.316
246.0, -187500.02235174447, 187500.0, 32467.80871961221, 40876.55733544318, 187500.0, 187500.0, -187500.02235174447, 32834.10910774578, -0.048, 0.982, -0.062, 192.0, 0.0, 0.0, 0.0, 0.0, 0.0, 0.0, 0.0, 0.0, 0.0, 1.69895893231629E9, 0.0, 2023-11-02 17:02:12.316
247.0, -187500.02235174447, 187500.0, 32476.8164726277, 40890.258954794284, 187500.0, 187500.0, -187500.02235174447, 32843.0498055279, -0.048, 0.982, -0.062, 192.0, 0.0, 0.0, 0.0, 0.0, 0.0, 0.0, 0.0, 0.0, 0.0, 1.6989589323162997E9, 0.0, 2023-11-02 17:02:12.316
248.0, -187500.02235174447, 187500.0, 32486.89710937704, 40899.847853165615, 187500.0, 187500.0, -187500.02235174447, 32854.69506438912, -0.048, 0.982, -0.062, 192.0, 0.0, 0.0, 0.0, 0.0, 0.0, 0.0, 0.0, 0.0, 0.0, 1.6989589323163092E9, 0.0, 2023-11-02 17:02:12.316
249.0, -187500.02235174447, 187500.0, 32489.892243134054, 40903.826463678655, 187500.0, 187500.0, -187500.02235174447, 32856.68436964564, -0.048, 0.982, -0.062, 192.0, 0.0, 0.0, 0.0, 0.0, 0.0, 0.0, 0.0, 0.0, 0.0, 1.6989589323163188E9, 0.0, 2023-11-02 17:02:12.316
250.0, -187500.02235174447, 187500.0, 32483.633754686565, 40908.90030967001, 187500.0, 187500.0, -187500.02235174447, 32847.98954105253, -0.048, 0.982, -0.062, 192.0, 0.0, 0.0, 0.0, 0.0, 0.0, 0.0, 0.0, 0.0, 0.0, 1.6989589323163283E9, 0.0, 2023-11-02 17:02:12.316
251.0, -187500.02235174447, 187500.0, 32477.978763339375, 40912.923623671966, 187500.0, 187500.0, -187500.02235174447, 32841.21696248257, -0.048, 0.982, -0.062, 192.0, 0.0, 0.0, 0.0, 0.0, 0.0, 0.0, 0.0, 0.0, 0.0, 1.698958932316338E9, 0.0, 2023-11-02 17:02:12.316
252.0, -187500.02235174447, 187500.0, 32479.185757539963, 40912.38718180504, 187500.0, 187500.0, -187500.02235174447, 32842.55806714989, -0.048, 0.982, -0.062, 192.0, 0.0, 0.0, 0.0, 0.0, 0.0, 0.0, 0.0, 0.0, 0.0, 1.6989589323163474E9, 0.0, 2023-11-02 17:02:12.316
253.0, -187500.02235174447, 187500.0, 32473.53076619277, 40899.222004320865, 187500.0, 187500.0, -187500.02235174447, 32836.32193044686, -0.058, 0.986, -0.058, 192.0, 254.0, 48.0, 30.0, 208.0, 254.0, 48.0, 0.0, 0.0, 0.0, 1.6989589323163652E9, 0.0, 2023-11-02 17:02:12.316
254.0, -187500.02235174447, 187500.0, 32471.362646980604, 40891.26478329478, 187500.0, 187500.0, -187500.02235174447, 32834.53379089043, -0.058, 0.986, -0.058, 192.0, 0.0, 0.0, 0.0, 0.0, 0.0, 0.0, 0.0, 0.0, 0.0, 1.6989589323163755E9, 0.0, 2023-11-02 17:02:12.316
255.0, -187500.02235174447, 187500.0, 32470.28976324675, 40901.300716555204, 187500.0, 187500.0, -187500.02235174447, 32834.42203216816, -0.058, 0.986, -0.058, 192.0, 0.0, 0.0, 0.0, 0.0, 0.0, 0.0, 0.0, 0.0, 0.0, 1.6989589323163853E9, 0.0, 2023-11-02 17:02:12.316
0.0, -187500.02235174447, 187500.0, 32465.6629521445, 40900.540757243725, 187500.0, 187500.0, -187500.02235174447, 32830.33166293283, -0.058, 0.986, -0.058, 192.0, 0.0, 0.0, 0.0, 0.0, 0.0, 0.0, 0.0, 0.0, 0.0, 1.6989589323163948E9, 0.0, 2023-11-02 17:02:12.316
1.0, -187500.02235174447, 187500.0, 32476.905879605518, 40901.792454933224, 187500.0, 187500.0, -187500.02235174447, 32840.568761893366, -0.058, 0.986, -0.058, 192.0, 0.0, 0.0, 0.0, 0.0, 0.0, 0.0, 0.0, 0.0, 0.0, 1.698958932316404E9, 0.0, 2023-11-02 17:02:12.316
2.0, -187500.02235174447, 187500.0, 32480.124530807083, 40916.29873708472, 187500.0, 187500.0, -187500.02235174447, 32842.13338400524, -0.058, 0.986, -0.058, 192.0, 0.0, 0.0, 0.0, 0.0, 0.0, 0.0, 0.0, 0.0, 0.0, 1.6989589323164139E9, 0.0, 2023-11-02 17:02:12.316
3.0, -187500.02235174447, 187500.0, 32477.33056275017, 40923.65246101051, 187500.0, 187500.0, -187500.02235174447, 32836.94777929161, -0.058, 0.986, -0.058, 192.0, 0.0, 0.0, 0.0, 0.0, 0.0, 0.0, 0.0, 0.0, 0.0, 1.698958932316424E9, 0.0, 2023-11-02 17:02:12.316
4.0, -187500.02235174447, 187500.0, 32476.592955183147, 40926.93816744544, 187500.0, 187500.0, -187500.02235174447, 32833.706776345585, -0.058, 0.986, -0.058, 192.0, 0.0, 0.0, 0.0, 0.0, 0.0, 0.0, 0.0, 0.0, 0.0, 1.6989589323164337E9, 0.0, 2023-11-02 17:02:12.316
5.0, -187500.02235174447, 187500.0, 32475.453016215924, 40924.39006857754, 187500.0, 187500.0, -187500.02235174447, 32832.18685772263, -0.058, 0.986, -0.058, 192.0, 0.0, 0.0, 0.0, 0.0, 0.0, 0.0, 0.0, 0.0, 0.0, 1.6989589323164449E9, 0.0, 2023-11-02 17:02:12.316
6.0, -187500.02235174447, 187500.0, 32475.832995871664, 40922.26665285428, 187500.0, 187500.0, -187500.02235174447, 32832.96916877856, -0.058, 0.986, -0.058, 192.0, 0.0, 0.0, 0.0, 0.0, 0.0, 0.0, 0.0, 0.0, 0.0, 1.698958932316455E9, 0.0, 2023-11-02 17:02:12.316
7.0, -187500.02235174447, 187500.0, 32475.408312727013, 40930.179170391464, 187500.0, 187500.0, -187500.02235174447, 32832.11980248926, -0.074, 0.974, -0.06, 192.0, 253.0, 176.0, 30.0, 112.0, 254.0, 32.0, 0.0, 0.0, 0.0, 1.6989589323164876E9, 0.0, 2023-11-02 17:02:12.316
8.0, -187500.02235174447, 187500.0, 32478.403446484026, 40933.62133903758, 187500.0, 187500.0, -187500.02235174447, 32833.50561064549, -0.074, 0.974, -0.06, 192.0, 0.0, 0.0, 0.0, 0.0, 0.0, 0.0, 0.0, 0.0, 0.0, 1.6989589323164985E9, 0.0, 2023-11-02 17:02:12.316
9.0, -187500.02235174447, 187500.0, 32482.069132574696, 40931.944958203436, 187500.0, 187500.0, -187500.02235174447, 32838.71356710357, -0.074, 0.974, -0.06, 192.0, 0.0, 0.0, 0.0, 0.0, 0.0, 0.0, 0.0, 0.0, 0.0, 1.6989589323165245E9, 0.0, 2023-11-02 17:02:12.316
10.0, -187500.02235174447, 187500.0, 32482.694981419445, 40933.62133903758, 187500.0, 187500.0, -187500.02235174447, 32839.853506070795, -0.074, 0.974, -0.06, 192.0, 0.0, 0.0, 0.0, 0.0, 0.0, 0.0, 0.0, 0.0, 0.0, 1.6989589323165343E9, 0.0, 2023-11-02 17:02:12.316
11.0, -187500.02235174447, 187500.0, 32485.779522154276, 40944.19371416494, 187500.0, 187500.0, -187500.02235174447, 32841.50753516049, -0.074, 0.974, -0.06, 192.0, 0.0, 0.0, 0.0, 0.0, 0.0, 0.0, 0.0, 0.0, 0.0, 1.698958932316544E9, 0.0, 2023-11-02 17:02:12.316
12.0, -187500.02235174447, 187500.0, 32484.99721109834, 40957.98474049386, 187500.0, 187500.0, -187500.02235174447, 32839.00413978149, -0.074, 0.974, -0.06, 192.0, 0.0, 0.0, 0.0, 0.0, 0.0, 0.0, 0.0, 0.0, 0.0, 1.698958932316563E9, 0.0, 2023-11-02 17:02:12.316
13.0, -187500.02235174447, 187500.0, 32484.90780412052, 40950.7651270348, 187500.0, 187500.0, -187500.02235174447, 32835.11493624627, -0.074, 0.974, -0.06, 192.0, 0.0, 0.0, 0.0, 0.0, 0.0, 0.0, 0.0, 0.0, 0.0, 1.698958932316573E9, 0.0, 2023-11-02 17:02:12.316
14.0, -187500.02235174447, 187500.0, 32489.15463556703, 40942.45027809743, 187500.0, 187500.0, -187500.02235174447, 32834.332625190335, -0.074, 0.974, -0.06, 192.0, 0.0, 0.0, 0.0, 0.0, 0.0, 0.0, 0.0, 0.0, 0.0, 1.6989589323165843E9, 0.0, 2023-11-02 17:02:12.316
15.0, -187500.02235174447, 187500.0, 32491.5686239682, 40942.33851937515, 187500.0, 187500.0, -187500.02235174447, 32832.45507865609, -0.074, 0.974, -0.06, 192.0, 0.0, 0.0, 0.0, 0.0, 0.0, 0.0, 0.0, 0.0, 0.0, 1.698958932316594E9, 0.0, 2023-11-02 17:02:12.316
16.0, -187500.02235174447, 187500.0, 32490.249871045336, 40949.60283632312, 187500.0, 187500.0, -187500.02235174447, 32830.86810479976, -0.074, 0.974, -0.06, 192.0, 0.0, 0.0, 0.0, 0.0, 0.0, 0.0, 0.0, 0.0, 0.0, 1.6989589323166041E9, 0.0, 2023-11-02 17:02:12.316
17.0, -187500.02235174447, 187500.0, 32491.322754779194, 40939.29868212923, 187500.0, 187500.0, -187500.02235174447, 32830.77869782194, -0.08600000000000001, 0.978, -0.066, 192.0, 253.0, 80.0, 30.0, 144.0, 253.0, 240.0, 0.0, 0.0, 0.0, 1.6989589323166142E9, 0.0, 2023-11-02 17:02:12.316
18.0, -187500.02235174447, 187500.0, 32491.747437923845, 40935.94592046093, 187500.0, 187500.0, -187500.02235174447, 32832.231561211534, -0.08600000000000001, 0.978, -0.066, 192.0, 0.0, 0.0, 0.0, 0.0, 0.0, 0.0, 0.0, 0.0, 0.0, 1.6989589323166249E9, 0.0, 2023-11-02 17:02:12.316
19.0, -187500.02235174447, 187500.0, 32485.332487265172, 40939.29868212923, 187500.0, 187500.0, -187500.02235174447, 32827.98472976503, -0.08600000000000001, 0.978, -0.066, 192.0, 0.0, 0.0, 0.0, 0.0, 0.0, 0.0, 0.0, 0.0, 0.0, 1.698958932316635E9, 0.0, 2023-11-02 17:02:12.316
20.0, -187500.02235174447, 187500.0, 32479.52103370679, 40941.39974610803, 187500.0, 187500.0, -187500.02235174447, 32823.849657040795, -0.08600000000000001, 0.978, -0.066, 192.0, 0.0, 0.0, 0.0, 0.0, 0.0, 0.0, 0.0, 0.0, 0.0, 1.698958932316645E9, 0.0, 2023-11-02 17:02:12.316
21.0, -187500.02235174447, 187500.0, 32484.036086086762, 40942.02559495278, 187500.0, 187500.0, -187500.02235174447, 32827.91767453166, -0.08600000000000001, 0.978, -0.066, 192.0, 0.0, 0.0, 0.0, 0.0, 0.0, 0.0, 0.0, 0.0, 0.0, 1.6989589323166552E9, 0.0, 2023-11-02 17:02:12.316
22.0, -187500.02235174447, 187500.0, 32486.941812865953, 40940.55037981873, 187500.0, 187500.0, -187500.02235174447, 32830.30931118838, -0.08600000000000001, 0.978, -0.066, 192.0, 0.0, 0.0, 0.0, 0.0, 0.0, 0.0, 0.0, 0.0, 0.0, 1.6989589323166652E9, 0.0, 2023-11-02 17:02:12.316
23.0, -187500.02235174447, 187500.0, 32484.639583187054, 40937.48819082835, 187500.0, 187500.0, -187500.02235174447, 32828.85644779878, -0.08600000000000001, 0.978, -0.066, 192.0, 0.0, 0.0, 0.0, 0.0, 0.0, 0.0, 0.0, 0.0, 0.0, 1.6989589323166757E9, 0.0, 2023-11-02 17:02:12.316
24.0, -187500.02235174447, 187500.0, 32484.036086086762, 40948.93228398947, 187500.0, 187500.0, -187500.02235174447, 32829.750517577, -0.08600000000000001, 0.978, -0.066, 192.0, 0.0, 0.0, 0.0, 0.0, 0.0, 0.0, 0.0, 0.0, 0.0, 1.6989589323166857E9, 0.0, 2023-11-02 17:02:12.316
25.0, -187500.02235174447, 187500.0, 32478.604612184125, 40944.0149002093, 187500.0, 187500.0, -187500.02235174447, 32824.07317448535, -0.08600000000000001, 0.978, -0.066, 192.0, 0.0, 0.0, 0.0, 0.0, 0.0, 0.0, 0.0, 0.0, 0.0, 1.6989589323166957E9, 0.0, 2023-11-02 17:02:12.316
26.0, -187500.02235174447, 187500.0, 32479.23046102887, 40932.25788262581, 187500.0, 187500.0, -187500.02235174447, 32825.3472239193, -0.08600000000000001, 0.978, -0.066, 192.0, 0.0, 0.0, 0.0, 0.0, 0.0, 0.0, 0.0, 0.0, 0.0, 1.6989589323167057E9, 0.0, 2023-11-02 17:02:12.316
27.0, -187500.02235174447, 187500.0, 32487.187682054962, 40934.157780904505, 187500.0, 187500.0, -187500.02235174447, 32833.95264553459, -0.078, 0.984, -0.06, 192.0, 253.0, 144.0, 30.0, 192.0, 254.0, 32.0, 0.0, 0.0, 0.0, 1.6989589323167157E9, 0.0, 2023-11-02 17:02:12.316
28.0, -187500.02235174447, 187500.0, 32484.550176209235, 40955.52604860378, 187500.0, 187500.0, -187500.02235174447, 32833.48325890103, -0.078, 0.984, -0.06, 192.0, 0.0, 0.0, 0.0, 0.0, 0.0, 0.0, 0.0, 0.0, 0.0, 1.698958932316742E9, 0.0, 2023-11-02 17:02:12.316
29.0, -187500.02235174447, 187500.0, 32484.57252795369, 40959.34819690564, 187500.0, 187500.0, -187500.02235174447, 32834.042052512414, -0.078, 0.984, -0.06, 192.0, 0.0, 0.0, 0.0, 0.0, 0.0, 0.0, 0.0, 0.0, 0.0, 1.6989589323167522E9, 0.0, 2023-11-02 17:02:12.316
30.0, -187500.02235174447, 187500.0, 32491.926251879486, 40956.53187710427, 187500.0, 187500.0, -187500.02235174447, 32840.81463108237, -0.078, 0.984, -0.06, 192.0, 0.0, 0.0, 0.0, 0.0, 0.0, 0.0, 0.0, 0.0, 0.0, 1.698958932316763E9, 0.0, 2023-11-02 17:02:12.316
31.0, -187500.02235174447, 187500.0, 32489.065228589207, 40954.90019975903, 187500.0, 187500.0, -187500.02235174447, 32835.181991479636, -0.078, 0.984, -0.06, 192.0, 0.0, 0.0, 0.0, 0.0, 0.0, 0.0, 0.0, 0.0, 0.0, 1.6989589323167732E9, 0.0, 2023-11-02 17:02:12.316
32.0, -187500.02235174447, 187500.0, 32483.7678651533, 40956.330711404175, 187500.0, 187500.0, -187500.02235174447, 32829.504648387985, -0.078, 0.984, -0.06, 192.0, 0.0, 0.0, 0.0, 0.0, 0.0, 0.0, 0.0, 0.0, 0.0, 1.6989589323167844E9, 0.0, 2023-11-02 17:02:12.316
33.0, -187500.02235174447, 187500.0, 32479.163405795505, 40957.515353860304, 187500.0, 187500.0, -187500.02235174447, 32825.12370647475, -0.078, 0.984, -0.06, 192.0, 0.0, 0.0, 0.0, 0.0, 0.0, 0.0, 0.0, 0.0, 0.0, 1.698958932316795E9, 0.0, 2023-11-02 17:02:12.316
34.0, -187500.02235174447, 187500.0, 32482.471463974893, 40946.29477814374, 187500.0, 187500.0, -187500.02235174447, 32826.35305241979, -0.078, 0.984, -0.06, 192.0, 0.0, 0.0, 0.0, 0.0, 0.0, 0.0, 0.0, 0.0, 0.0, 1.6989589323168058E9, 0.0, 2023-11-02 17:02:12.316
35.0, -187500.02235174447, 187500.0, 32480.683324418467, 40946.272426399286, 187500.0, 187500.0, -187500.02235174447, 32826.3977559087, -0.078, 0.984, -0.06, 192.0, 0.0, 0.0, 0.0, 0.0, 0.0, 0.0, 0.0, 0.0, 0.0, 1.6989589323168166E9, 0.0, 2023-11-02 17:02:12.316
36.0, -187500.02235174447, 187500.0, 32479.05164707323, 40952.0168247243, 187500.0, 187500.0, -187500.02235174447, 32825.90601753069, -0.078, 0.984, -0.06, 192.0, 0.0, 0.0, 0.0, 0.0, 0.0, 0.0, 0.0, 0.0, 0.0, 1.698958932316827E9, 0.0, 2023-11-02 17:02:12.316
37.0, -187500.02235174447, 187500.0, 32476.280030760772, 40953.760260791816, 187500.0, 187500.0, -187500.02235174447, 32824.72137507455, -0.078, 0.978, -0.06, 192.0, 253.0, 144.0, 30.0, 144.0, 254.0, 32.0, 0.0, 0.0, 0.0, 1.698958932316838E9, 0.0, 2023-11-02 17:02:12.316
38.0, -187500.02235174447, 187500.0, 32475.7659406383, 40949.28991190075, 187500.0, 187500.0, -187500.02235174447, 32824.45315414109, -0.078, 0.978, -0.06, 192.0, 0.0, 0.0, 0.0, 0.0, 0.0, 0.0, 0.0, 0.0, 0.0, 1.6989589323168497E9, 0.0, 2023-11-02 17:02:12.316
39.0, -187500.02235174447, 187500.0, 32467.115815534096, 40944.238417653854, 187500.0, 187500.0, -187500.02235174447, 32816.74180230401, -0.078, 0.978, -0.06, 192.0, 0.0, 0.0, 0.0, 0.0, 0.0, 0.0, 0.0, 0.0, 0.0, 1.698958932316861E9, 0.0, 2023-11-02 17:02:12.316
40.0, -187500.02235174447, 187500.0, 32463.42777769897, 40946.272426399286, 187500.0, 187500.0, -187500.02235174447, 32815.6465668257, -0.078, 0.978, -0.06, 192.0, 0.0, 0.0, 0.0, 0.0, 0.0, 0.0, 0.0, 0.0, 0.0, 1.698958932316872E9, 0.0, 2023-11-02 17:02:12.316
41.0, -187500.02235174447, 187500.0, 32465.439434699947, 40954.58727533666, 187500.0, 187500.0, -187500.02235174447, 32819.60282559429, -0.078, 0.978, -0.06, 192.0, 0.0, 0.0, 0.0, 0.0, 0.0, 0.0, 0.0, 0.0, 0.0, 1.698958932316883E9, 0.0, 2023-11-02 17:02:12.316
42.0, -187500.02235174447, 187500.0, 32462.980742809865, 40946.67475779948, 187500.0, 187500.0, -187500.02235174447, 32819.82634303884, -0.078, 0.978, -0.06, 192.0, 0.0, 0.0, 0.0, 0.0, 0.0, 0.0, 0.0, 0.0, 0.0, 1.6989589323168943E9, 0.0, 2023-11-02 17:02:12.316
43.0, -187500.02235174447, 187500.0, 32459.94090556394, 40944.68545254296, 187500.0, 187500.0, -187500.02235174447, 32819.02168023845, -0.078, 0.978, -0.06, 192.0, 0.0, 0.0, 0.0, 0.0, 0.0, 0.0, 0.0, 0.0, 0.0, 1.698958932316986E9, 0.0, 2023-11-02 17:02:12.316
0.0, 0.0, 0.0, 0.0, 0.0, 0.0, 0.0, 0.0, 0.0, -0.078, 0.978, -0.06, 192.0, 0.0, 0.0, 0.0, 0.0, 0.0, 0.0, 0.0, 0.0, 0.0, 1.6989589323950362E9, 0.0, 2023-11-02 17:02:12.395
1.0, -187500.02235174447, 187500.0, 32392.148064630994, 40794.50408154775, 187500.0, 187500.0, -187500.02235174447, 32788.57860429032, -0.082, 0.982, -0.066, 192.0, 253.0, 112.0, 30.0, 176.0, 253.0, 240.0, 0.0, 0.0, 0.0, 1.6989589328757498E9, 0.0, 2023-11-02 17:02:12.875
2.0, -187500.02235174447, 187500.0, 32390.203462863385, 40792.26890710222, 187500.0, 187500.0, -187500.02235174447, 32784.75645598846, -0.082, 0.982, -0.066, 192.0, 0.0, 0.0, 0.0, 0.0, 0.0, 0.0, 0.0, 0.0, 0.0, 1.6989589328758228E9, 0.0, 2023-11-02 17:02:12.875
3.0, -187500.02235174447, 187500.0, 32398.294794356203, 40785.4292732989, 187500.0, 187500.0, -187500.02235174447, 32787.81864497884, -0.082, 0.982, -0.066, 192.0, 0.0, 0.0, 0.0, 0.0, 0.0, 0.0, 0.0, 0.0, 0.0, 1.6989589328758361E9, 0.0, 2023-11-02 17:02:12.875
4.0, -187500.02235174447, 187500.0, 32401.066410668664, 40779.99779939625, 187500.0, 187500.0, -187500.02235174447, 32789.07034266834, -0.082, 0.982, -0.066, 192.0, 0.0, 0.0, 0.0, 0.0, 0.0, 0.0, 0.0, 0.0, 0.0, 1.698958932875851E9, 0.0, 2023-11-02 17:02:12.875
5.0, -187500.02235174447, 187500.0, 32401.17816939094, 40781.40595929694, 187500.0, 187500.0, -187500.02235174447, 32787.505720556466, -0.082, 0.982, -0.066, 192.0, 0.0, 0.0, 0.0, 0.0, 0.0, 0.0, 0.0, 0.0, 0.0, 1.6989589328759131E9, 0.0, 2023-11-02 17:02:12.875
6.0, -187500.02235174447, 187500.0, 32393.80209372069, 40779.64017148497, 187500.0, 187500.0, -187500.02235174447, 32780.017886163936, -0.082, 0.982, -0.066, 192.0, 0.0, 0.0, 0.0, 0.0, 0.0, 0.0, 0.0, 0.0, 0.0, 1.6989589328759305E9, 0.0, 2023-11-02 17:02:12.875
7.0, -187500.02235174447, 187500.0, 32390.22581460784, 40766.00560736723, 187500.0, 187500.0, -187500.02235174447, 32774.362894816746, -0.082, 0.982, -0.066, 192.0, 0.0, 0.0, 0.0, 0.0, 0.0, 0.0, 0.0, 0.0, 0.0, 1.6989589328759768E9, 0.0, 2023-11-02 17:02:12.875
8.0, -187500.02235174447, 187500.0, 32390.65049775249, 40757.98133110778, 187500.0, 187500.0, -187500.02235174447, 32774.20643260556, -0.08600000000000001, 0.98, -0.07200000000000001, 192.0, 253.0, 80.0, 30.0, 160.0, 253.0, 192.0, 0.0, 0.0, 0.0, 1.6989589328760023E9, 0.0, 2023-11-02 17:02:12.876
9.0, -187500.02235174447, 187500.0, 32387.476550039835, 40753.46627872781, 187500.0, 187500.0, -187500.02235174447, 32770.5854500038, -0.08600000000000001, 0.98, -0.07200000000000001, 192.0, 0.0, 0.0, 0.0, 0.0, 0.0, 0.0, 0.0, 0.0, 0.0, 1.6989589328760223E9, 0.0, 2023-11-02 17:02:12.876
10.0, -187500.02235174447, 187500.0, 32390.114055885562, 40759.27773228619, 187500.0, 187500.0, -187500.02235174447, 32765.891583668184, -0.08600000000000001, 0.98, -0.07200000000000001, 192.0, 0.0, 0.0, 0.0, 0.0, 0.0, 0.0, 0.0, 0.0, 0.0, 1.6989589328760476E9, 0.0, 2023-11-02 17:02:12.876
11.0, -187500.02235174447, 187500.0, 32391.723381486343, 40758.67423518589, 187500.0, 187500.0, -187500.02235174447, 32760.504813254454, -0.08600000000000001, 0.98, -0.07200000000000001, 192.0, 0.0, 0.0, 0.0, 0.0, 0.0, 0.0, 0.0, 0.0, 0.0, 1.6989589328760612E9, 0.0, 2023-11-02 17:02:12.876
12.0, -187500.02235174447, 187500.0, 32395.478474554835, 40755.88026712898, 187500.0, 187500.0, -187500.02235174447, 32762.002380132963, -0.08600000000000001, 0.98, -0.07200000000000001, 192.0, 0.0, 0.0, 0.0, 0.0, 0.0, 0.0, 0.0, 0.0, 0.0, 1.698958932876089E9, 0.0, 2023-11-02 17:02:12.876
13.0, -187500.02235174447, 187500.0, 32402.78749499172, 40761.44585149835, 187500.0, 187500.0, -187500.02235174447, 32766.00334239046, -0.08600000000000001, 0.98, -0.07200000000000001, 192.0, 0.0, 0.0, 0.0, 0.0, 0.0, 0.0, 0.0, 0.0, 0.0, 1.698958932876102E9, 0.0, 2023-11-02 17:02:12.876
14.0, -187500.02235174447, 187500.0, 32402.519274058257, 40768.151374834946, 187500.0, 187500.0, -187500.02235174447, 32763.365836544734, -0.08600000000000001, 0.98, -0.07200000000000001, 192.0, 0.0, 0.0, 0.0, 0.0, 0.0, 0.0, 0.0, 0.0, 0.0, 1.6989589328764553E9, 0.0, 2023-11-02 17:02:12.876
15.0, -187500.02235174447, 187500.0, 32395.277308854736, 40762.40697650993, 187500.0, 187500.0, -187500.02235174447, 32752.748757928464, -0.08600000000000001, 0.98, -0.07200000000000001, 192.0, 0.0, 0.0, 0.0, 0.0, 0.0, 0.0, 0.0, 0.0, 0.0, 1.6989589328764727E9, 0.0, 2023-11-02 17:02:12.876
16.0, -187500.02235174447, 187500.0, 32399.166512389962, 40758.16014506342, 187500.0, 187500.0, -187500.02235174447, 32753.19579281757, -0.08600000000000001, 0.98, -0.07200000000000001, 192.0, 0.0, 0.0, 0.0, 0.0, 0.0, 0.0, 0.0, 0.0, 0.0, 1.6989589328764856E9, 0.0, 2023-11-02 17:02:12.876
17.0, -187500.02235174447, 187500.0, 32405.60381479309, 40762.22816255429, 187500.0, 187500.0, -187500.02235174447, 32755.833298663296, -0.08600000000000001, 0.98, -0.07200000000000001, 192.0, 0.0, 0.0, 0.0, 0.0, 0.0, 0.0, 0.0, 0.0, 0.0, 1.6989589328764963E9, 0.0, 2023-11-02 17:02:12.876
18.0, -187500.02235174447, 187500.0, 32405.045021181708, 40771.39237778096, 187500.0, 187500.0, -187500.02235174447, 32751.072377094315, -0.08600000000000001, 0.982, -0.07200000000000001, 192.0, 253.0, 80.0, 30.0, 176.0, 253.0, 192.0, 0.0, 0.0, 0.0, 1.698958932876508E9, 0.0, 2023-11-02 17:02:12.876
19.0, -187500.02235174447, 187500.0, 32402.675736269444, 40775.88507841648, 187500.0, 187500.0, -187500.02235174447, 32747.54080147038, -0.08600000000000001, 0.982, -0.07200000000000001, 192.0, 0.0, 0.0, 0.0, 0.0, 0.0, 0.0, 0.0, 0.0, 0.0, 1.6989589328765197E9, 0.0, 2023-11-02 17:02:12.876
20.0, -187500.02235174447, 187500.0, 32401.60285253559, 40767.83845041257, 187500.0, 187500.0, -187500.02235174447, 32745.506792724944, -0.08600000000000001, 0.982, -0.07200000000000001, 192.0, 0.0, 0.0, 0.0, 0.0, 0.0, 0.0, 0.0, 0.0, 0.0, 1.698958932876532E9, 0.0, 2023-11-02 17:02:12.876
21.0, -187500.02235174447, 187500.0, 32400.93230020193, 40762.16110732092, 187500.0, 187500.0, -187500.02235174447, 32741.729347911998, -0.08600000000000001, 0.982, -0.07200000000000001, 192.0, 0.0, 0.0, 0.0, 0.0, 0.0, 0.0, 0.0, 0.0, 0.0, 1.6989589328765447E9, 0.0, 2023-11-02 17:02:12.876
22.0, -187500.02235174447, 187500.0, 32403.16747464746, 40764.26217129972, 187500.0, 187500.0, -187500.02235174447, 32740.14237405567, -0.08600000000000001, 0.982, -0.07200000000000001, 192.0, 0.0, 0.0, 0.0, 0.0, 0.0, 0.0, 0.0, 0.0, 0.0, 1.698958932876557E9, 0.0, 2023-11-02 17:02:12.876
23.0, -187500.02235174447, 187500.0, 32405.51440781527, 40767.68198820138, 187500.0, 187500.0, -187500.02235174447, 32741.058795578338, -0.08600000000000001, 0.982, -0.07200000000000001, 192.0, 0.0, 0.0, 0.0, 0.0, 0.0, 0.0, 0.0, 0.0, 0.0, 1.6989589328765707E9, 0.0, 2023-11-02 17:02:12.876
24.0, -187500.02235174447, 187500.0, 32409.56007356168, 40768.73252019078, 187500.0, 187500.0, -187500.02235174447, 32742.981045601497, -0.08600000000000001, 0.982, -0.07200000000000001, 192.0, 0.0, 0.0, 0.0, 0.0, 0.0, 0.0, 0.0, 0.0, 0.0, 1.698958932876582E9, 0.0, 2023-11-02 17:02:12.876
25.0, -187500.02235174447, 187500.0, 32413.27046314126, 40763.368101521504, 187500.0, 187500.0, -187500.02235174447, 32744.791536902376, -0.08600000000000001, 0.982, -0.07200000000000001, 192.0, 0.0, 0.0, 0.0, 0.0, 0.0, 0.0, 0.0, 0.0, 0.0, 1.698958932876594E9, 0.0, 2023-11-02 17:02:12.876
26.0, -187500.02235174447, 187500.0, 32412.28698638523, 40765.08918584457, 187500.0, 187500.0, -187500.02235174447, 32742.75752815694, -0.08600000000000001, 0.982, -0.07200000000000001, 192.0, 0.0, 0.0, 0.0, 0.0, 0.0, 0.0, 0.0, 0.0, 0.0, 1.6989589328766074E9, 0.0, 2023-11-02 17:02:12.876
27.0, -187500.02235174447, 187500.0, 32414.56686431967, 40772.50996500373, 187500.0, 187500.0, -187500.02235174447, 32743.4280804906, -0.08600000000000001, 0.982, -0.07200000000000001, 192.0, 0.0, 0.0, 0.0, 0.0, 0.0, 0.0, 0.0, 0.0, 0.0, 1.6989589328766427E9, 0.0, 2023-11-02 17:02:12.876
28.0, -187500.02235174447, 187500.0, 32414.857436997587, 40768.97838937979, 187500.0, 187500.0, -187500.02235174447, 32740.90233336715, -0.078, 0.982, -0.074, 192.0, 253.0, 144.0, 30.0, 176.0, 253.0, 176.0, 0.0, 0.0, 0.0, 1.6989589328766594E9, 0.0, 2023-11-02 17:02:12.876
29.0, -187500.02235174447, 187500.0, 32408.30837587218, 40755.92497061789, 187500.0, 187500.0, -187500.02235174447, 32733.3250919968, -0.078, 0.982, -0.074, 192.0, 0.0, 0.0, 0.0, 0.0, 0.0, 0.0, 0.0, 0.0, 0.0, 1.6989589328768396E9, 0.0, 2023-11-02 17:02:12.876
30.0, -187500.02235174447, 187500.0, 32403.21217813637, 40755.03090083968, 187500.0, 187500.0, -187500.02235174447, 32727.915969838617, -0.078, 0.982, -0.074, 192.0, 0.0, 0.0, 0.0, 0.0, 0.0, 0.0, 0.0, 0.0, 0.0, 1.698958932876856E9, 0.0, 2023-11-02 17:02:12.876
31.0, -187500.02235174447, 187500.0, 32389.93524192992, 40753.0192438387, 187500.0, 187500.0, -187500.02235174447, 32712.783838842373, -0.078, 0.982, -0.074, 192.0, 0.0, 0.0, 0.0, 0.0, 0.0, 0.0, 0.0, 0.0, 0.0, 1.6989589328768673E9, 0.0, 2023-11-02 17:02:12.876
32.0, -187500.02235174447, 187500.0, 32394.338535587616, 40752.41574673841, 187500.0, 187500.0, -187500.02235174447, 32716.829504588786, -0.078, 0.982, -0.074, 192.0, 0.0, 0.0, 0.0, 0.0, 0.0, 0.0, 0.0, 0.0, 0.0, 1.6989589328768804E9, 0.0, 2023-11-02 17:02:12.876
33.0, -187500.02235174447, 187500.0, 32396.573710033146, 40748.99592983675, 187500.0, 187500.0, -187500.02235174447, 32718.70705112303, -0.078, 0.982, -0.074, 192.0, 0.0, 0.0, 0.0, 0.0, 0.0, 0.0, 0.0, 0.0, 0.0, 1.6989589328768911E9, 0.0, 2023-11-02 17:02:12.876
34.0, -187500.02235174447, 187500.0, 32394.02561116524, 40746.49253445775, 187500.0, 187500.0, -187500.02235174447, 32717.56711215581, -0.078, 0.982, -0.074, 192.0, 0.0, 0.0, 0.0, 0.0, 0.0, 0.0, 0.0, 0.0, 0.0, 1.6989589328769064E9, 0.0, 2023-11-02 17:02:12.876
35.0, -187500.02235174447, 187500.0, 32403.07806766964, 40762.49638348775, 187500.0, 187500.0, -187500.02235174447, 32729.01120531693, -0.078, 0.982, -0.074, 192.0, 0.0, 0.0, 0.0, 0.0, 0.0, 0.0, 0.0, 0.0, 0.0, 1.6989589328769188E9, 0.0, 2023-11-02 17:02:12.876
36.0, -187500.02235174447, 187500.0, 32404.240358381317, 40772.73348244828, 187500.0, 187500.0, -187500.02235174447, 32730.41936521761, -0.078, 0.982, -0.074, 192.0, 0.0, 0.0, 0.0, 0.0, 0.0, 0.0, 0.0, 0.0, 0.0, 1.6989589328769348E9, 0.0, 2023-11-02 17:02:12.876
37.0, -187500.02235174447, 187500.0, 32401.37933509104, 40766.9220288899, 187500.0, 187500.0, -187500.02235174447, 32728.00537681644, -0.074, 0.974, -0.07, 192.0, 253.0, 176.0, 30.0, 112.0, 253.0, 208.0, 0.0, 0.0, 0.0, 1.6989589328769555E9, 0.0, 2023-11-02 17:02:12.876
38.0, -187500.02235174447, 187500.0, 32408.017803194263, 40763.41280501042, 187500.0, 187500.0, -187500.02235174447, 32730.41936521761, -0.074, 0.974, -0.07, 192.0, 0.0, 0.0, 0.0, 0.0, 0.0, 0.0, 0.0, 0.0, 0.0, 1.69895893287697E9, 0.0, 2023-11-02 17:02:12.876
39.0, -187500.02235174447, 187500.0, 32410.118867173063, 40769.246610313254, 187500.0, 187500.0, -187500.02235174447, 32729.05590880584, -0.074, 0.974, -0.07, 192.0, 0.0, 0.0, 0.0, 0.0, 0.0, 0.0, 0.0, 0.0, 0.0, 1.6989589328769855E9, 0.0, 2023-11-02 17:02:12.876
40.0, -187500.02235174447, 187500.0, 32410.677660784444, 40765.200944566845, 187500.0, 187500.0, -187500.02235174447, 32727.75950762743, -0.074, 0.974, -0.07, 192.0, 0.0, 0.0, 0.0, 0.0, 0.0, 0.0, 0.0, 0.0, 0.0, 1.6989589328770337E9, 0.0, 2023-11-02 17:02:12.877
41.0, -187500.02235174447, 187500.0, 32404.41917233696, 40750.29233101515, 187500.0, 187500.0, -187500.02235174447, 32722.05981279133, -0.074, 0.974, -0.07, 192.0, 0.0, 0.0, 0.0, 0.0, 0.0, 0.0, 0.0, 0.0, 0.0, 1.6989589328770533E9, 0.0, 2023-11-02 17:02:12.877
42.0, -187500.02235174447, 187500.0, 32397.959518189375, 40741.12811578847, 187500.0, 187500.0, -187500.02235174447, 32717.321242966802, -0.074, 0.974, -0.07, 192.0, 0.0, 0.0, 0.0, 0.0, 0.0, 0.0, 0.0, 0.0, 0.0, 1.6989589328770697E9, 0.0, 2023-11-02 17:02:12.877
43.0, -187500.02235174447, 187500.0, 32393.690334998413, 40738.49060994275, 187500.0, 187500.0, -187500.02235174447, 32712.58267314228, -0.074, 0.974, -0.07, 192.0, 0.0, 0.0, 0.0, 0.0, 0.0, 0.0, 0.0, 0.0, 0.0, 1.6989589328770876E9, 0.0, 2023-11-02 17:02:12.877
44.0, -187500.02235174447, 187500.0, 32394.22677686534, 40746.2690170132, 187500.0, 187500.0, -187500.02235174447, 32712.068583019805, -0.074, 0.974, -0.07, 192.0, 0.0, 0.0, 0.0, 0.0, 0.0, 0.0, 0.0, 0.0, 0.0, 1.6989589328771756E9, 0.0, 2023-11-02 17:02:12.877
45.0, -187500.02235174447, 187500.0, 32394.60675652108, 40749.599426937035, 187500.0, 187500.0, -187500.02235174447, 32710.794533585853, -0.074, 0.974, -0.07, 192.0, 0.0, 0.0, 0.0, 0.0, 0.0, 0.0, 0.0, 0.0, 0.0, 1.698958932877195E9, 0.0, 2023-11-02 17:02:12.877
46.0, -187500.02235174447, 187500.0, 32395.567881532657, 40746.76075539122, 187500.0, 187500.0, -187500.02235174447, 32710.23573997447, -0.074, 0.974, -0.07, 192.0, 0.0, 0.0, 0.0, 0.0, 0.0, 0.0, 0.0, 0.0, 0.0, 1.698958932877208E9, 0.0, 2023-11-02 17:02:12.877
47.0, -187500.02235174447, 187500.0, 32403.681564769933, 40754.76267990621, 187500.0, 187500.0, -187500.02235174447, 32718.61764414521, -0.08, 0.9580000000000001, -0.07200000000000001, 192.0, 253.0, 128.0, 29.0, 240.0, 253.0, 192.0, 0.0, 0.0, 0.0, 1.6989589328772426E9, 0.0, 2023-11-02 17:02:12.877
48.0, -187500.02235174447, 187500.0, 32404.910910714974, 40763.524563732695, 187500.0, 187500.0, -187500.02235174447, 32719.80228660134, -0.08, 0.9580000000000001, -0.07200000000000001, 192.0, 0.0, 0.0, 0.0, 0.0, 0.0, 0.0, 0.0, 0.0, 0.0, 1.6989589328772807E9, 0.0, 2023-11-02 17:02:12.877
49.0, -187500.02235174447, 187500.0, 32404.866207226063, 40755.410880495416, 187500.0, 187500.0, -187500.02235174447, 32716.829504588786, -0.08, 0.9580000000000001, -0.07200000000000001, 192.0, 0.0, 0.0, 0.0, 0.0, 0.0, 0.0, 0.0, 0.0, 0.0, 1.6989589328774104E9, 0.0, 2023-11-02 17:02:12.877
50.0, -187500.02235174447, 187500.0, 32404.687393270422, 40749.37590949248, 187500.0, 187500.0, -187500.02235174447, 32714.102591765237, -0.08, 0.9580000000000001, -0.07200000000000001, 192.0, 0.0, 0.0, 0.0, 0.0, 0.0, 0.0, 0.0, 0.0, 0.0, 1.6989589328774292E9, 0.0, 2023-11-02 17:02:12.877
51.0, -187500.02235174447, 187500.0, 32401.044058924206, 40752.84042988306, 187500.0, 187500.0, -187500.02235174447, 32708.447600418047, -0.08, 0.9580000000000001, -0.07200000000000001, 192.0, 0.0, 0.0, 0.0, 0.0, 0.0, 0.0, 0.0, 0.0, 0.0, 1.698958932877443E9, 0.0, 2023-11-02 17:02:12.877
52.0, -187500.02235174447, 187500.0, 32395.36671583256, 40762.049348598644, 187500.0, 187500.0, -187500.02235174447, 32704.96072828302, -0.08, 0.9580000000000001, -0.07200000000000001, 192.0, 0.0, 0.0, 0.0, 0.0, 0.0, 0.0, 0.0, 0.0, 0.0, 1.698958932877457E9, 0.0, 2023-11-02 17:02:12.877
53.0, -187500.02235174447, 187500.0, 32392.50569254228, 40754.40505199493, 187500.0, 187500.0, -187500.02235174447, 32704.826617816285, -0.08, 0.9580000000000001, -0.07200000000000001, 192.0, 0.0, 0.0, 0.0, 0.0, 0.0, 0.0, 0.0, 0.0, 0.0, 1.698958932877473E9, 0.0, 2023-11-02 17:02:12.877
54.0, -187500.02235174447, 187500.0, 32392.88567219802, 40747.855990869524, 187500.0, 187500.0, -187500.02235174447, 32704.267824204904, -0.08, 0.9580000000000001, -0.07200000000000001, 192.0, 0.0, 0.0, 0.0, 0.0, 0.0, 0.0, 0.0, 0.0, 0.0, 1.6989589328774874E9, 0.0, 2023-11-02 17:02:12.877
55.0, -187500.02235174447, 187500.0, 32395.120846643553, 40751.23110428228, 187500.0, 187500.0, -187500.02235174447, 32705.251300960936, -0.08, 0.9580000000000001, -0.07200000000000001, 192.0, 0.0, 0.0, 0.0, 0.0, 0.0, 0.0, 0.0, 0.0, 0.0, 1.6989589328775E9, 0.0, 2023-11-02 17:02:12.877
56.0, -187500.02235174447, 187500.0, 32395.254957110283, 40759.59065670856, 187500.0, 187500.0, -187500.02235174447, 32705.228949216482, -0.08, 0.9580000000000001, -0.07200000000000001, 192.0, 0.0, 0.0, 0.0, 0.0, 0.0, 0.0, 0.0, 0.0, 0.0, 1.6989589328775144E9, 0.0, 2023-11-02 17:02:12.877
57.0, -187500.02235174447, 187500.0, 32394.40559082098, 40752.43809848286, 187500.0, 187500.0, -187500.02235174447, 32705.251300960936, -0.082, 0.972, -0.066, 192.0, 253.0, 112.0, 30.0, 96.0, 253.0, 240.0, 0.0, 0.0, 0.0, 1.698958932877532E9, 0.0, 2023-11-02 17:02:12.877
58.0, -187500.02235174447, 187500.0, 32396.685468755422, 40741.552798933124, 187500.0, 187500.0, -187500.02235174447, 32707.777048084386, -0.082, 0.972, -0.066, 192.0, 0.0, 0.0, 0.0, 0.0, 0.0, 0.0, 0.0, 0.0, 0.0, 1.6989589328775463E9, 0.0, 2023-11-02 17:02:12.877
59.0, -187500.02235174447, 187500.0, 32398.384201334025, 40740.92695008838, 187500.0, 187500.0, -187500.02235174447, 32708.939338796063, -0.082, 0.972, -0.066, 192.0, 0.0, 0.0, 0.0, 0.0, 0.0, 0.0, 0.0, 0.0, 0.0, 1.698958932877606E9, 0.0, 2023-11-02 17:02:12.877
60.0, -187500.02235174447, 187500.0, 32396.730172244334, 40747.14073504695, 187500.0, 187500.0, -187500.02235174447, 32704.111361993717, -0.082, 0.972, -0.066, 192.0, 0.0, 0.0, 0.0, 0.0, 0.0, 0.0, 0.0, 0.0, 0.0, 1.6989589328776262E9, 0.0, 2023-11-02 17:02:12.877
61.0, -187500.02235174447, 187500.0, 32397.736000744822, 40744.97261583479, 187500.0, 187500.0, -187500.02235174447, 32702.14440848165, -0.082, 0.972, -0.066, 192.0, 0.0, 0.0, 0.0, 0.0, 0.0, 0.0, 0.0, 0.0, 0.0, 1.6989589328776412E9, 0.0, 2023-11-02 17:02:12.877
62.0, -187500.02235174447, 187500.0, 32402.36281184707, 40742.67038615589, 187500.0, 187500.0, -187500.02235174447, 32701.60796661472, -0.082, 0.972, -0.066, 192.0, 0.0, 0.0, 0.0, 0.0, 0.0, 0.0, 0.0, 0.0, 0.0, 1.6989589328776543E9, 0.0, 2023-11-02 17:02:12.877
63.0, -187500.02235174447, 187500.0, 32410.65530903999, 40740.32345298809, 187500.0, 187500.0, -187500.02235174447, 32705.698335850044, -0.082, 0.972, -0.066, 192.0, 0.0, 0.0, 0.0, 0.0, 0.0, 0.0, 0.0, 0.0, 0.0, 1.6989589328778288E9, 0.0, 2023-11-02 17:02:12.877
64.0, -187500.02235174447, 187500.0, 32416.98085272084, 40748.34772924754, 187500.0, 187500.0, -187500.02235174447, 32709.118152751704, -0.082, 0.972, -0.066, 192.0, 0.0, 0.0, 0.0, 0.0, 0.0, 0.0, 0.0, 0.0, 0.0, 1.6989589328778393E9, 0.0, 2023-11-02 17:02:12.877
65.0, -187500.02235174447, 187500.0, 32417.94197773242, 40751.09699381555, 187500.0, 187500.0, -187500.02235174447, 32708.00056552894, -0.082, 0.972, -0.066, 192.0, 0.0, 0.0, 0.0, 0.0, 0.0, 0.0, 0.0, 0.0, 0.0, 1.6989589328778496E9, 0.0, 2023-11-02 17:02:12.877
66.0, -187500.02235174447, 187500.0, 32428.13437320404, 40743.83267686757, 187500.0, 187500.0, -187500.02235174447, 32718.639995889665, -0.082, 0.972, -0.066, 192.0, 0.0, 0.0, 0.0, 0.0, 0.0, 0.0, 0.0, 0.0, 0.0, 1.6989589328778598E9, 0.0, 2023-11-02 17:02:12.877
67.0, -187500.02235174447, 187500.0, 32431.733004061345, 40746.53723794666, 187500.0, 187500.0, -187500.02235174447, 32722.3727372137, -0.09, 0.984, -0.066, 192.0, 253.0, 48.0, 30.0, 192.0, 253.0, 240.0, 0.0, 0.0, 0.0, 1.69895893287787E9, 0.0, 2023-11-02 17:02:12.877
68.0, -187500.02235174447, 187500.0, 32436.51627737478, 40748.705357158826, 187500.0, 187500.0, -187500.02235174447, 32722.551551169345, -0.09, 0.984, -0.066, 192.0, 0.0, 0.0, 0.0, 0.0, 0.0, 0.0, 0.0, 0.0, 0.0, 1.6989589328778813E9, 0.0, 2023-11-02 17:02:12.877
69.0, -187500.02235174447, 187500.0, 32436.203352952405, 40755.56734270661, 187500.0, 187500.0, -187500.02235174447, 32719.735231367977, -0.09, 0.984, -0.066, 192.0, 0.0, 0.0, 0.0, 0.0, 0.0, 0.0, 0.0, 0.0, 0.0, 1.6989589328778987E9, 0.0, 2023-11-02 17:02:12.877
70.0, -187500.02235174447, 187500.0, 32434.571675607167, 40744.14560128994, 187500.0, 187500.0, -187500.02235174447, 32718.66234763412, -0.09, 0.984, -0.066, 192.0, 0.0, 0.0, 0.0, 0.0, 0.0, 0.0, 0.0, 0.0, 0.0, 1.6989589328779092E9, 0.0, 2023-11-02 17:02:12.877
71.0, -187500.02235174447, 187500.0, 32432.269445928272, 40735.47312444128, 187500.0, 187500.0, -187500.02235174447, 32715.175475499094, -0.09, 0.984, -0.066, 192.0, 0.0, 0.0, 0.0, 0.0, 0.0, 0.0, 0.0, 0.0, 0.0, 1.6989589328779192E9, 0.0, 2023-11-02 17:02:12.877
72.0, -187500.02235174447, 187500.0, 32428.447297626415, 40735.428420952376, 187500.0, 187500.0, -187500.02235174447, 32711.08510626377, -0.09, 0.984, -0.066, 192.0, 0.0, 0.0, 0.0, 0.0, 0.0, 0.0, 0.0, 0.0, 0.0, 1.6989589328779294E9, 0.0, 2023-11-02 17:02:12.877
73.0, -187500.02235174447, 187500.0, 32425.630977825047, 40728.991118549246, 187500.0, 187500.0, -187500.02235174447, 32707.4194201731, -0.09, 0.984, -0.066, 192.0, 0.0, 0.0, 0.0, 0.0, 0.0, 0.0, 0.0, 0.0, 0.0, 1.698958932877956E9, 0.0, 2023-11-02 17:02:12.877
74.0, -187500.02235174447, 187500.0, 32432.761184306288, 40728.78995284915, 187500.0, 187500.0, -187500.02235174447, 32712.58267314228, -0.09, 0.984, -0.066, 192.0, 0.0, 0.0, 0.0, 0.0, 0.0, 0.0, 0.0, 0.0, 0.0, 1.6989589328779657E9, 0.0, 2023-11-02 17:02:12.877
75.0, -187500.02235174447, 187500.0, 32428.55905634869, 40728.23115923777, 187500.0, 187500.0, -187500.02235174447, 32706.14537073915, -0.09, 0.984, -0.066, 192.0, 0.0, 0.0, 0.0, 0.0, 0.0, 0.0, 0.0, 0.0, 0.0, 1.698958932878029E9, 0.0, 2023-11-02 17:02:12.878
76.0, -187500.02235174447, 187500.0, 32420.735945789333, 40723.112609757496, 187500.0, 187500.0, -187500.02235174447, 32698.121094479695, -0.09, 0.984, -0.066, 192.0, 0.0, 0.0, 0.0, 0.0, 0.0, 0.0, 0.0, 0.0, 0.0, 1.69895893287804E9, 0.0, 2023-11-02 17:02:12.878
77.0, -187500.02235174447, 187500.0, 32425.6533295695, 40731.427458694874, 187500.0, 187500.0, -187500.02235174447, 32702.122056737193, -0.10400000000000001, 0.986, -0.074, 192.0, 252.0, 192.0, 30.0, 208.0, 253.0, 176.0, 0.0, 0.0, 0.0, 1.6989589328780515E9, 0.0, 2023-11-02 17:02:12.878
78.0, -187500.02235174447, 187500.0, 32430.347195905117, 40728.991118549246, 187500.0, 187500.0, -187500.02235174447, 32704.603100371733, -0.10400000000000001, 0.986, -0.074, 192.0, 0.0, 0.0, 0.0, 0.0, 0.0, 0.0, 0.0, 0.0, 0.0, 1.6989589328780634E9, 0.0, 2023-11-02 17:02:12.878
79.0, -187500.02235174447, 187500.0, 32429.14020170453, 40720.20688297831, 187500.0, 187500.0, -187500.02235174447, 32701.29504219235, -0.10400000000000001, 0.986, -0.074, 192.0, 0.0, 0.0, 0.0, 0.0, 0.0, 0.0, 0.0, 0.0, 0.0, 1.6989589328780732E9, 0.0, 2023-11-02 17:02:12.878
80.0, -187500.02235174447, 187500.0, 32428.71551855988, 40710.64033635144, 187500.0, 187500.0, -187500.02235174447, 32697.919928779596, -0.10400000000000001, 0.986, -0.074, 192.0, 0.0, 0.0, 0.0, 0.0, 0.0, 0.0, 0.0, 0.0, 0.0, 1.6989589328780835E9, 0.0, 2023-11-02 17:02:12.878
81.0, -187500.02235174447, 187500.0, 32429.587236593634, 40720.49745565623, 187500.0, 187500.0, -187500.02235174447, 32700.311565436314, -0.10400000000000001, 0.986, -0.074, 192.0, 0.0, 0.0, 0.0, 0.0, 0.0, 0.0, 0.0, 0.0, 0.0, 1.6989589328780944E9, 0.0, 2023-11-02 17:02:12.878
82.0, -187500.02235174447, 187500.0, 32432.783536050745, 40722.24089172374, 187500.0, 187500.0, -187500.02235174447, 32704.200768971536, -0.10400000000000001, 0.986, -0.074, 192.0, 0.0, 0.0, 0.0, 0.0, 0.0, 0.0, 0.0, 0.0, 0.0, 1.6989589328781044E9, 0.0, 2023-11-02 17:02:12.878
83.0, -187500.02235174447, 187500.0, 32443.84764955612, 40723.313775457595, 187500.0, 187500.0, -187500.02235174447, 32715.24253073246, -0.10400000000000001, 0.986, -0.074, 192.0, 0.0, 0.0, 0.0, 0.0, 0.0, 0.0, 0.0, 0.0, 0.0, 1.6989589328781142E9, 0.0, 2023-11-02 17:02:12.878
84.0, -187500.02235174447, 187500.0, 32442.75241407781, 40730.95807206131, 187500.0, 187500.0, -187500.02235174447, 32714.43786793207, -0.10400000000000001, 0.986, -0.074, 192.0, 0.0, 0.0, 0.0, 0.0, 0.0, 0.0, 0.0, 0.0, 0.0, 1.6989589328781252E9, 0.0, 2023-11-02 17:02:12.878
85.0, -187500.02235174447, 187500.0, 32439.690225087434, 40736.23308375276, 187500.0, 187500.0, -187500.02235174447, 32710.973347541494, -0.10400000000000001, 0.986, -0.074, 192.0, 0.0, 0.0, 0.0, 0.0, 0.0, 0.0, 0.0, 0.0, 0.0, 1.698958932878135E9, 0.0, 2023-11-02 17:02:12.878
86.0, -187500.02235174447, 187500.0, 32441.344254177126, 40740.70343264382, 187500.0, 187500.0, -187500.02235174447, 32712.068583019805, -0.10400000000000001, 0.986, -0.074, 192.0, 0.0, 0.0, 0.0, 0.0, 0.0, 0.0, 0.0, 0.0, 0.0, 1.6989589328781447E9, 0.0, 2023-11-02 17:02:12.878
87.0, -187500.02235174447, 187500.0, 32437.27623668626, 40730.68985112785, 187500.0, 187500.0, -187500.02235174447, 32707.598234128745, -0.096, 0.982, -0.064, 192.0, 253.0, 0.0, 30.0, 176.0, 254.0, 0.0, 0.0, 0.0, 0.0, 1.6989589328781545E9, 0.0, 2023-11-02 17:02:12.878
88.0, -187500.02235174447, 187500.0, 32436.248056441316, 40724.61017663601, 187500.0, 187500.0, -187500.02235174447, 32705.43011491658, -0.096, 0.982, -0.064, 192.0, 0.0, 0.0, 0.0, 0.0, 0.0, 0.0, 0.0, 0.0, 0.0, 1.6989589328781664E9, 0.0, 2023-11-02 17:02:12.878
89.0, -187500.02235174447, 187500.0, 32436.113945974583, 40730.53338891666, 187500.0, 187500.0, -187500.02235174447, 32705.675984105586, -0.096, 0.982, -0.064, 192.0, 0.0, 0.0, 0.0, 0.0, 0.0, 0.0, 0.0, 0.0, 0.0, 1.6989589328781767E9, 0.0, 2023-11-02 17:02:12.878
90.0, -187500.02235174447, 187500.0, 32435.622207596567, 40730.95807206131, 187500.0, 187500.0, -187500.02235174447, 32707.218254473002, -0.096, 0.982, -0.064, 192.0, 0.0, 0.0, 0.0, 0.0, 0.0, 0.0, 0.0, 0.0, 0.0, 1.6989589328782065E9, 0.0, 2023-11-02 17:02:12.878
91.0, -187500.02235174447, 187500.0, 32435.778669807754, 40731.7627348617, 187500.0, 187500.0, -187500.02235174447, 32708.447600418047, -0.096, 0.982, -0.064, 192.0, 0.0, 0.0, 0.0, 0.0, 0.0, 0.0, 0.0, 0.0, 0.0, 1.6989589328782225E9, 0.0, 2023-11-02 17:02:12.878
92.0, -187500.02235174447, 187500.0, 32433.789364551234, 40731.069830783585, 187500.0, 187500.0, -187500.02235174447, 32707.151199239637, -0.096, 0.982, -0.064, 192.0, 0.0, 0.0, 0.0, 0.0, 0.0, 0.0, 0.0, 0.0, 0.0, 1.6989589328782344E9, 0.0, 2023-11-02 17:02:12.878
93.0, -187500.02235174447, 187500.0, 32431.733004061345, 40732.38858370645, 187500.0, 187500.0, -187500.02235174447, 32705.698335850044, -0.096, 0.982, -0.064, 192.0, 0.0, 0.0, 0.0, 0.0, 0.0, 0.0, 0.0, 0.0, 0.0, 1.6989589328782449E9, 0.0, 2023-11-02 17:02:12.878
94.0, -187500.02235174447, 187500.0, 32433.141163962027, 40734.377888962976, 187500.0, 187500.0, -187500.02235174447, 32706.525350394888, -0.096, 0.982, -0.064, 192.0, 0.0, 0.0, 0.0, 0.0, 0.0, 0.0, 0.0, 0.0, 0.0, 1.6989589328782551E9, 0.0, 2023-11-02 17:02:12.878
95.0, -187500.02235174447, 187500.0, 32429.251960426805, 40730.86866508349, 187500.0, 187500.0, -187500.02235174447, 32701.630318359177, -0.096, 0.982, -0.064, 192.0, 0.0, 0.0, 0.0, 0.0, 0.0, 0.0, 0.0, 0.0, 0.0, 1.6989589328782656E9, 0.0, 2023-11-02 17:02:12.878
96.0, -187500.02235174447, 187500.0, 32424.692204557923, 40717.25645271021, 187500.0, 187500.0, -187500.02235174447, 32695.349478167234, -0.096, 0.982, -0.064, 192.0, 0.0, 0.0, 0.0, 0.0, 0.0, 0.0, 0.0, 0.0, 0.0, 1.6989589328782768E9, 0.0, 2023-11-02 17:02:12.878
97.0, -187500.02235174447, 187500.0, 32421.27238765626, 40713.613118363995, 187500.0, 187500.0, -187500.02235174447, 32690.275632175882, -0.068, 0.998, -0.062, 192.0, 253.0, 224.0, 31.0, 48.0, 254.0, 16.0, 0.0, 0.0, 0.0, 1.6989589328782873E9, 0.0, 2023-11-02 17:02:12.878
98.0, -187500.02235174447, 187500.0, 32419.998338222307, 40720.09512425603, 187500.0, 187500.0, -187500.02235174447, 32690.14152170915, -0.068, 0.998, -0.062, 192.0, 0.0, 0.0, 0.0, 0.0, 0.0, 0.0, 0.0, 0.0, 0.0, 1.6989589328783045E9, 0.0, 2023-11-02 17:02:12.878
99.0, -187500.02235174447, 187500.0, 32416.891445743022, 40711.5567578741, 187500.0, 187500.0, -187500.02235174447, 32689.76154205341, -0.068, 0.998, -0.062, 192.0, 0.0, 0.0, 0.0, 0.0, 0.0, 0.0, 0.0, 0.0, 0.0, 1.6989589328783154E9, 0.0, 2023-11-02 17:02:12.878
100.0, -187500.02235174447, 187500.0, 32416.869093998564, 40702.10196996951, 187500.0, 187500.0, -187500.02235174447, 32690.7673705539, -0.068, 0.998, -0.062, 192.0, 0.0, 0.0, 0.0, 0.0, 0.0, 0.0, 0.0, 0.0, 0.0, 1.698958932878328E9, 0.0, 2023-11-02 17:02:12.878
101.0, -187500.02235174447, 187500.0, 32412.04111719622, 40702.32548741406, 187500.0, 187500.0, -187500.02235174447, 32686.90051876313, -0.068, 0.998, -0.062, 192.0, 0.0, 0.0, 0.0, 0.0, 0.0, 0.0, 0.0, 0.0, 0.0, 1.6989589328783393E9, 0.0, 2023-11-02 17:02:12.878
102.0, -187500.02235174447, 187500.0, 32410.588253806625, 40704.49360662623, 187500.0, 187500.0, -187500.02235174447, 32684.352419895225, -0.068, 0.998, -0.062, 192.0, 0.0, 0.0, 0.0, 0.0, 0.0, 0.0, 0.0, 0.0, 0.0, 1.6989589328783517E9, 0.0, 2023-11-02 17:02:12.878
103.0, -187500.02235174447, 187500.0, 32415.37152712006, 40706.97465026077, 187500.0, 187500.0, -187500.02235174447, 32687.973402496984, -0.068, 0.998, -0.062, 192.0, 0.0, 0.0, 0.0, 0.0, 0.0, 0.0, 0.0, 0.0, 0.0, 1.6989589328783674E9, 0.0, 2023-11-02 17:02:12.878
104.0, -187500.02235174447, 187500.0, 32420.490076600323, 40707.801664805615, 187500.0, 187500.0, -187500.02235174447, 32690.454446131524, -0.068, 0.998, -0.062, 192.0, 0.0, 0.0, 0.0, 0.0, 0.0, 0.0, 0.0, 0.0, 0.0, 1.6989589328783789E9, 0.0, 2023-11-02 17:02:12.878
105.0, -187500.02235174447, 187500.0, 32416.22089340936, 40708.1592927169, 187500.0, 187500.0, -187500.02235174447, 32684.084198961762, -0.068, 0.998, -0.062, 192.0, 0.0, 0.0, 0.0, 0.0, 0.0, 0.0, 0.0, 0.0, 0.0, 1.698958932878415E9, 0.0, 2023-11-02 17:02:12.878
106.0, -187500.02235174447, 187500.0, 32410.677660784444, 40711.221481707275, 187500.0, 187500.0, -187500.02235174447, 32679.03270471486, -0.068, 0.998, -0.062, 192.0, 0.0, 0.0, 0.0, 0.0, 0.0, 0.0, 0.0, 0.0, 0.0, 1.6989589328784282E9, 0.0, 2023-11-02 17:02:12.878
107.0, -187500.02235174447, 187500.0, 32408.263672383273, 40713.23313870825, 187500.0, 187500.0, -187500.02235174447, 32678.138634936648, -0.078, 0.968, -0.068, 192.0, 253.0, 144.0, 30.0, 64.0, 253.0, 224.0, 0.0, 0.0, 0.0, 1.6989589328784404E9, 0.0, 2023-11-02 17:02:12.878
108.0, -187500.02235174447, 187500.0, 32407.101381671597, 40711.19912996282, 187500.0, 187500.0, -187500.02235174447, 32678.51861459239, -0.078, 0.968, -0.068, 192.0, 0.0, 0.0, 0.0, 0.0, 0.0, 0.0, 0.0, 0.0, 0.0, 1.6989589328784559E9, 0.0, 2023-11-02 17:02:12.878
109.0, -187500.02235174447, 187500.0, 32409.157742161486, 40716.742362587735, 187500.0, 187500.0, -187500.02235174447, 32683.592460583743, -0.078, 0.968, -0.068, 192.0, 0.0, 0.0, 0.0, 0.0, 0.0, 0.0, 0.0, 0.0, 0.0, 1.698958932878467E9, 0.0, 2023-11-02 17:02:12.878
110.0, -187500.02235174447, 187500.0, 32406.296718871206, 40724.8113423361, 187500.0, 187500.0, -187500.02235174447, 32682.541928594346, -0.078, 0.968, -0.068, 192.0, 0.0, 0.0, 0.0, 0.0, 0.0, 0.0, 0.0, 0.0, 0.0, 1.6989589328784804E9, 0.0, 2023-11-02 17:02:12.878
111.0, -187500.02235174447, 187500.0, 32403.547454303203, 40724.31960395809, 187500.0, 187500.0, -187500.02235174447, 32683.078370461273, -0.078, 0.968, -0.068, 192.0, 0.0, 0.0, 0.0, 0.0, 0.0, 0.0, 0.0, 0.0, 0.0, 1.6989589328784916E9, 0.0, 2023-11-02 17:02:12.878
112.0, -187500.02235174447, 187500.0, 32409.31420437267, 40725.50424641422, 187500.0, 187500.0, -187500.02235174447, 32692.063771732304, -0.078, 0.968, -0.068, 192.0, 0.0, 0.0, 0.0, 0.0, 0.0, 0.0, 0.0, 0.0, 0.0, 1.6989589328785088E9, 0.0, 2023-11-02 17:02:12.878
113.0, -187500.02235174447, 187500.0, 32412.666966040968, 40723.894920813436, 187500.0, 187500.0, -187500.02235174447, 32694.90244327813, -0.078, 0.968, -0.068, 192.0, 0.0, 0.0, 0.0, 0.0, 0.0, 0.0, 0.0, 0.0, 0.0, 1.6989589328785195E9, 0.0, 2023-11-02 17:02:12.878
114.0, -187500.02235174447, 187500.0, 32415.818562009164, 40727.515903415195, 187500.0, 187500.0, -187500.02235174447, 32697.718763079498, -0.078, 0.968, -0.068, 192.0, 0.0, 0.0, 0.0, 0.0, 0.0, 0.0, 0.0, 0.0, 0.0, 1.6989589328785295E9, 0.0, 2023-11-02 17:02:12.878
115.0, -187500.02235174447, 187500.0, 32422.591140579123, 40740.524618688185, 187500.0, 187500.0, -187500.02235174447, 32702.680850348577, -0.078, 0.968, -0.068, 192.0, 0.0, 0.0, 0.0, 0.0, 0.0, 0.0, 0.0, 0.0, 0.0, 1.6989589328785424E9, 0.0, 2023-11-02 17:02:12.878
116.0, -187500.02235174447, 187500.0, 32428.46964937087, 40737.238912253255, 187500.0, 187500.0, -187500.02235174447, 32702.367925926203, -0.078, 0.968, -0.068, 192.0, 0.0, 0.0, 0.0, 0.0, 0.0, 0.0, 0.0, 0.0, 0.0, 1.6989589328785536E9, 0.0, 2023-11-02 17:02:12.878
117.0, -187500.02235174447, 187500.0, 32430.302492416205, 40731.561569161604, 187500.0, 187500.0, -187500.02235174447, 32698.903405535628, -0.08, 0.978, -0.068, 192.0, 253.0, 128.0, 30.0, 144.0, 253.0, 224.0, 0.0, 0.0, 0.0, 1.6989589328785648E9, 0.0, 2023-11-02 17:02:12.878
118.0, -187500.02235174447, 187500.0, 32426.36858539207, 40729.92989181637, 187500.0, 187500.0, -187500.02235174447, 32692.644917088142, -0.08, 0.978, -0.068, 192.0, 0.0, 0.0, 0.0, 0.0, 0.0, 0.0, 0.0, 0.0, 0.0, 1.6989589328785765E9, 0.0, 2023-11-02 17:02:12.878
119.0, -187500.02235174447, 187500.0, 32427.240303425828, 40733.662633140404, 187500.0, 187500.0, -187500.02235174447, 32693.65074558863, -0.08, 0.978, -0.068, 192.0, 0.0, 0.0, 0.0, 0.0, 0.0, 0.0, 0.0, 0.0, 0.0, 1.6989589328785868E9, 0.0, 2023-11-02 17:02:12.878
120.0, -187500.02235174447, 187500.0, 32430.32484416066, 40733.12619127348, 187500.0, 187500.0, -187500.02235174447, 32697.00350725693, -0.08, 0.978, -0.068, 192.0, 0.0, 0.0, 0.0, 0.0, 0.0, 0.0, 0.0, 0.0, 0.0, 1.6989589328786192E9, 0.0, 2023-11-02 17:02:12.878
121.0, -187500.02235174447, 187500.0, 32432.671777328465, 40727.381792948465, 187500.0, 187500.0, -187500.02235174447, 32700.065696247304, -0.08, 0.978, -0.068, 192.0, 0.0, 0.0, 0.0, 0.0, 0.0, 0.0, 0.0, 0.0, 0.0, 1.6989589333566892E9, 0.0, 2023-11-02 17:02:13.356
122.0, -187500.02235174447, 187500.0, 32442.573600122167, 40729.81813309409, 187500.0, 187500.0, -187500.02235174447, 32708.067620762304, -0.08, 0.978, -0.068, 192.0, 0.0, 0.0, 0.0, 0.0, 0.0, 0.0, 0.0, 0.0, 0.0, 1.69895893335681E9, 0.0, 2023-11-02 17:02:13.356
123.0, -187500.02235174447, 187500.0, 32443.7582425783, 40738.04357505364, 187500.0, 187500.0, -187500.02235174447, 32708.179379484583, -0.08, 0.978, -0.068, 192.0, 0.0, 0.0, 0.0, 0.0, 0.0, 0.0, 0.0, 0.0, 0.0, 1.6989589333568268E9, 0.0, 2023-11-02 17:02:13.356
124.0, -187500.02235174447, 187500.0, 32445.635789112544, 40740.88224659947, 187500.0, 187500.0, -187500.02235174447, 32708.38054518468, -0.08, 0.978, -0.068, 192.0, 0.0, 0.0, 0.0, 0.0, 0.0, 0.0, 0.0, 0.0, 0.0, 1.6989589333568418E9, 0.0, 2023-11-02 17:02:13.356
125.0, -187500.02235174447, 187500.0, 32442.28302744425, 40733.50617092921, 187500.0, 187500.0, -187500.02235174447, 32704.603100371733, -0.08, 0.978, -0.068, 192.0, 0.0, 0.0, 0.0, 0.0, 0.0, 0.0, 0.0, 0.0, 0.0, 1.6989589333568597E9, 0.0, 2023-11-02 17:02:13.356
126.0, -187500.02235174447, 187500.0, 32444.920533289976, 40735.24960699673, 187500.0, 187500.0, -187500.02235174447, 32708.022917273396, -0.08, 0.978, -0.068, 192.0, 0.0, 0.0, 0.0, 0.0, 0.0, 0.0, 0.0, 0.0, 0.0, 1.6989589333568723E9, 0.0, 2023-11-02 17:02:13.356
127.0, -187500.02235174447, 187500.0, 32449.6591031145, 40748.86181937001, 187500.0, 187500.0, -187500.02235174447, 32713.499094664945, -0.10400000000000001, 0.976, -0.064, 192.0, 252.0, 192.0, 30.0, 128.0, 254.0, 0.0, 0.0, 0.0, 0.0, 1.6989589333568928E9, 0.0, 2023-11-02 17:02:13.356
128.0, -187500.02235174447, 187500.0, 32451.111966504097, 40756.26024678472, 187500.0, 187500.0, -187500.02235174447, 32714.3708126987, -0.10400000000000001, 0.976, -0.064, 192.0, 0.0, 0.0, 0.0, 0.0, 0.0, 0.0, 0.0, 0.0, 0.0, 1.6989589333569088E9, 0.0, 2023-11-02 17:02:13.356
129.0, -187500.02235174447, 187500.0, 32450.46376591489, 40749.13004030348, 187500.0, 187500.0, -187500.02235174447, 32711.57684464179, -0.10400000000000001, 0.976, -0.064, 192.0, 0.0, 0.0, 0.0, 0.0, 0.0, 0.0, 0.0, 0.0, 0.0, 1.6989589333569212E9, 0.0, 2023-11-02 17:02:13.356
130.0, -187500.02235174447, 187500.0, 32448.98855078084, 40746.0678513131, 187500.0, 187500.0, -187500.02235174447, 32707.218254473002, -0.10400000000000001, 0.976, -0.064, 192.0, 0.0, 0.0, 0.0, 0.0, 0.0, 0.0, 0.0, 0.0, 0.0, 1.6989589333569353E9, 0.0, 2023-11-02 17:02:13.356
131.0, -187500.02235174447, 187500.0, 32448.072129258173, 40754.69562467285, 187500.0, 187500.0, -187500.02235174447, 32705.85479806123, -0.10400000000000001, 0.976, -0.064, 192.0, 0.0, 0.0, 0.0, 0.0, 0.0, 0.0, 0.0, 0.0, 0.0, 1.6989589333569496E9, 0.0, 2023-11-02 17:02:13.356
132.0, -187500.02235174447, 187500.0, 32439.913742531986, 40753.44392698335, 187500.0, 187500.0, -187500.02235174447, 32699.99864101394, -0.10400000000000001, 0.976, -0.064, 192.0, 0.0, 0.0, 0.0, 0.0, 0.0, 0.0, 0.0, 0.0, 0.0, 1.6989589333569665E9, 0.0, 2023-11-02 17:02:13.356
133.0, -187500.02235174447, 187500.0, 32437.209181452894, 40741.88807509996, 187500.0, 187500.0, -187500.02235174447, 32697.09291423475, -0.10400000000000001, 0.976, -0.064, 192.0, 0.0, 0.0, 0.0, 0.0, 0.0, 0.0, 0.0, 0.0, 0.0, 1.698958933357004E9, 0.0, 2023-11-02 17:02:13.357
134.0, -187500.02235174447, 187500.0, 32443.534725133744, 40741.03870881066, 187500.0, 187500.0, -187500.02235174447, 32702.882016048676, -0.10400000000000001, 0.976, -0.064, 192.0, 0.0, 0.0, 0.0, 0.0, 0.0, 0.0, 0.0, 0.0, 0.0, 1.6989589333570175E9, 0.0, 2023-11-02 17:02:13.357
135.0, -187500.02235174447, 187500.0, 32442.46184139989, 40749.15239204793, 187500.0, 187500.0, -187500.02235174447, 32702.747905581942, -0.10400000000000001, 0.976, -0.064, 192.0, 0.0, 0.0, 0.0, 0.0, 0.0, 0.0, 0.0, 0.0, 0.0, 1.698958933357088E9, 0.0, 2023-11-02 17:02:13.357
136.0, -187500.02235174447, 187500.0, 32435.644559341024, 40747.7665838917, 187500.0, 187500.0, -187500.02235174447, 32696.221196200993, -0.10400000000000001, 0.976, -0.064, 192.0, 0.0, 0.0, 0.0, 0.0, 0.0, 0.0, 0.0, 0.0, 0.0, 1.6989589333570986E9, 0.0, 2023-11-02 17:02:13.357
137.0, -187500.02235174447, 187500.0, 32434.23639944034, 40743.07271755609, 187500.0, 187500.0, -187500.02235174447, 32695.14831246714, -0.10200000000000001, 0.974, -0.07, 192.0, 252.0, 208.0, 30.0, 112.0, 253.0, 208.0, 0.0, 0.0, 0.0, 1.6989589333571093E9, 0.0, 2023-11-02 17:02:13.357
138.0, -187500.02235174447, 187500.0, 32432.671777328465, 40742.0668890556, 187500.0, 187500.0, -187500.02235174447, 32693.42722814408, -0.10200000000000001, 0.974, -0.07, 192.0, 0.0, 0.0, 0.0, 0.0, 0.0, 0.0, 0.0, 0.0, 0.0, 1.698958933357122E9, 0.0, 2023-11-02 17:02:13.357
139.0, -187500.02235174447, 187500.0, 32434.526972118256, 40751.38756649346, 187500.0, 187500.0, -187500.02235174447, 32696.243547945447, -0.10200000000000001, 0.974, -0.07, 192.0, 0.0, 0.0, 0.0, 0.0, 0.0, 0.0, 0.0, 0.0, 0.0, 1.6989589333571339E9, 0.0, 2023-11-02 17:02:13.357
140.0, -187500.02235174447, 187500.0, 32443.46766990038, 40761.82583115409, 187500.0, 187500.0, -187500.02235174447, 32706.257129461424, -0.10200000000000001, 0.974, -0.07, 192.0, 0.0, 0.0, 0.0, 0.0, 0.0, 0.0, 0.0, 0.0, 0.0, 1.6989589333571465E9, 0.0, 2023-11-02 17:02:13.357
141.0, -187500.02235174447, 187500.0, 32443.646483856024, 40756.48376422927, 187500.0, 187500.0, -187500.02235174447, 32705.251300960936, -0.10200000000000001, 0.974, -0.07, 192.0, 0.0, 0.0, 0.0, 0.0, 0.0, 0.0, 0.0, 0.0, 0.0, 1.6989589333571572E9, 0.0, 2023-11-02 17:02:13.357
142.0, -187500.02235174447, 187500.0, 32439.42200415397, 40742.64803441144, 187500.0, 187500.0, -187500.02235174447, 32699.730420080476, -0.10200000000000001, 0.974, -0.07, 192.0, 0.0, 0.0, 0.0, 0.0, 0.0, 0.0, 0.0, 0.0, 0.0, 1.6989589333571692E9, 0.0, 2023-11-02 17:02:13.357
143.0, -187500.02235174447, 187500.0, 32433.02940523975, 40744.05619431212, 187500.0, 187500.0, -187500.02235174447, 32695.23771944496, -0.10200000000000001, 0.974, -0.07, 192.0, 0.0, 0.0, 0.0, 0.0, 0.0, 0.0, 0.0, 0.0, 0.0, 1.6989589333571804E9, 0.0, 2023-11-02 17:02:13.357
144.0, -187500.02235174447, 187500.0, 32423.12758244605, 40742.625682666985, 187500.0, 187500.0, -187500.02235174447, 32687.258146674416, -0.10200000000000001, 0.974, -0.07, 192.0, 0.0, 0.0, 0.0, 0.0, 0.0, 0.0, 0.0, 0.0, 0.0, 1.698958933357191E9, 0.0, 2023-11-02 17:02:13.357
145.0, -187500.02235174447, 187500.0, 32423.462858612882, 40741.552798933124, 187500.0, 187500.0, -187500.02235174447, 32690.677963576076, -0.10200000000000001, 0.974, -0.07, 192.0, 0.0, 0.0, 0.0, 0.0, 0.0, 0.0, 0.0, 0.0, 0.0, 1.6989589333572052E9, 0.0, 2023-11-02 17:02:13.357
146.0, -187500.02235174447, 187500.0, 32426.770916792266, 40742.15629603342, 187500.0, 187500.0, -187500.02235174447, 32696.15414096763, -0.10200000000000001, 0.974, -0.07, 192.0, 0.0, 0.0, 0.0, 0.0, 0.0, 0.0, 0.0, 0.0, 0.0, 1.6989589333572185E9, 0.0, 2023-11-02 17:02:13.357
147.0, -187500.02235174447, 187500.0, 32420.89240800052, 40742.268054755696, 187500.0, 187500.0, -187500.02235174447, 32692.24258568795, -0.082, 0.978, -0.07, 192.0, 253.0, 112.0, 30.0, 144.0, 253.0, 208.0, 0.0, 0.0, 0.0, 1.6989589333572352E9, 0.0, 2023-11-02 17:02:13.357
148.0, -187500.02235174447, 187500.0, 32425.966253991875, 40752.482801971775, 187500.0, 187500.0, -187500.02235174447, 32698.65753634662, -0.082, 0.978, -0.07, 192.0, 0.0, 0.0, 0.0, 0.0, 0.0, 0.0, 0.0, 0.0, 0.0, 1.6989589333572469E9, 0.0, 2023-11-02 17:02:13.357
149.0, -187500.02235174447, 187500.0, 32412.801076507698, 40746.09020305755, 187500.0, 187500.0, -187500.02235174447, 32683.346591394737, -0.082, 0.978, -0.07, 192.0, 0.0, 0.0, 0.0, 0.0, 0.0, 0.0, 0.0, 0.0, 0.0, 1.698958933357257E9, 0.0, 2023-11-02 17:02:13.357
150.0, -187500.02235174447, 187500.0, 32404.08389617013, 40726.398316192426, 187500.0, 187500.0, -187500.02235174447, 32672.170719167083, -0.082, 0.978, -0.07, 192.0, 0.0, 0.0, 0.0, 0.0, 0.0, 0.0, 0.0, 0.0, 0.0, 1.6989589333573296E9, 0.0, 2023-11-02 17:02:13.357
151.0, -187500.02235174447, 187500.0, 32408.487189827825, 40732.67915638437, 187500.0, 187500.0, -187500.02235174447, 32675.434073857556, -0.082, 0.978, -0.07, 192.0, 0.0, 0.0, 0.0, 0.0, 0.0, 0.0, 0.0, 0.0, 0.0, 1.698958933357349E9, 0.0, 2023-11-02 17:02:13.357
152.0, -187500.02235174447, 187500.0, 32409.761239261778, 40745.53140944617, 187500.0, 187500.0, -187500.02235174447, 32679.4126843706, -0.082, 0.978, -0.07, 192.0, 0.0, 0.0, 0.0, 0.0, 0.0, 0.0, 0.0, 0.0, 0.0, 1.6989589333573658E9, 0.0, 2023-11-02 17:02:13.357
153.0, -187500.02235174447, 187500.0, 32408.75541076129, 40749.55472344813, 187500.0, 187500.0, -187500.02235174447, 32681.446693116035, -0.082, 0.978, -0.07, 192.0, 0.0, 0.0, 0.0, 0.0, 0.0, 0.0, 0.0, 0.0, 0.0, 1.6989589333573809E9, 0.0, 2023-11-02 17:02:13.357
154.0, -187500.02235174447, 187500.0, 32409.0012799503, 40740.032880310166, 187500.0, 187500.0, -187500.02235174447, 32683.79362628384, -0.082, 0.978, -0.07, 192.0, 0.0, 0.0, 0.0, 0.0, 0.0, 0.0, 0.0, 0.0, 0.0, 1.698958933357394E9, 0.0, 2023-11-02 17:02:13.357
155.0, -187500.02235174447, 187500.0, 32417.27142539876, 40743.877380356476, 187500.0, 187500.0, -187500.02235174447, 32694.343649666745, -0.082, 0.978, -0.07, 192.0, 0.0, 0.0, 0.0, 0.0, 0.0, 0.0, 0.0, 0.0, 0.0, 1.6989589333574317E9, 0.0, 2023-11-02 17:02:13.357
156.0, -187500.02235174447, 187500.0, 32415.595044564612, 40753.39922349444, 187500.0, 187500.0, -187500.02235174447, 32693.09195197725, -0.082, 0.978, -0.07, 192.0, 0.0, 0.0, 0.0, 0.0, 0.0, 0.0, 0.0, 0.0, 0.0, 1.6989589333574462E9, 0.0, 2023-11-02 17:02:13.357
157.0, -187500.02235174447, 187500.0, 32415.70680328689, 40749.599426937035, 187500.0, 187500.0, -187500.02235174447, 32694.008373499917, -0.076, 0.976, -0.074, 192.0, 253.0, 160.0, 30.0, 128.0, 253.0, 176.0, 0.0, 0.0, 0.0, 1.6989589333574576E9, 0.0, 2023-11-02 17:02:13.357
158.0, -187500.02235174447, 187500.0, 32406.810808993676, 40737.68594714236, 187500.0, 187500.0, -187500.02235174447, 32686.02880072937, -0.076, 0.976, -0.074, 192.0, 0.0, 0.0, 0.0, 0.0, 0.0, 0.0, 0.0, 0.0, 0.0, 1.6989589333574724E9, 0.0, 2023-11-02 17:02:13.357
159.0, -187500.02235174447, 187500.0, 32408.777762505742, 40733.75204011823, 187500.0, 187500.0, -187500.02235174447, 32686.587594340755, -0.076, 0.976, -0.074, 192.0, 0.0, 0.0, 0.0, 0.0, 0.0, 0.0, 0.0, 0.0, 0.0, 1.6989589333574872E9, 0.0, 2023-11-02 17:02:13.357
160.0, -187500.02235174447, 187500.0, 32403.480399069835, 40741.50809544422, 187500.0, 187500.0, -187500.02235174447, 32682.51957684989, -0.076, 0.976, -0.074, 192.0, 0.0, 0.0, 0.0, 0.0, 0.0, 0.0, 0.0, 0.0, 0.0, 1.6989589333574996E9, 0.0, 2023-11-02 17:02:13.357
161.0, -187500.02235174447, 187500.0, 32398.831236223134, 40737.238912253255, 187500.0, 187500.0, -187500.02235174447, 32678.98800122595, -0.076, 0.976, -0.074, 192.0, 0.0, 0.0, 0.0, 0.0, 0.0, 0.0, 0.0, 0.0, 0.0, 1.6989589333575137E9, 0.0, 2023-11-02 17:02:13.357
162.0, -187500.02235174447, 187500.0, 32397.132503644527, 40731.20394125032, 187500.0, 187500.0, -187500.02235174447, 32677.24456515844, -0.076, 0.976, -0.074, 192.0, 0.0, 0.0, 0.0, 0.0, 0.0, 0.0, 0.0, 0.0, 0.0, 1.6989589333575287E9, 0.0, 2023-11-02 17:02:13.357
163.0, -187500.02235174447, 187500.0, 32390.8963669415, 40717.99406027723, 187500.0, 187500.0, -187500.02235174447, 32669.75673076591, -0.076, 0.976, -0.074, 192.0, 0.0, 0.0, 0.0, 0.0, 0.0, 0.0, 0.0, 0.0, 0.0, 1.698958933357542E9, 0.0, 2023-11-02 17:02:13.357
164.0, -187500.02235174447, 187500.0, 32391.45516055288, 40720.54215914514, 187500.0, 187500.0, -187500.02235174447, 32668.32621912077, -0.076, 0.976, -0.074, 192.0, 0.0, 0.0, 0.0, 0.0, 0.0, 0.0, 0.0, 0.0, 0.0, 1.6989589333575575E9, 0.0, 2023-11-02 17:02:13.357
165.0, -187500.02235174447, 187500.0, 32393.623279765045, 40719.44692366683, 187500.0, 187500.0, -187500.02235174447, 32669.84613774373, -0.076, 0.976, -0.074, 192.0, 0.0, 0.0, 0.0, 0.0, 0.0, 0.0, 0.0, 0.0, 0.0, 1.698958933357608E9, 0.0, 2023-11-02 17:02:13.357
166.0, -187500.02235174447, 187500.0, 32392.192768119905, 40714.44013290884, 187500.0, 187500.0, -187500.02235174447, 32667.655666787112, -0.074, 0.984, -0.076, 192.0, 253.0, 176.0, 30.0, 192.0, 253.0, 160.0, 0.0, 0.0, 0.0, 1.698958933357635E9, 0.0, 2023-11-02 17:02:13.357
167.0, -187500.02235174447, 187500.0, 32386.202500605883, 40706.84053979404, 187500.0, 187500.0, -187500.02235174447, 32662.64887602912, -0.074, 0.984, -0.076, 192.0, 0.0, 0.0, 0.0, 0.0, 0.0, 0.0, 0.0, 0.0, 0.0, 1.698958933357653E9, 0.0, 2023-11-02 17:02:13.357
168.0, -187500.02235174447, 187500.0, 32385.30843082767, 40709.29923168412, 187500.0, 187500.0, -187500.02235174447, 32661.911268462096, -0.074, 0.984, -0.076, 192.0, 0.0, 0.0, 0.0, 0.0, 0.0, 0.0, 0.0, 0.0, 0.0, 1.6989589333576715E9, 0.0, 2023-11-02 17:02:13.357
169.0, -187500.02235174447, 187500.0, 32385.397837805493, 40716.07181025408, 187500.0, 187500.0, -187500.02235174447, 32662.157137651106, -0.074, 0.984, -0.076, 192.0, 0.0, 0.0, 0.0, 0.0, 0.0, 0.0, 0.0, 0.0, 0.0, 1.6989589333576899E9, 0.0, 2023-11-02 17:02:13.357
170.0, -187500.02235174447, 187500.0, 32387.45419829538, 40716.474141654275, 187500.0, 187500.0, -187500.02235174447, 32666.426320842067, -0.074, 0.984, -0.076, 192.0, 0.0, 0.0, 0.0, 0.0, 0.0, 0.0, 0.0, 0.0, 0.0, 1.6989589333577087E9, 0.0, 2023-11-02 17:02:13.357
171.0, -187500.02235174447, 187500.0, 32384.30260232718, 40710.64033635144, 187500.0, 187500.0, -187500.02235174447, 32663.073559173772, -0.074, 0.984, -0.076, 192.0, 0.0, 0.0, 0.0, 0.0, 0.0, 0.0, 0.0, 0.0, 0.0, 1.698958933357724E9, 0.0, 2023-11-02 17:02:13.357
172.0, -187500.02235174447, 187500.0, 32385.35313431658, 40709.969784017776, 187500.0, 187500.0, -187500.02235174447, 32663.85587022971, -0.074, 0.984, -0.076, 192.0, 0.0, 0.0, 0.0, 0.0, 0.0, 0.0, 0.0, 0.0, 0.0, 1.6989589333577445E9, 0.0, 2023-11-02 17:02:13.357
173.0, -187500.02235174447, 187500.0, 32379.564032502658, 40719.37986843346, 187500.0, 187500.0, -187500.02235174447, 32657.7091405045, -0.074, 0.984, -0.076, 192.0, 0.0, 0.0, 0.0, 0.0, 0.0, 0.0, 0.0, 0.0, 0.0, 1.6989589333577695E9, 0.0, 2023-11-02 17:02:13.357
174.0, -187500.02235174447, 187500.0, 32380.65926798097, 40711.86968229648, 187500.0, 187500.0, -187500.02235174447, 32658.357341093702, -0.074, 0.984, -0.076, 192.0, 0.0, 0.0, 0.0, 0.0, 0.0, 0.0, 0.0, 0.0, 0.0, 1.6989589333577914E9, 0.0, 2023-11-02 17:02:13.357
175.0, -187500.02235174447, 187500.0, 32391.41045706397, 40708.695734583824, 187500.0, 187500.0, -187500.02235174447, 32669.712027276997, -0.074, 0.984, -0.076, 192.0, 0.0, 0.0, 0.0, 0.0, 0.0, 0.0, 0.0, 0.0, 0.0, 1.6989589333578076E9, 0.0, 2023-11-02 17:02:13.357
176.0, -187500.02235174447, 187500.0, 32401.55814904668, 40714.44013290884, 187500.0, 187500.0, -187500.02235174447, 32679.52444309288, -0.078, 0.988, -0.07200000000000001, 192.0, 253.0, 144.0, 30.0, 224.0, 253.0, 192.0, 0.0, 0.0, 0.0, 1.6989589333578448E9, 0.0, 2023-11-02 17:02:13.357
177.0, -187500.02235174447, 187500.0, 32398.831236223134, 40725.05721152511, 187500.0, 187500.0, -187500.02235174447, 32675.054094201816, -0.078, 0.988, -0.07200000000000001, 192.0, 0.0, 0.0, 0.0, 0.0, 0.0, 0.0, 0.0, 0.0, 0.0, 1.6989589333578684E9, 0.0, 2023-11-02 17:02:13.357
178.0, -187500.02235174447, 187500.0, 32398.719477500854, 40720.00571727821, 187500.0, 187500.0, -187500.02235174447, 32673.981210467962, -0.078, 0.988, -0.07200000000000001, 192.0, 0.0, 0.0, 0.0, 0.0, 0.0, 0.0, 0.0, 0.0, 0.0, 1.698958933357891E9, 0.0, 2023-11-02 17:02:13.357
179.0, -187500.02235174447, 187500.0, 32398.07127691165, 40709.18747296184, 187500.0, 187500.0, -187500.02235174447, 32673.020085456385, -0.078, 0.988, -0.07200000000000001, 192.0, 0.0, 0.0, 0.0, 0.0, 0.0, 0.0, 0.0, 0.0, 0.0, 1.6989589333579056E9, 0.0, 2023-11-02 17:02:13.357
180.0, -187500.02235174447, 187500.0, 32403.972137447854, 40706.84053979404, 187500.0, 187500.0, -187500.02235174447, 32677.356323880715, -0.078, 0.988, -0.07200000000000001, 192.0, 0.0, 0.0, 0.0, 0.0, 0.0, 0.0, 0.0, 0.0, 0.0, 1.6989589333579273E9, 0.0, 2023-11-02 17:02:13.357
181.0, -187500.02235174447, 187500.0, 32406.87786422704, 40710.2603566957, 187500.0, 187500.0, -187500.02235174447, 32679.546794837333, -0.078, 0.988, -0.07200000000000001, 192.0, 0.0, 0.0, 0.0, 0.0, 0.0, 0.0, 0.0, 0.0, 0.0, 1.6989589333580296E9, 0.0, 2023-11-02 17:02:13.358
182.0, -187500.02235174447, 187500.0, 32405.536759559724, 40708.40516190591, 187500.0, 187500.0, -187500.02235174447, 32678.22804191447, -0.078, 0.988, -0.07200000000000001, 192.0, 0.0, 0.0, 0.0, 0.0, 0.0, 0.0, 0.0, 0.0, 0.0, 1.6989589333580492E9, 0.0, 2023-11-02 17:02:13.358
183.0, -187500.02235174447, 187500.0, 32404.17330314795, 40692.89305125392, 187500.0, 187500.0, -187500.02235174447, 32676.84223375824, -0.078, 0.988, -0.07200000000000001, 192.0, 0.0, 0.0, 0.0, 0.0, 0.0, 0.0, 0.0, 0.0, 0.0, 1.6989589333580728E9, 0.0, 2023-11-02 17:02:13.358
184.0, -187500.02235174447, 187500.0, 32410.32003287316, 40685.60638256149, 187500.0, 187500.0, -187500.02235174447, 32681.223175671483, -0.078, 0.988, -0.07200000000000001, 192.0, 0.0, 0.0, 0.0, 0.0, 0.0, 0.0, 0.0, 0.0, 0.0, 1.6989589333580935E9, 0.0, 2023-11-02 17:02:13.358
185.0, -187500.02235174447, 187500.0, 32405.8496839821, 40680.04079819212, 187500.0, 187500.0, -187500.02235174447, 32673.869451745686, -0.078, 0.988, -0.07200000000000001, 192.0, 0.0, 0.0, 0.0, 0.0, 0.0, 0.0, 0.0, 0.0, 0.0, 1.6989589333581133E9, 0.0, 2023-11-02 17:02:13.358
186.0, -187500.02235174447, 187500.0, 32398.048925167197, 40659.16426887087, 187500.0, 187500.0, -187500.02235174447, 32662.693579518032, -0.08, 0.986, -0.07200000000000001, 192.0, 253.0, 128.0, 30.0, 208.0, 253.0, 192.0, 0.0, 0.0, 0.0, 1.6989589333581324E9, 0.0, 2023-11-02 17:02:13.358
187.0, -187500.02235174447, 187500.0, 32397.065448411162, 40641.79696342909, 187500.0, 187500.0, -187500.02235174447, 32659.206707383004, -0.08, 0.986, -0.07200000000000001, 192.0, 0.0, 0.0, 0.0, 0.0, 0.0, 0.0, 0.0, 0.0, 0.0, 1.69895893335815E9, 0.0, 2023-11-02 17:02:13.358
188.0, -187500.02235174447, 187500.0, 32401.759314746778, 40630.129352823424, 187500.0, 187500.0, -187500.02235174447, 32663.766463251886, -0.08, 0.986, -0.07200000000000001, 192.0, 0.0, 0.0, 0.0, 0.0, 0.0, 0.0, 0.0, 0.0, 0.0, 1.698958933358173E9, 0.0, 2023-11-02 17:02:13.358
189.0, -187500.02235174447, 187500.0, 32404.486227570324, 40635.40436451487, 187500.0, 187500.0, -187500.02235174447, 32666.493376075436, -0.08, 0.986, -0.07200000000000001, 192.0, 0.0, 0.0, 0.0, 0.0, 0.0, 0.0, 0.0, 0.0, 0.0, 1.698958933358192E9, 0.0, 2023-11-02 17:02:13.358
190.0, -187500.02235174447, 187500.0, 32405.961442704374, 40638.868884905445, 187500.0, 187500.0, -187500.02235174447, 32669.13088192116, -0.08, 0.986, -0.07200000000000001, 192.0, 0.0, 0.0, 0.0, 0.0, 0.0, 0.0, 0.0, 0.0, 0.0, 1.6989589333582313E9, 0.0, 2023-11-02 17:02:13.358
191.0, -187500.02235174447, 187500.0, 32404.12859965904, 40638.55596048307, 187500.0, 187500.0, -187500.02235174447, 32668.817957498784, -0.08, 0.986, -0.07200000000000001, 192.0, 0.0, 0.0, 0.0, 0.0, 0.0, 0.0, 0.0, 0.0, 0.0, 1.6989589333582644E9, 0.0, 2023-11-02 17:02:13.358
192.0, -187500.02235174447, 187500.0, 32400.485265312826, 40630.621091201436, 187500.0, 187500.0, -187500.02235174447, 32665.93458246405, -0.08, 0.986, -0.07200000000000001, 192.0, 0.0, 0.0, 0.0, 0.0, 0.0, 0.0, 0.0, 0.0, 0.0, 1.698958933358307E9, 0.0, 2023-11-02 17:02:13.358
193.0, -187500.02235174447, 187500.0, 32405.13442815953, 40637.52778023813, 187500.0, 187500.0, -187500.02235174447, 32672.193070911537, -0.08, 0.986, -0.07200000000000001, 192.0, 0.0, 0.0, 0.0, 0.0, 0.0, 0.0, 0.0, 0.0, 0.0, 1.6989589333583555E9, 0.0, 2023-11-02 17:02:13.358
194.0, -187500.02235174447, 187500.0, 32398.808884478676, 40642.62397797394, 187500.0, 187500.0, -187500.02235174447, 32665.644009786134, -0.08, 0.986, -0.07200000000000001, 192.0, 0.0, 0.0, 0.0, 0.0, 0.0, 0.0, 0.0, 0.0, 0.0, 1.6989589333583803E9, 0.0, 2023-11-02 17:02:13.358
195.0, -187500.02235174447, 187500.0, 32407.838989238622, 40641.08170760652, 187500.0, 187500.0, -187500.02235174447, 32673.176547667572, -0.08, 0.986, -0.07200000000000001, 192.0, 0.0, 0.0, 0.0, 0.0, 0.0, 0.0, 0.0, 0.0, 0.0, 1.698958933358416E9, 0.0, 2023-11-02 17:02:13.358
196.0, -187500.02235174447, 187500.0, 32411.21410265137, 40638.06422210506, 187500.0, 187500.0, -187500.02235174447, 32673.914155234597, -0.074, 0.988, -0.07, 192.0, 253.0, 176.0, 30.0, 224.0, 253.0, 208.0, 0.0, 0.0, 0.0, 1.6989589333585658E9, 0.0, 2023-11-02 17:02:13.358
197.0, -187500.02235174447, 187500.0, 32402.116942658064, 40626.12839056592, 187500.0, 187500.0, -187500.02235174447, 32660.637219028144, -0.074, 0.988, -0.07, 192.0, 0.0, 0.0, 0.0, 0.0, 0.0, 0.0, 0.0, 0.0, 0.0, 1.6989589333586128E9, 0.0, 2023-11-02 17:02:13.358
198.0, -187500.02235174447, 187500.0, 32395.053791410184, 40619.445218973786, 187500.0, 187500.0, -187500.02235174447, 32650.89185844563, -0.074, 0.988, -0.07, 192.0, 0.0, 0.0, 0.0, 0.0, 0.0, 0.0, 0.0, 0.0, 0.0, 1.698958933358637E9, 0.0, 2023-11-02 17:02:13.358
199.0, -187500.02235174447, 187500.0, 32398.965346689864, 40607.822311857024, 187500.0, 187500.0, -187500.02235174447, 32651.56241077929, -0.074, 0.988, -0.07, 192.0, 0.0, 0.0, 0.0, 0.0, 0.0, 0.0, 0.0, 0.0, 0.0, 1.6989589333586533E9, 0.0, 2023-11-02 17:02:13.358
200.0, -187500.02235174447, 187500.0, 32398.87593971204, 40601.02738154261, 187500.0, 187500.0, -187500.02235174447, 32650.84715495672, -0.074, 0.988, -0.07, 192.0, 0.0, 0.0, 0.0, 0.0, 0.0, 0.0, 0.0, 0.0, 0.0, 1.6989589333586671E9, 0.0, 2023-11-02 17:02:13.358
201.0, -187500.02235174447, 187500.0, 32396.5960617776, 40603.79899785507, 187500.0, 187500.0, -187500.02235174447, 32647.963779921985, -0.074, 0.988, -0.07, 192.0, 0.0, 0.0, 0.0, 0.0, 0.0, 0.0, 0.0, 0.0, 0.0, 1.698958933358684E9, 0.0, 2023-11-02 17:02:13.358
202.0, -187500.02235174447, 187500.0, 32394.293832098705, 40614.10315204896, 187500.0, 187500.0, -187500.02235174447, 32646.108585132195, -0.074, 0.988, -0.07, 192.0, 0.0, 0.0, 0.0, 0.0, 0.0, 0.0, 0.0, 0.0, 0.0, 1.6989589333586984E9, 0.0, 2023-11-02 17:02:13.358
203.0, -187500.02235174447, 187500.0, 32390.31522158566, 40617.053582317065, 187500.0, 187500.0, -187500.02235174447, 32643.761651964385, -0.074, 0.988, -0.07, 192.0, 0.0, 0.0, 0.0, 0.0, 0.0, 0.0, 0.0, 0.0, 0.0, 1.6989589333587184E9, 0.0, 2023-11-02 17:02:13.358
204.0, -187500.02235174447, 187500.0, 32397.08780015562, 40614.48313170471, 187500.0, 187500.0, -187500.02235174447, 32648.83549795574, -0.074, 0.988, -0.07, 192.0, 0.0, 0.0, 0.0, 0.0, 0.0, 0.0, 0.0, 0.0, 0.0, 1.6989589333587437E9, 0.0, 2023-11-02 17:02:13.358
205.0, -187500.02235174447, 187500.0, 32399.390029834514, 40622.90973936436, 187500.0, 187500.0, -187500.02235174447, 32650.377768323156, -0.074, 0.988, -0.07, 192.0, 0.0, 0.0, 0.0, 0.0, 0.0, 0.0, 0.0, 0.0, 0.0, 1.6989589333587632E9, 0.0, 2023-11-02 17:02:13.358
206.0, -187500.02235174447, 187500.0, 32396.08197165513, 40628.944710367294, 187500.0, 187500.0, -187500.02235174447, 32646.3544543212, -0.07200000000000001, 0.98, -0.068, 192.0, 253.0, 192.0, 30.0, 160.0, 253.0, 224.0, 0.0, 0.0, 0.0, 1.6989589333587823E9, 0.0, 2023-11-02 17:02:13.358
207.0, -187500.02235174447, 187500.0, 32389.622317507547, 40624.116733564944, 187500.0, 187500.0, -187500.02235174447, 32638.486640272935, -0.07200000000000001, 0.98, -0.068, 192.0, 0.0, 0.0, 0.0, 0.0, 0.0, 0.0, 0.0, 0.0, 0.0, 1.6989589333588035E9, 0.0, 2023-11-02 17:02:13.358
208.0, -187500.02235174447, 187500.0, 32389.555262274178, 40615.600718927475, 187500.0, 187500.0, -187500.02235174447, 32638.643102484122, -0.07200000000000001, 0.98, -0.068, 192.0, 0.0, 0.0, 0.0, 0.0, 0.0, 0.0, 0.0, 0.0, 0.0, 1.6989589333588192E9, 0.0, 2023-11-02 17:02:13.358
209.0, -187500.02235174447, 187500.0, 32399.41238157897, 40622.61916668644, 187500.0, 187500.0, -187500.02235174447, 32648.41081481109, -0.07200000000000001, 0.98, -0.068, 192.0, 0.0, 0.0, 0.0, 0.0, 0.0, 0.0, 0.0, 0.0, 0.0, 1.6989589333588352E9, 0.0, 2023-11-02 17:02:13.358
210.0, -187500.02235174447, 187500.0, 32399.99352693481, 40636.16432382636, 187500.0, 187500.0, -187500.02235174447, 32649.28253284485, -0.07200000000000001, 0.98, -0.068, 192.0, 0.0, 0.0, 0.0, 0.0, 0.0, 0.0, 0.0, 0.0, 0.0, 1.698958933358853E9, 0.0, 2023-11-02 17:02:13.358
211.0, -187500.02235174447, 187500.0, 32392.192768119905, 40635.06908834804, 187500.0, 187500.0, -187500.02235174447, 32642.59936125271, -0.07200000000000001, 0.98, -0.068, 192.0, 0.0, 0.0, 0.0, 0.0, 0.0, 0.0, 0.0, 0.0, 0.0, 1.6989589333589873E9, 0.0, 2023-11-02 17:02:13.358
212.0, -187500.02235174447, 187500.0, 32396.372544333048, 40616.87476836143, 187500.0, 187500.0, -187500.02235174447, 32646.265047343382, -0.07200000000000001, 0.98, -0.068, 192.0, 0.0, 0.0, 0.0, 0.0, 0.0, 0.0, 0.0, 0.0, 0.0, 1.69895893335901E9, 0.0, 2023-11-02 17:02:13.359
213.0, -187500.02235174447, 187500.0, 32406.430829337936, 40624.250844031674, 187500.0, 187500.0, -187500.02235174447, 32654.669303258575, -0.07200000000000001, 0.98, -0.068, 192.0, 0.0, 0.0, 0.0, 0.0, 0.0, 0.0, 0.0, 0.0, 0.0, 1.6989589333590288E9, 0.0, 2023-11-02 17:02:13.359
214.0, -187500.02235174447, 187500.0, 32402.83219848063, 40640.23234131722, 187500.0, 187500.0, -187500.02235174447, 32651.160079379093, -0.07200000000000001, 0.98, -0.068, 192.0, 0.0, 0.0, 0.0, 0.0, 0.0, 0.0, 0.0, 0.0, 0.0, 1.6989589333590431E9, 0.0, 2023-11-02 17:02:13.359
215.0, -187500.02235174447, 187500.0, 32396.484303055324, 40640.50056225069, 187500.0, 187500.0, -187500.02235174447, 32644.678073487055, -0.07200000000000001, 0.98, -0.068, 192.0, 0.0, 0.0, 0.0, 0.0, 0.0, 0.0, 0.0, 0.0, 0.0, 1.6989589333590608E9, 0.0, 2023-11-02 17:02:13.359
216.0, -187500.02235174447, 187500.0, 32397.08780015562, 40626.12839056592, 187500.0, 187500.0, -187500.02235174447, 32644.70042523151, -0.068, 0.978, -0.07, 192.0, 253.0, 224.0, 30.0, 144.0, 253.0, 208.0, 0.0, 0.0, 0.0, 1.6989589333590791E9, 0.0, 2023-11-02 17:02:13.359
217.0, -187500.02235174447, 187500.0, 32402.36281184707, 40621.30041376357, 187500.0, 187500.0, -187500.02235174447, 32649.617809011677, -0.068, 0.978, -0.07, 192.0, 0.0, 0.0, 0.0, 0.0, 0.0, 0.0, 0.0, 0.0, 0.0, 1.6989589333591068E9, 0.0, 2023-11-02 17:02:13.359
218.0, -187500.02235174447, 187500.0, 32408.666003783466, 40631.04577434609, 187500.0, 187500.0, -187500.02235174447, 32652.814108468785, -0.068, 0.978, -0.07, 192.0, 0.0, 0.0, 0.0, 0.0, 0.0, 0.0, 0.0, 0.0, 0.0, 1.698958933359125E9, 0.0, 2023-11-02 17:02:13.359
219.0, -187500.02235174447, 187500.0, 32401.35698334658, 40629.8387801455, 187500.0, 187500.0, -187500.02235174447, 32645.32627407626, -0.068, 0.978, -0.07, 192.0, 0.0, 0.0, 0.0, 0.0, 0.0, 0.0, 0.0, 0.0, 0.0, 1.6989589333591628E9, 0.0, 2023-11-02 17:02:13.359
220.0, -187500.02235174447, 187500.0, 32407.92839621644, 40618.595852684484, 187500.0, 187500.0, -187500.02235174447, 32650.154250878604, -0.068, 0.978, -0.07, 192.0, 0.0, 0.0, 0.0, 0.0, 0.0, 0.0, 0.0, 0.0, 0.0, 1.6989589333591871E9, 0.0, 2023-11-02 17:02:13.359
221.0, -187500.02235174447, 187500.0, 32409.828294495142, 40622.52975970862, 187500.0, 187500.0, -187500.02235174447, 32651.629466012655, -0.068, 0.978, -0.07, 192.0, 0.0, 0.0, 0.0, 0.0, 0.0, 0.0, 0.0, 0.0, 0.0, 1.6989589333592148E9, 0.0, 2023-11-02 17:02:13.359
222.0, -187500.02235174447, 187500.0, 32410.923529973454, 40625.3907829989, 187500.0, 187500.0, -187500.02235174447, 32651.629466012655, -0.068, 0.978, -0.07, 192.0, 0.0, 0.0, 0.0, 0.0, 0.0, 0.0, 0.0, 0.0, 0.0, 1.6989589333592548E9, 0.0, 2023-11-02 17:02:13.359
223.0, -187500.02235174447, 187500.0, 32407.257843882784, 40629.503503978674, 187500.0, 187500.0, -187500.02235174447, 32646.98030316595, -0.068, 0.978, -0.07, 192.0, 0.0, 0.0, 0.0, 0.0, 0.0, 0.0, 0.0, 0.0, 0.0, 1.6989589333592784E9, 0.0, 2023-11-02 17:02:13.359
224.0, -187500.02235174447, 187500.0, 32403.972137447854, 40623.066201575544, 187500.0, 187500.0, -187500.02235174447, 32643.672244986567, -0.068, 0.978, -0.07, 192.0, 0.0, 0.0, 0.0, 0.0, 0.0, 0.0, 0.0, 0.0, 0.0, 1.698958933359302E9, 0.0, 2023-11-02 17:02:13.359
225.0, -187500.02235174447, 187500.0, 32413.762201519276, 40622.730925408716, 187500.0, 187500.0, -187500.02235174447, 32653.97639918046, -0.068, 0.978, -0.07, 192.0, 0.0, 0.0, 0.0, 0.0, 0.0, 0.0, 0.0, 0.0, 0.0, 1.6989589333593276E9, 0.0, 2023-11-02 17:02:13.359
226.0, -187500.02235174447, 187500.0, 32417.316128887673, 40629.99524235669, 187500.0, 187500.0, -187500.02235174447, 32661.106605661706, -0.074, 0.98, -0.066, 192.0, 253.0, 176.0, 30.0, 160.0, 253.0, 240.0, 0.0, 0.0, 0.0, 1.6989589333594725E9, 0.0, 2023-11-02 17:02:13.359
227.0, -187500.02235174447, 187500.0, 32408.621300294555, 40642.13223959592, 187500.0, 187500.0, -187500.02235174447, 32653.46230905799, -0.074, 0.98, -0.066, 192.0, 0.0, 0.0, 0.0, 0.0, 0.0, 0.0, 0.0, 0.0, 0.0, 1.6989589333594942E9, 0.0, 2023-11-02 17:02:13.359
228.0, -187500.02235174447, 187500.0, 32403.860378725578, 40634.80086741458, 187500.0, 187500.0, -187500.02235174447, 32647.829669455252, -0.074, 0.98, -0.066, 192.0, 0.0, 0.0, 0.0, 0.0, 0.0, 0.0, 0.0, 0.0, 0.0, 1.698958933359512E9, 0.0, 2023-11-02 17:02:13.359
229.0, -187500.02235174447, 187500.0, 32408.08485842763, 40623.24501553119, 187500.0, 187500.0, -187500.02235174447, 32650.5565822788, -0.074, 0.98, -0.066, 192.0, 0.0, 0.0, 0.0, 0.0, 0.0, 0.0, 0.0, 0.0, 0.0, 1.6989589333595307E9, 0.0, 2023-11-02 17:02:13.359
230.0, -187500.02235174447, 187500.0, 32412.354041618593, 40629.68231793431, 187500.0, 187500.0, -187500.02235174447, 32654.311675347293, -0.074, 0.98, -0.066, 192.0, 0.0, 0.0, 0.0, 0.0, 0.0, 0.0, 0.0, 0.0, 0.0, 1.6989589333595529E9, 0.0, 2023-11-02 17:02:13.359
231.0, -187500.02235174447, 187500.0, 32412.242282896317, 40637.57248372704, 187500.0, 187500.0, -187500.02235174447, 32653.529364291357, -0.074, 0.98, -0.066, 192.0, 0.0, 0.0, 0.0, 0.0, 0.0, 0.0, 0.0, 0.0, 0.0, 1.6989589333595736E9, 0.0, 2023-11-02 17:02:13.359
232.0, -187500.02235174447, 187500.0, 32407.235492138327, 40636.72311743774, 187500.0, 187500.0, -187500.02235174447, 32647.740262477433, -0.074, 0.98, -0.066, 192.0, 0.0, 0.0, 0.0, 0.0, 0.0, 0.0, 0.0, 0.0, 0.0, 1.6989589333595903E9, 0.0, 2023-11-02 17:02:13.359
233.0, -187500.02235174447, 187500.0, 32411.79524800721, 40624.89904462088, 187500.0, 187500.0, -187500.02235174447, 32651.204782868004, -0.074, 0.98, -0.066, 192.0, 0.0, 0.0, 0.0, 0.0, 0.0, 0.0, 0.0, 0.0, 0.0, 1.6989589333596015E9, 0.0, 2023-11-02 17:02:13.359
234.0, -187500.02235174447, 187500.0, 32414.99154746432, 40625.74841091018, 187500.0, 187500.0, -187500.02235174447, 32654.512841047388, -0.074, 0.98, -0.066, 192.0, 0.0, 0.0, 0.0, 0.0, 0.0, 0.0, 0.0, 0.0, 0.0, 1.6989589333596125E9, 0.0, 2023-11-02 17:02:13.359
235.0, -187500.02235174447, 187500.0, 32415.036250953228, 40634.55499822557, 187500.0, 187500.0, -187500.02235174447, 32655.317503847782, -0.074, 0.98, -0.066, 192.0, 0.0, 0.0, 0.0, 0.0, 0.0, 0.0, 0.0, 0.0, 0.0, 1.6989589333596225E9, 0.0, 2023-11-02 17:02:13.359
236.0, -187500.02235174447, 187500.0, 32418.32195738816, 40640.478210506226, 187500.0, 187500.0, -187500.02235174447, 32658.491451560436, -0.076, 0.98, -0.07200000000000001, 192.0, 253.0, 160.0, 30.0, 160.0, 253.0, 192.0, 0.0, 0.0, 0.0, 1.698958933359632E9, 0.0, 2023-11-02 17:02:13.359
237.0, -187500.02235174447, 187500.0, 32418.970157977365, 40637.66189070486, 187500.0, 187500.0, -187500.02235174447, 32657.619733526677, -0.076, 0.98, -0.07200000000000001, 192.0, 0.0, 0.0, 0.0, 0.0, 0.0, 0.0, 0.0, 0.0, 0.0, 1.6989589333596442E9, 0.0, 2023-11-02 17:02:13.359
238.0, -187500.02235174447, 187500.0, 32424.446335368913, 40632.1410098244, 187500.0, 187500.0, -187500.02235174447, 32663.252373129413, -0.076, 0.98, -0.07200000000000001, 192.0, 0.0, 0.0, 0.0, 0.0, 0.0, 0.0, 0.0, 0.0, 0.0, 1.698958933359655E9, 0.0, 2023-11-02 17:02:13.359
239.0, -187500.02235174447, 187500.0, 32425.832143525142, 40641.394632028896, 187500.0, 187500.0, -187500.02235174447, 32665.800471997318, -0.076, 0.98, -0.07200000000000001, 192.0, 0.0, 0.0, 0.0, 0.0, 0.0, 0.0, 0.0, 0.0, 0.0, 1.698958933359668E9, 0.0, 2023-11-02 17:02:13.359
240.0, -187500.02235174447, 187500.0, 32424.535742346736, 40647.16138209836, 187500.0, 187500.0, -187500.02235174447, 32666.359265608702, -0.076, 0.98, -0.07200000000000001, 192.0, 0.0, 0.0, 0.0, 0.0, 0.0, 0.0, 0.0, 0.0, 0.0, 1.6989589333597064E9, 0.0, 2023-11-02 17:02:13.359
241.0, -187500.02235174447, 187500.0, 32426.03330922524, 40643.04866111859, 187500.0, 187500.0, -187500.02235174447, 32668.013294698394, -0.076, 0.98, -0.07200000000000001, 192.0, 0.0, 0.0, 0.0, 0.0, 0.0, 0.0, 0.0, 0.0, 0.0, 1.6989589336945157E9, 0.0, 2023-11-02 17:02:13.694
242.0, -187500.02235174447, 187500.0, 32424.22281792436, 40633.57152146954, 187500.0, 187500.0, -187500.02235174447, 32667.499204575925, -0.076, 0.98, -0.07200000000000001, 192.0, 0.0, 0.0, 0.0, 0.0, 0.0, 0.0, 0.0, 0.0, 0.0, 1.698958933694614E9, 0.0, 2023-11-02 17:02:13.694
243.0, -187500.02235174447, 187500.0, 32420.84770451161, 40638.84653316099, 187500.0, 187500.0, -187500.02235174447, 32666.158099908604, -0.076, 0.98, -0.07200000000000001, 192.0, 0.0, 0.0, 0.0, 0.0, 0.0, 0.0, 0.0, 0.0, 0.0, 1.698958933694628E9, 0.0, 2023-11-02 17:02:13.694
244.0, -187500.02235174447, 187500.0, 32413.73984977482, 40641.126411095436, 187500.0, 187500.0, -187500.02235174447, 32660.346646350226, -0.076, 0.98, -0.07200000000000001, 192.0, 0.0, 0.0, 0.0, 0.0, 0.0, 0.0, 0.0, 0.0, 0.0, 1.6989589336946416E9, 0.0, 2023-11-02 17:02:13.694
245.0, -187500.02235174447, 187500.0, 32414.36569861957, 40635.42671625933, 187500.0, 187500.0, -187500.02235174447, 32664.012332440896, -0.076, 0.98, -0.07200000000000001, 192.0, 0.0, 0.0, 0.0, 0.0, 0.0, 0.0, 0.0, 0.0, 0.0, 1.698958933694655E9, 0.0, 2023-11-02 17:02:13.694
246.0, -187500.02235174447, 187500.0, 32413.69514628591, 40631.26929179064, 187500.0, 187500.0, -187500.02235174447, 32664.23584988545, -0.066, 0.986, -0.066, 192.0, 253.0, 240.0, 30.0, 208.0, 253.0, 240.0, 0.0, 0.0, 0.0, 1.6989589336946683E9, 0.0, 2023-11-02 17:02:13.694
247.0, -187500.02235174447, 187500.0, 32417.249073654304, 40629.34704176748, 187500.0, 187500.0, -187500.02235174447, 32664.571126052277, -0.066, 0.986, -0.066, 192.0, 0.0, 0.0, 0.0, 0.0, 0.0, 0.0, 0.0, 0.0, 0.0, 1.6989589336946852E9, 0.0, 2023-11-02 17:02:13.694
248.0, -187500.02235174447, 187500.0, 32414.74567827531, 40629.90583537887, 187500.0, 187500.0, -187500.02235174447, 32660.883088217153, -0.066, 0.986, -0.066, 192.0, 0.0, 0.0, 0.0, 0.0, 0.0, 0.0, 0.0, 0.0, 0.0, 1.6989589336946979E9, 0.0, 2023-11-02 17:02:13.694
249.0, -187500.02235174447, 187500.0, 32413.181056163437, 40628.49767547818, 187500.0, 187500.0, -187500.02235174447, 32659.877259716664, -0.066, 0.986, -0.066, 192.0, 0.0, 0.0, 0.0, 0.0, 0.0, 0.0, 0.0, 0.0, 0.0, 1.6989589336947093E9, 0.0, 2023-11-02 17:02:13.694
250.0, -187500.02235174447, 187500.0, 32410.163570661975, 40627.17892255532, 187500.0, 187500.0, -187500.02235174447, 32658.08912016024, -0.066, 0.986, -0.066, 192.0, 0.0, 0.0, 0.0, 0.0, 0.0, 0.0, 0.0, 0.0, 0.0, 1.6989589336947207E9, 0.0, 2023-11-02 17:02:13.694
251.0, -187500.02235174447, 187500.0, 32414.32099513066, 40634.71146043676, 187500.0, 187500.0, -187500.02235174447, 32662.40300684011, -0.066, 0.986, -0.066, 192.0, 0.0, 0.0, 0.0, 0.0, 0.0, 0.0, 0.0, 0.0, 0.0, 1.6989589336947336E9, 0.0, 2023-11-02 17:02:13.694
252.0, -187500.02235174447, 187500.0, 32412.331689874136, 40637.974815127236, 187500.0, 187500.0, -187500.02235174447, 32660.212535883493, -0.066, 0.986, -0.066, 192.0, 0.0, 0.0, 0.0, 0.0, 0.0, 0.0, 0.0, 0.0, 0.0, 1.6989589336947513E9, 0.0, 2023-11-02 17:02:13.694
253.0, -187500.02235174447, 187500.0, 32410.901178228996, 40641.70755645127, 187500.0, 187500.0, -187500.02235174447, 32659.005541682905, -0.066, 0.986, -0.066, 192.0, 0.0, 0.0, 0.0, 0.0, 0.0, 0.0, 0.0, 0.0, 0.0, 1.6989589336947627E9, 0.0, 2023-11-02 17:02:13.694
254.0, -187500.02235174447, 187500.0, 32415.57269282016, 40638.108925593966, 187500.0, 187500.0, -187500.02235174447, 32663.90057371862, -0.066, 0.986, -0.066, 192.0, 0.0, 0.0, 0.0, 0.0, 0.0, 0.0, 0.0, 0.0, 0.0, 1.6989589336947763E9, 0.0, 2023-11-02 17:02:13.694
255.0, -187500.02235174447, 187500.0, 32415.237416653326, 40637.192504071296, 187500.0, 187500.0, -187500.02235174447, 32662.693579518032, -0.066, 0.986, -0.066, 192.0, 0.0, 0.0, 0.0, 0.0, 0.0, 0.0, 0.0, 0.0, 0.0, 1.6989589336947968E9, 0.0, 2023-11-02 17:02:13.694
0.0, -187500.02235174447, 187500.0, 32415.32682363115, 40640.03117561712, 187500.0, 187500.0, -187500.02235174447, 32661.12895740616, -0.076, 0.97, -0.068, 192.0, 253.0, 160.0, 30.0, 80.0, 253.0, 224.0, 0.0, 0.0, 0.0, 1.6989589336949744E9, 0.0, 2023-11-02 17:02:13.694
1.0, -187500.02235174447, 187500.0, 32415.617396309066, 40640.25469306167, 187500.0, 187500.0, -187500.02235174447, 32659.452576572014, -0.076, 0.97, -0.068, 192.0, 0.0, 0.0, 0.0, 0.0, 0.0, 0.0, 0.0, 0.0, 0.0, 1.6989589336949925E9, 0.0, 2023-11-02 17:02:13.694
2.0, -187500.02235174447, 187500.0, 32418.433716110438, 40632.69980343578, 187500.0, 187500.0, -187500.02235174447, 32657.373864337667, -0.076, 0.97, -0.068, 192.0, 0.0, 0.0, 0.0, 0.0, 0.0, 0.0, 0.0, 0.0, 0.0, 1.6989589336950047E9, 0.0, 2023-11-02 17:02:13.695
3.0, -187500.02235174447, 187500.0, 32426.21212318088, 40631.15753306836, 187500.0, 187500.0, -187500.02235174447, 32661.687751017544, -0.076, 0.97, -0.068, 192.0, 0.0, 0.0, 0.0, 0.0, 0.0, 0.0, 0.0, 0.0, 0.0, 1.6989589336950164E9, 0.0, 2023-11-02 17:02:13.695
4.0, -187500.02235174447, 187500.0, 32430.816582538675, 40640.32174829504, 187500.0, 187500.0, -187500.02235174447, 32665.08521617475, -0.076, 0.97, -0.068, 192.0, 0.0, 0.0, 0.0, 0.0, 0.0, 0.0, 0.0, 0.0, 0.0, 1.698958933695028E9, 0.0, 2023-11-02 17:02:13.695
5.0, -187500.02235174447, 187500.0, 32432.112983717085, 40647.20608558728, 187500.0, 187500.0, -187500.02235174447, 32664.816995241286, -0.076, 0.97, -0.068, 192.0, 0.0, 0.0, 0.0, 0.0, 0.0, 0.0, 0.0, 0.0, 0.0, 1.6989589336950505E9, 0.0, 2023-11-02 17:02:13.695
6.0, -187500.02235174447, 187500.0, 32444.071167000675, 40642.6910332073, 187500.0, 187500.0, -187500.02235174447, 32674.540004079343, -0.076, 0.97, -0.068, 192.0, 0.0, 0.0, 0.0, 0.0, 0.0, 0.0, 0.0, 0.0, 0.0, 1.6989589336950607E9, 0.0, 2023-11-02 17:02:13.695
7.0, -187500.02235174447, 187500.0, 32454.80000433922, 40642.154591340375, 187500.0, 187500.0, -187500.02235174447, 32683.905385006117, -0.076, 0.97, -0.068, 192.0, 0.0, 0.0, 0.0, 0.0, 0.0, 0.0, 0.0, 0.0, 0.0, 1.6989589336950712E9, 0.0, 2023-11-02 17:02:13.695
8.0, -187500.02235174447, 187500.0, 32459.002132296817, 40651.18469610032, 187500.0, 187500.0, -187500.02235174447, 32685.157082695616, -0.076, 0.97, -0.068, 192.0, 0.0, 0.0, 0.0, 0.0, 0.0, 0.0, 0.0, 0.0, 0.0, 1.6989589336950817E9, 0.0, 2023-11-02 17:02:13.695
9.0, -187500.02235174447, 187500.0, 32455.22468748387, 40655.00684440218, 187500.0, 187500.0, -187500.02235174447, 32678.60802157021, -0.076, 0.97, -0.068, 192.0, 0.0, 0.0, 0.0, 0.0, 0.0, 0.0, 0.0, 0.0, 0.0, 1.6989589336950917E9, 0.0, 2023-11-02 17:02:13.695
10.0, -187500.02235174447, 187500.0, 32460.410292197503, 40639.27121630564, 187500.0, 187500.0, -187500.02235174447, 32683.681867561565, -0.08600000000000001, 0.972, -0.066, 192.0, 253.0, 80.0, 30.0, 96.0, 253.0, 240.0, 0.0, 0.0, 0.0, 1.6989589336951032E9, 0.0, 2023-11-02 17:02:13.695
11.0, -187500.02235174447, 187500.0, 32466.109987033607, 40629.27998653412, 187500.0, 187500.0, -187500.02235174447, 32689.605079842222, -0.08600000000000001, 0.972, -0.066, 192.0, 0.0, 0.0, 0.0, 0.0, 0.0, 0.0, 0.0, 0.0, 0.0, 1.6989589336951149E9, 0.0, 2023-11-02 17:02:13.695
12.0, -187500.02235174447, 187500.0, 32469.485100446356, 40632.006899357664, 187500.0, 187500.0, -187500.02235174447, 32691.19205369855, -0.08600000000000001, 0.972, -0.066, 192.0, 0.0, 0.0, 0.0, 0.0, 0.0, 0.0, 0.0, 0.0, 0.0, 1.6989589336951263E9, 0.0, 2023-11-02 17:02:13.695
13.0, -187500.02235174447, 187500.0, 32466.780539367264, 40638.444201760794, 187500.0, 187500.0, -187500.02235174447, 32686.587594340755, -0.08600000000000001, 0.972, -0.066, 192.0, 0.0, 0.0, 0.0, 0.0, 0.0, 0.0, 0.0, 0.0, 0.0, 1.6989589336951373E9, 0.0, 2023-11-02 17:02:13.695
14.0, -187500.02235174447, 187500.0, 32467.607553912112, 40632.431582502315, 187500.0, 187500.0, -187500.02235174447, 32685.380600140168, -0.08600000000000001, 0.972, -0.066, 192.0, 0.0, 0.0, 0.0, 0.0, 0.0, 0.0, 0.0, 0.0, 0.0, 1.698958933695148E9, 0.0, 2023-11-02 17:02:13.695
15.0, -187500.02235174447, 187500.0, 32473.463710959404, 40624.384954498404, 187500.0, 187500.0, -187500.02235174447, 32689.918004264597, -0.08600000000000001, 0.972, -0.066, 192.0, 0.0, 0.0, 0.0, 0.0, 0.0, 0.0, 0.0, 0.0, 0.0, 1.6989589336951783E9, 0.0, 2023-11-02 17:02:13.695
16.0, -187500.02235174447, 187500.0, 32466.266449244795, 40630.46462899025, 187500.0, 187500.0, -187500.02235174447, 32682.631335572165, -0.08600000000000001, 0.972, -0.066, 192.0, 0.0, 0.0, 0.0, 0.0, 0.0, 0.0, 0.0, 0.0, 0.0, 1.6989589336951892E9, 0.0, 2023-11-02 17:02:13.695
17.0, -187500.02235174447, 187500.0, 32463.24896374333, 40628.27415803363, 187500.0, 187500.0, -187500.02235174447, 32678.60802157021, -0.08600000000000001, 0.972, -0.066, 192.0, 0.0, 0.0, 0.0, 0.0, 0.0, 0.0, 0.0, 0.0, 0.0, 1.6989589336951995E9, 0.0, 2023-11-02 17:02:13.695
18.0, -187500.02235174447, 187500.0, 32464.075978288172, 40623.75910565366, 187500.0, 187500.0, -187500.02235174447, 32676.216384913492, -0.08600000000000001, 0.972, -0.066, 192.0, 0.0, 0.0, 0.0, 0.0, 0.0, 0.0, 0.0, 0.0, 0.0, 1.6989589336952095E9, 0.0, 2023-11-02 17:02:13.695
19.0, -187500.02235174447, 187500.0, 32462.086673031652, 40610.41511421384, 187500.0, 187500.0, -187500.02235174447, 32673.020085456385, -0.08600000000000001, 0.972, -0.066, 192.0, 0.0, 0.0, 0.0, 0.0, 0.0, 0.0, 0.0, 0.0, 0.0, 1.6989589336952195E9, 0.0, 2023-11-02 17:02:13.695
20.0, -187500.02235174447, 187500.0, 32454.285914216747, 40604.89423333338, 187500.0, 187500.0, -187500.02235174447, 32666.31456211979, -0.08600000000000001, 0.976, -0.068, 192.0, 253.0, 80.0, 30.0, 128.0, 253.0, 224.0, 0.0, 0.0, 0.0, 1.6989589336952293E9, 0.0, 2023-11-02 17:02:13.695
21.0, -187500.02235174447, 187500.0, 32462.913687576496, 40610.839797358494, 187500.0, 187500.0, -187500.02235174447, 32676.104626191216, -0.08600000000000001, 0.976, -0.068, 192.0, 0.0, 0.0, 0.0, 0.0, 0.0, 0.0, 0.0, 0.0, 0.0, 1.6989589336952407E9, 0.0, 2023-11-02 17:02:13.695
22.0, -187500.02235174447, 187500.0, 32459.002132296817, 40615.086628805, 187500.0, 187500.0, -187500.02235174447, 32672.41658835609, -0.08600000000000001, 0.976, -0.068, 192.0, 0.0, 0.0, 0.0, 0.0, 0.0, 0.0, 0.0, 0.0, 0.0, 1.6989589336952507E9, 0.0, 2023-11-02 17:02:13.695
23.0, -187500.02235174447, 187500.0, 32458.95742880791, 40606.905890334354, 187500.0, 187500.0, -187500.02235174447, 32670.784911010855, -0.08600000000000001, 0.976, -0.068, 192.0, 0.0, 0.0, 0.0, 0.0, 0.0, 0.0, 0.0, 0.0, 0.0, 1.6989589336952603E9, 0.0, 2023-11-02 17:02:13.695
24.0, -187500.02235174447, 187500.0, 32461.505527675814, 40609.65515490236, 187500.0, 187500.0, -187500.02235174447, 32673.95885872351, -0.08600000000000001, 0.976, -0.068, 192.0, 0.0, 0.0, 0.0, 0.0, 0.0, 0.0, 0.0, 0.0, 0.0, 1.6989589336952708E9, 0.0, 2023-11-02 17:02:13.695
25.0, -187500.02235174447, 187500.0, 32466.93700157845, 40614.32666949352, 187500.0, 187500.0, -187500.02235174447, 32680.932602993562, -0.08600000000000001, 0.976, -0.068, 192.0, 0.0, 0.0, 0.0, 0.0, 0.0, 0.0, 0.0, 0.0, 0.0, 1.6989589336952813E9, 0.0, 2023-11-02 17:02:13.695
26.0, -187500.02235174447, 187500.0, 32465.99822831133, 40614.527835193614, 187500.0, 187500.0, -187500.02235174447, 32679.390332626146, -0.08600000000000001, 0.976, -0.068, 192.0, 0.0, 0.0, 0.0, 0.0, 0.0, 0.0, 0.0, 0.0, 0.0, 1.6989589336952908E9, 0.0, 2023-11-02 17:02:13.695
27.0, -187500.02235174447, 187500.0, 32462.84663234313, 40602.83787284349, 187500.0, 187500.0, -187500.02235174447, 32675.881108746664, -0.08600000000000001, 0.976, -0.068, 192.0, 0.0, 0.0, 0.0, 0.0, 0.0, 0.0, 0.0, 0.0, 0.0, 1.698958933695303E9, 0.0, 2023-11-02 17:02:13.695
28.0, -187500.02235174447, 187500.0, 32461.57258290918, 40605.78830311159, 187500.0, 187500.0, -187500.02235174447, 32675.74699827993, -0.08600000000000001, 0.976, -0.068, 192.0, 0.0, 0.0, 0.0, 0.0, 0.0, 0.0, 0.0, 0.0, 0.0, 1.698958933695313E9, 0.0, 2023-11-02 17:02:13.695
29.0, -187500.02235174447, 187500.0, 32459.09153927464, 40619.95930909626, 187500.0, 187500.0, -187500.02235174447, 32676.41755061359, -0.076, 0.988, -0.07200000000000001, 192.0, 253.0, 160.0, 30.0, 224.0, 253.0, 192.0, 0.0, 0.0, 0.0, 1.6989589336953251E9, 0.0, 2023-11-02 17:02:13.695
30.0, -187500.02235174447, 187500.0, 32450.53082114826, 40625.92722486582, 187500.0, 187500.0, -187500.02235174447, 32670.85196624422, -0.076, 0.988, -0.07200000000000001, 192.0, 0.0, 0.0, 0.0, 0.0, 0.0, 0.0, 0.0, 0.0, 0.0, 1.6989589336953712E9, 0.0, 2023-11-02 17:02:13.695
31.0, -187500.02235174447, 187500.0, 32445.859306557097, 40617.09828580598, 187500.0, 187500.0, -187500.02235174447, 32667.342742364737, -0.076, 0.988, -0.07200000000000001, 192.0, 0.0, 0.0, 0.0, 0.0, 0.0, 0.0, 0.0, 0.0, 0.0, 1.6989589336953857E9, 0.0, 2023-11-02 17:02:13.695
32.0, -187500.02235174447, 187500.0, 32450.88844905954, 40608.403457212866, 187500.0, 187500.0, -187500.02235174447, 32672.08131218926, -0.076, 0.988, -0.07200000000000001, 192.0, 0.0, 0.0, 0.0, 0.0, 0.0, 0.0, 0.0, 0.0, 0.0, 1.6989589336953976E9, 0.0, 2023-11-02 17:02:13.695
33.0, -187500.02235174447, 187500.0, 32453.593010138633, 40619.311108507056, 187500.0, 187500.0, -187500.02235174447, 32675.65759130211, -0.076, 0.988, -0.07200000000000001, 192.0, 0.0, 0.0, 0.0, 0.0, 0.0, 0.0, 0.0, 0.0, 0.0, 1.6989589336954076E9, 0.0, 2023-11-02 17:02:13.695
34.0, -187500.02235174447, 187500.0, 32445.635789112544, 40623.66969867584, 187500.0, 187500.0, -187500.02235174447, 32670.784911010855, -0.076, 0.988, -0.07200000000000001, 192.0, 0.0, 0.0, 0.0, 0.0, 0.0, 0.0, 0.0, 0.0, 0.0, 1.6989589336954348E9, 0.0, 2023-11-02 17:02:13.695
35.0, -187500.02235174447, 187500.0, 32444.51820188978, 40620.56280619655, 187500.0, 187500.0, -187500.02235174447, 32672.550698822823, -0.076, 0.988, -0.07200000000000001, 192.0, 0.0, 0.0, 0.0, 0.0, 0.0, 0.0, 0.0, 0.0, 0.0, 1.6989589336954446E9, 0.0, 2023-11-02 17:02:13.695
36.0, -187500.02235174447, 187500.0, 32446.7086728464, 40617.210044528256, 187500.0, 187500.0, -187500.02235174447, 32675.99286746894, -0.076, 0.988, -0.07200000000000001, 192.0, 0.0, 0.0, 0.0, 0.0, 0.0, 0.0, 0.0, 0.0, 0.0, 1.698958933695455E9, 0.0, 2023-11-02 17:02:13.695
37.0, -187500.02235174447, 187500.0, 32445.18875422344, 40626.508370221665, 187500.0, 187500.0, -187500.02235174447, 32674.249431401426, -0.076, 0.988, -0.07200000000000001, 192.0, 0.0, 0.0, 0.0, 0.0, 0.0, 0.0, 0.0, 0.0, 0.0, 1.698958933695465E9, 0.0, 2023-11-02 17:02:13.695
38.0, -187500.02235174447, 187500.0, 32440.22666695436, 40627.670660933334, 187500.0, 187500.0, -187500.02235174447, 32670.22611739947, -0.076, 0.988, -0.07200000000000001, 192.0, 0.0, 0.0, 0.0, 0.0, 0.0, 0.0, 0.0, 0.0, 0.0, 1.6989589336954749E9, 0.0, 2023-11-02 17:02:13.695
39.0, -187500.02235174447, 187500.0, 32440.27137044327, 40620.74162015219, 187500.0, 187500.0, -187500.02235174447, 32670.80726275531, -0.076, 0.978, -0.074, 192.0, 253.0, 160.0, 30.0, 144.0, 253.0, 176.0, 0.0, 0.0, 0.0, 1.6989589336954844E9, 0.0, 2023-11-02 17:02:13.695
40.0, -187500.02235174447, 187500.0, 32435.912780274488, 40617.679431161814, 187500.0, 187500.0, -187500.02235174447, 32668.54973656532, -0.076, 0.978, -0.074, 192.0, 0.0, 0.0, 0.0, 0.0, 0.0, 0.0, 0.0, 0.0, 0.0, 1.6989589336954951E9, 0.0, 2023-11-02 17:02:13.695
41.0, -187500.02235174447, 187500.0, 32441.61247511059, 40622.32859400852, 187500.0, 187500.0, -187500.02235174447, 32675.881108746664, -0.076, 0.978, -0.074, 192.0, 0.0, 0.0, 0.0, 0.0, 0.0, 0.0, 0.0, 0.0, 0.0, 1.6989589336955051E9, 0.0, 2023-11-02 17:02:13.695
42.0, -187500.02235174447, 187500.0, 32438.147954720018, 40632.07395459103, 187500.0, 187500.0, -187500.02235174447, 32674.5623558238, -0.076, 0.978, -0.074, 192.0, 0.0, 0.0, 0.0, 0.0, 0.0, 0.0, 0.0, 0.0, 0.0, 1.698958933695515E9, 0.0, 2023-11-02 17:02:13.695
43.0, -187500.02235174447, 187500.0, 32434.23639944034, 40625.167265554344, 187500.0, 187500.0, -187500.02235174447, 32670.382579610658, -0.076, 0.978, -0.074, 192.0, 0.0, 0.0, 0.0, 0.0, 0.0, 0.0, 0.0, 0.0, 0.0, 1.6989589336955264E9, 0.0, 2023-11-02 17:02:13.695
44.0, -187500.02235174447, 187500.0, 32430.816582538675, 40612.18090202581, 187500.0, 187500.0, -187500.02235174447, 32666.94041096454, -0.076, 0.978, -0.074, 192.0, 0.0, 0.0, 0.0, 0.0, 0.0, 0.0, 0.0, 0.0, 0.0, 1.6989589336955397E9, 0.0, 2023-11-02 17:02:13.695
45.0, -187500.02235174447, 187500.0, 32432.448259883913, 40613.3878962264, 187500.0, 187500.0, -187500.02235174447, 32669.689675532543, -0.076, 0.978, -0.074, 192.0, 0.0, 0.0, 0.0, 0.0, 0.0, 0.0, 0.0, 0.0, 0.0, 1.6989589336955507E9, 0.0, 2023-11-02 17:02:13.695
46.0, -187500.02235174447, 187500.0, 32428.89433251552, 40618.32763175102, 187500.0, 187500.0, -187500.02235174447, 32666.448672586524, -0.076, 0.978, -0.074, 192.0, 0.0, 0.0, 0.0, 0.0, 0.0, 0.0, 0.0, 0.0, 0.0, 1.6989589336955996E9, 0.0, 2023-11-02 17:02:13.695
47.0, -187500.02235174447, 187500.0, 32428.536704604234, 40617.50061720617, 187500.0, 187500.0, -187500.02235174447, 32665.599306297223, -0.076, 0.978, -0.074, 192.0, 0.0, 0.0, 0.0, 0.0, 0.0, 0.0, 0.0, 0.0, 0.0, 1.6989589336956108E9, 0.0, 2023-11-02 17:02:13.695
48.0, -187500.02235174447, 187500.0, 32433.18586745094, 40619.579329440516, 187500.0, 187500.0, -187500.02235174447, 32675.14350117964, -0.076, 0.978, -0.074, 192.0, 0.0, 0.0, 0.0, 0.0, 0.0, 0.0, 0.0, 0.0, 0.0, 1.6989589336956308E9, 0.0, 2023-11-02 17:02:13.695
49.0, -187500.02235174447, 187500.0, 32437.76797506428, 40624.5861201985, 187500.0, 187500.0, -187500.02235174447, 32684.263012917403, -0.082, 0.968, -0.066, 192.0, 253.0, 112.0, 30.0, 64.0, 253.0, 240.0, 0.0, 0.0, 0.0, 1.6989589336956427E9, 0.0, 2023-11-02 17:02:13.695
50.0, -187500.02235174447, 187500.0, 32438.37147216457, 40637.57248372704, 187500.0, 187500.0, -187500.02235174447, 32684.933565251064, -0.082, 0.968, -0.066, 192.0, 0.0, 0.0, 0.0, 0.0, 0.0, 0.0, 0.0, 0.0, 0.0, 1.6989589336956556E9, 0.0, 2023-11-02 17:02:13.695
51.0, -187500.02235174447, 187500.0, 32441.61247511059, 40643.60745472997, 187500.0, 187500.0, -187500.02235174447, 32685.47000711799, -0.082, 0.968, -0.066, 192.0, 0.0, 0.0, 0.0, 0.0, 0.0, 0.0, 0.0, 0.0, 0.0, 1.6989589336956663E9, 0.0, 2023-11-02 17:02:13.695
52.0, -187500.02235174447, 187500.0, 32446.775728079767, 40639.71825119475, 187500.0, 187500.0, -187500.02235174447, 32690.499149620435, -0.082, 0.968, -0.066, 192.0, 0.0, 0.0, 0.0, 0.0, 0.0, 0.0, 0.0, 0.0, 0.0, 1.698958933695681E9, 0.0, 2023-11-02 17:02:13.695
53.0, -187500.02235174447, 187500.0, 32438.930265775954, 40637.57248372704, 187500.0, 187500.0, -187500.02235174447, 32681.826672771775, -0.082, 0.968, -0.066, 192.0, 0.0, 0.0, 0.0, 0.0, 0.0, 0.0, 0.0, 0.0, 0.0, 1.698958933695691E9, 0.0, 2023-11-02 17:02:13.695
54.0, -187500.02235174447, 187500.0, 32436.650387841513, 40640.00882387267, 187500.0, 187500.0, -187500.02235174447, 32677.535137836356, -0.082, 0.968, -0.066, 192.0, 0.0, 0.0, 0.0, 0.0, 0.0, 0.0, 0.0, 0.0, 0.0, 1.6989589336957011E9, 0.0, 2023-11-02 17:02:13.695
55.0, -187500.02235174447, 187500.0, 32438.527934375757, 40648.52483851014, 187500.0, 187500.0, -187500.02235174447, 32679.27857390387, -0.082, 0.968, -0.066, 192.0, 0.0, 0.0, 0.0, 0.0, 0.0, 0.0, 0.0, 0.0, 0.0, 1.6989589336957126E9, 0.0, 2023-11-02 17:02:13.695
56.0, -187500.02235174447, 187500.0, 32440.51723963228, 40642.8921989074, 187500.0, 187500.0, -187500.02235174447, 32681.55845183831, -0.082, 0.968, -0.066, 192.0, 0.0, 0.0, 0.0, 0.0, 0.0, 0.0, 0.0, 0.0, 0.0, 1.698958933695724E9, 0.0, 2023-11-02 17:02:13.695
57.0, -187500.02235174447, 187500.0, 32447.37922518006, 40639.71825119475, 187500.0, 187500.0, -187500.02235174447, 32690.007411242415, -0.082, 0.968, -0.066, 192.0, 0.0, 0.0, 0.0, 0.0, 0.0, 0.0, 0.0, 0.0, 0.0, 1.6989589336957345E9, 0.0, 2023-11-02 17:02:13.695
58.0, -187500.02235174447, 187500.0, 32444.048815256217, 40646.490829764705, 187500.0, 187500.0, -187500.02235174447, 32687.839292030254, -0.082, 0.968, -0.066, 192.0, 0.0, 0.0, 0.0, 0.0, 0.0, 0.0, 0.0, 0.0, 0.0, 1.6989589336957445E9, 0.0, 2023-11-02 17:02:13.695
59.0, -187500.02235174447, 187500.0, 32440.6066466101, 40642.46751576275, 187500.0, 187500.0, -187500.02235174447, 32685.60411758472, -0.08600000000000001, 0.968, -0.068, 192.0, 253.0, 80.0, 30.0, 64.0, 253.0, 224.0, 0.0, 0.0, 0.0, 1.6989589336957552E9, 0.0, 2023-11-02 17:02:13.695
60.0, -187500.02235174447, 187500.0, 32438.393823909024, 40639.785306428115, 187500.0, 187500.0, -187500.02235174447, 32685.291193162346, -0.08600000000000001, 0.968, -0.068, 192.0, 0.0, 0.0, 0.0, 0.0, 0.0, 0.0, 0.0, 0.0, 0.0, 1.6989589336957684E9, 0.0, 2023-11-02 17:02:13.695
61.0, -187500.02235174447, 187500.0, 32429.922512760466, 40629.97289061223, 187500.0, 187500.0, -187500.02235174447, 32679.47973960397, -0.08600000000000001, 0.968, -0.068, 192.0, 0.0, 0.0, 0.0, 0.0, 0.0, 0.0, 0.0, 0.0, 0.0, 1.6989589336957996E9, 0.0, 2023-11-02 17:02:13.695
62.0, -187500.02235174447, 187500.0, 32438.37147216457, 40639.33827153901, 187500.0, 187500.0, -187500.02235174447, 32688.599251341733, -0.08600000000000001, 0.968, -0.068, 192.0, 0.0, 0.0, 0.0, 0.0, 0.0, 0.0, 0.0, 0.0, 0.0, 1.6989589336958134E9, 0.0, 2023-11-02 17:02:13.695
63.0, -187500.02235174447, 187500.0, 32438.349120420116, 40660.192449115806, 187500.0, 187500.0, -187500.02235174447, 32689.113341464206, -0.08600000000000001, 0.968, -0.068, 192.0, 0.0, 0.0, 0.0, 0.0, 0.0, 0.0, 0.0, 0.0, 0.0, 1.6989589336958246E9, 0.0, 2023-11-02 17:02:13.695
