%OpenBCI Raw EEG Data
%Number of channels = 8
%Sample Rate = 250 Hz
%Board = OpenBCI_GUI$BoardCytonSerial
Sample Index, EXG Channel 0, EXG Channel 1, EXG Channel 2, EXG Channel 3, EXG Channel 4, EXG Channel 5, EXG Channel 6, EXG Channel 7, Accel Channel 0, Accel Channel 1, Accel Channel 2, Other, Other, Other, Other, Other, Other, Other, Analog Channel 0, Analog Channel 1, Analog Channel 2, Timestamp, Other, Timestamp (Formatted)
180.0, -172326.40651779255, 187500.0, 30765.589268873846, 26486.1019237163, 187500.0, 187500.0, -187500.02235174447, 30003.685355625792, 0.0, 0.0, 0.0, 192.0, 0.0, 0.0, 0.0, 0.0, 0.0, 0.0, 0.0, 0.0, 0.0, 1.69895907028495E9, 0.0, 2023-11-02 17:04:30.284
181.0, -172456.4042635446, 187500.0, 30770.484300909557, 26492.315708674876, 187500.0, 187500.0, -187500.02235174447, 30007.865131838935, 0.0, 0.0, 0.0, 192.0, 0.0, 0.0, 0.0, 0.0, 0.0, 0.0, 0.0, 0.0, 0.0, 1.6989590702849667E9, 0.0, 2023-11-02 17:04:30.284
182.0, -172519.72675558648, 187500.0, 30767.9138502972, 26482.14566494771, 187500.0, 187500.0, -187500.02235174447, 30002.61247189194, 0.0, 0.0, 0.0, 192.0, 0.0, 0.0, 0.0, 0.0, 0.0, 0.0, 0.0, 0.0, 0.0, 1.6989590702849765E9, 0.0, 2023-11-02 17:04:30.284
183.0, -172653.12196649576, 187500.0, 30767.26564970799, 26480.268118413464, 187500.0, 187500.0, -187500.02235174447, 30002.65717538085, 0.0, 0.0, 0.0, 192.0, 0.0, 0.0, 0.0, 0.0, 0.0, 0.0, 0.0, 0.0, 0.0, 1.698959070284986E9, 0.0, 2023-11-02 17:04:30.284
184.0, -172866.2458498771, 187500.0, 30766.41628341869, 26484.09026671532, 187500.0, 187500.0, -187500.02235174447, 30003.975928303713, -0.046, 0.978, -0.046, 192.0, 254.0, 144.0, 30.0, 144.0, 254.0, 144.0, 0.0, 0.0, 0.0, 1.6989590702849956E9, 0.0, 2023-11-02 17:04:30.284
185.0, -173010.079325447, 187500.0, 30760.448367649125, 26482.637403325727, 187500.0, 187500.0, -187500.02235174447, 30000.578463146507, -0.046, 0.978, -0.046, 192.0, 0.0, 0.0, 0.0, 0.0, 0.0, 0.0, 0.0, 0.0, 0.0, 1.6989590702850068E9, 0.0, 2023-11-02 17:04:30.285
186.0, -173096.6029282335, 187500.0, 30759.33078042636, 26479.99989748, 187500.0, 187500.0, -187500.02235174447, 30002.0313265361, -0.046, 0.978, -0.046, 192.0, 0.0, 0.0, 0.0, 0.0, 0.0, 0.0, 0.0, 0.0, 0.0, 1.6989590702850163E9, 0.0, 2023-11-02 17:04:30.285
187.0, -173246.3372643396, 187500.0, 30764.85166130682, 26482.212720181076, 187500.0, 187500.0, -187500.02235174447, 30008.759201617147, -0.046, 0.978, -0.046, 192.0, 0.0, 0.0, 0.0, 0.0, 0.0, 0.0, 0.0, 0.0, 0.0, 1.6989590702850263E9, 0.0, 2023-11-02 17:04:30.285
188.0, -173454.92374359653, 187500.0, 30753.854603034808, 26478.01059222348, 187500.0, 187500.0, -187500.02235174447, 29999.572634646018, -0.046, 0.978, -0.046, 192.0, 0.0, 0.0, 0.0, 0.0, 0.0, 0.0, 0.0, 0.0, 0.0, 1.6989590702850358E9, 0.0, 2023-11-02 17:04:30.285
189.0, -173639.99618768648, 187500.0, 30750.03245473295, 26472.959097976578, 187500.0, 187500.0, -187500.02235174447, 29995.370506688418, -0.046, 0.978, -0.046, 192.0, 0.0, 0.0, 0.0, 0.0, 0.0, 0.0, 0.0, 0.0, 0.0, 1.6989590702850456E9, 0.0, 2023-11-02 17:04:30.285
190.0, -173740.86961041327, 187500.0, 30749.719530310576, 26483.822045781857, 187500.0, 187500.0, -187500.02235174447, 29999.41617243483, -0.046, 0.978, -0.046, 192.0, 0.0, 0.0, 0.0, 0.0, 0.0, 0.0, 0.0, 0.0, 0.0, 1.6989590702850552E9, 0.0, 2023-11-02 17:04:30.285
191.0, -173838.0773470494, 187500.0, 30742.8575447628, 26478.457627112584, 187500.0, 187500.0, -187500.02235174447, 29994.69995435476, -0.046, 0.978, -0.046, 192.0, 0.0, 0.0, 0.0, 0.0, 0.0, 0.0, 0.0, 0.0, 0.0, 1.6989590702850647E9, 0.0, 2023-11-02 17:04:30.285
192.0, -174029.65414877585, 187500.0, 30748.914867510186, 26484.0008597375, 187500.0, 187500.0, -187500.02235174447, 30000.399649190862, -0.046, 0.978, -0.046, 192.0, 0.0, 0.0, 0.0, 0.0, 0.0, 0.0, 0.0, 0.0, 0.0, 1.6989590702850745E9, 0.0, 2023-11-02 17:04:30.285
193.0, -174204.8247700721, 187500.0, 30753.385216401246, 26484.53730160443, 187500.0, 187500.0, -187500.02235174447, 30004.71353587074, -0.046, 0.978, -0.046, 192.0, 0.0, 0.0, 0.0, 0.0, 0.0, 0.0, 0.0, 0.0, 0.0, 1.698959070285084E9, 0.0, 2023-11-02 17:04:30.285
194.0, -174293.40473334846, 187500.0, 30754.18987920164, 26486.280737671943, 187500.0, 187500.0, -187500.02235174447, 30007.239282994185, -0.03, 0.978, -0.038, 192.0, 255.0, 16.0, 30.0, 144.0, 254.0, 208.0, 0.0, 0.0, 0.0, 1.6989590702850935E9, 0.0, 2023-11-02 17:04:30.285
195.0, -174376.84379540014, 187500.0, 30759.867222293287, 26491.980432508044, 187500.0, 187500.0, -187500.02235174447, 30012.000204563166, -0.03, 0.978, -0.038, 192.0, 0.0, 0.0, 0.0, 0.0, 0.0, 0.0, 0.0, 0.0, 0.0, 1.698959070285104E9, 0.0, 2023-11-02 17:04:30.285
196.0, -174529.28269258532, 187500.0, 30764.315219439894, 26491.1534179632, 187500.0, 187500.0, -187500.02235174447, 30013.855399352957, -0.03, 0.978, -0.038, 192.0, 0.0, 0.0, 0.0, 0.0, 0.0, 0.0, 0.0, 0.0, 0.0, 1.6989590702852156E9, 0.0, 2023-11-02 17:04:30.285
197.0, -174712.3881831632, 187500.0, 30768.159719486204, 26488.582967350838, 187500.0, 187500.0, -187500.02235174447, 30014.682413897805, -0.03, 0.978, -0.038, 192.0, 0.0, 0.0, 0.0, 0.0, 0.0, 0.0, 0.0, 0.0, 0.0, 1.6989590702852256E9, 0.0, 2023-11-02 17:04:30.285
198.0, -174784.96429740958, 187500.0, 30767.26564970799, 26489.409981895686, 187500.0, 187500.0, -187500.02235174447, 30009.04977429507, -0.03, 0.978, -0.038, 192.0, 0.0, 0.0, 0.0, 0.0, 0.0, 0.0, 0.0, 0.0, 0.0, 1.6989590702852354E9, 0.0, 2023-11-02 17:04:30.285
199.0, -174832.93114101066, 187500.0, 30771.221908476582, 26484.693763815616, 187500.0, 187500.0, -187500.02235174447, 30008.200408005767, -0.03, 0.978, -0.038, 192.0, 0.0, 0.0, 0.0, 0.0, 0.0, 0.0, 0.0, 0.0, 0.0, 1.6989590702852452E9, 0.0, 2023-11-02 17:04:30.285
200.0, -175017.89182637833, 187500.0, 30789.371524974293, 26494.99791800951, 187500.0, 187500.0, -187500.02235174447, 30024.338367502496, -0.03, 0.978, -0.038, 192.0, 0.0, 0.0, 0.0, 0.0, 0.0, 0.0, 0.0, 0.0, 0.0, 1.6989590702852547E9, 0.0, 2023-11-02 17:04:30.285
201.0, -175236.53659064014, 187500.0, 30790.936147086162, 26501.368165179276, 187500.0, 187500.0, -187500.02235174447, 30027.89229487089, -0.03, 0.978, -0.038, 192.0, 0.0, 0.0, 0.0, 0.0, 0.0, 0.0, 0.0, 0.0, 0.0, 1.6989590702852647E9, 0.0, 2023-11-02 17:04:30.285
202.0, -175355.67138858692, 187500.0, 30777.99448704654, 26494.9532145206, 187500.0, 187500.0, -187500.02235174447, 30017.096402298976, -0.03, 0.978, -0.038, 192.0, 0.0, 0.0, 0.0, 0.0, 0.0, 0.0, 0.0, 0.0, 0.0, 1.6989590702852764E9, 0.0, 2023-11-02 17:04:30.285
203.0, -175426.81699118819, 187500.0, 30770.61841137629, 26487.755952805994, 187500.0, 187500.0, -187500.02235174447, 30008.80390510606, -0.03, 0.978, -0.038, 192.0, 0.0, 0.0, 0.0, 0.0, 0.0, 0.0, 0.0, 0.0, 0.0, 1.698959070285286E9, 0.0, 2023-11-02 17:04:30.285
204.0, -175567.52122253433, 187500.0, 30770.640763120744, 26484.492598115517, 187500.0, 187500.0, -187500.02235174447, 30007.55220741656, -0.032, 0.972, -0.04, 192.0, 255.0, 0.0, 30.0, 96.0, 254.0, 192.0, 0.0, 0.0, 0.0, 1.6989590702852955E9, 0.0, 2023-11-02 17:04:30.285
205.0, -175780.06396055984, 187500.0, 30777.413341690703, 26490.371106907263, 187500.0, 187500.0, -187500.02235174447, 30013.52012318613, -0.032, 0.972, -0.04, 192.0, 0.0, 0.0, 0.0, 0.0, 0.0, 0.0, 0.0, 0.0, 0.0, 1.698959070285306E9, 0.0, 2023-11-02 17:04:30.285
206.0, -175913.74974414703, 187500.0, 30770.819577076385, 26490.05818248489, 187500.0, 187500.0, -187500.02235174447, 30006.836951593992, -0.032, 0.972, -0.04, 192.0, 0.0, 0.0, 0.0, 0.0, 0.0, 0.0, 0.0, 0.0, 0.0, 1.6989590702853158E9, 0.0, 2023-11-02 17:04:30.285
207.0, -175977.45221584468, 187500.0, 30770.283135209458, 26486.168978949667, 187500.0, 187500.0, -187500.02235174447, 30004.26650098163, -0.032, 0.972, -0.04, 192.0, 0.0, 0.0, 0.0, 0.0, 0.0, 0.0, 0.0, 0.0, 0.0, 1.6989590702853255E9, 0.0, 2023-11-02 17:04:30.285
208.0, -176122.15740944832, 187500.0, 30777.90508006872, 26489.47703712905, 187500.0, 187500.0, -187500.02235174447, 30012.26842549663, -0.032, 0.972, -0.04, 192.0, 0.0, 0.0, 0.0, 0.0, 0.0, 0.0, 0.0, 0.0, 0.0, 1.6989590702853353E9, 0.0, 2023-11-02 17:04:30.285
209.0, -176328.6651764709, 187500.0, 30775.08876026735, 26488.135932461733, 187500.0, 187500.0, -187500.02235174447, 30008.513332428138, -0.032, 0.972, -0.04, 192.0, 0.0, 0.0, 0.0, 0.0, 0.0, 0.0, 0.0, 0.0, 0.0, 1.6989590702853448E9, 0.0, 2023-11-02 17:04:30.285
210.0, -176486.84847198112, 187500.0, 30778.307411468915, 26488.225339439552, 187500.0, 187500.0, -187500.02235174447, 30009.04977429507, -0.032, 0.972, -0.04, 192.0, 0.0, 0.0, 0.0, 0.0, 0.0, 0.0, 0.0, 0.0, 0.0, 1.6989590702853549E9, 0.0, 2023-11-02 17:04:30.285
211.0, -176559.53634494977, 187500.0, 30783.29185048245, 26492.51687437497, 187500.0, 187500.0, -187500.02235174447, 30013.98950981969, -0.032, 0.972, -0.04, 192.0, 0.0, 0.0, 0.0, 0.0, 0.0, 0.0, 0.0, 0.0, 0.0, 1.698959070285391E9, 0.0, 2023-11-02 17:04:30.285
212.0, -176650.61970360516, 187500.0, 30779.42499869168, 26479.485807357527, 187500.0, 187500.0, -187500.02235174447, 30008.490980683684, -0.032, 0.972, -0.04, 192.0, 0.0, 0.0, 0.0, 0.0, 0.0, 0.0, 0.0, 0.0, 0.0, 1.6989590702854009E9, 0.0, 2023-11-02 17:04:30.285
213.0, -176826.72909816852, 187500.0, 30782.33072547087, 26474.501368343994, 187500.0, 187500.0, -187500.02235174447, 30006.18875100479, -0.032, 0.972, -0.04, 192.0, 0.0, 0.0, 0.0, 0.0, 0.0, 0.0, 0.0, 0.0, 0.0, 1.6989590702854104E9, 0.0, 2023-11-02 17:04:30.285
214.0, -176983.90656517824, 187500.0, 30794.311260498915, 26481.028077724946, 187500.0, 187500.0, -187500.02235174447, 30013.006033063655, -0.046, 0.984, -0.026000000000000002, 192.0, 254.0, 144.0, 30.0, 192.0, 255.0, 48.0, 0.0, 0.0, 0.0, 1.69895907028542E9, 0.0, 2023-11-02 17:04:30.285
215.0, -177038.02013850454, 187500.0, 30803.028440836486, 26484.0008597375, 187500.0, 187500.0, -187500.02235174447, 30013.94480633078, -0.046, 0.984, -0.026000000000000002, 192.0, 0.0, 0.0, 0.0, 0.0, 0.0, 0.0, 0.0, 0.0, 0.0, 1.6989590702854302E9, 0.0, 2023-11-02 17:04:30.285
216.0, -177115.89361618683, 187500.0, 30817.132391587784, 26486.504255116495, 187500.0, 187500.0, -187500.02235174447, 30019.108059299953, -0.046, 0.984, -0.026000000000000002, 192.0, 0.0, 0.0, 0.0, 0.0, 0.0, 0.0, 0.0, 0.0, 0.0, 1.6989590702854397E9, 0.0, 2023-11-02 17:04:30.285
217.0, -177283.46464436827, 187500.0, 30830.43167953869, 26490.751086563003, 187500.0, 187500.0, -187500.02235174447, 30024.628940180417, -0.046, 0.984, -0.026000000000000002, 192.0, 0.0, 0.0, 0.0, 0.0, 0.0, 0.0, 0.0, 0.0, 0.0, 1.6989590702854495E9, 0.0, 2023-11-02 17:04:30.285
218.0, -177431.9919862738, 187500.0, 30829.358795804837, 26487.48773187253, 187500.0, 187500.0, -187500.02235174447, 30017.968120332735, -0.046, 0.984, -0.026000000000000002, 192.0, 0.0, 0.0, 0.0, 0.0, 0.0, 0.0, 0.0, 0.0, 0.0, 1.6989590702854593E9, 0.0, 2023-11-02 17:04:30.285
219.0, -177496.2979550717, 187500.0, 30829.090574871374, 26481.47511261405, 187500.0, 187500.0, -187500.02235174447, 30014.280082497608, -0.046, 0.984, -0.026000000000000002, 192.0, 0.0, 0.0, 0.0, 0.0, 0.0, 0.0, 0.0, 0.0, 0.0, 1.6989590702854688E9, 0.0, 2023-11-02 17:04:30.285
220.0, -177558.12288023508, 187500.0, 30831.213990594628, 26481.318650402864, 187500.0, 187500.0, -187500.02235174447, 30015.308262742554, -0.046, 0.984, -0.026000000000000002, 192.0, 0.0, 0.0, 0.0, 0.0, 0.0, 0.0, 0.0, 0.0, 0.0, 1.6989590702854784E9, 0.0, 2023-11-02 17:04:30.285
221.0, -177696.3460679467, 187500.0, 30831.683377228186, 26478.77055153496, 187500.0, 187500.0, -187500.02235174447, 30014.503599942163, -0.046, 0.984, -0.026000000000000002, 192.0, 0.0, 0.0, 0.0, 0.0, 0.0, 0.0, 0.0, 0.0, 0.0, 1.698959070285488E9, 0.0, 2023-11-02 17:04:30.285
222.0, -177858.2844565254, 187500.0, 30829.738775460577, 26477.787074778924, 187500.0, 187500.0, -187500.02235174447, 30011.32965222951, -0.046, 0.984, -0.026000000000000002, 192.0, 0.0, 0.0, 0.0, 0.0, 0.0, 0.0, 0.0, 0.0, 0.0, 1.6989590702855008E9, 0.0, 2023-11-02 17:04:30.285
223.0, -177905.5360443039, 187500.0, 30821.490981756568, 26474.546071832905, 187500.0, 187500.0, -187500.02235174447, 30002.992451547678, -0.046, 0.984, -0.026000000000000002, 192.0, 0.0, 0.0, 0.0, 0.0, 0.0, 0.0, 0.0, 0.0, 0.0, 1.6989590702855468E9, 0.0, 2023-11-02 17:04:30.285
224.0, -177902.80913148038, 187500.0, 30818.205275321638, 26467.594679307305, 187500.0, 187500.0, -187500.02235174447, 29995.906948555345, -0.054, 0.982, -0.018000000000000002, 192.0, 254.0, 80.0, 30.0, 176.0, 255.0, 112.0, 0.0, 0.0, 0.0, 1.698959070285577E9, 0.0, 2023-11-02 17:04:30.285
225.0, -177996.59705121483, 187500.0, 30828.19650509316, 26468.555804318883, 187500.0, 187500.0, -187500.02235174447, 30001.092553268976, -0.054, 0.982, -0.018000000000000002, 192.0, 0.0, 0.0, 0.0, 0.0, 0.0, 0.0, 0.0, 0.0, 0.0, 1.698959070285588E9, 0.0, 2023-11-02 17:04:30.285
226.0, -178141.54811400748, 187500.0, 30832.644502239767, 26473.204967165588, 187500.0, 187500.0, -187500.02235174447, 30003.50654167015, -0.054, 0.982, -0.018000000000000002, 192.0, 0.0, 0.0, 0.0, 0.0, 0.0, 0.0, 0.0, 0.0, 0.0, 1.6989590702856083E9, 0.0, 2023-11-02 17:04:30.285
227.0, -178215.84531257694, 187500.0, 30834.119717373815, 26474.61312706627, 187500.0, 187500.0, -187500.02235174447, 30002.724230614214, -0.054, 0.982, -0.018000000000000002, 192.0, 0.0, 0.0, 0.0, 0.0, 0.0, 0.0, 0.0, 0.0, 0.0, 1.6989590702856183E9, 0.0, 2023-11-02 17:04:30.285
228.0, -178213.67719336477, 187500.0, 30831.57161850591, 26471.37212412025, 187500.0, 187500.0, -187500.02235174447, 29998.030364278602, -0.054, 0.982, -0.018000000000000002, 192.0, 0.0, 0.0, 0.0, 0.0, 0.0, 0.0, 0.0, 0.0, 0.0, 1.6989590702856276E9, 0.0, 2023-11-02 17:04:30.285
229.0, -178302.74889501918, 187500.0, 30843.082766900396, 26470.0980746863, 187500.0, 187500.0, -187500.02235174447, 30006.74754461617, -0.054, 0.982, -0.018000000000000002, 192.0, 0.0, 0.0, 0.0, 0.0, 0.0, 0.0, 0.0, 0.0, 0.0, 1.6989590702856374E9, 0.0, 2023-11-02 17:04:30.285
230.0, -178459.0322922507, 187500.0, 30847.307246602446, 26473.272022398953, 187500.0, 187500.0, -187500.02235174447, 30010.145009773376, -0.054, 0.982, -0.018000000000000002, 192.0, 0.0, 0.0, 0.0, 0.0, 0.0, 0.0, 0.0, 0.0, 0.0, 1.698959070285647E9, 0.0, 2023-11-02 17:04:30.285
231.0, -178516.69979294538, 187500.0, 30843.842726211875, 26468.91343223017, 187500.0, 187500.0, -187500.02235174447, 30002.925396314313, -0.054, 0.982, -0.018000000000000002, 192.0, 0.0, 0.0, 0.0, 0.0, 0.0, 0.0, 0.0, 0.0, 0.0, 1.6989590702856567E9, 0.0, 2023-11-02 17:04:30.285
232.0, -178532.390717553, 187500.0, 30848.469537314122, 26466.85707174028, 187500.0, 187500.0, -187500.02235174447, 30003.70770737025, -0.054, 0.982, -0.018000000000000002, 192.0, 0.0, 0.0, 0.0, 0.0, 0.0, 0.0, 0.0, 0.0, 0.0, 1.6989590702856662E9, 0.0, 2023-11-02 17:04:30.285
233.0, -178627.58679718815, 187500.0, 30852.5822582939, 26466.05240893989, 187500.0, 187500.0, -187500.02235174447, 30005.294681226576, -0.054, 0.982, -0.018000000000000002, 192.0, 0.0, 0.0, 0.0, 0.0, 0.0, 0.0, 0.0, 0.0, 0.0, 1.6989590702856758E9, 0.0, 2023-11-02 17:04:30.285
234.0, -178806.7583807419, 187500.0, 30851.375264093313, 26467.57232756285, 187500.0, 187500.0, -187500.02235174447, 30004.802942848557, -0.06, 0.98, -0.01, 192.0, 254.0, 32.0, 30.0, 160.0, 255.0, 176.0, 0.0, 0.0, 0.0, 1.6989590702856853E9, 0.0, 2023-11-02 17:04:30.285
235.0, -178921.71340247555, 187500.0, 30846.39082507978, 26469.561632819372, 187500.0, 187500.0, -187500.02235174447, 30002.45600968075, -0.06, 0.98, -0.01, 192.0, 0.0, 0.0, 0.0, 0.0, 0.0, 0.0, 0.0, 0.0, 0.0, 1.6989590702856958E9, 0.0, 2023-11-02 17:04:30.285
236.0, -178942.8358009858, 187500.0, 30838.835935453888, 26469.740446775013, 187500.0, 187500.0, -187500.02235174447, 29997.69508811177, -0.06, 0.98, -0.01, 192.0, 0.0, 0.0, 0.0, 0.0, 0.0, 0.0, 0.0, 0.0, 0.0, 1.6989590702857053E9, 0.0, 2023-11-02 17:04:30.285
237.0, -179012.4614849641, 187500.0, 30839.126508131805, 26468.399342107696, 187500.0, 187500.0, -187500.02235174447, 30000.93609105779, -0.06, 0.98, -0.01, 192.0, 0.0, 0.0, 0.0, 0.0, 0.0, 0.0, 0.0, 0.0, 0.0, 1.698959070285715E9, 0.0, 2023-11-02 17:04:30.285
238.0, -179174.91396366525, 187500.0, 30842.30045584446, 26469.159301419175, 187500.0, 187500.0, -187500.02235174447, 30006.456971938253, -0.06, 0.98, -0.01, 192.0, 0.0, 0.0, 0.0, 0.0, 0.0, 0.0, 0.0, 0.0, 0.0, 1.6989590702857249E9, 0.0, 2023-11-02 17:04:30.285
239.0, -179328.1798753953, 187500.0, 30845.72027274612, 26473.361429376775, 187500.0, 187500.0, -187500.02235174447, 30011.50846618515, -0.06, 0.98, -0.01, 192.0, 0.0, 0.0, 0.0, 0.0, 0.0, 0.0, 0.0, 0.0, 0.0, 1.6989590702857344E9, 0.0, 2023-11-02 17:04:30.285
240.0, -179366.91544853634, 187500.0, 30839.797060465466, 26468.04171419641, 187500.0, 187500.0, -187500.02235174447, 30007.485152183195, -0.06, 0.98, -0.01, 192.0, 0.0, 0.0, 0.0, 0.0, 0.0, 0.0, 0.0, 0.0, 0.0, 1.698959070285744E9, 0.0, 2023-11-02 17:04:30.285
241.0, -179438.7539552157, 187500.0, 30842.591028522376, 26467.773493262946, 187500.0, 187500.0, -187500.02235174447, 30013.050736552566, -0.06, 0.98, -0.01, 192.0, 0.0, 0.0, 0.0, 0.0, 0.0, 0.0, 0.0, 0.0, 0.0, 1.698959070285777E9, 0.0, 2023-11-02 17:04:30.285
242.0, -179611.75645729978, 187500.0, 30848.156612891747, 26474.81429276637, 187500.0, 187500.0, -187500.02235174447, 30021.209123278753, -0.06, 0.98, -0.01, 192.0, 0.0, 0.0, 0.0, 0.0, 0.0, 0.0, 0.0, 0.0, 0.0, 1.698959070285787E9, 0.0, 2023-11-02 17:04:30.285
243.0, -179772.91253482254, 187500.0, 30842.948656433662, 26475.931879989133, 187500.0, 187500.0, -187500.02235174447, 30016.738774387693, -0.06, 0.98, -0.01, 192.0, 0.0, 0.0, 0.0, 0.0, 0.0, 0.0, 0.0, 0.0, 0.0, 1.6989590702857966E9, 0.0, 2023-11-02 17:04:30.285
244.0, -179806.99894511688, 187500.0, 30827.615359737323, 26466.454740340083, 187500.0, 187500.0, -187500.02235174447, 30003.595948647973, -0.056, 0.97, -0.006, 192.0, 254.0, 64.0, 30.0, 80.0, 255.0, 208.0, 0.0, 0.0, 0.0, 1.698959070285808E9, 0.0, 2023-11-02 17:04:30.285
245.0, -179841.62179727815, 187500.0, 30823.234417824082, 26458.89985071419, 187500.0, 187500.0, -187500.02235174447, 30000.35494570195, -0.056, 0.97, -0.006, 192.0, 0.0, 0.0, 0.0, 0.0, 0.0, 0.0, 0.0, 0.0, 0.0, 1.6989590702858183E9, 0.0, 2023-11-02 17:04:30.285
246.0, -179990.70793279505, 187500.0, 30828.732946960088, 26456.28469661292, 187500.0, 187500.0, -187500.02235174447, 30004.110038770443, -0.056, 0.97, -0.006, 192.0, 0.0, 0.0, 0.0, 0.0, 0.0, 0.0, 0.0, 0.0, 0.0, 1.698959070285828E9, 0.0, 2023-11-02 17:04:30.285
247.0, -180159.75417611055, 187500.0, 30831.63867373928, 26456.66467626866, 187500.0, 187500.0, -187500.02235174447, 29999.99731779067, -0.056, 0.97, -0.006, 192.0, 0.0, 0.0, 0.0, 0.0, 0.0, 0.0, 0.0, 0.0, 0.0, 1.6989590702858377E9, 0.0, 2023-11-02 17:04:30.285
248.0, -180238.96875846013, 187500.0, 30836.15372611925, 26462.38672284922, 187500.0, 187500.0, -187500.02235174447, 29998.79032359008, -0.056, 0.97, -0.006, 192.0, 0.0, 0.0, 0.0, 0.0, 0.0, 0.0, 0.0, 0.0, 0.0, 1.6989590702858472E9, 0.0, 2023-11-02 17:04:30.285
249.0, -180253.38563363382, 187500.0, 30839.595894765367, 26462.76670250496, 187500.0, 187500.0, -187500.02235174447, 29993.828236321002, -0.056, 0.97, -0.006, 192.0, 0.0, 0.0, 0.0, 0.0, 0.0, 0.0, 0.0, 0.0, 0.0, 1.6989590702858565E9, 0.0, 2023-11-02 17:04:30.285
250.0, -180341.78678295456, 187500.0, 30842.121641888818, 26458.56457454736, 187500.0, 187500.0, -187500.02235174447, 29985.826311806002, -0.056, 0.97, -0.006, 192.0, 0.0, 0.0, 0.0, 0.0, 0.0, 0.0, 0.0, 0.0, 0.0, 1.6989590702858663E9, 0.0, 2023-11-02 17:04:30.285
251.0, -180490.0012004377, 187500.0, 30839.350025576357, 26452.03786516641, 187500.0, 187500.0, -187500.02235174447, 29974.203404689244, -0.056, 0.97, -0.006, 192.0, 0.0, 0.0, 0.0, 0.0, 0.0, 0.0, 0.0, 0.0, 0.0, 1.6989590702858758E9, 0.0, 2023-11-02 17:04:30.285
252.0, -180570.623942688, 187500.0, 30840.132336632294, 26448.32747558683, 187500.0, 187500.0, -187500.02235174447, 29969.017799975612, -0.056, 0.97, -0.006, 192.0, 0.0, 0.0, 0.0, 0.0, 0.0, 0.0, 0.0, 0.0, 0.0, 1.6989590702858853E9, 0.0, 2023-11-02 17:04:30.285
253.0, -180604.68800123787, 187500.0, 30843.686264000688, 26451.23320236602, 187500.0, 187500.0, -187500.02235174447, 29968.615468575415, -0.056, 0.97, -0.006, 192.0, 0.0, 0.0, 0.0, 0.0, 0.0, 0.0, 0.0, 0.0, 0.0, 1.6989590702858949E9, 0.0, 2023-11-02 17:04:30.285
254.0, -180688.35058073408, 187500.0, 30841.67460699971, 26451.926106444134, 187500.0, 187500.0, -187500.02235174447, 29964.83802376247, -0.054, 0.974, -0.004, 192.0, 254.0, 80.0, 30.0, 112.0, 255.0, 224.0, 0.0, 0.0, 0.0, 1.6989590702859044E9, 0.0, 2023-11-02 17:04:30.285
255.0, -180825.32207075623, 187500.0, 30838.56771452042, 26448.349827331287, 187500.0, 187500.0, -187500.02235174447, 29960.010046960124, -0.054, 0.974, -0.004, 192.0, 0.0, 0.0, 0.0, 0.0, 0.0, 0.0, 0.0, 0.0, 0.0, 1.698959070285915E9, 0.0, 2023-11-02 17:04:30.285
0.0, -180917.67947884556, 187500.0, 30839.730005232097, 26451.121443643744, 187500.0, 187500.0, -187500.02235174447, 29959.004218459635, -0.054, 0.974, -0.004, 192.0, 0.0, 0.0, 0.0, 0.0, 0.0, 0.0, 0.0, 0.0, 0.0, 1.6989590702859328E9, 0.0, 2023-11-02 17:04:30.285
1.0, -180931.13522900763, 187500.0, 30836.53370577499, 26448.103958142277, 187500.0, 187500.0, -187500.02235174447, 29952.633971289873, -0.054, 0.974, -0.004, 192.0, 0.0, 0.0, 0.0, 0.0, 0.0, 0.0, 0.0, 0.0, 0.0, 1.6989590702859423E9, 0.0, 2023-11-02 17:04:30.285
2.0, -180984.0641598778, 187500.0, 30835.550229018954, 26440.75023421648, 187500.0, 187500.0, -187500.02235174447, 29947.15779389832, -0.054, 0.974, -0.004, 192.0, 0.0, 0.0, 0.0, 0.0, 0.0, 0.0, 0.0, 0.0, 0.0, 1.6989590702859523E9, 0.0, 2023-11-02 17:04:30.285
3.0, -181109.5915567388, 187500.0, 30834.92438017421, 26438.22448709303, 187500.0, 187500.0, -187500.02235174447, 29943.045072918547, -0.054, 0.974, -0.004, 192.0, 0.0, 0.0, 0.0, 0.0, 0.0, 0.0, 0.0, 0.0, 0.0, 1.698959070285962E9, 0.0, 2023-11-02 17:04:30.285
4.0, -181190.52722341148, 187500.0, 30834.119717373815, 26440.012626649455, 187500.0, 187500.0, -187500.02235174447, 29940.45227056173, -0.054, 0.974, -0.004, 192.0, 0.0, 0.0, 0.0, 0.0, 0.0, 0.0, 0.0, 0.0, 0.0, 1.6989590702859716E9, 0.0, 2023-11-02 17:04:30.285
5.0, -181169.7624528125, 187500.0, 30833.4268132957, 26443.05246389538, 187500.0, 187500.0, -187500.02235174447, 29939.222924616686, -0.054, 0.974, -0.004, 192.0, 0.0, 0.0, 0.0, 0.0, 0.0, 0.0, 0.0, 0.0, 0.0, 1.6989590702859812E9, 0.0, 2023-11-02 17:04:30.285
6.0, -181172.42231040268, 187500.0, 30836.310188330437, 26443.9912371625, 187500.0, 187500.0, -187500.02235174447, 29938.999407172134, -0.054, 0.974, -0.004, 192.0, 0.0, 0.0, 0.0, 0.0, 0.0, 0.0, 0.0, 0.0, 0.0, 1.6989590702859907E9, 0.0, 2023-11-02 17:04:30.285
7.0, -181256.15194513227, 187500.0, 30838.545362775967, 26441.13021387222, 187500.0, 187500.0, -187500.02235174447, 29937.457136804718, -0.05, 0.978, -0.012, 192.0, 254.0, 112.0, 30.0, 144.0, 255.0, 160.0, 0.0, 0.0, 0.0, 1.6989590702860005E9, 0.0, 2023-11-02 17:04:30.286
8.0, -181314.71351560517, 187500.0, 30841.96517967763, 26445.37704531873, 187500.0, 187500.0, -187500.02235174447, 29936.69717749324, -0.05, 0.978, -0.012, 192.0, 0.0, 0.0, 0.0, 0.0, 0.0, 0.0, 0.0, 0.0, 0.0, 1.6989590702860107E9, 0.0, 2023-11-02 17:04:30.286
9.0, -181278.7495587766, 187500.0, 30847.128432646805, 26446.159356374665, 187500.0, 187500.0, -187500.02235174447, 29935.043148403543, -0.05, 0.978, -0.012, 192.0, 0.0, 0.0, 0.0, 0.0, 0.0, 0.0, 0.0, 0.0, 0.0, 1.6989590702860205E9, 0.0, 2023-11-02 17:04:30.286
10.0, -181244.9760729046, 187500.0, 30853.409272838748, 26443.343036573297, 187500.0, 187500.0, -187500.02235174447, 29936.898343193334, -0.05, 0.978, -0.012, 192.0, 0.0, 0.0, 0.0, 0.0, 0.0, 0.0, 0.0, 0.0, 0.0, 1.698959070286039E9, 0.0, 2023-11-02 17:04:30.286
11.0, -181280.2471256551, 187500.0, 30856.516165318033, 26444.48297554052, 187500.0, 187500.0, -187500.02235174447, 29935.2666658481, -0.05, 0.978, -0.012, 192.0, 0.0, 0.0, 0.0, 0.0, 0.0, 0.0, 0.0, 0.0, 0.0, 1.6989590702860537E9, 0.0, 2023-11-02 17:04:30.286
12.0, -181314.53470164954, 187500.0, 30859.556002563957, 26446.673446497138, 187500.0, 187500.0, -187500.02235174447, 29933.83615420296, -0.05, 0.978, -0.012, 192.0, 0.0, 0.0, 0.0, 0.0, 0.0, 0.0, 0.0, 0.0, 0.0, 1.6989590702860785E9, 0.0, 2023-11-02 17:04:30.286
13.0, -181228.43578200767, 187500.0, 30854.30334261696, 26441.353731316776, 187500.0, 187500.0, -187500.02235174447, 29925.72247096568, -0.05, 0.978, -0.012, 192.0, 0.0, 0.0, 0.0, 0.0, 0.0, 0.0, 0.0, 0.0, 0.0, 1.6989590702860885E9, 0.0, 2023-11-02 17:04:30.286
14.0, -181149.1541444247, 187500.0, 30858.930153719208, 26433.977655646522, 187500.0, 187500.0, -187500.02235174447, 29926.929465166268, -0.05, 0.978, -0.012, 192.0, 0.0, 0.0, 0.0, 0.0, 0.0, 0.0, 0.0, 0.0, 0.0, 1.6989590702860992E9, 0.0, 2023-11-02 17:04:30.286
15.0, -181160.79940328593, 187500.0, 30863.31109563245, 26431.362501545253, 187500.0, 187500.0, -187500.02235174447, 29925.566008754497, -0.05, 0.978, -0.012, 192.0, 0.0, 0.0, 0.0, 0.0, 0.0, 0.0, 0.0, 0.0, 0.0, 1.6989590702861235E9, 0.0, 2023-11-02 17:04:30.286
16.0, -181203.2230142621, 187500.0, 30866.909726489754, 26430.177859089123, 187500.0, 187500.0, -187500.02235174447, 29924.090793620446, -0.05, 0.978, -0.012, 192.0, 0.0, 0.0, 0.0, 0.0, 0.0, 0.0, 0.0, 0.0, 0.0, 1.6989590702861335E9, 0.0, 2023-11-02 17:04:30.286
17.0, -181170.67887433516, 187500.0, 30871.223613169626, 26433.79884169088, 187500.0, 187500.0, -187500.02235174447, 29926.102450621423, -0.056, 0.98, -0.004, 192.0, 254.0, 64.0, 30.0, 160.0, 255.0, 224.0, 0.0, 0.0, 0.0, 1.6989590702861452E9, 0.0, 2023-11-02 17:04:30.286
18.0, -181087.50803321696, 187500.0, 30876.29745916098, 26438.71622547105, 187500.0, 187500.0, -187500.02235174447, 29931.377462312874, -0.056, 0.98, -0.004, 192.0, 0.0, 0.0, 0.0, 0.0, 0.0, 0.0, 0.0, 0.0, 0.0, 1.6989590702861567E9, 0.0, 2023-11-02 17:04:30.286
19.0, -181075.5945534223, 187500.0, 30880.700752818677, 26442.963056917557, 187500.0, 187500.0, -187500.02235174447, 29936.563067026505, -0.056, 0.98, -0.004, 192.0, 0.0, 0.0, 0.0, 0.0, 0.0, 0.0, 0.0, 0.0, 0.0, 1.6989590702861676E9, 0.0, 2023-11-02 17:04:30.286
20.0, -181112.3408213068, 187500.0, 30884.50054937608, 26448.394530820195, 187500.0, 187500.0, -187500.02235174447, 29939.17822112778, -0.056, 0.98, -0.004, 192.0, 0.0, 0.0, 0.0, 0.0, 0.0, 0.0, 0.0, 0.0, 0.0, 1.698959070286178E9, 0.0, 2023-11-02 17:04:30.286
21.0, -181065.67037888413, 187500.0, 30886.713372077153, 26449.892097698703, 187500.0, 187500.0, -187500.02235174447, 29937.524192038083, -0.056, 0.98, -0.004, 192.0, 0.0, 0.0, 0.0, 0.0, 0.0, 0.0, 0.0, 0.0, 0.0, 1.698959070286189E9, 0.0, 2023-11-02 17:04:30.286
22.0, -180955.65509267512, 187500.0, 30886.78042731052, 26445.66761799665, 187500.0, 187500.0, -187500.02235174447, 29935.110203636912, -0.056, 0.98, -0.004, 192.0, 0.0, 0.0, 0.0, 0.0, 0.0, 0.0, 0.0, 0.0, 0.0, 1.698959070286201E9, 0.0, 2023-11-02 17:04:30.286
23.0, -180906.8388827847, 187500.0, 30884.657011587267, 26443.454795295573, 187500.0, 187500.0, -187500.02235174447, 29932.74091872465, -0.056, 0.98, -0.004, 192.0, 0.0, 0.0, 0.0, 0.0, 0.0, 0.0, 0.0, 0.0, 0.0, 1.698959070286212E9, 0.0, 2023-11-02 17:04:30.286
24.0, -180913.23148169895, 187500.0, 30881.192491196693, 26443.81242320686, 187500.0, 187500.0, -187500.02235174447, 29930.617503001395, -0.056, 0.98, -0.004, 192.0, 0.0, 0.0, 0.0, 0.0, 0.0, 0.0, 0.0, 0.0, 0.0, 1.6989590702862253E9, 0.0, 2023-11-02 17:04:30.286
25.0, -180867.45510905448, 187500.0, 30877.616212083845, 26440.303199327376, 187500.0, 187500.0, -187500.02235174447, 29928.06940413349, -0.056, 0.98, -0.004, 192.0, 0.0, 0.0, 0.0, 0.0, 0.0, 0.0, 0.0, 0.0, 0.0, 1.6989590702862372E9, 0.0, 2023-11-02 17:04:30.286
26.0, -180771.163793941, 187500.0, 30878.77850279552, 26441.979580161522, 187500.0, 187500.0, -187500.02235174447, 29929.477564034172, -0.056, 0.98, -0.004, 192.0, 0.0, 0.0, 0.0, 0.0, 0.0, 0.0, 0.0, 0.0, 0.0, 1.6989590702862487E9, 0.0, 2023-11-02 17:04:30.286
27.0, -180692.26213601377, 187500.0, 30878.30911616196, 26440.14673711619, 187500.0, 187500.0, -187500.02235174447, 29927.555314011017, -0.054, 0.962, -0.01, 192.0, 254.0, 80.0, 30.0, 16.0, 255.0, 176.0, 0.0, 0.0, 0.0, 1.6989590702862597E9, 0.0, 2023-11-02 17:04:30.286
28.0, -180656.8346210521, 187500.0, 30871.24596491408, 26436.86103068126, 187500.0, 187500.0, -187500.02235174447, 29923.263779075598, -0.054, 0.962, -0.01, 192.0, 0.0, 0.0, 0.0, 0.0, 0.0, 0.0, 0.0, 0.0, 0.0, 1.698959070286271E9, 0.0, 2023-11-02 17:04:30.286
29.0, -180599.54710001315, 187500.0, 30867.759092779055, 26437.46452778155, 187500.0, 187500.0, -187500.02235174447, 29922.369709297385, -0.054, 0.962, -0.01, 192.0, 0.0, 0.0, 0.0, 0.0, 0.0, 0.0, 0.0, 0.0, 0.0, 1.6989590702862835E9, 0.0, 2023-11-02 17:04:30.286
30.0, -180473.3491508185, 187500.0, 30867.177947423217, 26440.079681882824, 187500.0, 187500.0, -187500.02235174447, 29922.593226741938, -0.054, 0.962, -0.01, 192.0, 0.0, 0.0, 0.0, 0.0, 0.0, 0.0, 0.0, 0.0, 0.0, 1.698959070286334E9, 0.0, 2023-11-02 17:04:30.286
31.0, -180338.81400094202, 187500.0, 30861.500604331566, 26436.65986498116, 187500.0, 187500.0, -187500.02235174447, 29918.927540651268, -0.054, 0.962, -0.01, 192.0, 0.0, 0.0, 0.0, 0.0, 0.0, 0.0, 0.0, 0.0, 0.0, 1.6989590702863607E9, 0.0, 2023-11-02 17:04:30.286
32.0, -180301.97832607967, 187500.0, 30857.454938585157, 26437.263362081452, 187500.0, 187500.0, -187500.02235174447, 29917.76524993959, -0.054, 0.962, -0.01, 192.0, 0.0, 0.0, 0.0, 0.0, 0.0, 0.0, 0.0, 0.0, 0.0, 1.698959070286376E9, 0.0, 2023-11-02 17:04:30.286
33.0, -180229.40221183328, 187500.0, 30849.028330925506, 26435.586981247307, 187500.0, 187500.0, -187500.02235174447, 29911.104430091913, -0.054, 0.962, -0.01, 192.0, 0.0, 0.0, 0.0, 0.0, 0.0, 0.0, 0.0, 0.0, 0.0, 1.69895907028639E9, 0.0, 2023-11-02 17:04:30.286
34.0, -180084.8534804408, 187500.0, 30850.39178733728, 26435.095242869287, 187500.0, 187500.0, -187500.02235174447, 29915.2618545606, -0.054, 0.962, -0.01, 192.0, 0.0, 0.0, 0.0, 0.0, 0.0, 0.0, 0.0, 0.0, 0.0, 1.6989590702864027E9, 0.0, 2023-11-02 17:04:30.286
35.0, -179958.3649585682, 187500.0, 30855.040950183982, 26437.33041731482, 187500.0, 187500.0, -187500.02235174447, 29921.810915686005, -0.054, 0.962, -0.01, 192.0, 0.0, 0.0, 0.0, 0.0, 0.0, 0.0, 0.0, 0.0, 0.0, 1.6989590702864184E9, 0.0, 2023-11-02 17:04:30.286
36.0, -179893.58960313673, 187500.0, 30854.124528661316, 26437.218658592545, 187500.0, 187500.0, -187500.02235174447, 29920.738031952147, -0.054, 0.962, -0.01, 192.0, 0.0, 0.0, 0.0, 0.0, 0.0, 0.0, 0.0, 0.0, 0.0, 1.698959070286435E9, 0.0, 2023-11-02 17:04:30.286
37.0, -179872.44485288204, 187500.0, 30859.623057797322, 26449.512118042963, 187500.0, 187500.0, -187500.02235174447, 29927.845886688938, -0.044, 0.972, -0.026000000000000002, 192.0, 254.0, 160.0, 30.0, 96.0, 255.0, 48.0, 0.0, 0.0, 0.0, 1.6989590702864473E9, 0.0, 2023-11-02 17:04:30.286
38.0, -179712.78634223776, 187500.0, 30854.593915294878, 26446.360522074763, 187500.0, 187500.0, -187500.02235174447, 29921.25212207462, -0.044, 0.972, -0.026000000000000002, 192.0, 0.0, 0.0, 0.0, 0.0, 0.0, 0.0, 0.0, 0.0, 0.0, 1.6989590702864647E9, 0.0, 2023-11-02 17:04:30.286
39.0, -179534.68764241788, 187500.0, 30861.120624675827, 26447.656923253173, 187500.0, 187500.0, -187500.02235174447, 29925.54365701004, -0.044, 0.972, -0.026000000000000002, 192.0, 0.0, 0.0, 0.0, 0.0, 0.0, 0.0, 0.0, 0.0, 0.0, 1.6989590702864797E9, 0.0, 2023-11-02 17:04:30.286
40.0, -179439.87154243846, 187500.0, 30866.127415433817, 26455.39062683471, 187500.0, 187500.0, -187500.02235174447, 29930.617503001395, -0.044, 0.972, -0.026000000000000002, 192.0, 0.0, 0.0, 0.0, 0.0, 0.0, 0.0, 0.0, 0.0, 0.0, 1.6989590702864912E9, 0.0, 2023-11-02 17:04:30.286
41.0, -179354.5325821081, 187500.0, 30863.936944477195, 26450.406187821172, 187500.0, 187500.0, -187500.02235174447, 29928.15881111131, -0.044, 0.972, -0.026000000000000002, 192.0, 0.0, 0.0, 0.0, 0.0, 0.0, 0.0, 0.0, 0.0, 0.0, 1.698959070286502E9, 0.0, 2023-11-02 17:04:30.286
42.0, -179194.784664486, 187500.0, 30864.16046192175, 26448.685103498115, 187500.0, 187500.0, -187500.02235174447, 29926.907113421814, -0.044, 0.972, -0.026000000000000002, 192.0, 0.0, 0.0, 0.0, 0.0, 0.0, 0.0, 0.0, 0.0, 0.0, 1.6989590702865257E9, 0.0, 2023-11-02 17:04:30.286
43.0, -178984.47710090605, 187500.0, 30862.6852467877, 26447.38870231971, 187500.0, 187500.0, -187500.02235174447, 29925.990691899147, -0.044, 0.972, -0.026000000000000002, 192.0, 0.0, 0.0, 0.0, 0.0, 0.0, 0.0, 0.0, 0.0, 0.0, 1.6989590702865655E9, 0.0, 2023-11-02 17:04:30.286
44.0, -178860.69314011256, 187500.0, 30865.412159611245, 26448.059254653366, 187500.0, 187500.0, -187500.02235174447, 29930.12576462338, -0.044, 0.972, -0.026000000000000002, 192.0, 0.0, 0.0, 0.0, 0.0, 0.0, 0.0, 0.0, 0.0, 0.0, 1.698959070286584E9, 0.0, 2023-11-02 17:04:30.286
45.0, -178794.1519968691, 187500.0, 30865.836842755896, 26452.127272144233, 187500.0, 187500.0, -187500.02235174447, 29932.20447685772, -0.044, 0.972, -0.026000000000000002, 192.0, 0.0, 0.0, 0.0, 0.0, 0.0, 0.0, 0.0, 0.0, 0.0, 1.6989590702866004E9, 0.0, 2023-11-02 17:04:30.286
46.0, -178669.74218723085, 187500.0, 30861.18767990919, 26454.161280889664, 187500.0, 187500.0, -187500.02235174447, 29929.611674500906, -0.044, 0.972, -0.026000000000000002, 192.0, 0.0, 0.0, 0.0, 0.0, 0.0, 0.0, 0.0, 0.0, 0.0, 1.6989590702869227E9, 0.0, 2023-11-02 17:04:30.286
0.0, 0.0, 0.0, 0.0, 0.0, 0.0, 0.0, 0.0, 0.0, -0.054, 0.984, -0.064, 192.0, 254.0, 80.0, 30.0, 192.0, 254.0, 0.0, 0.0, 0.0, 0.0, 1.6989590703774126E9, 0.0, 2023-11-02 17:04:30.377
1.0, -158530.50750857682, 187500.0, 30434.44817476847, 26287.171398064067, 187500.0, 187500.0, -187500.02235174447, 29926.504782021617, -0.054, 0.984, -0.064, 192.0, 0.0, 0.0, 0.0, 0.0, 0.0, 0.0, 0.0, 0.0, 0.0, 1.6989590703938272E9, 0.0, 2023-11-02 17:04:30.393
2.0, -158480.88663588604, 187500.0, 30432.6823869565, 26286.232624796943, 187500.0, 187500.0, -187500.02235174447, 29926.705947721715, -0.054, 0.984, -0.064, 192.0, 0.0, 0.0, 0.0, 0.0, 0.0, 0.0, 0.0, 0.0, 0.0, 1.6989590708718476E9, 0.0, 2023-11-02 17:04:30.871
3.0, -158526.99828469733, 187500.0, 30433.48704975689, 26283.416304995575, 187500.0, 187500.0, -187500.02235174447, 29927.890590177845, -0.054, 0.984, -0.064, 192.0, 0.0, 0.0, 0.0, 0.0, 0.0, 0.0, 0.0, 0.0, 0.0, 1.6989590708719437E9, 0.0, 2023-11-02 17:04:30.871
4.0, -158541.95160173794, 187500.0, 30429.128459588108, 26283.617470695674, 187500.0, 187500.0, -187500.02235174447, 29925.320139565487, -0.054, 0.984, -0.064, 192.0, 0.0, 0.0, 0.0, 0.0, 0.0, 0.0, 0.0, 0.0, 0.0, 1.6989590708719594E9, 0.0, 2023-11-02 17:04:30.871
5.0, -158427.37655966004, 187500.0, 30420.34422401717, 26276.800188636804, 187500.0, 187500.0, -187500.02235174447, 29915.753592938614, -0.054, 0.984, -0.064, 192.0, 0.0, 0.0, 0.0, 0.0, 0.0, 0.0, 0.0, 0.0, 0.0, 1.6989590708719995E9, 0.0, 2023-11-02 17:04:30.871
6.0, -158364.9257856519, 187500.0, 30430.64837821107, 26283.72922941795, 187500.0, 187500.0, -187500.02235174447, 29924.671938976284, -0.054, 0.984, -0.064, 192.0, 0.0, 0.0, 0.0, 0.0, 0.0, 0.0, 0.0, 0.0, 0.0, 1.6989590708720124E9, 0.0, 2023-11-02 17:04:30.872
7.0, -158411.08213795212, 187500.0, 30437.21979108093, 26286.277328285854, 187500.0, 187500.0, -187500.02235174447, 29930.282226834566, -0.054, 0.984, -0.064, 192.0, 0.0, 0.0, 0.0, 0.0, 0.0, 0.0, 0.0, 0.0, 0.0, 1.6989590708720222E9, 0.0, 2023-11-02 17:04:30.872
8.0, -158455.07037104017, 187500.0, 30434.7834509353, 26289.026592853857, 187500.0, 187500.0, -187500.02235174447, 29926.951816910725, -0.06, 0.98, -0.088, 192.0, 254.0, 32.0, 30.0, 160.0, 253.0, 64.0, 0.0, 0.0, 0.0, 1.6989590708720329E9, 0.0, 2023-11-02 17:04:30.872
9.0, -158372.50302702226, 187500.0, 30439.544372504282, 26295.82152316827, 187500.0, 187500.0, -187500.02235174447, 29930.50574427912, -0.06, 0.98, -0.088, 192.0, 0.0, 0.0, 0.0, 0.0, 0.0, 0.0, 0.0, 0.0, 0.0, 1.6989590708720443E9, 0.0, 2023-11-02 17:04:30.872
10.0, -158284.81713352408, 187500.0, 30436.772756191822, 26289.652441698607, 187500.0, 187500.0, -187500.02235174447, 29926.370671554887, -0.06, 0.98, -0.088, 192.0, 0.0, 0.0, 0.0, 0.0, 0.0, 0.0, 0.0, 0.0, 0.0, 1.6989590708720555E9, 0.0, 2023-11-02 17:04:30.872
11.0, -158282.53725558965, 187500.0, 30431.989482878387, 26281.091723572223, 187500.0, 187500.0, -187500.02235174447, 29921.69915696373, -0.06, 0.98, -0.088, 192.0, 0.0, 0.0, 0.0, 0.0, 0.0, 0.0, 0.0, 0.0, 0.0, 1.6989590708720658E9, 0.0, 2023-11-02 17:04:30.872
12.0, -158301.02214825418, 187500.0, 30452.64249475509, 26306.751526206917, 187500.0, 187500.0, -187500.02235174447, 29943.62621827438, -0.06, 0.98, -0.088, 192.0, 0.0, 0.0, 0.0, 0.0, 0.0, 0.0, 0.0, 0.0, 0.0, 1.698959070872076E9, 0.0, 2023-11-02 17:04:30.872
13.0, -158255.06696165408, 187500.0, 30436.30336955826, 26294.368659778676, 187500.0, 187500.0, -187500.02235174447, 29928.1141076224, -0.06, 0.98, -0.088, 192.0, 0.0, 0.0, 0.0, 0.0, 0.0, 0.0, 0.0, 0.0, 0.0, 1.6989590708720856E9, 0.0, 2023-11-02 17:04:30.872
14.0, -158176.29941419358, 187500.0, 30430.9836543779, 26285.38325850764, 187500.0, 187500.0, -187500.02235174447, 29925.655415732315, -0.06, 0.98, -0.088, 192.0, 0.0, 0.0, 0.0, 0.0, 0.0, 0.0, 0.0, 0.0, 0.0, 1.6989590708725064E9, 0.0, 2023-11-02 17:04:30.872
15.0, -158168.96804201222, 187500.0, 30430.313102044238, 26288.467799242473, 187500.0, 187500.0, -187500.02235174447, 29926.504782021617, -0.06, 0.98, -0.088, 192.0, 0.0, 0.0, 0.0, 0.0, 0.0, 0.0, 0.0, 0.0, 0.0, 1.6989590708725216E9, 0.0, 2023-11-02 17:04:30.872
16.0, -158210.96696984375, 187500.0, 30429.68725319949, 26294.72628768996, 187500.0, 187500.0, -187500.02235174447, 29927.86823843339, -0.06, 0.98, -0.088, 192.0, 0.0, 0.0, 0.0, 0.0, 0.0, 0.0, 0.0, 0.0, 0.0, 1.6989590708725321E9, 0.0, 2023-11-02 17:04:30.872
17.0, -158168.99039375669, 187500.0, 30425.88745664209, 26296.894406902124, 187500.0, 187500.0, -187500.02235174447, 29926.325968065976, -0.06, 0.98, -0.088, 192.0, 0.0, 0.0, 0.0, 0.0, 0.0, 0.0, 0.0, 0.0, 0.0, 1.6989590708725464E9, 0.0, 2023-11-02 17:04:30.872
18.0, -158078.26466301258, 187500.0, 30420.008947850343, 26293.988680122937, 187500.0, 187500.0, -187500.02235174447, 29923.219075586687, -0.044, 0.97, -0.10200000000000001, 192.0, 254.0, 160.0, 30.0, 80.0, 252.0, 208.0, 0.0, 0.0, 0.0, 1.6989590708725579E9, 0.0, 2023-11-02 17:04:30.872
19.0, -158058.5057209141, 187500.0, 30418.958415860943, 26290.032421354346, 187500.0, 187500.0, -187500.02235174447, 29925.744822710138, -0.044, 0.97, -0.10200000000000001, 192.0, 0.0, 0.0, 0.0, 0.0, 0.0, 0.0, 0.0, 0.0, 0.0, 1.69895907087257E9, 0.0, 2023-11-02 17:04:30.872
20.0, -158120.7329774777, 187500.0, 30417.952587360454, 26295.24037781243, 187500.0, 187500.0, -187500.02235174447, 29926.616540743893, -0.044, 0.97, -0.10200000000000001, 192.0, 0.0, 0.0, 0.0, 0.0, 0.0, 0.0, 0.0, 0.0, 0.0, 1.698959070872582E9, 0.0, 2023-11-02 17:04:30.872
21.0, -158102.3598435354, 187500.0, 30407.335508744185, 26293.273424300365, 187500.0, 187500.0, -187500.02235174447, 29921.363880796896, -0.044, 0.97, -0.10200000000000001, 192.0, 0.0, 0.0, 0.0, 0.0, 0.0, 0.0, 0.0, 0.0, 0.0, 1.6989590708725924E9, 0.0, 2023-11-02 17:04:30.872
22.0, -158022.56411582997, 187500.0, 30406.10616279914, 26292.3570027777, 187500.0, 187500.0, -187500.02235174447, 29923.576703497973, -0.044, 0.97, -0.10200000000000001, 192.0, 0.0, 0.0, 0.0, 0.0, 0.0, 0.0, 0.0, 0.0, 0.0, 1.6989590708726044E9, 0.0, 2023-11-02 17:04:30.872
23.0, -157997.35134808437, 187500.0, 30414.488066969883, 26297.47555225796, 187500.0, 187500.0, -187500.02235174447, 29934.43965130325, -0.044, 0.97, -0.10200000000000001, 192.0, 0.0, 0.0, 0.0, 0.0, 0.0, 0.0, 0.0, 0.0, 0.0, 1.698959070872615E9, 0.0, 2023-11-02 17:04:30.872
24.0, -158065.34535471743, 187500.0, 30422.244122295873, 26307.57854075176, 187500.0, 187500.0, -187500.02235174447, 29946.73311075367, -0.044, 0.97, -0.10200000000000001, 192.0, 0.0, 0.0, 0.0, 0.0, 0.0, 0.0, 0.0, 0.0, 0.0, 1.6989590708726315E9, 0.0, 2023-11-02 17:04:30.872
25.0, -158057.4104854358, 187500.0, 30413.079907069197, 26305.231607583955, 187500.0, 187500.0, -187500.02235174447, 29938.194744371744, -0.044, 0.97, -0.10200000000000001, 192.0, 0.0, 0.0, 0.0, 0.0, 0.0, 0.0, 0.0, 0.0, 0.0, 1.6989590708726416E9, 0.0, 2023-11-02 17:04:30.872
26.0, -157949.40685622775, 187500.0, 30404.832113365188, 26299.710726703495, 187500.0, 187500.0, -187500.02235174447, 29931.802145457525, -0.044, 0.97, -0.10200000000000001, 192.0, 0.0, 0.0, 0.0, 0.0, 0.0, 0.0, 0.0, 0.0, 0.0, 1.6989590708726523E9, 0.0, 2023-11-02 17:04:30.872
27.0, -157864.17965461966, 187500.0, 30402.105200541642, 26292.379354522152, 187500.0, 187500.0, -187500.02235174447, 29930.572799512483, -0.026000000000000002, 0.968, -0.11, 192.0, 255.0, 48.0, 30.0, 64.0, 252.0, 144.0, 0.0, 0.0, 0.0, 1.698959070872672E9, 0.0, 2023-11-02 17:04:30.872
28.0, -157884.6091490518, 187500.0, 30404.183912775985, 26290.747677176914, 187500.0, 187500.0, -187500.02235174447, 29932.74091872465, -0.026000000000000002, 0.968, -0.11, 192.0, 0.0, 0.0, 0.0, 0.0, 0.0, 0.0, 0.0, 0.0, 0.0, 1.698959070872684E9, 0.0, 2023-11-02 17:04:30.872
29.0, -157892.02992821098, 187500.0, 30402.507531941836, 26291.708802188496, 187500.0, 187500.0, -187500.02235174447, 29930.617503001395, -0.026000000000000002, 0.968, -0.11, 192.0, 0.0, 0.0, 0.0, 0.0, 0.0, 0.0, 0.0, 0.0, 0.0, 1.6989590708728273E9, 0.0, 2023-11-02 17:04:30.872
30.0, -157786.61910135974, 187500.0, 30396.852540594646, 26285.740886418927, 187500.0, 187500.0, -187500.02235174447, 29923.800220942525, -0.026000000000000002, 0.968, -0.11, 192.0, 0.0, 0.0, 0.0, 0.0, 0.0, 0.0, 0.0, 0.0, 0.0, 1.6989590708728375E9, 0.0, 2023-11-02 17:04:30.872
31.0, -157673.1616465046, 187500.0, 30398.707735384436, 26285.58442420774, 187500.0, 187500.0, -187500.02235174447, 29924.627235487373, -0.026000000000000002, 0.968, -0.11, 192.0, 0.0, 0.0, 0.0, 0.0, 0.0, 0.0, 0.0, 0.0, 0.0, 1.6989590708728473E9, 0.0, 2023-11-02 17:04:30.872
32.0, -157670.4123819366, 187500.0, 30404.005098820344, 26282.321069517264, 187500.0, 187500.0, -187500.02235174447, 29927.01887214409, -0.026000000000000002, 0.968, -0.11, 192.0, 0.0, 0.0, 0.0, 0.0, 0.0, 0.0, 0.0, 0.0, 0.0, 1.6989590708728569E9, 0.0, 2023-11-02 17:04:30.872
33.0, -157700.9225131181, 187500.0, 30408.989537833877, 26284.28802302933, 187500.0, 187500.0, -187500.02235174447, 29929.030529145068, -0.026000000000000002, 0.968, -0.11, 192.0, 0.0, 0.0, 0.0, 0.0, 0.0, 0.0, 0.0, 0.0, 0.0, 1.6989590708728666E9, 0.0, 2023-11-02 17:04:30.872
34.0, -157629.12870992767, 187500.0, 30408.698965155956, 26286.38908700813, 187500.0, 187500.0, -187500.02235174447, 29927.130630866366, -0.026000000000000002, 0.968, -0.11, 192.0, 0.0, 0.0, 0.0, 0.0, 0.0, 0.0, 0.0, 0.0, 0.0, 1.6989590708728762E9, 0.0, 2023-11-02 17:04:30.872
35.0, -157512.00556898184, 187500.0, 30404.049802309255, 26279.19182529352, 187500.0, 187500.0, -187500.02235174447, 29920.02277612958, -0.026000000000000002, 0.968, -0.11, 192.0, 0.0, 0.0, 0.0, 0.0, 0.0, 0.0, 0.0, 0.0, 0.0, 1.6989590708728857E9, 0.0, 2023-11-02 17:04:30.872
36.0, -157508.74221429136, 187500.0, 30413.392831491572, 26283.013973595378, 187500.0, 187500.0, -187500.02235174447, 29928.315273322496, -0.026000000000000002, 0.968, -0.11, 192.0, 0.0, 0.0, 0.0, 0.0, 0.0, 0.0, 0.0, 0.0, 0.0, 1.6989590708728957E9, 0.0, 2023-11-02 17:04:30.872
37.0, -157542.02396178534, 187500.0, 30417.729069915902, 26289.093648087222, 187500.0, 187500.0, -187500.02235174447, 29931.15394486832, -0.046, 0.978, -0.114, 192.0, 254.0, 144.0, 30.0, 144.0, 252.0, 112.0, 0.0, 0.0, 0.0, 1.6989590708729053E9, 0.0, 2023-11-02 17:04:30.872
38.0, -157491.88899897208, 187500.0, 30420.92536937301, 26293.76516267838, 187500.0, 187500.0, -187500.02235174447, 29930.818668701493, -0.046, 0.978, -0.114, 192.0, 0.0, 0.0, 0.0, 0.0, 0.0, 0.0, 0.0, 0.0, 0.0, 1.6989590708729153E9, 0.0, 2023-11-02 17:04:30.872
39.0, -157370.27315739074, 187500.0, 30418.041994338277, 26287.461970741984, 187500.0, 187500.0, -187500.02235174447, 29927.465907033195, -0.046, 0.978, -0.114, 192.0, 0.0, 0.0, 0.0, 0.0, 0.0, 0.0, 0.0, 0.0, 0.0, 1.6989590708729248E9, 0.0, 2023-11-02 17:04:30.872
40.0, -157336.72318896334, 187500.0, 30421.64062519558, 26285.58442420774, 187500.0, 187500.0, -187500.02235174447, 29932.316235579998, -0.046, 0.978, -0.114, 192.0, 0.0, 0.0, 0.0, 0.0, 0.0, 0.0, 0.0, 0.0, 0.0, 1.6989590708729343E9, 0.0, 2023-11-02 17:04:30.872
41.0, -157390.14385821152, 187500.0, 30428.16733457653, 26293.653403956105, 187500.0, 187500.0, -187500.02235174447, 29939.82642171698, -0.046, 0.978, -0.114, 192.0, 0.0, 0.0, 0.0, 0.0, 0.0, 0.0, 0.0, 0.0, 0.0, 1.698959070872944E9, 0.0, 2023-11-02 17:04:30.872
42.0, -157365.51223582175, 187500.0, 30428.010872365343, 26293.720459189473, 187500.0, 187500.0, -187500.02235174447, 29938.820593216493, -0.046, 0.978, -0.114, 192.0, 0.0, 0.0, 0.0, 0.0, 0.0, 0.0, 0.0, 0.0, 0.0, 1.698959070872954E9, 0.0, 2023-11-02 17:04:30.872
43.0, -157268.863292797, 187500.0, 30424.21107580794, 26288.132523075645, 187500.0, 187500.0, -187500.02235174447, 29935.378424570376, -0.046, 0.978, -0.114, 192.0, 0.0, 0.0, 0.0, 0.0, 0.0, 0.0, 0.0, 0.0, 0.0, 1.6989590708729632E9, 0.0, 2023-11-02 17:04:30.872
44.0, -157223.33278934154, 187500.0, 30423.182895562997, 26283.617470695674, 187500.0, 187500.0, -187500.02235174447, 29935.356072825918, -0.046, 0.978, -0.114, 192.0, 0.0, 0.0, 0.0, 0.0, 0.0, 0.0, 0.0, 0.0, 0.0, 1.6989590708729825E9, 0.0, 2023-11-02 17:04:30.872
45.0, -157236.69913252583, 187500.0, 30420.21011355044, 26287.77489516436, 187500.0, 187500.0, -187500.02235174447, 29934.84198270345, -0.046, 0.978, -0.114, 192.0, 0.0, 0.0, 0.0, 0.0, 0.0, 0.0, 0.0, 0.0, 0.0, 1.6989590708729925E9, 0.0, 2023-11-02 17:04:30.872
46.0, -157226.12675739848, 187500.0, 30423.428764752003, 26291.641746955127, 187500.0, 187500.0, -187500.02235174447, 29939.379386827874, -0.046, 0.978, -0.114, 192.0, 0.0, 0.0, 0.0, 0.0, 0.0, 0.0, 0.0, 0.0, 0.0, 1.698959070873002E9, 0.0, 2023-11-02 17:04:30.873
47.0, -157141.86068080197, 187500.0, 30425.88745664209, 26294.0557353563, 187500.0, 187500.0, -187500.02235174447, 29942.82155547399, -0.062, 0.986, -0.11, 192.0, 254.0, 16.0, 30.0, 208.0, 252.0, 144.0, 0.0, 0.0, 0.0, 1.6989590708730116E9, 0.0, 2023-11-02 17:04:30.873
48.0, -157090.3399098325, 187500.0, 30421.819439151222, 26285.271499785365, 187500.0, 187500.0, -187500.02235174447, 29940.78754672856, -0.062, 0.986, -0.11, 192.0, 0.0, 0.0, 0.0, 0.0, 0.0, 0.0, 0.0, 0.0, 0.0, 1.6989590708730235E9, 0.0, 2023-11-02 17:04:30.873
49.0, -157152.5001111627, 187500.0, 30422.15471531805, 26282.902214873102, 187500.0, 187500.0, -187500.02235174447, 29941.189878128753, -0.062, 0.986, -0.11, 192.0, 0.0, 0.0, 0.0, 0.0, 0.0, 0.0, 0.0, 0.0, 0.0, 1.6989590708730333E9, 0.0, 2023-11-02 17:04:30.873
50.0, -157182.40674524388, 187500.0, 30417.907883871543, 26283.639822440127, 187500.0, 187500.0, -187500.02235174447, 29938.73118623867, -0.062, 0.986, -0.11, 192.0, 0.0, 0.0, 0.0, 0.0, 0.0, 0.0, 0.0, 0.0, 0.0, 1.6989590708730428E9, 0.0, 2023-11-02 17:04:30.873
51.0, -157107.61780829643, 187500.0, 30413.30342451375, 26285.115037574178, 187500.0, 187500.0, -187500.02235174447, 29936.585418770963, -0.062, 0.986, -0.11, 192.0, 0.0, 0.0, 0.0, 0.0, 0.0, 0.0, 0.0, 0.0, 0.0, 1.6989590708730524E9, 0.0, 2023-11-02 17:04:30.873
52.0, -157060.321517029, 187500.0, 30416.20915129294, 26288.221930053467, 187500.0, 187500.0, -187500.02235174447, 29940.9663606842, -0.062, 0.986, -0.11, 192.0, 0.0, 0.0, 0.0, 0.0, 0.0, 0.0, 0.0, 0.0, 0.0, 1.698959070873062E9, 0.0, 2023-11-02 17:04:30.873
53.0, -157112.73635777668, 187500.0, 30417.39379374907, 26293.228720811454, 187500.0, 187500.0, -187500.02235174447, 29943.357997340918, -0.062, 0.986, -0.11, 192.0, 0.0, 0.0, 0.0, 0.0, 0.0, 0.0, 0.0, 0.0, 0.0, 1.6989590708730717E9, 0.0, 2023-11-02 17:04:30.873
54.0, -157149.25910821668, 187500.0, 30416.946758859965, 26293.78751442284, 187500.0, 187500.0, -187500.02235174447, 29944.83321247497, -0.062, 0.986, -0.11, 192.0, 0.0, 0.0, 0.0, 0.0, 0.0, 0.0, 0.0, 0.0, 0.0, 1.6989590708730812E9, 0.0, 2023-11-02 17:04:30.873
55.0, -157115.57502932253, 187500.0, 30424.278131041305, 26299.375450536663, 187500.0, 187500.0, -187500.02235174447, 29949.97411369969, -0.062, 0.986, -0.11, 192.0, 0.0, 0.0, 0.0, 0.0, 0.0, 0.0, 0.0, 0.0, 0.0, 1.6989590708730907E9, 0.0, 2023-11-02 17:04:30.873
56.0, -157056.87934838288, 187500.0, 30421.819439151222, 26293.049906855813, 187500.0, 187500.0, -187500.02235174447, 29944.855564219426, -0.062, 0.986, -0.11, 192.0, 0.0, 0.0, 0.0, 0.0, 0.0, 0.0, 0.0, 0.0, 0.0, 1.6989590708731003E9, 0.0, 2023-11-02 17:04:30.873
57.0, -157120.00067472467, 187500.0, 30424.725165930413, 26288.736020175937, 187500.0, 187500.0, -187500.02235174447, 29945.459061319718, -0.07, 0.988, -0.116, 192.0, 253.0, 208.0, 30.0, 224.0, 252.0, 96.0, 0.0, 0.0, 0.0, 1.69895907087311E9, 0.0, 2023-11-02 17:04:30.873
58.0, -157206.72544321127, 187500.0, 30426.669767698026, 26295.508598745895, 187500.0, 187500.0, -187500.02235174447, 29947.82834623198, -0.07, 0.988, -0.116, 192.0, 0.0, 0.0, 0.0, 0.0, 0.0, 0.0, 0.0, 0.0, 0.0, 1.69895907087312E9, 0.0, 2023-11-02 17:04:30.873
59.0, -157211.93339966936, 187500.0, 30426.625064209114, 26298.190808080533, 187500.0, 187500.0, -187500.02235174447, 29950.197631144245, -0.07, 0.988, -0.116, 192.0, 0.0, 0.0, 0.0, 0.0, 0.0, 0.0, 0.0, 0.0, 0.0, 1.6989590708731296E9, 0.0, 2023-11-02 17:04:30.873
60.0, -157189.13462032494, 187500.0, 30425.149849075064, 26299.91189240359, 187500.0, 187500.0, -187500.02235174447, 29949.97411369969, -0.07, 0.988, -0.116, 192.0, 0.0, 0.0, 0.0, 0.0, 0.0, 0.0, 0.0, 0.0, 0.0, 1.6989590708731472E9, 0.0, 2023-11-02 17:04:30.873
61.0, -157250.53486234366, 187500.0, 30422.22177055142, 26298.593139480727, 187500.0, 187500.0, -187500.02235174447, 29948.02951193208, -0.07, 0.988, -0.116, 192.0, 0.0, 0.0, 0.0, 0.0, 0.0, 0.0, 0.0, 0.0, 0.0, 1.698959070873157E9, 0.0, 2023-11-02 17:04:30.873
62.0, -157348.9942966693, 187500.0, 30415.940930359477, 26295.82152316827, 187500.0, 187500.0, -187500.02235174447, 29941.34634033994, -0.07, 0.988, -0.116, 192.0, 0.0, 0.0, 0.0, 0.0, 0.0, 0.0, 0.0, 0.0, 0.0, 1.6989590708731663E9, 0.0, 2023-11-02 17:04:30.873
63.0, -157345.59683151208, 187500.0, 30405.994404076864, 26292.379354522152, 187500.0, 187500.0, -187500.02235174447, 29932.942084424747, -0.07, 0.988, -0.116, 192.0, 0.0, 0.0, 0.0, 0.0, 0.0, 0.0, 0.0, 0.0, 0.0, 1.698959070873176E9, 0.0, 2023-11-02 17:04:30.873
64.0, -157315.51138347524, 187500.0, 30406.799066877255, 26292.11113358869, 187500.0, 187500.0, -187500.02235174447, 29937.010101915614, -0.07, 0.988, -0.116, 192.0, 0.0, 0.0, 0.0, 0.0, 0.0, 0.0, 0.0, 0.0, 0.0, 1.6989590708731856E9, 0.0, 2023-11-02 17:04:30.873
65.0, -157394.14482046902, 187500.0, 30412.990500091375, 26303.62228198317, 187500.0, 187500.0, -187500.02235174447, 29947.60482878743, -0.07, 0.988, -0.116, 192.0, 0.0, 0.0, 0.0, 0.0, 0.0, 0.0, 0.0, 0.0, 0.0, 1.6989590708731952E9, 0.0, 2023-11-02 17:04:30.873
66.0, -157525.12604297712, 187500.0, 30415.11391581463, 26313.16647686559, 187500.0, 187500.0, -187500.02235174447, 29954.042131190556, -0.07, 0.988, -0.116, 192.0, 0.0, 0.0, 0.0, 0.0, 0.0, 0.0, 0.0, 0.0, 0.0, 1.6989590708732052E9, 0.0, 2023-11-02 17:04:30.873
67.0, -157596.31634906726, 187500.0, 30413.906921614045, 26319.91670369109, 187500.0, 187500.0, -187500.02235174447, 29957.327837625486, -0.06, 0.984, -0.114, 192.0, 254.0, 32.0, 30.0, 192.0, 252.0, 112.0, 0.0, 0.0, 0.0, 1.6989590708732157E9, 0.0, 2023-11-02 17:04:30.873
68.0, -157571.57296795523, 187500.0, 30405.525017443302, 26314.373471066174, 187500.0, 187500.0, -187500.02235174447, 29950.242334633152, -0.06, 0.984, -0.114, 192.0, 0.0, 0.0, 0.0, 0.0, 0.0, 0.0, 0.0, 0.0, 0.0, 1.698959070873226E9, 0.0, 2023-11-02 17:04:30.873
69.0, -157618.66809352257, 187500.0, 30408.050764566753, 26313.233532098955, 187500.0, 187500.0, -187500.02235174447, 29951.87401197839, -0.06, 0.984, -0.114, 192.0, 0.0, 0.0, 0.0, 0.0, 0.0, 0.0, 0.0, 0.0, 0.0, 1.6989590708732402E9, 0.0, 2023-11-02 17:04:30.873
70.0, -157734.78540596788, 187500.0, 30405.770886632312, 26313.72527047697, 187500.0, 187500.0, -187500.02235174447, 29949.728244510683, -0.06, 0.984, -0.114, 192.0, 0.0, 0.0, 0.0, 0.0, 0.0, 0.0, 0.0, 0.0, 0.0, 1.69895907087325E9, 0.0, 2023-11-02 17:04:30.873
71.0, -157782.1040489798, 187500.0, 30399.221825506906, 26310.73013671996, 187500.0, 187500.0, -187500.02235174447, 29943.223886874188, -0.06, 0.984, -0.114, 192.0, 0.0, 0.0, 0.0, 0.0, 0.0, 0.0, 0.0, 0.0, 0.0, 1.69895907087326E9, 0.0, 2023-11-02 17:04:30.873
72.0, -157762.12158943672, 187500.0, 30395.77965686079, 26302.81761918278, 187500.0, 187500.0, -187500.02235174447, 29939.871125205893, -0.06, 0.984, -0.114, 192.0, 0.0, 0.0, 0.0, 0.0, 0.0, 0.0, 0.0, 0.0, 0.0, 1.6989590708732705E9, 0.0, 2023-11-02 17:04:30.873
73.0, -157810.4460609491, 187500.0, 30401.34524123016, 26303.77874419436, 187500.0, 187500.0, -187500.02235174447, 29944.386177585864, -0.06, 0.984, -0.114, 192.0, 0.0, 0.0, 0.0, 0.0, 0.0, 0.0, 0.0, 0.0, 0.0, 1.6989590708732808E9, 0.0, 2023-11-02 17:04:30.873
74.0, -157932.86656533083, 187500.0, 30401.054668552242, 26303.152895349613, 187500.0, 187500.0, -187500.02235174447, 29944.92261945279, -0.06, 0.984, -0.114, 192.0, 0.0, 0.0, 0.0, 0.0, 0.0, 0.0, 0.0, 0.0, 0.0, 1.6989590708732908E9, 0.0, 2023-11-02 17:04:30.873
75.0, -158031.16953744527, 187500.0, 30401.904034841544, 26309.299625074822, 187500.0, 187500.0, -187500.02235174447, 29947.805994487524, -0.06, 0.984, -0.114, 192.0, 0.0, 0.0, 0.0, 0.0, 0.0, 0.0, 0.0, 0.0, 0.0, 1.6989590708733122E9, 0.0, 2023-11-02 17:04:30.873
76.0, -158056.89639531332, 187500.0, 30402.976918575398, 26315.848686200225, 187500.0, 187500.0, -187500.02235174447, 29950.130575910876, -0.06, 0.984, -0.114, 192.0, 0.0, 0.0, 0.0, 0.0, 0.0, 0.0, 0.0, 0.0, 0.0, 1.6989590708733225E9, 0.0, 2023-11-02 17:04:30.873
77.0, -158066.17236926226, 187500.0, 30397.076058039198, 26310.372508808676, 187500.0, 187500.0, -187500.02235174447, 29945.369654341896, -0.064, 0.98, -0.11, 192.0, 254.0, 0.0, 30.0, 160.0, 252.0, 144.0, 0.0, 0.0, 0.0, 1.698959070873332E9, 0.0, 2023-11-02 17:04:30.873
78.0, -158179.71923109522, 187500.0, 30400.45117145195, 26313.837029199247, 187500.0, 187500.0, -187500.02235174447, 29950.59996254444, -0.064, 0.98, -0.11, 192.0, 0.0, 0.0, 0.0, 0.0, 0.0, 0.0, 0.0, 0.0, 0.0, 1.6989590708733428E9, 0.0, 2023-11-02 17:04:30.873
79.0, -158289.80157253763, 187500.0, 30398.238348750874, 26315.692223989037, 187500.0, 187500.0, -187500.02235174447, 29950.152927655334, -0.064, 0.98, -0.11, 192.0, 0.0, 0.0, 0.0, 0.0, 0.0, 0.0, 0.0, 0.0, 0.0, 1.6989590708733523E9, 0.0, 2023-11-02 17:04:30.873
80.0, -158332.85103235854, 187500.0, 30406.262625010328, 26325.39288108264, 187500.0, 187500.0, -187500.02235174447, 29959.965343471213, -0.064, 0.98, -0.11, 192.0, 0.0, 0.0, 0.0, 0.0, 0.0, 0.0, 0.0, 0.0, 0.0, 1.6989590708733623E9, 0.0, 2023-11-02 17:04:30.873
81.0, -158357.03561985918, 187500.0, 30407.73784014438, 26325.281122360364, 187500.0, 187500.0, -187500.02235174447, 29962.267573150108, -0.064, 0.98, -0.11, 192.0, 0.0, 0.0, 0.0, 0.0, 0.0, 0.0, 0.0, 0.0, 0.0, 1.698959070873372E9, 0.0, 2023-11-02 17:04:30.873
82.0, -158468.5484729467, 187500.0, 30406.821418621712, 26321.54838103633, 187500.0, 187500.0, -187500.02235174447, 29963.496919095152, -0.064, 0.98, -0.11, 192.0, 0.0, 0.0, 0.0, 0.0, 0.0, 0.0, 0.0, 0.0, 0.0, 1.6989590708733816E9, 0.0, 2023-11-02 17:04:30.873
83.0, -158608.5821519592, 187500.0, 30404.005098820344, 26320.49784904693, 187500.0, 187500.0, -187500.02235174447, 29961.708779538727, -0.064, 0.98, -0.11, 192.0, 0.0, 0.0, 0.0, 0.0, 0.0, 0.0, 0.0, 0.0, 0.0, 1.6989590708733914E9, 0.0, 2023-11-02 17:04:30.873
84.0, -158649.37408559016, 187500.0, 30395.556139416236, 26318.82146821278, 187500.0, 187500.0, -187500.02235174447, 29955.65145679134, -0.064, 0.98, -0.11, 192.0, 0.0, 0.0, 0.0, 0.0, 0.0, 0.0, 0.0, 0.0, 0.0, 1.6989590708734016E9, 0.0, 2023-11-02 17:04:30.873
85.0, -158667.23312940993, 187500.0, 30395.042049293763, 26314.887561188647, 187500.0, 187500.0, -187500.02235174447, 29955.562049813518, -0.064, 0.98, -0.11, 192.0, 0.0, 0.0, 0.0, 0.0, 0.0, 0.0, 0.0, 0.0, 0.0, 1.6989590708734114E9, 0.0, 2023-11-02 17:04:30.873
86.0, -158770.25231960445, 187500.0, 30396.003174305344, 26314.239360599444, 187500.0, 187500.0, -187500.02235174447, 29957.998389959146, -0.064, 0.98, -0.11, 192.0, 0.0, 0.0, 0.0, 0.0, 0.0, 0.0, 0.0, 0.0, 0.0, 1.6989590708734212E9, 0.0, 2023-11-02 17:04:30.873
87.0, -158917.03622544245, 187500.0, 30398.327755728693, 26316.25101760042, 187500.0, 187500.0, -187500.02235174447, 29961.93229698328, -0.058, 0.982, -0.10200000000000001, 192.0, 254.0, 48.0, 30.0, 176.0, 252.0, 208.0, 0.0, 0.0, 0.0, 1.6989590708734307E9, 0.0, 2023-11-02 17:04:30.873
88.0, -158988.0253658325, 187500.0, 30402.82045636421, 26324.342349093244, 187500.0, 187500.0, -187500.02235174447, 29968.74957904215, -0.058, 0.982, -0.10200000000000001, 192.0, 0.0, 0.0, 0.0, 0.0, 0.0, 0.0, 0.0, 0.0, 0.0, 1.6989590708734412E9, 0.0, 2023-11-02 17:04:30.873
89.0, -159009.90772365424, 187500.0, 30405.390906976572, 26328.3656630952, 187500.0, 187500.0, -187500.02235174447, 29972.92935525529, -0.058, 0.982, -0.10200000000000001, 192.0, 0.0, 0.0, 0.0, 0.0, 0.0, 0.0, 0.0, 0.0, 0.0, 1.698959070873451E9, 0.0, 2023-11-02 17:04:30.873
90.0, -159104.76852712256, 187500.0, 30406.73201164389, 26328.29860786183, 187500.0, 187500.0, -187500.02235174447, 29974.829253533993, -0.058, 0.982, -0.10200000000000001, 192.0, 0.0, 0.0, 0.0, 0.0, 0.0, 0.0, 0.0, 0.0, 0.0, 1.6989590708734732E9, 0.0, 2023-11-02 17:04:30.873
91.0, -159254.05582833957, 187500.0, 30399.624156907103, 26323.917665948593, 187500.0, 187500.0, -187500.02235174447, 29968.011971475124, -0.058, 0.982, -0.10200000000000001, 192.0, 0.0, 0.0, 0.0, 0.0, 0.0, 0.0, 0.0, 0.0, 0.0, 1.6989590708734846E9, 0.0, 2023-11-02 17:04:30.873
92.0, -159346.0109050287, 187500.0, 30390.72816261389, 26322.39774732563, 187500.0, 187500.0, -187500.02235174447, 29961.93229698328, -0.058, 0.982, -0.10200000000000001, 192.0, 0.0, 0.0, 0.0, 0.0, 0.0, 0.0, 0.0, 0.0, 0.0, 1.6989590708734944E9, 0.0, 2023-11-02 17:04:30.873
93.0, -159372.22950127476, 187500.0, 30387.15188350104, 26318.30737809031, 187500.0, 187500.0, -187500.02235174447, 29960.54648882705, -0.058, 0.982, -0.10200000000000001, 192.0, 0.0, 0.0, 0.0, 0.0, 0.0, 0.0, 0.0, 0.0, 0.0, 1.6989590708735044E9, 0.0, 2023-11-02 17:04:30.873
94.0, -159474.645194369, 187500.0, 30392.91863357051, 26322.934189192558, 187500.0, 187500.0, -187500.02235174447, 29967.520233097108, -0.058, 0.982, -0.10200000000000001, 192.0, 0.0, 0.0, 0.0, 0.0, 0.0, 0.0, 0.0, 0.0, 0.0, 1.698959070873514E9, 0.0, 2023-11-02 17:04:30.873
95.0, -159653.39209477807, 187500.0, 30392.605709148134, 26325.50463980492, 187500.0, 187500.0, -187500.02235174447, 29968.50370985314, -0.058, 0.982, -0.10200000000000001, 192.0, 0.0, 0.0, 0.0, 0.0, 0.0, 0.0, 0.0, 0.0, 0.0, 1.6989590708735237E9, 0.0, 2023-11-02 17:04:30.873
96.0, -159768.83885488973, 187500.0, 30386.168406745008, 26325.862267716202, 187500.0, 187500.0, -187500.02235174447, 29966.223831918698, -0.058, 0.982, -0.10200000000000001, 192.0, 0.0, 0.0, 0.0, 0.0, 0.0, 0.0, 0.0, 0.0, 0.0, 1.6989590708735332E9, 0.0, 2023-11-02 17:04:30.873
97.0, -159802.47823029498, 187500.0, 30387.129531756585, 26322.39774732563, 187500.0, 187500.0, -187500.02235174447, 29966.40264587434, -0.038, 0.984, -0.10200000000000001, 192.0, 254.0, 208.0, 30.0, 192.0, 252.0, 208.0, 0.0, 0.0, 0.0, 1.6989590708735428E9, 0.0, 2023-11-02 17:04:30.873
98.0, -159875.30021373037, 187500.0, 30385.609613133623, 26320.453145558018, 187500.0, 187500.0, -187500.02235174447, 29965.665038307317, -0.038, 0.984, -0.10200000000000001, 192.0, 0.0, 0.0, 0.0, 0.0, 0.0, 0.0, 0.0, 0.0, 0.0, 1.6989590708735557E9, 0.0, 2023-11-02 17:04:30.873
99.0, -160022.24058177957, 187500.0, 30381.96627878741, 26315.468706544485, 187500.0, 187500.0, -187500.02235174447, 29964.055712706533, -0.038, 0.984, -0.10200000000000001, 192.0, 0.0, 0.0, 0.0, 0.0, 0.0, 0.0, 0.0, 0.0, 0.0, 1.6989590708735657E9, 0.0, 2023-11-02 17:04:30.873
100.0, -160160.26260379108, 187500.0, 30383.463845665916, 26319.3132065908, 187500.0, 187500.0, -187500.02235174447, 29968.950744742247, -0.038, 0.984, -0.10200000000000001, 192.0, 0.0, 0.0, 0.0, 0.0, 0.0, 0.0, 0.0, 0.0, 0.0, 1.6989590708735752E9, 0.0, 2023-11-02 17:04:30.873
101.0, -160179.1498278558, 187500.0, 30375.10429323963, 26316.698052489526, 187500.0, 187500.0, -187500.02235174447, 29963.58632607297, -0.038, 0.984, -0.10200000000000001, 192.0, 0.0, 0.0, 0.0, 0.0, 0.0, 0.0, 0.0, 0.0, 0.0, 1.6989590708735847E9, 0.0, 2023-11-02 17:04:30.873
102.0, -160213.19153466125, 187500.0, 30371.729179826878, 26312.54062802084, 187500.0, 187500.0, -187500.02235174447, 29960.770006271603, -0.038, 0.984, -0.10200000000000001, 192.0, 0.0, 0.0, 0.0, 0.0, 0.0, 0.0, 0.0, 0.0, 0.0, 1.6989590708735945E9, 0.0, 2023-11-02 17:04:30.873
103.0, -160355.48273986374, 187500.0, 30376.28893569576, 26314.68639548855, 187500.0, 187500.0, -187500.02235174447, 29964.16747142881, -0.038, 0.984, -0.10200000000000001, 192.0, 0.0, 0.0, 0.0, 0.0, 0.0, 0.0, 0.0, 0.0, 0.0, 1.6989590708736043E9, 0.0, 2023-11-02 17:04:30.873
104.0, -160470.59422380856, 187500.0, 30370.455130392926, 26318.709709490504, 187500.0, 187500.0, -187500.02235174447, 29961.060578949524, -0.038, 0.984, -0.10200000000000001, 192.0, 0.0, 0.0, 0.0, 0.0, 0.0, 0.0, 0.0, 0.0, 0.0, 1.698959070873614E9, 0.0, 2023-11-02 17:04:30.873
105.0, -160484.00527048175, 187500.0, 30361.62619133308, 26313.010014654403, 187500.0, 187500.0, -187500.02235174447, 29955.74086376916, -0.038, 0.984, -0.10200000000000001, 192.0, 0.0, 0.0, 0.0, 0.0, 0.0, 0.0, 0.0, 0.0, 0.0, 1.698959070873633E9, 0.0, 2023-11-02 17:04:30.873
106.0, -160510.35797719457, 187500.0, 30365.761264057313, 26313.837029199247, 187500.0, 187500.0, -187500.02235174447, 29961.082930693978, -0.038, 0.984, -0.10200000000000001, 192.0, 0.0, 0.0, 0.0, 0.0, 0.0, 0.0, 0.0, 0.0, 0.0, 1.6989590708736427E9, 0.0, 2023-11-02 17:04:30.873
107.0, -160615.70174881243, 187500.0, 30364.911897768012, 26314.35111932172, 187500.0, 187500.0, -187500.02235174447, 29960.345323126952, -0.034, 0.984, -0.092, 192.0, 254.0, 240.0, 30.0, 192.0, 253.0, 32.0, 0.0, 0.0, 0.0, 1.6989590708736525E9, 0.0, 2023-11-02 17:04:30.873
108.0, -160734.8365467592, 187500.0, 30354.875964507577, 26311.221875097977, 187500.0, 187500.0, -187500.02235174447, 29951.02464568909, -0.034, 0.984, -0.092, 192.0, 0.0, 0.0, 0.0, 0.0, 0.0, 0.0, 0.0, 0.0, 0.0, 1.6989590708736632E9, 0.0, 2023-11-02 17:04:30.873
109.0, -160773.2368437334, 187500.0, 30350.338560383152, 26312.49592453193, 187500.0, 187500.0, -187500.02235174447, 29947.895401465346, -0.034, 0.984, -0.092, 192.0, 0.0, 0.0, 0.0, 0.0, 0.0, 0.0, 0.0, 0.0, 0.0, 1.6989590708736727E9, 0.0, 2023-11-02 17:04:30.873
110.0, -160769.32528845375, 187500.0, 30346.67287429248, 26305.58923549524, 187500.0, 187500.0, -187500.02235174447, 29944.989674686156, -0.034, 0.984, -0.092, 192.0, 0.0, 0.0, 0.0, 0.0, 0.0, 0.0, 0.0, 0.0, 0.0, 1.6989590708736825E9, 0.0, 2023-11-02 17:04:30.873
111.0, -160859.89455698663, 187500.0, 30347.924571981977, 26310.461915786498, 187500.0, 187500.0, -187500.02235174447, 29947.82834623198, -0.034, 0.984, -0.092, 192.0, 0.0, 0.0, 0.0, 0.0, 0.0, 0.0, 0.0, 0.0, 0.0, 1.698959070873692E9, 0.0, 2023-11-02 17:04:30.873
112.0, -160982.493875324, 187500.0, 30343.342464368638, 26311.981834409456, 187500.0, 187500.0, -187500.02235174447, 29946.040206675556, -0.034, 0.984, -0.092, 192.0, 0.0, 0.0, 0.0, 0.0, 0.0, 0.0, 0.0, 0.0, 0.0, 1.6989590708737028E9, 0.0, 2023-11-02 17:04:30.873
113.0, -161037.79209110644, 187500.0, 30339.363853855593, 26311.378337309165, 187500.0, 187500.0, -187500.02235174447, 29941.860430462413, -0.034, 0.984, -0.092, 192.0, 0.0, 0.0, 0.0, 0.0, 0.0, 0.0, 0.0, 0.0, 0.0, 1.6989590708737123E9, 0.0, 2023-11-02 17:04:30.873
114.0, -161013.04870999441, 187500.0, 30332.613627030092, 26306.237436084444, 187500.0, 187500.0, -187500.02235174447, 29934.372596069887, -0.034, 0.984, -0.092, 192.0, 0.0, 0.0, 0.0, 0.0, 0.0, 0.0, 0.0, 0.0, 0.0, 1.6989590708737223E9, 0.0, 2023-11-02 17:04:30.873
115.0, -161077.779361937, 187500.0, 30336.972217198876, 26307.73500296295, 187500.0, 187500.0, -187500.02235174447, 29939.11116589441, -0.034, 0.984, -0.092, 192.0, 0.0, 0.0, 0.0, 0.0, 0.0, 0.0, 0.0, 0.0, 0.0, 1.6989590708737323E9, 0.0, 2023-11-02 17:04:30.873
116.0, -161203.01618612008, 187500.0, 30335.206429386908, 26303.711688960993, 187500.0, 187500.0, -187500.02235174447, 29935.73605248166, -0.034, 0.984, -0.092, 192.0, 0.0, 0.0, 0.0, 0.0, 0.0, 0.0, 0.0, 0.0, 0.0, 1.6989590708737428E9, 0.0, 2023-11-02 17:04:30.873
117.0, -161258.6049745804, 187500.0, 30332.635978774546, 26303.935206405546, 187500.0, 187500.0, -187500.02235174447, 29931.131593123868, -0.032, 0.982, -0.1, 192.0, 255.0, 0.0, 30.0, 176.0, 252.0, 224.0, 0.0, 0.0, 0.0, 1.6989590708737533E9, 0.0, 2023-11-02 17:04:30.873
118.0, -161231.06762541147, 187500.0, 30330.870190962578, 26298.2578633139, 187500.0, 187500.0, -187500.02235174447, 29928.136459366855, -0.032, 0.982, -0.1, 192.0, 0.0, 0.0, 0.0, 0.0, 0.0, 0.0, 0.0, 0.0, 0.0, 1.6989590708737645E9, 0.0, 2023-11-02 17:04:30.873
119.0, -161269.60203285242, 187500.0, 30336.972217198876, 26297.453200513508, 187500.0, 187500.0, -187500.02235174447, 29932.852677446925, -0.032, 0.982, -0.1, 192.0, 0.0, 0.0, 0.0, 0.0, 0.0, 0.0, 0.0, 0.0, 0.0, 1.6989590708737743E9, 0.0, 2023-11-02 17:04:30.873
120.0, -161386.09932495348, 187500.0, 30337.86628697709, 26297.900235402612, 187500.0, 187500.0, -187500.02235174447, 29933.098546635934, -0.032, 0.982, -0.1, 192.0, 0.0, 0.0, 0.0, 0.0, 0.0, 0.0, 0.0, 0.0, 0.0, 1.6989590708738036E9, 0.0, 2023-11-02 17:04:30.873
121.0, -161477.83088419808, 187500.0, 30340.19086840044, 26302.281177315854, 187500.0, 187500.0, -187500.02235174447, 29937.233619360166, -0.032, 0.982, -0.1, 192.0, 0.0, 0.0, 0.0, 0.0, 0.0, 0.0, 0.0, 0.0, 0.0, 1.6989590708738136E9, 0.0, 2023-11-02 17:04:30.873
122.0, -161488.3138523476, 187500.0, 30341.800194001222, 26301.87884591566, 187500.0, 187500.0, -187500.02235174447, 29938.328854838473, -0.032, 0.982, -0.1, 192.0, 0.0, 0.0, 0.0, 0.0, 0.0, 0.0, 0.0, 0.0, 0.0, 1.6989590713556163E9, 0.0, 2023-11-02 17:04:31.355
123.0, -161528.03290224468, 187500.0, 30345.979970214365, 26302.169418593578, 187500.0, 187500.0, -187500.02235174447, 29940.854601961924, -0.032, 0.982, -0.1, 192.0, 0.0, 0.0, 0.0, 0.0, 0.0, 0.0, 0.0, 0.0, 0.0, 1.698959071355739E9, 0.0, 2023-11-02 17:04:31.355
124.0, -161643.7031798009, 187500.0, 30344.48240333586, 26300.58244473725, 187500.0, 187500.0, -187500.02235174447, 29937.457136804718, -0.032, 0.982, -0.1, 192.0, 0.0, 0.0, 0.0, 0.0, 0.0, 0.0, 0.0, 0.0, 0.0, 1.6989590713557556E9, 0.0, 2023-11-02 17:04:31.355
125.0, -161707.8750381321, 187500.0, 30335.094670664632, 26292.53581673334, 187500.0, 187500.0, -187500.02235174447, 29927.465907033195, -0.032, 0.982, -0.1, 192.0, 0.0, 0.0, 0.0, 0.0, 0.0, 0.0, 0.0, 0.0, 0.0, 1.6989590713557725E9, 0.0, 2023-11-02 17:04:31.355
126.0, -161692.05000305772, 187500.0, 30329.19381012843, 26284.511540473886, 187500.0, 187500.0, -187500.02235174447, 29921.967377897192, -0.032, 0.982, -0.1, 192.0, 0.0, 0.0, 0.0, 0.0, 0.0, 0.0, 0.0, 0.0, 0.0, 1.698959071355788E9, 0.0, 2023-11-02 17:04:31.355
127.0, -161700.54366595074, 187500.0, 30328.43385081695, 26279.19182529352, 187500.0, 187500.0, -187500.02235174447, 29921.83326743046, -0.036000000000000004, 0.966, -0.092, 192.0, 254.0, 224.0, 30.0, 48.0, 253.0, 32.0, 0.0, 0.0, 0.0, 1.6989590713558085E9, 0.0, 2023-11-02 17:04:31.355
128.0, -161776.56194884324, 187500.0, 30323.47176354787, 26276.53196770334, 187500.0, 187500.0, -187500.02235174447, 29918.681671462262, -0.036000000000000004, 0.966, -0.092, 192.0, 0.0, 0.0, 0.0, 0.0, 0.0, 0.0, 0.0, 0.0, 0.0, 1.698959071355826E9, 0.0, 2023-11-02 17:04:31.355
129.0, -161874.3061273463, 187500.0, 30327.539781038737, 26280.24235728292, 187500.0, 187500.0, -187500.02235174447, 29923.152020353322, -0.036000000000000004, 0.966, -0.092, 192.0, 0.0, 0.0, 0.0, 0.0, 0.0, 0.0, 0.0, 0.0, 0.0, 1.69895907135584E9, 0.0, 2023-11-02 17:04:31.355
130.0, -161877.68124075906, 187500.0, 30320.275464090762, 26278.58832819323, 187500.0, 187500.0, -187500.02235174447, 29918.480505762163, -0.036000000000000004, 0.966, -0.092, 192.0, 0.0, 0.0, 0.0, 0.0, 0.0, 0.0, 0.0, 0.0, 0.0, 1.6989590713558528E9, 0.0, 2023-11-02 17:04:31.355
131.0, -161855.28479281484, 187500.0, 30315.201618099407, 26266.563089676274, 187500.0, 187500.0, -187500.02235174447, 29913.093735348433, -0.036000000000000004, 0.966, -0.092, 192.0, 0.0, 0.0, 0.0, 0.0, 0.0, 0.0, 0.0, 0.0, 0.0, 1.6989590713558648E9, 0.0, 2023-11-02 17:04:31.355
132.0, -161940.64610488966, 187500.0, 30320.722498979867, 26263.992639063912, 187500.0, 187500.0, -187500.02235174447, 29917.78760168405, -0.036000000000000004, 0.966, -0.092, 192.0, 0.0, 0.0, 0.0, 0.0, 0.0, 0.0, 0.0, 0.0, 0.0, 1.6989590713558784E9, 0.0, 2023-11-02 17:04:31.355
133.0, -162034.47872811303, 187500.0, 30319.716670479378, 26259.43288319503, 187500.0, 187500.0, -187500.02235174447, 29916.759421439103, -0.036000000000000004, 0.966, -0.092, 192.0, 0.0, 0.0, 0.0, 0.0, 0.0, 0.0, 0.0, 0.0, 0.0, 1.6989590713559406E9, 0.0, 2023-11-02 17:04:31.355
134.0, -162056.56225163487, 187500.0, 30316.654481489004, 26252.369731947154, 187500.0, 187500.0, -187500.02235174447, 29915.150095838322, -0.036000000000000004, 0.966, -0.092, 192.0, 0.0, 0.0, 0.0, 0.0, 0.0, 0.0, 0.0, 0.0, 0.0, 1.6989590713559556E9, 0.0, 2023-11-02 17:04:31.355
135.0, -162039.88785027122, 187500.0, 30313.972272154366, 26242.937295787015, 187500.0, 187500.0, -187500.02235174447, 29914.703060949214, -0.036000000000000004, 0.966, -0.092, 192.0, 0.0, 0.0, 0.0, 0.0, 0.0, 0.0, 0.0, 0.0, 0.0, 1.6989590713562164E9, 0.0, 2023-11-02 17:04:31.356
136.0, -162105.758441181, 187500.0, 30319.537856523737, 26238.511650384862, 187500.0, 187500.0, -187500.02235174447, 29923.48729652015, -0.036000000000000004, 0.966, -0.092, 192.0, 0.0, 0.0, 0.0, 0.0, 0.0, 0.0, 0.0, 0.0, 0.0, 1.6989590713562417E9, 0.0, 2023-11-02 17:04:31.356
137.0, -162198.36171845935, 187500.0, 30319.20258035691, 26232.543734615298, 187500.0, 187500.0, -187500.02235174447, 29924.78369769856, -0.042, 0.964, -0.096, 192.0, 254.0, 176.0, 30.0, 32.0, 253.0, 0.0, 0.0, 0.0, 0.0, 1.698959071356256E9, 0.0, 2023-11-02 17:04:31.356
138.0, -162226.12258507282, 187500.0, 30318.084993134144, 26223.89360951109, 187500.0, 187500.0, -187500.02235174447, 29920.760383696605, -0.042, 0.964, -0.096, 192.0, 0.0, 0.0, 0.0, 0.0, 0.0, 0.0, 0.0, 0.0, 0.0, 1.6989590713562713E9, 0.0, 2023-11-02 17:04:31.356
139.0, -162222.2333815376, 187500.0, 30324.72346123737, 26221.09964145418, 187500.0, 187500.0, -187500.02235174447, 29923.97903489817, -0.042, 0.964, -0.096, 192.0, 0.0, 0.0, 0.0, 0.0, 0.0, 0.0, 0.0, 0.0, 0.0, 1.6989590713562891E9, 0.0, 2023-11-02 17:04:31.356
140.0, -162261.08071340094, 187500.0, 30327.33861533864, 26217.501010596876, 187500.0, 187500.0, -187500.02235174447, 29923.35318605342, -0.042, 0.964, -0.096, 192.0, 0.0, 0.0, 0.0, 0.0, 0.0, 0.0, 0.0, 0.0, 0.0, 1.6989590713563075E9, 0.0, 2023-11-02 17:04:31.356
141.0, -162358.19904305926, 187500.0, 30324.790516470734, 26205.095792424177, 187500.0, 187500.0, -187500.02235174447, 29916.558255739004, -0.042, 0.964, -0.096, 192.0, 0.0, 0.0, 0.0, 0.0, 0.0, 0.0, 0.0, 0.0, 0.0, 1.69895907135632E9, 0.0, 2023-11-02 17:04:31.356
142.0, -162432.85386953998, 187500.0, 30325.706937993404, 26202.70415576746, 187500.0, 187500.0, -187500.02235174447, 29917.34056679494, -0.042, 0.964, -0.096, 192.0, 0.0, 0.0, 0.0, 0.0, 0.0, 0.0, 0.0, 0.0, 0.0, 1.698959071356344E9, 0.0, 2023-11-02 17:04:31.356
143.0, -162446.60019238, 187500.0, 30327.85270546111, 26200.580740044206, 187500.0, 187500.0, -187500.02235174447, 29919.061651118, -0.042, 0.964, -0.096, 192.0, 0.0, 0.0, 0.0, 0.0, 0.0, 0.0, 0.0, 0.0, 0.0, 1.6989590713563623E9, 0.0, 2023-11-02 17:04:31.356
144.0, -162508.9615594103, 187500.0, 30331.406632829505, 26196.646833020073, 187500.0, 187500.0, -187500.02235174447, 29921.028604630068, -0.042, 0.964, -0.096, 192.0, 0.0, 0.0, 0.0, 0.0, 0.0, 0.0, 0.0, 0.0, 0.0, 1.698959071356378E9, 0.0, 2023-11-02 17:04:31.356
145.0, -162654.65022977, 187500.0, 30336.43577533195, 26199.440801076988, 187500.0, 187500.0, -187500.02235174447, 29924.49312502064, -0.042, 0.964, -0.096, 192.0, 0.0, 0.0, 0.0, 0.0, 0.0, 0.0, 0.0, 0.0, 0.0, 1.6989590713563924E9, 0.0, 2023-11-02 17:04:31.356
146.0, -162774.7685044728, 187500.0, 30342.403691101517, 26206.90628372506, 187500.0, 187500.0, -187500.02235174447, 29926.2142093437, -0.042, 0.964, -0.096, 192.0, 0.0, 0.0, 0.0, 0.0, 0.0, 0.0, 0.0, 0.0, 0.0, 1.6989590713564148E9, 0.0, 2023-11-02 17:04:31.356
147.0, -162808.56434208923, 187500.0, 30345.063548691698, 26209.007347703857, 187500.0, 187500.0, -187500.02235174447, 29924.53782850955, -0.056, 0.978, -0.08600000000000001, 192.0, 254.0, 64.0, 30.0, 144.0, 253.0, 80.0, 0.0, 0.0, 0.0, 1.6989590713564315E9, 0.0, 2023-11-02 17:04:31.356
148.0, -162846.1376245186, 187500.0, 30344.415348102495, 26206.0345656913, 187500.0, 187500.0, -187500.02235174447, 29920.760383696605, -0.056, 0.978, -0.08600000000000001, 192.0, 0.0, 0.0, 0.0, 0.0, 0.0, 0.0, 0.0, 0.0, 0.0, 1.69895907135645E9, 0.0, 2023-11-02 17:04:31.356
149.0, -162961.33851544125, 187500.0, 30343.141298668543, 26200.22311213292, 187500.0, 187500.0, -187500.02235174447, 29915.328909793963, -0.056, 0.978, -0.08600000000000001, 192.0, 0.0, 0.0, 0.0, 0.0, 0.0, 0.0, 0.0, 0.0, 0.0, 1.6989590713564684E9, 0.0, 2023-11-02 17:04:31.356
150.0, -163093.41497342766, 187500.0, 30348.57277257118, 26205.878103480114, 187500.0, 187500.0, -187500.02235174447, 29916.379441783363, -0.056, 0.978, -0.08600000000000001, 192.0, 0.0, 0.0, 0.0, 0.0, 0.0, 0.0, 0.0, 0.0, 0.0, 1.6989590713565574E9, 0.0, 2023-11-02 17:04:31.356
151.0, -163122.4498894751, 187500.0, 30346.471708592384, 26202.257120878356, 187500.0, 187500.0, -187500.02235174447, 29909.606863213405, -0.056, 0.978, -0.08600000000000001, 192.0, 0.0, 0.0, 0.0, 0.0, 0.0, 0.0, 0.0, 0.0, 0.0, 1.6989590713565817E9, 0.0, 2023-11-02 17:04:31.356
152.0, -163162.57127077237, 187500.0, 30355.56886858569, 26204.313481368245, 187500.0, 187500.0, -187500.02235174447, 29913.853694659912, -0.056, 0.978, -0.08600000000000001, 192.0, 0.0, 0.0, 0.0, 0.0, 0.0, 0.0, 0.0, 0.0, 0.0, 1.6989590713566012E9, 0.0, 2023-11-02 17:04:31.356
153.0, -163277.5933477394, 187500.0, 30360.396845388037, 26202.61474878964, 187500.0, 187500.0, -187500.02235174447, 29914.658357460306, -0.056, 0.978, -0.08600000000000001, 192.0, 0.0, 0.0, 0.0, 0.0, 0.0, 0.0, 0.0, 0.0, 0.0, 1.6989590713566203E9, 0.0, 2023-11-02 17:04:31.356
154.0, -163389.37442176038, 187500.0, 30359.368665143094, 26207.509780825352, 187500.0, 187500.0, -187500.02235174447, 29911.171485325278, -0.056, 0.978, -0.08600000000000001, 192.0, 0.0, 0.0, 0.0, 0.0, 0.0, 0.0, 0.0, 0.0, 0.0, 1.6989590713566494E9, 0.0, 2023-11-02 17:04:31.356
155.0, -163406.7640789466, 187500.0, 30358.787519787256, 26204.827571490714, 187500.0, 187500.0, -187500.02235174447, 29907.43874400124, -0.056, 0.978, -0.08600000000000001, 192.0, 0.0, 0.0, 0.0, 0.0, 0.0, 0.0, 0.0, 0.0, 0.0, 1.698959071356674E9, 0.0, 2023-11-02 17:04:31.356
156.0, -163436.98363745018, 187500.0, 30370.924517026488, 26211.13076342711, 187500.0, 187500.0, -187500.02235174447, 29915.887703405348, -0.07, 0.986, -0.076, 192.0, 253.0, 208.0, 30.0, 208.0, 253.0, 160.0, 0.0, 0.0, 0.0, 1.6989590713566856E9, 0.0, 2023-11-02 17:04:31.356
157.0, -163539.1534613554, 187500.0, 30375.73014208438, 26219.602074575672, 187500.0, 187500.0, -187500.02235174447, 29918.189933084243, -0.07, 0.986, -0.076, 192.0, 0.0, 0.0, 0.0, 0.0, 0.0, 0.0, 0.0, 0.0, 0.0, 1.6989590713566968E9, 0.0, 2023-11-02 17:04:31.356
158.0, -163662.64684947097, 187500.0, 30378.72527584139, 26222.753670543872, 187500.0, 187500.0, -187500.02235174447, 29919.19576158473, -0.07, 0.986, -0.076, 192.0, 0.0, 0.0, 0.0, 0.0, 0.0, 0.0, 0.0, 0.0, 0.0, 1.6989590713567069E9, 0.0, 2023-11-02 17:04:31.356
159.0, -163709.29494014918, 187500.0, 30377.473578151894, 26226.2405426789, 187500.0, 187500.0, -187500.02235174447, 29917.474677261675, -0.07, 0.986, -0.076, 192.0, 0.0, 0.0, 0.0, 0.0, 0.0, 0.0, 0.0, 0.0, 0.0, 1.6989590713567176E9, 0.0, 2023-11-02 17:04:31.356
160.0, -163686.7867334827, 187500.0, 30369.53870887026, 26218.506839097365, 187500.0, 187500.0, -187500.02235174447, 29906.768191667583, -0.07, 0.986, -0.076, 192.0, 0.0, 0.0, 0.0, 0.0, 0.0, 0.0, 0.0, 0.0, 0.0, 1.6989590713567312E9, 0.0, 2023-11-02 17:04:31.356
161.0, -163739.87212656406, 187500.0, 30371.304496682227, 26217.501010596876, 187500.0, 187500.0, -187500.02235174447, 29907.48344749015, -0.07, 0.986, -0.076, 192.0, 0.0, 0.0, 0.0, 0.0, 0.0, 0.0, 0.0, 0.0, 0.0, 1.6989590713567512E9, 0.0, 2023-11-02 17:04:31.356
162.0, -163866.181834481, 187500.0, 30379.887566553065, 26230.48737412541, 187500.0, 187500.0, -187500.02235174447, 29917.452325517217, -0.07, 0.986, -0.076, 192.0, 0.0, 0.0, 0.0, 0.0, 0.0, 0.0, 0.0, 0.0, 0.0, 1.6989590713567717E9, 0.0, 2023-11-02 17:04:31.356
163.0, -163918.88724790662, 187500.0, 30380.312249697716, 26236.947028272993, 187500.0, 187500.0, -187500.02235174447, 29917.452325517217, -0.07, 0.986, -0.076, 192.0, 0.0, 0.0, 0.0, 0.0, 0.0, 0.0, 0.0, 0.0, 0.0, 1.6989590713567932E9, 0.0, 2023-11-02 17:04:31.356
164.0, -163885.24787250138, 187500.0, 30374.277278694783, 26229.57095260274, 187500.0, 187500.0, -187500.02235174447, 29910.63504345835, -0.07, 0.986, -0.076, 192.0, 0.0, 0.0, 0.0, 0.0, 0.0, 0.0, 0.0, 0.0, 0.0, 1.698959071356812E9, 0.0, 2023-11-02 17:04:31.356
165.0, -163912.62875945913, 187500.0, 30376.557156629224, 26229.593304347196, 187500.0, 187500.0, -187500.02235174447, 29911.909092892303, -0.07, 0.986, -0.076, 192.0, 0.0, 0.0, 0.0, 0.0, 0.0, 0.0, 0.0, 0.0, 0.0, 1.698959071356908E9, 0.0, 2023-11-02 17:04:31.356
166.0, -164001.4098884356, 187500.0, 30381.027505520287, 26237.394063162097, 187500.0, 187500.0, -187500.02235174447, 29917.519380750586, -0.068, 0.98, -0.07200000000000001, 192.0, 253.0, 224.0, 30.0, 160.0, 253.0, 192.0, 0.0, 0.0, 0.0, 1.6989590713569272E9, 0.0, 2023-11-02 17:04:31.356
167.0, -164040.39133076565, 187500.0, 30376.95948802942, 26238.28813294031, 187500.0, 187500.0, -187500.02235174447, 29913.965453382192, -0.068, 0.98, -0.07200000000000001, 192.0, 0.0, 0.0, 0.0, 0.0, 0.0, 0.0, 0.0, 0.0, 0.0, 1.698959071356944E9, 0.0, 2023-11-02 17:04:31.356
168.0, -163993.58677787625, 187500.0, 30373.360857172116, 26233.258990437866, 187500.0, 187500.0, -187500.02235174447, 29909.271587046576, -0.068, 0.98, -0.07200000000000001, 192.0, 0.0, 0.0, 0.0, 0.0, 0.0, 0.0, 0.0, 0.0, 0.0, 1.6989590713569615E9, 0.0, 2023-11-02 17:04:31.356
169.0, -163964.9988967179, 187500.0, 30371.416255404503, 26226.66522582355, 187500.0, 187500.0, -187500.02235174447, 29904.287148033043, -0.068, 0.98, -0.07200000000000001, 192.0, 0.0, 0.0, 0.0, 0.0, 0.0, 0.0, 0.0, 0.0, 0.0, 1.6989590713569787E9, 0.0, 2023-11-02 17:04:31.356
170.0, -164014.68682464206, 187500.0, 30370.67864783748, 26221.949007743482, 187500.0, 187500.0, -187500.02235174447, 29899.92855786426, -0.068, 0.98, -0.07200000000000001, 192.0, 0.0, 0.0, 0.0, 0.0, 0.0, 0.0, 0.0, 0.0, 0.0, 1.6989590713570032E9, 0.0, 2023-11-02 17:04:31.357
171.0, -164063.1230548767, 187500.0, 30374.29963043924, 26223.96066474446, 187500.0, 187500.0, -187500.02235174447, 29900.129723564354, -0.068, 0.98, -0.07200000000000001, 192.0, 0.0, 0.0, 0.0, 0.0, 0.0, 0.0, 0.0, 0.0, 0.0, 1.6989590713570275E9, 0.0, 2023-11-02 17:04:31.357
172.0, -164003.64506288114, 187500.0, 30370.991572259853, 26222.150173443577, 187500.0, 187500.0, -187500.02235174447, 29894.29591826152, -0.068, 0.98, -0.07200000000000001, 192.0, 0.0, 0.0, 0.0, 0.0, 0.0, 0.0, 0.0, 0.0, 0.0, 1.6989590713571072E9, 0.0, 2023-11-02 17:04:31.357
173.0, -163959.455664093, 187500.0, 30379.39582817505, 26225.301769411777, 187500.0, 187500.0, -187500.02235174447, 29901.53788346504, -0.068, 0.98, -0.07200000000000001, 192.0, 0.0, 0.0, 0.0, 0.0, 0.0, 0.0, 0.0, 0.0, 0.0, 1.6989590713571603E9, 0.0, 2023-11-02 17:04:31.357
174.0, -164011.6693391406, 187500.0, 30387.420104434506, 26233.281342182323, 187500.0, 187500.0, -187500.02235174447, 29908.28811029054, -0.068, 0.98, -0.07200000000000001, 192.0, 0.0, 0.0, 0.0, 0.0, 0.0, 0.0, 0.0, 0.0, 0.0, 1.698959071357198E9, 0.0, 2023-11-02 17:04:31.357
175.0, -164020.87825785618, 187500.0, 30382.793293332255, 26235.76238581686, 187500.0, 187500.0, -187500.02235174447, 29905.67295618927, -0.068, 0.98, -0.07200000000000001, 192.0, 0.0, 0.0, 0.0, 0.0, 0.0, 0.0, 0.0, 0.0, 0.0, 1.698959071357212E9, 0.0, 2023-11-02 17:04:31.357
176.0, -163932.9911986579, 187500.0, 30377.473578151894, 26233.549563115786, 187500.0, 187500.0, -187500.02235174447, 29902.051973587513, -0.062, 0.962, -0.07, 192.0, 254.0, 16.0, 30.0, 16.0, 253.0, 208.0, 0.0, 0.0, 0.0, 1.6989590713572485E9, 0.0, 2023-11-02 17:04:31.357
177.0, -163851.11675871813, 187500.0, 30380.69222935346, 26235.270647438843, 187500.0, 187500.0, -187500.02235174447, 29905.382383511354, -0.062, 0.962, -0.07, 192.0, 0.0, 0.0, 0.0, 0.0, 0.0, 0.0, 0.0, 0.0, 0.0, 1.698959071357268E9, 0.0, 2023-11-02 17:04:31.357
178.0, -163860.03510475578, 187500.0, 30382.703886354437, 26236.09766198369, 187500.0, 187500.0, -187500.02235174447, 29906.49997073412, -0.062, 0.962, -0.07, 192.0, 0.0, 0.0, 0.0, 0.0, 0.0, 0.0, 0.0, 0.0, 0.0, 1.6989590713572848E9, 0.0, 2023-11-02 17:04:31.357
179.0, -163850.73677906237, 187500.0, 30374.321982183694, 26233.840135793704, 187500.0, 187500.0, -187500.02235174447, 29897.49221771863, -0.062, 0.962, -0.07, 192.0, 0.0, 0.0, 0.0, 0.0, 0.0, 0.0, 0.0, 0.0, 0.0, 1.698959071357299E9, 0.0, 2023-11-02 17:04:31.357
180.0, -163745.46006267788, 187500.0, 30368.041141991755, 26229.638007836107, 187500.0, 187500.0, -187500.02235174447, 29890.63023217085, -0.062, 0.962, -0.07, 192.0, 0.0, 0.0, 0.0, 0.0, 0.0, 0.0, 0.0, 0.0, 0.0, 1.6989590713573184E9, 0.0, 2023-11-02 17:04:31.357
181.0, -163641.41269223843, 187500.0, 30369.896336781545, 26228.341606657697, 187500.0, 187500.0, -187500.02235174447, 29892.373668238364, -0.062, 0.962, -0.07, 192.0, 0.0, 0.0, 0.0, 0.0, 0.0, 0.0, 0.0, 0.0, 0.0, 1.6989590713574433E9, 0.0, 2023-11-02 17:04:31.357
182.0, -163601.04544175215, 187500.0, 30367.28118268027, 26227.916923513047, 187500.0, 187500.0, -187500.02235174447, 29891.01021182659, -0.062, 0.962, -0.07, 192.0, 0.0, 0.0, 0.0, 0.0, 0.0, 0.0, 0.0, 0.0, 0.0, 1.6989590713574648E9, 0.0, 2023-11-02 17:04:31.357
183.0, -163566.37788610195, 187500.0, 30363.57079310069, 26227.022853734834, 187500.0, 187500.0, -187500.02235174447, 29888.506816447596, -0.062, 0.962, -0.07, 192.0, 0.0, 0.0, 0.0, 0.0, 0.0, 0.0, 0.0, 0.0, 0.0, 1.6989590713574812E9, 0.0, 2023-11-02 17:04:31.357
184.0, -163480.5918908825, 187500.0, 30364.15193845653, 26229.28037992482, 187500.0, 187500.0, -187500.02235174447, 29889.736162392637, -0.062, 0.962, -0.07, 192.0, 0.0, 0.0, 0.0, 0.0, 0.0, 0.0, 0.0, 0.0, 0.0, 1.6989590713575E9, 0.0, 2023-11-02 17:04:31.357
185.0, -163356.87498532236, 187500.0, 30365.314229168205, 26229.883877025113, 187500.0, 187500.0, -187500.02235174447, 29891.837226371437, -0.062, 0.962, -0.07, 192.0, 0.0, 0.0, 0.0, 0.0, 0.0, 0.0, 0.0, 0.0, 0.0, 1.698959071357515E9, 0.0, 2023-11-02 17:04:31.357
186.0, -163293.55249328047, 187500.0, 30369.33754317016, 26233.974246260437, 187500.0, 187500.0, -187500.02235174447, 29895.59231943993, -0.052000000000000005, 0.9520000000000001, -0.07, 192.0, 254.0, 96.0, 29.0, 192.0, 253.0, 208.0, 0.0, 0.0, 0.0, 1.69895907135753E9, 0.0, 2023-11-02 17:04:31.357
187.0, -163270.66430695824, 187500.0, 30366.163595457507, 26234.220115449443, 187500.0, 187500.0, -187500.02235174447, 29894.25121477261, -0.052000000000000005, 0.9520000000000001, -0.07, 192.0, 0.0, 0.0, 0.0, 0.0, 0.0, 0.0, 0.0, 0.0, 0.0, 1.698959071357546E9, 0.0, 2023-11-02 17:04:31.357
188.0, -163189.84039900787, 187500.0, 30363.302572167227, 26236.343531172697, 187500.0, 187500.0, -187500.02235174447, 29891.524301949063, -0.052000000000000005, 0.9520000000000001, -0.07, 192.0, 0.0, 0.0, 0.0, 0.0, 0.0, 0.0, 0.0, 0.0, 0.0, 1.6989590713575623E9, 0.0, 2023-11-02 17:04:31.357
189.0, -163037.6250192672, 187500.0, 30359.793348287745, 26233.81778404925, 187500.0, 187500.0, -187500.02235174447, 29888.663278658783, -0.052000000000000005, 0.9520000000000001, -0.07, 192.0, 0.0, 0.0, 0.0, 0.0, 0.0, 0.0, 0.0, 0.0, 0.0, 1.6989590713575823E9, 0.0, 2023-11-02 17:04:31.357
190.0, -162911.449421817, 187500.0, 30355.63592381906, 26225.74880430088, 187500.0, 187500.0, -187500.02235174447, 29884.036467556536, -0.052000000000000005, 0.9520000000000001, -0.07, 192.0, 0.0, 0.0, 0.0, 0.0, 0.0, 0.0, 0.0, 0.0, 0.0, 1.698959071357618E9, 0.0, 2023-11-02 17:04:31.357
191.0, -162849.691551887, 187500.0, 30353.266638906796, 26223.267760666342, 187500.0, 187500.0, -187500.02235174447, 29880.59429891042, -0.052000000000000005, 0.9520000000000001, -0.07, 192.0, 0.0, 0.0, 0.0, 0.0, 0.0, 0.0, 0.0, 0.0, 0.0, 1.698959071357632E9, 0.0, 2023-11-02 17:04:31.357
192.0, -162749.08635009365, 187500.0, 30353.7136737959, 26227.089908968203, 187500.0, 187500.0, -187500.02235174447, 29880.504891932596, -0.052000000000000005, 0.9520000000000001, -0.07, 192.0, 0.0, 0.0, 0.0, 0.0, 0.0, 0.0, 0.0, 0.0, 0.0, 1.6989590713576477E9, 0.0, 2023-11-02 17:04:31.357
193.0, -162567.85840605, 187500.0, 30354.048949962733, 26226.19583918999, 187500.0, 187500.0, -187500.02235174447, 29880.57194716596, -0.052000000000000005, 0.9520000000000001, -0.07, 192.0, 0.0, 0.0, 0.0, 0.0, 0.0, 0.0, 0.0, 0.0, 0.0, 1.6989590713576608E9, 0.0, 2023-11-02 17:04:31.357
194.0, -162426.7294915592, 187500.0, 30361.067397721697, 26229.503897369374, 187500.0, 187500.0, -187500.02235174447, 29888.506816447596, -0.052000000000000005, 0.9520000000000001, -0.07, 192.0, 0.0, 0.0, 0.0, 0.0, 0.0, 0.0, 0.0, 0.0, 0.0, 1.698959071357685E9, 0.0, 2023-11-02 17:04:31.357
195.0, -162361.2165285607, 187500.0, 30365.49304312385, 26233.81778404925, 187500.0, 187500.0, -187500.02235174447, 29892.217206027177, -0.052000000000000005, 0.9520000000000001, -0.07, 192.0, 0.0, 0.0, 0.0, 0.0, 0.0, 0.0, 0.0, 0.0, 0.0, 1.6989590713577003E9, 0.0, 2023-11-02 17:04:31.357
196.0, -162269.59672803842, 187500.0, 30364.554269856726, 26232.364920659653, 187500.0, 187500.0, -187500.02235174447, 29890.853749615402, -0.046, 0.968, -0.08, 192.0, 254.0, 144.0, 30.0, 64.0, 253.0, 128.0, 0.0, 0.0, 0.0, 1.6989590713577716E9, 0.0, 2023-11-02 17:04:31.357
197.0, -162083.74197289255, 187500.0, 30364.57662160118, 26231.001464247878, 187500.0, 187500.0, -187500.02235174447, 29887.992726325123, -0.046, 0.968, -0.08, 192.0, 0.0, 0.0, 0.0, 0.0, 0.0, 0.0, 0.0, 0.0, 0.0, 1.6989590713578079E9, 0.0, 2023-11-02 17:04:31.357
198.0, -161909.15249695213, 187500.0, 30366.789444302256, 26222.820725777237, 187500.0, 187500.0, -187500.02235174447, 29888.685630403237, -0.046, 0.968, -0.08, 192.0, 0.0, 0.0, 0.0, 0.0, 0.0, 0.0, 0.0, 0.0, 0.0, 1.6989590713578231E9, 0.0, 2023-11-02 17:04:31.357
199.0, -161856.49178701543, 187500.0, 30374.523147883792, 26224.407699633564, 187500.0, 187500.0, -187500.02235174447, 29895.435857228742, -0.046, 0.968, -0.08, 192.0, 0.0, 0.0, 0.0, 0.0, 0.0, 0.0, 0.0, 0.0, 0.0, 1.698959071357838E9, 0.0, 2023-11-02 17:04:31.357
200.0, -161774.90791975355, 187500.0, 30373.651429850037, 26224.81003103376, 187500.0, 187500.0, -187500.02235174447, 29892.932461849745, -0.046, 0.968, -0.08, 192.0, 0.0, 0.0, 0.0, 0.0, 0.0, 0.0, 0.0, 0.0, 0.0, 1.6989590713578603E9, 0.0, 2023-11-02 17:04:31.357
201.0, -161608.76740321727, 187500.0, 30378.166482230008, 26226.441708378996, 187500.0, 187500.0, -187500.02235174447, 29896.15111305131, -0.046, 0.968, -0.08, 192.0, 0.0, 0.0, 0.0, 0.0, 0.0, 0.0, 0.0, 0.0, 0.0, 1.6989590713578763E9, 0.0, 2023-11-02 17:04:31.357
202.0, -161452.9086891304, 187500.0, 30385.54255790026, 26222.597208332685, 187500.0, 187500.0, -187500.02235174447, 29901.001441598113, -0.046, 0.968, -0.08, 192.0, 0.0, 0.0, 0.0, 0.0, 0.0, 0.0, 0.0, 0.0, 0.0, 1.6989590713579187E9, 0.0, 2023-11-02 17:04:31.357
203.0, -161362.9876211867, 187500.0, 30386.369572445106, 26216.76340302985, 187500.0, 187500.0, -187500.02235174447, 29898.87802587486, -0.046, 0.968, -0.08, 192.0, 0.0, 0.0, 0.0, 0.0, 0.0, 0.0, 0.0, 0.0, 0.0, 1.6989590713579328E9, 0.0, 2023-11-02 17:04:31.357
204.0, -161294.34541396445, 187500.0, 30390.884624825077, 26220.943179242993, 187500.0, 187500.0, -187500.02235174447, 29899.39211599733, -0.046, 0.968, -0.08, 192.0, 0.0, 0.0, 0.0, 0.0, 0.0, 0.0, 0.0, 0.0, 0.0, 1.6989590713579512E9, 0.0, 2023-11-02 17:04:31.357
205.0, -161136.54209811, 187500.0, 30393.030392292785, 26220.898475754082, 187500.0, 187500.0, -187500.02235174447, 29898.319232263475, -0.046, 0.968, -0.08, 192.0, 0.0, 0.0, 0.0, 0.0, 0.0, 0.0, 0.0, 0.0, 0.0, 1.698959071357972E9, 0.0, 2023-11-02 17:04:31.357
206.0, -160979.16346540017, 187500.0, 30400.294709240763, 26218.417432119542, 187500.0, 187500.0, -187500.02235174447, 29901.78375265405, -0.064, 0.984, -0.09, 192.0, 254.0, 0.0, 30.0, 192.0, 253.0, 48.0, 0.0, 0.0, 0.0, 1.6989590713580008E9, 0.0, 2023-11-02 17:04:31.358
207.0, -160865.214272167, 187500.0, 30398.797142362255, 26210.66137679355, 187500.0, 187500.0, -187500.02235174447, 29897.559272951996, -0.064, 0.984, -0.09, 192.0, 0.0, 0.0, 0.0, 0.0, 0.0, 0.0, 0.0, 0.0, 0.0, 1.6989590713580427E9, 0.0, 2023-11-02 17:04:31.358
208.0, -160796.8626376227, 187500.0, 30400.54057842977, 26209.52143782633, 187500.0, 187500.0, -187500.02235174447, 29896.77696189606, -0.064, 0.984, -0.09, 192.0, 0.0, 0.0, 0.0, 0.0, 0.0, 0.0, 0.0, 0.0, 0.0, 1.698959071358062E9, 0.0, 2023-11-02 17:04:31.358
209.0, -160644.5131474153, 187500.0, 30397.34427897266, 26210.795487260282, 187500.0, 187500.0, -187500.02235174447, 29890.563176937485, -0.064, 0.984, -0.09, 192.0, 0.0, 0.0, 0.0, 0.0, 0.0, 0.0, 0.0, 0.0, 0.0, 1.6989590713580804E9, 0.0, 2023-11-02 17:04:31.358
210.0, -160464.51454931672, 187500.0, 30402.26166275283, 26211.95777797196, 187500.0, 187500.0, -187500.02235174447, 29894.362973494884, -0.064, 0.984, -0.09, 192.0, 0.0, 0.0, 0.0, 0.0, 0.0, 0.0, 0.0, 0.0, 0.0, 1.698959071358128E9, 0.0, 2023-11-02 17:04:31.358
211.0, -160358.43317013184, 187500.0, 30405.994404076864, 26214.48352509541, 187500.0, 187500.0, -187500.02235174447, 29897.358107251897, -0.064, 0.984, -0.09, 192.0, 0.0, 0.0, 0.0, 0.0, 0.0, 0.0, 0.0, 0.0, 0.0, 1.6989590713582761E9, 0.0, 2023-11-02 17:04:31.358
212.0, -160304.1854863388, 187500.0, 30406.955529088442, 26217.99274897489, 187500.0, 187500.0, -187500.02235174447, 29898.229825285653, -0.064, 0.984, -0.09, 192.0, 0.0, 0.0, 0.0, 0.0, 0.0, 0.0, 0.0, 0.0, 0.0, 1.6989590713583047E9, 0.0, 2023-11-02 17:04:31.358
213.0, -160172.1537318413, 187500.0, 30399.870026096112, 26214.99761521788, 187500.0, 187500.0, -187500.02235174447, 29891.166674037777, -0.064, 0.984, -0.09, 192.0, 0.0, 0.0, 0.0, 0.0, 0.0, 0.0, 0.0, 0.0, 0.0, 1.6989590713583212E9, 0.0, 2023-11-02 17:04:31.358
214.0, -159984.19791271663, 187500.0, 30396.718430127912, 26210.437859348996, 187500.0, 187500.0, -187500.02235174447, 29886.15988327979, -0.064, 0.984, -0.09, 192.0, 0.0, 0.0, 0.0, 0.0, 0.0, 0.0, 0.0, 0.0, 0.0, 1.6989590713583348E9, 0.0, 2023-11-02 17:04:31.358
215.0, -159893.85216162828, 187500.0, 30404.228616264896, 26213.723565783926, 187500.0, 187500.0, -187500.02235174447, 29892.463075216187, -0.064, 0.984, -0.09, 192.0, 0.0, 0.0, 0.0, 0.0, 0.0, 0.0, 0.0, 0.0, 0.0, 1.6989590713583488E9, 0.0, 2023-11-02 17:04:31.358
216.0, -159846.8911465277, 187500.0, 30402.798104619756, 26210.549618071273, 187500.0, 187500.0, -187500.02235174447, 29890.25025251511, -0.074, 0.988, -0.088, 192.0, 253.0, 176.0, 30.0, 224.0, 253.0, 64.0, 0.0, 0.0, 0.0, 1.698959071358405E9, 0.0, 2023-11-02 17:04:31.358
217.0, -159750.97981106996, 187500.0, 30401.68051739699, 26208.71677502594, 187500.0, 187500.0, -187500.02235174447, 29888.663278658783, -0.074, 0.988, -0.088, 192.0, 0.0, 0.0, 0.0, 0.0, 0.0, 0.0, 0.0, 0.0, 0.0, 1.6989590713584208E9, 0.0, 2023-11-02 17:04:31.358
218.0, -159571.83057926066, 187500.0, 30395.802008605246, 26203.2853011233, 187500.0, 187500.0, -187500.02235174447, 29882.784769867038, -0.074, 0.988, -0.088, 192.0, 0.0, 0.0, 0.0, 0.0, 0.0, 0.0, 0.0, 0.0, 0.0, 1.6989590713584547E9, 0.0, 2023-11-02 17:04:31.358
219.0, -159429.9864089473, 187500.0, 30396.003174305344, 26201.430106333508, 187500.0, 187500.0, -187500.02235174447, 29883.745894878615, -0.074, 0.988, -0.088, 192.0, 0.0, 0.0, 0.0, 0.0, 0.0, 0.0, 0.0, 0.0, 0.0, 1.698959071358486E9, 0.0, 2023-11-02 17:04:31.358
220.0, -159357.87968133448, 187500.0, 30396.517264427814, 26205.3863651021, 187500.0, 187500.0, -187500.02235174447, 29887.031601313545, -0.074, 0.988, -0.088, 192.0, 0.0, 0.0, 0.0, 0.0, 0.0, 0.0, 0.0, 0.0, 0.0, 1.6989590713585043E9, 0.0, 2023-11-02 17:04:31.358
221.0, -159252.98294460573, 187500.0, 30391.91280507002, 26205.43106859101, 187500.0, 187500.0, -187500.02235174447, 29882.96358382268, -0.074, 0.988, -0.088, 192.0, 0.0, 0.0, 0.0, 0.0, 0.0, 0.0, 0.0, 0.0, 0.0, 1.6989590713585167E9, 0.0, 2023-11-02 17:04:31.358
222.0, -159067.50816911558, 187500.0, 30389.699982368948, 26199.61961503263, 187500.0, 187500.0, -187500.02235174447, 29879.879043087847, -0.074, 0.988, -0.088, 192.0, 0.0, 0.0, 0.0, 0.0, 0.0, 0.0, 0.0, 0.0, 0.0, 1.6989590713585339E9, 0.0, 2023-11-02 17:04:31.358
223.0, -158895.19857110962, 187500.0, 30390.012906791322, 26195.775114986314, 187500.0, 187500.0, -187500.02235174447, 29880.460188443685, -0.074, 0.988, -0.088, 192.0, 0.0, 0.0, 0.0, 0.0, 0.0, 0.0, 0.0, 0.0, 0.0, 1.6989590713585527E9, 0.0, 2023-11-02 17:04:31.358
224.0, -158809.94901775708, 187500.0, 30390.459941680427, 26192.914091696035, 187500.0, 187500.0, -187500.02235174447, 29879.566118665472, -0.074, 0.988, -0.088, 192.0, 0.0, 0.0, 0.0, 0.0, 0.0, 0.0, 0.0, 0.0, 0.0, 1.6989590713585763E9, 0.0, 2023-11-02 17:04:31.358
225.0, -158718.1504032791, 187500.0, 30387.174235245497, 26191.058896906245, 187500.0, 187500.0, -187500.02235174447, 29875.833377341438, -0.074, 0.988, -0.088, 192.0, 0.0, 0.0, 0.0, 0.0, 0.0, 0.0, 0.0, 0.0, 0.0, 1.6989590713585937E9, 0.0, 2023-11-02 17:04:31.358
226.0, -158547.96422099642, 187500.0, 30387.576566645694, 26189.181350372, 187500.0, 187500.0, -187500.02235174447, 29874.984011052136, -0.062, 0.976, -0.09, 192.0, 254.0, 16.0, 30.0, 128.0, 253.0, 48.0, 0.0, 0.0, 0.0, 1.6989590713586895E9, 0.0, 2023-11-02 17:04:31.358
227.0, -158361.95300363936, 187500.0, 30390.30347946924, 26184.532187525296, 187500.0, 187500.0, -187500.02235174447, 29876.1015982749, -0.062, 0.976, -0.09, 192.0, 0.0, 0.0, 0.0, 0.0, 0.0, 0.0, 0.0, 0.0, 0.0, 1.6989590713587148E9, 0.0, 2023-11-02 17:04:31.358
228.0, -158274.06594444107, 187500.0, 30397.388982461573, 26189.829550961203, 187500.0, 187500.0, -187500.02235174447, 29883.075342544955, -0.062, 0.976, -0.09, 192.0, 0.0, 0.0, 0.0, 0.0, 0.0, 0.0, 0.0, 0.0, 0.0, 1.69895907135873E9, 0.0, 2023-11-02 17:04:31.358
229.0, -158220.93584787083, 187500.0, 30402.64164240857, 26196.646833020073, 187500.0, 187500.0, -187500.02235174447, 29889.713810648183, -0.062, 0.976, -0.09, 192.0, 0.0, 0.0, 0.0, 0.0, 0.0, 0.0, 0.0, 0.0, 0.0, 1.6989590713587453E9, 0.0, 2023-11-02 17:04:31.358
230.0, -158079.51636070208, 187500.0, 30404.20626452044, 26200.826609233216, 187500.0, 187500.0, -187500.02235174447, 29892.328964749453, -0.062, 0.976, -0.09, 192.0, 0.0, 0.0, 0.0, 0.0, 0.0, 0.0, 0.0, 0.0, 0.0, 1.6989590713587656E9, 0.0, 2023-11-02 17:04:31.358
231.0, -157886.0620124414, 187500.0, 30403.781581375788, 26201.430106333508, 187500.0, 187500.0, -187500.02235174447, 29893.401848483307, -0.062, 0.976, -0.09, 192.0, 0.0, 0.0, 0.0, 0.0, 0.0, 0.0, 0.0, 0.0, 0.0, 1.6989590713587873E9, 0.0, 2023-11-02 17:04:31.358
232.0, -157778.86304603374, 187500.0, 30403.379249975595, 26200.312519110743, 187500.0, 187500.0, -187500.02235174447, 29893.312441505488, -0.062, 0.976, -0.09, 192.0, 0.0, 0.0, 0.0, 0.0, 0.0, 0.0, 0.0, 0.0, 0.0, 1.698959071358806E9, 0.0, 2023-11-02 17:04:31.358
233.0, -157705.99635910944, 187500.0, 30400.38411621858, 26203.79939124577, 187500.0, 187500.0, -187500.02235174447, 29892.23955777163, -0.062, 0.976, -0.09, 192.0, 0.0, 0.0, 0.0, 0.0, 0.0, 0.0, 0.0, 0.0, 0.0, 1.698959071358822E9, 0.0, 2023-11-02 17:04:31.358
234.0, -157530.08813024618, 187500.0, 30393.81270334872, 26203.79939124577, 187500.0, 187500.0, -187500.02235174447, 29887.657450158295, -0.062, 0.976, -0.09, 192.0, 0.0, 0.0, 0.0, 0.0, 0.0, 0.0, 0.0, 0.0, 0.0, 1.6989590713588388E9, 0.0, 2023-11-02 17:04:31.358
235.0, -157342.91462217746, 187500.0, 30401.21113076343, 26206.705118024962, 187500.0, 187500.0, -187500.02235174447, 29893.021868827567, -0.062, 0.976, -0.09, 192.0, 0.0, 0.0, 0.0, 0.0, 0.0, 0.0, 0.0, 0.0, 0.0, 1.6989590713588595E9, 0.0, 2023-11-02 17:04:31.358
236.0, -157208.4465275343, 187500.0, 30400.898206341055, 26204.492295323886, 187500.0, 187500.0, -187500.02235174447, 29892.35131649391, -0.06, 0.972, -0.08600000000000001, 192.0, 254.0, 32.0, 30.0, 96.0, 253.0, 80.0, 0.0, 0.0, 0.0, 1.698959071358879E9, 0.0, 2023-11-02 17:04:31.358
237.0, -157143.2911924471, 187500.0, 30403.40160172005, 26202.61474878964, 187500.0, 187500.0, -187500.02235174447, 29895.30174676201, -0.06, 0.972, -0.08600000000000001, 192.0, 0.0, 0.0, 0.0, 0.0, 0.0, 0.0, 0.0, 0.0, 0.0, 1.6989590713589077E9, 0.0, 2023-11-02 17:04:31.358
238.0, -157022.6141241329, 187500.0, 30400.071191796207, 26205.833399991203, 187500.0, 187500.0, -187500.02235174447, 29893.044220572025, -0.06, 0.972, -0.08600000000000001, 192.0, 0.0, 0.0, 0.0, 0.0, 0.0, 0.0, 0.0, 0.0, 0.0, 1.698959071358924E9, 0.0, 2023-11-02 17:04:31.358
239.0, -156812.32891229738, 187500.0, 30394.326793471195, 26198.546731298775, 187500.0, 187500.0, -187500.02235174447, 29886.137531535333, -0.06, 0.972, -0.08600000000000001, 192.0, 0.0, 0.0, 0.0, 0.0, 0.0, 0.0, 0.0, 0.0, 0.0, 1.6989590713589425E9, 0.0, 2023-11-02 17:04:31.358
240.0, -156666.21555879302, 187500.0, 30396.405505705538, 26192.556463784753, 187500.0, 187500.0, -187500.02235174447, 29886.96454608018, -0.06, 0.972, -0.08600000000000001, 192.0, 0.0, 0.0, 0.0, 0.0, 0.0, 0.0, 0.0, 0.0, 0.0, 1.6989590713589869E9, 0.0, 2023-11-02 17:04:31.358
241.0, -156614.13599421215, 187500.0, 30401.926386585998, 26195.551597541762, 187500.0, 187500.0, -187500.02235174447, 29890.563176937485, -0.06, 0.972, -0.08600000000000001, 192.0, 0.0, 0.0, 0.0, 0.0, 0.0, 0.0, 0.0, 0.0, 0.0, 1.698959071359188E9, 0.0, 2023-11-02 17:04:31.359
242.0, -156511.85441158467, 187500.0, 30399.57945341819, 26200.245463877378, 187500.0, 187500.0, -187500.02235174447, 29887.76920888057, -0.06, 0.972, -0.08600000000000001, 192.0, 0.0, 0.0, 0.0, 0.0, 0.0, 0.0, 0.0, 0.0, 0.0, 1.6989590713591993E9, 0.0, 2023-11-02 17:04:31.359
243.0, -156330.6488192855, 187500.0, 30400.0264883073, 26202.167713900533, 187500.0, 187500.0, -187500.02235174447, 29887.612746669383, -0.06, 0.972, -0.08600000000000001, 192.0, 0.0, 0.0, 0.0, 0.0, 0.0, 0.0, 0.0, 0.0, 0.0, 1.6989590718330634E9, 0.0, 2023-11-02 17:04:31.833
244.0, -156178.54519826715, 187500.0, 30402.082848797185, 26201.251292377867, 187500.0, 187500.0, -187500.02235174447, 29890.272604259564, -0.06, 0.972, -0.08600000000000001, 192.0, 0.0, 0.0, 0.0, 0.0, 0.0, 0.0, 0.0, 0.0, 0.0, 1.6989590718331532E9, 0.0, 2023-11-02 17:04:31.833
245.0, -156118.41900568237, 187500.0, 30404.45213370945, 26206.302786624765, 187500.0, 187500.0, -187500.02235174447, 29894.58649093944, -0.06, 0.972, -0.08600000000000001, 192.0, 0.0, 0.0, 0.0, 0.0, 0.0, 0.0, 0.0, 0.0, 0.0, 1.698959071833168E9, 0.0, 2023-11-02 17:04:31.833
246.0, -156020.96539985723, 187500.0, 30400.0264883073, 26205.542827313286, 187500.0, 187500.0, -187500.02235174447, 29892.77599963856, -0.058, 0.968, -0.082, 192.0, 254.0, 48.0, 30.0, 64.0, 253.0, 112.0, 0.0, 0.0, 0.0, 1.69895907183318E9, 0.0, 2023-11-02 17:04:31.833
247.0, -155847.1805867172, 187500.0, 30401.367592974617, 26210.52726632682, 187500.0, 187500.0, -187500.02235174447, 29896.553444451507, -0.058, 0.968, -0.082, 192.0, 0.0, 0.0, 0.0, 0.0, 0.0, 0.0, 0.0, 0.0, 0.0, 1.6989590718331947E9, 0.0, 2023-11-02 17:04:31.833
248.0, -155684.05755568238, 187500.0, 30403.31219474223, 26213.544751828285, 187500.0, 187500.0, -187500.02235174447, 29898.140418307834, -0.058, 0.968, -0.082, 192.0, 0.0, 0.0, 0.0, 0.0, 0.0, 0.0, 0.0, 0.0, 0.0, 1.6989590718332064E9, 0.0, 2023-11-02 17:04:31.833
249.0, -155618.00815081695, 187500.0, 30405.793238376766, 26214.774097773327, 187500.0, 187500.0, -187500.02235174447, 29900.800275898015, -0.058, 0.968, -0.082, 192.0, 0.0, 0.0, 0.0, 0.0, 0.0, 0.0, 0.0, 0.0, 0.0, 1.698959071833218E9, 0.0, 2023-11-02 17:04:31.833
250.0, -155548.6059842832, 187500.0, 30408.743668644867, 26222.597208332685, 187500.0, 187500.0, -187500.02235174447, 29905.24827304462, -0.058, 0.968, -0.082, 192.0, 0.0, 0.0, 0.0, 0.0, 0.0, 0.0, 0.0, 0.0, 0.0, 1.6989590718332293E9, 0.0, 2023-11-02 17:04:31.833
251.0, -155378.8221334007, 187500.0, 30409.235407022883, 26224.452403122476, 187500.0, 187500.0, -187500.02235174447, 29906.567025967484, -0.058, 0.968, -0.082, 192.0, 0.0, 0.0, 0.0, 0.0, 0.0, 0.0, 0.0, 0.0, 0.0, 1.69895907183324E9, 0.0, 2023-11-02 17:04:31.833
252.0, -155199.35997716905, 187500.0, 30406.55319768825, 26221.636083321107, 187500.0, 187500.0, -187500.02235174447, 29903.34837476592, -0.058, 0.968, -0.082, 192.0, 0.0, 0.0, 0.0, 0.0, 0.0, 0.0, 0.0, 0.0, 0.0, 1.698959071833251E9, 0.0, 2023-11-02 17:04:31.833
253.0, -155127.32030478958, 187500.0, 30407.760191888836, 26220.18321993151, 187500.0, 187500.0, -187500.02235174447, 29904.22009279968, -0.058, 0.968, -0.082, 192.0, 0.0, 0.0, 0.0, 0.0, 0.0, 0.0, 0.0, 0.0, 0.0, 1.698959071833262E9, 0.0, 2023-11-02 17:04:31.833
254.0, -155056.64408882192, 187500.0, 30400.294709240763, 26218.2386181639, 187500.0, 187500.0, -187500.02235174447, 29897.00047934061, -0.058, 0.968, -0.082, 192.0, 0.0, 0.0, 0.0, 0.0, 0.0, 0.0, 0.0, 0.0, 0.0, 1.6989590718332756E9, 0.0, 2023-11-02 17:04:31.833
255.0, -154898.14786888933, 187500.0, 30396.025526049798, 26217.724528041428, 187500.0, 187500.0, -187500.02235174447, 29892.641889171828, -0.058, 0.968, -0.082, 192.0, 0.0, 0.0, 0.0, 0.0, 0.0, 0.0, 0.0, 0.0, 0.0, 1.69895907183329E9, 0.0, 2023-11-02 17:04:31.833
0.0, -154695.9092850577, 187500.0, 30391.421066692004, 26214.371766373133, 187500.0, 187500.0, -187500.02235174447, 29889.758514137095, -0.06, 0.966, -0.088, 192.0, 254.0, 32.0, 30.0, 48.0, 253.0, 64.0, 0.0, 0.0, 0.0, 1.6989590718333657E9, 0.0, 2023-11-02 17:04:31.833
1.0, -154587.86095236076, 187500.0, 30396.31609872772, 26214.327062884222, 187500.0, 187500.0, -187500.02235174447, 29894.742953150628, -0.06, 0.966, -0.088, 192.0, 0.0, 0.0, 0.0, 0.0, 0.0, 0.0, 0.0, 0.0, 0.0, 1.698959071833378E9, 0.0, 2023-11-02 17:04:31.833
2.0, -154529.20997491002, 187500.0, 30399.557101673738, 26219.825592020225, 187500.0, 187500.0, -187500.02235174447, 29897.089886318434, -0.06, 0.966, -0.088, 192.0, 0.0, 0.0, 0.0, 0.0, 0.0, 0.0, 0.0, 0.0, 0.0, 1.6989590718333893E9, 0.0, 2023-11-02 17:04:31.833
3.0, -154379.81091497076, 187500.0, 30397.612499906125, 26221.367862387644, 187500.0, 187500.0, -187500.02235174447, 29894.29591826152, -0.06, 0.966, -0.088, 192.0, 0.0, 0.0, 0.0, 0.0, 0.0, 0.0, 0.0, 0.0, 0.0, 1.6989590718334E9, 0.0, 2023-11-02 17:04:31.833
4.0, -154203.92503785194, 187500.0, 30403.49100869787, 26217.836286763704, 187500.0, 187500.0, -187500.02235174447, 29897.44751422972, -0.06, 0.966, -0.088, 192.0, 0.0, 0.0, 0.0, 0.0, 0.0, 0.0, 0.0, 0.0, 0.0, 1.6989590718334107E9, 0.0, 2023-11-02 17:04:31.833
5.0, -154093.39566152045, 187500.0, 30403.69217439797, 26212.85184775017, 187500.0, 187500.0, -187500.02235174447, 29896.262871773586, -0.06, 0.966, -0.088, 192.0, 0.0, 0.0, 0.0, 0.0, 0.0, 0.0, 0.0, 0.0, 0.0, 1.6989590718334274E9, 0.0, 2023-11-02 17:04:31.833
6.0, -154042.56779462908, 187500.0, 30404.563892431725, 26206.772173258327, 187500.0, 187500.0, -187500.02235174447, 29896.307575262497, -0.06, 0.966, -0.088, 192.0, 0.0, 0.0, 0.0, 0.0, 0.0, 0.0, 0.0, 0.0, 0.0, 1.6989590718334377E9, 0.0, 2023-11-02 17:04:31.833
7.0, -153957.80997965456, 187500.0, 30408.989537833877, 26216.405775118565, 187500.0, 187500.0, -187500.02235174447, 29898.45334273021, -0.06, 0.966, -0.088, 192.0, 0.0, 0.0, 0.0, 0.0, 0.0, 0.0, 0.0, 0.0, 0.0, 1.6989590718334477E9, 0.0, 2023-11-02 17:04:31.833
8.0, -153781.76764032457, 187500.0, 30410.554159945747, 26220.719661798437, 187500.0, 187500.0, -187500.02235174447, 29897.62632818536, -0.06, 0.966, -0.088, 192.0, 0.0, 0.0, 0.0, 0.0, 0.0, 0.0, 0.0, 0.0, 0.0, 1.6989590718334572E9, 0.0, 2023-11-02 17:04:31.833
9.0, -153666.94672905764, 187500.0, 30419.897189128067, 26227.04520547929, 187500.0, 187500.0, -187500.02235174447, 29904.890645133335, -0.06, 0.966, -0.088, 192.0, 0.0, 0.0, 0.0, 0.0, 0.0, 0.0, 0.0, 0.0, 0.0, 1.6989590718334668E9, 0.0, 2023-11-02 17:04:31.833
10.0, -153628.94876348364, 187500.0, 30423.138192074086, 26229.90622876957, 187500.0, 187500.0, -187500.02235174447, 29908.91395913529, -0.052000000000000005, 0.984, -0.08, 192.0, 254.0, 96.0, 30.0, 192.0, 253.0, 128.0, 0.0, 0.0, 0.0, 1.6989590718334765E9, 0.0, 2023-11-02 17:04:31.833
11.0, -153568.0402598429, 187500.0, 30426.334491531194, 26236.321179428243, 187500.0, 187500.0, -187500.02235174447, 29914.233674315656, -0.052000000000000005, 0.984, -0.08, 192.0, 0.0, 0.0, 0.0, 0.0, 0.0, 0.0, 0.0, 0.0, 0.0, 1.6989590718334875E9, 0.0, 2023-11-02 17:04:31.833
12.0, -153406.4594991755, 187500.0, 30423.428764752003, 26235.315350927754, 187500.0, 187500.0, -187500.02235174447, 29911.283244047554, -0.052000000000000005, 0.984, -0.08, 192.0, 0.0, 0.0, 0.0, 0.0, 0.0, 0.0, 0.0, 0.0, 0.0, 1.6989590718334973E9, 0.0, 2023-11-02 17:04:31.833
13.0, -153250.35491589963, 187500.0, 30417.88553212709, 26226.66522582355, 187500.0, 187500.0, -187500.02235174447, 29904.935348622246, -0.052000000000000005, 0.984, -0.08, 192.0, 0.0, 0.0, 0.0, 0.0, 0.0, 0.0, 0.0, 0.0, 0.0, 1.6989590718335068E9, 0.0, 2023-11-02 17:04:31.833
14.0, -153211.8652119476, 187500.0, 30420.008947850343, 26221.85960076566, 187500.0, 187500.0, -187500.02235174447, 29907.528150979062, -0.052000000000000005, 0.984, -0.08, 192.0, 0.0, 0.0, 0.0, 0.0, 0.0, 0.0, 0.0, 0.0, 0.0, 1.6989590718335173E9, 0.0, 2023-11-02 17:04:31.833
15.0, -153158.6904118884, 187500.0, 30416.052689081753, 26224.877086267126, 187500.0, 187500.0, -187500.02235174447, 29905.270624789075, -0.052000000000000005, 0.984, -0.08, 192.0, 0.0, 0.0, 0.0, 0.0, 0.0, 0.0, 0.0, 0.0, 0.0, 1.6989590718335366E9, 0.0, 2023-11-02 17:04:31.833
16.0, -153019.64020963197, 187500.0, 30414.15279080305, 26223.42422287753, 187500.0, 187500.0, -187500.02235174447, 29902.834284643446, -0.052000000000000005, 0.984, -0.08, 192.0, 0.0, 0.0, 0.0, 0.0, 0.0, 0.0, 0.0, 0.0, 0.0, 1.6989590718335464E9, 0.0, 2023-11-02 17:04:31.833
17.0, -152889.21778073523, 187500.0, 30412.72227915791, 26222.731318799415, 187500.0, 187500.0, -187500.02235174447, 29900.35324100891, -0.052000000000000005, 0.984, -0.08, 192.0, 0.0, 0.0, 0.0, 0.0, 0.0, 0.0, 0.0, 0.0, 0.0, 1.6989590718335562E9, 0.0, 2023-11-02 17:04:31.833
18.0, -152853.05265820655, 187500.0, 30413.817514636223, 26220.85377226517, 187500.0, 187500.0, -187500.02235174447, 29902.119028820878, -0.052000000000000005, 0.984, -0.08, 192.0, 0.0, 0.0, 0.0, 0.0, 0.0, 0.0, 0.0, 0.0, 0.0, 1.6989590718335657E9, 0.0, 2023-11-02 17:04:31.833
19.0, -152827.45991080522, 187500.0, 30413.705755913947, 26222.686615310507, 187500.0, 187500.0, -187500.02235174447, 29904.77888641106, -0.052000000000000005, 0.984, -0.08, 192.0, 0.0, 0.0, 0.0, 0.0, 0.0, 0.0, 0.0, 0.0, 0.0, 1.6989590718335755E9, 0.0, 2023-11-02 17:04:31.833
20.0, -152701.26196161055, 187500.0, 30411.001194834855, 26222.99953973288, 187500.0, 187500.0, -187500.02235174447, 29901.3590695094, -0.052000000000000005, 0.98, -0.08, 192.0, 254.0, 96.0, 30.0, 160.0, 253.0, 128.0, 0.0, 0.0, 0.0, 1.6989590718335853E9, 0.0, 2023-11-02 17:04:31.833
21.0, -152554.79098019493, 187500.0, 30412.387002991083, 26221.56902808774, 187500.0, 187500.0, -187500.02235174447, 29900.397944497818, -0.052000000000000005, 0.98, -0.08, 192.0, 0.0, 0.0, 0.0, 0.0, 0.0, 0.0, 0.0, 0.0, 0.0, 1.6989590718335955E9, 0.0, 2023-11-02 17:04:31.833
22.0, -152514.15550877518, 187500.0, 30416.902055371054, 26218.685653053006, 187500.0, 187500.0, -187500.02235174447, 29903.01309859909, -0.052000000000000005, 0.98, -0.08, 192.0, 0.0, 0.0, 0.0, 0.0, 0.0, 0.0, 0.0, 0.0, 0.0, 1.6989590718336058E9, 0.0, 2023-11-02 17:04:31.833
23.0, -152513.46260469707, 187500.0, 30420.92536937301, 26224.027719977825, 187500.0, 187500.0, -187500.02235174447, 29904.980052111157, -0.052000000000000005, 0.98, -0.08, 192.0, 0.0, 0.0, 0.0, 0.0, 0.0, 0.0, 0.0, 0.0, 0.0, 1.6989590718336155E9, 0.0, 2023-11-02 17:04:31.833
24.0, -152404.09551907727, 187500.0, 30416.63383443759, 26224.072423466736, 187500.0, 187500.0, -187500.02235174447, 29898.542749708027, -0.052000000000000005, 0.98, -0.08, 192.0, 0.0, 0.0, 0.0, 0.0, 0.0, 0.0, 0.0, 0.0, 0.0, 1.6989590718336253E9, 0.0, 2023-11-02 17:04:31.833
25.0, -152270.6332529346, 187500.0, 30427.273264798318, 26226.19583918999, 187500.0, 187500.0, -187500.02235174447, 29905.471790489173, -0.052000000000000005, 0.98, -0.08, 192.0, 0.0, 0.0, 0.0, 0.0, 0.0, 0.0, 0.0, 0.0, 0.0, 1.698959071833635E9, 0.0, 2023-11-02 17:04:31.833
26.0, -152223.09109247816, 187500.0, 30435.36459629114, 26226.508763612364, 187500.0, 187500.0, -187500.02235174447, 29910.076249846967, -0.052000000000000005, 0.98, -0.08, 192.0, 0.0, 0.0, 0.0, 0.0, 0.0, 0.0, 0.0, 0.0, 0.0, 1.698959071833645E9, 0.0, 2023-11-02 17:04:31.833
27.0, -152225.30391517925, 187500.0, 30438.06915737023, 26227.291074668297, 187500.0, 187500.0, -187500.02235174447, 29910.54563648053, -0.052000000000000005, 0.98, -0.08, 192.0, 0.0, 0.0, 0.0, 0.0, 0.0, 0.0, 0.0, 0.0, 0.0, 1.69895907183366E9, 0.0, 2023-11-02 17:04:31.833
28.0, -152171.61502499762, 187500.0, 30441.578381249714, 26228.721586313437, 187500.0, 187500.0, -187500.02235174447, 29911.529113236564, -0.052000000000000005, 0.98, -0.08, 192.0, 0.0, 0.0, 0.0, 0.0, 0.0, 0.0, 0.0, 0.0, 0.0, 1.6989590718336709E9, 0.0, 2023-11-02 17:04:31.833
29.0, -152044.45595079137, 187500.0, 30442.53950626129, 26229.99563574739, 187500.0, 187500.0, -187500.02235174447, 29909.673918446773, -0.064, 0.984, -0.07, 192.0, 254.0, 0.0, 30.0, 192.0, 253.0, 208.0, 0.0, 0.0, 0.0, 1.6989590718336809E9, 0.0, 2023-11-02 17:04:31.833
30.0, -151979.99351978226, 187500.0, 30447.322779574726, 26230.91205727006, 187500.0, 187500.0, -187500.02235174447, 29909.20453181321, -0.064, 0.984, -0.07, 192.0, 0.0, 0.0, 0.0, 0.0, 0.0, 0.0, 0.0, 0.0, 0.0, 1.6989590718336928E9, 0.0, 2023-11-02 17:04:31.833
31.0, -151981.2675692162, 187500.0, 30449.423843553526, 26227.04520547929, 187500.0, 187500.0, -187500.02235174447, 29908.556331224005, -0.064, 0.984, -0.07, 192.0, 0.0, 0.0, 0.0, 0.0, 0.0, 0.0, 0.0, 0.0, 0.0, 1.6989590718337169E9, 0.0, 2023-11-02 17:04:31.833
32.0, -151939.24628964023, 187500.0, 30452.731901732914, 26229.973284002936, 187500.0, 187500.0, -187500.02235174447, 29910.322119035976, -0.064, 0.984, -0.07, 192.0, 0.0, 0.0, 0.0, 0.0, 0.0, 0.0, 0.0, 0.0, 0.0, 1.698959071833727E9, 0.0, 2023-11-02 17:04:31.833
33.0, -151799.74905249465, 187500.0, 30450.9884656654, 26227.04520547929, 187500.0, 187500.0, -187500.02235174447, 29904.711831177694, -0.064, 0.984, -0.07, 192.0, 0.0, 0.0, 0.0, 0.0, 0.0, 0.0, 0.0, 0.0, 0.0, 1.69895907183374E9, 0.0, 2023-11-02 17:04:31.833
34.0, -151738.75114187613, 187500.0, 30461.538489048304, 26229.86152528066, 187500.0, 187500.0, -187500.02235174447, 29910.92561613627, -0.064, 0.984, -0.07, 192.0, 0.0, 0.0, 0.0, 0.0, 0.0, 0.0, 0.0, 0.0, 0.0, 1.69895907183375E9, 0.0, 2023-11-02 17:04:31.833
35.0, -151744.60729892342, 187500.0, 30463.147814649084, 26232.76725205985, 187500.0, 187500.0, -187500.02235174447, 29911.506761492106, -0.064, 0.984, -0.07, 192.0, 0.0, 0.0, 0.0, 0.0, 0.0, 0.0, 0.0, 0.0, 0.0, 1.69895907183376E9, 0.0, 2023-11-02 17:04:31.833
36.0, -151683.27411213805, 187500.0, 30454.900020945075, 26228.76628980235, 187500.0, 187500.0, -187500.02235174447, 29901.448476487218, -0.064, 0.984, -0.07, 192.0, 0.0, 0.0, 0.0, 0.0, 0.0, 0.0, 0.0, 0.0, 0.0, 1.6989590718337703E9, 0.0, 2023-11-02 17:04:31.833
37.0, -151544.35802034833, 187500.0, 30455.101186645174, 26226.732281056917, 187500.0, 187500.0, -187500.02235174447, 29900.330889264453, -0.064, 0.984, -0.07, 192.0, 0.0, 0.0, 0.0, 0.0, 0.0, 0.0, 0.0, 0.0, 0.0, 1.6989590718337803E9, 0.0, 2023-11-02 17:04:31.833
38.0, -151444.62453658873, 187500.0, 30458.69981750248, 26228.296903168786, 187500.0, 187500.0, -187500.02235174447, 29903.482485232653, -0.064, 0.984, -0.07, 192.0, 0.0, 0.0, 0.0, 0.0, 0.0, 0.0, 0.0, 0.0, 0.0, 1.6989590718337903E9, 0.0, 2023-11-02 17:04:31.833
39.0, -151433.60512657228, 187500.0, 30457.939858191, 26226.37465314563, 187500.0, 187500.0, -187500.02235174447, 29902.476656732164, -0.066, 0.976, -0.068, 192.0, 253.0, 240.0, 30.0, 128.0, 253.0, 224.0, 0.0, 0.0, 0.0, 1.6989590718338E9, 0.0, 2023-11-02 17:04:31.833
40.0, -151401.46331804554, 187500.0, 30452.55308777727, 26223.245408921888, 187500.0, 187500.0, -187500.02235174447, 29896.77696189606, -0.066, 0.976, -0.068, 192.0, 0.0, 0.0, 0.0, 0.0, 0.0, 0.0, 0.0, 0.0, 0.0, 1.698959071833811E9, 0.0, 2023-11-02 17:04:31.833
41.0, -151258.18863608703, 187500.0, 30444.886439429098, 26220.697310053984, 187500.0, 187500.0, -187500.02235174447, 29891.457246715698, -0.066, 0.976, -0.068, 192.0, 0.0, 0.0, 0.0, 0.0, 0.0, 0.0, 0.0, 0.0, 0.0, 1.6989590718338213E9, 0.0, 2023-11-02 17:04:31.833
42.0, -151149.06741965623, 187500.0, 30456.442291312494, 26228.520420613342, 187500.0, 187500.0, -187500.02235174447, 29902.320194520977, -0.066, 0.976, -0.068, 192.0, 0.0, 0.0, 0.0, 0.0, 0.0, 0.0, 0.0, 0.0, 0.0, 1.698959071833832E9, 0.0, 2023-11-02 17:04:31.833
43.0, -151125.86630891162, 187500.0, 30460.197384380983, 26235.561220116764, 187500.0, 187500.0, -187500.02235174447, 29906.030584100557, -0.066, 0.976, -0.068, 192.0, 0.0, 0.0, 0.0, 0.0, 0.0, 0.0, 0.0, 0.0, 0.0, 1.698959071833842E9, 0.0, 2023-11-02 17:04:31.833
44.0, -151110.6224191931, 187500.0, 30462.25374487087, 26231.873182281637, 187500.0, 187500.0, -187500.02235174447, 29905.62825270036, -0.066, 0.976, -0.068, 192.0, 0.0, 0.0, 0.0, 0.0, 0.0, 0.0, 0.0, 0.0, 0.0, 1.6989590718338523E9, 0.0, 2023-11-02 17:04:31.833
45.0, -151000.7412434508, 187500.0, 30461.046750670288, 26227.268722923844, 187500.0, 187500.0, -187500.02235174447, 29899.146246808323, -0.066, 0.976, -0.068, 192.0, 0.0, 0.0, 0.0, 0.0, 0.0, 0.0, 0.0, 0.0, 0.0, 1.6989590718338623E9, 0.0, 2023-11-02 17:04:31.833
46.0, -150873.29159656665, 187500.0, 30465.941782706, 26220.294978653787, 187500.0, 187500.0, -187500.02235174447, 29899.190950297234, -0.066, 0.976, -0.068, 192.0, 0.0, 0.0, 0.0, 0.0, 0.0, 0.0, 0.0, 0.0, 0.0, 1.698959071833891E9, 0.0, 2023-11-02 17:04:31.833
47.0, -150860.84167490504, 187500.0, 30480.13514043512, 26223.580685088717, 187500.0, 187500.0, -187500.02235174447, 29910.098601591424, -0.066, 0.976, -0.068, 192.0, 0.0, 0.0, 0.0, 0.0, 0.0, 0.0, 0.0, 0.0, 0.0, 1.698959071833901E9, 0.0, 2023-11-02 17:04:31.833
48.0, -150873.24689307774, 187500.0, 30483.487902103414, 26223.96066474446, 187500.0, 187500.0, -187500.02235174447, 29909.696270191227, -0.066, 0.976, -0.068, 192.0, 0.0, 0.0, 0.0, 0.0, 0.0, 0.0, 0.0, 0.0, 0.0, 1.6989590718339138E9, 0.0, 2023-11-02 17:04:31.833
49.0, -150791.39480488238, 187500.0, 30482.817349769753, 26220.63025482062, 187500.0, 187500.0, -187500.02235174447, 29902.029621843056, -0.08, 0.984, -0.06, 192.0, 253.0, 128.0, 30.0, 192.0, 254.0, 32.0, 0.0, 0.0, 0.0, 1.6989590718339243E9, 0.0, 2023-11-02 17:04:31.833
50.0, -150677.17739071578, 187500.0, 30490.998088240398, 26218.864467008647, 187500.0, 187500.0, -187500.02235174447, 29904.912996877792, -0.08, 0.984, -0.06, 192.0, 0.0, 0.0, 0.0, 0.0, 0.0, 0.0, 0.0, 0.0, 0.0, 1.6989590718339367E9, 0.0, 2023-11-02 17:04:31.833
51.0, -150654.60212881592, 187500.0, 30504.74441108041, 26220.876124009625, 187500.0, 187500.0, -187500.02235174447, 29912.736107437147, -0.08, 0.984, -0.06, 192.0, 0.0, 0.0, 0.0, 0.0, 0.0, 0.0, 0.0, 0.0, 0.0, 1.6989590718339496E9, 0.0, 2023-11-02 17:04:31.833
52.0, -150683.52528614108, 187500.0, 30509.08064950474, 26221.971359487936, 187500.0, 187500.0, -187500.02235174447, 29912.311424292497, -0.08, 0.984, -0.06, 192.0, 0.0, 0.0, 0.0, 0.0, 0.0, 0.0, 0.0, 0.0, 0.0, 1.698959071833962E9, 0.0, 2023-11-02 17:04:31.833
53.0, -150618.43700628722, 187500.0, 30505.571425625258, 26224.027719977825, 187500.0, 187500.0, -187500.02235174447, 29904.77888641106, -0.08, 0.984, -0.06, 192.0, 0.0, 0.0, 0.0, 0.0, 0.0, 0.0, 0.0, 0.0, 0.0, 1.6989590718339744E9, 0.0, 2023-11-02 17:04:31.833
54.0, -150487.1205076123, 187500.0, 30502.978623268442, 26218.28332165281, 187500.0, 187500.0, -187500.02235174447, 29897.02283108507, -0.08, 0.984, -0.06, 192.0, 0.0, 0.0, 0.0, 0.0, 0.0, 0.0, 0.0, 0.0, 0.0, 1.698959071833986E9, 0.0, 2023-11-02 17:04:31.833
55.0, -150435.9573645541, 187500.0, 30504.766762824867, 26208.649719792575, 187500.0, 187500.0, -187500.02235174447, 29894.76530489508, -0.08, 0.984, -0.06, 192.0, 0.0, 0.0, 0.0, 0.0, 0.0, 0.0, 0.0, 0.0, 0.0, 1.698959071833998E9, 0.0, 2023-11-02 17:04:31.833
56.0, -150441.52294892346, 187500.0, 30501.592815112213, 26202.123010411622, 187500.0, 187500.0, -187500.02235174447, 29889.065610058977, -0.08, 0.984, -0.06, 192.0, 0.0, 0.0, 0.0, 0.0, 0.0, 0.0, 0.0, 0.0, 0.0, 1.6989590718340151E9, 0.0, 2023-11-02 17:04:31.834
57.0, -150427.44134991663, 187500.0, 30508.208931470985, 26206.19102790249, 187500.0, 187500.0, -187500.02235174447, 29892.86540661638, -0.08, 0.984, -0.06, 192.0, 0.0, 0.0, 0.0, 0.0, 0.0, 0.0, 0.0, 0.0, 0.0, 1.698959071834029E9, 0.0, 2023-11-02 17:04:31.834
58.0, -150322.45520621006, 187500.0, 30511.829914072743, 26207.867408736638, 187500.0, 187500.0, -187500.02235174447, 29893.200682783212, -0.08, 0.984, -0.06, 192.0, 0.0, 0.0, 0.0, 0.0, 0.0, 0.0, 0.0, 0.0, 0.0, 1.6989590718340473E9, 0.0, 2023-11-02 17:04:31.834
59.0, -150272.9237404971, 187500.0, 30522.42464094456, 26209.163809915044, 187500.0, 187500.0, -187500.02235174447, 29899.39211599733, -0.08, 0.962, -0.056, 192.0, 253.0, 128.0, 30.0, 16.0, 254.0, 64.0, 0.0, 0.0, 0.0, 1.6989590718340604E9, 0.0, 2023-11-02 17:04:31.834
60.0, -150305.42317693512, 187500.0, 30525.017443301374, 26209.789658759793, 187500.0, 187500.0, -187500.02235174447, 29896.21816828468, -0.08, 0.962, -0.056, 192.0, 0.0, 0.0, 0.0, 0.0, 0.0, 0.0, 0.0, 0.0, 0.0, 1.6989590718340728E9, 0.0, 2023-11-02 17:04:31.834
61.0, -150268.1181154392, 187500.0, 30519.585969398737, 26206.19102790249, 187500.0, 187500.0, -187500.02235174447, 29889.40088622581, -0.08, 0.962, -0.056, 192.0, 0.0, 0.0, 0.0, 0.0, 0.0, 0.0, 0.0, 0.0, 0.0, 1.6989590718341327E9, 0.0, 2023-11-02 17:04:31.834
62.0, -150142.8365877672, 187500.0, 30526.291492735327, 26207.88976048109, 187500.0, 187500.0, -187500.02235174447, 29892.708944405193, -0.08, 0.962, -0.056, 192.0, 0.0, 0.0, 0.0, 0.0, 0.0, 0.0, 0.0, 0.0, 0.0, 1.6989590718341448E9, 0.0, 2023-11-02 17:04:31.834
63.0, -150062.10208679465, 187500.0, 30537.46736496298, 26207.80035350327, 187500.0, 187500.0, -187500.02235174447, 29899.63798518634, -0.08, 0.962, -0.056, 192.0, 0.0, 0.0, 0.0, 0.0, 0.0, 0.0, 0.0, 0.0, 0.0, 1.6989590718341556E9, 0.0, 2023-11-02 17:04:31.834
64.0, -150069.09818280916, 187500.0, 30544.128184810663, 26210.57196981573, 187500.0, 187500.0, -187500.02235174447, 29901.78375265405, -0.08, 0.962, -0.056, 192.0, 0.0, 0.0, 0.0, 0.0, 0.0, 0.0, 0.0, 0.0, 0.0, 1.6989590718341718E9, 0.0, 2023-11-02 17:04:31.834
65.0, -150076.6754241795, 187500.0, 30546.96685635649, 26212.583626816708, 187500.0, 187500.0, -187500.02235174447, 29900.196778797723, -0.08, 0.962, -0.056, 192.0, 0.0, 0.0, 0.0, 0.0, 0.0, 0.0, 0.0, 0.0, 0.0, 1.698959071834187E9, 0.0, 2023-11-02 17:04:31.834
