%OpenBCI Raw EEG Data
%Number of channels = 8
%Sample Rate = 250 Hz
%Board = OpenBCI_GUI$BoardCytonSerial
Sample Index, EXG Channel 0, EXG Channel 1, EXG Channel 2, EXG Channel 3, EXG Channel 4, EXG Channel 5, EXG Channel 6, EXG Channel 7, Accel Channel 0, Accel Channel 1, Accel Channel 2, Other, Other, Other, Other, Other, Other, Other, Analog Channel 0, Analog Channel 1, Analog Channel 2, Timestamp, Other, Timestamp (Formatted)
187.0, -177716.52969318983, 187500.0, 31013.492466627657, 27004.9753195018, 187500.0, 187500.0, -187500.02235174447, 30107.889188276433, 0.0, 0.0, 0.0, 192.0, 0.0, 0.0, 0.0, 0.0, 0.0, 0.0, 0.0, 0.0, 0.0, 1.698959063637609E9, 0.0, 2023-11-02 17:04:23.637
188.0, -177903.92671870312, 187500.0, 31011.32434741549, 27005.37765090199, 187500.0, 187500.0, -187500.02235174447, 30111.62192960047, 0.0, 0.0, 0.0, 192.0, 0.0, 0.0, 0.0, 0.0, 0.0, 0.0, 0.0, 0.0, 0.0, 1.6989590636376789E9, 0.0, 2023-11-02 17:04:23.637
189.0, -178089.02151453754, 187500.0, 31010.765553804107, 27012.843133550065, 187500.0, 187500.0, -187500.02235174447, 30116.047575002623, 0.0, 0.0, 0.0, 192.0, 0.0, 0.0, 0.0, 0.0, 0.0, 0.0, 0.0, 0.0, 0.0, 1.6989590636377072E9, 0.0, 2023-11-02 17:04:23.637
190.0, -178155.8532304589, 187500.0, 31002.942443244752, 27009.53507537068, 187500.0, 187500.0, -187500.02235174447, 30111.82309530057, 0.0, 0.0, 0.0, 192.0, 0.0, 0.0, 0.0, 0.0, 0.0, 0.0, 0.0, 0.0, 0.0, 1.6989590636377168E9, 0.0, 2023-11-02 17:04:23.637
191.0, -178210.88322530786, 187500.0, 31000.059068210016, 27004.930616012887, 187500.0, 187500.0, -187500.02235174447, 30111.353708667008, 0.0, 0.0, 0.0, 192.0, 0.0, 0.0, 0.0, 0.0, 0.0, 0.0, 0.0, 0.0, 0.0, 1.6989590636377263E9, 0.0, 2023-11-02 17:04:23.637
192.0, -178416.58632953005, 187500.0, 31013.33600441647, 27016.397060918458, 187500.0, 187500.0, -187500.02235174447, 30127.223447230273, 0.0, 0.0, 0.0, 192.0, 0.0, 0.0, 0.0, 0.0, 0.0, 0.0, 0.0, 0.0, 0.0, 1.6989590636377358E9, 0.0, 2023-11-02 17:04:23.637
193.0, -178627.47503846587, 187500.0, 31011.749030560142, 27021.560313887636, 187500.0, 187500.0, -187500.02235174447, 30129.570380398083, 0.0, 0.0, 0.0, 192.0, 0.0, 0.0, 0.0, 0.0, 0.0, 0.0, 0.0, 0.0, 0.0, 1.6989590636377451E9, 0.0, 2023-11-02 17:04:23.637
194.0, -178727.27557745881, 187500.0, 31008.932710758774, 27024.242523222274, 187500.0, 187500.0, -187500.02235174447, 30130.889133320947, -0.04, 0.984, -0.08, 192.0, 254.0, 192.0, 30.0, 192.0, 253.0, 128.0, 0.0, 0.0, 0.0, 1.6989590636377547E9, 0.0, 2023-11-02 17:04:23.637
195.0, -178795.2919358363, 187500.0, 31011.212588693215, 27022.92377029941, 187500.0, 187500.0, -187500.02235174447, 30133.81721184459, -0.04, 0.984, -0.08, 192.0, 0.0, 0.0, 0.0, 0.0, 0.0, 0.0, 0.0, 0.0, 0.0, 1.6989590636377673E9, 0.0, 2023-11-02 17:04:23.637
196.0, -178944.37807135322, 187500.0, 31011.771382304596, 27018.699290597357, 187500.0, 187500.0, -187500.02235174447, 30132.38670019945, -0.04, 0.984, -0.08, 192.0, 0.0, 0.0, 0.0, 0.0, 0.0, 0.0, 0.0, 0.0, 0.0, 1.6989590636377778E9, 0.0, 2023-11-02 17:04:23.637
197.0, -179162.35228328136, 187500.0, 31019.66154809732, 27020.979168531798, 187500.0, 187500.0, -187500.02235174447, 30140.20981075881, -0.04, 0.984, -0.08, 192.0, 0.0, 0.0, 0.0, 0.0, 0.0, 0.0, 0.0, 0.0, 0.0, 1.6989590636377876E9, 0.0, 2023-11-02 17:04:23.637
198.0, -179304.41997103931, 187500.0, 31020.153286475335, 27024.846020322566, 187500.0, 187500.0, -187500.02235174447, 30142.355578226518, -0.04, 0.984, -0.08, 192.0, 0.0, 0.0, 0.0, 0.0, 0.0, 0.0, 0.0, 0.0, 0.0, 1.698959063637797E9, 0.0, 2023-11-02 17:04:23.637
199.0, -179372.14575673887, 187500.0, 31017.38167016288, 27019.883933053487, 187500.0, 187500.0, -187500.02235174447, 30140.38862471445, -0.04, 0.984, -0.08, 192.0, 0.0, 0.0, 0.0, 0.0, 0.0, 0.0, 0.0, 0.0, 0.0, 1.698959063637807E9, 0.0, 2023-11-02 17:04:23.637
200.0, -179527.51273244774, 187500.0, 31015.638234095364, 27017.15702022994, 187500.0, 187500.0, -187500.02235174447, 30138.7122438803, -0.04, 0.984, -0.08, 192.0, 0.0, 0.0, 0.0, 0.0, 0.0, 0.0, 0.0, 0.0, 0.0, 1.6989590636378164E9, 0.0, 2023-11-02 17:04:23.637
201.0, -179751.3207496787, 187500.0, 31013.425411394288, 27017.514648141227, 187500.0, 187500.0, -187500.02235174447, 30135.87357233448, -0.04, 0.984, -0.08, 192.0, 0.0, 0.0, 0.0, 0.0, 0.0, 0.0, 0.0, 0.0, 0.0, 1.698959063637826E9, 0.0, 2023-11-02 17:04:23.637
202.0, -179935.7673449239, 187500.0, 31011.681975326777, 27019.414546419925, 187500.0, 187500.0, -187500.02235174447, 30135.359482212007, -0.04, 0.984, -0.08, 192.0, 0.0, 0.0, 0.0, 0.0, 0.0, 0.0, 0.0, 0.0, 0.0, 1.6989590636378355E9, 0.0, 2023-11-02 17:04:23.637
203.0, -180033.42211644913, 187500.0, 31006.921053757796, 27015.123011484506, 187500.0, 187500.0, -187500.02235174447, 30132.744328110737, -0.04, 0.984, -0.08, 192.0, 0.0, 0.0, 0.0, 0.0, 0.0, 0.0, 0.0, 0.0, 0.0, 1.6989590636379297E9, 0.0, 2023-11-02 17:04:23.637
204.0, -180191.31483928143, 187500.0, 31010.56438810401, 27015.63710160698, 187500.0, 187500.0, -187500.02235174447, 30136.700586879324, -0.05, 0.99, -0.08600000000000001, 192.0, 254.0, 112.0, 30.0, 240.0, 253.0, 80.0, 0.0, 0.0, 0.0, 1.6989590636379397E9, 0.0, 2023-11-02 17:04:23.637
205.0, -180423.37065021644, 187500.0, 31009.715021814707, 27021.87323831001, 187500.0, 187500.0, -187500.02235174447, 30136.611179901505, -0.05, 0.99, -0.08600000000000001, 192.0, 0.0, 0.0, 0.0, 0.0, 0.0, 0.0, 0.0, 0.0, 0.0, 1.6989590636379504E9, 0.0, 2023-11-02 17:04:23.637
206.0, -180615.32743159862, 187500.0, 31006.362260146412, 27023.124935999505, 187500.0, 187500.0, -187500.02235174447, 30135.046557789632, -0.05, 0.99, -0.08600000000000001, 192.0, 0.0, 0.0, 0.0, 0.0, 0.0, 0.0, 0.0, 0.0, 0.0, 1.698959063637961E9, 0.0, 2023-11-02 17:04:23.637
207.0, -180698.99001109484, 187500.0, 31000.75197228813, 27019.034566764185, 187500.0, 187500.0, -187500.02235174447, 30132.1631827549, -0.05, 0.99, -0.08600000000000001, 192.0, 0.0, 0.0, 0.0, 0.0, 0.0, 0.0, 0.0, 0.0, 0.0, 1.6989590636379707E9, 0.0, 2023-11-02 17:04:23.637
208.0, -180824.31624225574, 187500.0, 31004.50706535662, 27017.089964996572, 187500.0, 187500.0, -187500.02235174447, 30137.05821479061, -0.05, 0.99, -0.08600000000000001, 192.0, 0.0, 0.0, 0.0, 0.0, 0.0, 0.0, 0.0, 0.0, 0.0, 1.6989590636379807E9, 0.0, 2023-11-02 17:04:23.637
209.0, -181059.3448352033, 187500.0, 31012.53134161608, 27027.796450590668, 187500.0, 187500.0, -187500.02235174447, 30146.267133506197, -0.05, 0.99, -0.08600000000000001, 192.0, 0.0, 0.0, 0.0, 0.0, 0.0, 0.0, 0.0, 0.0, 0.0, 1.6989590636379929E9, 0.0, 2023-11-02 17:04:23.637
210.0, -181234.26958731053, 187500.0, 31005.93757700176, 27024.242523222274, 187500.0, 187500.0, -187500.02235174447, 30140.053348547623, -0.05, 0.99, -0.08600000000000001, 192.0, 0.0, 0.0, 0.0, 0.0, 0.0, 0.0, 0.0, 0.0, 0.0, 1.6989590636380024E9, 0.0, 2023-11-02 17:04:23.638
211.0, -181317.5968906399, 187500.0, 30999.723792043187, 27017.87227605251, 187500.0, 187500.0, -187500.02235174447, 30134.48776417825, -0.05, 0.99, -0.08600000000000001, 192.0, 0.0, 0.0, 0.0, 0.0, 0.0, 0.0, 0.0, 0.0, 0.0, 1.698959063638012E9, 0.0, 2023-11-02 17:04:23.638
212.0, -181411.65303130783, 187500.0, 30998.047411209038, 27011.278511438195, 187500.0, 187500.0, -187500.02235174447, 30132.78903159965, -0.05, 0.99, -0.08600000000000001, 192.0, 0.0, 0.0, 0.0, 0.0, 0.0, 0.0, 0.0, 0.0, 0.0, 1.6989590636380217E9, 0.0, 2023-11-02 17:04:23.638
213.0, -181632.376507804, 187500.0, 31004.171789189793, 27014.787735317677, 187500.0, 187500.0, -187500.02235174447, 30140.835659603556, -0.05, 0.99, -0.08600000000000001, 192.0, 0.0, 0.0, 0.0, 0.0, 0.0, 0.0, 0.0, 0.0, 0.0, 1.6989590636380315E9, 0.0, 2023-11-02 17:04:23.638
214.0, -181837.9678533039, 187500.0, 31001.958966488717, 27021.850886565553, 187500.0, 187500.0, -187500.02235174447, 30140.612142159003, -0.036000000000000004, 0.99, -0.08600000000000001, 192.0, 254.0, 224.0, 30.0, 240.0, 253.0, 80.0, 0.0, 0.0, 0.0, 1.698959063638041E9, 0.0, 2023-11-02 17:04:23.638
215.0, -181927.66540380305, 187500.0, 30995.007573963117, 27017.402889418947, 187500.0, 187500.0, -187500.02235174447, 30134.130136266966, -0.036000000000000004, 0.99, -0.08600000000000001, 192.0, 0.0, 0.0, 0.0, 0.0, 0.0, 0.0, 0.0, 0.0, 0.0, 1.6989590636380513E9, 0.0, 2023-11-02 17:04:23.638
216.0, -182005.4047710186, 187500.0, 30990.380762860867, 27009.020985248208, 187500.0, 187500.0, -187500.02235174447, 30129.68213912036, -0.036000000000000004, 0.99, -0.08600000000000001, 192.0, 0.0, 0.0, 0.0, 0.0, 0.0, 0.0, 0.0, 0.0, 0.0, 1.6989590636380613E9, 0.0, 2023-11-02 17:04:23.638
217.0, -182183.12349118275, 187500.0, 30990.827797749975, 27006.115258469017, 187500.0, 187500.0, -187500.02235174447, 30129.123345508975, -0.036000000000000004, 0.99, -0.08600000000000001, 192.0, 0.0, 0.0, 0.0, 0.0, 0.0, 0.0, 0.0, 0.0, 0.0, 1.6989590636380708E9, 0.0, 2023-11-02 17:04:23.638
218.0, -182385.4067785033, 187500.0, 30988.682030282263, 27011.993767260763, 187500.0, 187500.0, -187500.02235174447, 30129.0115867867, -0.036000000000000004, 0.99, -0.08600000000000001, 192.0, 0.0, 0.0, 0.0, 0.0, 0.0, 0.0, 0.0, 0.0, 0.0, 1.6989590636381114E9, 0.0, 2023-11-02 17:04:23.638
219.0, -182460.32982591746, 187500.0, 30978.288469110546, 27007.165790458417, 187500.0, 187500.0, -187500.02235174447, 30122.9095605504, -0.036000000000000004, 0.99, -0.08600000000000001, 192.0, 0.0, 0.0, 0.0, 0.0, 0.0, 0.0, 0.0, 0.0, 0.0, 1.6989590636381223E9, 0.0, 2023-11-02 17:04:23.638
220.0, -182498.8642333584, 187500.0, 30979.160187144305, 27008.30572942564, 187500.0, 187500.0, -187500.02235174447, 30126.44113617434, -0.036000000000000004, 0.99, -0.08600000000000001, 192.0, 0.0, 0.0, 0.0, 0.0, 0.0, 0.0, 0.0, 0.0, 0.0, 1.698959063638132E9, 0.0, 2023-11-02 17:04:23.638
221.0, -182654.119450345, 187500.0, 30991.677164039276, 27017.693462096868, 187500.0, 187500.0, -187500.02235174447, 30138.220505502286, -0.036000000000000004, 0.99, -0.08600000000000001, 192.0, 0.0, 0.0, 0.0, 0.0, 0.0, 0.0, 0.0, 0.0, 0.0, 1.6989590636381416E9, 0.0, 2023-11-02 17:04:23.638
222.0, -182845.9644730049, 187500.0, 30987.095056425936, 27012.35139517205, 187500.0, 187500.0, -187500.02235174447, 30132.67727287737, -0.036000000000000004, 0.99, -0.08600000000000001, 192.0, 0.0, 0.0, 0.0, 0.0, 0.0, 0.0, 0.0, 0.0, 0.0, 1.6989590636381514E9, 0.0, 2023-11-02 17:04:23.638
223.0, -182950.16830565553, 187500.0, 30976.902660954318, 26999.45443862134, 187500.0, 187500.0, -187500.02235174447, 30122.395470427928, -0.036000000000000004, 0.99, -0.08600000000000001, 192.0, 0.0, 0.0, 0.0, 0.0, 0.0, 0.0, 0.0, 0.0, 0.0, 1.6989590636381612E9, 0.0, 2023-11-02 17:04:23.638
224.0, -182988.3003816963, 187500.0, 30975.248631864626, 26991.63132806198, 187500.0, 187500.0, -187500.02235174447, 30119.802668071112, -0.048, 0.986, -0.088, 192.0, 254.0, 128.0, 30.0, 208.0, 253.0, 64.0, 0.0, 0.0, 0.0, 1.6989590636381707E9, 0.0, 2023-11-02 17:04:23.638
225.0, -183110.65383084465, 187500.0, 30981.998858690127, 26992.033659462173, 187500.0, 187500.0, -187500.02235174447, 30125.703528607315, -0.048, 0.986, -0.088, 192.0, 0.0, 0.0, 0.0, 0.0, 0.0, 0.0, 0.0, 0.0, 0.0, 1.698959063638182E9, 0.0, 2023-11-02 17:04:23.638
226.0, -183299.45901625862, 187500.0, 30985.642193036343, 26995.788752530665, 187500.0, 187500.0, -187500.02235174447, 30129.883304820458, -0.048, 0.986, -0.088, 192.0, 0.0, 0.0, 0.0, 0.0, 0.0, 0.0, 0.0, 0.0, 0.0, 1.6989590636381917E9, 0.0, 2023-11-02 17:04:23.638
227.0, -183408.58023268942, 187500.0, 30982.401190090324, 26989.463208849815, 187500.0, 187500.0, -187500.02235174447, 30124.429479173363, -0.048, 0.986, -0.088, 192.0, 0.0, 0.0, 0.0, 0.0, 0.0, 0.0, 0.0, 0.0, 0.0, 1.6989590636382017E9, 0.0, 2023-11-02 17:04:23.638
228.0, -183427.93684338772, 187500.0, 30976.14270164284, 26978.466150577802, 187500.0, 187500.0, -187500.02235174447, 30115.801705813614, -0.048, 0.986, -0.088, 192.0, 0.0, 0.0, 0.0, 0.0, 0.0, 0.0, 0.0, 0.0, 0.0, 1.6989590636382113E9, 0.0, 2023-11-02 17:04:23.638
229.0, -183486.72193130516, 187500.0, 30965.59267825993, 26965.323324838082, 187500.0, 187500.0, -187500.02235174447, 30103.86587427448, -0.048, 0.986, -0.088, 192.0, 0.0, 0.0, 0.0, 0.0, 0.0, 0.0, 0.0, 0.0, 0.0, 1.6989590636382208E9, 0.0, 2023-11-02 17:04:23.638
230.0, -183661.57962817905, 187500.0, 30968.543108528032, 26966.32915333857, 187500.0, 187500.0, -187500.02235174447, 30106.793952798125, -0.048, 0.986, -0.088, 192.0, 0.0, 0.0, 0.0, 0.0, 0.0, 0.0, 0.0, 0.0, 0.0, 1.698959063638232E9, 0.0, 2023-11-02 17:04:23.638
231.0, -183794.5725076881, 187500.0, 30963.402207303312, 26970.017191173698, 187500.0, 187500.0, -187500.02235174447, 30102.9047492629, -0.048, 0.986, -0.088, 192.0, 0.0, 0.0, 0.0, 0.0, 0.0, 0.0, 0.0, 0.0, 0.0, 1.6989590636382415E9, 0.0, 2023-11-02 17:04:23.638
232.0, -183832.25754883976, 187500.0, 30959.31183806799, 26967.96083068381, 187500.0, 187500.0, -187500.02235174447, 30102.34595565152, -0.048, 0.986, -0.088, 192.0, 0.0, 0.0, 0.0, 0.0, 0.0, 0.0, 0.0, 0.0, 0.0, 1.6989590636382513E9, 0.0, 2023-11-02 17:04:23.638
233.0, -183909.50517767732, 187500.0, 30963.73748347014, 26972.028848174676, 187500.0, 187500.0, -187500.02235174447, 30110.9066737779, -0.048, 0.986, -0.088, 192.0, 0.0, 0.0, 0.0, 0.0, 0.0, 0.0, 0.0, 0.0, 0.0, 1.69895906363827E9, 0.0, 2023-11-02 17:04:23.638
234.0, -184090.28608683182, 187500.0, 30971.337076584947, 26984.411714602917, 187500.0, 187500.0, -187500.02235174447, 30123.66951986188, -0.056, 0.984, -0.092, 192.0, 254.0, 64.0, 30.0, 192.0, 253.0, 32.0, 0.0, 0.0, 0.0, 1.69895906363828E9, 0.0, 2023-11-02 17:04:23.638
235.0, -184237.2935101144, 187500.0, 30970.040675406537, 26989.57496757209, 187500.0, 187500.0, -187500.02235174447, 30125.614121629493, -0.056, 0.984, -0.092, 192.0, 0.0, 0.0, 0.0, 0.0, 0.0, 0.0, 0.0, 0.0, 0.0, 1.6989590636382902E9, 0.0, 2023-11-02 17:04:23.638
236.0, -184285.32740894886, 187500.0, 30970.08537889545, 26988.81500826061, 187500.0, 187500.0, -187500.02235174447, 30127.737537352747, -0.056, 0.984, -0.092, 192.0, 0.0, 0.0, 0.0, 0.0, 0.0, 0.0, 0.0, 0.0, 0.0, 1.6989590636382997E9, 0.0, 2023-11-02 17:04:23.638
237.0, -184363.24559012003, 187500.0, 30977.819082476984, 26992.994784473754, 187500.0, 187500.0, -187500.02235174447, 30137.77347061318, -0.056, 0.984, -0.092, 192.0, 0.0, 0.0, 0.0, 0.0, 0.0, 0.0, 0.0, 0.0, 0.0, 1.6989590636383097E9, 0.0, 2023-11-02 17:04:23.638
238.0, -184519.66309781827, 187500.0, 30975.89683245383, 26991.29605189515, 187500.0, 187500.0, -187500.02235174447, 30135.82886884557, -0.056, 0.984, -0.092, 192.0, 0.0, 0.0, 0.0, 0.0, 0.0, 0.0, 0.0, 0.0, 0.0, 1.6989590636383204E9, 0.0, 2023-11-02 17:04:23.638
239.0, -184710.16701581088, 187500.0, 30978.087303410448, 26990.491389094757, 187500.0, 187500.0, -187500.02235174447, 30134.554819411616, -0.056, 0.984, -0.092, 192.0, 0.0, 0.0, 0.0, 0.0, 0.0, 0.0, 0.0, 0.0, 0.0, 1.6989590636383302E9, 0.0, 2023-11-02 17:04:23.638
240.0, -184791.50501388373, 187500.0, 30969.99597191763, 26988.658546049424, 187500.0, 187500.0, -187500.02235174447, 30123.468354161785, -0.056, 0.984, -0.092, 192.0, 0.0, 0.0, 0.0, 0.0, 0.0, 0.0, 0.0, 0.0, 0.0, 1.6989590636383605E9, 0.0, 2023-11-02 17:04:23.638
241.0, -184829.9723660913, 187500.0, 30963.402207303312, 26978.600261044536, 187500.0, 187500.0, -187500.02235174447, 30115.354670924506, -0.056, 0.984, -0.092, 192.0, 0.0, 0.0, 0.0, 0.0, 0.0, 0.0, 0.0, 0.0, 0.0, 1.6989590636383882E9, 0.0, 2023-11-02 17:04:23.638
242.0, -184986.92631565648, 187500.0, 30970.465358551188, 26982.735333768767, 187500.0, 187500.0, -187500.02235174447, 30124.20596172881, -0.056, 0.984, -0.092, 192.0, 0.0, 0.0, 0.0, 0.0, 0.0, 0.0, 0.0, 0.0, 0.0, 1.6989590636383984E9, 0.0, 2023-11-02 17:04:23.638
243.0, -185175.32916967027, 187500.0, 30971.895870196327, 26987.496255337748, 187500.0, 187500.0, -187500.02235174447, 30128.49749666423, -0.056, 0.984, -0.092, 192.0, 0.0, 0.0, 0.0, 0.0, 0.0, 0.0, 0.0, 0.0, 0.0, 1.6989590636384084E9, 0.0, 2023-11-02 17:04:23.638
244.0, -185280.1812029101, 187500.0, 30969.973620173172, 26990.290223394662, 187500.0, 187500.0, -187500.02235174447, 30130.44209843184, -0.058, 0.978, -0.09, 192.0, 254.0, 48.0, 30.0, 144.0, 253.0, 48.0, 0.0, 0.0, 0.0, 1.698959063638418E9, 0.0, 2023-11-02 17:04:23.638
245.0, -185327.1869214996, 187500.0, 30967.045541649528, 26992.078362951084, 187500.0, 187500.0, -187500.02235174447, 30130.397394942927, -0.058, 0.978, -0.09, 192.0, 0.0, 0.0, 0.0, 0.0, 0.0, 0.0, 0.0, 0.0, 0.0, 1.6989590636384282E9, 0.0, 2023-11-02 17:04:23.638
246.0, -185465.14188827778, 187500.0, 30970.107730639906, 26995.945214741852, 187500.0, 187500.0, -187500.02235174447, 30136.186496756854, -0.058, 0.978, -0.09, 192.0, 0.0, 0.0, 0.0, 0.0, 0.0, 0.0, 0.0, 0.0, 0.0, 1.6989590636384377E9, 0.0, 2023-11-02 17:04:23.638
247.0, -185651.9577684352, 187500.0, 30973.952230686216, 27003.34364215656, 187500.0, 187500.0, -187500.02235174447, 30143.383758471464, -0.058, 0.978, -0.09, 192.0, 0.0, 0.0, 0.0, 0.0, 0.0, 0.0, 0.0, 0.0, 0.0, 1.6989590636384473E9, 0.0, 2023-11-02 17:04:23.638
248.0, -185753.97113012924, 187500.0, 30974.198099875226, 27006.115258469017, 187500.0, 187500.0, -187500.02235174447, 30145.820098617092, -0.058, 0.978, -0.09, 192.0, 0.0, 0.0, 0.0, 0.0, 0.0, 0.0, 0.0, 0.0, 0.0, 1.6989590636384785E9, 0.0, 2023-11-02 17:04:23.638
249.0, -185775.98759841773, 187500.0, 30977.014419676594, 27004.5729881016, 187500.0, 187500.0, -187500.02235174447, 30144.88132534997, -0.058, 0.978, -0.09, 192.0, 0.0, 0.0, 0.0, 0.0, 0.0, 0.0, 0.0, 0.0, 0.0, 1.6989590636384883E9, 0.0, 2023-11-02 17:04:23.638
250.0, -185842.95342480583, 187500.0, 30977.97554468817, 27001.30963341113, 187500.0, 187500.0, -187500.02235174447, 30142.82496486008, -0.058, 0.978, -0.09, 192.0, 0.0, 0.0, 0.0, 0.0, 0.0, 0.0, 0.0, 0.0, 0.0, 1.698959063638498E9, 0.0, 2023-11-02 17:04:23.638
251.0, -185974.35933045857, 187500.0, 30978.713152255197, 27000.72848805529, 187500.0, 187500.0, -187500.02235174447, 30142.757909626715, -0.058, 0.978, -0.09, 192.0, 0.0, 0.0, 0.0, 0.0, 0.0, 0.0, 0.0, 0.0, 0.0, 1.698959063638509E9, 0.0, 2023-11-02 17:04:23.638
252.0, -186065.53209609177, 187500.0, 30979.249594122124, 27001.175522944395, 187500.0, 187500.0, -187500.02235174447, 30142.690854393346, -0.058, 0.978, -0.09, 192.0, 0.0, 0.0, 0.0, 0.0, 0.0, 0.0, 0.0, 0.0, 0.0, 1.6989590636385188E9, 0.0, 2023-11-02 17:04:23.638
253.0, -186071.58941883917, 187500.0, 30969.101902139417, 26991.139589683964, 187500.0, 187500.0, -187500.02235174447, 30133.459583933305, -0.058, 0.978, -0.09, 192.0, 0.0, 0.0, 0.0, 0.0, 0.0, 0.0, 0.0, 0.0, 0.0, 1.6989590636385283E9, 0.0, 2023-11-02 17:04:23.638
254.0, -186128.65342243356, 187500.0, 30968.476053294668, 26989.709078038824, 187500.0, 187500.0, -187500.02235174447, 30132.945493810836, -0.042, 0.978, -0.08600000000000001, 192.0, 254.0, 176.0, 30.0, 144.0, 253.0, 80.0, 0.0, 0.0, 0.0, 1.698959063638538E9, 0.0, 2023-11-02 17:04:23.638
255.0, -186232.209054495, 187500.0, 30961.010570646595, 26985.752819270234, 187500.0, 187500.0, -187500.02235174447, 30125.56941814058, -0.042, 0.978, -0.08600000000000001, 192.0, 0.0, 0.0, 0.0, 0.0, 0.0, 0.0, 0.0, 0.0, 0.0, 1.698959063638548E9, 0.0, 2023-11-02 17:04:23.638
0.0, -186330.80259928736, 187500.0, 30964.095111381426, 26989.083229194075, 187500.0, 187500.0, -187500.02235174447, 30128.72101410878, -0.042, 0.978, -0.08600000000000001, 192.0, 0.0, 0.0, 0.0, 0.0, 0.0, 0.0, 0.0, 0.0, 0.0, 1.6989590636385577E9, 0.0, 2023-11-02 17:04:23.638
1.0, -186351.8802943087, 187500.0, 30968.587812016944, 26993.44181936286, 187500.0, 187500.0, -187500.02235174447, 30133.236066488753, -0.042, 0.978, -0.08600000000000001, 192.0, 0.0, 0.0, 0.0, 0.0, 0.0, 0.0, 0.0, 0.0, 0.0, 1.6989590636385672E9, 0.0, 2023-11-02 17:04:23.638
2.0, -186390.77232966095, 187500.0, 30968.31959108348, 26989.77613327219, 187500.0, 187500.0, -187500.02235174447, 30133.236066488753, -0.042, 0.978, -0.08600000000000001, 192.0, 0.0, 0.0, 0.0, 0.0, 0.0, 0.0, 0.0, 0.0, 0.0, 1.698959063638577E9, 0.0, 2023-11-02 17:04:23.638
3.0, -186511.91878460872, 187500.0, 30966.620858504877, 26986.803351259634, 187500.0, 187500.0, -187500.02235174447, 30133.303121722118, -0.042, 0.978, -0.08600000000000001, 192.0, 0.0, 0.0, 0.0, 0.0, 0.0, 0.0, 0.0, 0.0, 0.0, 1.6989590636385865E9, 0.0, 2023-11-02 17:04:23.638
4.0, -186632.28292850053, 187500.0, 30967.403169560814, 26989.48556059427, 187500.0, 187500.0, -187500.02235174447, 30136.097089779032, -0.042, 0.978, -0.08600000000000001, 192.0, 0.0, 0.0, 0.0, 0.0, 0.0, 0.0, 0.0, 0.0, 0.0, 1.6989590636385963E9, 0.0, 2023-11-02 17:04:23.638
5.0, -186678.37222556738, 187500.0, 30968.923088183772, 26992.547749584646, 187500.0, 187500.0, -187500.02235174447, 30137.77347061318, -0.042, 0.978, -0.08600000000000001, 192.0, 0.0, 0.0, 0.0, 0.0, 0.0, 0.0, 0.0, 0.0, 0.0, 1.698959063638606E9, 0.0, 2023-11-02 17:04:23.638
6.0, -186699.4275688443, 187500.0, 30967.961963172194, 26990.022002461195, 187500.0, 187500.0, -187500.02235174447, 30136.812345601604, -0.042, 0.978, -0.08600000000000001, 192.0, 0.0, 0.0, 0.0, 0.0, 0.0, 0.0, 0.0, 0.0, 0.0, 1.6989590636386156E9, 0.0, 2023-11-02 17:04:23.638
7.0, -186805.08426488453, 187500.0, 30967.291410838538, 26988.636194304967, 187500.0, 187500.0, -187500.02235174447, 30136.812345601604, -0.042, 0.978, -0.08600000000000001, 192.0, 0.0, 0.0, 0.0, 0.0, 0.0, 0.0, 0.0, 0.0, 0.0, 1.6989590636386335E9, 0.0, 2023-11-02 17:04:23.638
8.0, -186929.38231580047, 187500.0, 30962.08345438045, 26991.072534450595, 187500.0, 187500.0, -187500.02235174447, 30134.53246766716, -0.042, 0.978, -0.08, 192.0, 254.0, 176.0, 30.0, 144.0, 253.0, 128.0, 0.0, 0.0, 0.0, 1.6989590636386433E9, 0.0, 2023-11-02 17:04:23.638
9.0, -186949.0294991767, 187500.0, 30956.584925244442, 26994.022964718697, 187500.0, 187500.0, -187500.02235174447, 30132.833735088556, -0.042, 0.978, -0.08, 192.0, 0.0, 0.0, 0.0, 0.0, 0.0, 0.0, 0.0, 0.0, 0.0, 1.6989590636386535E9, 0.0, 2023-11-02 17:04:23.638
10.0, -186975.89629601198, 187500.0, 30958.931858412252, 26993.598281574046, 187500.0, 187500.0, -187500.02235174447, 30138.555781669114, -0.042, 0.978, -0.08, 192.0, 0.0, 0.0, 0.0, 0.0, 0.0, 0.0, 0.0, 0.0, 0.0, 1.6989590636386628E9, 0.0, 2023-11-02 17:04:23.638
11.0, -187060.29648307522, 187500.0, 30955.13206185485, 26992.346583884548, 187500.0, 187500.0, -187500.02235174447, 30137.237028746255, -0.042, 0.978, -0.08, 192.0, 0.0, 0.0, 0.0, 0.0, 0.0, 0.0, 0.0, 0.0, 0.0, 1.6989590636386726E9, 0.0, 2023-11-02 17:04:23.638
12.0, -187176.21262982042, 187500.0, 30955.266172321582, 26994.04531646315, 187500.0, 187500.0, -187500.02235174447, 30137.72876712427, -0.042, 0.978, -0.08, 192.0, 0.0, 0.0, 0.0, 0.0, 0.0, 0.0, 0.0, 0.0, 0.0, 1.6989590636386824E9, 0.0, 2023-11-02 17:04:23.638
13.0, -187199.0337609093, 187500.0, 30949.99116063013, 26992.145418184453, 187500.0, 187500.0, -187500.02235174447, 30131.626740887972, -0.042, 0.978, -0.08, 192.0, 0.0, 0.0, 0.0, 0.0, 0.0, 0.0, 0.0, 0.0, 0.0, 1.698959063638692E9, 0.0, 2023-11-02 17:04:23.638
14.0, -187192.8870311841, 187500.0, 30957.523698511566, 26994.71586879681, 187500.0, 187500.0, -187500.02235174447, 30139.047520047134, -0.042, 0.978, -0.08, 192.0, 0.0, 0.0, 0.0, 0.0, 0.0, 0.0, 0.0, 0.0, 0.0, 1.6989590636387014E9, 0.0, 2023-11-02 17:04:23.638
15.0, -187270.91697107756, 187500.0, 30962.955172414207, 26994.000612974243, 187500.0, 187500.0, -187500.02235174447, 30143.54022068265, -0.042, 0.978, -0.08, 192.0, 0.0, 0.0, 0.0, 0.0, 0.0, 0.0, 0.0, 0.0, 0.0, 1.698959063638711E9, 0.0, 2023-11-02 17:04:23.638
16.0, -187396.60083014975, 187500.0, 30965.927954426763, 26993.30770889613, 187500.0, 187500.0, -187500.02235174447, 30142.959075326813, -0.042, 0.978, -0.08, 192.0, 0.0, 0.0, 0.0, 0.0, 0.0, 0.0, 0.0, 0.0, 0.0, 1.6989590636387215E9, 0.0, 2023-11-02 17:04:23.638
17.0, -187450.5355895204, 187500.0, 30963.60337300341, 26991.228996661783, 187500.0, 187500.0, -187500.02235174447, 30139.002816558223, -0.05, 0.984, -0.078, 192.0, 254.0, 112.0, 30.0, 192.0, 253.0, 144.0, 0.0, 0.0, 0.0, 1.6989590636387324E9, 0.0, 2023-11-02 17:04:23.638
18.0, -187448.07689763032, 187500.0, 30960.764701457585, 26987.160979170916, 187500.0, 187500.0, -187500.02235174447, 30134.800688600626, -0.05, 0.984, -0.078, 192.0, 0.0, 0.0, 0.0, 0.0, 0.0, 0.0, 0.0, 0.0, 0.0, 1.6989590636387427E9, 0.0, 2023-11-02 17:04:23.638
19.0, -187496.3566656538, 187500.0, 30954.88619266584, 26978.6673162779, 187500.0, 187500.0, -187500.02235174447, 30128.72101410878, -0.05, 0.984, -0.078, 192.0, 0.0, 0.0, 0.0, 0.0, 0.0, 0.0, 0.0, 0.0, 0.0, 1.6989590636387525E9, 0.0, 2023-11-02 17:04:23.638
20.0, -187500.02235174447, 187500.0, 30953.098053109417, 26978.399095344437, 187500.0, 187500.0, -187500.02235174447, 30130.822078087578, -0.05, 0.984, -0.078, 192.0, 0.0, 0.0, 0.0, 0.0, 0.0, 0.0, 0.0, 0.0, 0.0, 1.698959063638762E9, 0.0, 2023-11-02 17:04:23.638
21.0, -187500.02235174447, 187500.0, 30956.02613163306, 26987.11627568201, 187500.0, 187500.0, -187500.02235174447, 30135.29242697864, -0.05, 0.984, -0.078, 192.0, 0.0, 0.0, 0.0, 0.0, 0.0, 0.0, 0.0, 0.0, 0.0, 1.6989590636387715E9, 0.0, 2023-11-02 17:04:23.638
22.0, -187500.02235174447, 187500.0, 30950.08056760795, 26981.8189122461, 187500.0, 187500.0, -187500.02235174447, 30129.68213912036, -0.05, 0.984, -0.078, 192.0, 0.0, 0.0, 0.0, 0.0, 0.0, 0.0, 0.0, 0.0, 0.0, 1.6989590636387892E9, 0.0, 2023-11-02 17:04:23.638
23.0, -187500.02235174447, 187500.0, 30948.135965840338, 26974.465188320304, 187500.0, 187500.0, -187500.02235174447, 30129.43626993135, -0.05, 0.984, -0.078, 192.0, 0.0, 0.0, 0.0, 0.0, 0.0, 0.0, 0.0, 0.0, 0.0, 1.6989590636387987E9, 0.0, 2023-11-02 17:04:23.638
24.0, -187500.02235174447, 187500.0, 30944.26911404957, 26974.666354020403, 187500.0, 187500.0, -187500.02235174447, 30128.341034453042, -0.05, 0.984, -0.078, 192.0, 0.0, 0.0, 0.0, 0.0, 0.0, 0.0, 0.0, 0.0, 0.0, 1.698959063638811E9, 0.0, 2023-11-02 17:04:23.638
25.0, -187500.02235174447, 187500.0, 30937.89886687981, 26971.157130140917, 187500.0, 187500.0, -187500.02235174447, 30122.753098339213, -0.05, 0.984, -0.078, 192.0, 0.0, 0.0, 0.0, 0.0, 0.0, 0.0, 0.0, 0.0, 0.0, 1.6989590636388211E9, 0.0, 2023-11-02 17:04:23.638
26.0, -187500.02235174447, 187500.0, 30939.709358180688, 26979.650793033936, 187500.0, 187500.0, -187500.02235174447, 30126.239970474242, -0.05, 0.984, -0.078, 192.0, 0.0, 0.0, 0.0, 0.0, 0.0, 0.0, 0.0, 0.0, 0.0, 1.698959063638831E9, 0.0, 2023-11-02 17:04:23.638
27.0, -187500.02235174447, 187500.0, 30935.104898822894, 26978.644964533447, 187500.0, 187500.0, -187500.02235174447, 30122.082546005553, -0.034, 0.978, -0.076, 192.0, 254.0, 240.0, 30.0, 144.0, 253.0, 160.0, 0.0, 0.0, 0.0, 1.6989590636388404E9, 0.0, 2023-11-02 17:04:23.638
28.0, -187500.02235174447, 187500.0, 30932.78031739954, 26976.230976132272, 187500.0, 187500.0, -187500.02235174447, 30121.188476227344, -0.034, 0.978, -0.076, 192.0, 0.0, 0.0, 0.0, 0.0, 0.0, 0.0, 0.0, 0.0, 0.0, 1.6989590636388507E9, 0.0, 2023-11-02 17:04:23.638
29.0, -187500.02235174447, 187500.0, 30939.485840736135, 26982.78003725768, 187500.0, 187500.0, -187500.02235174447, 30129.033938531156, -0.034, 0.978, -0.076, 192.0, 0.0, 0.0, 0.0, 0.0, 0.0, 0.0, 0.0, 0.0, 0.0, 1.6989590636388605E9, 0.0, 2023-11-02 17:04:23.638
30.0, -187500.02235174447, 187500.0, 30943.59856171591, 26988.502083838237, 187500.0, 187500.0, -187500.02235174447, 30132.00672054371, -0.034, 0.978, -0.076, 192.0, 0.0, 0.0, 0.0, 0.0, 0.0, 0.0, 0.0, 0.0, 0.0, 1.69895906363887E9, 0.0, 2023-11-02 17:04:23.638
31.0, -187500.02235174447, 187500.0, 30940.089337836427, 26981.975374457288, 187500.0, 187500.0, -187500.02235174447, 30127.514019908194, -0.034, 0.978, -0.076, 192.0, 0.0, 0.0, 0.0, 0.0, 0.0, 0.0, 0.0, 0.0, 0.0, 1.69895906363888E9, 0.0, 2023-11-02 17:04:23.638
32.0, -187500.02235174447, 187500.0, 30937.004797101596, 26975.180444142872, 187500.0, 187500.0, -187500.02235174447, 30122.66369136139, -0.034, 0.978, -0.076, 192.0, 0.0, 0.0, 0.0, 0.0, 0.0, 0.0, 0.0, 0.0, 0.0, 1.69895906363889E9, 0.0, 2023-11-02 17:04:23.638
33.0, -187500.02235174447, 187500.0, 30944.045596605018, 26982.869444235497, 187500.0, 187500.0, -187500.02235174447, 30128.743365853235, -0.034, 0.978, -0.076, 192.0, 0.0, 0.0, 0.0, 0.0, 0.0, 0.0, 0.0, 0.0, 0.0, 1.6989590636389008E9, 0.0, 2023-11-02 17:04:23.638
34.0, -187500.02235174447, 187500.0, 30946.79486117302, 26984.25525239173, 187500.0, 187500.0, -187500.02235174447, 30129.883304820458, -0.034, 0.978, -0.076, 192.0, 0.0, 0.0, 0.0, 0.0, 0.0, 0.0, 0.0, 0.0, 0.0, 1.6989590636389112E9, 0.0, 2023-11-02 17:04:23.638
35.0, -187500.02235174447, 187500.0, 30945.163183827783, 26979.62844128948, 187500.0, 187500.0, -187500.02235174447, 30124.854162318014, -0.034, 0.978, -0.076, 192.0, 0.0, 0.0, 0.0, 0.0, 0.0, 0.0, 0.0, 0.0, 0.0, 1.6989590636389213E9, 0.0, 2023-11-02 17:04:23.638
36.0, -187500.02235174447, 187500.0, 30942.54802972651, 26977.01328718821, 187500.0, 187500.0, -187500.02235174447, 30121.05436576061, -0.034, 0.978, -0.076, 192.0, 0.0, 0.0, 0.0, 0.0, 0.0, 0.0, 0.0, 0.0, 0.0, 1.6989590636389308E9, 0.0, 2023-11-02 17:04:23.638
37.0, -187500.02235174447, 187500.0, 30942.279808793046, 26980.656621534425, 187500.0, 187500.0, -187500.02235174447, 30121.836676816547, -0.042, 0.984, -0.074, 192.0, 254.0, 176.0, 30.0, 192.0, 253.0, 176.0, 0.0, 0.0, 0.0, 1.6989590636389408E9, 0.0, 2023-11-02 17:04:23.638
38.0, -187500.02235174447, 187500.0, 30937.585942457434, 26977.952060455333, 187500.0, 187500.0, -187500.02235174447, 30117.656900603404, -0.042, 0.984, -0.074, 192.0, 0.0, 0.0, 0.0, 0.0, 0.0, 0.0, 0.0, 0.0, 0.0, 1.6989590636389654E9, 0.0, 2023-11-02 17:04:23.638
39.0, -187500.02235174447, 187500.0, 30933.227352288646, 26971.134778396463, 187500.0, 187500.0, -187500.02235174447, 30112.180723211855, -0.042, 0.984, -0.074, 192.0, 0.0, 0.0, 0.0, 0.0, 0.0, 0.0, 0.0, 0.0, 0.0, 1.6989590636389754E9, 0.0, 2023-11-02 17:04:23.638
40.0, -187500.02235174447, 187500.0, 30934.54610521151, 26967.089112650054, 187500.0, 187500.0, -187500.02235174447, 30115.57818836906, -0.042, 0.984, -0.074, 192.0, 0.0, 0.0, 0.0, 0.0, 0.0, 0.0, 0.0, 0.0, 0.0, 1.6989590636389852E9, 0.0, 2023-11-02 17:04:23.638
41.0, -187500.02235174447, 187500.0, 30939.061157591485, 26973.794635986644, 187500.0, 187500.0, -187500.02235174447, 30122.127249494464, -0.042, 0.984, -0.074, 192.0, 0.0, 0.0, 0.0, 0.0, 0.0, 0.0, 0.0, 0.0, 0.0, 1.6989590636389954E9, 0.0, 2023-11-02 17:04:23.638
42.0, -187500.02235174447, 187500.0, 30939.88817213633, 26978.44379883335, 187500.0, 187500.0, -187500.02235174447, 30124.474182662274, -0.042, 0.984, -0.074, 192.0, 0.0, 0.0, 0.0, 0.0, 0.0, 0.0, 0.0, 0.0, 0.0, 1.698959063639006E9, 0.0, 2023-11-02 17:04:23.639
43.0, -187500.02235174447, 187500.0, 30939.038805847027, 26978.980240700275, 187500.0, 187500.0, -187500.02235174447, 30124.317720451087, -0.042, 0.984, -0.074, 192.0, 0.0, 0.0, 0.0, 0.0, 0.0, 0.0, 0.0, 0.0, 0.0, 1.6989590636390166E9, 0.0, 2023-11-02 17:04:23.639
44.0, -187500.02235174447, 187500.0, 30932.6015034439, 26971.805330730123, 187500.0, 187500.0, -187500.02235174447, 30119.892075048934, -0.042, 0.984, -0.074, 192.0, 0.0, 0.0, 0.0, 0.0, 0.0, 0.0, 0.0, 0.0, 0.0, 1.698959063639027E9, 0.0, 2023-11-02 17:04:23.639
45.0, -187500.02235174447, 187500.0, 30927.125326052348, 26967.491444050247, 187500.0, 187500.0, -187500.02235174447, 30116.606368614004, -0.042, 0.984, -0.074, 192.0, 0.0, 0.0, 0.0, 0.0, 0.0, 0.0, 0.0, 0.0, 0.0, 1.6989590636390383E9, 0.0, 2023-11-02 17:04:23.639
46.0, -187500.02235174447, 187500.0, 30925.516000451567, 26967.37968532797, 187500.0, 187500.0, -187500.02235174447, 30115.24291220223, -0.042, 0.984, -0.074, 192.0, 0.0, 0.0, 0.0, 0.0, 0.0, 0.0, 0.0, 0.0, 0.0, 1.698959063639049E9, 0.0, 2023-11-02 17:04:23.639
47.0, -187500.02235174447, 187500.0, 30925.046613818005, 26967.7149614948, 187500.0, 187500.0, -187500.02235174447, 30116.09227849153, -0.05, 0.974, -0.074, 192.0, 254.0, 112.0, 30.0, 112.0, 253.0, 176.0, 0.0, 0.0, 0.0, 1.6989590636390595E9, 0.0, 2023-11-02 17:04:23.639
48.0, -187500.02235174447, 187500.0, 30930.478087720647, 26972.319420852593, 187500.0, 187500.0, -187500.02235174447, 30121.322586694074, -0.05, 0.974, -0.074, 192.0, 0.0, 0.0, 0.0, 0.0, 0.0, 0.0, 0.0, 0.0, 0.0, 1.6989590636390717E9, 0.0, 2023-11-02 17:04:23.639
49.0, -187500.02235174447, 187500.0, 30931.88624762133, 26972.43117957487, 187500.0, 187500.0, -187500.02235174447, 30122.507229150204, -0.05, 0.974, -0.074, 192.0, 0.0, 0.0, 0.0, 0.0, 0.0, 0.0, 0.0, 0.0, 0.0, 1.698959063639083E9, 0.0, 2023-11-02 17:04:23.639
50.0, -187500.02235174447, 187500.0, 30928.757003397586, 26969.68191500687, 187500.0, 187500.0, -187500.02235174447, 30119.53444713765, -0.05, 0.974, -0.074, 192.0, 0.0, 0.0, 0.0, 0.0, 0.0, 0.0, 0.0, 0.0, 0.0, 1.6989590636390936E9, 0.0, 2023-11-02 17:04:23.639
51.0, -187500.02235174447, 187500.0, 30930.88041912084, 26969.57015628459, 187500.0, 187500.0, -187500.02235174447, 30121.47904890526, -0.05, 0.974, -0.074, 192.0, 0.0, 0.0, 0.0, 0.0, 0.0, 0.0, 0.0, 0.0, 0.0, 1.698959063639105E9, 0.0, 2023-11-02 17:04:23.639
52.0, -187500.02235174447, 187500.0, 30937.27301803506, 26970.598336529536, 187500.0, 187500.0, -187500.02235174447, 30127.67048211938, -0.05, 0.974, -0.074, 192.0, 0.0, 0.0, 0.0, 0.0, 0.0, 0.0, 0.0, 0.0, 0.0, 1.6989590636391163E9, 0.0, 2023-11-02 17:04:23.639
53.0, -187500.02235174447, 187500.0, 30944.135003582836, 26971.648868518936, 187500.0, 187500.0, -187500.02235174447, 30133.794860100137, -0.05, 0.974, -0.074, 192.0, 0.0, 0.0, 0.0, 0.0, 0.0, 0.0, 0.0, 0.0, 0.0, 1.6989590636391923E9, 0.0, 2023-11-02 17:04:23.639
0.0, 0.0, 0.0, 0.0, 0.0, 0.0, 0.0, 0.0, 0.0, -0.054, 0.982, -0.078, 192.0, 254.0, 80.0, 30.0, 176.0, 253.0, 144.0, 0.0, 0.0, 0.0, 1.6989590637489865E9, 0.0, 2023-11-02 17:04:23.748
1.0, -176521.00193750882, 187500.0, 30848.089557658383, 26800.9262443693, 187500.0, 187500.0, -187500.02235174447, 30047.628885224927, -0.054, 0.982, -0.078, 192.0, 0.0, 0.0, 0.0, 0.0, 0.0, 0.0, 0.0, 0.0, 0.0, 1.6989590642367992E9, 0.0, 2023-11-02 17:04:24.236
2.0, -176640.00262498888, 187500.0, 30855.10800541735, 26807.967043872723, 187500.0, 187500.0, -187500.02235174447, 30055.586106251016, -0.054, 0.982, -0.078, 192.0, 0.0, 0.0, 0.0, 0.0, 0.0, 0.0, 0.0, 0.0, 0.0, 1.698959064236823E9, 0.0, 2023-11-02 17:04:24.236
3.0, -176759.38329212466, 187500.0, 30852.91753446073, 26809.9787008737, 187500.0, 187500.0, -187500.02235174447, 30054.2450015837, -0.054, 0.982, -0.078, 192.0, 0.0, 0.0, 0.0, 0.0, 0.0, 0.0, 0.0, 0.0, 0.0, 1.698959064236835E9, 0.0, 2023-11-02 17:04:24.236
4.0, -176763.33955089326, 187500.0, 30847.26254311354, 26804.949558371256, 187500.0, 187500.0, -187500.02235174447, 30047.830050925026, -0.054, 0.982, -0.078, 192.0, 0.0, 0.0, 0.0, 0.0, 0.0, 0.0, 0.0, 0.0, 0.0, 1.698959064236846E9, 0.0, 2023-11-02 17:04:24.236
5.0, -176762.33372239277, 187500.0, 30845.16147913474, 26799.361622257427, 187500.0, 187500.0, -187500.02235174447, 30046.84657416899, -0.054, 0.982, -0.078, 192.0, 0.0, 0.0, 0.0, 0.0, 0.0, 0.0, 0.0, 0.0, 0.0, 1.6989590642368612E9, 0.0, 2023-11-02 17:04:24.236
6.0, -176861.75428172998, 187500.0, 30845.228534368103, 26797.461723978726, 187500.0, 187500.0, -187500.02235174447, 30046.80187068008, -0.054, 0.982, -0.078, 192.0, 0.0, 0.0, 0.0, 0.0, 0.0, 0.0, 0.0, 0.0, 0.0, 1.6989590642368712E9, 0.0, 2023-11-02 17:04:24.236
7.0, -177013.94730972618, 187500.0, 30851.017636182027, 26806.514180483126, 187500.0, 187500.0, -187500.02235174447, 30053.552097505584, -0.054, 0.982, -0.078, 192.0, 0.0, 0.0, 0.0, 0.0, 0.0, 0.0, 0.0, 0.0, 0.0, 1.6989590642368813E9, 0.0, 2023-11-02 17:04:24.236
8.0, -177068.1502900303, 187500.0, 30853.655142027754, 26813.666738708824, 187500.0, 187500.0, -187500.02235174447, 30057.262487085165, -0.062, 0.982, -0.076, 192.0, 254.0, 16.0, 30.0, 176.0, 253.0, 160.0, 0.0, 0.0, 0.0, 1.6989590642368908E9, 0.0, 2023-11-02 17:04:24.236
9.0, -177078.76736864657, 187500.0, 30858.281953130005, 26815.812506176535, 187500.0, 187500.0, -187500.02235174447, 30064.415045310863, -0.062, 0.982, -0.076, 192.0, 0.0, 0.0, 0.0, 0.0, 0.0, 0.0, 0.0, 0.0, 0.0, 1.6989590642369015E9, 0.0, 2023-11-02 17:04:24.236
10.0, -177159.9712562527, 187500.0, 30857.76786300753, 26814.717270698224, 187500.0, 187500.0, -187500.02235174447, 30065.28676334462, -0.062, 0.982, -0.076, 192.0, 0.0, 0.0, 0.0, 0.0, 0.0, 0.0, 0.0, 0.0, 0.0, 1.6989590642369113E9, 0.0, 2023-11-02 17:04:24.236
11.0, -177315.65115638392, 187500.0, 30858.259601385547, 26816.617168976925, 187500.0, 187500.0, -187500.02235174447, 30066.51610928966, -0.062, 0.982, -0.076, 192.0, 0.0, 0.0, 0.0, 0.0, 0.0, 0.0, 0.0, 0.0, 0.0, 1.698959064236921E9, 0.0, 2023-11-02 17:04:24.236
12.0, -177371.4634622888, 187500.0, 30850.95058094866, 26816.863038165935, 187500.0, 187500.0, -187500.02235174447, 30059.18473710832, -0.062, 0.982, -0.076, 192.0, 0.0, 0.0, 0.0, 0.0, 0.0, 0.0, 0.0, 0.0, 0.0, 1.6989590642369308E9, 0.0, 2023-11-02 17:04:24.236
13.0, -177381.25352636023, 187500.0, 30854.19158389468, 26816.25954106564, 187500.0, 187500.0, -187500.02235174447, 30061.03993189811, -0.062, 0.982, -0.076, 192.0, 0.0, 0.0, 0.0, 0.0, 0.0, 0.0, 0.0, 0.0, 0.0, 1.6989590642369404E9, 0.0, 2023-11-02 17:04:24.236
14.0, -177477.6789519404, 187500.0, 30856.15853740675, 26812.616206719424, 187500.0, 187500.0, -187500.02235174447, 30062.33633307652, -0.062, 0.982, -0.076, 192.0, 0.0, 0.0, 0.0, 0.0, 0.0, 0.0, 0.0, 0.0, 0.0, 1.6989590642370248E9, 0.0, 2023-11-02 17:04:24.237
15.0, -177663.01961696384, 187500.0, 30854.348046105868, 26809.755183429144, 187500.0, 187500.0, -187500.02235174447, 30059.967048164257, -0.062, 0.982, -0.076, 192.0, 0.0, 0.0, 0.0, 0.0, 0.0, 0.0, 0.0, 0.0, 0.0, 1.6989590642370348E9, 0.0, 2023-11-02 17:04:24.237
16.0, -177779.8074817428, 187500.0, 30854.795080994976, 26809.06227935103, 187500.0, 187500.0, -187500.02235174447, 30058.648295241393, -0.062, 0.982, -0.076, 192.0, 0.0, 0.0, 0.0, 0.0, 0.0, 0.0, 0.0, 0.0, 0.0, 1.6989590642370443E9, 0.0, 2023-11-02 17:04:24.237
17.0, -177813.62567110368, 187500.0, 30854.81743273943, 26808.145857828364, 187500.0, 187500.0, -187500.02235174447, 30060.48113828673, -0.062, 0.982, -0.076, 192.0, 0.0, 0.0, 0.0, 0.0, 0.0, 0.0, 0.0, 0.0, 0.0, 1.6989590642370539E9, 0.0, 2023-11-02 17:04:24.237
18.0, -177892.97436392002, 187500.0, 30851.464671071135, 26806.58123571649, 187500.0, 187500.0, -187500.02235174447, 30058.313019074565, -0.056, 0.984, -0.08, 192.0, 254.0, 64.0, 30.0, 192.0, 253.0, 128.0, 0.0, 0.0, 0.0, 1.6989590642370636E9, 0.0, 2023-11-02 17:04:24.237
19.0, -178040.40647034722, 187500.0, 30843.19452562267, 26799.58513970198, 187500.0, 187500.0, -187500.02235174447, 30050.08757711501, -0.056, 0.984, -0.08, 192.0, 0.0, 0.0, 0.0, 0.0, 0.0, 0.0, 0.0, 0.0, 0.0, 1.698959064237074E9, 0.0, 2023-11-02 17:04:24.237
20.0, -178189.82788203095, 187500.0, 30846.01084542404, 26804.681337437793, 187500.0, 187500.0, -187500.02235174447, 30051.00399863768, -0.056, 0.984, -0.08, 192.0, 0.0, 0.0, 0.0, 0.0, 0.0, 0.0, 0.0, 0.0, 0.0, 1.6989590642370837E9, 0.0, 2023-11-02 17:04:24.237
21.0, -178237.3700424874, 187500.0, 30845.80967972394, 26807.095325838964, 187500.0, 187500.0, -187500.02235174447, 30050.065225370556, -0.056, 0.984, -0.08, 192.0, 0.0, 0.0, 0.0, 0.0, 0.0, 0.0, 0.0, 0.0, 0.0, 1.6989590642370932E9, 0.0, 2023-11-02 17:04:24.237
22.0, -178308.11331368846, 187500.0, 30848.20131638066, 26803.653157192846, 187500.0, 187500.0, -187500.02235174447, 30053.954428905778, -0.056, 0.984, -0.08, 192.0, 0.0, 0.0, 0.0, 0.0, 0.0, 0.0, 0.0, 0.0, 0.0, 1.6989590642371027E9, 0.0, 2023-11-02 17:04:24.237
23.0, -178484.73679837427, 187500.0, 30854.079825172405, 26806.983567116687, 187500.0, 187500.0, -187500.02235174447, 30063.252754599187, -0.056, 0.984, -0.08, 192.0, 0.0, 0.0, 0.0, 0.0, 0.0, 0.0, 0.0, 0.0, 0.0, 1.6989590642371123E9, 0.0, 2023-11-02 17:04:24.237
24.0, -178662.50022202733, 187500.0, 30859.176022908217, 26813.554979986548, 187500.0, 187500.0, -187500.02235174447, 30070.360609335974, -0.056, 0.984, -0.08, 192.0, 0.0, 0.0, 0.0, 0.0, 0.0, 0.0, 0.0, 0.0, 0.0, 1.698959064237122E9, 0.0, 2023-11-02 17:04:24.237
25.0, -178724.14633323508, 187500.0, 30854.929191461706, 26814.69491895377, 187500.0, 187500.0, -187500.02235174447, 30065.53263253363, -0.056, 0.984, -0.08, 192.0, 0.0, 0.0, 0.0, 0.0, 0.0, 0.0, 0.0, 0.0, 0.0, 1.6989590642371318E9, 0.0, 2023-11-02 17:04:24.237
26.0, -178782.6855519635, 187500.0, 30851.308208859948, 26808.235264806186, 187500.0, 187500.0, -187500.02235174447, 30062.8951266879, -0.056, 0.984, -0.08, 192.0, 0.0, 0.0, 0.0, 0.0, 0.0, 0.0, 0.0, 0.0, 0.0, 1.6989590642371414E9, 0.0, 2023-11-02 17:04:24.237
27.0, -178949.45191734456, 187500.0, 30857.54434556298, 26811.8785991524, 187500.0, 187500.0, -187500.02235174447, 30068.885394201923, -0.058, 0.986, -0.076, 192.0, 254.0, 48.0, 30.0, 208.0, 253.0, 160.0, 0.0, 0.0, 0.0, 1.6989590642371528E9, 0.0, 2023-11-02 17:04:24.237
28.0, -179133.3844224673, 187500.0, 30862.10410143186, 26820.193448089773, 187500.0, 187500.0, -187500.02235174447, 30074.674496015847, -0.058, 0.986, -0.076, 192.0, 0.0, 0.0, 0.0, 0.0, 0.0, 0.0, 0.0, 0.0, 0.0, 1.6989590642371633E9, 0.0, 2023-11-02 17:04:24.237
29.0, -179212.73311528363, 187500.0, 30861.34414212038, 26817.53359049959, 187500.0, 187500.0, -187500.02235174447, 30073.109873903977, -0.058, 0.986, -0.076, 192.0, 0.0, 0.0, 0.0, 0.0, 0.0, 0.0, 0.0, 0.0, 0.0, 1.6989590642373056E9, 0.0, 2023-11-02 17:04:24.237
30.0, -179292.9758778782, 187500.0, 30866.932078234207, 26824.35087255846, 187500.0, 187500.0, -187500.02235174447, 30079.077789673545, -0.058, 0.986, -0.076, 192.0, 0.0, 0.0, 0.0, 0.0, 0.0, 0.0, 0.0, 0.0, 0.0, 1.698959064237332E9, 0.0, 2023-11-02 17:04:24.237
31.0, -179426.32638529854, 187500.0, 30859.980685708608, 26814.6278637204, 187500.0, 187500.0, -187500.02235174447, 30072.95341169279, -0.058, 0.986, -0.076, 192.0, 0.0, 0.0, 0.0, 0.0, 0.0, 0.0, 0.0, 0.0, 0.0, 1.698959064237342E9, 0.0, 2023-11-02 17:04:24.237
32.0, -179616.31621316867, 187500.0, 30858.416063596735, 26814.78432593159, 187500.0, 187500.0, -187500.02235174447, 30071.880527958936, -0.058, 0.986, -0.076, 192.0, 0.0, 0.0, 0.0, 0.0, 0.0, 0.0, 0.0, 0.0, 0.0, 1.698959064237352E9, 0.0, 2023-11-02 17:04:24.237
33.0, -179731.49475234686, 187500.0, 30861.075921186915, 26823.233285335697, 187500.0, 187500.0, -187500.02235174447, 30075.166234393866, -0.058, 0.986, -0.076, 192.0, 0.0, 0.0, 0.0, 0.0, 0.0, 0.0, 0.0, 0.0, 0.0, 1.6989590642373617E9, 0.0, 2023-11-02 17:04:24.237
34.0, -179801.8356921477, 187500.0, 30859.01956069703, 26824.999073147665, 187500.0, 187500.0, -187500.02235174447, 30074.13805414892, -0.058, 0.986, -0.076, 192.0, 0.0, 0.0, 0.0, 0.0, 0.0, 0.0, 0.0, 0.0, 0.0, 1.6989590642373714E9, 0.0, 2023-11-02 17:04:24.237
35.0, -179933.82274315628, 187500.0, 30851.95640944915, 26815.186657331786, 187500.0, 187500.0, -187500.02235174447, 30067.276068601142, -0.058, 0.986, -0.076, 192.0, 0.0, 0.0, 0.0, 0.0, 0.0, 0.0, 0.0, 0.0, 0.0, 1.6989590642374E9, 0.0, 2023-11-02 17:04:24.237
36.0, -180123.43259137066, 187500.0, 30847.66487451373, 26812.41504101933, 187500.0, 187500.0, -187500.02235174447, 30064.23623135522, -0.058, 0.986, -0.076, 192.0, 0.0, 0.0, 0.0, 0.0, 0.0, 0.0, 0.0, 0.0, 0.0, 1.6989590642374103E9, 0.0, 2023-11-02 17:04:24.237
37.0, -180232.6432147793, 187500.0, 30842.34515933337, 26812.035061363586, 187500.0, 187500.0, -187500.02235174447, 30058.737702219216, -0.05, 0.976, -0.078, 192.0, 254.0, 112.0, 30.0, 128.0, 253.0, 144.0, 0.0, 0.0, 0.0, 1.69895906423742E9, 0.0, 2023-11-02 17:04:24.237
38.0, -180294.26697424258, 187500.0, 30846.100252401862, 26813.934959642287, 187500.0, 187500.0, -187500.02235174447, 30064.52680403314, -0.05, 0.976, -0.078, 192.0, 0.0, 0.0, 0.0, 0.0, 0.0, 0.0, 0.0, 0.0, 0.0, 1.6989590642374487E9, 0.0, 2023-11-02 17:04:24.237
39.0, -180416.88864432438, 187500.0, 30843.48509830059, 26816.795982932566, 187500.0, 187500.0, -187500.02235174447, 30065.979667422733, -0.05, 0.976, -0.078, 192.0, 0.0, 0.0, 0.0, 0.0, 0.0, 0.0, 0.0, 0.0, 0.0, 1.6989590642374763E9, 0.0, 2023-11-02 17:04:24.237
40.0, -180614.07573390912, 187500.0, 30842.52397328901, 26817.399480032862, 187500.0, 187500.0, -187500.02235174447, 30068.37130407945, -0.05, 0.976, -0.078, 192.0, 0.0, 0.0, 0.0, 0.0, 0.0, 0.0, 0.0, 0.0, 0.0, 1.6989590642374864E9, 0.0, 2023-11-02 17:04:24.237
41.0, -180790.09572149467, 187500.0, 30845.8320314684, 26830.609361005947, 187500.0, 187500.0, -187500.02235174447, 30075.970897194256, -0.05, 0.976, -0.078, 192.0, 0.0, 0.0, 0.0, 0.0, 0.0, 0.0, 0.0, 0.0, 0.0, 1.698959064237496E9, 0.0, 2023-11-02 17:04:24.237
42.0, -180850.80305943527, 187500.0, 30836.53370577499, 26831.481079039706, 187500.0, 187500.0, -187500.02235174447, 30072.349914592498, -0.05, 0.976, -0.078, 192.0, 0.0, 0.0, 0.0, 0.0, 0.0, 0.0, 0.0, 0.0, 0.0, 1.698959064237506E9, 0.0, 2023-11-02 17:04:24.237
43.0, -180943.5627989248, 187500.0, 30830.118755116317, 26826.764860959633, 187500.0, 187500.0, -187500.02235174447, 30069.645353513406, -0.05, 0.976, -0.078, 192.0, 0.0, 0.0, 0.0, 0.0, 0.0, 0.0, 0.0, 0.0, 0.0, 1.6989590642375164E9, 0.0, 2023-11-02 17:04:24.237
44.0, -181143.2085803996, 187500.0, 30831.973949906107, 26828.82122144952, 187500.0, 187500.0, -187500.02235174447, 30076.23911812772, -0.05, 0.976, -0.078, 192.0, 0.0, 0.0, 0.0, 0.0, 0.0, 0.0, 0.0, 0.0, 0.0, 1.6989590642375748E9, 0.0, 2023-11-02 17:04:24.237
45.0, -181306.28690794553, 187500.0, 30832.465688284123, 26833.380977318404, 187500.0, 187500.0, -187500.02235174447, 30079.927155962847, -0.05, 0.976, -0.078, 192.0, 0.0, 0.0, 0.0, 0.0, 0.0, 0.0, 0.0, 0.0, 0.0, 1.6989590642376082E9, 0.0, 2023-11-02 17:04:24.237
46.0, -181378.75126346963, 187500.0, 30835.48317378559, 26839.25948611015, 187500.0, 187500.0, -187500.02235174447, 30084.41985659836, -0.05, 0.976, -0.078, 192.0, 0.0, 0.0, 0.0, 0.0, 0.0, 0.0, 0.0, 0.0, 0.0, 1.6989590642376175E9, 0.0, 2023-11-02 17:04:24.237
47.0, -181451.66265388284, 187500.0, 30832.890371428774, 26835.750262230667, 187500.0, 187500.0, -187500.02235174447, 30082.743475764215, -0.034, 0.964, -0.08600000000000001, 192.0, 254.0, 240.0, 30.0, 32.0, 253.0, 80.0, 0.0, 0.0, 0.0, 1.6989590642376275E9, 0.0, 2023-11-02 17:04:24.237
48.0, -181618.98781287528, 187500.0, 30830.878714427796, 26831.391672061884, 187500.0, 187500.0, -187500.02235174447, 30081.692943774815, -0.034, 0.964, -0.08600000000000001, 192.0, 0.0, 0.0, 0.0, 0.0, 0.0, 0.0, 0.0, 0.0, 0.0, 1.698959064237682E9, 0.0, 2023-11-02 17:04:24.237
49.0, -181821.4722658959, 187500.0, 30838.947694176164, 26833.649198251867, 187500.0, 187500.0, -187500.02235174447, 30085.984478710234, -0.034, 0.964, -0.08600000000000001, 192.0, 0.0, 0.0, 0.0, 0.0, 0.0, 0.0, 0.0, 0.0, 0.0, 1.6989590642377133E9, 0.0, 2023-11-02 17:04:24.237
50.0, -181914.83550248572, 187500.0, 30839.77470872101, 26835.370282574928, 187500.0, 187500.0, -187500.02235174447, 30081.916461219367, -0.034, 0.964, -0.08600000000000001, 192.0, 0.0, 0.0, 0.0, 0.0, 0.0, 0.0, 0.0, 0.0, 0.0, 1.6989590642377338E9, 0.0, 2023-11-02 17:04:24.237
51.0, -181988.39509348813, 187500.0, 30841.451089555158, 26828.307131327052, 187500.0, 187500.0, -187500.02235174447, 30077.535519306126, -0.034, 0.964, -0.08600000000000001, 192.0, 0.0, 0.0, 0.0, 0.0, 0.0, 0.0, 0.0, 0.0, 0.0, 1.698959064237744E9, 0.0, 2023-11-02 17:04:24.237
52.0, -182212.73955258605, 187500.0, 30862.081749687404, 26833.850363951966, 187500.0, 187500.0, -187500.02235174447, 30092.019449713167, -0.034, 0.964, -0.08600000000000001, 192.0, 0.0, 0.0, 0.0, 0.0, 0.0, 0.0, 0.0, 0.0, 0.0, 1.698959064237754E9, 0.0, 2023-11-02 17:04:24.237
53.0, -182436.88284598387, 187500.0, 30865.658028800255, 26834.856192452455, 187500.0, 187500.0, -187500.02235174447, 30090.276013645653, -0.034, 0.964, -0.08600000000000001, 192.0, 0.0, 0.0, 0.0, 0.0, 0.0, 0.0, 0.0, 0.0, 0.0, 1.6989590642377803E9, 0.0, 2023-11-02 17:04:24.237
54.0, -182573.5414115836, 187500.0, 30870.77657828052, 26832.285741840096, 187500.0, 187500.0, -187500.02235174447, 30090.968917723767, -0.034, 0.964, -0.08600000000000001, 192.0, 0.0, 0.0, 0.0, 0.0, 0.0, 0.0, 0.0, 0.0, 0.0, 1.698959064237791E9, 0.0, 2023-11-02 17:04:24.237
55.0, -182698.15238692195, 187500.0, 30876.67743881672, 26834.74443373018, 187500.0, 187500.0, -187500.02235174447, 30095.707487548294, -0.034, 0.964, -0.08600000000000001, 192.0, 0.0, 0.0, 0.0, 0.0, 0.0, 0.0, 0.0, 0.0, 0.0, 1.6989590642378204E9, 0.0, 2023-11-02 17:04:24.237
56.0, -182923.927357665, 187500.0, 30878.599688839877, 26829.424718549817, 187500.0, 187500.0, -187500.02235174447, 30098.076772460554, -0.034, 0.964, -0.08600000000000001, 192.0, 0.0, 0.0, 0.0, 0.0, 0.0, 0.0, 0.0, 0.0, 0.0, 1.69895906423783E9, 0.0, 2023-11-02 17:04:24.237
57.0, -183214.16475941715, 187500.0, 30883.58412785341, 26835.25852385265, 187500.0, 187500.0, -187500.02235174447, 30105.095220219522, -0.05, 0.986, -0.078, 192.0, 254.0, 112.0, 30.0, 208.0, 253.0, 144.0, 0.0, 0.0, 0.0, 1.69895906423784E9, 0.0, 2023-11-02 17:04:24.237
58.0, -183420.67252643974, 187500.0, 30884.83582554291, 26840.757052988658, 187500.0, 187500.0, -187500.02235174447, 30109.09618247702, -0.05, 0.986, -0.078, 192.0, 0.0, 0.0, 0.0, 0.0, 0.0, 0.0, 0.0, 0.0, 0.0, 1.6989590642378507E9, 0.0, 2023-11-02 17:04:24.237
59.0, -183584.19788887477, 187500.0, 30890.40140991228, 26842.45578556726, 187500.0, 187500.0, -187500.02235174447, 30113.588883112538, -0.05, 0.986, -0.078, 192.0, 0.0, 0.0, 0.0, 0.0, 0.0, 0.0, 0.0, 0.0, 0.0, 1.6989590642378604E9, 0.0, 2023-11-02 17:04:24.237
60.0, -183821.1487318455, 187500.0, 30887.227462199626, 26836.46551805324, 187500.0, 187500.0, -187500.02235174447, 30108.068002232078, -0.05, 0.986, -0.078, 192.0, 0.0, 0.0, 0.0, 0.0, 0.0, 0.0, 0.0, 0.0, 0.0, 1.698959064237882E9, 0.0, 2023-11-02 17:04:24.237
61.0, -184113.93423246554, 187500.0, 30888.72502907813, 26837.44899480927, 187500.0, 187500.0, -187500.02235174447, 30107.19628419832, -0.05, 0.986, -0.078, 192.0, 0.0, 0.0, 0.0, 0.0, 0.0, 0.0, 0.0, 0.0, 0.0, 1.6989590642378953E9, 0.0, 2023-11-02 17:04:24.237
62.0, -184320.26318553247, 187500.0, 30885.573433109934, 26842.500489056172, 187500.0, 187500.0, -187500.02235174447, 30103.24002542973, -0.05, 0.986, -0.078, 192.0, 0.0, 0.0, 0.0, 0.0, 0.0, 0.0, 0.0, 0.0, 0.0, 1.6989590642379165E9, 0.0, 2023-11-02 17:04:24.237
63.0, -184446.72935566062, 187500.0, 30881.192491196693, 26838.8348029655, 187500.0, 187500.0, -187500.02235174447, 30100.200188183808, -0.05, 0.986, -0.078, 192.0, 0.0, 0.0, 0.0, 0.0, 0.0, 0.0, 0.0, 0.0, 0.0, 1.6989590642379332E9, 0.0, 2023-11-02 17:04:24.237
64.0, -184626.23621538118, 187500.0, 30877.705619061664, 26835.683206997302, 187500.0, 187500.0, -187500.02235174447, 30100.222539928265, -0.05, 0.986, -0.078, 192.0, 0.0, 0.0, 0.0, 0.0, 0.0, 0.0, 0.0, 0.0, 0.0, 1.6989590642379436E9, 0.0, 2023-11-02 17:04:24.237
65.0, -184862.69531997386, 187500.0, 30871.424778869725, 26834.655026752356, 187500.0, 187500.0, -187500.02235174447, 30097.71914454927, -0.05, 0.986, -0.078, 192.0, 0.0, 0.0, 0.0, 0.0, 0.0, 0.0, 0.0, 0.0, 0.0, 1.6989590642379534E9, 0.0, 2023-11-02 17:04:24.237
66.0, -185060.75412759234, 187500.0, 30869.413121868747, 26842.45578556726, 187500.0, 187500.0, -187500.02235174447, 30101.429534128853, -0.05, 0.986, -0.078, 192.0, 0.0, 0.0, 0.0, 0.0, 0.0, 0.0, 0.0, 0.0, 0.0, 1.6989590642379632E9, 0.0, 2023-11-02 17:04:24.237
67.0, -185162.99100673094, 187500.0, 30861.858232242852, 26845.629733279915, 187500.0, 187500.0, -187500.02235174447, 30100.33429865054, -0.044, 0.982, -0.078, 192.0, 254.0, 160.0, 30.0, 176.0, 253.0, 144.0, 0.0, 0.0, 0.0, 1.6989590642379732E9, 0.0, 2023-11-02 17:04:24.237
68.0, -185290.39595012617, 187500.0, 30856.359703106846, 26842.433433822804, 187500.0, 187500.0, -187500.02235174447, 30099.730801550246, -0.044, 0.982, -0.078, 192.0, 0.0, 0.0, 0.0, 0.0, 0.0, 0.0, 0.0, 0.0, 0.0, 1.6989590642379837E9, 0.0, 2023-11-02 17:04:24.237
69.0, -185502.82692942943, 187500.0, 30854.996246695075, 26838.387768076394, 187500.0, 187500.0, -187500.02235174447, 30096.914481748878, -0.044, 0.982, -0.078, 192.0, 0.0, 0.0, 0.0, 0.0, 0.0, 0.0, 0.0, 0.0, 0.0, 1.6989590642379956E9, 0.0, 2023-11-02 17:04:24.237
70.0, -185674.7788995241, 187500.0, 30851.509374560046, 26838.141898887385, 187500.0, 187500.0, -187500.02235174447, 30093.360554380484, -0.044, 0.982, -0.078, 192.0, 0.0, 0.0, 0.0, 0.0, 0.0, 0.0, 0.0, 0.0, 0.0, 1.6989590642380056E9, 0.0, 2023-11-02 17:04:24.238
71.0, -185752.0488801061, 187500.0, 30852.291685615983, 26833.895067440877, 187500.0, 187500.0, -187500.02235174447, 30091.706525290792, -0.044, 0.982, -0.078, 192.0, 0.0, 0.0, 0.0, 0.0, 0.0, 0.0, 0.0, 0.0, 0.0, 1.6989590642380157E9, 0.0, 2023-11-02 17:04:24.238
72.0, -185836.76199159172, 187500.0, 30856.53851706249, 26830.31878832803, 187500.0, 187500.0, -187500.02235174447, 30092.28767064663, -0.044, 0.982, -0.078, 192.0, 0.0, 0.0, 0.0, 0.0, 0.0, 0.0, 0.0, 0.0, 0.0, 1.6989590642380257E9, 0.0, 2023-11-02 17:04:24.238
73.0, -186005.22708955136, 187500.0, 30856.449110084668, 26821.735718457192, 187500.0, 187500.0, -187500.02235174447, 30089.158426422888, -0.044, 0.982, -0.078, 192.0, 0.0, 0.0, 0.0, 0.0, 0.0, 0.0, 0.0, 0.0, 0.0, 1.6989590642380354E9, 0.0, 2023-11-02 17:04:24.238
74.0, -186181.47059458145, 187500.0, 30860.24890664207, 26822.27216032412, 187500.0, 187500.0, -187500.02235174447, 30091.28184214614, -0.044, 0.982, -0.078, 192.0, 0.0, 0.0, 0.0, 0.0, 0.0, 0.0, 0.0, 0.0, 0.0, 1.6989590642380457E9, 0.0, 2023-11-02 17:04:24.238
75.0, -186243.87666510066, 187500.0, 30858.371360107823, 26819.58995098948, 187500.0, 187500.0, -187500.02235174447, 30088.510225833685, -0.044, 0.982, -0.078, 192.0, 0.0, 0.0, 0.0, 0.0, 0.0, 0.0, 0.0, 0.0, 0.0, 1.6989590642380855E9, 0.0, 2023-11-02 17:04:24.238
76.0, -186291.3294185793, 187500.0, 30860.941810720185, 26818.718232955725, 187500.0, 187500.0, -187500.02235174447, 30090.47717934575, -0.044, 0.982, -0.078, 192.0, 0.0, 0.0, 0.0, 0.0, 0.0, 0.0, 0.0, 0.0, 0.0, 1.6989590642380962E9, 0.0, 2023-11-02 17:04:24.238
77.0, -186429.12792314624, 187500.0, 30864.071054943928, 26818.78528818909, 187500.0, 187500.0, -187500.02235174447, 30091.550063079605, -0.058, 0.986, -0.074, 192.0, 254.0, 48.0, 30.0, 208.0, 253.0, 176.0, 0.0, 0.0, 0.0, 1.6989590642381065E9, 0.0, 2023-11-02 17:04:24.238
78.0, -186587.53473610102, 187500.0, 30864.227517155115, 26817.332424799493, 187500.0, 187500.0, -187500.02235174447, 30089.71722003427, -0.058, 0.986, -0.074, 192.0, 0.0, 0.0, 0.0, 0.0, 0.0, 0.0, 0.0, 0.0, 0.0, 1.6989590642381177E9, 0.0, 2023-11-02 17:04:24.238
79.0, -186650.87957988735, 187500.0, 30863.758130521554, 26817.578293988503, 187500.0, 187500.0, -187500.02235174447, 30087.437342099827, -0.058, 0.986, -0.074, 192.0, 0.0, 0.0, 0.0, 0.0, 0.0, 0.0, 0.0, 0.0, 0.0, 1.6989590642381277E9, 0.0, 2023-11-02 17:04:24.238
80.0, -186666.81637368398, 187500.0, 30864.831014255407, 26817.019500377122, 187500.0, 187500.0, -187500.02235174447, 30086.878548488447, -0.058, 0.986, -0.074, 192.0, 0.0, 0.0, 0.0, 0.0, 0.0, 0.0, 0.0, 0.0, 0.0, 1.6989590642381377E9, 0.0, 2023-11-02 17:04:24.238
81.0, -186748.73551711268, 187500.0, 30859.891278730785, 26811.051584607554, 187500.0, 187500.0, -187500.02235174447, 30081.894109474913, -0.058, 0.986, -0.074, 192.0, 0.0, 0.0, 0.0, 0.0, 0.0, 0.0, 0.0, 0.0, 0.0, 1.6989590642381477E9, 0.0, 2023-11-02 17:04:24.238
82.0, -186899.609792186, 187500.0, 30861.45590084266, 26815.54428524307, 187500.0, 187500.0, -187500.02235174447, 30086.207996154786, -0.058, 0.986, -0.074, 192.0, 0.0, 0.0, 0.0, 0.0, 0.0, 0.0, 0.0, 0.0, 0.0, 1.698959064238158E9, 0.0, 2023-11-02 17:04:24.238
83.0, -186980.32194141412, 187500.0, 30863.467557843636, 26823.859134180446, 187500.0, 187500.0, -187500.02235174447, 30091.840635757526, -0.058, 0.986, -0.074, 192.0, 0.0, 0.0, 0.0, 0.0, 0.0, 0.0, 0.0, 0.0, 0.0, 1.698959064238168E9, 0.0, 2023-11-02 17:04:24.238
84.0, -186989.57556361862, 187500.0, 30857.25377288506, 26821.44514577927, 187500.0, 187500.0, -187500.02235174447, 30089.448999100805, -0.058, 0.986, -0.074, 192.0, 0.0, 0.0, 0.0, 0.0, 0.0, 0.0, 0.0, 0.0, 0.0, 1.6989590642381785E9, 0.0, 2023-11-02 17:04:24.238
85.0, -187067.91842793446, 187500.0, 30851.934057704697, 26818.092384110976, 187500.0, 187500.0, -187500.02235174447, 30087.750266522202, -0.058, 0.986, -0.074, 192.0, 0.0, 0.0, 0.0, 0.0, 0.0, 0.0, 0.0, 0.0, 0.0, 1.6989590642381887E9, 0.0, 2023-11-02 17:04:24.238
86.0, -187217.09397042918, 187500.0, 30846.480232057602, 26814.963139887233, 187500.0, 187500.0, -187500.02235174447, 30086.587975810526, -0.058, 0.986, -0.074, 192.0, 0.0, 0.0, 0.0, 0.0, 0.0, 0.0, 0.0, 0.0, 0.0, 1.6989590642381988E9, 0.0, 2023-11-02 17:04:24.238
87.0, -187276.52725893585, 187500.0, 30836.667816241723, 26819.455840522747, 187500.0, 187500.0, -187500.02235174447, 30079.547176307104, -0.048, 0.972, -0.064, 192.0, 254.0, 128.0, 30.0, 96.0, 254.0, 0.0, 0.0, 0.0, 0.0, 1.69895906423821E9, 0.0, 2023-11-02 17:04:24.238
88.0, -187242.1949794525, 187500.0, 30827.570656248412, 26816.9300933993, 187500.0, 187500.0, -187500.02235174447, 30072.57343203705, -0.048, 0.972, -0.064, 192.0, 0.0, 0.0, 0.0, 0.0, 0.0, 0.0, 0.0, 0.0, 0.0, 1.6989590642382207E9, 0.0, 2023-11-02 17:04:24.238
89.0, -187276.86253510267, 187500.0, 30827.928284159698, 26819.053509122554, 187500.0, 187500.0, -187500.02235174447, 30075.456807071783, -0.048, 0.972, -0.064, 192.0, 0.0, 0.0, 0.0, 0.0, 0.0, 0.0, 0.0, 0.0, 0.0, 1.6989590642382307E9, 0.0, 2023-11-02 17:04:24.238
90.0, -187386.34137944478, 187500.0, 30826.542476003466, 26823.009767891144, 187500.0, 187500.0, -187500.02235174447, 30075.18858613832, -0.048, 0.972, -0.064, 192.0, 0.0, 0.0, 0.0, 0.0, 0.0, 0.0, 0.0, 0.0, 0.0, 1.6989590642382493E9, 0.0, 2023-11-02 17:04:24.238
91.0, -187449.41800229767, 187500.0, 30821.558036989933, 26821.959235901744, 187500.0, 187500.0, -187500.02235174447, 30071.366437836463, -0.048, 0.972, -0.064, 192.0, 0.0, 0.0, 0.0, 0.0, 0.0, 0.0, 0.0, 0.0, 0.0, 1.6989590642382612E9, 0.0, 2023-11-02 17:04:24.238
92.0, -187436.5881009803, 187500.0, 30824.039080624472, 26824.954369658753, 187500.0, 187500.0, -187500.02235174447, 30074.316868104564, -0.048, 0.972, -0.064, 192.0, 0.0, 0.0, 0.0, 0.0, 0.0, 0.0, 0.0, 0.0, 0.0, 1.6989590642382712E9, 0.0, 2023-11-02 17:04:24.238
93.0, -187449.239188342, 187500.0, 30826.05073762545, 26825.31199757004, 187500.0, 187500.0, -187500.02235174447, 30077.982554195234, -0.048, 0.972, -0.064, 192.0, 0.0, 0.0, 0.0, 0.0, 0.0, 0.0, 0.0, 0.0, 0.0, 1.6989590642382815E9, 0.0, 2023-11-02 17:04:24.238
94.0, -187500.02235174447, 187500.0, 30824.597874235857, 26825.06612838103, 187500.0, 187500.0, -187500.02235174447, 30075.926193705345, -0.048, 0.972, -0.064, 192.0, 0.0, 0.0, 0.0, 0.0, 0.0, 0.0, 0.0, 0.0, 0.0, 1.6989590642382915E9, 0.0, 2023-11-02 17:04:24.238
95.0, -187500.02235174447, 187500.0, 30826.542476003466, 26828.26242783814, 187500.0, 187500.0, -187500.02235174447, 30076.641449527917, -0.048, 0.972, -0.064, 192.0, 0.0, 0.0, 0.0, 0.0, 0.0, 0.0, 0.0, 0.0, 0.0, 1.6989590642383192E9, 0.0, 2023-11-02 17:04:24.238
96.0, -187500.02235174447, 187500.0, 30821.178057334193, 26823.948541158265, 187500.0, 187500.0, -187500.02235174447, 30071.098216903, -0.048, 0.972, -0.064, 192.0, 0.0, 0.0, 0.0, 0.0, 0.0, 0.0, 0.0, 0.0, 0.0, 1.6989590642383287E9, 0.0, 2023-11-02 17:04:24.238
97.0, -187500.02235174447, 187500.0, 30826.09544111436, 26826.250770837163, 187500.0, 187500.0, -187500.02235174447, 30076.61909778346, -0.038, 0.97, -0.062, 192.0, 254.0, 208.0, 30.0, 80.0, 254.0, 16.0, 0.0, 0.0, 0.0, 1.6989590642383564E9, 0.0, 2023-11-02 17:04:24.238
98.0, -187500.02235174447, 187500.0, 30830.029348138494, 26830.11762262793, 187500.0, 187500.0, -187500.02235174447, 30079.502472818196, -0.038, 0.97, -0.062, 192.0, 0.0, 0.0, 0.0, 0.0, 0.0, 0.0, 0.0, 0.0, 0.0, 1.6989590642383697E9, 0.0, 2023-11-02 17:04:24.238
99.0, -187500.02235174447, 187500.0, 30829.515258016025, 26829.134145871896, 187500.0, 187500.0, -187500.02235174447, 30077.91549896187, -0.038, 0.97, -0.062, 192.0, 0.0, 0.0, 0.0, 0.0, 0.0, 0.0, 0.0, 0.0, 0.0, 1.6989590642383804E9, 0.0, 2023-11-02 17:04:24.238
100.0, -187500.02235174447, 187500.0, 30827.615359737323, 26829.178849360807, 187500.0, 187500.0, -187500.02235174447, 30076.90967046138, -0.038, 0.97, -0.062, 192.0, 0.0, 0.0, 0.0, 0.0, 0.0, 0.0, 0.0, 0.0, 0.0, 1.6989590642383904E9, 0.0, 2023-11-02 17:04:24.238
101.0, -187500.02235174447, 187500.0, 30823.726156202098, 26826.250770837163, 187500.0, 187500.0, -187500.02235174447, 30074.00394368219, -0.038, 0.97, -0.062, 192.0, 0.0, 0.0, 0.0, 0.0, 0.0, 0.0, 0.0, 0.0, 0.0, 1.6989590642384195E9, 0.0, 2023-11-02 17:04:24.238
102.0, -187500.02235174447, 187500.0, 30827.48124927059, 26827.41306154884, 187500.0, 187500.0, -187500.02235174447, 30080.553004807593, -0.038, 0.97, -0.062, 192.0, 0.0, 0.0, 0.0, 0.0, 0.0, 0.0, 0.0, 0.0, 0.0, 1.6989590642384498E9, 0.0, 2023-11-02 17:04:24.238
103.0, -187500.02235174447, 187500.0, 30828.844705682364, 26829.26825633863, 187500.0, 187500.0, -187500.02235174447, 30082.47525483075, -0.038, 0.97, -0.062, 192.0, 0.0, 0.0, 0.0, 0.0, 0.0, 0.0, 0.0, 0.0, 0.0, 1.69895906423846E9, 0.0, 2023-11-02 17:04:24.238
104.0, -187500.02235174447, 187500.0, 30828.28591207098, 26829.380015060906, 187500.0, 187500.0, -187500.02235174447, 30081.96116470828, -0.038, 0.97, -0.062, 192.0, 0.0, 0.0, 0.0, 0.0, 0.0, 0.0, 0.0, 0.0, 0.0, 1.6989590642384715E9, 0.0, 2023-11-02 17:04:24.238
105.0, -187500.02235174447, 187500.0, 30828.263560326526, 26829.603532505458, 187500.0, 187500.0, -187500.02235174447, 30080.262432129675, -0.038, 0.97, -0.062, 192.0, 0.0, 0.0, 0.0, 0.0, 0.0, 0.0, 0.0, 0.0, 0.0, 1.6989590642385008E9, 0.0, 2023-11-02 17:04:24.238
106.0, -187500.02235174447, 187500.0, 30832.935074917685, 26831.905762184357, 187500.0, 187500.0, -187500.02235174447, 30081.737647263726, -0.038, 0.97, -0.062, 192.0, 0.0, 0.0, 0.0, 0.0, 0.0, 0.0, 0.0, 0.0, 0.0, 1.6989590642385125E9, 0.0, 2023-11-02 17:04:24.238
107.0, -187500.02235174447, 187500.0, 30834.320883073913, 26832.196334862274, 187500.0, 187500.0, -187500.02235174447, 30082.162330408377, -0.044, 0.98, -0.058, 192.0, 254.0, 160.0, 30.0, 160.0, 254.0, 48.0, 0.0, 0.0, 0.0, 1.6989590642385244E9, 0.0, 2023-11-02 17:04:24.238
108.0, -187500.02235174447, 187500.0, 30834.231476096094, 26832.48690754019, 187500.0, 187500.0, -187500.02235174447, 30082.408199597383, -0.044, 0.98, -0.058, 192.0, 0.0, 0.0, 0.0, 0.0, 0.0, 0.0, 0.0, 0.0, 0.0, 1.698959064238537E9, 0.0, 2023-11-02 17:04:24.238
109.0, -187500.02235174447, 187500.0, 30834.4773452851, 26830.92228542832, 187500.0, 187500.0, -187500.02235174447, 30080.37419085195, -0.044, 0.98, -0.058, 192.0, 0.0, 0.0, 0.0, 0.0, 0.0, 0.0, 0.0, 0.0, 0.0, 1.698959064238548E9, 0.0, 2023-11-02 17:04:24.238
110.0, -187500.02235174447, 187500.0, 30836.734871475088, 26827.97185516022, 187500.0, 187500.0, -187500.02235174447, 30080.485949574228, -0.044, 0.98, -0.058, 192.0, 0.0, 0.0, 0.0, 0.0, 0.0, 0.0, 0.0, 0.0, 0.0, 1.6989590642385592E9, 0.0, 2023-11-02 17:04:24.238
111.0, -187500.02235174447, 187500.0, 30845.25088611256, 26833.35862557395, 187500.0, 187500.0, -187500.02235174447, 30087.303231633097, -0.044, 0.98, -0.058, 192.0, 0.0, 0.0, 0.0, 0.0, 0.0, 0.0, 0.0, 0.0, 0.0, 1.6989590642385883E9, 0.0, 2023-11-02 17:04:24.238
112.0, -187500.02235174447, 187500.0, 30847.977798936106, 26838.11954714293, 187500.0, 187500.0, -187500.02235174447, 30088.107894433488, -0.044, 0.98, -0.058, 192.0, 0.0, 0.0, 0.0, 0.0, 0.0, 0.0, 0.0, 0.0, 0.0, 1.6989590642386012E9, 0.0, 2023-11-02 17:04:24.238
113.0, -187500.02235174447, 187500.0, 30850.190621637183, 26836.331407586506, 187500.0, 187500.0, -187500.02235174447, 30086.655031043894, -0.044, 0.98, -0.058, 192.0, 0.0, 0.0, 0.0, 0.0, 0.0, 0.0, 0.0, 0.0, 0.0, 1.6989590642386117E9, 0.0, 2023-11-02 17:04:24.238
114.0, -187500.02235174447, 187500.0, 30853.453976327655, 26830.542305772582, 187500.0, 187500.0, -187500.02235174447, 30085.47038858776, -0.044, 0.98, -0.058, 192.0, 0.0, 0.0, 0.0, 0.0, 0.0, 0.0, 0.0, 0.0, 0.0, 1.6989590642386236E9, 0.0, 2023-11-02 17:04:24.238
115.0, -187500.02235174447, 187500.0, 30854.415101339237, 26827.256599337652, 187500.0, 187500.0, -187500.02235174447, 30082.899937975402, -0.044, 0.98, -0.058, 192.0, 0.0, 0.0, 0.0, 0.0, 0.0, 0.0, 0.0, 0.0, 0.0, 1.6989590642386355E9, 0.0, 2023-11-02 17:04:24.238
116.0, -187500.02235174447, 187500.0, 30855.890316473284, 26826.384881303893, 187500.0, 187500.0, -187500.02235174447, 30083.391676353418, -0.044, 0.98, -0.058, 192.0, 0.0, 0.0, 0.0, 0.0, 0.0, 0.0, 0.0, 0.0, 0.0, 1.6989590642386467E9, 0.0, 2023-11-02 17:04:24.238
117.0, -187500.02235174447, 187500.0, 30852.358740849348, 26821.579256246005, 187500.0, 187500.0, -187500.02235174447, 30081.067094930066, -0.062, 0.982, -0.058, 192.0, 254.0, 16.0, 30.0, 176.0, 254.0, 48.0, 0.0, 0.0, 0.0, 1.6989590642386808E9, 0.0, 2023-11-02 17:04:24.238
118.0, -187500.02235174447, 187500.0, 30854.63861878379, 26821.512201012636, 187500.0, 187500.0, -187500.02235174447, 30085.67155428786, -0.062, 0.982, -0.058, 192.0, 0.0, 0.0, 0.0, 0.0, 0.0, 0.0, 0.0, 0.0, 0.0, 1.6989590642386985E9, 0.0, 2023-11-02 17:04:24.238
119.0, -187500.02235174447, 187500.0, 30857.09731067387, 26823.277988824608, 187500.0, 187500.0, -187500.02235174447, 30087.48204558874, -0.062, 0.982, -0.058, 192.0, 0.0, 0.0, 0.0, 0.0, 0.0, 0.0, 0.0, 0.0, 0.0, 1.6989590642387173E9, 0.0, 2023-11-02 17:04:24.238
120.0, -187500.02235174447, 187500.0, 30853.990418194586, 26822.160401601843, 187500.0, 187500.0, -187500.02235174447, 30083.726952520246, -0.062, 0.982, -0.058, 192.0, 0.0, 0.0, 0.0, 0.0, 0.0, 0.0, 0.0, 0.0, 0.0, 1.698959064238784E9, 0.0, 2023-11-02 17:04:24.238
121.0, -187500.02235174447, 187500.0, 30851.39761583777, 26822.898009168865, 187500.0, 187500.0, -187500.02235174447, 30080.12832166294, -0.062, 0.982, -0.058, 192.0, 0.0, 0.0, 0.0, 0.0, 0.0, 0.0, 0.0, 0.0, 0.0, 1.6989590647164433E9, 0.0, 2023-11-02 17:04:24.716
122.0, -187500.02235174447, 187500.0, 30850.05651117045, 26820.931055656798, 187500.0, 187500.0, -187500.02235174447, 30077.759036750682, -0.062, 0.982, -0.058, 192.0, 0.0, 0.0, 0.0, 0.0, 0.0, 0.0, 0.0, 0.0, 0.0, 1.6989590647166097E9, 0.0, 2023-11-02 17:04:24.716
123.0, -187500.02235174447, 187500.0, 30857.566697307433, 26823.50150626916, 187500.0, 187500.0, -187500.02235174447, 30083.078751931043, -0.062, 0.982, -0.058, 192.0, 0.0, 0.0, 0.0, 0.0, 0.0, 0.0, 0.0, 0.0, 0.0, 1.6989590647166471E9, 0.0, 2023-11-02 17:04:24.716
124.0, -187500.02235174447, 187500.0, 30851.3305606044, 26818.293549811075, 187500.0, 187500.0, -187500.02235174447, 30073.512205304174, -0.062, 0.982, -0.058, 192.0, 0.0, 0.0, 0.0, 0.0, 0.0, 0.0, 0.0, 0.0, 0.0, 1.6989590647166736E9, 0.0, 2023-11-02 17:04:24.716
125.0, -187500.02235174447, 187500.0, 30840.758185477043, 26801.9767763587, 187500.0, 187500.0, -187500.02235174447, 30057.888335929914, -0.062, 0.982, -0.058, 192.0, 0.0, 0.0, 0.0, 0.0, 0.0, 0.0, 0.0, 0.0, 0.0, 1.6989590647167196E9, 0.0, 2023-11-02 17:04:24.716
126.0, -187500.02235174447, 187500.0, 30847.10608090235, 26793.460761721228, 187500.0, 187500.0, -187500.02235174447, 30058.491833030206, -0.062, 0.982, -0.058, 192.0, 0.0, 0.0, 0.0, 0.0, 0.0, 0.0, 0.0, 0.0, 0.0, 1.6989590647167573E9, 0.0, 2023-11-02 17:04:24.716
127.0, -187500.02235174447, 187500.0, 30854.146880405773, 26789.370392485907, 187500.0, 187500.0, -187500.02235174447, 30057.37424580744, -0.068, 0.988, -0.06, 192.0, 253.0, 224.0, 30.0, 224.0, 254.0, 32.0, 0.0, 0.0, 0.0, 1.6989590647168045E9, 0.0, 2023-11-02 17:04:24.716
128.0, -187500.02235174447, 187500.0, 30854.884487972795, 26781.413171459815, 187500.0, 187500.0, -187500.02235174447, 30050.266391070654, -0.068, 0.988, -0.06, 192.0, 0.0, 0.0, 0.0, 0.0, 0.0, 0.0, 0.0, 0.0, 0.0, 1.6989590647168472E9, 0.0, 2023-11-02 17:04:24.716
129.0, -187500.02235174447, 187500.0, 30854.750377506065, 26782.866034849412, 187500.0, 187500.0, -187500.02235174447, 30046.578353235527, -0.068, 0.988, -0.06, 192.0, 0.0, 0.0, 0.0, 0.0, 0.0, 0.0, 0.0, 0.0, 0.0, 1.6989590647168605E9, 0.0, 2023-11-02 17:04:24.716
130.0, -187500.02235174447, 187500.0, 30858.371360107823, 26778.418037702806, 187500.0, 187500.0, -187500.02235174447, 30046.578353235527, -0.068, 0.988, -0.06, 192.0, 0.0, 0.0, 0.0, 0.0, 0.0, 0.0, 0.0, 0.0, 0.0, 1.6989590647168767E9, 0.0, 2023-11-02 17:04:24.716
131.0, -187500.02235174447, 187500.0, 30873.52584284852, 26788.431619218783, 187500.0, 187500.0, -187500.02235174447, 30057.061321385067, -0.068, 0.988, -0.06, 192.0, 0.0, 0.0, 0.0, 0.0, 0.0, 0.0, 0.0, 0.0, 0.0, 1.6989590647169096E9, 0.0, 2023-11-02 17:04:24.716
132.0, -187500.02235174447, 187500.0, 30873.995229482083, 26787.73871514067, 187500.0, 187500.0, -187500.02235174447, 30053.932077161324, -0.068, 0.988, -0.06, 192.0, 0.0, 0.0, 0.0, 0.0, 0.0, 0.0, 0.0, 0.0, 0.0, 1.6989590647169428E9, 0.0, 2023-11-02 17:04:24.716
133.0, -187500.02235174447, 187500.0, 30869.05549395746, 26781.502578437638, 187500.0, 187500.0, -187500.02235174447, 30045.41606252385, -0.068, 0.988, -0.06, 192.0, 0.0, 0.0, 0.0, 0.0, 0.0, 0.0, 0.0, 0.0, 0.0, 1.6989590647170217E9, 0.0, 2023-11-02 17:04:24.717
134.0, -187500.02235174447, 187500.0, 30863.579316565912, 26776.562842913016, 187500.0, 187500.0, -187500.02235174447, 30036.497716486185, -0.068, 0.988, -0.06, 192.0, 0.0, 0.0, 0.0, 0.0, 0.0, 0.0, 0.0, 0.0, 0.0, 1.6989590647170365E9, 0.0, 2023-11-02 17:04:24.717
135.0, -187500.02235174447, 187500.0, 30868.921383490728, 26776.00404930163, 187500.0, 187500.0, -187500.02235174447, 30040.09634734349, -0.068, 0.988, -0.06, 192.0, 0.0, 0.0, 0.0, 0.0, 0.0, 0.0, 0.0, 0.0, 0.0, 1.6989590647173555E9, 0.0, 2023-11-02 17:04:24.717
136.0, -187500.02235174447, 187500.0, 30869.68134280221, 26777.81454060251, 187500.0, 187500.0, -187500.02235174447, 30040.02929211012, -0.068, 0.988, -0.06, 192.0, 0.0, 0.0, 0.0, 0.0, 0.0, 0.0, 0.0, 0.0, 0.0, 1.6989590647173872E9, 0.0, 2023-11-02 17:04:24.717
137.0, -187500.02235174447, 187500.0, 30857.812566496443, 26773.210081244717, 187500.0, 187500.0, -187500.02235174447, 30030.485097227705, -0.07200000000000001, 0.974, -0.058, 192.0, 253.0, 192.0, 30.0, 112.0, 254.0, 48.0, 0.0, 0.0, 0.0, 1.698959064717406E9, 0.0, 2023-11-02 17:04:24.717
138.0, -187500.02235174447, 187500.0, 30860.76299676454, 26774.461778934216, 187500.0, 187500.0, -187500.02235174447, 30033.10025132898, -0.07200000000000001, 0.974, -0.058, 192.0, 0.0, 0.0, 0.0, 0.0, 0.0, 0.0, 0.0, 0.0, 0.0, 1.698959064717425E9, 0.0, 2023-11-02 17:04:24.717
139.0, -187500.02235174447, 187500.0, 30854.504508317055, 26766.90688930832, 187500.0, 187500.0, -187500.02235174447, 30027.75818440416, -0.07200000000000001, 0.974, -0.058, 192.0, 0.0, 0.0, 0.0, 0.0, 0.0, 0.0, 0.0, 0.0, 0.0, 1.6989590647174451E9, 0.0, 2023-11-02 17:04:24.717
140.0, -187500.02235174447, 187500.0, 30852.448147827166, 26767.286868964064, 187500.0, 187500.0, -187500.02235174447, 30025.970044847734, -0.07200000000000001, 0.974, -0.058, 192.0, 0.0, 0.0, 0.0, 0.0, 0.0, 0.0, 0.0, 0.0, 0.0, 1.6989590647174668E9, 0.0, 2023-11-02 17:04:24.717
141.0, -187500.02235174447, 187500.0, 30848.335426847392, 26770.371409698895, 187500.0, 187500.0, -187500.02235174447, 30021.924379101325, -0.07200000000000001, 0.974, -0.058, 192.0, 0.0, 0.0, 0.0, 0.0, 0.0, 0.0, 0.0, 0.0, 0.0, 1.6989590647174835E9, 0.0, 2023-11-02 17:04:24.717
142.0, -187500.02235174447, 187500.0, 30846.05554891295, 26767.622145130892, 187500.0, 187500.0, -187500.02235174447, 30018.862190110947, -0.07200000000000001, 0.974, -0.058, 192.0, 0.0, 0.0, 0.0, 0.0, 0.0, 0.0, 0.0, 0.0, 0.0, 1.698959064717498E9, 0.0, 2023-11-02 17:04:24.717
143.0, -187500.02235174447, 187500.0, 30849.207144881148, 26769.276174220584, 187500.0, 187500.0, -187500.02235174447, 30021.499695956674, -0.07200000000000001, 0.974, -0.058, 192.0, 0.0, 0.0, 0.0, 0.0, 0.0, 0.0, 0.0, 0.0, 0.0, 1.6989590647175193E9, 0.0, 2023-11-02 17:04:24.717
144.0, -187500.02235174447, 187500.0, 30851.978761193608, 26769.991430043156, 187500.0, 187500.0, -187500.02235174447, 30024.718347158236, -0.07200000000000001, 0.974, -0.058, 192.0, 0.0, 0.0, 0.0, 0.0, 0.0, 0.0, 0.0, 0.0, 0.0, 1.698959064717534E9, 0.0, 2023-11-02 17:04:24.717
145.0, -187500.02235174447, 187500.0, 30852.515203060535, 26772.405418444327, 187500.0, 187500.0, -187500.02235174447, 30023.55605644656, -0.07200000000000001, 0.974, -0.058, 192.0, 0.0, 0.0, 0.0, 0.0, 0.0, 0.0, 0.0, 0.0, 0.0, 1.6989590647175477E9, 0.0, 2023-11-02 17:04:24.717
146.0, -187500.02235174447, 187500.0, 30856.20324089566, 26774.461778934216, 187500.0, 187500.0, -187500.02235174447, 30027.75818440416, -0.07200000000000001, 0.974, -0.058, 192.0, 0.0, 0.0, 0.0, 0.0, 0.0, 0.0, 0.0, 0.0, 0.0, 1.698959064717563E9, 0.0, 2023-11-02 17:04:24.717
147.0, -187500.02235174447, 187500.0, 30858.39371185228, 26777.143988268854, 187500.0, 187500.0, -187500.02235174447, 30030.440393738794, -0.068, 0.97, -0.054, 192.0, 253.0, 224.0, 30.0, 80.0, 254.0, 80.0, 0.0, 0.0, 0.0, 1.698959064717582E9, 0.0, 2023-11-02 17:04:24.717
148.0, -187500.02235174447, 187500.0, 30855.532688562, 26774.52883416758, 187500.0, 187500.0, -187500.02235174447, 30026.148858803375, -0.068, 0.97, -0.054, 192.0, 0.0, 0.0, 0.0, 0.0, 0.0, 0.0, 0.0, 0.0, 0.0, 1.698959064717606E9, 0.0, 2023-11-02 17:04:24.717
149.0, -187500.02235174447, 187500.0, 30854.4821565726, 26778.01570630261, 187500.0, 187500.0, -187500.02235174447, 30025.165382047344, -0.068, 0.97, -0.054, 192.0, 0.0, 0.0, 0.0, 0.0, 0.0, 0.0, 0.0, 0.0, 0.0, 1.6989590647176263E9, 0.0, 2023-11-02 17:04:24.717
150.0, -187500.02235174447, 187500.0, 30851.464671071135, 26779.133293525374, 187500.0, 187500.0, -187500.02235174447, 30023.332539002007, -0.068, 0.97, -0.054, 192.0, 0.0, 0.0, 0.0, 0.0, 0.0, 0.0, 0.0, 0.0, 0.0, 1.698959064717722E9, 0.0, 2023-11-02 17:04:24.717
151.0, -187500.02235174447, 187500.0, 30847.48606055809, 26776.227566746184, 187500.0, 187500.0, -187500.02235174447, 30021.164419789842, -0.068, 0.97, -0.054, 192.0, 0.0, 0.0, 0.0, 0.0, 0.0, 0.0, 0.0, 0.0, 0.0, 1.698959064717744E9, 0.0, 2023-11-02 17:04:24.717
152.0, -187500.02235174447, 187500.0, 30853.25281062756, 26781.368467970904, 187500.0, 187500.0, -187500.02235174447, 30026.484134970207, -0.068, 0.97, -0.054, 192.0, 0.0, 0.0, 0.0, 0.0, 0.0, 0.0, 0.0, 0.0, 0.0, 1.6989590647177644E9, 0.0, 2023-11-02 17:04:24.717
153.0, -187500.02235174447, 187500.0, 30849.72123500362, 26781.748447626647, 187500.0, 187500.0, -187500.02235174447, 30022.19260003479, -0.068, 0.97, -0.054, 192.0, 0.0, 0.0, 0.0, 0.0, 0.0, 0.0, 0.0, 0.0, 0.0, 1.6989590647178023E9, 0.0, 2023-11-02 17:04:24.717
154.0, -187500.02235174447, 187500.0, 30847.39665358027, 26780.429694703784, 187500.0, 187500.0, -187500.02235174447, 30018.37045173293, -0.068, 0.97, -0.054, 192.0, 0.0, 0.0, 0.0, 0.0, 0.0, 0.0, 0.0, 0.0, 0.0, 1.6989590647178354E9, 0.0, 2023-11-02 17:04:24.717
155.0, -187500.02235174447, 187500.0, 30846.949618691164, 26774.39472370085, 187500.0, 187500.0, -187500.02235174447, 30015.732945887205, -0.068, 0.97, -0.054, 192.0, 0.0, 0.0, 0.0, 0.0, 0.0, 0.0, 0.0, 0.0, 0.0, 1.6989590647178848E9, 0.0, 2023-11-02 17:04:24.717
156.0, -187500.02235174447, 187500.0, 30851.44231932668, 26769.58909864296, 187500.0, 187500.0, -187500.02235174447, 30018.32574824402, -0.052000000000000005, 0.982, -0.058, 192.0, 254.0, 96.0, 30.0, 176.0, 254.0, 48.0, 0.0, 0.0, 0.0, 1.6989590647179103E9, 0.0, 2023-11-02 17:04:24.717
157.0, -187500.02235174447, 187500.0, 30849.765938492532, 26770.48316842117, 187500.0, 187500.0, -187500.02235174447, 30014.70476564226, -0.052000000000000005, 0.982, -0.058, 192.0, 0.0, 0.0, 0.0, 0.0, 0.0, 0.0, 0.0, 0.0, 0.0, 1.6989590647179365E9, 0.0, 2023-11-02 17:04:24.717
158.0, -187500.02235174447, 187500.0, 30838.34419707587, 26760.9166217943, 187500.0, 187500.0, -187500.02235174447, 30001.383125946897, -0.052000000000000005, 0.982, -0.058, 192.0, 0.0, 0.0, 0.0, 0.0, 0.0, 0.0, 0.0, 0.0, 0.0, 1.6989590647179565E9, 0.0, 2023-11-02 17:04:24.717
159.0, -187500.02235174447, 187500.0, 30833.605627251345, 26753.33938042395, 187500.0, 187500.0, -187500.02235174447, 29994.20821597674, -0.052000000000000005, 0.982, -0.058, 192.0, 0.0, 0.0, 0.0, 0.0, 0.0, 0.0, 0.0, 0.0, 0.0, 1.698959064717975E9, 0.0, 2023-11-02 17:04:24.717
160.0, -187500.02235174447, 187500.0, 30834.410290051736, 26751.037150745055, 187500.0, 187500.0, -187500.02235174447, 29994.118808998923, -0.052000000000000005, 0.982, -0.058, 192.0, 0.0, 0.0, 0.0, 0.0, 0.0, 0.0, 0.0, 0.0, 0.0, 1.6989590647179897E9, 0.0, 2023-11-02 17:04:24.717
161.0, -187500.02235174447, 187500.0, 30836.556057519443, 26752.62412460138, 187500.0, 187500.0, -187500.02235174447, 29996.197521233265, -0.052000000000000005, 0.982, -0.058, 192.0, 0.0, 0.0, 0.0, 0.0, 0.0, 0.0, 0.0, 0.0, 0.0, 1.6989590647180107E9, 0.0, 2023-11-02 17:04:24.718
162.0, -187500.02235174447, 187500.0, 30836.489002286078, 26754.38991241335, 187500.0, 187500.0, -187500.02235174447, 29995.951652044256, -0.052000000000000005, 0.982, -0.058, 192.0, 0.0, 0.0, 0.0, 0.0, 0.0, 0.0, 0.0, 0.0, 0.0, 1.6989590647180347E9, 0.0, 2023-11-02 17:04:24.718
163.0, -187500.02235174447, 187500.0, 30840.24409535457, 26758.949668282232, 187500.0, 187500.0, -187500.02235174447, 29998.835027078992, -0.052000000000000005, 0.982, -0.058, 192.0, 0.0, 0.0, 0.0, 0.0, 0.0, 0.0, 0.0, 0.0, 0.0, 1.6989590647180533E9, 0.0, 2023-11-02 17:04:24.718
164.0, -187500.02235174447, 187500.0, 30838.277141842504, 26755.842775802947, 187500.0, 187500.0, -187500.02235174447, 29998.231529978697, -0.052000000000000005, 0.982, -0.058, 192.0, 0.0, 0.0, 0.0, 0.0, 0.0, 0.0, 0.0, 0.0, 0.0, 1.698959064718074E9, 0.0, 2023-11-02 17:04:24.718
165.0, -187500.02235174447, 187500.0, 30838.455955798145, 26751.52888912307, 187500.0, 187500.0, -187500.02235174447, 29999.818503835024, -0.052000000000000005, 0.982, -0.058, 192.0, 0.0, 0.0, 0.0, 0.0, 0.0, 0.0, 0.0, 0.0, 0.0, 1.698959064718116E9, 0.0, 2023-11-02 17:04:24.718
166.0, -187500.02235174447, 187500.0, 30840.10998488784, 26756.088644991953, 187500.0, 187500.0, -187500.02235174447, 30000.89138756888, -0.054, 0.988, -0.062, 192.0, 254.0, 80.0, 30.0, 224.0, 254.0, 16.0, 0.0, 0.0, 0.0, 1.6989590647182617E9, 0.0, 2023-11-02 17:04:24.718
167.0, -187500.02235174447, 187500.0, 30842.34515933337, 26758.34617118194, 187500.0, 187500.0, -187500.02235174447, 30003.573596903516, -0.054, 0.988, -0.062, 192.0, 0.0, 0.0, 0.0, 0.0, 0.0, 0.0, 0.0, 0.0, 0.0, 1.698959064718296E9, 0.0, 2023-11-02 17:04:24.718
168.0, -187500.02235174447, 187500.0, 30847.10608090235, 26763.10709275092, 187500.0, 187500.0, -187500.02235174447, 30009.876788839912, -0.054, 0.988, -0.062, 192.0, 0.0, 0.0, 0.0, 0.0, 0.0, 0.0, 0.0, 0.0, 0.0, 1.6989590647183151E9, 0.0, 2023-11-02 17:04:24.718
169.0, -187500.02235174447, 187500.0, 30847.329598346903, 26763.91175555131, 187500.0, 187500.0, -187500.02235174447, 30009.250939995163, -0.054, 0.988, -0.062, 192.0, 0.0, 0.0, 0.0, 0.0, 0.0, 0.0, 0.0, 0.0, 0.0, 1.6989590647183337E9, 0.0, 2023-11-02 17:04:24.718
170.0, -187500.02235174447, 187500.0, 30840.44526105467, 26760.693104349746, 187500.0, 187500.0, -187500.02235174447, 30004.624128892916, -0.054, 0.988, -0.062, 192.0, 0.0, 0.0, 0.0, 0.0, 0.0, 0.0, 0.0, 0.0, 0.0, 1.698959064718351E9, 0.0, 2023-11-02 17:04:24.718
171.0, -187500.02235174447, 187500.0, 30838.746528476066, 26759.977848527178, 187500.0, 187500.0, -187500.02235174447, 30006.18875100479, -0.054, 0.988, -0.062, 192.0, 0.0, 0.0, 0.0, 0.0, 0.0, 0.0, 0.0, 0.0, 0.0, 1.698959064718371E9, 0.0, 2023-11-02 17:04:24.718
172.0, -187437.32570854735, 187500.0, 30842.747490733564, 26762.503595650625, 187500.0, 187500.0, -187500.02235174447, 30011.26259699614, -0.054, 0.988, -0.062, 192.0, 0.0, 0.0, 0.0, 0.0, 0.0, 0.0, 0.0, 0.0, 0.0, 1.698959064718392E9, 0.0, 2023-11-02 17:04:24.718
173.0, -187406.10032154326, 187500.0, 30848.938923947684, 26766.14692999684, 187500.0, 187500.0, -187500.02235174447, 30019.398631977874, -0.054, 0.988, -0.062, 192.0, 0.0, 0.0, 0.0, 0.0, 0.0, 0.0, 0.0, 0.0, 0.0, 1.6989590647184174E9, 0.0, 2023-11-02 17:04:24.718
174.0, -187405.89915584316, 187500.0, 30852.671665271722, 26772.271307977597, 187500.0, 187500.0, -187500.02235174447, 30023.690166913293, -0.054, 0.988, -0.062, 192.0, 0.0, 0.0, 0.0, 0.0, 0.0, 0.0, 0.0, 0.0, 0.0, 1.6989590647184396E9, 0.0, 2023-11-02 17:04:24.718
175.0, -187315.8216256883, 187500.0, 30853.25281062756, 26772.852453333435, 187500.0, 187500.0, -187500.02235174447, 30022.214951779242, -0.054, 0.988, -0.062, 192.0, 0.0, 0.0, 0.0, 0.0, 0.0, 0.0, 0.0, 0.0, 0.0, 1.6989590647184653E9, 0.0, 2023-11-02 17:04:24.718
176.0, -187197.06680739723, 187500.0, 30849.743586748074, 26767.420979430794, 187500.0, 187500.0, -187500.02235174447, 30016.85053310997, -0.052000000000000005, 0.988, -0.064, 192.0, 254.0, 96.0, 30.0, 224.0, 254.0, 0.0, 0.0, 0.0, 0.0, 1.698959064718547E9, 0.0, 2023-11-02 17:04:24.718
177.0, -187144.31669048272, 187500.0, 30844.53563028999, 26757.72032233719, 187500.0, 187500.0, -187500.02235174447, 30010.8826173404, -0.052000000000000005, 0.988, -0.064, 192.0, 0.0, 0.0, 0.0, 0.0, 0.0, 0.0, 0.0, 0.0, 0.0, 1.6989590647185855E9, 0.0, 2023-11-02 17:04:24.718
178.0, -187167.00371110486, 187500.0, 30850.570601292922, 26765.386970685362, 187500.0, 187500.0, -187500.02235174447, 30017.364623232443, -0.052000000000000005, 0.988, -0.064, 192.0, 0.0, 0.0, 0.0, 0.0, 0.0, 0.0, 0.0, 0.0, 0.0, 1.6989590647186108E9, 0.0, 2023-11-02 17:04:24.718
179.0, -187095.92516373697, 187500.0, 30848.53659254749, 26768.739732353657, 187500.0, 187500.0, -187500.02235174447, 30016.40349822086, -0.052000000000000005, 0.988, -0.064, 192.0, 0.0, 0.0, 0.0, 0.0, 0.0, 0.0, 0.0, 0.0, 0.0, 1.698959064718632E9, 0.0, 2023-11-02 17:04:24.718
180.0, -186955.131525413, 187500.0, 30842.635732011287, 26762.48124390617, 187500.0, 187500.0, -187500.02235174447, 30011.46376269624, -0.052000000000000005, 0.988, -0.064, 192.0, 0.0, 0.0, 0.0, 0.0, 0.0, 0.0, 0.0, 0.0, 0.0, 1.6989590647186537E9, 0.0, 2023-11-02 17:04:24.718
181.0, -186902.33670500957, 187500.0, 30846.927266946706, 26760.044903760543, 187500.0, 187500.0, -187500.02235174447, 30015.330614487008, -0.052000000000000005, 0.988, -0.064, 192.0, 0.0, 0.0, 0.0, 0.0, 0.0, 0.0, 0.0, 0.0, 0.0, 1.6989590647188191E9, 0.0, 2023-11-02 17:04:24.718
182.0, -186918.80994067312, 187500.0, 30853.029293183004, 26765.34226719645, 187500.0, 187500.0, -187500.02235174447, 30020.09153605599, -0.052000000000000005, 0.988, -0.064, 192.0, 0.0, 0.0, 0.0, 0.0, 0.0, 0.0, 0.0, 0.0, 0.0, 1.6989590647188551E9, 0.0, 2023-11-02 17:04:24.718
183.0, -186863.69053884633, 187500.0, 30850.257676870548, 26759.933145038267, 187500.0, 187500.0, -187500.02235174447, 30015.442373209284, -0.052000000000000005, 0.988, -0.064, 192.0, 0.0, 0.0, 0.0, 0.0, 0.0, 0.0, 0.0, 0.0, 0.0, 1.698959064718888E9, 0.0, 2023-11-02 17:04:24.718
184.0, -186757.3856422169, 187500.0, 30848.44718556967, 26752.713531579204, 187500.0, 187500.0, -187500.02235174447, 30011.106134784954, -0.052000000000000005, 0.988, -0.064, 192.0, 0.0, 0.0, 0.0, 0.0, 0.0, 0.0, 0.0, 0.0, 0.0, 1.698959064718904E9, 0.0, 2023-11-02 17:04:24.718
185.0, -186721.13111271037, 187500.0, 30850.794118737474, 26755.954534525223, 187500.0, 187500.0, -187500.02235174447, 30013.095440041478, -0.052000000000000005, 0.988, -0.064, 192.0, 0.0, 0.0, 0.0, 0.0, 0.0, 0.0, 0.0, 0.0, 0.0, 1.6989590647189188E9, 0.0, 2023-11-02 17:04:24.718
186.0, -186758.2350085062, 187500.0, 30850.30238035946, 26755.0157612581, 187500.0, 187500.0, -187500.02235174447, 30012.156666774354, -0.058, 0.984, -0.062, 192.0, 254.0, 48.0, 30.0, 192.0, 254.0, 16.0, 0.0, 0.0, 0.0, 1.6989590647189424E9, 0.0, 2023-11-02 17:04:24.718
187.0, -186739.45954316374, 187500.0, 30848.268371614027, 26756.423921158785, 187500.0, 187500.0, -187500.02235174447, 30012.31312898554, -0.058, 0.984, -0.062, 192.0, 0.0, 0.0, 0.0, 0.0, 0.0, 0.0, 0.0, 0.0, 0.0, 1.6989590647189665E9, 0.0, 2023-11-02 17:04:24.718
188.0, -186608.92535554475, 187500.0, 30840.82524071041, 26750.835985044956, 187500.0, 187500.0, -187500.02235174447, 30007.440448694284, -0.058, 0.984, -0.062, 192.0, 0.0, 0.0, 0.0, 0.0, 0.0, 0.0, 0.0, 0.0, 0.0, 1.698959064718982E9, 0.0, 2023-11-02 17:04:24.718
189.0, -186548.8215147044, 187500.0, 30845.094423901373, 26752.601772856924, 187500.0, 187500.0, -187500.02235174447, 30013.386012719395, -0.058, 0.984, -0.062, 192.0, 0.0, 0.0, 0.0, 0.0, 0.0, 0.0, 0.0, 0.0, 0.0, 1.6989590647189991E9, 0.0, 2023-11-02 17:04:24.718
190.0, -186573.22961964962, 187500.0, 30848.178964636205, 26758.34617118194, 187500.0, 187500.0, -187500.02235174447, 30017.23051276571, -0.058, 0.984, -0.062, 192.0, 0.0, 0.0, 0.0, 0.0, 0.0, 0.0, 0.0, 0.0, 0.0, 1.6989590647190142E9, 0.0, 2023-11-02 17:04:24.719
191.0, -186559.25977936506, 187500.0, 30838.76888022052, 26757.25093570363, 187500.0, 187500.0, -187500.02235174447, 30008.46862893923, -0.058, 0.984, -0.062, 192.0, 0.0, 0.0, 0.0, 0.0, 0.0, 0.0, 0.0, 0.0, 0.0, 1.6989590647190332E9, 0.0, 2023-11-02 17:04:24.719
192.0, -186442.24839714152, 187500.0, 30826.587179492377, 26748.53375536606, 187500.0, 187500.0, -187500.02235174447, 29999.03619277909, -0.058, 0.984, -0.062, 192.0, 0.0, 0.0, 0.0, 0.0, 0.0, 0.0, 0.0, 0.0, 0.0, 1.6989590647190492E9, 0.0, 2023-11-02 17:04:24.719
193.0, -186337.44106739058, 187500.0, 30821.356871289838, 26746.63385708736, 187500.0, 187500.0, -187500.02235174447, 29997.60568113395, -0.058, 0.984, -0.062, 192.0, 0.0, 0.0, 0.0, 0.0, 0.0, 0.0, 0.0, 0.0, 0.0, 1.6989590647190661E9, 0.0, 2023-11-02 17:04:24.719
194.0, -186305.29925886384, 187500.0, 30817.333557287882, 26745.449214631226, 187500.0, 187500.0, -187500.02235174447, 29996.376335188907, -0.058, 0.984, -0.062, 192.0, 0.0, 0.0, 0.0, 0.0, 0.0, 0.0, 0.0, 0.0, 0.0, 1.698959064719085E9, 0.0, 2023-11-02 17:04:24.719
195.0, -186290.86003194572, 187500.0, 30820.060470111428, 26749.696046077737, 187500.0, 187500.0, -187500.02235174447, 29999.572634646018, -0.058, 0.984, -0.062, 192.0, 0.0, 0.0, 0.0, 0.0, 0.0, 0.0, 0.0, 0.0, 0.0, 1.6989590647191026E9, 0.0, 2023-11-02 17:04:24.719
196.0, -186177.00024569037, 187500.0, 30819.836952666876, 26748.600810599426, 187500.0, 187500.0, -187500.02235174447, 30000.46670442423, -0.038, 0.974, -0.062, 192.0, 254.0, 208.0, 30.0, 112.0, 254.0, 16.0, 0.0, 0.0, 0.0, 1.6989590647192173E9, 0.0, 2023-11-02 17:04:24.719
197.0, -186054.15505816403, 187500.0, 30826.38601379228, 26753.33938042395, 187500.0, 187500.0, -187500.02235174447, 30007.015765549633, -0.038, 0.974, -0.062, 192.0, 0.0, 0.0, 0.0, 0.0, 0.0, 0.0, 0.0, 0.0, 0.0, 1.6989590647192795E9, 0.0, 2023-11-02 17:04:24.719
198.0, -186021.14153160353, 187500.0, 30831.169287105717, 26756.468624647692, 187500.0, 187500.0, -187500.02235174447, 30010.74850687367, -0.038, 0.974, -0.062, 192.0, 0.0, 0.0, 0.0, 0.0, 0.0, 0.0, 0.0, 0.0, 0.0, 1.6989590647193105E9, 0.0, 2023-11-02 17:04:24.719
199.0, -185985.60225791959, 187500.0, 30827.05656612594, 26755.172223469286, 187500.0, 187500.0, -187500.02235174447, 30003.484189925697, -0.038, 0.974, -0.062, 192.0, 0.0, 0.0, 0.0, 0.0, 0.0, 0.0, 0.0, 0.0, 0.0, 1.698959064719328E9, 0.0, 2023-11-02 17:04:24.719
200.0, -185869.75316640773, 187500.0, 30830.610493494332, 26754.568726368994, 187500.0, 187500.0, -187500.02235174447, 30004.199445748265, -0.038, 0.974, -0.062, 192.0, 0.0, 0.0, 0.0, 0.0, 0.0, 0.0, 0.0, 0.0, 0.0, 1.6989590647193465E9, 0.0, 2023-11-02 17:04:24.719
201.0, -185733.2957665081, 187500.0, 30834.834973196386, 26756.62508685888, 187500.0, 187500.0, -187500.02235174447, 30007.194579505278, -0.038, 0.974, -0.062, 192.0, 0.0, 0.0, 0.0, 0.0, 0.0, 0.0, 0.0, 0.0, 0.0, 1.6989590647193656E9, 0.0, 2023-11-02 17:04:24.719
202.0, -185654.10353590295, 187500.0, 30830.63284523879, 26744.845717530934, 187500.0, 187500.0, -187500.02235174447, 30001.807809091548, -0.038, 0.974, -0.062, 192.0, 0.0, 0.0, 0.0, 0.0, 0.0, 0.0, 0.0, 0.0, 0.0, 1.698959064719388E9, 0.0, 2023-11-02 17:04:24.719
203.0, -185659.4679545722, 187500.0, 30834.54440051847, 26746.231525687163, 187500.0, 187500.0, -187500.02235174447, 30004.847646337468, -0.038, 0.974, -0.062, 192.0, 0.0, 0.0, 0.0, 0.0, 0.0, 0.0, 0.0, 0.0, 0.0, 1.6989590647194047E9, 0.0, 2023-11-02 17:04:24.719
204.0, -185575.42539542026, 187500.0, 30832.44333653967, 26750.366598411394, 187500.0, 187500.0, -187500.02235174447, 30002.41130619184, -0.038, 0.974, -0.062, 192.0, 0.0, 0.0, 0.0, 0.0, 0.0, 0.0, 0.0, 0.0, 0.0, 1.69895906471942E9, 0.0, 2023-11-02 17:04:24.719
205.0, -185427.52390235948, 187500.0, 30827.77182194851, 26745.225697186674, 187500.0, 187500.0, -187500.02235174447, 29998.477399167707, -0.038, 0.974, -0.062, 192.0, 0.0, 0.0, 0.0, 0.0, 0.0, 0.0, 0.0, 0.0, 0.0, 1.698959064719444E9, 0.0, 2023-11-02 17:04:24.719
206.0, -185342.52021819595, 187500.0, 30823.972025391107, 26735.837964515445, 187500.0, 187500.0, -187500.02235174447, 29995.146989243865, -0.04, 0.98, -0.066, 192.0, 254.0, 192.0, 30.0, 160.0, 253.0, 240.0, 0.0, 0.0, 0.0, 1.6989590647194684E9, 0.0, 2023-11-02 17:04:24.719
207.0, -185348.97987234354, 187500.0, 30828.375319048802, 26740.48712736215, 187500.0, 187500.0, -187500.02235174447, 30000.712573613237, -0.04, 0.98, -0.066, 192.0, 0.0, 0.0, 0.0, 0.0, 0.0, 0.0, 0.0, 0.0, 0.0, 1.6989590647195168E9, 0.0, 2023-11-02 17:04:24.719
208.0, -185278.66128428714, 187500.0, 30820.507505000536, 26738.18489768325, 187500.0, 187500.0, -187500.02235174447, 29994.677602610303, -0.04, 0.98, -0.066, 192.0, 0.0, 0.0, 0.0, 0.0, 0.0, 0.0, 0.0, 0.0, 0.0, 1.69895906471956E9, 0.0, 2023-11-02 17:04:24.719
209.0, -185117.08052361972, 187500.0, 30813.24318805256, 26732.038167958042, 187500.0, 187500.0, -187500.02235174447, 29988.016782762625, -0.04, 0.98, -0.066, 192.0, 0.0, 0.0, 0.0, 0.0, 0.0, 0.0, 0.0, 0.0, 0.0, 1.69895906471963E9, 0.0, 2023-11-02 17:04:24.719
210.0, -185023.0243829518, 187500.0, 30815.411307264723, 26733.267513903083, 187500.0, 187500.0, -187500.02235174447, 29990.74369558617, -0.04, 0.98, -0.066, 192.0, 0.0, 0.0, 0.0, 0.0, 0.0, 0.0, 0.0, 0.0, 0.0, 1.6989590647196798E9, 0.0, 2023-11-02 17:04:24.719
211.0, -184987.5074610123, 187500.0, 30814.29372004196, 26736.843793015934, 187500.0, 187500.0, -187500.02235174447, 29989.51434964113, -0.04, 0.98, -0.066, 192.0, 0.0, 0.0, 0.0, 0.0, 0.0, 0.0, 0.0, 0.0, 0.0, 1.6989590647198467E9, 0.0, 2023-11-02 17:04:24.719
212.0, -184907.1529396955, 187500.0, 30815.657176453733, 26740.129499450864, 187500.0, 187500.0, -187500.02235174447, 29990.654288608348, -0.04, 0.98, -0.066, 192.0, 0.0, 0.0, 0.0, 0.0, 0.0, 0.0, 0.0, 0.0, 0.0, 1.6989590647198713E9, 0.0, 2023-11-02 17:04:24.719
213.0, -184731.98231839924, 187500.0, 30811.164475818216, 26735.94972323772, 187500.0, 187500.0, -187500.02235174447, 29986.78743681758, -0.04, 0.98, -0.066, 192.0, 0.0, 0.0, 0.0, 0.0, 0.0, 0.0, 0.0, 0.0, 0.0, 1.6989590647198904E9, 0.0, 2023-11-02 17:04:24.719
214.0, -184604.86794768192, 187500.0, 30813.645519452755, 26733.982769725655, 187500.0, 187500.0, -187500.02235174447, 29990.520178141618, -0.04, 0.98, -0.066, 192.0, 0.0, 0.0, 0.0, 0.0, 0.0, 0.0, 0.0, 0.0, 0.0, 1.6989590647199054E9, 0.0, 2023-11-02 17:04:24.719
215.0, -184565.7076913962, 187500.0, 30815.120734586806, 26735.882668004357, 187500.0, 187500.0, -187500.02235174447, 29991.637765364383, -0.04, 0.98, -0.066, 192.0, 0.0, 0.0, 0.0, 0.0, 0.0, 0.0, 0.0, 0.0, 0.0, 1.6989590647199223E9, 0.0, 2023-11-02 17:04:24.719
216.0, -184507.28023139003, 187500.0, 30816.104211342838, 26736.843793015934, 187500.0, 187500.0, -187500.02235174447, 29992.710649098237, -0.044, 0.982, -0.07, 192.0, 254.0, 160.0, 30.0, 176.0, 253.0, 208.0, 0.0, 0.0, 0.0, 1.6989590647199438E9, 0.0, 2023-11-02 17:04:24.719
217.0, -184362.4185755752, 187500.0, 30816.43948750967, 26740.800051784525, 187500.0, 187500.0, -187500.02235174447, 29993.738829343183, -0.044, 0.982, -0.07, 192.0, 0.0, 0.0, 0.0, 0.0, 0.0, 0.0, 0.0, 0.0, 0.0, 1.6989590647199583E9, 0.0, 2023-11-02 17:04:24.719
218.0, -184195.92043112763, 187500.0, 30814.740754931066, 26734.116880192385, 187500.0, 187500.0, -187500.02235174447, 29990.766047330624, -0.044, 0.982, -0.07, 192.0, 0.0, 0.0, 0.0, 0.0, 0.0, 0.0, 0.0, 0.0, 0.0, 1.6989590647199805E9, 0.0, 2023-11-02 17:04:24.719
219.0, -184145.67370959208, 187500.0, 30822.295644556958, 26733.24516215863, 187500.0, 187500.0, -187500.02235174447, 29996.018707277624, -0.044, 0.982, -0.07, 192.0, 0.0, 0.0, 0.0, 0.0, 0.0, 0.0, 0.0, 0.0, 0.0, 1.698959064720018E9, 0.0, 2023-11-02 17:04:24.720
220.0, -184108.458055074, 187500.0, 30833.87384818481, 26738.14019419434, 187500.0, 187500.0, -187500.02235174447, 30002.590120147484, -0.044, 0.982, -0.07, 192.0, 0.0, 0.0, 0.0, 0.0, 0.0, 0.0, 0.0, 0.0, 0.0, 1.6989590647200408E9, 0.0, 2023-11-02 17:04:24.720
221.0, -183962.85879169212, 187500.0, 30836.33254007489, 26741.783528540556, 187500.0, 187500.0, -187500.02235174447, 30002.590120147484, -0.044, 0.982, -0.07, 192.0, 0.0, 0.0, 0.0, 0.0, 0.0, 0.0, 0.0, 0.0, 0.0, 1.6989590647200532E9, 0.0, 2023-11-02 17:04:24.720
222.0, -183814.4432085089, 187500.0, 30840.355854076846, 26740.9118105068, 187500.0, 187500.0, -187500.02235174447, 30004.400611448364, -0.044, 0.982, -0.07, 192.0, 0.0, 0.0, 0.0, 0.0, 0.0, 0.0, 0.0, 0.0, 0.0, 1.6989590647200713E9, 0.0, 2023-11-02 17:04:24.720
223.0, -183753.08766997908, 187500.0, 30841.808717466443, 26739.257781417105, 187500.0, 187500.0, -187500.02235174447, 30004.400611448364, -0.044, 0.982, -0.07, 192.0, 0.0, 0.0, 0.0, 0.0, 0.0, 0.0, 0.0, 0.0, 0.0, 1.6989590647200844E9, 0.0, 2023-11-02 17:04:24.720
224.0, -183731.83116100208, 187500.0, 30846.949618691164, 26744.018702986086, 187500.0, 187500.0, -187500.02235174447, 30009.295643484074, -0.044, 0.982, -0.07, 192.0, 0.0, 0.0, 0.0, 0.0, 0.0, 0.0, 0.0, 0.0, 0.0, 1.6989590647201047E9, 0.0, 2023-11-02 17:04:24.720
225.0, -183641.10543025797, 187500.0, 30852.96223794964, 26751.506537378616, 187500.0, 187500.0, -187500.02235174447, 30014.57065517553, -0.044, 0.982, -0.07, 192.0, 0.0, 0.0, 0.0, 0.0, 0.0, 0.0, 0.0, 0.0, 0.0, 1.6989590647201192E9, 0.0, 2023-11-02 17:04:24.720
226.0, -183499.84240530044, 187500.0, 30858.281953130005, 26758.167357226295, 187500.0, 187500.0, -187500.02235174447, 30020.203294778265, -0.064, 0.984, -0.066, 192.0, 254.0, 0.0, 30.0, 192.0, 253.0, 240.0, 0.0, 0.0, 0.0, 1.6989590647202222E9, 0.0, 2023-11-02 17:04:24.720
227.0, -183446.48879128564, 187500.0, 30859.556002563957, 26757.228583959175, 187500.0, 187500.0, -187500.02235174447, 30023.22078027973, -0.064, 0.984, -0.066, 192.0, 0.0, 0.0, 0.0, 0.0, 0.0, 0.0, 0.0, 0.0, 0.0, 1.6989590647202485E9, 0.0, 2023-11-02 17:04:24.720
228.0, -183456.32355884596, 187500.0, 30853.923362961217, 26755.999238014134, 187500.0, 187500.0, -187500.02235174447, 30019.666852911338, -0.064, 0.984, -0.066, 192.0, 0.0, 0.0, 0.0, 0.0, 0.0, 0.0, 0.0, 0.0, 0.0, 1.6989590647202668E9, 0.0, 2023-11-02 17:04:24.720
229.0, -183373.17506947223, 187500.0, 30842.09929014436, 26752.15473796782, 187500.0, 187500.0, -187500.02235174447, 30010.592044662484, -0.064, 0.984, -0.066, 192.0, 0.0, 0.0, 0.0, 0.0, 0.0, 0.0, 0.0, 0.0, 0.0, 1.6989590647202835E9, 0.0, 2023-11-02 17:04:24.720
230.0, -183236.248282939, 187500.0, 30837.24896159756, 26750.411301900305, 187500.0, 187500.0, -187500.02235174447, 30009.69797488427, -0.064, 0.984, -0.066, 192.0, 0.0, 0.0, 0.0, 0.0, 0.0, 0.0, 0.0, 0.0, 0.0, 1.698959064720307E9, 0.0, 2023-11-02 17:04:24.720
231.0, -183159.40298550166, 187500.0, 30833.47151678461, 26749.49488037764, 187500.0, 187500.0, -187500.02235174447, 30011.664928396338, -0.064, 0.984, -0.066, 192.0, 0.0, 0.0, 0.0, 0.0, 0.0, 0.0, 0.0, 0.0, 0.0, 1.698959064720335E9, 0.0, 2023-11-02 17:04:24.720
232.0, -183140.29224399236, 187500.0, 30823.323824801904, 26745.38215939786, 187500.0, 187500.0, -187500.02235174447, 30007.61926264993, -0.064, 0.984, -0.066, 192.0, 0.0, 0.0, 0.0, 0.0, 0.0, 0.0, 0.0, 0.0, 0.0, 1.6989590647203572E9, 0.0, 2023-11-02 17:04:24.720
233.0, -183059.04365289732, 187500.0, 30823.61439747982, 26749.47252863318, 187500.0, 187500.0, -187500.02235174447, 30012.26842549663, -0.064, 0.984, -0.066, 192.0, 0.0, 0.0, 0.0, 0.0, 0.0, 0.0, 0.0, 0.0, 0.0, 1.698959064720373E9, 0.0, 2023-11-02 17:04:24.720
234.0, -182925.5813867547, 187500.0, 30829.917589416218, 26760.044903760543, 187500.0, 187500.0, -187500.02235174447, 30019.778611633614, -0.064, 0.984, -0.066, 192.0, 0.0, 0.0, 0.0, 0.0, 0.0, 0.0, 0.0, 0.0, 0.0, 1.6989590647203903E9, 0.0, 2023-11-02 17:04:24.720
235.0, -182818.36006860257, 187500.0, 30823.547342246457, 26761.542470639048, 187500.0, 187500.0, -187500.02235174447, 30014.503599942163, -0.064, 0.984, -0.066, 192.0, 0.0, 0.0, 0.0, 0.0, 0.0, 0.0, 0.0, 0.0, 0.0, 1.698959064720409E9, 0.0, 2023-11-02 17:04:24.720
236.0, -182783.51369899677, 187500.0, 30821.28981605647, 26763.263554962108, 187500.0, 187500.0, -187500.02235174447, 30014.16832377533, -0.042, 0.968, -0.076, 192.0, 254.0, 176.0, 30.0, 64.0, 253.0, 160.0, 0.0, 0.0, 0.0, 1.6989590647204323E9, 0.0, 2023-11-02 17:04:24.720
237.0, -182682.59557278105, 187500.0, 30810.62803395129, 26759.933145038267, 187500.0, 187500.0, -187500.02235174447, 30006.211102749243, -0.042, 0.968, -0.076, 192.0, 0.0, 0.0, 0.0, 0.0, 0.0, 0.0, 0.0, 0.0, 0.0, 1.6989590647204547E9, 0.0, 2023-11-02 17:04:24.720
238.0, -182494.10331178945, 187500.0, 30804.973042604095, 26754.568726368994, 187500.0, 187500.0, -187500.02235174447, 30000.80198059106, -0.042, 0.968, -0.076, 192.0, 0.0, 0.0, 0.0, 0.0, 0.0, 0.0, 0.0, 0.0, 0.0, 1.698959064720477E9, 0.0, 2023-11-02 17:04:24.720
239.0, -182361.8927433363, 187500.0, 30808.23639729457, 26753.67465659078, 187500.0, 187500.0, -187500.02235174447, 30003.21596899223, -0.042, 0.968, -0.076, 192.0, 0.0, 0.0, 0.0, 0.0, 0.0, 0.0, 0.0, 0.0, 0.0, 1.6989590647205105E9, 0.0, 2023-11-02 17:04:24.720
240.0, -182290.6800855017, 187500.0, 30805.464780982114, 26754.18874671325, 187500.0, 187500.0, -187500.02235174447, 30002.83598933649, -0.042, 0.968, -0.076, 192.0, 0.0, 0.0, 0.0, 0.0, 0.0, 0.0, 0.0, 0.0, 0.0, 1.6989590647205472E9, 0.0, 2023-11-02 17:04:24.720
241.0, -182196.53453785594, 187500.0, 30805.48713272657, 26754.725188580178, 187500.0, 187500.0, -187500.02235174447, 30004.042983537078, -0.042, 0.968, -0.076, 192.0, 0.0, 0.0, 0.0, 0.0, 0.0, 0.0, 0.0, 0.0, 0.0, 1.6989590651966963E9, 0.0, 2023-11-02 17:04:25.196
242.0, -182016.5582915018, 187500.0, 30808.661080439222, 26754.814595558, 187500.0, 187500.0, -187500.02235174447, 30005.94288181578, -0.042, 0.968, -0.076, 192.0, 0.0, 0.0, 0.0, 0.0, 0.0, 0.0, 0.0, 0.0, 0.0, 1.69895906519683E9, 0.0, 2023-11-02 17:04:25.196
243.0, -181845.14276327405, 187500.0, 30815.120734586806, 26753.607601357413, 187500.0, 187500.0, -187500.02235174447, 30009.161533017344, -0.042, 0.968, -0.076, 192.0, 0.0, 0.0, 0.0, 0.0, 0.0, 0.0, 0.0, 0.0, 0.0, 1.698959065196843E9, 0.0, 2023-11-02 17:04:25.196
244.0, -181785.44125383394, 187500.0, 30823.077955612895, 26757.072121747988, 187500.0, 187500.0, -187500.02235174447, 30015.710594142747, -0.042, 0.968, -0.076, 192.0, 0.0, 0.0, 0.0, 0.0, 0.0, 0.0, 0.0, 0.0, 0.0, 1.6989590651968563E9, 0.0, 2023-11-02 17:04:25.196
245.0, -181701.77867433772, 187500.0, 30816.260673554025, 26753.58524961296, 187500.0, 187500.0, -187500.02235174447, 30007.41809694983, -0.042, 0.968, -0.076, 192.0, 0.0, 0.0, 0.0, 0.0, 0.0, 0.0, 0.0, 0.0, 0.0, 1.6989590651968715E9, 0.0, 2023-11-02 17:04:25.196
246.0, -181523.344698351, 187500.0, 30808.750487417044, 26745.739787309147, 187500.0, 187500.0, -187500.02235174447, 29997.046887522567, -0.034, 0.978, -0.078, 192.0, 254.0, 240.0, 30.0, 144.0, 253.0, 144.0, 0.0, 0.0, 0.0, 1.698959065196885E9, 0.0, 2023-11-02 17:04:25.196
247.0, -181353.0691090905, 187500.0, 30810.29275778446, 26744.95747625321, 187500.0, 187500.0, -187500.02235174447, 29998.74562010117, -0.034, 0.978, -0.078, 192.0, 0.0, 0.0, 0.0, 0.0, 0.0, 0.0, 0.0, 0.0, 0.0, 1.6989590651969016E9, 0.0, 2023-11-02 17:04:25.196
248.0, -181277.1402331758, 187500.0, 30808.974004861597, 26742.945819252232, 187500.0, 187500.0, -187500.02235174447, 29998.231529978697, -0.034, 0.978, -0.078, 192.0, 0.0, 0.0, 0.0, 0.0, 0.0, 0.0, 0.0, 0.0, 0.0, 1.6989590651969144E9, 0.0, 2023-11-02 17:04:25.196
249.0, -181252.0839276414, 187500.0, 30812.550283974444, 26744.935124508756, 187500.0, 187500.0, -187500.02235174447, 30001.383125946897, -0.034, 0.978, -0.078, 192.0, 0.0, 0.0, 0.0, 0.0, 0.0, 0.0, 0.0, 0.0, 0.0, 1.698959065196926E9, 0.0, 2023-11-02 17:04:25.196
250.0, -181136.8159814854, 187500.0, 30812.751449674543, 26747.662037332302, 187500.0, 187500.0, -187500.02235174447, 29999.684393368294, -0.034, 0.978, -0.078, 192.0, 0.0, 0.0, 0.0, 0.0, 0.0, 0.0, 0.0, 0.0, 0.0, 1.69895906519694E9, 0.0, 2023-11-02 17:04:25.196
251.0, -180971.32366553828, 187500.0, 30814.785458419974, 26744.53279310856, 187500.0, 187500.0, -187500.02235174447, 30000.265538724132, -0.034, 0.978, -0.078, 192.0, 0.0, 0.0, 0.0, 0.0, 0.0, 0.0, 0.0, 0.0, 0.0, 1.698959065196952E9, 0.0, 2023-11-02 17:04:25.196
252.0, -180916.6065951117, 187500.0, 30829.045871382463, 26745.672732075782, 187500.0, 187500.0, -187500.02235174447, 30011.68728014079, -0.034, 0.978, -0.078, 192.0, 0.0, 0.0, 0.0, 0.0, 0.0, 0.0, 0.0, 0.0, 0.0, 1.698959065196964E9, 0.0, 2023-11-02 17:04:25.196
253.0, -180904.6484118281, 187500.0, 30829.448202782656, 26748.176127454775, 187500.0, 187500.0, -187500.02235174447, 30013.56482667504, -0.034, 0.978, -0.078, 192.0, 0.0, 0.0, 0.0, 0.0, 0.0, 0.0, 0.0, 0.0, 0.0, 1.698959065196978E9, 0.0, 2023-11-02 17:04:25.196
254.0, -180812.35805897214, 187500.0, 30823.48028701309, 26745.29275242004, 187500.0, 187500.0, -187500.02235174447, 30009.295643484074, -0.034, 0.978, -0.078, 192.0, 0.0, 0.0, 0.0, 0.0, 0.0, 0.0, 0.0, 0.0, 0.0, 1.6989590651969912E9, 0.0, 2023-11-02 17:04:25.196
255.0, -180646.82103953612, 187500.0, 30816.95357763214, 26742.52113610758, 187500.0, 187500.0, -187500.02235174447, 30004.333556215, -0.034, 0.978, -0.078, 192.0, 0.0, 0.0, 0.0, 0.0, 0.0, 0.0, 0.0, 0.0, 0.0, 1.6989590651970067E9, 0.0, 2023-11-02 17:04:25.197
0.0, -180565.9747798413, 187500.0, 30824.463763769123, 26745.672732075782, 187500.0, 187500.0, -187500.02235174447, 30011.374355718417, -0.036000000000000004, 0.98, -0.074, 192.0, 254.0, 224.0, 30.0, 160.0, 253.0, 176.0, 0.0, 0.0, 0.0, 1.6989590651971996E9, 0.0, 2023-11-02 17:04:25.197
1.0, -180547.37812845447, 187500.0, 30821.401574778745, 26746.075063475975, 187500.0, 187500.0, -187500.02235174447, 30013.050736552566, -0.036000000000000004, 0.98, -0.074, 192.0, 0.0, 0.0, 0.0, 0.0, 0.0, 0.0, 0.0, 0.0, 0.0, 1.698959065197219E9, 0.0, 2023-11-02 17:04:25.197
2.0, -180458.2393715667, 187500.0, 30815.411307264723, 26743.70577856371, 187500.0, 187500.0, -187500.02235174447, 30012.715460385738, -0.036000000000000004, 0.98, -0.074, 192.0, 0.0, 0.0, 0.0, 0.0, 0.0, 0.0, 0.0, 0.0, 0.0, 1.6989590651972306E9, 0.0, 2023-11-02 17:04:25.197
3.0, -180297.32916323296, 187500.0, 30812.796153163454, 26746.63385708736, 187500.0, 187500.0, -187500.02235174447, 30013.74364063068, -0.036000000000000004, 0.98, -0.074, 192.0, 0.0, 0.0, 0.0, 0.0, 0.0, 0.0, 0.0, 0.0, 0.0, 1.698959065197244E9, 0.0, 2023-11-02 17:04:25.197
4.0, -180180.51894670952, 187500.0, 30809.86807463981, 26745.15864195331, 187500.0, 187500.0, -187500.02235174447, 30013.296605741576, -0.036000000000000004, 0.98, -0.074, 192.0, 0.0, 0.0, 0.0, 0.0, 0.0, 0.0, 0.0, 0.0, 0.0, 1.6989590651972585E9, 0.0, 2023-11-02 17:04:25.197
5.0, -180150.45585041714, 187500.0, 30811.387993262768, 26748.734921066156, 187500.0, 187500.0, -187500.02235174447, 30017.386974976896, -0.036000000000000004, 0.98, -0.074, 192.0, 0.0, 0.0, 0.0, 0.0, 0.0, 0.0, 0.0, 0.0, 0.0, 1.6989590651973045E9, 0.0, 2023-11-02 17:04:25.197
6.0, -180068.87198315526, 187500.0, 30806.51531297151, 26753.786415313058, 187500.0, 187500.0, -187500.02235174447, 30013.69893714177, -0.036000000000000004, 0.98, -0.074, 192.0, 0.0, 0.0, 0.0, 0.0, 0.0, 0.0, 0.0, 0.0, 0.0, 1.6989590651973212E9, 0.0, 2023-11-02 17:04:25.197
7.0, -179868.51094585788, 187500.0, 30795.540606443956, 26747.215002443198, 187500.0, 187500.0, -187500.02235174447, 30002.947748058767, -0.036000000000000004, 0.98, -0.074, 192.0, 0.0, 0.0, 0.0, 0.0, 0.0, 0.0, 0.0, 0.0, 0.0, 1.698959065197333E9, 0.0, 2023-11-02 17:04:25.197
8.0, -179723.87280748758, 187500.0, 30799.94390010165, 26741.984694240655, 187500.0, 187500.0, -187500.02235174447, 30004.17709400381, -0.036000000000000004, 0.98, -0.074, 192.0, 0.0, 0.0, 0.0, 0.0, 0.0, 0.0, 0.0, 0.0, 0.0, 1.6989590651973505E9, 0.0, 2023-11-02 17:04:25.197
9.0, -179685.94189714693, 187500.0, 30810.6727374402, 26748.24318268814, 187500.0, 187500.0, -187500.02235174447, 30012.849570852468, -0.036000000000000004, 0.98, -0.074, 192.0, 0.0, 0.0, 0.0, 0.0, 0.0, 0.0, 0.0, 0.0, 0.0, 1.6989590651973631E9, 0.0, 2023-11-02 17:04:25.197
10.0, -179606.5485008417, 187500.0, 30808.95165311714, 26751.305371678518, 187500.0, 187500.0, -187500.02235174447, 30011.776687118614, -0.038, 0.98, -0.078, 192.0, 254.0, 208.0, 30.0, 160.0, 253.0, 144.0, 0.0, 0.0, 0.0, 1.6989590651973786E9, 0.0, 2023-11-02 17:04:25.197
11.0, -179442.26317909517, 187500.0, 30808.214045550114, 26749.807804800013, 187500.0, 187500.0, -187500.02235174447, 30010.972024318224, -0.038, 0.98, -0.078, 192.0, 0.0, 0.0, 0.0, 0.0, 0.0, 0.0, 0.0, 0.0, 0.0, 1.6989590651974015E9, 0.0, 2023-11-02 17:04:25.197
12.0, -179288.88550864285, 187500.0, 30809.152818817238, 26746.745615809636, 187500.0, 187500.0, -187500.02235174447, 30011.642576651884, -0.038, 0.98, -0.078, 192.0, 0.0, 0.0, 0.0, 0.0, 0.0, 0.0, 0.0, 0.0, 0.0, 1.6989590651974227E9, 0.0, 2023-11-02 17:04:25.197
13.0, -179246.77482208906, 187500.0, 30813.51140898602, 26743.81753728599, 187500.0, 187500.0, -187500.02235174447, 30013.631881908404, -0.038, 0.98, -0.078, 192.0, 0.0, 0.0, 0.0, 0.0, 0.0, 0.0, 0.0, 0.0, 0.0, 1.6989590651974413E9, 0.0, 2023-11-02 17:04:25.197
14.0, -179217.27051940805, 187500.0, 30814.249016553047, 26746.477394876172, 187500.0, 187500.0, -187500.02235174447, 30012.626053407916, -0.038, 0.98, -0.078, 192.0, 0.0, 0.0, 0.0, 0.0, 0.0, 0.0, 0.0, 0.0, 0.0, 1.6989590651974552E9, 0.0, 2023-11-02 17:04:25.197
15.0, -179083.29416314294, 187500.0, 30807.297624027447, 26738.96720873919, 187500.0, 187500.0, -187500.02235174447, 30002.8806928254, -0.038, 0.98, -0.078, 192.0, 0.0, 0.0, 0.0, 0.0, 0.0, 0.0, 0.0, 0.0, 0.0, 1.6989590651975331E9, 0.0, 2023-11-02 17:04:25.197
16.0, -178938.16428639463, 187500.0, 30805.57653970439, 26727.81368825599, 187500.0, 187500.0, -187500.02235174447, 29998.097419511967, -0.038, 0.98, -0.078, 192.0, 0.0, 0.0, 0.0, 0.0, 0.0, 0.0, 0.0, 0.0, 0.0, 1.6989590651975565E9, 0.0, 2023-11-02 17:04:25.197
17.0, -178914.6726029721, 187500.0, 30812.304414785438, 26728.95362722321, 187500.0, 187500.0, -187500.02235174447, 30001.941919558278, -0.038, 0.98, -0.078, 192.0, 0.0, 0.0, 0.0, 0.0, 0.0, 0.0, 0.0, 0.0, 0.0, 1.6989590651975737E9, 0.0, 2023-11-02 17:04:25.197
18.0, -178904.9272423896, 187500.0, 30810.71744092911, 26727.746633022623, 187500.0, 187500.0, -187500.02235174447, 30002.07603002501, -0.038, 0.98, -0.078, 192.0, 0.0, 0.0, 0.0, 0.0, 0.0, 0.0, 0.0, 0.0, 0.0, 1.6989590651975896E9, 0.0, 2023-11-02 17:04:25.197
19.0, -178809.97703194345, 187500.0, 30807.610548449822, 26730.58530456845, 187500.0, 187500.0, -187500.02235174447, 30003.64065213688, -0.044, 0.976, -0.074, 192.0, 254.0, 160.0, 30.0, 128.0, 253.0, 176.0, 0.0, 0.0, 0.0, 1.6989590651976042E9, 0.0, 2023-11-02 17:04:25.197
20.0, -178677.14061464556, 187500.0, 30806.694126927156, 26725.220885899173, 187500.0, 187500.0, -187500.02235174447, 30003.975928303713, -0.044, 0.976, -0.074, 192.0, 0.0, 0.0, 0.0, 0.0, 0.0, 0.0, 0.0, 0.0, 0.0, 1.6989590651976328E9, 0.0, 2023-11-02 17:04:25.197
21.0, -178642.3165967842, 187500.0, 30810.784496162476, 26725.28794113254, 187500.0, 187500.0, -187500.02235174447, 30008.200408005767, -0.044, 0.976, -0.074, 192.0, 0.0, 0.0, 0.0, 0.0, 0.0, 0.0, 0.0, 0.0, 0.0, 1.6989590651976547E9, 0.0, 2023-11-02 17:04:25.197
22.0, -178648.0162916203, 187500.0, 30809.890426384263, 26725.936141721744, 187500.0, 187500.0, -187500.02235174447, 30007.529855672106, -0.044, 0.976, -0.074, 192.0, 0.0, 0.0, 0.0, 0.0, 0.0, 0.0, 0.0, 0.0, 0.0, 1.6989590651976736E9, 0.0, 2023-11-02 17:04:25.197
23.0, -178579.28467742022, 187500.0, 30811.34328977386, 26734.116880192385, 187500.0, 187500.0, -187500.02235174447, 30008.513332428138, -0.044, 0.976, -0.074, 192.0, 0.0, 0.0, 0.0, 0.0, 0.0, 0.0, 0.0, 0.0, 0.0, 1.6989590651976943E9, 0.0, 2023-11-02 17:04:25.197
24.0, -178438.04400420716, 187500.0, 30807.43173449418, 26731.05469120201, 187500.0, 187500.0, -187500.02235174447, 30004.31120447054, -0.044, 0.976, -0.074, 192.0, 0.0, 0.0, 0.0, 0.0, 0.0, 0.0, 0.0, 0.0, 0.0, 1.6989590651977143E9, 0.0, 2023-11-02 17:04:25.197
25.0, -178379.3036197786, 187500.0, 30811.00801360703, 26730.741766779636, 187500.0, 187500.0, -187500.02235174447, 30008.93801557279, -0.044, 0.976, -0.074, 192.0, 0.0, 0.0, 0.0, 0.0, 0.0, 0.0, 0.0, 0.0, 0.0, 1.6989590651977305E9, 0.0, 2023-11-02 17:04:25.197
26.0, -178398.92845141035, 187500.0, 30814.58429271988, 26733.960417981198, 187500.0, 187500.0, -187500.02235174447, 30012.33548073, -0.044, 0.976, -0.074, 192.0, 0.0, 0.0, 0.0, 0.0, 0.0, 0.0, 0.0, 0.0, 0.0, 1.698959065197757E9, 0.0, 2023-11-02 17:04:25.197
27.0, -178380.48826223472, 187500.0, 30821.423926523203, 26740.464775617693, 187500.0, 187500.0, -187500.02235174447, 30017.789306377093, -0.044, 0.976, -0.074, 192.0, 0.0, 0.0, 0.0, 0.0, 0.0, 0.0, 0.0, 0.0, 0.0, 1.698959065197785E9, 0.0, 2023-11-02 17:04:25.197
28.0, -178266.53906900156, 187500.0, 30821.178057334193, 26739.526002350573, 187500.0, 187500.0, -187500.02235174447, 30017.878713354912, -0.044, 0.976, -0.074, 192.0, 0.0, 0.0, 0.0, 0.0, 0.0, 0.0, 0.0, 0.0, 0.0, 1.6989590651978076E9, 0.0, 2023-11-02 17:04:25.197
29.0, -178203.28363219305, 187500.0, 30825.804868436444, 26732.61931331388, 187500.0, 187500.0, -187500.02235174447, 30020.717384900738, -0.06, 0.984, -0.076, 192.0, 254.0, 32.0, 30.0, 192.0, 253.0, 160.0, 0.0, 0.0, 0.0, 1.6989590651978276E9, 0.0, 2023-11-02 17:04:25.197
30.0, -178241.1251355559, 187500.0, 30829.828182438396, 26726.785508011046, 187500.0, 187500.0, -187500.02235174447, 30020.203294778265, -0.06, 0.984, -0.076, 192.0, 0.0, 0.0, 0.0, 0.0, 0.0, 0.0, 0.0, 0.0, 0.0, 1.698959065197856E9, 0.0, 2023-11-02 17:04:25.197
31.0, -178263.1863073333, 187500.0, 30836.75722321954, 26728.14896442282, 187500.0, 187500.0, -187500.02235174447, 30022.393765734883, -0.06, 0.984, -0.076, 192.0, 0.0, 0.0, 0.0, 0.0, 0.0, 0.0, 0.0, 0.0, 0.0, 1.6989590651979563E9, 0.0, 2023-11-02 17:04:25.197
32.0, -178176.9979807136, 187500.0, 30835.30435982995, 26724.840906243433, 187500.0, 187500.0, -187500.02235174447, 30015.84470460948, -0.06, 0.984, -0.076, 192.0, 0.0, 0.0, 0.0, 0.0, 0.0, 0.0, 0.0, 0.0, 0.0, 1.6989590651979797E9, 0.0, 2023-11-02 17:04:25.197
33.0, -178127.2429975561, 187500.0, 30835.90785693024, 26720.14703990782, 187500.0, 187500.0, -187500.02235174447, 30014.436544708795, -0.06, 0.984, -0.076, 192.0, 0.0, 0.0, 0.0, 0.0, 0.0, 0.0, 0.0, 0.0, 0.0, 1.6989590651980016E9, 0.0, 2023-11-02 17:04:25.198
34.0, -178198.29919317953, 187500.0, 30839.57354302091, 26722.71749052018, 187500.0, 187500.0, -187500.02235174447, 30018.83983836649, -0.06, 0.984, -0.076, 192.0, 0.0, 0.0, 0.0, 0.0, 0.0, 0.0, 0.0, 0.0, 0.0, 1.6989590651980207E9, 0.0, 2023-11-02 17:04:25.198
35.0, -178260.01235962062, 187500.0, 30840.802888965954, 26733.312217391995, 187500.0, 187500.0, -187500.02235174447, 30024.04779482458, -0.06, 0.984, -0.076, 192.0, 0.0, 0.0, 0.0, 0.0, 0.0, 0.0, 0.0, 0.0, 0.0, 1.6989590651980412E9, 0.0, 2023-11-02 17:04:25.198
36.0, -178176.12626267987, 187500.0, 30829.045871382463, 26729.981807468153, 187500.0, 187500.0, -187500.02235174447, 30013.810695864046, -0.06, 0.984, -0.076, 192.0, 0.0, 0.0, 0.0, 0.0, 0.0, 0.0, 0.0, 0.0, 0.0, 1.6989590651980593E9, 0.0, 2023-11-02 17:04:25.198
37.0, -178111.06033457047, 187500.0, 30829.805830693942, 26725.265589388084, 187500.0, 187500.0, -187500.02235174447, 30015.934111587303, -0.06, 0.984, -0.076, 192.0, 0.0, 0.0, 0.0, 0.0, 0.0, 0.0, 0.0, 0.0, 0.0, 1.6989590651980767E9, 0.0, 2023-11-02 17:04:25.198
38.0, -178156.16615488127, 187500.0, 30835.259656341037, 26729.62417955687, 187500.0, 187500.0, -187500.02235174447, 30023.153725046366, -0.06, 0.984, -0.076, 192.0, 0.0, 0.0, 0.0, 0.0, 0.0, 0.0, 0.0, 0.0, 0.0, 1.698959065198095E9, 0.0, 2023-11-02 17:04:25.198
39.0, -178204.33416418245, 187500.0, 30837.114851130827, 26735.010949970598, 187500.0, 187500.0, -187500.02235174447, 30028.22757103772, -0.046, 0.972, -0.074, 192.0, 254.0, 144.0, 30.0, 96.0, 253.0, 176.0, 0.0, 0.0, 0.0, 1.6989590651981096E9, 0.0, 2023-11-02 17:04:25.198
40.0, -178141.59281749642, 187500.0, 30833.024481895507, 26734.832136014957, 187500.0, 187500.0, -187500.02235174447, 30026.193562292287, -0.046, 0.972, -0.074, 192.0, 0.0, 0.0, 0.0, 0.0, 0.0, 0.0, 0.0, 0.0, 0.0, 1.6989590651981435E9, 0.0, 2023-11-02 17:04:25.198
41.0, -178025.18493237317, 187500.0, 30827.7271184596, 26729.33360687895, 187500.0, 187500.0, -187500.02235174447, 30021.052661067566, -0.046, 0.972, -0.074, 192.0, 0.0, 0.0, 0.0, 0.0, 0.0, 0.0, 0.0, 0.0, 0.0, 1.698959065198167E9, 0.0, 2023-11-02 17:04:25.198
42.0, -178011.23744383306, 187500.0, 30826.654234725745, 26729.691234790236, 187500.0, 187500.0, -187500.02235174447, 30020.717384900738, -0.046, 0.972, -0.074, 192.0, 0.0, 0.0, 0.0, 0.0, 0.0, 0.0, 0.0, 0.0, 0.0, 1.6989590651981864E9, 0.0, 2023-11-02 17:04:25.198
43.0, -178038.14894415723, 187500.0, 30823.659100968733, 26725.176182410265, 187500.0, 187500.0, -187500.02235174447, 30017.85636161046, -0.046, 0.972, -0.074, 192.0, 0.0, 0.0, 0.0, 0.0, 0.0, 0.0, 0.0, 0.0, 0.0, 1.6989590651982377E9, 0.0, 2023-11-02 17:04:25.198
44.0, -177990.5620802119, 187500.0, 30824.419060280212, 26725.57851381046, 187500.0, 187500.0, -187500.02235174447, 30021.14206804539, -0.046, 0.972, -0.074, 192.0, 0.0, 0.0, 0.0, 0.0, 0.0, 0.0, 0.0, 0.0, 0.0, 1.6989590651982656E9, 0.0, 2023-11-02 17:04:25.198
45.0, -177875.04826486687, 187500.0, 30822.295644556958, 26723.76802250958, 187500.0, 187500.0, -187500.02235174447, 30020.538570945093, -0.046, 0.972, -0.074, 192.0, 0.0, 0.0, 0.0, 0.0, 0.0, 0.0, 0.0, 0.0, 0.0, 1.698959065198284E9, 0.0, 2023-11-02 17:04:25.198
46.0, -177825.9191305541, 187500.0, 30821.111002100828, 26719.23061838515, 187500.0, 187500.0, -187500.02235174447, 30020.650329667373, -0.046, 0.972, -0.074, 192.0, 0.0, 0.0, 0.0, 0.0, 0.0, 0.0, 0.0, 0.0, 0.0, 1.6989590651984284E9, 0.0, 2023-11-02 17:04:25.198
47.0, -177841.721813884, 187500.0, 30822.608568979333, 26720.95170270821, 187500.0, 187500.0, -187500.02235174447, 30021.499695956674, -0.046, 0.972, -0.074, 192.0, 0.0, 0.0, 0.0, 0.0, 0.0, 0.0, 0.0, 0.0, 0.0, 1.6989590651984527E9, 0.0, 2023-11-02 17:04:25.198
48.0, -177775.58300204074, 187500.0, 30821.066298611917, 26718.24714162912, 187500.0, 187500.0, -187500.02235174447, 30018.66102441085, -0.046, 0.972, -0.074, 192.0, 0.0, 0.0, 0.0, 0.0, 0.0, 0.0, 0.0, 0.0, 0.0, 1.6989590651985452E9, 0.0, 2023-11-02 17:04:25.198
49.0, -177669.8368990227, 187500.0, 30828.174153348704, 26721.354034108404, 187500.0, 187500.0, -187500.02235174447, 30023.511352957652, -0.046, 0.974, -0.08, 192.0, 254.0, 144.0, 30.0, 112.0, 253.0, 128.0, 0.0, 0.0, 0.0, 1.6989590651985664E9, 0.0, 2023-11-02 17:04:25.198
50.0, -177644.26650336583, 187500.0, 30834.52204877401, 26724.103298676408, 187500.0, 187500.0, -187500.02235174447, 30026.66294892585, -0.046, 0.974, -0.08, 192.0, 0.0, 0.0, 0.0, 0.0, 0.0, 0.0, 0.0, 0.0, 0.0, 1.698959065198593E9, 0.0, 2023-11-02 17:04:25.198
51.0, -177655.86705873813, 187500.0, 30826.162496347726, 26716.034318928043, 187500.0, 187500.0, -187500.02235174447, 30015.17415227582, -0.046, 0.974, -0.08, 192.0, 0.0, 0.0, 0.0, 0.0, 0.0, 0.0, 0.0, 0.0, 0.0, 1.69895906519861E9, 0.0, 2023-11-02 17:04:25.198
52.0, -177610.33655528267, 187500.0, 30820.127525344793, 26708.61353976888, 187500.0, 187500.0, -187500.02235174447, 30006.07699228251, -0.046, 0.974, -0.08, 192.0, 0.0, 0.0, 0.0, 0.0, 0.0, 0.0, 0.0, 0.0, 0.0, 1.6989590651986313E9, 0.0, 2023-11-02 17:04:25.198
53.0, -177497.39319055, 187500.0, 30818.652310210742, 26705.216074611675, 187500.0, 187500.0, -187500.02235174447, 30002.925396314313, -0.046, 0.974, -0.08, 192.0, 0.0, 0.0, 0.0, 0.0, 0.0, 0.0, 0.0, 0.0, 0.0, 1.6989590651986496E9, 0.0, 2023-11-02 17:04:25.198
54.0, -177426.91814028242, 187500.0, 30818.317034043914, 26697.594129752415, 187500.0, 187500.0, -187500.02235174447, 30000.690221868783, -0.046, 0.974, -0.08, 192.0, 0.0, 0.0, 0.0, 0.0, 0.0, 0.0, 0.0, 0.0, 0.0, 1.6989590651986687E9, 0.0, 2023-11-02 17:04:25.198
55.0, -177454.20962026235, 187500.0, 30816.283025298482, 26695.269548329063, 187500.0, 187500.0, -187500.02235174447, 29999.572634646018, -0.046, 0.974, -0.08, 192.0, 0.0, 0.0, 0.0, 0.0, 0.0, 0.0, 0.0, 0.0, 0.0, 1.6989590651986935E9, 0.0, 2023-11-02 17:04:25.198
56.0, -177454.88017259602, 187500.0, 30811.67856594069, 26696.923577418755, 187500.0, 187500.0, -187500.02235174447, 29998.70091661226, -0.046, 0.974, -0.08, 192.0, 0.0, 0.0, 0.0, 0.0, 0.0, 0.0, 0.0, 0.0, 0.0, 1.6989590651987176E9, 0.0, 2023-11-02 17:04:25.198
57.0, -177352.6656452019, 187500.0, 30802.022612335997, 26693.436705283726, 187500.0, 187500.0, -187500.02235174447, 29993.627070620903, -0.046, 0.974, -0.08, 192.0, 0.0, 0.0, 0.0, 0.0, 0.0, 0.0, 0.0, 0.0, 0.0, 1.6989590651987636E9, 0.0, 2023-11-02 17:04:25.198
58.0, -177256.95547544427, 187500.0, 30791.405533719724, 26686.217091824663, 187500.0, 187500.0, -187500.02235174447, 29988.17324497381, -0.046, 0.974, -0.08, 192.0, 0.0, 0.0, 0.0, 0.0, 0.0, 0.0, 0.0, 0.0, 0.0, 1.69895906519878E9, 0.0, 2023-11-02 17:04:25.198
59.0, -177282.4364641233, 187500.0, 30791.740809886553, 26686.41825752476, 187500.0, 187500.0, -187500.02235174447, 29991.41424791983, -0.032, 0.98, -0.062, 192.0, 255.0, 0.0, 30.0, 160.0, 254.0, 16.0, 0.0, 0.0, 0.0, 1.6989590651987972E9, 0.0, 2023-11-02 17:04:25.198
60.0, -177298.17209221984, 187500.0, 30791.673754653188, 26689.48044651514, 187500.0, 187500.0, -187500.02235174447, 29990.162550230332, -0.032, 0.98, -0.062, 192.0, 0.0, 0.0, 0.0, 0.0, 0.0, 0.0, 0.0, 0.0, 0.0, 1.698959065198842E9, 0.0, 2023-11-02 17:04:25.198
61.0, -177187.35214321045, 187500.0, 30789.10330404083, 26690.195702337707, 187500.0, 187500.0, -187500.02235174447, 29987.189768217777, -0.032, 0.98, -0.062, 192.0, 0.0, 0.0, 0.0, 0.0, 0.0, 0.0, 0.0, 0.0, 0.0, 1.698959065198984E9, 0.0, 2023-11-02 17:04:25.198
62.0, -177075.1910895337, 187500.0, 30790.04207730795, 26689.681612215238, 187500.0, 187500.0, -187500.02235174447, 29988.955556029745, -0.032, 0.98, -0.062, 192.0, 0.0, 0.0, 0.0, 0.0, 0.0, 0.0, 0.0, 0.0, 0.0, 1.6989590651990314E9, 0.0, 2023-11-02 17:04:25.199
63.0, -177070.7430923871, 187500.0, 30795.562958188413, 26690.575681993447, 187500.0, 187500.0, -187500.02235174447, 29992.35302118695, -0.032, 0.98, -0.062, 192.0, 0.0, 0.0, 0.0, 0.0, 0.0, 0.0, 0.0, 0.0, 0.0, 1.6989590651990495E9, 0.0, 2023-11-02 17:04:25.199
64.0, -177076.66630466777, 187500.0, 30799.42980997918, 26690.24040582662, 187500.0, 187500.0, -187500.02235174447, 29992.308317698044, -0.032, 0.98, -0.062, 192.0, 0.0, 0.0, 0.0, 0.0, 0.0, 0.0, 0.0, 0.0, 0.0, 1.6989590651990705E9, 0.0, 2023-11-02 17:04:25.199
65.0, -176992.15435888225, 187500.0, 30798.871016367797, 26690.195702337707, 187500.0, 187500.0, -187500.02235174447, 29989.69316359677, -0.032, 0.98, -0.062, 192.0, 0.0, 0.0, 0.0, 0.0, 0.0, 0.0, 0.0, 0.0, 0.0, 1.6989590651990893E9, 0.0, 2023-11-02 17:04:25.199
66.0, -176872.88545046872, 187500.0, 30802.916682114206, 26685.725353446647, 187500.0, 187500.0, -187500.02235174447, 29988.910852540834, -0.032, 0.98, -0.062, 192.0, 0.0, 0.0, 0.0, 0.0, 0.0, 0.0, 0.0, 0.0, 0.0, 1.6989590651991184E9, 0.0, 2023-11-02 17:04:25.199
67.0, -176853.46178453707, 187500.0, 30808.504618228035, 26683.71369644567, 187500.0, 187500.0, -187500.02235174447, 29990.14019848588, -0.032, 0.98, -0.062, 192.0, 0.0, 0.0, 0.0, 0.0, 0.0, 0.0, 0.0, 0.0, 0.0, 1.6989590651991572E9, 0.0, 2023-11-02 17:04:25.199
68.0, -176859.8320317068, 187500.0, 30808.258749039025, 26676.8964143868, 187500.0, 187500.0, -187500.02235174447, 29983.032343749088, -0.032, 0.98, -0.062, 192.0, 0.0, 0.0, 0.0, 0.0, 0.0, 0.0, 0.0, 0.0, 0.0, 1.6989590651991756E9, 0.0, 2023-11-02 17:04:25.199
