%OpenBCI Raw EEG Data
%Number of channels = 8
%Sample Rate = 250 Hz
%Board = OpenBCI_GUI$BoardCytonSerial
Sample Index, EXG Channel 0, EXG Channel 1, EXG Channel 2, EXG Channel 3, EXG Channel 4, EXG Channel 5, EXG Channel 6, EXG Channel 7, Accel Channel 0, Accel Channel 1, Accel Channel 2, Other, Other, Other, Other, Other, Other, Other, Analog Channel 0, Analog Channel 1, Analog Channel 2, Timestamp, Other, Timestamp (Formatted)
181.0, -187500.02235174447, 187500.0, 571.5564574666569, 32339.196782016374, 187500.0, 187500.0, -187500.02235174447, 36984.917460074124, 0.0, 0.0, 0.0, 192.0, 0.0, 0.0, 0.0, 0.0, 0.0, 0.0, 0.0, 0.0, 0.0, 1.6989582515852504E9, 0.0, 2023-11-02 16:50:51.585
182.0, -187500.02235174447, 187500.0, 574.3057220346597, 32335.620502903523, 187500.0, 187500.0, -187500.02235174447, 36985.38684670768, 0.0, 0.0, 0.0, 192.0, 0.0, 0.0, 0.0, 0.0, 0.0, 0.0, 0.0, 0.0, 0.0, 1.6989582515852728E9, 0.0, 2023-11-02 16:50:51.585
183.0, -187500.02235174447, 187500.0, 577.0326348582071, 32319.5272468957, 187500.0, 187500.0, -187500.02235174447, 36984.291611229375, 0.0, 0.0, 0.0, 192.0, 0.0, 0.0, 0.0, 0.0, 0.0, 0.0, 0.0, 0.0, 0.0, 1.6989582515852828E9, 0.0, 2023-11-02 16:50:51.585
184.0, -187500.02235174447, 187500.0, 577.9267046364195, 32318.72258409531, 187500.0, 187500.0, -187500.02235174447, 36985.56566066333, -0.08, 0.986, 0.042, 192.0, 253.0, 128.0, 30.0, 208.0, 1.0, 80.0, 0.0, 0.0, 0.0, 1.698958251585292E9, 0.0, 2023-11-02 16:50:51.585
185.0, -187500.02235174447, 187500.0, 576.4738412468245, 32335.240523247783, 187500.0, 187500.0, -187500.02235174447, 36984.80570135185, -0.08, 0.986, 0.042, 192.0, 0.0, 0.0, 0.0, 0.0, 0.0, 0.0, 0.0, 0.0, 0.0, 1.698958251585304E9, 0.0, 2023-11-02 16:50:51.585
186.0, -187500.02235174447, 187500.0, 573.7692801677323, 32339.152078527462, 187500.0, 187500.0, -187500.02235174447, 36981.11766351672, -0.08, 0.986, 0.042, 192.0, 0.0, 0.0, 0.0, 0.0, 0.0, 0.0, 0.0, 0.0, 0.0, 1.6989582515853138E9, 0.0, 2023-11-02 16:50:51.585
187.0, -187500.02235174447, 187500.0, 579.7595476817546, 32321.293034707673, 187500.0, 187500.0, -187500.02235174447, 36985.45390194105, -0.08, 0.986, 0.042, 192.0, 0.0, 0.0, 0.0, 0.0, 0.0, 0.0, 0.0, 0.0, 0.0, 1.6989582515853236E9, 0.0, 2023-11-02 16:50:51.585
188.0, -187500.02235174447, 187500.0, 589.0578733751623, 32317.06855500562, 187500.0, 187500.0, -187500.02235174447, 36994.86398635674, -0.08, 0.986, 0.042, 192.0, 0.0, 0.0, 0.0, 0.0, 0.0, 0.0, 0.0, 0.0, 0.0, 1.698958251585333E9, 0.0, 2023-11-02 16:50:51.585
189.0, -187500.02235174447, 187500.0, 588.9908181417964, 32345.276456508218, 187500.0, 187500.0, -187500.02235174447, 36997.143864291174, -0.08, 0.986, 0.042, 192.0, 0.0, 0.0, 0.0, 0.0, 0.0, 0.0, 0.0, 0.0, 0.0, 1.698958251585343E9, 0.0, 2023-11-02 16:50:51.585
190.0, -187500.02235174447, 187500.0, 579.8936581484865, 32358.084006081106, 187500.0, 187500.0, -187500.02235174447, 36987.3314484753, -0.08, 0.986, 0.042, 192.0, 0.0, 0.0, 0.0, 0.0, 0.0, 0.0, 0.0, 0.0, 0.0, 1.6989582515853524E9, 0.0, 2023-11-02 16:50:51.585
191.0, -187500.02235174447, 187500.0, 577.3008557916709, 32331.708947623843, 187500.0, 187500.0, -187500.02235174447, 36983.28578272889, -0.08, 0.986, 0.042, 192.0, 0.0, 0.0, 0.0, 0.0, 0.0, 0.0, 0.0, 0.0, 0.0, 1.698958251585362E9, 0.0, 2023-11-02 16:50:51.585
192.0, -187500.02235174447, 187500.0, 585.9286291514194, 32325.71868010982, 187500.0, 187500.0, -187500.02235174447, 36992.27118399992, -0.08, 0.986, 0.042, 192.0, 0.0, 0.0, 0.0, 0.0, 0.0, 0.0, 0.0, 0.0, 0.0, 1.6989582515853715E9, 0.0, 2023-11-02 16:50:51.585
193.0, -187500.02235174447, 187500.0, 584.8780971620199, 32349.523287954726, 187500.0, 187500.0, -187500.02235174447, 36992.56175667784, -0.08, 0.986, 0.042, 192.0, 0.0, 0.0, 0.0, 0.0, 0.0, 0.0, 0.0, 0.0, 0.0, 1.698958251585381E9, 0.0, 2023-11-02 16:50:51.585
194.0, -187500.02235174447, 187500.0, 583.5593442391568, 32369.6398579645, 187500.0, 187500.0, -187500.02235174447, 36990.97478282151, -0.078, 0.982, 0.048, 192.0, 253.0, 144.0, 30.0, 176.0, 1.0, 128.0, 0.0, 0.0, 0.0, 1.6989582515853903E9, 0.0, 2023-11-02 16:50:51.585
195.0, -187500.02235174447, 187500.0, 576.7644139247434, 32356.854660136065, 187500.0, 187500.0, -187500.02235174447, 36984.47042518502, -0.078, 0.982, 0.048, 192.0, 0.0, 0.0, 0.0, 0.0, 0.0, 0.0, 0.0, 0.0, 0.0, 1.6989582515854006E9, 0.0, 2023-11-02 16:50:51.585
196.0, -187500.02235174447, 187500.0, 585.0569111176624, 32337.788622115688, 187500.0, 187500.0, -187500.02235174447, 36991.55592817735, -0.078, 0.982, 0.048, 192.0, 0.0, 0.0, 0.0, 0.0, 0.0, 0.0, 0.0, 0.0, 0.0, 1.69895825158541E9, 0.0, 2023-11-02 16:50:51.585
197.0, -187500.02235174447, 187500.0, 577.7702424252323, 32354.843003135087, 187500.0, 187500.0, -187500.02235174447, 36986.75030311946, -0.078, 0.982, 0.048, 192.0, 0.0, 0.0, 0.0, 0.0, 0.0, 0.0, 0.0, 0.0, 0.0, 1.6989582515855265E9, 0.0, 2023-11-02 16:50:51.585
198.0, -187500.02235174447, 187500.0, 573.8586871455535, 32366.64472420749, 187500.0, 187500.0, -187500.02235174447, 36984.87275658522, -0.078, 0.982, 0.048, 192.0, 0.0, 0.0, 0.0, 0.0, 0.0, 0.0, 0.0, 0.0, 0.0, 1.6989582515855365E9, 0.0, 2023-11-02 16:50:51.585
199.0, -187500.02235174447, 187500.0, 580.810079671154, 32361.794395660687, 187500.0, 187500.0, -187500.02235174447, 36990.05836129885, -0.078, 0.982, 0.048, 192.0, 0.0, 0.0, 0.0, 0.0, 0.0, 0.0, 0.0, 0.0, 0.0, 1.698958251585546E9, 0.0, 2023-11-02 16:50:51.585
200.0, -187500.02235174447, 187500.0, 586.4650710183467, 32349.009197832253, 187500.0, 187500.0, -187500.02235174447, 36993.36641947823, -0.078, 0.982, 0.048, 192.0, 0.0, 0.0, 0.0, 0.0, 0.0, 0.0, 0.0, 0.0, 0.0, 1.6989582515855556E9, 0.0, 2023-11-02 16:50:51.585
201.0, -187500.02235174447, 187500.0, 592.6565042324668, 32357.704026425366, 187500.0, 187500.0, -187500.02235174447, 36999.69196315908, -0.078, 0.982, 0.048, 192.0, 0.0, 0.0, 0.0, 0.0, 0.0, 0.0, 0.0, 0.0, 0.0, 1.698958251585565E9, 0.0, 2023-11-02 16:50:51.585
202.0, -187500.02235174447, 187500.0, 581.9947221272853, 32386.15779711697, 187500.0, 187500.0, -187500.02235174447, 36990.728913632505, -0.078, 0.982, 0.048, 192.0, 0.0, 0.0, 0.0, 0.0, 0.0, 0.0, 0.0, 0.0, 0.0, 1.6989582515855749E9, 0.0, 2023-11-02 16:50:51.585
203.0, -187500.02235174447, 187500.0, 580.228934315316, 32384.771988960743, 187500.0, 187500.0, -187500.02235174447, 36986.79500660837, -0.078, 0.982, 0.048, 192.0, 0.0, 0.0, 0.0, 0.0, 0.0, 0.0, 0.0, 0.0, 0.0, 1.698958251585586E9, 0.0, 2023-11-02 16:50:51.585
204.0, -187500.02235174447, 187500.0, 585.5933529845897, 32373.126730099528, 187500.0, 187500.0, -187500.02235174447, 36989.41016070964, -0.08, 0.988, 0.044, 192.0, 253.0, 128.0, 30.0, 224.0, 1.0, 96.0, 0.0, 0.0, 0.0, 1.6989582515855956E9, 0.0, 2023-11-02 16:50:51.585
205.0, -187500.02235174447, 187500.0, 589.1919838418942, 32379.22875633583, 187500.0, 187500.0, -187500.02235174447, 36993.12055028922, -0.08, 0.988, 0.044, 192.0, 0.0, 0.0, 0.0, 0.0, 0.0, 0.0, 0.0, 0.0, 0.0, 1.6989582515856066E9, 0.0, 2023-11-02 16:50:51.585
206.0, -187500.02235174447, 187500.0, 580.1171755930395, 32408.151913660997, 187500.0, 187500.0, -187500.02235174447, 36984.13514901819, -0.08, 0.988, 0.044, 192.0, 0.0, 0.0, 0.0, 0.0, 0.0, 0.0, 0.0, 0.0, 0.0, 1.6989582515856164E9, 0.0, 2023-11-02 16:50:51.585
207.0, -187500.02235174447, 187500.0, 576.4067860134585, 32406.296718871206, 187500.0, 187500.0, -187500.02235174447, 36980.13418676069, -0.08, 0.988, 0.044, 192.0, 0.0, 0.0, 0.0, 0.0, 0.0, 0.0, 0.0, 0.0, 0.0, 1.6989582515856256E9, 0.0, 2023-11-02 16:50:51.585
208.0, -187500.02235174447, 187500.0, 584.0510826171735, 32378.64761097999, 187500.0, 187500.0, -187500.02235174447, 36986.05739904135, -0.08, 0.988, 0.044, 192.0, 0.0, 0.0, 0.0, 0.0, 0.0, 0.0, 0.0, 0.0, 0.0, 1.6989582515856352E9, 0.0, 2023-11-02 16:50:51.585
209.0, -187500.02235174447, 187500.0, 578.7090156923551, 32374.132558600017, 187500.0, 187500.0, -187500.02235174447, 36980.06713152732, -0.08, 0.988, 0.044, 192.0, 0.0, 0.0, 0.0, 0.0, 0.0, 0.0, 0.0, 0.0, 0.0, 1.6989582515856452E9, 0.0, 2023-11-02 16:50:51.585
210.0, -187500.02235174447, 187500.0, 578.9995883702742, 32388.7953029627, 187500.0, 187500.0, -187500.02235174447, 36979.93302106059, -0.08, 0.988, 0.044, 192.0, 0.0, 0.0, 0.0, 0.0, 0.0, 0.0, 0.0, 0.0, 0.0, 1.6989582515856552E9, 0.0, 2023-11-02 16:50:51.585
211.0, -187500.02235174447, 187500.0, 578.1949255698831, 32397.780704233734, 187500.0, 187500.0, -187500.02235174447, 36980.15653850514, -0.08, 0.988, 0.044, 192.0, 0.0, 0.0, 0.0, 0.0, 0.0, 0.0, 0.0, 0.0, 0.0, 1.6989582515856652E9, 0.0, 2023-11-02 16:50:51.585
212.0, -187500.02235174447, 187500.0, 580.7206726933327, 32378.40174179098, 187500.0, 187500.0, -187500.02235174447, 36981.98938155048, -0.08, 0.988, 0.044, 192.0, 0.0, 0.0, 0.0, 0.0, 0.0, 0.0, 0.0, 0.0, 0.0, 1.6989582515857008E9, 0.0, 2023-11-02 16:50:51.585
213.0, -187500.02235174447, 187500.0, 583.0452541166848, 32373.707875455366, 187500.0, 187500.0, -187500.02235174447, 36984.11279727373, -0.08, 0.988, 0.044, 192.0, 0.0, 0.0, 0.0, 0.0, 0.0, 0.0, 0.0, 0.0, 0.0, 1.6989582515857103E9, 0.0, 2023-11-02 16:50:51.585
214.0, -187500.02235174447, 187500.0, 580.0948238485842, 32395.322012343648, 187500.0, 187500.0, -187500.02235174447, 36981.140015261175, -0.08, 0.984, 0.044, 192.0, 253.0, 128.0, 30.0, 192.0, 1.0, 96.0, 0.0, 0.0, 0.0, 1.69895825158572E9, 0.0, 2023-11-02 16:50:51.585
215.0, -187500.02235174447, 187500.0, 575.8479924020759, 32411.23645439583, 187500.0, 187500.0, -187500.02235174447, 36975.57443089181, -0.08, 0.984, 0.044, 192.0, 0.0, 0.0, 0.0, 0.0, 0.0, 0.0, 0.0, 0.0, 0.0, 1.69895825158573E9, 0.0, 2023-11-02 16:50:51.585
216.0, -187500.02235174447, 187500.0, 575.5574197241568, 32394.807922221178, 187500.0, 187500.0, -187500.02235174447, 36974.18862273558, -0.08, 0.984, 0.044, 192.0, 0.0, 0.0, 0.0, 0.0, 0.0, 0.0, 0.0, 0.0, 0.0, 1.6989582515857396E9, 0.0, 2023-11-02 16:50:51.585
217.0, -187500.02235174447, 187500.0, 577.0326348582071, 32378.446445279893, 187500.0, 187500.0, -187500.02235174447, 36973.808643079836, -0.08, 0.984, 0.044, 192.0, 0.0, 0.0, 0.0, 0.0, 0.0, 0.0, 0.0, 0.0, 0.0, 1.6989582515857491E9, 0.0, 2023-11-02 16:50:51.585
218.0, -187500.02235174447, 187500.0, 574.2833702902044, 32393.55622453168, 187500.0, 187500.0, -187500.02235174447, 36970.18766047808, -0.08, 0.984, 0.044, 192.0, 0.0, 0.0, 0.0, 0.0, 0.0, 0.0, 0.0, 0.0, 0.0, 1.6989582515857587E9, 0.0, 2023-11-02 16:50:51.585
219.0, -187500.02235174447, 187500.0, 573.165783067439, 32405.08972467062, 187500.0, 187500.0, -187500.02235174447, 36968.66774185512, -0.08, 0.984, 0.044, 192.0, 0.0, 0.0, 0.0, 0.0, 0.0, 0.0, 0.0, 0.0, 0.0, 1.698958251585768E9, 0.0, 2023-11-02 16:50:51.585
220.0, -187500.02235174447, 187500.0, 572.294065033682, 32385.844872694597, 187500.0, 187500.0, -187500.02235174447, 36968.95831453303, -0.08, 0.984, 0.044, 192.0, 0.0, 0.0, 0.0, 0.0, 0.0, 0.0, 0.0, 0.0, 0.0, 1.6989582515857775E9, 0.0, 2023-11-02 16:50:51.585
221.0, -187500.02235174447, 187500.0, 578.4407947588915, 32370.042189364696, 187500.0, 187500.0, -187500.02235174447, 36976.110872758734, -0.08, 0.984, 0.044, 192.0, 0.0, 0.0, 0.0, 0.0, 0.0, 0.0, 0.0, 0.0, 0.0, 1.6989582515857873E9, 0.0, 2023-11-02 16:50:51.585
222.0, -187500.02235174447, 187500.0, 574.9762743683189, 32389.287041340714, 187500.0, 187500.0, -187500.02235174447, 36972.825166323804, -0.08, 0.984, 0.044, 192.0, 0.0, 0.0, 0.0, 0.0, 0.0, 0.0, 0.0, 0.0, 0.0, 1.6989582515857966E9, 0.0, 2023-11-02 16:50:51.585
223.0, -187500.02235174447, 187500.0, 573.2328383008049, 32409.8506462396, 187500.0, 187500.0, -187500.02235174447, 36970.96997153401, -0.08, 0.984, 0.044, 192.0, 0.0, 0.0, 0.0, 0.0, 0.0, 0.0, 0.0, 0.0, 0.0, 1.698958251585806E9, 0.0, 2023-11-02 16:50:51.585
224.0, -187500.02235174447, 187500.0, 576.2503238022714, 32407.32489911615, 187500.0, 187500.0, -187500.02235174447, 36972.5792971348, -0.082, 0.978, 0.044, 192.0, 253.0, 112.0, 30.0, 144.0, 1.0, 96.0, 0.0, 0.0, 0.0, 1.6989582515858169E9, 0.0, 2023-11-02 16:50:51.585
225.0, -187500.02235174447, 187500.0, 583.1793645834166, 32393.17624487594, 187500.0, 187500.0, -187500.02235174447, 36981.69880887256, -0.082, 0.978, 0.044, 192.0, 0.0, 0.0, 0.0, 0.0, 0.0, 0.0, 0.0, 0.0, 0.0, 1.698958251585827E9, 0.0, 2023-11-02 16:50:51.585
226.0, -187500.02235174447, 187500.0, 579.5360302372015, 32394.65146000999, 187500.0, 187500.0, -187500.02235174447, 36978.68132337109, -0.082, 0.978, 0.044, 192.0, 0.0, 0.0, 0.0, 0.0, 0.0, 0.0, 0.0, 0.0, 0.0, 1.6989582515858364E9, 0.0, 2023-11-02 16:50:51.585
227.0, -187500.02235174447, 187500.0, 572.6740446894222, 32406.207311893384, 187500.0, 187500.0, -187500.02235174447, 36969.4277011666, -0.082, 0.978, 0.044, 192.0, 0.0, 0.0, 0.0, 0.0, 0.0, 0.0, 0.0, 0.0, 0.0, 1.6989582515858545E9, 0.0, 2023-11-02 16:50:51.585
228.0, -187500.02235174447, 187500.0, 571.9140853779418, 32399.36767809006, 187500.0, 187500.0, -187500.02235174447, 36964.577372619795, -0.082, 0.978, 0.044, 192.0, 0.0, 0.0, 0.0, 0.0, 0.0, 0.0, 0.0, 0.0, 0.0, 1.6989582515858643E9, 0.0, 2023-11-02 16:50:51.585
229.0, -187500.02235174447, 187500.0, 573.1210795785283, 32382.134483115016, 187500.0, 187500.0, -187500.02235174447, 36962.29749468536, -0.082, 0.978, 0.044, 192.0, 0.0, 0.0, 0.0, 0.0, 0.0, 0.0, 0.0, 0.0, 0.0, 1.698958251585874E9, 0.0, 2023-11-02 16:50:51.585
230.0, -187500.02235174447, 187500.0, 576.5408964801903, 32384.30260232718, 187500.0, 187500.0, -187500.02235174447, 36964.80089006435, -0.082, 0.978, 0.044, 192.0, 0.0, 0.0, 0.0, 0.0, 0.0, 0.0, 0.0, 0.0, 0.0, 1.6989582515858834E9, 0.0, 2023-11-02 16:50:51.585
231.0, -187500.02235174447, 187500.0, 568.2260475428161, 32410.65530903999, 187500.0, 187500.0, -187500.02235174447, 36958.52004987241, -0.082, 0.978, 0.044, 192.0, 0.0, 0.0, 0.0, 0.0, 0.0, 0.0, 0.0, 0.0, 0.0, 1.698958251585893E9, 0.0, 2023-11-02 16:50:51.585
232.0, -187500.02235174447, 187500.0, 566.1473353084726, 32404.776800248244, 187500.0, 187500.0, -187500.02235174447, 36958.38593940568, -0.082, 0.978, 0.044, 192.0, 0.0, 0.0, 0.0, 0.0, 0.0, 0.0, 0.0, 0.0, 0.0, 1.698958251585904E9, 0.0, 2023-11-02 16:50:51.585
233.0, -187500.02235174447, 187500.0, 569.7459661657771, 32385.80016920569, 187500.0, 187500.0, -187500.02235174447, 36961.31401792932, -0.082, 0.978, 0.044, 192.0, 0.0, 0.0, 0.0, 0.0, 0.0, 0.0, 0.0, 0.0, 0.0, 1.6989582515859132E9, 0.0, 2023-11-02 16:50:51.585
234.0, -187500.02235174447, 187500.0, 571.8470301445759, 32389.376448318537, 187500.0, 187500.0, -187500.02235174447, 36962.31984642981, -0.08, 0.976, 0.04, 192.0, 253.0, 128.0, 30.0, 128.0, 1.0, 64.0, 0.0, 0.0, 0.0, 1.6989582515859227E9, 0.0, 2023-11-02 16:50:51.585
235.0, -187500.02235174447, 187500.0, 565.3426725080816, 32416.913797487476, 187500.0, 187500.0, -187500.02235174447, 36957.089538227265, -0.08, 0.976, 0.04, 192.0, 0.0, 0.0, 0.0, 0.0, 0.0, 0.0, 0.0, 0.0, 0.0, 1.6989582515859327E9, 0.0, 2023-11-02 16:50:51.585
236.0, -187500.02235174447, 187500.0, 559.9335503498972, 32419.70776554439, 187500.0, 187500.0, -187500.02235174447, 36951.7698230469, -0.08, 0.976, 0.04, 192.0, 0.0, 0.0, 0.0, 0.0, 0.0, 0.0, 0.0, 0.0, 0.0, 1.6989582515859425E9, 0.0, 2023-11-02 16:50:51.585
237.0, -187500.02235174447, 187500.0, 572.7187481783328, 32394.40559082098, 187500.0, 187500.0, -187500.02235174447, 36962.52101212991, -0.08, 0.976, 0.04, 192.0, 0.0, 0.0, 0.0, 0.0, 0.0, 0.0, 0.0, 0.0, 0.0, 1.698958251585952E9, 0.0, 2023-11-02 16:50:51.585
238.0, -187500.02235174447, 187500.0, 576.1385650799948, 32393.399762320492, 187500.0, 187500.0, -187500.02235174447, 36964.59972436425, -0.08, 0.976, 0.04, 192.0, 0.0, 0.0, 0.0, 0.0, 0.0, 0.0, 0.0, 0.0, 0.0, 1.6989582515859613E9, 0.0, 2023-11-02 16:50:51.585
239.0, -187500.02235174447, 187500.0, 561.811096884143, 32410.342384617616, 187500.0, 187500.0, -187500.02235174447, 36950.74164280196, -0.08, 0.976, 0.04, 192.0, 0.0, 0.0, 0.0, 0.0, 0.0, 0.0, 0.0, 0.0, 0.0, 1.6989582515859709E9, 0.0, 2023-11-02 16:50:51.585
240.0, -187500.02235174447, 187500.0, 560.5593991946458, 32415.460934097882, 187500.0, 187500.0, -187500.02235174447, 36951.03221547988, -0.08, 0.976, 0.04, 192.0, 0.0, 0.0, 0.0, 0.0, 0.0, 0.0, 0.0, 0.0, 0.0, 1.6989582515859804E9, 0.0, 2023-11-02 16:50:51.585
241.0, -187500.02235174447, 187500.0, 567.0861085755955, 32404.64268978151, 187500.0, 187500.0, -187500.02235174447, 36957.60362834974, -0.08, 0.976, 0.04, 192.0, 0.0, 0.0, 0.0, 0.0, 0.0, 0.0, 0.0, 0.0, 0.0, 1.6989582515859897E9, 0.0, 2023-11-02 16:50:51.585
242.0, -187500.02235174447, 187500.0, 581.8606116605534, 32398.920643200952, 187500.0, 187500.0, -187500.02235174447, 36971.19348897856, -0.08, 0.976, 0.04, 192.0, 0.0, 0.0, 0.0, 0.0, 0.0, 0.0, 0.0, 0.0, 0.0, 1.6989582515859993E9, 0.0, 2023-11-02 16:50:51.585
243.0, -187500.02235174447, 187500.0, 582.8887919054976, 32426.79326853672, 187500.0, 187500.0, -187500.02235174447, 36972.489890156976, -0.08, 0.976, 0.04, 192.0, 0.0, 0.0, 0.0, 0.0, 0.0, 0.0, 0.0, 0.0, 0.0, 1.6989582515860302E9, 0.0, 2023-11-02 16:50:51.586
244.0, -187500.02235174447, 187500.0, 573.0316726007071, 32444.026463511764, 187500.0, 187500.0, -187500.02235174447, 36962.968047019014, -0.08600000000000001, 0.982, 0.048, 192.0, 253.0, 80.0, 30.0, 176.0, 1.0, 128.0, 0.0, 0.0, 0.0, 1.6989582515860398E9, 0.0, 2023-11-02 16:50:51.586
245.0, -187500.02235174447, 187500.0, 570.841201644087, 32419.953634733396, 187500.0, 187500.0, -187500.02235174447, 36957.55892486083, -0.08600000000000001, 0.982, 0.048, 192.0, 0.0, 0.0, 0.0, 0.0, 0.0, 0.0, 0.0, 0.0, 0.0, 1.6989582515860512E9, 0.0, 2023-11-02 16:50:51.586
246.0, -187500.02235174447, 187500.0, 569.4330417434028, 32391.9468989309, 187500.0, 187500.0, -187500.02235174447, 36953.535610858875, -0.08600000000000001, 0.982, 0.048, 192.0, 0.0, 0.0, 0.0, 0.0, 0.0, 0.0, 0.0, 0.0, 0.0, 1.6989582515860617E9, 0.0, 2023-11-02 16:50:51.586
247.0, -187500.02235174447, 187500.0, 575.713881935344, 32397.333669344625, 187500.0, 187500.0, -187500.02235174447, 36960.82227955131, -0.08600000000000001, 0.982, 0.048, 192.0, 0.0, 0.0, 0.0, 0.0, 0.0, 0.0, 0.0, 0.0, 0.0, 1.6989582515860713E9, 0.0, 2023-11-02 16:50:51.586
248.0, -187500.02235174447, 187500.0, 567.9578266093524, 32434.728137818354, 187500.0, 187500.0, -187500.02235174447, 36956.55309636034, -0.08600000000000001, 0.982, 0.048, 192.0, 0.0, 0.0, 0.0, 0.0, 0.0, 0.0, 0.0, 0.0, 0.0, 1.6989582515860808E9, 0.0, 2023-11-02 16:50:51.586
249.0, -187500.02235174447, 187500.0, 574.1269080790172, 32435.823373296666, 187500.0, 187500.0, -187500.02235174447, 36962.31984642981, -0.08600000000000001, 0.982, 0.048, 192.0, 0.0, 0.0, 0.0, 0.0, 0.0, 0.0, 0.0, 0.0, 0.0, 1.6989582515860906E9, 0.0, 2023-11-02 16:50:51.586
250.0, -187500.02235174447, 187500.0, 582.7323296943105, 32425.072184213663, 187500.0, 187500.0, -187500.02235174447, 36969.539459888874, -0.08600000000000001, 0.982, 0.048, 192.0, 0.0, 0.0, 0.0, 0.0, 0.0, 0.0, 0.0, 0.0, 0.0, 1.6989582515861E9, 0.0, 2023-11-02 16:50:51.586
251.0, -187500.02235174447, 187500.0, 584.7886901841987, 32433.23057093985, 187500.0, 187500.0, -187500.02235174447, 36970.478233156, -0.08600000000000001, 0.982, 0.048, 192.0, 0.0, 0.0, 0.0, 0.0, 0.0, 0.0, 0.0, 0.0, 0.0, 1.6989582515861096E9, 0.0, 2023-11-02 16:50:51.586
252.0, -187500.02235174447, 187500.0, 577.8596494030535, 32457.99630379633, 187500.0, 187500.0, -187500.02235174447, 36964.68913134207, -0.08600000000000001, 0.982, 0.048, 192.0, 0.0, 0.0, 0.0, 0.0, 0.0, 0.0, 0.0, 0.0, 0.0, 1.6989582515861192E9, 0.0, 2023-11-02 16:50:51.586
253.0, -187500.02235174447, 187500.0, 567.4213847424251, 32447.714501346887, 187500.0, 187500.0, -187500.02235174447, 36952.99916899195, -0.08600000000000001, 0.982, 0.048, 192.0, 0.0, 0.0, 0.0, 0.0, 0.0, 0.0, 0.0, 0.0, 0.0, 1.6989582515861287E9, 0.0, 2023-11-02 16:50:51.586
254.0, -187500.02235174447, 187500.0, 579.6924924483886, 32429.095498215618, 187500.0, 187500.0, -187500.02235174447, 36960.732872573484, -0.088, 0.982, 0.052000000000000005, 192.0, 253.0, 64.0, 30.0, 176.0, 1.0, 160.0, 0.0, 0.0, 0.0, 1.698958251586138E9, 0.0, 2023-11-02 16:50:51.586
255.0, -187500.02235174447, 187500.0, 577.0326348582071, 32438.95261752041, 187500.0, 187500.0, -187500.02235174447, 36957.15659346063, -0.088, 0.982, 0.052000000000000005, 192.0, 0.0, 0.0, 0.0, 0.0, 0.0, 0.0, 0.0, 0.0, 0.0, 1.6989582515861483E9, 0.0, 2023-11-02 16:50:51.586
0.0, -187500.02235174447, 187500.0, 569.9918353547854, 32447.401576924512, 187500.0, 187500.0, -187500.02235174447, 36953.55796260333, -0.088, 0.982, 0.052000000000000005, 192.0, 0.0, 0.0, 0.0, 0.0, 0.0, 0.0, 0.0, 0.0, 0.0, 1.6989582515861757E9, 0.0, 2023-11-02 16:50:51.586
1.0, -187500.02235174447, 187500.0, 570.4388702438915, 32444.875829801065, 187500.0, 187500.0, -187500.02235174447, 36953.602666092236, -0.088, 0.982, 0.052000000000000005, 192.0, 0.0, 0.0, 0.0, 0.0, 0.0, 0.0, 0.0, 0.0, 0.0, 1.6989582515861855E9, 0.0, 2023-11-02 16:50:51.586
2.0, -187500.02235174447, 187500.0, 564.8732858745201, 32415.148009675508, 187500.0, 187500.0, -187500.02235174447, 36944.997244476945, -0.088, 0.982, 0.052000000000000005, 192.0, 0.0, 0.0, 0.0, 0.0, 0.0, 0.0, 0.0, 0.0, 0.0, 1.698958251586223E9, 0.0, 2023-11-02 16:50:51.586
3.0, -187500.02235174447, 187500.0, 569.5448004656793, 32424.200466179904, 187500.0, 187500.0, -187500.02235174447, 36947.1206602002, -0.088, 0.982, 0.052000000000000005, 192.0, 0.0, 0.0, 0.0, 0.0, 0.0, 0.0, 0.0, 0.0, 0.0, 1.6989582515862331E9, 0.0, 2023-11-02 16:50:51.586
4.0, -187500.02235174447, 187500.0, 568.2707510317267, 32458.599800896623, 187500.0, 187500.0, -187500.02235174447, 36945.66779681061, -0.088, 0.982, 0.052000000000000005, 192.0, 0.0, 0.0, 0.0, 0.0, 0.0, 0.0, 0.0, 0.0, 0.0, 1.6989582515862436E9, 0.0, 2023-11-02 16:50:51.586
5.0, -187500.02235174447, 187500.0, 563.4204224849251, 32459.002132296817, 187500.0, 187500.0, -187500.02235174447, 36943.07499445379, -0.088, 0.982, 0.052000000000000005, 192.0, 0.0, 0.0, 0.0, 0.0, 0.0, 0.0, 0.0, 0.0, 0.0, 1.6989582515862536E9, 0.0, 2023-11-02 16:50:51.586
6.0, -187500.02235174447, 187500.0, 565.163858552439, 32418.768992277266, 187500.0, 187500.0, -187500.02235174447, 36945.578389832786, -0.088, 0.982, 0.052000000000000005, 192.0, 0.0, 0.0, 0.0, 0.0, 0.0, 0.0, 0.0, 0.0, 0.0, 1.6989582515862813E9, 0.0, 2023-11-02 16:50:51.586
7.0, -187500.02235174447, 187500.0, 563.196905040372, 32398.4959600563, 187500.0, 187500.0, -187500.02235174447, 36943.812602020815, -0.082, 0.984, 0.052000000000000005, 192.0, 253.0, 112.0, 30.0, 192.0, 1.0, 160.0, 0.0, 0.0, 0.0, 1.6989582515863073E9, 0.0, 2023-11-02 16:50:51.586
8.0, -187500.02235174447, 187500.0, 561.7440416507771, 32427.79909703721, 187500.0, 187500.0, -187500.02235174447, 36942.58325607577, -0.082, 0.984, 0.052000000000000005, 192.0, 0.0, 0.0, 0.0, 0.0, 0.0, 0.0, 0.0, 0.0, 0.0, 1.6989582515863364E9, 0.0, 2023-11-02 16:50:51.586
9.0, -187500.02235174447, 187500.0, 563.2416085292826, 32442.819469311176, 187500.0, 187500.0, -187500.02235174447, 36942.82912526478, -0.082, 0.984, 0.052000000000000005, 192.0, 0.0, 0.0, 0.0, 0.0, 0.0, 0.0, 0.0, 0.0, 0.0, 1.698958251586346E9, 0.0, 2023-11-02 16:50:51.586
10.0, -187500.02235174447, 187500.0, 575.2891987906931, 32431.80005929471, 187500.0, 187500.0, -187500.02235174447, 36952.3733201472, -0.082, 0.984, 0.052000000000000005, 192.0, 0.0, 0.0, 0.0, 0.0, 0.0, 0.0, 0.0, 0.0, 0.0, 1.6989582515863557E9, 0.0, 2023-11-02 16:50:51.586
11.0, -187500.02235174447, 187500.0, 581.2347628158049, 32430.74952730531, 187500.0, 187500.0, -187500.02235174447, 36959.50352662844, -0.082, 0.984, 0.052000000000000005, 192.0, 0.0, 0.0, 0.0, 0.0, 0.0, 0.0, 0.0, 0.0, 0.0, 1.698958251586386E9, 0.0, 2023-11-02 16:50:51.586
12.0, -187500.02235174447, 187500.0, 576.9879313692965, 32442.618303611078, 187500.0, 187500.0, -187500.02235174447, 36955.480212626484, -0.082, 0.984, 0.052000000000000005, 192.0, 0.0, 0.0, 0.0, 0.0, 0.0, 0.0, 0.0, 0.0, 0.0, 1.6989582515863965E9, 0.0, 2023-11-02 16:50:51.586
13.0, -187500.02235174447, 187500.0, 563.1522015514614, 32459.359760208103, 187500.0, 187500.0, -187500.02235174447, 36941.82329676429, -0.082, 0.984, 0.052000000000000005, 192.0, 0.0, 0.0, 0.0, 0.0, 0.0, 0.0, 0.0, 0.0, 0.0, 1.6989582515864067E9, 0.0, 2023-11-02 16:50:51.586
14.0, -187500.02235174447, 187500.0, 562.2804835177045, 32440.338425676637, 187500.0, 187500.0, -187500.02235174447, 36939.07403219629, -0.082, 0.984, 0.052000000000000005, 192.0, 0.0, 0.0, 0.0, 0.0, 0.0, 0.0, 0.0, 0.0, 0.0, 1.6989582515864172E9, 0.0, 2023-11-02 16:50:51.586
15.0, -187500.02235174447, 187500.0, 567.7119574203441, 32432.671777328465, 187500.0, 187500.0, -187500.02235174447, 36942.82912526478, -0.082, 0.984, 0.052000000000000005, 192.0, 0.0, 0.0, 0.0, 0.0, 0.0, 0.0, 0.0, 0.0, 0.0, 1.698958251586428E9, 0.0, 2023-11-02 16:50:51.586
16.0, -187500.02235174447, 187500.0, 568.87424813202, 32456.09640551763, 187500.0, 187500.0, -187500.02235174447, 36943.43262236507, -0.082, 0.984, 0.052000000000000005, 192.0, 0.0, 0.0, 0.0, 0.0, 0.0, 0.0, 0.0, 0.0, 0.0, 1.6989582515864403E9, 0.0, 2023-11-02 16:50:51.586
17.0, -187500.02235174447, 187500.0, 559.9782538388079, 32475.00598132682, 187500.0, 187500.0, -187500.02235174447, 36933.4190408491, -0.076, 0.976, 0.044, 192.0, 253.0, 160.0, 30.0, 128.0, 1.0, 96.0, 0.0, 0.0, 0.0, 1.6989582515865E9, 0.0, 2023-11-02 16:50:51.586
18.0, -187500.02235174447, 187500.0, 570.5059254772575, 32468.635734157055, 187500.0, 187500.0, -187500.02235174447, 36941.64448280865, -0.076, 0.976, 0.044, 192.0, 0.0, 0.0, 0.0, 0.0, 0.0, 0.0, 0.0, 0.0, 0.0, 1.6989582515865138E9, 0.0, 2023-11-02 16:50:51.586
19.0, -187500.02235174447, 187500.0, 575.5127162352462, 32458.89037357454, 187500.0, 187500.0, -187500.02235174447, 36947.16536368911, -0.076, 0.976, 0.044, 192.0, 0.0, 0.0, 0.0, 0.0, 0.0, 0.0, 0.0, 0.0, 0.0, 1.6989582515865407E9, 0.0, 2023-11-02 16:50:51.586
20.0, -187500.02235174447, 187500.0, 575.7809371687099, 32469.32863823517, 187500.0, 187500.0, -187500.02235174447, 36949.17702069009, -0.076, 0.976, 0.044, 192.0, 0.0, 0.0, 0.0, 0.0, 0.0, 0.0, 0.0, 0.0, 0.0, 1.6989582515865512E9, 0.0, 2023-11-02 16:50:51.586
21.0, -187500.02235174447, 187500.0, 568.6060271985564, 32494.586109469667, 187500.0, 187500.0, -187500.02235174447, 36944.55020958784, -0.076, 0.976, 0.044, 192.0, 0.0, 0.0, 0.0, 0.0, 0.0, 0.0, 0.0, 0.0, 0.0, 1.698958251586564E9, 0.0, 2023-11-02 16:50:51.586
22.0, -187500.02235174447, 187500.0, 574.5739429681233, 32486.070094832194, 187500.0, 187500.0, -187500.02235174447, 36948.72998580098, -0.076, 0.976, 0.044, 192.0, 0.0, 0.0, 0.0, 0.0, 0.0, 0.0, 0.0, 0.0, 0.0, 1.698958251586575E9, 0.0, 2023-11-02 16:50:51.586
23.0, -187500.02235174447, 187500.0, 587.1579750964612, 32472.301420247728, 187500.0, 187500.0, -187500.02235174447, 36960.799927806846, -0.076, 0.976, 0.044, 192.0, 0.0, 0.0, 0.0, 0.0, 0.0, 0.0, 0.0, 0.0, 0.0, 1.6989582515865867E9, 0.0, 2023-11-02 16:50:51.586
24.0, -187500.02235174447, 187500.0, 585.8392221735982, 32479.163405795505, 187500.0, 187500.0, -187500.02235174447, 36960.77757606239, -0.076, 0.976, 0.044, 192.0, 0.0, 0.0, 0.0, 0.0, 0.0, 0.0, 0.0, 0.0, 0.0, 1.698958251586606E9, 0.0, 2023-11-02 16:50:51.586
25.0, -187500.02235174447, 187500.0, 574.5292394792127, 32500.308156050225, 187500.0, 187500.0, -187500.02235174447, 36947.1206602002, -0.076, 0.976, 0.044, 192.0, 0.0, 0.0, 0.0, 0.0, 0.0, 0.0, 0.0, 0.0, 0.0, 1.6989582515866208E9, 0.0, 2023-11-02 16:50:51.586
26.0, -187500.02235174447, 187500.0, 577.680835447411, 32499.14586533855, 187500.0, 187500.0, -187500.02235174447, 36947.9700264895, -0.076, 0.976, 0.044, 192.0, 0.0, 0.0, 0.0, 0.0, 0.0, 0.0, 0.0, 0.0, 0.0, 1.698958251586636E9, 0.0, 2023-11-02 16:50:51.586
27.0, -187500.02235174447, 187500.0, 584.1181378505395, 32489.221690800394, 187500.0, 187500.0, -187500.02235174447, 36952.976817247494, -0.082, 0.972, 0.042, 192.0, 253.0, 112.0, 30.0, 96.0, 1.0, 80.0, 0.0, 0.0, 0.0, 1.6989582515866566E9, 0.0, 2023-11-02 16:50:51.586
28.0, -187500.02235174447, 187500.0, 586.5768297406232, 32482.58322269717, 187500.0, 187500.0, -187500.02235174447, 36955.05552948183, -0.082, 0.972, 0.042, 192.0, 0.0, 0.0, 0.0, 0.0, 0.0, 0.0, 0.0, 0.0, 0.0, 1.6989582515866737E9, 0.0, 2023-11-02 16:50:51.586
29.0, -187500.02235174447, 187500.0, 584.5651727396456, 32499.39173452756, 187500.0, 187500.0, -187500.02235174447, 36953.71442481451, -0.082, 0.972, 0.042, 192.0, 0.0, 0.0, 0.0, 0.0, 0.0, 0.0, 0.0, 0.0, 0.0, 1.698958251586696E9, 0.0, 2023-11-02 16:50:51.586
30.0, -187500.02235174447, 187500.0, 574.0598528456513, 32504.934967152476, 187500.0, 187500.0, -187500.02235174447, 36944.237285165465, -0.082, 0.972, 0.042, 192.0, 0.0, 0.0, 0.0, 0.0, 0.0, 0.0, 0.0, 0.0, 0.0, 1.698958251586712E9, 0.0, 2023-11-02 16:50:51.586
31.0, -187500.02235174447, 187500.0, 575.0433296016848, 32482.918498863997, 187500.0, 187500.0, -187500.02235174447, 36946.539514844364, -0.082, 0.972, 0.042, 192.0, 0.0, 0.0, 0.0, 0.0, 0.0, 0.0, 0.0, 0.0, 0.0, 1.6989582515867271E9, 0.0, 2023-11-02 16:50:51.586
32.0, -187500.02235174447, 187500.0, 588.8343559306093, 32470.24505975784, 187500.0, 187500.0, -187500.02235174447, 36960.41994815111, -0.082, 0.972, 0.042, 192.0, 0.0, 0.0, 0.0, 0.0, 0.0, 0.0, 0.0, 0.0, 0.0, 1.6989582515867653E9, 0.0, 2023-11-02 16:50:51.586
33.0, -187500.02235174447, 187500.0, 582.3076465496596, 32494.496702491848, 187500.0, 187500.0, -187500.02235174447, 36952.10509921373, -0.082, 0.972, 0.042, 192.0, 0.0, 0.0, 0.0, 0.0, 0.0, 0.0, 0.0, 0.0, 0.0, 1.698958251586856E9, 0.0, 2023-11-02 16:50:51.586
34.0, -187500.02235174447, 187500.0, 572.2270098003161, 32499.458789760924, 187500.0, 187500.0, -187500.02235174447, 36940.057508952326, -0.082, 0.972, 0.042, 192.0, 0.0, 0.0, 0.0, 0.0, 0.0, 0.0, 0.0, 0.0, 0.0, 1.6989582515868735E9, 0.0, 2023-11-02 16:50:51.586
35.0, -187500.02235174447, 187500.0, 572.1823063114055, 32468.43456845696, 187500.0, 187500.0, -187500.02235174447, 36936.347119372746, -0.082, 0.972, 0.042, 192.0, 0.0, 0.0, 0.0, 0.0, 0.0, 0.0, 0.0, 0.0, 0.0, 1.6989582515868883E9, 0.0, 2023-11-02 16:50:51.586
36.0, -187500.02235174447, 187500.0, 574.3951290124809, 32461.729045120366, 187500.0, 187500.0, -187500.02235174447, 36937.93409322907, -0.082, 0.972, 0.042, 192.0, 0.0, 0.0, 0.0, 0.0, 0.0, 0.0, 0.0, 0.0, 0.0, 1.6989582515869036E9, 0.0, 2023-11-02 16:50:51.586
37.0, -187500.02235174447, 187500.0, 576.7197104358328, 32493.80379841373, 187500.0, 187500.0, -187500.02235174447, 36940.392785119155, -0.08600000000000001, 0.974, 0.044, 192.0, 253.0, 80.0, 30.0, 112.0, 1.0, 96.0, 0.0, 0.0, 0.0, 1.6989582515869248E9, 0.0, 2023-11-02 16:50:51.586
38.0, -187500.02235174447, 187500.0, 564.9626928523413, 32521.721127238412, 187500.0, 187500.0, -187500.02235174447, 36928.702822769024, -0.08600000000000001, 0.974, 0.044, 192.0, 0.0, 0.0, 0.0, 0.0, 0.0, 0.0, 0.0, 0.0, 0.0, 1.6989582515869453E9, 0.0, 2023-11-02 16:50:51.586
39.0, -187500.02235174447, 187500.0, 561.7887451396878, 32503.035068873774, 187500.0, 187500.0, -187500.02235174447, 36923.047831421834, -0.08600000000000001, 0.974, 0.044, 192.0, 0.0, 0.0, 0.0, 0.0, 0.0, 0.0, 0.0, 0.0, 0.0, 1.698958251586966E9, 0.0, 2023-11-02 16:50:51.586
40.0, -187500.02235174447, 187500.0, 573.2104865563497, 32484.4160657425, 187500.0, 187500.0, -187500.02235174447, 36930.468610580996, -0.08600000000000001, 0.974, 0.044, 192.0, 0.0, 0.0, 0.0, 0.0, 0.0, 0.0, 0.0, 0.0, 0.0, 1.698958251587044E9, 0.0, 2023-11-02 16:50:51.587
41.0, -187500.02235174447, 187500.0, 580.3406930375926, 32495.323717036692, 187500.0, 187500.0, -187500.02235174447, 36935.18482866107, -0.08600000000000001, 0.974, 0.044, 192.0, 0.0, 0.0, 0.0, 0.0, 0.0, 0.0, 0.0, 0.0, 0.0, 1.698958251587083E9, 0.0, 2023-11-02 16:50:51.587
42.0, -187500.02235174447, 187500.0, 573.2775417897155, 32523.66572900602, 187500.0, 187500.0, -187500.02235174447, 36928.05462217982, -0.08600000000000001, 0.974, 0.044, 192.0, 0.0, 0.0, 0.0, 0.0, 0.0, 0.0, 0.0, 0.0, 0.0, 1.698958251587123E9, 0.0, 2023-11-02 16:50:51.587
43.0, -187500.02235174447, 187500.0, 565.0520998301625, 32515.082659135183, 187500.0, 187500.0, -187500.02235174447, 36918.75629648642, -0.08600000000000001, 0.974, 0.044, 192.0, 0.0, 0.0, 0.0, 0.0, 0.0, 0.0, 0.0, 0.0, 0.0, 1.6989582515871403E9, 0.0, 2023-11-02 16:50:51.587
44.0, -187500.02235174447, 187500.0, 578.843126159087, 32494.250833302838, 187500.0, 187500.0, -187500.02235174447, 36931.74266001495, -0.08600000000000001, 0.974, 0.044, 192.0, 0.0, 0.0, 0.0, 0.0, 0.0, 0.0, 0.0, 0.0, 0.0, 1.6989582515871544E9, 0.0, 2023-11-02 16:50:51.587
45.0, -187500.02235174447, 187500.0, 587.2697338187378, 32511.19345559996, 187500.0, 187500.0, -187500.02235174447, 36941.97975897548, -0.08600000000000001, 0.974, 0.044, 192.0, 0.0, 0.0, 0.0, 0.0, 0.0, 0.0, 0.0, 0.0, 0.0, 1.6989582515871668E9, 0.0, 2023-11-02 16:50:51.587
46.0, -187500.02235174447, 187500.0, 581.5253354937239, 32537.412051846037, 187500.0, 187500.0, -187500.02235174447, 36937.68822404006, -0.08600000000000001, 0.974, 0.044, 192.0, 0.0, 0.0, 0.0, 0.0, 0.0, 0.0, 0.0, 0.0, 0.0, 1.6989582515871794E9, 0.0, 2023-11-02 16:50:51.587
47.0, -187500.02235174447, 187500.0, 583.358178539059, 32530.773583742808, 187500.0, 187500.0, -187500.02235174447, 36938.87286649619, -0.08, 0.98, 0.046, 192.0, 253.0, 128.0, 30.0, 160.0, 1.0, 112.0, 0.0, 0.0, 0.0, 1.6989582515872002E9, 0.0, 2023-11-02 16:50:51.587
0.0, 0.0, 0.0, 0.0, 0.0, 0.0, 0.0, 0.0, 0.0, -0.08, 0.98, 0.046, 192.0, 0.0, 0.0, 0.0, 0.0, 0.0, 0.0, 0.0, 0.0, 0.0, 1.6989582516897917E9, 0.0, 2023-11-02 16:50:51.689
1.0, -187500.02235174447, 187500.0, 2376.303360021515, 47809.2861544235, 187500.0, 187500.0, -187500.02235174447, 38065.780766699405, -0.082, 0.982, 0.026000000000000002, 192.0, 253.0, 112.0, 30.0, 176.0, 0.0, 208.0, 0.0, 0.0, 0.0, 1.698958251705526E9, 0.0, 2023-11-02 16:50:51.705
2.0, -187500.02235174447, 187500.0, 2380.393729256836, 47796.16568042823, 187500.0, 187500.0, -187500.02235174447, 38069.82643244582, -0.082, 0.982, 0.026000000000000002, 192.0, 0.0, 0.0, 0.0, 0.0, 0.0, 0.0, 0.0, 0.0, 0.0, 1.6989582521834595E9, 0.0, 2023-11-02 16:50:52.183
3.0, -187500.02235174447, 187500.0, 2387.3227700379816, 47759.8217439439, 187500.0, 187500.0, -187500.02235174447, 38078.20833661656, -0.082, 0.982, 0.026000000000000002, 192.0, 0.0, 0.0, 0.0, 0.0, 0.0, 0.0, 0.0, 0.0, 0.0, 1.6989582521836565E9, 0.0, 2023-11-02 16:50:52.183
4.0, -187500.02235174447, 187500.0, 2380.9078193793084, 47767.667206247716, 187500.0, 187500.0, -187500.02235174447, 38072.486290036, -0.082, 0.982, 0.026000000000000002, 192.0, 0.0, 0.0, 0.0, 0.0, 0.0, 0.0, 0.0, 0.0, 0.0, 1.698958252183692E9, 0.0, 2023-11-02 16:50:52.183
5.0, -187500.02235174447, 187500.0, 2379.142031567339, 47799.56314558544, 187500.0, 187500.0, -187500.02235174447, 38069.982894657005, -0.082, 0.982, 0.026000000000000002, 192.0, 0.0, 0.0, 0.0, 0.0, 0.0, 0.0, 0.0, 0.0, 0.0, 1.6989582521837685E9, 0.0, 2023-11-02 16:50:52.183
6.0, -187500.02235174447, 187500.0, 2376.6386361883447, 47802.91590725374, 187500.0, 187500.0, -187500.02235174447, 38066.406615544154, -0.082, 0.982, 0.026000000000000002, 192.0, 0.0, 0.0, 0.0, 0.0, 0.0, 0.0, 0.0, 0.0, 0.0, 1.6989582521837816E9, 0.0, 2023-11-02 16:50:52.183
7.0, -187500.02235174447, 187500.0, 2380.0584530900064, 47765.074403890896, 187500.0, 187500.0, -187500.02235174447, 38070.22876384601, -0.082, 0.982, 0.026000000000000002, 192.0, 0.0, 0.0, 0.0, 0.0, 0.0, 0.0, 0.0, 0.0, 0.0, 1.698958252183792E9, 0.0, 2023-11-02 16:50:52.183
8.0, -187500.02235174447, 187500.0, 2377.488002477646, 47756.0219473865, 187500.0, 187500.0, -187500.02235174447, 38070.45228129057, -0.08, 0.974, 0.014, 192.0, 253.0, 128.0, 30.0, 112.0, 0.0, 112.0, 0.0, 0.0, 0.0, 1.6989582521838048E9, 0.0, 2023-11-02 16:50:52.183
9.0, -187500.02235174447, 187500.0, 2384.5511537255234, 47774.26097086203, 187500.0, 187500.0, -187500.02235174447, 38078.05187440537, -0.08, 0.974, 0.014, 192.0, 0.0, 0.0, 0.0, 0.0, 0.0, 0.0, 0.0, 0.0, 0.0, 1.698958252183822E9, 0.0, 2023-11-02 16:50:52.183
10.0, -187500.02235174447, 187500.0, 2391.3907875288473, 47798.06557870693, 187500.0, 187500.0, -187500.02235174447, 38083.86332796375, -0.08, 0.974, 0.014, 192.0, 0.0, 0.0, 0.0, 0.0, 0.0, 0.0, 0.0, 0.0, 0.0, 1.6989582521838355E9, 0.0, 2023-11-02 16:50:52.183
11.0, -187500.02235174447, 187500.0, 2385.892258392842, 47786.37561635681, 187500.0, 187500.0, -187500.02235174447, 38079.2365168615, -0.08, 0.974, 0.014, 192.0, 0.0, 0.0, 0.0, 0.0, 0.0, 0.0, 0.0, 0.0, 0.0, 1.6989582521838477E9, 0.0, 2023-11-02 16:50:52.183
12.0, -187500.02235174447, 187500.0, 2385.892258392842, 47770.72939523809, 187500.0, 187500.0, -187500.02235174447, 38078.789481972395, -0.08, 0.974, 0.014, 192.0, 0.0, 0.0, 0.0, 0.0, 0.0, 0.0, 0.0, 0.0, 0.0, 1.6989582521838605E9, 0.0, 2023-11-02 16:50:52.183
13.0, -187500.02235174447, 187500.0, 2389.3791305278696, 47788.81195650244, 187500.0, 187500.0, -187500.02235174447, 38082.11989189624, -0.08, 0.974, 0.014, 192.0, 0.0, 0.0, 0.0, 0.0, 0.0, 0.0, 0.0, 0.0, 0.0, 1.6989582521838708E9, 0.0, 2023-11-02 16:50:52.183
14.0, -187500.02235174447, 187500.0, 2384.8640781478975, 47815.00820100406, 187500.0, 187500.0, -187500.02235174447, 38076.59901101578, -0.08, 0.974, 0.014, 192.0, 0.0, 0.0, 0.0, 0.0, 0.0, 0.0, 0.0, 0.0, 0.0, 1.698958252183882E9, 0.0, 2023-11-02 16:50:52.183
15.0, -187500.02235174447, 187500.0, 2391.6143049734005, 47791.74003502608, 187500.0, 187500.0, -187500.02235174447, 38083.59510703029, -0.08, 0.974, 0.014, 192.0, 0.0, 0.0, 0.0, 0.0, 0.0, 0.0, 0.0, 0.0, 0.0, 1.6989582521838932E9, 0.0, 2023-11-02 16:50:52.183
16.0, -187500.02235174447, 187500.0, 2392.0389881180513, 47777.77019474151, 187500.0, 187500.0, -187500.02235174447, 38085.83028147582, -0.08, 0.974, 0.014, 192.0, 0.0, 0.0, 0.0, 0.0, 0.0, 0.0, 0.0, 0.0, 0.0, 1.6989582521843002E9, 0.0, 2023-11-02 16:50:52.184
17.0, -187500.02235174447, 187500.0, 2393.2906858075485, 47799.74195954108, 187500.0, 187500.0, -187500.02235174447, 38088.73600825501, -0.08, 0.974, 0.014, 192.0, 0.0, 0.0, 0.0, 0.0, 0.0, 0.0, 0.0, 0.0, 0.0, 1.6989582521843228E9, 0.0, 2023-11-02 16:50:52.184
18.0, -187500.02235174447, 187500.0, 2388.976799127674, 47827.88280581031, 187500.0, 187500.0, -187500.02235174447, 38085.718522753545, -0.082, 0.986, 0.016, 192.0, 253.0, 112.0, 30.0, 208.0, 0.0, 128.0, 0.0, 0.0, 0.0, 1.6989582521843548E9, 0.0, 2023-11-02 16:50:52.184
19.0, -187500.02235174447, 187500.0, 2393.2906858075485, 47803.69821830967, 187500.0, 187500.0, -187500.02235174447, 38087.327848354325, -0.082, 0.986, 0.016, 192.0, 0.0, 0.0, 0.0, 0.0, 0.0, 0.0, 0.0, 0.0, 0.0, 1.6989582521843684E9, 0.0, 2023-11-02 16:50:52.184
20.0, -187500.02235174447, 187500.0, 2397.023427131585, 47773.188087128176, 187500.0, 187500.0, -187500.02235174447, 38088.26662162145, -0.082, 0.986, 0.016, 192.0, 0.0, 0.0, 0.0, 0.0, 0.0, 0.0, 0.0, 0.0, 0.0, 1.6989582521843803E9, 0.0, 2023-11-02 16:50:52.184
21.0, -187500.02235174447, 187500.0, 2400.7114649667105, 47793.01408446003, 187500.0, 187500.0, -187500.02235174447, 38093.22870889053, -0.082, 0.986, 0.016, 192.0, 0.0, 0.0, 0.0, 0.0, 0.0, 0.0, 0.0, 0.0, 0.0, 1.6989582521843925E9, 0.0, 2023-11-02 16:50:52.184
22.0, -187500.02235174447, 187500.0, 2389.982627628163, 47835.16947450274, 187500.0, 187500.0, -187500.02235174447, 38082.94690644108, -0.082, 0.986, 0.016, 192.0, 0.0, 0.0, 0.0, 0.0, 0.0, 0.0, 0.0, 0.0, 0.0, 1.6989582521844037E9, 0.0, 2023-11-02 16:50:52.184
23.0, -187500.02235174447, 187500.0, 2396.5093370091126, 47814.11413122584, 187500.0, 187500.0, -187500.02235174447, 38086.769054742945, -0.082, 0.986, 0.016, 192.0, 0.0, 0.0, 0.0, 0.0, 0.0, 0.0, 0.0, 0.0, 0.0, 1.6989582521844144E9, 0.0, 2023-11-02 16:50:52.184
24.0, -187500.02235174447, 187500.0, 2394.9000114083306, 47791.11418618133, 187500.0, 187500.0, -187500.02235174447, 38085.87498496473, -0.082, 0.986, 0.016, 192.0, 0.0, 0.0, 0.0, 0.0, 0.0, 0.0, 0.0, 0.0, 0.0, 1.6989582521844435E9, 0.0, 2023-11-02 16:50:52.184
25.0, -187500.02235174447, 187500.0, 2394.6094387304115, 47795.763349028035, 187500.0, 187500.0, -187500.02235174447, 38084.44447331959, -0.082, 0.986, 0.016, 192.0, 0.0, 0.0, 0.0, 0.0, 0.0, 0.0, 0.0, 0.0, 0.0, 1.698958252184454E9, 0.0, 2023-11-02 16:50:52.184
26.0, -187500.02235174447, 187500.0, 2390.876697406375, 47829.51448315555, 187500.0, 187500.0, -187500.02235174447, 38079.95177268407, -0.082, 0.986, 0.016, 192.0, 0.0, 0.0, 0.0, 0.0, 0.0, 0.0, 0.0, 0.0, 0.0, 1.698958252184466E9, 0.0, 2023-11-02 16:50:52.184
27.0, -187500.02235174447, 187500.0, 2386.4510520042245, 47824.93237554221, 187500.0, 187500.0, -187500.02235174447, 38075.72729298202, -0.082, 0.986, 0.016, 192.0, 0.0, 0.0, 0.0, 0.0, 0.0, 0.0, 0.0, 0.0, 0.0, 1.6989582521844833E9, 0.0, 2023-11-02 16:50:52.184
28.0, -187500.02235174447, 187500.0, 2384.2605810476043, 47792.27647689301, 187500.0, 187500.0, -187500.02235174447, 38072.01690340244, -0.082, 0.984, 0.018000000000000002, 192.0, 253.0, 112.0, 30.0, 192.0, 0.0, 144.0, 0.0, 0.0, 0.0, 1.6989582521844945E9, 0.0, 2023-11-02 16:50:52.184
29.0, -187500.02235174447, 187500.0, 2380.2819705345596, 47790.22011640312, 187500.0, 187500.0, -187500.02235174447, 38067.47949927801, -0.082, 0.984, 0.018000000000000002, 192.0, 0.0, 0.0, 0.0, 0.0, 0.0, 0.0, 0.0, 0.0, 0.0, 1.6989582521845057E9, 0.0, 2023-11-02 16:50:52.184
30.0, -187500.02235174447, 187500.0, 2373.330578008959, 47829.961518044656, 187500.0, 187500.0, -187500.02235174447, 38059.61168522974, -0.082, 0.984, 0.018000000000000002, 192.0, 0.0, 0.0, 0.0, 0.0, 0.0, 0.0, 0.0, 0.0, 0.0, 1.6989582521845188E9, 0.0, 2023-11-02 16:50:52.184
31.0, -187500.02235174447, 187500.0, 2375.9904355991407, 47837.18113150372, 187500.0, 187500.0, -187500.02235174447, 38062.5844672423, -0.082, 0.984, 0.018000000000000002, 192.0, 0.0, 0.0, 0.0, 0.0, 0.0, 0.0, 0.0, 0.0, 0.0, 1.698958252184628E9, 0.0, 2023-11-02 16:50:52.184
32.0, -187500.02235174447, 187500.0, 2383.5453252250345, 47812.951840514164, 187500.0, 187500.0, -187500.02235174447, 38069.51350802345, -0.082, 0.984, 0.018000000000000002, 192.0, 0.0, 0.0, 0.0, 0.0, 0.0, 0.0, 0.0, 0.0, 0.0, 1.6989582521846395E9, 0.0, 2023-11-02 16:50:52.184
33.0, -187500.02235174447, 187500.0, 2386.5181072375904, 47818.38331441681, 187500.0, 187500.0, -187500.02235174447, 38071.61457200225, -0.082, 0.984, 0.018000000000000002, 192.0, 0.0, 0.0, 0.0, 0.0, 0.0, 0.0, 0.0, 0.0, 0.0, 1.698958252184651E9, 0.0, 2023-11-02 16:50:52.184
34.0, -187500.02235174447, 187500.0, 2388.7532816831213, 47859.01878583655, 187500.0, 187500.0, -187500.02235174447, 38074.27442959243, -0.082, 0.984, 0.018000000000000002, 192.0, 0.0, 0.0, 0.0, 0.0, 0.0, 0.0, 0.0, 0.0, 0.0, 1.6989582521846628E9, 0.0, 2023-11-02 16:50:52.184
35.0, -187500.02235174447, 187500.0, 2391.211973573205, 47878.1518790903, 187500.0, 187500.0, -187500.02235174447, 38075.436720304104, -0.082, 0.984, 0.018000000000000002, 192.0, 0.0, 0.0, 0.0, 0.0, 0.0, 0.0, 0.0, 0.0, 0.0, 1.698958252184674E9, 0.0, 2023-11-02 16:50:52.184
36.0, -187500.02235174447, 187500.0, 2397.783386443065, 47851.977986333135, 187500.0, 187500.0, -187500.02235174447, 38080.77878722892, -0.082, 0.984, 0.018000000000000002, 192.0, 0.0, 0.0, 0.0, 0.0, 0.0, 0.0, 0.0, 0.0, 0.0, 1.698958252184685E9, 0.0, 2023-11-02 16:50:52.184
37.0, -187500.02235174447, 187500.0, 2398.699807965733, 47838.835160593415, 187500.0, 187500.0, -187500.02235174447, 38081.40463607367, -0.082, 0.984, 0.018000000000000002, 192.0, 0.0, 0.0, 0.0, 0.0, 0.0, 0.0, 0.0, 0.0, 0.0, 1.6989582521846962E9, 0.0, 2023-11-02 16:50:52.184
38.0, -187500.02235174447, 187500.0, 2399.2586015771153, 47862.5503614605, 187500.0, 187500.0, -187500.02235174447, 38083.751569241474, -0.092, 0.978, 0.014, 192.0, 253.0, 32.0, 30.0, 144.0, 0.0, 112.0, 0.0, 0.0, 0.0, 1.6989582521847067E9, 0.0, 2023-11-02 16:50:52.184
39.0, -187500.02235174447, 187500.0, 2393.6036102299227, 47896.167385121276, 187500.0, 187500.0, -187500.02235174447, 38077.671894749634, -0.092, 0.978, 0.014, 192.0, 0.0, 0.0, 0.0, 0.0, 0.0, 0.0, 0.0, 0.0, 0.0, 1.69895825218472E9, 0.0, 2023-11-02 16:50:52.184
40.0, -187500.02235174447, 187500.0, 2398.051607376529, 47877.19075407872, 187500.0, 187500.0, -187500.02235174447, 38079.996476172986, -0.092, 0.978, 0.014, 192.0, 0.0, 0.0, 0.0, 0.0, 0.0, 0.0, 0.0, 0.0, 0.0, 1.6989582521847303E9, 0.0, 2023-11-02 16:50:52.184
41.0, -187500.02235174447, 187500.0, 2399.973857399685, 47864.696128928204, 187500.0, 187500.0, -187500.02235174447, 38079.39297907269, -0.092, 0.978, 0.014, 192.0, 0.0, 0.0, 0.0, 0.0, 0.0, 0.0, 0.0, 0.0, 0.0, 1.6989582521847415E9, 0.0, 2023-11-02 16:50:52.184
42.0, -187500.02235174447, 187500.0, 2396.464633520202, 47892.36758856387, 187500.0, 187500.0, -187500.02235174447, 38077.82835696082, -0.092, 0.978, 0.014, 192.0, 0.0, 0.0, 0.0, 0.0, 0.0, 0.0, 0.0, 0.0, 0.0, 1.6989582521847525E9, 0.0, 2023-11-02 16:50:52.184
43.0, -187500.02235174447, 187500.0, 2385.8475549039313, 47935.14882745133, 187500.0, 187500.0, -187500.02235174447, 38069.848784190275, -0.092, 0.978, 0.014, 192.0, 0.0, 0.0, 0.0, 0.0, 0.0, 0.0, 0.0, 0.0, 0.0, 1.6989582521847627E9, 0.0, 2023-11-02 16:50:52.184
44.0, -187500.02235174447, 187500.0, 2389.267371805593, 47916.10514117541, 187500.0, 187500.0, -187500.02235174447, 38071.033426646405, -0.092, 0.978, 0.014, 192.0, 0.0, 0.0, 0.0, 0.0, 0.0, 0.0, 0.0, 0.0, 0.0, 1.698958252184773E9, 0.0, 2023-11-02 16:50:52.184
45.0, -187500.02235174447, 187500.0, 2401.337313811459, 47893.9545624202, 187500.0, 187500.0, -187500.02235174447, 38082.54457504089, -0.092, 0.978, 0.014, 192.0, 0.0, 0.0, 0.0, 0.0, 0.0, 0.0, 0.0, 0.0, 0.0, 1.6989582521847837E9, 0.0, 2023-11-02 16:50:52.184
46.0, -187500.02235174447, 187500.0, 2389.9379241392526, 47919.77082726608, 187500.0, 187500.0, -187500.02235174447, 38070.72050222403, -0.092, 0.978, 0.014, 192.0, 0.0, 0.0, 0.0, 0.0, 0.0, 0.0, 0.0, 0.0, 0.0, 1.6989582521848147E9, 0.0, 2023-11-02 16:50:52.184
47.0, -187500.02235174447, 187500.0, 2380.371377512381, 47952.20320847073, 187500.0, 187500.0, -187500.02235174447, 38059.835202674294, -0.09, 0.98, 0.014, 192.0, 253.0, 48.0, 30.0, 160.0, 0.0, 112.0, 0.0, 0.0, 0.0, 1.6989582521848254E9, 0.0, 2023-11-02 16:50:52.184
48.0, -187500.02235174447, 187500.0, 2384.014711858596, 47936.33346990746, 187500.0, 187500.0, -187500.02235174447, 38062.919743409126, -0.09, 0.98, 0.014, 192.0, 0.0, 0.0, 0.0, 0.0, 0.0, 0.0, 0.0, 0.0, 0.0, 1.69895825218484E9, 0.0, 2023-11-02 16:50:52.184
49.0, -187500.02235174447, 187500.0, 2395.056473619518, 47898.179042122254, 187500.0, 187500.0, -187500.02235174447, 38074.810871459355, -0.09, 0.98, 0.014, 192.0, 0.0, 0.0, 0.0, 0.0, 0.0, 0.0, 0.0, 0.0, 0.0, 1.6989582521848512E9, 0.0, 2023-11-02 16:50:52.184
50.0, -187500.02235174447, 187500.0, 2398.1857178432606, 47907.8573474714, 187500.0, 187500.0, -187500.02235174447, 38075.90610693766, -0.09, 0.98, 0.014, 192.0, 0.0, 0.0, 0.0, 0.0, 0.0, 0.0, 0.0, 0.0, 0.0, 1.6989582521848629E9, 0.0, 2023-11-02 16:50:52.184
51.0, -187500.02235174447, 187500.0, 2392.173098584783, 47949.09631599144, 187500.0, 187500.0, -187500.02235174447, 38069.1335283677, -0.09, 0.98, 0.014, 192.0, 0.0, 0.0, 0.0, 0.0, 0.0, 0.0, 0.0, 0.0, 0.0, 1.6989582521848736E9, 0.0, 2023-11-02 16:50:52.184
52.0, -187500.02235174447, 187500.0, 2396.039950375551, 47945.92236827879, 187500.0, 187500.0, -187500.02235174447, 38071.927496424614, -0.09, 0.98, 0.014, 192.0, 0.0, 0.0, 0.0, 0.0, 0.0, 0.0, 0.0, 0.0, 0.0, 1.6989582521848836E9, 0.0, 2023-11-02 16:50:52.184
53.0, -187500.02235174447, 187500.0, 2399.8620986774085, 47914.62992604136, 187500.0, 187500.0, -187500.02235174447, 38075.34731332628, -0.09, 0.98, 0.014, 192.0, 0.0, 0.0, 0.0, 0.0, 0.0, 0.0, 0.0, 0.0, 0.0, 1.698958252184894E9, 0.0, 2023-11-02 16:50:52.184
54.0, -187500.02235174447, 187500.0, 2400.890278922353, 47922.90007148982, 187500.0, 187500.0, -187500.02235174447, 38077.336618582805, -0.09, 0.98, 0.014, 192.0, 0.0, 0.0, 0.0, 0.0, 0.0, 0.0, 0.0, 0.0, 0.0, 1.6989582521849048E9, 0.0, 2023-11-02 16:50:52.184
55.0, -187500.02235174447, 187500.0, 2392.3072090515147, 47960.339243452465, 187500.0, 187500.0, -187500.02235174447, 38068.46297603405, -0.09, 0.98, 0.014, 192.0, 0.0, 0.0, 0.0, 0.0, 0.0, 0.0, 0.0, 0.0, 0.0, 1.6989582521849155E9, 0.0, 2023-11-02 16:50:52.184
56.0, -187500.02235174447, 187500.0, 2391.7037119512215, 47956.405336428325, 187500.0, 187500.0, -187500.02235174447, 38065.378435299215, -0.09, 0.98, 0.014, 192.0, 0.0, 0.0, 0.0, 0.0, 0.0, 0.0, 0.0, 0.0, 0.0, 1.6989582521849256E9, 0.0, 2023-11-02 16:50:52.184
57.0, -187500.02235174447, 187500.0, 2393.0001131296294, 47926.4092953693, 187500.0, 187500.0, -187500.02235174447, 38067.8371271893, -0.084, 0.974, 0.018000000000000002, 192.0, 253.0, 96.0, 30.0, 112.0, 0.0, 144.0, 0.0, 0.0, 0.0, 1.698958252184935E9, 0.0, 2023-11-02 16:50:52.184
58.0, -187500.02235174447, 187500.0, 2389.2226683166828, 47913.57939405196, 187500.0, 187500.0, -187500.02235174447, 38063.702054465066, -0.084, 0.974, 0.018000000000000002, 192.0, 0.0, 0.0, 0.0, 0.0, 0.0, 0.0, 0.0, 0.0, 0.0, 1.6989582521849456E9, 0.0, 2023-11-02 16:50:52.184
59.0, -187500.02235174447, 187500.0, 2389.5802962279677, 47939.12743796437, 187500.0, 187500.0, -187500.02235174447, 38059.991664885485, -0.084, 0.974, 0.018000000000000002, 192.0, 0.0, 0.0, 0.0, 0.0, 0.0, 0.0, 0.0, 0.0, 0.0, 1.6989582521849554E9, 0.0, 2023-11-02 16:50:52.184
60.0, -187500.02235174447, 187500.0, 2393.089520107451, 47954.41603117181, 187500.0, 187500.0, -187500.02235174447, 38059.76814744093, -0.084, 0.974, 0.018000000000000002, 192.0, 0.0, 0.0, 0.0, 0.0, 0.0, 0.0, 0.0, 0.0, 0.0, 1.6989582521849656E9, 0.0, 2023-11-02 16:50:52.184
61.0, -187500.02235174447, 187500.0, 2391.815470673498, 47929.89616750433, 187500.0, 187500.0, -187500.02235174447, 38059.09759510727, -0.084, 0.974, 0.018000000000000002, 192.0, 0.0, 0.0, 0.0, 0.0, 0.0, 0.0, 0.0, 0.0, 0.0, 1.698958252184992E9, 0.0, 2023-11-02 16:50:52.184
62.0, -187500.02235174447, 187500.0, 2396.978723642674, 47917.15567316481, 187500.0, 187500.0, -187500.02235174447, 38063.65735097615, -0.084, 0.974, 0.018000000000000002, 192.0, 0.0, 0.0, 0.0, 0.0, 0.0, 0.0, 0.0, 0.0, 0.0, 1.6989582521850028E9, 0.0, 2023-11-02 16:50:52.185
63.0, -187500.02235174447, 187500.0, 2389.3567787834145, 47962.01562428661, 187500.0, 187500.0, -187500.02235174447, 38055.4319090166, -0.084, 0.974, 0.018000000000000002, 192.0, 0.0, 0.0, 0.0, 0.0, 0.0, 0.0, 0.0, 0.0, 0.0, 1.6989582521850133E9, 0.0, 2023-11-02 16:50:52.185
64.0, -187500.02235174447, 187500.0, 2388.7085781942105, 47982.93685709678, 187500.0, 187500.0, -187500.02235174447, 38054.739004938485, -0.084, 0.974, 0.018000000000000002, 192.0, 0.0, 0.0, 0.0, 0.0, 0.0, 0.0, 0.0, 0.0, 0.0, 1.6989582521850257E9, 0.0, 2023-11-02 16:50:52.185
65.0, -187500.02235174447, 187500.0, 2399.8620986774085, 47958.43934517376, 187500.0, 187500.0, -187500.02235174447, 38066.205449844056, -0.084, 0.974, 0.018000000000000002, 192.0, 0.0, 0.0, 0.0, 0.0, 0.0, 0.0, 0.0, 0.0, 0.0, 1.6989582521850357E9, 0.0, 2023-11-02 16:50:52.185
66.0, -187500.02235174447, 187500.0, 2408.8027964595317, 47938.14396120834, 187500.0, 187500.0, -187500.02235174447, 38075.83905170429, -0.084, 0.974, 0.018000000000000002, 192.0, 0.0, 0.0, 0.0, 0.0, 0.0, 0.0, 0.0, 0.0, 0.0, 1.6989582521850452E9, 0.0, 2023-11-02 16:50:52.185
67.0, -187500.02235174447, 187500.0, 2411.015619160607, 47975.851354104445, 187500.0, 187500.0, -187500.02235174447, 38079.19181337259, -0.08600000000000001, 0.976, 0.01, 192.0, 253.0, 80.0, 30.0, 128.0, 0.0, 80.0, 0.0, 0.0, 0.0, 1.6989582521850548E9, 0.0, 2023-11-02 16:50:52.185
68.0, -187500.02235174447, 187500.0, 2399.303305066026, 48024.578157017015, 187500.0, 187500.0, -187500.02235174447, 38068.32886556731, -0.08600000000000001, 0.976, 0.01, 192.0, 0.0, 0.0, 0.0, 0.0, 0.0, 0.0, 0.0, 0.0, 0.0, 1.6989582521850653E9, 0.0, 2023-11-02 16:50:52.185
69.0, -187500.02235174447, 187500.0, 2403.6171917459, 48003.70162769576, 187500.0, 187500.0, -187500.02235174447, 38072.6874557361, -0.08600000000000001, 0.976, 0.01, 192.0, 0.0, 0.0, 0.0, 0.0, 0.0, 0.0, 0.0, 0.0, 0.0, 1.6989582521850765E9, 0.0, 2023-11-02 16:50:52.185
70.0, -187500.02235174447, 187500.0, 2407.148767369839, 47982.847450118956, 187500.0, 187500.0, -187500.02235174447, 38076.53195578241, -0.08600000000000001, 0.976, 0.01, 192.0, 0.0, 0.0, 0.0, 0.0, 0.0, 0.0, 0.0, 0.0, 0.0, 1.6989582521850863E9, 0.0, 2023-11-02 16:50:52.185
71.0, -187500.02235174447, 187500.0, 2401.0690928779954, 48000.21475556073, 187500.0, 187500.0, -187500.02235174447, 38070.3852260572, -0.08600000000000001, 0.976, 0.01, 192.0, 0.0, 0.0, 0.0, 0.0, 0.0, 0.0, 0.0, 0.0, 0.0, 1.698958252185096E9, 0.0, 2023-11-02 16:50:52.185
72.0, -187500.02235174447, 187500.0, 2389.468537505691, 48034.61409027745, 187500.0, 187500.0, -187500.02235174447, 38058.06941486233, -0.08600000000000001, 0.976, 0.01, 192.0, 0.0, 0.0, 0.0, 0.0, 0.0, 0.0, 0.0, 0.0, 0.0, 1.6989582521851056E9, 0.0, 2023-11-02 16:50:52.185
73.0, -187500.02235174447, 187500.0, 2397.984552143163, 48005.19919457426, 187500.0, 187500.0, -187500.02235174447, 38065.55724925485, -0.08600000000000001, 0.976, 0.01, 192.0, 0.0, 0.0, 0.0, 0.0, 0.0, 0.0, 0.0, 0.0, 0.0, 1.698958252185115E9, 0.0, 2023-11-02 16:50:52.185
74.0, -187500.02235174447, 187500.0, 2411.328543582981, 47971.85039184694, 187500.0, 187500.0, -187500.02235174447, 38079.46003430606, -0.08600000000000001, 0.976, 0.01, 192.0, 0.0, 0.0, 0.0, 0.0, 0.0, 0.0, 0.0, 0.0, 0.0, 1.6989582521851249E9, 0.0, 2023-11-02 16:50:52.185
75.0, -187500.02235174447, 187500.0, 2400.555002755523, 47994.02332234661, 187500.0, 187500.0, -187500.02235174447, 38068.932362667605, -0.08600000000000001, 0.976, 0.01, 192.0, 0.0, 0.0, 0.0, 0.0, 0.0, 0.0, 0.0, 0.0, 0.0, 1.6989582521851344E9, 0.0, 2023-11-02 16:50:52.185
76.0, -187500.02235174447, 187500.0, 2389.267371805593, 48030.90370069787, 187500.0, 187500.0, -187500.02235174447, 38056.773013683916, -0.08600000000000001, 0.976, 0.01, 192.0, 0.0, 0.0, 0.0, 0.0, 0.0, 0.0, 0.0, 0.0, 0.0, 1.698958252185144E9, 0.0, 2023-11-02 16:50:52.185
77.0, -187500.02235174447, 187500.0, 2393.983589885663, 48028.13208438541, 187500.0, 187500.0, -187500.02235174447, 38062.04802537537, -0.084, 0.978, 0.012, 192.0, 253.0, 96.0, 30.0, 144.0, 0.0, 96.0, 0.0, 0.0, 0.0, 1.6989582521851673E9, 0.0, 2023-11-02 16:50:52.185
78.0, -187500.02235174447, 187500.0, 2402.9689911566966, 47998.560726471034, 187500.0, 187500.0, -187500.02235174447, 38072.10631038026, -0.084, 0.978, 0.012, 192.0, 0.0, 0.0, 0.0, 0.0, 0.0, 0.0, 0.0, 0.0, 0.0, 1.6989582521851785E9, 0.0, 2023-11-02 16:50:52.185
79.0, -187500.02235174447, 187500.0, 2399.5491742550344, 48012.23999407769, 187500.0, 187500.0, -187500.02235174447, 38068.06064463385, -0.084, 0.978, 0.012, 192.0, 0.0, 0.0, 0.0, 0.0, 0.0, 0.0, 0.0, 0.0, 0.0, 1.6989582521851892E9, 0.0, 2023-11-02 16:50:52.185
80.0, -187500.02235174447, 187500.0, 2391.0555113620176, 48040.13497115791, 187500.0, 187500.0, -187500.02235174447, 38058.62820847371, -0.084, 0.978, 0.012, 192.0, 0.0, 0.0, 0.0, 0.0, 0.0, 0.0, 0.0, 0.0, 0.0, 1.6989582521852002E9, 0.0, 2023-11-02 16:50:52.185
81.0, -187500.02235174447, 187500.0, 2397.336351553959, 48042.16897990334, 187500.0, 187500.0, -187500.02235174447, 38064.19379284308, -0.084, 0.978, 0.012, 192.0, 0.0, 0.0, 0.0, 0.0, 0.0, 0.0, 0.0, 0.0, 0.0, 1.6989582521852129E9, 0.0, 2023-11-02 16:50:52.185
82.0, -187500.02235174447, 187500.0, 2402.0525696340287, 48022.09711338248, 187500.0, 187500.0, -187500.02235174447, 38068.06064463385, -0.084, 0.978, 0.012, 192.0, 0.0, 0.0, 0.0, 0.0, 0.0, 0.0, 0.0, 0.0, 0.0, 1.698958252185223E9, 0.0, 2023-11-02 16:50:52.185
83.0, -187500.02235174447, 187500.0, 2400.2197265886934, 48021.44891279327, 187500.0, 187500.0, -187500.02235174447, 38065.3337318103, -0.084, 0.978, 0.012, 192.0, 0.0, 0.0, 0.0, 0.0, 0.0, 0.0, 0.0, 0.0, 0.0, 1.6989582521852343E9, 0.0, 2023-11-02 16:50:52.185
84.0, -187500.02235174447, 187500.0, 2389.557944483512, 48058.15047718889, 187500.0, 187500.0, -187500.02235174447, 38053.688472949085, -0.084, 0.978, 0.012, 192.0, 0.0, 0.0, 0.0, 0.0, 0.0, 0.0, 0.0, 0.0, 0.0, 1.6989582521852648E9, 0.0, 2023-11-02 16:50:52.185
85.0, -187500.02235174447, 187500.0, 2391.726063695677, 48065.72771855923, 187500.0, 187500.0, -187500.02235174447, 38054.3813770272, -0.084, 0.978, 0.012, 192.0, 0.0, 0.0, 0.0, 0.0, 0.0, 0.0, 0.0, 0.0, 0.0, 1.698958252185294E9, 0.0, 2023-11-02 16:50:52.185
86.0, -187500.02235174447, 187500.0, 2393.0001131296294, 48042.99599444819, 187500.0, 187500.0, -187500.02235174447, 38057.84589741778, -0.084, 0.978, 0.012, 192.0, 0.0, 0.0, 0.0, 0.0, 0.0, 0.0, 0.0, 0.0, 0.0, 1.6989582521853294E9, 0.0, 2023-11-02 16:50:52.185
87.0, -187500.02235174447, 187500.0, 2400.175023099783, 48017.91733716933, 187500.0, 187500.0, -187500.02235174447, 38065.31138006585, -0.088, 0.982, 0.012, 192.0, 253.0, 64.0, 30.0, 176.0, 0.0, 96.0, 0.0, 0.0, 0.0, 1.6989582521853623E9, 0.0, 2023-11-02 16:50:52.185
88.0, -187500.02235174447, 187500.0, 2401.8290521894755, 48047.75691601717, 187500.0, 187500.0, -187500.02235174447, 38065.44549053258, -0.088, 0.982, 0.012, 192.0, 0.0, 0.0, 0.0, 0.0, 0.0, 0.0, 0.0, 0.0, 0.0, 1.6989582521853945E9, 0.0, 2023-11-02 16:50:52.185
89.0, -187500.02235174447, 187500.0, 2394.6764939637774, 48076.165983219864, 187500.0, 187500.0, -187500.02235174447, 38056.72831019501, -0.088, 0.982, 0.012, 192.0, 0.0, 0.0, 0.0, 0.0, 0.0, 0.0, 0.0, 0.0, 0.0, 1.6989582521854455E9, 0.0, 2023-11-02 16:50:52.185
90.0, -187500.02235174447, 187500.0, 2398.073959120984, 48050.372070118436, 187500.0, 187500.0, -187500.02235174447, 38058.29293230688, -0.088, 0.982, 0.012, 192.0, 0.0, 0.0, 0.0, 0.0, 0.0, 0.0, 0.0, 0.0, 0.0, 1.6989582521854825E9, 0.0, 2023-11-02 16:50:52.185
91.0, -187500.02235174447, 187500.0, 2401.0020376446296, 48019.549014514574, 187500.0, 187500.0, -187500.02235174447, 38057.86824916223, -0.088, 0.982, 0.012, 192.0, 0.0, 0.0, 0.0, 0.0, 0.0, 0.0, 0.0, 0.0, 0.0, 1.6989582521855073E9, 0.0, 2023-11-02 16:50:52.185
92.0, -187500.02235174447, 187500.0, 2402.566659756501, 48032.200101876275, 187500.0, 187500.0, -187500.02235174447, 38057.62237997322, -0.088, 0.982, 0.012, 192.0, 0.0, 0.0, 0.0, 0.0, 0.0, 0.0, 0.0, 0.0, 0.0, 1.6989582521855783E9, 0.0, 2023-11-02 16:50:52.185
93.0, -187500.02235174447, 187500.0, 2401.896107422842, 48071.87444828444, 187500.0, 187500.0, -187500.02235174447, 38055.8342404168, -0.088, 0.982, 0.012, 192.0, 0.0, 0.0, 0.0, 0.0, 0.0, 0.0, 0.0, 0.0, 0.0, 1.6989582521855946E9, 0.0, 2023-11-02 16:50:52.185
94.0, -187500.02235174447, 187500.0, 2412.8484622059423, 48063.26902666915, 187500.0, 187500.0, -187500.02235174447, 38068.2841620784, -0.088, 0.982, 0.012, 192.0, 0.0, 0.0, 0.0, 0.0, 0.0, 0.0, 0.0, 0.0, 0.0, 1.6989582521856089E9, 0.0, 2023-11-02 16:50:52.185
95.0, -187500.02235174447, 187500.0, 2419.1293023978833, 48048.65098579538, 187500.0, 187500.0, -187500.02235174447, 38077.15780462716, -0.088, 0.982, 0.012, 192.0, 0.0, 0.0, 0.0, 0.0, 0.0, 0.0, 0.0, 0.0, 0.0, 1.698958252185622E9, 0.0, 2023-11-02 16:50:52.185
96.0, -187500.02235174447, 187500.0, 2417.9670116862076, 48075.8977622864, 187500.0, 187500.0, -187500.02235174447, 38078.07422614982, -0.088, 0.982, 0.012, 192.0, 0.0, 0.0, 0.0, 0.0, 0.0, 0.0, 0.0, 0.0, 0.0, 1.6989582521856349E9, 0.0, 2023-11-02 16:50:52.185
97.0, -187500.02235174447, 187500.0, 2413.1613866283164, 48124.73632392124, 187500.0, 187500.0, -187500.02235174447, 38074.520298781434, -0.08600000000000001, 0.974, 0.006, 192.0, 253.0, 80.0, 30.0, 112.0, 0.0, 48.0, 0.0, 0.0, 0.0, 1.698958252185649E9, 0.0, 2023-11-02 16:50:52.185
98.0, -187500.02235174447, 187500.0, 2412.244965105649, 48114.700390660815, 187500.0, 187500.0, -187500.02235174447, 38072.06160689135, -0.08600000000000001, 0.974, 0.006, 192.0, 0.0, 0.0, 0.0, 0.0, 0.0, 0.0, 0.0, 0.0, 0.0, 1.698958252185678E9, 0.0, 2023-11-02 16:50:52.185
99.0, -187500.02235174447, 187500.0, 2411.976744172185, 48090.67226537136, 187500.0, 187500.0, -187500.02235174447, 38069.40174930117, -0.08600000000000001, 0.974, 0.006, 192.0, 0.0, 0.0, 0.0, 0.0, 0.0, 0.0, 0.0, 0.0, 0.0, 1.698958252185712E9, 0.0, 2023-11-02 16:50:52.185
100.0, -187500.02235174447, 187500.0, 2405.8076627025202, 48092.32629446105, 187500.0, 187500.0, -187500.02235174447, 38062.33859805329, -0.08600000000000001, 0.974, 0.006, 192.0, 0.0, 0.0, 0.0, 0.0, 0.0, 0.0, 0.0, 0.0, 0.0, 1.6989582521857257E9, 0.0, 2023-11-02 16:50:52.185
101.0, -187500.02235174447, 187500.0, 2408.8027964595317, 48118.4554837293, 187500.0, 187500.0, -187500.02235174447, 38066.87600217772, -0.08600000000000001, 0.974, 0.006, 192.0, 0.0, 0.0, 0.0, 0.0, 0.0, 0.0, 0.0, 0.0, 0.0, 1.6989582521857407E9, 0.0, 2023-11-02 16:50:52.185
102.0, -187500.02235174447, 187500.0, 2407.1264156253833, 48128.22319605627, 187500.0, 187500.0, -187500.02235174447, 38065.11021436575, -0.08600000000000001, 0.974, 0.006, 192.0, 0.0, 0.0, 0.0, 0.0, 0.0, 0.0, 0.0, 0.0, 0.0, 1.6989582521857753E9, 0.0, 2023-11-02 16:50:52.185
103.0, -187500.02235174447, 187500.0, 2407.7746162145872, 48100.43997769833, 187500.0, 187500.0, -187500.02235174447, 38065.579600999314, -0.08600000000000001, 0.974, 0.006, 192.0, 0.0, 0.0, 0.0, 0.0, 0.0, 0.0, 0.0, 0.0, 0.0, 1.698958252185789E9, 0.0, 2023-11-02 16:50:52.185
104.0, -187500.02235174447, 187500.0, 2412.4908342946574, 48097.914230574876, 187500.0, 187500.0, -187500.02235174447, 38071.6369237467, -0.08600000000000001, 0.974, 0.006, 192.0, 0.0, 0.0, 0.0, 0.0, 0.0, 0.0, 0.0, 0.0, 0.0, 1.6989582521858013E9, 0.0, 2023-11-02 16:50:52.185
105.0, -187500.02235174447, 187500.0, 2404.399502801836, 48134.2134635703, 187500.0, 187500.0, -187500.02235174447, 38066.004284143964, -0.08600000000000001, 0.974, 0.006, 192.0, 0.0, 0.0, 0.0, 0.0, 0.0, 0.0, 0.0, 0.0, 0.0, 1.6989582521858196E9, 0.0, 2023-11-02 16:50:52.185
106.0, -187500.02235174447, 187500.0, 2410.6356395048665, 48136.60510022701, 187500.0, 187500.0, -187500.02235174447, 38072.24042084699, -0.08600000000000001, 0.974, 0.006, 192.0, 0.0, 0.0, 0.0, 0.0, 0.0, 0.0, 0.0, 0.0, 0.0, 1.698958252185842E9, 0.0, 2023-11-02 16:50:52.185
107.0, -187500.02235174447, 187500.0, 2417.877604708386, 48113.00165808221, 187500.0, 187500.0, -187500.02235174447, 38079.05770290586, -0.088, 0.984, 0.016, 192.0, 253.0, 64.0, 30.0, 192.0, 0.0, 128.0, 0.0, 0.0, 0.0, 1.6989582521859252E9, 0.0, 2023-11-02 16:50:52.185
108.0, -187500.02235174447, 187500.0, 2410.3227150824923, 48107.01139056819, 187500.0, 187500.0, -187500.02235174447, 38071.05577839086, -0.088, 0.984, 0.016, 192.0, 0.0, 0.0, 0.0, 0.0, 0.0, 0.0, 0.0, 0.0, 0.0, 1.6989582521859612E9, 0.0, 2023-11-02 16:50:52.185
109.0, -187500.02235174447, 187500.0, 2409.786273215565, 48131.553605980116, 187500.0, 187500.0, -187500.02235174447, 38070.899316179675, -0.088, 0.984, 0.016, 192.0, 0.0, 0.0, 0.0, 0.0, 0.0, 0.0, 0.0, 0.0, 0.0, 1.698958252185984E9, 0.0, 2023-11-02 16:50:52.185
110.0, -187500.02235174447, 187500.0, 2402.007866145118, 48151.98310041227, 187500.0, 187500.0, -187500.02235174447, 38063.277371320415, -0.088, 0.984, 0.016, 192.0, 0.0, 0.0, 0.0, 0.0, 0.0, 0.0, 0.0, 0.0, 0.0, 1.6989582521859992E9, 0.0, 2023-11-02 16:50:52.185
111.0, -187500.02235174447, 187500.0, 2406.232345847171, 48116.46617847278, 187500.0, 187500.0, -187500.02235174447, 38068.77590045642, -0.088, 0.984, 0.016, 192.0, 0.0, 0.0, 0.0, 0.0, 0.0, 0.0, 0.0, 0.0, 0.0, 1.698958252186015E9, 0.0, 2023-11-02 16:50:52.186
112.0, -187500.02235174447, 187500.0, 2410.099197637939, 48097.08721603003, 187500.0, 187500.0, -187500.02235174447, 38072.776862713916, -0.088, 0.984, 0.016, 192.0, 0.0, 0.0, 0.0, 0.0, 0.0, 0.0, 0.0, 0.0, 0.0, 1.6989582521860547E9, 0.0, 2023-11-02 16:50:52.186
113.0, -187500.02235174447, 187500.0, 2403.4383777902576, 48126.233890799755, 187500.0, 187500.0, -187500.02235174447, 38068.0829963783, -0.088, 0.984, 0.016, 192.0, 0.0, 0.0, 0.0, 0.0, 0.0, 0.0, 0.0, 0.0, 0.0, 1.6989582521860764E9, 0.0, 2023-11-02 16:50:52.186
114.0, -187500.02235174447, 187500.0, 2405.6735522357885, 48139.644937472935, 187500.0, 187500.0, -187500.02235174447, 38072.285124335904, -0.088, 0.984, 0.016, 192.0, 0.0, 0.0, 0.0, 0.0, 0.0, 0.0, 0.0, 0.0, 0.0, 1.6989582521860993E9, 0.0, 2023-11-02 16:50:52.186
115.0, -187500.02235174447, 187500.0, 2412.401427316836, 48105.42441671186, 187500.0, 187500.0, -187500.02235174447, 38080.51056629545, -0.088, 0.984, 0.016, 192.0, 0.0, 0.0, 0.0, 0.0, 0.0, 0.0, 0.0, 0.0, 0.0, 1.6989582521861396E9, 0.0, 2023-11-02 16:50:52.186
116.0, -187500.02235174447, 187500.0, 2411.1944331162495, 48070.287474428114, 187500.0, 187500.0, -187500.02235174447, 38079.6388482617, -0.088, 0.984, 0.016, 192.0, 0.0, 0.0, 0.0, 0.0, 0.0, 0.0, 0.0, 0.0, 0.0, 1.6989582521861572E9, 0.0, 2023-11-02 16:50:52.186
117.0, -187500.02235174447, 187500.0, 2404.7124272242104, 48067.8958377714, 187500.0, 187500.0, -187500.02235174447, 38073.87209819223, -0.08600000000000001, 0.982, 0.014, 192.0, 253.0, 80.0, 30.0, 176.0, 0.0, 112.0, 0.0, 0.0, 0.0, 1.6989582521861904E9, 0.0, 2023-11-02 16:50:52.186
118.0, -187500.02235174447, 187500.0, 2400.3761887998808, 48067.448802882296, 187500.0, 187500.0, -187500.02235174447, 38069.80408070136, -0.08600000000000001, 0.982, 0.014, 192.0, 0.0, 0.0, 0.0, 0.0, 0.0, 0.0, 0.0, 0.0, 0.0, 1.6989582521862116E9, 0.0, 2023-11-02 16:50:52.186
119.0, -187500.02235174447, 187500.0, 2407.752264470132, 48019.45960753675, 187500.0, 187500.0, -187500.02235174447, 38078.90124069467, -0.08600000000000001, 0.982, 0.014, 192.0, 0.0, 0.0, 0.0, 0.0, 0.0, 0.0, 0.0, 0.0, 0.0, 1.6989582521862307E9, 0.0, 2023-11-02 16:50:52.186
120.0, -187500.02235174447, 187500.0, 2408.6463342483444, 47961.34507195295, 187500.0, 187500.0, -187500.02235174447, 38079.12475813922, -0.08600000000000001, 0.982, 0.014, 192.0, 0.0, 0.0, 0.0, 0.0, 0.0, 0.0, 0.0, 0.0, 0.0, 1.6989582521862493E9, 0.0, 2023-11-02 16:50:52.186
121.0, -187500.02235174447, 187500.0, 2399.3480085549368, 47932.779542539065, 187500.0, 187500.0, -187500.02235174447, 38071.525165024424, -0.08600000000000001, 0.982, 0.014, 192.0, 0.0, 0.0, 0.0, 0.0, 0.0, 0.0, 0.0, 0.0, 0.0, 1.6989582521862636E9, 0.0, 2023-11-02 16:50:52.186
122.0, -187500.02235174447, 187500.0, 2392.508374751613, 47913.713504518695, 187500.0, 187500.0, -187500.02235174447, 38066.63013298871, -0.08600000000000001, 0.982, 0.014, 192.0, 0.0, 0.0, 0.0, 0.0, 0.0, 0.0, 0.0, 0.0, 0.0, 1.6989582526642911E9, 0.0, 2023-11-02 16:50:52.664
123.0, -187500.02235174447, 187500.0, 2389.2226683166828, 47871.200486564696, 187500.0, 187500.0, -187500.02235174447, 38064.81964168783, -0.08600000000000001, 0.982, 0.014, 192.0, 0.0, 0.0, 0.0, 0.0, 0.0, 0.0, 0.0, 0.0, 0.0, 1.6989582526644511E9, 0.0, 2023-11-02 16:50:52.664
124.0, -187500.02235174447, 187500.0, 2396.978723642674, 47803.452349120664, 187500.0, 187500.0, -187500.02235174447, 38073.46976679203, -0.08600000000000001, 0.982, 0.014, 192.0, 0.0, 0.0, 0.0, 0.0, 0.0, 0.0, 0.0, 0.0, 0.0, 1.6989582526644661E9, 0.0, 2023-11-02 16:50:52.664
125.0, -187500.02235174447, 187500.0, 2395.2799910640706, 47779.334816853385, 187500.0, 187500.0, -187500.02235174447, 38073.38035981421, -0.08600000000000001, 0.982, 0.014, 192.0, 0.0, 0.0, 0.0, 0.0, 0.0, 0.0, 0.0, 0.0, 0.0, 1.6989582526644845E9, 0.0, 2023-11-02 16:50:52.664
126.0, -187500.02235174447, 187500.0, 2396.4869852646575, 47784.07338667791, 187500.0, 187500.0, -187500.02235174447, 38076.19667961558, -0.08600000000000001, 0.982, 0.014, 192.0, 0.0, 0.0, 0.0, 0.0, 0.0, 0.0, 0.0, 0.0, 0.0, 1.6989582526645012E9, 0.0, 2023-11-02 16:50:52.664
127.0, -187500.02235174447, 187500.0, 2389.9379241392526, 47772.45047956115, 187500.0, 187500.0, -187500.02235174447, 38072.75451096946, -0.082, 0.978, 0.012, 192.0, 253.0, 112.0, 30.0, 144.0, 0.0, 96.0, 0.0, 0.0, 0.0, 1.6989582526645248E9, 0.0, 2023-11-02 16:50:52.664
128.0, -187500.02235174447, 187500.0, 2395.8387846754536, 47716.32524923387, 187500.0, 187500.0, -187500.02235174447, 38079.32592383932, -0.082, 0.978, 0.012, 192.0, 0.0, 0.0, 0.0, 0.0, 0.0, 0.0, 0.0, 0.0, 0.0, 1.698958252664548E9, 0.0, 2023-11-02 16:50:52.664
129.0, -187500.02235174447, 187500.0, 2395.8611364199087, 47709.150339263724, 187500.0, 187500.0, -187500.02235174447, 38082.499871551976, -0.082, 0.978, 0.012, 192.0, 0.0, 0.0, 0.0, 0.0, 0.0, 0.0, 0.0, 0.0, 0.0, 1.69895825266458E9, 0.0, 2023-11-02 16:50:52.664
130.0, -187500.02235174447, 187500.0, 2396.5093370091126, 47736.128894821275, 187500.0, 187500.0, -187500.02235174447, 38085.9420401981, -0.082, 0.978, 0.012, 192.0, 0.0, 0.0, 0.0, 0.0, 0.0, 0.0, 0.0, 0.0, 0.0, 1.6989582526645932E9, 0.0, 2023-11-02 16:50:52.664
131.0, -187500.02235174447, 187500.0, 2398.699807965733, 47739.74987742303, 187500.0, 187500.0, -187500.02235174447, 38089.67478152213, -0.082, 0.978, 0.012, 192.0, 0.0, 0.0, 0.0, 0.0, 0.0, 0.0, 0.0, 0.0, 0.0, 1.6989582526646047E9, 0.0, 2023-11-02 16:50:52.664
132.0, -187500.02235174447, 187500.0, 2403.550136512534, 47699.427330425664, 187500.0, 187500.0, -187500.02235174447, 38090.948830956084, -0.082, 0.978, 0.012, 192.0, 0.0, 0.0, 0.0, 0.0, 0.0, 0.0, 0.0, 0.0, 0.0, 1.6989582526646197E9, 0.0, 2023-11-02 16:50:52.664
133.0, -187500.02235174447, 187500.0, 2404.6900754797553, 47681.23301043904, 187500.0, 187500.0, -187500.02235174447, 38090.30063036688, -0.082, 0.978, 0.012, 192.0, 0.0, 0.0, 0.0, 0.0, 0.0, 0.0, 0.0, 0.0, 0.0, 1.6989582526647155E9, 0.0, 2023-11-02 16:50:52.664
134.0, -187500.02235174447, 187500.0, 2409.339238326459, 47704.612935139296, 187500.0, 187500.0, -187500.02235174447, 38095.46388333606, -0.082, 0.978, 0.012, 192.0, 0.0, 0.0, 0.0, 0.0, 0.0, 0.0, 0.0, 0.0, 0.0, 1.698958252664729E9, 0.0, 2023-11-02 16:50:52.664
135.0, -187500.02235174447, 187500.0, 2409.5851075154674, 47731.12210406329, 187500.0, 187500.0, -187500.02235174447, 38095.39682810269, -0.082, 0.978, 0.012, 192.0, 0.0, 0.0, 0.0, 0.0, 0.0, 0.0, 0.0, 0.0, 0.0, 1.698958252664742E9, 0.0, 2023-11-02 16:50:52.664
136.0, -187500.02235174447, 187500.0, 2408.378113314881, 47710.64790614223, 187500.0, 187500.0, -187500.02235174447, 38093.65339203518, -0.082, 0.978, 0.012, 192.0, 0.0, 0.0, 0.0, 0.0, 0.0, 0.0, 0.0, 0.0, 0.0, 1.6989582526647587E9, 0.0, 2023-11-02 16:50:52.664
137.0, -187500.02235174447, 187500.0, 2412.401427316836, 47695.783996079444, 187500.0, 187500.0, -187500.02235174447, 38095.88856648071, -0.08, 0.98, 0.012, 192.0, 253.0, 128.0, 30.0, 160.0, 0.0, 96.0, 0.0, 0.0, 0.0, 1.6989582526647732E9, 0.0, 2023-11-02 16:50:52.664
138.0, -187500.02235174447, 187500.0, 2405.42768304678, 47715.58764166685, 187500.0, 187500.0, -187500.02235174447, 38088.713656510554, -0.08, 0.98, 0.012, 192.0, 0.0, 0.0, 0.0, 0.0, 0.0, 0.0, 0.0, 0.0, 0.0, 1.6989582526650977E9, 0.0, 2023-11-02 16:50:52.665
139.0, -187500.02235174447, 187500.0, 2408.9369069262634, 47735.30188027643, 187500.0, 187500.0, -187500.02235174447, 38091.373514100735, -0.08, 0.98, 0.012, 192.0, 0.0, 0.0, 0.0, 0.0, 0.0, 0.0, 0.0, 0.0, 0.0, 1.6989582526651552E9, 0.0, 2023-11-02 16:50:52.665
140.0, -187500.02235174447, 187500.0, 2409.0039621596293, 47723.1648830372, 187500.0, 187500.0, -187500.02235174447, 38089.11598791075, -0.08, 0.98, 0.012, 192.0, 0.0, 0.0, 0.0, 0.0, 0.0, 0.0, 0.0, 0.0, 0.0, 1.6989582526651769E9, 0.0, 2023-11-02 16:50:52.665
141.0, -187500.02235174447, 187500.0, 2414.2566221066263, 47696.81217632439, 187500.0, 187500.0, -187500.02235174447, 38091.865252478754, -0.08, 0.98, 0.012, 192.0, 0.0, 0.0, 0.0, 0.0, 0.0, 0.0, 0.0, 0.0, 0.0, 1.6989582526651955E9, 0.0, 2023-11-02 16:50:52.665
142.0, -187500.02235174447, 187500.0, 2405.76295921361, 47733.893720375745, 187500.0, 187500.0, -187500.02235174447, 38084.19860413058, -0.08, 0.98, 0.012, 192.0, 0.0, 0.0, 0.0, 0.0, 0.0, 0.0, 0.0, 0.0, 0.0, 1.6989582526652155E9, 0.0, 2023-11-02 16:50:52.665
143.0, -187500.02235174447, 187500.0, 2400.6444097333447, 47774.3280260954, 187500.0, 187500.0, -187500.02235174447, 38078.521261038935, -0.08, 0.98, 0.012, 192.0, 0.0, 0.0, 0.0, 0.0, 0.0, 0.0, 0.0, 0.0, 0.0, 1.6989582526652339E9, 0.0, 2023-11-02 16:50:52.665
144.0, -187500.02235174447, 187500.0, 2400.107967866417, 47770.61763651582, 187500.0, 187500.0, -187500.02235174447, 38078.43185406111, -0.08, 0.98, 0.012, 192.0, 0.0, 0.0, 0.0, 0.0, 0.0, 0.0, 0.0, 0.0, 0.0, 1.6989582526652517E9, 0.0, 2023-11-02 16:50:52.665
145.0, -187500.02235174447, 187500.0, 2405.2935725800485, 47746.58951122636, 187500.0, 187500.0, -187500.02235174447, 38084.936211697604, -0.08, 0.98, 0.012, 192.0, 0.0, 0.0, 0.0, 0.0, 0.0, 0.0, 0.0, 0.0, 0.0, 1.698958252665272E9, 0.0, 2023-11-02 16:50:52.665
146.0, -187500.02235174447, 187500.0, 2409.138072626361, 47761.54282826696, 187500.0, 187500.0, -187500.02235174447, 38089.563022799855, -0.08, 0.98, 0.012, 192.0, 0.0, 0.0, 0.0, 0.0, 0.0, 0.0, 0.0, 0.0, 0.0, 1.6989582526652896E9, 0.0, 2023-11-02 16:50:52.665
147.0, -187500.02235174447, 187500.0, 2408.8027964595317, 47807.162738700245, 187500.0, 187500.0, -187500.02235174447, 38088.46778732155, -0.08, 0.972, 0.012, 192.0, 253.0, 128.0, 30.0, 96.0, 0.0, 96.0, 0.0, 0.0, 0.0, 1.6989582526653297E9, 0.0, 2023-11-02 16:50:52.665
148.0, -187500.02235174447, 187500.0, 2410.2556598491265, 47812.16952945823, 187500.0, 187500.0, -187500.02235174447, 38087.193737887595, -0.08, 0.972, 0.012, 192.0, 0.0, 0.0, 0.0, 0.0, 0.0, 0.0, 0.0, 0.0, 0.0, 1.698958252665347E9, 0.0, 2023-11-02 16:50:52.665
149.0, -187500.02235174447, 187500.0, 2403.885412679364, 47781.97232269911, 187500.0, 187500.0, -187500.02235174447, 38079.12475813922, -0.08, 0.972, 0.012, 192.0, 0.0, 0.0, 0.0, 0.0, 0.0, 0.0, 0.0, 0.0, 0.0, 1.6989582526653624E9, 0.0, 2023-11-02 16:50:52.665
150.0, -187500.02235174447, 187500.0, 2393.9612381412076, 47771.869334205316, 187500.0, 187500.0, -187500.02235174447, 38070.139356868196, -0.08, 0.972, 0.012, 192.0, 0.0, 0.0, 0.0, 0.0, 0.0, 0.0, 0.0, 0.0, 0.0, 1.69895825266538E9, 0.0, 2023-11-02 16:50:52.665
151.0, -187500.02235174447, 187500.0, 2392.0389881180513, 47804.41347413224, 187500.0, 187500.0, -187500.02235174447, 38068.39592080068, -0.08, 0.972, 0.012, 192.0, 0.0, 0.0, 0.0, 0.0, 0.0, 0.0, 0.0, 0.0, 0.0, 1.6989582526653967E9, 0.0, 2023-11-02 16:50:52.665
152.0, -187500.02235174447, 187500.0, 2388.865040405398, 47821.80313131847, 187500.0, 187500.0, -187500.02235174447, 38063.52324050942, -0.08, 0.972, 0.012, 192.0, 0.0, 0.0, 0.0, 0.0, 0.0, 0.0, 0.0, 0.0, 0.0, 1.6989582526654096E9, 0.0, 2023-11-02 16:50:52.665
153.0, -187500.02235174447, 187500.0, 2395.794081186543, 47791.96355247063, 187500.0, 187500.0, -187500.02235174447, 38071.6369237467, -0.08, 0.972, 0.012, 192.0, 0.0, 0.0, 0.0, 0.0, 0.0, 0.0, 0.0, 0.0, 0.0, 1.6989582526655264E9, 0.0, 2023-11-02 16:50:52.665
154.0, -187500.02235174447, 187500.0, 2401.896107422842, 47783.64870353326, 187500.0, 187500.0, -187500.02235174447, 38076.688417993595, -0.08, 0.972, 0.012, 192.0, 0.0, 0.0, 0.0, 0.0, 0.0, 0.0, 0.0, 0.0, 0.0, 1.6989582526655433E9, 0.0, 2023-11-02 16:50:52.665
155.0, -187500.02235174447, 187500.0, 2401.493776022646, 47815.969326015635, 187500.0, 187500.0, -187500.02235174447, 38076.08492089331, -0.08, 0.972, 0.012, 192.0, 0.0, 0.0, 0.0, 0.0, 0.0, 0.0, 0.0, 0.0, 0.0, 1.6989582526655736E9, 0.0, 2023-11-02 16:50:52.665
156.0, -187500.02235174447, 187500.0, 2391.591953228945, 47829.402724433276, 187500.0, 187500.0, -187500.02235174447, 38065.15491785466, -0.08, 0.972, 0.012, 192.0, 0.0, 0.0, 0.0, 0.0, 0.0, 0.0, 0.0, 0.0, 0.0, 1.6989582526655955E9, 0.0, 2023-11-02 16:50:52.665
157.0, -187500.02235174447, 187500.0, 2399.750339955132, 47790.44363384767, 187500.0, 187500.0, -187500.02235174447, 38072.285124335904, -0.09, 0.982, 0.006, 192.0, 253.0, 48.0, 30.0, 176.0, 0.0, 48.0, 0.0, 0.0, 0.0, 1.6989582526656122E9, 0.0, 2023-11-02 16:50:52.665
158.0, -187500.02235174447, 187500.0, 2402.365494056403, 47785.12391866731, 187500.0, 187500.0, -187500.02235174447, 38072.19571735808, -0.09, 0.982, 0.006, 192.0, 0.0, 0.0, 0.0, 0.0, 0.0, 0.0, 0.0, 0.0, 0.0, 1.6989582526656315E9, 0.0, 2023-11-02 16:50:52.665
159.0, -187500.02235174447, 187500.0, 2395.391749786347, 47820.864358051345, 187500.0, 187500.0, -187500.02235174447, 38064.30555156536, -0.09, 0.982, 0.006, 192.0, 0.0, 0.0, 0.0, 0.0, 0.0, 0.0, 0.0, 0.0, 0.0, 1.69895825266565E9, 0.0, 2023-11-02 16:50:52.665
160.0, -187500.02235174447, 187500.0, 2385.4675752481908, 47837.67286988174, 187500.0, 187500.0, -187500.02235174447, 38054.046100860374, -0.09, 0.982, 0.006, 192.0, 0.0, 0.0, 0.0, 0.0, 0.0, 0.0, 0.0, 0.0, 0.0, 1.698958252665665E9, 0.0, 2023-11-02 16:50:52.665
161.0, -187500.02235174447, 187500.0, 2391.2566770621156, 47795.27161065002, 187500.0, 187500.0, -187500.02235174447, 38054.71665319403, -0.09, 0.982, 0.006, 192.0, 0.0, 0.0, 0.0, 0.0, 0.0, 0.0, 0.0, 0.0, 0.0, 1.6989582526656787E9, 0.0, 2023-11-02 16:50:52.665
162.0, -187500.02235174447, 187500.0, 2397.783386443065, 47775.423261573706, 187500.0, 187500.0, -187500.02235174447, 38060.05872011885, -0.09, 0.982, 0.006, 192.0, 0.0, 0.0, 0.0, 0.0, 0.0, 0.0, 0.0, 0.0, 0.0, 1.6989582526656952E9, 0.0, 2023-11-02 16:50:52.665
163.0, -187500.02235174447, 187500.0, 2393.782424185565, 47812.75067481407, 187500.0, 187500.0, -187500.02235174447, 38057.30945555084, -0.09, 0.982, 0.006, 192.0, 0.0, 0.0, 0.0, 0.0, 0.0, 0.0, 0.0, 0.0, 0.0, 1.6989582526657152E9, 0.0, 2023-11-02 16:50:52.665
164.0, -187500.02235174447, 187500.0, 2394.408273030314, 47843.48432344012, 187500.0, 187500.0, -187500.02235174447, 38057.51062125094, -0.09, 0.982, 0.006, 192.0, 0.0, 0.0, 0.0, 0.0, 0.0, 0.0, 0.0, 0.0, 0.0, 1.69895825266573E9, 0.0, 2023-11-02 16:50:52.665
165.0, -187500.02235174447, 187500.0, 2398.632752732367, 47829.46977966664, 187500.0, 187500.0, -187500.02235174447, 38061.64569397517, -0.09, 0.982, 0.006, 192.0, 0.0, 0.0, 0.0, 0.0, 0.0, 0.0, 0.0, 0.0, 0.0, 1.698958252665753E9, 0.0, 2023-11-02 16:50:52.665
166.0, -187500.02235174447, 187500.0, 2403.3936743013473, 47816.77398881602, 187500.0, 187500.0, -187500.02235174447, 38067.50185102247, -0.094, 0.98, 0.002, 192.0, 253.0, 16.0, 30.0, 160.0, 0.0, 16.0, 0.0, 0.0, 0.0, 1.6989582526657736E9, 0.0, 2023-11-02 16:50:52.665
167.0, -187500.02235174447, 187500.0, 2398.006903887618, 47841.56207341696, 187500.0, 187500.0, -187500.02235174447, 38063.65735097615, -0.094, 0.98, 0.002, 192.0, 0.0, 0.0, 0.0, 0.0, 0.0, 0.0, 0.0, 0.0, 0.0, 1.698958252665804E9, 0.0, 2023-11-02 16:50:52.665
168.0, -187500.02235174447, 187500.0, 2392.6871887072552, 47868.85355339689, 187500.0, 187500.0, -187500.02235174447, 38059.61168522974, -0.094, 0.98, 0.002, 192.0, 0.0, 0.0, 0.0, 0.0, 0.0, 0.0, 0.0, 0.0, 0.0, 1.6989582526658657E9, 0.0, 2023-11-02 16:50:52.665
169.0, -187500.02235174447, 187500.0, 2392.731892196166, 47852.15680028877, 187500.0, 187500.0, -187500.02235174447, 38060.63986547469, -0.094, 0.98, 0.002, 192.0, 0.0, 0.0, 0.0, 0.0, 0.0, 0.0, 0.0, 0.0, 0.0, 1.6989582526658754E9, 0.0, 2023-11-02 16:50:52.665
170.0, -187500.02235174447, 187500.0, 2391.8378224179532, 47829.71564885565, 187500.0, 187500.0, -187500.02235174447, 38059.41051952964, -0.094, 0.98, 0.002, 192.0, 0.0, 0.0, 0.0, 0.0, 0.0, 0.0, 0.0, 0.0, 0.0, 1.6989582526658857E9, 0.0, 2023-11-02 16:50:52.665
171.0, -187500.02235174447, 187500.0, 2387.0992525934284, 47853.22968402263, 187500.0, 187500.0, -187500.02235174447, 38053.710824693546, -0.094, 0.98, 0.002, 192.0, 0.0, 0.0, 0.0, 0.0, 0.0, 0.0, 0.0, 0.0, 0.0, 1.6989582526658955E9, 0.0, 2023-11-02 16:50:52.665
172.0, -187500.02235174447, 187500.0, 2382.2265723021715, 47896.48030954365, 187500.0, 187500.0, -187500.02235174447, 38046.982949612495, -0.094, 0.98, 0.002, 192.0, 0.0, 0.0, 0.0, 0.0, 0.0, 0.0, 0.0, 0.0, 0.0, 1.6989582526659052E9, 0.0, 2023-11-02 16:50:52.665
173.0, -187500.02235174447, 187500.0, 2383.500621736124, 47893.775748464555, 187500.0, 187500.0, -187500.02235174447, 38047.67585369061, -0.094, 0.98, 0.002, 192.0, 0.0, 0.0, 0.0, 0.0, 0.0, 0.0, 0.0, 0.0, 0.0, 1.6989582526659153E9, 0.0, 2023-11-02 16:50:52.665
174.0, -187500.02235174447, 187500.0, 2392.5530782405235, 47862.036271338024, 187500.0, 187500.0, -187500.02235174447, 38055.11898459423, -0.094, 0.98, 0.002, 192.0, 0.0, 0.0, 0.0, 0.0, 0.0, 0.0, 0.0, 0.0, 0.0, 1.6989582526659253E9, 0.0, 2023-11-02 16:50:52.665
175.0, -187500.02235174447, 187500.0, 2393.536554996557, 47874.86617265537, 187500.0, 187500.0, -187500.02235174447, 38051.52035373692, -0.094, 0.98, 0.002, 192.0, 0.0, 0.0, 0.0, 0.0, 0.0, 0.0, 0.0, 0.0, 0.0, 1.6989582526659348E9, 0.0, 2023-11-02 16:50:52.665
176.0, -187500.02235174447, 187500.0, 2386.272238048582, 47919.502606332615, 187500.0, 187500.0, -187500.02235174447, 38044.323092022314, -0.092, 0.978, 0.006, 192.0, 253.0, 32.0, 30.0, 144.0, 0.0, 48.0, 0.0, 0.0, 0.0, 1.6989582526659467E9, 0.0, 2023-11-02 16:50:52.665
177.0, -187500.02235174447, 187500.0, 2393.5142032521017, 47917.08861793144, 187500.0, 187500.0, -187500.02235174447, 38051.96738862603, -0.092, 0.978, 0.006, 192.0, 0.0, 0.0, 0.0, 0.0, 0.0, 0.0, 0.0, 0.0, 0.0, 1.6989582526659784E9, 0.0, 2023-11-02 16:50:52.665
178.0, -187500.02235174447, 187500.0, 2405.0253516465846, 47890.490042029625, 187500.0, 187500.0, -187500.02235174447, 38061.84685967527, -0.092, 0.978, 0.006, 192.0, 0.0, 0.0, 0.0, 0.0, 0.0, 0.0, 0.0, 0.0, 0.0, 1.6989582526659896E9, 0.0, 2023-11-02 16:50:52.665
179.0, -187500.02235174447, 187500.0, 2398.1857178432606, 47892.099367630406, 187500.0, 187500.0, -187500.02235174447, 38055.8342404168, -0.092, 0.978, 0.006, 192.0, 0.0, 0.0, 0.0, 0.0, 0.0, 0.0, 0.0, 0.0, 0.0, 1.698958252666001E9, 0.0, 2023-11-02 16:50:52.666
180.0, -187500.02235174447, 187500.0, 2395.727025953177, 47921.044876700034, 187500.0, 187500.0, -187500.02235174447, 38053.286141548895, -0.092, 0.978, 0.006, 192.0, 0.0, 0.0, 0.0, 0.0, 0.0, 0.0, 0.0, 0.0, 0.0, 1.6989582526660128E9, 0.0, 2023-11-02 16:50:52.666
181.0, -187500.02235174447, 187500.0, 2387.7027496937217, 47942.12257172139, 187500.0, 187500.0, -187500.02235174447, 38045.21716180052, -0.092, 0.978, 0.006, 192.0, 0.0, 0.0, 0.0, 0.0, 0.0, 0.0, 0.0, 0.0, 0.0, 1.6989582526660247E9, 0.0, 2023-11-02 16:50:52.666
182.0, -187500.02235174447, 187500.0, 2388.9991508721296, 47909.153748649805, 187500.0, 187500.0, -187500.02235174447, 38044.70307167805, -0.092, 0.978, 0.006, 192.0, 0.0, 0.0, 0.0, 0.0, 0.0, 0.0, 0.0, 0.0, 0.0, 1.698958252666035E9, 0.0, 2023-11-02 16:50:52.666
183.0, -187500.02235174447, 187500.0, 2392.7095404517104, 47889.48421352914, 187500.0, 187500.0, -187500.02235174447, 38048.01112985744, -0.092, 0.978, 0.006, 192.0, 0.0, 0.0, 0.0, 0.0, 0.0, 0.0, 0.0, 0.0, 0.0, 1.6989582526660652E9, 0.0, 2023-11-02 16:50:52.666
184.0, -187500.02235174447, 187500.0, 2390.876697406375, 47913.17706265176, 187500.0, 187500.0, -187500.02235174447, 38047.8323159018, -0.092, 0.978, 0.006, 192.0, 0.0, 0.0, 0.0, 0.0, 0.0, 0.0, 0.0, 0.0, 0.0, 1.698958252666078E9, 0.0, 2023-11-02 16:50:52.666
185.0, -187500.02235174447, 187500.0, 2390.0273311170736, 47936.40052514083, 187500.0, 187500.0, -187500.02235174447, 38046.04417634537, -0.092, 0.978, 0.006, 192.0, 0.0, 0.0, 0.0, 0.0, 0.0, 0.0, 0.0, 0.0, 0.0, 1.6989582526660893E9, 0.0, 2023-11-02 16:50:52.666
186.0, -187500.02235174447, 187500.0, 2390.273200306082, 47912.59591729593, 187500.0, 187500.0, -187500.02235174447, 38043.80900189984, -0.084, 0.978, 0.004, 192.0, 253.0, 96.0, 30.0, 144.0, 0.0, 32.0, 0.0, 0.0, 0.0, 1.6989582526661184E9, 0.0, 2023-11-02 16:50:52.666
187.0, -187500.02235174447, 187500.0, 2387.367473526892, 47889.35010306241, 187500.0, 187500.0, -187500.02235174447, 38042.378490254705, -0.084, 0.978, 0.004, 192.0, 0.0, 0.0, 0.0, 0.0, 0.0, 0.0, 0.0, 0.0, 0.0, 1.6989582526661637E9, 0.0, 2023-11-02 16:50:52.666
188.0, -187500.02235174447, 187500.0, 2388.4403572607466, 47899.87777470086, 187500.0, 187500.0, -187500.02235174447, 38046.066528089825, -0.084, 0.978, 0.004, 192.0, 0.0, 0.0, 0.0, 0.0, 0.0, 0.0, 0.0, 0.0, 0.0, 1.6989582526661775E9, 0.0, 2023-11-02 16:50:52.666
189.0, -187500.02235174447, 187500.0, 2384.8417264034424, 47931.617251827396, 187500.0, 187500.0, -187500.02235174447, 38043.80900189984, -0.084, 0.978, 0.004, 192.0, 0.0, 0.0, 0.0, 0.0, 0.0, 0.0, 0.0, 0.0, 0.0, 1.698958252666198E9, 0.0, 2023-11-02 16:50:52.666
190.0, -187500.02235174447, 187500.0, 2394.6764939637774, 47908.952582949714, 187500.0, 187500.0, -187500.02235174447, 38053.9343421381, -0.084, 0.978, 0.004, 192.0, 0.0, 0.0, 0.0, 0.0, 0.0, 0.0, 0.0, 0.0, 0.0, 1.698958252666211E9, 0.0, 2023-11-02 16:50:52.666
191.0, -187500.02235174447, 187500.0, 2399.593877743945, 47881.99637913661, 187500.0, 187500.0, -187500.02235174447, 38058.13647009569, -0.084, 0.978, 0.004, 192.0, 0.0, 0.0, 0.0, 0.0, 0.0, 0.0, 0.0, 0.0, 0.0, 1.6989582526662233E9, 0.0, 2023-11-02 16:50:52.666
192.0, -187500.02235174447, 187500.0, 2395.436453275258, 47896.52501303256, 187500.0, 187500.0, -187500.02235174447, 38052.70499619305, -0.084, 0.978, 0.004, 192.0, 0.0, 0.0, 0.0, 0.0, 0.0, 0.0, 0.0, 0.0, 0.0, 1.6989582526662364E9, 0.0, 2023-11-02 16:50:52.666
193.0, -187500.02235174447, 187500.0, 2398.632752732367, 47921.44720810023, 187500.0, 187500.0, -187500.02235174447, 38055.8342404168, -0.084, 0.978, 0.004, 192.0, 0.0, 0.0, 0.0, 0.0, 0.0, 0.0, 0.0, 0.0, 0.0, 1.69895825266625E9, 0.0, 2023-11-02 16:50:52.666
194.0, -187500.02235174447, 187500.0, 2397.783386443065, 47915.83692024195, 187500.0, 187500.0, -187500.02235174447, 38055.945999139076, -0.084, 0.978, 0.004, 192.0, 0.0, 0.0, 0.0, 0.0, 0.0, 0.0, 0.0, 0.0, 0.0, 1.6989582526662831E9, 0.0, 2023-11-02 16:50:52.666
195.0, -187500.02235174447, 187500.0, 2395.659970719811, 47881.14701284731, 187500.0, 187500.0, -187500.02235174447, 38054.69430144958, -0.084, 0.978, 0.004, 192.0, 0.0, 0.0, 0.0, 0.0, 0.0, 0.0, 0.0, 0.0, 0.0, 1.6989582526662939E9, 0.0, 2023-11-02 16:50:52.666
196.0, -187500.02235174447, 187500.0, 2395.8387846754536, 47881.23641982513, 187500.0, 187500.0, -187500.02235174447, 38056.571847983825, -0.08, 0.982, 0.01, 192.0, 253.0, 128.0, 30.0, 176.0, 0.0, 80.0, 0.0, 0.0, 0.0, 1.6989582526663067E9, 0.0, 2023-11-02 16:50:52.666
197.0, -187500.02235174447, 187500.0, 2386.6745694487777, 47922.654202300815, 187500.0, 187500.0, -187500.02235174447, 38048.458164746546, -0.08, 0.982, 0.01, 192.0, 0.0, 0.0, 0.0, 0.0, 0.0, 0.0, 0.0, 0.0, 0.0, 1.6989582526663458E9, 0.0, 2023-11-02 16:50:52.666
198.0, -187500.02235174447, 187500.0, 2387.143956082339, 47918.317963876485, 187500.0, 187500.0, -187500.02235174447, 38048.61462695773, -0.08, 0.982, 0.01, 192.0, 0.0, 0.0, 0.0, 0.0, 0.0, 0.0, 0.0, 0.0, 0.0, 1.6989582526663618E9, 0.0, 2023-11-02 16:50:52.666
199.0, -187500.02235174447, 187500.0, 2395.3470462974365, 47881.43758552523, 187500.0, 187500.0, -187500.02235174447, 38057.130641595206, -0.08, 0.982, 0.01, 192.0, 0.0, 0.0, 0.0, 0.0, 0.0, 0.0, 0.0, 0.0, 0.0, 1.6989582526664343E9, 0.0, 2023-11-02 16:50:52.666
200.0, -187500.02235174447, 187500.0, 2403.7736539570874, 47886.06439662748, 187500.0, 187500.0, -187500.02235174447, 38066.71953996653, -0.08, 0.982, 0.01, 192.0, 0.0, 0.0, 0.0, 0.0, 0.0, 0.0, 0.0, 0.0, 0.0, 1.6989582526664455E9, 0.0, 2023-11-02 16:50:52.666
201.0, -187500.02235174447, 187500.0, 2399.9291539107744, 47932.84659777243, 187500.0, 187500.0, -187500.02235174447, 38062.5844672423, -0.08, 0.982, 0.01, 192.0, 0.0, 0.0, 0.0, 0.0, 0.0, 0.0, 0.0, 0.0, 0.0, 1.6989582526664567E9, 0.0, 2023-11-02 16:50:52.666
202.0, -187500.02235174447, 187500.0, 2396.2858195645595, 47935.61821408489, 187500.0, 187500.0, -187500.02235174447, 38056.571847983825, -0.08, 0.982, 0.01, 192.0, 0.0, 0.0, 0.0, 0.0, 0.0, 0.0, 0.0, 0.0, 0.0, 1.69895825266647E9, 0.0, 2023-11-02 16:50:52.666
203.0, -187500.02235174447, 187500.0, 2408.6239825038892, 47896.88264094385, 187500.0, 187500.0, -187500.02235174447, 38068.01594114494, -0.08, 0.982, 0.01, 192.0, 0.0, 0.0, 0.0, 0.0, 0.0, 0.0, 0.0, 0.0, 0.0, 1.6989582526665018E9, 0.0, 2023-11-02 16:50:52.666
204.0, -187500.02235174447, 187500.0, 2407.5734505144897, 47898.469614800175, 187500.0, 187500.0, -187500.02235174447, 38067.34538881128, -0.08, 0.982, 0.01, 192.0, 0.0, 0.0, 0.0, 0.0, 0.0, 0.0, 0.0, 0.0, 0.0, 1.6989582526665149E9, 0.0, 2023-11-02 16:50:52.666
205.0, -187500.02235174447, 187500.0, 2398.8562701769197, 47934.14299895084, 187500.0, 187500.0, -187500.02235174447, 38057.264752061936, -0.08, 0.982, 0.01, 192.0, 0.0, 0.0, 0.0, 0.0, 0.0, 0.0, 0.0, 0.0, 0.0, 1.6989582526665287E9, 0.0, 2023-11-02 16:50:52.666
206.0, -187500.02235174447, 187500.0, 2393.9388863967524, 47950.280958447576, 187500.0, 187500.0, -187500.02235174447, 38051.92268513712, -0.08, 0.984, 0.012, 192.0, 253.0, 128.0, 30.0, 192.0, 0.0, 96.0, 0.0, 0.0, 0.0, 1.698958252666541E9, 0.0, 2023-11-02 16:50:52.666
207.0, -187500.02235174447, 187500.0, 2406.9028981808306, 47909.310210861, 187500.0, 187500.0, -187500.02235174447, 38063.45618527606, -0.08, 0.984, 0.012, 192.0, 0.0, 0.0, 0.0, 0.0, 0.0, 0.0, 0.0, 0.0, 0.0, 1.6989582526665533E9, 0.0, 2023-11-02 16:50:52.666
208.0, -187500.02235174447, 187500.0, 2412.8037587170315, 47900.57067877897, 187500.0, 187500.0, -187500.02235174447, 38068.2841620784, -0.08, 0.984, 0.012, 192.0, 0.0, 0.0, 0.0, 0.0, 0.0, 0.0, 0.0, 0.0, 0.0, 1.6989582526665676E9, 0.0, 2023-11-02 16:50:52.666
209.0, -187500.02235174447, 187500.0, 2417.944659941752, 47941.608481598916, 187500.0, 187500.0, -187500.02235174447, 38073.15684236966, -0.08, 0.984, 0.012, 192.0, 0.0, 0.0, 0.0, 0.0, 0.0, 0.0, 0.0, 0.0, 0.0, 1.6989582526665816E9, 0.0, 2023-11-02 16:50:52.666
210.0, -187500.02235174447, 187500.0, 2410.2556598491265, 47977.393624471864, 187500.0, 187500.0, -187500.02235174447, 38064.86434517674, -0.08, 0.984, 0.012, 192.0, 0.0, 0.0, 0.0, 0.0, 0.0, 0.0, 0.0, 0.0, 0.0, 1.6989582526665945E9, 0.0, 2023-11-02 16:50:52.666
211.0, -187500.02235174447, 187500.0, 2413.854290706431, 47946.212940956706, 187500.0, 187500.0, -187500.02235174447, 38065.44549053258, -0.08, 0.984, 0.012, 192.0, 0.0, 0.0, 0.0, 0.0, 0.0, 0.0, 0.0, 0.0, 0.0, 1.698958252666608E9, 0.0, 2023-11-02 16:50:52.666
212.0, -187500.02235174447, 187500.0, 2412.244965105649, 47928.13037969237, 187500.0, 187500.0, -187500.02235174447, 38063.09855736477, -0.08, 0.984, 0.012, 192.0, 0.0, 0.0, 0.0, 0.0, 0.0, 0.0, 0.0, 0.0, 0.0, 1.6989582526666212E9, 0.0, 2023-11-02 16:50:52.666
213.0, -187500.02235174447, 187500.0, 2405.628848746878, 47953.79018232706, 187500.0, 187500.0, -187500.02235174447, 38058.09176660678, -0.08, 0.984, 0.012, 192.0, 0.0, 0.0, 0.0, 0.0, 0.0, 0.0, 0.0, 0.0, 0.0, 1.6989582526666355E9, 0.0, 2023-11-02 16:50:52.666
214.0, -187500.02235174447, 187500.0, 2392.463671262702, 47993.64334269087, 187500.0, 187500.0, -187500.02235174447, 38046.781783912396, -0.08, 0.984, 0.012, 192.0, 0.0, 0.0, 0.0, 0.0, 0.0, 0.0, 0.0, 0.0, 0.0, 1.698958252666702E9, 0.0, 2023-11-02 16:50:52.666
215.0, -187500.02235174447, 187500.0, 2393.6706654632885, 47961.99327254215, 187500.0, 187500.0, -187500.02235174447, 38046.915894379126, -0.08, 0.984, 0.012, 192.0, 0.0, 0.0, 0.0, 0.0, 0.0, 0.0, 0.0, 0.0, 0.0, 1.698958252666715E9, 0.0, 2023-11-02 16:50:52.666
216.0, -187500.02235174447, 187500.0, 2394.85530791942, 47934.70179256223, 187500.0, 187500.0, -187500.02235174447, 38047.56409496833, -0.088, 0.976, 0.006, 192.0, 253.0, 64.0, 30.0, 128.0, 0.0, 48.0, 0.0, 0.0, 0.0, 1.6989582526667283E9, 0.0, 2023-11-02 16:50:52.666
217.0, -187500.02235174447, 187500.0, 2394.2294590746715, 47950.8174003145, 187500.0, 187500.0, -187500.02235174447, 38044.70307167805, -0.088, 0.976, 0.006, 192.0, 0.0, 0.0, 0.0, 0.0, 0.0, 0.0, 0.0, 0.0, 0.0, 1.6989582526667411E9, 0.0, 2023-11-02 16:50:52.666
218.0, -187500.02235174447, 187500.0, 2395.525860253079, 47984.032092575086, 187500.0, 187500.0, -187500.02235174447, 38046.26769378992, -0.088, 0.976, 0.006, 192.0, 0.0, 0.0, 0.0, 0.0, 0.0, 0.0, 0.0, 0.0, 0.0, 1.6989582526667514E9, 0.0, 2023-11-02 16:50:52.666
219.0, -187500.02235174447, 187500.0, 2400.912630666808, 47989.150642055356, 187500.0, 187500.0, -187500.02235174447, 38052.436775259586, -0.088, 0.976, 0.006, 192.0, 0.0, 0.0, 0.0, 0.0, 0.0, 0.0, 0.0, 0.0, 0.0, 1.69895825266678E9, 0.0, 2023-11-02 16:50:52.666
220.0, -187500.02235174447, 187500.0, 2406.9028981808306, 47969.72697612369, 187500.0, 187500.0, -187500.02235174447, 38059.09759510727, -0.088, 0.976, 0.006, 192.0, 0.0, 0.0, 0.0, 0.0, 0.0, 0.0, 0.0, 0.0, 0.0, 1.6989582526667912E9, 0.0, 2023-11-02 16:50:52.666
221.0, -187500.02235174447, 187500.0, 2408.3557615704253, 47980.12053729541, 187500.0, 187500.0, -187500.02235174447, 38059.67874046311, -0.088, 0.976, 0.006, 192.0, 0.0, 0.0, 0.0, 0.0, 0.0, 0.0, 0.0, 0.0, 0.0, 1.6989582526668026E9, 0.0, 2023-11-02 16:50:52.666
222.0, -187500.02235174447, 187500.0, 2404.7347789686655, 48011.100055110466, 187500.0, 187500.0, -187500.02235174447, 38054.76135668294, -0.088, 0.976, 0.006, 192.0, 0.0, 0.0, 0.0, 0.0, 0.0, 0.0, 0.0, 0.0, 0.0, 1.698958252666817E9, 0.0, 2023-11-02 16:50:52.666
223.0, -187500.02235174447, 187500.0, 2399.280953321571, 48015.480997023704, 187500.0, 187500.0, -187500.02235174447, 38047.69820543507, -0.088, 0.976, 0.006, 192.0, 0.0, 0.0, 0.0, 0.0, 0.0, 0.0, 0.0, 0.0, 0.0, 1.6989582526668289E9, 0.0, 2023-11-02 16:50:52.666
224.0, -187500.02235174447, 187500.0, 2407.171119114294, 47970.174011012794, 187500.0, 187500.0, -187500.02235174447, 38055.05192936086, -0.088, 0.976, 0.006, 192.0, 0.0, 0.0, 0.0, 0.0, 0.0, 0.0, 0.0, 0.0, 0.0, 1.698958252666839E9, 0.0, 2023-11-02 16:50:52.666
225.0, -187500.02235174447, 187500.0, 2413.787235473065, 47968.87760983439, 187500.0, 187500.0, -187500.02235174447, 38063.65735097615, -0.088, 0.976, 0.006, 192.0, 0.0, 0.0, 0.0, 0.0, 0.0, 0.0, 0.0, 0.0, 0.0, 1.69895825266685E9, 0.0, 2023-11-02 16:50:52.666
226.0, -187500.02235174447, 187500.0, 2404.2877440795596, 48012.351752799965, 187500.0, 187500.0, -187500.02235174447, 38052.81675491533, -0.092, 0.978, 0.01, 192.0, 253.0, 32.0, 30.0, 144.0, 0.0, 80.0, 0.0, 0.0, 0.0, 1.6989582526668684E9, 0.0, 2023-11-02 16:50:52.666
227.0, -187500.02235174447, 187500.0, 2404.7124272242104, 48022.633555249406, 187500.0, 187500.0, -187500.02235174447, 38052.81675491533, -0.092, 0.978, 0.01, 192.0, 0.0, 0.0, 0.0, 0.0, 0.0, 0.0, 0.0, 0.0, 0.0, 1.6989582526668804E9, 0.0, 2023-11-02 16:50:52.666
228.0, -187500.02235174447, 187500.0, 2405.181813857772, 48001.578211972505, 187500.0, 187500.0, -187500.02235174447, 38052.30266479286, -0.092, 0.978, 0.01, 192.0, 0.0, 0.0, 0.0, 0.0, 0.0, 0.0, 0.0, 0.0, 0.0, 1.6989582526668935E9, 0.0, 2023-11-02 16:50:52.666
229.0, -187500.02235174447, 187500.0, 2405.2488690911377, 48002.069950350524, 187500.0, 187500.0, -187500.02235174447, 38051.54270548138, -0.092, 0.978, 0.01, 192.0, 0.0, 0.0, 0.0, 0.0, 0.0, 0.0, 0.0, 0.0, 0.0, 1.6989582526669507E9, 0.0, 2023-11-02 16:50:52.666
230.0, -187500.02235174447, 187500.0, 2400.7785202000764, 48036.49163681169, 187500.0, 187500.0, -187500.02235174447, 38048.12288857972, -0.092, 0.978, 0.01, 192.0, 0.0, 0.0, 0.0, 0.0, 0.0, 0.0, 0.0, 0.0, 0.0, 1.6989582526669643E9, 0.0, 2023-11-02 16:50:52.666
231.0, -187500.02235174447, 187500.0, 2405.2265173466826, 48055.55767483207, 187500.0, 187500.0, -187500.02235174447, 38053.0849758488, -0.092, 0.978, 0.01, 192.0, 0.0, 0.0, 0.0, 0.0, 0.0, 0.0, 0.0, 0.0, 0.0, 1.6989582526669755E9, 0.0, 2023-11-02 16:50:52.666
232.0, -187500.02235174447, 187500.0, 2401.4267207892804, 48046.8404944945, 187500.0, 187500.0, -187500.02235174447, 38048.927551380104, -0.092, 0.978, 0.01, 192.0, 0.0, 0.0, 0.0, 0.0, 0.0, 0.0, 0.0, 0.0, 0.0, 1.6989582526669888E9, 0.0, 2023-11-02 16:50:52.666
233.0, -187500.02235174447, 187500.0, 2396.2411160756487, 48036.826912978526, 187500.0, 187500.0, -187500.02235174447, 38043.87605713321, -0.092, 0.978, 0.01, 192.0, 0.0, 0.0, 0.0, 0.0, 0.0, 0.0, 0.0, 0.0, 0.0, 1.6989582526670015E9, 0.0, 2023-11-02 16:50:52.667
234.0, -187500.02235174447, 187500.0, 2395.9058399088194, 48058.93278824482, 187500.0, 187500.0, -187500.02235174447, 38043.45137398856, -0.092, 0.978, 0.01, 192.0, 0.0, 0.0, 0.0, 0.0, 0.0, 0.0, 0.0, 0.0, 0.0, 1.6989582526670148E9, 0.0, 2023-11-02 16:50:52.667
235.0, -187500.02235174447, 187500.0, 2402.3207905674926, 48075.8977622864, 187500.0, 187500.0, -187500.02235174447, 38051.76622292593, -0.092, 0.978, 0.01, 192.0, 0.0, 0.0, 0.0, 0.0, 0.0, 0.0, 0.0, 0.0, 0.0, 1.6989582526670313E9, 0.0, 2023-11-02 16:50:52.667
236.0, -187500.02235174447, 187500.0, 2400.040912633051, 48059.55863708957, 187500.0, 187500.0, -187500.02235174447, 38049.17342056912, -0.08600000000000001, 0.982, 0.008, 192.0, 253.0, 80.0, 30.0, 176.0, 0.0, 64.0, 0.0, 0.0, 0.0, 1.6989582526670473E9, 0.0, 2023-11-02 16:50:52.667
237.0, -187500.02235174447, 187500.0, 2401.04674113354, 48031.2389768647, 187500.0, 187500.0, -187500.02235174447, 38048.81579265783, -0.08600000000000001, 0.982, 0.008, 192.0, 0.0, 0.0, 0.0, 0.0, 0.0, 0.0, 0.0, 0.0, 0.0, 1.6989582526670616E9, 0.0, 2023-11-02 16:50:52.667
238.0, -187500.02235174447, 187500.0, 2404.6677237352997, 48047.95808171727, 187500.0, 187500.0, -187500.02235174447, 38053.487307248986, -0.08600000000000001, 0.982, 0.008, 192.0, 0.0, 0.0, 0.0, 0.0, 0.0, 0.0, 0.0, 0.0, 0.0, 1.6989582526670766E9, 0.0, 2023-11-02 16:50:52.667
239.0, -187500.02235174447, 187500.0, 2401.4714242781906, 48084.61494262397, 187500.0, 187500.0, -187500.02235174447, 38050.827449658806, -0.08600000000000001, 0.982, 0.008, 192.0, 0.0, 0.0, 0.0, 0.0, 0.0, 0.0, 0.0, 0.0, 0.0, 1.698958252667096E9, 0.0, 2023-11-02 16:50:52.667
240.0, -187500.02235174447, 187500.0, 2406.075883635984, 48076.434204153324, 187500.0, 187500.0, -187500.02235174447, 38055.74483343898, -0.08600000000000001, 0.982, 0.008, 192.0, 0.0, 0.0, 0.0, 0.0, 0.0, 0.0, 0.0, 0.0, 0.0, 1.698958252667143E9, 0.0, 2023-11-02 16:50:52.667
241.0, -187500.02235174447, 187500.0, 2412.9378691837633, 48052.51783758615, 187500.0, 187500.0, -187500.02235174447, 38061.91391490864, -0.08600000000000001, 0.982, 0.008, 192.0, 0.0, 0.0, 0.0, 0.0, 0.0, 0.0, 0.0, 0.0, 0.0, 1.698958252667158E9, 0.0, 2023-11-02 16:50:52.667
242.0, -187500.02235174447, 187500.0, 2411.529709283079, 48064.81129703657, 187500.0, 187500.0, -187500.02235174447, 38060.10342360776, -0.08600000000000001, 0.982, 0.008, 192.0, 0.0, 0.0, 0.0, 0.0, 0.0, 0.0, 0.0, 0.0, 0.0, 1.6989582531448135E9, 0.0, 2023-11-02 16:50:53.144
243.0, -187500.02235174447, 187500.0, 2409.696866237744, 48100.7529021207, 187500.0, 187500.0, -187500.02235174447, 38060.416348030136, -0.08600000000000001, 0.982, 0.008, 192.0, 0.0, 0.0, 0.0, 0.0, 0.0, 0.0, 0.0, 0.0, 0.0, 1.6989582531449609E9, 0.0, 2023-11-02 16:50:53.144
244.0, -187500.02235174447, 187500.0, 2410.412122060314, 48095.83551834054, 187500.0, 187500.0, -187500.02235174447, 38061.84685967527, -0.08600000000000001, 0.982, 0.008, 192.0, 0.0, 0.0, 0.0, 0.0, 0.0, 0.0, 0.0, 0.0, 0.0, 1.69895825314512E9, 0.0, 2023-11-02 16:50:53.145
245.0, -187500.02235174447, 187500.0, 2410.3227150824923, 48066.51002961517, 187500.0, 187500.0, -187500.02235174447, 38061.28806606389, -0.08600000000000001, 0.982, 0.008, 192.0, 0.0, 0.0, 0.0, 0.0, 0.0, 0.0, 0.0, 0.0, 0.0, 1.6989582531451335E9, 0.0, 2023-11-02 16:50:53.145
246.0, -187500.02235174447, 187500.0, 2409.2498313486376, 48075.92011403086, 187500.0, 187500.0, -187500.02235174447, 38057.77884218441, -0.084, 0.978, 0.01, 192.0, 253.0, 96.0, 30.0, 144.0, 0.0, 80.0, 0.0, 0.0, 0.0, 1.6989582531451447E9, 0.0, 2023-11-02 16:50:53.145
247.0, -187500.02235174447, 187500.0, 2405.2935725800485, 48118.29902151812, 187500.0, 187500.0, -187500.02235174447, 38053.19673457107, -0.084, 0.978, 0.01, 192.0, 0.0, 0.0, 0.0, 0.0, 0.0, 0.0, 0.0, 0.0, 0.0, 1.6989582531451583E9, 0.0, 2023-11-02 16:50:53.145
248.0, -187500.02235174447, 187500.0, 2400.532651011068, 48116.60028893952, 187500.0, 187500.0, -187500.02235174447, 38047.45233624605, -0.084, 0.978, 0.01, 192.0, 0.0, 0.0, 0.0, 0.0, 0.0, 0.0, 0.0, 0.0, 0.0, 1.6989582531451688E9, 0.0, 2023-11-02 16:50:53.145
249.0, -187500.02235174447, 187500.0, 2416.581203529978, 48081.03866351112, 187500.0, 187500.0, -187500.02235174447, 38062.517412008936, -0.084, 0.978, 0.01, 192.0, 0.0, 0.0, 0.0, 0.0, 0.0, 0.0, 0.0, 0.0, 0.0, 1.698958253145197E9, 0.0, 2023-11-02 16:50:53.145
250.0, -187500.02235174447, 187500.0, 2416.9611831857187, 48096.48371892974, 187500.0, 187500.0, -187500.02235174447, 38063.36677829824, -0.084, 0.978, 0.01, 192.0, 0.0, 0.0, 0.0, 0.0, 0.0, 0.0, 0.0, 0.0, 0.0, 1.6989582531452072E9, 0.0, 2023-11-02 16:50:53.145
251.0, -187500.02235174447, 187500.0, 2409.9203836822967, 48131.3077367911, 187500.0, 187500.0, -187500.02235174447, 38057.68943520659, -0.084, 0.978, 0.01, 192.0, 0.0, 0.0, 0.0, 0.0, 0.0, 0.0, 0.0, 0.0, 0.0, 1.6989582531452167E9, 0.0, 2023-11-02 16:50:53.145
252.0, -187500.02235174447, 187500.0, 2404.6900754797553, 48149.94909166683, 187500.0, 187500.0, -187500.02235174447, 38052.70499619305, -0.084, 0.978, 0.01, 192.0, 0.0, 0.0, 0.0, 0.0, 0.0, 0.0, 0.0, 0.0, 0.0, 1.6989582531452265E9, 0.0, 2023-11-02 16:50:53.145
253.0, -187500.02235174447, 187500.0, 2410.434473804769, 48116.22030928377, 187500.0, 187500.0, -187500.02235174447, 38056.482441006, -0.084, 0.978, 0.01, 192.0, 0.0, 0.0, 0.0, 0.0, 0.0, 0.0, 0.0, 0.0, 0.0, 1.698958253145256E9, 0.0, 2023-11-02 16:50:53.145
254.0, -187500.02235174447, 187500.0, 2409.339238326459, 48100.082349787044, 187500.0, 187500.0, -187500.02235174447, 38056.549496239364, -0.084, 0.978, 0.01, 192.0, 0.0, 0.0, 0.0, 0.0, 0.0, 0.0, 0.0, 0.0, 0.0, 1.6989582531452663E9, 0.0, 2023-11-02 16:50:53.145
255.0, -187500.02235174447, 187500.0, 2412.71435173921, 48123.10464657601, 187500.0, 187500.0, -187500.02235174447, 38061.62334223072, -0.084, 0.978, 0.01, 192.0, 0.0, 0.0, 0.0, 0.0, 0.0, 0.0, 0.0, 0.0, 0.0, 1.6989582531452787E9, 0.0, 2023-11-02 16:50:53.145
0.0, -187500.02235174447, 187500.0, 2408.489872037157, 48141.90246366292, 187500.0, 187500.0, -187500.02235174447, 38057.62237997322, -0.078, 0.978, 0.012, 192.0, 253.0, 144.0, 30.0, 144.0, 0.0, 96.0, 0.0, 0.0, 0.0, 1.6989582531452887E9, 0.0, 2023-11-02 16:50:53.145
1.0, -187500.02235174447, 187500.0, 2411.1944331162495, 48115.84032962803, 187500.0, 187500.0, -187500.02235174447, 38060.19283058558, -0.078, 0.978, 0.012, 192.0, 0.0, 0.0, 0.0, 0.0, 0.0, 0.0, 0.0, 0.0, 0.0, 1.698958253145316E9, 0.0, 2023-11-02 16:50:53.145
2.0, -187500.02235174447, 187500.0, 2410.948563927241, 48105.737341134234, 187500.0, 187500.0, -187500.02235174447, 38059.991664885485, -0.078, 0.978, 0.012, 192.0, 0.0, 0.0, 0.0, 0.0, 0.0, 0.0, 0.0, 0.0, 0.0, 1.698958253145326E9, 0.0, 2023-11-02 16:50:53.145
3.0, -187500.02235174447, 187500.0, 2402.7678254565985, 48132.98411762525, 187500.0, 187500.0, -187500.02235174447, 38052.079147348304, -0.078, 0.978, 0.012, 192.0, 0.0, 0.0, 0.0, 0.0, 0.0, 0.0, 0.0, 0.0, 0.0, 1.698958253145336E9, 0.0, 2023-11-02 16:50:53.145
4.0, -187500.02235174447, 187500.0, 2398.677456221277, 48157.43692605936, 187500.0, 187500.0, -187500.02235174447, 38048.525219979914, -0.078, 0.978, 0.012, 192.0, 0.0, 0.0, 0.0, 0.0, 0.0, 0.0, 0.0, 0.0, 0.0, 1.6989582531453564E9, 0.0, 2023-11-02 16:50:53.145
5.0, -187500.02235174447, 187500.0, 2408.534575526068, 48135.62162347098, 187500.0, 187500.0, -187500.02235174447, 38057.398862528666, -0.078, 0.978, 0.012, 192.0, 0.0, 0.0, 0.0, 0.0, 0.0, 0.0, 0.0, 0.0, 0.0, 1.698958253145372E9, 0.0, 2023-11-02 16:50:53.145
6.0, -187500.02235174447, 187500.0, 2414.5471947845454, 48113.31458250459, 187500.0, 187500.0, -187500.02235174447, 38061.48923176399, -0.078, 0.978, 0.012, 192.0, 0.0, 0.0, 0.0, 0.0, 0.0, 0.0, 0.0, 0.0, 0.0, 1.6989582531453815E9, 0.0, 2023-11-02 16:50:53.145
7.0, -187500.02235174447, 187500.0, 2410.367418571403, 48135.889844404446, 187500.0, 187500.0, -187500.02235174447, 38055.70012995006, -0.078, 0.978, 0.012, 192.0, 0.0, 0.0, 0.0, 0.0, 0.0, 0.0, 0.0, 0.0, 0.0, 1.6989582531453936E9, 0.0, 2023-11-02 16:50:53.145
8.0, -187500.02235174447, 187500.0, 2409.42864530428, 48160.43205981637, 187500.0, 187500.0, -187500.02235174447, 38055.05192936086, -0.078, 0.978, 0.012, 192.0, 0.0, 0.0, 0.0, 0.0, 0.0, 0.0, 0.0, 0.0, 0.0, 1.6989582531454036E9, 0.0, 2023-11-02 16:50:53.145
9.0, -187500.02235174447, 187500.0, 2419.6657442648107, 48143.13180960796, 187500.0, 187500.0, -187500.02235174447, 38063.18796434259, -0.078, 0.978, 0.012, 192.0, 0.0, 0.0, 0.0, 0.0, 0.0, 0.0, 0.0, 0.0, 0.0, 1.6989582531454134E9, 0.0, 2023-11-02 16:50:53.145
10.0, -187500.02235174447, 187500.0, 2417.0729419079953, 48120.087161074545, 187500.0, 187500.0, -187500.02235174447, 38060.617513730234, -0.08, 0.98, 0.01, 192.0, 253.0, 128.0, 30.0, 160.0, 0.0, 80.0, 0.0, 0.0, 0.0, 1.6989582531454237E9, 0.0, 2023-11-02 16:50:53.145
11.0, -187500.02235174447, 187500.0, 2410.367418571403, 48138.97438513928, 187500.0, 187500.0, -187500.02235174447, 38055.655426461155, -0.08, 0.98, 0.01, 192.0, 0.0, 0.0, 0.0, 0.0, 0.0, 0.0, 0.0, 0.0, 0.0, 1.698958253145434E9, 0.0, 2023-11-02 16:50:53.145
12.0, -187500.02235174447, 187500.0, 2413.6754767507887, 48168.165763397905, 187500.0, 187500.0, -187500.02235174447, 38060.03636837439, -0.08, 0.98, 0.01, 192.0, 0.0, 0.0, 0.0, 0.0, 0.0, 0.0, 0.0, 0.0, 0.0, 1.698958253145444E9, 0.0, 2023-11-02 16:50:53.145
13.0, -187500.02235174447, 187500.0, 2413.1390348838613, 48166.19880988584, 187500.0, 187500.0, -187500.02235174447, 38058.60585672926, -0.08, 0.98, 0.01, 192.0, 0.0, 0.0, 0.0, 0.0, 0.0, 0.0, 0.0, 0.0, 0.0, 1.6989582531454542E9, 0.0, 2023-11-02 16:50:53.145
14.0, -187500.02235174447, 187500.0, 2420.135130898372, 48135.040478115145, 187500.0, 187500.0, -187500.02235174447, 38066.22780158852, -0.08, 0.98, 0.01, 192.0, 0.0, 0.0, 0.0, 0.0, 0.0, 0.0, 0.0, 0.0, 0.0, 1.698958253145464E9, 0.0, 2023-11-02 16:50:53.145
15.0, -187500.02235174447, 187500.0, 2425.074866422995, 48144.472914275284, 187500.0, 187500.0, -187500.02235174447, 38072.19571735808, -0.08, 0.98, 0.01, 192.0, 0.0, 0.0, 0.0, 0.0, 0.0, 0.0, 0.0, 0.0, 0.0, 1.6989582531454737E9, 0.0, 2023-11-02 16:50:53.145
16.0, -187500.02235174447, 187500.0, 2417.6764390082885, 48192.90914450993, 187500.0, 187500.0, -187500.02235174447, 38064.99845564347, -0.08, 0.98, 0.01, 192.0, 0.0, 0.0, 0.0, 0.0, 0.0, 0.0, 0.0, 0.0, 0.0, 1.6989582531454833E9, 0.0, 2023-11-02 16:50:53.145
17.0, -187500.02235174447, 187500.0, 2414.0554564065287, 48195.569002100114, 187500.0, 187500.0, -187500.02235174447, 38059.94696139657, -0.08, 0.98, 0.01, 192.0, 0.0, 0.0, 0.0, 0.0, 0.0, 0.0, 0.0, 0.0, 0.0, 1.6989582531454933E9, 0.0, 2023-11-02 16:50:53.145
18.0, -187500.02235174447, 187500.0, 2426.080694923484, 48157.34751908154, 187500.0, 187500.0, -187500.02235174447, 38066.67483647762, -0.08, 0.98, 0.01, 192.0, 0.0, 0.0, 0.0, 0.0, 0.0, 0.0, 0.0, 0.0, 0.0, 1.6989582531455028E9, 0.0, 2023-11-02 16:50:53.145
19.0, -187500.02235174447, 187500.0, 2423.040857677562, 48156.47580104778, 187500.0, 187500.0, -187500.02235174447, 38063.0315021314, -0.08, 0.98, 0.01, 192.0, 0.0, 0.0, 0.0, 0.0, 0.0, 0.0, 0.0, 0.0, 0.0, 1.6989582531455228E9, 0.0, 2023-11-02 16:50:53.145
20.0, -187500.02235174447, 187500.0, 2420.7162762542102, 48192.17153694291, 187500.0, 187500.0, -187500.02235174447, 38061.24336257498, -0.076, 0.976, 0.006, 192.0, 253.0, 160.0, 30.0, 128.0, 0.0, 48.0, 0.0, 0.0, 0.0, 1.698958253145533E9, 0.0, 2023-11-02 16:50:53.145
21.0, -187500.02235174447, 187500.0, 2418.9951919311516, 48204.62145860451, 187500.0, 187500.0, -187500.02235174447, 38060.08107186331, -0.076, 0.976, 0.006, 192.0, 0.0, 0.0, 0.0, 0.0, 0.0, 0.0, 0.0, 0.0, 0.0, 1.698958253145543E9, 0.0, 2023-11-02 16:50:53.145
22.0, -187500.02235174447, 187500.0, 2423.9125757113193, 48173.619589045, 187500.0, 187500.0, -187500.02235174447, 38066.04898763287, -0.076, 0.976, 0.006, 192.0, 0.0, 0.0, 0.0, 0.0, 0.0, 0.0, 0.0, 0.0, 0.0, 1.6989582531455555E9, 0.0, 2023-11-02 16:50:53.145
23.0, -187500.02235174447, 187500.0, 2422.437360577269, 48166.064699419105, 187500.0, 187500.0, -187500.02235174447, 38067.233630089, -0.076, 0.976, 0.006, 192.0, 0.0, 0.0, 0.0, 0.0, 0.0, 0.0, 0.0, 0.0, 0.0, 1.6989582531455657E9, 0.0, 2023-11-02 16:50:53.145
24.0, -187500.02235174447, 187500.0, 2413.988401173163, 48200.48638588028, 187500.0, 187500.0, -187500.02235174447, 38058.42704277361, -0.076, 0.976, 0.006, 192.0, 0.0, 0.0, 0.0, 0.0, 0.0, 0.0, 0.0, 0.0, 0.0, 1.6989582531455932E9, 0.0, 2023-11-02 16:50:53.145
25.0, -187500.02235174447, 187500.0, 2419.397523331347, 48221.16174950144, 187500.0, 187500.0, -187500.02235174447, 38061.735100952996, -0.076, 0.976, 0.006, 192.0, 0.0, 0.0, 0.0, 0.0, 0.0, 0.0, 0.0, 0.0, 0.0, 1.6989582531456032E9, 0.0, 2023-11-02 16:50:53.145
26.0, -187500.02235174447, 187500.0, 2418.659915764322, 48211.68460985239, 187500.0, 187500.0, -187500.02235174447, 38061.44452827508, -0.076, 0.976, 0.006, 192.0, 0.0, 0.0, 0.0, 0.0, 0.0, 0.0, 0.0, 0.0, 0.0, 1.698958253145613E9, 0.0, 2023-11-02 16:50:53.145
27.0, -187500.02235174447, 187500.0, 2419.509282053624, 48200.24051669127, 187500.0, 187500.0, -187500.02235174447, 38061.62334223072, -0.076, 0.976, 0.006, 192.0, 0.0, 0.0, 0.0, 0.0, 0.0, 0.0, 0.0, 0.0, 0.0, 1.6989582531456249E9, 0.0, 2023-11-02 16:50:53.145
28.0, -187500.02235174447, 187500.0, 2414.1895668732604, 48234.81866536363, 187500.0, 187500.0, -187500.02235174447, 38056.86242066174, -0.076, 0.976, 0.006, 192.0, 0.0, 0.0, 0.0, 0.0, 0.0, 0.0, 0.0, 0.0, 0.0, 1.698958253145635E9, 0.0, 2023-11-02 16:50:53.145
29.0, -187500.02235174447, 187500.0, 2409.9427354267523, 48271.60963673707, 187500.0, 187500.0, -187500.02235174447, 38055.38720552769, -0.076, 0.976, 0.006, 192.0, 0.0, 0.0, 0.0, 0.0, 0.0, 0.0, 0.0, 0.0, 0.0, 1.698958253145645E9, 0.0, 2023-11-02 16:50:53.145
30.0, -187500.02235174447, 187500.0, 2419.598689031445, 48250.6884039269, 187500.0, 187500.0, -187500.02235174447, 38063.85851667625, -0.08, 0.972, 0.012, 192.0, 253.0, 128.0, 30.0, 96.0, 0.0, 96.0, 0.0, 0.0, 0.0, 1.6989582531456547E9, 0.0, 2023-11-02 16:50:53.145
31.0, -187500.02235174447, 187500.0, 2429.276994380593, 48225.74385711478, 187500.0, 187500.0, -187500.02235174447, 38070.87696443522, -0.08, 0.972, 0.012, 192.0, 0.0, 0.0, 0.0, 0.0, 0.0, 0.0, 0.0, 0.0, 0.0, 1.6989582531456647E9, 0.0, 2023-11-02 16:50:53.145
32.0, -187500.02235174447, 187500.0, 2426.8630059794195, 48244.27345326823, 187500.0, 187500.0, -187500.02235174447, 38069.558211512354, -0.08, 0.972, 0.012, 192.0, 0.0, 0.0, 0.0, 0.0, 0.0, 0.0, 0.0, 0.0, 0.0, 1.698958253145691E9, 0.0, 2023-11-02 16:50:53.145
33.0, -187500.02235174447, 187500.0, 2423.174968144294, 48274.53771526071, 187500.0, 187500.0, -187500.02235174447, 38066.96540915554, -0.08, 0.972, 0.012, 192.0, 0.0, 0.0, 0.0, 0.0, 0.0, 0.0, 0.0, 0.0, 0.0, 1.6989582531457193E9, 0.0, 2023-11-02 16:50:53.145
34.0, -187500.02235174447, 187500.0, 2425.5442530565565, 48259.15971507546, 187500.0, 187500.0, -187500.02235174447, 38068.798252200875, -0.08, 0.972, 0.012, 192.0, 0.0, 0.0, 0.0, 0.0, 0.0, 0.0, 0.0, 0.0, 0.0, 1.6989582531457589E9, 0.0, 2023-11-02 16:50:53.145
35.0, -187500.02235174447, 187500.0, 2424.8289972339867, 48234.59514791908, 187500.0, 187500.0, -187500.02235174447, 38067.747720211475, -0.08, 0.972, 0.012, 192.0, 0.0, 0.0, 0.0, 0.0, 0.0, 0.0, 0.0, 0.0, 0.0, 1.6989582531457882E9, 0.0, 2023-11-02 16:50:53.145
36.0, -187500.02235174447, 187500.0, 2426.818302490509, 48244.96635734634, 187500.0, 187500.0, -187500.02235174447, 38070.72050222403, -0.08, 0.972, 0.012, 192.0, 0.0, 0.0, 0.0, 0.0, 0.0, 0.0, 0.0, 0.0, 0.0, 1.6989582531457982E9, 0.0, 2023-11-02 16:50:53.145
37.0, -187500.02235174447, 187500.0, 2432.2944798820595, 48289.73690149032, 187500.0, 187500.0, -187500.02235174447, 38077.604839516265, -0.08, 0.972, 0.012, 192.0, 0.0, 0.0, 0.0, 0.0, 0.0, 0.0, 0.0, 0.0, 0.0, 1.698958253145828E9, 0.0, 2023-11-02 16:50:53.145
38.0, -187500.02235174447, 187500.0, 2425.8348257344755, 48296.040093426716, 187500.0, 187500.0, -187500.02235174447, 38071.90514468016, -0.08, 0.972, 0.012, 192.0, 0.0, 0.0, 0.0, 0.0, 0.0, 0.0, 0.0, 0.0, 0.0, 1.6989582531458557E9, 0.0, 2023-11-02 16:50:53.145
39.0, -187500.02235174447, 187500.0, 2422.7726367440982, 48252.9906336058, 187500.0, 187500.0, -187500.02235174447, 38068.44062428959, -0.078, 0.984, 0.01, 192.0, 253.0, 144.0, 30.0, 192.0, 0.0, 80.0, 0.0, 0.0, 0.0, 1.698958253145866E9, 0.0, 2023-11-02 16:50:53.145
40.0, -187500.02235174447, 187500.0, 2426.035991434573, 48241.68065091141, 187500.0, 187500.0, -187500.02235174447, 38071.61457200225, -0.078, 0.984, 0.01, 192.0, 0.0, 0.0, 0.0, 0.0, 0.0, 0.0, 0.0, 0.0, 0.0, 1.6989582531458786E9, 0.0, 2023-11-02 16:50:53.145
41.0, -187500.02235174447, 187500.0, 2419.2187093757047, 48279.63391299652, 187500.0, 187500.0, -187500.02235174447, 38065.19962134357, -0.078, 0.984, 0.01, 192.0, 0.0, 0.0, 0.0, 0.0, 0.0, 0.0, 0.0, 0.0, 0.0, 1.6989582531458888E9, 0.0, 2023-11-02 16:50:53.145
42.0, -187500.02235174447, 187500.0, 2419.822206475998, 48280.97501766384, 187500.0, 187500.0, -187500.02235174447, 38062.5844672423, -0.078, 0.984, 0.01, 192.0, 0.0, 0.0, 0.0, 0.0, 0.0, 0.0, 0.0, 0.0, 0.0, 1.6989582531459165E9, 0.0, 2023-11-02 16:50:53.145
43.0, -187500.02235174447, 187500.0, 2421.43153207678, 48243.31232825665, 187500.0, 187500.0, -187500.02235174447, 38063.38913004269, -0.078, 0.984, 0.01, 192.0, 0.0, 0.0, 0.0, 0.0, 0.0, 0.0, 0.0, 0.0, 0.0, 1.6989582531459267E9, 0.0, 2023-11-02 16:50:53.145
44.0, -187500.02235174447, 187500.0, 2420.559814043023, 48220.91588031243, 187500.0, 187500.0, -187500.02235174447, 38060.52810675241, -0.078, 0.984, 0.01, 192.0, 0.0, 0.0, 0.0, 0.0, 0.0, 0.0, 0.0, 0.0, 0.0, 1.6989582531459377E9, 0.0, 2023-11-02 16:50:53.145
45.0, -187500.02235174447, 187500.0, 2412.8261104614867, 48236.85267410907, 187500.0, 187500.0, -187500.02235174447, 38052.10149909276, -0.078, 0.984, 0.01, 192.0, 0.0, 0.0, 0.0, 0.0, 0.0, 0.0, 0.0, 0.0, 0.0, 1.6989582531459527E9, 0.0, 2023-11-02 16:50:53.145
46.0, -187500.02235174447, 187500.0, 2409.786273215565, 48226.66027863744, 187500.0, 187500.0, -187500.02235174447, 38048.14524032417, -0.078, 0.984, 0.01, 192.0, 0.0, 0.0, 0.0, 0.0, 0.0, 0.0, 0.0, 0.0, 0.0, 1.6989582531459644E9, 0.0, 2023-11-02 16:50:53.145
47.0, -187500.02235174447, 187500.0, 2416.3129825965148, 48171.809097744124, 187500.0, 187500.0, -187500.02235174447, 38055.58837122779, -0.078, 0.984, 0.01, 192.0, 0.0, 0.0, 0.0, 0.0, 0.0, 0.0, 0.0, 0.0, 0.0, 1.6989582531459787E9, 0.0, 2023-11-02 16:50:53.145
48.0, -187500.02235174447, 187500.0, 2421.1856628877717, 48136.091010104545, 187500.0, 187500.0, -187500.02235174447, 38062.67387422012, -0.078, 0.984, 0.01, 192.0, 0.0, 0.0, 0.0, 0.0, 0.0, 0.0, 0.0, 0.0, 0.0, 1.6989582531460297E9, 0.0, 2023-11-02 16:50:53.146
49.0, -187500.02235174447, 187500.0, 2416.6482587633445, 48145.72461196478, 187500.0, 187500.0, -187500.02235174447, 38059.58933348529, -0.084, 0.984, 0.008, 192.0, 253.0, 96.0, 30.0, 192.0, 0.0, 64.0, 0.0, 0.0, 0.0, 1.698958253146054E9, 0.0, 2023-11-02 16:50:53.146
50.0, -187500.02235174447, 187500.0, 2416.849424463442, 48140.74017295124, 187500.0, 187500.0, -187500.02235174447, 38060.46105151904, -0.084, 0.984, 0.008, 192.0, 0.0, 0.0, 0.0, 0.0, 0.0, 0.0, 0.0, 0.0, 0.0, 1.6989582531461203E9, 0.0, 2023-11-02 16:50:53.146
51.0, -187500.02235174447, 187500.0, 2421.0962559099503, 48080.70338734429, 187500.0, 187500.0, -187500.02235174447, 38062.24919107547, -0.084, 0.984, 0.008, 192.0, 0.0, 0.0, 0.0, 0.0, 0.0, 0.0, 0.0, 0.0, 0.0, 1.6989582531461306E9, 0.0, 2023-11-02 16:50:53.146
52.0, -187500.02235174447, 187500.0, 2430.327526369992, 48015.0339621346, 187500.0, 187500.0, -187500.02235174447, 38072.575697013825, -0.084, 0.984, 0.008, 192.0, 0.0, 0.0, 0.0, 0.0, 0.0, 0.0, 0.0, 0.0, 0.0, 1.6989582531461456E9, 0.0, 2023-11-02 16:50:53.146
53.0, -187500.02235174447, 187500.0, 2430.260471136626, 48000.70649393875, 187500.0, 187500.0, -187500.02235174447, 38076.21903136004, -0.084, 0.984, 0.008, 192.0, 0.0, 0.0, 0.0, 0.0, 0.0, 0.0, 0.0, 0.0, 0.0, 1.6989582531461568E9, 0.0, 2023-11-02 16:50:53.146
54.0, -187500.02235174447, 187500.0, 2416.9611831857187, 47995.632647947394, 187500.0, 187500.0, -187500.02235174447, 38067.94888591157, -0.084, 0.984, 0.008, 192.0, 0.0, 0.0, 0.0, 0.0, 0.0, 0.0, 0.0, 0.0, 0.0, 1.6989582531461704E9, 0.0, 2023-11-02 16:50:53.146
55.0, -187500.02235174447, 187500.0, 2413.8319389619755, 47934.67944081777, 187500.0, 187500.0, -187500.02235174447, 38066.16074635515, -0.084, 0.984, 0.008, 192.0, 0.0, 0.0, 0.0, 0.0, 0.0, 0.0, 0.0, 0.0, 0.0, 1.698958253146183E9, 0.0, 2023-11-02 16:50:53.146
56.0, -187500.02235174447, 187500.0, 2421.9456221992523, 47876.07316685595, 187500.0, 187500.0, -187500.02235174447, 38076.17432787113, -0.084, 0.984, 0.008, 192.0, 0.0, 0.0, 0.0, 0.0, 0.0, 0.0, 0.0, 0.0, 0.0, 1.6989582531461957E9, 0.0, 2023-11-02 16:50:53.146
57.0, -187500.02235174447, 187500.0, 2411.082674393973, 47868.78649816352, 187500.0, 187500.0, -187500.02235174447, 38067.56890625583, -0.084, 0.984, 0.008, 192.0, 0.0, 0.0, 0.0, 0.0, 0.0, 0.0, 0.0, 0.0, 0.0, 1.698958253146207E9, 0.0, 2023-11-02 16:50:53.146
58.0, -187500.02235174447, 187500.0, 2405.919421424797, 47866.39486150681, 187500.0, 187500.0, -187500.02235174447, 38064.50671726545, -0.084, 0.984, 0.008, 192.0, 0.0, 0.0, 0.0, 0.0, 0.0, 0.0, 0.0, 0.0, 0.0, 1.6989582531462176E9, 0.0, 2023-11-02 16:50:53.146
59.0, -187500.02235174447, 187500.0, 2404.2206888461938, 47826.3405354429, 187500.0, 187500.0, -187500.02235174447, 38067.05481613336, -0.076, 0.978, 0.006, 192.0, 253.0, 160.0, 30.0, 144.0, 0.0, 48.0, 0.0, 0.0, 0.0, 1.6989582531462324E9, 0.0, 2023-11-02 16:50:53.146
60.0, -187500.02235174447, 187500.0, 2411.708523238721, 47785.146270411766, 187500.0, 187500.0, -187500.02235174447, 38076.710769738056, -0.076, 0.978, 0.006, 192.0, 0.0, 0.0, 0.0, 0.0, 0.0, 0.0, 0.0, 0.0, 0.0, 1.6989582531462452E9, 0.0, 2023-11-02 16:50:53.146
61.0, -187500.02235174447, 187500.0, 2412.960220928219, 47788.54373556897, 187500.0, 187500.0, -187500.02235174447, 38078.96829592804, -0.076, 0.978, 0.006, 192.0, 0.0, 0.0, 0.0, 0.0, 0.0, 0.0, 0.0, 0.0, 0.0, 1.6989582531462567E9, 0.0, 2023-11-02 16:50:53.146
62.0, -187500.02235174447, 187500.0, 2408.981610415174, 47821.04317200699, 187500.0, 187500.0, -187500.02235174447, 38076.66606624914, -0.076, 0.978, 0.006, 192.0, 0.0, 0.0, 0.0, 0.0, 0.0, 0.0, 0.0, 0.0, 0.0, 1.698958253146269E9, 0.0, 2023-11-02 16:50:53.146
63.0, -187500.02235174447, 187500.0, 2407.439340047758, 47818.02568650552, 187500.0, 187500.0, -187500.02235174447, 38073.87209819223, -0.076, 0.978, 0.006, 192.0, 0.0, 0.0, 0.0, 0.0, 0.0, 0.0, 0.0, 0.0, 0.0, 1.6989582531462817E9, 0.0, 2023-11-02 16:50:53.146
64.0, -187500.02235174447, 187500.0, 2408.6463342483444, 47783.76046225554, 187500.0, 187500.0, -187500.02235174447, 38073.60387725876, -0.076, 0.978, 0.006, 192.0, 0.0, 0.0, 0.0, 0.0, 0.0, 0.0, 0.0, 0.0, 0.0, 1.6989582531462922E9, 0.0, 2023-11-02 16:50:53.146
65.0, -187500.02235174447, 187500.0, 2404.1312818683723, 47780.60886628734, 187500.0, 187500.0, -187500.02235174447, 38066.987760899996, -0.076, 0.978, 0.006, 192.0, 0.0, 0.0, 0.0, 0.0, 0.0, 0.0, 0.0, 0.0, 0.0, 1.6989582531463172E9, 0.0, 2023-11-02 16:50:53.146
66.0, -187500.02235174447, 187500.0, 2412.3790755723808, 47800.94895374167, 187500.0, 187500.0, -187500.02235174447, 38074.43089180361, -0.076, 0.978, 0.006, 192.0, 0.0, 0.0, 0.0, 0.0, 0.0, 0.0, 0.0, 0.0, 0.0, 1.6989582531463277E9, 0.0, 2023-11-02 16:50:53.146
67.0, -187500.02235174447, 187500.0, 2413.943697684252, 47815.81286380444, 187500.0, 187500.0, -187500.02235174447, 38074.92263018163, -0.076, 0.978, 0.006, 192.0, 0.0, 0.0, 0.0, 0.0, 0.0, 0.0, 0.0, 0.0, 0.0, 1.6989582531463385E9, 0.0, 2023-11-02 16:50:53.146
68.0, -187500.02235174447, 187500.0, 2408.8027964595317, 47797.55148858446, 187500.0, 187500.0, -187500.02235174447, 38069.62526674572, -0.076, 0.978, 0.006, 192.0, 0.0, 0.0, 0.0, 0.0, 0.0, 0.0, 0.0, 0.0, 0.0, 1.69895825314635E9, 0.0, 2023-11-02 16:50:53.146
69.0, -187500.02235174447, 187500.0, 2395.1905840862496, 47790.5777443144, 187500.0, 187500.0, -187500.02235174447, 38057.15299333966, -0.082, 0.976, 0.008, 192.0, 253.0, 112.0, 30.0, 128.0, 0.0, 64.0, 0.0, 0.0, 0.0, 1.698958253146368E9, 0.0, 2023-11-02 16:50:53.146
70.0, -187500.02235174447, 187500.0, 2398.923325410286, 47815.70110508217, 187500.0, 187500.0, -187500.02235174447, 38060.10342360776, -0.082, 0.976, 0.008, 192.0, 0.0, 0.0, 0.0, 0.0, 0.0, 0.0, 0.0, 0.0, 0.0, 1.6989582531463797E9, 0.0, 2023-11-02 16:50:53.146
