%OpenBCI Raw EEG Data
%Number of channels = 8
%Sample Rate = 250 Hz
%Board = OpenBCI_GUI$BoardCytonSerial
Sample Index, EXG Channel 0, EXG Channel 1, EXG Channel 2, EXG Channel 3, EXG Channel 4, EXG Channel 5, EXG Channel 6, EXG Channel 7, Accel Channel 0, Accel Channel 1, Accel Channel 2, Other, Other, Other, Other, Other, Other, Other, Analog Channel 0, Analog Channel 1, Analog Channel 2, Timestamp, Other, Timestamp (Formatted)
17.0, -187500.02235174447, 187500.0, -3847.651642281013, 19843.901079166066, 187500.0, 187500.0, -187500.02235174447, 41647.24548426217, 0.0, 0.0, 0.0, 192.0, 0.0, 0.0, 0.0, 0.0, 0.0, 0.0, 0.0, 0.0, 0.0, 1.6989582126534078E9, 0.0, 2023-11-02 16:50:12.653
18.0, -187500.02235174447, 187500.0, -3848.3445463591274, 19855.144006627084, 187500.0, 187500.0, -187500.02235174447, 41649.36889998542, 0.0, 0.0, 0.0, 192.0, 0.0, 0.0, 0.0, 0.0, 0.0, 0.0, 0.0, 0.0, 0.0, 1.6989582126534307E9, 0.0, 2023-11-02 16:50:12.653
19.0, -187500.02235174447, 187500.0, -3848.4786568258596, 19867.526873055325, 187500.0, 187500.0, -187500.02235174447, 41651.89464710887, 0.0, 0.0, 0.0, 192.0, 0.0, 0.0, 0.0, 0.0, 0.0, 0.0, 0.0, 0.0, 0.0, 1.6989582126534412E9, 0.0, 2023-11-02 16:50:12.653
20.0, -187500.02235174447, 187500.0, -3856.9276162299657, 19856.418056061037, 187500.0, 187500.0, -187500.02235174447, 41640.91994058132, 0.0, 0.0, 0.0, 192.0, 0.0, 0.0, 0.0, 0.0, 0.0, 0.0, 0.0, 0.0, 0.0, 1.6989582126534505E9, 0.0, 2023-11-02 16:50:12.653
21.0, -187500.02235174447, 187500.0, -3853.1278196725634, 19848.6843524795, 187500.0, 187500.0, -187500.02235174447, 41640.0258708031, 0.0, 0.0, 0.0, 192.0, 0.0, 0.0, 0.0, 0.0, 0.0, 0.0, 0.0, 0.0, 0.0, 1.69895821265346E9, 0.0, 2023-11-02 16:50:12.653
22.0, -187500.02235174447, 187500.0, -3845.3270608576613, 19859.8378729627, 187500.0, 187500.0, -187500.02235174447, 41648.74305114068, -0.088, 0.98, -0.05, 192.0, 253.0, 64.0, 30.0, 160.0, 254.0, 112.0, 0.0, 0.0, 0.0, 1.6989582126534696E9, 0.0, 2023-11-02 16:50:12.653
23.0, -187500.02235174447, 187500.0, -3851.294976627228, 19868.82327423373, 187500.0, 187500.0, -187500.02235174447, 41646.01613831713, -0.088, 0.98, -0.05, 192.0, 0.0, 0.0, 0.0, 0.0, 0.0, 0.0, 0.0, 0.0, 0.0, 1.698958212653481E9, 0.0, 2023-11-02 16:50:12.653
24.0, -187500.02235174447, 187500.0, -3847.0034416918093, 19871.416076590547, 187500.0, 187500.0, -187500.02235174447, 41648.83245811849, -0.088, 0.98, -0.05, 192.0, 0.0, 0.0, 0.0, 0.0, 0.0, 0.0, 0.0, 0.0, 0.0, 1.6989582126534908E9, 0.0, 2023-11-02 16:50:12.653
25.0, -187500.02235174447, 187500.0, -3835.715810741879, 19877.763972015855, 187500.0, 187500.0, -187500.02235174447, 41656.36499599993, -0.088, 0.98, -0.05, 192.0, 0.0, 0.0, 0.0, 0.0, 0.0, 0.0, 0.0, 0.0, 0.0, 1.6989582126535006E9, 0.0, 2023-11-02 16:50:12.653
26.0, -187500.02235174447, 187500.0, -3835.4475898084156, 19888.671623310045, 187500.0, 187500.0, -187500.02235174447, 41657.10260356696, -0.088, 0.98, -0.05, 192.0, 0.0, 0.0, 0.0, 0.0, 0.0, 0.0, 0.0, 0.0, 0.0, 1.69895821265351E9, 0.0, 2023-11-02 16:50:12.653
27.0, -187500.02235174447, 187500.0, -3846.0870201691414, 19888.85043726569, 187500.0, 187500.0, -187500.02235174447, 41648.87716160741, -0.088, 0.98, -0.05, 192.0, 0.0, 0.0, 0.0, 0.0, 0.0, 0.0, 0.0, 0.0, 0.0, 1.6989582126535199E9, 0.0, 2023-11-02 16:50:12.653
28.0, -187500.02235174447, 187500.0, -3852.077287683164, 19888.22458842094, 187500.0, 187500.0, -187500.02235174447, 41640.0258708031, -0.088, 0.98, -0.05, 192.0, 0.0, 0.0, 0.0, 0.0, 0.0, 0.0, 0.0, 0.0, 0.0, 1.6989582126535296E9, 0.0, 2023-11-02 16:50:12.653
29.0, -187500.02235174447, 187500.0, -3840.968470688876, 19889.16336168806, 187500.0, 187500.0, -187500.02235174447, 41647.469001706726, -0.088, 0.98, -0.05, 192.0, 0.0, 0.0, 0.0, 0.0, 0.0, 0.0, 0.0, 0.0, 0.0, 1.6989582126535392E9, 0.0, 2023-11-02 16:50:12.653
30.0, -187500.02235174447, 187500.0, -3839.4485520659155, 19888.001070976385, 187500.0, 187500.0, -187500.02235174447, 41646.820801117516, -0.088, 0.98, -0.05, 192.0, 0.0, 0.0, 0.0, 0.0, 0.0, 0.0, 0.0, 0.0, 0.0, 1.6989582126535492E9, 0.0, 2023-11-02 16:50:12.653
31.0, -187500.02235174447, 187500.0, -3846.2211306358736, 19895.89123676911, 187500.0, 187500.0, -187500.02235174447, 41643.28922549358, -0.088, 0.98, -0.05, 192.0, 0.0, 0.0, 0.0, 0.0, 0.0, 0.0, 0.0, 0.0, 0.0, 1.6989582126535587E9, 0.0, 2023-11-02 16:50:12.653
32.0, -187500.02235174447, 187500.0, -3855.295938884728, 19888.090477954207, 187500.0, 187500.0, -187500.02235174447, 41635.73433586769, -0.098, 0.972, -0.052000000000000005, 192.0, 252.0, 240.0, 30.0, 96.0, 254.0, 96.0, 0.0, 0.0, 0.0, 1.6989582126535685E9, 0.0, 2023-11-02 16:50:12.653
33.0, -187500.02235174447, 187500.0, -3844.0977149126193, 19883.731887785423, 187500.0, 187500.0, -187500.02235174447, 41644.87619934991, -0.098, 0.972, -0.052000000000000005, 192.0, 0.0, 0.0, 0.0, 0.0, 0.0, 0.0, 0.0, 0.0, 0.0, 1.6989582126536646E9, 0.0, 2023-11-02 16:50:12.653
34.0, -187500.02235174447, 187500.0, -3836.006383419798, 19895.80182979129, 187500.0, 187500.0, -187500.02235174447, 41654.10746980995, -0.098, 0.972, -0.052000000000000005, 192.0, 0.0, 0.0, 0.0, 0.0, 0.0, 0.0, 0.0, 0.0, 0.0, 1.6989582126536744E9, 0.0, 2023-11-02 16:50:12.653
35.0, -187500.02235174447, 187500.0, -3843.6730317679685, 19900.294530426807, 187500.0, 187500.0, -187500.02235174447, 41649.79358313007, -0.098, 0.972, -0.052000000000000005, 192.0, 0.0, 0.0, 0.0, 0.0, 0.0, 0.0, 0.0, 0.0, 0.0, 1.6989582126536844E9, 0.0, 2023-11-02 16:50:12.653
36.0, -187500.02235174447, 187500.0, -3846.33288935815, 19902.75322231689, 187500.0, 187500.0, -187500.02235174447, 41645.90437959485, -0.098, 0.972, -0.052000000000000005, 192.0, 0.0, 0.0, 0.0, 0.0, 0.0, 0.0, 0.0, 0.0, 0.0, 1.6989582126536942E9, 0.0, 2023-11-02 16:50:12.653
37.0, -187500.02235174447, 187500.0, -3836.945156686921, 19903.580236861737, 187500.0, 187500.0, -187500.02235174447, 41654.21922853222, -0.098, 0.972, -0.052000000000000005, 192.0, 0.0, 0.0, 0.0, 0.0, 0.0, 0.0, 0.0, 0.0, 0.0, 1.6989582126537037E9, 0.0, 2023-11-02 16:50:12.653
38.0, -187500.02235174447, 187500.0, -3829.5690810166698, 19899.333405415226, 187500.0, 187500.0, -187500.02235174447, 41661.371786757925, -0.098, 0.972, -0.052000000000000005, 192.0, 0.0, 0.0, 0.0, 0.0, 0.0, 0.0, 0.0, 0.0, 0.0, 1.6989582126537132E9, 0.0, 2023-11-02 16:50:12.653
39.0, -187500.02235174447, 187500.0, -3829.0549908941975, 19912.006844521387, 187500.0, 187500.0, -187500.02235174447, 41664.523382726125, -0.098, 0.972, -0.052000000000000005, 192.0, 0.0, 0.0, 0.0, 0.0, 0.0, 0.0, 0.0, 0.0, 0.0, 1.6989582126537251E9, 0.0, 2023-11-02 16:50:12.653
40.0, -187500.02235174447, 187500.0, -3844.9694329463764, 19910.486925898425, 187500.0, 187500.0, -187500.02235174447, 41651.492315708674, -0.098, 0.972, -0.052000000000000005, 192.0, 0.0, 0.0, 0.0, 0.0, 0.0, 0.0, 0.0, 0.0, 0.0, 1.6989582126537347E9, 0.0, 2023-11-02 16:50:12.653
41.0, -187500.02235174447, 187500.0, -3846.802275991711, 19903.468478139457, 187500.0, 187500.0, -187500.02235174447, 41646.820801117516, -0.098, 0.972, -0.052000000000000005, 192.0, 0.0, 0.0, 0.0, 0.0, 0.0, 0.0, 0.0, 0.0, 0.0, 1.698958212653746E9, 0.0, 2023-11-02 16:50:12.653
42.0, -187500.02235174447, 187500.0, -3841.1919881334293, 19903.13320197263, 187500.0, 187500.0, -187500.02235174447, 41649.65947266334, -0.09, 0.974, -0.054, 192.0, 253.0, 48.0, 30.0, 112.0, 254.0, 80.0, 0.0, 0.0, 0.0, 1.6989582126537557E9, 0.0, 2023-11-02 16:50:12.653
43.0, -187500.02235174447, 187500.0, -3845.170598646474, 19911.448050910003, 187500.0, 187500.0, -187500.02235174447, 41647.20078077326, -0.09, 0.974, -0.054, 192.0, 0.0, 0.0, 0.0, 0.0, 0.0, 0.0, 0.0, 0.0, 0.0, 1.698958212653766E9, 0.0, 2023-11-02 16:50:12.653
44.0, -187500.02235174447, 187500.0, -3856.5029330853145, 19913.862039311178, 187500.0, 187500.0, -187500.02235174447, 41636.2260742457, -0.09, 0.974, -0.054, 192.0, 0.0, 0.0, 0.0, 0.0, 0.0, 0.0, 0.0, 0.0, 0.0, 1.6989582126537755E9, 0.0, 2023-11-02 16:50:12.653
45.0, -187500.02235174447, 187500.0, -3853.4407440949376, 19913.66087361108, 187500.0, 187500.0, -187500.02235174447, 41636.337832967976, -0.09, 0.974, -0.054, 192.0, 0.0, 0.0, 0.0, 0.0, 0.0, 0.0, 0.0, 0.0, 0.0, 1.698958212653785E9, 0.0, 2023-11-02 16:50:12.653
46.0, -187500.02235174447, 187500.0, -3846.489351569337, 19913.79498407781, 187500.0, 187500.0, -187500.02235174447, 41642.10458303745, -0.09, 0.974, -0.054, 192.0, 0.0, 0.0, 0.0, 0.0, 0.0, 0.0, 0.0, 0.0, 0.0, 1.6989582126537948E9, 0.0, 2023-11-02 16:50:12.653
47.0, -187500.02235174447, 187500.0, -3853.1278196725634, 19912.520934643857, 187500.0, 187500.0, -187500.02235174447, 41638.19302775777, -0.09, 0.974, -0.054, 192.0, 0.0, 0.0, 0.0, 0.0, 0.0, 0.0, 0.0, 0.0, 0.0, 1.6989582126538043E9, 0.0, 2023-11-02 16:50:12.653
48.0, -187500.02235174447, 187500.0, -3848.8586364815997, 19918.84647832471, 187500.0, 187500.0, -187500.02235174447, 41644.04918480506, -0.09, 0.974, -0.054, 192.0, 0.0, 0.0, 0.0, 0.0, 0.0, 0.0, 0.0, 0.0, 0.0, 1.6989582126538427E9, 0.0, 2023-11-02 16:50:12.653
49.0, -187500.02235174447, 187500.0, -3843.7624387457895, 19919.114699258174, 187500.0, 187500.0, -187500.02235174447, 41649.30184475206, -0.09, 0.974, -0.054, 192.0, 0.0, 0.0, 0.0, 0.0, 0.0, 0.0, 0.0, 0.0, 0.0, 1.6989582126538525E9, 0.0, 2023-11-02 16:50:12.653
50.0, -187500.02235174447, 187500.0, -3833.368877574072, 19922.534516159834, 187500.0, 187500.0, -187500.02235174447, 41659.5836472015, -0.09, 0.974, -0.054, 192.0, 0.0, 0.0, 0.0, 0.0, 0.0, 0.0, 0.0, 0.0, 0.0, 1.698958212653862E9, 0.0, 2023-11-02 16:50:12.653
51.0, -187500.02235174447, 187500.0, -3839.4038485770047, 19929.016522051876, 187500.0, 187500.0, -187500.02235174447, 41656.677920422306, -0.09, 0.974, -0.054, 192.0, 0.0, 0.0, 0.0, 0.0, 0.0, 0.0, 0.0, 0.0, 0.0, 1.6989582126538715E9, 0.0, 2023-11-02 16:50:12.653
52.0, -187500.02235174447, 187500.0, -3843.6953835124236, 19939.99122857943, 187500.0, 187500.0, -187500.02235174447, 41657.19201054478, -0.092, 0.97, -0.062, 192.0, 253.0, 32.0, 30.0, 80.0, 254.0, 16.0, 0.0, 0.0, 0.0, 1.6989582126538813E9, 0.0, 2023-11-02 16:50:12.653
53.0, -187500.02235174447, 187500.0, -3844.9247294574657, 19944.998019337418, 187500.0, 187500.0, -187500.02235174447, 41656.07442332202, -0.092, 0.97, -0.062, 192.0, 0.0, 0.0, 0.0, 0.0, 0.0, 0.0, 0.0, 0.0, 0.0, 1.6989582126538916E9, 0.0, 2023-11-02 16:50:12.653
54.0, -187500.02235174447, 187500.0, -3851.1832179049516, 19938.56071693429, 187500.0, 187500.0, -187500.02235174447, 41649.03362381859, -0.092, 0.97, -0.062, 192.0, 0.0, 0.0, 0.0, 0.0, 0.0, 0.0, 0.0, 0.0, 0.0, 1.698958212653901E9, 0.0, 2023-11-02 16:50:12.653
55.0, -187500.02235174447, 187500.0, -3840.1861596329404, 19949.960106606497, 187500.0, 187500.0, -187500.02235174447, 41658.9354466123, -0.092, 0.97, -0.062, 192.0, 0.0, 0.0, 0.0, 0.0, 0.0, 0.0, 0.0, 0.0, 0.0, 1.6989582126539109E9, 0.0, 2023-11-02 16:50:12.653
56.0, -187500.02235174447, 187500.0, -3836.8557497090997, 19971.57424349478, 187500.0, 187500.0, -187500.02235174447, 41665.79743216008, -0.092, 0.97, -0.062, 192.0, 0.0, 0.0, 0.0, 0.0, 0.0, 0.0, 0.0, 0.0, 0.0, 1.6989582126539204E9, 0.0, 2023-11-02 16:50:12.653
57.0, -187500.02235174447, 187500.0, -3845.0364881797423, 19973.876473173677, 187500.0, 187500.0, -187500.02235174447, 41659.02485359012, -0.092, 0.97, -0.062, 192.0, 0.0, 0.0, 0.0, 0.0, 0.0, 0.0, 0.0, 0.0, 0.0, 1.69895821265393E9, 0.0, 2023-11-02 16:50:12.653
58.0, -187500.02235174447, 187500.0, -3840.4767323108595, 19966.790970181344, 187500.0, 187500.0, -187500.02235174447, 41657.460231478246, -0.092, 0.97, -0.062, 192.0, 0.0, 0.0, 0.0, 0.0, 0.0, 0.0, 0.0, 0.0, 0.0, 1.6989582126539395E9, 0.0, 2023-11-02 16:50:12.653
59.0, -187500.02235174447, 187500.0, -3828.13856937153, 19975.888130174655, 187500.0, 187500.0, -187500.02235174447, 41668.85962115045, -0.092, 0.97, -0.062, 192.0, 0.0, 0.0, 0.0, 0.0, 0.0, 0.0, 0.0, 0.0, 0.0, 1.6989582126539493E9, 0.0, 2023-11-02 16:50:12.653
60.0, -187500.02235174447, 187500.0, -3828.7644182162785, 19988.963900681007, 187500.0, 187500.0, -187500.02235174447, 41671.81005141855, -0.092, 0.97, -0.062, 192.0, 0.0, 0.0, 0.0, 0.0, 0.0, 0.0, 0.0, 0.0, 0.0, 1.69895821265396E9, 0.0, 2023-11-02 16:50:12.653
61.0, -187500.02235174447, 187500.0, -3836.6322322645465, 19986.48285704647, 187500.0, 187500.0, -187500.02235174447, 41665.75272867116, -0.092, 0.974, -0.052000000000000005, 192.0, 253.0, 32.0, 30.0, 112.0, 254.0, 96.0, 0.0, 0.0, 0.0, 1.6989582126539695E9, 0.0, 2023-11-02 16:50:12.653
62.0, -187500.02235174447, 187500.0, -3840.1638078884853, 19974.927005163074, 187500.0, 187500.0, -187500.02235174447, 41661.55060071356, -0.092, 0.974, -0.052000000000000005, 192.0, 0.0, 0.0, 0.0, 0.0, 0.0, 0.0, 0.0, 0.0, 0.0, 1.69895821265398E9, 0.0, 2023-11-02 16:50:12.653
63.0, -187500.02235174447, 187500.0, -3831.714848484379, 19979.978499409975, 187500.0, 187500.0, -187500.02235174447, 41668.993731617185, -0.092, 0.974, -0.052000000000000005, 192.0, 0.0, 0.0, 0.0, 0.0, 0.0, 0.0, 0.0, 0.0, 0.0, 1.6989582126539989E9, 0.0, 2023-11-02 16:50:12.653
64.0, -187500.02235174447, 187500.0, -3834.821740963667, 19987.891016947153, 187500.0, 187500.0, -187500.02235174447, 41666.31152228254, -0.092, 0.974, -0.052000000000000005, 192.0, 0.0, 0.0, 0.0, 0.0, 0.0, 0.0, 0.0, 0.0, 0.0, 1.6989582126540084E9, 0.0, 2023-11-02 16:50:12.654
65.0, -187500.02235174447, 187500.0, -3838.4203718209715, 19992.96486293851, 187500.0, 187500.0, -187500.02235174447, 41663.584609459, -0.092, 0.974, -0.052000000000000005, 192.0, 0.0, 0.0, 0.0, 0.0, 0.0, 0.0, 0.0, 0.0, 0.0, 1.698958212654018E9, 0.0, 2023-11-02 16:50:12.654
66.0, -187500.02235174447, 187500.0, -3832.5642147736808, 19991.869627460197, 187500.0, 187500.0, -187500.02235174447, 41665.350397270966, -0.092, 0.974, -0.052000000000000005, 192.0, 0.0, 0.0, 0.0, 0.0, 0.0, 0.0, 0.0, 0.0, 0.0, 1.6989582126540277E9, 0.0, 2023-11-02 16:50:12.654
67.0, -187500.02235174447, 187500.0, -3833.8382642076335, 19987.466333802502, 187500.0, 187500.0, -187500.02235174447, 41664.05399609256, -0.092, 0.974, -0.052000000000000005, 192.0, 0.0, 0.0, 0.0, 0.0, 0.0, 0.0, 0.0, 0.0, 0.0, 1.6989582126540372E9, 0.0, 2023-11-02 16:50:12.654
68.0, -187500.02235174447, 187500.0, -3839.001517176809, 19987.756906480423, 187500.0, 187500.0, -187500.02235174447, 41661.17062105783, -0.092, 0.974, -0.052000000000000005, 192.0, 0.0, 0.0, 0.0, 0.0, 0.0, 0.0, 0.0, 0.0, 0.0, 1.6989582126540468E9, 0.0, 2023-11-02 16:50:12.654
69.0, -187500.02235174447, 187500.0, -3834.9558514303985, 20004.140735166162, 187500.0, 187500.0, -187500.02235174447, 41666.42328100482, -0.092, 0.974, -0.052000000000000005, 192.0, 0.0, 0.0, 0.0, 0.0, 0.0, 0.0, 0.0, 0.0, 0.0, 1.6989582126540563E9, 0.0, 2023-11-02 16:50:12.654
70.0, -187500.02235174447, 187500.0, -3836.051086908709, 20007.560552067825, 187500.0, 187500.0, -187500.02235174447, 41665.10452808196, -0.092, 0.974, -0.052000000000000005, 192.0, 0.0, 0.0, 0.0, 0.0, 0.0, 0.0, 0.0, 0.0, 0.0, 1.698958212654066E9, 0.0, 2023-11-02 16:50:12.654
71.0, -187500.02235174447, 187500.0, -3828.1609211159853, 20007.649959045644, 187500.0, 187500.0, -187500.02235174447, 41668.81491766154, -0.08600000000000001, 0.976, -0.054, 192.0, 253.0, 80.0, 30.0, 128.0, 254.0, 80.0, 0.0, 0.0, 0.0, 1.6989582126540768E9, 0.0, 2023-11-02 16:50:12.654
72.0, -187500.02235174447, 187500.0, -3819.4437407784158, 20022.58092434179, 187500.0, 187500.0, -187500.02235174447, 41676.839193921, -0.08600000000000001, 0.976, -0.054, 192.0, 0.0, 0.0, 0.0, 0.0, 0.0, 0.0, 0.0, 0.0, 0.0, 1.698958212654087E9, 0.0, 2023-11-02 16:50:12.654
73.0, -187500.02235174447, 187500.0, -3821.701266968402, 20036.416654159624, 187500.0, 187500.0, -187500.02235174447, 41678.76144394415, -0.08600000000000001, 0.976, -0.054, 192.0, 0.0, 0.0, 0.0, 0.0, 0.0, 0.0, 0.0, 0.0, 0.0, 1.6989582126541164E9, 0.0, 2023-11-02 16:50:12.654
74.0, -187500.02235174447, 187500.0, -3833.368877574072, 20029.10763372274, 187500.0, 187500.0, -187500.02235174447, 41669.03843510609, -0.08600000000000001, 0.976, -0.054, 192.0, 0.0, 0.0, 0.0, 0.0, 0.0, 0.0, 0.0, 0.0, 0.0, 1.6989582126541264E9, 0.0, 2023-11-02 16:50:12.654
75.0, -187500.02235174447, 187500.0, -3830.3066885836947, 20017.931761495085, 187500.0, 187500.0, -187500.02235174447, 41664.47867923721, -0.08600000000000001, 0.976, -0.054, 192.0, 0.0, 0.0, 0.0, 0.0, 0.0, 0.0, 0.0, 0.0, 0.0, 1.698958212654136E9, 0.0, 2023-11-02 16:50:12.654
76.0, -187500.02235174447, 187500.0, -3828.8314734496444, 20021.73155805249, 187500.0, 187500.0, -187500.02235174447, 41667.36205427194, -0.08600000000000001, 0.976, -0.054, 192.0, 0.0, 0.0, 0.0, 0.0, 0.0, 0.0, 0.0, 0.0, 0.0, 1.698958212654146E9, 0.0, 2023-11-02 16:50:12.654
77.0, -187500.02235174447, 187500.0, -3833.9053194409994, 20028.995875000463, 187500.0, 187500.0, -187500.02235174447, 41664.88101063741, -0.08600000000000001, 0.976, -0.054, 192.0, 0.0, 0.0, 0.0, 0.0, 0.0, 0.0, 0.0, 0.0, 0.0, 1.6989582126541717E9, 0.0, 2023-11-02 16:50:12.654
78.0, -187500.02235174447, 187500.0, -3839.716772999379, 20025.374892398704, 187500.0, 187500.0, -187500.02235174447, 41657.8849146229, -0.08600000000000001, 0.976, -0.054, 192.0, 0.0, 0.0, 0.0, 0.0, 0.0, 0.0, 0.0, 0.0, 0.0, 1.698958212654207E9, 0.0, 2023-11-02 16:50:12.654
79.0, -187500.02235174447, 187500.0, -3829.23380484984, 20026.850107532755, 187500.0, 187500.0, -187500.02235174447, 41667.47381299422, -0.08600000000000001, 0.976, -0.054, 192.0, 0.0, 0.0, 0.0, 0.0, 0.0, 0.0, 0.0, 0.0, 0.0, 1.6989582126542168E9, 0.0, 2023-11-02 16:50:12.654
80.0, -187500.02235174447, 187500.0, -3823.1764821024517, 20030.6275523457, 187500.0, 187500.0, -187500.02235174447, 41674.849888664474, -0.08600000000000001, 0.976, -0.054, 192.0, 0.0, 0.0, 0.0, 0.0, 0.0, 0.0, 0.0, 0.0, 0.0, 1.6989582126542263E9, 0.0, 2023-11-02 16:50:12.654
81.0, -187500.02235174447, 187500.0, -3817.0297523772424, 20043.59156412978, 187500.0, 187500.0, -187500.02235174447, 41681.53306025661, -0.084, 0.98, -0.054, 192.0, 253.0, 96.0, 30.0, 160.0, 254.0, 80.0, 0.0, 0.0, 0.0, 1.6989582126542375E9, 0.0, 2023-11-02 16:50:12.654
82.0, -187500.02235174447, 187500.0, -3812.1123685970747, 20052.509910167446, 187500.0, 187500.0, -187500.02235174447, 41688.082121382016, -0.084, 0.98, -0.054, 192.0, 0.0, 0.0, 0.0, 0.0, 0.0, 0.0, 0.0, 0.0, 0.0, 1.6989582126542485E9, 0.0, 2023-11-02 16:50:12.654
83.0, -187500.02235174447, 187500.0, -3809.7654354292677, 20038.24949720496, 187500.0, 187500.0, -187500.02235174447, 41688.8867841824, -0.084, 0.98, -0.054, 192.0, 0.0, 0.0, 0.0, 0.0, 0.0, 0.0, 0.0, 0.0, 0.0, 1.6989582126542578E9, 0.0, 2023-11-02 16:50:12.654
84.0, -187500.02235174447, 187500.0, -3806.2562115497844, 20029.800537800853, 187500.0, 187500.0, -187500.02235174447, 41689.6914469828, -0.084, 0.98, -0.054, 192.0, 0.0, 0.0, 0.0, 0.0, 0.0, 0.0, 0.0, 0.0, 0.0, 1.6989582126542675E9, 0.0, 2023-11-02 16:50:12.654
85.0, -187500.02235174447, 187500.0, -3807.9996476172983, 20028.57119185581, 187500.0, 187500.0, -187500.02235174447, 41691.412531305854, -0.084, 0.98, -0.054, 192.0, 0.0, 0.0, 0.0, 0.0, 0.0, 0.0, 0.0, 0.0, 0.0, 1.698958212654277E9, 0.0, 2023-11-02 16:50:12.654
86.0, -187500.02235174447, 187500.0, -3813.140548842019, 20017.90940975063, 187500.0, 187500.0, -187500.02235174447, 41689.19970860478, -0.084, 0.98, -0.054, 192.0, 0.0, 0.0, 0.0, 0.0, 0.0, 0.0, 0.0, 0.0, 0.0, 1.6989582126542866E9, 0.0, 2023-11-02 16:50:12.654
87.0, -187500.02235174447, 187500.0, -3806.9267638834435, 19997.52461880739, 187500.0, 187500.0, -187500.02235174447, 41693.40183656238, -0.084, 0.98, -0.054, 192.0, 0.0, 0.0, 0.0, 0.0, 0.0, 0.0, 0.0, 0.0, 0.0, 1.6989582126542962E9, 0.0, 2023-11-02 16:50:12.654
88.0, -187500.02235174447, 187500.0, -3807.6420197060133, 19970.702525461023, 187500.0, 187500.0, -187500.02235174447, 41690.69727548329, -0.084, 0.98, -0.054, 192.0, 0.0, 0.0, 0.0, 0.0, 0.0, 0.0, 0.0, 0.0, 0.0, 1.698958212654306E9, 0.0, 2023-11-02 16:50:12.654
89.0, -187500.02235174447, 187500.0, -3807.977295872843, 19956.889147387643, 187500.0, 187500.0, -187500.02235174447, 41694.00533366267, -0.084, 0.98, -0.054, 192.0, 0.0, 0.0, 0.0, 0.0, 0.0, 0.0, 0.0, 0.0, 0.0, 1.6989582126543155E9, 0.0, 2023-11-02 16:50:12.654
90.0, -187500.02235174447, 187500.0, -3820.1813483454407, 19928.591838907225, 187500.0, 187500.0, -187500.02235174447, 41684.55054575808, -0.084, 0.98, -0.054, 192.0, 0.0, 0.0, 0.0, 0.0, 0.0, 0.0, 0.0, 0.0, 0.0, 1.6989582126543248E9, 0.0, 2023-11-02 16:50:12.654
91.0, -187500.02235174447, 187500.0, -3820.114293112075, 19894.50542861288, 187500.0, 187500.0, -187500.02235174447, 41681.95774340126, -0.082, 0.976, -0.054, 192.0, 253.0, 112.0, 30.0, 128.0, 254.0, 80.0, 0.0, 0.0, 0.0, 1.6989582126543343E9, 0.0, 2023-11-02 16:50:12.654
92.0, -187500.02235174447, 187500.0, -3816.806234932689, 19866.096361410186, 187500.0, 187500.0, -187500.02235174447, 41682.44948177928, -0.082, 0.976, -0.054, 192.0, 0.0, 0.0, 0.0, 0.0, 0.0, 0.0, 0.0, 0.0, 0.0, 1.6989582126543448E9, 0.0, 2023-11-02 16:50:12.654
93.0, -187500.02235174447, 187500.0, -3813.9005081534992, 19847.365599556637, 187500.0, 187500.0, -187500.02235174447, 41686.07046438104, -0.082, 0.976, -0.054, 192.0, 0.0, 0.0, 0.0, 0.0, 0.0, 0.0, 0.0, 0.0, 0.0, 1.698958212654363E9, 0.0, 2023-11-02 16:50:12.654
94.0, -187500.02235174447, 187500.0, -3821.1871768459296, 19823.8292126452, 187500.0, 187500.0, -187500.02235174447, 41680.504880011664, -0.082, 0.976, -0.054, 192.0, 0.0, 0.0, 0.0, 0.0, 0.0, 0.0, 0.0, 0.0, 0.0, 1.698958212654373E9, 0.0, 2023-11-02 16:50:12.654
95.0, -187500.02235174447, 187500.0, -3819.779016945245, 19802.48329669038, 187500.0, 187500.0, -187500.02235174447, 41681.93539165681, -0.082, 0.976, -0.054, 192.0, 0.0, 0.0, 0.0, 0.0, 0.0, 0.0, 0.0, 0.0, 0.0, 1.6989582126543827E9, 0.0, 2023-11-02 16:50:12.654
96.0, -187500.02235174447, 187500.0, -3808.2008133173963, 19787.328813949684, 187500.0, 187500.0, -187500.02235174447, 41691.32312432803, -0.082, 0.976, -0.054, 192.0, 0.0, 0.0, 0.0, 0.0, 0.0, 0.0, 0.0, 0.0, 0.0, 1.6989582126543925E9, 0.0, 2023-11-02 16:50:12.654
97.0, -187500.02235174447, 187500.0, -3808.334923784128, 19775.840017299655, 187500.0, 187500.0, -187500.02235174447, 41691.703103983775, -0.082, 0.976, -0.054, 192.0, 0.0, 0.0, 0.0, 0.0, 0.0, 0.0, 0.0, 0.0, 0.0, 1.6989582126544025E9, 0.0, 2023-11-02 16:50:12.654
98.0, -187500.02235174447, 187500.0, -3819.3766855450494, 19762.13839794855, 187500.0, 187500.0, -187500.02235174447, 41682.337723057004, -0.082, 0.976, -0.054, 192.0, 0.0, 0.0, 0.0, 0.0, 0.0, 0.0, 0.0, 0.0, 0.0, 1.698958212654412E9, 0.0, 2023-11-02 16:50:12.654
99.0, -187500.02235174447, 187500.0, -3818.2814500667396, 19748.459130341904, 187500.0, 187500.0, -187500.02235174447, 41680.8401561785, -0.082, 0.976, -0.054, 192.0, 0.0, 0.0, 0.0, 0.0, 0.0, 0.0, 0.0, 0.0, 0.0, 1.6989582126544216E9, 0.0, 2023-11-02 16:50:12.654
100.0, -187500.02235174447, 187500.0, -3816.4039035324936, 19735.785691235746, 187500.0, 187500.0, -187500.02235174447, 41676.72743519872, -0.082, 0.976, -0.054, 192.0, 0.0, 0.0, 0.0, 0.0, 0.0, 0.0, 0.0, 0.0, 0.0, 1.6989582126544313E9, 0.0, 2023-11-02 16:50:12.654
101.0, -187500.02235174447, 187500.0, -3819.7343134563343, 19727.493194042825, 187500.0, 187500.0, -187500.02235174447, 41673.39702527488, -0.092, 0.978, -0.05, 192.0, 253.0, 32.0, 30.0, 144.0, 254.0, 112.0, 0.0, 0.0, 0.0, 1.698958212654441E9, 0.0, 2023-11-02 16:50:12.654
102.0, -187500.02235174447, 187500.0, -3821.723618712857, 19734.601048779616, 187500.0, 187500.0, -187500.02235174447, 41671.519478740636, -0.092, 0.978, -0.05, 192.0, 0.0, 0.0, 0.0, 0.0, 0.0, 0.0, 0.0, 0.0, 0.0, 1.6989582126544518E9, 0.0, 2023-11-02 16:50:12.654
103.0, -187500.02235174447, 187500.0, -3820.13664485653, 19736.411540080495, 187500.0, 187500.0, -187500.02235174447, 41672.45825200775, -0.092, 0.978, -0.05, 192.0, 0.0, 0.0, 0.0, 0.0, 0.0, 0.0, 0.0, 0.0, 0.0, 1.6989582126544645E9, 0.0, 2023-11-02 16:50:12.654
104.0, -187500.02235174447, 187500.0, -3823.1764821024517, 19726.44266205343, 187500.0, 187500.0, -187500.02235174447, 41666.177411815814, -0.092, 0.978, -0.05, 192.0, 0.0, 0.0, 0.0, 0.0, 0.0, 0.0, 0.0, 0.0, 0.0, 1.6989582126544747E9, 0.0, 2023-11-02 16:50:12.654
105.0, -187500.02235174447, 187500.0, -3814.302839553695, 19734.958676690898, 187500.0, 187500.0, -187500.02235174447, 41673.24056306369, -0.092, 0.978, -0.05, 192.0, 0.0, 0.0, 0.0, 0.0, 0.0, 0.0, 0.0, 0.0, 0.0, 1.6989582126544857E9, 0.0, 2023-11-02 16:50:12.654
106.0, -187500.02235174447, 187500.0, -3813.8111011756782, 19746.179252407463, 187500.0, 187500.0, -187500.02235174447, 41678.18029858831, -0.092, 0.978, -0.05, 192.0, 0.0, 0.0, 0.0, 0.0, 0.0, 0.0, 0.0, 0.0, 0.0, 1.698958212654496E9, 0.0, 2023-11-02 16:50:12.654
107.0, -187500.02235174447, 187500.0, -3824.986973403332, 19745.48634832935, 187500.0, 187500.0, -187500.02235174447, 41667.60792346096, -0.092, 0.978, -0.05, 192.0, 0.0, 0.0, 0.0, 0.0, 0.0, 0.0, 0.0, 0.0, 0.0, 1.6989582126545076E9, 0.0, 2023-11-02 16:50:12.654
108.0, -187500.02235174447, 187500.0, -3819.3543338005943, 19747.72152277488, 187500.0, 187500.0, -187500.02235174447, 41670.670112451335, -0.092, 0.978, -0.05, 192.0, 0.0, 0.0, 0.0, 0.0, 0.0, 0.0, 0.0, 0.0, 0.0, 1.6989582126545198E9, 0.0, 2023-11-02 16:50:12.654
109.0, -187500.02235174447, 187500.0, -3807.977295872843, 19753.935307733456, 187500.0, 187500.0, -187500.02235174447, 41678.38146428841, -0.092, 0.978, -0.05, 192.0, 0.0, 0.0, 0.0, 0.0, 0.0, 0.0, 0.0, 0.0, 0.0, 1.6989582126545527E9, 0.0, 2023-11-02 16:50:12.654
110.0, -187500.02235174447, 187500.0, -3811.0618366076756, 19765.826435783678, 187500.0, 187500.0, -187500.02235174447, 41677.26387706565, -0.092, 0.978, -0.05, 192.0, 0.0, 0.0, 0.0, 0.0, 0.0, 0.0, 0.0, 0.0, 0.0, 1.6989582126545696E9, 0.0, 2023-11-02 16:50:12.654
111.0, -187500.02235174447, 187500.0, -3826.976278659854, 19759.635002569557, 187500.0, 187500.0, -187500.02235174447, 41662.71289142524, -0.088, 0.976, -0.054, 192.0, 253.0, 64.0, 30.0, 128.0, 254.0, 80.0, 0.0, 0.0, 0.0, 1.6989582126545827E9, 0.0, 2023-11-02 16:50:12.654
112.0, -187500.02235174447, 187500.0, -3824.0258483917537, 19752.370685621583, 187500.0, 187500.0, -187500.02235174447, 41662.556429214055, -0.088, 0.976, -0.054, 192.0, 0.0, 0.0, 0.0, 0.0, 0.0, 0.0, 0.0, 0.0, 0.0, 1.698958212654598E9, 0.0, 2023-11-02 16:50:12.654
113.0, -187500.02235174447, 187500.0, -3816.917993654966, 19750.47078734288, 187500.0, 187500.0, -187500.02235174447, 41666.84796414947, -0.088, 0.976, -0.054, 192.0, 0.0, 0.0, 0.0, 0.0, 0.0, 0.0, 0.0, 0.0, 0.0, 1.6989582126546135E9, 0.0, 2023-11-02 16:50:12.654
114.0, -187500.02235174447, 187500.0, -3814.7051709538905, 19758.517415346792, 187500.0, 187500.0, -187500.02235174447, 41669.329007784014, -0.088, 0.976, -0.054, 192.0, 0.0, 0.0, 0.0, 0.0, 0.0, 0.0, 0.0, 0.0, 0.0, 1.6989582126546292E9, 0.0, 2023-11-02 16:50:12.654
115.0, -187500.02235174447, 187500.0, -3834.3523543301053, 19751.141339676542, 187500.0, 187500.0, -187500.02235174447, 41651.44761221977, -0.088, 0.976, -0.054, 192.0, 0.0, 0.0, 0.0, 0.0, 0.0, 0.0, 0.0, 0.0, 0.0, 1.6989582126546428E9, 0.0, 2023-11-02 16:50:12.654
116.0, -187500.02235174447, 187500.0, -3841.57196778917, 19738.57965929266, 187500.0, 187500.0, -187500.02235174447, 41640.0258708031, -0.088, 0.976, -0.054, 192.0, 0.0, 0.0, 0.0, 0.0, 0.0, 0.0, 0.0, 0.0, 0.0, 1.6989582126546571E9, 0.0, 2023-11-02 16:50:12.654
117.0, -187500.02235174447, 187500.0, -3828.4514937939043, 19743.67585702847, 187500.0, 187500.0, -187500.02235174447, 41650.64294941937, -0.088, 0.976, -0.054, 192.0, 0.0, 0.0, 0.0, 0.0, 0.0, 0.0, 0.0, 0.0, 0.0, 1.698958212654672E9, 0.0, 2023-11-02 16:50:12.654
118.0, -187500.02235174447, 187500.0, -3833.815912463178, 19746.15690066301, 187500.0, 187500.0, -187500.02235174447, 41646.57493192851, -0.088, 0.976, -0.054, 192.0, 0.0, 0.0, 0.0, 0.0, 0.0, 0.0, 0.0, 0.0, 0.0, 1.69895821265469E9, 0.0, 2023-11-02 16:50:12.654
119.0, -187500.02235174447, 187500.0, -3846.5340550582478, 19743.25117388382, 187500.0, 187500.0, -187500.02235174447, 41638.86358009143, -0.088, 0.976, -0.054, 192.0, 0.0, 0.0, 0.0, 0.0, 0.0, 0.0, 0.0, 0.0, 0.0, 1.6989582126547043E9, 0.0, 2023-11-02 16:50:12.654
120.0, -187500.02235174447, 187500.0, -3839.8285317216555, 19739.71959825988, 187500.0, 187500.0, -187500.02235174447, 41642.81983886002, -0.088, 0.976, -0.054, 192.0, 0.0, 0.0, 0.0, 0.0, 0.0, 0.0, 0.0, 0.0, 0.0, 1.698958212654716E9, 0.0, 2023-11-02 16:50:12.654
121.0, -187500.02235174447, 187500.0, -3827.6691827379686, 19737.10444415861, 187500.0, 187500.0, -187500.02235174447, 41648.653644162856, -0.09, 0.98, -0.054, 192.0, 253.0, 48.0, 30.0, 160.0, 254.0, 80.0, 0.0, 0.0, 0.0, 1.69895821265473E9, 0.0, 2023-11-02 16:50:12.654
122.0, -187500.02235174447, 187500.0, -3823.5788135026473, 19742.759435505803, 187500.0, 187500.0, -187500.02235174447, 41650.5311906971, -0.09, 0.98, -0.054, 192.0, 0.0, 0.0, 0.0, 0.0, 0.0, 0.0, 0.0, 0.0, 0.0, 1.6989582126547475E9, 0.0, 2023-11-02 16:50:12.654
123.0, -187500.02235174447, 187500.0, -3819.6672582229685, 19758.316249646694, 187500.0, 187500.0, -187500.02235174447, 41655.1803535438, -0.09, 0.98, -0.054, 192.0, 0.0, 0.0, 0.0, 0.0, 0.0, 0.0, 0.0, 0.0, 0.0, 1.698958212654766E9, 0.0, 2023-11-02 16:50:12.654
124.0, -187500.02235174447, 187500.0, -3826.2833745817397, 19752.52714783277, 187500.0, 187500.0, -187500.02235174447, 41647.49135345118, -0.09, 0.98, -0.054, 192.0, 0.0, 0.0, 0.0, 0.0, 0.0, 0.0, 0.0, 0.0, 0.0, 1.6989582126548877E9, 0.0, 2023-11-02 16:50:12.654
125.0, -187500.02235174447, 187500.0, -3835.201720619407, 19735.785691235746, 187500.0, 187500.0, -187500.02235174447, 41636.06961203452, -0.09, 0.98, -0.054, 192.0, 0.0, 0.0, 0.0, 0.0, 0.0, 0.0, 0.0, 0.0, 0.0, 1.6989582126549067E9, 0.0, 2023-11-02 16:50:12.654
126.0, -187500.02235174447, 187500.0, -3822.5729850021585, 19747.34154311914, 187500.0, 187500.0, -187500.02235174447, 41645.971434828214, -0.09, 0.98, -0.054, 192.0, 0.0, 0.0, 0.0, 0.0, 0.0, 0.0, 0.0, 0.0, 0.0, 1.6989582126549263E9, 0.0, 2023-11-02 16:50:12.654
127.0, -187500.02235174447, 187500.0, -3818.5720227446586, 19765.11117996111, 187500.0, 187500.0, -187500.02235174447, 41653.01223433164, -0.09, 0.98, -0.054, 192.0, 0.0, 0.0, 0.0, 0.0, 0.0, 0.0, 0.0, 0.0, 0.0, 1.6989582126549485E9, 0.0, 2023-11-02 16:50:12.654
128.0, -187500.02235174447, 187500.0, -3830.2172816058737, 19758.785636280256, 187500.0, 187500.0, -187500.02235174447, 41643.02100456012, -0.09, 0.98, -0.054, 192.0, 0.0, 0.0, 0.0, 0.0, 0.0, 0.0, 0.0, 0.0, 0.0, 1.6989582126549623E9, 0.0, 2023-11-02 16:50:12.654
129.0, -187500.02235174447, 187500.0, -3825.299897825706, 19749.040275697742, 187500.0, 187500.0, -187500.02235174447, 41645.077365050005, -0.09, 0.98, -0.054, 192.0, 0.0, 0.0, 0.0, 0.0, 0.0, 0.0, 0.0, 0.0, 0.0, 1.6989582126549747E9, 0.0, 2023-11-02 16:50:12.654
130.0, -187500.02235174447, 187500.0, -3820.6283832345466, 19751.655429799015, 187500.0, 187500.0, -187500.02235174447, 41650.039452319084, -0.09, 0.98, -0.054, 192.0, 0.0, 0.0, 0.0, 0.0, 0.0, 0.0, 0.0, 0.0, 0.0, 1.6989582126549935E9, 0.0, 2023-11-02 16:50:12.654
131.0, -187500.02235174447, 187500.0, -3826.66335423748, 19756.595165323637, 187500.0, 187500.0, -187500.02235174447, 41644.920902838814, -0.092, 0.976, -0.05, 192.0, 253.0, 32.0, 30.0, 128.0, 254.0, 112.0, 0.0, 0.0, 0.0, 1.6989582126550107E9, 0.0, 2023-11-02 16:50:12.655
132.0, -187500.02235174447, 187500.0, -3833.1230083850633, 19756.19283392344, 187500.0, 187500.0, -187500.02235174447, 41636.561350412536, -0.092, 0.976, -0.05, 192.0, 0.0, 0.0, 0.0, 0.0, 0.0, 0.0, 0.0, 0.0, 0.0, 1.698958212655033E9, 0.0, 2023-11-02 16:50:12.655
133.0, -187500.02235174447, 187500.0, -3841.1249329000634, 19743.139415161542, 187500.0, 187500.0, -187500.02235174447, 41625.60899562943, -0.092, 0.976, -0.05, 192.0, 0.0, 0.0, 0.0, 0.0, 0.0, 0.0, 0.0, 0.0, 0.0, 1.698958212655054E9, 0.0, 2023-11-02 16:50:12.655
134.0, -187500.02235174447, 187500.0, -3828.5409007717253, 19746.29101112974, 187500.0, 187500.0, -187500.02235174447, 41635.846094589964, -0.092, 0.976, -0.05, 192.0, 0.0, 0.0, 0.0, 0.0, 0.0, 0.0, 0.0, 0.0, 0.0, 1.6989582126550686E9, 0.0, 2023-11-02 16:50:12.655
135.0, -187500.02235174447, 187500.0, -3826.261022837284, 19764.977069494376, 187500.0, 187500.0, -187500.02235174447, 41643.736260382684, -0.092, 0.976, -0.05, 192.0, 0.0, 0.0, 0.0, 0.0, 0.0, 0.0, 0.0, 0.0, 0.0, 1.6989582126550834E9, 0.0, 2023-11-02 16:50:12.655
136.0, -187500.02235174447, 187500.0, -3829.0996943831083, 19770.855578286122, 187500.0, 187500.0, -187500.02235174447, 41642.79748711556, -0.092, 0.976, -0.05, 192.0, 0.0, 0.0, 0.0, 0.0, 0.0, 0.0, 0.0, 0.0, 0.0, 1.6989582126551175E9, 0.0, 2023-11-02 16:50:12.655
137.0, -187500.02235174447, 187500.0, -3836.1628456309854, 19760.126740947573, 187500.0, 187500.0, -187500.02235174447, 41632.67214687731, -0.092, 0.976, -0.05, 192.0, 0.0, 0.0, 0.0, 0.0, 0.0, 0.0, 0.0, 0.0, 0.0, 1.6989582126551387E9, 0.0, 2023-11-02 16:50:12.655
138.0, -187500.02235174447, 187500.0, -3828.8538251941, 19759.009153724808, 187500.0, 187500.0, -187500.02235174447, 41632.04629803256, -0.092, 0.976, -0.05, 192.0, 0.0, 0.0, 0.0, 0.0, 0.0, 0.0, 0.0, 0.0, 0.0, 1.6989582126551573E9, 0.0, 2023-11-02 16:50:12.655
139.0, -187500.02235174447, 187500.0, -3818.6614297224796, 19774.85654054362, 187500.0, 187500.0, -187500.02235174447, 41641.031699303596, -0.092, 0.976, -0.05, 192.0, 0.0, 0.0, 0.0, 0.0, 0.0, 0.0, 0.0, 0.0, 0.0, 1.698958212655568E9, 0.0, 2023-11-02 16:50:12.655
0.0, 0.0, 0.0, 0.0, 0.0, 0.0, 0.0, 0.0, 0.0, -0.09, 0.978, 0.004, 192.0, 253.0, 48.0, 30.0, 144.0, 0.0, 32.0, 0.0, 0.0, 0.0, 1.6989582127204924E9, 0.0, 2023-11-02 16:50:12.720
1.0, -187500.02235174447, 187500.0, 512.7713695491993, 31772.602411818792, 187500.0, 187500.0, -187500.02235174447, 37445.65396853137, -0.09, 0.978, 0.004, 192.0, 0.0, 0.0, 0.0, 0.0, 0.0, 0.0, 0.0, 0.0, 0.0, 1.698958212736747E9, 0.0, 2023-11-02 16:50:12.736
2.0, -187500.02235174447, 187500.0, 522.8296545540875, 31777.0504089654, 187500.0, 187500.0, -187500.02235174447, 37456.69573029229, -0.09, 0.978, 0.004, 192.0, 0.0, 0.0, 0.0, 0.0, 0.0, 0.0, 0.0, 0.0, 0.0, 1.6989582132165263E9, 0.0, 2023-11-02 16:50:13.216
3.0, -187500.02235174447, 187500.0, 522.6061371095344, 31796.965813275077, 187500.0, 187500.0, -187500.02235174447, 37456.62867505893, -0.09, 0.978, 0.004, 192.0, 0.0, 0.0, 0.0, 0.0, 0.0, 0.0, 0.0, 0.0, 0.0, 1.6989582132166195E9, 0.0, 2023-11-02 16:50:13.216
4.0, -187500.02235174447, 187500.0, 520.0356864971741, 31811.539150659937, 187500.0, 187500.0, -187500.02235174447, 37455.01934945814, -0.09, 0.978, 0.004, 192.0, 0.0, 0.0, 0.0, 0.0, 0.0, 0.0, 0.0, 0.0, 0.0, 1.6989582132166367E9, 0.0, 2023-11-02 16:50:13.216
5.0, -187500.02235174447, 187500.0, 526.3388784335707, 31805.258310467998, 187500.0, 187500.0, -187500.02235174447, 37459.93673323831, -0.09, 0.978, 0.004, 192.0, 0.0, 0.0, 0.0, 0.0, 0.0, 0.0, 0.0, 0.0, 0.0, 1.6989582132167118E9, 0.0, 2023-11-02 16:50:13.216
6.0, -187500.02235174447, 187500.0, 524.9754220217969, 31795.44589465212, 187500.0, 187500.0, -187500.02235174447, 37459.31088439356, -0.09, 0.978, 0.004, 192.0, 0.0, 0.0, 0.0, 0.0, 0.0, 0.0, 0.0, 0.0, 0.0, 1.6989582132167275E9, 0.0, 2023-11-02 16:50:13.216
7.0, -187500.02235174447, 187500.0, 529.9151575464199, 31809.527493658963, 187500.0, 187500.0, -187500.02235174447, 37464.67530306284, -0.09, 0.978, 0.004, 192.0, 0.0, 0.0, 0.0, 0.0, 0.0, 0.0, 0.0, 0.0, 0.0, 1.6989582132167387E9, 0.0, 2023-11-02 16:50:13.216
8.0, -187500.02235174447, 187500.0, 522.9190615319087, 31832.661549170203, 187500.0, 187500.0, -187500.02235174447, 37457.098061692486, -0.084, 0.976, 0.03, 192.0, 253.0, 96.0, 30.0, 128.0, 0.0, 240.0, 0.0, 0.0, 0.0, 1.6989582132167523E9, 0.0, 2023-11-02 16:50:13.216
9.0, -187500.02235174447, 187500.0, 528.9763842792969, 31814.020194294477, 187500.0, 187500.0, -187500.02235174447, 37459.199125671286, -0.084, 0.976, 0.03, 192.0, 0.0, 0.0, 0.0, 0.0, 0.0, 0.0, 0.0, 0.0, 0.0, 1.6989582132167735E9, 0.0, 2023-11-02 16:50:13.216
10.0, -187500.02235174447, 187500.0, 534.0055267817411, 31797.34579293082, 187500.0, 187500.0, -187500.02235174447, 37463.91534375135, -0.084, 0.976, 0.03, 192.0, 0.0, 0.0, 0.0, 0.0, 0.0, 0.0, 0.0, 0.0, 0.0, 1.698958213216787E9, 0.0, 2023-11-02 16:50:13.216
11.0, -187500.02235174447, 187500.0, 526.942375533864, 31805.235958723544, 187500.0, 187500.0, -187500.02235174447, 37457.34393088149, -0.084, 0.976, 0.03, 192.0, 0.0, 0.0, 0.0, 0.0, 0.0, 0.0, 0.0, 0.0, 0.0, 1.6989582132167995E9, 0.0, 2023-11-02 16:50:13.216
12.0, -187500.02235174447, 187500.0, 517.3534771625373, 31820.815124608893, 187500.0, 187500.0, -187500.02235174447, 37446.86096273195, -0.084, 0.976, 0.03, 192.0, 0.0, 0.0, 0.0, 0.0, 0.0, 0.0, 0.0, 0.0, 0.0, 1.6989582132168124E9, 0.0, 2023-11-02 16:50:13.216
13.0, -187500.02235174447, 187500.0, 512.2796311711826, 31808.655775625204, 187500.0, 187500.0, -187500.02235174447, 37440.49071556219, -0.084, 0.976, 0.03, 192.0, 0.0, 0.0, 0.0, 0.0, 0.0, 0.0, 0.0, 0.0, 0.0, 1.6989582132168279E9, 0.0, 2023-11-02 16:50:13.216
14.0, -187500.02235174447, 187500.0, 523.1202272320065, 31793.18836846213, 187500.0, 187500.0, -187500.02235174447, 37450.437241844804, -0.084, 0.976, 0.03, 192.0, 0.0, 0.0, 0.0, 0.0, 0.0, 0.0, 0.0, 0.0, 0.0, 1.6989582132171242E9, 0.0, 2023-11-02 16:50:13.217
15.0, -187500.02235174447, 187500.0, 526.0036022667412, 31798.552787131404, 187500.0, 187500.0, -187500.02235174447, 37452.337140123505, -0.084, 0.976, 0.03, 192.0, 0.0, 0.0, 0.0, 0.0, 0.0, 0.0, 0.0, 0.0, 0.0, 1.6989582132171416E9, 0.0, 2023-11-02 16:50:13.217
16.0, -187500.02235174447, 187500.0, 520.6615353419227, 31822.089174042845, 187500.0, 187500.0, -187500.02235174447, 37447.732680765715, -0.084, 0.976, 0.03, 192.0, 0.0, 0.0, 0.0, 0.0, 0.0, 0.0, 0.0, 0.0, 0.0, 1.698958213217154E9, 0.0, 2023-11-02 16:50:13.217
17.0, -187500.02235174447, 187500.0, 520.8850527864757, 31821.128049031267, 187500.0, 187500.0, -187500.02235174447, 37447.75503251017, -0.084, 0.976, 0.03, 192.0, 0.0, 0.0, 0.0, 0.0, 0.0, 0.0, 0.0, 0.0, 0.0, 1.6989582132171657E9, 0.0, 2023-11-02 16:50:13.217
18.0, -187500.02235174447, 187500.0, 525.19893946635, 31801.52556914396, 187500.0, 187500.0, -187500.02235174447, 37449.83374474451, -0.084, 0.968, 0.042, 192.0, 253.0, 96.0, 30.0, 64.0, 1.0, 80.0, 0.0, 0.0, 0.0, 1.6989582132171793E9, 0.0, 2023-11-02 16:50:13.217
19.0, -187500.02235174447, 187500.0, 527.0317825116853, 31800.251519710007, 187500.0, 187500.0, -187500.02235174447, 37449.543172066595, -0.084, 0.968, 0.042, 192.0, 0.0, 0.0, 0.0, 0.0, 0.0, 0.0, 0.0, 0.0, 0.0, 1.698958213217193E9, 0.0, 2023-11-02 16:50:13.217
20.0, -187500.02235174447, 187500.0, 519.7004103303445, 31823.989072321547, 187500.0, 187500.0, -187500.02235174447, 37443.55290455257, -0.084, 0.968, 0.042, 192.0, 0.0, 0.0, 0.0, 0.0, 0.0, 0.0, 0.0, 0.0, 0.0, 1.6989582132172072E9, 0.0, 2023-11-02 16:50:13.217
21.0, -187500.02235174447, 187500.0, 512.8607765270206, 31816.031851295455, 187500.0, 187500.0, -187500.02235174447, 37434.567503281534, -0.084, 0.968, 0.042, 192.0, 0.0, 0.0, 0.0, 0.0, 0.0, 0.0, 0.0, 0.0, 0.0, 1.698958213217219E9, 0.0, 2023-11-02 16:50:13.217
22.0, -187500.02235174447, 187500.0, 516.4147038954144, 31799.24569120952, 187500.0, 187500.0, -187500.02235174447, 37436.467401560236, -0.084, 0.968, 0.042, 192.0, 0.0, 0.0, 0.0, 0.0, 0.0, 0.0, 0.0, 0.0, 0.0, 1.698958213217232E9, 0.0, 2023-11-02 16:50:13.217
23.0, -187500.02235174447, 187500.0, 519.6557068414339, 31800.2068162211, 187500.0, 187500.0, -187500.02235174447, 37440.378956839915, -0.084, 0.968, 0.042, 192.0, 0.0, 0.0, 0.0, 0.0, 0.0, 0.0, 0.0, 0.0, 0.0, 1.6989582132172449E9, 0.0, 2023-11-02 16:50:13.217
24.0, -187500.02235174447, 187500.0, 520.0803899860847, 31821.55273217592, 187500.0, 187500.0, -187500.02235174447, 37441.988282440696, -0.084, 0.968, 0.042, 192.0, 0.0, 0.0, 0.0, 0.0, 0.0, 0.0, 0.0, 0.0, 0.0, 1.698958213217265E9, 0.0, 2023-11-02 16:50:13.217
25.0, -187500.02235174447, 187500.0, 522.5837853650792, 31840.19408705164, 187500.0, 187500.0, -187500.02235174447, 37442.36826209644, -0.084, 0.968, 0.042, 192.0, 0.0, 0.0, 0.0, 0.0, 0.0, 0.0, 0.0, 0.0, 0.0, 1.6989582132172976E9, 0.0, 2023-11-02 16:50:13.217
26.0, -187500.02235174447, 187500.0, 520.7062388308333, 31821.35156647582, 187500.0, 187500.0, -187500.02235174447, 37436.668567260334, -0.084, 0.968, 0.042, 192.0, 0.0, 0.0, 0.0, 0.0, 0.0, 0.0, 0.0, 0.0, 0.0, 1.6989582132173288E9, 0.0, 2023-11-02 16:50:13.217
27.0, -187500.02235174447, 187500.0, 520.5274248751908, 31808.454609925106, 187500.0, 187500.0, -187500.02235174447, 37435.618035270934, -0.082, 0.972, 0.044, 192.0, 253.0, 112.0, 30.0, 96.0, 1.0, 96.0, 0.0, 0.0, 0.0, 1.6989582132173471E9, 0.0, 2023-11-02 16:50:13.217
28.0, -187500.02235174447, 187500.0, 520.5721283641014, 31826.67128165618, 187500.0, 187500.0, -187500.02235174447, 37438.03202367211, -0.082, 0.972, 0.044, 192.0, 0.0, 0.0, 0.0, 0.0, 0.0, 0.0, 0.0, 0.0, 0.0, 1.6989582132173605E9, 0.0, 2023-11-02 16:50:13.217
29.0, -187500.02235174447, 187500.0, 517.3087736736267, 31845.40204350973, 187500.0, 187500.0, -187500.02235174447, 37435.12629689292, -0.082, 0.972, 0.044, 192.0, 0.0, 0.0, 0.0, 0.0, 0.0, 0.0, 0.0, 0.0, 0.0, 1.6989582132173712E9, 0.0, 2023-11-02 16:50:13.217
30.0, -187500.02235174447, 187500.0, 528.0152592677188, 31833.175639292676, 187500.0, 187500.0, -187500.02235174447, 37443.44114583029, -0.082, 0.972, 0.044, 192.0, 0.0, 0.0, 0.0, 0.0, 0.0, 0.0, 0.0, 0.0, 0.0, 1.6989582132174258E9, 0.0, 2023-11-02 16:50:13.217
31.0, -187500.02235174447, 187500.0, 537.5818058945902, 31829.30878750191, 187500.0, 187500.0, -187500.02235174447, 37452.60536105697, -0.082, 0.972, 0.044, 192.0, 0.0, 0.0, 0.0, 0.0, 0.0, 0.0, 0.0, 0.0, 0.0, 1.6989582132174387E9, 0.0, 2023-11-02 16:50:13.217
32.0, -187500.02235174447, 187500.0, 533.4243814259031, 31846.40787201022, 187500.0, 187500.0, -187500.02235174447, 37448.98437845521, -0.082, 0.972, 0.044, 192.0, 0.0, 0.0, 0.0, 0.0, 0.0, 0.0, 0.0, 0.0, 0.0, 1.6989582132174523E9, 0.0, 2023-11-02 16:50:13.217
33.0, -187500.02235174447, 187500.0, 518.5381196186686, 31859.707159961126, 187500.0, 187500.0, -187500.02235174447, 37434.45574455926, -0.082, 0.972, 0.044, 192.0, 0.0, 0.0, 0.0, 0.0, 0.0, 0.0, 0.0, 0.0, 0.0, 1.6989582132174633E9, 0.0, 2023-11-02 16:50:13.217
34.0, -187500.02235174447, 187500.0, 529.2669569572159, 31844.843249898346, 187500.0, 187500.0, -187500.02235174447, 37442.614131285445, -0.082, 0.972, 0.044, 192.0, 0.0, 0.0, 0.0, 0.0, 0.0, 0.0, 0.0, 0.0, 0.0, 1.6989582132174745E9, 0.0, 2023-11-02 16:50:13.217
35.0, -187500.02235174447, 187500.0, 528.2387767122718, 31832.661549170203, 187500.0, 187500.0, -187500.02235174447, 37442.14474465189, -0.082, 0.972, 0.044, 192.0, 0.0, 0.0, 0.0, 0.0, 0.0, 0.0, 0.0, 0.0, 0.0, 1.6989582132174857E9, 0.0, 2023-11-02 16:50:13.217
36.0, -187500.02235174447, 187500.0, 535.2348727267829, 31837.690691672648, 187500.0, 187500.0, -187500.02235174447, 37448.60439879947, -0.082, 0.972, 0.044, 192.0, 0.0, 0.0, 0.0, 0.0, 0.0, 0.0, 0.0, 0.0, 0.0, 1.6989582132174983E9, 0.0, 2023-11-02 16:50:13.217
37.0, -187500.02235174447, 187500.0, 526.1153609890176, 31865.183337352675, 187500.0, 187500.0, -187500.02235174447, 37440.35660509546, -0.084, 0.974, 0.052000000000000005, 192.0, 253.0, 96.0, 30.0, 112.0, 1.0, 160.0, 0.0, 0.0, 0.0, 1.6989582132175097E9, 0.0, 2023-11-02 16:50:13.217
38.0, -187500.02235174447, 187500.0, 519.7674655637104, 31856.73437794857, 187500.0, 187500.0, -187500.02235174447, 37434.27693060362, -0.084, 0.974, 0.052000000000000005, 192.0, 0.0, 0.0, 0.0, 0.0, 0.0, 0.0, 0.0, 0.0, 0.0, 1.6989582132175236E9, 0.0, 2023-11-02 16:50:13.217
39.0, -187500.02235174447, 187500.0, 527.4788174007914, 31839.34472076234, 187500.0, 187500.0, -187500.02235174447, 37440.35660509546, -0.084, 0.974, 0.052000000000000005, 192.0, 0.0, 0.0, 0.0, 0.0, 0.0, 0.0, 0.0, 0.0, 0.0, 1.6989582132175393E9, 0.0, 2023-11-02 16:50:13.217
40.0, -187500.02235174447, 187500.0, 532.2844424586824, 31850.87822090128, 187500.0, 187500.0, -187500.02235174447, 37444.916360964344, -0.084, 0.974, 0.052000000000000005, 192.0, 0.0, 0.0, 0.0, 0.0, 0.0, 0.0, 0.0, 0.0, 0.0, 1.6989582132175512E9, 0.0, 2023-11-02 16:50:13.217
41.0, -187500.02235174447, 187500.0, 522.7402475762663, 31877.00741016953, 187500.0, 187500.0, -187500.02235174447, 37436.109773648954, -0.084, 0.974, 0.052000000000000005, 192.0, 0.0, 0.0, 0.0, 0.0, 0.0, 0.0, 0.0, 0.0, 0.0, 1.6989582132175636E9, 0.0, 2023-11-02 16:50:13.217
42.0, -187500.02235174447, 187500.0, 527.0988377450511, 31873.54288977896, 187500.0, 187500.0, -187500.02235174447, 37439.59664578398, -0.084, 0.974, 0.052000000000000005, 192.0, 0.0, 0.0, 0.0, 0.0, 0.0, 0.0, 0.0, 0.0, 0.0, 1.6989582132175744E9, 0.0, 2023-11-02 16:50:13.217
43.0, -187500.02235174447, 187500.0, 529.1328464904841, 31851.951104635133, 187500.0, 187500.0, -187500.02235174447, 37440.244846373185, -0.084, 0.974, 0.052000000000000005, 192.0, 0.0, 0.0, 0.0, 0.0, 0.0, 0.0, 0.0, 0.0, 0.0, 1.6989582132175848E9, 0.0, 2023-11-02 16:50:13.217
44.0, -187500.02235174447, 187500.0, 531.7032971028444, 31847.88308714427, 187500.0, 187500.0, -187500.02235174447, 37443.06116617456, -0.084, 0.974, 0.052000000000000005, 192.0, 0.0, 0.0, 0.0, 0.0, 0.0, 0.0, 0.0, 0.0, 0.0, 1.6989582132175963E9, 0.0, 2023-11-02 16:50:13.217
45.0, -187500.02235174447, 187500.0, 527.523520889702, 31877.63325901428, 187500.0, 187500.0, -187500.02235174447, 37441.20597138476, -0.084, 0.974, 0.052000000000000005, 192.0, 0.0, 0.0, 0.0, 0.0, 0.0, 0.0, 0.0, 0.0, 0.0, 1.6989582132176373E9, 0.0, 2023-11-02 16:50:13.217
46.0, -187500.02235174447, 187500.0, 512.7713695491993, 31878.706142748135, 187500.0, 187500.0, -187500.02235174447, 37425.068011888034, -0.084, 0.974, 0.052000000000000005, 192.0, 0.0, 0.0, 0.0, 0.0, 0.0, 0.0, 0.0, 0.0, 0.0, 1.6989582132176495E9, 0.0, 2023-11-02 16:50:13.217
47.0, -187500.02235174447, 187500.0, 521.8908812869646, 31850.1182615898, 187500.0, 187500.0, -187500.02235174447, 37431.706479991255, -0.08600000000000001, 0.974, 0.056, 192.0, 253.0, 80.0, 30.0, 112.0, 1.0, 192.0, 0.0, 0.0, 0.0, 1.698958213217663E9, 0.0, 2023-11-02 16:50:13.217
48.0, -187500.02235174447, 187500.0, 523.880186543487, 31850.185316823165, 187500.0, 187500.0, -187500.02235174447, 37433.941654436785, -0.08600000000000001, 0.974, 0.056, 192.0, 0.0, 0.0, 0.0, 0.0, 0.0, 0.0, 0.0, 0.0, 0.0, 1.6989582132176793E9, 0.0, 2023-11-02 16:50:13.217
49.0, -187500.02235174447, 187500.0, 519.6780585858892, 31867.507918776028, 187500.0, 187500.0, -187500.02235174447, 37430.36537532394, -0.08600000000000001, 0.974, 0.056, 192.0, 0.0, 0.0, 0.0, 0.0, 0.0, 0.0, 0.0, 0.0, 0.0, 1.6989582132176917E9, 0.0, 2023-11-02 16:50:13.217
50.0, -187500.02235174447, 187500.0, 523.4331516543808, 31886.775122496503, 187500.0, 187500.0, -187500.02235174447, 37435.4392213153, -0.08600000000000001, 0.974, 0.056, 192.0, 0.0, 0.0, 0.0, 0.0, 0.0, 0.0, 0.0, 0.0, 0.0, 1.698958213217702E9, 0.0, 2023-11-02 16:50:13.217
51.0, -187500.02235174447, 187500.0, 526.9200237894087, 31872.402950811742, 187500.0, 187500.0, -187500.02235174447, 37439.261369617154, -0.08600000000000001, 0.974, 0.056, 192.0, 0.0, 0.0, 0.0, 0.0, 0.0, 0.0, 0.0, 0.0, 0.0, 1.698958213217712E9, 0.0, 2023-11-02 16:50:13.217
52.0, -187500.02235174447, 187500.0, 528.1493697344506, 31858.54486924945, 187500.0, 187500.0, -187500.02235174447, 37438.92609345032, -0.08600000000000001, 0.974, 0.056, 192.0, 0.0, 0.0, 0.0, 0.0, 0.0, 0.0, 0.0, 0.0, 0.0, 1.6989582132177236E9, 0.0, 2023-11-02 16:50:13.217
53.0, -187500.02235174447, 187500.0, 514.7383230612663, 31873.87816594579, 187500.0, 187500.0, -187500.02235174447, 37428.68899448979, -0.08600000000000001, 0.974, 0.056, 192.0, 0.0, 0.0, 0.0, 0.0, 0.0, 0.0, 0.0, 0.0, 0.0, 1.6989582132177355E9, 0.0, 2023-11-02 16:50:13.217
54.0, -187500.02235174447, 187500.0, 512.2125759378166, 31884.897575962255, 187500.0, 187500.0, -187500.02235174447, 37424.46451478774, -0.08600000000000001, 0.974, 0.056, 192.0, 0.0, 0.0, 0.0, 0.0, 0.0, 0.0, 0.0, 0.0, 0.0, 1.6989582132177465E9, 0.0, 2023-11-02 16:50:13.217
55.0, -187500.02235174447, 187500.0, 513.8219015385988, 31873.609945012326, 187500.0, 187500.0, -187500.02235174447, 37421.581139753005, -0.08600000000000001, 0.974, 0.056, 192.0, 0.0, 0.0, 0.0, 0.0, 0.0, 0.0, 0.0, 0.0, 0.0, 1.6989582132177603E9, 0.0, 2023-11-02 16:50:13.217
56.0, -187500.02235174447, 187500.0, 515.5206341172021, 31853.761595936016, 187500.0, 187500.0, -187500.02235174447, 37419.10009611846, -0.08600000000000001, 0.974, 0.056, 192.0, 0.0, 0.0, 0.0, 0.0, 0.0, 0.0, 0.0, 0.0, 0.0, 1.6989582132177727E9, 0.0, 2023-11-02 16:50:13.217
57.0, -187500.02235174447, 187500.0, 516.459407384325, 31864.043398385456, 187500.0, 187500.0, -187500.02235174447, 37420.68706997479, -0.08600000000000001, 0.98, 0.05, 192.0, 253.0, 80.0, 30.0, 160.0, 1.0, 144.0, 0.0, 0.0, 0.0, 1.6989582132177827E9, 0.0, 2023-11-02 16:50:13.217
58.0, -187500.02235174447, 187500.0, 503.98713397826367, 31884.674058517703, 187500.0, 187500.0, -187500.02235174447, 37410.06999135852, -0.08600000000000001, 0.98, 0.05, 192.0, 0.0, 0.0, 0.0, 0.0, 0.0, 0.0, 0.0, 0.0, 0.0, 1.698958213217794E9, 0.0, 2023-11-02 16:50:13.217
59.0, -187500.02235174447, 187500.0, 503.92007874489775, 31874.414607812716, 187500.0, 187500.0, -187500.02235174447, 37408.59477622447, -0.08600000000000001, 0.98, 0.05, 192.0, 0.0, 0.0, 0.0, 0.0, 0.0, 0.0, 0.0, 0.0, 0.0, 1.6989582132178068E9, 0.0, 2023-11-02 16:50:13.217
60.0, -187500.02235174447, 187500.0, 507.8539857690318, 31858.34370354935, 187500.0, 187500.0, -187500.02235174447, 37410.964061136736, -0.08600000000000001, 0.98, 0.05, 192.0, 0.0, 0.0, 0.0, 0.0, 0.0, 0.0, 0.0, 0.0, 0.0, 1.6989582132178552E9, 0.0, 2023-11-02 16:50:13.217
61.0, -187500.02235174447, 187500.0, 505.7305700457776, 31866.099758875345, 187500.0, 187500.0, -187500.02235174447, 37408.23714831319, -0.08600000000000001, 0.98, 0.05, 192.0, 0.0, 0.0, 0.0, 0.0, 0.0, 0.0, 0.0, 0.0, 0.0, 1.6989582132178686E9, 0.0, 2023-11-02 16:50:13.217
62.0, -187500.02235174447, 187500.0, 509.4856631142692, 31891.089009176376, 187500.0, 187500.0, -187500.02235174447, 37412.30516580405, -0.08600000000000001, 0.98, 0.05, 192.0, 0.0, 0.0, 0.0, 0.0, 0.0, 0.0, 0.0, 0.0, 0.0, 1.6989582132178805E9, 0.0, 2023-11-02 16:50:13.217
63.0, -187500.02235174447, 187500.0, 517.8675672850094, 31896.74400052357, 187500.0, 187500.0, -187500.02235174447, 37419.323613563014, -0.08600000000000001, 0.98, 0.05, 192.0, 0.0, 0.0, 0.0, 0.0, 0.0, 0.0, 0.0, 0.0, 0.0, 1.698958213217894E9, 0.0, 2023-11-02 16:50:13.217
64.0, -187500.02235174447, 187500.0, 530.0492680131517, 31886.64101202977, 187500.0, 187500.0, -187500.02235174447, 37430.879465446415, -0.08600000000000001, 0.98, 0.05, 192.0, 0.0, 0.0, 0.0, 0.0, 0.0, 0.0, 0.0, 0.0, 0.0, 1.698958213217908E9, 0.0, 2023-11-02 16:50:13.217
65.0, -187500.02235174447, 187500.0, 534.7207826043109, 31897.861587746334, 187500.0, 187500.0, -187500.02235174447, 37436.84738121598, -0.08600000000000001, 0.98, 0.05, 192.0, 0.0, 0.0, 0.0, 0.0, 0.0, 0.0, 0.0, 0.0, 0.0, 1.6989582132179193E9, 0.0, 2023-11-02 16:50:13.217
66.0, -187500.02235174447, 187500.0, 526.5847476225791, 31924.393108414784, 187500.0, 187500.0, -187500.02235174447, 37430.521837535125, -0.08600000000000001, 0.98, 0.05, 192.0, 0.0, 0.0, 0.0, 0.0, 0.0, 0.0, 0.0, 0.0, 0.0, 1.6989582132179308E9, 0.0, 2023-11-02 16:50:13.217
67.0, -187500.02235174447, 187500.0, 526.6741546004004, 31922.761431069546, 187500.0, 187500.0, -187500.02235174447, 37429.09132588999, -0.084, 0.972, 0.056, 192.0, 253.0, 96.0, 30.0, 96.0, 1.0, 192.0, 0.0, 0.0, 0.0, 1.6989582132179427E9, 0.0, 2023-11-02 16:50:13.217
68.0, -187500.02235174447, 187500.0, 529.9375092908751, 31904.634166316293, 187500.0, 187500.0, -187500.02235174447, 37430.6335962574, -0.084, 0.972, 0.056, 192.0, 0.0, 0.0, 0.0, 0.0, 0.0, 0.0, 0.0, 0.0, 0.0, 1.6989582132179544E9, 0.0, 2023-11-02 16:50:13.217
69.0, -187500.02235174447, 187500.0, 531.9938697807634, 31902.17547442621, 187500.0, 187500.0, -187500.02235174447, 37430.32067183503, -0.084, 0.972, 0.056, 192.0, 0.0, 0.0, 0.0, 0.0, 0.0, 0.0, 0.0, 0.0, 0.0, 1.6989582132180014E9, 0.0, 2023-11-02 16:50:13.218
70.0, -187500.02235174447, 187500.0, 531.6138901250232, 31926.203599715664, 187500.0, 187500.0, -187500.02235174447, 37430.946520679776, -0.084, 0.972, 0.056, 192.0, 0.0, 0.0, 0.0, 0.0, 0.0, 0.0, 0.0, 0.0, 0.0, 1.6989582132180142E9, 0.0, 2023-11-02 16:50:13.218
71.0, -187500.02235174447, 187500.0, 521.7567708202328, 31932.663253863248, 187500.0, 187500.0, -187500.02235174447, 37422.25169208666, -0.084, 0.972, 0.056, 192.0, 0.0, 0.0, 0.0, 0.0, 0.0, 0.0, 0.0, 0.0, 0.0, 1.6989582132180264E9, 0.0, 2023-11-02 16:50:13.218
72.0, -187500.02235174447, 187500.0, 529.3116604461266, 31909.64095707428, 187500.0, 187500.0, -187500.02235174447, 37426.56557876654, -0.084, 0.972, 0.056, 192.0, 0.0, 0.0, 0.0, 0.0, 0.0, 0.0, 0.0, 0.0, 0.0, 1.6989582132180374E9, 0.0, 2023-11-02 16:50:13.218
73.0, -187500.02235174447, 187500.0, 536.6430326274673, 31908.009279729045, 187500.0, 187500.0, -187500.02235174447, 37433.76284048115, -0.084, 0.972, 0.056, 192.0, 0.0, 0.0, 0.0, 0.0, 0.0, 0.0, 0.0, 0.0, 0.0, 1.6989582132180493E9, 0.0, 2023-11-02 16:50:13.218
74.0, -187500.02235174447, 187500.0, 530.5410063911685, 31933.31145445245, 187500.0, 187500.0, -187500.02235174447, 37429.404250312364, -0.084, 0.972, 0.056, 192.0, 0.0, 0.0, 0.0, 0.0, 0.0, 0.0, 0.0, 0.0, 0.0, 1.6989582132180614E9, 0.0, 2023-11-02 16:50:13.218
75.0, -187500.02235174447, 187500.0, 525.265994699716, 31941.89452432329, 187500.0, 187500.0, -187500.02235174447, 37423.01165139814, -0.084, 0.972, 0.056, 192.0, 0.0, 0.0, 0.0, 0.0, 0.0, 0.0, 0.0, 0.0, 0.0, 1.6989582132180743E9, 0.0, 2023-11-02 16:50:13.218
76.0, -187500.02235174447, 187500.0, 533.558491892635, 31924.974253770622, 187500.0, 187500.0, -187500.02235174447, 37430.879465446415, -0.084, 0.972, 0.056, 192.0, 0.0, 0.0, 0.0, 0.0, 0.0, 0.0, 0.0, 0.0, 0.0, 1.6989582132181225E9, 0.0, 2023-11-02 16:50:13.218
77.0, -187500.02235174447, 187500.0, 544.6449571424672, 31922.89554153628, 187500.0, 187500.0, -187500.02235174447, 37442.01063418516, -0.088, 0.984, 0.062, 192.0, 253.0, 64.0, 30.0, 192.0, 1.0, 240.0, 0.0, 0.0, 0.0, 1.6989582132181342E9, 0.0, 2023-11-02 16:50:13.218
78.0, -187500.02235174447, 187500.0, 537.0900675165734, 31945.51550692505, 187500.0, 187500.0, -187500.02235174447, 37436.24388411568, -0.088, 0.984, 0.062, 192.0, 0.0, 0.0, 0.0, 0.0, 0.0, 0.0, 0.0, 0.0, 0.0, 1.6989582132181451E9, 0.0, 2023-11-02 16:50:13.218
79.0, -187500.02235174447, 187500.0, 528.8646255570204, 31954.031521562523, 187500.0, 187500.0, -187500.02235174447, 37429.605416012455, -0.088, 0.984, 0.062, 192.0, 0.0, 0.0, 0.0, 0.0, 0.0, 0.0, 0.0, 0.0, 0.0, 1.6989582132181556E9, 0.0, 2023-11-02 16:50:13.218
80.0, -187500.02235174447, 187500.0, 537.3582884500371, 31939.771108600034, 187500.0, 187500.0, -187500.02235174447, 37435.55098003757, -0.088, 0.984, 0.062, 192.0, 0.0, 0.0, 0.0, 0.0, 0.0, 0.0, 0.0, 0.0, 0.0, 1.6989582132181659E9, 0.0, 2023-11-02 16:50:13.218
81.0, -187500.02235174447, 187500.0, 542.8344658415873, 31931.545666640483, 187500.0, 187500.0, -187500.02235174447, 37439.35077659497, -0.088, 0.984, 0.062, 192.0, 0.0, 0.0, 0.0, 0.0, 0.0, 0.0, 0.0, 0.0, 0.0, 1.698958213218176E9, 0.0, 2023-11-02 16:50:13.218
82.0, -187500.02235174447, 187500.0, 536.1736459939058, 31944.822602846936, 187500.0, 187500.0, -187500.02235174447, 37433.047584658576, -0.088, 0.984, 0.062, 192.0, 0.0, 0.0, 0.0, 0.0, 0.0, 0.0, 0.0, 0.0, 0.0, 1.698958213218186E9, 0.0, 2023-11-02 16:50:13.218
83.0, -187500.02235174447, 187500.0, 530.8986343024534, 31958.814794875958, 187500.0, 187500.0, -187500.02235174447, 37427.77257296712, -0.088, 0.984, 0.062, 192.0, 0.0, 0.0, 0.0, 0.0, 0.0, 0.0, 0.0, 0.0, 0.0, 1.6989582132181969E9, 0.0, 2023-11-02 16:50:13.218
84.0, -187500.02235174447, 187500.0, 519.9686312638082, 31938.45235567717, 187500.0, 187500.0, -187500.02235174447, 37415.4791135167, -0.088, 0.984, 0.062, 192.0, 0.0, 0.0, 0.0, 0.0, 0.0, 0.0, 0.0, 0.0, 0.0, 1.698958213218207E9, 0.0, 2023-11-02 16:50:13.218
85.0, -187500.02235174447, 187500.0, 520.7285905752886, 31911.56320709744, 187500.0, 187500.0, -187500.02235174447, 37413.31099430454, -0.088, 0.984, 0.062, 192.0, 0.0, 0.0, 0.0, 0.0, 0.0, 0.0, 0.0, 0.0, 0.0, 1.6989582132182176E9, 0.0, 2023-11-02 16:50:13.218
86.0, -187500.02235174447, 187500.0, 529.0210877682075, 31923.27552119202, 187500.0, 187500.0, -187500.02235174447, 37421.849360686465, -0.088, 0.984, 0.062, 192.0, 0.0, 0.0, 0.0, 0.0, 0.0, 0.0, 0.0, 0.0, 0.0, 1.6989582132182283E9, 0.0, 2023-11-02 16:50:13.218
87.0, -187500.02235174447, 187500.0, 527.1658929784171, 31947.169536014742, 187500.0, 187500.0, -187500.02235174447, 37422.274043831116, -0.082, 0.98, 0.06, 192.0, 253.0, 112.0, 30.0, 160.0, 1.0, 224.0, 0.0, 0.0, 0.0, 1.6989582132182388E9, 0.0, 2023-11-02 16:50:13.218
88.0, -187500.02235174447, 187500.0, 525.1318842329841, 31942.60978014586, 187500.0, 187500.0, -187500.02235174447, 37418.138971106884, -0.082, 0.98, 0.06, 192.0, 0.0, 0.0, 0.0, 0.0, 0.0, 0.0, 0.0, 0.0, 0.0, 1.6989582132182531E9, 0.0, 2023-11-02 16:50:13.218
89.0, -187500.02235174447, 187500.0, 525.8024365666433, 31920.61566360184, 187500.0, 187500.0, -187500.02235174447, 37415.83674142799, -0.082, 0.98, 0.06, 192.0, 0.0, 0.0, 0.0, 0.0, 0.0, 0.0, 0.0, 0.0, 0.0, 1.6989582132182667E9, 0.0, 2023-11-02 16:50:13.218
90.0, -187500.02235174447, 187500.0, 532.843236070065, 31924.28134969251, 187500.0, 187500.0, -187500.02235174447, 37422.78813395359, -0.082, 0.98, 0.06, 192.0, 0.0, 0.0, 0.0, 0.0, 0.0, 0.0, 0.0, 0.0, 0.0, 1.6989582132182772E9, 0.0, 2023-11-02 16:50:13.218
91.0, -187500.02235174447, 187500.0, 525.9141952889199, 31949.42706220473, 187500.0, 187500.0, -187500.02235174447, 37417.1331426064, -0.082, 0.98, 0.06, 192.0, 0.0, 0.0, 0.0, 0.0, 0.0, 0.0, 0.0, 0.0, 0.0, 1.6989582132183716E9, 0.0, 2023-11-02 16:50:13.218
92.0, -187500.02235174447, 187500.0, 527.2776517006936, 31950.388187216307, 187500.0, 187500.0, -187500.02235174447, 37418.45189552926, -0.082, 0.98, 0.06, 192.0, 0.0, 0.0, 0.0, 0.0, 0.0, 0.0, 0.0, 0.0, 0.0, 1.6989582132183852E9, 0.0, 2023-11-02 16:50:13.218
93.0, -187500.02235174447, 187500.0, 535.8607215715315, 31935.457221920162, 187500.0, 187500.0, -187500.02235174447, 37426.16324736634, -0.082, 0.98, 0.06, 192.0, 0.0, 0.0, 0.0, 0.0, 0.0, 0.0, 0.0, 0.0, 0.0, 1.6989582132183974E9, 0.0, 2023-11-02 16:50:13.218
94.0, -187500.02235174447, 187500.0, 539.973442551308, 31938.541762654993, 187500.0, 187500.0, -187500.02235174447, 37431.728831735716, -0.082, 0.98, 0.06, 192.0, 0.0, 0.0, 0.0, 0.0, 0.0, 0.0, 0.0, 0.0, 0.0, 1.6989582132184093E9, 0.0, 2023-11-02 16:50:13.218
95.0, -187500.02235174447, 187500.0, 538.9229105619086, 31959.574754187437, 187500.0, 187500.0, -187500.02235174447, 37432.66760500283, -0.082, 0.98, 0.06, 192.0, 0.0, 0.0, 0.0, 0.0, 0.0, 0.0, 0.0, 0.0, 0.0, 1.6989582132184205E9, 0.0, 2023-11-02 16:50:13.218
96.0, -187500.02235174447, 187500.0, 533.491436659269, 31965.14033855681, 187500.0, 187500.0, -187500.02235174447, 37428.420773556325, -0.082, 0.98, 0.06, 192.0, 0.0, 0.0, 0.0, 0.0, 0.0, 0.0, 0.0, 0.0, 0.0, 1.6989582132184331E9, 0.0, 2023-11-02 16:50:13.218
97.0, -187500.02235174447, 187500.0, 530.2057302243388, 31943.302684223974, 187500.0, 187500.0, -187500.02235174447, 37421.715250219735, -0.084, 0.98, 0.06, 192.0, 253.0, 96.0, 30.0, 160.0, 1.0, 224.0, 0.0, 0.0, 0.0, 1.698958213218446E9, 0.0, 2023-11-02 16:50:13.218
98.0, -187500.02235174447, 187500.0, 536.6430326274673, 31932.95382654117, 187500.0, 187500.0, -187500.02235174447, 37425.04566014357, -0.084, 0.98, 0.06, 192.0, 0.0, 0.0, 0.0, 0.0, 0.0, 0.0, 0.0, 0.0, 0.0, 1.6989582132184622E9, 0.0, 2023-11-02 16:50:13.218
99.0, -187500.02235174447, 187500.0, 538.520579161713, 31960.737044899113, 187500.0, 187500.0, -187500.02235174447, 37428.68899448979, -0.084, 0.98, 0.06, 192.0, 0.0, 0.0, 0.0, 0.0, 0.0, 0.0, 0.0, 0.0, 0.0, 1.698958213218479E9, 0.0, 2023-11-02 16:50:13.218
100.0, -187500.02235174447, 187500.0, 537.1794744943946, 31976.182100317732, 187500.0, 187500.0, -187500.02235174447, 37428.13020087841, -0.084, 0.98, 0.06, 192.0, 0.0, 0.0, 0.0, 0.0, 0.0, 0.0, 0.0, 0.0, 0.0, 1.6989582132184925E9, 0.0, 2023-11-02 16:50:13.218
101.0, -187500.02235174447, 187500.0, 532.10562850304, 31953.763300629056, 187500.0, 187500.0, -187500.02235174447, 37419.189503096284, -0.084, 0.98, 0.06, 192.0, 0.0, 0.0, 0.0, 0.0, 0.0, 0.0, 0.0, 0.0, 0.0, 1.698958213218524E9, 0.0, 2023-11-02 16:50:13.218
102.0, -187500.02235174447, 187500.0, 544.1308670199951, 31942.56507665695, 187500.0, 187500.0, -187500.02235174447, 37429.203084612265, -0.084, 0.98, 0.06, 192.0, 0.0, 0.0, 0.0, 0.0, 0.0, 0.0, 0.0, 0.0, 0.0, 1.6989582132185361E9, 0.0, 2023-11-02 16:50:13.218
103.0, -187500.02235174447, 187500.0, 536.1289425049952, 31963.307495511475, 187500.0, 187500.0, -187500.02235174447, 37420.70942171925, -0.084, 0.98, 0.06, 192.0, 0.0, 0.0, 0.0, 0.0, 0.0, 0.0, 0.0, 0.0, 0.0, 1.6989582132185476E9, 0.0, 2023-11-02 16:50:13.218
104.0, -187500.02235174447, 187500.0, 529.0434395126629, 31977.18792881822, 187500.0, 187500.0, -187500.02235174447, 37412.752200693154, -0.084, 0.98, 0.06, 192.0, 0.0, 0.0, 0.0, 0.0, 0.0, 0.0, 0.0, 0.0, 0.0, 1.6989582132185752E9, 0.0, 2023-11-02 16:50:13.218
105.0, -187500.02235174447, 187500.0, 528.3505354345483, 31965.341504256907, 187500.0, 187500.0, -187500.02235174447, 37411.07581985901, -0.084, 0.98, 0.06, 192.0, 0.0, 0.0, 0.0, 0.0, 0.0, 0.0, 0.0, 0.0, 0.0, 1.6989582132185848E9, 0.0, 2023-11-02 16:50:13.218
106.0, -187500.02235174447, 187500.0, 527.5905761230679, 31941.9392278122, 187500.0, 187500.0, -187500.02235174447, 37408.505369246646, -0.084, 0.98, 0.06, 192.0, 0.0, 0.0, 0.0, 0.0, 0.0, 0.0, 0.0, 0.0, 0.0, 1.69895821321861E9, 0.0, 2023-11-02 16:50:13.218
107.0, -187500.02235174447, 187500.0, 521.3320876755819, 31951.125794783333, 187500.0, 187500.0, -187500.02235174447, 37402.60450871045, -0.084, 0.976, 0.058, 192.0, 253.0, 96.0, 30.0, 128.0, 1.0, 208.0, 0.0, 0.0, 0.0, 1.6989582132186244E9, 0.0, 2023-11-02 16:50:13.218
108.0, -187500.02235174447, 187500.0, 518.4040091519367, 31969.387170003316, 187500.0, 187500.0, -187500.02235174447, 37400.190520309276, -0.084, 0.976, 0.058, 192.0, 0.0, 0.0, 0.0, 0.0, 0.0, 0.0, 0.0, 0.0, 0.0, 1.698958213218639E9, 0.0, 2023-11-02 16:50:13.218
109.0, -187500.02235174447, 187500.0, 517.8005120516434, 31958.457166964672, 187500.0, 187500.0, -187500.02235174447, 37398.11180807493, -0.084, 0.976, 0.058, 192.0, 0.0, 0.0, 0.0, 0.0, 0.0, 0.0, 0.0, 0.0, 0.0, 1.6989582132186544E9, 0.0, 2023-11-02 16:50:13.218
110.0, -187500.02235174447, 187500.0, 531.5915383805678, 31948.667102893247, 187500.0, 187500.0, -187500.02235174447, 37410.69584020327, -0.084, 0.976, 0.058, 192.0, 0.0, 0.0, 0.0, 0.0, 0.0, 0.0, 0.0, 0.0, 0.0, 1.6989582132186728E9, 0.0, 2023-11-02 16:50:13.218
111.0, -187500.02235174447, 187500.0, 536.3971634384588, 31976.584431717925, 187500.0, 187500.0, -187500.02235174447, 37420.41884904133, -0.084, 0.976, 0.058, 192.0, 0.0, 0.0, 0.0, 0.0, 0.0, 0.0, 0.0, 0.0, 0.0, 1.6989582132186868E9, 0.0, 2023-11-02 16:50:13.218
112.0, -187500.02235174447, 187500.0, 528.7528668347438, 32003.071248897464, 187500.0, 187500.0, -187500.02235174447, 37415.99320363918, -0.084, 0.976, 0.058, 192.0, 0.0, 0.0, 0.0, 0.0, 0.0, 0.0, 0.0, 0.0, 0.0, 1.698958213218712E9, 0.0, 2023-11-02 16:50:13.218
113.0, -187500.02235174447, 187500.0, 530.5410063911685, 32003.697097742213, 187500.0, 187500.0, -187500.02235174447, 37416.30612806155, -0.084, 0.976, 0.058, 192.0, 0.0, 0.0, 0.0, 0.0, 0.0, 0.0, 0.0, 0.0, 0.0, 1.6989582132187257E9, 0.0, 2023-11-02 16:50:13.218
114.0, -187500.02235174447, 187500.0, 531.1445034914617, 31984.653411466294, 187500.0, 187500.0, -187500.02235174447, 37414.45093327176, -0.084, 0.976, 0.058, 192.0, 0.0, 0.0, 0.0, 0.0, 0.0, 0.0, 0.0, 0.0, 0.0, 1.6989582132187405E9, 0.0, 2023-11-02 16:50:13.218
115.0, -187500.02235174447, 187500.0, 538.1629512504281, 31980.13835908632, 187500.0, 187500.0, -187500.02235174447, 37421.04469788608, -0.084, 0.976, 0.058, 192.0, 0.0, 0.0, 0.0, 0.0, 0.0, 0.0, 0.0, 0.0, 0.0, 1.6989582132187564E9, 0.0, 2023-11-02 16:50:13.218
116.0, -187500.02235174447, 187500.0, 534.9666517933192, 32012.011946679588, 187500.0, 187500.0, -187500.02235174447, 37422.74343046468, -0.084, 0.976, 0.058, 192.0, 0.0, 0.0, 0.0, 0.0, 0.0, 0.0, 0.0, 0.0, 0.0, 1.6989582132187717E9, 0.0, 2023-11-02 16:50:13.218
117.0, -187500.02235174447, 187500.0, 530.8315790690874, 32013.420106580274, 187500.0, 187500.0, -187500.02235174447, 37417.803694940056, -0.09, 0.98, 0.064, 192.0, 253.0, 48.0, 30.0, 160.0, 2.0, 0.0, 0.0, 0.0, 0.0, 1.6989582132187836E9, 0.0, 2023-11-02 16:50:13.218
118.0, -187500.02235174447, 187500.0, 540.7557536072437, 31994.979917404646, 187500.0, 187500.0, -187500.02235174447, 37425.626805499414, -0.09, 0.98, 0.064, 192.0, 0.0, 0.0, 0.0, 0.0, 0.0, 0.0, 0.0, 0.0, 0.0, 1.698958213218802E9, 0.0, 2023-11-02 16:50:13.218
119.0, -187500.02235174447, 187500.0, 538.29706171716, 31995.583414504938, 187500.0, 187500.0, -187500.02235174447, 37420.46355253024, -0.09, 0.98, 0.064, 192.0, 0.0, 0.0, 0.0, 0.0, 0.0, 0.0, 0.0, 0.0, 0.0, 1.6989582132188148E9, 0.0, 2023-11-02 16:50:13.218
120.0, -187500.02235174447, 187500.0, 539.1464280064616, 32016.258778126095, 187500.0, 187500.0, -187500.02235174447, 37420.50825601915, -0.09, 0.98, 0.064, 192.0, 0.0, 0.0, 0.0, 0.0, 0.0, 0.0, 0.0, 0.0, 0.0, 1.6989582132188275E9, 0.0, 2023-11-02 16:50:13.218
121.0, -187500.02235174447, 187500.0, 532.7538290922438, 32027.90403698731, 187500.0, 187500.0, -187500.02235174447, 37414.227415827205, -0.09, 0.98, 0.064, 192.0, 0.0, 0.0, 0.0, 0.0, 0.0, 0.0, 0.0, 0.0, 0.0, 1.6989582132188425E9, 0.0, 2023-11-02 16:50:13.218
122.0, -187500.02235174447, 187500.0, 534.072582015107, 32003.63004250885, 187500.0, 187500.0, -187500.02235174447, 37412.95336639325, -0.09, 0.98, 0.064, 192.0, 0.0, 0.0, 0.0, 0.0, 0.0, 0.0, 0.0, 0.0, 0.0, 1.698958213696472E9, 0.0, 2023-11-02 16:50:13.696
123.0, -187500.02235174447, 187500.0, 539.2581867287382, 31994.778751704547, 187500.0, 187500.0, -187500.02235174447, 37416.820218184024, -0.09, 0.98, 0.064, 192.0, 0.0, 0.0, 0.0, 0.0, 0.0, 0.0, 0.0, 0.0, 0.0, 1.6989582136966379E9, 0.0, 2023-11-02 16:50:13.696
124.0, -187500.02235174447, 187500.0, 537.3135849611265, 32012.704850757702, 187500.0, 187500.0, -187500.02235174447, 37416.01555538363, -0.09, 0.98, 0.064, 192.0, 0.0, 0.0, 0.0, 0.0, 0.0, 0.0, 0.0, 0.0, 0.0, 1.6989582136966732E9, 0.0, 2023-11-02 16:50:13.696
125.0, -187500.02235174447, 187500.0, 527.8587970565316, 32022.316100873486, 187500.0, 187500.0, -187500.02235174447, 37408.12538959091, -0.09, 0.98, 0.064, 192.0, 0.0, 0.0, 0.0, 0.0, 0.0, 0.0, 0.0, 0.0, 0.0, 1.6989582136966977E9, 0.0, 2023-11-02 16:50:13.696
126.0, -187500.02235174447, 187500.0, 529.7586953352327, 31988.453208023693, 187500.0, 187500.0, -187500.02235174447, 37407.05250585706, -0.09, 0.98, 0.064, 192.0, 0.0, 0.0, 0.0, 0.0, 0.0, 0.0, 0.0, 0.0, 0.0, 1.6989582136967225E9, 0.0, 2023-11-02 16:50:13.696
127.0, -187500.02235174447, 187500.0, 544.4661431868248, 31974.86334739487, 187500.0, 187500.0, -187500.02235174447, 37418.07191587352, -0.09, 0.984, 0.062, 192.0, 253.0, 48.0, 30.0, 192.0, 1.0, 240.0, 0.0, 0.0, 0.0, 1.6989582136967807E9, 0.0, 2023-11-02 16:50:13.696
128.0, -187500.02235174447, 187500.0, 542.812114097132, 31990.218995835665, 187500.0, 187500.0, -187500.02235174447, 37416.7308112062, -0.09, 0.984, 0.062, 192.0, 0.0, 0.0, 0.0, 0.0, 0.0, 0.0, 0.0, 0.0, 0.0, 1.6989582136968076E9, 0.0, 2023-11-02 16:50:13.696
129.0, -187500.02235174447, 187500.0, 535.7713145937103, 31994.04114413752, 187500.0, 187500.0, -187500.02235174447, 37410.47232275872, -0.09, 0.984, 0.062, 192.0, 0.0, 0.0, 0.0, 0.0, 0.0, 0.0, 0.0, 0.0, 0.0, 1.6989582136968434E9, 0.0, 2023-11-02 16:50:13.696
130.0, -187500.02235174447, 187500.0, 527.3223551896042, 31963.151033300288, 187500.0, 187500.0, -187500.02235174447, 37402.51510173263, -0.09, 0.984, 0.062, 192.0, 0.0, 0.0, 0.0, 0.0, 0.0, 0.0, 0.0, 0.0, 0.0, 1.6989582136968813E9, 0.0, 2023-11-02 16:50:13.696
131.0, -187500.02235174447, 187500.0, 535.2348727267829, 31936.865381820844, 187500.0, 187500.0, -187500.02235174447, 37411.20993032574, -0.09, 0.984, 0.062, 192.0, 0.0, 0.0, 0.0, 0.0, 0.0, 0.0, 0.0, 0.0, 0.0, 1.6989582136968997E9, 0.0, 2023-11-02 16:50:13.696
132.0, -187500.02235174447, 187500.0, 530.8092273246322, 31935.74779459808, 187500.0, 187500.0, -187500.02235174447, 37408.37125877992, -0.09, 0.984, 0.062, 192.0, 0.0, 0.0, 0.0, 0.0, 0.0, 0.0, 0.0, 0.0, 0.0, 1.698958213696931E9, 0.0, 2023-11-02 16:50:13.696
133.0, -187500.02235174447, 187500.0, 517.621698096001, 31935.904256809266, 187500.0, 187500.0, -187500.02235174447, 37397.68712493028, -0.09, 0.984, 0.062, 192.0, 0.0, 0.0, 0.0, 0.0, 0.0, 0.0, 0.0, 0.0, 0.0, 1.69895821369703E9, 0.0, 2023-11-02 16:50:13.697
134.0, -187500.02235174447, 187500.0, 521.2873841866713, 31905.79645702797, 187500.0, 187500.0, -187500.02235174447, 37399.81054065353, -0.09, 0.984, 0.062, 192.0, 0.0, 0.0, 0.0, 0.0, 0.0, 0.0, 0.0, 0.0, 0.0, 1.698958213697048E9, 0.0, 2023-11-02 16:50:13.697
135.0, -187500.02235174447, 187500.0, 535.9054250604421, 31876.560375280427, 187500.0, 187500.0, -187500.02235174447, 37414.40622978285, -0.09, 0.984, 0.062, 192.0, 0.0, 0.0, 0.0, 0.0, 0.0, 0.0, 0.0, 0.0, 0.0, 1.6989582136970608E9, 0.0, 2023-11-02 16:50:13.697
136.0, -187500.02235174447, 187500.0, 539.4817041732913, 31881.96949743861, 187500.0, 187500.0, -187500.02235174447, 37419.86005542995, -0.09, 0.984, 0.062, 192.0, 0.0, 0.0, 0.0, 0.0, 0.0, 0.0, 0.0, 0.0, 0.0, 1.6989582136971087E9, 0.0, 2023-11-02 16:50:13.697
137.0, -187500.02235174447, 187500.0, 534.3408029485706, 31886.864529474326, 187500.0, 187500.0, -187500.02235174447, 37417.28960481758, -0.092, 0.976, 0.056, 192.0, 253.0, 32.0, 30.0, 128.0, 1.0, 192.0, 0.0, 0.0, 0.0, 1.6989582136974623E9, 0.0, 2023-11-02 16:50:13.697
138.0, -187500.02235174447, 187500.0, 532.038573269674, 31873.766407223513, 187500.0, 187500.0, -187500.02235174447, 37415.32265130552, -0.092, 0.976, 0.056, 192.0, 0.0, 0.0, 0.0, 0.0, 0.0, 0.0, 0.0, 0.0, 0.0, 1.698958213697494E9, 0.0, 2023-11-02 16:50:13.697
139.0, -187500.02235174447, 187500.0, 526.6741546004004, 31844.217401053596, 187500.0, 187500.0, -187500.02235174447, 37408.46066575774, -0.092, 0.976, 0.056, 192.0, 0.0, 0.0, 0.0, 0.0, 0.0, 0.0, 0.0, 0.0, 0.0, 1.6989582136975265E9, 0.0, 2023-11-02 16:50:13.697
140.0, -187500.02235174447, 187500.0, 517.845215540554, 31830.605188680314, 187500.0, 187500.0, -187500.02235174447, 37399.31880227552, -0.092, 0.976, 0.056, 192.0, 0.0, 0.0, 0.0, 0.0, 0.0, 0.0, 0.0, 0.0, 0.0, 1.6989582136975553E9, 0.0, 2023-11-02 16:50:13.697
141.0, -187500.02235174447, 187500.0, 519.879224285987, 31839.568238206895, 187500.0, 187500.0, -187500.02235174447, 37399.2293952977, -0.092, 0.976, 0.056, 192.0, 0.0, 0.0, 0.0, 0.0, 0.0, 0.0, 0.0, 0.0, 0.0, 1.698958213697598E9, 0.0, 2023-11-02 16:50:13.697
142.0, -187500.02235174447, 187500.0, 516.9064422734311, 31841.177563807676, 187500.0, 187500.0, -187500.02235174447, 37392.68033417229, -0.092, 0.976, 0.056, 192.0, 0.0, 0.0, 0.0, 0.0, 0.0, 0.0, 0.0, 0.0, 0.0, 1.698958213697628E9, 0.0, 2023-11-02 16:50:13.697
143.0, -187500.02235174447, 187500.0, 516.973497506797, 31815.76363036199, 187500.0, 187500.0, -187500.02235174447, 37390.08753181547, -0.092, 0.976, 0.056, 192.0, 0.0, 0.0, 0.0, 0.0, 0.0, 0.0, 0.0, 0.0, 0.0, 1.6989582136976562E9, 0.0, 2023-11-02 16:50:13.697
144.0, -187500.02235174447, 187500.0, 520.2145004528165, 31806.264138968487, 187500.0, 187500.0, -187500.02235174447, 37392.03213358309, -0.092, 0.976, 0.056, 192.0, 0.0, 0.0, 0.0, 0.0, 0.0, 0.0, 0.0, 0.0, 0.0, 1.6989582136976764E9, 0.0, 2023-11-02 16:50:13.697
145.0, -187500.02235174447, 187500.0, 527.5682243786126, 31836.48369747206, 187500.0, 187500.0, -187500.02235174447, 37398.96117436423, -0.092, 0.976, 0.056, 192.0, 0.0, 0.0, 0.0, 0.0, 0.0, 0.0, 0.0, 0.0, 0.0, 1.6989582136976943E9, 0.0, 2023-11-02 16:50:13.697
146.0, -187500.02235174447, 187500.0, 522.3602679205261, 31846.117299332298, 187500.0, 187500.0, -187500.02235174447, 37394.98256385119, -0.092, 0.976, 0.056, 192.0, 0.0, 0.0, 0.0, 0.0, 0.0, 0.0, 0.0, 0.0, 0.0, 1.6989582136977155E9, 0.0, 2023-11-02 16:50:13.697
147.0, -187500.02235174447, 187500.0, 523.9919452657634, 31818.132915274255, 187500.0, 187500.0, -187500.02235174447, 37395.921337118314, -0.09, 0.982, 0.052000000000000005, 192.0, 253.0, 48.0, 30.0, 176.0, 1.0, 160.0, 0.0, 0.0, 0.0, 1.6989582136977513E9, 0.0, 2023-11-02 16:50:13.697
148.0, -187500.02235174447, 187500.0, 531.9268145473975, 31811.516798915483, 187500.0, 187500.0, -187500.02235174447, 37403.54328197757, -0.09, 0.982, 0.052000000000000005, 192.0, 0.0, 0.0, 0.0, 0.0, 0.0, 0.0, 0.0, 0.0, 0.0, 1.698958213697768E9, 0.0, 2023-11-02 16:50:13.697
149.0, -187500.02235174447, 187500.0, 524.5730906216014, 31834.337930004353, 187500.0, 187500.0, -187500.02235174447, 37395.94368886277, -0.09, 0.982, 0.052000000000000005, 192.0, 0.0, 0.0, 0.0, 0.0, 0.0, 0.0, 0.0, 0.0, 0.0, 1.6989582136977873E9, 0.0, 2023-11-02 16:50:13.697
150.0, -187500.02235174447, 187500.0, 520.5497766196462, 31846.430223754673, 187500.0, 187500.0, -187500.02235174447, 37389.86401437092, -0.09, 0.982, 0.052000000000000005, 192.0, 0.0, 0.0, 0.0, 0.0, 0.0, 0.0, 0.0, 0.0, 0.0, 1.698958213697801E9, 0.0, 2023-11-02 16:50:13.697
151.0, -187500.02235174447, 187500.0, 514.8500817835429, 31827.744165390035, 187500.0, 187500.0, -187500.02235174447, 37382.33147648948, -0.09, 0.982, 0.052000000000000005, 192.0, 0.0, 0.0, 0.0, 0.0, 0.0, 0.0, 0.0, 0.0, 0.0, 1.698958213697816E9, 0.0, 2023-11-02 16:50:13.697
152.0, -187500.02235174447, 187500.0, 516.9064422734311, 31809.505141914506, 187500.0, 187500.0, -187500.02235174447, 37384.656057912835, -0.09, 0.982, 0.052000000000000005, 192.0, 0.0, 0.0, 0.0, 0.0, 0.0, 0.0, 0.0, 0.0, 0.0, 1.6989582136979668E9, 0.0, 2023-11-02 16:50:13.697
153.0, -187500.02235174447, 187500.0, 513.2631079272161, 31826.425412467175, 187500.0, 187500.0, -187500.02235174447, 37381.75033113365, -0.09, 0.982, 0.052000000000000005, 192.0, 0.0, 0.0, 0.0, 0.0, 0.0, 0.0, 0.0, 0.0, 0.0, 1.6989582136979957E9, 0.0, 2023-11-02 16:50:13.697
154.0, -187500.02235174447, 187500.0, 509.5303666031798, 31841.803412652425, 187500.0, 187500.0, -187500.02235174447, 37377.883479342876, -0.09, 0.982, 0.052000000000000005, 192.0, 0.0, 0.0, 0.0, 0.0, 0.0, 0.0, 0.0, 0.0, 0.0, 1.6989582136980193E9, 0.0, 2023-11-02 16:50:13.698
155.0, -187500.02235174447, 187500.0, 510.29032591466023, 31833.24269452604, 187500.0, 187500.0, -187500.02235174447, 37377.59290666496, -0.09, 0.982, 0.052000000000000005, 192.0, 0.0, 0.0, 0.0, 0.0, 0.0, 0.0, 0.0, 0.0, 0.0, 1.6989582136980765E9, 0.0, 2023-11-02 16:50:13.698
156.0, -187500.02235174447, 187500.0, 511.8996515154424, 31817.596473407328, 187500.0, 187500.0, -187500.02235174447, 37379.15752877683, -0.08600000000000001, 0.98, 0.05, 192.0, 253.0, 80.0, 30.0, 160.0, 1.0, 144.0, 0.0, 0.0, 0.0, 1.6989582136981175E9, 0.0, 2023-11-02 16:50:13.698
157.0, -187500.02235174447, 187500.0, 513.039590482663, 31831.186334036152, 187500.0, 187500.0, -187500.02235174447, 37380.811557866524, -0.08600000000000001, 0.98, 0.05, 192.0, 0.0, 0.0, 0.0, 0.0, 0.0, 0.0, 0.0, 0.0, 0.0, 1.6989582136981497E9, 0.0, 2023-11-02 16:50:13.698
158.0, -187500.02235174447, 187500.0, 501.7072560438223, 31851.481718001574, 187500.0, 187500.0, -187500.02235174447, 37369.65803738333, -0.08600000000000001, 0.98, 0.05, 192.0, 0.0, 0.0, 0.0, 0.0, 0.0, 0.0, 0.0, 0.0, 0.0, 1.6989582136981845E9, 0.0, 2023-11-02 16:50:13.698
159.0, -187500.02235174447, 187500.0, 503.2048229223279, 31841.781060907968, 187500.0, 187500.0, -187500.02235174447, 37368.361636204914, -0.08600000000000001, 0.98, 0.05, 192.0, 0.0, 0.0, 0.0, 0.0, 0.0, 0.0, 0.0, 0.0, 0.0, 1.698958213698217E9, 0.0, 2023-11-02 16:50:13.698
160.0, -187500.02235174447, 187500.0, 508.03279972467425, 31821.709194387102, 187500.0, 187500.0, -187500.02235174447, 37367.892249571356, -0.08600000000000001, 0.98, 0.05, 192.0, 0.0, 0.0, 0.0, 0.0, 0.0, 0.0, 0.0, 0.0, 0.0, 1.698958213698262E9, 0.0, 2023-11-02 16:50:13.698
161.0, -187500.02235174447, 187500.0, 510.1115119590178, 31827.05126131192, 187500.0, 187500.0, -187500.02235174447, 37368.49574667165, -0.08600000000000001, 0.98, 0.05, 192.0, 0.0, 0.0, 0.0, 0.0, 0.0, 0.0, 0.0, 0.0, 0.0, 1.6989582136982856E9, 0.0, 2023-11-02 16:50:13.698
162.0, -187500.02235174447, 187500.0, 504.52357584519103, 31855.01329362551, 187500.0, 187500.0, -187500.02235174447, 37365.05357802553, -0.08600000000000001, 0.98, 0.05, 192.0, 0.0, 0.0, 0.0, 0.0, 0.0, 0.0, 0.0, 0.0, 0.0, 1.698958213698312E9, 0.0, 2023-11-02 16:50:13.698
163.0, -187500.02235174447, 187500.0, 505.9987909792413, 31847.860735399812, 187500.0, 187500.0, -187500.02235174447, 37365.94764780375, -0.08600000000000001, 0.98, 0.05, 192.0, 0.0, 0.0, 0.0, 0.0, 0.0, 0.0, 0.0, 0.0, 0.0, 1.6989582136983616E9, 0.0, 2023-11-02 16:50:13.698
164.0, -187500.02235174447, 187500.0, 523.2096342098278, 31827.47594445657, 187500.0, 187500.0, -187500.02235174447, 37381.41505496682, -0.08600000000000001, 0.98, 0.05, 192.0, 0.0, 0.0, 0.0, 0.0, 0.0, 0.0, 0.0, 0.0, 0.0, 1.6989582136983826E9, 0.0, 2023-11-02 16:50:13.698
165.0, -187500.02235174447, 187500.0, 530.7645238357215, 31832.147459047734, 187500.0, 187500.0, -187500.02235174447, 37388.12057830341, -0.08600000000000001, 0.98, 0.05, 192.0, 0.0, 0.0, 0.0, 0.0, 0.0, 0.0, 0.0, 0.0, 0.0, 1.6989582136983948E9, 0.0, 2023-11-02 16:50:13.698
166.0, -187500.02235174447, 187500.0, 527.7693900787103, 31860.15419485023, 187500.0, 187500.0, -187500.02235174447, 37386.22068002471, -0.088, 0.988, 0.056, 192.0, 253.0, 64.0, 30.0, 224.0, 1.0, 192.0, 0.0, 0.0, 0.0, 1.6989582136984255E9, 0.0, 2023-11-02 16:50:13.698
167.0, -187500.02235174447, 187500.0, 511.1843956928725, 31859.863622172314, 187500.0, 187500.0, -187500.02235174447, 37371.91556357331, -0.088, 0.988, 0.056, 192.0, 0.0, 0.0, 0.0, 0.0, 0.0, 0.0, 0.0, 0.0, 0.0, 1.6989582136984396E9, 0.0, 2023-11-02 16:50:13.698
168.0, -187500.02235174447, 187500.0, 517.2417184402607, 31828.213552023597, 187500.0, 187500.0, -187500.02235174447, 37375.581249663985, -0.088, 0.988, 0.056, 192.0, 0.0, 0.0, 0.0, 0.0, 0.0, 0.0, 0.0, 0.0, 0.0, 1.698958213698485E9, 0.0, 2023-11-02 16:50:13.698
169.0, -187500.02235174447, 187500.0, 528.5293493901908, 31834.226171282076, 187500.0, 187500.0, -187500.02235174447, 37384.9242788463, -0.088, 0.988, 0.056, 192.0, 0.0, 0.0, 0.0, 0.0, 0.0, 0.0, 0.0, 0.0, 0.0, 1.6989582136985073E9, 0.0, 2023-11-02 16:50:13.698
170.0, -187500.02235174447, 187500.0, 531.7256488472997, 31859.193069838653, 187500.0, 187500.0, -187500.02235174447, 37389.26051727063, -0.088, 0.988, 0.056, 192.0, 0.0, 0.0, 0.0, 0.0, 0.0, 0.0, 0.0, 0.0, 0.0, 1.698958213698526E9, 0.0, 2023-11-02 16:50:13.698
171.0, -187500.02235174447, 187500.0, 521.1532737199394, 31867.64202924276, 187500.0, 187500.0, -187500.02235174447, 37379.693970643755, -0.088, 0.988, 0.056, 192.0, 0.0, 0.0, 0.0, 0.0, 0.0, 0.0, 0.0, 0.0, 0.0, 1.698958213698563E9, 0.0, 2023-11-02 16:50:13.698
172.0, -187500.02235174447, 187500.0, 518.2251951962943, 31845.40204350973, 187500.0, 187500.0, -187500.02235174447, 37376.7211886312, -0.088, 0.988, 0.056, 192.0, 0.0, 0.0, 0.0, 0.0, 0.0, 0.0, 0.0, 0.0, 0.0, 1.6989582136986134E9, 0.0, 2023-11-02 16:50:13.698
173.0, -187500.02235174447, 187500.0, 523.6790208433891, 31831.029871824965, 187500.0, 187500.0, -187500.02235174447, 37381.526813689095, -0.088, 0.988, 0.056, 192.0, 0.0, 0.0, 0.0, 0.0, 0.0, 0.0, 0.0, 0.0, 0.0, 1.6989582136986544E9, 0.0, 2023-11-02 16:50:13.698
174.0, -187500.02235174447, 187500.0, 521.8014743091434, 31849.850040656336, 187500.0, 187500.0, -187500.02235174447, 37381.25859275563, -0.088, 0.988, 0.056, 192.0, 0.0, 0.0, 0.0, 0.0, 0.0, 0.0, 0.0, 0.0, 0.0, 1.6989582136986907E9, 0.0, 2023-11-02 16:50:13.698
175.0, -187500.02235174447, 187500.0, 509.5750700920904, 31861.338837306364, 187500.0, 187500.0, -187500.02235174447, 37370.86503158391, -0.088, 0.988, 0.056, 192.0, 0.0, 0.0, 0.0, 0.0, 0.0, 0.0, 0.0, 0.0, 0.0, 1.698958213698724E9, 0.0, 2023-11-02 16:50:13.698
176.0, -187500.02235174447, 187500.0, 508.1892619358614, 31844.39621500924, 187500.0, 187500.0, -187500.02235174447, 37365.25474372563, -0.08600000000000001, 0.978, 0.058, 192.0, 253.0, 80.0, 30.0, 144.0, 1.0, 208.0, 0.0, 0.0, 0.0, 1.6989582136987505E9, 0.0, 2023-11-02 16:50:13.698
177.0, -187500.02235174447, 187500.0, 515.6100410950233, 31829.755822391013, 187500.0, 187500.0, -187500.02235174447, 37370.48505192817, -0.08600000000000001, 0.978, 0.058, 192.0, 0.0, 0.0, 0.0, 0.0, 0.0, 0.0, 0.0, 0.0, 0.0, 1.6989582136987703E9, 0.0, 2023-11-02 16:50:13.698
178.0, -187500.02235174447, 187500.0, 521.9802882647858, 31854.052168613933, 187500.0, 187500.0, -187500.02235174447, 37378.88930784337, -0.08600000000000001, 0.978, 0.058, 192.0, 0.0, 0.0, 0.0, 0.0, 0.0, 0.0, 0.0, 0.0, 0.0, 1.6989582136987817E9, 0.0, 2023-11-02 16:50:13.698
179.0, -187500.02235174447, 187500.0, 513.5313288606798, 31881.254241616043, 187500.0, 187500.0, -187500.02235174447, 37371.513232173114, -0.08600000000000001, 0.978, 0.058, 192.0, 0.0, 0.0, 0.0, 0.0, 0.0, 0.0, 0.0, 0.0, 0.0, 1.6989582136988E9, 0.0, 2023-11-02 16:50:13.698
180.0, -187500.02235174447, 187500.0, 513.5760323495904, 31861.65176172874, 187500.0, 187500.0, -187500.02235174447, 37369.434519938775, -0.08600000000000001, 0.978, 0.058, 192.0, 0.0, 0.0, 0.0, 0.0, 0.0, 0.0, 0.0, 0.0, 0.0, 1.6989582136988127E9, 0.0, 2023-11-02 16:50:13.698
181.0, -187500.02235174447, 187500.0, 516.8617387845205, 31848.508935989015, 187500.0, 187500.0, -187500.02235174447, 37372.295543229055, -0.08600000000000001, 0.978, 0.058, 192.0, 0.0, 0.0, 0.0, 0.0, 0.0, 0.0, 0.0, 0.0, 0.0, 1.6989582136988354E9, 0.0, 2023-11-02 16:50:13.698
182.0, -187500.02235174447, 187500.0, 515.9453172618529, 31850.632351712273, 187500.0, 187500.0, -187500.02235174447, 37369.54627866105, -0.08600000000000001, 0.978, 0.058, 192.0, 0.0, 0.0, 0.0, 0.0, 0.0, 0.0, 0.0, 0.0, 0.0, 1.698958213698852E9, 0.0, 2023-11-02 16:50:13.698
183.0, -187500.02235174447, 187500.0, 514.2242329387943, 31869.988962410567, 187500.0, 187500.0, -187500.02235174447, 37368.33928446046, -0.08600000000000001, 0.978, 0.058, 192.0, 0.0, 0.0, 0.0, 0.0, 0.0, 0.0, 0.0, 0.0, 0.0, 1.6989582136989915E9, 0.0, 2023-11-02 16:50:13.698
184.0, -187500.02235174447, 187500.0, 512.1008172155401, 31862.299962317942, 187500.0, 187500.0, -187500.02235174447, 37362.1702029908, -0.08600000000000001, 0.978, 0.058, 192.0, 0.0, 0.0, 0.0, 0.0, 0.0, 0.0, 0.0, 0.0, 0.0, 1.6989582136990144E9, 0.0, 2023-11-02 16:50:13.699
185.0, -187500.02235174447, 187500.0, 522.9414132763641, 31848.26306680001, 187500.0, 187500.0, -187500.02235174447, 37368.786319349565, -0.08600000000000001, 0.978, 0.058, 192.0, 0.0, 0.0, 0.0, 0.0, 0.0, 0.0, 0.0, 0.0, 0.0, 1.6989582136990328E9, 0.0, 2023-11-02 16:50:13.699
186.0, -187500.02235174447, 187500.0, 519.4098376524255, 31856.913191904212, 187500.0, 187500.0, -187500.02235174447, 37365.21004023672, -0.092, 0.982, 0.046, 192.0, 253.0, 32.0, 30.0, 176.0, 1.0, 112.0, 0.0, 0.0, 0.0, 1.6989582136990497E9, 0.0, 2023-11-02 16:50:13.699
187.0, -187500.02235174447, 187500.0, 510.71500905931106, 31876.269802602506, 187500.0, 187500.0, -187500.02235174447, 37359.26447621161, -0.092, 0.982, 0.046, 192.0, 0.0, 0.0, 0.0, 0.0, 0.0, 0.0, 0.0, 0.0, 0.0, 1.6989582136990695E9, 0.0, 2023-11-02 16:50:13.699
188.0, -187500.02235174447, 187500.0, 514.0677707276071, 31879.44375031516, 187500.0, 187500.0, -187500.02235174447, 37363.60071463593, -0.092, 0.982, 0.046, 192.0, 0.0, 0.0, 0.0, 0.0, 0.0, 0.0, 0.0, 0.0, 0.0, 1.6989582136990857E9, 0.0, 2023-11-02 16:50:13.699
189.0, -187500.02235174447, 187500.0, 524.394276665959, 31867.060883886923, 187500.0, 187500.0, -187500.02235174447, 37372.96609556271, -0.092, 0.982, 0.046, 192.0, 0.0, 0.0, 0.0, 0.0, 0.0, 0.0, 0.0, 0.0, 0.0, 1.6989582136990995E9, 0.0, 2023-11-02 16:50:13.699
190.0, -187500.02235174447, 187500.0, 517.7558085627328, 31863.39519779625, 187500.0, 187500.0, -187500.02235174447, 37367.78049084908, -0.092, 0.982, 0.046, 192.0, 0.0, 0.0, 0.0, 0.0, 0.0, 0.0, 0.0, 0.0, 0.0, 1.698958213699118E9, 0.0, 2023-11-02 16:50:13.699
191.0, -187500.02235174447, 187500.0, 510.40208463693676, 31873.96757292361, 187500.0, 187500.0, -187500.02235174447, 37360.29265645655, -0.092, 0.982, 0.046, 192.0, 0.0, 0.0, 0.0, 0.0, 0.0, 0.0, 0.0, 0.0, 0.0, 1.698958213699131E9, 0.0, 2023-11-02 16:50:13.699
192.0, -187500.02235174447, 187500.0, 516.6382213399675, 31882.84121547237, 187500.0, 187500.0, -187500.02235174447, 37364.33832220296, -0.092, 0.982, 0.046, 192.0, 0.0, 0.0, 0.0, 0.0, 0.0, 0.0, 0.0, 0.0, 0.0, 1.6989582136991458E9, 0.0, 2023-11-02 16:50:13.699
193.0, -187500.02235174447, 187500.0, 527.5905761230679, 31872.715875234113, 187500.0, 187500.0, -187500.02235174447, 37374.463662441216, -0.092, 0.982, 0.046, 192.0, 0.0, 0.0, 0.0, 0.0, 0.0, 0.0, 0.0, 0.0, 0.0, 1.6989582136991613E9, 0.0, 2023-11-02 16:50:13.699
194.0, -187500.02235174447, 187500.0, 528.7975703236544, 31876.269802602506, 187500.0, 187500.0, -187500.02235174447, 37374.8212903525, -0.092, 0.982, 0.046, 192.0, 0.0, 0.0, 0.0, 0.0, 0.0, 0.0, 0.0, 0.0, 0.0, 1.6989582136991892E9, 0.0, 2023-11-02 16:50:13.699
195.0, -187500.02235174447, 187500.0, 524.7295528327886, 31897.392201112772, 187500.0, 187500.0, -187500.02235174447, 37370.68621762827, -0.092, 0.982, 0.046, 192.0, 0.0, 0.0, 0.0, 0.0, 0.0, 0.0, 0.0, 0.0, 0.0, 1.6989582136992078E9, 0.0, 2023-11-02 16:50:13.699
196.0, -187500.02235174447, 187500.0, 516.8393870400652, 31905.572939583417, 187500.0, 187500.0, -187500.02235174447, 37362.34901694644, -0.096, 0.984, 0.044, 192.0, 253.0, 0.0, 30.0, 192.0, 1.0, 96.0, 0.0, 0.0, 0.0, 1.6989582136992283E9, 0.0, 2023-11-02 16:50:13.699
197.0, -187500.02235174447, 187500.0, 520.1027417305401, 31881.142482893763, 187500.0, 187500.0, -187500.02235174447, 37365.657075125826, -0.096, 0.984, 0.044, 192.0, 0.0, 0.0, 0.0, 0.0, 0.0, 0.0, 0.0, 0.0, 0.0, 1.6989582136992712E9, 0.0, 2023-11-02 16:50:13.699
198.0, -187500.02235174447, 187500.0, 524.2154627103165, 31871.598288011348, 187500.0, 187500.0, -187500.02235174447, 37371.26736298411, -0.096, 0.984, 0.044, 192.0, 0.0, 0.0, 0.0, 0.0, 0.0, 0.0, 0.0, 0.0, 0.0, 1.6989582136993628E9, 0.0, 2023-11-02 16:50:13.699
199.0, -187500.02235174447, 187500.0, 527.814093567621, 31888.92088996421, 187500.0, 187500.0, -187500.02235174447, 37375.26832524161, -0.096, 0.984, 0.044, 192.0, 0.0, 0.0, 0.0, 0.0, 0.0, 0.0, 0.0, 0.0, 0.0, 1.6989582136993818E9, 0.0, 2023-11-02 16:50:13.699
200.0, -187500.02235174447, 187500.0, 518.6722300854004, 31906.9810994841, 187500.0, 187500.0, -187500.02235174447, 37368.62985713838, -0.096, 0.984, 0.044, 192.0, 0.0, 0.0, 0.0, 0.0, 0.0, 0.0, 0.0, 0.0, 0.0, 1.6989582136993997E9, 0.0, 2023-11-02 16:50:13.699
201.0, -187500.02235174447, 187500.0, 523.4555033988361, 31880.583689282383, 187500.0, 187500.0, -187500.02235174447, 37371.84850833994, -0.096, 0.984, 0.044, 192.0, 0.0, 0.0, 0.0, 0.0, 0.0, 0.0, 0.0, 0.0, 0.0, 1.6989582136994238E9, 0.0, 2023-11-02 16:50:13.699
202.0, -187500.02235174447, 187500.0, 527.9258522898975, 31871.553584522437, 187500.0, 187500.0, -187500.02235174447, 37375.26832524161, -0.096, 0.984, 0.044, 192.0, 0.0, 0.0, 0.0, 0.0, 0.0, 0.0, 0.0, 0.0, 0.0, 1.6989582136994388E9, 0.0, 2023-11-02 16:50:13.699
203.0, -187500.02235174447, 187500.0, 523.4555033988361, 31885.59048004037, 187500.0, 187500.0, -187500.02235174447, 37370.06036878352, -0.096, 0.984, 0.044, 192.0, 0.0, 0.0, 0.0, 0.0, 0.0, 0.0, 0.0, 0.0, 0.0, 1.698958213699457E9, 0.0, 2023-11-02 16:50:13.699
204.0, -187500.02235174447, 187500.0, 514.2912881721602, 31899.135637180287, 187500.0, 187500.0, -187500.02235174447, 37360.471470412194, -0.096, 0.984, 0.044, 192.0, 0.0, 0.0, 0.0, 0.0, 0.0, 0.0, 0.0, 0.0, 0.0, 1.6989582136994727E9, 0.0, 2023-11-02 16:50:13.699
205.0, -187500.02235174447, 187500.0, 511.5867270930681, 31880.06959915991, 187500.0, 187500.0, -187500.02235174447, 37355.75525233212, -0.096, 0.984, 0.044, 192.0, 0.0, 0.0, 0.0, 0.0, 0.0, 0.0, 0.0, 0.0, 0.0, 1.6989582136995113E9, 0.0, 2023-11-02 16:50:13.699
206.0, -187500.02235174447, 187500.0, 511.6984858153446, 31863.86458442981, 187500.0, 187500.0, -187500.02235174447, 37358.169240733296, -0.094, 0.982, 0.048, 192.0, 253.0, 16.0, 30.0, 176.0, 1.0, 128.0, 0.0, 0.0, 0.0, 1.6989582136995313E9, 0.0, 2023-11-02 16:50:13.699
207.0, -187500.02235174447, 187500.0, 513.3525149050373, 31872.827633956393, 187500.0, 187500.0, -187500.02235174447, 37362.97486579119, -0.094, 0.982, 0.048, 192.0, 0.0, 0.0, 0.0, 0.0, 0.0, 0.0, 0.0, 0.0, 0.0, 1.698958213699574E9, 0.0, 2023-11-02 16:50:13.699
208.0, -187500.02235174447, 187500.0, 508.81511078061, 31897.235738901585, 187500.0, 187500.0, -187500.02235174447, 37360.67263611229, -0.094, 0.982, 0.048, 192.0, 0.0, 0.0, 0.0, 0.0, 0.0, 0.0, 0.0, 0.0, 0.0, 1.6989582136996233E9, 0.0, 2023-11-02 16:50:13.699
209.0, -187500.02235174447, 187500.0, 514.5595091056239, 31892.720686521614, 187500.0, 187500.0, -187500.02235174447, 37364.53948790306, -0.094, 0.982, 0.048, 192.0, 0.0, 0.0, 0.0, 0.0, 0.0, 0.0, 0.0, 0.0, 0.0, 1.6989582136996424E9, 0.0, 2023-11-02 16:50:13.699
210.0, -187500.02235174447, 187500.0, 519.6780585858892, 31874.615773512814, 187500.0, 187500.0, -187500.02235174447, 37368.227525738184, -0.094, 0.982, 0.048, 192.0, 0.0, 0.0, 0.0, 0.0, 0.0, 0.0, 0.0, 0.0, 0.0, 1.6989582136996686E9, 0.0, 2023-11-02 16:50:13.699
211.0, -187500.02235174447, 187500.0, 528.037611012174, 31881.36600033832, 187500.0, 187500.0, -187500.02235174447, 37375.6706566418, -0.094, 0.982, 0.048, 192.0, 0.0, 0.0, 0.0, 0.0, 0.0, 0.0, 0.0, 0.0, 0.0, 1.698958213699695E9, 0.0, 2023-11-02 16:50:13.699
212.0, -187500.02235174447, 187500.0, 526.0259540111964, 31903.851855260356, 187500.0, 187500.0, -187500.02235174447, 37374.39660720785, -0.094, 0.982, 0.048, 192.0, 0.0, 0.0, 0.0, 0.0, 0.0, 0.0, 0.0, 0.0, 0.0, 1.698958213699715E9, 0.0, 2023-11-02 16:50:13.699
213.0, -187500.02235174447, 187500.0, 527.8811488009869, 31908.41161112924, 187500.0, 187500.0, -187500.02235174447, 37374.933049074774, -0.094, 0.982, 0.048, 192.0, 0.0, 0.0, 0.0, 0.0, 0.0, 0.0, 0.0, 0.0, 0.0, 1.6989582136998765E9, 0.0, 2023-11-02 16:50:13.699
214.0, -187500.02235174447, 187500.0, 527.3670586785148, 31895.98404121209, 187500.0, 187500.0, -187500.02235174447, 37374.329551974486, -0.094, 0.982, 0.048, 192.0, 0.0, 0.0, 0.0, 0.0, 0.0, 0.0, 0.0, 0.0, 0.0, 1.6989582136999094E9, 0.0, 2023-11-02 16:50:13.699
215.0, -187500.02235174447, 187500.0, 518.7616370632217, 31890.9772504541, 187500.0, 187500.0, -187500.02235174447, 37370.01566529461, -0.094, 0.982, 0.048, 192.0, 0.0, 0.0, 0.0, 0.0, 0.0, 0.0, 0.0, 0.0, 0.0, 1.6989582136999323E9, 0.0, 2023-11-02 16:50:13.699
216.0, -187500.02235174447, 187500.0, 519.812169052621, 31907.428134373207, 187500.0, 187500.0, -187500.02235174447, 37375.49184268616, -0.082, 0.982, 0.056, 192.0, 253.0, 112.0, 30.0, 176.0, 1.0, 192.0, 0.0, 0.0, 0.0, 1.698958213699993E9, 0.0, 2023-11-02 16:50:13.699
217.0, -187500.02235174447, 187500.0, 514.5148056167133, 31917.352308911362, 187500.0, 187500.0, -187500.02235174447, 37369.45687168323, -0.082, 0.982, 0.056, 192.0, 0.0, 0.0, 0.0, 0.0, 0.0, 0.0, 0.0, 0.0, 0.0, 1.6989582137000427E9, 0.0, 2023-11-02 16:50:13.700
218.0, -187500.02235174447, 187500.0, 521.6003086090457, 31900.65555580325, 187500.0, 187500.0, -187500.02235174447, 37373.21196475172, -0.082, 0.982, 0.056, 192.0, 0.0, 0.0, 0.0, 0.0, 0.0, 0.0, 0.0, 0.0, 0.0, 1.6989582137000852E9, 0.0, 2023-11-02 16:50:13.700
219.0, -187500.02235174447, 187500.0, 524.8413115550651, 31888.54091030847, 187500.0, 187500.0, -187500.02235174447, 37374.329551974486, -0.082, 0.982, 0.056, 192.0, 0.0, 0.0, 0.0, 0.0, 0.0, 0.0, 0.0, 0.0, 0.0, 1.6989582137001264E9, 0.0, 2023-11-02 16:50:13.700
220.0, -187500.02235174447, 187500.0, 519.6110033525233, 31914.625396087817, 187500.0, 187500.0, -187500.02235174447, 37370.48505192817, -0.082, 0.982, 0.056, 192.0, 0.0, 0.0, 0.0, 0.0, 0.0, 0.0, 0.0, 0.0, 0.0, 1.6989582137001512E9, 0.0, 2023-11-02 16:50:13.700
221.0, -187500.02235174447, 187500.0, 512.3690381490038, 31915.586521099394, 187500.0, 187500.0, -187500.02235174447, 37362.25960996862, -0.082, 0.982, 0.056, 192.0, 0.0, 0.0, 0.0, 0.0, 0.0, 0.0, 0.0, 0.0, 0.0, 1.698958213700176E9, 0.0, 2023-11-02 16:50:13.700
222.0, -187500.02235174447, 187500.0, 518.0687329851071, 31891.8266167434, 187500.0, 187500.0, -187500.02235174447, 37364.38302569187, -0.082, 0.982, 0.056, 192.0, 0.0, 0.0, 0.0, 0.0, 0.0, 0.0, 0.0, 0.0, 0.0, 1.698958213700198E9, 0.0, 2023-11-02 16:50:13.700
223.0, -187500.02235174447, 187500.0, 521.5332533756797, 31879.13082589279, 187500.0, 187500.0, -187500.02235174447, 37365.433557681274, -0.082, 0.982, 0.056, 192.0, 0.0, 0.0, 0.0, 0.0, 0.0, 0.0, 0.0, 0.0, 0.0, 1.6989582137002134E9, 0.0, 2023-11-02 16:50:13.700
224.0, -187500.02235174447, 187500.0, 526.7412098337662, 31895.11232317833, 187500.0, 187500.0, -187500.02235174447, 37371.60263915094, -0.082, 0.982, 0.056, 192.0, 0.0, 0.0, 0.0, 0.0, 0.0, 0.0, 0.0, 0.0, 0.0, 1.6989582137002325E9, 0.0, 2023-11-02 16:50:13.700
225.0, -187500.02235174447, 187500.0, 524.4613318993249, 31917.88875077829, 187500.0, 187500.0, -187500.02235174447, 37369.278057727584, -0.082, 0.982, 0.056, 192.0, 0.0, 0.0, 0.0, 0.0, 0.0, 0.0, 0.0, 0.0, 0.0, 1.6989582137002547E9, 0.0, 2023-11-02 16:50:13.700
226.0, -187500.02235174447, 187500.0, 527.9705557788081, 31911.60791058635, 187500.0, 187500.0, -187500.02235174447, 37372.63081939588, -0.084, 0.978, 0.052000000000000005, 192.0, 253.0, 96.0, 30.0, 144.0, 1.0, 160.0, 0.0, 0.0, 0.0, 1.6989582137002847E9, 0.0, 2023-11-02 16:50:13.700
227.0, -187500.02235174447, 187500.0, 529.4234191684031, 31906.534064594995, 187500.0, 187500.0, -187500.02235174447, 37374.28484848557, -0.084, 0.978, 0.052000000000000005, 192.0, 0.0, 0.0, 0.0, 0.0, 0.0, 0.0, 0.0, 0.0, 0.0, 1.6989582137003272E9, 0.0, 2023-11-02 16:50:13.700
228.0, -187500.02235174447, 187500.0, 528.1493697344506, 31925.577750870914, 187500.0, 187500.0, -187500.02235174447, 37373.94957231874, -0.084, 0.978, 0.052000000000000005, 192.0, 0.0, 0.0, 0.0, 0.0, 0.0, 0.0, 0.0, 0.0, 0.0, 1.698958213700354E9, 0.0, 2023-11-02 16:50:13.700
229.0, -187500.02235174447, 187500.0, 528.0823145010846, 31947.08012903692, 187500.0, 187500.0, -187500.02235174447, 37370.86503158391, -0.084, 0.978, 0.052000000000000005, 192.0, 0.0, 0.0, 0.0, 0.0, 0.0, 0.0, 0.0, 0.0, 0.0, 1.6989582137005596E9, 0.0, 2023-11-02 16:50:13.700
230.0, -187500.02235174447, 187500.0, 526.8529685560428, 31934.74196609759, 187500.0, 187500.0, -187500.02235174447, 37367.84754608245, -0.084, 0.978, 0.052000000000000005, 192.0, 0.0, 0.0, 0.0, 0.0, 0.0, 0.0, 0.0, 0.0, 0.0, 1.6989582137005992E9, 0.0, 2023-11-02 16:50:13.700
231.0, -187500.02235174447, 187500.0, 535.3242797046041, 31917.531122867003, 187500.0, 187500.0, -187500.02235174447, 37373.9719240632, -0.084, 0.978, 0.052000000000000005, 192.0, 0.0, 0.0, 0.0, 0.0, 0.0, 0.0, 0.0, 0.0, 0.0, 1.6989582137006195E9, 0.0, 2023-11-02 16:50:13.700
232.0, -187500.02235174447, 187500.0, 534.8101895821321, 31930.629245117816, 187500.0, 187500.0, -187500.02235174447, 37370.954438561734, -0.084, 0.978, 0.052000000000000005, 192.0, 0.0, 0.0, 0.0, 0.0, 0.0, 0.0, 0.0, 0.0, 0.0, 1.6989582137006364E9, 0.0, 2023-11-02 16:50:13.700
233.0, -187500.02235174447, 187500.0, 525.1095324885288, 31951.818698861447, 187500.0, 187500.0, -187500.02235174447, 37360.7173396012, -0.084, 0.978, 0.052000000000000005, 192.0, 0.0, 0.0, 0.0, 0.0, 0.0, 0.0, 0.0, 0.0, 0.0, 1.6989582137006564E9, 0.0, 2023-11-02 16:50:13.700
234.0, -187500.02235174447, 187500.0, 529.8928058019645, 31944.442623191193, 187500.0, 187500.0, -187500.02235174447, 37361.90198205733, -0.084, 0.978, 0.052000000000000005, 192.0, 0.0, 0.0, 0.0, 0.0, 0.0, 0.0, 0.0, 0.0, 0.0, 1.6989582137006967E9, 0.0, 2023-11-02 16:50:13.700
235.0, -187500.02235174447, 187500.0, 531.4127244249254, 31921.50973338005, 187500.0, 187500.0, -187500.02235174447, 37361.41024367932, -0.084, 0.978, 0.052000000000000005, 192.0, 0.0, 0.0, 0.0, 0.0, 0.0, 0.0, 0.0, 0.0, 0.0, 1.6989582137007327E9, 0.0, 2023-11-02 16:50:13.700
236.0, -187500.02235174447, 187500.0, 536.1959977383611, 31925.868323548835, 187500.0, 187500.0, -187500.02235174447, 37368.383987949375, -0.09, 0.984, 0.056, 192.0, 253.0, 48.0, 30.0, 192.0, 1.0, 192.0, 0.0, 0.0, 0.0, 1.698958213700748E9, 0.0, 2023-11-02 16:50:13.700
237.0, -187500.02235174447, 187500.0, 533.3349744480818, 31949.449413949184, 187500.0, 187500.0, -187500.02235174447, 37368.11576701591, -0.09, 0.984, 0.056, 192.0, 0.0, 0.0, 0.0, 0.0, 0.0, 0.0, 0.0, 0.0, 0.0, 1.6989582137007692E9, 0.0, 2023-11-02 16:50:13.700
238.0, -187500.02235174447, 187500.0, 536.9559570498416, 31954.813832618456, 187500.0, 187500.0, -187500.02235174447, 37371.69204612876, -0.09, 0.984, 0.056, 192.0, 0.0, 0.0, 0.0, 0.0, 0.0, 0.0, 0.0, 0.0, 0.0, 1.6989582137007847E9, 0.0, 2023-11-02 16:50:13.700
239.0, -187500.02235174447, 187500.0, 534.5866721375791, 31936.530105654016, 187500.0, 187500.0, -187500.02235174447, 37368.67456062729, -0.09, 0.984, 0.056, 192.0, 0.0, 0.0, 0.0, 0.0, 0.0, 0.0, 0.0, 0.0, 0.0, 1.698958213700827E9, 0.0, 2023-11-02 16:50:13.700
240.0, -187500.02235174447, 187500.0, 530.362192435526, 31932.350329440873, 187500.0, 187500.0, -187500.02235174447, 37362.72899660218, -0.09, 0.984, 0.056, 192.0, 0.0, 0.0, 0.0, 0.0, 0.0, 0.0, 0.0, 0.0, 0.0, 1.698958213700865E9, 0.0, 2023-11-02 16:50:13.700
241.0, -187500.02235174447, 187500.0, 523.6790208433891, 31949.56117267146, 187500.0, 187500.0, -187500.02235174447, 37355.17410697629, -0.09, 0.984, 0.056, 192.0, 0.0, 0.0, 0.0, 0.0, 0.0, 0.0, 0.0, 0.0, 0.0, 1.6989582137008998E9, 0.0, 2023-11-02 16:50:13.700
242.0, -187500.02235174447, 187500.0, 512.6149073380121, 31949.047082548987, 187500.0, 187500.0, -187500.02235174447, 37342.523019614586, -0.09, 0.984, 0.056, 192.0, 0.0, 0.0, 0.0, 0.0, 0.0, 0.0, 0.0, 0.0, 0.0, 1.6989582141767097E9, 0.0, 2023-11-02 16:50:14.176
243.0, -187500.02235174447, 187500.0, 512.6372590824675, 31924.6836810927, 187500.0, 187500.0, -187500.02235174447, 37340.64547308034, -0.09, 0.984, 0.056, 192.0, 0.0, 0.0, 0.0, 0.0, 0.0, 0.0, 0.0, 0.0, 0.0, 1.6989582141768444E9, 0.0, 2023-11-02 16:50:14.176
244.0, -187500.02235174447, 187500.0, 512.3913898934591, 31919.207503701153, 187500.0, 187500.0, -187500.02235174447, 37341.00310099162, -0.09, 0.984, 0.056, 192.0, 0.0, 0.0, 0.0, 0.0, 0.0, 0.0, 0.0, 0.0, 0.0, 1.6989582141769984E9, 0.0, 2023-11-02 16:50:14.176
245.0, -187500.02235174447, 187500.0, 512.8831282714758, 31940.50871616706, 187500.0, 187500.0, -187500.02235174447, 37343.350034159426, -0.09, 0.984, 0.056, 192.0, 0.0, 0.0, 0.0, 0.0, 0.0, 0.0, 0.0, 0.0, 0.0, 1.6989582141770096E9, 0.0, 2023-11-02 16:50:14.177
246.0, -187500.02235174447, 187500.0, 517.4652358848138, 31960.245306521098, 187500.0, 187500.0, -187500.02235174447, 37348.55799061751, -0.09, 0.986, 0.064, 192.0, 253.0, 48.0, 30.0, 208.0, 2.0, 0.0, 0.0, 0.0, 0.0, 1.6989582141770208E9, 0.0, 2023-11-02 16:50:14.177
247.0, -187500.02235174447, 187500.0, 512.749017804744, 31950.61170466086, 187500.0, 187500.0, -187500.02235174447, 37343.48414462616, -0.09, 0.986, 0.064, 192.0, 0.0, 0.0, 0.0, 0.0, 0.0, 0.0, 0.0, 0.0, 0.0, 1.6989582141770344E9, 0.0, 2023-11-02 16:50:14.177
248.0, -187500.02235174447, 187500.0, 517.2864219291713, 31936.2395329761, 187500.0, 187500.0, -187500.02235174447, 37348.73680457316, -0.09, 0.986, 0.064, 192.0, 0.0, 0.0, 0.0, 0.0, 0.0, 0.0, 0.0, 0.0, 0.0, 1.6989582141770487E9, 0.0, 2023-11-02 16:50:14.177
249.0, -187500.02235174447, 187500.0, 515.4759306282915, 31954.74677738509, 187500.0, 187500.0, -187500.02235174447, 37348.49093538415, -0.09, 0.986, 0.064, 192.0, 0.0, 0.0, 0.0, 0.0, 0.0, 0.0, 0.0, 0.0, 0.0, 1.69895821417706E9, 0.0, 2023-11-02 16:50:14.177
250.0, -187500.02235174447, 187500.0, 510.62560208148983, 31967.397864746796, 187500.0, 187500.0, -187500.02235174447, 37343.03710973705, -0.09, 0.986, 0.064, 192.0, 0.0, 0.0, 0.0, 0.0, 0.0, 0.0, 0.0, 0.0, 0.0, 1.6989582141770883E9, 0.0, 2023-11-02 16:50:14.177
251.0, -187500.02235174447, 187500.0, 509.64212532545633, 31955.93141984122, 187500.0, 187500.0, -187500.02235174447, 37339.59494109094, -0.09, 0.986, 0.064, 192.0, 0.0, 0.0, 0.0, 0.0, 0.0, 0.0, 0.0, 0.0, 0.0, 1.6989582141770985E9, 0.0, 2023-11-02 16:50:14.177
252.0, -187500.02235174447, 187500.0, 513.8889567719647, 31937.02184403203, 187500.0, 187500.0, -187500.02235174447, 37341.561894603, -0.09, 0.986, 0.064, 192.0, 0.0, 0.0, 0.0, 0.0, 0.0, 0.0, 0.0, 0.0, 0.0, 1.698958214177109E9, 0.0, 2023-11-02 16:50:14.177
253.0, -187500.02235174447, 187500.0, 514.6936195723557, 31948.264771493054, 187500.0, 187500.0, -187500.02235174447, 37341.83011553647, -0.09, 0.986, 0.064, 192.0, 0.0, 0.0, 0.0, 0.0, 0.0, 0.0, 0.0, 0.0, 0.0, 1.6989582141771195E9, 0.0, 2023-11-02 16:50:14.177
254.0, -187500.02235174447, 187500.0, 513.2854596716713, 31970.884736881824, 187500.0, 187500.0, -187500.02235174447, 37339.72905155767, -0.09, 0.986, 0.064, 192.0, 0.0, 0.0, 0.0, 0.0, 0.0, 0.0, 0.0, 0.0, 0.0, 1.6989582141771295E9, 0.0, 2023-11-02 16:50:14.177
255.0, -187500.02235174447, 187500.0, 512.4807968712803, 31959.820623376447, 187500.0, 187500.0, -187500.02235174447, 37337.31506315649, -0.09, 0.986, 0.064, 192.0, 0.0, 0.0, 0.0, 0.0, 0.0, 0.0, 0.0, 0.0, 0.0, 1.698958214177156E9, 0.0, 2023-11-02 16:50:14.177
0.0, -187500.02235174447, 187500.0, 518.8733957854981, 31949.650579649282, 187500.0, 187500.0, -187500.02235174447, 37341.62894983637, -0.084, 0.984, 0.064, 192.0, 253.0, 96.0, 30.0, 192.0, 2.0, 0.0, 0.0, 0.0, 0.0, 1.6989582141771655E9, 0.0, 2023-11-02 16:50:14.177
1.0, -187500.02235174447, 187500.0, 515.8559102840317, 31959.910030354265, 187500.0, 187500.0, -187500.02235174447, 37339.840810279944, -0.084, 0.984, 0.064, 192.0, 0.0, 0.0, 0.0, 0.0, 0.0, 0.0, 0.0, 0.0, 0.0, 1.6989582141771765E9, 0.0, 2023-11-02 16:50:14.177
2.0, -187500.02235174447, 187500.0, 517.7334568182775, 31981.23359456463, 187500.0, 187500.0, -187500.02235174447, 37344.400566148826, -0.084, 0.984, 0.064, 192.0, 0.0, 0.0, 0.0, 0.0, 0.0, 0.0, 0.0, 0.0, 0.0, 1.6989582141771872E9, 0.0, 2023-11-02 16:50:14.177
3.0, -187500.02235174447, 187500.0, 519.4098376524255, 31982.686457954223, 187500.0, 187500.0, -187500.02235174447, 37347.10512722792, -0.084, 0.984, 0.064, 192.0, 0.0, 0.0, 0.0, 0.0, 0.0, 0.0, 0.0, 0.0, 0.0, 1.6989582141772068E9, 0.0, 2023-11-02 16:50:14.177
4.0, -187500.02235174447, 187500.0, 520.7956458086545, 31969.27541128104, 187500.0, 187500.0, -187500.02235174447, 37346.65809233882, -0.084, 0.984, 0.064, 192.0, 0.0, 0.0, 0.0, 0.0, 0.0, 0.0, 0.0, 0.0, 0.0, 1.6989582141772163E9, 0.0, 2023-11-02 16:50:14.177
5.0, -187500.02235174447, 187500.0, 521.265032442216, 31965.520318212548, 187500.0, 187500.0, -187500.02235174447, 37345.69696732723, -0.084, 0.984, 0.064, 192.0, 0.0, 0.0, 0.0, 0.0, 0.0, 0.0, 0.0, 0.0, 0.0, 1.6989582141772313E9, 0.0, 2023-11-02 16:50:14.177
6.0, -187500.02235174447, 187500.0, 519.9015760304422, 31987.313269056474, 187500.0, 187500.0, -187500.02235174447, 37344.66878708229, -0.084, 0.984, 0.064, 192.0, 0.0, 0.0, 0.0, 0.0, 0.0, 0.0, 0.0, 0.0, 0.0, 1.6989582141772408E9, 0.0, 2023-11-02 16:50:14.177
7.0, -187500.02235174447, 187500.0, 510.06680847010716, 31991.33658305843, 187500.0, 187500.0, -187500.02235174447, 37333.29174915454, -0.084, 0.984, 0.064, 192.0, 0.0, 0.0, 0.0, 0.0, 0.0, 0.0, 0.0, 0.0, 0.0, 1.698958214177251E9, 0.0, 2023-11-02 16:50:14.177
8.0, -187500.02235174447, 187500.0, 519.4992446302467, 31970.258888037075, 187500.0, 187500.0, -187500.02235174447, 37338.90203701282, -0.084, 0.984, 0.064, 192.0, 0.0, 0.0, 0.0, 0.0, 0.0, 0.0, 0.0, 0.0, 0.0, 1.6989582141772609E9, 0.0, 2023-11-02 16:50:14.177
9.0, -187500.02235174447, 187500.0, 525.9588987778305, 31970.32594327044, 187500.0, 187500.0, -187500.02235174447, 37343.17122020379, -0.084, 0.984, 0.064, 192.0, 0.0, 0.0, 0.0, 0.0, 0.0, 0.0, 0.0, 0.0, 0.0, 1.6989582141772704E9, 0.0, 2023-11-02 16:50:14.177
10.0, -187500.02235174447, 187500.0, 509.9326980033753, 31982.753513187592, 187500.0, 187500.0, -187500.02235174447, 37326.429763606764, -0.082, 0.986, 0.062, 192.0, 253.0, 112.0, 30.0, 208.0, 1.0, 240.0, 0.0, 0.0, 0.0, 1.69895821417728E9, 0.0, 2023-11-02 16:50:14.177
11.0, -187500.02235174447, 187500.0, 509.8656427700094, 31980.451283508693, 187500.0, 187500.0, -187500.02235174447, 37324.01577520559, -0.082, 0.986, 0.062, 192.0, 0.0, 0.0, 0.0, 0.0, 0.0, 0.0, 0.0, 0.0, 0.0, 1.6989582141772904E9, 0.0, 2023-11-02 16:50:14.177
12.0, -187500.02235174447, 187500.0, 519.9239277748976, 31966.727312413135, 187500.0, 187500.0, -187500.02235174447, 37332.2635689096, -0.082, 0.986, 0.062, 192.0, 0.0, 0.0, 0.0, 0.0, 0.0, 0.0, 0.0, 0.0, 0.0, 1.6989582141773002E9, 0.0, 2023-11-02 16:50:14.177
13.0, -187500.02235174447, 187500.0, 526.0036022667412, 31968.671914180748, 187500.0, 187500.0, -187500.02235174447, 37339.371423646386, -0.082, 0.986, 0.062, 192.0, 0.0, 0.0, 0.0, 0.0, 0.0, 0.0, 0.0, 0.0, 0.0, 1.6989582141773095E9, 0.0, 2023-11-02 16:50:14.177
14.0, -187500.02235174447, 187500.0, 530.3845441799813, 31992.632984236836, 187500.0, 187500.0, -187500.02235174447, 37342.27715042557, -0.082, 0.986, 0.062, 192.0, 0.0, 0.0, 0.0, 0.0, 0.0, 0.0, 0.0, 0.0, 0.0, 1.6989582141773193E9, 0.0, 2023-11-02 16:50:14.177
15.0, -187500.02235174447, 187500.0, 524.0142970102188, 32014.358879847394, 187500.0, 187500.0, -187500.02235174447, 37334.3646328884, -0.082, 0.986, 0.062, 192.0, 0.0, 0.0, 0.0, 0.0, 0.0, 0.0, 0.0, 0.0, 0.0, 1.6989582141773288E9, 0.0, 2023-11-02 16:50:14.177
16.0, -187500.02235174447, 187500.0, 518.2922504296602, 31989.771960946557, 187500.0, 187500.0, -187500.02235174447, 37327.10031594042, -0.082, 0.986, 0.062, 192.0, 0.0, 0.0, 0.0, 0.0, 0.0, 0.0, 0.0, 0.0, 0.0, 1.69895821417734E9, 0.0, 2023-11-02 16:50:14.177
17.0, -187500.02235174447, 187500.0, 523.1202272320065, 31967.174347302243, 187500.0, 187500.0, -187500.02235174447, 37331.950644487224, -0.082, 0.986, 0.062, 192.0, 0.0, 0.0, 0.0, 0.0, 0.0, 0.0, 0.0, 0.0, 0.0, 1.6989582141773496E9, 0.0, 2023-11-02 16:50:14.177
18.0, -187500.02235174447, 187500.0, 522.3602679205261, 31987.827359178948, 187500.0, 187500.0, -187500.02235174447, 37334.58815033295, -0.082, 0.986, 0.062, 192.0, 0.0, 0.0, 0.0, 0.0, 0.0, 0.0, 0.0, 0.0, 0.0, 1.6989582141773596E9, 0.0, 2023-11-02 16:50:14.177
19.0, -187500.02235174447, 187500.0, 519.4768928857915, 32003.205359364198, 187500.0, 187500.0, -187500.02235174447, 37333.694080554735, -0.082, 0.986, 0.062, 192.0, 0.0, 0.0, 0.0, 0.0, 0.0, 0.0, 0.0, 0.0, 0.0, 1.6989582141773775E9, 0.0, 2023-11-02 16:50:14.177
20.0, -187500.02235174447, 187500.0, 526.4729889003025, 31994.778751704547, 187500.0, 187500.0, -187500.02235174447, 37339.77375504658, -0.082, 0.978, 0.06, 192.0, 253.0, 112.0, 30.0, 144.0, 1.0, 224.0, 0.0, 0.0, 0.0, 1.698958214177387E9, 0.0, 2023-11-02 16:50:14.177
21.0, -187500.02235174447, 187500.0, 535.3019279601489, 31991.180120847243, 187500.0, 187500.0, -187500.02235174447, 37348.60269410643, -0.082, 0.978, 0.06, 192.0, 0.0, 0.0, 0.0, 0.0, 0.0, 0.0, 0.0, 0.0, 0.0, 1.6989582141773973E9, 0.0, 2023-11-02 16:50:14.177
22.0, -187500.02235174447, 187500.0, 532.7985325811544, 31999.204397106696, 187500.0, 187500.0, -187500.02235174447, 37345.85342953842, -0.082, 0.978, 0.06, 192.0, 0.0, 0.0, 0.0, 0.0, 0.0, 0.0, 0.0, 0.0, 0.0, 1.6989582141774068E9, 0.0, 2023-11-02 16:50:14.177
23.0, -187500.02235174447, 187500.0, 525.9588987778305, 32014.805914736502, 187500.0, 187500.0, -187500.02235174447, 37339.46083062421, -0.082, 0.978, 0.06, 192.0, 0.0, 0.0, 0.0, 0.0, 0.0, 0.0, 0.0, 0.0, 0.0, 1.6989582141774163E9, 0.0, 2023-11-02 16:50:14.177
24.0, -187500.02235174447, 187500.0, 523.5896138655679, 32010.134400145344, 187500.0, 187500.0, -187500.02235174447, 37332.10710669841, -0.082, 0.978, 0.06, 192.0, 0.0, 0.0, 0.0, 0.0, 0.0, 0.0, 0.0, 0.0, 0.0, 1.698958214177426E9, 0.0, 2023-11-02 16:50:14.177
25.0, -187500.02235174447, 187500.0, 527.5905761230679, 31989.213167335176, 187500.0, 187500.0, -187500.02235174447, 37331.68242355376, -0.082, 0.978, 0.06, 192.0, 0.0, 0.0, 0.0, 0.0, 0.0, 0.0, 0.0, 0.0, 0.0, 1.6989582141774352E9, 0.0, 2023-11-02 16:50:14.177
26.0, -187500.02235174447, 187500.0, 533.7596575927327, 31997.215091850176, 187500.0, 187500.0, -187500.02235174447, 37338.14207770134, -0.082, 0.978, 0.06, 192.0, 0.0, 0.0, 0.0, 0.0, 0.0, 0.0, 0.0, 0.0, 0.0, 1.6989582141774447E9, 0.0, 2023-11-02 16:50:14.177
27.0, -187500.02235174447, 187500.0, 526.6965063448556, 32024.43951659674, 187500.0, 187500.0, -187500.02235174447, 37332.57649333197, -0.082, 0.978, 0.06, 192.0, 0.0, 0.0, 0.0, 0.0, 0.0, 0.0, 0.0, 0.0, 0.0, 1.698958214177456E9, 0.0, 2023-11-02 16:50:14.177
28.0, -187500.02235174447, 187500.0, 514.8724335279982, 32019.81270549449, 187500.0, 187500.0, -187500.02235174447, 37321.78060076006, -0.082, 0.978, 0.06, 192.0, 0.0, 0.0, 0.0, 0.0, 0.0, 0.0, 0.0, 0.0, 0.0, 1.6989582141774657E9, 0.0, 2023-11-02 16:50:14.177
29.0, -187500.02235174447, 187500.0, 530.6080616245343, 31996.209263349687, 187500.0, 187500.0, -187500.02235174447, 37334.76696428859, -0.09, 0.98, 0.06, 192.0, 253.0, 48.0, 30.0, 160.0, 1.0, 224.0, 0.0, 0.0, 0.0, 1.6989582141774755E9, 0.0, 2023-11-02 16:50:14.177
30.0, -187500.02235174447, 187500.0, 537.0230122832074, 32007.09456289942, 187500.0, 187500.0, -187500.02235174447, 37340.265493424595, -0.09, 0.98, 0.06, 192.0, 0.0, 0.0, 0.0, 0.0, 0.0, 0.0, 0.0, 0.0, 0.0, 1.6989582141774855E9, 0.0, 2023-11-02 16:50:14.177
31.0, -187500.02235174447, 187500.0, 538.7664483507215, 32033.42491786777, 187500.0, 187500.0, -187500.02235174447, 37345.47344988268, -0.09, 0.98, 0.06, 192.0, 0.0, 0.0, 0.0, 0.0, 0.0, 0.0, 0.0, 0.0, 0.0, 1.6989582141774948E9, 0.0, 2023-11-02 16:50:14.177
32.0, -187500.02235174447, 187500.0, 536.6206808830119, 32040.66688307129, 187500.0, 187500.0, -187500.02235174447, 37345.40639464932, -0.09, 0.98, 0.06, 192.0, 0.0, 0.0, 0.0, 0.0, 0.0, 0.0, 0.0, 0.0, 0.0, 1.6989582141775043E9, 0.0, 2023-11-02 16:50:14.177
33.0, -187500.02235174447, 187500.0, 546.813076354632, 32020.23738863914, 187500.0, 187500.0, -187500.02235174447, 37354.97294127619, -0.09, 0.98, 0.06, 192.0, 0.0, 0.0, 0.0, 0.0, 0.0, 0.0, 0.0, 0.0, 0.0, 1.698958214177514E9, 0.0, 2023-11-02 16:50:14.177
34.0, -187500.02235174447, 187500.0, 548.2659397442269, 32023.478391585162, 187500.0, 187500.0, -187500.02235174447, 37357.40928142182, -0.09, 0.98, 0.06, 192.0, 0.0, 0.0, 0.0, 0.0, 0.0, 0.0, 0.0, 0.0, 0.0, 1.6989582141775312E9, 0.0, 2023-11-02 16:50:14.177
35.0, -187500.02235174447, 187500.0, 539.3028902176488, 32036.621217324882, 187500.0, 187500.0, -187500.02235174447, 37348.021548750585, -0.09, 0.98, 0.06, 192.0, 0.0, 0.0, 0.0, 0.0, 0.0, 0.0, 0.0, 0.0, 0.0, 1.6989582141775405E9, 0.0, 2023-11-02 16:50:14.177
36.0, -187500.02235174447, 187500.0, 537.6041576390455, 32042.92440926128, 187500.0, 187500.0, -187500.02235174447, 37344.22175219319, -0.09, 0.98, 0.06, 192.0, 0.0, 0.0, 0.0, 0.0, 0.0, 0.0, 0.0, 0.0, 0.0, 1.6989582141775503E9, 0.0, 2023-11-02 16:50:14.177
37.0, -187500.02235174447, 187500.0, 543.0803350305957, 32024.663034041292, 187500.0, 187500.0, -187500.02235174447, 37346.144002216344, -0.09, 0.98, 0.06, 192.0, 0.0, 0.0, 0.0, 0.0, 0.0, 0.0, 0.0, 0.0, 0.0, 1.6989582141775596E9, 0.0, 2023-11-02 16:50:14.177
38.0, -187500.02235174447, 187500.0, 544.48849493128, 32010.536731545537, 187500.0, 187500.0, -187500.02235174447, 37346.38987140535, -0.09, 0.98, 0.06, 192.0, 0.0, 0.0, 0.0, 0.0, 0.0, 0.0, 0.0, 0.0, 0.0, 1.6989582141775692E9, 0.0, 2023-11-02 16:50:14.177
39.0, -187500.02235174447, 187500.0, 543.2144454973276, 32030.675653299768, 187500.0, 187500.0, -187500.02235174447, 37347.93214177277, -0.088, 0.976, 0.05, 192.0, 253.0, 64.0, 30.0, 128.0, 1.0, 144.0, 0.0, 0.0, 0.0, 1.6989582141775787E9, 0.0, 2023-11-02 16:50:14.177
40.0, -187500.02235174447, 187500.0, 530.7645238357215, 32041.538601105047, 187500.0, 187500.0, -187500.02235174447, 37334.65520556631, -0.088, 0.976, 0.05, 192.0, 0.0, 0.0, 0.0, 0.0, 0.0, 0.0, 0.0, 0.0, 0.0, 1.6989582141775892E9, 0.0, 2023-11-02 16:50:14.177
41.0, -187500.02235174447, 187500.0, 537.5594541501349, 32022.29374912903, 187500.0, 187500.0, -187500.02235174447, 37338.99144399064, -0.088, 0.976, 0.05, 192.0, 0.0, 0.0, 0.0, 0.0, 0.0, 0.0, 0.0, 0.0, 0.0, 1.6989582141775987E9, 0.0, 2023-11-02 16:50:14.177
42.0, -187500.02235174447, 187500.0, 538.1405995059729, 32012.682499013248, 187500.0, 187500.0, -187500.02235174447, 37338.030318979065, -0.088, 0.976, 0.05, 192.0, 0.0, 0.0, 0.0, 0.0, 0.0, 0.0, 0.0, 0.0, 0.0, 1.6989582141776085E9, 0.0, 2023-11-02 16:50:14.177
43.0, -187500.02235174447, 187500.0, 538.4758756728024, 32023.545446818527, 187500.0, 187500.0, -187500.02235174447, 37340.28784516905, -0.088, 0.976, 0.05, 192.0, 0.0, 0.0, 0.0, 0.0, 0.0, 0.0, 0.0, 0.0, 0.0, 1.698958214177618E9, 0.0, 2023-11-02 16:50:14.177
44.0, -187500.02235174447, 187500.0, 537.2465297277605, 32052.088624487955, 187500.0, 187500.0, -187500.02235174447, 37339.371423646386, -0.088, 0.976, 0.05, 192.0, 0.0, 0.0, 0.0, 0.0, 0.0, 0.0, 0.0, 0.0, 0.0, 1.6989582141776276E9, 0.0, 2023-11-02 16:50:14.177
45.0, -187500.02235174447, 187500.0, 540.7781053516991, 32049.49582213114, 187500.0, 187500.0, -187500.02235174447, 37340.22078993569, -0.088, 0.976, 0.05, 192.0, 0.0, 0.0, 0.0, 0.0, 0.0, 0.0, 0.0, 0.0, 0.0, 1.698958214177637E9, 0.0, 2023-11-02 16:50:14.177
46.0, -187500.02235174447, 187500.0, 543.7508873642549, 32036.73297604716, 187500.0, 187500.0, -187500.02235174447, 37345.18287720477, -0.088, 0.976, 0.05, 192.0, 0.0, 0.0, 0.0, 0.0, 0.0, 0.0, 0.0, 0.0, 0.0, 1.6989582141776464E9, 0.0, 2023-11-02 16:50:14.177
47.0, -187500.02235174447, 187500.0, 538.3194134616153, 32045.71837731819, 187500.0, 187500.0, -187500.02235174447, 37341.450135880725, -0.088, 0.976, 0.05, 192.0, 0.0, 0.0, 0.0, 0.0, 0.0, 0.0, 0.0, 0.0, 0.0, 1.698958214177656E9, 0.0, 2023-11-02 16:50:14.177
48.0, -187500.02235174447, 187500.0, 529.6916401018668, 32064.404435682827, 187500.0, 187500.0, -187500.02235174447, 37334.29757765503, -0.088, 0.976, 0.05, 192.0, 0.0, 0.0, 0.0, 0.0, 0.0, 0.0, 0.0, 0.0, 0.0, 1.698958214177667E9, 0.0, 2023-11-02 16:50:14.177
49.0, -187500.02235174447, 187500.0, 530.8092273246322, 32062.303371704027, 187500.0, 187500.0, -187500.02235174447, 37331.0118712201, -0.09, 0.974, 0.048, 192.0, 253.0, 48.0, 30.0, 112.0, 1.0, 128.0, 0.0, 0.0, 0.0, 1.698958214177684E9, 0.0, 2023-11-02 16:50:14.177
50.0, -187500.02235174447, 187500.0, 538.5429309061684, 32044.466679628695, 187500.0, 187500.0, -187500.02235174447, 37335.035185222056, -0.09, 0.974, 0.048, 192.0, 0.0, 0.0, 0.0, 0.0, 0.0, 0.0, 0.0, 0.0, 0.0, 1.6989582141776943E9, 0.0, 2023-11-02 16:50:14.177
51.0, -187500.02235174447, 187500.0, 542.3874309524812, 32048.512345375104, 187500.0, 187500.0, -187500.02235174447, 37336.89038001184, -0.09, 0.974, 0.048, 192.0, 0.0, 0.0, 0.0, 0.0, 0.0, 0.0, 0.0, 0.0, 0.0, 1.698958214177704E9, 0.0, 2023-11-02 16:50:14.177
52.0, -187500.02235174447, 187500.0, 537.0453640276628, 32070.126482263386, 187500.0, 187500.0, -187500.02235174447, 37333.7611357881, -0.09, 0.974, 0.048, 192.0, 0.0, 0.0, 0.0, 0.0, 0.0, 0.0, 0.0, 0.0, 0.0, 1.6989582141777134E9, 0.0, 2023-11-02 16:50:14.177
53.0, -187500.02235174447, 187500.0, 537.3359367055817, 32073.1216160204, 187500.0, 187500.0, -187500.02235174447, 37333.492914854636, -0.09, 0.974, 0.048, 192.0, 0.0, 0.0, 0.0, 0.0, 0.0, 0.0, 0.0, 0.0, 0.0, 1.6989582141777227E9, 0.0, 2023-11-02 16:50:14.177
54.0, -187500.02235174447, 187500.0, 552.2445502572716, 32061.20813622572, 187500.0, 187500.0, -187500.02235174447, 37346.971016761185, -0.09, 0.974, 0.048, 192.0, 0.0, 0.0, 0.0, 0.0, 0.0, 0.0, 0.0, 0.0, 0.0, 1.6989582141777325E9, 0.0, 2023-11-02 16:50:14.177
55.0, -187500.02235174447, 187500.0, 549.1823612668945, 32070.05942703002, 187500.0, 187500.0, -187500.02235174447, 37345.54050511605, -0.09, 0.974, 0.048, 192.0, 0.0, 0.0, 0.0, 0.0, 0.0, 0.0, 0.0, 0.0, 0.0, 1.698958214177742E9, 0.0, 2023-11-02 16:50:14.177
56.0, -187500.02235174447, 187500.0, 542.9462245638639, 32090.77949414009, 187500.0, 187500.0, -187500.02235174447, 37340.77958354707, -0.09, 0.974, 0.048, 192.0, 0.0, 0.0, 0.0, 0.0, 0.0, 0.0, 0.0, 0.0, 0.0, 1.6989582141777515E9, 0.0, 2023-11-02 16:50:14.177
57.0, -187500.02235174447, 187500.0, 542.1415617634729, 32090.913604606823, 187500.0, 187500.0, -187500.02235174447, 37337.65033932333, -0.09, 0.974, 0.048, 192.0, 0.0, 0.0, 0.0, 0.0, 0.0, 0.0, 0.0, 0.0, 0.0, 1.6989582141777613E9, 0.0, 2023-11-02 16:50:14.177
58.0, -187500.02235174447, 187500.0, 546.7907246101767, 32070.68527587477, 187500.0, 187500.0, -187500.02235174447, 37339.17025794629, -0.09, 0.974, 0.048, 192.0, 0.0, 0.0, 0.0, 0.0, 0.0, 0.0, 0.0, 0.0, 0.0, 1.6989582141777706E9, 0.0, 2023-11-02 16:50:14.177
59.0, -187500.02235174447, 187500.0, 541.940396063375, 32067.10899676192, 187500.0, 187500.0, -187500.02235174447, 37330.34131888644, -0.088, 0.974, 0.05, 192.0, 253.0, 64.0, 30.0, 112.0, 1.0, 144.0, 0.0, 0.0, 0.0, 1.69895821417778E9, 0.0, 2023-11-02 16:50:14.177
60.0, -187500.02235174447, 187500.0, 534.0055267817411, 32084.38689522587, 187500.0, 187500.0, -187500.02235174447, 37321.02064144858, -0.088, 0.974, 0.05, 192.0, 0.0, 0.0, 0.0, 0.0, 0.0, 0.0, 0.0, 0.0, 0.0, 1.6989582141777904E9, 0.0, 2023-11-02 16:50:14.177
61.0, -187500.02235174447, 187500.0, 529.8257505685987, 32088.074933060998, 187500.0, 187500.0, -187500.02235174447, 37317.71258326919, -0.088, 0.974, 0.05, 192.0, 0.0, 0.0, 0.0, 0.0, 0.0, 0.0, 0.0, 0.0, 0.0, 1.6989582141777997E9, 0.0, 2023-11-02 16:50:14.177
62.0, -187500.02235174447, 187500.0, 539.5934628955678, 32068.494804918148, 187500.0, 187500.0, -187500.02235174447, 37326.362708373395, -0.088, 0.974, 0.05, 192.0, 0.0, 0.0, 0.0, 0.0, 0.0, 0.0, 0.0, 0.0, 0.0, 1.6989582141778095E9, 0.0, 2023-11-02 16:50:14.177
63.0, -187500.02235174447, 187500.0, 538.6546896284449, 32064.940877549754, 187500.0, 187500.0, -187500.02235174447, 37325.647452550824, -0.088, 0.974, 0.05, 192.0, 0.0, 0.0, 0.0, 0.0, 0.0, 0.0, 0.0, 0.0, 0.0, 1.6989582141778188E9, 0.0, 2023-11-02 16:50:14.177
64.0, -187500.02235174447, 187500.0, 538.587634395079, 32081.7717411246, 187500.0, 187500.0, -187500.02235174447, 37327.904978740815, -0.088, 0.974, 0.05, 192.0, 0.0, 0.0, 0.0, 0.0, 0.0, 0.0, 0.0, 0.0, 0.0, 1.6989582141778283E9, 0.0, 2023-11-02 16:50:14.177
65.0, -187500.02235174447, 187500.0, 538.7664483507215, 32095.16043605333, 187500.0, 187500.0, -187500.02235174447, 37327.92733048527, -0.088, 0.974, 0.05, 192.0, 0.0, 0.0, 0.0, 0.0, 0.0, 0.0, 0.0, 0.0, 0.0, 1.6989582141778457E9, 0.0, 2023-11-02 16:50:14.177
66.0, -187500.02235174447, 187500.0, 544.48849493128, 32084.789226626068, 187500.0, 187500.0, -187500.02235174447, 37333.7611357881, -0.088, 0.974, 0.05, 192.0, 0.0, 0.0, 0.0, 0.0, 0.0, 0.0, 0.0, 0.0, 0.0, 1.6989582141778553E9, 0.0, 2023-11-02 16:50:14.177
67.0, -187500.02235174447, 187500.0, 544.0861635310845, 32074.887403832367, 187500.0, 187500.0, -187500.02235174447, 37336.04101372254, -0.088, 0.974, 0.05, 192.0, 0.0, 0.0, 0.0, 0.0, 0.0, 0.0, 0.0, 0.0, 0.0, 1.6989582141778648E9, 0.0, 2023-11-02 16:50:14.177
68.0, -187500.02235174447, 187500.0, 545.8295995985985, 32087.44908421625, 187500.0, 187500.0, -187500.02235174447, 37339.17025794629, -0.088, 0.974, 0.05, 192.0, 0.0, 0.0, 0.0, 0.0, 0.0, 0.0, 0.0, 0.0, 0.0, 1.698958214177874E9, 0.0, 2023-11-02 16:50:14.177
69.0, -187500.02235174447, 187500.0, 543.2367972417828, 32108.30326179305, 187500.0, 187500.0, -187500.02235174447, 37334.8116677775, -0.08600000000000001, 0.978, 0.05, 192.0, 253.0, 80.0, 30.0, 144.0, 1.0, 144.0, 0.0, 0.0, 0.0, 1.6989582141778853E9, 0.0, 2023-11-02 16:50:14.177
70.0, -187500.02235174447, 187500.0, 540.7557536072437, 32089.751313895147, 187500.0, 187500.0, -187500.02235174447, 37330.63189156436, -0.08600000000000001, 0.978, 0.05, 192.0, 0.0, 0.0, 0.0, 0.0, 0.0, 0.0, 0.0, 0.0, 0.0, 1.6989582141778953E9, 0.0, 2023-11-02 16:50:14.177
