%OpenBCI Raw EEG Data
%Number of channels = 8
%Sample Rate = 250 Hz
%Board = OpenBCI_GUI$BoardCytonSerial
Sample Index, EXG Channel 0, EXG Channel 1, EXG Channel 2, EXG Channel 3, EXG Channel 4, EXG Channel 5, EXG Channel 6, EXG Channel 7, Accel Channel 0, Accel Channel 1, Accel Channel 2, Other, Other, Other, Other, Other, Other, Other, Analog Channel 0, Analog Channel 1, Analog Channel 2, Timestamp, Other, Timestamp (Formatted)
219.0, -187500.02235174447, 187500.0, 31145.45716589179, 34110.550178355, 187500.0, 187500.0, -187500.02235174447, 30615.877284512197, 0.0, 0.0, 0.0, 192.0, 0.0, 0.0, 0.0, 0.0, 0.0, 0.0, 0.0, 0.0, 0.0, 1.698958979304606E9, 0.0, 2023-11-02 17:02:59.304
220.0, -187500.02235174447, 187500.0, 31143.110232723982, 34112.31596616697, 187500.0, 187500.0, -187500.02235174447, 30614.20090367805, 0.0, 0.0, 0.0, 192.0, 0.0, 0.0, 0.0, 0.0, 0.0, 0.0, 0.0, 0.0, 0.0, 1.698958979304629E9, 0.0, 2023-11-02 17:02:59.304
221.0, -187500.02235174447, 187500.0, 31142.998474001706, 34124.60942561739, 187500.0, 187500.0, -187500.02235174447, 30616.59254033477, 0.0, 0.0, 0.0, 192.0, 0.0, 0.0, 0.0, 0.0, 0.0, 0.0, 0.0, 0.0, 0.0, 1.698958979304639E9, 0.0, 2023-11-02 17:02:59.304
222.0, -187500.02235174447, 187500.0, 31140.74094781172, 34129.28094020855, 187500.0, 187500.0, -187500.02235174447, 30613.418592622114, 0.0, 0.0, 0.0, 192.0, 0.0, 0.0, 0.0, 0.0, 0.0, 0.0, 0.0, 0.0, 0.0, 1.6989589793046484E9, 0.0, 2023-11-02 17:02:59.304
223.0, -187500.02235174447, 187500.0, 31142.21616294577, 34131.47141116517, 187500.0, 187500.0, -187500.02235174447, 30615.273787411905, 0.0, 0.0, 0.0, 192.0, 0.0, 0.0, 0.0, 0.0, 0.0, 0.0, 0.0, 0.0, 0.0, 1.6989589793046577E9, 0.0, 2023-11-02 17:02:59.304
224.0, -187500.02235174447, 187500.0, 31142.68554957933, 34125.481143651145, 187500.0, 187500.0, -187500.02235174447, 30614.647938567156, -0.10200000000000001, 0.982, -0.128, 192.0, 252.0, 208.0, 30.0, 176.0, 252.0, 0.0, 0.0, 0.0, 0.0, 1.6989589793046675E9, 0.0, 2023-11-02 17:02:59.304
225.0, -187500.02235174447, 187500.0, 31147.53587812613, 34128.47627740816, 187500.0, 187500.0, -187500.02235174447, 30617.039575223873, -0.10200000000000001, 0.982, -0.128, 192.0, 0.0, 0.0, 0.0, 0.0, 0.0, 0.0, 0.0, 0.0, 0.0, 1.69895897930468E9, 0.0, 2023-11-02 17:02:59.304
226.0, -187500.02235174447, 187500.0, 31154.084939251537, 34136.90288506781, 187500.0, 187500.0, -187500.02235174447, 30620.794668292365, -0.10200000000000001, 0.982, -0.128, 192.0, 0.0, 0.0, 0.0, 0.0, 0.0, 0.0, 0.0, 0.0, 0.0, 1.69895897930469E9, 0.0, 2023-11-02 17:02:59.304
227.0, -187500.02235174447, 187500.0, 31151.223915961258, 34134.779469344554, 187500.0, 187500.0, -187500.02235174447, 30616.167857190118, -0.10200000000000001, 0.982, -0.128, 192.0, 0.0, 0.0, 0.0, 0.0, 0.0, 0.0, 0.0, 0.0, 0.0, 1.6989589793046997E9, 0.0, 2023-11-02 17:02:59.304
228.0, -187500.02235174447, 187500.0, 31155.001360774204, 34129.95149254221, 187500.0, 187500.0, -187500.02235174447, 30616.123153701206, -0.10200000000000001, 0.982, -0.128, 192.0, 0.0, 0.0, 0.0, 0.0, 0.0, 0.0, 0.0, 0.0, 0.0, 1.6989589793047092E9, 0.0, 2023-11-02 17:02:59.304
229.0, -187500.02235174447, 187500.0, 31159.091730009524, 34135.8076495895, 187500.0, 187500.0, -187500.02235174447, 30616.838409523778, -0.10200000000000001, 0.982, -0.128, 192.0, 0.0, 0.0, 0.0, 0.0, 0.0, 0.0, 0.0, 0.0, 0.0, 1.6989589793047192E9, 0.0, 2023-11-02 17:02:59.304
230.0, -187500.02235174447, 187500.0, 31158.085901509035, 34137.238161234636, 187500.0, 187500.0, -187500.02235174447, 30615.609063578733, -0.10200000000000001, 0.982, -0.128, 192.0, 0.0, 0.0, 0.0, 0.0, 0.0, 0.0, 0.0, 0.0, 0.0, 1.6989589793047287E9, 0.0, 2023-11-02 17:02:59.304
231.0, -187500.02235174447, 187500.0, 31153.906125295896, 34137.97576880166, 187500.0, 187500.0, -187500.02235174447, 30610.44581060956, -0.10200000000000001, 0.982, -0.128, 192.0, 0.0, 0.0, 0.0, 0.0, 0.0, 0.0, 0.0, 0.0, 0.0, 1.6989589793047383E9, 0.0, 2023-11-02 17:02:59.304
232.0, -187500.02235174447, 187500.0, 31156.96831428627, 34130.06325126449, 187500.0, 187500.0, -187500.02235174447, 30613.038612966375, -0.10200000000000001, 0.982, -0.128, 192.0, 0.0, 0.0, 0.0, 0.0, 0.0, 0.0, 0.0, 0.0, 0.0, 1.698958979304748E9, 0.0, 2023-11-02 17:02:59.304
233.0, -187500.02235174447, 187500.0, 31163.047988778115, 34133.885399566345, 187500.0, 187500.0, -187500.02235174447, 30620.05706072534, -0.10200000000000001, 0.982, -0.128, 192.0, 0.0, 0.0, 0.0, 0.0, 0.0, 0.0, 0.0, 0.0, 0.0, 1.6989589793047576E9, 0.0, 2023-11-02 17:02:59.304
234.0, -187500.02235174447, 187500.0, 31161.617477132975, 34142.267303737084, 187500.0, 187500.0, -187500.02235174447, 30619.162990947127, -0.112, 0.968, -0.128, 192.0, 252.0, 128.0, 30.0, 64.0, 252.0, 0.0, 0.0, 0.0, 0.0, 1.6989589793047671E9, 0.0, 2023-11-02 17:02:59.304
235.0, -187500.02235174447, 187500.0, 31158.82350907606, 34143.02726304856, 187500.0, 187500.0, -187500.02235174447, 30613.709165300035, -0.112, 0.968, -0.128, 192.0, 0.0, 0.0, 0.0, 0.0, 0.0, 0.0, 0.0, 0.0, 0.0, 1.6989589793048868E9, 0.0, 2023-11-02 17:02:59.304
236.0, -187500.02235174447, 187500.0, 31154.822546818563, 34130.08560300894, 187500.0, 187500.0, -187500.02235174447, 30606.377793118692, -0.112, 0.968, -0.128, 192.0, 0.0, 0.0, 0.0, 0.0, 0.0, 0.0, 0.0, 0.0, 0.0, 1.6989589793048968E9, 0.0, 2023-11-02 17:02:59.304
237.0, -187500.02235174447, 187500.0, 31155.806023574594, 34124.162390728285, 187500.0, 187500.0, -187500.02235174447, 30605.640185551667, -0.112, 0.968, -0.128, 192.0, 0.0, 0.0, 0.0, 0.0, 0.0, 0.0, 0.0, 0.0, 0.0, 1.6989589793049064E9, 0.0, 2023-11-02 17:02:59.304
238.0, -187500.02235174447, 187500.0, 31155.78367183014, 34125.503495395606, 187500.0, 187500.0, -187500.02235174447, 30604.410839606626, -0.112, 0.968, -0.128, 192.0, 0.0, 0.0, 0.0, 0.0, 0.0, 0.0, 0.0, 0.0, 0.0, 1.698958979304916E9, 0.0, 2023-11-02 17:02:59.304
239.0, -187500.02235174447, 187500.0, 31150.39690141641, 34123.08950699443, 187500.0, 187500.0, -187500.02235174447, 30597.034763936375, -0.112, 0.968, -0.128, 192.0, 0.0, 0.0, 0.0, 0.0, 0.0, 0.0, 0.0, 0.0, 0.0, 1.6989589793049257E9, 0.0, 2023-11-02 17:02:59.304
240.0, -187500.02235174447, 187500.0, 31152.721482839763, 34116.76396331358, 187500.0, 187500.0, -187500.02235174447, 30597.459447081026, -0.112, 0.968, -0.128, 192.0, 0.0, 0.0, 0.0, 0.0, 0.0, 0.0, 0.0, 0.0, 0.0, 1.6989589793049352E9, 0.0, 2023-11-02 17:02:59.304
241.0, -187500.02235174447, 187500.0, 31160.388131187934, 34113.254739434095, 187500.0, 187500.0, -187500.02235174447, 30604.232025650985, -0.112, 0.968, -0.128, 192.0, 0.0, 0.0, 0.0, 0.0, 0.0, 0.0, 0.0, 0.0, 0.0, 1.698958979304947E9, 0.0, 2023-11-02 17:02:59.304
242.0, -187500.02235174447, 187500.0, 31165.238459734734, 34112.89711152281, 187500.0, 187500.0, -187500.02235174447, 30607.875359997197, -0.112, 0.968, -0.128, 192.0, 0.0, 0.0, 0.0, 0.0, 0.0, 0.0, 0.0, 0.0, 0.0, 1.6989589793049564E9, 0.0, 2023-11-02 17:02:59.304
243.0, -187500.02235174447, 187500.0, 31163.6067823895, 34116.87572203585, 187500.0, 187500.0, -187500.02235174447, 30602.8238657503, -0.112, 0.968, -0.128, 192.0, 0.0, 0.0, 0.0, 0.0, 0.0, 0.0, 0.0, 0.0, 0.0, 1.698958979304966E9, 0.0, 2023-11-02 17:02:59.304
244.0, -187500.02235174447, 187500.0, 31154.151994484902, 34108.292652165015, 187500.0, 187500.0, -187500.02235174447, 30589.27870861038, -0.114, 0.97, -0.126, 192.0, 252.0, 112.0, 30.0, 80.0, 252.0, 16.0, 0.0, 0.0, 0.0, 1.6989589793049755E9, 0.0, 2023-11-02 17:02:59.304
245.0, -187500.02235174447, 187500.0, 31160.768110843674, 34105.58809108593, 187500.0, 187500.0, -187500.02235174447, 30593.63729877917, -0.114, 0.97, -0.126, 192.0, 0.0, 0.0, 0.0, 0.0, 0.0, 0.0, 0.0, 0.0, 0.0, 1.6989589793049858E9, 0.0, 2023-11-02 17:02:59.304
246.0, -187500.02235174447, 187500.0, 31156.83420381954, 34108.002079487094, 187500.0, 187500.0, -187500.02235174447, 30590.843330722255, -0.114, 0.97, -0.126, 192.0, 0.0, 0.0, 0.0, 0.0, 0.0, 0.0, 0.0, 0.0, 0.0, 1.6989589793049955E9, 0.0, 2023-11-02 17:02:59.304
247.0, -187500.02235174447, 187500.0, 31146.440642647824, 34107.376230642345, 187500.0, 187500.0, -187500.02235174447, 30582.394371318147, -0.114, 0.97, -0.126, 192.0, 0.0, 0.0, 0.0, 0.0, 0.0, 0.0, 0.0, 0.0, 0.0, 1.6989589793050053E9, 0.0, 2023-11-02 17:02:59.305
248.0, -187500.02235174447, 187500.0, 31141.746776312208, 34105.25281491909, 187500.0, 187500.0, -187500.02235174447, 30579.041609649852, -0.114, 0.97, -0.126, 192.0, 0.0, 0.0, 0.0, 0.0, 0.0, 0.0, 0.0, 0.0, 0.0, 1.6989589793050146E9, 0.0, 2023-11-02 17:02:59.305
249.0, -187500.02235174447, 187500.0, 31146.284180436636, 34104.26933816306, 187500.0, 187500.0, -187500.02235174447, 30586.64120276466, -0.114, 0.97, -0.126, 192.0, 0.0, 0.0, 0.0, 0.0, 0.0, 0.0, 0.0, 0.0, 0.0, 1.6989589793050241E9, 0.0, 2023-11-02 17:02:59.305
250.0, -187500.02235174447, 187500.0, 31151.849764806007, 34109.79021904352, 187500.0, 187500.0, -187500.02235174447, 30592.497359811947, -0.114, 0.97, -0.126, 192.0, 0.0, 0.0, 0.0, 0.0, 0.0, 0.0, 0.0, 0.0, 0.0, 1.6989589793050594E9, 0.0, 2023-11-02 17:02:59.305
251.0, -187500.02235174447, 187500.0, 31157.25888696419, 34119.334413925935, 187500.0, 187500.0, -187500.02235174447, 30597.81707499231, -0.114, 0.97, -0.126, 192.0, 0.0, 0.0, 0.0, 0.0, 0.0, 0.0, 0.0, 0.0, 0.0, 1.6989589793050692E9, 0.0, 2023-11-02 17:02:59.305
252.0, -187500.02235174447, 187500.0, 31150.329846183045, 34119.64733834831, 187500.0, 187500.0, -187500.02235174447, 30589.882205710677, -0.114, 0.97, -0.126, 192.0, 0.0, 0.0, 0.0, 0.0, 0.0, 0.0, 0.0, 0.0, 0.0, 1.6989589793050787E9, 0.0, 2023-11-02 17:02:59.305
253.0, -187500.02235174447, 187500.0, 31152.49796539521, 34115.10993422388, 187500.0, 187500.0, -187500.02235174447, 30591.491531311458, -0.1, 0.978, -0.114, 192.0, 252.0, 224.0, 30.0, 144.0, 252.0, 112.0, 0.0, 0.0, 0.0, 1.6989589793050883E9, 0.0, 2023-11-02 17:02:59.305
254.0, -187500.02235174447, 187500.0, 31155.96248578578, 34113.85823653439, 187500.0, 187500.0, -187500.02235174447, 30594.732534257477, -0.1, 0.978, -0.114, 192.0, 0.0, 0.0, 0.0, 0.0, 0.0, 0.0, 0.0, 0.0, 0.0, 1.6989589793050988E9, 0.0, 2023-11-02 17:02:59.305
255.0, -187500.02235174447, 187500.0, 31156.387168930432, 34116.78631505803, 187500.0, 187500.0, -187500.02235174447, 30595.268976124404, -0.1, 0.978, -0.114, 192.0, 0.0, 0.0, 0.0, 0.0, 0.0, 0.0, 0.0, 0.0, 0.0, 1.6989589793051083E9, 0.0, 2023-11-02 17:02:59.305
0.0, -187500.02235174447, 187500.0, 31153.369683428966, 34121.39077441583, 187500.0, 187500.0, -187500.02235174447, 30592.63147027868, -0.1, 0.978, -0.114, 192.0, 0.0, 0.0, 0.0, 0.0, 0.0, 0.0, 0.0, 0.0, 0.0, 1.698958979305118E9, 0.0, 2023-11-02 17:02:59.305
1.0, -187500.02235174447, 187500.0, 31150.59806711651, 34117.12159122486, 187500.0, 187500.0, -187500.02235174447, 30590.016316177407, -0.1, 0.978, -0.114, 192.0, 0.0, 0.0, 0.0, 0.0, 0.0, 0.0, 0.0, 0.0, 0.0, 1.6989589793051271E9, 0.0, 2023-11-02 17:02:59.305
2.0, -187500.02235174447, 187500.0, 31144.049005991103, 34111.734820811136, 187500.0, 187500.0, -187500.02235174447, 30584.182510874572, -0.1, 0.978, -0.114, 192.0, 0.0, 0.0, 0.0, 0.0, 0.0, 0.0, 0.0, 0.0, 0.0, 1.698958979305137E9, 0.0, 2023-11-02 17:02:59.305
3.0, -187500.02235174447, 187500.0, 31141.97029375676, 34111.98069000014, 187500.0, 187500.0, -187500.02235174447, 30581.612060262214, -0.1, 0.978, -0.114, 192.0, 0.0, 0.0, 0.0, 0.0, 0.0, 0.0, 0.0, 0.0, 0.0, 1.6989589793051472E9, 0.0, 2023-11-02 17:02:59.305
4.0, -187500.02235174447, 187500.0, 31141.031520489636, 34115.55696911299, 187500.0, 187500.0, -187500.02235174447, 30580.38271431717, -0.1, 0.978, -0.114, 192.0, 0.0, 0.0, 0.0, 0.0, 0.0, 0.0, 0.0, 0.0, 0.0, 1.6989589793051567E9, 0.0, 2023-11-02 17:02:59.305
5.0, -187500.02235174447, 187500.0, 31140.472726878255, 34107.64445157581, 187500.0, 187500.0, -187500.02235174447, 30578.169891616097, -0.1, 0.978, -0.114, 192.0, 0.0, 0.0, 0.0, 0.0, 0.0, 0.0, 0.0, 0.0, 0.0, 1.6989589793051665E9, 0.0, 2023-11-02 17:02:59.305
6.0, -187500.02235174447, 187500.0, 31146.284180436636, 34104.35874514088, 187500.0, 187500.0, -187500.02235174447, 30582.975516673985, -0.1, 0.978, -0.114, 192.0, 0.0, 0.0, 0.0, 0.0, 0.0, 0.0, 0.0, 0.0, 0.0, 1.6989589793051772E9, 0.0, 2023-11-02 17:02:59.305
7.0, -187500.02235174447, 187500.0, 31150.419253160868, 34113.03122198954, 187500.0, 187500.0, -187500.02235174447, 30588.161121387617, -0.09, 0.98, -0.106, 192.0, 253.0, 48.0, 30.0, 160.0, 252.0, 176.0, 0.0, 0.0, 0.0, 1.6989589793051867E9, 0.0, 2023-11-02 17:02:59.305
8.0, -187500.02235174447, 187500.0, 31144.384282157935, 34116.89807378031, 187500.0, 187500.0, -187500.02235174447, 30580.516824783903, -0.09, 0.98, -0.106, 192.0, 0.0, 0.0, 0.0, 0.0, 0.0, 0.0, 0.0, 0.0, 0.0, 1.6989589793051975E9, 0.0, 2023-11-02 17:02:59.305
9.0, -187500.02235174447, 187500.0, 31147.69234033732, 34112.09244872242, 187500.0, 187500.0, -187500.02235174447, 30580.717990484, -0.09, 0.98, -0.106, 192.0, 0.0, 0.0, 0.0, 0.0, 0.0, 0.0, 0.0, 0.0, 0.0, 1.698958979305216E9, 0.0, 2023-11-02 17:02:59.305
10.0, -187500.02235174447, 187500.0, 31151.916820039372, 34110.66193707728, 187500.0, 187500.0, -187500.02235174447, 30584.450731808036, -0.09, 0.98, -0.106, 192.0, 0.0, 0.0, 0.0, 0.0, 0.0, 0.0, 0.0, 0.0, 0.0, 1.6989589793052256E9, 0.0, 2023-11-02 17:02:59.305
11.0, -187500.02235174447, 187500.0, 31160.49988991021, 34113.59001560092, 187500.0, 187500.0, -187500.02235174447, 30593.413781334613, -0.09, 0.98, -0.106, 192.0, 0.0, 0.0, 0.0, 0.0, 0.0, 0.0, 0.0, 0.0, 0.0, 1.6989589793052356E9, 0.0, 2023-11-02 17:02:59.305
12.0, -187500.02235174447, 187500.0, 31158.532936398144, 34119.46852439267, 187500.0, 187500.0, -187500.02235174447, 30591.71504875601, -0.09, 0.98, -0.106, 192.0, 0.0, 0.0, 0.0, 0.0, 0.0, 0.0, 0.0, 0.0, 0.0, 1.6989589793052452E9, 0.0, 2023-11-02 17:02:59.305
13.0, -187500.02235174447, 187500.0, 31161.438663177334, 34117.00983250258, 187500.0, 187500.0, -187500.02235174447, 30596.47597032499, -0.09, 0.98, -0.106, 192.0, 0.0, 0.0, 0.0, 0.0, 0.0, 0.0, 0.0, 0.0, 0.0, 1.6989589793052554E9, 0.0, 2023-11-02 17:02:59.305
14.0, -187500.02235174447, 187500.0, 31171.98868656024, 34124.47531515066, 187500.0, 187500.0, -187500.02235174447, 30609.171761175607, -0.09, 0.98, -0.106, 192.0, 0.0, 0.0, 0.0, 0.0, 0.0, 0.0, 0.0, 0.0, 0.0, 1.698958979305265E9, 0.0, 2023-11-02 17:02:59.305
15.0, -187500.02235174447, 187500.0, 31168.479462680756, 34128.90096055281, 187500.0, 187500.0, -187500.02235174447, 30609.06000245333, -0.09, 0.98, -0.106, 192.0, 0.0, 0.0, 0.0, 0.0, 0.0, 0.0, 0.0, 0.0, 0.0, 1.6989589793052745E9, 0.0, 2023-11-02 17:02:59.305
16.0, -187500.02235174447, 187500.0, 31166.959544057794, 34131.87374256537, 187500.0, 187500.0, -187500.02235174447, 30608.747078030956, -0.09, 0.98, -0.106, 192.0, 0.0, 0.0, 0.0, 0.0, 0.0, 0.0, 0.0, 0.0, 0.0, 1.698958979305284E9, 0.0, 2023-11-02 17:02:59.305
17.0, -187500.02235174447, 187500.0, 31169.12766326996, 34138.80278334651, 187500.0, 187500.0, -187500.02235174447, 30612.725688544, -0.076, 0.968, -0.11, 192.0, 253.0, 160.0, 30.0, 64.0, 252.0, 144.0, 0.0, 0.0, 0.0, 1.6989589793052936E9, 0.0, 2023-11-02 17:02:59.305
18.0, -187500.02235174447, 187500.0, 31169.038256292137, 34141.574399658966, 187500.0, 187500.0, -187500.02235174447, 30612.54687458836, -0.076, 0.968, -0.11, 192.0, 0.0, 0.0, 0.0, 0.0, 0.0, 0.0, 0.0, 0.0, 0.0, 1.6989589793053036E9, 0.0, 2023-11-02 17:02:59.305
19.0, -187500.02235174447, 187500.0, 31170.491119681734, 34143.451946193214, 187500.0, 187500.0, -187500.02235174447, 30613.597406577755, -0.076, 0.968, -0.11, 192.0, 0.0, 0.0, 0.0, 0.0, 0.0, 0.0, 0.0, 0.0, 0.0, 1.698958979305313E9, 0.0, 2023-11-02 17:02:59.305
20.0, -187500.02235174447, 187500.0, 31169.909974325896, 34148.68225439575, 187500.0, 187500.0, -187500.02235174447, 30613.418592622114, -0.076, 0.968, -0.11, 192.0, 0.0, 0.0, 0.0, 0.0, 0.0, 0.0, 0.0, 0.0, 0.0, 1.698958979305323E9, 0.0, 2023-11-02 17:02:59.305
21.0, -187500.02235174447, 187500.0, 31172.12279702697, 34149.531620685055, 187500.0, 187500.0, -187500.02235174447, 30614.469124611514, -0.076, 0.968, -0.11, 192.0, 0.0, 0.0, 0.0, 0.0, 0.0, 0.0, 0.0, 0.0, 0.0, 1.6989589793053324E9, 0.0, 2023-11-02 17:02:59.305
22.0, -187500.02235174447, 187500.0, 31179.968259330784, 34154.00196957612, 187500.0, 187500.0, -187500.02235174447, 30622.426345637603, -0.076, 0.968, -0.11, 192.0, 0.0, 0.0, 0.0, 0.0, 0.0, 0.0, 0.0, 0.0, 0.0, 1.698958979305342E9, 0.0, 2023-11-02 17:02:59.305
23.0, -187500.02235174447, 187500.0, 31181.532881442654, 34160.95336210172, 187500.0, 187500.0, -187500.02235174447, 30625.644996839168, -0.076, 0.968, -0.11, 192.0, 0.0, 0.0, 0.0, 0.0, 0.0, 0.0, 0.0, 0.0, 0.0, 1.6989589793053515E9, 0.0, 2023-11-02 17:02:59.305
24.0, -187500.02235174447, 187500.0, 31179.141244785937, 34159.63460917886, 187500.0, 187500.0, -187500.02235174447, 30623.543932860368, -0.076, 0.968, -0.11, 192.0, 0.0, 0.0, 0.0, 0.0, 0.0, 0.0, 0.0, 0.0, 0.0, 1.6989589793053813E9, 0.0, 2023-11-02 17:02:59.305
25.0, -187500.02235174447, 187500.0, 31179.65533490841, 34160.21575453469, 187500.0, 187500.0, -187500.02235174447, 30627.030804995396, -0.076, 0.968, -0.11, 192.0, 0.0, 0.0, 0.0, 0.0, 0.0, 0.0, 0.0, 0.0, 0.0, 1.6989589793053913E9, 0.0, 2023-11-02 17:02:59.305
26.0, -187500.02235174447, 187500.0, 31180.303535497613, 34157.33237949996, 187500.0, 187500.0, -187500.02235174447, 30630.115345730228, -0.076, 0.968, -0.11, 192.0, 0.0, 0.0, 0.0, 0.0, 0.0, 0.0, 0.0, 0.0, 0.0, 1.6989589793054008E9, 0.0, 2023-11-02 17:02:59.305
27.0, -187500.02235174447, 187500.0, 31179.856500608505, 34156.125385299376, 187500.0, 187500.0, -187500.02235174447, 30631.791726564377, -0.062, 0.974, -0.10400000000000001, 192.0, 254.0, 16.0, 30.0, 112.0, 252.0, 192.0, 0.0, 0.0, 0.0, 1.6989589793054118E9, 0.0, 2023-11-02 17:02:59.305
28.0, -187500.02235174447, 187500.0, 31174.559137172597, 34153.55493468701, 187500.0, 187500.0, -187500.02235174447, 30626.650825339657, -0.062, 0.974, -0.10400000000000001, 192.0, 0.0, 0.0, 0.0, 0.0, 0.0, 0.0, 0.0, 0.0, 0.0, 1.698958979305422E9, 0.0, 2023-11-02 17:02:59.305
29.0, -187500.02235174447, 187500.0, 31165.39492194592, 34148.771661373576, 187500.0, 187500.0, -187500.02235174447, 30616.234912423482, -0.062, 0.974, -0.10400000000000001, 192.0, 0.0, 0.0, 0.0, 0.0, 0.0, 0.0, 0.0, 0.0, 0.0, 1.6989589793054316E9, 0.0, 2023-11-02 17:02:59.305
30.0, -187500.02235174447, 187500.0, 31164.21027948979, 34143.65311189331, 187500.0, 187500.0, -187500.02235174447, 30617.285444412882, -0.062, 0.974, -0.10400000000000001, 192.0, 0.0, 0.0, 0.0, 0.0, 0.0, 0.0, 0.0, 0.0, 0.0, 1.698958979305441E9, 0.0, 2023-11-02 17:02:59.305
31.0, -187500.02235174447, 187500.0, 31169.79821560362, 34146.13415552785, 187500.0, 187500.0, -187500.02235174447, 30626.695528828568, -0.062, 0.974, -0.10400000000000001, 192.0, 0.0, 0.0, 0.0, 0.0, 0.0, 0.0, 0.0, 0.0, 0.0, 1.6989589793054504E9, 0.0, 2023-11-02 17:02:59.305
32.0, -187500.02235174447, 187500.0, 31165.059645779093, 34149.84454510743, 187500.0, 187500.0, -187500.02235174447, 30623.320415415816, -0.062, 0.974, -0.10400000000000001, 192.0, 0.0, 0.0, 0.0, 0.0, 0.0, 0.0, 0.0, 0.0, 0.0, 1.69895897930546E9, 0.0, 2023-11-02 17:02:59.305
33.0, -187500.02235174447, 187500.0, 31153.526145640153, 34149.86689685189, 187500.0, 187500.0, -187500.02235174447, 30612.993909477464, -0.062, 0.974, -0.10400000000000001, 192.0, 0.0, 0.0, 0.0, 0.0, 0.0, 0.0, 0.0, 0.0, 0.0, 1.6989589793054695E9, 0.0, 2023-11-02 17:02:59.305
34.0, -187500.02235174447, 187500.0, 31153.97318052926, 34143.00491130411, 187500.0, 187500.0, -187500.02235174447, 30613.06096471083, -0.062, 0.974, -0.10400000000000001, 192.0, 0.0, 0.0, 0.0, 0.0, 0.0, 0.0, 0.0, 0.0, 0.0, 1.6989589793054793E9, 0.0, 2023-11-02 17:02:59.305
35.0, -187500.02235174447, 187500.0, 31159.628171876455, 34141.32853046996, 187500.0, 187500.0, -187500.02235174447, 30620.235874680984, -0.062, 0.974, -0.10400000000000001, 192.0, 0.0, 0.0, 0.0, 0.0, 0.0, 0.0, 0.0, 0.0, 0.0, 1.6989589793054888E9, 0.0, 2023-11-02 17:02:59.305
36.0, -187500.02235174447, 187500.0, 31165.01494229018, 34148.056405551004, 187500.0, 187500.0, -187500.02235174447, 30626.11438347273, -0.062, 0.974, -0.10400000000000001, 192.0, 0.0, 0.0, 0.0, 0.0, 0.0, 0.0, 0.0, 0.0, 0.0, 1.6989589793054984E9, 0.0, 2023-11-02 17:02:59.305
37.0, -187500.02235174447, 187500.0, 31160.410482932388, 34160.99806559063, 187500.0, 187500.0, -187500.02235174447, 30623.901560771654, -0.058, 0.976, -0.1, 192.0, 254.0, 48.0, 30.0, 128.0, 252.0, 224.0, 0.0, 0.0, 0.0, 1.698958979305508E9, 0.0, 2023-11-02 17:02:59.305
38.0, -187500.02235174447, 187500.0, 31143.244343190712, 34150.71626314119, 187500.0, 187500.0, -187500.02235174447, 30608.21063616403, -0.058, 0.976, -0.1, 192.0, 0.0, 0.0, 0.0, 0.0, 0.0, 0.0, 0.0, 0.0, 0.0, 1.698958979305518E9, 0.0, 2023-11-02 17:02:59.305
39.0, -187500.02235174447, 187500.0, 31137.790517543617, 34139.49568742463, 187500.0, 187500.0, -187500.02235174447, 30606.690717541067, -0.058, 0.976, -0.1, 192.0, 0.0, 0.0, 0.0, 0.0, 0.0, 0.0, 0.0, 0.0, 0.0, 1.698958979305536E9, 0.0, 2023-11-02 17:02:59.305
40.0, -187500.02235174447, 187500.0, 31151.246267705712, 34150.78331837455, 187500.0, 187500.0, -187500.02235174447, 30621.9793107485, -0.058, 0.976, -0.1, 192.0, 0.0, 0.0, 0.0, 0.0, 0.0, 0.0, 0.0, 0.0, 0.0, 1.6989589793055456E9, 0.0, 2023-11-02 17:02:59.305
41.0, -187500.02235174447, 187500.0, 31157.616514875477, 34164.82021389249, 187500.0, 187500.0, -187500.02235174447, 30626.896694528663, -0.058, 0.976, -0.1, 192.0, 0.0, 0.0, 0.0, 0.0, 0.0, 0.0, 0.0, 0.0, 0.0, 1.698958979305555E9, 0.0, 2023-11-02 17:02:59.305
42.0, -187500.02235174447, 187500.0, 31145.568924614065, 34153.66669340929, 187500.0, 187500.0, -187500.02235174447, 30612.569226332813, -0.058, 0.976, -0.1, 192.0, 0.0, 0.0, 0.0, 0.0, 0.0, 0.0, 0.0, 0.0, 0.0, 1.6989589793055644E9, 0.0, 2023-11-02 17:02:59.305
43.0, -187500.02235174447, 187500.0, 31144.49604088021, 34139.45098393571, 187500.0, 187500.0, -187500.02235174447, 30609.797610020356, -0.058, 0.976, -0.1, 192.0, 0.0, 0.0, 0.0, 0.0, 0.0, 0.0, 0.0, 0.0, 0.0, 1.698958979305574E9, 0.0, 2023-11-02 17:02:59.305
44.0, -187500.02235174447, 187500.0, 31152.475613650757, 34139.62979789136, 187500.0, 187500.0, -187500.02235174447, 30617.553665346346, -0.058, 0.976, -0.1, 192.0, 0.0, 0.0, 0.0, 0.0, 0.0, 0.0, 0.0, 0.0, 0.0, 1.6989589793055837E9, 0.0, 2023-11-02 17:02:59.305
45.0, -187500.02235174447, 187500.0, 31147.513526381677, 34142.78139385956, 187500.0, 187500.0, -187500.02235174447, 30612.211598421527, -0.058, 0.976, -0.1, 192.0, 0.0, 0.0, 0.0, 0.0, 0.0, 0.0, 0.0, 0.0, 0.0, 1.6989589793055933E9, 0.0, 2023-11-02 17:02:59.305
46.0, -187500.02235174447, 187500.0, 31153.146165984414, 34150.80567011901, 187500.0, 187500.0, -187500.02235174447, 30618.179514191095, -0.058, 0.976, -0.1, 192.0, 0.0, 0.0, 0.0, 0.0, 0.0, 0.0, 0.0, 0.0, 0.0, 1.6989589793056028E9, 0.0, 2023-11-02 17:02:59.305
47.0, -187500.02235174447, 187500.0, 31158.756453842696, 34155.834812621455, 187500.0, 187500.0, -187500.02235174447, 30625.332072416793, -0.066, 0.976, -0.1, 192.0, 253.0, 240.0, 30.0, 128.0, 252.0, 224.0, 0.0, 0.0, 0.0, 1.6989589793056123E9, 0.0, 2023-11-02 17:02:59.305
48.0, -187500.02235174447, 187500.0, 31155.671913107864, 34154.71722539869, 187500.0, 187500.0, -187500.02235174447, 30622.091069470775, -0.066, 0.976, -0.1, 192.0, 0.0, 0.0, 0.0, 0.0, 0.0, 0.0, 0.0, 0.0, 0.0, 1.6989589793056226E9, 0.0, 2023-11-02 17:02:59.305
49.0, -187500.02235174447, 187500.0, 31155.73896834123, 34154.493707954134, 187500.0, 187500.0, -187500.02235174447, 30620.861723525733, -0.066, 0.976, -0.1, 192.0, 0.0, 0.0, 0.0, 0.0, 0.0, 0.0, 0.0, 0.0, 0.0, 1.6989589793056335E9, 0.0, 2023-11-02 17:02:59.305
50.0, -187500.02235174447, 187500.0, 31159.02467477616, 34160.14869930133, 187500.0, 187500.0, -187500.02235174447, 30623.320415415816, -0.066, 0.976, -0.1, 192.0, 0.0, 0.0, 0.0, 0.0, 0.0, 0.0, 0.0, 0.0, 0.0, 1.698958979305643E9, 0.0, 2023-11-02 17:02:59.305
51.0, -187500.02235174447, 187500.0, 31150.083976994036, 34149.129289284865, 187500.0, 187500.0, -187500.02235174447, 30614.91615950062, -0.066, 0.976, -0.1, 192.0, 0.0, 0.0, 0.0, 0.0, 0.0, 0.0, 0.0, 0.0, 0.0, 1.6989589793056526E9, 0.0, 2023-11-02 17:02:59.305
52.0, -187500.02235174447, 187500.0, 31148.60876185999, 34138.37810020186, 187500.0, 187500.0, -187500.02235174447, 30614.469124611514, -0.066, 0.976, -0.1, 192.0, 0.0, 0.0, 0.0, 0.0, 0.0, 0.0, 0.0, 0.0, 0.0, 1.6989589793056624E9, 0.0, 2023-11-02 17:02:59.305
53.0, -187500.02235174447, 187500.0, 31153.481442151242, 34141.216771747684, 187500.0, 187500.0, -187500.02235174447, 30618.738307802476, -0.066, 0.976, -0.1, 192.0, 0.0, 0.0, 0.0, 0.0, 0.0, 0.0, 0.0, 0.0, 0.0, 1.6989589793056736E9, 0.0, 2023-11-02 17:02:59.305
54.0, -187500.02235174447, 187500.0, 31159.31524745408, 34153.48787945365, 187500.0, 187500.0, -187500.02235174447, 30624.885037527685, -0.066, 0.976, -0.1, 192.0, 0.0, 0.0, 0.0, 0.0, 0.0, 0.0, 0.0, 0.0, 0.0, 1.6989589793056993E9, 0.0, 2023-11-02 17:02:59.305
55.0, -187500.02235174447, 187500.0, 31162.086863766537, 34156.50536495511, 187500.0, 187500.0, -187500.02235174447, 30629.5789038633, -0.066, 0.976, -0.1, 192.0, 0.0, 0.0, 0.0, 0.0, 0.0, 0.0, 0.0, 0.0, 0.0, 1.6989589793057363E9, 0.0, 2023-11-02 17:02:59.305
56.0, -187500.02235174447, 187500.0, 31170.915802826385, 34161.13217605736, 187500.0, 187500.0, -187500.02235174447, 30637.60318012276, -0.066, 0.976, -0.1, 192.0, 0.0, 0.0, 0.0, 0.0, 0.0, 0.0, 0.0, 0.0, 0.0, 1.6989589793057497E9, 0.0, 2023-11-02 17:02:59.305
57.0, -187500.02235174447, 187500.0, 31166.87013707997, 34162.49563246914, 187500.0, 187500.0, -187500.02235174447, 30634.25041845446, -0.068, 0.982, -0.098, 192.0, 253.0, 224.0, 30.0, 176.0, 252.0, 240.0, 0.0, 0.0, 0.0, 1.6989589793057601E9, 0.0, 2023-11-02 17:02:59.305
58.0, -187500.02235174447, 187500.0, 31154.59902937401, 34154.51605969859, 187500.0, 187500.0, -187500.02235174447, 30622.068717726317, -0.068, 0.982, -0.098, 192.0, 0.0, 0.0, 0.0, 0.0, 0.0, 0.0, 0.0, 0.0, 0.0, 1.6989589793057885E9, 0.0, 2023-11-02 17:02:59.305
59.0, -187500.02235174447, 187500.0, 31147.669988592865, 34143.72016712668, 187500.0, 187500.0, -187500.02235174447, 30615.81022927883, -0.068, 0.982, -0.098, 192.0, 0.0, 0.0, 0.0, 0.0, 0.0, 0.0, 0.0, 0.0, 0.0, 1.6989589793057983E9, 0.0, 2023-11-02 17:02:59.305
60.0, -187500.02235174447, 187500.0, 31162.53389865564, 34142.42376594827, 187500.0, 187500.0, -187500.02235174447, 30630.696491086066, -0.068, 0.982, -0.098, 192.0, 0.0, 0.0, 0.0, 0.0, 0.0, 0.0, 0.0, 0.0, 0.0, 1.6989589793058088E9, 0.0, 2023-11-02 17:02:59.305
61.0, -187500.02235174447, 187500.0, 31182.87398610997, 34161.422748735284, 187500.0, 187500.0, -187500.02235174447, 30650.455433184557, -0.068, 0.982, -0.098, 192.0, 0.0, 0.0, 0.0, 0.0, 0.0, 0.0, 0.0, 0.0, 0.0, 1.6989589793058195E9, 0.0, 2023-11-02 17:02:59.305
62.0, -187500.02235174447, 187500.0, 31182.918689598882, 34175.86197565341, 187500.0, 187500.0, -187500.02235174447, 30649.7848808509, -0.068, 0.982, -0.098, 192.0, 0.0, 0.0, 0.0, 0.0, 0.0, 0.0, 0.0, 0.0, 0.0, 1.6989589793058305E9, 0.0, 2023-11-02 17:02:59.305
63.0, -187500.02235174447, 187500.0, 31178.850672108016, 34172.263344796105, 187500.0, 187500.0, -187500.02235174447, 30643.571095892323, -0.068, 0.982, -0.098, 192.0, 0.0, 0.0, 0.0, 0.0, 0.0, 0.0, 0.0, 0.0, 0.0, 1.6989589793058405E9, 0.0, 2023-11-02 17:02:59.305
64.0, -187500.02235174447, 187500.0, 31178.69420989683, 34160.37221674588, 187500.0, 187500.0, -187500.02235174447, 30642.475860414015, -0.068, 0.982, -0.098, 192.0, 0.0, 0.0, 0.0, 0.0, 0.0, 0.0, 0.0, 0.0, 0.0, 1.69895897930585E9, 0.0, 2023-11-02 17:02:59.305
65.0, -187500.02235174447, 187500.0, 31181.376419231467, 34162.22741153567, 187500.0, 187500.0, -187500.02235174447, 30645.02395928192, -0.068, 0.982, -0.098, 192.0, 0.0, 0.0, 0.0, 0.0, 0.0, 0.0, 0.0, 0.0, 0.0, 1.698958979305864E9, 0.0, 2023-11-02 17:02:59.305
66.0, -187500.02235174447, 187500.0, 31182.136378542946, 34167.010684849105, 187500.0, 187500.0, -187500.02235174447, 30643.951075548062, -0.068, 0.982, -0.098, 192.0, 0.0, 0.0, 0.0, 0.0, 0.0, 0.0, 0.0, 0.0, 0.0, 1.6989589793058765E9, 0.0, 2023-11-02 17:02:59.305
67.0, -187500.02235174447, 187500.0, 31183.388076232444, 34173.26917329659, 187500.0, 187500.0, -187500.02235174447, 30644.286351714894, -0.076, 0.978, -0.096, 192.0, 253.0, 160.0, 30.0, 144.0, 253.0, 0.0, 0.0, 0.0, 0.0, 1.6989589793058875E9, 0.0, 2023-11-02 17:02:59.305
68.0, -187500.02235174447, 187500.0, 31181.242308764737, 34169.55878371701, 187500.0, 187500.0, -187500.02235174447, 30642.29704645837, -0.076, 0.978, -0.096, 192.0, 0.0, 0.0, 0.0, 0.0, 0.0, 0.0, 0.0, 0.0, 0.0, 1.6989589793058994E9, 0.0, 2023-11-02 17:02:59.305
69.0, -187500.02235174447, 187500.0, 31181.711695398295, 34165.28960052605, 187500.0, 187500.0, -187500.02235174447, 30643.235819725494, -0.076, 0.978, -0.096, 192.0, 0.0, 0.0, 0.0, 0.0, 0.0, 0.0, 0.0, 0.0, 0.0, 1.6989589793059096E9, 0.0, 2023-11-02 17:02:59.305
70.0, -187500.02235174447, 187500.0, 31182.31519249859, 34169.312914528, 187500.0, 187500.0, -187500.02235174447, 30644.331055203806, -0.076, 0.978, -0.096, 192.0, 0.0, 0.0, 0.0, 0.0, 0.0, 0.0, 0.0, 0.0, 0.0, 1.698958979305976E9, 0.0, 2023-11-02 17:02:59.305
71.0, -187500.02235174447, 187500.0, 31185.690305911343, 34174.990257619655, 187500.0, 187500.0, -187500.02235174447, 30647.6838168721, -0.076, 0.978, -0.096, 192.0, 0.0, 0.0, 0.0, 0.0, 0.0, 0.0, 0.0, 0.0, 0.0, 1.698958979305994E9, 0.0, 2023-11-02 17:02:59.305
72.0, -187500.02235174447, 187500.0, 31192.060553081104, 34175.63845820886, 187500.0, 187500.0, -187500.02235174447, 30654.814023353345, -0.076, 0.978, -0.096, 192.0, 0.0, 0.0, 0.0, 0.0, 0.0, 0.0, 0.0, 0.0, 0.0, 1.6989589793060105E9, 0.0, 2023-11-02 17:02:59.306
73.0, -187500.02235174447, 187500.0, 31196.70971592781, 34180.377028033385, 187500.0, 187500.0, -187500.02235174447, 30660.759587378456, -0.076, 0.978, -0.096, 192.0, 0.0, 0.0, 0.0, 0.0, 0.0, 0.0, 0.0, 0.0, 0.0, 1.698958979306022E9, 0.0, 2023-11-02 17:02:59.306
74.0, -187500.02235174447, 187500.0, 31192.395829247933, 34178.208908821216, 187500.0, 187500.0, -187500.02235174447, 30656.26688674294, -0.076, 0.978, -0.096, 192.0, 0.0, 0.0, 0.0, 0.0, 0.0, 0.0, 0.0, 0.0, 0.0, 1.698958979306036E9, 0.0, 2023-11-02 17:02:59.306
75.0, -187500.02235174447, 187500.0, 31193.625175192974, 34183.595679234946, 187500.0, 187500.0, -187500.02235174447, 30657.406825710157, -0.076, 0.978, -0.096, 192.0, 0.0, 0.0, 0.0, 0.0, 0.0, 0.0, 0.0, 0.0, 0.0, 1.6989589793060515E9, 0.0, 2023-11-02 17:02:59.306
76.0, -187500.02235174447, 187500.0, 31193.60282344852, 34182.7686646901, 187500.0, 187500.0, -187500.02235174447, 30657.96561932154, -0.076, 0.978, -0.096, 192.0, 0.0, 0.0, 0.0, 0.0, 0.0, 0.0, 0.0, 0.0, 0.0, 1.6989589793060665E9, 0.0, 2023-11-02 17:02:59.306
77.0, -187500.02235174447, 187500.0, 31200.867140396495, 34182.07576061199, 187500.0, 187500.0, -187500.02235174447, 30663.106520546262, -0.07200000000000001, 0.982, -0.096, 192.0, 253.0, 192.0, 30.0, 176.0, 253.0, 0.0, 0.0, 0.0, 0.0, 1.6989589793060772E9, 0.0, 2023-11-02 17:02:59.306
78.0, -187500.02235174447, 187500.0, 31206.052745110126, 34191.75406596113, 187500.0, 187500.0, -187500.02235174447, 30666.906317103665, -0.07200000000000001, 0.982, -0.096, 192.0, 0.0, 0.0, 0.0, 0.0, 0.0, 0.0, 0.0, 0.0, 0.0, 1.698958979306095E9, 0.0, 2023-11-02 17:02:59.306
79.0, -187500.02235174447, 187500.0, 31203.817570664596, 34195.95619391873, 187500.0, 187500.0, -187500.02235174447, 30664.291163002392, -0.07200000000000001, 0.982, -0.096, 192.0, 0.0, 0.0, 0.0, 0.0, 0.0, 0.0, 0.0, 0.0, 0.0, 1.698958979306111E9, 0.0, 2023-11-02 17:02:59.306
80.0, -187500.02235174447, 187500.0, 31194.116913570993, 34182.07576061199, 187500.0, 187500.0, -187500.02235174447, 30653.5846774083, -0.07200000000000001, 0.982, -0.096, 192.0, 0.0, 0.0, 0.0, 0.0, 0.0, 0.0, 0.0, 0.0, 0.0, 1.6989589793061223E9, 0.0, 2023-11-02 17:02:59.306
81.0, -187500.02235174447, 187500.0, 31192.93227111486, 34177.851280909934, 187500.0, 187500.0, -187500.02235174447, 30651.483613429504, -0.07200000000000001, 0.982, -0.096, 192.0, 0.0, 0.0, 0.0, 0.0, 0.0, 0.0, 0.0, 0.0, 0.0, 1.6989589793061345E9, 0.0, 2023-11-02 17:02:59.306
82.0, -187500.02235174447, 187500.0, 31204.309309042612, 34184.19917633524, 187500.0, 187500.0, -187500.02235174447, 30661.363084478748, -0.07200000000000001, 0.982, -0.096, 192.0, 0.0, 0.0, 0.0, 0.0, 0.0, 0.0, 0.0, 0.0, 0.0, 1.698958979306148E9, 0.0, 2023-11-02 17:02:59.306
83.0, -187500.02235174447, 187500.0, 31213.004137635726, 34196.179711363286, 187500.0, 187500.0, -187500.02235174447, 30669.521471204935, -0.07200000000000001, 0.982, -0.096, 192.0, 0.0, 0.0, 0.0, 0.0, 0.0, 0.0, 0.0, 0.0, 0.0, 1.6989589793061604E9, 0.0, 2023-11-02 17:02:59.306
84.0, -187500.02235174447, 187500.0, 31208.37732653348, 34192.6704874838, 187500.0, 187500.0, -187500.02235174447, 30664.760549635954, -0.07200000000000001, 0.982, -0.096, 192.0, 0.0, 0.0, 0.0, 0.0, 0.0, 0.0, 0.0, 0.0, 0.0, 1.698958979306174E9, 0.0, 2023-11-02 17:02:59.306
85.0, -187500.02235174447, 187500.0, 31212.22182657979, 34184.17682459078, 187500.0, 187500.0, -187500.02235174447, 30667.085131059306, -0.07200000000000001, 0.982, -0.096, 192.0, 0.0, 0.0, 0.0, 0.0, 0.0, 0.0, 0.0, 0.0, 0.0, 1.698958979306419E9, 0.0, 2023-11-02 17:02:59.306
0.0, 0.0, 0.0, 0.0, 0.0, 0.0, 0.0, 0.0, 0.0, -0.076, 0.982, -0.1, 192.0, 253.0, 160.0, 30.0, 176.0, 252.0, 224.0, 0.0, 0.0, 0.0, 1.6989589794326346E9, 0.0, 2023-11-02 17:02:59.432
1.0, -187500.02235174447, 187500.0, 31189.534805957654, 33997.852682811346, 187500.0, 187500.0, -187500.02235174447, 30549.336141268748, -0.076, 0.982, -0.1, 192.0, 0.0, 0.0, 0.0, 0.0, 0.0, 0.0, 0.0, 0.0, 0.0, 1.6989589799105525E9, 0.0, 2023-11-02 17:02:59.910
2.0, -187500.02235174447, 187500.0, 31185.578547189063, 33986.363886161314, 187500.0, 187500.0, -187500.02235174447, 30544.61992318868, -0.076, 0.982, -0.1, 192.0, 0.0, 0.0, 0.0, 0.0, 0.0, 0.0, 0.0, 0.0, 0.0, 1.698958979910653E9, 0.0, 2023-11-02 17:02:59.910
3.0, -187500.02235174447, 187500.0, 31185.332678000057, 33984.88867102726, 187500.0, 187500.0, -187500.02235174447, 30542.6082661877, -0.076, 0.982, -0.1, 192.0, 0.0, 0.0, 0.0, 0.0, 0.0, 0.0, 0.0, 0.0, 0.0, 1.6989589799106684E9, 0.0, 2023-11-02 17:02:59.910
4.0, -187500.02235174447, 187500.0, 31186.718486156286, 33990.81188330792, 187500.0, 187500.0, -187500.02235174447, 30542.56356269879, -0.076, 0.982, -0.1, 192.0, 0.0, 0.0, 0.0, 0.0, 0.0, 0.0, 0.0, 0.0, 0.0, 1.6989589799107E9, 0.0, 2023-11-02 17:02:59.910
5.0, -187500.02235174447, 187500.0, 31186.472616967276, 33989.224909451594, 187500.0, 187500.0, -187500.02235174447, 30542.965894098987, -0.076, 0.982, -0.1, 192.0, 0.0, 0.0, 0.0, 0.0, 0.0, 0.0, 0.0, 0.0, 0.0, 1.6989589799107711E9, 0.0, 2023-11-02 17:02:59.910
6.0, -187500.02235174447, 187500.0, 31191.010021091704, 33987.570880361905, 187500.0, 187500.0, -187500.02235174447, 30549.04556859083, -0.076, 0.982, -0.1, 192.0, 0.0, 0.0, 0.0, 0.0, 0.0, 0.0, 0.0, 0.0, 0.0, 1.6989589799107869E9, 0.0, 2023-11-02 17:02:59.910
7.0, -187500.02235174447, 187500.0, 31198.52020722869, 33994.29875544295, 187500.0, 187500.0, -187500.02235174447, 30557.22630706147, -0.076, 0.982, -0.1, 192.0, 0.0, 0.0, 0.0, 0.0, 0.0, 0.0, 0.0, 0.0, 0.0, 1.6989589799108005E9, 0.0, 2023-11-02 17:02:59.910
8.0, -187500.02235174447, 187500.0, 31199.302518284625, 34004.22292998111, 187500.0, 187500.0, -187500.02235174447, 30559.640295462646, -0.082, 0.98, -0.108, 192.0, 253.0, 112.0, 30.0, 160.0, 252.0, 160.0, 0.0, 0.0, 0.0, 1.6989589799108164E9, 0.0, 2023-11-02 17:02:59.910
9.0, -187500.02235174447, 187500.0, 31195.63683219395, 34005.876959070796, 187500.0, 187500.0, -187500.02235174447, 30557.695693695034, -0.082, 0.98, -0.108, 192.0, 0.0, 0.0, 0.0, 0.0, 0.0, 0.0, 0.0, 0.0, 0.0, 1.6989589799108372E9, 0.0, 2023-11-02 17:02:59.910
10.0, -187500.02235174447, 187500.0, 31192.84286413704, 33997.09272349987, 187500.0, 187500.0, -187500.02235174447, 30554.678208193567, -0.082, 0.98, -0.108, 192.0, 0.0, 0.0, 0.0, 0.0, 0.0, 0.0, 0.0, 0.0, 0.0, 1.6989589799108496E9, 0.0, 2023-11-02 17:02:59.910
11.0, -187500.02235174447, 187500.0, 31193.64752693743, 33993.96347927612, 187500.0, 187500.0, -187500.02235174447, 30554.94642912703, -0.082, 0.98, -0.108, 192.0, 0.0, 0.0, 0.0, 0.0, 0.0, 0.0, 0.0, 0.0, 0.0, 1.6989589799108832E9, 0.0, 2023-11-02 17:02:59.910
12.0, -187500.02235174447, 187500.0, 31191.099428069527, 33995.50574964354, 187500.0, 187500.0, -187500.02235174447, 30549.090272079742, -0.082, 0.98, -0.108, 192.0, 0.0, 0.0, 0.0, 0.0, 0.0, 0.0, 0.0, 0.0, 0.0, 1.6989589799108949E9, 0.0, 2023-11-02 17:02:59.910
13.0, -187500.02235174447, 187500.0, 31181.868157609482, 33994.79049382097, 187500.0, 187500.0, -187500.02235174447, 30538.652007419114, -0.082, 0.98, -0.108, 192.0, 0.0, 0.0, 0.0, 0.0, 0.0, 0.0, 0.0, 0.0, 0.0, 1.6989589799109066E9, 0.0, 2023-11-02 17:02:59.910
14.0, -187500.02235174447, 187500.0, 31185.667954166885, 33990.90129028574, 187500.0, 187500.0, -187500.02235174447, 30543.927019110564, -0.082, 0.98, -0.108, 192.0, 0.0, 0.0, 0.0, 0.0, 0.0, 0.0, 0.0, 0.0, 0.0, 1.6989589799110456E9, 0.0, 2023-11-02 17:02:59.911
15.0, -187500.02235174447, 187500.0, 31194.541596715644, 33994.65638335424, 187500.0, 187500.0, -187500.02235174447, 30552.24186804794, -0.082, 0.98, -0.108, 192.0, 0.0, 0.0, 0.0, 0.0, 0.0, 0.0, 0.0, 0.0, 0.0, 1.6989589799110558E9, 0.0, 2023-11-02 17:02:59.911
16.0, -187500.02235174447, 187500.0, 31197.98376536176, 34003.61943288081, 187500.0, 187500.0, -187500.02235174447, 30554.47704249347, -0.082, 0.98, -0.108, 192.0, 0.0, 0.0, 0.0, 0.0, 0.0, 0.0, 0.0, 0.0, 0.0, 1.6989589799110653E9, 0.0, 2023-11-02 17:02:59.911
17.0, -187500.02235174447, 187500.0, 31210.27722481218, 34011.53195041799, 187500.0, 187500.0, -187500.02235174447, 30565.38469378766, -0.082, 0.98, -0.108, 192.0, 0.0, 0.0, 0.0, 0.0, 0.0, 0.0, 0.0, 0.0, 0.0, 1.698958979911075E9, 0.0, 2023-11-02 17:02:59.911
18.0, -187500.02235174447, 187500.0, 31218.88264642747, 34030.03919482698, 187500.0, 187500.0, -187500.02235174447, 30573.90070842513, -0.098, 0.972, -0.112, 192.0, 252.0, 240.0, 30.0, 96.0, 252.0, 128.0, 0.0, 0.0, 0.0, 1.698958979911085E9, 0.0, 2023-11-02 17:02:59.911
19.0, -187500.02235174447, 187500.0, 31212.4676957688, 34021.34436623387, 187500.0, 187500.0, -187500.02235174447, 30566.8152054328, -0.098, 0.972, -0.112, 192.0, 0.0, 0.0, 0.0, 0.0, 0.0, 0.0, 0.0, 0.0, 0.0, 1.6989589799110951E9, 0.0, 2023-11-02 17:02:59.911
20.0, -187500.02235174447, 187500.0, 31204.443419509345, 34012.29190972947, 187500.0, 187500.0, -187500.02235174447, 30558.6121152177, -0.098, 0.972, -0.112, 192.0, 0.0, 0.0, 0.0, 0.0, 0.0, 0.0, 0.0, 0.0, 0.0, 1.698958979911105E9, 0.0, 2023-11-02 17:02:59.911
21.0, -187500.02235174447, 187500.0, 31199.906015384917, 34007.70980211614, 187500.0, 187500.0, -187500.02235174447, 30553.448862248526, -0.098, 0.972, -0.112, 192.0, 0.0, 0.0, 0.0, 0.0, 0.0, 0.0, 0.0, 0.0, 0.0, 1.6989589799111145E9, 0.0, 2023-11-02 17:02:59.911
22.0, -187500.02235174447, 187500.0, 31203.102314842024, 34004.28998521447, 187500.0, 187500.0, -187500.02235174447, 30554.47704249347, -0.098, 0.972, -0.112, 192.0, 0.0, 0.0, 0.0, 0.0, 0.0, 0.0, 0.0, 0.0, 0.0, 1.698958979911124E9, 0.0, 2023-11-02 17:02:59.911
23.0, -187500.02235174447, 187500.0, 31207.215035821802, 34001.116037501815, 187500.0, 187500.0, -187500.02235174447, 30557.159251828107, -0.098, 0.972, -0.112, 192.0, 0.0, 0.0, 0.0, 0.0, 0.0, 0.0, 0.0, 0.0, 0.0, 1.6989589799111335E9, 0.0, 2023-11-02 17:02:59.911
24.0, -187500.02235174447, 187500.0, 31210.143114345447, 34003.88765381428, 187500.0, 187500.0, -187500.02235174447, 30561.696655952535, -0.098, 0.972, -0.112, 192.0, 0.0, 0.0, 0.0, 0.0, 0.0, 0.0, 0.0, 0.0, 0.0, 1.6989589799111433E9, 0.0, 2023-11-02 17:02:59.911
25.0, -187500.02235174447, 187500.0, 31210.90307365693, 34009.45323818365, 187500.0, 187500.0, -187500.02235174447, 30563.14951934213, -0.098, 0.972, -0.112, 192.0, 0.0, 0.0, 0.0, 0.0, 0.0, 0.0, 0.0, 0.0, 0.0, 1.6989589799111528E9, 0.0, 2023-11-02 17:02:59.911
26.0, -187500.02235174447, 187500.0, 31217.206265593326, 34017.54456967647, 187500.0, 187500.0, -187500.02235174447, 30570.14561535664, -0.098, 0.972, -0.112, 192.0, 0.0, 0.0, 0.0, 0.0, 0.0, 0.0, 0.0, 0.0, 0.0, 1.6989589799111621E9, 0.0, 2023-11-02 17:02:59.911
27.0, -187500.02235174447, 187500.0, 31214.233483580767, 34009.31912771692, 187500.0, 187500.0, -187500.02235174447, 30568.67040022259, -0.09, 0.98, -0.12, 192.0, 253.0, 48.0, 30.0, 160.0, 252.0, 64.0, 0.0, 0.0, 0.0, 1.698958979911174E9, 0.0, 2023-11-02 17:02:59.911
28.0, -187500.02235174447, 187500.0, 31214.009966136215, 34005.89931081526, 187500.0, 187500.0, -187500.02235174447, 30569.00567638942, -0.09, 0.98, -0.12, 192.0, 0.0, 0.0, 0.0, 0.0, 0.0, 0.0, 0.0, 0.0, 0.0, 1.6989589799111843E9, 0.0, 2023-11-02 17:02:59.911
29.0, -187500.02235174447, 187500.0, 31208.399678277932, 34009.31912771692, 187500.0, 187500.0, -187500.02235174447, 30565.898783910132, -0.09, 0.98, -0.12, 192.0, 0.0, 0.0, 0.0, 0.0, 0.0, 0.0, 0.0, 0.0, 0.0, 1.6989589799112215E9, 0.0, 2023-11-02 17:02:59.911
30.0, -187500.02235174447, 187500.0, 31196.977936861273, 34003.284156713984, 187500.0, 187500.0, -187500.02235174447, 30557.069844850284, -0.09, 0.98, -0.12, 192.0, 0.0, 0.0, 0.0, 0.0, 0.0, 0.0, 0.0, 0.0, 0.0, 1.6989589799112315E9, 0.0, 2023-11-02 17:02:59.911
31.0, -187500.02235174447, 187500.0, 31196.061515338602, 33998.65734561173, 187500.0, 187500.0, -187500.02235174447, 30559.081501851262, -0.09, 0.98, -0.12, 192.0, 0.0, 0.0, 0.0, 0.0, 0.0, 0.0, 0.0, 0.0, 0.0, 1.6989589799112413E9, 0.0, 2023-11-02 17:02:59.911
32.0, -187500.02235174447, 187500.0, 31205.292785798647, 33999.59611887886, 187500.0, 187500.0, -187500.02235174447, 30569.117435111697, -0.09, 0.98, -0.12, 192.0, 0.0, 0.0, 0.0, 0.0, 0.0, 0.0, 0.0, 0.0, 0.0, 1.6989589799112508E9, 0.0, 2023-11-02 17:02:59.911
33.0, -187500.02235174447, 187500.0, 31209.047878867135, 34011.84487484037, 187500.0, 187500.0, -187500.02235174447, 30573.744246213944, -0.09, 0.98, -0.12, 192.0, 0.0, 0.0, 0.0, 0.0, 0.0, 0.0, 0.0, 0.0, 0.0, 1.6989589799112601E9, 0.0, 2023-11-02 17:02:59.911
34.0, -187500.02235174447, 187500.0, 31206.186855576856, 34017.70103188766, 187500.0, 187500.0, -187500.02235174447, 30571.777292701878, -0.09, 0.98, -0.12, 192.0, 0.0, 0.0, 0.0, 0.0, 0.0, 0.0, 0.0, 0.0, 0.0, 1.69895897991127E9, 0.0, 2023-11-02 17:02:59.911
35.0, -187500.02235174447, 187500.0, 31203.392887519945, 34012.1801510072, 187500.0, 187500.0, -187500.02235174447, 30570.77146420139, -0.09, 0.98, -0.12, 192.0, 0.0, 0.0, 0.0, 0.0, 0.0, 0.0, 0.0, 0.0, 0.0, 1.6989589799112797E9, 0.0, 2023-11-02 17:02:59.911
36.0, -187500.02235174447, 187500.0, 31205.806875921116, 34009.229720739095, 187500.0, 187500.0, -187500.02235174447, 30576.046475892843, -0.09, 0.98, -0.12, 192.0, 0.0, 0.0, 0.0, 0.0, 0.0, 0.0, 0.0, 0.0, 0.0, 1.698958979911289E9, 0.0, 2023-11-02 17:02:59.911
37.0, -187500.02235174447, 187500.0, 31206.27626255468, 34020.38324122229, 187500.0, 187500.0, -187500.02235174447, 30578.706333483024, -0.084, 0.984, -0.122, 192.0, 253.0, 96.0, 30.0, 192.0, 252.0, 48.0, 0.0, 0.0, 0.0, 1.6989589799112985E9, 0.0, 2023-11-02 17:02:59.911
38.0, -187500.02235174447, 187500.0, 31204.398716020434, 34019.69033714418, 187500.0, 187500.0, -187500.02235174447, 30577.879318938176, -0.084, 0.984, -0.122, 192.0, 0.0, 0.0, 0.0, 0.0, 0.0, 0.0, 0.0, 0.0, 0.0, 1.6989589799113088E9, 0.0, 2023-11-02 17:02:59.911
39.0, -187500.02235174447, 187500.0, 31209.293748056145, 34023.7807063795, 187500.0, 187500.0, -187500.02235174447, 30585.18833937506, -0.084, 0.984, -0.122, 192.0, 0.0, 0.0, 0.0, 0.0, 0.0, 0.0, 0.0, 0.0, 0.0, 1.6989589799113183E9, 0.0, 2023-11-02 17:02:59.911
40.0, -187500.02235174447, 187500.0, 31205.5163032432, 34018.12571503231, 187500.0, 187500.0, -187500.02235174447, 30584.54013878586, -0.084, 0.984, -0.122, 192.0, 0.0, 0.0, 0.0, 0.0, 0.0, 0.0, 0.0, 0.0, 0.0, 1.6989589799113283E9, 0.0, 2023-11-02 17:02:59.911
41.0, -187500.02235174447, 187500.0, 31200.196588062834, 34017.18694176518, 187500.0, 187500.0, -187500.02235174447, 30582.841406207255, -0.084, 0.984, -0.122, 192.0, 0.0, 0.0, 0.0, 0.0, 0.0, 0.0, 0.0, 0.0, 0.0, 1.6989589799113379E9, 0.0, 2023-11-02 17:02:59.911
42.0, -187500.02235174447, 187500.0, 31189.08777106855, 34014.7282498751, 187500.0, 187500.0, -187500.02235174447, 30577.275821837884, -0.084, 0.984, -0.122, 192.0, 0.0, 0.0, 0.0, 0.0, 0.0, 0.0, 0.0, 0.0, 0.0, 1.6989589799113472E9, 0.0, 2023-11-02 17:02:59.911
43.0, -187500.02235174447, 187500.0, 31176.50373894021, 34003.46297066963, 187500.0, 187500.0, -187500.02235174447, 30569.497414767437, -0.084, 0.984, -0.122, 192.0, 0.0, 0.0, 0.0, 0.0, 0.0, 0.0, 0.0, 0.0, 0.0, 1.6989589799113567E9, 0.0, 2023-11-02 17:02:59.911
44.0, -187500.02235174447, 187500.0, 31174.782654617153, 33990.16368271872, 187500.0, 187500.0, -187500.02235174447, 30573.23015609147, -0.084, 0.984, -0.122, 192.0, 0.0, 0.0, 0.0, 0.0, 0.0, 0.0, 0.0, 0.0, 0.0, 1.6989589799113877E9, 0.0, 2023-11-02 17:02:59.911
45.0, -187500.02235174447, 187500.0, 31178.873023852473, 34001.65247936875, 187500.0, 187500.0, -187500.02235174447, 30584.182510874572, -0.084, 0.984, -0.122, 192.0, 0.0, 0.0, 0.0, 0.0, 0.0, 0.0, 0.0, 0.0, 0.0, 1.6989589799113984E9, 0.0, 2023-11-02 17:02:59.911
46.0, -187500.02235174447, 187500.0, 31166.847785335518, 34007.46393292712, 187500.0, 187500.0, -187500.02235174447, 30578.214595105004, -0.084, 0.984, -0.122, 192.0, 0.0, 0.0, 0.0, 0.0, 0.0, 0.0, 0.0, 0.0, 0.0, 1.698958979911408E9, 0.0, 2023-11-02 17:02:59.911
47.0, -187500.02235174447, 187500.0, 31162.891526566927, 34004.133523003286, 187500.0, 187500.0, -187500.02235174447, 30575.755903214922, -0.058, 0.986, -0.116, 192.0, 254.0, 48.0, 30.0, 208.0, 252.0, 96.0, 0.0, 0.0, 0.0, 1.698958979911418E9, 0.0, 2023-11-02 17:02:59.911
48.0, -187500.02235174447, 187500.0, 31160.768110843674, 33996.645688610755, 187500.0, 187500.0, -187500.02235174447, 30577.298173582338, -0.058, 0.986, -0.116, 192.0, 0.0, 0.0, 0.0, 0.0, 0.0, 0.0, 0.0, 0.0, 0.0, 1.6989589799114337E9, 0.0, 2023-11-02 17:02:59.911
49.0, -187500.02235174447, 187500.0, 31156.4542241638, 33994.49992114305, 187500.0, 187500.0, -187500.02235174447, 30576.7170282265, -0.058, 0.986, -0.116, 192.0, 0.0, 0.0, 0.0, 0.0, 0.0, 0.0, 0.0, 0.0, 0.0, 1.6989589799114437E9, 0.0, 2023-11-02 17:02:59.911
50.0, -187500.02235174447, 187500.0, 31146.842974048017, 33996.69039209967, 187500.0, 187500.0, -187500.02235174447, 30570.99498164594, -0.058, 0.986, -0.116, 192.0, 0.0, 0.0, 0.0, 0.0, 0.0, 0.0, 0.0, 0.0, 0.0, 1.698958979911454E9, 0.0, 2023-11-02 17:02:59.911
51.0, -187500.02235174447, 187500.0, 31152.095633995013, 34008.15683700524, 187500.0, 187500.0, -187500.02235174447, 30580.226252105982, -0.058, 0.986, -0.116, 192.0, 0.0, 0.0, 0.0, 0.0, 0.0, 0.0, 0.0, 0.0, 0.0, 1.6989589799114645E9, 0.0, 2023-11-02 17:02:59.911
52.0, -187500.02235174447, 187500.0, 31153.615552617975, 34015.06352604193, 187500.0, 187500.0, -187500.02235174447, 30586.216519620004, -0.058, 0.986, -0.116, 192.0, 0.0, 0.0, 0.0, 0.0, 0.0, 0.0, 0.0, 0.0, 0.0, 1.6989589799114769E9, 0.0, 2023-11-02 17:02:59.911
53.0, -187500.02235174447, 187500.0, 31151.335674683534, 34008.313299216425, 187500.0, 187500.0, -187500.02235174447, 30588.988135932465, -0.058, 0.986, -0.116, 192.0, 0.0, 0.0, 0.0, 0.0, 0.0, 0.0, 0.0, 0.0, 0.0, 1.6989589799114878E9, 0.0, 2023-11-02 17:02:59.911
54.0, -187500.02235174447, 187500.0, 31149.502831638198, 34012.85070334085, 187500.0, 187500.0, -187500.02235174447, 30592.475008067493, -0.058, 0.986, -0.116, 192.0, 0.0, 0.0, 0.0, 0.0, 0.0, 0.0, 0.0, 0.0, 0.0, 1.6989589799114983E9, 0.0, 2023-11-02 17:02:59.911
55.0, -187500.02235174447, 187500.0, 31137.790517543617, 34013.141276018774, 187500.0, 187500.0, -187500.02235174447, 30584.473083552493, -0.058, 0.986, -0.116, 192.0, 0.0, 0.0, 0.0, 0.0, 0.0, 0.0, 0.0, 0.0, 0.0, 1.6989589799115107E9, 0.0, 2023-11-02 17:02:59.911
56.0, -187500.02235174447, 187500.0, 31133.007244230183, 33999.95374679015, 187500.0, 187500.0, -187500.02235174447, 30582.819054462798, -0.058, 0.986, -0.116, 192.0, 0.0, 0.0, 0.0, 0.0, 0.0, 0.0, 0.0, 0.0, 0.0, 1.6989589799115207E9, 0.0, 2023-11-02 17:02:59.911
57.0, -187500.02235174447, 187500.0, 31136.11413670947, 34004.06646776992, 187500.0, 187500.0, -187500.02235174447, 30588.786970232366, -0.046, 0.984, -0.11, 192.0, 254.0, 144.0, 30.0, 192.0, 252.0, 144.0, 0.0, 0.0, 0.0, 1.698958979911532E9, 0.0, 2023-11-02 17:02:59.911
58.0, -187500.02235174447, 187500.0, 31133.54368609711, 34011.621357395816, 187500.0, 187500.0, -187500.02235174447, 30586.305926597826, -0.046, 0.984, -0.11, 192.0, 0.0, 0.0, 0.0, 0.0, 0.0, 0.0, 0.0, 0.0, 0.0, 1.698958979911545E9, 0.0, 2023-11-02 17:02:59.911
59.0, -187500.02235174447, 187500.0, 31130.392090128913, 34014.84000859738, 187500.0, 187500.0, -187500.02235174447, 30583.467255052004, -0.046, 0.984, -0.11, 192.0, 0.0, 0.0, 0.0, 0.0, 0.0, 0.0, 0.0, 0.0, 0.0, 1.6989589799115555E9, 0.0, 2023-11-02 17:02:59.911
60.0, -187500.02235174447, 187500.0, 31136.06943322056, 34015.84583709787, 187500.0, 187500.0, -187500.02235174447, 30589.23400512147, -0.046, 0.984, -0.11, 192.0, 0.0, 0.0, 0.0, 0.0, 0.0, 0.0, 0.0, 0.0, 0.0, 1.69895897991158E9, 0.0, 2023-11-02 17:02:59.911
61.0, -187500.02235174447, 187500.0, 31134.661273319874, 34014.70589813065, 187500.0, 187500.0, -187500.02235174447, 30589.09989465474, -0.046, 0.984, -0.11, 192.0, 0.0, 0.0, 0.0, 0.0, 0.0, 0.0, 0.0, 0.0, 0.0, 1.6989589799115913E9, 0.0, 2023-11-02 17:02:59.911
62.0, -187500.02235174447, 187500.0, 31138.30460766609, 34017.768087121025, 187500.0, 187500.0, -187500.02235174447, 30595.6713075246, -0.046, 0.984, -0.11, 192.0, 0.0, 0.0, 0.0, 0.0, 0.0, 0.0, 0.0, 0.0, 0.0, 1.6989589799116015E9, 0.0, 2023-11-02 17:02:59.911
63.0, -187500.02235174447, 187500.0, 31145.233648447236, 34024.42890696871, 187500.0, 187500.0, -187500.02235174447, 30602.801514005845, -0.046, 0.984, -0.11, 192.0, 0.0, 0.0, 0.0, 0.0, 0.0, 0.0, 0.0, 0.0, 0.0, 1.6989589799116135E9, 0.0, 2023-11-02 17:02:59.911
64.0, -187500.02235174447, 187500.0, 31144.294875180112, 34020.53970343348, 187500.0, 187500.0, -187500.02235174447, 30602.980327961486, -0.046, 0.984, -0.11, 192.0, 0.0, 0.0, 0.0, 0.0, 0.0, 0.0, 0.0, 0.0, 0.0, 1.6989589799116237E9, 0.0, 2023-11-02 17:02:59.911
65.0, -187500.02235174447, 187500.0, 31153.995532273715, 34013.05186904095, 187500.0, 187500.0, -187500.02235174447, 30612.97155773301, -0.046, 0.984, -0.11, 192.0, 0.0, 0.0, 0.0, 0.0, 0.0, 0.0, 0.0, 0.0, 0.0, 1.6989589799116344E9, 0.0, 2023-11-02 17:02:59.911
66.0, -187500.02235174447, 187500.0, 31150.30749443859, 34016.51638943153, 187500.0, 187500.0, -187500.02235174447, 30609.372926875705, -0.046, 0.984, -0.11, 192.0, 0.0, 0.0, 0.0, 0.0, 0.0, 0.0, 0.0, 0.0, 0.0, 1.6989589799116464E9, 0.0, 2023-11-02 17:02:59.911
67.0, -187500.02235174447, 187500.0, 31146.574753114553, 34005.78755209298, 187500.0, 187500.0, -187500.02235174447, 30607.428325108092, -0.054, 0.98, -0.112, 192.0, 254.0, 80.0, 30.0, 160.0, 252.0, 128.0, 0.0, 0.0, 0.0, 1.6989589799116564E9, 0.0, 2023-11-02 17:02:59.911
68.0, -187500.02235174447, 187500.0, 31158.22001197577, 34008.313299216425, 187500.0, 187500.0, -187500.02235174447, 30620.48174386999, -0.054, 0.98, -0.112, 192.0, 0.0, 0.0, 0.0, 0.0, 0.0, 0.0, 0.0, 0.0, 0.0, 1.69895897991167E9, 0.0, 2023-11-02 17:02:59.911
69.0, -187500.02235174447, 187500.0, 31162.891526566927, 34001.272499713006, 187500.0, 187500.0, -187500.02235174447, 30624.415650894127, -0.054, 0.98, -0.112, 192.0, 0.0, 0.0, 0.0, 0.0, 0.0, 0.0, 0.0, 0.0, 0.0, 1.6989589799116838E9, 0.0, 2023-11-02 17:02:59.911
70.0, -187500.02235174447, 187500.0, 31159.717578854274, 33985.40276114974, 187500.0, 187500.0, -187500.02235174447, 30621.264054925927, -0.054, 0.98, -0.112, 192.0, 0.0, 0.0, 0.0, 0.0, 0.0, 0.0, 0.0, 0.0, 0.0, 1.6989589799116936E9, 0.0, 2023-11-02 17:02:59.911
71.0, -187500.02235174447, 187500.0, 31157.16947998637, 33976.77498778999, 187500.0, 187500.0, -187500.02235174447, 30618.380679891194, -0.054, 0.98, -0.112, 192.0, 0.0, 0.0, 0.0, 0.0, 0.0, 0.0, 0.0, 0.0, 0.0, 1.6989589799117033E9, 0.0, 2023-11-02 17:02:59.911
72.0, -187500.02235174447, 187500.0, 31158.935267798337, 33964.59328706185, 187500.0, 187500.0, -187500.02235174447, 30618.20186593555, -0.054, 0.98, -0.112, 192.0, 0.0, 0.0, 0.0, 0.0, 0.0, 0.0, 0.0, 0.0, 0.0, 1.6989589799117131E9, 0.0, 2023-11-02 17:02:59.911
73.0, -187500.02235174447, 187500.0, 31165.5066806682, 33954.64676077924, 187500.0, 187500.0, -187500.02235174447, 30625.287368927882, -0.054, 0.98, -0.112, 192.0, 0.0, 0.0, 0.0, 0.0, 0.0, 0.0, 0.0, 0.0, 0.0, 1.698958979911724E9, 0.0, 2023-11-02 17:02:59.911
74.0, -187500.02235174447, 187500.0, 31159.583468387544, 33945.16962113018, 187500.0, 187500.0, -187500.02235174447, 30619.811191536333, -0.054, 0.98, -0.112, 192.0, 0.0, 0.0, 0.0, 0.0, 0.0, 0.0, 0.0, 0.0, 0.0, 1.6989589799117353E9, 0.0, 2023-11-02 17:02:59.911
75.0, -187500.02235174447, 187500.0, 31158.734102098242, 33938.19587686013, 187500.0, 187500.0, -187500.02235174447, 30617.06192696833, -0.054, 0.98, -0.112, 192.0, 0.0, 0.0, 0.0, 0.0, 0.0, 0.0, 0.0, 0.0, 0.0, 1.698958979911796E9, 0.0, 2023-11-02 17:02:59.911
76.0, -187500.02235174447, 187500.0, 31162.13156725545, 33924.89658890922, 187500.0, 187500.0, -187500.02235174447, 30618.87241826921, -0.054, 0.98, -0.112, 192.0, 0.0, 0.0, 0.0, 0.0, 0.0, 0.0, 0.0, 0.0, 0.0, 1.69895897991181E9, 0.0, 2023-11-02 17:02:59.911
77.0, -187500.02235174447, 187500.0, 31170.17819525936, 33909.87621663525, 187500.0, 187500.0, -187500.02235174447, 30625.73440381699, -0.064, 0.98, -0.108, 192.0, 254.0, 0.0, 30.0, 160.0, 252.0, 160.0, 0.0, 0.0, 0.0, 1.6989589799118268E9, 0.0, 2023-11-02 17:02:59.911
78.0, -187500.02235174447, 187500.0, 31165.730198112753, 33895.01230657248, 187500.0, 187500.0, -187500.02235174447, 30618.715956058022, -0.064, 0.98, -0.108, 192.0, 0.0, 0.0, 0.0, 0.0, 0.0, 0.0, 0.0, 0.0, 0.0, 1.69895897991184E9, 0.0, 2023-11-02 17:02:59.911
79.0, -187500.02235174447, 187500.0, 31160.67870386585, 33882.18240525513, 187500.0, 187500.0, -187500.02235174447, 30613.507999599937, -0.064, 0.98, -0.108, 192.0, 0.0, 0.0, 0.0, 0.0, 0.0, 0.0, 0.0, 0.0, 0.0, 1.6989589799118543E9, 0.0, 2023-11-02 17:02:59.911
80.0, -187500.02235174447, 187500.0, 31151.2015642168, 33871.006533027474, 187500.0, 187500.0, -187500.02235174447, 30603.62852855069, -0.064, 0.98, -0.108, 192.0, 0.0, 0.0, 0.0, 0.0, 0.0, 0.0, 0.0, 0.0, 0.0, 1.6989589799118645E9, 0.0, 2023-11-02 17:02:59.911
81.0, -187500.02235174447, 187500.0, 31149.502831638198, 33862.73638757901, 187500.0, 187500.0, -187500.02235174447, 30600.923967471597, -0.064, 0.98, -0.108, 192.0, 0.0, 0.0, 0.0, 0.0, 0.0, 0.0, 0.0, 0.0, 0.0, 1.6989589799118803E9, 0.0, 2023-11-02 17:02:59.911
82.0, -187500.02235174447, 187500.0, 31162.757416100198, 33868.167861481656, 187500.0, 187500.0, -187500.02235174447, 30610.468162354013, -0.064, 0.98, -0.108, 192.0, 0.0, 0.0, 0.0, 0.0, 0.0, 0.0, 0.0, 0.0, 0.0, 1.698958979911894E9, 0.0, 2023-11-02 17:02:59.911
83.0, -187500.02235174447, 187500.0, 31159.963448043283, 33870.76066383847, 187500.0, 187500.0, -187500.02235174447, 30604.25437739544, -0.064, 0.98, -0.108, 192.0, 0.0, 0.0, 0.0, 0.0, 0.0, 0.0, 0.0, 0.0, 0.0, 1.6989589799119077E9, 0.0, 2023-11-02 17:02:59.911
84.0, -187500.02235174447, 187500.0, 31154.442567162823, 33866.08914924731, 187500.0, 187500.0, -187500.02235174447, 30597.392391847658, -0.064, 0.98, -0.108, 192.0, 0.0, 0.0, 0.0, 0.0, 0.0, 0.0, 0.0, 0.0, 0.0, 1.6989589799119189E9, 0.0, 2023-11-02 17:02:59.911
85.0, -187500.02235174447, 187500.0, 31149.368721171468, 33860.16593696665, 187500.0, 187500.0, -187500.02235174447, 30591.96091794502, -0.064, 0.98, -0.108, 192.0, 0.0, 0.0, 0.0, 0.0, 0.0, 0.0, 0.0, 0.0, 0.0, 1.6989589799119327E9, 0.0, 2023-11-02 17:02:59.911
86.0, -187500.02235174447, 187500.0, 31148.40759615989, 33860.41180615566, 187500.0, 187500.0, -187500.02235174447, 30589.72574349949, -0.064, 0.98, -0.108, 192.0, 0.0, 0.0, 0.0, 0.0, 0.0, 0.0, 0.0, 0.0, 0.0, 1.6989589799119432E9, 0.0, 2023-11-02 17:02:59.911
87.0, -187500.02235174447, 187500.0, 31141.187982700823, 33855.67323633114, 187500.0, 187500.0, -187500.02235174447, 30580.740342228455, -0.078, 0.974, -0.11, 192.0, 253.0, 144.0, 30.0, 112.0, 252.0, 144.0, 0.0, 0.0, 0.0, 1.6989589799119532E9, 0.0, 2023-11-02 17:02:59.911
88.0, -187500.02235174447, 187500.0, 31139.91393326687, 33856.25438168697, 187500.0, 187500.0, -187500.02235174447, 30576.225289848484, -0.078, 0.974, -0.11, 192.0, 0.0, 0.0, 0.0, 0.0, 0.0, 0.0, 0.0, 0.0, 0.0, 1.6989589799119692E9, 0.0, 2023-11-02 17:02:59.911
89.0, -187500.02235174447, 187500.0, 31127.553418583087, 33853.99685549699, 187500.0, 187500.0, -187500.02235174447, 30561.562545485802, -0.078, 0.974, -0.11, 192.0, 0.0, 0.0, 0.0, 0.0, 0.0, 0.0, 0.0, 0.0, 0.0, 1.6989589799119813E9, 0.0, 2023-11-02 17:02:59.911
90.0, -187500.02235174447, 187500.0, 31123.798325514595, 33841.256361157466, 187500.0, 187500.0, -187500.02235174447, 30556.309885538805, -0.078, 0.974, -0.11, 192.0, 0.0, 0.0, 0.0, 0.0, 0.0, 0.0, 0.0, 0.0, 0.0, 1.698958979912043E9, 0.0, 2023-11-02 17:02:59.912
91.0, -187500.02235174447, 187500.0, 31126.480534849234, 33850.86761127324, 187500.0, 187500.0, -187500.02235174447, 30558.723873939976, -0.078, 0.974, -0.11, 192.0, 0.0, 0.0, 0.0, 0.0, 0.0, 0.0, 0.0, 0.0, 0.0, 1.698958979912064E9, 0.0, 2023-11-02 17:02:59.912
92.0, -187500.02235174447, 187500.0, 31133.141354696916, 33871.52062314995, 187500.0, 187500.0, -187500.02235174447, 30565.831728676767, -0.078, 0.974, -0.11, 192.0, 0.0, 0.0, 0.0, 0.0, 0.0, 0.0, 0.0, 0.0, 0.0, 1.6989589799120748E9, 0.0, 2023-11-02 17:02:59.912
93.0, -187500.02235174447, 187500.0, 31127.21814241626, 33876.41565518566, 187500.0, 187500.0, -187500.02235174447, 30557.42747276157, -0.078, 0.974, -0.11, 192.0, 0.0, 0.0, 0.0, 0.0, 0.0, 0.0, 0.0, 0.0, 0.0, 1.6989589799120889E9, 0.0, 2023-11-02 17:02:59.912
94.0, -187500.02235174447, 187500.0, 31120.937302224316, 33860.63532360021, 187500.0, 187500.0, -187500.02235174447, 30548.352664512717, -0.078, 0.974, -0.11, 192.0, 0.0, 0.0, 0.0, 0.0, 0.0, 0.0, 0.0, 0.0, 0.0, 1.6989589799121027E9, 0.0, 2023-11-02 17:02:59.912
95.0, -187500.02235174447, 187500.0, 31118.255092889678, 33861.238820700506, 187500.0, 187500.0, -187500.02235174447, 30544.977551099964, -0.078, 0.974, -0.11, 192.0, 0.0, 0.0, 0.0, 0.0, 0.0, 0.0, 0.0, 0.0, 0.0, 1.698958979912119E9, 0.0, 2023-11-02 17:02:59.912
96.0, -187500.02235174447, 187500.0, 31109.11322940746, 33862.244649201, 187500.0, 187500.0, -187500.02235174447, 30536.41683297358, -0.078, 0.974, -0.11, 192.0, 0.0, 0.0, 0.0, 0.0, 0.0, 0.0, 0.0, 0.0, 0.0, 1.6989589799121344E9, 0.0, 2023-11-02 17:02:59.912
97.0, -187500.02235174447, 187500.0, 31112.600101542488, 33867.944344037096, 187500.0, 187500.0, -187500.02235174447, 30541.04364407583, -0.084, 0.972, -0.108, 192.0, 253.0, 96.0, 30.0, 96.0, 252.0, 160.0, 0.0, 0.0, 0.0, 1.6989589799121466E9, 0.0, 2023-11-02 17:02:59.912
98.0, -187500.02235174447, 187500.0, 31119.752659768186, 33873.532280150925, 187500.0, 187500.0, -187500.02235174447, 30548.33031276826, -0.084, 0.972, -0.108, 192.0, 0.0, 0.0, 0.0, 0.0, 0.0, 0.0, 0.0, 0.0, 0.0, 1.698958979912164E9, 0.0, 2023-11-02 17:02:59.912
99.0, -187500.02235174447, 187500.0, 31120.4455638463, 33881.1989284991, 187500.0, 187500.0, -187500.02235174447, 30548.37501625717, -0.084, 0.972, -0.108, 192.0, 0.0, 0.0, 0.0, 0.0, 0.0, 0.0, 0.0, 0.0, 0.0, 1.698958979912178E9, 0.0, 2023-11-02 17:02:59.912
100.0, -187500.02235174447, 187500.0, 31114.321185865545, 33882.696495377604, 187500.0, 187500.0, -187500.02235174447, 30540.730719653457, -0.084, 0.972, -0.108, 192.0, 0.0, 0.0, 0.0, 0.0, 0.0, 0.0, 0.0, 0.0, 0.0, 1.6989589799121916E9, 0.0, 2023-11-02 17:02:59.912
101.0, -187500.02235174447, 187500.0, 31111.01312768616, 33875.99097204101, 187500.0, 187500.0, -187500.02235174447, 30535.254542261904, -0.084, 0.972, -0.108, 192.0, 0.0, 0.0, 0.0, 0.0, 0.0, 0.0, 0.0, 0.0, 0.0, 1.698958979912202E9, 0.0, 2023-11-02 17:02:59.912
102.0, -187500.02235174447, 187500.0, 31114.835275988018, 33868.637248115214, 187500.0, 187500.0, -187500.02235174447, 30538.160269041095, -0.084, 0.972, -0.108, 192.0, 0.0, 0.0, 0.0, 0.0, 0.0, 0.0, 0.0, 0.0, 0.0, 1.698958979912216E9, 0.0, 2023-11-02 17:02:59.912
103.0, -187500.02235174447, 187500.0, 31121.116116179957, 33873.15230049519, 187500.0, 187500.0, -187500.02235174447, 30543.56939119928, -0.084, 0.972, -0.108, 192.0, 0.0, 0.0, 0.0, 0.0, 0.0, 0.0, 0.0, 0.0, 0.0, 1.69895897991223E9, 0.0, 2023-11-02 17:02:59.912
104.0, -187500.02235174447, 187500.0, 31122.032537702627, 33882.42827444414, 187500.0, 187500.0, -187500.02235174447, 30541.98241734295, -0.084, 0.972, -0.108, 192.0, 0.0, 0.0, 0.0, 0.0, 0.0, 0.0, 0.0, 0.0, 0.0, 1.698958979912244E9, 0.0, 2023-11-02 17:02:59.912
105.0, -187500.02235174447, 187500.0, 31123.887732492418, 33882.22710874404, 187500.0, 187500.0, -187500.02235174447, 30542.272990020872, -0.084, 0.972, -0.108, 192.0, 0.0, 0.0, 0.0, 0.0, 0.0, 0.0, 0.0, 0.0, 0.0, 1.6989589799123075E9, 0.0, 2023-11-02 17:02:59.912
106.0, -187500.02235174447, 187500.0, 31126.435831360322, 33872.30293420589, 187500.0, 187500.0, -187500.02235174447, 30544.10583306621, -0.084, 0.972, -0.108, 192.0, 0.0, 0.0, 0.0, 0.0, 0.0, 0.0, 0.0, 0.0, 0.0, 1.69895897991232E9, 0.0, 2023-11-02 17:02:59.912
107.0, -187500.02235174447, 187500.0, 31128.760412783675, 33867.83258531482, 187500.0, 187500.0, -187500.02235174447, 30543.703501666012, -0.07200000000000001, 0.974, -0.108, 192.0, 253.0, 192.0, 30.0, 112.0, 252.0, 160.0, 0.0, 0.0, 0.0, 1.698958979912332E9, 0.0, 2023-11-02 17:02:59.912
108.0, -187500.02235174447, 187500.0, 31127.084031949526, 33872.23587897252, 187500.0, 187500.0, -187500.02235174447, 30539.031987074854, -0.07200000000000001, 0.974, -0.108, 192.0, 0.0, 0.0, 0.0, 0.0, 0.0, 0.0, 0.0, 0.0, 0.0, 1.6989589799123433E9, 0.0, 2023-11-02 17:02:59.912
109.0, -187500.02235174447, 187500.0, 31127.620473816452, 33874.85103307379, 187500.0, 187500.0, -187500.02235174447, 30538.56260044129, -0.07200000000000001, 0.974, -0.108, 192.0, 0.0, 0.0, 0.0, 0.0, 0.0, 0.0, 0.0, 0.0, 0.0, 1.6989589799123535E9, 0.0, 2023-11-02 17:02:59.912
110.0, -187500.02235174447, 187500.0, 31137.343482654513, 33882.67414363314, 187500.0, 187500.0, -187500.02235174447, 30546.676283678567, -0.07200000000000001, 0.974, -0.108, 192.0, 0.0, 0.0, 0.0, 0.0, 0.0, 0.0, 0.0, 0.0, 0.0, 1.698958979912364E9, 0.0, 2023-11-02 17:02:59.912
111.0, -187500.02235174447, 187500.0, 31144.853668791497, 33890.36314372577, 187500.0, 187500.0, -187500.02235174447, 30553.47121399298, -0.07200000000000001, 0.974, -0.108, 192.0, 0.0, 0.0, 0.0, 0.0, 0.0, 0.0, 0.0, 0.0, 0.0, 1.6989589799123793E9, 0.0, 2023-11-02 17:02:59.912
112.0, -187500.02235174447, 187500.0, 31145.814793803074, 33894.31940249436, 187500.0, 187500.0, -187500.02235174447, 30553.001827359418, -0.07200000000000001, 0.974, -0.108, 192.0, 0.0, 0.0, 0.0, 0.0, 0.0, 0.0, 0.0, 0.0, 0.0, 1.6989589799123921E9, 0.0, 2023-11-02 17:02:59.912
113.0, -187500.02235174447, 187500.0, 31144.563096113576, 33891.68189664864, 187500.0, 187500.0, -187500.02235174447, 30547.212725545494, -0.07200000000000001, 0.974, -0.108, 192.0, 0.0, 0.0, 0.0, 0.0, 0.0, 0.0, 0.0, 0.0, 0.0, 1.698958979912403E9, 0.0, 2023-11-02 17:02:59.912
114.0, -187500.02235174447, 187500.0, 31150.329846183045, 33893.13476003823, 187500.0, 187500.0, -187500.02235174447, 30549.60436220221, -0.07200000000000001, 0.974, -0.108, 192.0, 0.0, 0.0, 0.0, 0.0, 0.0, 0.0, 0.0, 0.0, 0.0, 1.698958979912414E9, 0.0, 2023-11-02 17:02:59.912
115.0, -187500.02235174447, 187500.0, 31151.514488639175, 33895.057010061384, 187500.0, 187500.0, -187500.02235174447, 30548.218554045983, -0.07200000000000001, 0.974, -0.108, 192.0, 0.0, 0.0, 0.0, 0.0, 0.0, 0.0, 0.0, 0.0, 0.0, 1.698958979912424E9, 0.0, 2023-11-02 17:02:59.912
116.0, -187500.02235174447, 187500.0, 31154.397863673912, 33898.208606029584, 187500.0, 187500.0, -187500.02235174447, 30551.43720524755, -0.07200000000000001, 0.974, -0.108, 192.0, 0.0, 0.0, 0.0, 0.0, 0.0, 0.0, 0.0, 0.0, 0.0, 1.698958979912434E9, 0.0, 2023-11-02 17:02:59.912
117.0, -187500.02235174447, 187500.0, 31156.78950033063, 33906.94813811161, 187500.0, 187500.0, -187500.02235174447, 30553.51591748189, -0.084, 0.96, -0.106, 192.0, 253.0, 96.0, 30.0, 0.0, 252.0, 176.0, 0.0, 0.0, 0.0, 1.6989589799124446E9, 0.0, 2023-11-02 17:02:59.912
118.0, -187500.02235174447, 187500.0, 31156.186003230338, 33909.965623613076, 187500.0, 187500.0, -187500.02235174447, 30553.068882592786, -0.084, 0.96, -0.106, 192.0, 0.0, 0.0, 0.0, 0.0, 0.0, 0.0, 0.0, 0.0, 0.0, 1.6989589799124556E9, 0.0, 2023-11-02 17:02:59.912
119.0, -187500.02235174447, 187500.0, 31153.68260785134, 33904.578853199346, 187500.0, 187500.0, -187500.02235174447, 30549.492603479935, -0.084, 0.96, -0.106, 192.0, 0.0, 0.0, 0.0, 0.0, 0.0, 0.0, 0.0, 0.0, 0.0, 1.698958979912466E9, 0.0, 2023-11-02 17:02:59.912
120.0, -187500.02235174447, 187500.0, 31162.511546911188, 33907.90926312319, 187500.0, 187500.0, -187500.02235174447, 30558.075673350773, -0.084, 0.96, -0.106, 192.0, 0.0, 0.0, 0.0, 0.0, 0.0, 0.0, 0.0, 0.0, 0.0, 1.6989589799124968E9, 0.0, 2023-11-02 17:02:59.912
121.0, -187500.02235174447, 187500.0, 31161.662180621886, 33916.1570568272, 187500.0, 187500.0, -187500.02235174447, 30558.09802509523, -0.084, 0.96, -0.106, 192.0, 0.0, 0.0, 0.0, 0.0, 0.0, 0.0, 0.0, 0.0, 0.0, 1.6989589803908172E9, 0.0, 2023-11-02 17:03:00.390
122.0, -187500.02235174447, 187500.0, 31158.041198020128, 33915.1065248378, 187500.0, 187500.0, -187500.02235174447, 30552.219516303485, -0.084, 0.96, -0.106, 192.0, 0.0, 0.0, 0.0, 0.0, 0.0, 0.0, 0.0, 0.0, 0.0, 1.698958980390921E9, 0.0, 2023-11-02 17:03:00.390
123.0, -187500.02235174447, 187500.0, 31166.378398701956, 33913.56425447038, 187500.0, 187500.0, -187500.02235174447, 30559.19326057354, -0.084, 0.96, -0.106, 192.0, 0.0, 0.0, 0.0, 0.0, 0.0, 0.0, 0.0, 0.0, 0.0, 1.6989589803909376E9, 0.0, 2023-11-02 17:03:00.390
124.0, -187500.02235174447, 187500.0, 31164.41144518989, 33916.112353338285, 187500.0, 187500.0, -187500.02235174447, 30555.304057038316, -0.084, 0.96, -0.106, 192.0, 0.0, 0.0, 0.0, 0.0, 0.0, 0.0, 0.0, 0.0, 0.0, 1.6989589803909526E9, 0.0, 2023-11-02 17:03:00.390
125.0, -187500.02235174447, 187500.0, 31160.276372465658, 33918.347527783815, 187500.0, 187500.0, -187500.02235174447, 30549.112623824196, -0.084, 0.96, -0.106, 192.0, 0.0, 0.0, 0.0, 0.0, 0.0, 0.0, 0.0, 0.0, 0.0, 1.6989589803909645E9, 0.0, 2023-11-02 17:03:00.390
126.0, -187500.02235174447, 187500.0, 31164.903183567905, 33917.922844639164, 187500.0, 187500.0, -187500.02235174447, 30552.063054092298, -0.084, 0.96, -0.106, 192.0, 0.0, 0.0, 0.0, 0.0, 0.0, 0.0, 0.0, 0.0, 0.0, 1.6989589803909802E9, 0.0, 2023-11-02 17:03:00.390
127.0, -187500.02235174447, 187500.0, 31166.423102190867, 33919.755687684505, 187500.0, 187500.0, -187500.02235174447, 30552.398330259126, -0.074, 0.966, -0.096, 192.0, 253.0, 176.0, 30.0, 48.0, 253.0, 0.0, 0.0, 0.0, 0.0, 1.6989589803910086E9, 0.0, 2023-11-02 17:03:00.391
128.0, -187500.02235174447, 187500.0, 31164.277334723156, 33916.82760916086, 187500.0, 187500.0, -187500.02235174447, 30550.587838958247, -0.074, 0.966, -0.096, 192.0, 0.0, 0.0, 0.0, 0.0, 0.0, 0.0, 0.0, 0.0, 0.0, 1.6989589803910284E9, 0.0, 2023-11-02 17:03:00.391
129.0, -187500.02235174447, 187500.0, 31161.840994577527, 33913.877178892755, 187500.0, 187500.0, -187500.02235174447, 30547.81622264579, -0.074, 0.966, -0.096, 192.0, 0.0, 0.0, 0.0, 0.0, 0.0, 0.0, 0.0, 0.0, 0.0, 1.6989589803910432E9, 0.0, 2023-11-02 17:03:00.391
130.0, -187500.02235174447, 187500.0, 31163.942058556328, 33917.296995794415, 187500.0, 187500.0, -187500.02235174447, 30550.833708147256, -0.074, 0.966, -0.096, 192.0, 0.0, 0.0, 0.0, 0.0, 0.0, 0.0, 0.0, 0.0, 0.0, 1.6989589803910568E9, 0.0, 2023-11-02 17:03:00.391
131.0, -187500.02235174447, 187500.0, 31166.177233001858, 33917.63227196124, 187500.0, 187500.0, -187500.02235174447, 30553.739434926443, -0.074, 0.966, -0.096, 192.0, 0.0, 0.0, 0.0, 0.0, 0.0, 0.0, 0.0, 0.0, 0.0, 1.6989589803910685E9, 0.0, 2023-11-02 17:03:00.391
132.0, -187500.02235174447, 187500.0, 31169.485291181245, 33917.028774860955, 187500.0, 187500.0, -187500.02235174447, 30558.18743207305, -0.074, 0.966, -0.096, 192.0, 0.0, 0.0, 0.0, 0.0, 0.0, 0.0, 0.0, 0.0, 0.0, 1.69895898039108E9, 0.0, 2023-11-02 17:03:00.391
133.0, -187500.02235174447, 187500.0, 31169.79821560362, 33928.71873721108, 187500.0, 187500.0, -187500.02235174447, 30560.5120134964, -0.074, 0.966, -0.096, 192.0, 0.0, 0.0, 0.0, 0.0, 0.0, 0.0, 0.0, 0.0, 0.0, 1.6989589803911307E9, 0.0, 2023-11-02 17:03:00.391
134.0, -187500.02235174447, 187500.0, 31164.21027948979, 33928.00348138851, 187500.0, 187500.0, -187500.02235174447, 30554.18646981555, -0.074, 0.966, -0.096, 192.0, 0.0, 0.0, 0.0, 0.0, 0.0, 0.0, 0.0, 0.0, 0.0, 1.6989589803911436E9, 0.0, 2023-11-02 17:03:00.391
135.0, -187500.02235174447, 187500.0, 31160.097558510013, 33917.11818183878, 187500.0, 187500.0, -187500.02235174447, 30549.090272079742, -0.074, 0.966, -0.096, 192.0, 0.0, 0.0, 0.0, 0.0, 0.0, 0.0, 0.0, 0.0, 0.0, 1.6989589803913455E9, 0.0, 2023-11-02 17:03:00.391
136.0, -187500.02235174447, 187500.0, 31168.613573147486, 33913.60895795929, 187500.0, 187500.0, -187500.02235174447, 30556.891030894643, -0.074, 0.966, -0.096, 192.0, 0.0, 0.0, 0.0, 0.0, 0.0, 0.0, 0.0, 0.0, 0.0, 1.698958980391365E9, 0.0, 2023-11-02 17:03:00.391
137.0, -187500.02235174447, 187500.0, 31162.489195166734, 33917.56521672788, 187500.0, 187500.0, -187500.02235174447, 30552.599495959224, -0.07, 0.974, -0.10200000000000001, 192.0, 253.0, 208.0, 30.0, 112.0, 252.0, 208.0, 0.0, 0.0, 0.0, 1.6989589803913836E9, 0.0, 2023-11-02 17:03:00.391
138.0, -187500.02235174447, 187500.0, 31148.36289267098, 33917.364051027784, 187500.0, 187500.0, -187500.02235174447, 30540.060167319796, -0.07, 0.974, -0.10200000000000001, 192.0, 0.0, 0.0, 0.0, 0.0, 0.0, 0.0, 0.0, 0.0, 0.0, 1.6989589803914235E9, 0.0, 2023-11-02 17:03:00.391
139.0, -187500.02235174447, 187500.0, 31140.696244322808, 33910.07738233535, 187500.0, 187500.0, -187500.02235174447, 30535.18748702854, -0.07, 0.974, -0.10200000000000001, 192.0, 0.0, 0.0, 0.0, 0.0, 0.0, 0.0, 0.0, 0.0, 0.0, 1.6989589803914373E9, 0.0, 2023-11-02 17:03:00.391
140.0, -187500.02235174447, 187500.0, 31146.194773458814, 33911.97728061405, 187500.0, 187500.0, -187500.02235174447, 30542.451803976513, -0.07, 0.974, -0.10200000000000001, 192.0, 0.0, 0.0, 0.0, 0.0, 0.0, 0.0, 0.0, 0.0, 0.0, 1.6989589803914595E9, 0.0, 2023-11-02 17:03:00.391
141.0, -187500.02235174447, 187500.0, 31148.899334537906, 33921.61088247429, 187500.0, 187500.0, -187500.02235174447, 30547.81622264579, -0.07, 0.974, -0.10200000000000001, 192.0, 0.0, 0.0, 0.0, 0.0, 0.0, 0.0, 0.0, 0.0, 0.0, 1.6989589803914928E9, 0.0, 2023-11-02 17:03:00.391
142.0, -187500.02235174447, 187500.0, 31151.045102005613, 33927.89172266623, 187500.0, 187500.0, -187500.02235174447, 30549.961990113497, -0.07, 0.974, -0.10200000000000001, 192.0, 0.0, 0.0, 0.0, 0.0, 0.0, 0.0, 0.0, 0.0, 0.0, 1.6989589803915274E9, 0.0, 2023-11-02 17:03:00.391
143.0, -187500.02235174447, 187500.0, 31152.006227017195, 33923.71194645309, 187500.0, 187500.0, -187500.02235174447, 30550.744301169434, -0.07, 0.974, -0.10200000000000001, 192.0, 0.0, 0.0, 0.0, 0.0, 0.0, 0.0, 0.0, 0.0, 0.0, 1.6989589803915641E9, 0.0, 2023-11-02 17:03:00.391
144.0, -187500.02235174447, 187500.0, 31155.73896834123, 33921.87910340776, 187500.0, 187500.0, -187500.02235174447, 30555.259353549405, -0.07, 0.974, -0.10200000000000001, 192.0, 0.0, 0.0, 0.0, 0.0, 0.0, 0.0, 0.0, 0.0, 0.0, 1.6989589803916063E9, 0.0, 2023-11-02 17:03:00.391
145.0, -187500.02235174447, 187500.0, 31152.654427606398, 33922.549655741415, 187500.0, 187500.0, -187500.02235174447, 30552.823013403777, -0.07, 0.974, -0.10200000000000001, 192.0, 0.0, 0.0, 0.0, 0.0, 0.0, 0.0, 0.0, 0.0, 0.0, 1.6989589803916268E9, 0.0, 2023-11-02 17:03:00.391
146.0, -187500.02235174447, 187500.0, 31149.905163038395, 33924.31544355339, 187500.0, 187500.0, -187500.02235174447, 30550.00669360241, -0.07, 0.974, -0.10200000000000001, 192.0, 0.0, 0.0, 0.0, 0.0, 0.0, 0.0, 0.0, 0.0, 0.0, 1.69895898039164E9, 0.0, 2023-11-02 17:03:00.391
147.0, -187500.02235174447, 187500.0, 31148.564058371077, 33922.43789701914, 187500.0, 187500.0, -187500.02235174447, 30548.33031276826, -0.054, 0.98, -0.094, 192.0, 254.0, 80.0, 30.0, 160.0, 253.0, 16.0, 0.0, 0.0, 0.0, 1.698958980391657E9, 0.0, 2023-11-02 17:03:00.391
148.0, -187500.02235174447, 187500.0, 31148.474651393255, 33916.64879520521, 187500.0, 187500.0, -187500.02235174447, 30548.039740090342, -0.054, 0.98, -0.094, 192.0, 0.0, 0.0, 0.0, 0.0, 0.0, 0.0, 0.0, 0.0, 0.0, 1.6989589803916824E9, 0.0, 2023-11-02 17:03:00.391
149.0, -187500.02235174447, 187500.0, 31145.3007036806, 33915.128876582254, 187500.0, 187500.0, -187500.02235174447, 30544.46346097749, -0.054, 0.98, -0.094, 192.0, 0.0, 0.0, 0.0, 0.0, 0.0, 0.0, 0.0, 0.0, 0.0, 1.6989589803916965E9, 0.0, 2023-11-02 17:03:00.391
150.0, -187500.02235174447, 187500.0, 31144.339578669023, 33918.16871382818, 187500.0, 187500.0, -187500.02235174447, 30543.636446432647, -0.054, 0.98, -0.094, 192.0, 0.0, 0.0, 0.0, 0.0, 0.0, 0.0, 0.0, 0.0, 0.0, 1.6989589803917112E9, 0.0, 2023-11-02 17:03:00.391
151.0, -187500.02235174447, 187500.0, 31148.474651393255, 33919.19689407312, 187500.0, 187500.0, -187500.02235174447, 30546.653931934114, -0.054, 0.98, -0.094, 192.0, 0.0, 0.0, 0.0, 0.0, 0.0, 0.0, 0.0, 0.0, 0.0, 1.6989589803918164E9, 0.0, 2023-11-02 17:03:00.391
152.0, -187500.02235174447, 187500.0, 31159.203488731804, 33920.24742606252, 187500.0, 187500.0, -187500.02235174447, 30554.968780871488, -0.054, 0.98, -0.094, 192.0, 0.0, 0.0, 0.0, 0.0, 0.0, 0.0, 0.0, 0.0, 0.0, 1.6989589803918314E9, 0.0, 2023-11-02 17:03:00.391
153.0, -187500.02235174447, 187500.0, 31164.232631234245, 33919.86744640678, 187500.0, 187500.0, -187500.02235174447, 30558.09802509523, -0.054, 0.98, -0.094, 192.0, 0.0, 0.0, 0.0, 0.0, 0.0, 0.0, 0.0, 0.0, 0.0, 1.698958980391845E9, 0.0, 2023-11-02 17:03:00.391
154.0, -187500.02235174447, 187500.0, 31161.326904455058, 33917.60992021679, 187500.0, 187500.0, -187500.02235174447, 30552.688902937047, -0.054, 0.98, -0.094, 192.0, 0.0, 0.0, 0.0, 0.0, 0.0, 0.0, 0.0, 0.0, 0.0, 1.6989589803918595E9, 0.0, 2023-11-02 17:03:00.391
155.0, -187500.02235174447, 187500.0, 31160.49988991021, 33914.994766115524, 187500.0, 187500.0, -187500.02235174447, 30547.592705201234, -0.054, 0.98, -0.094, 192.0, 0.0, 0.0, 0.0, 0.0, 0.0, 0.0, 0.0, 0.0, 0.0, 1.698958980391894E9, 0.0, 2023-11-02 17:03:00.391
156.0, -187500.02235174447, 187500.0, 31162.042160277626, 33911.97728061405, 187500.0, 187500.0, -187500.02235174447, 30545.71515866699, -0.074, 0.968, -0.094, 192.0, 253.0, 176.0, 30.0, 64.0, 253.0, 16.0, 0.0, 0.0, 0.0, 1.698958980391906E9, 0.0, 2023-11-02 17:03:00.391
157.0, -187500.02235174447, 187500.0, 31173.59801216102, 33913.54190272593, 187500.0, 187500.0, -187500.02235174447, 30553.80649015981, -0.074, 0.968, -0.094, 192.0, 0.0, 0.0, 0.0, 0.0, 0.0, 0.0, 0.0, 0.0, 0.0, 1.698958980391925E9, 0.0, 2023-11-02 17:03:00.391
158.0, -187500.02235174447, 187500.0, 31174.380323216956, 33918.68280395064, 187500.0, 187500.0, -187500.02235174447, 30550.274914535872, -0.074, 0.968, -0.094, 192.0, 0.0, 0.0, 0.0, 0.0, 0.0, 0.0, 0.0, 0.0, 0.0, 1.6989589803919437E9, 0.0, 2023-11-02 17:03:00.391
159.0, -187500.02235174447, 187500.0, 31171.385189459943, 33919.48746675104, 187500.0, 187500.0, -187500.02235174447, 30543.68114992156, -0.074, 0.968, -0.094, 192.0, 0.0, 0.0, 0.0, 0.0, 0.0, 0.0, 0.0, 0.0, 0.0, 1.6989589803919575E9, 0.0, 2023-11-02 17:03:00.391
160.0, -187500.02235174447, 187500.0, 31179.45416920831, 33916.872312649764, 187500.0, 187500.0, -187500.02235174447, 30547.57035345678, -0.074, 0.968, -0.094, 192.0, 0.0, 0.0, 0.0, 0.0, 0.0, 0.0, 0.0, 0.0, 0.0, 1.6989589803919709E9, 0.0, 2023-11-02 17:03:00.391
161.0, -187500.02235174447, 187500.0, 31190.27241352468, 33922.14732434122, 187500.0, 187500.0, -187500.02235174447, 30556.04166460534, -0.074, 0.968, -0.094, 192.0, 0.0, 0.0, 0.0, 0.0, 0.0, 0.0, 0.0, 0.0, 0.0, 1.6989589803919888E9, 0.0, 2023-11-02 17:03:00.391
162.0, -187500.02235174447, 187500.0, 31187.567852445587, 33924.6060162313, 187500.0, 187500.0, -187500.02235174447, 30551.95129537002, -0.074, 0.968, -0.094, 192.0, 0.0, 0.0, 0.0, 0.0, 0.0, 0.0, 0.0, 0.0, 0.0, 1.6989589803920045E9, 0.0, 2023-11-02 17:03:00.392
163.0, -187500.02235174447, 187500.0, 31187.277279767666, 33925.81301043189, 187500.0, 187500.0, -187500.02235174447, 30549.090272079742, -0.074, 0.968, -0.094, 192.0, 0.0, 0.0, 0.0, 0.0, 0.0, 0.0, 0.0, 0.0, 0.0, 1.698958980392017E9, 0.0, 2023-11-02 17:03:00.392
164.0, -187500.02235174447, 187500.0, 31188.372515245977, 33922.23673131904, 187500.0, 187500.0, -187500.02235174447, 30546.542173211838, -0.074, 0.968, -0.094, 192.0, 0.0, 0.0, 0.0, 0.0, 0.0, 0.0, 0.0, 0.0, 0.0, 1.6989589803920312E9, 0.0, 2023-11-02 17:03:00.392
165.0, -187500.02235174447, 187500.0, 31193.334602515057, 33919.73333594004, 187500.0, 187500.0, -187500.02235174447, 30548.24090579044, -0.074, 0.968, -0.094, 192.0, 0.0, 0.0, 0.0, 0.0, 0.0, 0.0, 0.0, 0.0, 0.0, 1.6989589803920527E9, 0.0, 2023-11-02 17:03:00.392
166.0, -187500.02235174447, 187500.0, 31196.821474650085, 33919.50981849549, 187500.0, 187500.0, -187500.02235174447, 30548.352664512717, -0.08600000000000001, 0.974, -0.09, 192.0, 253.0, 80.0, 30.0, 112.0, 253.0, 48.0, 0.0, 0.0, 0.0, 1.6989589803921084E9, 0.0, 2023-11-02 17:03:00.392
167.0, -187500.02235174447, 187500.0, 31198.430800250866, 33924.42720227566, 187500.0, 187500.0, -187500.02235174447, 30546.76569065639, -0.08600000000000001, 0.974, -0.09, 192.0, 0.0, 0.0, 0.0, 0.0, 0.0, 0.0, 0.0, 0.0, 0.0, 1.6989589803921216E9, 0.0, 2023-11-02 17:03:00.392
168.0, -187500.02235174447, 187500.0, 31194.98863160475, 33922.884931908244, 187500.0, 187500.0, -187500.02235174447, 30540.842478375733, -0.08600000000000001, 0.974, -0.09, 192.0, 0.0, 0.0, 0.0, 0.0, 0.0, 0.0, 0.0, 0.0, 0.0, 1.69895898039214E9, 0.0, 2023-11-02 17:03:00.392
169.0, -187500.02235174447, 187500.0, 31195.525073471676, 33917.18523707214, 187500.0, 187500.0, -187500.02235174447, 30539.61313243069, -0.08600000000000001, 0.974, -0.09, 192.0, 0.0, 0.0, 0.0, 0.0, 0.0, 0.0, 0.0, 0.0, 0.0, 1.6989589803921585E9, 0.0, 2023-11-02 17:03:00.392
170.0, -187500.02235174447, 187500.0, 31202.431762508368, 33916.55938822739, 187500.0, 187500.0, -187500.02235174447, 30543.792908643834, -0.08600000000000001, 0.974, -0.09, 192.0, 0.0, 0.0, 0.0, 0.0, 0.0, 0.0, 0.0, 0.0, 0.0, 1.6989589803921747E9, 0.0, 2023-11-02 17:03:00.392
171.0, -187500.02235174447, 187500.0, 31207.75147768873, 33923.890760408736, 187500.0, 187500.0, -187500.02235174447, 30547.212725545494, -0.08600000000000001, 0.974, -0.09, 192.0, 0.0, 0.0, 0.0, 0.0, 0.0, 0.0, 0.0, 0.0, 0.0, 1.6989589803921916E9, 0.0, 2023-11-02 17:03:00.392
172.0, -187500.02235174447, 187500.0, 31206.70094569933, 33931.02096688998, 187500.0, 187500.0, -187500.02235174447, 30545.402234244615, -0.08600000000000001, 0.974, -0.09, 192.0, 0.0, 0.0, 0.0, 0.0, 0.0, 0.0, 0.0, 0.0, 0.0, 1.6989589803922107E9, 0.0, 2023-11-02 17:03:00.392
173.0, -187500.02235174447, 187500.0, 31203.571701475586, 33929.83632443385, 187500.0, 187500.0, -187500.02235174447, 30540.104870808707, -0.08600000000000001, 0.974, -0.09, 192.0, 0.0, 0.0, 0.0, 0.0, 0.0, 0.0, 0.0, 0.0, 0.0, 1.6989589803922284E9, 0.0, 2023-11-02 17:03:00.392
174.0, -187500.02235174447, 187500.0, 31214.3675940475, 33931.37859480126, 187500.0, 187500.0, -187500.02235174447, 30548.889106379644, -0.08600000000000001, 0.974, -0.09, 192.0, 0.0, 0.0, 0.0, 0.0, 0.0, 0.0, 0.0, 0.0, 0.0, 1.6989589803922465E9, 0.0, 2023-11-02 17:03:00.392
175.0, -187500.02235174447, 187500.0, 31219.03910863866, 33941.638045506246, 187500.0, 187500.0, -187500.02235174447, 30550.923115125075, -0.08600000000000001, 0.974, -0.09, 192.0, 0.0, 0.0, 0.0, 0.0, 0.0, 0.0, 0.0, 0.0, 0.0, 1.6989589803922625E9, 0.0, 2023-11-02 17:03:00.392
176.0, -187500.02235174447, 187500.0, 31215.328719059078, 33943.62735076277, 187500.0, 187500.0, -187500.02235174447, 30545.46928947798, -0.108, 0.968, -0.088, 192.0, 252.0, 160.0, 30.0, 64.0, 253.0, 64.0, 0.0, 0.0, 0.0, 1.6989589803922884E9, 0.0, 2023-11-02 17:03:00.392
177.0, -187500.02235174447, 187500.0, 31215.284015570167, 33939.93931292764, 187500.0, 187500.0, -187500.02235174447, 30544.351702255215, -0.108, 0.968, -0.088, 192.0, 0.0, 0.0, 0.0, 0.0, 0.0, 0.0, 0.0, 0.0, 0.0, 1.6989589803923056E9, 0.0, 2023-11-02 17:03:00.392
178.0, -187500.02235174447, 187500.0, 31217.295672571145, 33941.74980422852, 187500.0, 187500.0, -187500.02235174447, 30545.37988250016, -0.108, 0.968, -0.088, 192.0, 0.0, 0.0, 0.0, 0.0, 0.0, 0.0, 0.0, 0.0, 0.0, 1.6989589803923216E9, 0.0, 2023-11-02 17:03:00.392
179.0, -187500.02235174447, 187500.0, 31216.78158244867, 33945.259028108005, 187500.0, 187500.0, -187500.02235174447, 30543.144708054628, -0.108, 0.968, -0.088, 192.0, 0.0, 0.0, 0.0, 0.0, 0.0, 0.0, 0.0, 0.0, 0.0, 1.6989589803923376E9, 0.0, 2023-11-02 17:03:00.392
180.0, -187500.02235174447, 187500.0, 31220.31315807261, 33945.34843508583, 187500.0, 187500.0, -187500.02235174447, 30546.13984181164, -0.108, 0.968, -0.088, 192.0, 0.0, 0.0, 0.0, 0.0, 0.0, 0.0, 0.0, 0.0, 0.0, 1.698958980392352E9, 0.0, 2023-11-02 17:03:00.392
181.0, -187500.02235174447, 187500.0, 31223.308291829624, 33948.00829267601, 187500.0, 187500.0, -187500.02235174447, 30549.42554824657, -0.108, 0.968, -0.088, 192.0, 0.0, 0.0, 0.0, 0.0, 0.0, 0.0, 0.0, 0.0, 0.0, 1.698958980392434E9, 0.0, 2023-11-02 17:03:00.392
182.0, -187500.02235174447, 187500.0, 31221.27428308419, 33945.39313857474, 187500.0, 187500.0, -187500.02235174447, 30546.56452495629, -0.108, 0.968, -0.088, 192.0, 0.0, 0.0, 0.0, 0.0, 0.0, 0.0, 0.0, 0.0, 0.0, 1.6989589803924713E9, 0.0, 2023-11-02 17:03:00.392
183.0, -187500.02235174447, 187500.0, 31216.4686580263, 33940.296940838925, 187500.0, 187500.0, -187500.02235174447, 30539.546077197323, -0.108, 0.968, -0.088, 192.0, 0.0, 0.0, 0.0, 0.0, 0.0, 0.0, 0.0, 0.0, 0.0, 1.698958980392532E9, 0.0, 2023-11-02 17:03:00.392
184.0, -187500.02235174447, 187500.0, 31211.50657075722, 33937.27945533746, 187500.0, 187500.0, -187500.02235174447, 30533.108774794197, -0.108, 0.968, -0.088, 192.0, 0.0, 0.0, 0.0, 0.0, 0.0, 0.0, 0.0, 0.0, 0.0, 1.6989589803925593E9, 0.0, 2023-11-02 17:03:00.392
185.0, -187500.02235174447, 187500.0, 31212.668861468897, 33933.43495529115, 187500.0, 187500.0, -187500.02235174447, 30531.790021871333, -0.108, 0.968, -0.088, 192.0, 0.0, 0.0, 0.0, 0.0, 0.0, 0.0, 0.0, 0.0, 0.0, 1.6989589803925772E9, 0.0, 2023-11-02 17:03:00.392
186.0, -187500.02235174447, 187500.0, 31211.975957390783, 33928.00348138851, 187500.0, 187500.0, -187500.02235174447, 30528.392556714127, -0.098, 0.97, -0.09, 192.0, 252.0, 240.0, 30.0, 80.0, 253.0, 48.0, 0.0, 0.0, 0.0, 1.69895898039259E9, 0.0, 2023-11-02 17:03:00.392
187.0, -187500.02235174447, 187500.0, 31210.478390512275, 33932.272664579476, 187500.0, 187500.0, -187500.02235174447, 30527.386728213638, -0.098, 0.97, -0.09, 192.0, 0.0, 0.0, 0.0, 0.0, 0.0, 0.0, 0.0, 0.0, 0.0, 1.6989589803926053E9, 0.0, 2023-11-02 17:03:00.392
188.0, -187500.02235174447, 187500.0, 31207.37149803299, 33933.77023145798, 187500.0, 187500.0, -187500.02235174447, 30524.458649689994, -0.098, 0.97, -0.09, 192.0, 0.0, 0.0, 0.0, 0.0, 0.0, 0.0, 0.0, 0.0, 0.0, 1.6989589803926208E9, 0.0, 2023-11-02 17:03:00.392
189.0, -187500.02235174447, 187500.0, 31209.830189923072, 33926.729431954554, 187500.0, 187500.0, -187500.02235174447, 30526.023271801863, -0.098, 0.97, -0.09, 192.0, 0.0, 0.0, 0.0, 0.0, 0.0, 0.0, 0.0, 0.0, 0.0, 1.6989589803926387E9, 0.0, 2023-11-02 17:03:00.392
190.0, -187500.02235174447, 187500.0, 31218.055631882627, 33923.890760408736, 187500.0, 187500.0, -187500.02235174447, 30533.37699572766, -0.098, 0.97, -0.09, 192.0, 0.0, 0.0, 0.0, 0.0, 0.0, 0.0, 0.0, 0.0, 0.0, 1.6989589803926532E9, 0.0, 2023-11-02 17:03:00.392
191.0, -187500.02235174447, 187500.0, 31226.32577733109, 33930.48452502305, 187500.0, 187500.0, -187500.02235174447, 30540.395443486625, -0.098, 0.97, -0.09, 192.0, 0.0, 0.0, 0.0, 0.0, 0.0, 0.0, 0.0, 0.0, 0.0, 1.6989589803926654E9, 0.0, 2023-11-02 17:03:00.392
192.0, -187500.02235174447, 187500.0, 31226.571646520097, 33938.397042560224, 187500.0, 187500.0, -187500.02235174447, 30540.462498719993, -0.098, 0.97, -0.09, 192.0, 0.0, 0.0, 0.0, 0.0, 0.0, 0.0, 0.0, 0.0, 0.0, 1.6989589803926811E9, 0.0, 2023-11-02 17:03:00.392
193.0, -187500.02235174447, 187500.0, 31225.498762786243, 33935.24544659203, 187500.0, 187500.0, -187500.02235174447, 30538.540248696834, -0.098, 0.97, -0.09, 192.0, 0.0, 0.0, 0.0, 0.0, 0.0, 0.0, 0.0, 0.0, 0.0, 1.6989589803926945E9, 0.0, 2023-11-02 17:03:00.392
194.0, -187500.02235174447, 187500.0, 31225.141134874957, 33931.71387096809, 187500.0, 187500.0, -187500.02235174447, 30537.42266147407, -0.098, 0.97, -0.09, 192.0, 0.0, 0.0, 0.0, 0.0, 0.0, 0.0, 0.0, 0.0, 0.0, 1.6989589803927069E9, 0.0, 2023-11-02 17:03:00.392
195.0, -187500.02235174447, 187500.0, 31221.855428440027, 33934.66430123619, 187500.0, 187500.0, -187500.02235174447, 30534.293417250326, -0.098, 0.97, -0.09, 192.0, 0.0, 0.0, 0.0, 0.0, 0.0, 0.0, 0.0, 0.0, 0.0, 1.6989589803927207E9, 0.0, 2023-11-02 17:03:00.392
196.0, -187500.02235174447, 187500.0, 31225.69992848634, 33943.89557169623, 187500.0, 187500.0, -187500.02235174447, 30538.94258009703, -0.098, 0.964, -0.094, 192.0, 252.0, 240.0, 30.0, 32.0, 253.0, 16.0, 0.0, 0.0, 0.0, 1.6989589803928015E9, 0.0, 2023-11-02 17:03:00.392
197.0, -187500.02235174447, 187500.0, 31222.928312173884, 33950.7128537551, 187500.0, 187500.0, -187500.02235174447, 30539.14374579713, -0.098, 0.964, -0.094, 192.0, 0.0, 0.0, 0.0, 0.0, 0.0, 0.0, 0.0, 0.0, 0.0, 1.6989589803928275E9, 0.0, 2023-11-02 17:03:00.392
198.0, -187500.02235174447, 187500.0, 31213.629986480475, 33943.314426340396, 187500.0, 187500.0, -187500.02235174447, 30534.449879461514, -0.098, 0.964, -0.094, 192.0, 0.0, 0.0, 0.0, 0.0, 0.0, 0.0, 0.0, 0.0, 0.0, 1.6989589803928435E9, 0.0, 2023-11-02 17:03:00.392
199.0, -187500.02235174447, 187500.0, 31211.864198668507, 33945.974283930576, 187500.0, 187500.0, -187500.02235174447, 30535.589818428736, -0.098, 0.964, -0.094, 192.0, 0.0, 0.0, 0.0, 0.0, 0.0, 0.0, 0.0, 0.0, 0.0, 1.6989589803928566E9, 0.0, 2023-11-02 17:03:00.392
200.0, -187500.02235174447, 187500.0, 31214.5687597476, 33950.39992933273, 187500.0, 187500.0, -187500.02235174447, 30539.970760341974, -0.098, 0.964, -0.094, 192.0, 0.0, 0.0, 0.0, 0.0, 0.0, 0.0, 0.0, 0.0, 0.0, 1.698958980392871E9, 0.0, 2023-11-02 17:03:00.392
201.0, -187500.02235174447, 187500.0, 31211.12659110148, 33959.13946141475, 187500.0, 187500.0, -187500.02235174447, 30538.204972530006, -0.098, 0.964, -0.094, 192.0, 0.0, 0.0, 0.0, 0.0, 0.0, 0.0, 0.0, 0.0, 0.0, 1.6989589803928828E9, 0.0, 2023-11-02 17:03:00.392
202.0, -187500.02235174447, 187500.0, 31202.83409390856, 33957.12780441377, 187500.0, 187500.0, -187500.02235174447, 30532.37116722717, -0.098, 0.964, -0.094, 192.0, 0.0, 0.0, 0.0, 0.0, 0.0, 0.0, 0.0, 0.0, 0.0, 1.698958980392903E9, 0.0, 2023-11-02 17:03:00.392
203.0, -187500.02235174447, 187500.0, 31205.583358476564, 33953.48447006756, 187500.0, 187500.0, -187500.02235174447, 30538.830821374755, -0.098, 0.964, -0.094, 192.0, 0.0, 0.0, 0.0, 0.0, 0.0, 0.0, 0.0, 0.0, 0.0, 1.698958980392923E9, 0.0, 2023-11-02 17:03:00.392
204.0, -187500.02235174447, 187500.0, 31203.169370075393, 33957.06074918041, 187500.0, 187500.0, -187500.02235174447, 30541.24480977593, -0.098, 0.964, -0.094, 192.0, 0.0, 0.0, 0.0, 0.0, 0.0, 0.0, 0.0, 0.0, 0.0, 1.6989589803929372E9, 0.0, 2023-11-02 17:03:00.392
205.0, -187500.02235174447, 187500.0, 31200.97889911877, 33960.83819399335, 187500.0, 187500.0, -187500.02235174447, 30542.116527809685, -0.098, 0.964, -0.094, 192.0, 0.0, 0.0, 0.0, 0.0, 0.0, 0.0, 0.0, 0.0, 0.0, 1.6989589803929477E9, 0.0, 2023-11-02 17:03:00.392
206.0, -187500.02235174447, 187500.0, 31196.01681184969, 33953.99856019003, 187500.0, 187500.0, -187500.02235174447, 30539.389614986136, -0.074, 0.974, -0.098, 192.0, 253.0, 176.0, 30.0, 112.0, 252.0, 240.0, 0.0, 0.0, 0.0, 1.6989589803929648E9, 0.0, 2023-11-02 17:03:00.392
207.0, -187500.02235174447, 187500.0, 31188.283108268155, 33944.47671705207, 187500.0, 187500.0, -187500.02235174447, 30531.879428849155, -0.074, 0.974, -0.098, 192.0, 0.0, 0.0, 0.0, 0.0, 0.0, 0.0, 0.0, 0.0, 0.0, 1.6989589803929849E9, 0.0, 2023-11-02 17:03:00.392
208.0, -187500.02235174447, 187500.0, 31180.88468085345, 33946.734243242056, 187500.0, 187500.0, -187500.02235174447, 30527.543190424825, -0.074, 0.974, -0.098, 192.0, 0.0, 0.0, 0.0, 0.0, 0.0, 0.0, 0.0, 0.0, 0.0, 1.698958980393004E9, 0.0, 2023-11-02 17:03:00.393
209.0, -187500.02235174447, 187500.0, 31168.74768361422, 33948.58943803185, 187500.0, 187500.0, -187500.02235174447, 30521.642329888622, -0.074, 0.974, -0.098, 192.0, 0.0, 0.0, 0.0, 0.0, 0.0, 0.0, 0.0, 0.0, 0.0, 1.6989589803930292E9, 0.0, 2023-11-02 17:03:00.393
210.0, -187500.02235174447, 187500.0, 31162.869174822474, 33945.77311823048, 187500.0, 187500.0, -187500.02235174447, 30521.32940546625, -0.074, 0.974, -0.098, 192.0, 0.0, 0.0, 0.0, 0.0, 0.0, 0.0, 0.0, 0.0, 0.0, 1.6989589803930497E9, 0.0, 2023-11-02 17:03:00.393
211.0, -187500.02235174447, 187500.0, 31157.705921853296, 33944.94610368563, 187500.0, 187500.0, -187500.02235174447, 30520.815315343778, -0.074, 0.974, -0.098, 192.0, 0.0, 0.0, 0.0, 0.0, 0.0, 0.0, 0.0, 0.0, 0.0, 1.698958980393149E9, 0.0, 2023-11-02 17:03:00.393
212.0, -187500.02235174447, 187500.0, 31150.3521979275, 33940.43105130566, 187500.0, 187500.0, -187500.02235174447, 30518.691899620524, -0.074, 0.974, -0.098, 192.0, 0.0, 0.0, 0.0, 0.0, 0.0, 0.0, 0.0, 0.0, 0.0, 1.6989589803931673E9, 0.0, 2023-11-02 17:03:00.393
213.0, -187500.02235174447, 187500.0, 31134.795383786608, 33939.246408849525, 187500.0, 187500.0, -187500.02235174447, 30511.42758267255, -0.074, 0.974, -0.098, 192.0, 0.0, 0.0, 0.0, 0.0, 0.0, 0.0, 0.0, 0.0, 0.0, 1.6989589803931873E9, 0.0, 2023-11-02 17:03:00.393
214.0, -187500.02235174447, 187500.0, 31130.615607573465, 33936.34068207034, 187500.0, 187500.0, -187500.02235174447, 30512.902797806597, -0.074, 0.974, -0.098, 192.0, 0.0, 0.0, 0.0, 0.0, 0.0, 0.0, 0.0, 0.0, 0.0, 1.6989589803932016E9, 0.0, 2023-11-02 17:03:00.393
215.0, -187500.02235174447, 187500.0, 31128.2463226612, 33936.51949602598, 187500.0, 187500.0, -187500.02235174447, 30514.333309451737, -0.074, 0.974, -0.098, 192.0, 0.0, 0.0, 0.0, 0.0, 0.0, 0.0, 0.0, 0.0, 0.0, 1.6989589803932178E9, 0.0, 2023-11-02 17:03:00.393
216.0, -187500.02235174447, 187500.0, 31122.92660748084, 33938.57585651587, 187500.0, 187500.0, -187500.02235174447, 30511.449934417004, -0.058, 0.968, -0.1, 192.0, 254.0, 48.0, 30.0, 64.0, 252.0, 224.0, 0.0, 0.0, 0.0, 1.698958980393229E9, 0.0, 2023-11-02 17:03:00.393
217.0, -187500.02235174447, 187500.0, 31120.378508612936, 33940.31929258339, 187500.0, 187500.0, -187500.02235174447, 30510.645271616613, -0.058, 0.968, -0.1, 192.0, 0.0, 0.0, 0.0, 0.0, 0.0, 0.0, 0.0, 0.0, 0.0, 1.6989589803932443E9, 0.0, 2023-11-02 17:03:00.393
218.0, -187500.02235174447, 187500.0, 31115.036441688117, 33940.87808619477, 187500.0, 187500.0, -187500.02235174447, 30507.02428901485, -0.058, 0.968, -0.1, 192.0, 0.0, 0.0, 0.0, 0.0, 0.0, 0.0, 0.0, 0.0, 0.0, 1.6989589803932683E9, 0.0, 2023-11-02 17:03:00.393
219.0, -187500.02235174447, 187500.0, 31123.93243598133, 33942.77798447347, 187500.0, 187500.0, -187500.02235174447, 30517.194332742016, -0.058, 0.968, -0.1, 192.0, 0.0, 0.0, 0.0, 0.0, 0.0, 0.0, 0.0, 0.0, 0.0, 1.69895898039331E9, 0.0, 2023-11-02 17:03:00.393
220.0, -187500.02235174447, 187500.0, 31124.82650575954, 33942.0627286509, 187500.0, 187500.0, -187500.02235174447, 30519.094231020717, -0.058, 0.968, -0.1, 192.0, 0.0, 0.0, 0.0, 0.0, 0.0, 0.0, 0.0, 0.0, 0.0, 1.6989589803933315E9, 0.0, 2023-11-02 17:03:00.393
221.0, -187500.02235174447, 187500.0, 31113.851799231983, 33944.09673739633, 187500.0, 187500.0, -187500.02235174447, 30509.415925671572, -0.058, 0.968, -0.1, 192.0, 0.0, 0.0, 0.0, 0.0, 0.0, 0.0, 0.0, 0.0, 0.0, 1.6989589803933492E9, 0.0, 2023-11-02 17:03:00.393
222.0, -187500.02235174447, 187500.0, 31115.885807977418, 33947.47185080908, 187500.0, 187500.0, -187500.02235174447, 30509.99707102741, -0.058, 0.968, -0.1, 192.0, 0.0, 0.0, 0.0, 0.0, 0.0, 0.0, 0.0, 0.0, 0.0, 1.6989589803933656E9, 0.0, 2023-11-02 17:03:00.393
223.0, -187500.02235174447, 187500.0, 31123.10542143648, 33949.57291478788, 187500.0, 187500.0, -187500.02235174447, 30514.534475151835, -0.058, 0.968, -0.1, 192.0, 0.0, 0.0, 0.0, 0.0, 0.0, 0.0, 0.0, 0.0, 0.0, 1.6989589803933897E9, 0.0, 2023-11-02 17:03:00.393
224.0, -187500.02235174447, 187500.0, 31131.241456418215, 33952.746862500535, 187500.0, 187500.0, -187500.02235174447, 30520.882370577143, -0.058, 0.968, -0.1, 192.0, 0.0, 0.0, 0.0, 0.0, 0.0, 0.0, 0.0, 0.0, 0.0, 1.6989589803934171E9, 0.0, 2023-11-02 17:03:00.393
225.0, -187500.02235174447, 187500.0, 31133.476630863745, 33955.36201660181, 187500.0, 187500.0, -187500.02235174447, 30520.65885313259, -0.058, 0.968, -0.1, 192.0, 0.0, 0.0, 0.0, 0.0, 0.0, 0.0, 0.0, 0.0, 0.0, 1.69895898039344E9, 0.0, 2023-11-02 17:03:00.393
226.0, -187500.02235174447, 187500.0, 31145.099537980503, 33960.659380037716, 187500.0, 187500.0, -187500.02235174447, 30527.99022531393, -0.09, 0.9580000000000001, -0.108, 192.0, 253.0, 48.0, 29.0, 240.0, 252.0, 160.0, 0.0, 0.0, 0.0, 1.698958980393582E9, 0.0, 2023-11-02 17:03:00.393
227.0, -187500.02235174447, 187500.0, 31151.02275026116, 33964.548583572934, 187500.0, 187500.0, -187500.02235174447, 30527.99022531393, -0.09, 0.9580000000000001, -0.108, 192.0, 0.0, 0.0, 0.0, 0.0, 0.0, 0.0, 0.0, 0.0, 0.0, 1.6989589803936107E9, 0.0, 2023-11-02 17:03:00.393
228.0, -187500.02235174447, 187500.0, 31161.25984922169, 33966.29201964045, 187500.0, 187500.0, -187500.02235174447, 30533.466402705482, -0.09, 0.9580000000000001, -0.108, 192.0, 0.0, 0.0, 0.0, 0.0, 0.0, 0.0, 0.0, 0.0, 0.0, 1.6989589803936272E9, 0.0, 2023-11-02 17:03:00.393
229.0, -187500.02235174447, 187500.0, 31160.812814332585, 33966.448481851636, 187500.0, 187500.0, -187500.02235174447, 30532.013539315885, -0.09, 0.9580000000000001, -0.108, 192.0, 0.0, 0.0, 0.0, 0.0, 0.0, 0.0, 0.0, 0.0, 0.0, 1.6989589803936465E9, 0.0, 2023-11-02 17:03:00.393
230.0, -187500.02235174447, 187500.0, 31161.572773644064, 33970.82942376488, 187500.0, 187500.0, -187500.02235174447, 30532.61703641618, -0.09, 0.9580000000000001, -0.108, 192.0, 0.0, 0.0, 0.0, 0.0, 0.0, 0.0, 0.0, 0.0, 0.0, 1.698958980393675E9, 0.0, 2023-11-02 17:03:00.393
231.0, -187500.02235174447, 187500.0, 31169.954677814803, 33974.02572322199, 187500.0, 187500.0, -187500.02235174447, 30540.99894058692, -0.09, 0.9580000000000001, -0.108, 192.0, 0.0, 0.0, 0.0, 0.0, 0.0, 0.0, 0.0, 0.0, 0.0, 1.6989589803936973E9, 0.0, 2023-11-02 17:03:00.393
232.0, -187500.02235174447, 187500.0, 31176.727256384762, 33982.184109948175, 187500.0, 187500.0, -187500.02235174447, 30547.078615078764, -0.09, 0.9580000000000001, -0.108, 192.0, 0.0, 0.0, 0.0, 0.0, 0.0, 0.0, 0.0, 0.0, 0.0, 1.6989589803937294E9, 0.0, 2023-11-02 17:03:00.393
233.0, -187500.02235174447, 187500.0, 31170.334657470547, 33988.64376409576, 187500.0, 187500.0, -187500.02235174447, 30543.703501666012, -0.09, 0.9580000000000001, -0.108, 192.0, 0.0, 0.0, 0.0, 0.0, 0.0, 0.0, 0.0, 0.0, 0.0, 1.6989589803937604E9, 0.0, 2023-11-02 17:03:00.393
234.0, -187500.02235174447, 187500.0, 31162.869174822474, 33989.20255770714, 187500.0, 187500.0, -187500.02235174447, 30540.261333019895, -0.09, 0.9580000000000001, -0.108, 192.0, 0.0, 0.0, 0.0, 0.0, 0.0, 0.0, 0.0, 0.0, 0.0, 1.698958980393785E9, 0.0, 2023-11-02 17:03:00.393
235.0, -187500.02235174447, 187500.0, 31165.618439390477, 33984.66515358271, 187500.0, 187500.0, -187500.02235174447, 30544.262295277393, -0.09, 0.9580000000000001, -0.108, 192.0, 0.0, 0.0, 0.0, 0.0, 0.0, 0.0, 0.0, 0.0, 0.0, 1.6989589803938086E9, 0.0, 2023-11-02 17:03:00.393
236.0, -187500.02235174447, 187500.0, 31164.433796934343, 33986.56505186141, 187500.0, 187500.0, -187500.02235174447, 30546.09513832273, -0.088, 0.976, -0.112, 192.0, 253.0, 64.0, 30.0, 128.0, 252.0, 128.0, 0.0, 0.0, 0.0, 1.6989589803938313E9, 0.0, 2023-11-02 17:03:00.393
237.0, -187500.02235174447, 187500.0, 31159.4046544319, 33990.20838620763, 187500.0, 187500.0, -187500.02235174447, 30543.56939119928, -0.088, 0.976, -0.112, 192.0, 0.0, 0.0, 0.0, 0.0, 0.0, 0.0, 0.0, 0.0, 0.0, 1.698958980393852E9, 0.0, 2023-11-02 17:03:00.393
238.0, -187500.02235174447, 187500.0, 31152.006227017195, 33997.8750345558, 187500.0, 187500.0, -187500.02235174447, 30538.070862063276, -0.088, 0.976, -0.112, 192.0, 0.0, 0.0, 0.0, 0.0, 0.0, 0.0, 0.0, 0.0, 0.0, 1.698958980393876E9, 0.0, 2023-11-02 17:03:00.393
239.0, -187500.02235174447, 187500.0, 31152.363854928477, 33999.7749328345, 187500.0, 187500.0, -187500.02235174447, 30538.13791729664, -0.088, 0.976, -0.112, 192.0, 0.0, 0.0, 0.0, 0.0, 0.0, 0.0, 0.0, 0.0, 0.0, 1.698958980393894E9, 0.0, 2023-11-02 17:03:00.393
240.0, -187500.02235174447, 187500.0, 31154.710788096287, 34004.02176428101, 187500.0, 187500.0, -187500.02235174447, 30540.171926042072, -0.088, 0.976, -0.112, 192.0, 0.0, 0.0, 0.0, 0.0, 0.0, 0.0, 0.0, 0.0, 0.0, 1.698958980393935E9, 0.0, 2023-11-02 17:03:00.393
241.0, -187500.02235174447, 187500.0, 31158.242363720223, 34011.39783995126, 187500.0, 187500.0, -187500.02235174447, 30545.066958077787, -0.088, 0.976, -0.112, 192.0, 0.0, 0.0, 0.0, 0.0, 0.0, 0.0, 0.0, 0.0, 0.0, 1.6989589808719647E9, 0.0, 2023-11-02 17:03:00.871
242.0, -187500.02235174447, 187500.0, 31157.504756153197, 34021.23260751159, 187500.0, 187500.0, -187500.02235174447, 30545.961027856, -0.088, 0.976, -0.112, 192.0, 0.0, 0.0, 0.0, 0.0, 0.0, 0.0, 0.0, 0.0, 0.0, 1.6989589808720875E9, 0.0, 2023-11-02 17:03:00.872
243.0, -187500.02235174447, 187500.0, 31157.236535219734, 34025.50179070256, 187500.0, 187500.0, -187500.02235174447, 30546.296304022828, -0.088, 0.976, -0.112, 192.0, 0.0, 0.0, 0.0, 0.0, 0.0, 0.0, 0.0, 0.0, 0.0, 1.6989589808721104E9, 0.0, 2023-11-02 17:03:00.872
244.0, -187500.02235174447, 187500.0, 31160.432834676845, 34024.02657556851, 187500.0, 187500.0, -187500.02235174447, 30549.7608244134, -0.088, 0.976, -0.112, 192.0, 0.0, 0.0, 0.0, 0.0, 0.0, 0.0, 0.0, 0.0, 0.0, 1.6989589808721244E9, 0.0, 2023-11-02 17:03:00.872
245.0, -187500.02235174447, 187500.0, 31158.734102098242, 34029.83802912689, 187500.0, 187500.0, -187500.02235174447, 30548.464423234993, -0.088, 0.976, -0.112, 192.0, 0.0, 0.0, 0.0, 0.0, 0.0, 0.0, 0.0, 0.0, 0.0, 1.6989589808721375E9, 0.0, 2023-11-02 17:03:00.872
246.0, -187500.02235174447, 187500.0, 31155.6048578745, 34035.649482685265, 187500.0, 187500.0, -187500.02235174447, 30543.41292898809, -0.108, 0.97, -0.124, 192.0, 252.0, 160.0, 30.0, 80.0, 252.0, 32.0, 0.0, 0.0, 0.0, 1.69895898087216E9, 0.0, 2023-11-02 17:03:00.872
247.0, -187500.02235174447, 187500.0, 31153.63790436243, 34034.330729762405, 187500.0, 187500.0, -187500.02235174447, 30539.859001619698, -0.108, 0.97, -0.124, 192.0, 0.0, 0.0, 0.0, 0.0, 0.0, 0.0, 0.0, 0.0, 0.0, 1.6989589808721793E9, 0.0, 2023-11-02 17:03:00.872
248.0, -187500.02235174447, 187500.0, 31159.516413154175, 34033.86134312885, 187500.0, 187500.0, -187500.02235174447, 30545.782213900355, -0.108, 0.97, -0.124, 192.0, 0.0, 0.0, 0.0, 0.0, 0.0, 0.0, 0.0, 0.0, 0.0, 1.6989589808721921E9, 0.0, 2023-11-02 17:03:00.872
249.0, -187500.02235174447, 187500.0, 31155.426043918855, 34032.229665783605, 187500.0, 187500.0, -187500.02235174447, 30542.116527809685, -0.108, 0.97, -0.124, 192.0, 0.0, 0.0, 0.0, 0.0, 0.0, 0.0, 0.0, 0.0, 0.0, 1.698958980872234E9, 0.0, 2023-11-02 17:03:00.872
250.0, -187500.02235174447, 187500.0, 31149.41342466038, 34027.602854681354, 187500.0, 187500.0, -187500.02235174447, 30538.204972530006, -0.108, 0.97, -0.124, 192.0, 0.0, 0.0, 0.0, 0.0, 0.0, 0.0, 0.0, 0.0, 0.0, 1.6989589808722484E9, 0.0, 2023-11-02 17:03:00.872
251.0, -187500.02235174447, 187500.0, 31144.652503091398, 34023.288968001485, 187500.0, 187500.0, -187500.02235174447, 30534.919266095076, -0.108, 0.97, -0.124, 192.0, 0.0, 0.0, 0.0, 0.0, 0.0, 0.0, 0.0, 0.0, 0.0, 1.6989589808722632E9, 0.0, 2023-11-02 17:03:00.872
252.0, -187500.02235174447, 187500.0, 31146.015959503173, 34018.01395631003, 187500.0, 187500.0, -187500.02235174447, 30539.367263241682, -0.108, 0.97, -0.124, 192.0, 0.0, 0.0, 0.0, 0.0, 0.0, 0.0, 0.0, 0.0, 0.0, 1.6989589808722796E9, 0.0, 2023-11-02 17:03:00.872
253.0, -187500.02235174447, 187500.0, 31142.529087368144, 34004.84877882586, 187500.0, 187500.0, -187500.02235174447, 30536.84151611823, -0.108, 0.97, -0.124, 192.0, 0.0, 0.0, 0.0, 0.0, 0.0, 0.0, 0.0, 0.0, 0.0, 1.6989589808723004E9, 0.0, 2023-11-02 17:03:00.872
254.0, -187500.02235174447, 187500.0, 31132.87313376345, 33995.68456359918, 187500.0, 187500.0, -187500.02235174447, 30527.744356124924, -0.108, 0.97, -0.124, 192.0, 0.0, 0.0, 0.0, 0.0, 0.0, 0.0, 0.0, 0.0, 0.0, 1.6989589808723147E9, 0.0, 2023-11-02 17:03:00.872
255.0, -187500.02235174447, 187500.0, 31128.425136616843, 33984.03930473796, 187500.0, 187500.0, -187500.02235174447, 30522.625806644657, -0.108, 0.97, -0.124, 192.0, 0.0, 0.0, 0.0, 0.0, 0.0, 0.0, 0.0, 0.0, 0.0, 1.6989589808723345E9, 0.0, 2023-11-02 17:03:00.872
0.0, -187500.02235174447, 187500.0, 31126.994624971703, 33966.56024057391, 187500.0, 187500.0, -187500.02235174447, 30522.156420011095, -0.092, 0.992, -0.12, 192.0, 253.0, 32.0, 31.0, 0.0, 252.0, 64.0, 0.0, 0.0, 0.0, 1.6989589808726592E9, 0.0, 2023-11-02 17:03:00.872
1.0, -187500.02235174447, 187500.0, 31117.226912644735, 33939.313464082894, 187500.0, 187500.0, -187500.02235174447, 30516.009690285886, -0.092, 0.992, -0.12, 192.0, 0.0, 0.0, 0.0, 0.0, 0.0, 0.0, 0.0, 0.0, 0.0, 1.698958980872687E9, 0.0, 2023-11-02 17:03:00.872
2.0, -187500.02235174447, 187500.0, 31110.387278841412, 33923.48842900854, 187500.0, 187500.0, -187500.02235174447, 30513.21572222897, -0.092, 0.992, -0.12, 192.0, 0.0, 0.0, 0.0, 0.0, 0.0, 0.0, 0.0, 0.0, 0.0, 1.6989589808727016E9, 0.0, 2023-11-02 17:03:00.872
3.0, -187500.02235174447, 187500.0, 31101.848912459485, 33913.22897830355, 187500.0, 187500.0, -187500.02235174447, 30507.29250994832, -0.092, 0.992, -0.12, 192.0, 0.0, 0.0, 0.0, 0.0, 0.0, 0.0, 0.0, 0.0, 0.0, 1.6989589808727138E9, 0.0, 2023-11-02 17:03:00.872
4.0, -187500.02235174447, 187500.0, 31107.05686891757, 33902.701306665105, 187500.0, 187500.0, -187500.02235174447, 30511.762858839378, -0.092, 0.992, -0.12, 192.0, 0.0, 0.0, 0.0, 0.0, 0.0, 0.0, 0.0, 0.0, 0.0, 1.6989589808727276E9, 0.0, 2023-11-02 17:03:00.872
5.0, -187500.02235174447, 187500.0, 31112.711860264764, 33892.91124259368, 187500.0, 187500.0, -187500.02235174447, 30516.14380075262, -0.092, 0.992, -0.12, 192.0, 0.0, 0.0, 0.0, 0.0, 0.0, 0.0, 0.0, 0.0, 0.0, 1.6989589808727908E9, 0.0, 2023-11-02 17:03:00.872
6.0, -187500.02235174447, 187500.0, 31111.571921297542, 33890.318440236864, 187500.0, 187500.0, -187500.02235174447, 30512.43341117304, -0.092, 0.992, -0.12, 192.0, 0.0, 0.0, 0.0, 0.0, 0.0, 0.0, 0.0, 0.0, 0.0, 1.6989589808728027E9, 0.0, 2023-11-02 17:03:00.872
7.0, -187500.02235174447, 187500.0, 31108.889711962907, 33886.38453321273, 187500.0, 187500.0, -187500.02235174447, 30508.09717274871, -0.092, 0.992, -0.12, 192.0, 0.0, 0.0, 0.0, 0.0, 0.0, 0.0, 0.0, 0.0, 0.0, 1.6989589808728173E9, 0.0, 2023-11-02 17:03:00.872
8.0, -187500.02235174447, 187500.0, 31105.559302039066, 33872.5935068838, 187500.0, 187500.0, -187500.02235174447, 30506.532550636835, -0.092, 0.992, -0.12, 192.0, 0.0, 0.0, 0.0, 0.0, 0.0, 0.0, 0.0, 0.0, 0.0, 1.6989589808728335E9, 0.0, 2023-11-02 17:03:00.872
9.0, -187500.02235174447, 187500.0, 31104.709935749765, 33861.238820700506, 187500.0, 187500.0, -187500.02235174447, 30507.13604773713, -0.092, 0.992, -0.12, 192.0, 0.0, 0.0, 0.0, 0.0, 0.0, 0.0, 0.0, 0.0, 0.0, 1.6989589808728497E9, 0.0, 2023-11-02 17:03:00.872
10.0, -187500.02235174447, 187500.0, 31096.037458901104, 33856.477899131525, 187500.0, 187500.0, -187500.02235174447, 30498.754143566388, -0.082, 0.984, -0.108, 192.0, 253.0, 112.0, 30.0, 192.0, 252.0, 160.0, 0.0, 0.0, 0.0, 1.6989589808728628E9, 0.0, 2023-11-02 17:03:00.872
11.0, -187500.02235174447, 187500.0, 31086.605022740965, 33847.51484960495, 187500.0, 187500.0, -187500.02235174447, 30487.868844016655, -0.082, 0.984, -0.108, 192.0, 0.0, 0.0, 0.0, 0.0, 0.0, 0.0, 0.0, 0.0, 0.0, 1.6989589808728836E9, 0.0, 2023-11-02 17:03:00.872
12.0, -187500.02235174447, 187500.0, 31096.618604256942, 33838.26122740045, 187500.0, 187500.0, -187500.02235174447, 30497.70361157699, -0.082, 0.984, -0.108, 192.0, 0.0, 0.0, 0.0, 0.0, 0.0, 0.0, 0.0, 0.0, 0.0, 1.6989589808729017E9, 0.0, 2023-11-02 17:03:00.872
13.0, -187500.02235174447, 187500.0, 31103.435886315812, 33835.89194248819, 187500.0, 187500.0, -187500.02235174447, 30501.816332556766, -0.082, 0.984, -0.108, 192.0, 0.0, 0.0, 0.0, 0.0, 0.0, 0.0, 0.0, 0.0, 0.0, 1.6989589808729217E9, 0.0, 2023-11-02 17:03:00.872
14.0, -187500.02235174447, 187500.0, 31096.685659490307, 33828.67232902913, 187500.0, 187500.0, -187500.02235174447, 30494.08262897523, -0.082, 0.984, -0.108, 192.0, 0.0, 0.0, 0.0, 0.0, 0.0, 0.0, 0.0, 0.0, 0.0, 1.6989589808729355E9, 0.0, 2023-11-02 17:03:00.872
15.0, -187500.02235174447, 187500.0, 31096.73036297922, 33827.64414878418, 187500.0, 187500.0, -187500.02235174447, 30493.389724897115, -0.082, 0.984, -0.108, 192.0, 0.0, 0.0, 0.0, 0.0, 0.0, 0.0, 0.0, 0.0, 0.0, 1.6989589808729472E9, 0.0, 2023-11-02 17:03:00.872
16.0, -187500.02235174447, 187500.0, 31088.326107064022, 33818.94932019107, 187500.0, 187500.0, -187500.02235174447, 30482.16914918055, -0.082, 0.984, -0.108, 192.0, 0.0, 0.0, 0.0, 0.0, 0.0, 0.0, 0.0, 0.0, 0.0, 1.6989589808730378E9, 0.0, 2023-11-02 17:03:00.873
17.0, -187500.02235174447, 187500.0, 31085.06275237355, 33812.46731429903, 187500.0, 187500.0, -187500.02235174447, 30478.70462878998, -0.082, 0.984, -0.108, 192.0, 0.0, 0.0, 0.0, 0.0, 0.0, 0.0, 0.0, 0.0, 0.0, 1.6989589808730586E9, 0.0, 2023-11-02 17:03:00.873
18.0, -187500.02235174447, 187500.0, 31086.515615763143, 33817.87643645721, 187500.0, 187500.0, -187500.02235174447, 30483.21968116995, -0.082, 0.984, -0.108, 192.0, 0.0, 0.0, 0.0, 0.0, 0.0, 0.0, 0.0, 0.0, 0.0, 1.698958980873078E9, 0.0, 2023-11-02 17:03:00.873
19.0, -187500.02235174447, 187500.0, 31090.784798954108, 33828.448811584574, 187500.0, 187500.0, -187500.02235174447, 30489.61228008417, -0.082, 0.984, -0.108, 192.0, 0.0, 0.0, 0.0, 0.0, 0.0, 0.0, 0.0, 0.0, 0.0, 1.69895898087309E9, 0.0, 2023-11-02 17:03:00.873
20.0, -187500.02235174447, 187500.0, 31090.293060576092, 33833.45560234256, 187500.0, 187500.0, -187500.02235174447, 30488.539396350316, -0.074, 0.962, -0.1, 192.0, 253.0, 176.0, 30.0, 16.0, 252.0, 224.0, 0.0, 0.0, 0.0, 1.698958980873104E9, 0.0, 2023-11-02 17:03:00.873
21.0, -187500.02235174447, 187500.0, 31089.95778440926, 33830.01343369644, 187500.0, 187500.0, -187500.02235174447, 30486.28187016033, -0.074, 0.962, -0.1, 192.0, 0.0, 0.0, 0.0, 0.0, 0.0, 0.0, 0.0, 0.0, 0.0, 1.6989589808731265E9, 0.0, 2023-11-02 17:03:00.873
22.0, -187500.02235174447, 187500.0, 31095.67983098982, 33832.96386396454, 187500.0, 187500.0, -187500.02235174447, 30490.774570795846, -0.074, 0.962, -0.1, 192.0, 0.0, 0.0, 0.0, 0.0, 0.0, 0.0, 0.0, 0.0, 0.0, 1.698958980873148E9, 0.0, 2023-11-02 17:03:00.873
23.0, -187500.02235174447, 187500.0, 31100.999546170184, 33842.84333501379, 187500.0, 187500.0, -187500.02235174447, 30494.440256886515, -0.074, 0.962, -0.1, 192.0, 0.0, 0.0, 0.0, 0.0, 0.0, 0.0, 0.0, 0.0, 0.0, 1.6989589808731697E9, 0.0, 2023-11-02 17:03:00.873
24.0, -187500.02235174447, 187500.0, 31095.858644945463, 33851.515811862446, 187500.0, 187500.0, -187500.02235174447, 30489.142893450608, -0.074, 0.962, -0.1, 192.0, 0.0, 0.0, 0.0, 0.0, 0.0, 0.0, 0.0, 0.0, 0.0, 1.6989589808731863E9, 0.0, 2023-11-02 17:03:00.873
25.0, -187500.02235174447, 187500.0, 31098.093819390993, 33841.92691349112, 187500.0, 187500.0, -187500.02235174447, 30490.483998117925, -0.074, 0.962, -0.1, 192.0, 0.0, 0.0, 0.0, 0.0, 0.0, 0.0, 0.0, 0.0, 0.0, 1.6989589808732016E9, 0.0, 2023-11-02 17:03:00.873
26.0, -187500.02235174447, 187500.0, 31106.565130539555, 33843.58094258081, 187500.0, 187500.0, -187500.02235174447, 30497.435390643524, -0.074, 0.962, -0.1, 192.0, 0.0, 0.0, 0.0, 0.0, 0.0, 0.0, 0.0, 0.0, 0.0, 1.6989589808732126E9, 0.0, 2023-11-02 17:03:00.873
27.0, -187500.02235174447, 187500.0, 31110.499037563688, 33849.39239613919, 187500.0, 187500.0, -187500.02235174447, 30501.168131967563, -0.074, 0.962, -0.1, 192.0, 0.0, 0.0, 0.0, 0.0, 0.0, 0.0, 0.0, 0.0, 0.0, 1.6989589808732362E9, 0.0, 2023-11-02 17:03:00.873
28.0, -187500.02235174447, 187500.0, 31114.365889354456, 33856.544954364894, 187500.0, 187500.0, -187500.02235174447, 30506.197274470007, -0.074, 0.962, -0.1, 192.0, 0.0, 0.0, 0.0, 0.0, 0.0, 0.0, 0.0, 0.0, 0.0, 1.6989589808732564E9, 0.0, 2023-11-02 17:03:00.873
29.0, -187500.02235174447, 187500.0, 31117.4951335782, 33859.16010846617, 187500.0, 187500.0, -187500.02235174447, 30509.03594601583, -0.076, 0.972, -0.10400000000000001, 192.0, 253.0, 160.0, 30.0, 96.0, 252.0, 192.0, 0.0, 0.0, 0.0, 1.69895898087327E9, 0.0, 2023-11-02 17:03:00.873
30.0, -187500.02235174447, 187500.0, 31120.959653968774, 33854.488593875, 187500.0, 187500.0, -187500.02235174447, 30510.824085572254, -0.076, 0.972, -0.10400000000000001, 192.0, 0.0, 0.0, 0.0, 0.0, 0.0, 0.0, 0.0, 0.0, 0.0, 1.6989589808732915E9, 0.0, 2023-11-02 17:03:00.873
31.0, -187500.02235174447, 187500.0, 31119.752659768186, 33854.734463064015, 187500.0, 187500.0, -187500.02235174447, 30508.432448915537, -0.076, 0.972, -0.10400000000000001, 192.0, 0.0, 0.0, 0.0, 0.0, 0.0, 0.0, 0.0, 0.0, 0.0, 1.698958980873373E9, 0.0, 2023-11-02 17:03:00.873
32.0, -187500.02235174447, 187500.0, 31121.473744091243, 33858.60131485478, 187500.0, 187500.0, -187500.02235174447, 30511.0028995279, -0.076, 0.972, -0.10400000000000001, 192.0, 0.0, 0.0, 0.0, 0.0, 0.0, 0.0, 0.0, 0.0, 0.0, 1.6989589808733969E9, 0.0, 2023-11-02 17:03:00.873
33.0, -187500.02235174447, 187500.0, 31134.616569830963, 33870.44773941609, 187500.0, 187500.0, -187500.02235174447, 30525.308015979295, -0.076, 0.972, -0.10400000000000001, 192.0, 0.0, 0.0, 0.0, 0.0, 0.0, 0.0, 0.0, 0.0, 0.0, 1.698958980873412E9, 0.0, 2023-11-02 17:03:00.873
34.0, -187500.02235174447, 187500.0, 31145.792442058617, 33878.98610579802, 187500.0, 187500.0, -187500.02235174447, 30537.37795798516, -0.076, 0.972, -0.10400000000000001, 192.0, 0.0, 0.0, 0.0, 0.0, 0.0, 0.0, 0.0, 0.0, 0.0, 1.6989589808734255E9, 0.0, 2023-11-02 17:03:00.873
35.0, -187500.02235174447, 187500.0, 31156.051892763604, 33884.015248300464, 187500.0, 187500.0, -187500.02235174447, 30547.52564996787, -0.076, 0.972, -0.10400000000000001, 192.0, 0.0, 0.0, 0.0, 0.0, 0.0, 0.0, 0.0, 0.0, 0.0, 1.6989589808734396E9, 0.0, 2023-11-02 17:03:00.873
36.0, -187500.02235174447, 187500.0, 31152.363854928477, 33896.06283856188, 187500.0, 187500.0, -187500.02235174447, 30542.362396998695, -0.076, 0.972, -0.10400000000000001, 192.0, 0.0, 0.0, 0.0, 0.0, 0.0, 0.0, 0.0, 0.0, 0.0, 1.6989589808734553E9, 0.0, 2023-11-02 17:03:00.873
37.0, -187500.02235174447, 187500.0, 31142.59614260151, 33887.97150706905, 187500.0, 187500.0, -187500.02235174447, 30531.387690471136, -0.076, 0.972, -0.10400000000000001, 192.0, 0.0, 0.0, 0.0, 0.0, 0.0, 0.0, 0.0, 0.0, 0.0, 1.6989589808734736E9, 0.0, 2023-11-02 17:03:00.873
38.0, -187500.02235174447, 187500.0, 31141.34444491201, 33879.25432673148, 187500.0, 187500.0, -187500.02235174447, 30531.119469537673, -0.076, 0.972, -0.10400000000000001, 192.0, 0.0, 0.0, 0.0, 0.0, 0.0, 0.0, 0.0, 0.0, 0.0, 1.698958980873492E9, 0.0, 2023-11-02 17:03:00.873
39.0, -187500.02235174447, 187500.0, 31135.957674498284, 33878.82964358683, 187500.0, 187500.0, -187500.02235174447, 30527.274969491362, -0.076, 0.974, -0.10200000000000001, 192.0, 253.0, 160.0, 30.0, 112.0, 252.0, 208.0, 0.0, 0.0, 0.0, 1.69895898087351E9, 0.0, 2023-11-02 17:03:00.873
40.0, -187500.02235174447, 187500.0, 31135.108308208983, 33885.199890756594, 187500.0, 187500.0, -187500.02235174447, 30530.22539975946, -0.076, 0.974, -0.10200000000000001, 192.0, 0.0, 0.0, 0.0, 0.0, 0.0, 0.0, 0.0, 0.0, 0.0, 1.6989589808735428E9, 0.0, 2023-11-02 17:03:00.873
41.0, -187500.02235174447, 187500.0, 31139.35513965549, 33890.02786755894, 187500.0, 187500.0, -187500.02235174447, 30536.886219607142, -0.076, 0.974, -0.10200000000000001, 192.0, 0.0, 0.0, 0.0, 0.0, 0.0, 0.0, 0.0, 0.0, 0.0, 1.6989589808735642E9, 0.0, 2023-11-02 17:03:00.873
42.0, -187500.02235174447, 187500.0, 31140.316264667068, 33880.01428604296, 187500.0, 187500.0, -187500.02235174447, 30538.540248696834, -0.076, 0.974, -0.10200000000000001, 192.0, 0.0, 0.0, 0.0, 0.0, 0.0, 0.0, 0.0, 0.0, 0.0, 1.6989589808735864E9, 0.0, 2023-11-02 17:03:00.873
43.0, -187500.02235174447, 187500.0, 31141.746776312208, 33876.43800693012, 187500.0, 187500.0, -187500.02235174447, 30540.32838825326, -0.076, 0.974, -0.10200000000000001, 192.0, 0.0, 0.0, 0.0, 0.0, 0.0, 0.0, 0.0, 0.0, 0.0, 1.6989589808735988E9, 0.0, 2023-11-02 17:03:00.873
44.0, -187500.02235174447, 187500.0, 31137.87992452144, 33874.47105341805, 187500.0, 187500.0, -187500.02235174447, 30536.081556806752, -0.076, 0.974, -0.10200000000000001, 192.0, 0.0, 0.0, 0.0, 0.0, 0.0, 0.0, 0.0, 0.0, 0.0, 1.698958980873616E9, 0.0, 2023-11-02 17:03:00.873
45.0, -187500.02235174447, 187500.0, 31132.269636663157, 33873.532280150925, 187500.0, 187500.0, -187500.02235174447, 30528.928998581054, -0.076, 0.974, -0.10200000000000001, 192.0, 0.0, 0.0, 0.0, 0.0, 0.0, 0.0, 0.0, 0.0, 0.0, 1.6989589808736365E9, 0.0, 2023-11-02 17:03:00.873
46.0, -187500.02235174447, 187500.0, 31130.25797966218, 33859.40597765517, 187500.0, 187500.0, -187500.02235174447, 30526.313844479784, -0.076, 0.974, -0.10200000000000001, 192.0, 0.0, 0.0, 0.0, 0.0, 0.0, 0.0, 0.0, 0.0, 0.0, 1.6989589808737912E9, 0.0, 2023-11-02 17:03:00.873
47.0, -187500.02235174447, 187500.0, 31130.86147676247, 33850.666445573144, 187500.0, 187500.0, -187500.02235174447, 30528.146687525117, -0.076, 0.974, -0.10200000000000001, 192.0, 0.0, 0.0, 0.0, 0.0, 0.0, 0.0, 0.0, 0.0, 0.0, 1.6989589808738296E9, 0.0, 2023-11-02 17:03:00.873
48.0, -187500.02235174447, 187500.0, 31127.68752904982, 33854.19802119709, 187500.0, 187500.0, -187500.02235174447, 30526.917341580076, -0.076, 0.974, -0.10200000000000001, 192.0, 0.0, 0.0, 0.0, 0.0, 0.0, 0.0, 0.0, 0.0, 0.0, 1.6989589808738897E9, 0.0, 2023-11-02 17:03:00.873
49.0, -187500.02235174447, 187500.0, 31119.685604534818, 33856.92493402063, 187500.0, 187500.0, -187500.02235174447, 30520.48003917695, -0.066, 0.98, -0.1, 192.0, 253.0, 240.0, 30.0, 160.0, 252.0, 224.0, 0.0, 0.0, 0.0, 1.6989589808739097E9, 0.0, 2023-11-02 17:03:00.873
50.0, -187500.02235174447, 187500.0, 31119.283273134624, 33851.20288744007, 187500.0, 187500.0, -187500.02235174447, 30519.36245195418, -0.066, 0.98, -0.1, 192.0, 0.0, 0.0, 0.0, 0.0, 0.0, 0.0, 0.0, 0.0, 0.0, 1.6989589808739383E9, 0.0, 2023-11-02 17:03:00.873
51.0, -187500.02235174447, 187500.0, 31123.194828414304, 33848.788899038904, 187500.0, 187500.0, -187500.02235174447, 30523.922207823063, -0.066, 0.98, -0.1, 192.0, 0.0, 0.0, 0.0, 0.0, 0.0, 0.0, 0.0, 0.0, 0.0, 1.6989589808739665E9, 0.0, 2023-11-02 17:03:00.873
52.0, -187500.02235174447, 187500.0, 31125.34059588201, 33854.84622178629, 187500.0, 187500.0, -187500.02235174447, 30526.202085757508, -0.066, 0.98, -0.1, 192.0, 0.0, 0.0, 0.0, 0.0, 0.0, 0.0, 0.0, 0.0, 0.0, 1.698958980873988E9, 0.0, 2023-11-02 17:03:00.873
53.0, -187500.02235174447, 187500.0, 31122.63603480292, 33862.75873932347, 187500.0, 187500.0, -187500.02235174447, 30523.497524678412, -0.066, 0.98, -0.1, 192.0, 0.0, 0.0, 0.0, 0.0, 0.0, 0.0, 0.0, 0.0, 0.0, 1.69895898087401E9, 0.0, 2023-11-02 17:03:00.874
54.0, -187500.02235174447, 187500.0, 31119.551494068088, 33865.99974226949, 187500.0, 187500.0, -187500.02235174447, 30524.257483989895, -0.066, 0.98, -0.1, 192.0, 0.0, 0.0, 0.0, 0.0, 0.0, 0.0, 0.0, 0.0, 0.0, 1.6989589808740396E9, 0.0, 2023-11-02 17:03:00.874
55.0, -187500.02235174447, 187500.0, 31117.003395200183, 33863.473995146036, 187500.0, 187500.0, -187500.02235174447, 30524.235132245438, -0.066, 0.98, -0.1, 192.0, 0.0, 0.0, 0.0, 0.0, 0.0, 0.0, 0.0, 0.0, 0.0, 1.6989589808740625E9, 0.0, 2023-11-02 17:03:00.874
56.0, -187500.02235174447, 187500.0, 31122.144296424904, 33865.99974226949, 187500.0, 187500.0, -187500.02235174447, 30530.69478639302, -0.066, 0.98, -0.1, 192.0, 0.0, 0.0, 0.0, 0.0, 0.0, 0.0, 0.0, 0.0, 0.0, 1.6989589808740876E9, 0.0, 2023-11-02 17:03:00.874
57.0, -187500.02235174447, 187500.0, 31122.814848758564, 33874.716922607055, 187500.0, 187500.0, -187500.02235174447, 30531.722966637968, -0.066, 0.98, -0.1, 192.0, 0.0, 0.0, 0.0, 0.0, 0.0, 0.0, 0.0, 0.0, 0.0, 1.6989589808741207E9, 0.0, 2023-11-02 17:03:00.874
58.0, -187500.02235174447, 187500.0, 31116.958691711272, 33876.84033833031, 187500.0, 187500.0, -187500.02235174447, 30526.62676890216, -0.066, 0.98, -0.1, 192.0, 0.0, 0.0, 0.0, 0.0, 0.0, 0.0, 0.0, 0.0, 0.0, 1.6989589808741643E9, 0.0, 2023-11-02 17:03:00.874
59.0, -187500.02235174447, 187500.0, 31104.57582528303, 33868.25726845947, 187500.0, 187500.0, -187500.02235174447, 30513.37218444016, -0.076, 0.974, -0.106, 192.0, 253.0, 160.0, 30.0, 112.0, 252.0, 176.0, 0.0, 0.0, 0.0, 1.6989589808741899E9, 0.0, 2023-11-02 17:03:00.874
60.0, -187500.02235174447, 187500.0, 31098.83142695802, 33858.288390432404, 187500.0, 187500.0, -187500.02235174447, 30507.69484134851, -0.076, 0.974, -0.106, 192.0, 0.0, 0.0, 0.0, 0.0, 0.0, 0.0, 0.0, 0.0, 0.0, 1.6989589808742452E9, 0.0, 2023-11-02 17:03:00.874
61.0, -187500.02235174447, 187500.0, 31104.53112179412, 33869.33015219333, 187500.0, 187500.0, -187500.02235174447, 30513.37218444016, -0.076, 0.974, -0.106, 192.0, 0.0, 0.0, 0.0, 0.0, 0.0, 0.0, 0.0, 0.0, 0.0, 1.69895898087441E9, 0.0, 2023-11-02 17:03:00.874
62.0, -187500.02235174447, 187500.0, 31103.815865971552, 33869.21839347105, 187500.0, 187500.0, -187500.02235174447, 30512.65692861759, -0.076, 0.974, -0.106, 192.0, 0.0, 0.0, 0.0, 0.0, 0.0, 0.0, 0.0, 0.0, 0.0, 1.6989589808744392E9, 0.0, 2023-11-02 17:03:00.874
63.0, -187500.02235174447, 187500.0, 31111.14723815289, 33862.6916840901, 187500.0, 187500.0, -187500.02235174447, 30521.575274655257, -0.076, 0.974, -0.106, 192.0, 0.0, 0.0, 0.0, 0.0, 0.0, 0.0, 0.0, 0.0, 0.0, 1.6989589808744595E9, 0.0, 2023-11-02 17:03:00.874
64.0, -187500.02235174447, 187500.0, 31122.099592935992, 33871.96765803905, 187500.0, 187500.0, -187500.02235174447, 30536.23801901794, -0.076, 0.974, -0.106, 192.0, 0.0, 0.0, 0.0, 0.0, 0.0, 0.0, 0.0, 0.0, 0.0, 1.6989589808744795E9, 0.0, 2023-11-02 17:03:00.874
65.0, -187500.02235174447, 187500.0, 31123.91008423687, 33879.36608545376, 187500.0, 187500.0, -187500.02235174447, 30540.306036508806, -0.076, 0.974, -0.106, 192.0, 0.0, 0.0, 0.0, 0.0, 0.0, 0.0, 0.0, 0.0, 0.0, 1.6989589808744996E9, 0.0, 2023-11-02 17:03:00.874
66.0, -187500.02235174447, 187500.0, 31125.4970580932, 33882.204756999585, 187500.0, 187500.0, -187500.02235174447, 30541.84830687622, -0.076, 0.974, -0.106, 192.0, 0.0, 0.0, 0.0, 0.0, 0.0, 0.0, 0.0, 0.0, 0.0, 1.6989589808745189E9, 0.0, 2023-11-02 17:03:00.874
67.0, -187500.02235174447, 187500.0, 31125.385299370922, 33877.42148368615, 187500.0, 187500.0, -187500.02235174447, 30541.04364407583, -0.076, 0.974, -0.106, 192.0, 0.0, 0.0, 0.0, 0.0, 0.0, 0.0, 0.0, 0.0, 0.0, 1.6989589808745384E9, 0.0, 2023-11-02 17:03:00.874
68.0, -187500.02235174447, 187500.0, 31128.738061039217, 33874.873384818246, 187500.0, 187500.0, -187500.02235174447, 30543.23411503245, -0.076, 0.974, -0.106, 192.0, 0.0, 0.0, 0.0, 0.0, 0.0, 0.0, 0.0, 0.0, 0.0, 1.6989589808745556E9, 0.0, 2023-11-02 17:03:00.874
69.0, -187500.02235174447, 187500.0, 31129.810944773075, 33881.10952152128, 187500.0, 187500.0, -187500.02235174447, 30543.27881852136, -0.074, 0.976, -0.10400000000000001, 192.0, 253.0, 176.0, 30.0, 128.0, 252.0, 192.0, 0.0, 0.0, 0.0, 1.6989589808746076E9, 0.0, 2023-11-02 17:03:00.874
