%OpenBCI Raw EEG Data
%Number of channels = 8
%Sample Rate = 250 Hz
%Board = OpenBCI_GUI$BoardCytonSerial
Sample Index, EXG Channel 0, EXG Channel 1, EXG Channel 2, EXG Channel 3, EXG Channel 4, EXG Channel 5, EXG Channel 6, EXG Channel 7, Accel Channel 0, Accel Channel 1, Accel Channel 2, Other, Other, Other, Other, Other, Other, Other, Analog Channel 0, Analog Channel 1, Analog Channel 2, Timestamp, Other, Timestamp (Formatted)
181.0, -187500.02235174447, 187500.0, 30838.76888022052, 34761.96941876047, 187500.0, 187500.0, -187500.02235174447, 30831.01282489453, 0.0, 0.0, 0.0, 192.0, 0.0, 0.0, 0.0, 0.0, 0.0, 0.0, 0.0, 0.0, 0.0, 1.6989589726458857E9, 0.0, 2023-11-02 17:02:52.645
182.0, -187500.02235174447, 187500.0, 30835.930208674697, 34754.92861925705, 187500.0, 187500.0, -187500.02235174447, 30826.609531236834, 0.0, 0.0, 0.0, 192.0, 0.0, 0.0, 0.0, 0.0, 0.0, 0.0, 0.0, 0.0, 0.0, 1.6989589726459136E9, 0.0, 2023-11-02 17:02:52.645
183.0, -187500.02235174447, 187500.0, 30839.841763954377, 34751.88878201113, 187500.0, 187500.0, -187500.02235174447, 30827.5259527595, 0.0, 0.0, 0.0, 192.0, 0.0, 0.0, 0.0, 0.0, 0.0, 0.0, 0.0, 0.0, 0.0, 1.6989589726459234E9, 0.0, 2023-11-02 17:02:52.645
184.0, -187500.02235174447, 187500.0, 30839.953522676653, 34755.1521367016, 187500.0, 187500.0, -187500.02235174447, 30824.530819002488, -0.066, 0.98, -0.074, 192.0, 253.0, 240.0, 30.0, 160.0, 253.0, 176.0, 0.0, 0.0, 0.0, 1.698958972645933E9, 0.0, 2023-11-02 17:02:52.645
185.0, -187500.02235174447, 187500.0, 30835.10319412985, 34750.57002908827, 187500.0, 187500.0, -187500.02235174447, 30814.539589230968, -0.066, 0.98, -0.074, 192.0, 0.0, 0.0, 0.0, 0.0, 0.0, 0.0, 0.0, 0.0, 0.0, 1.6989589726459448E9, 0.0, 2023-11-02 17:02:52.645
186.0, -187500.02235174447, 187500.0, 30837.941865675675, 34743.05984295128, 187500.0, 187500.0, -187500.02235174447, 30814.181961319682, -0.066, 0.98, -0.074, 192.0, 0.0, 0.0, 0.0, 0.0, 0.0, 0.0, 0.0, 0.0, 0.0, 1.6989589726459548E9, 0.0, 2023-11-02 17:02:52.645
187.0, -187500.02235174447, 187500.0, 30839.081804642894, 34744.98209297444, 187500.0, 187500.0, -187500.02235174447, 30812.28206304098, -0.066, 0.98, -0.074, 192.0, 0.0, 0.0, 0.0, 0.0, 0.0, 0.0, 0.0, 0.0, 0.0, 1.6989589726459644E9, 0.0, 2023-11-02 17:02:52.645
188.0, -187500.02235174447, 187500.0, 30836.62311275281, 34742.27753189534, 187500.0, 187500.0, -187500.02235174447, 30808.303452527936, -0.066, 0.98, -0.074, 192.0, 0.0, 0.0, 0.0, 0.0, 0.0, 0.0, 0.0, 0.0, 0.0, 1.698958972645974E9, 0.0, 2023-11-02 17:02:52.645
189.0, -187500.02235174447, 187500.0, 30843.596857022865, 34747.08315695324, 187500.0, 187500.0, -187500.02235174447, 30813.019670608006, -0.066, 0.98, -0.074, 192.0, 0.0, 0.0, 0.0, 0.0, 0.0, 0.0, 0.0, 0.0, 0.0, 1.6989589726459837E9, 0.0, 2023-11-02 17:02:52.645
190.0, -187500.02235174447, 187500.0, 30849.989455937084, 34746.3008458973, 187500.0, 187500.0, -187500.02235174447, 30816.52889448749, -0.066, 0.98, -0.074, 192.0, 0.0, 0.0, 0.0, 0.0, 0.0, 0.0, 0.0, 0.0, 0.0, 1.6989589726459935E9, 0.0, 2023-11-02 17:02:52.645
191.0, -187500.02235174447, 187500.0, 30847.888391958284, 34735.05791843628, 187500.0, 187500.0, -187500.02235174447, 30812.170304318704, -0.066, 0.98, -0.074, 192.0, 0.0, 0.0, 0.0, 0.0, 0.0, 0.0, 0.0, 0.0, 0.0, 1.6989589726460032E9, 0.0, 2023-11-02 17:02:52.646
192.0, -187500.02235174447, 187500.0, 30851.19645013767, 34738.58949406022, 187500.0, 187500.0, -187500.02235174447, 30813.66787119721, -0.066, 0.98, -0.074, 192.0, 0.0, 0.0, 0.0, 0.0, 0.0, 0.0, 0.0, 0.0, 0.0, 1.6989589726460128E9, 0.0, 2023-11-02 17:02:52.646
193.0, -187500.02235174447, 187500.0, 30851.95640944915, 34740.33293012773, 187500.0, 187500.0, -187500.02235174447, 30813.600815963844, -0.066, 0.98, -0.074, 192.0, 0.0, 0.0, 0.0, 0.0, 0.0, 0.0, 0.0, 0.0, 0.0, 1.6989589726460223E9, 0.0, 2023-11-02 17:02:52.646
194.0, -187500.02235174447, 187500.0, 30849.788290236986, 34731.459287578975, 187500.0, 187500.0, -187500.02235174447, 30811.14212407376, -0.07, 0.972, -0.064, 192.0, 253.0, 208.0, 30.0, 96.0, 254.0, 0.0, 0.0, 0.0, 0.0, 1.698958972646032E9, 0.0, 2023-11-02 17:02:52.646
195.0, -187500.02235174447, 187500.0, 30856.29264787348, 34736.95781671498, 187500.0, 187500.0, -187500.02235174447, 30817.86999915481, -0.07, 0.972, -0.064, 192.0, 0.0, 0.0, 0.0, 0.0, 0.0, 0.0, 0.0, 0.0, 0.0, 1.6989589726460428E9, 0.0, 2023-11-02 17:02:52.646
196.0, -187500.02235174447, 187500.0, 30856.002075195564, 34745.31736914127, 187500.0, 187500.0, -187500.02235174447, 30817.400612521247, -0.07, 0.972, -0.064, 192.0, 0.0, 0.0, 0.0, 0.0, 0.0, 0.0, 0.0, 0.0, 0.0, 1.6989589726460524E9, 0.0, 2023-11-02 17:02:52.646
197.0, -187500.02235174447, 187500.0, 30849.274200114516, 34744.22213366296, 187500.0, 187500.0, -187500.02235174447, 30809.733964173076, -0.07, 0.972, -0.064, 192.0, 0.0, 0.0, 0.0, 0.0, 0.0, 0.0, 0.0, 0.0, 0.0, 1.6989589726462796E9, 0.0, 2023-11-02 17:02:52.646
198.0, -187500.02235174447, 187500.0, 30853.923362961217, 34736.89076148162, 187500.0, 187500.0, -187500.02235174447, 30810.739792673565, -0.07, 0.972, -0.064, 192.0, 0.0, 0.0, 0.0, 0.0, 0.0, 0.0, 0.0, 0.0, 0.0, 1.6989589726462896E9, 0.0, 2023-11-02 17:02:52.646
199.0, -187500.02235174447, 187500.0, 30855.756206006554, 34730.54286605631, 187500.0, 187500.0, -187500.02235174447, 30811.5221037295, -0.07, 0.972, -0.064, 192.0, 0.0, 0.0, 0.0, 0.0, 0.0, 0.0, 0.0, 0.0, 0.0, 1.6989589726462991E9, 0.0, 2023-11-02 17:02:52.646
200.0, -187500.02235174447, 187500.0, 30857.58904905189, 34734.342662613715, 187500.0, 187500.0, -187500.02235174447, 30812.349118274346, -0.07, 0.972, -0.064, 192.0, 0.0, 0.0, 0.0, 0.0, 0.0, 0.0, 0.0, 0.0, 0.0, 1.698958972646309E9, 0.0, 2023-11-02 17:02:52.646
201.0, -187500.02235174447, 187500.0, 30860.181851408703, 34738.5000870824, 187500.0, 187500.0, -187500.02235174447, 30815.05367935344, -0.07, 0.972, -0.064, 192.0, 0.0, 0.0, 0.0, 0.0, 0.0, 0.0, 0.0, 0.0, 0.0, 1.6989589726463184E9, 0.0, 2023-11-02 17:02:52.646
202.0, -187500.02235174447, 187500.0, 30860.45007234217, 34740.04235744981, 187500.0, 187500.0, -187500.02235174447, 30816.327728787393, -0.07, 0.972, -0.064, 192.0, 0.0, 0.0, 0.0, 0.0, 0.0, 0.0, 0.0, 0.0, 0.0, 1.698958972646328E9, 0.0, 2023-11-02 17:02:52.646
203.0, -187500.02235174447, 187500.0, 30863.892240988287, 34738.053052193296, 187500.0, 187500.0, -187500.02235174447, 30818.518199744012, -0.07, 0.972, -0.064, 192.0, 0.0, 0.0, 0.0, 0.0, 0.0, 0.0, 0.0, 0.0, 0.0, 1.69895897264634E9, 0.0, 2023-11-02 17:02:52.646
204.0, -187500.02235174447, 187500.0, 30868.742569535087, 34740.422337105556, 187500.0, 187500.0, -187500.02235174447, 30819.591083477866, -0.064, 0.968, -0.066, 192.0, 254.0, 0.0, 30.0, 64.0, 253.0, 240.0, 0.0, 0.0, 0.0, 1.6989589726463497E9, 0.0, 2023-11-02 17:02:52.646
205.0, -187500.02235174447, 187500.0, 30872.899994003776, 34744.199781918505, 187500.0, 187500.0, -187500.02235174447, 30821.78155443449, -0.064, 0.968, -0.066, 192.0, 0.0, 0.0, 0.0, 0.0, 0.0, 0.0, 0.0, 0.0, 0.0, 1.6989589726463597E9, 0.0, 2023-11-02 17:02:52.646
206.0, -187500.02235174447, 187500.0, 30870.575412580423, 34739.17063941606, 187500.0, 187500.0, -187500.02235174447, 30818.942882888663, -0.064, 0.968, -0.066, 192.0, 0.0, 0.0, 0.0, 0.0, 0.0, 0.0, 0.0, 0.0, 0.0, 1.6989589726463697E9, 0.0, 2023-11-02 17:02:52.646
207.0, -187500.02235174447, 187500.0, 30873.10115970387, 34734.07444168025, 187500.0, 187500.0, -187500.02235174447, 30821.490981756568, -0.064, 0.968, -0.066, 192.0, 0.0, 0.0, 0.0, 0.0, 0.0, 0.0, 0.0, 0.0, 0.0, 1.6989589726463792E9, 0.0, 2023-11-02 17:02:52.646
208.0, -187500.02235174447, 187500.0, 30873.794063781985, 34735.59436030321, 187500.0, 187500.0, -187500.02235174447, 30821.91566490122, -0.064, 0.968, -0.066, 192.0, 0.0, 0.0, 0.0, 0.0, 0.0, 0.0, 0.0, 0.0, 0.0, 1.698958972646389E9, 0.0, 2023-11-02 17:02:52.646
209.0, -187500.02235174447, 187500.0, 30877.660915572753, 34743.05984295128, 187500.0, 187500.0, -187500.02235174447, 30822.921493401707, -0.064, 0.968, -0.066, 192.0, 0.0, 0.0, 0.0, 0.0, 0.0, 0.0, 0.0, 0.0, 0.0, 1.6989589726463988E9, 0.0, 2023-11-02 17:02:52.646
210.0, -187500.02235174447, 187500.0, 30881.661877830255, 34741.22699990594, 187500.0, 187500.0, -187500.02235174447, 30821.20040907865, -0.064, 0.968, -0.066, 192.0, 0.0, 0.0, 0.0, 0.0, 0.0, 0.0, 0.0, 0.0, 0.0, 1.6989589726464112E9, 0.0, 2023-11-02 17:02:52.646
211.0, -187500.02235174447, 187500.0, 30888.613270355854, 34738.187162660026, 187500.0, 187500.0, -187500.02235174447, 30820.686318956177, -0.064, 0.968, -0.066, 192.0, 0.0, 0.0, 0.0, 0.0, 0.0, 0.0, 0.0, 0.0, 0.0, 1.6989589726464224E9, 0.0, 2023-11-02 17:02:52.646
212.0, -187500.02235174447, 187500.0, 30892.21190121316, 34737.82953474874, 187500.0, 187500.0, -187500.02235174447, 30818.62995846629, -0.064, 0.968, -0.066, 192.0, 0.0, 0.0, 0.0, 0.0, 0.0, 0.0, 0.0, 0.0, 0.0, 1.6989589726465075E9, 0.0, 2023-11-02 17:02:52.646
213.0, -187500.02235174447, 187500.0, 30892.547177379987, 34743.93156098504, 187500.0, 187500.0, -187500.02235174447, 30815.120734586806, -0.064, 0.968, -0.066, 192.0, 0.0, 0.0, 0.0, 0.0, 0.0, 0.0, 0.0, 0.0, 0.0, 1.6989589726465173E9, 0.0, 2023-11-02 17:02:52.646
214.0, -187500.02235174447, 187500.0, 30890.20024421218, 34740.71290978348, 187500.0, 187500.0, -187500.02235174447, 30808.459914739124, -0.05, 0.978, -0.052000000000000005, 192.0, 254.0, 112.0, 30.0, 144.0, 254.0, 96.0, 0.0, 0.0, 0.0, 1.698958972646527E9, 0.0, 2023-11-02 17:02:52.646
215.0, -187500.02235174447, 187500.0, 30886.10987497686, 34728.598264288696, 187500.0, 187500.0, -187500.02235174447, 30800.837969879864, -0.05, 0.978, -0.052000000000000005, 192.0, 0.0, 0.0, 0.0, 0.0, 0.0, 0.0, 0.0, 0.0, 0.0, 1.6989589726465375E9, 0.0, 2023-11-02 17:02:52.646
216.0, -187500.02235174447, 187500.0, 30884.724066820632, 34723.47971480843, 187500.0, 187500.0, -187500.02235174447, 30795.987641333064, -0.05, 0.978, -0.052000000000000005, 192.0, 0.0, 0.0, 0.0, 0.0, 0.0, 0.0, 0.0, 0.0, 0.0, 1.6989589726465476E9, 0.0, 2023-11-02 17:02:52.646
217.0, -187500.02235174447, 187500.0, 30886.378095910324, 34727.123049154645, 187500.0, 187500.0, -187500.02235174447, 30794.8700541103, -0.05, 0.978, -0.052000000000000005, 192.0, 0.0, 0.0, 0.0, 0.0, 0.0, 0.0, 0.0, 0.0, 0.0, 1.698958972646557E9, 0.0, 2023-11-02 17:02:52.646
218.0, -187500.02235174447, 187500.0, 30887.339220921902, 34728.73237475543, 187500.0, 187500.0, -187500.02235174447, 30793.841873865353, -0.05, 0.978, -0.052000000000000005, 192.0, 0.0, 0.0, 0.0, 0.0, 0.0, 0.0, 0.0, 0.0, 0.0, 1.6989589726465669E9, 0.0, 2023-11-02 17:02:52.646
219.0, -187500.02235174447, 187500.0, 30894.469427403146, 34727.97241544395, 187500.0, 187500.0, -187500.02235174447, 30797.440504722657, -0.05, 0.978, -0.052000000000000005, 192.0, 0.0, 0.0, 0.0, 0.0, 0.0, 0.0, 0.0, 0.0, 0.0, 1.698958972646577E9, 0.0, 2023-11-02 17:02:52.646
220.0, -187500.02235174447, 187500.0, 30897.106933248873, 34726.05016542079, 187500.0, 187500.0, -187500.02235174447, 30797.775780889486, -0.05, 0.978, -0.052000000000000005, 192.0, 0.0, 0.0, 0.0, 0.0, 0.0, 0.0, 0.0, 0.0, 0.0, 1.6989589726465862E9, 0.0, 2023-11-02 17:02:52.646
221.0, -187500.02235174447, 187500.0, 30896.078753003927, 34728.12887765514, 187500.0, 187500.0, -187500.02235174447, 30795.339440743857, -0.05, 0.978, -0.052000000000000005, 192.0, 0.0, 0.0, 0.0, 0.0, 0.0, 0.0, 0.0, 0.0, 0.0, 1.698958972646596E9, 0.0, 2023-11-02 17:02:52.646
222.0, -187500.02235174447, 187500.0, 30893.821226813943, 34723.7479357419, 187500.0, 187500.0, -187500.02235174447, 30790.734981386064, -0.05, 0.978, -0.052000000000000005, 192.0, 0.0, 0.0, 0.0, 0.0, 0.0, 0.0, 0.0, 0.0, 0.0, 1.6989589726466055E9, 0.0, 2023-11-02 17:02:52.646
223.0, -187500.02235174447, 187500.0, 30900.280880961524, 34718.58468277272, 187500.0, 187500.0, -187500.02235174447, 30795.18297853267, -0.05, 0.978, -0.052000000000000005, 192.0, 0.0, 0.0, 0.0, 0.0, 0.0, 0.0, 0.0, 0.0, 0.0, 1.6989589726466153E9, 0.0, 2023-11-02 17:02:52.646
224.0, -187500.02235174447, 187500.0, 30910.875607833343, 34724.95492994248, 187500.0, 187500.0, -187500.02235174447, 30800.18976929066, -0.056, 0.98, -0.05, 192.0, 254.0, 64.0, 30.0, 160.0, 254.0, 112.0, 0.0, 0.0, 0.0, 1.6989589726466262E9, 0.0, 2023-11-02 17:02:52.646
225.0, -187500.02235174447, 187500.0, 30921.917369594263, 34740.914075483575, 187500.0, 187500.0, -187500.02235174447, 30807.94582461665, -0.056, 0.98, -0.05, 192.0, 0.0, 0.0, 0.0, 0.0, 0.0, 0.0, 0.0, 0.0, 0.0, 1.6989589726466372E9, 0.0, 2023-11-02 17:02:52.646
226.0, -187500.02235174447, 187500.0, 30914.764811368565, 34742.90338074009, 187500.0, 187500.0, -187500.02235174447, 30797.842836122854, -0.056, 0.98, -0.05, 192.0, 0.0, 0.0, 0.0, 0.0, 0.0, 0.0, 0.0, 0.0, 0.0, 1.6989589726466467E9, 0.0, 2023-11-02 17:02:52.646
227.0, -187500.02235174447, 187500.0, 30917.49172419211, 34736.51078182588, 187500.0, 187500.0, -187500.02235174447, 30796.971118089095, -0.056, 0.98, -0.05, 192.0, 0.0, 0.0, 0.0, 0.0, 0.0, 0.0, 0.0, 0.0, 0.0, 1.6989589726466668E9, 0.0, 2023-11-02 17:02:52.646
228.0, -187500.02235174447, 187500.0, 30925.650110918297, 34735.25908413638, 187500.0, 187500.0, -187500.02235174447, 30802.357888502826, -0.056, 0.98, -0.05, 192.0, 0.0, 0.0, 0.0, 0.0, 0.0, 0.0, 0.0, 0.0, 0.0, 1.6989589726466763E9, 0.0, 2023-11-02 17:02:52.646
229.0, -187500.02235174447, 187500.0, 30929.807535386986, 34737.270741137356, 187500.0, 187500.0, -187500.02235174447, 30802.491998969555, -0.056, 0.98, -0.05, 192.0, 0.0, 0.0, 0.0, 0.0, 0.0, 0.0, 0.0, 0.0, 0.0, 1.6989589726466863E9, 0.0, 2023-11-02 17:02:52.646
230.0, -187500.02235174447, 187500.0, 30929.986349342627, 34736.13080217013, 187500.0, 187500.0, -187500.02235174447, 30797.976946589584, -0.056, 0.98, -0.05, 192.0, 0.0, 0.0, 0.0, 0.0, 0.0, 0.0, 0.0, 0.0, 0.0, 1.6989589726466959E9, 0.0, 2023-11-02 17:02:52.646
231.0, -187500.02235174447, 187500.0, 30935.64134068982, 34736.33196787023, 187500.0, 187500.0, -187500.02235174447, 30801.352060002337, -0.056, 0.98, -0.05, 192.0, 0.0, 0.0, 0.0, 0.0, 0.0, 0.0, 0.0, 0.0, 0.0, 1.6989589726467054E9, 0.0, 2023-11-02 17:02:52.646
232.0, -187500.02235174447, 187500.0, 30937.4518319907, 34737.36014811518, 187500.0, 187500.0, -187500.02235174447, 30801.352060002337, -0.056, 0.98, -0.05, 192.0, 0.0, 0.0, 0.0, 0.0, 0.0, 0.0, 0.0, 0.0, 0.0, 1.698958972646715E9, 0.0, 2023-11-02 17:02:52.646
233.0, -187500.02235174447, 187500.0, 30941.922180881764, 34740.489392338925, 187500.0, 187500.0, -187500.02235174447, 30803.162551303216, -0.056, 0.98, -0.05, 192.0, 0.0, 0.0, 0.0, 0.0, 0.0, 0.0, 0.0, 0.0, 0.0, 1.6989589726467245E9, 0.0, 2023-11-02 17:02:52.646
234.0, -187500.02235174447, 187500.0, 30940.804593659, 34740.22117140546, 187500.0, 187500.0, -187500.02235174447, 30799.34040300136, -0.052000000000000005, 0.98, -0.048, 192.0, 254.0, 96.0, 30.0, 160.0, 254.0, 128.0, 0.0, 0.0, 0.0, 1.698958972646734E9, 0.0, 2023-11-02 17:02:52.646
235.0, -187500.02235174447, 187500.0, 30940.961055870182, 34736.48843008142, 187500.0, 187500.0, -187500.02235174447, 30798.803961134432, -0.052000000000000005, 0.98, -0.048, 192.0, 0.0, 0.0, 0.0, 0.0, 0.0, 0.0, 0.0, 0.0, 0.0, 1.6989589726467445E9, 0.0, 2023-11-02 17:02:52.646
236.0, -187500.02235174447, 187500.0, 30942.525677982056, 34731.883970723626, 187500.0, 187500.0, -187500.02235174447, 30799.250996023537, -0.052000000000000005, 0.98, -0.048, 192.0, 0.0, 0.0, 0.0, 0.0, 0.0, 0.0, 0.0, 0.0, 0.0, 1.698958972646754E9, 0.0, 2023-11-02 17:02:52.646
237.0, -187500.02235174447, 187500.0, 30940.089337836427, 34728.84413347771, 187500.0, 187500.0, -187500.02235174447, 30795.38414423277, -0.052000000000000005, 0.98, -0.048, 192.0, 0.0, 0.0, 0.0, 0.0, 0.0, 0.0, 0.0, 0.0, 0.0, 1.6989589726467636E9, 0.0, 2023-11-02 17:02:52.646
238.0, -187500.02235174447, 187500.0, 30937.2506662906, 34729.782906744826, 187500.0, 187500.0, -187500.02235174447, 30791.80786511992, -0.052000000000000005, 0.98, -0.048, 192.0, 0.0, 0.0, 0.0, 0.0, 0.0, 0.0, 0.0, 0.0, 0.0, 1.698958972646773E9, 0.0, 2023-11-02 17:02:52.646
239.0, -187500.02235174447, 187500.0, 30941.810422159488, 34734.81204924727, 187500.0, 187500.0, -187500.02235174447, 30793.6183564208, -0.052000000000000005, 0.98, -0.048, 192.0, 0.0, 0.0, 0.0, 0.0, 0.0, 0.0, 0.0, 0.0, 0.0, 1.6989589726467829E9, 0.0, 2023-11-02 17:02:52.646
240.0, -187500.02235174447, 187500.0, 30942.65978844879, 34735.795526003305, 187500.0, 187500.0, -187500.02235174447, 30792.500769198035, -0.052000000000000005, 0.98, -0.048, 192.0, 0.0, 0.0, 0.0, 0.0, 0.0, 0.0, 0.0, 0.0, 0.0, 1.6989589726467924E9, 0.0, 2023-11-02 17:02:52.646
241.0, -187500.02235174447, 187500.0, 30953.50038450961, 34740.422337105556, 187500.0, 187500.0, -187500.02235174447, 30800.39093499076, -0.052000000000000005, 0.98, -0.048, 192.0, 0.0, 0.0, 0.0, 0.0, 0.0, 0.0, 0.0, 0.0, 0.0, 1.698958972646802E9, 0.0, 2023-11-02 17:02:52.646
242.0, -187500.02235174447, 187500.0, 30960.429425290757, 34746.3008458973, 187500.0, 187500.0, -187500.02235174447, 30799.7203826571, -0.052000000000000005, 0.98, -0.048, 192.0, 0.0, 0.0, 0.0, 0.0, 0.0, 0.0, 0.0, 0.0, 0.0, 1.6989589726468315E9, 0.0, 2023-11-02 17:02:52.646
243.0, -187500.02235174447, 187500.0, 30968.967791672683, 34746.25614240839, 187500.0, 187500.0, -187500.02235174447, 30799.116885556807, -0.052000000000000005, 0.98, -0.048, 192.0, 0.0, 0.0, 0.0, 0.0, 0.0, 0.0, 0.0, 0.0, 0.0, 1.6989589726468413E9, 0.0, 2023-11-02 17:02:52.646
244.0, -187500.02235174447, 187500.0, 30975.807425476007, 34749.228924420946, 187500.0, 187500.0, -187500.02235174447, 30800.055658823927, -0.066, 0.97, -0.042, 192.0, 253.0, 240.0, 30.0, 80.0, 254.0, 176.0, 0.0, 0.0, 0.0, 1.6989589726468508E9, 0.0, 2023-11-02 17:02:52.646
245.0, -187500.02235174447, 187500.0, 30976.433274320756, 34743.95391272949, 187500.0, 187500.0, -187500.02235174447, 30796.680545411178, -0.066, 0.97, -0.042, 192.0, 0.0, 0.0, 0.0, 0.0, 0.0, 0.0, 0.0, 0.0, 0.0, 1.6989589726468625E9, 0.0, 2023-11-02 17:02:52.646
246.0, -187500.02235174447, 187500.0, 30970.040675406537, 34738.99182546041, 187500.0, 187500.0, -187500.02235174447, 30787.38221971777, -0.066, 0.97, -0.042, 192.0, 0.0, 0.0, 0.0, 0.0, 0.0, 0.0, 0.0, 0.0, 0.0, 1.6989589726468723E9, 0.0, 2023-11-02 17:02:52.646
247.0, -187500.02235174447, 187500.0, 30973.393437074836, 34739.39415686061, 187500.0, 187500.0, -187500.02235174447, 30787.650440651232, -0.066, 0.97, -0.042, 192.0, 0.0, 0.0, 0.0, 0.0, 0.0, 0.0, 0.0, 0.0, 0.0, 1.6989589726468818E9, 0.0, 2023-11-02 17:02:52.646
248.0, -187500.02235174447, 187500.0, 30985.441027336245, 34750.190049432524, 187500.0, 187500.0, -187500.02235174447, 30798.401629734235, -0.066, 0.97, -0.042, 192.0, 0.0, 0.0, 0.0, 0.0, 0.0, 0.0, 0.0, 0.0, 0.0, 1.6989589726468914E9, 0.0, 2023-11-02 17:02:52.646
249.0, -187500.02235174447, 187500.0, 30990.045486694038, 34751.106470955194, 187500.0, 187500.0, -187500.02235174447, 30802.402591991737, -0.066, 0.97, -0.042, 192.0, 0.0, 0.0, 0.0, 0.0, 0.0, 0.0, 0.0, 0.0, 0.0, 1.698958972646901E9, 0.0, 2023-11-02 17:02:52.646
250.0, -187500.02235174447, 187500.0, 30990.89485298334, 34747.08315695324, 187500.0, 187500.0, -187500.02235174447, 30800.7709146465, -0.066, 0.97, -0.042, 192.0, 0.0, 0.0, 0.0, 0.0, 0.0, 0.0, 0.0, 0.0, 0.0, 1.6989589726469104E9, 0.0, 2023-11-02 17:02:52.646
251.0, -187500.02235174447, 187500.0, 30988.07853318197, 34747.485488353435, 187500.0, 187500.0, -187500.02235174447, 30797.10522855583, -0.066, 0.97, -0.042, 192.0, 0.0, 0.0, 0.0, 0.0, 0.0, 0.0, 0.0, 0.0, 0.0, 1.69895897264692E9, 0.0, 2023-11-02 17:02:52.646
252.0, -187500.02235174447, 187500.0, 30987.89971922633, 34745.518534841365, 187500.0, 187500.0, -187500.02235174447, 30796.546434944445, -0.066, 0.97, -0.042, 192.0, 0.0, 0.0, 0.0, 0.0, 0.0, 0.0, 0.0, 0.0, 0.0, 1.6989589726469295E9, 0.0, 2023-11-02 17:02:52.646
253.0, -187500.02235174447, 187500.0, 30984.010515691105, 34737.11427892617, 187500.0, 187500.0, -187500.02235174447, 30792.634879664765, -0.066, 0.97, -0.042, 192.0, 0.0, 0.0, 0.0, 0.0, 0.0, 0.0, 0.0, 0.0, 0.0, 1.6989589726469393E9, 0.0, 2023-11-02 17:02:52.646
254.0, -187500.02235174447, 187500.0, 30991.788922761552, 34736.220209147956, 187500.0, 187500.0, -187500.02235174447, 30797.73107740058, -0.06, 0.978, -0.044, 192.0, 254.0, 32.0, 30.0, 144.0, 254.0, 160.0, 0.0, 0.0, 0.0, 1.6989589726469488E9, 0.0, 2023-11-02 17:02:52.646
255.0, -187500.02235174447, 187500.0, 30996.773361775086, 34741.942255728514, 187500.0, 187500.0, -187500.02235174447, 30801.977908847086, -0.06, 0.978, -0.044, 192.0, 0.0, 0.0, 0.0, 0.0, 0.0, 0.0, 0.0, 0.0, 0.0, 1.698958972646959E9, 0.0, 2023-11-02 17:02:52.646
0.0, -187500.02235174447, 187500.0, 31003.076553711482, 34747.97722673145, 187500.0, 187500.0, -187500.02235174447, 30806.403554249235, -0.06, 0.978, -0.044, 192.0, 0.0, 0.0, 0.0, 0.0, 0.0, 0.0, 0.0, 0.0, 0.0, 1.6989589726469686E9, 0.0, 2023-11-02 17:02:52.646
1.0, -187500.02235174447, 187500.0, 31004.66352756781, 34746.32319764176, 187500.0, 187500.0, -187500.02235174447, 30807.208217049625, -0.06, 0.978, -0.044, 192.0, 0.0, 0.0, 0.0, 0.0, 0.0, 0.0, 0.0, 0.0, 0.0, 1.6989589726469862E9, 0.0, 2023-11-02 17:02:52.646
2.0, -187500.02235174447, 187500.0, 31002.5177601001, 34747.329026142244, 187500.0, 187500.0, -187500.02235174447, 30804.70482167063, -0.06, 0.978, -0.044, 192.0, 0.0, 0.0, 0.0, 0.0, 0.0, 0.0, 0.0, 0.0, 0.0, 1.6989589726469965E9, 0.0, 2023-11-02 17:02:52.646
3.0, -187500.02235174447, 187500.0, 31002.718925800196, 34746.077328452746, 187500.0, 187500.0, -187500.02235174447, 30803.117847814305, -0.06, 0.978, -0.044, 192.0, 0.0, 0.0, 0.0, 0.0, 0.0, 0.0, 0.0, 0.0, 0.0, 1.6989589726470065E9, 0.0, 2023-11-02 17:02:52.647
4.0, -187500.02235174447, 187500.0, 31004.998803734637, 34743.39511911811, 187500.0, 187500.0, -187500.02235174447, 30802.80492339193, -0.06, 0.978, -0.044, 192.0, 0.0, 0.0, 0.0, 0.0, 0.0, 0.0, 0.0, 0.0, 0.0, 1.698958972647016E9, 0.0, 2023-11-02 17:02:52.647
5.0, -187500.02235174447, 187500.0, 31007.636309580364, 34741.78579351733, 187500.0, 187500.0, -187500.02235174447, 30803.18490304767, -0.06, 0.978, -0.044, 192.0, 0.0, 0.0, 0.0, 0.0, 0.0, 0.0, 0.0, 0.0, 0.0, 1.6989589726470256E9, 0.0, 2023-11-02 17:02:52.647
6.0, -187500.02235174447, 187500.0, 31005.55759734602, 34741.22699990594, 187500.0, 187500.0, -187500.02235174447, 30799.09453381235, -0.06, 0.978, -0.044, 192.0, 0.0, 0.0, 0.0, 0.0, 0.0, 0.0, 0.0, 0.0, 0.0, 1.6989589726470351E9, 0.0, 2023-11-02 17:02:52.647
7.0, -187500.02235174447, 187500.0, 30998.785018776063, 34737.67307253755, 187500.0, 187500.0, -187500.02235174447, 30790.645574408245, -0.06, 0.978, -0.044, 192.0, 0.0, 0.0, 0.0, 0.0, 0.0, 0.0, 0.0, 0.0, 0.0, 1.698958972647045E9, 0.0, 2023-11-02 17:02:52.647
8.0, -187500.02235174447, 187500.0, 30996.70630654172, 34733.22507539095, 187500.0, 187500.0, -187500.02235174447, 30786.17522551718, -0.06, 0.974, -0.038, 192.0, 254.0, 32.0, 30.0, 112.0, 254.0, 208.0, 0.0, 0.0, 0.0, 1.6989589726470544E9, 0.0, 2023-11-02 17:02:52.647
9.0, -187500.02235174447, 187500.0, 30995.544015830044, 34723.45736306398, 187500.0, 187500.0, -187500.02235174447, 30783.47066443809, -0.06, 0.974, -0.038, 192.0, 0.0, 0.0, 0.0, 0.0, 0.0, 0.0, 0.0, 0.0, 0.0, 1.6989589726470644E9, 0.0, 2023-11-02 17:02:52.647
10.0, -187500.02235174447, 187500.0, 30993.264137895603, 34719.61286301766, 187500.0, 187500.0, -187500.02235174447, 30780.09555102534, -0.06, 0.974, -0.038, 192.0, 0.0, 0.0, 0.0, 0.0, 0.0, 0.0, 0.0, 0.0, 0.0, 1.698958972647074E9, 0.0, 2023-11-02 17:02:52.647
11.0, -187500.02235174447, 187500.0, 30993.062972195505, 34721.6468717631, 187500.0, 187500.0, -187500.02235174447, 30779.536757413956, -0.06, 0.974, -0.038, 192.0, 0.0, 0.0, 0.0, 0.0, 0.0, 0.0, 0.0, 0.0, 0.0, 1.698958972647085E9, 0.0, 2023-11-02 17:02:52.647
12.0, -187500.02235174447, 187500.0, 30989.821969249486, 34725.245502620404, 187500.0, 187500.0, -187500.02235174447, 30777.32393471288, -0.06, 0.974, -0.038, 192.0, 0.0, 0.0, 0.0, 0.0, 0.0, 0.0, 0.0, 0.0, 0.0, 1.6989589726470945E9, 0.0, 2023-11-02 17:02:52.647
13.0, -187500.02235174447, 187500.0, 30992.37006811739, 34723.859694464176, 187500.0, 187500.0, -187500.02235174447, 30778.262707980004, -0.06, 0.974, -0.038, 192.0, 0.0, 0.0, 0.0, 0.0, 0.0, 0.0, 0.0, 0.0, 0.0, 1.698958972647104E9, 0.0, 2023-11-02 17:02:52.647
14.0, -187500.02235174447, 187500.0, 30988.36910585989, 34716.081287393725, 187500.0, 187500.0, -187500.02235174447, 30772.38419918826, -0.06, 0.974, -0.038, 192.0, 0.0, 0.0, 0.0, 0.0, 0.0, 0.0, 0.0, 0.0, 0.0, 1.6989589726471136E9, 0.0, 2023-11-02 17:02:52.647
15.0, -187500.02235174447, 187500.0, 30991.565405317, 34716.88595019412, 187500.0, 187500.0, -187500.02235174447, 30773.43473117766, -0.06, 0.974, -0.038, 192.0, 0.0, 0.0, 0.0, 0.0, 0.0, 0.0, 0.0, 0.0, 0.0, 1.698958972647123E9, 0.0, 2023-11-02 17:02:52.647
16.0, -187500.02235174447, 187500.0, 30990.93955647225, 34721.73627874092, 187500.0, 187500.0, -187500.02235174447, 30770.260783465004, -0.06, 0.974, -0.038, 192.0, 0.0, 0.0, 0.0, 0.0, 0.0, 0.0, 0.0, 0.0, 0.0, 1.6989589726471407E9, 0.0, 2023-11-02 17:02:52.647
17.0, -187500.02235174447, 187500.0, 30993.04062045105, 34720.88691245162, 187500.0, 187500.0, -187500.02235174447, 30772.451254421623, -0.06, 0.974, -0.038, 192.0, 0.0, 0.0, 0.0, 0.0, 0.0, 0.0, 0.0, 0.0, 0.0, 1.6989589726471505E9, 0.0, 2023-11-02 17:02:52.647
18.0, -187500.02235174447, 187500.0, 30995.90164374133, 34719.63521476212, 187500.0, 187500.0, -187500.02235174447, 30774.70878061161, -0.074, 0.976, -0.048, 192.0, 253.0, 176.0, 30.0, 128.0, 254.0, 128.0, 0.0, 0.0, 0.0, 1.6989589726471617E9, 0.0, 2023-11-02 17:02:52.647
19.0, -187500.02235174447, 187500.0, 31000.439047865755, 34722.56329328576, 187500.0, 187500.0, -187500.02235174447, 30775.53579515646, -0.074, 0.976, -0.048, 192.0, 0.0, 0.0, 0.0, 0.0, 0.0, 0.0, 0.0, 0.0, 0.0, 1.6989589726471722E9, 0.0, 2023-11-02 17:02:52.647
20.0, -187500.02235174447, 187500.0, 31004.50706535662, 34735.01321494737, 187500.0, 187500.0, -187500.02235174447, 30778.352114957826, -0.074, 0.976, -0.048, 192.0, 0.0, 0.0, 0.0, 0.0, 0.0, 0.0, 0.0, 0.0, 0.0, 1.6989589726471815E9, 0.0, 2023-11-02 17:02:52.647
21.0, -187500.02235174447, 187500.0, 31003.367126389403, 34736.24256089241, 187500.0, 187500.0, -187500.02235174447, 30774.41820793369, -0.074, 0.976, -0.048, 192.0, 0.0, 0.0, 0.0, 0.0, 0.0, 0.0, 0.0, 0.0, 0.0, 1.6989589726471913E9, 0.0, 2023-11-02 17:02:52.647
22.0, -187500.02235174447, 187500.0, 31012.129010215882, 34734.16384865807, 187500.0, 187500.0, -187500.02235174447, 30777.90508006872, -0.074, 0.976, -0.048, 192.0, 0.0, 0.0, 0.0, 0.0, 0.0, 0.0, 0.0, 0.0, 0.0, 1.6989589726472008E9, 0.0, 2023-11-02 17:02:52.647
23.0, -187500.02235174447, 187500.0, 31019.5721411195, 34738.72360452695, 187500.0, 187500.0, -187500.02235174447, 30780.90021382573, -0.074, 0.976, -0.048, 192.0, 0.0, 0.0, 0.0, 0.0, 0.0, 0.0, 0.0, 0.0, 0.0, 1.6989589726472104E9, 0.0, 2023-11-02 17:02:52.647
24.0, -187500.02235174447, 187500.0, 31023.103716743437, 34743.79745051831, 187500.0, 187500.0, -187500.02235174447, 30780.27436498098, -0.074, 0.976, -0.048, 192.0, 0.0, 0.0, 0.0, 0.0, 0.0, 0.0, 0.0, 0.0, 0.0, 1.69895897264722E9, 0.0, 2023-11-02 17:02:52.647
25.0, -187500.02235174447, 187500.0, 31037.587647150478, 34748.22309592046, 187500.0, 187500.0, -187500.02235174447, 30787.829254606877, -0.074, 0.976, -0.048, 192.0, 0.0, 0.0, 0.0, 0.0, 0.0, 0.0, 0.0, 0.0, 0.0, 1.6989589726472294E9, 0.0, 2023-11-02 17:02:52.647
26.0, -187500.02235174447, 187500.0, 31050.5293071901, 34747.887819753625, 187500.0, 187500.0, -187500.02235174447, 30794.981812832575, -0.074, 0.976, -0.048, 192.0, 0.0, 0.0, 0.0, 0.0, 0.0, 0.0, 0.0, 0.0, 0.0, 1.698958972647239E9, 0.0, 2023-11-02 17:02:52.647
27.0, -187500.02235174447, 187500.0, 31057.592458437975, 34752.8052035338, 187500.0, 187500.0, -187500.02235174447, 30797.418152978204, -0.08600000000000001, 0.984, -0.058, 192.0, 253.0, 80.0, 30.0, 192.0, 254.0, 48.0, 0.0, 0.0, 0.0, 1.6989589726472485E9, 0.0, 2023-11-02 17:02:52.647
28.0, -187500.02235174447, 187500.0, 31062.934525362794, 34757.16379370258, 187500.0, 187500.0, -187500.02235174447, 30798.4686849676, -0.08600000000000001, 0.984, -0.058, 192.0, 0.0, 0.0, 0.0, 0.0, 0.0, 0.0, 0.0, 0.0, 0.0, 1.6989589726472597E9, 0.0, 2023-11-02 17:02:52.647
29.0, -187500.02235174447, 187500.0, 31069.371827765925, 34760.56125885979, 187500.0, 187500.0, -187500.02235174447, 30800.18976929066, -0.08600000000000001, 0.984, -0.058, 192.0, 0.0, 0.0, 0.0, 0.0, 0.0, 0.0, 0.0, 0.0, 0.0, 1.6989589726472692E9, 0.0, 2023-11-02 17:02:52.647
30.0, -187500.02235174447, 187500.0, 31076.81495866954, 34760.22598269296, 187500.0, 187500.0, -187500.02235174447, 30802.4696472251, -0.08600000000000001, 0.984, -0.058, 192.0, 0.0, 0.0, 0.0, 0.0, 0.0, 0.0, 0.0, 0.0, 0.0, 1.6989589726472788E9, 0.0, 2023-11-02 17:02:52.647
31.0, -187500.02235174447, 187500.0, 31072.09874058947, 34750.92765699955, 187500.0, 187500.0, -187500.02235174447, 30793.57365293189, -0.08600000000000001, 0.984, -0.058, 192.0, 0.0, 0.0, 0.0, 0.0, 0.0, 0.0, 0.0, 0.0, 0.0, 1.6989589726472971E9, 0.0, 2023-11-02 17:02:52.647
32.0, -187500.02235174447, 187500.0, 31071.67405744482, 34752.246409922416, 187500.0, 187500.0, -187500.02235174447, 30791.293774997448, -0.08600000000000001, 0.984, -0.058, 192.0, 0.0, 0.0, 0.0, 0.0, 0.0, 0.0, 0.0, 0.0, 0.0, 1.6989589726473093E9, 0.0, 2023-11-02 17:02:52.647
33.0, -187500.02235174447, 187500.0, 31072.14344407838, 34754.07925296775, 187500.0, 187500.0, -187500.02235174447, 30790.89144359725, -0.08600000000000001, 0.984, -0.058, 192.0, 0.0, 0.0, 0.0, 0.0, 0.0, 0.0, 0.0, 0.0, 0.0, 1.6989589726473198E9, 0.0, 2023-11-02 17:02:52.647
34.0, -187500.02235174447, 187500.0, 31076.47968250271, 34752.4028721336, 187500.0, 187500.0, -187500.02235174447, 30795.47355121059, -0.08600000000000001, 0.984, -0.058, 192.0, 0.0, 0.0, 0.0, 0.0, 0.0, 0.0, 0.0, 0.0, 0.0, 1.6989589726473303E9, 0.0, 2023-11-02 17:02:52.647
35.0, -187500.02235174447, 187500.0, 31078.20076682577, 34750.01123547688, 187500.0, 187500.0, -187500.02235174447, 30796.43467622217, -0.08600000000000001, 0.984, -0.058, 192.0, 0.0, 0.0, 0.0, 0.0, 0.0, 0.0, 0.0, 0.0, 0.0, 1.6989589726473403E9, 0.0, 2023-11-02 17:02:52.647
36.0, -187500.02235174447, 187500.0, 31076.323220291524, 34751.665264566574, 187500.0, 187500.0, -187500.02235174447, 30795.18297853267, -0.08600000000000001, 0.984, -0.058, 192.0, 0.0, 0.0, 0.0, 0.0, 0.0, 0.0, 0.0, 0.0, 0.0, 1.6989589726473508E9, 0.0, 2023-11-02 17:02:52.647
37.0, -187500.02235174447, 187500.0, 31069.327124277013, 34756.269723924364, 187500.0, 187500.0, -187500.02235174447, 30788.566862173902, -0.08, 0.98, -0.054, 192.0, 253.0, 128.0, 30.0, 160.0, 254.0, 80.0, 0.0, 0.0, 0.0, 1.6989589726473615E9, 0.0, 2023-11-02 17:02:52.647
38.0, -187500.02235174447, 187500.0, 31068.455406243254, 34752.89461051162, 187500.0, 187500.0, -187500.02235174447, 30787.315164484404, -0.08, 0.98, -0.054, 192.0, 0.0, 0.0, 0.0, 0.0, 0.0, 0.0, 0.0, 0.0, 0.0, 1.6989589726473725E9, 0.0, 2023-11-02 17:02:52.647
39.0, -187500.02235174447, 187500.0, 31073.685714445797, 34753.98984598993, 187500.0, 187500.0, -187500.02235174447, 30793.037211064962, -0.08, 0.98, -0.054, 192.0, 0.0, 0.0, 0.0, 0.0, 0.0, 0.0, 0.0, 0.0, 0.0, 1.6989589726473823E9, 0.0, 2023-11-02 17:02:52.647
40.0, -187500.02235174447, 187500.0, 31072.925755134318, 34757.6555320806, 187500.0, 187500.0, -187500.02235174447, 30792.545472686947, -0.08, 0.98, -0.054, 192.0, 0.0, 0.0, 0.0, 0.0, 0.0, 0.0, 0.0, 0.0, 0.0, 1.698958972647395E9, 0.0, 2023-11-02 17:02:52.647
41.0, -187500.02235174447, 187500.0, 31074.82565341302, 34763.466985638974, 187500.0, 187500.0, -187500.02235174447, 30791.405533719724, -0.08, 0.98, -0.054, 192.0, 0.0, 0.0, 0.0, 0.0, 0.0, 0.0, 0.0, 0.0, 0.0, 1.6989589726474118E9, 0.0, 2023-11-02 17:02:52.647
42.0, -187500.02235174447, 187500.0, 31076.882013902905, 34764.13753797264, 187500.0, 187500.0, -187500.02235174447, 30794.132446543274, -0.08, 0.98, -0.054, 192.0, 0.0, 0.0, 0.0, 0.0, 0.0, 0.0, 0.0, 0.0, 0.0, 1.6989589726474276E9, 0.0, 2023-11-02 17:02:52.647
43.0, -187500.02235174447, 187500.0, 31077.261993558648, 34765.2551251954, 187500.0, 187500.0, -187500.02235174447, 30797.820484378397, -0.08, 0.98, -0.054, 192.0, 0.0, 0.0, 0.0, 0.0, 0.0, 0.0, 0.0, 0.0, 0.0, 1.6989589726474419E9, 0.0, 2023-11-02 17:02:52.647
44.0, -187500.02235174447, 187500.0, 31076.099702846972, 34766.350360673714, 187500.0, 187500.0, -187500.02235174447, 30798.066353567407, -0.08, 0.98, -0.054, 192.0, 0.0, 0.0, 0.0, 0.0, 0.0, 0.0, 0.0, 0.0, 0.0, 1.6989589726474848E9, 0.0, 2023-11-02 17:02:52.647
45.0, -187500.02235174447, 187500.0, 31077.887842403394, 34767.669113596574, 187500.0, 187500.0, -187500.02235174447, 30799.89919661274, -0.08, 0.98, -0.054, 192.0, 0.0, 0.0, 0.0, 0.0, 0.0, 0.0, 0.0, 0.0, 0.0, 1.6989589726474986E9, 0.0, 2023-11-02 17:02:52.647
46.0, -187500.02235174447, 187500.0, 31082.805226183562, 34768.47377639697, 187500.0, 187500.0, -187500.02235174447, 30805.91181587122, -0.08, 0.98, -0.054, 192.0, 0.0, 0.0, 0.0, 0.0, 0.0, 0.0, 0.0, 0.0, 0.0, 1.6989589726475284E9, 0.0, 2023-11-02 17:02:52.647
47.0, -187500.02235174447, 187500.0, 31083.878109917416, 34763.64579959462, 187500.0, 187500.0, -187500.02235174447, 30808.415211250212, -0.07, 0.98, -0.054, 192.0, 253.0, 208.0, 30.0, 160.0, 254.0, 80.0, 0.0, 0.0, 0.0, 1.698958972647611E9, 0.0, 2023-11-02 17:02:52.647
0.0, 0.0, 0.0, 0.0, 0.0, 0.0, 0.0, 0.0, 0.0, -0.062, 0.976, -0.064, 192.0, 254.0, 16.0, 30.0, 128.0, 254.0, 0.0, 0.0, 0.0, 0.0, 1.6989589727263963E9, 0.0, 2023-11-02 17:02:52.726
1.0, -187500.02235174447, 187500.0, 31053.412682224833, 34563.262410552794, 187500.0, 187500.0, -187500.02235174447, 30778.307411468915, -0.062, 0.976, -0.064, 192.0, 0.0, 0.0, 0.0, 0.0, 0.0, 0.0, 0.0, 0.0, 0.0, 1.6989589727424629E9, 0.0, 2023-11-02 17:02:52.742
2.0, -187500.02235174447, 187500.0, 31062.733359662696, 34574.70650371391, 187500.0, 187500.0, -187500.02235174447, 30787.650440651232, -0.062, 0.976, -0.064, 192.0, 0.0, 0.0, 0.0, 0.0, 0.0, 0.0, 0.0, 0.0, 0.0, 1.6989589732203372E9, 0.0, 2023-11-02 17:02:53.220
3.0, -187500.02235174447, 187500.0, 31059.514708461134, 34585.94943117493, 187500.0, 187500.0, -187500.02235174447, 30784.52119642749, -0.062, 0.976, -0.064, 192.0, 0.0, 0.0, 0.0, 0.0, 0.0, 0.0, 0.0, 0.0, 0.0, 1.6989589732204146E9, 0.0, 2023-11-02 17:02:53.220
4.0, -187500.02235174447, 187500.0, 31056.385464237388, 34582.4625590399, 187500.0, 187500.0, -187500.02235174447, 30781.883690581762, -0.062, 0.976, -0.064, 192.0, 0.0, 0.0, 0.0, 0.0, 0.0, 0.0, 0.0, 0.0, 0.0, 1.6989589732204292E9, 0.0, 2023-11-02 17:02:53.220
5.0, -187500.02235174447, 187500.0, 31055.692560159274, 34578.55100376022, 187500.0, 187500.0, -187500.02235174447, 30779.60381264732, -0.062, 0.976, -0.064, 192.0, 0.0, 0.0, 0.0, 0.0, 0.0, 0.0, 0.0, 0.0, 0.0, 1.6989589732204888E9, 0.0, 2023-11-02 17:02:53.220
6.0, -187500.02235174447, 187500.0, 31059.827632883505, 34575.421759536475, 187500.0, 187500.0, -187500.02235174447, 30783.13538827126, -0.062, 0.976, -0.064, 192.0, 0.0, 0.0, 0.0, 0.0, 0.0, 0.0, 0.0, 0.0, 0.0, 1.6989589732205E9, 0.0, 2023-11-02 17:02:53.220
7.0, -187500.02235174447, 187500.0, 31064.92383061932, 34586.195300363936, 187500.0, 187500.0, -187500.02235174447, 30788.298641240435, -0.062, 0.976, -0.064, 192.0, 0.0, 0.0, 0.0, 0.0, 0.0, 0.0, 0.0, 0.0, 0.0, 1.6989589732205143E9, 0.0, 2023-11-02 17:02:53.220
8.0, -187500.02235174447, 187500.0, 31060.34172300598, 34594.28663185676, 187500.0, 187500.0, -187500.02235174447, 30784.163568516204, -0.064, 0.978, -0.066, 192.0, 254.0, 0.0, 30.0, 144.0, 253.0, 240.0, 0.0, 0.0, 0.0, 1.698958973220526E9, 0.0, 2023-11-02 17:02:53.220
9.0, -187500.02235174447, 187500.0, 31058.173603793814, 34588.05049515373, 187500.0, 187500.0, -187500.02235174447, 30782.129559770772, -0.064, 0.978, -0.066, 192.0, 0.0, 0.0, 0.0, 0.0, 0.0, 0.0, 0.0, 0.0, 0.0, 1.6989589732205367E9, 0.0, 2023-11-02 17:02:53.220
10.0, -187500.02235174447, 187500.0, 31059.268839272125, 34580.47325378338, 187500.0, 187500.0, -187500.02235174447, 30781.6154696483, -0.064, 0.978, -0.066, 192.0, 0.0, 0.0, 0.0, 0.0, 0.0, 0.0, 0.0, 0.0, 0.0, 1.6989589732205472E9, 0.0, 2023-11-02 17:02:53.220
11.0, -187500.02235174447, 187500.0, 31052.250391513157, 34582.909593929005, 187500.0, 187500.0, -187500.02235174447, 30772.719475355087, -0.064, 0.978, -0.066, 192.0, 0.0, 0.0, 0.0, 0.0, 0.0, 0.0, 0.0, 0.0, 0.0, 1.6989589732205584E9, 0.0, 2023-11-02 17:02:53.220
12.0, -187500.02235174447, 187500.0, 31047.087138543982, 34580.33914331665, 187500.0, 187500.0, -187500.02235174447, 30767.600925874824, -0.064, 0.978, -0.066, 192.0, 0.0, 0.0, 0.0, 0.0, 0.0, 0.0, 0.0, 0.0, 0.0, 1.6989589732205703E9, 0.0, 2023-11-02 17:02:53.220
13.0, -187500.02235174447, 187500.0, 31051.110452545938, 34579.89210842754, 187500.0, 187500.0, -187500.02235174447, 30771.80305383242, -0.064, 0.978, -0.066, 192.0, 0.0, 0.0, 0.0, 0.0, 0.0, 0.0, 0.0, 0.0, 0.0, 1.6989589732205813E9, 0.0, 2023-11-02 17:02:53.220
14.0, -187500.02235174447, 187500.0, 31056.541926448575, 34579.46742528289, 187500.0, 187500.0, -187500.02235174447, 30775.80401608992, -0.064, 0.978, -0.066, 192.0, 0.0, 0.0, 0.0, 0.0, 0.0, 0.0, 0.0, 0.0, 0.0, 1.6989589732210157E9, 0.0, 2023-11-02 17:02:53.221
15.0, -187500.02235174447, 187500.0, 31062.018103840128, 34585.412989308, 187500.0, 187500.0, -187500.02235174447, 30779.60381264732, -0.064, 0.978, -0.066, 192.0, 0.0, 0.0, 0.0, 0.0, 0.0, 0.0, 0.0, 0.0, 0.0, 1.6989589732210407E9, 0.0, 2023-11-02 17:02:53.221
16.0, -187500.02235174447, 187500.0, 31061.4816619732, 34589.39159982104, 187500.0, 187500.0, -187500.02235174447, 30781.45900743711, -0.064, 0.978, -0.066, 192.0, 0.0, 0.0, 0.0, 0.0, 0.0, 0.0, 0.0, 0.0, 0.0, 1.698958973221058E9, 0.0, 2023-11-02 17:02:53.221
17.0, -187500.02235174447, 187500.0, 31063.023932340617, 34586.12824513057, 187500.0, 187500.0, -187500.02235174447, 30782.643649893245, -0.054, 0.984, -0.06, 192.0, 254.0, 80.0, 30.0, 192.0, 254.0, 32.0, 0.0, 0.0, 0.0, 1.6989589732210698E9, 0.0, 2023-11-02 17:02:53.221
18.0, -187500.02235174447, 187500.0, 31060.6322956839, 34580.00386714982, 187500.0, 187500.0, -187500.02235174447, 30780.319068469893, -0.054, 0.984, -0.06, 192.0, 0.0, 0.0, 0.0, 0.0, 0.0, 0.0, 0.0, 0.0, 0.0, 1.698958973221088E9, 0.0, 2023-11-02 17:02:53.221
19.0, -187500.02235174447, 187500.0, 31061.504013717655, 34584.3624573186, 187500.0, 187500.0, -187500.02235174447, 30781.749580115033, -0.054, 0.984, -0.06, 192.0, 0.0, 0.0, 0.0, 0.0, 0.0, 0.0, 0.0, 0.0, 0.0, 1.698958973221099E9, 0.0, 2023-11-02 17:02:53.221
20.0, -187500.02235174447, 187500.0, 31060.14055730588, 34587.98343992036, 187500.0, 187500.0, -187500.02235174447, 30780.60964114781, -0.054, 0.984, -0.06, 192.0, 0.0, 0.0, 0.0, 0.0, 0.0, 0.0, 0.0, 0.0, 0.0, 1.6989589732211292E9, 0.0, 2023-11-02 17:02:53.221
21.0, -187500.02235174447, 187500.0, 31057.927734604807, 34580.741474716844, 187500.0, 187500.0, -187500.02235174447, 30778.486225424556, -0.054, 0.984, -0.06, 192.0, 0.0, 0.0, 0.0, 0.0, 0.0, 0.0, 0.0, 0.0, 0.0, 1.6989589732211406E9, 0.0, 2023-11-02 17:02:53.221
22.0, -187500.02235174447, 187500.0, 31062.688656173785, 34577.83574793765, 187500.0, 187500.0, -187500.02235174447, 30784.38708596076, -0.054, 0.984, -0.06, 192.0, 0.0, 0.0, 0.0, 0.0, 0.0, 0.0, 0.0, 0.0, 0.0, 1.698958973221154E9, 0.0, 2023-11-02 17:02:53.221
23.0, -187500.02235174447, 187500.0, 31069.729455677207, 34585.6141550081, 187500.0, 187500.0, -187500.02235174447, 30794.154798287727, -0.054, 0.984, -0.06, 192.0, 0.0, 0.0, 0.0, 0.0, 0.0, 0.0, 0.0, 0.0, 0.0, 1.6989589732211657E9, 0.0, 2023-11-02 17:02:53.221
24.0, -187500.02235174447, 187500.0, 31064.05211258556, 34587.04466665324, 187500.0, 187500.0, -187500.02235174447, 30788.14217902925, -0.054, 0.984, -0.06, 192.0, 0.0, 0.0, 0.0, 0.0, 0.0, 0.0, 0.0, 0.0, 0.0, 1.6989589732211776E9, 0.0, 2023-11-02 17:02:53.221
25.0, -187500.02235174447, 187500.0, 31064.00740909665, 34578.23807933785, 187500.0, 187500.0, -187500.02235174447, 30787.784551117966, -0.054, 0.984, -0.06, 192.0, 0.0, 0.0, 0.0, 0.0, 0.0, 0.0, 0.0, 0.0, 0.0, 1.6989589732211888E9, 0.0, 2023-11-02 17:02:53.221
26.0, -187500.02235174447, 187500.0, 31069.10360683246, 34582.23904159535, 187500.0, 187500.0, -187500.02235174447, 30792.724286642588, -0.054, 0.984, -0.06, 192.0, 0.0, 0.0, 0.0, 0.0, 0.0, 0.0, 0.0, 0.0, 0.0, 1.698958973221202E9, 0.0, 2023-11-02 17:02:53.221
27.0, -187500.02235174447, 187500.0, 31067.00254285366, 34588.430474809466, 187500.0, 187500.0, -187500.02235174447, 30792.14314128675, -0.054, 0.98, -0.062, 192.0, 254.0, 80.0, 30.0, 160.0, 254.0, 16.0, 0.0, 0.0, 0.0, 1.6989589732212365E9, 0.0, 2023-11-02 17:02:53.221
28.0, -187500.02235174447, 187500.0, 31071.405836511356, 34599.02520168128, 187500.0, 187500.0, -187500.02235174447, 30796.47937971108, -0.054, 0.98, -0.062, 192.0, 0.0, 0.0, 0.0, 0.0, 0.0, 0.0, 0.0, 0.0, 0.0, 1.69895897322125E9, 0.0, 2023-11-02 17:02:53.221
29.0, -187500.02235174447, 187500.0, 31066.086121330995, 34599.00284993683, 187500.0, 187500.0, -187500.02235174447, 30790.824388363886, -0.054, 0.98, -0.062, 192.0, 0.0, 0.0, 0.0, 0.0, 0.0, 0.0, 0.0, 0.0, 0.0, 1.6989589732213984E9, 0.0, 2023-11-02 17:02:53.221
30.0, -187500.02235174447, 187500.0, 31066.890784131385, 34582.75313171782, 187500.0, 187500.0, -187500.02235174447, 30788.544510429445, -0.054, 0.98, -0.062, 192.0, 0.0, 0.0, 0.0, 0.0, 0.0, 0.0, 0.0, 0.0, 0.0, 1.698958973221415E9, 0.0, 2023-11-02 17:02:53.221
31.0, -187500.02235174447, 187500.0, 31076.323220291524, 34586.24000385285, 187500.0, 187500.0, -187500.02235174447, 30797.99929833404, -0.054, 0.98, -0.062, 192.0, 0.0, 0.0, 0.0, 0.0, 0.0, 0.0, 0.0, 0.0, 0.0, 1.6989589732214277E9, 0.0, 2023-11-02 17:02:53.221
32.0, -187500.02235174447, 187500.0, 31073.81982491253, 34597.34882084713, 187500.0, 187500.0, -187500.02235174447, 30796.322917499892, -0.054, 0.98, -0.062, 192.0, 0.0, 0.0, 0.0, 0.0, 0.0, 0.0, 0.0, 0.0, 0.0, 1.6989589732214415E9, 0.0, 2023-11-02 17:02:53.221
33.0, -187500.02235174447, 187500.0, 31078.49133950369, 34604.47902732838, 187500.0, 187500.0, -187500.02235174447, 30800.74856290204, -0.054, 0.98, -0.062, 192.0, 0.0, 0.0, 0.0, 0.0, 0.0, 0.0, 0.0, 0.0, 0.0, 1.6989589732214532E9, 0.0, 2023-11-02 17:02:53.221
34.0, -187500.02235174447, 187500.0, 31079.743037193184, 34602.40031509403, 187500.0, 187500.0, -187500.02235174447, 30799.787437890463, -0.054, 0.98, -0.062, 192.0, 0.0, 0.0, 0.0, 0.0, 0.0, 0.0, 0.0, 0.0, 0.0, 1.6989589732214675E9, 0.0, 2023-11-02 17:02:53.221
35.0, -187500.02235174447, 187500.0, 31076.25616505816, 34591.33620158866, 187500.0, 187500.0, -187500.02235174447, 30793.216025020603, -0.054, 0.98, -0.062, 192.0, 0.0, 0.0, 0.0, 0.0, 0.0, 0.0, 0.0, 0.0, 0.0, 1.6989589732214792E9, 0.0, 2023-11-02 17:02:53.221
36.0, -187500.02235174447, 187500.0, 31076.904365647362, 34593.884300456564, 187500.0, 187500.0, -187500.02235174447, 30792.724286642588, -0.054, 0.98, -0.062, 192.0, 0.0, 0.0, 0.0, 0.0, 0.0, 0.0, 0.0, 0.0, 0.0, 1.6989589732214913E9, 0.0, 2023-11-02 17:02:53.221
37.0, -187500.02235174447, 187500.0, 31079.787740682095, 34598.8687394701, 187500.0, 187500.0, -187500.02235174447, 30796.077048310883, -0.064, 0.98, -0.07200000000000001, 192.0, 254.0, 0.0, 30.0, 160.0, 253.0, 192.0, 0.0, 0.0, 0.0, 1.6989589732215016E9, 0.0, 2023-11-02 17:02:53.221
38.0, -187500.02235174447, 187500.0, 31082.782874439108, 34592.40908532251, 187500.0, 187500.0, -187500.02235174447, 30799.89919661274, -0.064, 0.98, -0.07200000000000001, 192.0, 0.0, 0.0, 0.0, 0.0, 0.0, 0.0, 0.0, 0.0, 0.0, 1.6989589732215152E9, 0.0, 2023-11-02 17:02:53.221
39.0, -187500.02235174447, 187500.0, 31088.34845880848, 34596.968841191396, 187500.0, 187500.0, -187500.02235174447, 30805.48713272657, -0.064, 0.98, -0.07200000000000001, 192.0, 0.0, 0.0, 0.0, 0.0, 0.0, 0.0, 0.0, 0.0, 0.0, 1.6989589732215328E9, 0.0, 2023-11-02 17:02:53.221
40.0, -187500.02235174447, 187500.0, 31093.4893600332, 34604.81430349521, 187500.0, 187500.0, -187500.02235174447, 30809.711612428622, -0.064, 0.98, -0.07200000000000001, 192.0, 0.0, 0.0, 0.0, 0.0, 0.0, 0.0, 0.0, 0.0, 0.0, 1.6989589732215443E9, 0.0, 2023-11-02 17:02:53.221
41.0, -187500.02235174447, 187500.0, 31092.90821467736, 34608.077658185684, 187500.0, 187500.0, -187500.02235174447, 30807.878769383286, -0.064, 0.98, -0.07200000000000001, 192.0, 0.0, 0.0, 0.0, 0.0, 0.0, 0.0, 0.0, 0.0, 0.0, 1.6989589732215593E9, 0.0, 2023-11-02 17:02:53.221
42.0, -187500.02235174447, 187500.0, 31086.49326401869, 34598.354649347624, 187500.0, 187500.0, -187500.02235174447, 30801.24030128006, -0.064, 0.98, -0.07200000000000001, 192.0, 0.0, 0.0, 0.0, 0.0, 0.0, 0.0, 0.0, 0.0, 0.0, 1.6989589732215712E9, 0.0, 2023-11-02 17:02:53.221
43.0, -187500.02235174447, 187500.0, 31087.432037285813, 34588.72104748739, 187500.0, 187500.0, -187500.02235174447, 30801.352060002337, -0.064, 0.98, -0.07200000000000001, 192.0, 0.0, 0.0, 0.0, 0.0, 0.0, 0.0, 0.0, 0.0, 0.0, 1.6989589732215824E9, 0.0, 2023-11-02 17:02:53.221
44.0, -187500.02235174447, 187500.0, 31093.578767011022, 34599.44988482593, 187500.0, 187500.0, -187500.02235174447, 30809.063411839415, -0.064, 0.98, -0.07200000000000001, 192.0, 0.0, 0.0, 0.0, 0.0, 0.0, 0.0, 0.0, 0.0, 0.0, 1.698958973221634E9, 0.0, 2023-11-02 17:02:53.221
45.0, -187500.02235174447, 187500.0, 31093.712877477752, 34605.775428506786, 187500.0, 187500.0, -187500.02235174447, 30808.81754265041, -0.064, 0.98, -0.07200000000000001, 192.0, 0.0, 0.0, 0.0, 0.0, 0.0, 0.0, 0.0, 0.0, 0.0, 1.6989589732216487E9, 0.0, 2023-11-02 17:02:53.221
46.0, -187500.02235174447, 187500.0, 31093.4893600332, 34602.333259860665, 187500.0, 187500.0, -187500.02235174447, 30808.348156016847, -0.064, 0.98, -0.07200000000000001, 192.0, 0.0, 0.0, 0.0, 0.0, 0.0, 0.0, 0.0, 0.0, 0.0, 1.6989589732216613E9, 0.0, 2023-11-02 17:02:53.221
47.0, -187500.02235174447, 187500.0, 31092.930566421815, 34588.631640509564, 187500.0, 187500.0, -187500.02235174447, 30806.15768506023, -0.068, 0.98, -0.074, 192.0, 253.0, 224.0, 30.0, 160.0, 253.0, 176.0, 0.0, 0.0, 0.0, 1.6989589732216718E9, 0.0, 2023-11-02 17:02:53.221
48.0, -187500.02235174447, 187500.0, 31094.696354233787, 34591.582070777666, 187500.0, 187500.0, -187500.02235174447, 30808.43756299467, -0.068, 0.98, -0.074, 192.0, 0.0, 0.0, 0.0, 0.0, 0.0, 0.0, 0.0, 0.0, 0.0, 1.6989589732216904E9, 0.0, 2023-11-02 17:02:53.221
49.0, -187500.02235174447, 187500.0, 31091.075371632025, 34597.2147103804, 187500.0, 187500.0, -187500.02235174447, 30805.57653970439, -0.068, 0.98, -0.074, 192.0, 0.0, 0.0, 0.0, 0.0, 0.0, 0.0, 0.0, 0.0, 0.0, 1.6989589732217011E9, 0.0, 2023-11-02 17:02:53.221
50.0, -187500.02235174447, 187500.0, 31093.265842588648, 34597.63939352505, 187500.0, 187500.0, -187500.02235174447, 30807.923472872197, -0.068, 0.98, -0.074, 192.0, 0.0, 0.0, 0.0, 0.0, 0.0, 0.0, 0.0, 0.0, 0.0, 1.698958973221713E9, 0.0, 2023-11-02 17:02:53.221
51.0, -187500.02235174447, 187500.0, 31102.474761304235, 34600.05338192623, 187500.0, 187500.0, -187500.02235174447, 30815.031327608984, -0.068, 0.98, -0.074, 192.0, 0.0, 0.0, 0.0, 0.0, 0.0, 0.0, 0.0, 0.0, 0.0, 1.698958973221725E9, 0.0, 2023-11-02 17:02:53.221
52.0, -187500.02235174447, 187500.0, 31100.10547639197, 34599.85221622613, 187500.0, 187500.0, -187500.02235174447, 30811.611510707324, -0.068, 0.98, -0.074, 192.0, 0.0, 0.0, 0.0, 0.0, 0.0, 0.0, 0.0, 0.0, 0.0, 1.6989589732217357E9, 0.0, 2023-11-02 17:02:53.221
53.0, -187500.02235174447, 187500.0, 31097.62443275743, 34602.04268718275, 187500.0, 187500.0, -187500.02235174447, 30809.04106009496, -0.068, 0.98, -0.074, 192.0, 0.0, 0.0, 0.0, 0.0, 0.0, 0.0, 0.0, 0.0, 0.0, 1.698958973221748E9, 0.0, 2023-11-02 17:02:53.221
54.0, -187500.02235174447, 187500.0, 31099.926662436326, 34607.652975041034, 187500.0, 187500.0, -187500.02235174447, 30811.566807218413, -0.068, 0.98, -0.074, 192.0, 0.0, 0.0, 0.0, 0.0, 0.0, 0.0, 0.0, 0.0, 0.0, 1.698958973221762E9, 0.0, 2023-11-02 17:02:53.221
55.0, -187500.02235174447, 187500.0, 31101.826560715028, 34607.63062329657, 187500.0, 187500.0, -187500.02235174447, 30814.986624120073, -0.068, 0.98, -0.074, 192.0, 0.0, 0.0, 0.0, 0.0, 0.0, 0.0, 0.0, 0.0, 0.0, 1.698958973221778E9, 0.0, 2023-11-02 17:02:53.221
56.0, -187500.02235174447, 187500.0, 31100.172531625336, 34611.25160589834, 187500.0, 187500.0, -187500.02235174447, 30814.94192063116, -0.068, 0.98, -0.074, 192.0, 0.0, 0.0, 0.0, 0.0, 0.0, 0.0, 0.0, 0.0, 0.0, 1.6989589732217894E9, 0.0, 2023-11-02 17:02:53.221
57.0, -187500.02235174447, 187500.0, 31098.853778702472, 34616.86189375662, 187500.0, 187500.0, -187500.02235174447, 30816.01480436502, -0.068, 0.974, -0.078, 192.0, 253.0, 224.0, 30.0, 112.0, 253.0, 144.0, 0.0, 0.0, 0.0, 1.6989589732218027E9, 0.0, 2023-11-02 17:02:53.221
58.0, -187500.02235174447, 187500.0, 31099.993717669695, 34625.89199851656, 187500.0, 187500.0, -187500.02235174447, 30819.456973011136, -0.068, 0.974, -0.078, 192.0, 0.0, 0.0, 0.0, 0.0, 0.0, 0.0, 0.0, 0.0, 0.0, 1.698958973221818E9, 0.0, 2023-11-02 17:02:53.221
59.0, -187500.02235174447, 187500.0, 31095.880996689917, 34618.13594319057, 187500.0, 187500.0, -187500.02235174447, 30815.21014156463, -0.068, 0.974, -0.078, 192.0, 0.0, 0.0, 0.0, 0.0, 0.0, 0.0, 0.0, 0.0, 0.0, 1.6989589732218587E9, 0.0, 2023-11-02 17:02:53.221
60.0, -187500.02235174447, 187500.0, 31097.669136246343, 34606.960070962916, 187500.0, 187500.0, -187500.02235174447, 30816.707708443133, -0.068, 0.974, -0.078, 192.0, 0.0, 0.0, 0.0, 0.0, 0.0, 0.0, 0.0, 0.0, 0.0, 1.6989589732218704E9, 0.0, 2023-11-02 17:02:53.221
61.0, -187500.02235174447, 187500.0, 31096.506845534666, 34610.04461169775, 187500.0, 187500.0, -187500.02235174447, 30814.696051442155, -0.068, 0.974, -0.078, 192.0, 0.0, 0.0, 0.0, 0.0, 0.0, 0.0, 0.0, 0.0, 0.0, 1.6989589732218883E9, 0.0, 2023-11-02 17:02:53.221
62.0, -187500.02235174447, 187500.0, 31094.71870597824, 34610.603405309135, 187500.0, 187500.0, -187500.02235174447, 30811.387993262768, -0.068, 0.974, -0.078, 192.0, 0.0, 0.0, 0.0, 0.0, 0.0, 0.0, 0.0, 0.0, 0.0, 1.698958973221902E9, 0.0, 2023-11-02 17:02:53.221
63.0, -187500.02235174447, 187500.0, 31094.58459551151, 34608.5693965637, 187500.0, 187500.0, -187500.02235174447, 30811.81267640742, -0.068, 0.974, -0.078, 192.0, 0.0, 0.0, 0.0, 0.0, 0.0, 0.0, 0.0, 0.0, 0.0, 1.6989589732219164E9, 0.0, 2023-11-02 17:02:53.221
64.0, -187500.02235174447, 187500.0, 31094.450485044777, 34607.13888491856, 187500.0, 187500.0, -187500.02235174447, 30815.14308633126, -0.068, 0.974, -0.078, 192.0, 0.0, 0.0, 0.0, 0.0, 0.0, 0.0, 0.0, 0.0, 0.0, 1.6989589732219317E9, 0.0, 2023-11-02 17:02:53.221
65.0, -187500.02235174447, 187500.0, 31092.528235021622, 34607.317698874205, 187500.0, 187500.0, -187500.02235174447, 30814.450182253146, -0.068, 0.974, -0.078, 192.0, 0.0, 0.0, 0.0, 0.0, 0.0, 0.0, 0.0, 0.0, 0.0, 1.6989589732219446E9, 0.0, 2023-11-02 17:02:53.221
66.0, -187500.02235174447, 187500.0, 31090.740095465197, 34611.09514368715, 187500.0, 187500.0, -187500.02235174447, 30810.985661862574, -0.068, 0.974, -0.078, 192.0, 0.0, 0.0, 0.0, 0.0, 0.0, 0.0, 0.0, 0.0, 0.0, 1.6989589732219572E9, 0.0, 2023-11-02 17:02:53.221
67.0, -187500.02235174447, 187500.0, 31092.036496643606, 34614.09027744416, 187500.0, 187500.0, -187500.02235174447, 30811.23153105158, -0.066, 0.98, -0.076, 192.0, 253.0, 240.0, 30.0, 160.0, 253.0, 160.0, 0.0, 0.0, 0.0, 1.6989589732219694E9, 0.0, 2023-11-02 17:02:53.221
68.0, -187500.02235174447, 187500.0, 31095.121037378438, 34611.74334427635, 187500.0, 187500.0, -187500.02235174447, 30813.354946774834, -0.066, 0.98, -0.076, 192.0, 0.0, 0.0, 0.0, 0.0, 0.0, 0.0, 0.0, 0.0, 0.0, 1.698958973221985E9, 0.0, 2023-11-02 17:02:53.221
69.0, -187500.02235174447, 187500.0, 31098.29498509109, 34611.54217857625, 187500.0, 187500.0, -187500.02235174447, 30816.260673554025, -0.066, 0.98, -0.076, 192.0, 0.0, 0.0, 0.0, 0.0, 0.0, 0.0, 0.0, 0.0, 0.0, 1.6989589732220035E9, 0.0, 2023-11-02 17:02:53.222
70.0, -187500.02235174447, 187500.0, 31094.226967600225, 34612.7715245213, 187500.0, 187500.0, -187500.02235174447, 30810.62803395129, -0.066, 0.98, -0.076, 192.0, 0.0, 0.0, 0.0, 0.0, 0.0, 0.0, 0.0, 0.0, 0.0, 1.698958973222015E9, 0.0, 2023-11-02 17:02:53.222
71.0, -187500.02235174447, 187500.0, 31095.948051923282, 34610.9163297315, 187500.0, 187500.0, -187500.02235174447, 30812.48322874108, -0.066, 0.98, -0.076, 192.0, 0.0, 0.0, 0.0, 0.0, 0.0, 0.0, 0.0, 0.0, 0.0, 1.6989589732220275E9, 0.0, 2023-11-02 17:02:53.222
72.0, -187500.02235174447, 187500.0, 31103.190017126803, 34614.96199547792, 187500.0, 187500.0, -187500.02235174447, 30820.619263722812, -0.066, 0.98, -0.076, 192.0, 0.0, 0.0, 0.0, 0.0, 0.0, 0.0, 0.0, 0.0, 0.0, 1.698958973222043E9, 0.0, 2023-11-02 17:02:53.222
73.0, -187500.02235174447, 187500.0, 31098.80907521356, 34620.795800780754, 187500.0, 187500.0, -187500.02235174447, 30817.892350899263, -0.066, 0.98, -0.076, 192.0, 0.0, 0.0, 0.0, 0.0, 0.0, 0.0, 0.0, 0.0, 0.0, 1.6989589732220573E9, 0.0, 2023-11-02 17:02:53.222
74.0, -187500.02235174447, 187500.0, 31091.477703032222, 34616.86189375662, 187500.0, 187500.0, -187500.02235174447, 30813.869036897308, -0.066, 0.98, -0.076, 192.0, 0.0, 0.0, 0.0, 0.0, 0.0, 0.0, 0.0, 0.0, 0.0, 1.6989589732220726E9, 0.0, 2023-11-02 17:02:53.222
75.0, -187500.02235174447, 187500.0, 31089.466046031244, 34619.834675769176, 187500.0, 187500.0, -187500.02235174447, 30817.19944682115, -0.066, 0.98, -0.076, 192.0, 0.0, 0.0, 0.0, 0.0, 0.0, 0.0, 0.0, 0.0, 0.0, 1.6989589732221406E9, 0.0, 2023-11-02 17:02:53.222
76.0, -187500.02235174447, 187500.0, 31083.25226107267, 34615.56549257821, 187500.0, 187500.0, -187500.02235174447, 30814.58429271988, -0.066, 0.98, -0.076, 192.0, 0.0, 0.0, 0.0, 0.0, 0.0, 0.0, 0.0, 0.0, 0.0, 1.698958973222156E9, 0.0, 2023-11-02 17:02:53.222
77.0, -187500.02235174447, 187500.0, 31077.574917981023, 34611.430419853976, 187500.0, 187500.0, -187500.02235174447, 30810.203350806638, -0.062, 0.978, -0.082, 192.0, 254.0, 16.0, 30.0, 144.0, 253.0, 112.0, 0.0, 0.0, 0.0, 1.6989589732221727E9, 0.0, 2023-11-02 17:02:53.222
78.0, -187500.02235174447, 187500.0, 31076.032647613603, 34611.58688206517, 187500.0, 187500.0, -187500.02235174447, 30809.6222054508, -0.062, 0.978, -0.082, 192.0, 0.0, 0.0, 0.0, 0.0, 0.0, 0.0, 0.0, 0.0, 0.0, 1.69895897322219E9, 0.0, 2023-11-02 17:02:53.222
79.0, -187500.02235174447, 187500.0, 31075.742074935686, 34612.90563498803, 187500.0, 187500.0, -187500.02235174447, 30811.499751985044, -0.062, 0.978, -0.082, 192.0, 0.0, 0.0, 0.0, 0.0, 0.0, 0.0, 0.0, 0.0, 0.0, 1.6989589732222035E9, 0.0, 2023-11-02 17:02:53.222
80.0, -187500.02235174447, 187500.0, 31078.781912181606, 34612.63741405457, 187500.0, 187500.0, -187500.02235174447, 30815.09838284235, -0.062, 0.978, -0.082, 192.0, 0.0, 0.0, 0.0, 0.0, 0.0, 0.0, 0.0, 0.0, 0.0, 1.6989589732222188E9, 0.0, 2023-11-02 17:02:53.222
81.0, -187500.02235174447, 187500.0, 31079.29600230408, 34615.498437344846, 187500.0, 187500.0, -187500.02235174447, 30817.06533635442, -0.062, 0.978, -0.082, 192.0, 0.0, 0.0, 0.0, 0.0, 0.0, 0.0, 0.0, 0.0, 0.0, 1.6989589732222376E9, 0.0, 2023-11-02 17:02:53.222
82.0, -187500.02235174447, 187500.0, 31074.266859801635, 34615.967823978404, 187500.0, 187500.0, -187500.02235174447, 30811.67856594069, -0.062, 0.978, -0.082, 192.0, 0.0, 0.0, 0.0, 0.0, 0.0, 0.0, 0.0, 0.0, 0.0, 1.6989589732222562E9, 0.0, 2023-11-02 17:02:53.222
83.0, -187500.02235174447, 187500.0, 31068.6342201989, 34613.97851872188, 187500.0, 187500.0, -187500.02235174447, 30803.81075189242, -0.062, 0.978, -0.082, 192.0, 0.0, 0.0, 0.0, 0.0, 0.0, 0.0, 0.0, 0.0, 0.0, 1.6989589732222736E9, 0.0, 2023-11-02 17:02:53.222
84.0, -187500.02235174447, 187500.0, 31065.70614167525, 34605.909538973516, 187500.0, 187500.0, -187500.02235174447, 30802.179074547184, -0.062, 0.978, -0.082, 192.0, 0.0, 0.0, 0.0, 0.0, 0.0, 0.0, 0.0, 0.0, 0.0, 1.698958973222293E9, 0.0, 2023-11-02 17:02:53.222
85.0, -187500.02235174447, 187500.0, 31064.38738875239, 34607.07182968519, 187500.0, 187500.0, -187500.02235174447, 30803.05079258094, -0.062, 0.978, -0.082, 192.0, 0.0, 0.0, 0.0, 0.0, 0.0, 0.0, 0.0, 0.0, 0.0, 1.6989589732223089E9, 0.0, 2023-11-02 17:02:53.222
86.0, -187500.02235174447, 187500.0, 31071.450540000267, 34611.497475087344, 187500.0, 187500.0, -187500.02235174447, 30809.711612428622, -0.062, 0.978, -0.082, 192.0, 0.0, 0.0, 0.0, 0.0, 0.0, 0.0, 0.0, 0.0, 0.0, 1.6989589732223246E9, 0.0, 2023-11-02 17:02:53.222
87.0, -187500.02235174447, 187500.0, 31076.25616505816, 34621.86868451461, 187500.0, 187500.0, -187500.02235174447, 30814.62899620879, -0.064, 0.97, -0.08, 192.0, 254.0, 0.0, 30.0, 80.0, 253.0, 128.0, 0.0, 0.0, 0.0, 1.69895897322234E9, 0.0, 2023-11-02 17:02:53.222
88.0, -187500.02235174447, 187500.0, 31074.311563290546, 34620.28171065828, 187500.0, 187500.0, -187500.02235174447, 30814.025499108495, -0.064, 0.97, -0.08, 192.0, 0.0, 0.0, 0.0, 0.0, 0.0, 0.0, 0.0, 0.0, 0.0, 1.6989589732223637E9, 0.0, 2023-11-02 17:02:53.222
89.0, -187500.02235174447, 187500.0, 31076.569089480534, 34617.84537051265, 187500.0, 187500.0, -187500.02235174447, 30816.685356698676, -0.064, 0.97, -0.08, 192.0, 0.0, 0.0, 0.0, 0.0, 0.0, 0.0, 0.0, 0.0, 0.0, 1.6989589732223873E9, 0.0, 2023-11-02 17:02:53.222
90.0, -187500.02235174447, 187500.0, 31072.97045862323, 34619.387640880064, 187500.0, 187500.0, -187500.02235174447, 30812.751449674543, -0.064, 0.97, -0.08, 192.0, 0.0, 0.0, 0.0, 0.0, 0.0, 0.0, 0.0, 0.0, 0.0, 1.6989589732225187E9, 0.0, 2023-11-02 17:02:53.222
91.0, -187500.02235174447, 187500.0, 31067.3825225094, 34619.879379258084, 187500.0, 187500.0, -187500.02235174447, 30808.035231594473, -0.064, 0.97, -0.08, 192.0, 0.0, 0.0, 0.0, 0.0, 0.0, 0.0, 0.0, 0.0, 0.0, 1.6989589732225676E9, 0.0, 2023-11-02 17:02:53.222
92.0, -187500.02235174447, 187500.0, 31068.05307484306, 34616.101934445134, 187500.0, 187500.0, -187500.02235174447, 30808.594025205857, -0.064, 0.97, -0.08, 192.0, 0.0, 0.0, 0.0, 0.0, 0.0, 0.0, 0.0, 0.0, 0.0, 1.6989589732225962E9, 0.0, 2023-11-02 17:02:53.222
93.0, -187500.02235174447, 187500.0, 31065.169699808324, 34610.98338496487, 187500.0, 187500.0, -187500.02235174447, 30805.308318770927, -0.064, 0.97, -0.08, 192.0, 0.0, 0.0, 0.0, 0.0, 0.0, 0.0, 0.0, 0.0, 0.0, 1.6989589732226183E9, 0.0, 2023-11-02 17:02:53.222
94.0, -187500.02235174447, 187500.0, 31064.05211258556, 34613.71029778842, 187500.0, 187500.0, -187500.02235174447, 30805.733001915578, -0.064, 0.97, -0.08, 192.0, 0.0, 0.0, 0.0, 0.0, 0.0, 0.0, 0.0, 0.0, 0.0, 1.6989589732226415E9, 0.0, 2023-11-02 17:02:53.222
95.0, -187500.02235174447, 187500.0, 31061.39225499538, 34622.4721816149, 187500.0, 187500.0, -187500.02235174447, 30803.09549606985, -0.064, 0.97, -0.08, 192.0, 0.0, 0.0, 0.0, 0.0, 0.0, 0.0, 0.0, 0.0, 0.0, 1.6989589732226577E9, 0.0, 2023-11-02 17:02:53.222
96.0, -187500.02235174447, 187500.0, 31057.681865415798, 34619.70056530244, 187500.0, 187500.0, -187500.02235174447, 30798.6698506677, -0.064, 0.97, -0.08, 192.0, 0.0, 0.0, 0.0, 0.0, 0.0, 0.0, 0.0, 0.0, 0.0, 1.6989589732226784E9, 0.0, 2023-11-02 17:02:53.222
97.0, -187500.02235174447, 187500.0, 31056.251353770658, 34604.81430349521, 187500.0, 187500.0, -187500.02235174447, 30796.322917499892, -0.06, 0.978, -0.082, 192.0, 254.0, 32.0, 30.0, 144.0, 253.0, 112.0, 0.0, 0.0, 0.0, 1.6989589732226992E9, 0.0, 2023-11-02 17:02:53.222
98.0, -187500.02235174447, 187500.0, 31061.23579278419, 34608.68115528597, 187500.0, 187500.0, -187500.02235174447, 30800.659155924222, -0.06, 0.978, -0.082, 192.0, 0.0, 0.0, 0.0, 0.0, 0.0, 0.0, 0.0, 0.0, 0.0, 1.6989589732227333E9, 0.0, 2023-11-02 17:02:53.222
99.0, -187500.02235174447, 187500.0, 31064.163871307836, 34618.18064667948, 187500.0, 187500.0, -187500.02235174447, 30802.022612335997, -0.06, 0.978, -0.082, 192.0, 0.0, 0.0, 0.0, 0.0, 0.0, 0.0, 0.0, 0.0, 0.0, 1.6989589732227547E9, 0.0, 2023-11-02 17:02:53.222
100.0, -187500.02235174447, 187500.0, 31067.606039953953, 34624.34972814914, 187500.0, 187500.0, -187500.02235174447, 30804.95069085964, -0.06, 0.978, -0.082, 192.0, 0.0, 0.0, 0.0, 0.0, 0.0, 0.0, 0.0, 0.0, 0.0, 1.6989589732227724E9, 0.0, 2023-11-02 17:02:53.222
101.0, -187500.02235174447, 187500.0, 31069.57299346602, 34613.0173937103, 187500.0, 187500.0, -187500.02235174447, 30805.66594668221, -0.06, 0.978, -0.082, 192.0, 0.0, 0.0, 0.0, 0.0, 0.0, 0.0, 0.0, 0.0, 0.0, 1.6989589732227907E9, 0.0, 2023-11-02 17:02:53.222
102.0, -187500.02235174447, 187500.0, 31072.702237689766, 34611.58688206517, 187500.0, 187500.0, -187500.02235174447, 30805.263615282016, -0.06, 0.978, -0.082, 192.0, 0.0, 0.0, 0.0, 0.0, 0.0, 0.0, 0.0, 0.0, 0.0, 1.6989589732228081E9, 0.0, 2023-11-02 17:02:53.222
103.0, -187500.02235174447, 187500.0, 31074.043342357083, 34614.42555361099, 187500.0, 187500.0, -187500.02235174447, 30803.453123981137, -0.06, 0.978, -0.082, 192.0, 0.0, 0.0, 0.0, 0.0, 0.0, 0.0, 0.0, 0.0, 0.0, 1.6989589732228293E9, 0.0, 2023-11-02 17:02:53.222
104.0, -187500.02235174447, 187500.0, 31074.088045845994, 34613.77735302178, 187500.0, 187500.0, -187500.02235174447, 30800.99443209105, -0.06, 0.978, -0.082, 192.0, 0.0, 0.0, 0.0, 0.0, 0.0, 0.0, 0.0, 0.0, 0.0, 1.6989589732228491E9, 0.0, 2023-11-02 17:02:53.222
105.0, -187500.02235174447, 187500.0, 31081.53117674961, 34615.25256815583, 187500.0, 187500.0, -187500.02235174447, 30806.76118216052, -0.06, 0.978, -0.082, 192.0, 0.0, 0.0, 0.0, 0.0, 0.0, 0.0, 0.0, 0.0, 0.0, 1.6989589732230213E9, 0.0, 2023-11-02 17:02:53.223
106.0, -187500.02235174447, 187500.0, 31081.240604071692, 34614.89494024455, 187500.0, 187500.0, -187500.02235174447, 30802.6708129252, -0.06, 0.978, -0.082, 192.0, 0.0, 0.0, 0.0, 0.0, 0.0, 0.0, 0.0, 0.0, 0.0, 1.6989589732230592E9, 0.0, 2023-11-02 17:02:53.223
107.0, -187500.02235174447, 187500.0, 31083.162854094848, 34614.60436756663, 187500.0, 187500.0, -187500.02235174447, 30797.95459484513, -0.074, 0.984, -0.074, 192.0, 253.0, 176.0, 30.0, 192.0, 253.0, 176.0, 0.0, 0.0, 0.0, 1.698958973223082E9, 0.0, 2023-11-02 17:02:53.223
108.0, -187500.02235174447, 187500.0, 31091.947089665784, 34621.019318225306, 187500.0, 187500.0, -187500.02235174447, 30800.703859413134, -0.074, 0.984, -0.074, 192.0, 0.0, 0.0, 0.0, 0.0, 0.0, 0.0, 0.0, 0.0, 0.0, 1.6989589732231195E9, 0.0, 2023-11-02 17:02:53.223
109.0, -187500.02235174447, 187500.0, 31102.072429904038, 34622.58394033718, 187500.0, 187500.0, -187500.02235174447, 30804.90598737073, -0.074, 0.984, -0.074, 192.0, 0.0, 0.0, 0.0, 0.0, 0.0, 0.0, 0.0, 0.0, 0.0, 1.6989589732231348E9, 0.0, 2023-11-02 17:02:53.223
110.0, -187500.02235174447, 187500.0, 31107.749772995685, 34622.4721816149, 187500.0, 187500.0, -187500.02235174447, 30807.319975771905, -0.074, 0.984, -0.074, 192.0, 0.0, 0.0, 0.0, 0.0, 0.0, 0.0, 0.0, 0.0, 0.0, 1.6989589732231524E9, 0.0, 2023-11-02 17:02:53.223
111.0, -187500.02235174447, 187500.0, 31107.123924150936, 34631.41287939702, 187500.0, 187500.0, -187500.02235174447, 30804.28013852598, -0.074, 0.984, -0.074, 192.0, 0.0, 0.0, 0.0, 0.0, 0.0, 0.0, 0.0, 0.0, 0.0, 1.6989589732231755E9, 0.0, 2023-11-02 17:02:53.223
112.0, -187500.02235174447, 187500.0, 31103.659403760365, 34633.91627477602, 187500.0, 187500.0, -187500.02235174447, 30798.871016367797, -0.074, 0.984, -0.074, 192.0, 0.0, 0.0, 0.0, 0.0, 0.0, 0.0, 0.0, 0.0, 0.0, 1.6989589732232215E9, 0.0, 2023-11-02 17:02:53.223
113.0, -187500.02235174447, 187500.0, 31105.604005527977, 34629.6247398406, 187500.0, 187500.0, -187500.02235174447, 30799.854493123832, -0.074, 0.984, -0.074, 192.0, 0.0, 0.0, 0.0, 0.0, 0.0, 0.0, 0.0, 0.0, 0.0, 1.6989589732232513E9, 0.0, 2023-11-02 17:02:53.223
114.0, -187500.02235174447, 187500.0, 31110.78961024161, 34635.90558003254, 187500.0, 187500.0, -187500.02235174447, 30807.81171414992, -0.074, 0.984, -0.074, 192.0, 0.0, 0.0, 0.0, 0.0, 0.0, 0.0, 0.0, 0.0, 0.0, 1.6989589732232687E9, 0.0, 2023-11-02 17:02:53.223
115.0, -187500.02235174447, 187500.0, 31113.4941713207, 34645.56153363723, 187500.0, 187500.0, -187500.02235174447, 30814.852513653343, -0.074, 0.984, -0.074, 192.0, 0.0, 0.0, 0.0, 0.0, 0.0, 0.0, 0.0, 0.0, 0.0, 1.6989589732232857E9, 0.0, 2023-11-02 17:02:53.223
116.0, -187500.02235174447, 187500.0, 31111.10253466398, 34649.6295511281, 187500.0, 187500.0, -187500.02235174447, 30813.734926430578, -0.074, 0.984, -0.074, 192.0, 0.0, 0.0, 0.0, 0.0, 0.0, 0.0, 0.0, 0.0, 0.0, 1.6989589732233057E9, 0.0, 2023-11-02 17:02:53.223
117.0, -187500.02235174447, 187500.0, 31105.38048808342, 34641.09118474617, 187500.0, 187500.0, -187500.02235174447, 30807.677603683187, -0.07, 0.982, -0.074, 192.0, 253.0, 208.0, 30.0, 176.0, 253.0, 176.0, 0.0, 0.0, 0.0, 1.6989589732233255E9, 0.0, 2023-11-02 17:02:53.223
118.0, -187500.02235174447, 187500.0, 31102.20654037077, 34629.4235741405, 187500.0, 187500.0, -187500.02235174447, 30805.263615282016, -0.07, 0.982, -0.074, 192.0, 0.0, 0.0, 0.0, 0.0, 0.0, 0.0, 0.0, 0.0, 0.0, 1.69895897322335E9, 0.0, 2023-11-02 17:02:53.223
119.0, -187500.02235174447, 187500.0, 31094.67400248933, 34622.74040254836, 187500.0, 187500.0, -187500.02235174447, 30801.106190813327, -0.07, 0.982, -0.074, 192.0, 0.0, 0.0, 0.0, 0.0, 0.0, 0.0, 0.0, 0.0, 0.0, 1.698958973223372E9, 0.0, 2023-11-02 17:02:53.223
120.0, -187500.02235174447, 187500.0, 31092.528235021622, 34630.585864852175, 187500.0, 187500.0, -187500.02235174447, 30801.32970825788, -0.07, 0.982, -0.074, 192.0, 0.0, 0.0, 0.0, 0.0, 0.0, 0.0, 0.0, 0.0, 0.0, 1.6989589732234924E9, 0.0, 2023-11-02 17:02:53.223
121.0, -187500.02235174447, 187500.0, 31093.86933968894, 34634.296254431756, 187500.0, 187500.0, -187500.02235174447, 30802.6708129252, -0.07, 0.982, -0.074, 192.0, 0.0, 0.0, 0.0, 0.0, 0.0, 0.0, 0.0, 0.0, 0.0, 1.6989589732235131E9, 0.0, 2023-11-02 17:02:53.223
122.0, -187500.02235174447, 187500.0, 31104.01703167165, 34634.34095792067, 187500.0, 187500.0, -187500.02235174447, 30813.24318805256, -0.07, 0.982, -0.074, 192.0, 0.0, 0.0, 0.0, 0.0, 0.0, 0.0, 0.0, 0.0, 0.0, 1.698958973702216E9, 0.0, 2023-11-02 17:02:53.702
123.0, -187500.02235174447, 187500.0, 31108.397973584888, 34643.438117913975, 187500.0, 187500.0, -187500.02235174447, 30816.752411932044, -0.07, 0.982, -0.074, 192.0, 0.0, 0.0, 0.0, 0.0, 0.0, 0.0, 0.0, 0.0, 0.0, 1.698958973702342E9, 0.0, 2023-11-02 17:02:53.702
124.0, -187500.02235174447, 187500.0, 31106.20750262827, 34645.76269933733, 187500.0, 187500.0, -187500.02235174447, 30812.997318863552, -0.07, 0.982, -0.074, 192.0, 0.0, 0.0, 0.0, 0.0, 0.0, 0.0, 0.0, 0.0, 0.0, 1.6989589737023563E9, 0.0, 2023-11-02 17:02:53.702
125.0, -187500.02235174447, 187500.0, 31100.977194425726, 34637.82783005569, 187500.0, 187500.0, -187500.02235174447, 30808.169342061206, -0.07, 0.982, -0.074, 192.0, 0.0, 0.0, 0.0, 0.0, 0.0, 0.0, 0.0, 0.0, 0.0, 1.698958973702373E9, 0.0, 2023-11-02 17:02:53.702
126.0, -187500.02235174447, 187500.0, 31098.87613044693, 34632.105783475134, 187500.0, 187500.0, -187500.02235174447, 30804.61541469281, -0.07, 0.982, -0.074, 192.0, 0.0, 0.0, 0.0, 0.0, 0.0, 0.0, 0.0, 0.0, 0.0, 1.6989589737023857E9, 0.0, 2023-11-02 17:02:53.702
127.0, -187500.02235174447, 187500.0, 31097.937357179806, 34635.16797246551, 187500.0, 187500.0, -187500.02235174447, 30803.609586192324, -0.06, 0.982, -0.058, 192.0, 254.0, 32.0, 30.0, 176.0, 254.0, 48.0, 0.0, 0.0, 0.0, 1.6989589737023969E9, 0.0, 2023-11-02 17:02:53.702
128.0, -187500.02235174447, 187500.0, 31093.31054607756, 34634.430364898486, 187500.0, 187500.0, -187500.02235174447, 30797.90989135622, -0.06, 0.982, -0.058, 192.0, 0.0, 0.0, 0.0, 0.0, 0.0, 0.0, 0.0, 0.0, 0.0, 1.6989589737024357E9, 0.0, 2023-11-02 17:02:53.702
129.0, -187500.02235174447, 187500.0, 31095.92570017883, 34632.08343173068, 187500.0, 187500.0, -187500.02235174447, 30799.161589045718, -0.06, 0.982, -0.058, 192.0, 0.0, 0.0, 0.0, 0.0, 0.0, 0.0, 0.0, 0.0, 0.0, 1.69895897370245E9, 0.0, 2023-11-02 17:02:53.702
130.0, -187500.02235174447, 187500.0, 31094.763409467152, 34624.439135126966, 187500.0, 187500.0, -187500.02235174447, 30795.697068655143, -0.06, 0.982, -0.058, 192.0, 0.0, 0.0, 0.0, 0.0, 0.0, 0.0, 0.0, 0.0, 0.0, 1.698958973702463E9, 0.0, 2023-11-02 17:02:53.702
131.0, -187500.02235174447, 187500.0, 31094.897519933886, 34623.79093453776, 187500.0, 187500.0, -187500.02235174447, 30795.652365166232, -0.06, 0.982, -0.058, 192.0, 0.0, 0.0, 0.0, 0.0, 0.0, 0.0, 0.0, 0.0, 0.0, 1.6989589737024748E9, 0.0, 2023-11-02 17:02:53.702
132.0, -187500.02235174447, 187500.0, 31095.456313545266, 34630.85408578564, 187500.0, 187500.0, -187500.02235174447, 30795.652365166232, -0.06, 0.982, -0.058, 192.0, 0.0, 0.0, 0.0, 0.0, 0.0, 0.0, 0.0, 0.0, 0.0, 1.6989589737024877E9, 0.0, 2023-11-02 17:02:53.702
133.0, -187500.02235174447, 187500.0, 31095.76923796764, 34627.76954505081, 187500.0, 187500.0, -187500.02235174447, 30793.66305990971, -0.06, 0.982, -0.058, 192.0, 0.0, 0.0, 0.0, 0.0, 0.0, 0.0, 0.0, 0.0, 0.0, 1.6989589737025447E9, 0.0, 2023-11-02 17:02:53.702
134.0, -187500.02235174447, 187500.0, 31095.568072267542, 34618.44886761295, 187500.0, 187500.0, -187500.02235174447, 30793.104266298327, -0.06, 0.982, -0.058, 192.0, 0.0, 0.0, 0.0, 0.0, 0.0, 0.0, 0.0, 0.0, 0.0, 1.698958973702558E9, 0.0, 2023-11-02 17:02:53.702
135.0, -187500.02235174447, 187500.0, 31095.858644945463, 34616.07958270068, 187500.0, 187500.0, -187500.02235174447, 30793.640708165254, -0.06, 0.982, -0.058, 192.0, 0.0, 0.0, 0.0, 0.0, 0.0, 0.0, 0.0, 0.0, 0.0, 1.698958973702812E9, 0.0, 2023-11-02 17:02:53.702
136.0, -187500.02235174447, 187500.0, 31094.428133300324, 34619.544103091255, 187500.0, 187500.0, -187500.02235174447, 30792.85839710932, -0.06, 0.982, -0.058, 192.0, 0.0, 0.0, 0.0, 0.0, 0.0, 0.0, 0.0, 0.0, 0.0, 1.698958973702839E9, 0.0, 2023-11-02 17:02:53.702
137.0, -187500.02235174447, 187500.0, 31095.456313545266, 34618.33710889067, 187500.0, 187500.0, -187500.02235174447, 30793.126618042785, -0.058, 0.976, -0.05, 192.0, 254.0, 48.0, 30.0, 128.0, 254.0, 112.0, 0.0, 0.0, 0.0, 1.6989589737028513E9, 0.0, 2023-11-02 17:02:53.702
138.0, -187500.02235174447, 187500.0, 31093.355249566466, 34605.75307676233, 187500.0, 187500.0, -187500.02235174447, 30788.05277205143, -0.058, 0.976, -0.05, 192.0, 0.0, 0.0, 0.0, 0.0, 0.0, 0.0, 0.0, 0.0, 0.0, 1.6989589737028737E9, 0.0, 2023-11-02 17:02:53.702
139.0, -187500.02235174447, 187500.0, 31094.808112956063, 34595.40421907952, 187500.0, 187500.0, -187500.02235174447, 30788.09747554034, -0.058, 0.976, -0.05, 192.0, 0.0, 0.0, 0.0, 0.0, 0.0, 0.0, 0.0, 0.0, 0.0, 1.698958973702892E9, 0.0, 2023-11-02 17:02:53.702
140.0, -187500.02235174447, 187500.0, 31095.948051923282, 34586.12824513057, 187500.0, 187500.0, -187500.02235174447, 30787.136350528763, -0.058, 0.976, -0.05, 192.0, 0.0, 0.0, 0.0, 0.0, 0.0, 0.0, 0.0, 0.0, 0.0, 1.6989589737029068E9, 0.0, 2023-11-02 17:02:53.702
141.0, -187500.02235174447, 187500.0, 31102.452409559777, 34581.25556483932, 187500.0, 187500.0, -187500.02235174447, 30790.28794649696, -0.058, 0.976, -0.05, 192.0, 0.0, 0.0, 0.0, 0.0, 0.0, 0.0, 0.0, 0.0, 0.0, 1.6989589737029197E9, 0.0, 2023-11-02 17:02:53.702
142.0, -187500.02235174447, 187500.0, 31102.005374670673, 34580.249736338825, 187500.0, 187500.0, -187500.02235174447, 30790.422056963693, -0.058, 0.976, -0.05, 192.0, 0.0, 0.0, 0.0, 0.0, 0.0, 0.0, 0.0, 0.0, 0.0, 1.6989589737029362E9, 0.0, 2023-11-02 17:02:53.702
143.0, -187500.02235174447, 187500.0, 31098.563206024555, 34567.106910599105, 187500.0, 187500.0, -187500.02235174447, 30788.365696473804, -0.058, 0.976, -0.05, 192.0, 0.0, 0.0, 0.0, 0.0, 0.0, 0.0, 0.0, 0.0, 0.0, 1.6989589737029536E9, 0.0, 2023-11-02 17:02:53.702
144.0, -187500.02235174447, 187500.0, 31098.45144730228, 34553.24882903681, 187500.0, 187500.0, -187500.02235174447, 30788.47745519608, -0.058, 0.976, -0.05, 192.0, 0.0, 0.0, 0.0, 0.0, 0.0, 0.0, 0.0, 0.0, 0.0, 1.6989589737029688E9, 0.0, 2023-11-02 17:02:53.702
145.0, -187500.02235174447, 187500.0, 31098.00441241317, 34549.31492201268, 187500.0, 187500.0, -187500.02235174447, 30787.784551117966, -0.058, 0.976, -0.05, 192.0, 0.0, 0.0, 0.0, 0.0, 0.0, 0.0, 0.0, 0.0, 0.0, 1.6989589737029824E9, 0.0, 2023-11-02 17:02:53.702
146.0, -187500.02235174447, 187500.0, 31096.35038332348, 34544.241076021324, 187500.0, 187500.0, -187500.02235174447, 30785.79524586144, -0.048, 0.98, -0.038, 192.0, 254.0, 128.0, 30.0, 160.0, 254.0, 208.0, 0.0, 0.0, 0.0, 1.6989589737029977E9, 0.0, 2023-11-02 17:02:53.702
147.0, -187500.02235174447, 187500.0, 31099.47962754722, 34537.22262826236, 187500.0, 187500.0, -187500.02235174447, 30788.05277205143, -0.048, 0.98, -0.038, 192.0, 0.0, 0.0, 0.0, 0.0, 0.0, 0.0, 0.0, 0.0, 0.0, 1.698958973703024E9, 0.0, 2023-11-02 17:02:53.703
148.0, -187500.02235174447, 187500.0, 31096.48449379021, 34527.99135780232, 187500.0, 187500.0, -187500.02235174447, 30782.04015279295, -0.048, 0.98, -0.038, 192.0, 0.0, 0.0, 0.0, 0.0, 0.0, 0.0, 0.0, 0.0, 0.0, 1.6989589737030473E9, 0.0, 2023-11-02 17:02:53.703
149.0, -187500.02235174447, 187500.0, 31092.90821467736, 34525.8008868457, 187500.0, 187500.0, -187500.02235174447, 30777.212175990604, -0.048, 0.98, -0.038, 192.0, 0.0, 0.0, 0.0, 0.0, 0.0, 0.0, 0.0, 0.0, 0.0, 1.69895897370306E9, 0.0, 2023-11-02 17:02:53.703
150.0, -187500.02235174447, 187500.0, 31091.902386176873, 34528.21487524687, 187500.0, 187500.0, -187500.02235174447, 30772.965344544096, -0.048, 0.98, -0.038, 192.0, 0.0, 0.0, 0.0, 0.0, 0.0, 0.0, 0.0, 0.0, 0.0, 1.6989589737031617E9, 0.0, 2023-11-02 17:02:53.703
151.0, -187500.02235174447, 187500.0, 31092.416476299346, 34523.05162227769, 187500.0, 187500.0, -187500.02235174447, 30769.456120664614, -0.048, 0.98, -0.038, 192.0, 0.0, 0.0, 0.0, 0.0, 0.0, 0.0, 0.0, 0.0, 0.0, 1.6989589737031808E9, 0.0, 2023-11-02 17:02:53.703
152.0, -187500.02235174447, 187500.0, 31095.54572052309, 34515.42967741843, 187500.0, 187500.0, -187500.02235174447, 30768.651457864224, -0.048, 0.98, -0.038, 192.0, 0.0, 0.0, 0.0, 0.0, 0.0, 0.0, 0.0, 0.0, 0.0, 1.6989589737031972E9, 0.0, 2023-11-02 17:02:53.703
153.0, -187500.02235174447, 187500.0, 31089.33193556451, 34508.657098848475, 187500.0, 187500.0, -187500.02235174447, 30758.79433855943, -0.048, 0.98, -0.038, 192.0, 0.0, 0.0, 0.0, 0.0, 0.0, 0.0, 0.0, 0.0, 0.0, 1.6989589737032237E9, 0.0, 2023-11-02 17:02:53.703
154.0, -187500.02235174447, 187500.0, 31092.19295885479, 34507.53951162571, 187500.0, 187500.0, -187500.02235174447, 30760.001332760017, -0.048, 0.98, -0.038, 192.0, 0.0, 0.0, 0.0, 0.0, 0.0, 0.0, 0.0, 0.0, 0.0, 1.6989589737032375E9, 0.0, 2023-11-02 17:02:53.703
155.0, -187500.02235174447, 187500.0, 31096.283328090114, 34509.35000292659, 187500.0, 187500.0, -187500.02235174447, 30765.075178751373, -0.048, 0.98, -0.038, 192.0, 0.0, 0.0, 0.0, 0.0, 0.0, 0.0, 0.0, 0.0, 0.0, 1.6989589737033052E9, 0.0, 2023-11-02 17:02:53.703
156.0, -187500.02235174447, 187500.0, 31096.95388042377, 34505.41609590246, 187500.0, 187500.0, -187500.02235174447, 30765.85748980731, -0.066, 0.972, -0.048, 192.0, 253.0, 240.0, 30.0, 96.0, 254.0, 128.0, 0.0, 0.0, 0.0, 1.6989589737033255E9, 0.0, 2023-11-02 17:02:53.703
157.0, -187500.02235174447, 187500.0, 31092.349421065977, 34502.73388656782, 187500.0, 187500.0, -187500.02235174447, 30759.017856003986, -0.066, 0.972, -0.048, 192.0, 0.0, 0.0, 0.0, 0.0, 0.0, 0.0, 0.0, 0.0, 0.0, 1.6989589737033556E9, 0.0, 2023-11-02 17:02:53.703
158.0, -187500.02235174447, 187500.0, 31094.897519933886, 34505.796075558195, 187500.0, 187500.0, -187500.02235174447, 30759.08491123735, -0.066, 0.972, -0.048, 192.0, 0.0, 0.0, 0.0, 0.0, 0.0, 0.0, 0.0, 0.0, 0.0, 1.698958973703375E9, 0.0, 2023-11-02 17:02:53.703
159.0, -187500.02235174447, 187500.0, 31102.76533398215, 34508.9923750153, 187500.0, 187500.0, -187500.02235174447, 30763.018818261484, -0.066, 0.972, -0.048, 192.0, 0.0, 0.0, 0.0, 0.0, 0.0, 0.0, 0.0, 0.0, 0.0, 1.698958973703394E9, 0.0, 2023-11-02 17:02:53.703
160.0, -187500.02235174447, 187500.0, 31101.73715373721, 34509.10413373758, 187500.0, 187500.0, -187500.02235174447, 30757.43088214766, -0.066, 0.972, -0.048, 192.0, 0.0, 0.0, 0.0, 0.0, 0.0, 0.0, 0.0, 0.0, 0.0, 1.6989589737034276E9, 0.0, 2023-11-02 17:02:53.703
161.0, -187500.02235174447, 187500.0, 31095.3892583119, 34510.98168027183, 187500.0, 187500.0, -187500.02235174447, 30748.199611687614, -0.066, 0.972, -0.048, 192.0, 0.0, 0.0, 0.0, 0.0, 0.0, 0.0, 0.0, 0.0, 0.0, 1.698958973703444E9, 0.0, 2023-11-02 17:02:53.703
162.0, -187500.02235174447, 187500.0, 31094.897519933886, 34509.05943024867, 187500.0, 187500.0, -187500.02235174447, 30744.735091297043, -0.066, 0.972, -0.048, 192.0, 0.0, 0.0, 0.0, 0.0, 0.0, 0.0, 0.0, 0.0, 0.0, 1.6989589737034616E9, 0.0, 2023-11-02 17:02:53.703
163.0, -187500.02235174447, 187500.0, 31102.11713339295, 34509.95350002688, 187500.0, 187500.0, -187500.02235174447, 30747.819632031875, -0.066, 0.972, -0.048, 192.0, 0.0, 0.0, 0.0, 0.0, 0.0, 0.0, 0.0, 0.0, 0.0, 1.698958973703483E9, 0.0, 2023-11-02 17:02:53.703
164.0, -187500.02235174447, 187500.0, 31107.570959040044, 34505.34904066909, 187500.0, 187500.0, -187500.02235174447, 30750.255972177503, -0.066, 0.972, -0.048, 192.0, 0.0, 0.0, 0.0, 0.0, 0.0, 0.0, 0.0, 0.0, 0.0, 1.698958973703509E9, 0.0, 2023-11-02 17:02:53.703
165.0, -187500.02235174447, 187500.0, 31112.555398053577, 34505.32668892464, 187500.0, 187500.0, -187500.02235174447, 30750.948876255618, -0.066, 0.972, -0.048, 192.0, 0.0, 0.0, 0.0, 0.0, 0.0, 0.0, 0.0, 0.0, 0.0, 1.6989589737036145E9, 0.0, 2023-11-02 17:02:53.703
166.0, -187500.02235174447, 187500.0, 31118.076278934037, 34514.2450349623, 187500.0, 187500.0, -187500.02235174447, 30750.90417276671, -0.088, 0.962, -0.06, 192.0, 253.0, 64.0, 30.0, 16.0, 254.0, 32.0, 0.0, 0.0, 0.0, 1.6989589737036495E9, 0.0, 2023-11-02 17:02:53.703
167.0, -187500.02235174447, 187500.0, 31116.399898099888, 34508.813561059666, 187500.0, 187500.0, -187500.02235174447, 30743.326931396357, -0.088, 0.962, -0.06, 192.0, 0.0, 0.0, 0.0, 0.0, 0.0, 0.0, 0.0, 0.0, 0.0, 1.6989589737036662E9, 0.0, 2023-11-02 17:02:53.703
168.0, -187500.02235174447, 187500.0, 31123.820677259053, 34506.86895929205, 187500.0, 187500.0, -187500.02235174447, 30745.65151281971, -0.088, 0.962, -0.06, 192.0, 0.0, 0.0, 0.0, 0.0, 0.0, 0.0, 0.0, 0.0, 0.0, 1.698958973703683E9, 0.0, 2023-11-02 17:02:53.703
169.0, -187500.02235174447, 187500.0, 31133.34252039701, 34514.06622100666, 187500.0, 187500.0, -187500.02235174447, 30748.08785296534, -0.088, 0.962, -0.06, 192.0, 0.0, 0.0, 0.0, 0.0, 0.0, 0.0, 0.0, 0.0, 0.0, 1.6989589737037055E9, 0.0, 2023-11-02 17:02:53.703
170.0, -187500.02235174447, 187500.0, 31137.522296610154, 34516.86018906358, 187500.0, 187500.0, -187500.02235174447, 30745.919733753173, -0.088, 0.962, -0.06, 192.0, 0.0, 0.0, 0.0, 0.0, 0.0, 0.0, 0.0, 0.0, 0.0, 1.6989589737037294E9, 0.0, 2023-11-02 17:02:53.703
171.0, -187500.02235174447, 187500.0, 31145.434814147335, 34514.98264252933, 187500.0, 187500.0, -187500.02235174447, 30747.059672720396, -0.088, 0.962, -0.06, 192.0, 0.0, 0.0, 0.0, 0.0, 0.0, 0.0, 0.0, 0.0, 0.0, 1.6989589737037416E9, 0.0, 2023-11-02 17:02:53.703
172.0, -187500.02235174447, 187500.0, 31150.866288049972, 34515.07204950715, 187500.0, 187500.0, -187500.02235174447, 30746.478527364558, -0.088, 0.962, -0.06, 192.0, 0.0, 0.0, 0.0, 0.0, 0.0, 0.0, 0.0, 0.0, 0.0, 1.698958973703756E9, 0.0, 2023-11-02 17:02:53.703
173.0, -187500.02235174447, 187500.0, 31150.97804677225, 34511.27225294975, 187500.0, 187500.0, -187500.02235174447, 30741.024701717462, -0.088, 0.962, -0.06, 192.0, 0.0, 0.0, 0.0, 0.0, 0.0, 0.0, 0.0, 0.0, 0.0, 1.6989589737037697E9, 0.0, 2023-11-02 17:02:53.703
174.0, -187500.02235174447, 187500.0, 31156.16365148588, 34506.37722091404, 187500.0, 187500.0, -187500.02235174447, 30738.588361571834, -0.088, 0.962, -0.06, 192.0, 0.0, 0.0, 0.0, 0.0, 0.0, 0.0, 0.0, 0.0, 0.0, 1.6989589737037895E9, 0.0, 2023-11-02 17:02:53.703
175.0, -187500.02235174447, 187500.0, 31164.724369612264, 34501.057505733675, 187500.0, 187500.0, -187500.02235174447, 30741.449384862113, -0.088, 0.962, -0.06, 192.0, 0.0, 0.0, 0.0, 0.0, 0.0, 0.0, 0.0, 0.0, 0.0, 1.6989589737038069E9, 0.0, 2023-11-02 17:02:53.703
176.0, -187500.02235174447, 187500.0, 31169.529994670153, 34490.66394456195, 187500.0, 187500.0, -187500.02235174447, 30740.063576705885, -0.098, 0.97, -0.066, 192.0, 252.0, 240.0, 30.0, 80.0, 253.0, 240.0, 0.0, 0.0, 0.0, 1.698958973703837E9, 0.0, 2023-11-02 17:02:53.703
177.0, -187500.02235174447, 187500.0, 31177.084884296048, 34491.55801434017, 187500.0, 187500.0, -187500.02235174447, 30742.946951740618, -0.098, 0.97, -0.066, 192.0, 0.0, 0.0, 0.0, 0.0, 0.0, 0.0, 0.0, 0.0, 0.0, 1.6989589737038646E9, 0.0, 2023-11-02 17:02:53.703
178.0, -187500.02235174447, 187500.0, 31180.88468085345, 34501.057505733675, 187500.0, 187500.0, -187500.02235174447, 30742.43286161815, -0.098, 0.97, -0.066, 192.0, 0.0, 0.0, 0.0, 0.0, 0.0, 0.0, 0.0, 0.0, 0.0, 1.6989589737038825E9, 0.0, 2023-11-02 17:02:53.703
179.0, -187500.02235174447, 187500.0, 31179.498872697222, 34503.58325285712, 187500.0, 187500.0, -187500.02235174447, 30739.7059487946, -0.098, 0.97, -0.066, 192.0, 0.0, 0.0, 0.0, 0.0, 0.0, 0.0, 0.0, 0.0, 0.0, 1.6989589737039037E9, 0.0, 2023-11-02 17:02:53.703
180.0, -187500.02235174447, 187500.0, 31185.243271022235, 34500.23049118883, 187500.0, 187500.0, -187500.02235174447, 30744.600980830313, -0.098, 0.97, -0.066, 192.0, 0.0, 0.0, 0.0, 0.0, 0.0, 0.0, 0.0, 0.0, 0.0, 1.6989589737039216E9, 0.0, 2023-11-02 17:02:53.703
181.0, -187500.02235174447, 187500.0, 31187.724314656774, 34501.191616200405, 187500.0, 187500.0, -187500.02235174447, 30743.930428496653, -0.098, 0.97, -0.066, 192.0, 0.0, 0.0, 0.0, 0.0, 0.0, 0.0, 0.0, 0.0, 0.0, 1.698958973704046E9, 0.0, 2023-11-02 17:02:53.704
182.0, -187500.02235174447, 187500.0, 31185.690305911343, 34503.069162734646, 187500.0, 187500.0, -187500.02235174447, 30738.878934249755, -0.098, 0.97, -0.066, 192.0, 0.0, 0.0, 0.0, 0.0, 0.0, 0.0, 0.0, 0.0, 0.0, 1.6989589737040648E9, 0.0, 2023-11-02 17:02:53.704
183.0, -187500.02235174447, 187500.0, 31191.54646295863, 34510.53464538272, 187500.0, 187500.0, -187500.02235174447, 30743.21517267408, -0.098, 0.97, -0.066, 192.0, 0.0, 0.0, 0.0, 0.0, 0.0, 0.0, 0.0, 0.0, 0.0, 1.698958973704082E9, 0.0, 2023-11-02 17:02:53.704
184.0, -187500.02235174447, 187500.0, 31194.675707182374, 34513.1945029729, 187500.0, 187500.0, -187500.02235174447, 30745.450347119615, -0.098, 0.97, -0.066, 192.0, 0.0, 0.0, 0.0, 0.0, 0.0, 0.0, 0.0, 0.0, 0.0, 1.698958973704095E9, 0.0, 2023-11-02 17:02:53.704
185.0, -187500.02235174447, 187500.0, 31198.967242117793, 34511.36165992757, 187500.0, 187500.0, -187500.02235174447, 30748.22196343207, -0.098, 0.97, -0.066, 192.0, 0.0, 0.0, 0.0, 0.0, 0.0, 0.0, 0.0, 0.0, 0.0, 1.698958973704108E9, 0.0, 2023-11-02 17:02:53.704
186.0, -187500.02235174447, 187500.0, 31198.095524084038, 34512.12161923905, 187500.0, 187500.0, -187500.02235174447, 30746.456175620104, -0.094, 0.974, -0.078, 192.0, 253.0, 16.0, 30.0, 112.0, 253.0, 144.0, 0.0, 0.0, 0.0, 1.6989589737041256E9, 0.0, 2023-11-02 17:02:53.704
187.0, -187500.02235174447, 187500.0, 31195.50272172722, 34512.568654128154, 187500.0, 187500.0, -187500.02235174447, 30743.997483730018, -0.094, 0.974, -0.078, 192.0, 0.0, 0.0, 0.0, 0.0, 0.0, 0.0, 0.0, 0.0, 0.0, 1.6989589737041433E9, 0.0, 2023-11-02 17:02:53.704
188.0, -187500.02235174447, 187500.0, 31198.5649107176, 34516.36845068556, 187500.0, 187500.0, -187500.02235174447, 30746.70204480911, -0.094, 0.974, -0.078, 192.0, 0.0, 0.0, 0.0, 0.0, 0.0, 0.0, 0.0, 0.0, 0.0, 1.6989589737041628E9, 0.0, 2023-11-02 17:02:53.704
189.0, -187500.02235174447, 187500.0, 31193.78163740416, 34511.182845971925, 187500.0, 187500.0, -187500.02235174447, 30740.33179763935, -0.094, 0.974, -0.078, 192.0, 0.0, 0.0, 0.0, 0.0, 0.0, 0.0, 0.0, 0.0, 0.0, 1.6989589737041929E9, 0.0, 2023-11-02 17:02:53.704
190.0, -187500.02235174447, 187500.0, 31187.567852445587, 34506.35486916958, 187500.0, 187500.0, -187500.02235174447, 30734.877971992253, -0.094, 0.974, -0.078, 192.0, 0.0, 0.0, 0.0, 0.0, 0.0, 0.0, 0.0, 0.0, 0.0, 1.6989589737042215E9, 0.0, 2023-11-02 17:02:53.704
191.0, -187500.02235174447, 187500.0, 31187.433741978854, 34510.467590149354, 187500.0, 187500.0, -187500.02235174447, 30737.537829582434, -0.094, 0.974, -0.078, 192.0, 0.0, 0.0, 0.0, 0.0, 0.0, 0.0, 0.0, 0.0, 0.0, 1.6989589737042367E9, 0.0, 2023-11-02 17:02:53.704
192.0, -187500.02235174447, 187500.0, 31180.03531456415, 34507.0924767366, 187500.0, 187500.0, -187500.02235174447, 30728.820649244866, -0.094, 0.974, -0.078, 192.0, 0.0, 0.0, 0.0, 0.0, 0.0, 0.0, 0.0, 0.0, 0.0, 1.698958973704255E9, 0.0, 2023-11-02 17:02:53.704
193.0, -187500.02235174447, 187500.0, 31180.370590730978, 34494.15081669698, 187500.0, 187500.0, -187500.02235174447, 30730.22880914555, -0.094, 0.974, -0.078, 192.0, 0.0, 0.0, 0.0, 0.0, 0.0, 0.0, 0.0, 0.0, 0.0, 1.6989589737042692E9, 0.0, 2023-11-02 17:02:53.704
194.0, -187500.02235174447, 187500.0, 31184.639773921943, 34506.48897963631, 187500.0, 187500.0, -187500.02235174447, 30738.70012029411, -0.094, 0.974, -0.078, 192.0, 0.0, 0.0, 0.0, 0.0, 0.0, 0.0, 0.0, 0.0, 0.0, 1.6989589737042832E9, 0.0, 2023-11-02 17:02:53.704
195.0, -187500.02235174447, 187500.0, 31181.108198298003, 34517.41898267496, 187500.0, 187500.0, -187500.02235174447, 30738.07427144936, -0.094, 0.974, -0.078, 192.0, 0.0, 0.0, 0.0, 0.0, 0.0, 0.0, 0.0, 0.0, 0.0, 1.6989589737043009E9, 0.0, 2023-11-02 17:02:53.704
196.0, -187500.02235174447, 187500.0, 31175.542613928632, 34511.808694816675, 187500.0, 187500.0, -187500.02235174447, 30734.56504756988, -0.088, 0.974, -0.088, 192.0, 253.0, 64.0, 30.0, 112.0, 253.0, 64.0, 0.0, 0.0, 0.0, 1.6989589737043967E9, 0.0, 2023-11-02 17:02:53.704
197.0, -187500.02235174447, 187500.0, 31169.708808625797, 34503.24797669029, 187500.0, 187500.0, -187500.02235174447, 30731.547562068412, -0.088, 0.974, -0.088, 192.0, 0.0, 0.0, 0.0, 0.0, 0.0, 0.0, 0.0, 0.0, 0.0, 1.698958973704439E9, 0.0, 2023-11-02 17:02:53.704
198.0, -187500.02235174447, 187500.0, 31168.68062838085, 34503.31503192366, 187500.0, 187500.0, -187500.02235174447, 30731.92754172415, -0.088, 0.974, -0.088, 192.0, 0.0, 0.0, 0.0, 0.0, 0.0, 0.0, 0.0, 0.0, 0.0, 1.698958973704451E9, 0.0, 2023-11-02 17:02:53.704
199.0, -187500.02235174447, 187500.0, 31168.635924891943, 34506.2431104473, 187500.0, 187500.0, -187500.02235174447, 30733.648626047212, -0.088, 0.974, -0.088, 192.0, 0.0, 0.0, 0.0, 0.0, 0.0, 0.0, 0.0, 0.0, 0.0, 1.6989589737044685E9, 0.0, 2023-11-02 17:02:53.704
200.0, -187500.02235174447, 187500.0, 31162.26567772218, 34505.729020324834, 187500.0, 187500.0, -187500.02235174447, 30731.547562068412, -0.088, 0.974, -0.088, 192.0, 0.0, 0.0, 0.0, 0.0, 0.0, 0.0, 0.0, 0.0, 0.0, 1.698958973704484E9, 0.0, 2023-11-02 17:02:53.704
201.0, -187500.02235174447, 187500.0, 31164.21027948979, 34502.666831334456, 187500.0, 187500.0, -187500.02235174447, 30739.258913905494, -0.088, 0.974, -0.088, 192.0, 0.0, 0.0, 0.0, 0.0, 0.0, 0.0, 0.0, 0.0, 0.0, 1.6989589737045033E9, 0.0, 2023-11-02 17:02:53.704
202.0, -187500.02235174447, 187500.0, 31159.73993059873, 34503.22562494584, 187500.0, 187500.0, -187500.02235174447, 30738.14132668273, -0.088, 0.974, -0.088, 192.0, 0.0, 0.0, 0.0, 0.0, 0.0, 0.0, 0.0, 0.0, 0.0, 1.698958973704529E9, 0.0, 2023-11-02 17:02:53.704
203.0, -187500.02235174447, 187500.0, 31148.184078715334, 34497.95061325438, 187500.0, 187500.0, -187500.02235174447, 30730.87700973475, -0.088, 0.974, -0.088, 192.0, 0.0, 0.0, 0.0, 0.0, 0.0, 0.0, 0.0, 0.0, 0.0, 1.6989589737045462E9, 0.0, 2023-11-02 17:02:53.704
204.0, -187500.02235174447, 187500.0, 31147.178250214845, 34503.717363323856, 187500.0, 187500.0, -187500.02235174447, 30734.453288847602, -0.088, 0.974, -0.088, 192.0, 0.0, 0.0, 0.0, 0.0, 0.0, 0.0, 0.0, 0.0, 0.0, 1.6989589737045624E9, 0.0, 2023-11-02 17:02:53.704
205.0, -187500.02235174447, 187500.0, 31148.16172697088, 34505.237281946815, 187500.0, 187500.0, -187500.02235174447, 30738.36484412728, -0.088, 0.974, -0.088, 192.0, 0.0, 0.0, 0.0, 0.0, 0.0, 0.0, 0.0, 0.0, 0.0, 1.6989589737045736E9, 0.0, 2023-11-02 17:02:53.704
206.0, -187500.02235174447, 187500.0, 31147.245305448214, 34505.863130791564, 187500.0, 187500.0, -187500.02235174447, 30741.896419751218, -0.066, 0.982, -0.092, 192.0, 253.0, 240.0, 30.0, 176.0, 253.0, 32.0, 0.0, 0.0, 0.0, 1.6989589737045896E9, 0.0, 2023-11-02 17:02:53.704
207.0, -187500.02235174447, 187500.0, 31143.624322846452, 34505.55020636919, 187500.0, 187500.0, -187500.02235174447, 30740.398852872713, -0.066, 0.982, -0.092, 192.0, 0.0, 0.0, 0.0, 0.0, 0.0, 0.0, 0.0, 0.0, 0.0, 1.6989589737046013E9, 0.0, 2023-11-02 17:02:53.704
208.0, -187500.02235174447, 187500.0, 31136.963502998773, 34501.035153989214, 187500.0, 187500.0, -187500.02235174447, 30737.26960864897, -0.066, 0.982, -0.092, 192.0, 0.0, 0.0, 0.0, 0.0, 0.0, 0.0, 0.0, 0.0, 0.0, 1.698958973704619E9, 0.0, 2023-11-02 17:02:53.704
209.0, -187500.02235174447, 187500.0, 31133.2978169081, 34497.97296499884, 187500.0, 187500.0, -187500.02235174447, 30737.69429179362, -0.066, 0.982, -0.092, 192.0, 0.0, 0.0, 0.0, 0.0, 0.0, 0.0, 0.0, 0.0, 0.0, 1.698958973704635E9, 0.0, 2023-11-02 17:02:53.704
210.0, -187500.02235174447, 187500.0, 31128.961578483773, 34498.06237197666, 187500.0, 187500.0, -187500.02235174447, 30738.297788893917, -0.066, 0.982, -0.092, 192.0, 0.0, 0.0, 0.0, 0.0, 0.0, 0.0, 0.0, 0.0, 0.0, 1.6989589737046497E9, 0.0, 2023-11-02 17:02:53.704
211.0, -187500.02235174447, 187500.0, 31119.037403945615, 34496.363639398056, 187500.0, 187500.0, -187500.02235174447, 30732.821611502364, -0.066, 0.982, -0.092, 192.0, 0.0, 0.0, 0.0, 0.0, 0.0, 0.0, 0.0, 0.0, 0.0, 1.6989589737047374E9, 0.0, 2023-11-02 17:02:53.704
212.0, -187500.02235174447, 187500.0, 31111.080182919526, 34497.10124696508, 187500.0, 187500.0, -187500.02235174447, 30729.64766378971, -0.066, 0.982, -0.092, 192.0, 0.0, 0.0, 0.0, 0.0, 0.0, 0.0, 0.0, 0.0, 0.0, 1.6989589737047567E9, 0.0, 2023-11-02 17:02:53.704
213.0, -187500.02235174447, 187500.0, 31110.029650930126, 34492.943822496396, 187500.0, 187500.0, -187500.02235174447, 30731.14523066822, -0.066, 0.982, -0.092, 192.0, 0.0, 0.0, 0.0, 0.0, 0.0, 0.0, 0.0, 0.0, 0.0, 1.6989589737047725E9, 0.0, 2023-11-02 17:02:53.704
214.0, -187500.02235174447, 187500.0, 31111.370755597447, 34493.1896916854, 187500.0, 187500.0, -187500.02235174447, 30733.42510860266, -0.066, 0.982, -0.092, 192.0, 0.0, 0.0, 0.0, 0.0, 0.0, 0.0, 0.0, 0.0, 0.0, 1.698958973704789E9, 0.0, 2023-11-02 17:02:53.704
215.0, -187500.02235174447, 187500.0, 31106.766296239653, 34493.770837041244, 187500.0, 187500.0, -187500.02235174447, 30727.636006788733, -0.066, 0.982, -0.092, 192.0, 0.0, 0.0, 0.0, 0.0, 0.0, 0.0, 0.0, 0.0, 0.0, 1.698958973704806E9, 0.0, 2023-11-02 17:02:53.704
216.0, -187500.02235174447, 187500.0, 31108.174456140336, 34500.431656888926, 187500.0, 187500.0, -187500.02235174447, 30729.245332389517, -0.082, 0.962, -0.098, 192.0, 253.0, 112.0, 30.0, 16.0, 252.0, 240.0, 0.0, 0.0, 0.0, 1.6989589737048247E9, 0.0, 2023-11-02 17:02:53.704
217.0, -187500.02235174447, 187500.0, 31110.029650930126, 34503.78441855722, 187500.0, 187500.0, -187500.02235174447, 30731.99459695752, -0.082, 0.962, -0.098, 192.0, 0.0, 0.0, 0.0, 0.0, 0.0, 0.0, 0.0, 0.0, 0.0, 1.6989589737048507E9, 0.0, 2023-11-02 17:02:53.704
218.0, -187500.02235174447, 187500.0, 31115.05879343257, 34501.77276155624, 187500.0, 187500.0, -187500.02235174447, 30735.570876070367, -0.082, 0.962, -0.098, 192.0, 0.0, 0.0, 0.0, 0.0, 0.0, 0.0, 0.0, 0.0, 0.0, 1.6989589737048695E9, 0.0, 2023-11-02 17:02:53.704
219.0, -187500.02235174447, 187500.0, 31116.73517426672, 34500.63282258902, 187500.0, 187500.0, -187500.02235174447, 30737.09079469333, -0.082, 0.962, -0.098, 192.0, 0.0, 0.0, 0.0, 0.0, 0.0, 0.0, 0.0, 0.0, 0.0, 1.698958973704904E9, 0.0, 2023-11-02 17:02:53.704
220.0, -187500.02235174447, 187500.0, 31113.427116087332, 34503.80677030167, 187500.0, 187500.0, -187500.02235174447, 30733.067480691374, -0.082, 0.962, -0.098, 192.0, 0.0, 0.0, 0.0, 0.0, 0.0, 0.0, 0.0, 0.0, 0.0, 1.698958973704921E9, 0.0, 2023-11-02 17:02:53.704
221.0, -187500.02235174447, 187500.0, 31111.460162575266, 34498.241185932304, 187500.0, 187500.0, -187500.02235174447, 30731.301692879402, -0.082, 0.962, -0.098, 192.0, 0.0, 0.0, 0.0, 0.0, 0.0, 0.0, 0.0, 0.0, 0.0, 1.6989589737049527E9, 0.0, 2023-11-02 17:02:53.704
222.0, -187500.02235174447, 187500.0, 31116.53400856662, 34493.32380215214, 187500.0, 187500.0, -187500.02235174447, 30737.02373945996, -0.082, 0.962, -0.098, 192.0, 0.0, 0.0, 0.0, 0.0, 0.0, 0.0, 0.0, 0.0, 0.0, 1.6989589737049787E9, 0.0, 2023-11-02 17:02:53.704
223.0, -187500.02235174447, 187500.0, 31112.86832247595, 34494.50844460827, 187500.0, 187500.0, -187500.02235174447, 30734.386233614237, -0.082, 0.962, -0.098, 192.0, 0.0, 0.0, 0.0, 0.0, 0.0, 0.0, 0.0, 0.0, 0.0, 1.6989589737049916E9, 0.0, 2023-11-02 17:02:53.704
224.0, -187500.02235174447, 187500.0, 31106.945110195295, 34492.92147075194, 187500.0, 187500.0, -187500.02235174447, 30731.167582412672, -0.082, 0.962, -0.098, 192.0, 0.0, 0.0, 0.0, 0.0, 0.0, 0.0, 0.0, 0.0, 0.0, 1.6989589737050078E9, 0.0, 2023-11-02 17:02:53.705
225.0, -187500.02235174447, 187500.0, 31103.815865971552, 34499.224662688335, 187500.0, 187500.0, -187500.02235174447, 30732.955721969098, -0.082, 0.962, -0.098, 192.0, 0.0, 0.0, 0.0, 0.0, 0.0, 0.0, 0.0, 0.0, 0.0, 1.6989589737050292E9, 0.0, 2023-11-02 17:02:53.705
226.0, -187500.02235174447, 187500.0, 31103.927624693828, 34491.043924217694, 187500.0, 187500.0, -187500.02235174447, 30737.202553415606, -0.076, 0.976, -0.1, 192.0, 253.0, 160.0, 30.0, 128.0, 252.0, 224.0, 0.0, 0.0, 0.0, 1.698958973705188E9, 0.0, 2023-11-02 17:02:53.705
227.0, -187500.02235174447, 187500.0, 31101.334822337012, 34487.91467999395, 187500.0, 187500.0, -187500.02235174447, 30736.442594104126, -0.076, 0.976, -0.1, 192.0, 0.0, 0.0, 0.0, 0.0, 0.0, 0.0, 0.0, 0.0, 0.0, 1.6989589737052324E9, 0.0, 2023-11-02 17:02:53.705
228.0, -187500.02235174447, 187500.0, 31095.121037378438, 34482.61731655804, 187500.0, 187500.0, -187500.02235174447, 30727.636006788733, -0.076, 0.976, -0.1, 192.0, 0.0, 0.0, 0.0, 0.0, 0.0, 0.0, 0.0, 0.0, 0.0, 1.6989589737052557E9, 0.0, 2023-11-02 17:02:53.705
229.0, -187500.02235174447, 187500.0, 31094.316374578048, 34478.97398221183, 187500.0, 187500.0, -187500.02235174447, 30724.93144570964, -0.076, 0.976, -0.1, 192.0, 0.0, 0.0, 0.0, 0.0, 0.0, 0.0, 0.0, 0.0, 0.0, 1.6989589737052767E9, 0.0, 2023-11-02 17:02:53.705
230.0, -187500.02235174447, 187500.0, 31096.372735067933, 34476.358828110555, 187500.0, 187500.0, -187500.02235174447, 30726.6525300327, -0.076, 0.976, -0.1, 192.0, 0.0, 0.0, 0.0, 0.0, 0.0, 0.0, 0.0, 0.0, 0.0, 1.6989589737052982E9, 0.0, 2023-11-02 17:02:53.705
231.0, -187500.02235174447, 187500.0, 31101.87126420394, 34478.4375403449, 187500.0, 187500.0, -187500.02235174447, 30730.474678334558, -0.076, 0.976, -0.1, 192.0, 0.0, 0.0, 0.0, 0.0, 0.0, 0.0, 0.0, 0.0, 0.0, 1.6989589737053516E9, 0.0, 2023-11-02 17:02:53.705
232.0, -187500.02235174447, 187500.0, 31103.748810738187, 34487.17707242692, 187500.0, 187500.0, -187500.02235174447, 30732.039300446428, -0.076, 0.976, -0.1, 192.0, 0.0, 0.0, 0.0, 0.0, 0.0, 0.0, 0.0, 0.0, 0.0, 1.6989589737053783E9, 0.0, 2023-11-02 17:02:53.705
233.0, -187500.02235174447, 187500.0, 31093.757580966663, 34487.35588638257, 187500.0, 187500.0, -187500.02235174447, 30721.131649152238, -0.076, 0.976, -0.1, 192.0, 0.0, 0.0, 0.0, 0.0, 0.0, 0.0, 0.0, 0.0, 0.0, 1.698958973705405E9, 0.0, 2023-11-02 17:02:53.705
234.0, -187500.02235174447, 187500.0, 31096.48449379021, 34481.119749679536, 187500.0, 187500.0, -187500.02235174447, 30723.858561975787, -0.076, 0.976, -0.1, 192.0, 0.0, 0.0, 0.0, 0.0, 0.0, 0.0, 0.0, 0.0, 0.0, 1.6989589737054348E9, 0.0, 2023-11-02 17:02:53.705
235.0, -187500.02235174447, 187500.0, 31105.96163343926, 34483.44433110289, 187500.0, 187500.0, -187500.02235174447, 30732.50868707999, -0.076, 0.976, -0.1, 192.0, 0.0, 0.0, 0.0, 0.0, 0.0, 0.0, 0.0, 0.0, 0.0, 1.6989589737054737E9, 0.0, 2023-11-02 17:02:53.705
236.0, -187500.02235174447, 187500.0, 31104.307604349568, 34490.86511026205, 187500.0, 187500.0, -187500.02235174447, 30729.64766378971, -0.096, 0.972, -0.098, 192.0, 253.0, 0.0, 30.0, 96.0, 252.0, 240.0, 0.0, 0.0, 0.0, 1.6989589737054927E9, 0.0, 2023-11-02 17:02:53.705
237.0, -187500.02235174447, 187500.0, 31104.128790393926, 34494.620203330545, 187500.0, 187500.0, -187500.02235174447, 30727.479544577545, -0.096, 0.972, -0.098, 192.0, 0.0, 0.0, 0.0, 0.0, 0.0, 0.0, 0.0, 0.0, 0.0, 1.6989589737055316E9, 0.0, 2023-11-02 17:02:53.705
238.0, -187500.02235174447, 187500.0, 31101.91596769285, 34492.18386318492, 187500.0, 187500.0, -187500.02235174447, 30723.545637553412, -0.096, 0.972, -0.098, 192.0, 0.0, 0.0, 0.0, 0.0, 0.0, 0.0, 0.0, 0.0, 0.0, 1.6989589737055445E9, 0.0, 2023-11-02 17:02:53.705
239.0, -187500.02235174447, 187500.0, 31097.311508335057, 34485.098360192584, 187500.0, 187500.0, -187500.02235174447, 30716.30367234989, -0.096, 0.972, -0.098, 192.0, 0.0, 0.0, 0.0, 0.0, 0.0, 0.0, 0.0, 0.0, 0.0, 1.6989589737055745E9, 0.0, 2023-11-02 17:02:53.705
240.0, -187500.02235174447, 187500.0, 31101.692450248298, 34488.07114220514, 187500.0, 187500.0, -187500.02235174447, 30719.36586134027, -0.096, 0.972, -0.098, 192.0, 0.0, 0.0, 0.0, 0.0, 0.0, 0.0, 0.0, 0.0, 0.0, 1.698958973705628E9, 0.0, 2023-11-02 17:02:53.705
241.0, -187500.02235174447, 187500.0, 31097.95970892426, 34496.20717718687, 187500.0, 187500.0, -187500.02235174447, 30718.851771217796, -0.096, 0.972, -0.098, 192.0, 0.0, 0.0, 0.0, 0.0, 0.0, 0.0, 0.0, 0.0, 0.0, 1.6989589737057817E9, 0.0, 2023-11-02 17:02:53.705
242.0, -187500.02235174447, 187500.0, 31098.518502535644, 34495.91660450895, 187500.0, 187500.0, -187500.02235174447, 30723.165657897673, -0.096, 0.972, -0.098, 192.0, 0.0, 0.0, 0.0, 0.0, 0.0, 0.0, 0.0, 0.0, 0.0, 1.6989589737058136E9, 0.0, 2023-11-02 17:02:53.705
243.0, -187500.02235174447, 187500.0, 31097.713839735254, 34489.524005594736, 187500.0, 187500.0, -187500.02235174447, 30723.545637553412, -0.096, 0.972, -0.098, 192.0, 0.0, 0.0, 0.0, 0.0, 0.0, 0.0, 0.0, 0.0, 0.0, 1.6989589741833532E9, 0.0, 2023-11-02 17:02:54.183
244.0, -187500.02235174447, 187500.0, 31094.24931934468, 34488.607584072066, 187500.0, 187500.0, -187500.02235174447, 30721.757497996987, -0.096, 0.972, -0.098, 192.0, 0.0, 0.0, 0.0, 0.0, 0.0, 0.0, 0.0, 0.0, 0.0, 1.6989589741834655E9, 0.0, 2023-11-02 17:02:54.183
245.0, -187500.02235174447, 187500.0, 31085.755656451664, 34489.34519163909, 187500.0, 187500.0, -187500.02235174447, 30716.46013456108, -0.096, 0.972, -0.098, 192.0, 0.0, 0.0, 0.0, 0.0, 0.0, 0.0, 0.0, 0.0, 0.0, 1.6989589741834831E9, 0.0, 2023-11-02 17:02:54.183
246.0, -187500.02235174447, 187500.0, 31077.843138914486, 34485.321877637136, 187500.0, 187500.0, -187500.02235174447, 30713.21913161506, -0.082, 0.984, -0.1, 192.0, 253.0, 112.0, 30.0, 192.0, 252.0, 224.0, 0.0, 0.0, 0.0, 1.6989589741834955E9, 0.0, 2023-11-02 17:02:54.183
247.0, -187500.02235174447, 187500.0, 31079.072484859527, 34481.455025846364, 187500.0, 187500.0, -187500.02235174447, 30718.516495050968, -0.082, 0.984, -0.1, 192.0, 0.0, 0.0, 0.0, 0.0, 0.0, 0.0, 0.0, 0.0, 0.0, 1.6989589741835115E9, 0.0, 2023-11-02 17:02:54.183
248.0, -187500.02235174447, 187500.0, 31072.836348156496, 34480.76212176825, 187500.0, 187500.0, -187500.02235174447, 30715.297843849403, -0.082, 0.984, -0.1, 192.0, 0.0, 0.0, 0.0, 0.0, 0.0, 0.0, 0.0, 0.0, 0.0, 1.698958974183529E9, 0.0, 2023-11-02 17:02:54.183
249.0, -187500.02235174447, 187500.0, 31068.589516709988, 34481.879708991015, 187500.0, 187500.0, -187500.02235174447, 30711.83332345883, -0.082, 0.984, -0.1, 192.0, 0.0, 0.0, 0.0, 0.0, 0.0, 0.0, 0.0, 0.0, 0.0, 1.6989589741835427E9, 0.0, 2023-11-02 17:02:54.183
250.0, -187500.02235174447, 187500.0, 31069.282420788102, 34479.085740934104, 187500.0, 187500.0, -187500.02235174447, 30710.760439724978, -0.082, 0.984, -0.1, 192.0, 0.0, 0.0, 0.0, 0.0, 0.0, 0.0, 0.0, 0.0, 0.0, 1.6989589741835544E9, 0.0, 2023-11-02 17:02:54.183
251.0, -187500.02235174447, 187500.0, 31066.443749242277, 34472.179051897416, 187500.0, 187500.0, -187500.02235174447, 30707.45238154559, -0.082, 0.984, -0.1, 192.0, 0.0, 0.0, 0.0, 0.0, 0.0, 0.0, 0.0, 0.0, 0.0, 1.6989589741835668E9, 0.0, 2023-11-02 17:02:54.183
252.0, -187500.02235174447, 187500.0, 31063.24744978517, 34469.60860128506, 187500.0, 187500.0, -187500.02235174447, 30705.105448377784, -0.082, 0.984, -0.1, 192.0, 0.0, 0.0, 0.0, 0.0, 0.0, 0.0, 0.0, 0.0, 0.0, 1.6989589741835785E9, 0.0, 2023-11-02 17:02:54.183
253.0, -187500.02235174447, 187500.0, 31059.358246249947, 34479.06338918965, 187500.0, 187500.0, -187500.02235174447, 30703.272605332448, -0.082, 0.984, -0.1, 192.0, 0.0, 0.0, 0.0, 0.0, 0.0, 0.0, 0.0, 0.0, 0.0, 1.6989589741835904E9, 0.0, 2023-11-02 17:02:54.183
254.0, -187500.02235174447, 187500.0, 31054.887897358883, 34478.68340953391, 187500.0, 187500.0, -187500.02235174447, 30701.372707053746, -0.082, 0.984, -0.1, 192.0, 0.0, 0.0, 0.0, 0.0, 0.0, 0.0, 0.0, 0.0, 0.0, 1.6989589741836016E9, 0.0, 2023-11-02 17:02:54.183
255.0, -187500.02235174447, 187500.0, 31055.446690970268, 34478.191671155895, 187500.0, 187500.0, -187500.02235174447, 30703.339660565816, -0.082, 0.984, -0.1, 192.0, 0.0, 0.0, 0.0, 0.0, 0.0, 0.0, 0.0, 0.0, 0.0, 1.6989589741836233E9, 0.0, 2023-11-02 17:02:54.183
0.0, -187500.02235174447, 187500.0, 31057.078368315506, 34477.11878742204, 187500.0, 187500.0, -187500.02235174447, 30706.178332111638, -0.084, 0.972, -0.092, 192.0, 253.0, 96.0, 30.0, 96.0, 253.0, 32.0, 0.0, 0.0, 0.0, 1.6989589741838565E9, 0.0, 2023-11-02 17:02:54.183
1.0, -187500.02235174447, 187500.0, 31055.3796357369, 34478.79516825618, 187500.0, 187500.0, -187500.02235174447, 30705.194855355607, -0.084, 0.972, -0.092, 192.0, 0.0, 0.0, 0.0, 0.0, 0.0, 0.0, 0.0, 0.0, 0.0, 1.698958974183875E9, 0.0, 2023-11-02 17:02:54.183
2.0, -187500.02235174447, 187500.0, 31048.651760655852, 34477.9905054558, 187500.0, 187500.0, -187500.02235174447, 30699.472808775048, -0.084, 0.972, -0.092, 192.0, 0.0, 0.0, 0.0, 0.0, 0.0, 0.0, 0.0, 0.0, 0.0, 1.6989589741838884E9, 0.0, 2023-11-02 17:02:54.183
3.0, -187500.02235174447, 187500.0, 31057.30188576006, 34479.91275547895, 187500.0, 187500.0, -187500.02235174447, 30708.525265279444, -0.084, 0.972, -0.092, 192.0, 0.0, 0.0, 0.0, 0.0, 0.0, 0.0, 0.0, 0.0, 0.0, 1.6989589741839008E9, 0.0, 2023-11-02 17:02:54.183
4.0, -187500.02235174447, 187500.0, 31059.492356716677, 34482.34909562458, 187500.0, 187500.0, -187500.02235174447, 30711.56510252537, -0.084, 0.972, -0.092, 192.0, 0.0, 0.0, 0.0, 0.0, 0.0, 0.0, 0.0, 0.0, 0.0, 1.6989589741839132E9, 0.0, 2023-11-02 17:02:54.183
5.0, -187500.02235174447, 187500.0, 31058.10654856045, 34481.879708991015, 187500.0, 187500.0, -187500.02235174447, 30708.905244935188, -0.084, 0.972, -0.092, 192.0, 0.0, 0.0, 0.0, 0.0, 0.0, 0.0, 0.0, 0.0, 0.0, 1.6989589741839554E9, 0.0, 2023-11-02 17:02:54.183
6.0, -187500.02235174447, 187500.0, 31052.071577557515, 34486.19359567089, 187500.0, 187500.0, -187500.02235174447, 30704.881930933232, -0.084, 0.972, -0.092, 192.0, 0.0, 0.0, 0.0, 0.0, 0.0, 0.0, 0.0, 0.0, 0.0, 1.6989589741839669E9, 0.0, 2023-11-02 17:02:54.183
7.0, -187500.02235174447, 187500.0, 31049.076443800506, 34481.00799095726, 187500.0, 187500.0, -187500.02235174447, 30704.501951277492, -0.084, 0.972, -0.092, 192.0, 0.0, 0.0, 0.0, 0.0, 0.0, 0.0, 0.0, 0.0, 0.0, 1.69895897418398E9, 0.0, 2023-11-02 17:02:54.183
8.0, -187500.02235174447, 187500.0, 31055.692560159274, 34475.4871100768, 187500.0, 187500.0, -187500.02235174447, 30714.40377407119, -0.084, 0.972, -0.092, 192.0, 0.0, 0.0, 0.0, 0.0, 0.0, 0.0, 0.0, 0.0, 0.0, 1.6989589741839905E9, 0.0, 2023-11-02 17:02:54.183
9.0, -187500.02235174447, 187500.0, 31060.38642649489, 34481.745598524285, 187500.0, 187500.0, -187500.02235174447, 30721.01989042996, -0.084, 0.972, -0.092, 192.0, 0.0, 0.0, 0.0, 0.0, 0.0, 0.0, 0.0, 0.0, 0.0, 1.6989589741840005E9, 0.0, 2023-11-02 17:02:54.184
10.0, -187500.02235174447, 187500.0, 31063.62742944091, 34488.98756372781, 187500.0, 187500.0, -187500.02235174447, 30724.663224776177, -0.07, 0.982, -0.098, 192.0, 253.0, 208.0, 30.0, 176.0, 252.0, 240.0, 0.0, 0.0, 0.0, 1.698958974184013E9, 0.0, 2023-11-02 17:02:54.184
11.0, -187500.02235174447, 187500.0, 31062.86747012943, 34486.41711311544, 187500.0, 187500.0, -187500.02235174447, 30724.193838142615, -0.07, 0.982, -0.098, 192.0, 0.0, 0.0, 0.0, 0.0, 0.0, 0.0, 0.0, 0.0, 0.0, 1.6989589741840286E9, 0.0, 2023-11-02 17:02:54.184
12.0, -187500.02235174447, 187500.0, 31060.878164872905, 34482.796130513685, 187500.0, 187500.0, -187500.02235174447, 30723.791506742422, -0.07, 0.982, -0.098, 192.0, 0.0, 0.0, 0.0, 0.0, 0.0, 0.0, 0.0, 0.0, 0.0, 1.6989589741840382E9, 0.0, 2023-11-02 17:02:54.184
13.0, -187500.02235174447, 187500.0, 31061.079330573004, 34483.51138633626, 187500.0, 187500.0, -187500.02235174447, 30724.37265209826, -0.07, 0.982, -0.098, 192.0, 0.0, 0.0, 0.0, 0.0, 0.0, 0.0, 0.0, 0.0, 0.0, 1.698958974184051E9, 0.0, 2023-11-02 17:02:54.184
14.0, -187500.02235174447, 187500.0, 31056.161946792836, 34487.4899968493, 187500.0, 187500.0, -187500.02235174447, 30718.98588168453, -0.07, 0.982, -0.098, 192.0, 0.0, 0.0, 0.0, 0.0, 0.0, 0.0, 0.0, 0.0, 0.0, 1.6989589741840649E9, 0.0, 2023-11-02 17:02:54.184
15.0, -187500.02235174447, 187500.0, 31057.190127037782, 34486.35005788208, 187500.0, 187500.0, -187500.02235174447, 30720.5505037964, -0.07, 0.982, -0.098, 192.0, 0.0, 0.0, 0.0, 0.0, 0.0, 0.0, 0.0, 0.0, 0.0, 1.6989589741841128E9, 0.0, 2023-11-02 17:02:54.184
16.0, -187500.02235174447, 187500.0, 31066.063769586537, 34492.07210446264, 187500.0, 187500.0, -187500.02235174447, 30728.79829750041, -0.07, 0.982, -0.098, 192.0, 0.0, 0.0, 0.0, 0.0, 0.0, 0.0, 0.0, 0.0, 0.0, 1.6989589741841264E9, 0.0, 2023-11-02 17:02:54.184
17.0, -187500.02235174447, 187500.0, 31066.868432386927, 34491.78153178472, 187500.0, 187500.0, -187500.02235174447, 30726.384309099238, -0.07, 0.982, -0.098, 192.0, 0.0, 0.0, 0.0, 0.0, 0.0, 0.0, 0.0, 0.0, 0.0, 1.6989589741841393E9, 0.0, 2023-11-02 17:02:54.184
18.0, -187500.02235174447, 187500.0, 31062.331028262503, 34491.06627596215, 187500.0, 187500.0, -187500.02235174447, 30721.712794508076, -0.07, 0.982, -0.098, 192.0, 0.0, 0.0, 0.0, 0.0, 0.0, 0.0, 0.0, 0.0, 0.0, 1.6989589741841528E9, 0.0, 2023-11-02 17:02:54.184
19.0, -187500.02235174447, 187500.0, 31060.945220106274, 34490.574537584136, 187500.0, 187500.0, -187500.02235174447, 30720.505800307492, -0.07200000000000001, 0.964, -0.098, 192.0, 253.0, 192.0, 30.0, 32.0, 252.0, 240.0, 0.0, 0.0, 0.0, 1.6989589741841664E9, 0.0, 2023-11-02 17:02:54.184
20.0, -187500.02235174447, 187500.0, 31059.67117067232, 34485.455988103866, 187500.0, 187500.0, -187500.02235174447, 30718.851771217796, -0.07200000000000001, 0.964, -0.098, 192.0, 0.0, 0.0, 0.0, 0.0, 0.0, 0.0, 0.0, 0.0, 0.0, 1.6989589741841795E9, 0.0, 2023-11-02 17:02:54.184
21.0, -187500.02235174447, 187500.0, 31058.642990427375, 34482.46085434686, 187500.0, 187500.0, -187500.02235174447, 30719.879951462743, -0.07200000000000001, 0.964, -0.098, 192.0, 0.0, 0.0, 0.0, 0.0, 0.0, 0.0, 0.0, 0.0, 0.0, 1.6989589741841917E9, 0.0, 2023-11-02 17:02:54.184
22.0, -187500.02235174447, 187500.0, 31054.776138636607, 34488.87580500553, 187500.0, 187500.0, -187500.02235174447, 30716.773058983454, -0.07200000000000001, 0.964, -0.098, 192.0, 0.0, 0.0, 0.0, 0.0, 0.0, 0.0, 0.0, 0.0, 0.0, 1.698958974184207E9, 0.0, 2023-11-02 17:02:54.184
23.0, -187500.02235174447, 187500.0, 31054.038531069582, 34490.39572362849, 187500.0, 187500.0, -187500.02235174447, 30717.37655608375, -0.07200000000000001, 0.964, -0.098, 192.0, 0.0, 0.0, 0.0, 0.0, 0.0, 0.0, 0.0, 0.0, 0.0, 1.698958974184219E9, 0.0, 2023-11-02 17:02:54.184
24.0, -187500.02235174447, 187500.0, 31068.455406243254, 34494.463741119354, 187500.0, 187500.0, -187500.02235174447, 30732.620445802266, -0.07200000000000001, 0.964, -0.098, 192.0, 0.0, 0.0, 0.0, 0.0, 0.0, 0.0, 0.0, 0.0, 0.0, 1.6989589741842315E9, 0.0, 2023-11-02 17:02:54.184
25.0, -187500.02235174447, 187500.0, 31077.574917981023, 34502.219796445344, 187500.0, 187500.0, -187500.02235174447, 30744.22100117457, -0.07200000000000001, 0.964, -0.098, 192.0, 0.0, 0.0, 0.0, 0.0, 0.0, 0.0, 0.0, 0.0, 0.0, 1.6989589741842475E9, 0.0, 2023-11-02 17:02:54.184
26.0, -187500.02235174447, 187500.0, 31082.179377338813, 34513.5968343731, 187500.0, 187500.0, -187500.02235174447, 30750.166565199685, -0.07200000000000001, 0.964, -0.098, 192.0, 0.0, 0.0, 0.0, 0.0, 0.0, 0.0, 0.0, 0.0, 0.0, 1.6989589741842585E9, 0.0, 2023-11-02 17:02:54.184
27.0, -187500.02235174447, 187500.0, 31083.028743628114, 34513.23920646181, 187500.0, 187500.0, -187500.02235174447, 30751.775890800465, -0.07200000000000001, 0.964, -0.098, 192.0, 0.0, 0.0, 0.0, 0.0, 0.0, 0.0, 0.0, 0.0, 0.0, 1.6989589741842768E9, 0.0, 2023-11-02 17:02:54.184
28.0, -187500.02235174447, 187500.0, 31081.508825005156, 34502.68918307891, 187500.0, 187500.0, -187500.02235174447, 30750.680655322154, -0.07200000000000001, 0.964, -0.098, 192.0, 0.0, 0.0, 0.0, 0.0, 0.0, 0.0, 0.0, 0.0, 0.0, 1.6989589741842945E9, 0.0, 2023-11-02 17:02:54.184
29.0, -187500.02235174447, 187500.0, 31089.19782509778, 34501.83981678961, 187500.0, 187500.0, -187500.02235174447, 30758.6602280927, -0.062, 0.98, -0.098, 192.0, 254.0, 16.0, 30.0, 160.0, 252.0, 240.0, 0.0, 0.0, 0.0, 1.6989589741843114E9, 0.0, 2023-11-02 17:02:54.184
30.0, -187500.02235174447, 187500.0, 31084.05692387306, 34510.57934887163, 187500.0, 187500.0, -187500.02235174447, 30756.62621934727, -0.062, 0.98, -0.098, 192.0, 0.0, 0.0, 0.0, 0.0, 0.0, 0.0, 0.0, 0.0, 0.0, 1.6989589741843665E9, 0.0, 2023-11-02 17:02:54.184
31.0, -187500.02235174447, 187500.0, 31074.669191201832, 34510.71345933837, 187500.0, 187500.0, -187500.02235174447, 30750.4571378776, -0.062, 0.98, -0.098, 192.0, 0.0, 0.0, 0.0, 0.0, 0.0, 0.0, 0.0, 0.0, 0.0, 1.6989589741843824E9, 0.0, 2023-11-02 17:02:54.184
32.0, -187500.02235174447, 187500.0, 31072.97045862323, 34505.90783428047, 187500.0, 187500.0, -187500.02235174447, 30750.36773089978, -0.062, 0.98, -0.098, 192.0, 0.0, 0.0, 0.0, 0.0, 0.0, 0.0, 0.0, 0.0, 0.0, 1.6989589741843996E9, 0.0, 2023-11-02 17:02:54.184
33.0, -187500.02235174447, 187500.0, 31075.093874346483, 34502.46566563436, 187500.0, 187500.0, -187500.02235174447, 30753.809899545897, -0.062, 0.98, -0.098, 192.0, 0.0, 0.0, 0.0, 0.0, 0.0, 0.0, 0.0, 0.0, 0.0, 1.6989589741844172E9, 0.0, 2023-11-02 17:02:54.184
34.0, -187500.02235174447, 187500.0, 31078.558394737054, 34500.11873246655, 187500.0, 187500.0, -187500.02235174447, 30756.22388794707, -0.062, 0.98, -0.098, 192.0, 0.0, 0.0, 0.0, 0.0, 0.0, 0.0, 0.0, 0.0, 0.0, 1.6989589741844332E9, 0.0, 2023-11-02 17:02:54.184
35.0, -187500.02235174447, 187500.0, 31076.725551691718, 34508.70180233739, 187500.0, 187500.0, -187500.02235174447, 30755.441576891135, -0.062, 0.98, -0.098, 192.0, 0.0, 0.0, 0.0, 0.0, 0.0, 0.0, 0.0, 0.0, 0.0, 1.698958974184448E9, 0.0, 2023-11-02 17:02:54.184
36.0, -187500.02235174447, 187500.0, 31070.86939464443, 34495.4919213643, 187500.0, 187500.0, -187500.02235174447, 30750.390082644237, -0.062, 0.98, -0.098, 192.0, 0.0, 0.0, 0.0, 0.0, 0.0, 0.0, 0.0, 0.0, 0.0, 1.6989589741844623E9, 0.0, 2023-11-02 17:02:54.184
37.0, -187500.02235174447, 187500.0, 31072.4340167563, 34495.96130799786, 187500.0, 187500.0, -187500.02235174447, 30755.486280380046, -0.062, 0.98, -0.098, 192.0, 0.0, 0.0, 0.0, 0.0, 0.0, 0.0, 0.0, 0.0, 0.0, 1.6989589741844797E9, 0.0, 2023-11-02 17:02:54.184
38.0, -187500.02235174447, 187500.0, 31065.4826242307, 34502.800941801186, 187500.0, 187500.0, -187500.02235174447, 30753.608733845802, -0.062, 0.98, -0.098, 192.0, 0.0, 0.0, 0.0, 0.0, 0.0, 0.0, 0.0, 0.0, 0.0, 1.6989589741844945E9, 0.0, 2023-11-02 17:02:54.184
39.0, -187500.02235174447, 187500.0, 31060.073502072515, 34507.67362209244, 187500.0, 187500.0, -187500.02235174447, 30753.496975123522, -0.056, 0.974, -0.1, 192.0, 254.0, 64.0, 30.0, 112.0, 252.0, 224.0, 0.0, 0.0, 0.0, 1.6989589741845088E9, 0.0, 2023-11-02 17:02:54.184
40.0, -187500.02235174447, 187500.0, 31058.508879960646, 34509.998203515795, 187500.0, 187500.0, -187500.02235174447, 30757.766158314487, -0.056, 0.974, -0.1, 192.0, 0.0, 0.0, 0.0, 0.0, 0.0, 0.0, 0.0, 0.0, 0.0, 1.6989589741845255E9, 0.0, 2023-11-02 17:02:54.184
41.0, -187500.02235174447, 187500.0, 31055.603153181455, 34500.99045050031, 187500.0, 187500.0, -187500.02235174447, 30757.36382691429, -0.056, 0.974, -0.1, 192.0, 0.0, 0.0, 0.0, 0.0, 0.0, 0.0, 0.0, 0.0, 0.0, 1.6989589741845412E9, 0.0, 2023-11-02 17:02:54.184
42.0, -187500.02235174447, 187500.0, 31043.66732164232, 34486.439464859905, 187500.0, 187500.0, -187500.02235174447, 30747.37259714277, -0.056, 0.974, -0.1, 192.0, 0.0, 0.0, 0.0, 0.0, 0.0, 0.0, 0.0, 0.0, 0.0, 1.698958974184559E9, 0.0, 2023-11-02 17:02:54.184
43.0, -187500.02235174447, 187500.0, 31035.866562827418, 34484.62897355902, 187500.0, 187500.0, -187500.02235174447, 30742.522268595967, -0.056, 0.974, -0.1, 192.0, 0.0, 0.0, 0.0, 0.0, 0.0, 0.0, 0.0, 0.0, 0.0, 1.6989589741845777E9, 0.0, 2023-11-02 17:02:54.184
44.0, -187500.02235174447, 187500.0, 31030.032757524583, 34485.61245031506, 187500.0, 187500.0, -187500.02235174447, 30737.984864471542, -0.056, 0.974, -0.1, 192.0, 0.0, 0.0, 0.0, 0.0, 0.0, 0.0, 0.0, 0.0, 0.0, 1.6989589741845932E9, 0.0, 2023-11-02 17:02:54.184
45.0, -187500.02235174447, 187500.0, 31030.971530791707, 34478.99633395628, 187500.0, 187500.0, -187500.02235174447, 30741.114108695285, -0.056, 0.974, -0.1, 192.0, 0.0, 0.0, 0.0, 0.0, 0.0, 0.0, 0.0, 0.0, 0.0, 1.6989589741846209E9, 0.0, 2023-11-02 17:02:54.184
46.0, -187500.02235174447, 187500.0, 31031.910304058827, 34479.666886289946, 187500.0, 187500.0, -187500.02235174447, 30743.528097096456, -0.056, 0.974, -0.1, 192.0, 0.0, 0.0, 0.0, 0.0, 0.0, 0.0, 0.0, 0.0, 0.0, 1.6989589741847277E9, 0.0, 2023-11-02 17:02:54.184
47.0, -187500.02235174447, 187500.0, 31033.787850593075, 34485.031304959215, 187500.0, 187500.0, -187500.02235174447, 30747.059672720396, -0.056, 0.974, -0.1, 192.0, 0.0, 0.0, 0.0, 0.0, 0.0, 0.0, 0.0, 0.0, 0.0, 1.6989589741847548E9, 0.0, 2023-11-02 17:02:54.184
48.0, -187500.02235174447, 187500.0, 31030.23392322468, 34487.86997650504, 187500.0, 187500.0, -187500.02235174447, 30744.243352919028, -0.056, 0.974, -0.1, 192.0, 0.0, 0.0, 0.0, 0.0, 0.0, 0.0, 0.0, 0.0, 0.0, 1.6989589741847775E9, 0.0, 2023-11-02 17:02:54.184
49.0, -187500.02235174447, 187500.0, 31028.71400460172, 34478.8398717451, 187500.0, 187500.0, -187500.02235174447, 30745.115070952783, -0.054, 0.97, -0.106, 192.0, 254.0, 80.0, 30.0, 80.0, 252.0, 176.0, 0.0, 0.0, 0.0, 1.6989589741848109E9, 0.0, 2023-11-02 17:02:54.184
50.0, -187500.02235174447, 187500.0, 31027.685824356777, 34480.22567990133, 187500.0, 187500.0, -187500.02235174447, 30748.713701810088, -0.054, 0.97, -0.106, 192.0, 0.0, 0.0, 0.0, 0.0, 0.0, 0.0, 0.0, 0.0, 0.0, 1.698958974184831E9, 0.0, 2023-11-02 17:02:54.184
51.0, -187500.02235174447, 187500.0, 31033.564333148523, 34488.02643871623, 187500.0, 187500.0, -187500.02235174447, 30756.93914376964, -0.054, 0.97, -0.106, 192.0, 0.0, 0.0, 0.0, 0.0, 0.0, 0.0, 0.0, 0.0, 0.0, 1.6989589741848474E9, 0.0, 2023-11-02 17:02:54.184
52.0, -187500.02235174447, 187500.0, 31036.58181864999, 34496.564805098154, 187500.0, 187500.0, -187500.02235174447, 30758.637876348246, -0.054, 0.97, -0.106, 192.0, 0.0, 0.0, 0.0, 0.0, 0.0, 0.0, 0.0, 0.0, 0.0, 1.6989589741848624E9, 0.0, 2023-11-02 17:02:54.184
53.0, -187500.02235174447, 187500.0, 31028.401080179345, 34490.37337188404, 187500.0, 187500.0, -187500.02235174447, 30749.741882055034, -0.054, 0.97, -0.106, 192.0, 0.0, 0.0, 0.0, 0.0, 0.0, 0.0, 0.0, 0.0, 0.0, 1.6989589741848836E9, 0.0, 2023-11-02 17:02:54.184
54.0, -187500.02235174447, 187500.0, 31026.545885389554, 34486.93120323792, 187500.0, 187500.0, -187500.02235174447, 30746.456175620104, -0.054, 0.97, -0.106, 192.0, 0.0, 0.0, 0.0, 0.0, 0.0, 0.0, 0.0, 0.0, 0.0, 1.6989589741849017E9, 0.0, 2023-11-02 17:02:54.184
55.0, -187500.02235174447, 187500.0, 31024.4224696663, 34484.964249725854, 187500.0, 187500.0, -187500.02235174447, 30744.51157385249, -0.054, 0.97, -0.106, 192.0, 0.0, 0.0, 0.0, 0.0, 0.0, 0.0, 0.0, 0.0, 0.0, 1.6989589741849184E9, 0.0, 2023-11-02 17:02:54.184
56.0, -187500.02235174447, 187500.0, 31022.723737087697, 34484.62897355902, 187500.0, 187500.0, -187500.02235174447, 30743.41633837418, -0.054, 0.97, -0.106, 192.0, 0.0, 0.0, 0.0, 0.0, 0.0, 0.0, 0.0, 0.0, 0.0, 1.6989589741849308E9, 0.0, 2023-11-02 17:02:54.184
57.0, -187500.02235174447, 187500.0, 31023.081364998983, 34483.24316540279, 187500.0, 187500.0, -187500.02235174447, 30746.232658175548, -0.054, 0.97, -0.106, 192.0, 0.0, 0.0, 0.0, 0.0, 0.0, 0.0, 0.0, 0.0, 0.0, 1.6989589741849458E9, 0.0, 2023-11-02 17:02:54.184
58.0, -187500.02235174447, 187500.0, 31022.61197836542, 34477.141139166495, 187500.0, 187500.0, -187500.02235174447, 30748.154908198707, -0.054, 0.97, -0.106, 192.0, 0.0, 0.0, 0.0, 0.0, 0.0, 0.0, 0.0, 0.0, 0.0, 1.6989589741849627E9, 0.0, 2023-11-02 17:02:54.184
59.0, -187500.02235174447, 187500.0, 31038.258199484135, 34483.220813658336, 187500.0, 187500.0, -187500.02235174447, 30763.734074084055, -0.056, 0.976, -0.098, 192.0, 254.0, 64.0, 30.0, 128.0, 252.0, 240.0, 0.0, 0.0, 0.0, 1.6989589741849794E9, 0.0, 2023-11-02 17:02:54.184
60.0, -187500.02235174447, 187500.0, 31043.488507686678, 34496.855377776075, 187500.0, 187500.0, -187500.02235174447, 30769.8137485759, -0.056, 0.976, -0.098, 192.0, 0.0, 0.0, 0.0, 0.0, 0.0, 0.0, 0.0, 0.0, 0.0, 1.6989589741849964E9, 0.0, 2023-11-02 17:02:54.184
61.0, -187500.02235174447, 187500.0, 31024.154248732837, 34462.85837445955, 187500.0, 187500.0, -187500.02235174447, 30748.400777387713, -0.056, 0.976, -0.098, 192.0, 0.0, 0.0, 0.0, 0.0, 0.0, 0.0, 0.0, 0.0, 0.0, 1.6989589741850922E9, 0.0, 2023-11-02 17:02:54.185
62.0, -187500.02235174447, 187500.0, 31023.394289421358, 34446.519249262725, 187500.0, 187500.0, -187500.02235174447, 30748.08785296534, -0.056, 0.976, -0.098, 192.0, 0.0, 0.0, 0.0, 0.0, 0.0, 0.0, 0.0, 0.0, 0.0, 1.698958974185116E9, 0.0, 2023-11-02 17:02:54.185
63.0, -187500.02235174447, 187500.0, 31023.684862099275, 34441.60186548255, 187500.0, 187500.0, -187500.02235174447, 30751.485318122544, -0.056, 0.976, -0.098, 192.0, 0.0, 0.0, 0.0, 0.0, 0.0, 0.0, 0.0, 0.0, 0.0, 1.698958974185132E9, 0.0, 2023-11-02 17:02:54.185
64.0, -187500.02235174447, 187500.0, 31016.24173119566, 34431.36476652203, 187500.0, 187500.0, -187500.02235174447, 30747.75257679851, -0.056, 0.976, -0.098, 192.0, 0.0, 0.0, 0.0, 0.0, 0.0, 0.0, 0.0, 0.0, 0.0, 1.6989589741851525E9, 0.0, 2023-11-02 17:02:54.185
65.0, -187500.02235174447, 187500.0, 31007.81512353601, 34410.19766452285, 187500.0, 187500.0, -187500.02235174447, 30741.292922650926, -0.056, 0.976, -0.098, 192.0, 0.0, 0.0, 0.0, 0.0, 0.0, 0.0, 0.0, 0.0, 0.0, 1.6989589741851668E9, 0.0, 2023-11-02 17:02:54.185
66.0, -187500.02235174447, 187500.0, 31009.335042158968, 34387.39888517844, 187500.0, 187500.0, -187500.02235174447, 30742.745786040523, -0.056, 0.976, -0.098, 192.0, 0.0, 0.0, 0.0, 0.0, 0.0, 0.0, 0.0, 0.0, 0.0, 1.6989589741851807E9, 0.0, 2023-11-02 17:02:54.185
67.0, -187500.02235174447, 187500.0, 31002.60716707792, 34358.27456215317, 187500.0, 187500.0, -187500.02235174447, 30737.873105749266, -0.056, 0.976, -0.098, 192.0, 0.0, 0.0, 0.0, 0.0, 0.0, 0.0, 0.0, 0.0, 0.0, 1.6989589741851964E9, 0.0, 2023-11-02 17:02:54.185
68.0, -187500.02235174447, 187500.0, 31003.568292089498, 34340.683739266846, 187500.0, 187500.0, -187500.02235174447, 30741.963474984586, -0.056, 0.976, -0.098, 192.0, 0.0, 0.0, 0.0, 0.0, 0.0, 0.0, 0.0, 0.0, 0.0, 1.6989589741852157E9, 0.0, 2023-11-02 17:02:54.185
69.0, -187500.02235174447, 187500.0, 30997.13098968637, 34328.144410627414, 187500.0, 187500.0, -187500.02235174447, 30737.94016098263, -0.05, 0.986, -0.1, 192.0, 254.0, 112.0, 30.0, 208.0, 252.0, 224.0, 0.0, 0.0, 0.0, 1.6989589741852617E9, 0.0, 2023-11-02 17:02:54.185
70.0, -187500.02235174447, 187500.0, 30997.2651001531, 34310.397125529904, 187500.0, 187500.0, -187500.02235174447, 30740.37650112826, -0.05, 0.986, -0.1, 192.0, 0.0, 0.0, 0.0, 0.0, 0.0, 0.0, 0.0, 0.0, 0.0, 1.6989589741852896E9, 0.0, 2023-11-02 17:02:54.185
