%OpenBCI Raw EEG Data
%Number of channels = 8
%Sample Rate = 250 Hz
%Board = OpenBCI_GUI$BoardCytonSerial
Sample Index, EXG Channel 0, EXG Channel 1, EXG Channel 2, EXG Channel 3, EXG Channel 4, EXG Channel 5, EXG Channel 6, EXG Channel 7, Accel Channel 0, Accel Channel 1, Accel Channel 2, Other, Other, Other, Other, Other, Other, Other, Analog Channel 0, Analog Channel 1, Analog Channel 2, Timestamp, Other, Timestamp (Formatted)
166.0, -187500.02235174447, 187500.0, 31422.618797137595, 35609.525216761256, 187500.0, 187500.0, -187500.02235174447, 31168.904145825407, 0.0, 0.0, 0.0, 192.0, 0.0, 0.0, 0.0, 0.0, 0.0, 0.0, 0.0, 0.0, 0.0, 1.6989589664124284E9, 0.0, 2023-11-02 17:02:46.412
167.0, -187500.02235174447, 187500.0, 31418.528427902274, 35590.25801304079, 187500.0, 187500.0, -187500.02235174447, 31168.032427791648, 0.0, 0.0, 0.0, 192.0, 0.0, 0.0, 0.0, 0.0, 0.0, 0.0, 0.0, 0.0, 0.0, 1.6989589664124515E9, 0.0, 2023-11-02 17:02:46.412
168.0, -187500.02235174447, 187500.0, 31413.49928539983, 35587.39698975051, 187500.0, 187500.0, -187500.02235174447, 31168.68062838085, 0.0, 0.0, 0.0, 192.0, 0.0, 0.0, 0.0, 0.0, 0.0, 0.0, 0.0, 0.0, 0.0, 1.6989589664124615E9, 0.0, 2023-11-02 17:02:46.412
169.0, -187500.02235174447, 187500.0, 31400.825846293672, 35584.93829786042, 187500.0, 187500.0, -187500.02235174447, 31162.93623005584, 0.0, 0.0, 0.0, 192.0, 0.0, 0.0, 0.0, 0.0, 0.0, 0.0, 0.0, 0.0, 0.0, 1.6989589664124713E9, 0.0, 2023-11-02 17:02:46.412
170.0, -187500.02235174447, 187500.0, 31392.98038398986, 35574.47768145534, 187500.0, 187500.0, -187500.02235174447, 31160.32107595457, 0.0, 0.0, 0.0, 192.0, 0.0, 0.0, 0.0, 0.0, 0.0, 0.0, 0.0, 0.0, 0.0, 1.6989589664124804E9, 0.0, 2023-11-02 17:02:46.412
171.0, -187500.02235174447, 187500.0, 31395.103799713113, 35568.845041852604, 187500.0, 187500.0, -187500.02235174447, 31163.204450989302, 0.0, 0.0, 0.0, 192.0, 0.0, 0.0, 0.0, 0.0, 0.0, 0.0, 0.0, 0.0, 0.0, 1.69895896641249E9, 0.0, 2023-11-02 17:02:46.412
172.0, -187500.02235174447, 187500.0, 31389.292346154733, 35562.541849916204, 187500.0, 187500.0, -187500.02235174447, 31159.538764898633, 0.0, 0.0, 0.0, 192.0, 0.0, 0.0, 0.0, 0.0, 0.0, 0.0, 0.0, 0.0, 0.0, 1.6989589664124992E9, 0.0, 2023-11-02 17:02:46.412
173.0, -187500.02235174447, 187500.0, 31374.093159925123, 35556.953913802376, 187500.0, 187500.0, -187500.02235174447, 31148.854631048995, 0.0, 0.0, 0.0, 192.0, 0.0, 0.0, 0.0, 0.0, 0.0, 0.0, 0.0, 0.0, 0.0, 1.6989589664125085E9, 0.0, 2023-11-02 17:02:46.412
174.0, -187500.02235174447, 187500.0, 31359.184546373435, 35551.142460243995, 187500.0, 187500.0, -187500.02235174447, 31140.11509896697, -0.032, 0.976, -0.076, 192.0, 255.0, 0.0, 30.0, 128.0, 253.0, 160.0, 0.0, 0.0, 0.0, 1.698958966412518E9, 0.0, 2023-11-02 17:02:46.412
175.0, -187500.02235174447, 187500.0, 31354.982418415835, 35547.18620147541, 187500.0, 187500.0, -187500.02235174447, 31140.53978211162, -0.032, 0.976, -0.076, 192.0, 0.0, 0.0, 0.0, 0.0, 0.0, 0.0, 0.0, 0.0, 0.0, 1.6989589664125297E9, 0.0, 2023-11-02 17:02:46.412
176.0, -187500.02235174447, 187500.0, 31351.517898025264, 35540.97241651683, 187500.0, 187500.0, -187500.02235174447, 31139.645712333408, -0.032, 0.976, -0.076, 192.0, 0.0, 0.0, 0.0, 0.0, 0.0, 0.0, 0.0, 0.0, 0.0, 1.6989589664125395E9, 0.0, 2023-11-02 17:02:46.412
177.0, -187500.02235174447, 187500.0, 31352.21080210338, 35544.302826440675, 187500.0, 187500.0, -187500.02235174447, 31142.305569923592, -0.032, 0.976, -0.076, 192.0, 0.0, 0.0, 0.0, 0.0, 0.0, 0.0, 0.0, 0.0, 0.0, 1.6989589664125493E9, 0.0, 2023-11-02 17:02:46.412
178.0, -187500.02235174447, 187500.0, 31353.216630603867, 35542.64879735098, 187500.0, 187500.0, -187500.02235174447, 31146.73121532574, -0.032, 0.976, -0.076, 192.0, 0.0, 0.0, 0.0, 0.0, 0.0, 0.0, 0.0, 0.0, 0.0, 1.6989589664125588E9, 0.0, 2023-11-02 17:02:46.412
179.0, -187500.02235174447, 187500.0, 31348.38865380152, 35535.7868118032, 187500.0, 187500.0, -187500.02235174447, 31146.887677536928, -0.032, 0.976, -0.076, 192.0, 0.0, 0.0, 0.0, 0.0, 0.0, 0.0, 0.0, 0.0, 0.0, 1.6989589664125683E9, 0.0, 2023-11-02 17:02:46.412
180.0, -187500.02235174447, 187500.0, 31339.29149380821, 35529.08128846661, 187500.0, 187500.0, -187500.02235174447, 31142.864363534973, -0.032, 0.976, -0.076, 192.0, 0.0, 0.0, 0.0, 0.0, 0.0, 0.0, 0.0, 0.0, 0.0, 1.698958966412578E9, 0.0, 2023-11-02 17:02:46.412
181.0, -187500.02235174447, 187500.0, 31325.992205857303, 35528.52249485523, 187500.0, 187500.0, -187500.02235174447, 31134.25894191968, -0.032, 0.976, -0.076, 192.0, 0.0, 0.0, 0.0, 0.0, 0.0, 0.0, 0.0, 0.0, 0.0, 1.6989589664125876E9, 0.0, 2023-11-02 17:02:46.412
182.0, -187500.02235174447, 187500.0, 31324.4946389788, 35532.85873327956, 187500.0, 187500.0, -187500.02235174447, 31138.12579371045, -0.032, 0.976, -0.076, 192.0, 0.0, 0.0, 0.0, 0.0, 0.0, 0.0, 0.0, 0.0, 0.0, 1.6989589664127247E9, 0.0, 2023-11-02 17:02:46.412
183.0, -187500.02235174447, 187500.0, 31322.23711278881, 35536.971454259336, 187500.0, 187500.0, -187500.02235174447, 31140.696244322808, -0.032, 0.976, -0.076, 192.0, 0.0, 0.0, 0.0, 0.0, 0.0, 0.0, 0.0, 0.0, 0.0, 1.6989589664127352E9, 0.0, 2023-11-02 17:02:46.412
184.0, -187500.02235174447, 187500.0, 31315.419830729945, 35531.852904779065, 187500.0, 187500.0, -187500.02235174447, 31136.561171598576, -0.022, 0.984, -0.076, 192.0, 255.0, 80.0, 30.0, 192.0, 253.0, 160.0, 0.0, 0.0, 0.0, 1.6989589664127448E9, 0.0, 2023-11-02 17:02:46.412
185.0, -187500.02235174447, 187500.0, 31312.312938250656, 35533.17165770193, 187500.0, 187500.0, -187500.02235174447, 31134.84008727552, -0.022, 0.984, -0.076, 192.0, 0.0, 0.0, 0.0, 0.0, 0.0, 0.0, 0.0, 0.0, 0.0, 1.6989589664127557E9, 0.0, 2023-11-02 17:02:46.412
186.0, -187500.02235174447, 187500.0, 31308.021403315237, 35541.017120005745, 187500.0, 187500.0, -187500.02235174447, 31130.88382850693, -0.022, 0.984, -0.076, 192.0, 0.0, 0.0, 0.0, 0.0, 0.0, 0.0, 0.0, 0.0, 0.0, 1.6989589664127655E9, 0.0, 2023-11-02 17:02:46.412
187.0, -187500.02235174447, 187500.0, 31298.67837413292, 35536.122087970034, 187500.0, 187500.0, -187500.02235174447, 31125.92174123785, -0.022, 0.984, -0.076, 192.0, 0.0, 0.0, 0.0, 0.0, 0.0, 0.0, 0.0, 0.0, 0.0, 1.698958966412775E9, 0.0, 2023-11-02 17:02:46.412
188.0, -187500.02235174447, 187500.0, 31295.213853742345, 35528.008404732755, 187500.0, 187500.0, -187500.02235174447, 31124.513581337167, -0.022, 0.984, -0.076, 192.0, 0.0, 0.0, 0.0, 0.0, 0.0, 0.0, 0.0, 0.0, 0.0, 1.698958966412788E9, 0.0, 2023-11-02 17:02:46.412
189.0, -187500.02235174447, 187500.0, 31295.32561246462, 35530.51180011175, 187500.0, 187500.0, -187500.02235174447, 31126.77110752715, -0.022, 0.984, -0.076, 192.0, 0.0, 0.0, 0.0, 0.0, 0.0, 0.0, 0.0, 0.0, 0.0, 1.698958966412817E9, 0.0, 2023-11-02 17:02:46.412
190.0, -187500.02235174447, 187500.0, 31291.324650207123, 35528.902474510964, 187500.0, 187500.0, -187500.02235174447, 31124.245360403704, -0.022, 0.984, -0.076, 192.0, 0.0, 0.0, 0.0, 0.0, 0.0, 0.0, 0.0, 0.0, 0.0, 1.6989589664128273E9, 0.0, 2023-11-02 17:02:46.412
191.0, -187500.02235174447, 187500.0, 31294.47624617532, 35530.13182045601, 187500.0, 187500.0, -187500.02235174447, 31127.598122072, -0.022, 0.984, -0.076, 192.0, 0.0, 0.0, 0.0, 0.0, 0.0, 0.0, 0.0, 0.0, 0.0, 1.6989589664128373E9, 0.0, 2023-11-02 17:02:46.412
192.0, -187500.02235174447, 187500.0, 31290.00589728426, 35524.76740178673, 187500.0, 187500.0, -187500.02235174447, 31125.20648541528, -0.022, 0.984, -0.076, 192.0, 0.0, 0.0, 0.0, 0.0, 0.0, 0.0, 0.0, 0.0, 0.0, 1.6989589664128475E9, 0.0, 2023-11-02 17:02:46.412
193.0, -187500.02235174447, 187500.0, 31285.580251882107, 35524.655643064456, 187500.0, 187500.0, -187500.02235174447, 31122.25605514718, -0.022, 0.984, -0.076, 192.0, 0.0, 0.0, 0.0, 0.0, 0.0, 0.0, 0.0, 0.0, 0.0, 1.6989589664128575E9, 0.0, 2023-11-02 17:02:46.412
194.0, -187500.02235174447, 187500.0, 31284.90969954845, 35527.941349499386, 187500.0, 187500.0, -187500.02235174447, 31123.26188364767, -0.016, 0.976, -0.078, 192.0, 255.0, 128.0, 30.0, 128.0, 253.0, 144.0, 0.0, 0.0, 0.0, 1.6989589664128728E9, 0.0, 2023-11-02 17:02:46.412
195.0, -187500.02235174447, 187500.0, 31278.204176211857, 35520.74408778478, 187500.0, 187500.0, -187500.02235174447, 31114.991738199205, -0.016, 0.976, -0.078, 192.0, 0.0, 0.0, 0.0, 0.0, 0.0, 0.0, 0.0, 0.0, 0.0, 1.698958966412884E9, 0.0, 2023-11-02 17:02:46.412
196.0, -187500.02235174447, 187500.0, 31279.165301223435, 35517.50308483876, 187500.0, 187500.0, -187500.02235174447, 31111.63897653091, -0.016, 0.976, -0.078, 192.0, 0.0, 0.0, 0.0, 0.0, 0.0, 0.0, 0.0, 0.0, 0.0, 1.698958966412894E9, 0.0, 2023-11-02 17:02:46.412
197.0, -187500.02235174447, 187500.0, 31278.070065745127, 35516.407849360454, 187500.0, 187500.0, -187500.02235174447, 31106.743944495196, -0.016, 0.976, -0.078, 192.0, 0.0, 0.0, 0.0, 0.0, 0.0, 0.0, 0.0, 0.0, 0.0, 1.6989589664129558E9, 0.0, 2023-11-02 17:02:46.412
198.0, -187500.02235174447, 187500.0, 31276.41603665543, 35519.02300346172, 187500.0, 187500.0, -187500.02235174447, 31104.77699098313, -0.016, 0.976, -0.078, 192.0, 0.0, 0.0, 0.0, 0.0, 0.0, 0.0, 0.0, 0.0, 0.0, 1.6989589664129655E9, 0.0, 2023-11-02 17:02:46.412
199.0, -187500.02235174447, 187500.0, 31274.51613837673, 35509.85878823505, 187500.0, 187500.0, -187500.02235174447, 31105.24637761669, -0.016, 0.976, -0.078, 192.0, 0.0, 0.0, 0.0, 0.0, 0.0, 0.0, 0.0, 0.0, 0.0, 1.6989589664129765E9, 0.0, 2023-11-02 17:02:46.412
200.0, -187500.02235174447, 187500.0, 31276.147815721968, 35505.74606725527, 187500.0, 187500.0, -187500.02235174447, 31106.989813684206, -0.016, 0.976, -0.078, 192.0, 0.0, 0.0, 0.0, 0.0, 0.0, 0.0, 0.0, 0.0, 0.0, 1.6989589664129863E9, 0.0, 2023-11-02 17:02:46.412
201.0, -187500.02235174447, 187500.0, 31273.465606387334, 35506.84130273358, 187500.0, 187500.0, -187500.02235174447, 31104.82169447204, -0.016, 0.976, -0.078, 192.0, 0.0, 0.0, 0.0, 0.0, 0.0, 0.0, 0.0, 0.0, 0.0, 1.6989589664129963E9, 0.0, 2023-11-02 17:02:46.412
202.0, -187500.02235174447, 187500.0, 31265.91071676144, 35502.52741605371, 187500.0, 187500.0, -187500.02235174447, 31098.38439206891, -0.016, 0.976, -0.078, 192.0, 0.0, 0.0, 0.0, 0.0, 0.0, 0.0, 0.0, 0.0, 0.0, 1.698958966413006E9, 0.0, 2023-11-02 17:02:46.413
203.0, -187500.02235174447, 187500.0, 31265.3295714056, 35497.78884622918, 187500.0, 187500.0, -187500.02235174447, 31098.049115902082, -0.016, 0.976, -0.078, 192.0, 0.0, 0.0, 0.0, 0.0, 0.0, 0.0, 0.0, 0.0, 0.0, 1.6989589664130156E9, 0.0, 2023-11-02 17:02:46.413
204.0, -187500.02235174447, 187500.0, 31273.063274987137, 35499.21935787432, 187500.0, 187500.0, -187500.02235174447, 31106.38631658391, -0.022, 0.982, -0.068, 192.0, 255.0, 80.0, 30.0, 176.0, 253.0, 224.0, 0.0, 0.0, 0.0, 1.6989589664130251E9, 0.0, 2023-11-02 17:02:46.413
205.0, -187500.02235174447, 187500.0, 31273.420902898422, 35498.66056426294, 187500.0, 187500.0, -187500.02235174447, 31107.414496828856, -0.022, 0.982, -0.068, 192.0, 0.0, 0.0, 0.0, 0.0, 0.0, 0.0, 0.0, 0.0, 0.0, 1.6989589664130363E9, 0.0, 2023-11-02 17:02:46.413
206.0, -187500.02235174447, 187500.0, 31265.821309783616, 35498.88408170749, 187500.0, 187500.0, -187500.02235174447, 31099.63608975841, -0.022, 0.982, -0.068, 192.0, 0.0, 0.0, 0.0, 0.0, 0.0, 0.0, 0.0, 0.0, 0.0, 1.6989589664130461E9, 0.0, 2023-11-02 17:02:46.413
207.0, -187500.02235174447, 187500.0, 31272.66094358694, 35497.34181134008, 187500.0, 187500.0, -187500.02235174447, 31106.45337181728, -0.022, 0.982, -0.068, 192.0, 0.0, 0.0, 0.0, 0.0, 0.0, 0.0, 0.0, 0.0, 0.0, 1.698958966413056E9, 0.0, 2023-11-02 17:02:46.413
208.0, -187500.02235174447, 187500.0, 31284.306202448155, 35505.991936444276, 187500.0, 187500.0, -187500.02235174447, 31117.91981672285, -0.022, 0.982, -0.068, 192.0, 0.0, 0.0, 0.0, 0.0, 0.0, 0.0, 0.0, 0.0, 0.0, 1.698958966413066E9, 0.0, 2023-11-02 17:02:46.413
209.0, -187500.02235174447, 187500.0, 31287.94953679437, 35508.92001496792, 187500.0, 187500.0, -187500.02235174447, 31119.43973534581, -0.022, 0.982, -0.068, 192.0, 0.0, 0.0, 0.0, 0.0, 0.0, 0.0, 0.0, 0.0, 0.0, 1.698958966413077E9, 0.0, 2023-11-02 17:02:46.413
210.0, -187500.02235174447, 187500.0, 31290.63174612901, 35519.067706950635, 187500.0, 187500.0, -187500.02235174447, 31120.087935935015, -0.022, 0.982, -0.068, 192.0, 0.0, 0.0, 0.0, 0.0, 0.0, 0.0, 0.0, 0.0, 0.0, 1.698958966413087E9, 0.0, 2023-11-02 17:02:46.413
211.0, -187500.02235174447, 187500.0, 31294.43154268641, 35526.9355209989, 187500.0, 187500.0, -187500.02235174447, 31122.85955224747, -0.022, 0.982, -0.068, 192.0, 0.0, 0.0, 0.0, 0.0, 0.0, 0.0, 0.0, 0.0, 0.0, 1.6989589664130964E9, 0.0, 2023-11-02 17:02:46.413
212.0, -187500.02235174447, 187500.0, 31292.24107172979, 35525.12502969802, 187500.0, 187500.0, -187500.02235174447, 31120.78084001313, -0.022, 0.982, -0.068, 192.0, 0.0, 0.0, 0.0, 0.0, 0.0, 0.0, 0.0, 0.0, 0.0, 1.6989589664131155E9, 0.0, 2023-11-02 17:02:46.413
213.0, -187500.02235174447, 187500.0, 31289.894138561984, 35524.47682910882, 187500.0, 187500.0, -187500.02235174447, 31119.126810923437, -0.022, 0.982, -0.068, 192.0, 0.0, 0.0, 0.0, 0.0, 0.0, 0.0, 0.0, 0.0, 0.0, 1.6989589664131255E9, 0.0, 2023-11-02 17:02:46.413
214.0, -187500.02235174447, 187500.0, 31292.688106618894, 35529.50597161126, 187500.0, 187500.0, -187500.02235174447, 31121.116116179957, -0.03, 0.988, -0.064, 192.0, 255.0, 16.0, 30.0, 224.0, 254.0, 0.0, 0.0, 0.0, 0.0, 1.6989589664131353E9, 0.0, 2023-11-02 17:02:46.413
215.0, -187500.02235174447, 187500.0, 31284.015629770238, 35529.349509400075, 187500.0, 187500.0, -187500.02235174447, 31112.01895618665, -0.03, 0.988, -0.064, 192.0, 0.0, 0.0, 0.0, 0.0, 0.0, 0.0, 0.0, 0.0, 0.0, 1.6989589664131453E9, 0.0, 2023-11-02 17:02:46.413
216.0, -187500.02235174447, 187500.0, 31277.84654830057, 35518.55361682816, 187500.0, 187500.0, -187500.02235174447, 31102.58652002651, -0.03, 0.988, -0.064, 192.0, 0.0, 0.0, 0.0, 0.0, 0.0, 0.0, 0.0, 0.0, 0.0, 1.6989589664131553E9, 0.0, 2023-11-02 17:02:46.413
217.0, -187500.02235174447, 187500.0, 31280.506405890756, 35510.261119635245, 187500.0, 187500.0, -187500.02235174447, 31101.44658105929, -0.03, 0.988, -0.064, 192.0, 0.0, 0.0, 0.0, 0.0, 0.0, 0.0, 0.0, 0.0, 0.0, 1.698958966413165E9, 0.0, 2023-11-02 17:02:46.413
218.0, -187500.02235174447, 187500.0, 31281.668696602428, 35507.1318754115, 187500.0, 187500.0, -187500.02235174447, 31099.770200225143, -0.03, 0.988, -0.064, 192.0, 0.0, 0.0, 0.0, 0.0, 0.0, 0.0, 0.0, 0.0, 0.0, 1.6989589664131756E9, 0.0, 2023-11-02 17:02:46.413
219.0, -187500.02235174447, 187500.0, 31284.395609425977, 35515.53613132669, 187500.0, 187500.0, -187500.02235174447, 31101.781857226117, -0.03, 0.988, -0.064, 192.0, 0.0, 0.0, 0.0, 0.0, 0.0, 0.0, 0.0, 0.0, 0.0, 1.6989589664131854E9, 0.0, 2023-11-02 17:02:46.413
220.0, -187500.02235174447, 187500.0, 31288.32951645011, 35518.75478252826, 187500.0, 187500.0, -187500.02235174447, 31104.77699098313, -0.03, 0.988, -0.064, 192.0, 0.0, 0.0, 0.0, 0.0, 0.0, 0.0, 0.0, 0.0, 0.0, 1.698958966413195E9, 0.0, 2023-11-02 17:02:46.413
221.0, -187500.02235174447, 187500.0, 31290.05060077317, 35516.899587738466, 187500.0, 187500.0, -187500.02235174447, 31105.20167412778, -0.03, 0.988, -0.064, 192.0, 0.0, 0.0, 0.0, 0.0, 0.0, 0.0, 0.0, 0.0, 0.0, 1.698958966413205E9, 0.0, 2023-11-02 17:02:46.413
222.0, -187500.02235174447, 187500.0, 31290.587042640098, 35518.285395894694, 187500.0, 187500.0, -187500.02235174447, 31104.4417148163, -0.03, 0.988, -0.064, 192.0, 0.0, 0.0, 0.0, 0.0, 0.0, 0.0, 0.0, 0.0, 0.0, 1.6989589664132144E9, 0.0, 2023-11-02 17:02:46.413
223.0, -187500.02235174447, 187500.0, 31291.123484507025, 35529.327157655614, 187500.0, 187500.0, -187500.02235174447, 31105.78281948362, -0.03, 0.988, -0.064, 192.0, 0.0, 0.0, 0.0, 0.0, 0.0, 0.0, 0.0, 0.0, 0.0, 1.698958966413224E9, 0.0, 2023-11-02 17:02:46.413
224.0, -187500.02235174447, 187500.0, 31294.43154268641, 35525.75087854277, 187500.0, 187500.0, -187500.02235174447, 31105.805171228072, -0.03, 0.992, -0.054, 192.0, 255.0, 16.0, 31.0, 0.0, 254.0, 80.0, 0.0, 0.0, 0.0, 1.6989589664132345E9, 0.0, 2023-11-02 17:02:46.413
225.0, -187500.02235174447, 187500.0, 31296.085571776104, 35519.73825928429, 187500.0, 187500.0, -187500.02235174447, 31102.318299093047, -0.03, 0.992, -0.054, 192.0, 0.0, 0.0, 0.0, 0.0, 0.0, 0.0, 0.0, 0.0, 0.0, 1.6989589664132445E9, 0.0, 2023-11-02 17:02:46.413
226.0, -187500.02235174447, 187500.0, 31295.32561246462, 35513.70328828136, 187500.0, 187500.0, -187500.02235174447, 31099.971365925237, -0.03, 0.992, -0.054, 192.0, 0.0, 0.0, 0.0, 0.0, 0.0, 0.0, 0.0, 0.0, 0.0, 1.6989589664132545E9, 0.0, 2023-11-02 17:02:46.413
227.0, -187500.02235174447, 187500.0, 31295.72794386482, 35516.56431157164, 187500.0, 187500.0, -187500.02235174447, 31097.37856356842, -0.03, 0.992, -0.054, 192.0, 0.0, 0.0, 0.0, 0.0, 0.0, 0.0, 0.0, 0.0, 0.0, 1.6989589664132843E9, 0.0, 2023-11-02 17:02:46.413
228.0, -187500.02235174447, 187500.0, 31295.303260720168, 35511.60222430256, 187500.0, 187500.0, -187500.02235174447, 31095.232796100714, -0.03, 0.992, -0.054, 192.0, 0.0, 0.0, 0.0, 0.0, 0.0, 0.0, 0.0, 0.0, 0.0, 1.6989589664132943E9, 0.0, 2023-11-02 17:02:46.413
229.0, -187500.02235174447, 187500.0, 31301.070010789637, 35511.5351690692, 187500.0, 187500.0, -187500.02235174447, 31100.798380470085, -0.03, 0.992, -0.054, 192.0, 0.0, 0.0, 0.0, 0.0, 0.0, 0.0, 0.0, 0.0, 0.0, 1.698958966413304E9, 0.0, 2023-11-02 17:02:46.413
230.0, -187500.02235174447, 187500.0, 31303.19342651289, 35513.971509214825, 187500.0, 187500.0, -187500.02235174447, 31100.01606941415, -0.03, 0.992, -0.054, 192.0, 0.0, 0.0, 0.0, 0.0, 0.0, 0.0, 0.0, 0.0, 0.0, 1.6989589664133153E9, 0.0, 2023-11-02 17:02:46.413
231.0, -187500.02235174447, 187500.0, 31299.505388677764, 35513.63623304799, 187500.0, 187500.0, -187500.02235174447, 31091.85768268796, -0.03, 0.992, -0.054, 192.0, 0.0, 0.0, 0.0, 0.0, 0.0, 0.0, 0.0, 0.0, 0.0, 1.6989589664133248E9, 0.0, 2023-11-02 17:02:46.413
232.0, -187500.02235174447, 187500.0, 31302.791095112694, 35510.529340568704, 187500.0, 187500.0, -187500.02235174447, 31090.114246620447, -0.03, 0.992, -0.054, 192.0, 0.0, 0.0, 0.0, 0.0, 0.0, 0.0, 0.0, 0.0, 0.0, 1.6989589664133344E9, 0.0, 2023-11-02 17:02:46.413
233.0, -187500.02235174447, 187500.0, 31311.508275450266, 35503.28737536519, 187500.0, 187500.0, -187500.02235174447, 31093.6905257333, -0.03, 0.992, -0.054, 192.0, 0.0, 0.0, 0.0, 0.0, 0.0, 0.0, 0.0, 0.0, 0.0, 1.698958966413344E9, 0.0, 2023-11-02 17:02:46.413
234.0, -187500.02235174447, 187500.0, 31321.454801732878, 35507.26598587823, 187500.0, 187500.0, -187500.02235174447, 31100.083124647514, -0.044, 0.974, -0.052000000000000005, 192.0, 254.0, 160.0, 30.0, 112.0, 254.0, 96.0, 0.0, 0.0, 0.0, 1.6989589664133537E9, 0.0, 2023-11-02 17:02:46.413
235.0, -187500.02235174447, 187500.0, 31321.231284288322, 35511.26694813573, 187500.0, 187500.0, -187500.02235174447, 31096.260976345657, -0.044, 0.974, -0.052000000000000005, 192.0, 0.0, 0.0, 0.0, 0.0, 0.0, 0.0, 0.0, 0.0, 0.0, 1.698958966413364E9, 0.0, 2023-11-02 17:02:46.413
236.0, -187500.02235174447, 187500.0, 31320.113697065557, 35509.6799742794, 187500.0, 187500.0, -187500.02235174447, 31092.550586766076, -0.044, 0.974, -0.052000000000000005, 192.0, 0.0, 0.0, 0.0, 0.0, 0.0, 0.0, 0.0, 0.0, 0.0, 1.6989589664133737E9, 0.0, 2023-11-02 17:02:46.413
237.0, -187500.02235174447, 187500.0, 31324.651101189986, 35509.50116032376, 187500.0, 187500.0, -187500.02235174447, 31098.00441241317, -0.044, 0.974, -0.052000000000000005, 192.0, 0.0, 0.0, 0.0, 0.0, 0.0, 0.0, 0.0, 0.0, 0.0, 1.6989589664133832E9, 0.0, 2023-11-02 17:02:46.413
238.0, -187500.02235174447, 187500.0, 31327.62388320254, 35509.612919046034, 187500.0, 187500.0, -187500.02235174447, 31101.357174081466, -0.044, 0.974, -0.052000000000000005, 192.0, 0.0, 0.0, 0.0, 0.0, 0.0, 0.0, 0.0, 0.0, 0.0, 1.6989589664133928E9, 0.0, 2023-11-02 17:02:46.413
239.0, -187500.02235174447, 187500.0, 31326.461592490865, 35509.70232602386, 187500.0, 187500.0, -187500.02235174447, 31098.58555776901, -0.044, 0.974, -0.052000000000000005, 192.0, 0.0, 0.0, 0.0, 0.0, 0.0, 0.0, 0.0, 0.0, 0.0, 1.6989589664134023E9, 0.0, 2023-11-02 17:02:46.413
240.0, -187500.02235174447, 187500.0, 31329.702595436884, 35511.15518941345, 187500.0, 187500.0, -187500.02235174447, 31098.697316491285, -0.044, 0.974, -0.052000000000000005, 192.0, 0.0, 0.0, 0.0, 0.0, 0.0, 0.0, 0.0, 0.0, 0.0, 1.698958966413412E9, 0.0, 2023-11-02 17:02:46.413
241.0, -187500.02235174447, 187500.0, 31332.876543149538, 35509.56821555713, 187500.0, 187500.0, -187500.02235174447, 31100.30664209207, -0.044, 0.974, -0.052000000000000005, 192.0, 0.0, 0.0, 0.0, 0.0, 0.0, 0.0, 0.0, 0.0, 0.0, 1.6989589664134216E9, 0.0, 2023-11-02 17:02:46.413
242.0, -187500.02235174447, 187500.0, 31336.07284260665, 35508.51768356773, 187500.0, 187500.0, -187500.02235174447, 31101.848912459485, -0.044, 0.974, -0.052000000000000005, 192.0, 0.0, 0.0, 0.0, 0.0, 0.0, 0.0, 0.0, 0.0, 0.0, 1.6989589664134395E9, 0.0, 2023-11-02 17:02:46.413
243.0, -187500.02235174447, 187500.0, 31334.217647816855, 35506.684840522394, 187500.0, 187500.0, -187500.02235174447, 31099.189054869305, -0.044, 0.974, -0.052000000000000005, 192.0, 0.0, 0.0, 0.0, 0.0, 0.0, 0.0, 0.0, 0.0, 0.0, 1.6989589664134493E9, 0.0, 2023-11-02 17:02:46.413
244.0, -187500.02235174447, 187500.0, 31335.670511206452, 35505.567253299625, 187500.0, 187500.0, -187500.02235174447, 31100.01606941415, -0.042, 0.972, -0.042, 192.0, 254.0, 176.0, 30.0, 96.0, 254.0, 176.0, 0.0, 0.0, 0.0, 1.6989589664134588E9, 0.0, 2023-11-02 17:02:46.413
245.0, -187500.02235174447, 187500.0, 31342.666607220963, 35514.70911678185, 187500.0, 187500.0, -187500.02235174447, 31105.06756366105, -0.042, 0.972, -0.042, 192.0, 0.0, 0.0, 0.0, 0.0, 0.0, 0.0, 0.0, 0.0, 0.0, 1.6989589664134693E9, 0.0, 2023-11-02 17:02:46.413
246.0, -187500.02235174447, 187500.0, 31346.265238078267, 35516.16198017144, 187500.0, 187500.0, -187500.02235174447, 31104.553473538577, -0.042, 0.972, -0.042, 192.0, 0.0, 0.0, 0.0, 0.0, 0.0, 0.0, 0.0, 0.0, 0.0, 1.6989589664134789E9, 0.0, 2023-11-02 17:02:46.413
247.0, -187500.02235174447, 187500.0, 31349.685054979927, 35513.323308625615, 187500.0, 187500.0, -187500.02235174447, 31102.027726415126, -0.042, 0.972, -0.042, 192.0, 0.0, 0.0, 0.0, 0.0, 0.0, 0.0, 0.0, 0.0, 0.0, 1.6989589664134884E9, 0.0, 2023-11-02 17:02:46.413
248.0, -187500.02235174447, 187500.0, 31346.220534589356, 35513.63623304799, 187500.0, 187500.0, -187500.02235174447, 31096.19392111229, -0.042, 0.972, -0.042, 192.0, 0.0, 0.0, 0.0, 0.0, 0.0, 0.0, 0.0, 0.0, 0.0, 1.6989589664134977E9, 0.0, 2023-11-02 17:02:46.413
249.0, -187500.02235174447, 187500.0, 31352.5013747813, 35512.630404547504, 187500.0, 187500.0, -187500.02235174447, 31102.3406508375, -0.042, 0.972, -0.042, 192.0, 0.0, 0.0, 0.0, 0.0, 0.0, 0.0, 0.0, 0.0, 0.0, 1.6989589664135075E9, 0.0, 2023-11-02 17:02:46.413
250.0, -187500.02235174447, 187500.0, 31354.244810848813, 35509.79173300168, 187500.0, 187500.0, -187500.02235174447, 31101.848912459485, -0.042, 0.972, -0.042, 192.0, 0.0, 0.0, 0.0, 0.0, 0.0, 0.0, 0.0, 0.0, 0.0, 1.6989589664135172E9, 0.0, 2023-11-02 17:02:46.413
251.0, -187500.02235174447, 187500.0, 31355.608267260584, 35511.28929988018, 187500.0, 187500.0, -187500.02235174447, 31099.949014180784, -0.042, 0.972, -0.042, 192.0, 0.0, 0.0, 0.0, 0.0, 0.0, 0.0, 0.0, 0.0, 0.0, 1.6989589664135265E9, 0.0, 2023-11-02 17:02:46.413
252.0, -187500.02235174447, 187500.0, 31364.3030958537, 35515.73729702679, 187500.0, 187500.0, -187500.02235174447, 31104.709935749765, -0.042, 0.972, -0.042, 192.0, 0.0, 0.0, 0.0, 0.0, 0.0, 0.0, 0.0, 0.0, 0.0, 1.6989589664135375E9, 0.0, 2023-11-02 17:02:46.413
253.0, -187500.02235174447, 187500.0, 31365.599497032108, 35513.747991770266, 187500.0, 187500.0, -187500.02235174447, 31101.848912459485, -0.042, 0.972, -0.042, 192.0, 0.0, 0.0, 0.0, 0.0, 0.0, 0.0, 0.0, 0.0, 0.0, 1.6989589664135473E9, 0.0, 2023-11-02 17:02:46.413
254.0, -187500.02235174447, 187500.0, 31360.3021335962, 35502.19213988687, 187500.0, 187500.0, -187500.02235174447, 31092.930566421815, -0.048, 0.97, -0.04, 192.0, 254.0, 128.0, 30.0, 80.0, 254.0, 192.0, 0.0, 0.0, 0.0, 1.6989589664135568E9, 0.0, 2023-11-02 17:02:46.413
255.0, -187500.02235174447, 187500.0, 31356.569392272162, 35500.51575905273, 187500.0, 187500.0, -187500.02235174447, 31086.202691340768, -0.048, 0.97, -0.04, 192.0, 0.0, 0.0, 0.0, 0.0, 0.0, 0.0, 0.0, 0.0, 0.0, 1.6989589664135673E9, 0.0, 2023-11-02 17:02:46.413
0.0, -187500.02235174447, 187500.0, 31352.07669163665, 35497.520625295714, 187500.0, 187500.0, -187500.02235174447, 31080.90532790486, -0.048, 0.97, -0.04, 192.0, 0.0, 0.0, 0.0, 0.0, 0.0, 0.0, 0.0, 0.0, 0.0, 1.6989589664135768E9, 0.0, 2023-11-02 17:02:46.413
1.0, -187500.02235174447, 187500.0, 31353.887182937528, 35497.11829389552, 187500.0, 187500.0, -187500.02235174447, 31084.459255273254, -0.048, 0.97, -0.04, 192.0, 0.0, 0.0, 0.0, 0.0, 0.0, 0.0, 0.0, 0.0, 0.0, 1.698958966413594E9, 0.0, 2023-11-02 17:02:46.413
2.0, -187500.02235174447, 187500.0, 31361.889107452527, 35503.93557595439, 187500.0, 187500.0, -187500.02235174447, 31096.171569367838, -0.048, 0.97, -0.04, 192.0, 0.0, 0.0, 0.0, 0.0, 0.0, 0.0, 0.0, 0.0, 0.0, 1.698958966413604E9, 0.0, 2023-11-02 17:02:46.413
3.0, -187500.02235174447, 187500.0, 31362.604363275095, 35509.769381257225, 187500.0, 187500.0, -187500.02235174447, 31097.356211823968, -0.048, 0.97, -0.04, 192.0, 0.0, 0.0, 0.0, 0.0, 0.0, 0.0, 0.0, 0.0, 0.0, 1.6989589664136157E9, 0.0, 2023-11-02 17:02:46.413
4.0, -187500.02235174447, 187500.0, 31354.088348637626, 35505.36608759953, 187500.0, 187500.0, -187500.02235174447, 31087.34263030799, -0.048, 0.97, -0.04, 192.0, 0.0, 0.0, 0.0, 0.0, 0.0, 0.0, 0.0, 0.0, 0.0, 1.6989589664136252E9, 0.0, 2023-11-02 17:02:46.413
5.0, -187500.02235174447, 187500.0, 31348.567467757162, 35501.655698019946, 187500.0, 187500.0, -187500.02235174447, 31081.374714538422, -0.048, 0.97, -0.04, 192.0, 0.0, 0.0, 0.0, 0.0, 0.0, 0.0, 0.0, 0.0, 0.0, 1.6989589664136348E9, 0.0, 2023-11-02 17:02:46.413
6.0, -187500.02235174447, 187500.0, 31352.568430014664, 35501.47688406431, 187500.0, 187500.0, -187500.02235174447, 31087.34263030799, -0.048, 0.97, -0.04, 192.0, 0.0, 0.0, 0.0, 0.0, 0.0, 0.0, 0.0, 0.0, 0.0, 1.6989589664136443E9, 0.0, 2023-11-02 17:02:46.413
7.0, -187500.02235174447, 187500.0, 31352.702540481394, 35507.02011668922, 187500.0, 187500.0, -187500.02235174447, 31088.01318264165, -0.048, 0.97, -0.04, 192.0, 0.0, 0.0, 0.0, 0.0, 0.0, 0.0, 0.0, 0.0, 0.0, 1.698958966413654E9, 0.0, 2023-11-02 17:02:46.413
8.0, -187500.02235174447, 187500.0, 31349.617999746562, 35508.562387056634, 187500.0, 187500.0, -187500.02235174447, 31085.10745586246, -0.046, 0.962, -0.054, 192.0, 254.0, 144.0, 30.0, 16.0, 254.0, 80.0, 0.0, 0.0, 0.0, 1.6989589664136636E9, 0.0, 2023-11-02 17:02:46.413
9.0, -187500.02235174447, 187500.0, 31351.4508427919, 35506.7295440113, 187500.0, 187500.0, -187500.02235174447, 31085.44273202929, -0.046, 0.962, -0.054, 192.0, 0.0, 0.0, 0.0, 0.0, 0.0, 0.0, 0.0, 0.0, 0.0, 1.6989589664136739E9, 0.0, 2023-11-02 17:02:46.413
10.0, -187500.02235174447, 187500.0, 31349.528592768744, 35487.50704377974, 187500.0, 187500.0, -187500.02235174447, 31080.704162204765, -0.046, 0.962, -0.054, 192.0, 0.0, 0.0, 0.0, 0.0, 0.0, 0.0, 0.0, 0.0, 0.0, 1.6989589664136834E9, 0.0, 2023-11-02 17:02:46.413
11.0, -187500.02235174447, 187500.0, 31347.91926716796, 35475.302991307144, 187500.0, 187500.0, -187500.02235174447, 31078.379580781413, -0.046, 0.962, -0.054, 192.0, 0.0, 0.0, 0.0, 0.0, 0.0, 0.0, 0.0, 0.0, 0.0, 1.6989589664136932E9, 0.0, 2023-11-02 17:02:46.413
12.0, -187500.02235174447, 187500.0, 31343.694787465905, 35467.25636330323, 187500.0, 187500.0, -187500.02235174447, 31075.518557491134, -0.046, 0.962, -0.054, 192.0, 0.0, 0.0, 0.0, 0.0, 0.0, 0.0, 0.0, 0.0, 0.0, 1.6989589664137032E9, 0.0, 2023-11-02 17:02:46.413
13.0, -187500.02235174447, 187500.0, 31346.06407237817, 35469.223316815296, 187500.0, 187500.0, -187500.02235174447, 31076.703199947264, -0.046, 0.962, -0.054, 192.0, 0.0, 0.0, 0.0, 0.0, 0.0, 0.0, 0.0, 0.0, 0.0, 1.698958966413713E9, 0.0, 2023-11-02 17:02:46.413
14.0, -187500.02235174447, 187500.0, 31350.087386380124, 35469.44683425985, 187500.0, 187500.0, -187500.02235174447, 31078.71485694824, -0.046, 0.962, -0.054, 192.0, 0.0, 0.0, 0.0, 0.0, 0.0, 0.0, 0.0, 0.0, 0.0, 1.698958966413724E9, 0.0, 2023-11-02 17:02:46.413
15.0, -187500.02235174447, 187500.0, 31349.461537535375, 35468.15043308144, 187500.0, 187500.0, -187500.02235174447, 31077.932545892305, -0.046, 0.962, -0.054, 192.0, 0.0, 0.0, 0.0, 0.0, 0.0, 0.0, 0.0, 0.0, 0.0, 1.6989589664137337E9, 0.0, 2023-11-02 17:02:46.413
16.0, -187500.02235174447, 187500.0, 31344.141822355014, 35466.630514458484, 187500.0, 187500.0, -187500.02235174447, 31074.311563290546, -0.046, 0.962, -0.054, 192.0, 0.0, 0.0, 0.0, 0.0, 0.0, 0.0, 0.0, 0.0, 0.0, 1.698958966413744E9, 0.0, 2023-11-02 17:02:46.413
17.0, -187500.02235174447, 187500.0, 31340.990226386813, 35467.88221214798, 187500.0, 187500.0, -187500.02235174447, 31071.785816167096, -0.04, 0.968, -0.064, 192.0, 254.0, 192.0, 30.0, 64.0, 254.0, 0.0, 0.0, 0.0, 0.0, 1.6989589664137657E9, 0.0, 2023-11-02 17:02:46.413
18.0, -187500.02235174447, 187500.0, 31341.705482209385, 35467.56928772561, 187500.0, 187500.0, -187500.02235174447, 31071.450540000267, -0.04, 0.968, -0.064, 192.0, 0.0, 0.0, 0.0, 0.0, 0.0, 0.0, 0.0, 0.0, 0.0, 1.6989589664137764E9, 0.0, 2023-11-02 17:02:46.413
19.0, -187500.02235174447, 187500.0, 31340.476136264344, 35460.617895200005, 187500.0, 187500.0, -187500.02235174447, 31069.841214399486, -0.04, 0.968, -0.064, 192.0, 0.0, 0.0, 0.0, 0.0, 0.0, 0.0, 0.0, 0.0, 0.0, 1.698958966413787E9, 0.0, 2023-11-02 17:02:46.413
20.0, -187500.02235174447, 187500.0, 31335.82697341764, 35460.550839966636, 187500.0, 187500.0, -187500.02235174447, 31066.935487620296, -0.04, 0.968, -0.064, 192.0, 0.0, 0.0, 0.0, 0.0, 0.0, 0.0, 0.0, 0.0, 0.0, 1.6989589664137971E9, 0.0, 2023-11-02 17:02:46.413
21.0, -187500.02235174447, 187500.0, 31329.72494718134, 35463.23304930128, 187500.0, 187500.0, -187500.02235174447, 31063.269801529623, -0.04, 0.968, -0.064, 192.0, 0.0, 0.0, 0.0, 0.0, 0.0, 0.0, 0.0, 0.0, 0.0, 1.698958966413808E9, 0.0, 2023-11-02 17:02:46.413
22.0, -187500.02235174447, 187500.0, 31330.574313470643, 35459.16503181041, 187500.0, 187500.0, -187500.02235174447, 31064.76736840813, -0.04, 0.968, -0.064, 192.0, 0.0, 0.0, 0.0, 0.0, 0.0, 0.0, 0.0, 0.0, 0.0, 1.6989589664138196E9, 0.0, 2023-11-02 17:02:46.413
23.0, -187500.02235174447, 187500.0, 31330.574313470643, 35454.895848619446, 187500.0, 187500.0, -187500.02235174447, 31063.85094688546, -0.04, 0.968, -0.064, 192.0, 0.0, 0.0, 0.0, 0.0, 0.0, 0.0, 0.0, 0.0, 0.0, 1.6989589664138296E9, 0.0, 2023-11-02 17:02:46.413
24.0, -187500.02235174447, 187500.0, 31328.607359958576, 35453.06300557411, 187500.0, 187500.0, -187500.02235174447, 31061.258144528645, -0.04, 0.968, -0.064, 192.0, 0.0, 0.0, 0.0, 0.0, 0.0, 0.0, 0.0, 0.0, 0.0, 1.69895896641384E9, 0.0, 2023-11-02 17:02:46.413
25.0, -187500.02235174447, 187500.0, 31327.333310524624, 35456.773395153694, 187500.0, 187500.0, -187500.02235174447, 31058.486528216188, -0.04, 0.968, -0.064, 192.0, 0.0, 0.0, 0.0, 0.0, 0.0, 0.0, 0.0, 0.0, 0.0, 1.6989589664138508E9, 0.0, 2023-11-02 17:02:46.413
26.0, -187500.02235174447, 187500.0, 31327.40036575799, 35458.650941687934, 187500.0, 187500.0, -187500.02235174447, 31056.832499126496, -0.04, 0.968, -0.064, 192.0, 0.0, 0.0, 0.0, 0.0, 0.0, 0.0, 0.0, 0.0, 0.0, 1.698958966413869E9, 0.0, 2023-11-02 17:02:46.413
27.0, -187500.02235174447, 187500.0, 31329.30026403669, 35452.88419161847, 187500.0, 187500.0, -187500.02235174447, 31057.838327626985, -0.048, 0.968, -0.066, 192.0, 254.0, 128.0, 30.0, 64.0, 253.0, 240.0, 0.0, 0.0, 0.0, 1.6989589664138873E9, 0.0, 2023-11-02 17:02:46.413
28.0, -187500.02235174447, 187500.0, 31333.703557694385, 35452.14658405144, 187500.0, 187500.0, -187500.02235174447, 31062.085159073493, -0.048, 0.968, -0.066, 192.0, 0.0, 0.0, 0.0, 0.0, 0.0, 0.0, 0.0, 0.0, 0.0, 1.6989589664139242E9, 0.0, 2023-11-02 17:02:46.413
29.0, -187500.02235174447, 187500.0, 31331.803659415684, 35457.041616087154, 187500.0, 187500.0, -187500.02235174447, 31058.77710089411, -0.048, 0.968, -0.066, 192.0, 0.0, 0.0, 0.0, 0.0, 0.0, 0.0, 0.0, 0.0, 0.0, 1.6989589664139397E9, 0.0, 2023-11-02 17:02:46.413
30.0, -187500.02235174447, 187500.0, 31330.350796026087, 35458.941514365855, 187500.0, 187500.0, -187500.02235174447, 31055.938429348284, -0.048, 0.968, -0.066, 192.0, 0.0, 0.0, 0.0, 0.0, 0.0, 0.0, 0.0, 0.0, 0.0, 1.698958966413952E9, 0.0, 2023-11-02 17:02:46.413
31.0, -187500.02235174447, 187500.0, 31330.52960998173, 35455.812270142116, 187500.0, 187500.0, -187500.02235174447, 31056.251353770658, -0.048, 0.968, -0.066, 192.0, 0.0, 0.0, 0.0, 0.0, 0.0, 0.0, 0.0, 0.0, 0.0, 1.6989589664139633E9, 0.0, 2023-11-02 17:02:46.413
32.0, -187500.02235174447, 187500.0, 31339.850287419595, 35461.28844753366, 187500.0, 187500.0, -187500.02235174447, 31063.180394551804, -0.048, 0.968, -0.066, 192.0, 0.0, 0.0, 0.0, 0.0, 0.0, 0.0, 0.0, 0.0, 0.0, 1.6989589664140613E9, 0.0, 2023-11-02 17:02:46.414
33.0, -187500.02235174447, 187500.0, 31349.170964857458, 35472.12904359449, 187500.0, 187500.0, -187500.02235174447, 31069.774159166118, -0.048, 0.968, -0.066, 192.0, 0.0, 0.0, 0.0, 0.0, 0.0, 0.0, 0.0, 0.0, 0.0, 1.6989589664140756E9, 0.0, 2023-11-02 17:02:46.414
34.0, -187500.02235174447, 187500.0, 31350.333255569134, 35477.2252413303, 187500.0, 187500.0, -187500.02235174447, 31068.18718530979, -0.048, 0.968, -0.066, 192.0, 0.0, 0.0, 0.0, 0.0, 0.0, 0.0, 0.0, 0.0, 0.0, 1.6989589664140885E9, 0.0, 2023-11-02 17:02:46.414
0.0, 0.0, 0.0, 0.0, 0.0, 0.0, 0.0, 0.0, 0.0, -0.048, 0.968, -0.066, 192.0, 0.0, 0.0, 0.0, 0.0, 0.0, 0.0, 0.0, 0.0, 0.0, 1.6989589664925277E9, 0.0, 2023-11-02 17:02:46.492
1.0, -187500.02235174447, 187500.0, 31278.51710063423, 35302.836931089994, 187500.0, 187500.0, -187500.02235174447, 31039.24167624017, -0.044, 0.962, -0.074, 192.0, 254.0, 160.0, 30.0, 16.0, 253.0, 176.0, 0.0, 0.0, 0.0, 1.6989589669708457E9, 0.0, 2023-11-02 17:02:46.970
2.0, -187500.02235174447, 187500.0, 31280.0817227461, 35312.1352567834, 187500.0, 187500.0, -187500.02235174447, 31040.403966951846, -0.044, 0.962, -0.074, 192.0, 0.0, 0.0, 0.0, 0.0, 0.0, 0.0, 0.0, 0.0, 0.0, 1.698958966970972E9, 0.0, 2023-11-02 17:02:46.970
3.0, -187500.02235174447, 187500.0, 31271.90098427546, 35311.39764921637, 187500.0, 187500.0, -187500.02235174447, 31031.28445521408, -0.044, 0.962, -0.074, 192.0, 0.0, 0.0, 0.0, 0.0, 0.0, 0.0, 0.0, 0.0, 0.0, 1.698958966971048E9, 0.0, 2023-11-02 17:02:46.971
4.0, -187500.02235174447, 187500.0, 31270.693990074873, 35304.312146224045, 187500.0, 187500.0, -187500.02235174447, 31028.065804012516, -0.044, 0.962, -0.074, 192.0, 0.0, 0.0, 0.0, 0.0, 0.0, 0.0, 0.0, 0.0, 0.0, 1.6989589669710672E9, 0.0, 2023-11-02 17:02:46.971
5.0, -187500.02235174447, 187500.0, 31273.845586043073, 35302.00991654515, 187500.0, 187500.0, -187500.02235174447, 31031.79854533655, -0.044, 0.962, -0.074, 192.0, 0.0, 0.0, 0.0, 0.0, 0.0, 0.0, 0.0, 0.0, 0.0, 1.6989589669710813E9, 0.0, 2023-11-02 17:02:46.971
6.0, -187500.02235174447, 187500.0, 31271.14102496398, 35303.41807644583, 187500.0, 187500.0, -187500.02235174447, 31029.920998802307, -0.044, 0.962, -0.074, 192.0, 0.0, 0.0, 0.0, 0.0, 0.0, 0.0, 0.0, 0.0, 0.0, 1.6989589669710927E9, 0.0, 2023-11-02 17:02:46.971
7.0, -187500.02235174447, 187500.0, 31273.689123831886, 35304.42390494632, 187500.0, 187500.0, -187500.02235174447, 31032.37969069239, -0.044, 0.962, -0.074, 192.0, 0.0, 0.0, 0.0, 0.0, 0.0, 0.0, 0.0, 0.0, 0.0, 1.6989589669711092E9, 0.0, 2023-11-02 17:02:46.971
8.0, -187500.02235174447, 187500.0, 31278.360638423044, 35308.626032903914, 187500.0, 187500.0, -187500.02235174447, 31037.60999889493, -0.04, 0.978, -0.08600000000000001, 192.0, 254.0, 192.0, 30.0, 144.0, 253.0, 80.0, 0.0, 0.0, 0.0, 1.6989589669711287E9, 0.0, 2023-11-02 17:02:46.971
9.0, -187500.02235174447, 187500.0, 31281.065199502136, 35303.01574504563, 187500.0, 187500.0, -187500.02235174447, 31040.2251529962, -0.04, 0.978, -0.08600000000000001, 192.0, 0.0, 0.0, 0.0, 0.0, 0.0, 0.0, 0.0, 0.0, 0.0, 1.6989589669711463E9, 0.0, 2023-11-02 17:02:46.971
10.0, -187500.02235174447, 187500.0, 31276.080760488603, 35298.72421011022, 187500.0, 187500.0, -187500.02235174447, 31033.966664548716, -0.04, 0.978, -0.08600000000000001, 192.0, 0.0, 0.0, 0.0, 0.0, 0.0, 0.0, 0.0, 0.0, 0.0, 1.69895896697116E9, 0.0, 2023-11-02 17:02:46.971
11.0, -187500.02235174447, 187500.0, 31273.1303302205, 35299.819445588524, 187500.0, 187500.0, -187500.02235174447, 31029.205742979735, -0.04, 0.978, -0.08600000000000001, 192.0, 0.0, 0.0, 0.0, 0.0, 0.0, 0.0, 0.0, 0.0, 0.0, 1.698958966971174E9, 0.0, 2023-11-02 17:02:46.971
12.0, -187500.02235174447, 187500.0, 31271.073969730613, 35292.93510829629, 187500.0, 187500.0, -187500.02235174447, 31026.85880981193, -0.04, 0.978, -0.08600000000000001, 192.0, 0.0, 0.0, 0.0, 0.0, 0.0, 0.0, 0.0, 0.0, 0.0, 1.69895896697177E9, 0.0, 2023-11-02 17:02:46.971
13.0, -187500.02235174447, 187500.0, 31274.918469776927, 35281.513366879626, 187500.0, 187500.0, -187500.02235174447, 31029.876295313396, -0.04, 0.978, -0.08600000000000001, 192.0, 0.0, 0.0, 0.0, 0.0, 0.0, 0.0, 0.0, 0.0, 0.0, 1.698958966971794E9, 0.0, 2023-11-02 17:02:46.971
14.0, -187500.02235174447, 187500.0, 31279.835853557095, 35283.30150643605, 187500.0, 187500.0, -187500.02235174447, 31035.28541747158, -0.04, 0.978, -0.08600000000000001, 192.0, 0.0, 0.0, 0.0, 0.0, 0.0, 0.0, 0.0, 0.0, 0.0, 1.6989589669718285E9, 0.0, 2023-11-02 17:02:46.971
15.0, -187500.02235174447, 187500.0, 31280.99814426877, 35284.39674191437, 187500.0, 187500.0, -187500.02235174447, 31037.654702383843, -0.04, 0.978, -0.08600000000000001, 192.0, 0.0, 0.0, 0.0, 0.0, 0.0, 0.0, 0.0, 0.0, 0.0, 1.698958966971841E9, 0.0, 2023-11-02 17:02:46.971
16.0, -187500.02235174447, 187500.0, 31285.200272226368, 35283.30150643605, 187500.0, 187500.0, -187500.02235174447, 31042.817955353017, -0.04, 0.978, -0.08600000000000001, 192.0, 0.0, 0.0, 0.0, 0.0, 0.0, 0.0, 0.0, 0.0, 0.0, 1.6989589669718542E9, 0.0, 2023-11-02 17:02:46.971
17.0, -187500.02235174447, 187500.0, 31289.447103672876, 35277.93708776678, 187500.0, 187500.0, -187500.02235174447, 31045.656626898843, -0.04, 0.978, -0.08600000000000001, 192.0, 0.0, 0.0, 0.0, 0.0, 0.0, 0.0, 0.0, 0.0, 0.0, 1.6989589669718668E9, 0.0, 2023-11-02 17:02:46.971
18.0, -187500.02235174447, 187500.0, 31293.358658952555, 35275.03136098759, 187500.0, 187500.0, -187500.02235174447, 31048.785871122585, -0.046, 0.984, -0.08, 192.0, 254.0, 144.0, 30.0, 192.0, 253.0, 128.0, 0.0, 0.0, 0.0, 1.6989589669718792E9, 0.0, 2023-11-02 17:02:46.971
19.0, -187500.02235174447, 187500.0, 31292.330478707612, 35274.60667784294, 187500.0, 187500.0, -187500.02235174447, 31050.037568812084, -0.046, 0.984, -0.08, 192.0, 0.0, 0.0, 0.0, 0.0, 0.0, 0.0, 0.0, 0.0, 0.0, 1.6989589669718957E9, 0.0, 2023-11-02 17:02:46.971
20.0, -187500.02235174447, 187500.0, 31288.37421993902, 35267.61058182843, 187500.0, 187500.0, -187500.02235174447, 31047.936504833284, -0.046, 0.984, -0.08, 192.0, 0.0, 0.0, 0.0, 0.0, 0.0, 0.0, 0.0, 0.0, 0.0, 1.6989589669719114E9, 0.0, 2023-11-02 17:02:46.971
21.0, -187500.02235174447, 187500.0, 31292.19636824088, 35262.44732885925, 187500.0, 187500.0, -187500.02235174447, 31052.496260702166, -0.046, 0.984, -0.08, 192.0, 0.0, 0.0, 0.0, 0.0, 0.0, 0.0, 0.0, 0.0, 0.0, 1.6989589669719243E9, 0.0, 2023-11-02 17:02:46.971
22.0, -187500.02235174447, 187500.0, 31294.655060130965, 35266.8729742614, 187500.0, 187500.0, -187500.02235174447, 31054.038531069582, -0.046, 0.984, -0.08, 192.0, 0.0, 0.0, 0.0, 0.0, 0.0, 0.0, 0.0, 0.0, 0.0, 1.6989589669719405E9, 0.0, 2023-11-02 17:02:46.971
23.0, -187500.02235174447, 187500.0, 31294.006859541758, 35269.286962662576, 187500.0, 187500.0, -187500.02235174447, 31054.463214214233, -0.046, 0.984, -0.08, 192.0, 0.0, 0.0, 0.0, 0.0, 0.0, 0.0, 0.0, 0.0, 0.0, 1.698958966971952E9, 0.0, 2023-11-02 17:02:46.971
24.0, -187500.02235174447, 187500.0, 31280.886385546495, 35259.74276778016, 187500.0, 187500.0, -187500.02235174447, 31040.828650096497, -0.046, 0.984, -0.08, 192.0, 0.0, 0.0, 0.0, 0.0, 0.0, 0.0, 0.0, 0.0, 0.0, 1.6989589669719656E9, 0.0, 2023-11-02 17:02:46.971
25.0, -187500.02235174447, 187500.0, 31281.892214046984, 35241.30257860453, 187500.0, 187500.0, -187500.02235174447, 31037.252370983646, -0.046, 0.984, -0.08, 192.0, 0.0, 0.0, 0.0, 0.0, 0.0, 0.0, 0.0, 0.0, 0.0, 1.6989589669720104E9, 0.0, 2023-11-02 17:02:46.972
26.0, -187500.02235174447, 187500.0, 31283.970926281327, 35238.03922391406, 187500.0, 187500.0, -187500.02235174447, 31037.542943661567, -0.046, 0.984, -0.08, 192.0, 0.0, 0.0, 0.0, 0.0, 0.0, 0.0, 0.0, 0.0, 0.0, 1.6989589669720244E9, 0.0, 2023-11-02 17:02:46.972
27.0, -187500.02235174447, 187500.0, 31282.071028002625, 35243.31423560551, 187500.0, 187500.0, -187500.02235174447, 31034.592513393465, -0.046, 0.984, -0.08, 192.0, 0.0, 0.0, 0.0, 0.0, 0.0, 0.0, 0.0, 0.0, 0.0, 1.6989589669723144E9, 0.0, 2023-11-02 17:02:46.972
28.0, -187500.02235174447, 187500.0, 31276.885423288993, 35242.53192454957, 187500.0, 187500.0, -187500.02235174447, 31028.423431923802, -0.044, 0.99, -0.078, 192.0, 254.0, 160.0, 30.0, 240.0, 253.0, 144.0, 0.0, 0.0, 0.0, 1.69895896697234E9, 0.0, 2023-11-02 17:02:46.972
29.0, -187500.02235174447, 187500.0, 31273.5326616207, 35225.43284004126, 187500.0, 187500.0, -187500.02235174447, 31023.66251035482, -0.044, 0.99, -0.078, 192.0, 0.0, 0.0, 0.0, 0.0, 0.0, 0.0, 0.0, 0.0, 0.0, 1.6989589669723608E9, 0.0, 2023-11-02 17:02:46.972
30.0, -187500.02235174447, 187500.0, 31278.628859356508, 35214.36872653589, 187500.0, 187500.0, -187500.02235174447, 31025.987091778174, -0.044, 0.99, -0.078, 192.0, 0.0, 0.0, 0.0, 0.0, 0.0, 0.0, 0.0, 0.0, 0.0, 1.6989589669723773E9, 0.0, 2023-11-02 17:02:46.972
31.0, -187500.02235174447, 187500.0, 31281.62399311352, 35215.307499803006, 187500.0, 187500.0, -187500.02235174447, 31025.629463866888, -0.044, 0.99, -0.078, 192.0, 0.0, 0.0, 0.0, 0.0, 0.0, 0.0, 0.0, 0.0, 0.0, 1.6989589669723933E9, 0.0, 2023-11-02 17:02:46.972
32.0, -187500.02235174447, 187500.0, 31274.20321395436, 35211.7088689457, 187500.0, 187500.0, -187500.02235174447, 31015.61588235091, -0.044, 0.99, -0.078, 192.0, 0.0, 0.0, 0.0, 0.0, 0.0, 0.0, 0.0, 0.0, 0.0, 1.6989589669724057E9, 0.0, 2023-11-02 17:02:46.972
33.0, -187500.02235174447, 187500.0, 31281.668696602428, 35203.32696477496, 187500.0, 187500.0, -187500.02235174447, 31019.438030652767, -0.044, 0.99, -0.078, 192.0, 0.0, 0.0, 0.0, 0.0, 0.0, 0.0, 0.0, 0.0, 0.0, 1.6989589669724195E9, 0.0, 2023-11-02 17:02:46.972
34.0, -187500.02235174447, 187500.0, 31292.643403129987, 35204.73512467565, 187500.0, 187500.0, -187500.02235174447, 31029.31750170201, -0.044, 0.99, -0.078, 192.0, 0.0, 0.0, 0.0, 0.0, 0.0, 0.0, 0.0, 0.0, 0.0, 1.698958966972435E9, 0.0, 2023-11-02 17:02:46.972
35.0, -187500.02235174447, 187500.0, 31289.938842050895, 35212.29001430154, 187500.0, 187500.0, -187500.02235174447, 31026.970568534205, -0.044, 0.99, -0.078, 192.0, 0.0, 0.0, 0.0, 0.0, 0.0, 0.0, 0.0, 0.0, 0.0, 1.6989589669724483E9, 0.0, 2023-11-02 17:02:46.972
36.0, -187500.02235174447, 187500.0, 31290.1847112399, 35214.52518874707, 187500.0, 187500.0, -187500.02235174447, 31027.261141212126, -0.044, 0.99, -0.078, 192.0, 0.0, 0.0, 0.0, 0.0, 0.0, 0.0, 0.0, 0.0, 0.0, 1.6989589669724665E9, 0.0, 2023-11-02 17:02:46.972
37.0, -187500.02235174447, 187500.0, 31288.128350750012, 35209.428991011264, 187500.0, 187500.0, -187500.02235174447, 31025.629463866888, -0.044, 0.99, -0.078, 192.0, 0.0, 0.0, 0.0, 0.0, 0.0, 0.0, 0.0, 0.0, 0.0, 1.6989589669724803E9, 0.0, 2023-11-02 17:02:46.972
38.0, -187500.02235174447, 187500.0, 31287.72601934982, 35205.74095317614, 187500.0, 187500.0, -187500.02235174447, 31025.450649911243, -0.038, 0.984, -0.078, 192.0, 254.0, 208.0, 30.0, 192.0, 253.0, 144.0, 0.0, 0.0, 0.0, 1.698958966972495E9, 0.0, 2023-11-02 17:02:46.972
39.0, -187500.02235174447, 187500.0, 31283.76976058123, 35206.67972644326, 187500.0, 187500.0, -187500.02235174447, 31021.919074287307, -0.038, 0.984, -0.078, 192.0, 0.0, 0.0, 0.0, 0.0, 0.0, 0.0, 0.0, 0.0, 0.0, 1.6989589669725127E9, 0.0, 2023-11-02 17:02:46.972
40.0, -187500.02235174447, 187500.0, 31284.86499605954, 35212.580586979464, 187500.0, 187500.0, -187500.02235174447, 31022.410812665323, -0.038, 0.984, -0.078, 192.0, 0.0, 0.0, 0.0, 0.0, 0.0, 0.0, 0.0, 0.0, 0.0, 1.6989589669725287E9, 0.0, 2023-11-02 17:02:46.972
41.0, -187500.02235174447, 187500.0, 31280.059371001647, 35210.25600555611, 187500.0, 187500.0, -187500.02235174447, 31017.985167263174, -0.038, 0.984, -0.078, 192.0, 0.0, 0.0, 0.0, 0.0, 0.0, 0.0, 0.0, 0.0, 0.0, 1.698958966972545E9, 0.0, 2023-11-02 17:02:46.972
42.0, -187500.02235174447, 187500.0, 31278.941783778882, 35201.44941824072, 187500.0, 187500.0, -187500.02235174447, 31016.04056549556, -0.038, 0.984, -0.078, 192.0, 0.0, 0.0, 0.0, 0.0, 0.0, 0.0, 0.0, 0.0, 0.0, 1.6989589669727209E9, 0.0, 2023-11-02 17:02:46.972
43.0, -187500.02235174447, 187500.0, 31286.161397237945, 35208.26670029959, 187500.0, 187500.0, -187500.02235174447, 31023.506048143634, -0.038, 0.984, -0.078, 192.0, 0.0, 0.0, 0.0, 0.0, 0.0, 0.0, 0.0, 0.0, 0.0, 1.698958966972748E9, 0.0, 2023-11-02 17:02:46.972
44.0, -187500.02235174447, 187500.0, 31282.674525102917, 35211.86533115689, 187500.0, 187500.0, -187500.02235174447, 31020.555617875532, -0.038, 0.984, -0.078, 192.0, 0.0, 0.0, 0.0, 0.0, 0.0, 0.0, 0.0, 0.0, 0.0, 1.6989589669727683E9, 0.0, 2023-11-02 17:02:46.972
45.0, -187500.02235174447, 187500.0, 31281.691048346886, 35213.1617323353, 187500.0, 187500.0, -187500.02235174447, 31018.923940530294, -0.038, 0.984, -0.078, 192.0, 0.0, 0.0, 0.0, 0.0, 0.0, 0.0, 0.0, 0.0, 0.0, 1.6989589669727871E9, 0.0, 2023-11-02 17:02:46.972
46.0, -187500.02235174447, 187500.0, 31282.965097780838, 35211.15007533432, 187500.0, 187500.0, -187500.02235174447, 31017.09109748496, -0.038, 0.984, -0.078, 192.0, 0.0, 0.0, 0.0, 0.0, 0.0, 0.0, 0.0, 0.0, 0.0, 1.6989589669728377E9, 0.0, 2023-11-02 17:02:46.972
47.0, -187500.02235174447, 187500.0, 31285.91552804894, 35215.866293414394, 187500.0, 187500.0, -187500.02235174447, 31018.700423085742, -0.03, 0.978, -0.084, 192.0, 255.0, 16.0, 30.0, 144.0, 253.0, 96.0, 0.0, 0.0, 0.0, 1.6989589669728513E9, 0.0, 2023-11-02 17:02:46.972
48.0, -187500.02235174447, 187500.0, 31284.015629770238, 35222.12478186188, 187500.0, 187500.0, -187500.02235174447, 31015.526475373088, -0.03, 0.978, -0.084, 192.0, 0.0, 0.0, 0.0, 0.0, 0.0, 0.0, 0.0, 0.0, 0.0, 1.698958966972868E9, 0.0, 2023-11-02 17:02:46.972
49.0, -187500.02235174447, 187500.0, 31275.924298277416, 35215.106334102915, 187500.0, 187500.0, -187500.02235174447, 31008.32921365848, -0.03, 0.978, -0.084, 192.0, 0.0, 0.0, 0.0, 0.0, 0.0, 0.0, 0.0, 0.0, 0.0, 1.6989589669728837E9, 0.0, 2023-11-02 17:02:46.972
50.0, -187500.02235174447, 187500.0, 31283.94857453687, 35213.96639513569, 187500.0, 187500.0, -187500.02235174447, 31015.66058583982, -0.03, 0.978, -0.084, 192.0, 0.0, 0.0, 0.0, 0.0, 0.0, 0.0, 0.0, 0.0, 0.0, 1.698958966972896E9, 0.0, 2023-11-02 17:02:46.972
51.0, -187500.02235174447, 187500.0, 31291.592871140587, 35223.17531385128, 187500.0, 187500.0, -187500.02235174447, 31021.80731556503, -0.03, 0.978, -0.084, 192.0, 0.0, 0.0, 0.0, 0.0, 0.0, 0.0, 0.0, 0.0, 0.0, 1.69895896697291E9, 0.0, 2023-11-02 17:02:46.972
52.0, -187500.02235174447, 187500.0, 31296.15262700947, 35232.67480524478, 187500.0, 187500.0, -187500.02235174447, 31023.841324310462, -0.03, 0.978, -0.084, 192.0, 0.0, 0.0, 0.0, 0.0, 0.0, 0.0, 0.0, 0.0, 0.0, 1.6989589669729266E9, 0.0, 2023-11-02 17:02:46.972
53.0, -187500.02235174447, 187500.0, 31292.553996152164, 35232.5183430336, 187500.0, 187500.0, -187500.02235174447, 31020.600321364444, -0.03, 0.978, -0.084, 192.0, 0.0, 0.0, 0.0, 0.0, 0.0, 0.0, 0.0, 0.0, 0.0, 1.6989589669729407E9, 0.0, 2023-11-02 17:02:46.972
54.0, -187500.02235174447, 187500.0, 31296.890234576495, 35236.49695354664, 187500.0, 187500.0, -187500.02235174447, 31026.389423178367, -0.03, 0.978, -0.084, 192.0, 0.0, 0.0, 0.0, 0.0, 0.0, 0.0, 0.0, 0.0, 0.0, 1.6989589669729564E9, 0.0, 2023-11-02 17:02:46.972
55.0, -187500.02235174447, 187500.0, 31306.657946903462, 35243.51540130561, 187500.0, 187500.0, -187500.02235174447, 31036.604170394443, -0.03, 0.978, -0.084, 192.0, 0.0, 0.0, 0.0, 0.0, 0.0, 0.0, 0.0, 0.0, 0.0, 1.6989589669729729E9, 0.0, 2023-11-02 17:02:46.972
56.0, -187500.02235174447, 187500.0, 31312.80467662867, 35250.06446243101, 187500.0, 187500.0, -187500.02235174447, 31041.23098149669, -0.03, 0.978, -0.084, 192.0, 0.0, 0.0, 0.0, 0.0, 0.0, 0.0, 0.0, 0.0, 0.0, 1.6989589669729843E9, 0.0, 2023-11-02 17:02:46.972
57.0, -187500.02235174447, 187500.0, 31322.48298197782, 35257.55229682354, 187500.0, 187500.0, -187500.02235174447, 31050.015217067627, -0.036000000000000004, 0.982, -0.088, 192.0, 254.0, 224.0, 30.0, 176.0, 253.0, 64.0, 0.0, 0.0, 0.0, 1.698958966972994E9, 0.0, 2023-11-02 17:02:46.972
58.0, -187500.02235174447, 187500.0, 31324.427583745433, 35258.64753230185, 187500.0, 187500.0, -187500.02235174447, 31053.166813035827, -0.036000000000000004, 0.982, -0.088, 192.0, 0.0, 0.0, 0.0, 0.0, 0.0, 0.0, 0.0, 0.0, 0.0, 1.698958966973038E9, 0.0, 2023-11-02 17:02:46.973
59.0, -187500.02235174447, 187500.0, 31328.80852565867, 35260.9721137252, 187500.0, 187500.0, -187500.02235174447, 31056.832499126496, -0.036000000000000004, 0.982, -0.088, 192.0, 0.0, 0.0, 0.0, 0.0, 0.0, 0.0, 0.0, 0.0, 0.0, 1.6989589669730487E9, 0.0, 2023-11-02 17:02:46.973
60.0, -187500.02235174447, 187500.0, 31327.467420991354, 35259.072215446504, 187500.0, 187500.0, -187500.02235174447, 31052.786833380087, -0.036000000000000004, 0.982, -0.088, 192.0, 0.0, 0.0, 0.0, 0.0, 0.0, 0.0, 0.0, 0.0, 0.0, 1.6989589669730597E9, 0.0, 2023-11-02 17:02:46.973
61.0, -187500.02235174447, 187500.0, 31325.47811573483, 35264.660151560325, 187500.0, 187500.0, -187500.02235174447, 31047.71298738873, -0.036000000000000004, 0.982, -0.088, 192.0, 0.0, 0.0, 0.0, 0.0, 0.0, 0.0, 0.0, 0.0, 0.0, 1.69895896697307E9, 0.0, 2023-11-02 17:02:46.973
62.0, -187500.02235174447, 187500.0, 31324.002900600783, 35259.563953824516, 187500.0, 187500.0, -187500.02235174447, 31043.443804197766, -0.036000000000000004, 0.982, -0.088, 192.0, 0.0, 0.0, 0.0, 0.0, 0.0, 0.0, 0.0, 0.0, 0.0, 1.698958966973083E9, 0.0, 2023-11-02 17:02:46.973
63.0, -187500.02235174447, 187500.0, 31320.516028465754, 35250.0197589421, 187500.0, 187500.0, -187500.02235174447, 31039.264027984624, -0.036000000000000004, 0.982, -0.088, 192.0, 0.0, 0.0, 0.0, 0.0, 0.0, 0.0, 0.0, 0.0, 0.0, 1.6989589669730933E9, 0.0, 2023-11-02 17:02:46.973
64.0, -187500.02235174447, 187500.0, 31318.750240653782, 35248.656302530326, 187500.0, 187500.0, -187500.02235174447, 31034.078423270992, -0.036000000000000004, 0.982, -0.088, 192.0, 0.0, 0.0, 0.0, 0.0, 0.0, 0.0, 0.0, 0.0, 0.0, 1.6989589669731035E9, 0.0, 2023-11-02 17:02:46.973
65.0, -187500.02235174447, 187500.0, 31317.3420807531, 35255.63004680038, 187500.0, 187500.0, -187500.02235174447, 31031.217399980713, -0.036000000000000004, 0.982, -0.088, 192.0, 0.0, 0.0, 0.0, 0.0, 0.0, 0.0, 0.0, 0.0, 0.0, 1.6989589669731145E9, 0.0, 2023-11-02 17:02:46.973
66.0, -187500.02235174447, 187500.0, 31316.91739760845, 35257.21702065671, 187500.0, 187500.0, -187500.02235174447, 31028.490487157167, -0.036000000000000004, 0.982, -0.088, 192.0, 0.0, 0.0, 0.0, 0.0, 0.0, 0.0, 0.0, 0.0, 0.0, 1.6989589669731429E9, 0.0, 2023-11-02 17:02:46.973
67.0, -187500.02235174447, 187500.0, 31324.04760408969, 35254.84773574445, 187500.0, 187500.0, -187500.02235174447, 31033.586684892976, -0.044, 0.984, -0.088, 192.0, 254.0, 160.0, 30.0, 192.0, 253.0, 64.0, 0.0, 0.0, 0.0, 1.6989589669731565E9, 0.0, 2023-11-02 17:02:46.973
68.0, -187500.02235174447, 187500.0, 31338.643293219007, 35261.39679686985, 187500.0, 187500.0, -187500.02235174447, 31045.76838562112, -0.044, 0.984, -0.088, 192.0, 0.0, 0.0, 0.0, 0.0, 0.0, 0.0, 0.0, 0.0, 0.0, 1.698958966973168E9, 0.0, 2023-11-02 17:02:46.973
69.0, -187500.02235174447, 187500.0, 31337.525705996242, 35271.00804698563, 187500.0, 187500.0, -187500.02235174447, 31044.606094909443, -0.044, 0.984, -0.088, 192.0, 0.0, 0.0, 0.0, 0.0, 0.0, 0.0, 0.0, 0.0, 0.0, 1.6989589669731789E9, 0.0, 2023-11-02 17:02:46.973
70.0, -187500.02235174447, 187500.0, 31337.3468920406, 35272.30444816404, 187500.0, 187500.0, -187500.02235174447, 31045.164888520827, -0.044, 0.984, -0.088, 192.0, 0.0, 0.0, 0.0, 0.0, 0.0, 0.0, 0.0, 0.0, 0.0, 1.698958966973189E9, 0.0, 2023-11-02 17:02:46.973
71.0, -187500.02235174447, 187500.0, 31339.850287419595, 35271.81270978603, 187500.0, 187500.0, -187500.02235174447, 31048.00356006665, -0.044, 0.984, -0.088, 192.0, 0.0, 0.0, 0.0, 0.0, 0.0, 0.0, 0.0, 0.0, 0.0, 1.698958966973199E9, 0.0, 2023-11-02 17:02:46.973
72.0, -187500.02235174447, 187500.0, 31351.2496770918, 35276.86420403292, 187500.0, 187500.0, -187500.02235174447, 31058.464176471734, -0.044, 0.984, -0.088, 192.0, 0.0, 0.0, 0.0, 0.0, 0.0, 0.0, 0.0, 0.0, 0.0, 1.6989589669732256E9, 0.0, 2023-11-02 17:02:46.973
73.0, -187500.02235174447, 187500.0, 31347.58399100113, 35280.70870407924, 187500.0, 187500.0, -187500.02235174447, 31052.317446746525, -0.044, 0.984, -0.088, 192.0, 0.0, 0.0, 0.0, 0.0, 0.0, 0.0, 0.0, 0.0, 0.0, 1.6989589669732454E9, 0.0, 2023-11-02 17:02:46.973
74.0, -187500.02235174447, 187500.0, 31340.900819408995, 35273.35498015344, 187500.0, 187500.0, -187500.02235174447, 31044.874315842906, -0.044, 0.984, -0.088, 192.0, 0.0, 0.0, 0.0, 0.0, 0.0, 0.0, 0.0, 0.0, 0.0, 1.6989589669732556E9, 0.0, 2023-11-02 17:02:46.973
75.0, -187500.02235174447, 187500.0, 31342.800717687696, 35271.231564430185, 187500.0, 187500.0, -187500.02235174447, 31046.14836527686, -0.044, 0.984, -0.088, 192.0, 0.0, 0.0, 0.0, 0.0, 0.0, 0.0, 0.0, 0.0, 0.0, 1.6989589669732652E9, 0.0, 2023-11-02 17:02:46.973
76.0, -187500.02235174447, 187500.0, 31339.58206648613, 35264.88366900488, 187500.0, 187500.0, -187500.02235174447, 31042.013292552627, -0.044, 0.984, -0.088, 192.0, 0.0, 0.0, 0.0, 0.0, 0.0, 0.0, 0.0, 0.0, 0.0, 1.6989589669732752E9, 0.0, 2023-11-02 17:02:46.973
77.0, -187500.02235174447, 187500.0, 31338.643293219007, 35264.727206793694, 187500.0, 187500.0, -187500.02235174447, 31041.365091963424, -0.056, 0.972, -0.084, 192.0, 254.0, 64.0, 30.0, 96.0, 253.0, 96.0, 0.0, 0.0, 0.0, 1.6989589669732847E9, 0.0, 2023-11-02 17:02:46.973
78.0, -187500.02235174447, 187500.0, 31338.039796118715, 35267.76704403962, 187500.0, 187500.0, -187500.02235174447, 31042.303865230548, -0.056, 0.972, -0.084, 192.0, 0.0, 0.0, 0.0, 0.0, 0.0, 0.0, 0.0, 0.0, 0.0, 1.698958966973296E9, 0.0, 2023-11-02 17:02:46.973
79.0, -187500.02235174447, 187500.0, 31335.044662361703, 35259.072215446504, 187500.0, 187500.0, -187500.02235174447, 31039.487545429176, -0.056, 0.972, -0.084, 192.0, 0.0, 0.0, 0.0, 0.0, 0.0, 0.0, 0.0, 0.0, 0.0, 1.6989589669733067E9, 0.0, 2023-11-02 17:02:46.973
80.0, -187500.02235174447, 187500.0, 31332.54126698271, 35256.79233751206, 187500.0, 187500.0, -187500.02235174447, 31036.850039583453, -0.056, 0.972, -0.084, 192.0, 0.0, 0.0, 0.0, 0.0, 0.0, 0.0, 0.0, 0.0, 0.0, 1.698958966973317E9, 0.0, 2023-11-02 17:02:46.973
81.0, -187500.02235174447, 187500.0, 31332.742432682808, 35260.45802360273, 187500.0, 187500.0, -187500.02235174447, 31037.38648145038, -0.056, 0.972, -0.084, 192.0, 0.0, 0.0, 0.0, 0.0, 0.0, 0.0, 0.0, 0.0, 0.0, 1.6989589669733276E9, 0.0, 2023-11-02 17:02:46.973
82.0, -187500.02235174447, 187500.0, 31324.53934246771, 35253.52898282158, 187500.0, 187500.0, -187500.02235174447, 31028.736356346177, -0.056, 0.972, -0.084, 192.0, 0.0, 0.0, 0.0, 0.0, 0.0, 0.0, 0.0, 0.0, 0.0, 1.6989589669733381E9, 0.0, 2023-11-02 17:02:46.973
83.0, -187500.02235174447, 187500.0, 31322.25946453327, 35245.03531992857, 187500.0, 187500.0, -187500.02235174447, 31025.115373744415, -0.056, 0.972, -0.084, 192.0, 0.0, 0.0, 0.0, 0.0, 0.0, 0.0, 0.0, 0.0, 0.0, 1.698958966973348E9, 0.0, 2023-11-02 17:02:46.973
84.0, -187500.02235174447, 187500.0, 31324.67345293444, 35239.82736347048, 187500.0, 187500.0, -187500.02235174447, 31026.03179526708, -0.056, 0.972, -0.084, 192.0, 0.0, 0.0, 0.0, 0.0, 0.0, 0.0, 0.0, 0.0, 0.0, 1.698958966973358E9, 0.0, 2023-11-02 17:02:46.973
85.0, -187500.02235174447, 187500.0, 31327.91445588046, 35249.05863393052, 187500.0, 187500.0, -187500.02235174447, 31029.58572263548, -0.056, 0.972, -0.084, 192.0, 0.0, 0.0, 0.0, 0.0, 0.0, 0.0, 0.0, 0.0, 0.0, 1.6989589669733672E9, 0.0, 2023-11-02 17:02:46.973
86.0, -187500.02235174447, 187500.0, 31332.34010128261, 35263.967247482215, 187500.0, 187500.0, -187500.02235174447, 31036.917094816818, -0.056, 0.972, -0.084, 192.0, 0.0, 0.0, 0.0, 0.0, 0.0, 0.0, 0.0, 0.0, 0.0, 1.698958966973379E9, 0.0, 2023-11-02 17:02:46.973
87.0, -187500.02235174447, 187500.0, 31335.044662361703, 35265.822442272, 187500.0, 187500.0, -187500.02235174447, 31041.186278007783, -0.06, 0.98, -0.084, 192.0, 254.0, 32.0, 30.0, 160.0, 253.0, 96.0, 0.0, 0.0, 0.0, 1.6989589669733903E9, 0.0, 2023-11-02 17:02:46.973
88.0, -187500.02235174447, 187500.0, 31340.945522897902, 35260.43567185827, 187500.0, 187500.0, -187500.02235174447, 31047.645932155363, -0.06, 0.98, -0.084, 192.0, 0.0, 0.0, 0.0, 0.0, 0.0, 0.0, 0.0, 0.0, 0.0, 1.6989589669734228E9, 0.0, 2023-11-02 17:02:46.973
89.0, -187500.02235174447, 187500.0, 31327.735641924817, 35254.959494466726, 187500.0, 187500.0, -187500.02235174447, 31033.72079535971, -0.06, 0.98, -0.084, 192.0, 0.0, 0.0, 0.0, 0.0, 0.0, 0.0, 0.0, 0.0, 0.0, 1.6989589669734373E9, 0.0, 2023-11-02 17:02:46.973
90.0, -187500.02235174447, 187500.0, 31317.632653431017, 35244.34241585045, 187500.0, 187500.0, -187500.02235174447, 31021.33792893147, -0.06, 0.98, -0.084, 192.0, 0.0, 0.0, 0.0, 0.0, 0.0, 0.0, 0.0, 0.0, 0.0, 1.698958966973447E9, 0.0, 2023-11-02 17:02:46.973
91.0, -187500.02235174447, 187500.0, 31321.141877310503, 35248.656302530326, 187500.0, 187500.0, -187500.02235174447, 31024.71304234422, -0.06, 0.98, -0.084, 192.0, 0.0, 0.0, 0.0, 0.0, 0.0, 0.0, 0.0, 0.0, 0.0, 1.6989589669734578E9, 0.0, 2023-11-02 17:02:46.973
92.0, -187500.02235174447, 187500.0, 31332.809487916173, 35255.25006714464, 187500.0, 187500.0, -187500.02235174447, 31036.738280861176, -0.06, 0.98, -0.084, 192.0, 0.0, 0.0, 0.0, 0.0, 0.0, 0.0, 0.0, 0.0, 0.0, 1.69895896697347E9, 0.0, 2023-11-02 17:02:46.973
93.0, -187500.02235174447, 187500.0, 31335.558752484176, 35255.60769505593, 187500.0, 187500.0, -187500.02235174447, 31040.023987296106, -0.06, 0.98, -0.084, 192.0, 0.0, 0.0, 0.0, 0.0, 0.0, 0.0, 0.0, 0.0, 0.0, 1.6989589669734805E9, 0.0, 2023-11-02 17:02:46.973
94.0, -187500.02235174447, 187500.0, 31333.569447227652, 35258.379311368386, 187500.0, 187500.0, -187500.02235174447, 31038.347606461957, -0.06, 0.98, -0.084, 192.0, 0.0, 0.0, 0.0, 0.0, 0.0, 0.0, 0.0, 0.0, 0.0, 1.6989589669734917E9, 0.0, 2023-11-02 17:02:46.973
95.0, -187500.02235174447, 187500.0, 31333.368281527553, 35260.43567185827, 187500.0, 187500.0, -187500.02235174447, 31038.124089017405, -0.06, 0.98, -0.084, 192.0, 0.0, 0.0, 0.0, 0.0, 0.0, 0.0, 0.0, 0.0, 0.0, 1.6989589669735024E9, 0.0, 2023-11-02 17:02:46.973
96.0, -187500.02235174447, 187500.0, 31335.82697341764, 35261.50855559213, 187500.0, 187500.0, -187500.02235174447, 31041.566257663522, -0.06, 0.98, -0.084, 192.0, 0.0, 0.0, 0.0, 0.0, 0.0, 0.0, 0.0, 0.0, 0.0, 1.6989589669735186E9, 0.0, 2023-11-02 17:02:46.973
97.0, -187500.02235174447, 187500.0, 31331.06605184866, 35254.31129387752, 187500.0, 187500.0, -187500.02235174447, 31034.592513393465, -0.066, 0.966, -0.082, 192.0, 253.0, 240.0, 30.0, 48.0, 253.0, 112.0, 0.0, 0.0, 0.0, 1.69895896697353E9, 0.0, 2023-11-02 17:02:46.973
98.0, -187500.02235174447, 187500.0, 31331.49073499331, 35252.701968276735, 187500.0, 187500.0, -187500.02235174447, 31032.08911801447, -0.066, 0.966, -0.082, 192.0, 0.0, 0.0, 0.0, 0.0, 0.0, 0.0, 0.0, 0.0, 0.0, 1.6989589669735415E9, 0.0, 2023-11-02 17:02:46.973
99.0, -187500.02235174447, 187500.0, 31329.948464625893, 35254.91479097781, 187500.0, 187500.0, -187500.02235174447, 31029.541019146567, -0.066, 0.966, -0.082, 192.0, 0.0, 0.0, 0.0, 0.0, 0.0, 0.0, 0.0, 0.0, 0.0, 1.698958966973555E9, 0.0, 2023-11-02 17:02:46.973
100.0, -187500.02235174447, 187500.0, 31328.719118680852, 35249.63977928636, 187500.0, 187500.0, -187500.02235174447, 31030.56919939151, -0.066, 0.966, -0.082, 192.0, 0.0, 0.0, 0.0, 0.0, 0.0, 0.0, 0.0, 0.0, 0.0, 1.6989589669735765E9, 0.0, 2023-11-02 17:02:46.973
101.0, -187500.02235174447, 187500.0, 31331.982473371325, 35249.908000219824, 187500.0, 187500.0, -187500.02235174447, 31035.15130700485, -0.066, 0.966, -0.082, 192.0, 0.0, 0.0, 0.0, 0.0, 0.0, 0.0, 0.0, 0.0, 0.0, 1.6989589669735923E9, 0.0, 2023-11-02 17:02:46.973
102.0, -187500.02235174447, 187500.0, 31323.265293033757, 35247.2704943741, 187500.0, 187500.0, -187500.02235174447, 31026.03179526708, -0.066, 0.966, -0.082, 192.0, 0.0, 0.0, 0.0, 0.0, 0.0, 0.0, 0.0, 0.0, 0.0, 1.6989589669736035E9, 0.0, 2023-11-02 17:02:46.973
103.0, -187500.02235174447, 187500.0, 31319.174923798437, 35244.20830538372, 187500.0, 187500.0, -187500.02235174447, 31020.71208008672, -0.066, 0.966, -0.082, 192.0, 0.0, 0.0, 0.0, 0.0, 0.0, 0.0, 0.0, 0.0, 0.0, 1.698958966973638E9, 0.0, 2023-11-02 17:02:46.973
104.0, -187500.02235174447, 187500.0, 31324.15936281197, 35244.051843172536, 187500.0, 187500.0, -187500.02235174447, 31025.316539444513, -0.066, 0.966, -0.082, 192.0, 0.0, 0.0, 0.0, 0.0, 0.0, 0.0, 0.0, 0.0, 0.0, 1.6989589669736516E9, 0.0, 2023-11-02 17:02:46.973
105.0, -187500.02235174447, 187500.0, 31321.47715347733, 35245.77292749559, 187500.0, 187500.0, -187500.02235174447, 31025.80827782253, -0.066, 0.966, -0.082, 192.0, 0.0, 0.0, 0.0, 0.0, 0.0, 0.0, 0.0, 0.0, 0.0, 1.698958966973664E9, 0.0, 2023-11-02 17:02:46.973
106.0, -187500.02235174447, 187500.0, 31316.96210109736, 35243.87302921689, 187500.0, 187500.0, -187500.02235174447, 31022.969606276707, -0.066, 0.966, -0.082, 192.0, 0.0, 0.0, 0.0, 0.0, 0.0, 0.0, 0.0, 0.0, 0.0, 1.6989589669736776E9, 0.0, 2023-11-02 17:02:46.973
107.0, -187500.02235174447, 187500.0, 31312.558807439666, 35243.56010479452, 187500.0, 187500.0, -187500.02235174447, 31021.56144637602, -0.05, 0.98, -0.078, 192.0, 254.0, 112.0, 30.0, 160.0, 253.0, 144.0, 0.0, 0.0, 0.0, 1.6989589669736896E9, 0.0, 2023-11-02 17:02:46.973
108.0, -187500.02235174447, 187500.0, 31315.822162130138, 35247.22579088519, 187500.0, 187500.0, -187500.02235174447, 31026.47883015619, -0.05, 0.98, -0.078, 192.0, 0.0, 0.0, 0.0, 0.0, 0.0, 0.0, 0.0, 0.0, 0.0, 1.698958966973703E9, 0.0, 2023-11-02 17:02:46.973
109.0, -187500.02235174447, 187500.0, 31319.33138600962, 35249.12568916389, 187500.0, 187500.0, -187500.02235174447, 31030.74801334715, -0.05, 0.98, -0.078, 192.0, 0.0, 0.0, 0.0, 0.0, 0.0, 0.0, 0.0, 0.0, 0.0, 1.6989589669737136E9, 0.0, 2023-11-02 17:02:46.973
110.0, -187500.02235174447, 187500.0, 31316.15743829697, 35249.12568916389, 187500.0, 187500.0, -187500.02235174447, 31027.730527845688, -0.05, 0.98, -0.078, 192.0, 0.0, 0.0, 0.0, 0.0, 0.0, 0.0, 0.0, 0.0, 0.0, 1.6989589669737291E9, 0.0, 2023-11-02 17:02:46.973
111.0, -187500.02235174447, 187500.0, 31311.731792894818, 35244.811802484015, 187500.0, 187500.0, -187500.02235174447, 31023.86367605492, -0.05, 0.98, -0.078, 192.0, 0.0, 0.0, 0.0, 0.0, 0.0, 0.0, 0.0, 0.0, 0.0, 1.6989589669737396E9, 0.0, 2023-11-02 17:02:46.973
112.0, -187500.02235174447, 187500.0, 31310.457743460865, 35246.04114842906, 187500.0, 187500.0, -187500.02235174447, 31023.461344654723, -0.05, 0.98, -0.078, 192.0, 0.0, 0.0, 0.0, 0.0, 0.0, 0.0, 0.0, 0.0, 0.0, 1.6989589669737504E9, 0.0, 2023-11-02 17:02:46.973
113.0, -187500.02235174447, 187500.0, 31311.10594405007, 35243.135421649866, 187500.0, 187500.0, -187500.02235174447, 31024.958911533227, -0.05, 0.98, -0.078, 192.0, 0.0, 0.0, 0.0, 0.0, 0.0, 0.0, 0.0, 0.0, 0.0, 1.698958966973763E9, 0.0, 2023-11-02 17:02:46.973
114.0, -187500.02235174447, 187500.0, 31310.52479869423, 35245.79527924005, 187500.0, 187500.0, -187500.02235174447, 31025.540056889065, -0.05, 0.98, -0.078, 192.0, 0.0, 0.0, 0.0, 0.0, 0.0, 0.0, 0.0, 0.0, 0.0, 1.6989589669737751E9, 0.0, 2023-11-02 17:02:46.973
115.0, -187500.02235174447, 187500.0, 31305.361545725056, 35249.79624149755, 187500.0, 187500.0, -187500.02235174447, 31021.583798120475, -0.05, 0.98, -0.078, 192.0, 0.0, 0.0, 0.0, 0.0, 0.0, 0.0, 0.0, 0.0, 0.0, 1.69895896697379E9, 0.0, 2023-11-02 17:02:46.973
116.0, -187500.02235174447, 187500.0, 31298.25369098827, 35243.09071816096, 187500.0, 187500.0, -187500.02235174447, 31016.465248640212, -0.05, 0.98, -0.078, 192.0, 0.0, 0.0, 0.0, 0.0, 0.0, 0.0, 0.0, 0.0, 0.0, 1.6989589669738011E9, 0.0, 2023-11-02 17:02:46.973
117.0, -187500.02235174447, 187500.0, 31298.320746221634, 35244.02949142808, 187500.0, 187500.0, -187500.02235174447, 31019.32627193049, -0.034, 0.984, -0.07200000000000001, 192.0, 254.0, 240.0, 30.0, 192.0, 253.0, 192.0, 0.0, 0.0, 0.0, 1.6989589669738111E9, 0.0, 2023-11-02 17:02:46.973
118.0, -187500.02235174447, 187500.0, 31294.655060130965, 35242.17429663829, 187500.0, 187500.0, -187500.02235174447, 31016.24173119566, -0.034, 0.984, -0.07200000000000001, 192.0, 0.0, 0.0, 0.0, 0.0, 0.0, 0.0, 0.0, 0.0, 0.0, 1.69895896697385E9, 0.0, 2023-11-02 17:02:46.973
119.0, -187500.02235174447, 187500.0, 31294.073914775126, 35245.92938970678, 187500.0, 187500.0, -187500.02235174447, 31020.08623124197, -0.034, 0.984, -0.07200000000000001, 192.0, 0.0, 0.0, 0.0, 0.0, 0.0, 0.0, 0.0, 0.0, 0.0, 1.6989589669738612E9, 0.0, 2023-11-02 17:02:46.973
120.0, -187500.02235174447, 187500.0, 31298.298394477177, 35253.79720375505, 187500.0, 187500.0, -187500.02235174447, 31027.70817610123, -0.034, 0.984, -0.07200000000000001, 192.0, 0.0, 0.0, 0.0, 0.0, 0.0, 0.0, 0.0, 0.0, 0.0, 1.6989589669738731E9, 0.0, 2023-11-02 17:02:46.973
121.0, -187500.02235174447, 187500.0, 31302.187598012402, 35252.5231543211, 187500.0, 187500.0, -187500.02235174447, 31031.217399980713, -0.034, 0.984, -0.07200000000000001, 192.0, 0.0, 0.0, 0.0, 0.0, 0.0, 0.0, 0.0, 0.0, 0.0, 1.6989589674513693E9, 0.0, 2023-11-02 17:02:47.451
122.0, -187500.02235174447, 187500.0, 31301.405286956466, 35249.908000219824, 187500.0, 187500.0, -187500.02235174447, 31027.88699005687, -0.034, 0.984, -0.07200000000000001, 192.0, 0.0, 0.0, 0.0, 0.0, 0.0, 0.0, 0.0, 0.0, 0.0, 1.6989589674514136E9, 0.0, 2023-11-02 17:02:47.451
123.0, -187500.02235174447, 187500.0, 31295.415019442444, 35247.40460484083, 187500.0, 187500.0, -187500.02235174447, 31021.80731556503, -0.034, 0.984, -0.07200000000000001, 192.0, 0.0, 0.0, 0.0, 0.0, 0.0, 0.0, 0.0, 0.0, 0.0, 1.6989589674514964E9, 0.0, 2023-11-02 17:02:47.451
124.0, -187500.02235174447, 187500.0, 31292.799865341174, 35247.13638390737, 187500.0, 187500.0, -187500.02235174447, 31018.812181808018, -0.034, 0.984, -0.07200000000000001, 192.0, 0.0, 0.0, 0.0, 0.0, 0.0, 0.0, 0.0, 0.0, 0.0, 1.6989589674515142E9, 0.0, 2023-11-02 17:02:47.451
125.0, -187500.02235174447, 187500.0, 31299.751257866774, 35247.89634321885, 187500.0, 187500.0, -187500.02235174447, 31024.17660047729, -0.034, 0.984, -0.07200000000000001, 192.0, 0.0, 0.0, 0.0, 0.0, 0.0, 0.0, 0.0, 0.0, 0.0, 1.6989589674515312E9, 0.0, 2023-11-02 17:02:47.451
126.0, -187500.02235174447, 187500.0, 31301.740563123294, 35249.013930441615, 187500.0, 187500.0, -187500.02235174447, 31027.417603423313, -0.034, 0.984, -0.07200000000000001, 192.0, 0.0, 0.0, 0.0, 0.0, 0.0, 0.0, 0.0, 0.0, 0.0, 1.6989589674515548E9, 0.0, 2023-11-02 17:02:47.451
127.0, -187500.02235174447, 187500.0, 31299.4383334444, 35253.1713549103, 187500.0, 187500.0, -187500.02235174447, 31025.741222589164, -0.026000000000000002, 0.982, -0.07200000000000001, 192.0, 255.0, 48.0, 30.0, 176.0, 253.0, 192.0, 0.0, 0.0, 0.0, 1.698958967451571E9, 0.0, 2023-11-02 17:02:47.451
128.0, -187500.02235174447, 187500.0, 31296.71142062085, 35257.59700031245, 187500.0, 187500.0, -187500.02235174447, 31023.729565588186, -0.026000000000000002, 0.982, -0.07200000000000001, 192.0, 0.0, 0.0, 0.0, 0.0, 0.0, 0.0, 0.0, 0.0, 0.0, 1.6989589674515896E9, 0.0, 2023-11-02 17:02:47.451
129.0, -187500.02235174447, 187500.0, 31295.19150199789, 35254.19953515525, 187500.0, 187500.0, -187500.02235174447, 31022.36610917641, -0.026000000000000002, 0.982, -0.07200000000000001, 192.0, 0.0, 0.0, 0.0, 0.0, 0.0, 0.0, 0.0, 0.0, 0.0, 1.698958967451606E9, 0.0, 2023-11-02 17:02:47.451
130.0, -187500.02235174447, 187500.0, 31297.00199329877, 35250.0197589421, 187500.0, 187500.0, -187500.02235174447, 31025.383594677878, -0.026000000000000002, 0.982, -0.07200000000000001, 192.0, 0.0, 0.0, 0.0, 0.0, 0.0, 0.0, 0.0, 0.0, 0.0, 1.6989589674516225E9, 0.0, 2023-11-02 17:02:47.451
131.0, -187500.02235174447, 187500.0, 31300.46651368934, 35255.69710203375, 187500.0, 187500.0, -187500.02235174447, 31027.417603423313, -0.026000000000000002, 0.982, -0.07200000000000001, 192.0, 0.0, 0.0, 0.0, 0.0, 0.0, 0.0, 0.0, 0.0, 0.0, 1.6989589674516442E9, 0.0, 2023-11-02 17:02:47.451
132.0, -187500.02235174447, 187500.0, 31303.32753697962, 35258.155793923834, 187500.0, 187500.0, -187500.02235174447, 31028.848115068453, -0.026000000000000002, 0.982, -0.07200000000000001, 192.0, 0.0, 0.0, 0.0, 0.0, 0.0, 0.0, 0.0, 0.0, 0.0, 1.6989589674516592E9, 0.0, 2023-11-02 17:02:47.451
133.0, -187500.02235174447, 187500.0, 31302.81344685715, 35255.428881100284, 187500.0, 187500.0, -187500.02235174447, 31029.876295313396, -0.026000000000000002, 0.982, -0.07200000000000001, 192.0, 0.0, 0.0, 0.0, 0.0, 0.0, 0.0, 0.0, 0.0, 0.0, 1.6989589674517183E9, 0.0, 2023-11-02 17:02:47.451
134.0, -187500.02235174447, 187500.0, 31297.1361037655, 35245.97409319569, 187500.0, 187500.0, -187500.02235174447, 31026.85880981193, -0.026000000000000002, 0.982, -0.07200000000000001, 192.0, 0.0, 0.0, 0.0, 0.0, 0.0, 0.0, 0.0, 0.0, 0.0, 1.6989589674517343E9, 0.0, 2023-11-02 17:02:47.451
135.0, -187500.02235174447, 187500.0, 31294.47624617532, 35245.34824435094, 187500.0, 187500.0, -187500.02235174447, 31024.46717315521, -0.026000000000000002, 0.982, -0.07200000000000001, 192.0, 0.0, 0.0, 0.0, 0.0, 0.0, 0.0, 0.0, 0.0, 0.0, 1.6989589674517496E9, 0.0, 2023-11-02 17:02:47.451
136.0, -187500.02235174447, 187500.0, 31296.264385731745, 35252.23258164318, 187500.0, 187500.0, -187500.02235174447, 31026.679995856288, -0.026000000000000002, 0.982, -0.07200000000000001, 192.0, 0.0, 0.0, 0.0, 0.0, 0.0, 0.0, 0.0, 0.0, 0.0, 1.6989589674517653E9, 0.0, 2023-11-02 17:02:47.451
137.0, -187500.02235174447, 187500.0, 31301.67350788993, 35255.562991567014, 187500.0, 187500.0, -187500.02235174447, 31032.08911801447, -0.02, 0.982, -0.07, 192.0, 255.0, 96.0, 30.0, 176.0, 253.0, 208.0, 0.0, 0.0, 0.0, 1.6989589674517813E9, 0.0, 2023-11-02 17:02:47.451
138.0, -187500.02235174447, 187500.0, 31295.996164798282, 35245.437651328764, 187500.0, 187500.0, -187500.02235174447, 31025.696519100253, -0.02, 0.982, -0.07, 192.0, 0.0, 0.0, 0.0, 0.0, 0.0, 0.0, 0.0, 0.0, 0.0, 1.698958967451801E9, 0.0, 2023-11-02 17:02:47.451
139.0, -187500.02235174447, 187500.0, 31296.219682242834, 35240.29675010404, 187500.0, 187500.0, -187500.02235174447, 31025.584760377977, -0.02, 0.982, -0.07, 192.0, 0.0, 0.0, 0.0, 0.0, 0.0, 0.0, 0.0, 0.0, 0.0, 1.6989589674518163E9, 0.0, 2023-11-02 17:02:47.451
140.0, -187500.02235174447, 187500.0, 31300.24299624479, 35249.23744788617, 187500.0, 187500.0, -187500.02235174447, 31029.049280768548, -0.02, 0.982, -0.07, 192.0, 0.0, 0.0, 0.0, 0.0, 0.0, 0.0, 0.0, 0.0, 0.0, 1.6989589674518328E9, 0.0, 2023-11-02 17:02:47.451
141.0, -187500.02235174447, 187500.0, 31300.46651368934, 35246.39877634034, 187500.0, 187500.0, -187500.02235174447, 31026.992920278662, -0.02, 0.982, -0.07, 192.0, 0.0, 0.0, 0.0, 0.0, 0.0, 0.0, 0.0, 0.0, 0.0, 1.698958967451848E9, 0.0, 2023-11-02 17:02:47.451
142.0, -187500.02235174447, 187500.0, 31308.11081029306, 35244.521229806094, 187500.0, 187500.0, -187500.02235174447, 31033.698443615252, -0.02, 0.982, -0.07, 192.0, 0.0, 0.0, 0.0, 0.0, 0.0, 0.0, 0.0, 0.0, 0.0, 1.6989589674518635E9, 0.0, 2023-11-02 17:02:47.451
143.0, -187500.02235174447, 187500.0, 31307.373202726034, 35248.7680612526, 187500.0, 187500.0, -187500.02235174447, 31032.558504648034, -0.02, 0.982, -0.07, 192.0, 0.0, 0.0, 0.0, 0.0, 0.0, 0.0, 0.0, 0.0, 0.0, 1.6989589674518788E9, 0.0, 2023-11-02 17:02:47.451
144.0, -187500.02235174447, 187500.0, 31303.595757913085, 35249.48331707517, 187500.0, 187500.0, -187500.02235174447, 31028.311673201522, -0.02, 0.982, -0.07, 192.0, 0.0, 0.0, 0.0, 0.0, 0.0, 0.0, 0.0, 0.0, 0.0, 1.6989589674518943E9, 0.0, 2023-11-02 17:02:47.451
145.0, -187500.02235174447, 187500.0, 31303.57340616863, 35249.05863393052, 187500.0, 187500.0, -187500.02235174447, 31027.88699005687, -0.02, 0.982, -0.07, 192.0, 0.0, 0.0, 0.0, 0.0, 0.0, 0.0, 0.0, 0.0, 0.0, 1.6989589674519095E9, 0.0, 2023-11-02 17:02:47.451
146.0, -187500.02235174447, 187500.0, 31308.826066115627, 35248.27632287459, 187500.0, 187500.0, -187500.02235174447, 31034.503106415643, -0.02, 0.982, -0.07, 192.0, 0.0, 0.0, 0.0, 0.0, 0.0, 0.0, 0.0, 0.0, 0.0, 1.698958967451925E9, 0.0, 2023-11-02 17:02:47.451
147.0, -187500.02235174447, 187500.0, 31310.10011554958, 35250.51149732012, 187500.0, 187500.0, -187500.02235174447, 31036.984150050183, -0.026000000000000002, 0.988, -0.068, 192.0, 255.0, 48.0, 30.0, 224.0, 253.0, 224.0, 0.0, 0.0, 0.0, 1.6989589674519403E9, 0.0, 2023-11-02 17:02:47.451
148.0, -187500.02235174447, 187500.0, 31309.47426670483, 35251.18204965378, 187500.0, 187500.0, -187500.02235174447, 31035.5759901495, -0.026000000000000002, 0.988, -0.068, 192.0, 0.0, 0.0, 0.0, 0.0, 0.0, 0.0, 0.0, 0.0, 0.0, 1.6989589674519708E9, 0.0, 2023-11-02 17:02:47.451
149.0, -187500.02235174447, 187500.0, 31305.24978700278, 35251.33851186497, 187500.0, 187500.0, -187500.02235174447, 31032.491449414665, -0.026000000000000002, 0.988, -0.068, 192.0, 0.0, 0.0, 0.0, 0.0, 0.0, 0.0, 0.0, 0.0, 0.0, 1.6989589674519868E9, 0.0, 2023-11-02 17:02:47.451
150.0, -187500.02235174447, 187500.0, 31303.10401953507, 35249.773889753094, 187500.0, 187500.0, -187500.02235174447, 31031.016234280618, -0.026000000000000002, 0.988, -0.068, 192.0, 0.0, 0.0, 0.0, 0.0, 0.0, 0.0, 0.0, 0.0, 0.0, 1.6989589674520032E9, 0.0, 2023-11-02 17:02:47.452
151.0, -187500.02235174447, 187500.0, 31299.90772007796, 35246.64464552935, 187500.0, 187500.0, -187500.02235174447, 31028.646949368354, -0.026000000000000002, 0.988, -0.068, 192.0, 0.0, 0.0, 0.0, 0.0, 0.0, 0.0, 0.0, 0.0, 0.0, 1.6989589674520197E9, 0.0, 2023-11-02 17:02:47.452
152.0, -187500.02235174447, 187500.0, 31303.640461401996, 35248.723357763694, 187500.0, 187500.0, -187500.02235174447, 31032.267931970113, -0.026000000000000002, 0.988, -0.068, 192.0, 0.0, 0.0, 0.0, 0.0, 0.0, 0.0, 0.0, 0.0, 0.0, 1.6989589674520357E9, 0.0, 2023-11-02 17:02:47.452
153.0, -187500.02235174447, 187500.0, 31302.634632901507, 35247.2704943741, 187500.0, 187500.0, -187500.02235174447, 31029.630426124386, -0.026000000000000002, 0.988, -0.068, 192.0, 0.0, 0.0, 0.0, 0.0, 0.0, 0.0, 0.0, 0.0, 0.0, 1.698958967452054E9, 0.0, 2023-11-02 17:02:47.452
154.0, -187500.02235174447, 187500.0, 31299.2371677443, 35238.665072758806, 187500.0, 187500.0, -187500.02235174447, 31023.483696399177, -0.026000000000000002, 0.988, -0.068, 192.0, 0.0, 0.0, 0.0, 0.0, 0.0, 0.0, 0.0, 0.0, 0.0, 1.6989589674520695E9, 0.0, 2023-11-02 17:02:47.452
155.0, -187500.02235174447, 187500.0, 31295.079743275615, 35232.13836337785, 187500.0, 187500.0, -187500.02235174447, 31016.822876551498, -0.026000000000000002, 0.988, -0.068, 192.0, 0.0, 0.0, 0.0, 0.0, 0.0, 0.0, 0.0, 0.0, 0.0, 1.6989589674520853E9, 0.0, 2023-11-02 17:02:47.452
156.0, -187500.02235174447, 187500.0, 31291.99520254078, 35235.31231109051, 187500.0, 187500.0, -187500.02235174447, 31012.71015557172, -0.026000000000000002, 0.988, -0.068, 192.0, 0.0, 0.0, 0.0, 0.0, 0.0, 0.0, 0.0, 0.0, 0.0, 1.6989589674521008E9, 0.0, 2023-11-02 17:02:47.452
157.0, -187500.02235174447, 187500.0, 31297.71724912134, 35237.52513379158, 187500.0, 187500.0, -187500.02235174447, 31017.24755969615, -0.03, 0.99, -0.064, 192.0, 255.0, 16.0, 30.0, 240.0, 254.0, 0.0, 0.0, 0.0, 0.0, 1.6989589674521158E9, 0.0, 2023-11-02 17:02:47.452
158.0, -187500.02235174447, 187500.0, 31302.85815034606, 35234.530000034574, 187500.0, 187500.0, -187500.02235174447, 31021.360280675923, -0.03, 0.99, -0.064, 192.0, 0.0, 0.0, 0.0, 0.0, 0.0, 0.0, 0.0, 0.0, 0.0, 1.6989589674521322E9, 0.0, 2023-11-02 17:02:47.452
159.0, -187500.02235174447, 187500.0, 31306.725002136827, 35236.899284946834, 187500.0, 187500.0, -187500.02235174447, 31026.769402834107, -0.03, 0.99, -0.064, 192.0, 0.0, 0.0, 0.0, 0.0, 0.0, 0.0, 0.0, 0.0, 0.0, 1.6989589674521475E9, 0.0, 2023-11-02 17:02:47.452
160.0, -187500.02235174447, 187500.0, 31302.612281157053, 35237.055747158025, 187500.0, 187500.0, -187500.02235174447, 31024.19895222175, -0.03, 0.99, -0.064, 192.0, 0.0, 0.0, 0.0, 0.0, 0.0, 0.0, 0.0, 0.0, 0.0, 1.6989589674521637E9, 0.0, 2023-11-02 17:02:47.452
161.0, -187500.02235174447, 187500.0, 31297.873711332526, 35242.55427629403, 187500.0, 187500.0, -187500.02235174447, 31021.09205974246, -0.03, 0.99, -0.064, 192.0, 0.0, 0.0, 0.0, 0.0, 0.0, 0.0, 0.0, 0.0, 0.0, 1.69895896745218E9, 0.0, 2023-11-02 17:02:47.452
162.0, -187500.02235174447, 187500.0, 31291.61522288504, 35239.44738381474, 187500.0, 187500.0, -187500.02235174447, 31014.855923039428, -0.03, 0.99, -0.064, 192.0, 0.0, 0.0, 0.0, 0.0, 0.0, 0.0, 0.0, 0.0, 0.0, 1.6989589674521956E9, 0.0, 2023-11-02 17:02:47.452
163.0, -187500.02235174447, 187500.0, 31288.53068215021, 35231.35605232192, 187500.0, 187500.0, -187500.02235174447, 31011.570216604498, -0.03, 0.99, -0.064, 192.0, 0.0, 0.0, 0.0, 0.0, 0.0, 0.0, 0.0, 0.0, 0.0, 1.6989589674522247E9, 0.0, 2023-11-02 17:02:47.452
164.0, -187500.02235174447, 187500.0, 31280.014667512736, 35224.02468014058, 187500.0, 187500.0, -187500.02235174447, 31004.28354791207, -0.03, 0.99, -0.064, 192.0, 0.0, 0.0, 0.0, 0.0, 0.0, 0.0, 0.0, 0.0, 0.0, 1.6989589674522407E9, 0.0, 2023-11-02 17:02:47.452
165.0, -187500.02235174447, 187500.0, 31277.108940733546, 35229.03147089857, 187500.0, 187500.0, -187500.02235174447, 31001.891911255352, -0.03, 0.99, -0.064, 192.0, 0.0, 0.0, 0.0, 0.0, 0.0, 0.0, 0.0, 0.0, 0.0, 1.6989589674522564E9, 0.0, 2023-11-02 17:02:47.452
166.0, -187500.02235174447, 187500.0, 31275.298449432667, 35223.130610362365, 187500.0, 187500.0, -187500.02235174447, 30999.589681576454, -0.024, 0.98, -0.06, 192.0, 255.0, 64.0, 30.0, 160.0, 254.0, 32.0, 0.0, 0.0, 0.0, 1.6989589674522717E9, 0.0, 2023-11-02 17:02:47.452
167.0, -187500.02235174447, 187500.0, 31275.030228499203, 35224.65052898533, 187500.0, 187500.0, -187500.02235174447, 31001.37782113288, -0.024, 0.98, -0.06, 192.0, 0.0, 0.0, 0.0, 0.0, 0.0, 0.0, 0.0, 0.0, 0.0, 1.6989589674522884E9, 0.0, 2023-11-02 17:02:47.452
168.0, -187500.02235174447, 187500.0, 31270.89515577497, 35222.571816750984, 187500.0, 187500.0, -187500.02235174447, 31002.160132188816, -0.024, 0.98, -0.06, 192.0, 0.0, 0.0, 0.0, 0.0, 0.0, 0.0, 0.0, 0.0, 0.0, 1.698958967452304E9, 0.0, 2023-11-02 17:02:47.452
169.0, -187500.02235174447, 187500.0, 31267.4306353844, 35222.19183709524, 187500.0, 187500.0, -187500.02235174447, 30998.852074009428, -0.024, 0.98, -0.06, 192.0, 0.0, 0.0, 0.0, 0.0, 0.0, 0.0, 0.0, 0.0, 0.0, 1.6989589674523196E9, 0.0, 2023-11-02 17:02:47.452
170.0, -187500.02235174447, 187500.0, 31268.972905751816, 35217.54267424854, 187500.0, 187500.0, -187500.02235174447, 31000.014364721104, -0.024, 0.98, -0.06, 192.0, 0.0, 0.0, 0.0, 0.0, 0.0, 0.0, 0.0, 0.0, 0.0, 1.6989589674523354E9, 0.0, 2023-11-02 17:02:47.452
171.0, -187500.02235174447, 187500.0, 31268.771740051718, 35219.151999849324, 187500.0, 187500.0, -187500.02235174447, 30998.874425753886, -0.024, 0.98, -0.06, 192.0, 0.0, 0.0, 0.0, 0.0, 0.0, 0.0, 0.0, 0.0, 0.0, 1.698958967452351E9, 0.0, 2023-11-02 17:02:47.452
172.0, -187500.02235174447, 187500.0, 31271.319838919622, 35217.29680505953, 187500.0, 187500.0, -187500.02235174447, 31000.12612344338, -0.024, 0.98, -0.06, 192.0, 0.0, 0.0, 0.0, 0.0, 0.0, 0.0, 0.0, 0.0, 0.0, 1.6989589674523675E9, 0.0, 2023-11-02 17:02:47.452
173.0, -187500.02235174447, 187500.0, 31283.300373947666, 35229.90318893232, 187500.0, 187500.0, -187500.02235174447, 31009.62561483689, -0.024, 0.98, -0.06, 192.0, 0.0, 0.0, 0.0, 0.0, 0.0, 0.0, 0.0, 0.0, 0.0, 1.698958967452384E9, 0.0, 2023-11-02 17:02:47.452
174.0, -187500.02235174447, 187500.0, 31283.4344844144, 35233.45711630072, 187500.0, 187500.0, -187500.02235174447, 31009.267986925603, -0.024, 0.98, -0.06, 192.0, 0.0, 0.0, 0.0, 0.0, 0.0, 0.0, 0.0, 0.0, 0.0, 1.698958967452402E9, 0.0, 2023-11-02 17:02:47.452
175.0, -187500.02235174447, 187500.0, 31277.04188550018, 35222.862389428905, 187500.0, 187500.0, -187500.02235174447, 31002.361297888914, -0.024, 0.98, -0.06, 192.0, 0.0, 0.0, 0.0, 0.0, 0.0, 0.0, 0.0, 0.0, 0.0, 1.6989589674524176E9, 0.0, 2023-11-02 17:02:47.452
176.0, -187500.02235174447, 187500.0, 31276.080760488603, 35216.9615288927, 187500.0, 187500.0, -187500.02235174447, 31001.444876366244, -0.03, 0.966, -0.06, 192.0, 255.0, 16.0, 30.0, 48.0, 254.0, 32.0, 0.0, 0.0, 0.0, 1.6989589674524329E9, 0.0, 2023-11-02 17:02:47.452
177.0, -187500.02235174447, 187500.0, 31274.024399998714, 35220.38134579436, 187500.0, 187500.0, -187500.02235174447, 31001.400172877333, -0.03, 0.966, -0.06, 192.0, 0.0, 0.0, 0.0, 0.0, 0.0, 0.0, 0.0, 0.0, 0.0, 1.6989589674524488E9, 0.0, 2023-11-02 17:02:47.452
178.0, -187500.02235174447, 187500.0, 31276.460740144343, 35224.71758421869, 187500.0, 187500.0, -187500.02235174447, 31004.194140934247, -0.03, 0.966, -0.06, 192.0, 0.0, 0.0, 0.0, 0.0, 0.0, 0.0, 0.0, 0.0, 0.0, 1.698958967452464E9, 0.0, 2023-11-02 17:02:47.452
179.0, -187500.02235174447, 187500.0, 31279.835853557095, 35222.68357547326, 187500.0, 187500.0, -187500.02235174447, 31007.81512353601, -0.03, 0.966, -0.06, 192.0, 0.0, 0.0, 0.0, 0.0, 0.0, 0.0, 0.0, 0.0, 0.0, 1.6989589674524927E9, 0.0, 2023-11-02 17:02:47.452
180.0, -187500.02235174447, 187500.0, 31276.728961077806, 35223.01885164009, 187500.0, 187500.0, -187500.02235174447, 31004.797638034543, -0.03, 0.966, -0.06, 192.0, 0.0, 0.0, 0.0, 0.0, 0.0, 0.0, 0.0, 0.0, 0.0, 1.6989589674525075E9, 0.0, 2023-11-02 17:02:47.452
181.0, -187500.02235174447, 187500.0, 31273.845586043073, 35224.315252818495, 187500.0, 187500.0, -187500.02235174447, 31002.361297888914, -0.03, 0.966, -0.06, 192.0, 0.0, 0.0, 0.0, 0.0, 0.0, 0.0, 0.0, 0.0, 0.0, 1.6989589674525237E9, 0.0, 2023-11-02 17:02:47.452
182.0, -187500.02235174447, 187500.0, 31279.455873901356, 35229.34439532094, 187500.0, 187500.0, -187500.02235174447, 31006.5187223576, -0.03, 0.966, -0.06, 192.0, 0.0, 0.0, 0.0, 0.0, 0.0, 0.0, 0.0, 0.0, 0.0, 1.6989589674525392E9, 0.0, 2023-11-02 17:02:47.452
183.0, -187500.02235174447, 187500.0, 31280.70757159085, 35233.568875023, 187500.0, 187500.0, -187500.02235174447, 31005.982280490673, -0.03, 0.966, -0.06, 192.0, 0.0, 0.0, 0.0, 0.0, 0.0, 0.0, 0.0, 0.0, 0.0, 1.6989589674525545E9, 0.0, 2023-11-02 17:02:47.452
184.0, -187500.02235174447, 187500.0, 31281.266365202235, 35227.57860750897, 187500.0, 187500.0, -187500.02235174447, 31005.915225257308, -0.03, 0.966, -0.06, 192.0, 0.0, 0.0, 0.0, 0.0, 0.0, 0.0, 0.0, 0.0, 0.0, 1.69895896745257E9, 0.0, 2023-11-02 17:02:47.452
185.0, -187500.02235174447, 187500.0, 31277.824196556117, 35221.744802206136, 187500.0, 187500.0, -187500.02235174447, 31000.215530421203, -0.03, 0.966, -0.06, 192.0, 0.0, 0.0, 0.0, 0.0, 0.0, 0.0, 0.0, 0.0, 0.0, 1.6989589674525857E9, 0.0, 2023-11-02 17:02:47.452
186.0, -187500.02235174447, 187500.0, 31276.214870955333, 35222.84003768445, 187500.0, 187500.0, -187500.02235174447, 30996.929823986273, -0.038, 0.962, -0.064, 192.0, 254.0, 208.0, 30.0, 16.0, 254.0, 0.0, 0.0, 0.0, 0.0, 1.6989589674526012E9, 0.0, 2023-11-02 17:02:47.452
187.0, -187500.02235174447, 187500.0, 31278.941783778882, 35220.87308417238, 187500.0, 187500.0, -187500.02235174447, 30999.209701920714, -0.038, 0.962, -0.064, 192.0, 0.0, 0.0, 0.0, 0.0, 0.0, 0.0, 0.0, 0.0, 0.0, 1.6989589674526176E9, 0.0, 2023-11-02 17:02:47.452
188.0, -187500.02235174447, 187500.0, 31292.62105138553, 35225.388136552356, 187500.0, 187500.0, -187500.02235174447, 31011.70432707123, -0.038, 0.962, -0.064, 192.0, 0.0, 0.0, 0.0, 0.0, 0.0, 0.0, 0.0, 0.0, 0.0, 1.698958967452633E9, 0.0, 2023-11-02 17:02:47.452
189.0, -187500.02235174447, 187500.0, 31295.012688042247, 35232.563046522504, 187500.0, 187500.0, -187500.02235174447, 31010.56438810401, -0.038, 0.962, -0.064, 192.0, 0.0, 0.0, 0.0, 0.0, 0.0, 0.0, 0.0, 0.0, 0.0, 1.6989589674526486E9, 0.0, 2023-11-02 17:02:47.452
190.0, -187500.02235174447, 187500.0, 31297.225510743323, 35231.35605232192, 187500.0, 187500.0, -187500.02235174447, 31010.09500147045, -0.038, 0.962, -0.064, 192.0, 0.0, 0.0, 0.0, 0.0, 0.0, 0.0, 0.0, 0.0, 0.0, 1.6989589674526641E9, 0.0, 2023-11-02 17:02:47.452
191.0, -187500.02235174447, 187500.0, 31300.46651368934, 35232.89832268933, 187500.0, 187500.0, -187500.02235174447, 31011.65962358232, -0.038, 0.962, -0.064, 192.0, 0.0, 0.0, 0.0, 0.0, 0.0, 0.0, 0.0, 0.0, 0.0, 1.6989589674526799E9, 0.0, 2023-11-02 17:02:47.452
192.0, -187500.02235174447, 187500.0, 31306.836760859107, 35234.30648259002, 187500.0, 187500.0, -187500.02235174447, 31014.632405594875, -0.038, 0.962, -0.064, 192.0, 0.0, 0.0, 0.0, 0.0, 0.0, 0.0, 0.0, 0.0, 0.0, 1.698958967452696E9, 0.0, 2023-11-02 17:02:47.452
193.0, -187500.02235174447, 187500.0, 31311.53062719472, 35231.736031977656, 187500.0, 187500.0, -187500.02235174447, 31014.788867806063, -0.038, 0.962, -0.064, 192.0, 0.0, 0.0, 0.0, 0.0, 0.0, 0.0, 0.0, 0.0, 0.0, 1.698958967452712E9, 0.0, 2023-11-02 17:02:47.452
194.0, -187500.02235174447, 187500.0, 31310.278929505224, 35232.987729667155, 187500.0, 187500.0, -187500.02235174447, 31007.99393749165, -0.038, 0.962, -0.064, 192.0, 0.0, 0.0, 0.0, 0.0, 0.0, 0.0, 0.0, 0.0, 0.0, 1.6989589674527416E9, 0.0, 2023-11-02 17:02:47.452
195.0, -187500.02235174447, 187500.0, 31312.916435350948, 35228.942063920746, 187500.0, 187500.0, -187500.02235174447, 31004.23884442316, -0.038, 0.962, -0.064, 192.0, 0.0, 0.0, 0.0, 0.0, 0.0, 0.0, 0.0, 0.0, 0.0, 1.6989589674527595E9, 0.0, 2023-11-02 17:02:47.452
196.0, -187500.02235174447, 187500.0, 31315.755106896773, 35221.90126441733, 187500.0, 187500.0, -187500.02235174447, 31002.85303626693, -0.058, 0.976, -0.07, 192.0, 254.0, 48.0, 30.0, 128.0, 253.0, 208.0, 0.0, 0.0, 0.0, 1.6989589674527757E9, 0.0, 2023-11-02 17:02:47.452
197.0, -187500.02235174447, 187500.0, 31319.286682520713, 35223.44353478474, 187500.0, 187500.0, -187500.02235174447, 31004.50706535662, -0.058, 0.976, -0.07, 192.0, 0.0, 0.0, 0.0, 0.0, 0.0, 0.0, 0.0, 0.0, 0.0, 1.6989589674527946E9, 0.0, 2023-11-02 17:02:47.452
198.0, -187500.02235174447, 187500.0, 31321.231284288322, 35228.29386333154, 187500.0, 187500.0, -187500.02235174447, 31007.658661324822, -0.058, 0.976, -0.07, 192.0, 0.0, 0.0, 0.0, 0.0, 0.0, 0.0, 0.0, 0.0, 0.0, 1.6989589674528103E9, 0.0, 2023-11-02 17:02:47.452
199.0, -187500.02235174447, 187500.0, 31323.53351396722, 35233.68063374527, 187500.0, 187500.0, -187500.02235174447, 31008.03864098056, -0.058, 0.976, -0.07, 192.0, 0.0, 0.0, 0.0, 0.0, 0.0, 0.0, 0.0, 0.0, 0.0, 1.6989589674528255E9, 0.0, 2023-11-02 17:02:47.452
200.0, -187500.02235174447, 187500.0, 31323.757031411773, 35232.92067443379, 187500.0, 187500.0, -187500.02235174447, 31006.76459154661, -0.058, 0.976, -0.07, 192.0, 0.0, 0.0, 0.0, 0.0, 0.0, 0.0, 0.0, 0.0, 0.0, 1.6989589674528408E9, 0.0, 2023-11-02 17:02:47.452
201.0, -187500.02235174447, 187500.0, 31332.2953977937, 35228.1150493759, 187500.0, 187500.0, -187500.02235174447, 31014.207722450225, -0.058, 0.976, -0.07, 192.0, 0.0, 0.0, 0.0, 0.0, 0.0, 0.0, 0.0, 0.0, 0.0, 1.698958967452856E9, 0.0, 2023-11-02 17:02:47.452
202.0, -187500.02235174447, 187500.0, 31337.033967618227, 35232.7642122226, 187500.0, 187500.0, -187500.02235174447, 31014.855923039428, -0.058, 0.976, -0.07, 192.0, 0.0, 0.0, 0.0, 0.0, 0.0, 0.0, 0.0, 0.0, 0.0, 1.698958967452871E9, 0.0, 2023-11-02 17:02:47.452
203.0, -187500.02235174447, 187500.0, 31334.642330961506, 35228.78560170956, 187500.0, 187500.0, -187500.02235174447, 31009.647966581342, -0.058, 0.976, -0.07, 192.0, 0.0, 0.0, 0.0, 0.0, 0.0, 0.0, 0.0, 0.0, 0.0, 1.6989589674528873E9, 0.0, 2023-11-02 17:02:47.452
204.0, -187500.02235174447, 187500.0, 31340.230267075334, 35222.437706284254, 187500.0, 187500.0, -187500.02235174447, 31012.196065449247, -0.058, 0.976, -0.07, 192.0, 0.0, 0.0, 0.0, 0.0, 0.0, 0.0, 0.0, 0.0, 0.0, 1.6989589674529028E9, 0.0, 2023-11-02 17:02:47.452
205.0, -187500.02235174447, 187500.0, 31343.046586876702, 35219.9119591608, 187500.0, 187500.0, -187500.02235174447, 31014.09596372795, -0.058, 0.976, -0.07, 192.0, 0.0, 0.0, 0.0, 0.0, 0.0, 0.0, 0.0, 0.0, 0.0, 1.698958967452918E9, 0.0, 2023-11-02 17:02:47.452
206.0, -187500.02235174447, 187500.0, 31337.86098216307, 35220.269587072085, 187500.0, 187500.0, -187500.02235174447, 31010.27381542609, -0.08, 0.976, -0.07200000000000001, 192.0, 253.0, 128.0, 30.0, 128.0, 253.0, 192.0, 0.0, 0.0, 0.0, 1.6989589674529335E9, 0.0, 2023-11-02 17:02:47.452
207.0, -187500.02235174447, 187500.0, 31337.033967618227, 35218.05676437101, 187500.0, 187500.0, -187500.02235174447, 31011.41375439331, -0.08, 0.976, -0.07200000000000001, 192.0, 0.0, 0.0, 0.0, 0.0, 0.0, 0.0, 0.0, 0.0, 0.0, 1.6989589674529502E9, 0.0, 2023-11-02 17:02:47.452
208.0, -187500.02235174447, 187500.0, 31338.553886241185, 35214.905168402816, 187500.0, 187500.0, -187500.02235174447, 31012.821914293996, -0.08, 0.976, -0.07200000000000001, 192.0, 0.0, 0.0, 0.0, 0.0, 0.0, 0.0, 0.0, 0.0, 0.0, 1.6989589674529655E9, 0.0, 2023-11-02 17:02:47.452
209.0, -187500.02235174447, 187500.0, 31343.02423513225, 35206.47856074316, 187500.0, 187500.0, -187500.02235174447, 31015.95115851774, -0.08, 0.976, -0.07200000000000001, 192.0, 0.0, 0.0, 0.0, 0.0, 0.0, 0.0, 0.0, 0.0, 0.0, 1.6989589674529939E9, 0.0, 2023-11-02 17:02:47.452
210.0, -187500.02235174447, 187500.0, 31343.471270021353, 35201.739990918635, 187500.0, 187500.0, -187500.02235174447, 31015.034736995072, -0.08, 0.976, -0.07200000000000001, 192.0, 0.0, 0.0, 0.0, 0.0, 0.0, 0.0, 0.0, 0.0, 0.0, 1.6989589674530096E9, 0.0, 2023-11-02 17:02:47.453
211.0, -187500.02235174447, 187500.0, 31341.97370314285, 35200.82356939597, 187500.0, 187500.0, -187500.02235174447, 31011.61492009341, -0.08, 0.976, -0.07200000000000001, 192.0, 0.0, 0.0, 0.0, 0.0, 0.0, 0.0, 0.0, 0.0, 0.0, 1.698958967453025E9, 0.0, 2023-11-02 17:02:47.453
212.0, -187500.02235174447, 187500.0, 31343.91830491046, 35201.181197307254, 187500.0, 187500.0, -187500.02235174447, 31012.441934638256, -0.08, 0.976, -0.07200000000000001, 192.0, 0.0, 0.0, 0.0, 0.0, 0.0, 0.0, 0.0, 0.0, 0.0, 1.6989589674530404E9, 0.0, 2023-11-02 17:02:47.453
213.0, -187500.02235174447, 187500.0, 31345.43822353342, 35199.10248507291, 187500.0, 187500.0, -187500.02235174447, 31013.358356160923, -0.08, 0.976, -0.07200000000000001, 192.0, 0.0, 0.0, 0.0, 0.0, 0.0, 0.0, 0.0, 0.0, 0.0, 1.698958967453056E9, 0.0, 2023-11-02 17:02:47.453
214.0, -187500.02235174447, 187500.0, 31341.928999653937, 35188.44070296773, 187500.0, 187500.0, -187500.02235174447, 31006.74223980215, -0.08, 0.976, -0.07200000000000001, 192.0, 0.0, 0.0, 0.0, 0.0, 0.0, 0.0, 0.0, 0.0, 0.0, 1.698958967453073E9, 0.0, 2023-11-02 17:02:47.453
215.0, -187500.02235174447, 187500.0, 31339.649121719496, 35185.98201107765, 187500.0, 187500.0, -187500.02235174447, 31000.55080658803, -0.08, 0.976, -0.07200000000000001, 192.0, 0.0, 0.0, 0.0, 0.0, 0.0, 0.0, 0.0, 0.0, 0.0, 1.69895896745309E9, 0.0, 2023-11-02 17:02:47.453
216.0, -187500.02235174447, 187500.0, 31339.559714741674, 35181.66812439777, 187500.0, 187500.0, -187500.02235174447, 30995.18638791876, -0.066, 0.978, -0.08600000000000001, 192.0, 253.0, 240.0, 30.0, 144.0, 253.0, 80.0, 0.0, 0.0, 0.0, 1.6989589674531088E9, 0.0, 2023-11-02 17:02:47.453
217.0, -187500.02235174447, 187500.0, 31338.330368796633, 35173.93442081624, 187500.0, 187500.0, -187500.02235174447, 30990.5148733276, -0.066, 0.978, -0.08600000000000001, 192.0, 0.0, 0.0, 0.0, 0.0, 0.0, 0.0, 0.0, 0.0, 0.0, 1.6989589674531307E9, 0.0, 2023-11-02 17:02:47.453
218.0, -187500.02235174447, 187500.0, 31334.552923983687, 35168.592353891414, 187500.0, 187500.0, -187500.02235174447, 30986.580966303467, -0.066, 0.978, -0.08600000000000001, 192.0, 0.0, 0.0, 0.0, 0.0, 0.0, 0.0, 0.0, 0.0, 0.0, 1.6989589674531476E9, 0.0, 2023-11-02 17:02:47.453
219.0, -187500.02235174447, 187500.0, 31335.603455973087, 35169.82169983646, 187500.0, 187500.0, -187500.02235174447, 30987.877367481873, -0.066, 0.978, -0.08600000000000001, 192.0, 0.0, 0.0, 0.0, 0.0, 0.0, 0.0, 0.0, 0.0, 0.0, 1.698958967453163E9, 0.0, 2023-11-02 17:02:47.453
220.0, -187500.02235174447, 187500.0, 31336.341063540112, 35171.58748764843, 187500.0, 187500.0, -187500.02235174447, 30987.47503608168, -0.066, 0.978, -0.08600000000000001, 192.0, 0.0, 0.0, 0.0, 0.0, 0.0, 0.0, 0.0, 0.0, 0.0, 1.698958967453178E9, 0.0, 2023-11-02 17:02:47.453
221.0, -187500.02235174447, 187500.0, 31332.25069430479, 35159.60695262039, 187500.0, 187500.0, -187500.02235174447, 30982.825873234975, -0.066, 0.978, -0.08600000000000001, 192.0, 0.0, 0.0, 0.0, 0.0, 0.0, 0.0, 0.0, 0.0, 0.0, 1.6989589674531915E9, 0.0, 2023-11-02 17:02:47.453
222.0, -187500.02235174447, 187500.0, 31326.48394423532, 35156.00832176308, 187500.0, 187500.0, -187500.02235174447, 30975.51685279809, -0.066, 0.978, -0.08600000000000001, 192.0, 0.0, 0.0, 0.0, 0.0, 0.0, 0.0, 0.0, 0.0, 0.0, 1.6989589674532049E9, 0.0, 2023-11-02 17:02:47.453
223.0, -187500.02235174447, 187500.0, 31316.04567957469, 35152.47674613914, 187500.0, 187500.0, -187500.02235174447, 30963.513966025588, -0.066, 0.978, -0.08600000000000001, 192.0, 0.0, 0.0, 0.0, 0.0, 0.0, 0.0, 0.0, 0.0, 0.0, 1.6989589674532185E9, 0.0, 2023-11-02 17:02:47.453
224.0, -187500.02235174447, 187500.0, 31315.15160979648, 35145.23478093562, 187500.0, 187500.0, -187500.02235174447, 30960.384721801845, -0.066, 0.978, -0.08600000000000001, 192.0, 0.0, 0.0, 0.0, 0.0, 0.0, 0.0, 0.0, 0.0, 0.0, 1.698958967453253E9, 0.0, 2023-11-02 17:02:47.453
225.0, -187500.02235174447, 187500.0, 31319.644310431995, 35151.046234494, 187500.0, 187500.0, -187500.02235174447, 30967.69374223873, -0.066, 0.978, -0.08600000000000001, 192.0, 0.0, 0.0, 0.0, 0.0, 0.0, 0.0, 0.0, 0.0, 0.0, 1.6989589674532692E9, 0.0, 2023-11-02 17:02:47.453
226.0, -187500.02235174447, 187500.0, 31324.427583745433, 35149.07928098193, 187500.0, 187500.0, -187500.02235174447, 30976.455626065213, -0.058, 0.98, -0.08, 192.0, 254.0, 48.0, 30.0, 160.0, 253.0, 128.0, 0.0, 0.0, 0.0, 1.698958967453288E9, 0.0, 2023-11-02 17:02:47.453
227.0, -187500.02235174447, 187500.0, 31325.791040157204, 35152.4990978836, 187500.0, 187500.0, -187500.02235174447, 30981.685934267753, -0.058, 0.98, -0.08, 192.0, 0.0, 0.0, 0.0, 0.0, 0.0, 0.0, 0.0, 0.0, 0.0, 1.6989589674533048E9, 0.0, 2023-11-02 17:02:47.453
228.0, -187500.02235174447, 187500.0, 31320.33721451011, 35155.22601070714, 187500.0, 187500.0, -187500.02235174447, 30978.17671038827, -0.058, 0.98, -0.08, 192.0, 0.0, 0.0, 0.0, 0.0, 0.0, 0.0, 0.0, 0.0, 0.0, 1.6989589674533205E9, 0.0, 2023-11-02 17:02:47.453
229.0, -187500.02235174447, 187500.0, 31313.877560362525, 35150.800365305, 187500.0, 187500.0, -187500.02235174447, 30971.94057368524, -0.058, 0.98, -0.08, 192.0, 0.0, 0.0, 0.0, 0.0, 0.0, 0.0, 0.0, 0.0, 0.0, 1.6989589674533367E9, 0.0, 2023-11-02 17:02:47.453
230.0, -187500.02235174447, 187500.0, 31309.831894616116, 35144.698339068695, 187500.0, 187500.0, -187500.02235174447, 30969.50423353961, -0.058, 0.98, -0.08, 192.0, 0.0, 0.0, 0.0, 0.0, 0.0, 0.0, 0.0, 0.0, 0.0, 1.6989589674533534E9, 0.0, 2023-11-02 17:02:47.453
231.0, -187500.02235174447, 187500.0, 31304.601586413573, 35144.18424894622, 187500.0, 187500.0, -187500.02235174447, 30963.93864917024, -0.058, 0.98, -0.08, 192.0, 0.0, 0.0, 0.0, 0.0, 0.0, 0.0, 0.0, 0.0, 0.0, 1.698958967453366E9, 0.0, 2023-11-02 17:02:47.453
232.0, -187500.02235174447, 187500.0, 31301.807618356663, 35145.30183616899, 187500.0, 187500.0, -187500.02235174447, 30960.183556101747, -0.058, 0.98, -0.08, 192.0, 0.0, 0.0, 0.0, 0.0, 0.0, 0.0, 0.0, 0.0, 0.0, 1.6989589674533784E9, 0.0, 2023-11-02 17:02:47.453
233.0, -187500.02235174447, 187500.0, 31298.276042732723, 35142.77608904554, 187500.0, 187500.0, -187500.02235174447, 30957.255477578103, -0.058, 0.98, -0.08, 192.0, 0.0, 0.0, 0.0, 0.0, 0.0, 0.0, 0.0, 0.0, 0.0, 1.6989589674533904E9, 0.0, 2023-11-02 17:02:47.453
234.0, -187500.02235174447, 187500.0, 31299.773609611228, 35137.568132587454, 187500.0, 187500.0, -187500.02235174447, 30960.205907846204, -0.058, 0.98, -0.08, 192.0, 0.0, 0.0, 0.0, 0.0, 0.0, 0.0, 0.0, 0.0, 0.0, 1.6989589674534035E9, 0.0, 2023-11-02 17:02:47.453
235.0, -187500.02235174447, 187500.0, 31290.095304262082, 35135.48942035311, 187500.0, 187500.0, -187500.02235174447, 30952.248686820116, -0.058, 0.98, -0.08, 192.0, 0.0, 0.0, 0.0, 0.0, 0.0, 0.0, 0.0, 0.0, 0.0, 1.698958967453416E9, 0.0, 2023-11-02 17:02:47.453
236.0, -187500.02235174447, 187500.0, 31283.255670458755, 35130.52733308403, 187500.0, 187500.0, -187500.02235174447, 30947.197192573214, -0.036000000000000004, 0.986, -0.08, 192.0, 254.0, 224.0, 30.0, 208.0, 253.0, 128.0, 0.0, 0.0, 0.0, 1.6989589674534292E9, 0.0, 2023-11-02 17:02:47.453
237.0, -187500.02235174447, 187500.0, 31284.127388492514, 35127.53219932702, 187500.0, 187500.0, -187500.02235174447, 30949.208849574192, -0.036000000000000004, 0.986, -0.08, 192.0, 0.0, 0.0, 0.0, 0.0, 0.0, 0.0, 0.0, 0.0, 0.0, 1.6989589674534433E9, 0.0, 2023-11-02 17:02:47.453
238.0, -187500.02235174447, 187500.0, 31283.166263480936, 35120.75962075706, 187500.0, 187500.0, -187500.02235174447, 30947.644227462322, -0.036000000000000004, 0.986, -0.08, 192.0, 0.0, 0.0, 0.0, 0.0, 0.0, 0.0, 0.0, 0.0, 0.0, 1.6989589674534614E9, 0.0, 2023-11-02 17:02:47.453
239.0, -187500.02235174447, 187500.0, 31274.94082152138, 35108.44380956219, 187500.0, 187500.0, -187500.02235174447, 30940.491669236624, -0.036000000000000004, 0.986, -0.08, 192.0, 0.0, 0.0, 0.0, 0.0, 0.0, 0.0, 0.0, 0.0, 0.0, 1.6989589674534929E9, 0.0, 2023-11-02 17:02:47.453
240.0, -187500.02235174447, 187500.0, 31270.358713908045, 35106.70037349467, 187500.0, 187500.0, -187500.02235174447, 30938.278846535548, -0.036000000000000004, 0.986, -0.08, 192.0, 0.0, 0.0, 0.0, 0.0, 0.0, 0.0, 0.0, 0.0, 0.0, 1.6989589674535089E9, 0.0, 2023-11-02 17:02:47.453
241.0, -187500.02235174447, 187500.0, 31267.318876662124, 35110.924853196724, 187500.0, 187500.0, -187500.02235174447, 30939.08350933594, -0.036000000000000004, 0.986, -0.08, 192.0, 0.0, 0.0, 0.0, 0.0, 0.0, 0.0, 0.0, 0.0, 0.0, 1.6989589674535253E9, 0.0, 2023-11-02 17:02:47.453
242.0, -187500.02235174447, 187500.0, 31267.721208062318, 35118.16681840024, 187500.0, 187500.0, -187500.02235174447, 30944.626741960856, -0.036000000000000004, 0.986, -0.08, 192.0, 0.0, 0.0, 0.0, 0.0, 0.0, 0.0, 0.0, 0.0, 0.0, 1.6989589679309669E9, 0.0, 2023-11-02 17:02:47.930
243.0, -187500.02235174447, 187500.0, 31273.443254642876, 35123.307719624965, 187500.0, 187500.0, -187500.02235174447, 30953.12040485387, -0.036000000000000004, 0.986, -0.08, 192.0, 0.0, 0.0, 0.0, 0.0, 0.0, 0.0, 0.0, 0.0, 0.0, 1.6989589679312003E9, 0.0, 2023-11-02 17:02:47.931
244.0, -187500.02235174447, 187500.0, 31275.4325598994, 35133.455411607676, 187500.0, 187500.0, -187500.02235174447, 30954.908544410297, -0.036000000000000004, 0.986, -0.08, 192.0, 0.0, 0.0, 0.0, 0.0, 0.0, 0.0, 0.0, 0.0, 0.0, 1.6989589679312153E9, 0.0, 2023-11-02 17:02:47.931
245.0, -187500.02235174447, 187500.0, 31269.643458085473, 35128.22510340513, 187500.0, 187500.0, -187500.02235174447, 30946.414881517278, -0.036000000000000004, 0.986, -0.08, 192.0, 0.0, 0.0, 0.0, 0.0, 0.0, 0.0, 0.0, 0.0, 0.0, 1.698958967931227E9, 0.0, 2023-11-02 17:02:47.931
246.0, -187500.02235174447, 187500.0, 31270.76104530824, 35118.971481200635, 187500.0, 187500.0, -187500.02235174447, 30946.236067561636, -0.048, 0.962, -0.084, 192.0, 254.0, 128.0, 30.0, 16.0, 253.0, 96.0, 0.0, 0.0, 0.0, 1.6989589679312372E9, 0.0, 2023-11-02 17:02:47.931
247.0, -187500.02235174447, 187500.0, 31277.131292478003, 35124.38060335882, 187500.0, 187500.0, -187500.02235174447, 30954.17093684327, -0.048, 0.962, -0.084, 192.0, 0.0, 0.0, 0.0, 0.0, 0.0, 0.0, 0.0, 0.0, 0.0, 1.698958967931249E9, 0.0, 2023-11-02 17:02:47.931
248.0, -187500.02235174447, 187500.0, 31276.930126777905, 35139.98212098862, 187500.0, 187500.0, -187500.02235174447, 30957.07666362246, -0.048, 0.962, -0.084, 192.0, 0.0, 0.0, 0.0, 0.0, 0.0, 0.0, 0.0, 0.0, 0.0, 1.6989589679312596E9, 0.0, 2023-11-02 17:02:47.931
249.0, -187500.02235174447, 187500.0, 31274.04675174317, 35142.172591945244, 187500.0, 187500.0, -187500.02235174447, 30957.322532811468, -0.048, 0.962, -0.084, 192.0, 0.0, 0.0, 0.0, 0.0, 0.0, 0.0, 0.0, 0.0, 0.0, 1.6989589679312708E9, 0.0, 2023-11-02 17:02:47.931
250.0, -187500.02235174447, 187500.0, 31265.486033616788, 35133.321301140946, 187500.0, 187500.0, -187500.02235174447, 30952.69572170922, -0.048, 0.962, -0.084, 192.0, 0.0, 0.0, 0.0, 0.0, 0.0, 0.0, 0.0, 0.0, 0.0, 1.6989589679312823E9, 0.0, 2023-11-02 17:02:47.931
251.0, -187500.02235174447, 187500.0, 31262.982638237794, 35129.09682143889, 187500.0, 187500.0, -187500.02235174447, 30951.93576239774, -0.048, 0.962, -0.084, 192.0, 0.0, 0.0, 0.0, 0.0, 0.0, 0.0, 0.0, 0.0, 0.0, 1.6989589679312944E9, 0.0, 2023-11-02 17:02:47.931
252.0, -187500.02235174447, 187500.0, 31262.066216715124, 35131.53316158452, 187500.0, 187500.0, -187500.02235174447, 30951.555782741998, -0.048, 0.962, -0.084, 192.0, 0.0, 0.0, 0.0, 0.0, 0.0, 0.0, 0.0, 0.0, 0.0, 1.698958967931305E9, 0.0, 2023-11-02 17:02:47.931
253.0, -187500.02235174447, 187500.0, 31258.5793445801, 35128.15804817177, 187500.0, 187500.0, -187500.02235174447, 30948.583000729443, -0.048, 0.962, -0.084, 192.0, 0.0, 0.0, 0.0, 0.0, 0.0, 0.0, 0.0, 0.0, 0.0, 1.6989589679313183E9, 0.0, 2023-11-02 17:02:47.931
254.0, -187500.02235174447, 187500.0, 31260.38983588098, 35128.60508306087, 187500.0, 187500.0, -187500.02235174447, 30953.545087998522, -0.048, 0.962, -0.084, 192.0, 0.0, 0.0, 0.0, 0.0, 0.0, 0.0, 0.0, 0.0, 0.0, 1.6989589679314463E9, 0.0, 2023-11-02 17:02:47.931
255.0, -187500.02235174447, 187500.0, 31261.44036787038, 35128.91800748325, 187500.0, 187500.0, -187500.02235174447, 30958.194250845227, -0.048, 0.962, -0.084, 192.0, 0.0, 0.0, 0.0, 0.0, 0.0, 0.0, 0.0, 0.0, 0.0, 1.6989589679314587E9, 0.0, 2023-11-02 17:02:47.931
0.0, -187500.02235174447, 187500.0, 31261.41801612592, 35131.86843775135, 187500.0, 187500.0, -187500.02235174447, 30959.825928190465, -0.036000000000000004, 0.984, -0.09, 192.0, 254.0, 224.0, 30.0, 192.0, 253.0, 48.0, 0.0, 0.0, 0.0, 1.6989589679314697E9, 0.0, 2023-11-02 17:02:47.931
1.0, -187500.02235174447, 187500.0, 31262.62501032651, 35133.20954241866, 187500.0, 187500.0, -187500.02235174447, 30959.64711423482, -0.036000000000000004, 0.984, -0.09, 192.0, 0.0, 0.0, 0.0, 0.0, 0.0, 0.0, 0.0, 0.0, 0.0, 1.6989589679314835E9, 0.0, 2023-11-02 17:02:47.931
2.0, -187500.02235174447, 187500.0, 31261.932106248394, 35133.164838929755, 187500.0, 187500.0, -187500.02235174447, 30956.964904900186, -0.036000000000000004, 0.984, -0.09, 192.0, 0.0, 0.0, 0.0, 0.0, 0.0, 0.0, 0.0, 0.0, 0.0, 1.6989589679314935E9, 0.0, 2023-11-02 17:02:47.931
3.0, -187500.02235174447, 187500.0, 31258.691103302375, 35118.479742822616, 187500.0, 187500.0, -187500.02235174447, 30950.952285641706, -0.036000000000000004, 0.984, -0.09, 192.0, 0.0, 0.0, 0.0, 0.0, 0.0, 0.0, 0.0, 0.0, 0.0, 1.6989589679315228E9, 0.0, 2023-11-02 17:02:47.931
4.0, -187500.02235174447, 187500.0, 31263.340266149076, 35116.89276896629, 187500.0, 187500.0, -187500.02235174447, 30952.89688740932, -0.036000000000000004, 0.984, -0.09, 192.0, 0.0, 0.0, 0.0, 0.0, 0.0, 0.0, 0.0, 0.0, 0.0, 1.6989589679315336E9, 0.0, 2023-11-02 17:02:47.931
5.0, -187500.02235174447, 187500.0, 31273.018571498225, 35125.76641151505, 187500.0, 187500.0, -187500.02235174447, 30960.049445635017, -0.036000000000000004, 0.984, -0.09, 192.0, 0.0, 0.0, 0.0, 0.0, 0.0, 0.0, 0.0, 0.0, 0.0, 1.6989589679315472E9, 0.0, 2023-11-02 17:02:47.931
6.0, -187500.02235174447, 187500.0, 31272.415074397933, 35130.035594706016, 187500.0, 187500.0, -187500.02235174447, 30958.484823523144, -0.036000000000000004, 0.984, -0.09, 192.0, 0.0, 0.0, 0.0, 0.0, 0.0, 0.0, 0.0, 0.0, 0.0, 1.698958967931558E9, 0.0, 2023-11-02 17:02:47.931
7.0, -187500.02235174447, 187500.0, 31274.538490121187, 35127.12986792682, 187500.0, 187500.0, -187500.02235174447, 30959.02126539007, -0.036000000000000004, 0.984, -0.09, 192.0, 0.0, 0.0, 0.0, 0.0, 0.0, 0.0, 0.0, 0.0, 0.0, 1.698958967931569E9, 0.0, 2023-11-02 17:02:47.931
8.0, -187500.02235174447, 187500.0, 31269.643458085473, 35131.53316158452, 187500.0, 187500.0, -187500.02235174447, 30952.852183920408, -0.036000000000000004, 0.984, -0.09, 192.0, 0.0, 0.0, 0.0, 0.0, 0.0, 0.0, 0.0, 0.0, 0.0, 1.6989589679315825E9, 0.0, 2023-11-02 17:02:47.931
9.0, -187500.02235174447, 187500.0, 31266.42480688391, 35127.39808886029, 187500.0, 187500.0, -187500.02235174447, 30948.98533212964, -0.036000000000000004, 0.984, -0.09, 192.0, 0.0, 0.0, 0.0, 0.0, 0.0, 0.0, 0.0, 0.0, 0.0, 1.698958967931594E9, 0.0, 2023-11-02 17:02:47.931
10.0, -187500.02235174447, 187500.0, 31271.14102496398, 35130.21440866165, 187500.0, 187500.0, -187500.02235174447, 30954.617971732376, -0.056, 0.972, -0.09, 192.0, 254.0, 64.0, 30.0, 96.0, 253.0, 48.0, 0.0, 0.0, 0.0, 1.6989589679316068E9, 0.0, 2023-11-02 17:02:47.931
11.0, -187500.02235174447, 187500.0, 31273.063274987137, 35133.43305986322, 187500.0, 187500.0, -187500.02235174447, 30956.897849666817, -0.056, 0.972, -0.09, 192.0, 0.0, 0.0, 0.0, 0.0, 0.0, 0.0, 0.0, 0.0, 0.0, 1.6989589679316204E9, 0.0, 2023-11-02 17:02:47.931
12.0, -187500.02235174447, 187500.0, 31275.745484321775, 35129.40974586127, 187500.0, 187500.0, -187500.02235174447, 30958.149547356315, -0.056, 0.972, -0.09, 192.0, 0.0, 0.0, 0.0, 0.0, 0.0, 0.0, 0.0, 0.0, 0.0, 1.698958967931638E9, 0.0, 2023-11-02 17:02:47.931
13.0, -187500.02235174447, 187500.0, 31279.545280879174, 35137.38931863181, 187500.0, 187500.0, -187500.02235174447, 30960.831756690954, -0.056, 0.972, -0.09, 192.0, 0.0, 0.0, 0.0, 0.0, 0.0, 0.0, 0.0, 0.0, 0.0, 1.6989589679316957E9, 0.0, 2023-11-02 17:02:47.931
14.0, -187500.02235174447, 187500.0, 31269.911679018936, 35131.421402862245, 187500.0, 187500.0, -187500.02235174447, 30950.21467807468, -0.056, 0.972, -0.09, 192.0, 0.0, 0.0, 0.0, 0.0, 0.0, 0.0, 0.0, 0.0, 0.0, 1.6989589679317107E9, 0.0, 2023-11-02 17:02:47.931
15.0, -187500.02235174447, 187500.0, 31258.13230969099, 35109.270824107036, 187500.0, 187500.0, -187500.02235174447, 30938.435308746735, -0.056, 0.972, -0.09, 192.0, 0.0, 0.0, 0.0, 0.0, 0.0, 0.0, 0.0, 0.0, 0.0, 1.6989589679317307E9, 0.0, 2023-11-02 17:02:47.931
16.0, -187500.02235174447, 187500.0, 31264.52490860521, 35111.483646808105, 187500.0, 187500.0, -187500.02235174447, 30946.68310245074, -0.056, 0.972, -0.09, 192.0, 0.0, 0.0, 0.0, 0.0, 0.0, 0.0, 0.0, 0.0, 0.0, 1.6989589679317532E9, 0.0, 2023-11-02 17:02:47.931
17.0, -187500.02235174447, 187500.0, 31262.781472537696, 35115.50696081006, 187500.0, 187500.0, -187500.02235174447, 30947.085433850938, -0.056, 0.972, -0.09, 192.0, 0.0, 0.0, 0.0, 0.0, 0.0, 0.0, 0.0, 0.0, 0.0, 1.6989589679317663E9, 0.0, 2023-11-02 17:02:47.931
18.0, -187500.02235174447, 187500.0, 31255.695969545362, 35110.90250145227, 187500.0, 187500.0, -187500.02235174447, 30938.859991891386, -0.056, 0.972, -0.09, 192.0, 0.0, 0.0, 0.0, 0.0, 0.0, 0.0, 0.0, 0.0, 0.0, 1.698958967931779E9, 0.0, 2023-11-02 17:02:47.931
19.0, -187500.02235174447, 187500.0, 31251.069158443115, 35102.051210647965, 187500.0, 187500.0, -187500.02235174447, 30934.009663344583, -0.056, 0.972, -0.09, 192.0, 0.0, 0.0, 0.0, 0.0, 0.0, 0.0, 0.0, 0.0, 0.0, 1.6989589679317896E9, 0.0, 2023-11-02 17:02:47.931
20.0, -187500.02235174447, 187500.0, 31250.778585765194, 35098.206710601655, 187500.0, 187500.0, -187500.02235174447, 30933.16029705528, -0.05, 0.98, -0.078, 192.0, 254.0, 112.0, 30.0, 160.0, 253.0, 144.0, 0.0, 0.0, 0.0, 1.6989589679318056E9, 0.0, 2023-11-02 17:02:47.931
21.0, -187500.02235174447, 187500.0, 31252.454966599344, 35103.861701948845, 187500.0, 187500.0, -187500.02235174447, 30933.78614590003, -0.05, 0.98, -0.078, 192.0, 0.0, 0.0, 0.0, 0.0, 0.0, 0.0, 0.0, 0.0, 0.0, 1.6989589679318185E9, 0.0, 2023-11-02 17:02:47.931
22.0, -187500.02235174447, 187500.0, 31252.253800899245, 35102.52059728153, 187500.0, 187500.0, -187500.02235174447, 30933.272055777557, -0.05, 0.98, -0.078, 192.0, 0.0, 0.0, 0.0, 0.0, 0.0, 0.0, 0.0, 0.0, 0.0, 1.698958967931833E9, 0.0, 2023-11-02 17:02:47.931
23.0, -187500.02235174447, 187500.0, 31258.08760620208, 35105.15810312726, 187500.0, 187500.0, -187500.02235174447, 30937.630645946345, -0.05, 0.98, -0.078, 192.0, 0.0, 0.0, 0.0, 0.0, 0.0, 0.0, 0.0, 0.0, 0.0, 1.6989589679318452E9, 0.0, 2023-11-02 17:02:47.931
24.0, -187500.02235174447, 187500.0, 31250.555068320642, 35101.1347891253, 187500.0, 187500.0, -187500.02235174447, 30929.606369686888, -0.05, 0.98, -0.078, 192.0, 0.0, 0.0, 0.0, 0.0, 0.0, 0.0, 0.0, 0.0, 0.0, 1.6989589679318595E9, 0.0, 2023-11-02 17:02:47.931
25.0, -187500.02235174447, 187500.0, 31249.772757264705, 35103.68288799321, 187500.0, 187500.0, -187500.02235174447, 30930.5004394651, -0.05, 0.98, -0.078, 192.0, 0.0, 0.0, 0.0, 0.0, 0.0, 0.0, 0.0, 0.0, 0.0, 1.698958967931883E9, 0.0, 2023-11-02 17:02:47.931
26.0, -187500.02235174447, 187500.0, 31246.487050829775, 35114.23291137611, 187500.0, 187500.0, -187500.02235174447, 30930.232218531637, -0.05, 0.98, -0.078, 192.0, 0.0, 0.0, 0.0, 0.0, 0.0, 0.0, 0.0, 0.0, 0.0, 1.6989589679318962E9, 0.0, 2023-11-02 17:02:47.931
27.0, -187500.02235174447, 187500.0, 31246.956437463337, 35113.1376758978, 187500.0, 187500.0, -187500.02235174447, 30933.205000544192, -0.05, 0.98, -0.078, 192.0, 0.0, 0.0, 0.0, 0.0, 0.0, 0.0, 0.0, 0.0, 0.0, 1.698958967931913E9, 0.0, 2023-11-02 17:02:47.931
28.0, -187500.02235174447, 187500.0, 31249.303370631143, 35115.37285034333, 187500.0, 187500.0, -187500.02235174447, 30938.07768083545, -0.05, 0.98, -0.078, 192.0, 0.0, 0.0, 0.0, 0.0, 0.0, 0.0, 0.0, 0.0, 0.0, 1.6989589679319353E9, 0.0, 2023-11-02 17:02:47.931
29.0, -187500.02235174447, 187500.0, 31246.710568274328, 35119.48557132311, 187500.0, 187500.0, -187500.02235174447, 30938.12238432436, -0.05, 0.98, -0.078, 192.0, 0.0, 0.0, 0.0, 0.0, 0.0, 0.0, 0.0, 0.0, 0.0, 1.6989589679320061E9, 0.0, 2023-11-02 17:02:47.932
30.0, -187500.02235174447, 187500.0, 31243.46956532831, 35122.03367019101, 187500.0, 187500.0, -187500.02235174447, 30935.529581967545, -0.052000000000000005, 0.988, -0.076, 192.0, 254.0, 96.0, 30.0, 224.0, 253.0, 160.0, 0.0, 0.0, 0.0, 1.6989589679320443E9, 0.0, 2023-11-02 17:02:47.932
31.0, -187500.02235174447, 187500.0, 31246.554106063144, 35122.324242868934, 187500.0, 187500.0, -187500.02235174447, 30937.74240466862, -0.052000000000000005, 0.988, -0.076, 192.0, 0.0, 0.0, 0.0, 0.0, 0.0, 0.0, 0.0, 0.0, 0.0, 1.6989589679320729E9, 0.0, 2023-11-02 17:02:47.932
32.0, -187500.02235174447, 187500.0, 31247.582286308087, 35116.78101024401, 187500.0, 187500.0, -187500.02235174447, 30940.625779703354, -0.052000000000000005, 0.988, -0.076, 192.0, 0.0, 0.0, 0.0, 0.0, 0.0, 0.0, 0.0, 0.0, 0.0, 1.6989589679321053E9, 0.0, 2023-11-02 17:02:47.932
33.0, -187500.02235174447, 187500.0, 31248.297542130655, 35117.25039687758, 187500.0, 187500.0, -187500.02235174447, 30942.346864026415, -0.052000000000000005, 0.988, -0.076, 192.0, 0.0, 0.0, 0.0, 0.0, 0.0, 0.0, 0.0, 0.0, 0.0, 1.6989589679321675E9, 0.0, 2023-11-02 17:02:47.932
34.0, -187500.02235174447, 187500.0, 31240.496783315753, 35118.36798410034, 187500.0, 187500.0, -187500.02235174447, 30935.551933712, -0.052000000000000005, 0.988, -0.076, 192.0, 0.0, 0.0, 0.0, 0.0, 0.0, 0.0, 0.0, 0.0, 0.0, 1.6989589679322276E9, 0.0, 2023-11-02 17:02:47.932
35.0, -187500.02235174447, 187500.0, 31233.61244602352, 35109.80726597396, 187500.0, 187500.0, -187500.02235174447, 30930.27692202055, -0.052000000000000005, 0.988, -0.076, 192.0, 0.0, 0.0, 0.0, 0.0, 0.0, 0.0, 0.0, 0.0, 0.0, 1.6989589679322608E9, 0.0, 2023-11-02 17:02:47.932
36.0, -187500.02235174447, 187500.0, 31234.46181231282, 35109.69550725169, 187500.0, 187500.0, -187500.02235174447, 30932.713262166177, -0.052000000000000005, 0.988, -0.076, 192.0, 0.0, 0.0, 0.0, 0.0, 0.0, 0.0, 0.0, 0.0, 0.0, 1.698958967932325E9, 0.0, 2023-11-02 17:02:47.932
37.0, -187500.02235174447, 187500.0, 31235.355882091033, 35105.85100720537, 187500.0, 187500.0, -187500.02235174447, 30933.093241821916, -0.052000000000000005, 0.988, -0.076, 192.0, 0.0, 0.0, 0.0, 0.0, 0.0, 0.0, 0.0, 0.0, 0.0, 1.6989589679323928E9, 0.0, 2023-11-02 17:02:47.932
38.0, -187500.02235174447, 187500.0, 31239.04391992616, 35106.745076983585, 187500.0, 187500.0, -187500.02235174447, 30935.350768011904, -0.052000000000000005, 0.988, -0.076, 192.0, 0.0, 0.0, 0.0, 0.0, 0.0, 0.0, 0.0, 0.0, 0.0, 1.6989589679324176E9, 0.0, 2023-11-02 17:02:47.932
39.0, -187500.02235174447, 187500.0, 31248.2751903862, 35121.67604227973, 187500.0, 187500.0, -187500.02235174447, 30943.88913439383, -0.038, 0.972, -0.07, 192.0, 254.0, 208.0, 30.0, 96.0, 253.0, 208.0, 0.0, 0.0, 0.0, 1.6989589679324348E9, 0.0, 2023-11-02 17:02:47.932
40.0, -187500.02235174447, 187500.0, 31246.867030485515, 35123.866513236346, 187500.0, 187500.0, -187500.02235174447, 30941.944532626218, -0.038, 0.972, -0.07, 192.0, 0.0, 0.0, 0.0, 0.0, 0.0, 0.0, 0.0, 0.0, 0.0, 1.6989589679324644E9, 0.0, 2023-11-02 17:02:47.932
41.0, -187500.02235174447, 187500.0, 31249.549239820153, 35116.80336198847, 187500.0, 187500.0, -187500.02235174447, 30942.905657637795, -0.038, 0.972, -0.07, 192.0, 0.0, 0.0, 0.0, 0.0, 0.0, 0.0, 0.0, 0.0, 0.0, 1.6989589679324756E9, 0.0, 2023-11-02 17:02:47.932
42.0, -187500.02235174447, 187500.0, 31245.592981051563, 35117.09393466639, 187500.0, 187500.0, -187500.02235174447, 30938.144736068814, -0.038, 0.972, -0.07, 192.0, 0.0, 0.0, 0.0, 0.0, 0.0, 0.0, 0.0, 0.0, 0.0, 1.6989589679324882E9, 0.0, 2023-11-02 17:02:47.932
43.0, -187500.02235174447, 187500.0, 31241.41320483842, 35115.90929221026, 187500.0, 187500.0, -187500.02235174447, 30934.859029633884, -0.038, 0.972, -0.07, 192.0, 0.0, 0.0, 0.0, 0.0, 0.0, 0.0, 0.0, 0.0, 0.0, 1.6989589679324987E9, 0.0, 2023-11-02 17:02:47.932
44.0, -187500.02235174447, 187500.0, 31240.921466460404, 35117.74213525559, 187500.0, 187500.0, -187500.02235174447, 30934.948436611707, -0.038, 0.972, -0.07, 192.0, 0.0, 0.0, 0.0, 0.0, 0.0, 0.0, 0.0, 0.0, 0.0, 1.698958967932559E9, 0.0, 2023-11-02 17:02:47.932
45.0, -187500.02235174447, 187500.0, 31238.41807108141, 35115.95399569917, 187500.0, 187500.0, -187500.02235174447, 30931.439212732224, -0.038, 0.972, -0.07, 192.0, 0.0, 0.0, 0.0, 0.0, 0.0, 0.0, 0.0, 0.0, 0.0, 1.6989589679325695E9, 0.0, 2023-11-02 17:02:47.932
46.0, -187500.02235174447, 187500.0, 31234.640626268465, 35117.00452768857, 187500.0, 187500.0, -187500.02235174447, 30927.125326052348, -0.038, 0.972, -0.07, 192.0, 0.0, 0.0, 0.0, 0.0, 0.0, 0.0, 0.0, 0.0, 0.0, 1.6989589679325852E9, 0.0, 2023-11-02 17:02:47.932
47.0, -187500.02235174447, 187500.0, 31231.779602978186, 35113.62941427582, 187500.0, 187500.0, -187500.02235174447, 30924.55487543999, -0.038, 0.972, -0.07, 192.0, 0.0, 0.0, 0.0, 0.0, 0.0, 0.0, 0.0, 0.0, 0.0, 1.6989589679325955E9, 0.0, 2023-11-02 17:02:47.932
48.0, -187500.02235174447, 187500.0, 31233.143059389957, 35111.59540553038, 187500.0, 187500.0, -187500.02235174447, 30925.895980107307, -0.038, 0.972, -0.07, 192.0, 0.0, 0.0, 0.0, 0.0, 0.0, 0.0, 0.0, 0.0, 0.0, 1.6989589679326055E9, 0.0, 2023-11-02 17:02:47.932
49.0, -187500.02235174447, 187500.0, 31232.070175656103, 35104.42049556023, 187500.0, 187500.0, -187500.02235174447, 30926.45477371869, -0.028, 0.98, -0.078, 192.0, 255.0, 32.0, 30.0, 160.0, 253.0, 144.0, 0.0, 0.0, 0.0, 1.6989589679326155E9, 0.0, 2023-11-02 17:02:47.932
50.0, -187500.02235174447, 187500.0, 31232.6736727564, 35106.588614772394, 187500.0, 187500.0, -187500.02235174447, 30928.3993754863, -0.028, 0.98, -0.078, 192.0, 0.0, 0.0, 0.0, 0.0, 0.0, 0.0, 0.0, 0.0, 0.0, 1.6989589679326262E9, 0.0, 2023-11-02 17:02:47.932
51.0, -187500.02235174447, 187500.0, 31224.00119590774, 35109.22612061812, 187500.0, 187500.0, -187500.02235174447, 30922.20794227218, -0.028, 0.98, -0.078, 192.0, 0.0, 0.0, 0.0, 0.0, 0.0, 0.0, 0.0, 0.0, 0.0, 1.698958967932636E9, 0.0, 2023-11-02 17:02:47.932
52.0, -187500.02235174447, 187500.0, 31221.006062150725, 35104.711068238146, 187500.0, 187500.0, -187500.02235174447, 30921.135058538326, -0.028, 0.98, -0.078, 192.0, 0.0, 0.0, 0.0, 0.0, 0.0, 0.0, 0.0, 0.0, 0.0, 1.698958967932646E9, 0.0, 2023-11-02 17:02:47.932
53.0, -187500.02235174447, 187500.0, 31216.289844070656, 35094.630431488804, 187500.0, 187500.0, -187500.02235174447, 30917.089392791917, -0.028, 0.98, -0.078, 192.0, 0.0, 0.0, 0.0, 0.0, 0.0, 0.0, 0.0, 0.0, 0.0, 1.698958967932656E9, 0.0, 2023-11-02 17:02:47.932
54.0, -187500.02235174447, 187500.0, 31220.22375109479, 35093.177568099214, 187500.0, 187500.0, -187500.02235174447, 30920.35274748239, -0.028, 0.98, -0.078, 192.0, 0.0, 0.0, 0.0, 0.0, 0.0, 0.0, 0.0, 0.0, 0.0, 1.6989589679326656E9, 0.0, 2023-11-02 17:02:47.932
55.0, -187500.02235174447, 187500.0, 31217.206265593326, 35098.67609723522, 187500.0, 187500.0, -187500.02235174447, 30921.537389938523, -0.028, 0.98, -0.078, 192.0, 0.0, 0.0, 0.0, 0.0, 0.0, 0.0, 0.0, 0.0, 0.0, 1.6989589679326754E9, 0.0, 2023-11-02 17:02:47.932
56.0, -187500.02235174447, 187500.0, 31205.337489287554, 35089.1319023528, 187500.0, 187500.0, -187500.02235174447, 30913.82603810144, -0.028, 0.98, -0.078, 192.0, 0.0, 0.0, 0.0, 0.0, 0.0, 0.0, 0.0, 0.0, 0.0, 1.698958967932686E9, 0.0, 2023-11-02 17:02:47.932
57.0, -187500.02235174447, 187500.0, 31201.40358226342, 35077.95603012515, 187500.0, 187500.0, -187500.02235174447, 30915.05538404648, -0.028, 0.98, -0.078, 192.0, 0.0, 0.0, 0.0, 0.0, 0.0, 0.0, 0.0, 0.0, 0.0, 1.698958967932696E9, 0.0, 2023-11-02 17:02:47.932
58.0, -187500.02235174447, 187500.0, 31196.732067672263, 35077.307829535945, 187500.0, 187500.0, -187500.02235174447, 30915.234198002127, -0.028, 0.98, -0.078, 192.0, 0.0, 0.0, 0.0, 0.0, 0.0, 0.0, 0.0, 0.0, 0.0, 1.698958967932706E9, 0.0, 2023-11-02 17:02:47.932
59.0, -187500.02235174447, 187500.0, 31193.468712981787, 35082.35932378284, 187500.0, 187500.0, -187500.02235174447, 30915.010680557574, -0.02, 0.988, -0.07, 192.0, 255.0, 96.0, 30.0, 224.0, 253.0, 208.0, 0.0, 0.0, 0.0, 1.6989589679327247E9, 0.0, 2023-11-02 17:02:47.932
60.0, -187500.02235174447, 187500.0, 31193.915747870895, 35087.164948840735, 187500.0, 187500.0, -187500.02235174447, 30915.614177657866, -0.02, 0.988, -0.07, 192.0, 0.0, 0.0, 0.0, 0.0, 0.0, 0.0, 0.0, 0.0, 0.0, 1.6989589679327352E9, 0.0, 2023-11-02 17:02:47.932
61.0, -187500.02235174447, 187500.0, 31187.187872789847, 35083.879242405805, 187500.0, 187500.0, -187500.02235174447, 30910.96501481116, -0.02, 0.988, -0.07, 192.0, 0.0, 0.0, 0.0, 0.0, 0.0, 0.0, 0.0, 0.0, 0.0, 1.6989589679327474E9, 0.0, 2023-11-02 17:02:47.932
62.0, -187500.02235174447, 187500.0, 31179.297706997124, 35078.24660280307, 187500.0, 187500.0, -187500.02235174447, 30905.39943044179, -0.02, 0.988, -0.07, 192.0, 0.0, 0.0, 0.0, 0.0, 0.0, 0.0, 0.0, 0.0, 0.0, 1.6989589679327579E9, 0.0, 2023-11-02 17:02:47.932
63.0, -187500.02235174447, 187500.0, 31181.532881442654, 35087.94725989667, 187500.0, 187500.0, -187500.02235174447, 30910.16035201077, -0.02, 0.988, -0.07, 192.0, 0.0, 0.0, 0.0, 0.0, 0.0, 0.0, 0.0, 0.0, 0.0, 1.6989589679327683E9, 0.0, 2023-11-02 17:02:47.932
64.0, -187500.02235174447, 187500.0, 31182.31519249859, 35093.535196010496, 187500.0, 187500.0, -187500.02235174447, 30915.569474168955, -0.02, 0.988, -0.07, 192.0, 0.0, 0.0, 0.0, 0.0, 0.0, 0.0, 0.0, 0.0, 0.0, 1.6989589679327788E9, 0.0, 2023-11-02 17:02:47.932
65.0, -187500.02235174447, 187500.0, 31188.819550135086, 35100.6877542362, 187500.0, 187500.0, -187500.02235174447, 30926.320663251958, -0.02, 0.988, -0.07, 192.0, 0.0, 0.0, 0.0, 0.0, 0.0, 0.0, 0.0, 0.0, 0.0, 1.6989589679327886E9, 0.0, 2023-11-02 17:02:47.932
