%OpenBCI Raw EXG Data
%Number of channels = 8
%Sample Rate = 250 Hz
%Board = OpenBCI_GUI$BoardCytonSerial
Sample Index, EXG Channel 0, EXG Channel 1, EXG Channel 2, EXG Channel 3, EXG Channel 4, EXG Channel 5, EXG Channel 6, EXG Channel 7, Accel Channel 0, Accel Channel 1, Accel Channel 2, Not Used, Digital Channel 0 (D11), Digital Channel 1 (D12), Digital Channel 2 (D13), Digital Channel 3 (D17), Not Used, Digital Channel 4 (D18), Analog Channel 0, Analog Channel 1, Analog Channel 2, Timestamp, Marker Channel, Timestamp (Formatted)
127.0, 62072.56014019968, 31311.284758005713, -18718.781318519275, -59962.354297918595, -50673.103412759716, -50715.14704408015, -48403.73079821239, -37921.94729112951, 0.0, 0.0, 0.0, 192.0, 0.0, 0.0, 0.0, 0.0, 0.0, 0.0, 0.0, 0.0, 0.0, 1.71243756476805E9, 0.0, 2024-04-06 17:06:04.768
128.0, 62595.94858836515, 32529.141906397574, -15724.92161094208, -59016.09319640317, -51431.118122472544, -50531.527463379796, -47535.38787786816, -36631.08934534661, 0.0, 0.0, 0.0, 192.0, 0.0, 0.0, 0.0, 0.0, 0.0, 0.0, 0.0, 0.0, 0.0, 1.712437564768084E9, 0.0, 2024-04-06 17:06:04.768
129.0, 62816.87323056141, 32410.7000125289, -14200.644397812415, -59443.61501259983, -51260.17198087835, -50733.29666057786, -47529.44231384305, -35975.11034907226, 0.0, 0.0, 0.0, 192.0, 0.0, 0.0, 0.0, 0.0, 0.0, 0.0, 0.0, 0.0, 0.0, 1.712437564768104E9, 0.0, 2024-04-06 17:06:04.768
130.0, 62526.501718342515, 31879.64491601526, -15769.0216027524, -59808.842516999546, -50951.29322425047, -50741.678564748596, -47984.14385129736, -36543.85048673755, 0.0, 0.0, 0.0, 192.0, 0.0, 0.0, 30.0, 240.0, 2.0, 96.0, 0.0, 0.0, 0.0, 1.712437564768495E9, 0.0, 2024-04-06 17:06:04.768
0.0, 0.0, 0.0, 0.0, 0.0, 0.0, 0.0, 0.0, 0.0, 0.004, 0.99, 0.07200000000000001, 192.0, 0.0, 32.0, 30.0, 240.0, 2.0, 64.0, 0.0, 0.0, 0.0, 1.712437564854715E9, 0.0, 2024-04-06 17:06:04.854
1.0, 65398.030328515815, 35773.47526234094, -24163.710971320987, -58891.348110598105, -49876.39783339475, -51667.89015148761, -47668.82779226635, -32015.923501959267, 0.004, 0.99, 0.07200000000000001, 192.0, 0.0, 0.0, 0.0, 0.0, 0.0, 0.0, 0.0, 0.0, 0.0, 1.712437564872909E9, 0.0, 2024-04-06 17:06:04.872
2.0, 65524.004760265925, 36111.3218797829, -22811.56454224164, -58450.75052389509, -50056.93287336027, -51690.979503509945, -47345.39804999805, -31514.328004637722, 0.004, 0.99, 0.07200000000000001, 192.0, 0.0, 0.0, 0.0, 0.0, 0.0, 0.0, 0.0, 0.0, 0.0, 1.712437564875654E9, 0.0, 2024-04-06 17:06:04.875
3.0, 65753.04308569945, 36008.079172143836, -22606.867266519937, -58671.58575911353, -49765.80140182989, -51620.996191620376, -47444.39392619061, -31613.949729675023, 0.004, 0.99, 0.07200000000000001, 192.0, 0.0, 0.0, 0.0, 0.0, 0.0, 0.0, 0.0, 0.0, 0.0, 1.712437564878696E9, 0.0, 2024-04-06 17:06:04.878
4.0, 65363.005144954346, 35746.966093416944, -23246.35067538627, -58818.41436844044, -50114.10863567694, -51786.06382442282, -47450.87593208265, -31637.866096242204, 0.004, 0.99, 0.07200000000000001, 192.0, 0.0, 0.0, 0.0, 0.0, 0.0, 0.0, 0.0, 0.0, 0.0, 1.712437564881673E9, 0.0, 2024-04-06 17:06:04.881
5.0, 65328.739920704356, 35688.33746771067, -24201.328957239268, -59104.87432537966, -49929.97496485412, -51799.85485075174, -47794.95868622765, -32013.308347857997, 0.004, 0.99, 0.07200000000000001, 192.0, 0.0, 0.0, 0.0, 0.0, 0.0, 0.0, 0.0, 0.0, 0.0, 1.712437564885685E9, 0.0, 2024-04-06 17:06:04.885
6.0, 65514.974655505976, 36100.48128372208, -23129.898086774123, -58459.020669343554, -49970.52102929605, -51626.53942424529, -47415.895452010096, -31739.94651316959, 0.004, 0.99, 0.07200000000000001, 192.0, 0.0, 0.0, 0.0, 0.0, 0.0, 0.0, 0.0, 0.0, 0.0, 1.71243756488882E9, 0.0, 2024-04-06 17:06:04.888
7.0, 65626.66632254915, 35981.68176194212, -22458.854014736895, -58640.04744768709, -49981.629846290336, -51751.038640861356, -47383.53012603881, -31580.57857520325, 0.004, 0.99, 0.07200000000000001, 192.0, 0.0, 0.0, 0.0, 0.0, 0.0, 0.0, 0.0, 0.0, 0.0, 1.712437564892711E9, 0.0, 2024-04-06 17:06:04.892
8.0, 65505.542219345836, 35817.508198917894, -23207.101012122752, -58853.79717991319, -49907.46675818763, -51706.84924207321, -47565.227456716, -31794.14949347371, 0.008, 0.996, 0.07200000000000001, 192.0, 0.0, 64.0, 31.0, 32.0, 2.0, 64.0, 0.0, 0.0, 0.0, 1.712437564896727E9, 0.0, 2024-04-06 17:06:04.896
9.0, 65389.17903771151, 35743.65803523756, -24204.45820146301, -58961.689050398956, -49830.17442586117, -51665.00677645288, -47702.66833337168, -32177.213689948763, 0.008, 0.996, 0.07200000000000001, 192.0, 0.0, 0.0, 0.0, 0.0, 0.0, 0.0, 0.0, 0.0, 0.0, 1.712437564900719E9, 0.0, 2024-04-06 17:06:04.900
10.0, 65453.86498616517, 36043.5066871055, -23320.670225700167, -58530.45684462272, -50004.80860529049, -51662.07869792923, -47436.079077253235, -31870.59245951086, 0.008, 0.996, 0.07200000000000001, 192.0, 0.0, 0.0, 0.0, 0.0, 0.0, 0.0, 0.0, 0.0, 0.0, 1.712437564905875E9, 0.0, 2024-04-06 17:06:04.905
11.0, 65624.22998240351, 36045.495992362026, -22404.069889076938, -58610.27492407262, -50012.162329216284, -51767.042489891355, -47374.90235267906, -31602.662098725094, 0.008, 0.996, 0.07200000000000001, 192.0, 0.0, 0.0, 0.0, 0.0, 0.0, 0.0, 0.0, 0.0, 0.0, 1.712437564909742E9, 0.0, 2024-04-06 17:06:04.909
12.0, 65554.13491179168, 35861.116452350194, -23000.280320677797, -58819.77782485221, -49917.70385714815, -51709.844375830224, -47529.57642430979, -31808.789886091938, 0.008, 0.996, 0.07200000000000001, 192.0, 0.0, 0.0, 0.0, 0.0, 0.0, 0.0, 0.0, 0.0, 0.0, 1.71243756491377E9, 0.0, 2024-04-06 17:06:04.913
13.0, 65419.77857587083, 35768.62493379413, -24099.516761245344, -58982.364414020114, -49822.0607426239, -51668.60540731018, -47704.2106037391, -32185.863815052966, 0.008, 0.996, 0.07200000000000001, 192.0, 0.0, 0.0, 0.0, 0.0, 0.0, 0.0, 0.0, 0.0, 0.0, 1.712437564916771E9, 0.0, 2024-04-06 17:06:04.916
14.0, 65442.197375559495, 35995.986878393516, -23592.065106876507, -58615.348770063974, -49965.58129377142, -51650.209921623464, -47495.221793081975, -32037.448231869726, 0.008, 0.996, 0.07200000000000001, 192.0, 0.0, 0.0, 0.0, 0.0, 0.0, 0.0, 0.0, 0.0, 0.0, 1.712437564920805E9, 0.0, 2024-04-06 17:06:04.920
15.0, 65626.6886742936, 36112.90885363923, -22420.409014273766, -58534.14488245784, -50017.75026533011, -51741.025059345375, -47329.550663179245, -31631.808773494813, 0.008, 0.996, 0.07200000000000001, 192.0, 0.0, 0.0, 0.0, 0.0, 0.0, 0.0, 0.0, 0.0, 0.0, 1.712437564924813E9, 0.0, 2024-04-06 17:06:04.924
16.0, 65593.94336866657, 35881.613002015714, -22829.647103505984, -58800.35415892055, -49929.86320613184, -51726.71994289398, -47481.944856875525, -31771.484824596027, 0.008, 0.996, 0.07200000000000001, 192.0, 0.0, 0.0, 0.0, 0.0, 0.0, 0.0, 0.0, 0.0, 0.0, 1.712437564928781E9, 0.0, 2024-04-06 17:06:04.928
17.0, 65449.1487680851, 35779.487881599416, -23948.64248617202, -58946.73573335836, -49812.091864596834, -51654.12147690314, -47647.48187631153, -32098.490845977172, 0.008, 0.996, 0.07200000000000001, 192.0, 0.0, 0.0, 0.0, 0.0, 0.0, 0.0, 0.0, 0.0, 0.0, 1.71243756493484E9, 0.0, 2024-04-06 17:06:04.934
18.0, 65436.92236386805, 35925.46712463703, -23831.56404871512, -58686.18144824284, -49909.746636122065, -51633.13318885961, -47512.3655810792, -32066.95253455073, 0.01, 0.996, 0.07200000000000001, 192.0, 0.0, 80.0, 31.0, 32.0, 2.0, 64.0, 0.0, 0.0, 0.0, 1.712437564937787E9, 0.0, 2024-04-06 17:06:04.937
19.0, 65661.69150611061, 36180.411121894256, -22539.141480820355, -58460.160608310776, -49934.62412770082, -51658.9941571944, -47296.60419185212, -31589.765142174383, 0.01, 0.996, 0.07200000000000001, 192.0, 0.0, 0.0, 0.0, 0.0, 0.0, 0.0, 0.0, 0.0, 0.0, 1.712437564941807E9, 0.0, 2024-04-06 17:06:04.941
20.0, 65549.15047277814, 35867.553754753324, -22615.293874179588, -58750.19684436284, -50057.58107394947, -51799.49722284046, -47357.51269549283, -31558.696217381505, 0.01, 0.996, 0.07200000000000001, 192.0, 0.0, 0.0, 0.0, 0.0, 0.0, 0.0, 0.0, 0.0, 0.0, 1.712437564944911E9, 0.0, 2024-04-06 17:06:04.944
21.0, 65435.849480134195, 35773.877593741134, -23779.529187623168, -59004.49264103087, -49840.99267017754, -51712.52658516486, -47653.15921940318, -31859.282476816476, 0.01, 0.996, 0.07200000000000001, 192.0, 0.0, 0.0, 0.0, 0.0, 0.0, 0.0, 0.0, 0.0, 0.0, 1.712437564948763E9, 0.0, 2024-04-06 17:06:04.948
22.0, 65412.11192752265, 35866.77144369739, -24071.755894631853, -58795.12385071801, -49854.180199406175, -51641.202168607975, -47574.59283764278, -32019.0080426941, 0.01, 0.996, 0.07200000000000001, 192.0, 0.0, 0.0, 0.0, 0.0, 0.0, 0.0, 0.0, 0.0, 0.0, 1.712437564952777E9, 0.0, 2024-04-06 17:06:04.952
23.0, 65563.65675492963, 36166.30717114296, -22667.82047364956, -58455.891425119815, -50024.92517530027, -51710.44787293051, -47275.88412474205, -31467.165823837022, 0.01, 0.996, 0.07200000000000001, 192.0, 0.0, 0.0, 0.0, 0.0, 0.0, 0.0, 0.0, 0.0, 0.0, 1.712437564956922E9, 0.0, 2024-04-06 17:06:04.956
24.0, 65635.85288952028, 35942.074470767315, -22595.1326006809, -58752.364963575004, -49943.43071501621, -51757.78886768685, -47373.181268356, -31494.94904219497, 0.01, 0.996, 0.07200000000000001, 192.0, 0.0, 0.0, 0.0, 0.0, 0.0, 0.0, 0.0, 0.0, 0.0, 1.712437564960827E9, 0.0, 2024-04-06 17:06:04.960
25.0, 65485.44800108052, 35829.13110603465, -23576.016554357597, -58911.196459674415, -49842.62434752278, -51680.40712838258, -47537.935976736066, -31743.00870215997, 0.01, 0.996, 0.07200000000000001, 192.0, 0.0, 0.0, 0.0, 0.0, 0.0, 0.0, 0.0, 0.0, 0.0, 1.712437564965862E9, 0.0, 2024-04-06 17:06:04.965
26.0, 65416.64933164708, 35827.030042055856, -24177.457294161, -58885.08962215062, -49835.06945789688, -51655.90961645957, -47571.41888993012, -32010.112048400886, 0.01, 0.996, 0.07200000000000001, 192.0, 0.0, 0.0, 0.0, 0.0, 0.0, 0.0, 0.0, 0.0, 0.0, 1.712437564968833E9, 0.0, 2024-04-06 17:06:04.968
27.0, 65554.38078098069, 36170.464595611644, -22859.50903409827, -58466.441448502716, -50013.346971672414, -51689.41488139807, -47259.12031640057, -31517.457248861465, 0.01, 0.996, 0.07200000000000001, 192.0, 0.0, 0.0, 0.0, 0.0, 0.0, 0.0, 0.0, 0.0, 0.0, 1.712437564972959E9, 0.0, 2024-04-06 17:06:04.972
28.0, 65664.66428812317, 36002.066552885364, -22495.48852389914, -58711.03658807714, -49955.344194810896, -51758.39236478715, -47302.2144797104, -31476.978239652904, 0.008, 0.988, 0.07200000000000001, 192.0, 0.0, 64.0, 30.0, 224.0, 2.0, 64.0, 0.0, 0.0, 0.0, 1.712437564977594E9, 0.0, 2024-04-06 17:06:04.977
29.0, 65527.51398414541, 35861.071748861286, -23365.485473333058, -58905.206192160396, -49875.79433629446, -51703.47412866046, -47485.27526679936, -31715.560759968852, 0.008, 0.988, 0.07200000000000001, 192.0, 0.0, 0.0, 0.0, 0.0, 0.0, 0.0, 0.0, 0.0, 0.0, 1.712437564980842E9, 0.0, 2024-04-06 17:06:04.980
30.0, 65445.52778548334, 35811.495579659415, -24233.18019308808, -58957.62103290809, -49810.46018725159, -51656.06607867075, -47585.27697149241, -32093.193482541265, 0.008, 0.988, 0.07200000000000001, 192.0, 0.0, 0.0, 0.0, 0.0, 0.0, 0.0, 0.0, 0.0, 0.0, 1.712437564984844E9, 0.0, 2024-04-06 17:06:04.984
31.0, 65539.87449882919, 36142.12258364232, -23109.222723152965, -58507.07691992247, -50001.03116047754, -51667.487820087415, -47280.93561898895, -31693.231367258, 0.008, 0.988, 0.07200000000000001, 192.0, 0.0, 0.0, 0.0, 0.0, 0.0, 0.0, 0.0, 0.0, 0.0, 1.712437564988894E9, 0.0, 2024-04-06 17:06:04.988
32.0, 65691.91106461419, 36059.599943113324, -22441.285543595022, -58675.20674171529, -49966.40830831627, -51755.8666176637, -47275.146517175024, -31538.847868305194, 0.008, 0.988, 0.07200000000000001, 192.0, 0.0, 0.0, 0.0, 0.0, 0.0, 0.0, 0.0, 0.0, 0.0, 1.712437564993937E9, 0.0, 2024-04-06 17:06:04.993
33.0, 65592.02111864342, 35903.89769123765, -23168.611308170715, -58849.23742404431, -49870.56402809192, -51676.09324170271, -47427.47365563794, -31767.819138505358, 0.008, 0.988, 0.07200000000000001, 192.0, 0.0, 0.0, 0.0, 0.0, 0.0, 0.0, 0.0, 0.0, 0.0, 1.712437564996887E9, 0.0, 2024-04-06 17:06:04.996
34.0, 65475.81439922028, 35817.12821926215, -24191.561244912296, -58980.263350041314, -49791.103576553294, -51647.03597391081, -47578.45968943354, -32158.617038561948, 0.008, 0.988, 0.07200000000000001, 192.0, 0.0, 0.0, 0.0, 0.0, 0.0, 0.0, 0.0, 0.0, 0.0, 1.712437565000908E9, 0.0, 2024-04-06 17:06:05.000
35.0, 65530.53146964687, 36101.80003664494, -23373.0180112145, -58548.11472274241, -49974.23141887563, -51641.69390698599, -47315.558471150216, -31887.64684053026, 0.008, 0.988, 0.07200000000000001, 192.0, 0.0, 0.0, 0.0, 0.0, 0.0, 0.0, 0.0, 0.0, 0.0, 1.712437565004938E9, 0.0, 2024-04-06 17:06:05.004
36.0, 65694.74973616001, 36115.07697285139, -22417.592694472398, -58632.7384272502, -49996.873736008856, -51762.46038227801, -47260.3049588567, -31587.61937470667, 0.008, 0.988, 0.07200000000000001, 192.0, 0.0, 0.0, 0.0, 0.0, 0.0, 0.0, 0.0, 0.0, 0.0, 1.712437565009117E9, 0.0, 2024-04-06 17:06:05.009
37.0, 65625.57108707084, 35919.61096758973, -22996.614634587128, -58826.34923772207, -49886.23260095508, -51691.6500558436, -47404.47371059343, -31793.300127184408, 0.008, 0.988, 0.07200000000000001, 192.0, 0.0, 0.0, 0.0, 0.0, 0.0, 0.0, 0.0, 0.0, 0.0, 1.712437565012882E9, 0.0, 2024-04-06 17:06:05.012
38.0, 65482.07288766777, 35820.23511174144, -24093.48179024241, -58985.53836173277, -49787.482593951536, -51649.89699720109, -47575.41985218762, -32148.871677979434, 0.008, 0.986, 0.076, 192.0, 0.0, 64.0, 30.0, 208.0, 2.0, 96.0, 0.0, 0.0, 0.0, 1.712437565016872E9, 0.0, 2024-04-06 17:06:05.016
39.0, 65490.90182672761, 36032.46492534458, -23648.123281970416, -58638.88515697541, -49929.14795030927, -51637.80470345077, -47386.927591196014, -32004.390001820328, 0.008, 0.986, 0.076, 192.0, 0.0, 0.0, 0.0, 0.0, 0.0, 0.0, 0.0, 0.0, 0.0, 1.712437565021898E9, 0.0, 2024-04-06 17:06:05.021
40.0, 65661.69150611061, 36171.11279620085, -22452.439064078222, -58552.49566465565, -50002.84165177842, -51741.74031516795, -47236.410944033974, -31570.00620007589, 0.008, 0.986, 0.076, 192.0, 0.0, 0.0, 0.0, 0.0, 0.0, 0.0, 0.0, 0.0, 0.0, 1.712437565025924E9, 0.0, 2024-04-06 17:06:05.025
41.0, 65633.99769473048, 35949.51760167094, -22833.737472741304, -58803.99749326676, -49900.26949647302, -51714.247669487915, -47381.87609694911, -31705.79304764188, 0.008, 0.986, 0.076, 192.0, 0.0, 0.0, 0.0, 0.0, 0.0, 0.0, 0.0, 0.0, 0.0, 1.712437565028928E9, 0.0, 2024-04-06 17:06:05.028
42.0, 65530.39735918014, 35889.503167808434, -23985.634623245554, -58915.7562155433, -49686.78798518038, -51571.420022418504, -47551.771706553904, -32064.7173601052, 0.008, 0.986, 0.076, 192.0, 0.0, 0.0, 0.0, 0.0, 0.0, 0.0, 0.0, 0.0, 0.0, 1.712437565033024E9, 0.0, 2024-04-06 17:06:05.033
43.0, 65326.12476660309, 35913.39718263116, -23778.925690522872, -58767.02770793769, -50089.29819933155, -51772.96570217201, -47417.907109011074, -31878.795549725957, 0.008, 0.986, 0.076, 192.0, 0.0, 0.0, 0.0, 0.0, 0.0, 0.0, 0.0, 0.0, 0.0, 1.712437565037022E9, 0.0, 2024-04-06 17:06:05.037
44.0, 65626.53221208241, 36225.33812824942, -22587.19773139927, -58537.36353365941, -49976.80186948799, -51710.8055008418, -47293.51965111728, -31479.392228054076, 0.008, 0.986, 0.076, 192.0, 0.0, 0.0, 0.0, 0.0, 0.0, 0.0, 0.0, 0.0, 0.0, 1.712437565041076E9, 0.0, 2024-04-06 17:06:05.041
45.0, 65646.17939545863, 35993.34937254779, -22719.11772717449, -58761.86445496851, -49907.3326477209, -51715.499367177414, -47362.251265317354, -31571.63787742113, 0.008, 0.986, 0.076, 192.0, 0.0, 0.0, 0.0, 0.0, 0.0, 0.0, 0.0, 0.0, 0.0, 1.712437565044981E9, 0.0, 2024-04-06 17:06:05.044
46.0, 65475.99321317592, 35882.48472004947, -23764.665277560387, -58931.80476806221, -49819.93732690065, -51658.48006707193, -47537.64540405815, -31827.766517134492, 0.008, 0.986, 0.076, 192.0, 0.0, 0.0, 0.0, 0.0, 0.0, 0.0, 0.0, 0.0, 0.0, 1.712437565049971E9, 0.0, 2024-04-06 17:06:05.049
47.0, 65420.739700882405, 35934.51958114142, -24087.178598306014, -58812.558211393145, -49858.382327363775, -51634.96603190494, -47518.713476504505, -31974.48336773913, 0.01, 0.988, 0.08, 192.0, 0.0, 80.0, 30.0, 224.0, 2.0, 128.0, 0.0, 0.0, 0.0, 1.712437565052969E9, 0.0, 2024-04-06 17:06:05.052
48.0, 65575.61493821323, 36247.06402385998, -22697.10125888601, -58457.18782629822, -50016.76678857408, -51687.336169163726, -47237.9979178903, -31426.373890206087, 0.01, 0.988, 0.08, 192.0, 0.0, 0.0, 0.0, 0.0, 0.0, 0.0, 0.0, 0.0, 0.0, 1.712437565056044E9, 0.0, 2024-04-06 17:06:05.056
49.0, 65648.5933838598, 36025.64764328571, -22580.492208062675, -58732.20369007632, -49938.200406813674, -51737.448780232524, -47335.78679988227, -31447.205716038436, 0.01, 0.988, 0.08, 192.0, 0.0, 0.0, 0.0, 0.0, 0.0, 0.0, 0.0, 0.0, 0.0, 1.712437565061017E9, 0.0, 2024-04-06 17:06:05.061
50.0, 65491.57237906127, 35899.717915024514, -23548.6580191443, -58917.18672718844, -49853.420240094696, -51685.61508484067, -47532.10217143323, -31691.84555910177, 0.01, 0.988, 0.08, 192.0, 0.0, 0.0, 0.0, 0.0, 0.0, 0.0, 0.0, 0.0, 0.0, 1.712437565065043E9, 0.0, 2024-04-06 17:06:05.065
51.0, 65420.247962504385, 35890.95603119803, -24203.65353866262, -58887.36950008506, -49828.028658393465, -51644.64433725409, -47579.666683634125, -31989.41433303527, 0.01, 0.988, 0.08, 192.0, 0.0, 0.0, 0.0, 0.0, 0.0, 0.0, 0.0, 0.0, 0.0, 1.712437565069016E9, 0.0, 2024-04-06 17:06:05.069
52.0, 65541.32736221878, 36224.13113404884, -22909.91221784499, -58459.66886993276, -50015.85036705141, -51675.55679983578, -47274.43126135245, -31504.694402777484, 0.01, 0.988, 0.08, 192.0, 0.0, 0.0, 0.0, 0.0, 0.0, 0.0, 0.0, 0.0, 0.0, 1.712437565073236E9, 0.0, 2024-04-06 17:06:05.073
53.0, 65664.86545382327, 36062.77389082598, -22504.31746295899, -58705.1580792854, -49957.66877623425, -51760.739297954955, -47331.294099246756, -31448.144489305556, 0.01, 0.988, 0.08, 192.0, 0.0, 0.0, 0.0, 0.0, 0.0, 0.0, 0.0, 0.0, 0.0, 1.712437565077007E9, 0.0, 2024-04-06 17:06:05.077
54.0, 65537.54991740584, 35927.92581652711, -23354.62252552778, -58871.79033419971, -49870.69813855865, -51688.78903255332, -47502.12848211867, -31701.970899340024, 0.01, 0.988, 0.08, 192.0, 0.0, 0.0, 0.0, 0.0, 0.0, 0.0, 0.0, 0.0, 0.0, 1.712437565080992E9, 0.0, 2024-04-06 17:06:05.080
55.0, 65438.73285516893, 35867.486699519955, -24244.13254787118, -58950.423771193484, -49808.40382676171, -51660.84935198419, -47620.74918994298, -32079.134235278874, 0.01, 0.988, 0.08, 192.0, 0.0, 0.0, 0.0, 0.0, 0.0, 0.0, 0.0, 0.0, 0.0, 1.712437565083992E9, 0.0, 2024-04-06 17:06:05.083
56.0, 65514.08058572777, 36187.76484582006, -23162.933965079068, -58488.54732376902, -49996.20318367519, -51664.55974156377, -47313.41270368251, -31697.65701266015, 0.01, 0.988, 0.08, 192.0, 0.0, 0.0, 0.0, 0.0, 0.0, 0.0, 0.0, 0.0, 0.0, 1.712437565091204E9, 0.0, 2024-04-06 17:06:05.091
57.0, 65664.17254974516, 36107.87971113679, -22442.783110473527, -58666.1989886998, -49974.23141887563, -51777.43605106307, -47314.66440137201, -31511.735202280906, 0.012, 0.984, 0.076, 192.0, 0.0, 96.0, 30.0, 192.0, 2.0, 96.0, 0.0, 0.0, 0.0, 1.712437565095111E9, 0.0, 2024-04-06 17:06:05.095
58.0, 65672.84502659382, 36011.76720997896, -23232.626704290713, -58791.100536716054, -49701.96481966553, -51581.36654870112, -47482.458946998, -31838.33889226185, 0.012, 0.984, 0.076, 192.0, 0.0, 0.0, 0.0, 0.0, 0.0, 0.0, 0.0, 0.0, 0.0, 1.712437565098005E9, 0.0, 2024-04-06 17:06:05.098
59.0, 65323.55431599073, 35800.029134753844, -24053.047484522758, -58931.22362270637, -50026.82507357896, -51776.36316732922, -47519.04875267133, -32018.270435127073, 0.012, 0.984, 0.076, 192.0, 0.0, 0.0, 0.0, 0.0, 0.0, 0.0, 0.0, 0.0, 0.0, 1.712437565101183E9, 0.0, 2024-04-06 17:06:05.101
60.0, 65442.08561683722, 36074.79912934293, -23437.368683501325, -58722.41362600489, -50030.66957362528, -51779.403004575135, -47500.72032221798, -31793.993031262522, 0.012, 0.984, 0.076, 192.0, 0.0, 0.0, 0.0, 0.0, 0.0, 0.0, 0.0, 0.0, 0.0, 1.712437565105146E9, 0.0, 2024-04-06 17:06:05.105
61.0, 65692.02282333646, 36187.116645230846, -22502.775192591573, -58557.30128971354, -49931.36077301035, -51709.5538031523, -47318.79947409624, -31591.575633475262, 0.012, 0.984, 0.076, 192.0, 0.0, 0.0, 0.0, 0.0, 0.0, 0.0, 0.0, 0.0, 0.0, 1.712437565109207E9, 0.0, 2024-04-06 17:06:05.109
62.0, 65623.96176147005, 35977.56904096235, -22995.005308986343, -58782.96450173432, -49877.62717933979, -51701.90950654859, -47443.52220815685, -31747.76962372895, 0.012, 0.984, 0.076, 192.0, 0.0, 0.0, 0.0, 0.0, 0.0, 0.0, 0.0, 0.0, 0.0, 1.712437565112053E9, 0.0, 2024-04-06 17:06:05.112
63.0, 65477.66959401007, 35873.83459494526, -24085.47986572741, -58950.848454338135, -49796.04331207792, -51673.52279109035, -47625.688925467606, -32084.230433014684, 0.012, 0.984, 0.076, 192.0, 0.0, 0.0, 0.0, 0.0, 0.0, 0.0, 0.0, 0.0, 0.0, 1.712437565116088E9, 0.0, 2024-04-06 17:06:05.116
64.0, 65479.79300973332, 36064.785547826956, -23707.467163499256, -58650.75393328118, -49939.250938803074, -51674.193343424005, -47469.204362536, -31943.973236557635, 0.012, 0.984, 0.076, 192.0, 0.0, 0.0, 0.0, 0.0, 0.0, 0.0, 0.0, 0.0, 0.0, 1.712437565121095E9, 0.0, 2024-04-06 17:06:05.121
65.0, 65665.37954394575, 36236.201076054705, -22483.82091329347, -58516.419949104784, -50002.57343084496, -51747.55176872633, -47287.75290104782, -31488.04235315828, 0.012, 0.984, 0.076, 192.0, 0.0, 0.0, 0.0, 0.0, 0.0, 0.0, 0.0, 0.0, 0.0, 1.712437565125109E9, 0.0, 2024-04-06 17:06:05.125
66.0, 65649.17452921564, 36004.21232035307, -22831.077615151124, -58783.970330234806, -49907.69027563218, -51738.499312221924, -47435.92261504205, -31620.990529178445, 0.012, 0.984, 0.076, 192.0, 0.0, 0.0, 0.0, 0.0, 0.0, 0.0, 0.0, 0.0, 0.0, 1.712437565129154E9, 0.0, 2024-04-06 17:06:05.129
67.0, 65497.58499831975, 35896.96865045651, -23938.87477384505, -58952.94951831693, -49808.22501280606, -51681.882343516634, -47624.88426266721, -31929.310492194953, 0.01, 0.99, 0.07200000000000001, 192.0, 0.0, 80.0, 30.0, 240.0, 2.0, 64.0, 0.0, 0.0, 0.0, 1.712437565133121E9, 0.0, 2024-04-06 17:06:05.133
68.0, 65479.16716088857, 36018.763305993474, -23958.61136419909, -58728.5603557301, -49887.99838876705, -51646.74540123289, -47530.2693283879, -31972.270545038053, 0.01, 0.99, 0.07200000000000001, 192.0, 0.0, 0.0, 0.0, 0.0, 0.0, 0.0, 0.0, 0.0, 0.0, 1.712437565137205E9, 0.0, 2024-04-06 17:06:05.137
69.0, 65650.96266877206, 36266.73355898065, -22594.61851055843, -58484.63576848934, -50028.389695690836, -51732.17376854108, -47298.50409013082, -31454.47003298641, 0.01, 0.99, 0.07200000000000001, 192.0, 0.0, 0.0, 0.0, 0.0, 0.0, 0.0, 0.0, 0.0, 0.0, 1.712437565140256E9, 0.0, 2024-04-06 17:06:05.140
70.0, 65702.43873625263, 36030.877951488255, -22706.041956668134, -58756.81296072161, -49924.856415373855, -51742.366164012696, -47414.4425886205, -31551.72247311145, 0.01, 0.99, 0.07200000000000001, 192.0, 0.0, 0.0, 0.0, 0.0, 0.0, 0.0, 0.0, 0.0, 0.0, 1.712437565145143E9, 0.0, 2024-04-06 17:06:05.145
71.0, 65545.88711808767, 35913.128961697694, -23741.844146471518, -58941.393666433534, -49842.53494054496, -51696.88036404614, -47608.70159968157, -31817.663528640693, 0.01, 0.99, 0.07200000000000001, 192.0, 0.0, 0.0, 0.0, 0.0, 0.0, 0.0, 0.0, 0.0, 0.0, 1.712437565149117E9, 0.0, 2024-04-06 17:06:05.149
72.0, 65502.97176873348, 35964.26975301144, -24136.665360530063, -58815.75451085025, -49853.24142613905, -51644.82315120973, -47593.21184077404, -32020.259740383597, 0.01, 0.99, 0.07200000000000001, 192.0, 0.0, 0.0, 0.0, 0.0, 0.0, 0.0, 0.0, 0.0, 0.0, 1.712437565153101E9, 0.0, 2024-04-06 17:06:05.153
73.0, 65652.63904960621, 36280.97162019868, -22756.020457270202, -58443.35209648038, -50021.103026998404, -51701.23895421493, -47301.74509307684, -31484.37666706761, 0.01, 0.99, 0.07200000000000001, 192.0, 0.0, 0.0, 0.0, 0.0, 0.0, 0.0, 0.0, 0.0, 0.0, 1.712437565157161E9, 0.0, 2024-04-06 17:06:05.157
74.0, 65739.58733553736, 36070.48524266306, -22600.787592028093, -58728.314486541094, -49943.36365978285, -51773.43508880557, -47397.343504112185, -31492.66916426053, 0.01, 0.99, 0.07200000000000001, 192.0, 0.0, 0.0, 0.0, 0.0, 0.0, 0.0, 0.0, 0.0, 0.0, 1.712437565161198E9, 0.0, 2024-04-06 17:06:05.161
75.0, 65593.16105761065, 35954.54674417338, -23549.32857147796, -58887.302444851695, -49848.45815282562, -51697.17093672406, -47569.13901199568, -31735.409109045162, 0.01, 0.99, 0.07200000000000001, 192.0, 0.0, 0.0, 0.0, 0.0, 0.0, 0.0, 0.0, 0.0, 0.0, 1.712437565165137E9, 0.0, 2024-04-06 17:06:05.165
76.0, 65510.236085681456, 35921.01912749042, -24244.33371357128, -58899.864125235574, -49828.90037642722, -51674.28275040183, -47640.66459425266, -32027.635816053848, 0.01, 0.99, 0.07200000000000001, 192.0, 0.0, 0.0, 0.0, 0.0, 0.0, 0.0, 0.0, 0.0, 0.0, 1.712437565168269E9, 0.0, 2024-04-06 17:06:05.168
77.0, 65620.16196491265, 36251.31085530649, -22984.231768158887, -58461.14408506681, -50023.47231191067, -51698.28852394683, -47329.327145734685, -31545.95572304198, 0.008, 0.984, 0.07, 192.0, 0.0, 64.0, 30.0, 192.0, 2.0, 48.0, 0.0, 0.0, 0.0, 1.712437565172221E9, 0.0, 2024-04-06 17:06:05.172
78.0, 65736.65925701371, 36092.322896995895, -22525.46221321371, -58719.10556782551, -49983.149764913294, -51801.44182460807, -47386.435852817995, -31445.194059037458, 0.008, 0.984, 0.07, 192.0, 0.0, 0.0, 0.0, 0.0, 0.0, 0.0, 0.0, 0.0, 0.0, 1.712437565177123E9, 0.0, 2024-04-06 17:06:05.177
79.0, 65613.79171774289, 35963.487441955505, -23357.99763894053, -58860.92738639443, -49875.861391527826, -51698.89202104712, -47539.053563958834, -31684.60359389825, 0.008, 0.984, 0.07, 192.0, 0.0, 0.0, 0.0, 0.0, 0.0, 0.0, 0.0, 0.0, 0.0, 1.712437565181139E9, 0.0, 2024-04-06 17:06:05.181
80.0, 65499.64135880964, 35897.75096151244, -24276.475522098008, -58948.36741070359, -49812.82947216386, -51662.257511884876, -47656.579036304836, -32046.34422616294, 0.008, 0.984, 0.07, 192.0, 0.0, 0.0, 0.0, 0.0, 0.0, 0.0, 0.0, 0.0, 0.0, 1.712437565185188E9, 0.0, 2024-04-06 17:06:05.185
81.0, 65577.87246440322, 36218.78906712402, -23243.780224773913, -58495.63282676135, -49995.42087261926, -51659.26237812786, -47361.692471705974, -31675.104102504745, 0.008, 0.984, 0.07, 192.0, 0.0, 0.0, 0.0, 0.0, 0.0, 0.0, 0.0, 0.0, 0.0, 1.712437565191177E9, 0.0, 2024-04-06 17:06:05.191
82.0, 65738.89443145924, 36171.179851434215, -22471.907433498793, -58628.9386306928, -49979.394671844806, -51757.49829500894, -47333.50692194783, -31467.836376170682, 0.008, 0.984, 0.07, 192.0, 0.0, 0.0, 0.0, 0.0, 0.0, 0.0, 0.0, 0.0, 0.0, 1.71243756519414E9, 0.0, 2024-04-06 17:06:05.194
83.0, 65692.3580995033, 36026.407602597195, -23194.78520092788, -58809.563077636136, -49807.822681405865, -51646.32071808824, -47506.64353449864, -31734.0903561223, 0.008, 0.984, 0.07, 192.0, 0.0, 0.0, 0.0, 0.0, 0.0, 0.0, 0.0, 0.0, 0.0, 1.712437565198152E9, 0.0, 2024-04-06 17:06:05.198
84.0, 65457.016582133365, 35878.41670255861, -24138.229982641937, -58924.31693366968, -49910.55129892246, -51703.31766644927, -47582.34889296877, -32021.556141562003, 0.008, 0.984, 0.07, 192.0, 0.0, 0.0, 0.0, 0.0, 0.0, 0.0, 0.0, 0.0, 0.0, 1.712437565201216E9, 0.0, 2024-04-06 17:06:05.201
85.0, 65520.070853241785, 36122.184827588186, -23507.24023666862, -58669.887026534925, -50012.94464027222, -51737.046448832334, -47486.92929588906, -31780.961964245078, 0.008, 0.984, 0.07, 192.0, 0.0, 0.0, 0.0, 0.0, 0.0, 0.0, 0.0, 0.0, 0.0, 1.712437565205254E9, 0.0, 2024-04-06 17:06:05.205
86.0, 65745.17527165118, 36227.70741316169, -22506.954968804715, -58554.90965305682, -49964.910741437765, -51731.927899352064, -47327.74017187836, -31512.316347636744, 0.008, 0.984, 0.07, 192.0, 0.0, 0.0, 0.0, 0.0, 0.0, 0.0, 0.0, 0.0, 0.0, 1.712437565209239E9, 0.0, 2024-04-06 17:06:05.209
87.0, 65677.47183769607, 36011.47663730105, -22987.58452982718, -58789.33474890408, -49891.01587426852, -51710.64903863061, -47463.348205488706, -31669.225593713, 0.012, 0.988, 0.07, 192.0, 0.0, 96.0, 30.0, 224.0, 2.0, 48.0, 0.0, 0.0, 0.0, 1.712437565213203E9, 0.0, 2024-04-06 17:06:05.213
88.0, 65525.65878935561, 35908.09981919525, -24091.62659545262, -58956.95048057443, -49793.651675421206, -51662.61513979616, -47642.00569891998, -32005.842865209925, 0.012, 0.988, 0.07, 192.0, 0.0, 0.0, 0.0, 0.0, 0.0, 0.0, 0.0, 0.0, 0.0, 1.712437565219203E9, 0.0, 2024-04-06 17:06:05.219
89.0, 65523.93770503256, 36093.84281561885, -23780.736181823755, -58648.60816581347, -49917.435636214694, -51649.04763091179, -47478.27917078485, -31916.435887388696, 0.012, 0.988, 0.07, 192.0, 0.0, 0.0, 0.0, 0.0, 0.0, 0.0, 0.0, 0.0, 0.0, 1.712437565222324E9, 0.0, 2024-04-06 17:06:05.222
90.0, 65754.40654211123, 36311.057068235525, -22561.023838642104, -58495.610475016896, -49920.47547346062, -51682.88817201712, -47309.948183291934, -31504.694402777484, 0.012, 0.988, 0.07, 192.0, 0.0, 0.0, 0.0, 0.0, 0.0, 0.0, 0.0, 0.0, 0.0, 1.71243756522523E9, 0.0, 2024-04-06 17:06:05.225
91.0, 65636.65755232067, 36028.30750087589, -22758.389742182466, -58732.650724965424, -50011.49177688263, -51756.44776301954, -47365.51462000783, -31553.465909178965, 0.012, 0.988, 0.07, 192.0, 0.0, 0.0, 0.0, 0.0, 0.0, 0.0, 0.0, 0.0, 0.0, 1.712437565229238E9, 0.0, 2024-04-06 17:06:05.229
92.0, 65490.946530216526, 35908.90448199564, -23911.896218287497, -59042.222385671426, -49846.73706850256, -51735.83945463174, -47687.826775053356, -31859.52834600548, 0.012, 0.988, 0.07, 192.0, 0.0, 0.0, 0.0, 0.0, 0.0, 0.0, 0.0, 0.0, 0.0, 1.712437565233196E9, 0.0, 2024-04-06 17:06:05.233
93.0, 65501.09422219923, 36060.04697800243, -24044.88909779657, -58718.546774214126, -49836.6117282643, -51603.96416234543, -47548.95538675254, -32020.840885739435, 0.012, 0.988, 0.07, 192.0, 0.0, 0.0, 0.0, 0.0, 0.0, 0.0, 0.0, 0.0, 0.0, 1.712437565237757E9, 0.0, 2024-04-06 17:06:05.237
94.0, 65645.86647103625, 36318.23197820568, -22644.1946797603, -58453.41038148527, -50005.9038407688, -51706.782186839846, -47284.40013937952, -31488.3329258362, 0.012, 0.988, 0.07, 192.0, 0.0, 0.0, 0.0, 0.0, 0.0, 0.0, 0.0, 0.0, 0.0, 1.712437565241233E9, 0.0, 2024-04-06 17:06:05.241
95.0, 65687.61952967878, 36081.95168756863, -22706.243122368232, -58746.777027461176, -49919.06731355993, -51737.20291104352, -47410.46397810745, -31564.284153495333, 0.012, 0.988, 0.07, 192.0, 0.0, 0.0, 0.0, 0.0, 0.0, 0.0, 0.0, 0.0, 0.0, 1.712437565244209E9, 0.0, 2024-04-06 17:06:05.244
96.0, 65532.69958885904, 35975.490328728, -23731.562344022077, -58906.01085496078, -49818.32800129986, -51663.218636896454, -47591.02136981743, -31826.380708978264, 0.012, 0.988, 0.07, 192.0, 0.0, 0.0, 0.0, 0.0, 0.0, 0.0, 0.0, 0.0, 0.0, 1.712437565248214E9, 0.0, 2024-04-06 17:06:05.248
97.0, 65465.51024502638, 35999.74197146201, -24165.074427732758, -58815.50864166125, -49846.89353071374, -51638.69877322898, -47585.209916259046, -32019.119801416375, 0.01, 0.99, 0.07200000000000001, 192.0, 0.0, 80.0, 30.0, 240.0, 2.0, 64.0, 0.0, 0.0, 0.0, 1.712437565252209E9, 0.0, 2024-04-06 17:06:05.252
98.0, 65609.16490664064, 36318.74606832815, -22802.087402592588, -58457.65721293178, -50025.08163751145, -51704.9046403056, -47311.93748854846, -31475.771245452317, 0.01, 0.99, 0.07200000000000001, 192.0, 0.0, 0.0, 0.0, 0.0, 0.0, 0.0, 0.0, 0.0, 0.0, 1.712437565256315E9, 0.0, 2024-04-06 17:06:05.256
99.0, 65703.98100662006, 36122.34128979937, -22596.65251930386, -58715.01519859019, -49942.9389766382, -51751.172751328086, -47390.19094588649, -31466.070588358714, 0.01, 0.99, 0.07200000000000001, 192.0, 0.0, 0.0, 0.0, 0.0, 0.0, 0.0, 0.0, 0.0, 0.0, 1.712437565261261E9, 0.0, 2024-04-06 17:06:05.261
100.0, 65556.45949321502, 36004.25702384198, -23519.444289141215, -58865.30832830767, -49840.83620796636, -51670.147677677596, -47552.46461063202, -31691.107951534745, 0.01, 0.99, 0.07200000000000001, 192.0, 0.0, 0.0, 0.0, 0.0, 0.0, 0.0, 0.0, 0.0, 0.0, 1.712437565265262E9, 0.0, 2024-04-06 17:06:05.265
101.0, 65471.12053288466, 35974.037465338406, -24259.28703061188, -58893.22565713235, -49816.76337918799, -51653.83090422522, -47632.6403179932, -31989.9507749022, 0.01, 0.99, 0.07200000000000001, 192.0, 0.0, 0.0, 0.0, 0.0, 0.0, 0.0, 0.0, 0.0, 0.0, 1.712437565269344E9, 0.0, 2024-04-06 17:06:05.269
102.0, 65582.20870282754, 36306.67612632229, -23043.75446364337, -58463.4016112568, -50011.02239024906, -51688.319645919764, -47340.70418366244, -31529.370728656144, 0.01, 0.99, 0.07200000000000001, 192.0, 0.0, 0.0, 0.0, 0.0, 0.0, 0.0, 0.0, 0.0, 0.0, 1.712437565272347E9, 0.0, 2024-04-06 17:06:05.272
103.0, 65719.94015216114, 36176.834842781405, -22534.335855762467, -58683.14161099692, -49955.947691911184, -51775.40204231764, -47373.80711720075, -31418.148448246535, 0.01, 0.99, 0.07200000000000001, 192.0, 0.0, 0.0, 0.0, 0.0, 0.0, 0.0, 0.0, 0.0, 0.0, 1.712437565276273E9, 0.0, 2024-04-06 17:06:05.276
104.0, 65590.12122036472, 36029.84977124331, -23324.402967024205, -58830.99840056877, -49866.49601060105, -51688.23023894194, -47513.751389235425, -31630.490020571953, 0.01, 0.99, 0.07200000000000001, 192.0, 0.0, 0.0, 0.0, 0.0, 0.0, 0.0, 0.0, 0.0, 0.0, 1.712437565280327E9, 0.0, 2024-04-06 17:06:05.280
105.0, 65478.72012599947, 35943.05794752335, -24280.007097721948, -58964.550073689235, -49808.76145467299, -51678.9989684819, -47668.15723993269, -31987.04504812301, 0.01, 0.99, 0.07200000000000001, 192.0, 0.0, 0.0, 0.0, 0.0, 0.0, 0.0, 0.0, 0.0, 0.0, 1.712437565284264E9, 0.0, 2024-04-06 17:06:05.284
106.0, 65564.61787994122, 36260.54212576654, -23317.317464031872, -58506.20520188871, -49978.36649159986, -51671.01939571135, -47382.323131838224, -31651.07597721529, 0.01, 0.99, 0.07200000000000001, 192.0, 0.0, 0.0, 0.0, 0.0, 0.0, 0.0, 0.0, 0.0, 0.0, 1.712437565289336E9, 0.0, 2024-04-06 17:06:05.289
107.0, 65790.86223731784, 36266.84531770293, -22539.610867453917, -58591.521810474616, -49871.5698565924, -51698.46733790247, -47345.66627093152, -31462.94134413497, 0.012, 0.988, 0.076, 192.0, 0.0, 96.0, 30.0, 224.0, 2.0, 96.0, 0.0, 0.0, 0.0, 1.712437565293245E9, 0.0, 2024-04-06 17:06:05.293
108.0, 65551.09507454575, 35998.80319819489, -23042.301600253773, -58813.899316060466, -50039.34205047394, -51796.0774059388, -47436.41435342006, -31513.90332149307, 0.012, 0.988, 0.076, 192.0, 0.0, 0.0, 0.0, 0.0, 0.0, 0.0, 0.0, 0.0, 0.0, 1.712437565297285E9, 0.0, 2024-04-06 17:06:05.297
109.0, 65502.23416116645, 35940.17457248862, -24234.40953903312, -59024.40804534055, -49776.59729440181, -51681.27884641634, -47728.48459821756, -31960.871155365847, 0.012, 0.988, 0.076, 192.0, 0.0, 0.0, 0.0, 0.0, 0.0, 0.0, 0.0, 0.0, 0.0, 1.712437565300316E9, 0.0, 2024-04-06 17:06:05.300
110.0, 65557.68883916007, 36219.19139852421, -23608.940673940262, -58544.22551920718, -49916.742732136576, -51620.8844328981, -47444.1480570016, -31789.634441093738, 0.012, 0.988, 0.076, 192.0, 0.0, 0.0, 0.0, 0.0, 0.0, 0.0, 0.0, 0.0, 0.0, 1.712437565304351E9, 0.0, 2024-04-06 17:06:05.304
111.0, 65725.0587016414, 36308.24074843416, -22494.795619821027, -58521.314981140495, -49987.75422427109, -51731.81614062979, -47308.1153402466, -31412.26993945479, 0.012, 0.988, 0.076, 192.0, 0.0, 0.0, 0.0, 0.0, 0.0, 0.0, 0.0, 0.0, 0.0, 1.712437565308471E9, 0.0, 2024-04-06 17:06:05.308
112.0, 65674.58846266133, 36091.138254539765, -22972.988840697868, -58788.999472737254, -49905.276287231005, -51716.10286427771, -47485.096452843725, -31576.465854223476, 0.012, 0.988, 0.076, 192.0, 0.0, 0.0, 0.0, 0.0, 0.0, 0.0, 0.0, 0.0, 0.0, 1.712437565312325E9, 0.0, 2024-04-06 17:06:05.312
113.0, 65540.18742325157, 35998.13264586123, -24084.317575015735, -58933.659962852, -49791.99764633151, -51644.42081980954, -47657.74132701651, -31932.216218974143, 0.012, 0.988, 0.076, 192.0, 0.0, 0.0, 0.0, 0.0, 0.0, 0.0, 0.0, 0.0, 0.0, 1.712437565316309E9, 0.0, 2024-04-06 17:06:05.316
114.0, 65536.63349588317, 36167.31299964345, -23836.324970284102, -58636.806444741065, -49907.82438609891, -51624.840691666686, -47504.47541528648, -31885.344610851364, 0.012, 0.988, 0.076, 192.0, 0.0, 0.0, 0.0, 0.0, 0.0, 0.0, 0.0, 0.0, 0.0, 1.712437565321353E9, 0.0, 2024-04-06 17:06:05.321
115.0, 65707.98196887756, 36357.74986240266, -22548.909193147327, -58478.06435561948, -50012.162329216284, -51720.28264049085, -47312.3174682042, -31425.010433794312, 0.012, 0.988, 0.076, 192.0, 0.0, 0.0, 0.0, 0.0, 0.0, 0.0, 0.0, 0.0, 0.0, 1.712437565325369E9, 0.0, 2024-04-06 17:06:05.325
116.0, 65715.46980327008, 36128.21979859112, -22825.556734270664, -58752.00733566372, -49911.847700100865, -51709.352637452204, -47456.03918505182, -31574.789473389326, 0.012, 0.988, 0.076, 192.0, 0.0, 0.0, 0.0, 0.0, 0.0, 0.0, 0.0, 0.0, 0.0, 1.712437565328314E9, 0.0, 2024-04-06 17:06:05.328
117.0, 65564.43906598557, 36027.27932063095, -23916.45597415638, -58917.72316905537, -49807.30859128339, -51647.974747177934, -47642.944472187104, -31896.945166223668, 0.01, 0.99, 0.078, 192.0, 0.0, 80.0, 30.0, 240.0, 2.0, 112.0, 0.0, 0.0, 0.0, 1.712437565332335E9, 0.0, 2024-04-06 17:06:05.332
118.0, 65529.01155102391, 36113.24412980606, -24057.89781306956, -58729.45442550832, -49883.59509510936, -51629.19928183548, -47568.289645706376, -32004.546464031515, 0.01, 0.99, 0.078, 192.0, 0.0, 0.0, 0.0, 0.0, 0.0, 0.0, 0.0, 0.0, 0.0, 1.712437565336299E9, 0.0, 2024-04-06 17:06:05.336
119.0, 65695.59910244931, 36389.06465638455, -22684.472523268763, -58462.462837989675, -50026.5568526455, -51717.22045150047, -47333.64103241456, -31477.67114373102, 0.01, 0.99, 0.078, 192.0, 0.0, 0.0, 0.0, 0.0, 0.0, 0.0, 0.0, 0.0, 0.0, 1.712437565340455E9, 0.0, 2024-04-06 17:06:05.340
120.0, 65759.1674636802, 36167.93884848819, -22718.35776786301, -58729.63323946396, -49928.58915669789, -51730.02800107336, -47442.53873140082, -31562.361903472174, 0.01, 0.99, 0.078, 192.0, 0.0, 0.0, 0.0, 0.0, 0.0, 0.0, 0.0, 0.0, 0.0, 1.712437565344355E9, 0.0, 2024-04-06 17:06:05.344
121.0, 65610.79658398588, 36057.67769309017, -23725.728538719242, -58888.352976841095, -49831.42612355067, -51661.45284908448, -47617.73170444152, -31823.653796154715, 0.01, 0.99, 0.078, 192.0, 0.0, 0.0, 0.0, 0.0, 0.0, 0.0, 0.0, 0.0, 0.0, 1.712437565349329E9, 0.0, 2024-04-06 17:06:05.349
122.0, 65551.54210943486, 36070.2617252185, -24218.204524303022, -58826.23747899979, -49835.47178929708, -51634.65310748257, -47633.512036026965, -32042.499726116628, 0.01, 0.99, 0.078, 192.0, 0.0, 0.0, 0.0, 0.0, 0.0, 0.0, 0.0, 0.0, 0.0, 1.71243756535573E9, 0.0, 2024-04-06 17:06:05.355
123.0, 65687.19484653411, 36397.84889195549, -22873.56828136066, -58433.85260508688, -50015.179814717754, -51681.79293653881, -47342.268805774314, -31515.04326046029, 0.01, 0.99, 0.078, 192.0, 0.0, 0.0, 0.0, 0.0, 0.0, 0.0, 0.0, 0.0, 0.0, 1.712437565356326E9, 0.0, 2024-04-06 17:06:05.356
124.0, 65792.76213559654, 36203.969860550154, -22619.697167837283, -58702.63233216195, -49943.34130803839, -51744.48957973595, -47430.93817602852, -31489.115236892136, 0.01, 0.99, 0.078, 192.0, 0.0, 0.0, 0.0, 0.0, 0.0, 0.0, 0.0, 0.0, 0.0, 1.712437565360364E9, 0.0, 2024-04-06 17:06:05.360
125.0, 65644.81593904685, 36077.19076599965, -23521.701815331202, -58850.26560428925, -49864.28318789997, -51663.37509910764, -47595.11173905274, -31714.756097168458, 0.01, 0.99, 0.078, 192.0, 0.0, 0.0, 0.0, 0.0, 0.0, 0.0, 0.0, 0.0, 0.0, 1.71243756536435E9, 0.0, 2024-04-06 17:06:05.364
126.0, 65549.68691464508, 36026.407602597195, -24309.46669691404, -58918.99721848932, -49830.57675726137, -51654.479104814425, -47698.48855715854, -32013.397754835816, 0.01, 0.99, 0.078, 192.0, 0.0, 0.0, 0.0, 0.0, 0.0, 0.0, 0.0, 0.0, 0.0, 1.712437565368393E9, 0.0, 2024-04-06 17:06:05.368
127.0, 65659.43397992062, 36372.524365487625, -23123.796060537825, -58447.80009362699, -49997.968971487164, -51652.690965258, -47372.264846833335, -31553.10828126768, 0.01, 0.99, 0.076, 192.0, 0.0, 80.0, 30.0, 240.0, 2.0, 96.0, 0.0, 0.0, 0.0, 1.712437565372423E9, 0.0, 2024-04-06 17:06:05.372
128.0, 65794.77379259751, 36251.98140764015, -22553.245431571657, -58649.1446076804, -49961.915607680756, -51741.27092853438, -47386.90523945156, -31397.763657303294, 0.01, 0.99, 0.076, 192.0, 0.0, 0.0, 0.0, 0.0, 0.0, 0.0, 0.0, 0.0, 0.0, 1.712437565377371E9, 0.0, 2024-04-06 17:06:05.377
129.0, 65682.74684938752, 36106.71742042511, -23326.504031003005, -58809.25015321376, -49862.47269659909, -51655.440229826, -47541.69106980456, -31593.92256664307, 0.01, 0.99, 0.076, 192.0, 0.0, 0.0, 0.0, 0.0, 0.0, 0.0, 0.0, 0.0, 0.0, 1.7124375653814E9, 0.0, 2024-04-06 17:06:05.381
130.0, 65561.06395257282, 36027.74870726451, -24294.24515893998, -58919.37719814506, -49794.23282077704, -51629.22163357993, -47673.40989987968, -31937.826506832425, 0.01, 0.99, 0.076, 192.0, 0.0, 0.0, 0.0, 0.0, 0.0, 0.0, 0.0, 0.0, 0.0, 1.712437565384467E9, 0.0, 2024-04-06 17:06:05.384
131.0, 65626.50986033796, 36333.54292315757, -23375.543758337946, -58482.71351846618, -49968.01763391705, -51631.14388360309, -47403.937268726506, -31593.810807920792, 0.01, 0.99, 0.076, 192.0, 0.0, 0.0, 0.0, 0.0, 0.0, 0.0, 0.0, 0.0, 0.0, 1.712437565388461E9, 0.0, 2024-04-06 17:06:05.388
132.0, 65784.38023142579, 36322.90349279684, -22505.6138641374, -58566.68902238477, -49977.11479391036, -51727.6587161611, -47346.06860233171, -31321.097173821592, 0.01, 0.99, 0.076, 192.0, 0.0, 0.0, 0.0, 0.0, 0.0, 0.0, 0.0, 0.0, 0.0, 1.71243756539242E9, 0.0, 2024-04-06 17:06:05.392
133.0, 65694.21329429309, 36128.66683348022, -23131.015673996888, -58794.050966984156, -49892.80401382494, -51685.458622629485, -47523.22852888448, -31504.694402777484, 0.01, 0.99, 0.076, 192.0, 0.0, 0.0, 0.0, 0.0, 0.0, 0.0, 0.0, 0.0, 0.0, 1.712437565396454E9, 0.0, 2024-04-06 17:06:05.396
134.0, 65563.09796131826, 36036.89057074673, -24213.354195756223, -58923.08758772464, -49792.10940505379, -51628.64048822409, -47685.99393200802, -31879.779026481992, 0.01, 0.99, 0.076, 192.0, 0.0, 0.0, 0.0, 0.0, 0.0, 0.0, 0.0, 0.0, 0.0, 1.712437565400454E9, 0.0, 2024-04-06 17:06:05.400
135.0, 65593.71985122202, 36281.843338232444, -23643.92115401282, -58543.95729827372, -49935.898177134775, -51615.899993884566, -47469.87491486966, -31699.378096983208, 0.01, 0.99, 0.076, 192.0, 0.0, 0.0, 0.0, 0.0, 0.0, 0.0, 0.0, 0.0, 0.0, 1.712437565406487E9, 0.0, 2024-04-06 17:06:05.406
136.0, 65767.90699576223, 36386.78477845011, -22519.98603582216, -58508.84270773443, -49993.99036097412, -51720.684971891045, -47342.64878543005, -31323.980548856325, 0.01, 0.99, 0.076, 192.0, 0.0, 0.0, 0.0, 0.0, 0.0, 0.0, 0.0, 0.0, 0.0, 1.712437565409479E9, 0.0, 2024-04-06 17:06:05.409
137.0, 65787.46477216063, 36204.43924718371, -23010.428012660508, -58732.49426275424, -49811.51071924099, -51624.08073235521, -47506.53177577636, -31555.835194091225, 0.006, 0.99, 0.078, 192.0, 0.0, 48.0, 30.0, 240.0, 2.0, 112.0, 0.0, 0.0, 0.0, 1.712437565413435E9, 0.0, 2024-04-06 17:06:05.413
138.0, 65511.64424558214, 36039.41631787018, -23998.241007118348, -58902.32281712566, -49930.712572421144, -51699.27200070286, -47619.85512016477, -31796.451723152608, 0.006, 0.99, 0.078, 192.0, 0.0, 0.0, 0.0, 0.0, 0.0, 0.0, 0.0, 0.0, 0.0, 1.712437565416406E9, 0.0, 2024-04-06 17:06:05.416
139.0, 65555.85599611474, 36213.4470001992, -23909.906913030973, -58712.042416577635, -49918.59792692637, -51645.60546226567, -47595.17879428611, -31824.123182788277, 0.006, 0.99, 0.078, 192.0, 0.0, 0.0, 0.0, 0.0, 0.0, 0.0, 0.0, 0.0, 0.0, 1.71243756542047E9, 0.0, 2024-04-06 17:06:05.420
140.0, 65765.20243468315, 36449.97316002526, -22627.162650485356, -58452.76218089607, -49991.263448150574, -51678.55193359279, -47349.5778262112, -31402.88220678356, 0.006, 0.99, 0.078, 192.0, 0.0, 0.0, 0.0, 0.0, 0.0, 0.0, 0.0, 0.0, 0.0, 1.712437565424495E9, 0.0, 2024-04-06 17:06:05.424
141.0, 65778.56877786742, 36213.8493315994, -22848.601382804085, -58719.306733525606, -49909.0313802995, -51678.08254695923, -47471.35013000371, -31547.118013753658, 0.006, 0.99, 0.078, 192.0, 0.0, 0.0, 0.0, 0.0, 0.0, 0.0, 0.0, 0.0, 0.0, 1.712437565428456E9, 0.0, 2024-04-06 17:06:05.428
142.0, 65610.95304619707, 36096.927356353684, -23914.22079971085, -58892.13042165404, -49818.88679491125, -51620.66091545355, -47657.540161316414, -31855.996770381546, 0.006, 0.99, 0.078, 192.0, 0.0, 0.0, 0.0, 0.0, 0.0, 0.0, 0.0, 0.0, 0.0, 1.712437565432504E9, 0.0, 2024-04-06 17:06:05.432
143.0, 65566.16015030863, 36164.92136298673, -24121.10854638917, -58738.41747503489, -49875.995501994556, -51602.399540233564, -47609.79683515988, -31995.09167612692, 0.006, 0.99, 0.078, 192.0, 0.0, 0.0, 0.0, 0.0, 0.0, 0.0, 0.0, 0.0, 0.0, 1.712437565437565E9, 0.0, 2024-04-06 17:06:05.437
144.0, 65723.7175969741, 36460.679645619355, -22737.20028843883, -58423.34728519288, -50024.63460262235, -51671.399375367095, -47343.43109648599, -31477.00059139736, 0.006, 0.99, 0.078, 192.0, 0.0, 0.0, 0.0, 0.0, 0.0, 0.0, 0.0, 0.0, 0.0, 1.712437565440452E9, 0.0, 2024-04-06 17:06:05.440
145.0, 65788.91763555023, 36242.7054336912, -22718.938913218848, -58713.04824507812, -49933.26067128905, -51709.06206477428, -47460.10720254269, -31544.10052825219, 0.006, 0.99, 0.078, 192.0, 0.0, 0.0, 0.0, 0.0, 0.0, 0.0, 0.0, 0.0, 0.0, 1.712437565444487E9, 0.0, 2024-04-06 17:06:05.444
146.0, 65629.52734583942, 36135.75233647256, -23709.545875733602, -58858.87102590454, -49840.97031843309, -51632.55204350377, -47627.16414060166, -31810.108639014798, 0.006, 0.99, 0.078, 192.0, 0.0, 0.0, 0.0, 0.0, 0.0, 0.0, 0.0, 0.0, 0.0, 1.712437565448457E9, 0.0, 2024-04-06 17:06:05.448
147.0, 65549.12812103369, 36129.29268232497, -24264.360876603234, -58846.84578738759, -49854.42606859518, -51632.99907839287, -47681.38947265023, -32051.48512738766, 0.012, 0.99, 0.082, 192.0, 0.0, 96.0, 30.0, 240.0, 2.0, 144.0, 0.0, 0.0, 0.0, 1.712437565452556E9, 0.0, 2024-04-06 17:06:05.452
148.0, 65682.85860810979, 36471.52024168018, -22943.417482783498, -58418.765177579546, -50024.92517530027, -51656.714279259955, -47376.62343700212, -31550.515478910864, 0.012, 0.99, 0.082, 192.0, 0.0, 0.0, 0.0, 0.0, 0.0, 0.0, 0.0, 0.0, 0.0, 1.712437565456495E9, 0.0, 2024-04-06 17:06:05.456
149.0, 65791.19751348466, 36293.33213488247, -22628.414348174854, -58674.51383763717, -49955.16538085525, -51722.651925403115, -47443.52220815685, -31502.213359142945, 0.012, 0.99, 0.082, 192.0, 0.0, 0.0, 0.0, 0.0, 0.0, 0.0, 0.0, 0.0, 0.0, 1.71243756546056E9, 0.0, 2024-04-06 17:06:05.460
150.0, 65655.81299731886, 36167.000075221076, -23508.98367273613, -58825.65633364396, -49853.53199881697, -51637.17885460602, -47597.05634082036, -31717.170085569633, 0.012, 0.99, 0.082, 192.0, 0.0, 0.0, 0.0, 0.0, 0.0, 0.0, 0.0, 0.0, 0.0, 1.712437565465607E9, 0.0, 2024-04-06 17:06:05.465
151.0, 65556.34773449275, 36112.68533619468, -24326.90105758918, -58881.625101760044, -49811.443664007624, -51611.74256941588, -47686.19509770812, -32026.85350499791, 0.012, 0.99, 0.082, 192.0, 0.0, 0.0, 0.0, 0.0, 0.0, 0.0, 0.0, 0.0, 0.0, 1.712437565468593E9, 0.0, 2024-04-06 17:06:05.468
152.0, 65648.61573560425, 36442.79825005511, -23183.944604867054, -58435.64074464331, -49999.377131387846, -51628.08169461271, -47389.296876108274, -31570.877918109647, 0.012, 0.99, 0.082, 192.0, 0.0, 0.0, 0.0, 0.0, 0.0, 0.0, 0.0, 0.0, 0.0, 1.712437565472584E9, 0.0, 2024-04-06 17:06:05.472
153.0, 65782.79325756947, 36340.851943594454, -22563.61664099892, -58612.063063629044, -49970.69984325169, -51712.86186133169, -47387.62049527413, -31386.699543797917, 0.012, 0.99, 0.082, 192.0, 0.0, 0.0, 0.0, 0.0, 0.0, 0.0, 0.0, 0.0, 0.0, 1.712437565476559E9, 0.0, 2024-04-06 17:06:05.476
154.0, 65665.58070964583, 36181.171081205735, -23312.51183897398, -58808.9819322803, -49883.460984642625, -51655.194360637, -47559.818334557815, -31560.1490807711, 0.012, 0.99, 0.082, 192.0, 0.0, 0.0, 0.0, 0.0, 0.0, 0.0, 0.0, 0.0, 0.0, 1.712437565480589E9, 0.0, 2024-04-06 17:06:05.480
155.0, 65562.8744438737, 36114.78640017348, -24313.37825219372, -58907.17314567246, -49791.327093997854, -51602.176022789004, -47692.654751855705, -31912.949015253667, 0.012, 0.99, 0.082, 192.0, 0.0, 0.0, 0.0, 0.0, 0.0, 0.0, 0.0, 0.0, 0.0, 1.712437565484677E9, 0.0, 2024-04-06 17:06:05.484
156.0, 65624.43114810361, 36407.3930868379, -23452.009076119553, -58479.517219009074, -49971.348043840895, -51605.7299501574, -47430.53584462832, -31583.39489500462, 0.012, 0.99, 0.082, 192.0, 0.0, 0.0, 0.0, 0.0, 0.0, 0.0, 0.0, 0.0, 0.0, 1.712437565488604E9, 0.0, 2024-04-06 17:06:05.488
157.0, 65791.75630709605, 36410.79055199511, -22544.371789022898, -58558.84356008095, -49987.016616704066, -51711.252535730906, -47369.09089912068, -31286.004935026758, 0.01, 0.986, 0.084, 192.0, 0.0, 80.0, 30.0, 208.0, 2.0, 160.0, 0.0, 0.0, 0.0, 1.712437565493562E9, 0.0, 2024-04-06 17:06:05.493
158.0, 65719.60487599431, 36222.4994567036, -23138.347046178227, -58766.51361781522, -49896.469699915615, -51655.6413955261, -47525.776627752384, -31477.380571053098, 0.01, 0.986, 0.084, 192.0, 0.0, 0.0, 0.0, 0.0, 0.0, 0.0, 0.0, 0.0, 0.0, 1.712437565497626E9, 0.0, 2024-04-06 17:06:05.497
159.0, 65590.14357210917, 36127.43748753518, -24224.395957517143, -58923.42286389147, -49795.26100102199, -51613.083674083195, -47703.629458383264, -31848.754805178025, 0.01, 0.986, 0.084, 192.0, 0.0, 0.0, 0.0, 0.0, 0.0, 0.0, 0.0, 0.0, 0.0, 1.712437565500674E9, 0.0, 2024-04-06 17:06:05.500
160.0, 65682.2998144984, 36400.285232101116, -23767.101617706016, -58509.42385309027, -49824.92176591418, -51507.76225420979, -47488.225697067464, -31763.885231481225, 0.01, 0.986, 0.084, 192.0, 0.0, 0.0, 0.0, 0.0, 0.0, 0.0, 0.0, 0.0, 0.0, 1.712437565504671E9, 0.0, 2024-04-06 17:06:05.504
161.0, 65687.5524744454, 36405.98492693721, -22445.085340152425, -58537.9670307597, -50199.4475960073, -51836.62347038072, -47315.31260196121, -31187.03141057866, 0.01, 0.986, 0.084, 192.0, 0.0, 0.0, 0.0, 0.0, 0.0, 0.0, 0.0, 0.0, 0.0, 1.712437565508626E9, 0.0, 2024-04-06 17:06:05.508
162.0, 65799.08767927739, 36260.76564321109, -23015.948893540968, -58792.709862316835, -49868.55237109094, -51660.156447906076, -47566.63561661668, -31495.396077084075, 0.01, 0.986, 0.084, 192.0, 0.0, 0.0, 0.0, 0.0, 0.0, 0.0, 0.0, 0.0, 0.0, 1.712437565512556E9, 0.0, 2024-04-06 17:06:05.512
163.0, 65642.44665413459, 36163.893182741784, -24101.2378455684, -58900.55702931369, -49791.77412888696, -51596.811604119735, -47693.280600700455, -31857.024950626488, 0.01, 0.986, 0.084, 192.0, 0.0, 0.0, 0.0, 0.0, 0.0, 0.0, 0.0, 0.0, 0.0, 1.712437565516578E9, 0.0, 2024-04-06 17:06:05.516
164.0, 65624.40879635916, 36297.53426284007, -23981.79012319924, -58652.78794202661, -49896.201478982155, -51588.25088599335, -47571.642407374675, -31870.413645555218, 0.01, 0.986, 0.084, 192.0, 0.0, 0.0, 0.0, 0.0, 0.0, 0.0, 0.0, 0.0, 0.0, 1.712437565521619E9, 0.0, 2024-04-06 17:06:05.521
165.0, 65800.40643220025, 36517.63189049147, -22649.737912385215, -58445.65432615928, -50010.7541693156, -51674.43921261302, -47352.48355299039, -31387.191282175936, 0.01, 0.986, 0.084, 192.0, 0.0, 0.0, 0.0, 0.0, 0.0, 0.0, 0.0, 0.0, 0.0, 1.712437565524631E9, 0.0, 2024-04-06 17:06:05.524
166.0, 65824.8368888899, 36281.88804172135, -22843.683999023917, -58726.48164349576, -49905.96919130912, -51678.50723010388, -47481.6095807087, -31519.021870973334, 0.01, 0.986, 0.084, 192.0, 0.0, 0.0, 0.0, 0.0, 0.0, 0.0, 0.0, 0.0, 0.0, 1.712437565528691E9, 0.0, 2024-04-06 17:06:05.528
167.0, 65662.74203810001, 36181.238136439104, -23904.318976917148, -58879.50168603679, -49811.533070985446, -51614.46948223942, -47655.12617291525, -31830.135802046756, 0.008, 0.992, 0.08, 192.0, 0.0, 64.0, 31.0, 0.0, 2.0, 128.0, 0.0, 0.0, 0.0, 1.7124375655336E9, 0.0, 2024-04-06 17:06:05.533
168.0, 65606.41564207264, 36227.953282350696, -24179.60306162871, -58774.113210930016, -49880.86818228581, -51619.96801137543, -47645.872550710745, -31985.927460900246, 0.008, 0.992, 0.08, 192.0, 0.0, 0.0, 0.0, 0.0, 0.0, 0.0, 0.0, 0.0, 0.0, 1.712437565536634E9, 0.0, 2024-04-06 17:06:05.536
169.0, 65836.75036868457, 36577.5345656317, -22851.395350860996, -58385.0810986854, -49914.03817105749, -51578.706691110936, -47368.42034678702, -31534.19870545849, 0.008, 0.992, 0.08, 192.0, 0.0, 0.0, 0.0, 0.0, 0.0, 0.0, 0.0, 0.0, 0.0, 1.712437565540579E9, 0.0, 2024-04-06 17:06:05.540
170.0, 65756.12762643429, 36268.700512492724, -22626.581505129518, -58700.218343760775, -50093.34386507796, -51792.18820240357, -47404.74193152689, -31427.98321580687, 0.008, 0.992, 0.08, 192.0, 0.0, 0.0, 0.0, 0.0, 0.0, 0.0, 0.0, 0.0, 0.0, 1.712437565544603E9, 0.0, 2024-04-06 17:06:05.544
171.0, 65686.54664594491, 36185.999058008085, -23723.985102651728, -58917.09732021062, -49822.28426006845, -51637.7376482174, -47693.39235942273, -31762.9464582141, 0.008, 0.992, 0.08, 192.0, 0.0, 0.0, 0.0, 0.0, 0.0, 0.0, 0.0, 0.0, 0.0, 1.7124375655507E9, 0.0, 2024-04-06 17:06:05.550
172.0, 65614.12699390973, 36191.18466272172, -24325.202325010578, -58817.6320573845, -49810.72840818506, -51579.600760889145, -47679.82485053836, -32053.34032217745, 0.008, 0.992, 0.08, 192.0, 0.0, 0.0, 0.0, 0.0, 0.0, 0.0, 0.0, 0.0, 0.0, 1.712437565553625E9, 0.0, 2024-04-06 17:06:05.553
173.0, 65779.93223427919, 36558.893210755974, -23043.0392078208, -58386.42220335272, -49920.31901124943, -51576.35975794313, -47383.574829527715, -31577.96342110198, 0.008, 0.992, 0.08, 192.0, 0.0, 0.0, 0.0, 0.0, 0.0, 0.0, 0.0, 0.0, 0.0, 1.712437565557668E9, 0.0, 2024-04-06 17:06:05.557
174.0, 65792.69508036316, 36335.599283647454, -22561.783797953583, -58611.34780780647, -50050.51792270159, -51743.17082681308, -47355.90336989205, -31411.398221421034, 0.008, 0.992, 0.08, 192.0, 0.0, 0.0, 0.0, 0.0, 0.0, 0.0, 0.0, 0.0, 0.0, 1.71243756556063E9, 0.0, 2024-04-06 17:06:05.560
175.0, 65681.67396565365, 36187.83190105342, -23488.040088181508, -58920.89711676802, -49903.75636860805, -51705.5528408948, -47660.87057124026, -31623.181000135068, 0.008, 0.992, 0.08, 192.0, 0.0, 0.0, 0.0, 0.0, 0.0, 0.0, 0.0, 0.0, 0.0, 1.712437565564596E9, 0.0, 2024-04-06 17:06:05.564
176.0, 65639.60798258877, 36188.12247373134, -24385.01559317298, -58867.9458341534, -49770.763489098965, -51563.39574615905, -47710.625554397775, -32025.04301369703, 0.008, 0.992, 0.08, 192.0, 0.0, 0.0, 0.0, 0.0, 0.0, 0.0, 0.0, 0.0, 0.0, 1.712437565568623E9, 0.0, 2024-04-06 17:06:05.568
177.0, 65726.42215805319, 36513.720335211794, -23248.630553320712, -58417.647590356784, -49975.3490060984, -51590.374301716605, -47394.95186745547, -31574.968287344967, 0.002, 0.988, 0.082, 192.0, 0.0, 16.0, 30.0, 224.0, 2.0, 144.0, 0.0, 0.0, 0.0, 1.712437565572661E9, 0.0, 2024-04-06 17:06:05.572
178.0, 65868.98158418912, 36430.86241851597, -22569.048114901558, -58586.760888905636, -49958.965177412654, -51686.97854125244, -47388.22399237442, -31365.465386565375, 0.002, 0.988, 0.082, 192.0, 0.0, 0.0, 0.0, 0.0, 0.0, 0.0, 0.0, 0.0, 0.0, 1.712437565577691E9, 0.0, 2024-04-06 17:06:05.577
179.0, 65760.91089974772, 36273.260268361606, -23298.31848124486, -58770.268710883705, -49871.01106298102, -51616.32467702922, -47551.36937515371, -31552.86241207867, 0.002, 0.988, 0.082, 192.0, 0.0, 0.0, 0.0, 0.0, 0.0, 0.0, 0.0, 0.0, 0.0, 1.712437565580669E9, 0.0, 2024-04-06 17:06:05.580
180.0, 65640.77027330044, 36184.14386321829, -24320.642569141695, -58903.5521630707, -49788.8013468744, -51586.68626388148, -47709.709132875105, -31907.02580297301, 0.002, 0.988, 0.082, 192.0, 0.0, 0.0, 0.0, 0.0, 0.0, 0.0, 0.0, 0.0, 0.0, 1.712437565584658E9, 0.0, 2024-04-06 17:06:05.584
181.0, 65688.69241341263, 36464.14416600992, -23510.391832636815, -58472.63288171684, -49952.93020640972, -51580.651292878545, -47442.158751745075, -31601.365697546687, 0.002, 0.988, 0.082, 192.0, 0.0, 0.0, 0.0, 0.0, 0.0, 0.0, 0.0, 0.0, 0.0, 1.712437565588664E9, 0.0, 2024-04-06 17:06:05.588
182.0, 65848.08270312342, 36480.036256317646, -22549.75855943663, -58551.40042917734, -49985.8990294813, -51708.704436863, -47380.60204751516, -31267.832966784594, 0.002, 0.988, 0.082, 192.0, 0.0, 0.0, 0.0, 0.0, 0.0, 0.0, 0.0, 0.0, 0.0, 1.712437565592603E9, 0.0, 2024-04-06 17:06:05.592
183.0, 65783.84378955887, 36289.37587611388, -23124.824240782767, -58748.7663327177, -49882.58926660887, -51640.19634010748, -47530.0681626878, -31467.143472092568, 0.002, 0.988, 0.082, 192.0, 0.0, 0.0, 0.0, 0.0, 0.0, 0.0, 0.0, 0.0, 0.0, 1.712437565596652E9, 0.0, 2024-04-06 17:06:05.596
184.0, 65635.85288952028, 36190.469406899145, -24217.37750975818, -58908.491898595326, -49789.2036782746, -51598.80090937626, -47704.72469386157, -31826.336005489353, 0.002, 0.988, 0.082, 192.0, 0.0, 0.0, 0.0, 0.0, 0.0, 0.0, 0.0, 0.0, 0.0, 1.712437565602636E9, 0.0, 2024-04-06 17:06:05.602
185.0, 65649.33099142683, 36405.4931885592, -23778.70217307832, -58556.51897865761, -49916.16158678074, -51578.974912044396, -47509.79513046684, -31700.51803595043, 0.002, 0.988, 0.082, 192.0, 0.0, 0.0, 0.0, 0.0, 0.0, 0.0, 0.0, 0.0, 0.0, 1.712437565605716E9, 0.0, 2024-04-06 17:06:05.605
186.0, 65870.45679932318, 36574.49472838578, -22621.462955649255, -58444.15675928078, -49900.35890345084, -51617.017581107335, -47357.24447455937, -31332.809487916173, 0.002, 0.988, 0.082, 192.0, 0.0, 0.0, 0.0, 0.0, 0.0, 0.0, 0.0, 0.0, 0.0, 1.712437565608754E9, 0.0, 2024-04-06 17:06:05.608
187.0, 65727.94207667615, 36282.60329754392, -22881.70431634239, -58694.38453845794, -50013.88341353934, -51708.01153278488, -47435.028545263835, -31397.808360792205, 0.004, 0.99, 0.08, 192.0, 0.0, 32.0, 30.0, 240.0, 2.0, 128.0, 0.0, 0.0, 0.0, 1.712437565612732E9, 0.0, 2024-04-06 17:06:05.612
188.0, 65614.95400845457, 36190.02237201004, -24061.116464271126, -58956.83872185215, -49814.52820474246, -51634.004906893366, -47739.72752567858, -31765.114577426266, 0.004, 0.99, 0.08, 192.0, 0.0, 0.0, 0.0, 0.0, 0.0, 0.0, 0.0, 0.0, 0.0, 1.712437565617703E9, 0.0, 2024-04-06 17:06:05.617
189.0, 65615.0881189213, 36344.33881572948, -24047.23603096438, -58649.546939080596, -49860.50574308703, -51556.51140886681, -47597.86100362075, -31858.58957273836, 0.004, 0.99, 0.08, 192.0, 0.0, 0.0, 0.0, 0.0, 0.0, 0.0, 0.0, 0.0, 0.0, 1.712437565620704E9, 0.0, 2024-04-06 17:06:05.620
190.0, 65836.99623787358, 36624.2944150322, -22728.0137214677, -58370.35129908935, -49887.663112600225, -51561.920531024996, -47350.04721284476, -31429.056099540725, 0.004, 0.99, 0.08, 192.0, 0.0, 0.0, 0.0, 0.0, 0.0, 0.0, 0.0, 0.0, 0.0, 1.712437565624717E9, 0.0, 2024-04-06 17:06:05.624
191.0, 65703.9586548756, 36289.30882088051, -22724.72801503277, -58690.87531457846, -50064.08543158596, -51750.90453039462, -47418.84588227819, -31399.417686392986, 0.004, 0.99, 0.08, 192.0, 0.0, 0.0, 0.0, 0.0, 0.0, 0.0, 0.0, 0.0, 0.0, 1.712437565628717E9, 0.0, 2024-04-06 17:06:05.628
192.0, 65683.61856742128, 36253.43427102974, -23941.445224457413, -58896.77958450074, -49707.79862496837, -51545.04496396124, -47729.40101974023, -31827.11831654529, 0.004, 0.99, 0.08, 192.0, 0.0, 0.0, 0.0, 0.0, 0.0, 0.0, 0.0, 0.0, 0.0, 1.712437565632696E9, 0.0, 2024-04-06 17:06:05.632
193.0, 65516.516925873395, 36255.84825943092, -24146.857756001682, -58706.90151535291, -49952.37141279834, -51615.475310739916, -47577.52091616642, -31930.584541628905, 0.004, 0.99, 0.08, 192.0, 0.0, 0.0, 0.0, 0.0, 0.0, 0.0, 0.0, 0.0, 0.0, 1.712437565635772E9, 0.0, 2024-04-06 17:06:05.635
194.0, 65712.67583521317, 36579.14389123248, -22832.41871981844, -58441.47454994614, -50015.26922169557, -51650.23227336792, -47397.768187256836, -31443.830602625683, 0.004, 0.99, 0.08, 192.0, 0.0, 0.0, 0.0, 0.0, 0.0, 0.0, 0.0, 0.0, 0.0, 1.712437565639832E9, 0.0, 2024-04-06 17:06:05.639
195.0, 65815.13623179629, 36381.10743535846, -22737.73673030576, -58665.84136078851, -49904.56103140843, -51657.2954246158, -47468.10912705769, -31522.53109485282, 0.004, 0.99, 0.08, 192.0, 0.0, 0.0, 0.0, 0.0, 0.0, 0.0, 0.0, 0.0, 0.0, 1.712437565643743E9, 0.0, 2024-04-06 17:06:05.643
196.0, 65661.37858168824, 36266.241820602634, -23680.30979398606, -58808.60195262456, -49811.35425702981, -51580.04779577826, -47614.46834975104, -31774.72582754205, 0.004, 0.99, 0.08, 192.0, 0.0, 0.0, 0.0, 0.0, 0.0, 0.0, 0.0, 0.0, 0.0, 1.712437565648776E9, 0.0, 2024-04-06 17:06:05.648
197.0, 65583.50510400595, 36252.71901520718, -24311.187781237102, -58806.0315020122, -49803.911126126186, -51557.74075481186, -47660.26707413996, -32038.00702548111, 0.012, 0.998, 0.08, 192.0, 0.0, 96.0, 31.0, 48.0, 2.0, 128.0, 0.0, 0.0, 0.0, 1.712437565652768E9, 0.0, 2024-04-06 17:06:05.652
198.0, 65702.30462578591, 36589.783321593204, -23018.564047642238, -58381.12483991681, -49993.52097434056, -51591.93892382848, -47356.886846648085, -31520.072402962734, 0.012, 0.998, 0.08, 192.0, 0.0, 0.0, 0.0, 0.0, 0.0, 0.0, 0.0, 0.0, 0.0, 1.71243756565683E9, 0.0, 2024-04-06 17:06:05.656
199.0, 65830.44717674819, 36438.88669477543, -22602.441621117785, -58616.91339217585, -49922.04009557248, -51660.290558372806, -47402.01501870335, -31412.560512132706, 0.012, 0.998, 0.08, 192.0, 0.0, 0.0, 0.0, 0.0, 0.0, 0.0, 0.0, 0.0, 0.0, 1.712437565659838E9, 0.0, 2024-04-06 17:06:05.659
200.0, 65696.85080013881, 36304.46330362121, -23443.180137059706, -58775.27550164169, -49825.70407697011, -51580.04779577826, -47558.85720954624, -31605.97015690448, 0.012, 0.998, 0.08, 192.0, 0.0, 0.0, 0.0, 0.0, 0.0, 0.0, 0.0, 0.0, 0.0, 1.712437565663827E9, 0.0, 2024-04-06 17:06:05.663
201.0, 65583.16982783913, 36235.39641325431, -24325.224676755035, -58847.15871180996, -49779.05598629189, -51552.33163265367, -47661.36230961828, -31919.31926242343, 0.012, 0.998, 0.08, 192.0, 0.0, 0.0, 0.0, 0.0, 0.0, 0.0, 0.0, 0.0, 0.0, 1.712437565667787E9, 0.0, 2024-04-06 17:06:05.667
202.0, 65672.01801204897, 36550.444251351866, -23263.762684316956, -58427.32589570593, -49957.80288670098, -51582.55119115725, -47374.56707651223, -31486.120103135123, 0.012, 0.998, 0.08, 192.0, 0.0, 0.0, 0.0, 0.0, 0.0, 0.0, 0.0, 0.0, 0.0, 1.712437565672873E9, 0.0, 2024-04-06 17:06:05.672
203.0, 65836.45979600666, 36495.52601522518, -22546.584611723974, -58562.1739700048, -49920.944860094176, -51661.00581419538, -47330.422381213, -31272.862109287038, 0.012, 0.998, 0.08, 192.0, 0.0, 0.0, 0.0, 0.0, 0.0, 0.0, 0.0, 0.0, 0.0, 1.712437565677767E9, 0.0, 2024-04-06 17:06:05.677
204.0, 65732.9712191786, 36330.81601033402, -23243.377893373716, -58746.06177163861, -49829.839149694344, -51588.005016804345, -47469.96432184748, -31460.683817944984, 0.012, 0.998, 0.08, 192.0, 0.0, 0.0, 0.0, 0.0, 0.0, 0.0, 0.0, 0.0, 0.0, 1.712437565681827E9, 0.0, 2024-04-06 17:06:05.681
205.0, 65659.2998694539, 36277.84237597494, -24330.25381925748, -58862.492008506306, -49651.29341498535, -51485.14228882102, -47624.280765566924, -31870.07836938839, 0.012, 0.998, 0.08, 192.0, 0.0, 0.0, 0.0, 0.0, 0.0, 0.0, 0.0, 0.0, 0.0, 1.712437565684819E9, 0.0, 2024-04-06 17:06:05.684
206.0, 65570.20581605504, 36472.213145758295, -23452.277297053017, -58469.9506723822, -50053.5130564586, -51626.20414807846, -47297.92294477498, -31473.580774495695, 0.012, 0.998, 0.08, 192.0, 0.0, 0.0, 0.0, 0.0, 0.0, 0.0, 0.0, 0.0, 0.0, 1.712437565688827E9, 0.0, 2024-04-06 17:06:05.688
207.0, 65818.42193823123, 36537.167315145416, -22563.147254365358, -58586.44796448326, -49933.14891256677, -51676.495573102904, -47325.99673581085, -31213.629986480475, 0.012, 0.992, 0.08, 192.0, 0.0, 96.0, 31.0, 0.0, 2.0, 128.0, 0.0, 0.0, 0.0, 1.712437565692872E9, 0.0, 2024-04-06 17:06:05.692
208.0, 65841.33247629792, 36394.27261284264, -23152.29453471834, -58668.3000526786, -49712.29132560389, -51484.404681254, -47401.43387334751, -31509.85765574666, 0.012, 0.992, 0.08, 192.0, 0.0, 0.0, 0.0, 0.0, 0.0, 0.0, 0.0, 0.0, 0.0, 1.712437565695878E9, 0.0, 2024-04-06 17:06:05.695
209.0, 65584.19800808406, 36215.21278801117, -24123.835459212718, -58899.819421746666, -49819.512643755996, -51600.27612451031, -47537.55599708033, -31745.780318472425, 0.012, 0.992, 0.08, 192.0, 0.0, 0.0, 0.0, 0.0, 0.0, 0.0, 0.0, 0.0, 0.0, 1.712437565699801E9, 0.0, 2024-04-06 17:06:05.699
210.0, 65560.14753105016, 36375.519499244634, -23756.976277467762, -58632.492558061196, -49998.57246858746, -51633.13318885961, -47400.38334135811, -31626.176133892077, 0.012, 0.992, 0.08, 192.0, 0.0, 0.0, 0.0, 0.0, 0.0, 0.0, 0.0, 0.0, 0.0, 1.712437565704844E9, 0.0, 2024-04-06 17:06:05.704
211.0, 65845.84752867788, 36595.34890596258, -22647.592144917508, -58493.68822499373, -49898.77192959451, -51613.441301994484, -47282.85786901211, -31320.918359865947, 0.012, 0.992, 0.08, 192.0, 0.0, 0.0, 0.0, 0.0, 0.0, 0.0, 0.0, 0.0, 0.0, 1.712437565708832E9, 0.0, 2024-04-06 17:06:05.708
212.0, 65831.20713605966, 36372.85964165445, -22959.287221346764, -58702.07353855056, -49831.1131991283, -51591.35777847264, -47368.66621597603, -31500.492274819884, 0.012, 0.992, 0.08, 192.0, 0.0, 0.0, 0.0, 0.0, 0.0, 0.0, 0.0, 0.0, 0.0, 1.712437565712847E9, 0.0, 2024-04-06 17:06:05.712
213.0, 65669.46991318106, 36264.99012291314, -24032.148603457048, -58884.776697728244, -49755.29608193589, -51548.68829830746, -47553.13516296568, -31825.508990944505, 0.012, 0.992, 0.08, 192.0, 0.0, 0.0, 0.0, 0.0, 0.0, 0.0, 0.0, 0.0, 0.0, 1.712437565715831E9, 0.0, 2024-04-06 17:06:05.715
214.0, 65654.58365137383, 36388.55056626208, -24054.477996167898, -58676.57019812706, -49827.44751303763, -51520.81567297169, -47461.738879887926, -31896.006392956544, 0.012, 0.992, 0.08, 192.0, 0.0, 0.0, 0.0, 0.0, 0.0, 0.0, 0.0, 0.0, 0.0, 1.712437565719813E9, 0.0, 2024-04-06 17:06:05.719
215.0, 65824.94864761218, 36646.17677285395, -22681.58914823403, -58402.24723842707, -49965.15661062677, -51583.19939174645, -47201.16224302796, -31390.476988610866, 0.012, 0.992, 0.08, 192.0, 0.0, 0.0, 0.0, 0.0, 0.0, 0.0, 0.0, 0.0, 0.0, 1.712437565723848E9, 0.0, 2024-04-06 17:06:05.723
216.0, 65859.48209279563, 36399.3911623229, -22792.69966992136, -58715.99867534622, -49884.33270267638, -51626.53942424529, -47351.701241934454, -31489.651678759063, 0.012, 0.992, 0.08, 192.0, 0.0, 0.0, 0.0, 0.0, 0.0, 0.0, 0.0, 0.0, 0.0, 1.712437565727777E9, 0.0, 2024-04-06 17:06:05.727
217.0, 65711.62530322377, 36299.41180937431, -23834.268609794213, -58854.11010433557, -49766.13667799672, -51534.807865000716, -47523.76497075141, -31788.740371315525, 0.012, 0.984, 0.082, 192.0, 0.0, 96.0, 30.0, 192.0, 2.0, 144.0, 0.0, 0.0, 0.0, 1.71243756573283E9, 0.0, 2024-04-06 17:06:05.732
218.0, 65645.79941580289, 36333.60997839093, -24218.137469069658, -58759.986908434264, -49805.60985870479, -51513.84192870164, -47521.46274107251, -31986.352144044897, 0.012, 0.984, 0.082, 192.0, 0.0, 0.0, 0.0, 0.0, 0.0, 0.0, 0.0, 0.0, 0.0, 1.712437565736854E9, 0.0, 2024-04-06 17:06:05.736
219.0, 65793.58915014139, 36659.29724684921, -22848.37786535953, -58389.50674408755, -49964.66487224876, -51556.958443755924, -47234.44399052191, -31461.42142551201, 0.012, 0.984, 0.082, 192.0, 0.0, 0.0, 0.0, 0.0, 0.0, 0.0, 0.0, 0.0, 0.0, 1.712437565740844E9, 0.0, 2024-04-06 17:06:05.740
220.0, 65881.72207852866, 36451.53778213713, -22680.851540667005, -58666.93659626682, -49886.16554572172, -51611.87667988261, -47328.9695178234, -31466.60703022564, 0.012, 0.984, 0.082, 192.0, 0.0, 0.0, 0.0, 0.0, 0.0, 0.0, 0.0, 0.0, 0.0, 1.712437565743799E9, 0.0, 2024-04-06 17:06:05.743
221.0, 65730.5125272885, 36335.465173180724, -23620.965912457217, -58824.40463595446, -49800.29014352443, -51540.798132514734, -47509.72807523347, -31700.339221994785, 0.012, 0.984, 0.082, 192.0, 0.0, 0.0, 0.0, 0.0, 0.0, 0.0, 0.0, 0.0, 0.0, 1.712437565747889E9, 0.0, 2024-04-06 17:06:05.747
222.0, 65634.06474996386, 36308.24074843416, -24312.35007194878, -58826.63981039999, -49784.8003846169, -51517.57467002567, -47571.620055630214, -31975.600954961894, 0.012, 0.984, 0.082, 192.0, 0.0, 0.0, 0.0, 0.0, 0.0, 0.0, 0.0, 0.0, 0.0, 1.7124375657519E9, 0.0, 2024-04-06 17:06:05.751
223.0, 65740.57081229339, 36637.21372332737, -23062.99931561939, -58414.38423566631, -49963.94961642619, -51557.49488562285, -47283.059034712205, -31468.41752152652, 0.012, 0.984, 0.082, 192.0, 0.0, 0.0, 0.0, 0.0, 0.0, 0.0, 0.0, 0.0, 0.0, 1.712437565755986E9, 0.0, 2024-04-06 17:06:05.755
224.0, 65872.62491853535, 36502.052724606125, -22600.631129816906, -58619.57324976603, -49900.940048806675, -51625.91357540055, -47314.48558741636, -31355.898839938505, 0.012, 0.984, 0.082, 192.0, 0.0, 0.0, 0.0, 0.0, 0.0, 0.0, 0.0, 0.0, 0.0, 1.71243756576089E9, 0.0, 2024-04-06 17:06:05.760
225.0, 65747.29868737444, 36365.26004853965, -23409.652520376745, -58780.326995888594, -49807.93444012814, -51552.890426265054, -47478.0556533403, -31545.598095130696, 0.012, 0.984, 0.082, 192.0, 0.0, 0.0, 0.0, 0.0, 0.0, 0.0, 0.0, 0.0, 0.0, 1.712437565764861E9, 0.0, 2024-04-06 17:06:05.764
226.0, 65631.22607841803, 36288.03477144656, -24326.230505255524, -58875.38896505701, -49745.12603820873, -51526.73888525234, -47605.17002405763, -31865.853889686336, 0.012, 0.984, 0.082, 192.0, 0.0, 0.0, 0.0, 0.0, 0.0, 0.0, 0.0, 0.0, 0.0, 1.712437565768902E9, 0.0, 2024-04-06 17:06:05.768
227.0, 65704.76331767598, 36599.59573740909, -23317.965664621075, -58435.41722719875, -49929.12559856482, -51532.75150451082, -47321.59344215315, -31465.198870324955, 0.01, 0.982, 0.08600000000000001, 192.0, 0.0, 80.0, 30.0, 176.0, 2.0, 176.0, 0.0, 0.0, 0.0, 1.712437565771945E9, 0.0, 2024-04-06 17:06:05.771
228.0, 65864.3994765758, 36551.4277281079, -22548.5739169805, -58572.858103854436, -49920.92250834972, -51640.4869127854, -47298.16881396399, -31221.341338317558, 0.01, 0.982, 0.08600000000000001, 192.0, 0.0, 0.0, 0.0, 0.0, 0.0, 0.0, 0.0, 0.0, 0.0, 1.712437565776004E9, 0.0, 2024-04-06 17:06:05.776
229.0, 65760.79914102545, 36374.02193236613, -23222.613122774736, -58755.9188909434, -49836.05293465292, -51572.53760964127, -47450.6524146381, -31412.538160388252, 0.01, 0.982, 0.08600000000000001, 192.0, 0.0, 0.0, 0.0, 0.0, 0.0, 0.0, 0.0, 0.0, 0.0, 1.712437565779935E9, 0.0, 2024-04-06 17:06:05.779
230.0, 65617.41270034465, 36271.159204382806, -24279.64946981066, -58924.58515460315, -49757.195980214594, -51550.945824497445, -47640.083448896825, -31769.786092017424, 0.01, 0.982, 0.08600000000000001, 192.0, 0.0, 0.0, 0.0, 0.0, 0.0, 0.0, 0.0, 0.0, 0.0, 1.712437565783962E9, 0.0, 2024-04-06 17:06:05.783
231.0, 65663.92668055615, 36544.342225115564, -23602.34690932595, -58501.71250125319, -49898.5260604055, -51515.71947523588, -47393.20843138795, -31549.95668529948, 0.01, 0.982, 0.08600000000000001, 192.0, 0.0, 0.0, 0.0, 0.0, 0.0, 0.0, 0.0, 0.0, 0.0, 1.712437565788045E9, 0.0, 2024-04-06 17:06:05.788
232.0, 65838.71732219665, 36609.497560202784, -22549.579745480987, -58507.18867864474, -49938.066296346944, -51620.280935797804, -47279.750976532814, -31202.588224719555, 0.01, 0.982, 0.08600000000000001, 192.0, 0.0, 0.0, 0.0, 0.0, 0.0, 0.0, 0.0, 0.0, 0.0, 1.712437565792954E9, 0.0, 2024-04-06 17:06:05.792
233.0, 65791.64454837376, 36405.76140949266, -23062.105245841176, -58736.67403896738, -49846.066516168896, -51576.046833520755, -47436.32494644224, -31399.909424771005, 0.01, 0.982, 0.08600000000000001, 192.0, 0.0, 0.0, 0.0, 0.0, 0.0, 0.0, 0.0, 0.0, 0.0, 1.712437565796947E9, 0.0, 2024-04-06 17:06:05.796
234.0, 65643.0948547238, 36306.586719344465, -24168.4048376566, -58904.84856424911, -49756.77129706994, -51533.69027777795, -47620.10098935378, -31768.735560028024, 0.01, 0.982, 0.08600000000000001, 192.0, 0.0, 0.0, 0.0, 0.0, 0.0, 0.0, 0.0, 0.0, 0.0, 1.71243756579992E9, 0.0, 2024-04-06 17:06:05.799
235.0, 65643.72070356854, 36495.011925102706, -23867.77387473272, -58597.71324368873, -49875.81668803891, -51512.41141705649, -47459.503705442396, -31715.873684391223, 0.01, 0.982, 0.08600000000000001, 192.0, 0.0, 0.0, 0.0, 0.0, 0.0, 0.0, 0.0, 0.0, 0.0, 1.712437565803989E9, 0.0, 2024-04-06 17:06:05.803
236.0, 65815.24799051858, 36674.69759877892, -22606.71080430875, -58443.35209648038, -49969.31403509546, -51595.135223285586, -47263.97064494737, -31281.176958224412, 0.01, 0.982, 0.08600000000000001, 192.0, 0.0, 0.0, 0.0, 0.0, 0.0, 0.0, 0.0, 0.0, 0.0, 1.712437565807958E9, 0.0, 2024-04-06 17:06:05.807
237.0, 65812.11874629483, 36439.78076455364, -22913.82377312467, -58733.25422206572, -49882.45515614214, -51600.521993699316, -47429.26179519437, -31439.002625823337, 0.008, 0.978, 0.084, 192.0, 0.0, 64.0, 30.0, 144.0, 2.0, 160.0, 0.0, 0.0, 0.0, 1.712437565811936E9, 0.0, 2024-04-06 17:06:05.811
238.0, 65661.91502355516, 36347.356301230946, -24003.35955659861, -58882.116840138064, -49780.37473921475, -51527.72236200838, -47610.19916656008, -31782.1019032123, 0.008, 0.978, 0.084, 192.0, 0.0, 0.0, 0.0, 0.0, 0.0, 0.0, 0.0, 0.0, 0.0, 1.712437565816029E9, 0.0, 2024-04-06 17:06:05.816
239.0, 65633.72947379702, 36455.38228218345, -24089.994918107383, -58684.52741915315, -49839.87508295478, -51496.49697500432, -47529.554072565326, -31879.220232870608, 0.008, 0.978, 0.084, 192.0, 0.0, 0.0, 0.0, 0.0, 0.0, 0.0, 0.0, 0.0, 0.0, 1.712437565821008E9, 0.0, 2024-04-06 17:06:05.821
240.0, 65797.41129844324, 36729.347613972146, -22721.866991742492, -58402.18018319371, -49969.47049730665, -51561.83112404718, -47273.06780494068, -31372.707351768895, 0.008, 0.978, 0.084, 192.0, 0.0, 0.0, 0.0, 0.0, 0.0, 0.0, 0.0, 0.0, 0.0, 1.71243756582501E9, 0.0, 2024-04-06 17:06:05.825
241.0, 65844.46172052166, 36492.486177979255, -22788.743411152773, -58689.444802933314, -49881.091699730365, -51589.83785984968, -47397.25409713437, -31463.2766203018, 0.008, 0.978, 0.084, 192.0, 0.0, 0.0, 0.0, 0.0, 0.0, 0.0, 0.0, 0.0, 0.0, 1.712437565827983E9, 0.0, 2024-04-06 17:06:05.827
242.0, 65694.74973616001, 36390.62927849642, -23805.792487358154, -58839.91674660645, -49776.26201823497, -51512.6572862455, -47575.50925916544, -31740.1923823586, 0.008, 0.978, 0.084, 192.0, 0.0, 0.0, 0.0, 0.0, 0.0, 0.0, 0.0, 0.0, 0.0, 1.712437565831953E9, 0.0, 2024-04-06 17:06:05.831
243.0, 65632.94716274108, 36416.132618919924, -24240.668027480606, -58745.12299837149, -49790.209506775085, -51480.113146318574, -47569.51899165142, -31946.253114492076, 0.008, 0.978, 0.084, 192.0, 0.0, 0.0, 0.0, 0.0, 0.0, 0.0, 0.0, 0.0, 0.0, 1.712437565836016E9, 0.0, 2024-04-06 17:06:05.836
244.0, 65767.68347831767, 36720.85395107912, -22883.425400665452, -58384.567008562924, -49966.20714261617, -51544.217949416394, -47294.54783136223, -31409.58773012015, 0.008, 0.978, 0.084, 192.0, 0.0, 0.0, 0.0, 0.0, 0.0, 0.0, 0.0, 0.0, 0.0, 1.712437565840128E9, 0.0, 2024-04-06 17:06:05.840
245.0, 65869.83095047843, 36523.19747486085, -22672.67080219636, -58637.49934881918, -49881.04699624145, -51589.43552844948, -47373.76241371184, -31400.088238726647, 0.008, 0.978, 0.084, 192.0, 0.0, 0.0, 0.0, 0.0, 0.0, 0.0, 0.0, 0.0, 0.0, 1.712437565843956E9, 0.0, 2024-04-06 17:06:05.843
246.0, 65726.9138964312, 36402.47570305773, -23589.651118475333, -58795.74969956276, -49794.16576554367, -51516.05475140271, -47547.7707442964, -31622.77866873487, 0.008, 0.978, 0.084, 192.0, 0.0, 0.0, 0.0, 0.0, 0.0, 0.0, 0.0, 0.0, 0.0, 1.712437565848978E9, 0.0, 2024-04-06 17:06:05.848
247.0, 65645.79941580289, 36373.44078701029, -24331.66197915816, -58824.49404293228, -49759.92289303814, -51495.11116684809, -47635.747210472495, -31917.151143211264, 0.008, 0.986, 0.084, 192.0, 0.0, 64.0, 30.0, 208.0, 2.0, 160.0, 0.0, 0.0, 0.0, 1.712437565853094E9, 0.0, 2024-04-06 17:06:05.853
248.0, 65754.02656245549, 36713.388468431054, -23115.727080789457, -58383.06944168442, -49949.17511334123, -51525.286021862754, -47335.29506150426, -31429.54783791874, 0.008, 0.986, 0.084, 192.0, 0.0, 0.0, 0.0, 0.0, 0.0, 0.0, 0.0, 0.0, 0.0, 1.712437565856074E9, 0.0, 2024-04-06 17:06:05.856
249.0, 65882.05735469548, 36577.71337958734, -22610.86822877744, -58601.3342262905, -49893.89924930326, -51615.6317729511, -47367.72744270891, -31291.48111241831, 0.008, 0.986, 0.084, 192.0, 0.0, 0.0, 0.0, 0.0, 0.0, 0.0, 0.0, 0.0, 0.0, 1.712437565861059E9, 0.0, 2024-04-06 17:06:05.861
250.0, 65749.84678624234, 36427.37554638094, -23398.85662780483, -58754.93541418736, -49801.98887610303, -51531.63391728806, -47508.05169439932, -31481.13566412159, 0.008, 0.986, 0.084, 192.0, 0.0, 0.0, 0.0, 0.0, 0.0, 0.0, 0.0, 0.0, 0.0, 1.712437565865064E9, 0.0, 2024-04-06 17:06:05.865
251.0, 65684.91496859968, 36379.788682435596, -24392.88340722125, -58863.02845037323, -49649.8181998513, -51457.0461460407, -47674.28161791344, -31869.49722403255, 0.008, 0.986, 0.084, 192.0, 0.0, 0.0, 0.0, 0.0, 0.0, 0.0, 0.0, 0.0, 0.0, 1.712437565868077E9, 0.0, 2024-04-06 17:06:05.868
252.0, 65598.8831041912, 36591.817330338636, -23292.864655597765, -58458.03719258752, -50093.56738252251, -51633.78138944881, -47340.03363132878, -31361.822052219162, 0.008, 0.986, 0.084, 192.0, 0.0, 0.0, 0.0, 0.0, 0.0, 0.0, 0.0, 0.0, 0.0, 1.712437565872142E9, 0.0, 2024-04-06 17:06:05.872
253.0, 65869.4509708227, 36611.62097592604, -22611.60583634446, -58607.100976359965, -49893.16164173623, -51628.64048822409, -47409.324039140236, -31214.479352769777, 0.008, 0.986, 0.084, 192.0, 0.0, 0.0, 0.0, 0.0, 0.0, 0.0, 0.0, 0.0, 0.0, 1.712437565877194E9, 0.0, 2024-04-06 17:06:05.877
254.0, 65791.86806581833, 36451.850706559504, -23244.048445707376, -58726.369884773485, -49804.402864504205, -51535.45606558992, -47504.63187749766, -31439.315550245712, 0.008, 0.986, 0.084, 192.0, 0.0, 0.0, 0.0, 0.0, 0.0, 0.0, 0.0, 0.0, 0.0, 1.712437565882168E9, 0.0, 2024-04-06 17:06:05.882
255.0, 65710.66417821219, 36388.21529009525, -24332.176069280635, -58861.17325558344, -49632.696763598535, -51449.0442215257, -47671.889981256725, -31850.319427289898, 0.008, 0.986, 0.084, 192.0, 0.0, 0.0, 0.0, 0.0, 0.0, 0.0, 0.0, 0.0, 0.0, 1.712437565885274E9, 0.0, 2024-04-06 17:06:05.885
0.0, 65676.71187838458, 36601.45093219887, -23627.470270093712, -58464.94388162421, -49920.07314206042, -51510.42211179997, -47382.21137311595, -31578.499862968907, 0.008, 0.986, 0.084, 192.0, 0.0, 0.0, 0.0, 0.0, 0.0, 0.0, 0.0, 0.0, 0.0, 1.712437565889231E9, 0.0, 2024-04-06 17:06:05.889
1.0, 65792.60567338535, 36643.36045305258, -22517.035605554058, -58528.244021921644, -50062.163181562806, -51700.30018094781, -47307.48949140185, -31150.88863979443, 0.006, 0.99, 0.08, 192.0, 0.0, 48.0, 30.0, 240.0, 2.0, 128.0, 0.0, 0.0, 0.0, 1.712437565892156E9, 0.0, 2024-04-06 17:06:05.892
2.0, 65812.54342943948, 36457.46099441779, -23083.98760366292, -58809.60778112504, -49861.46686809861, -51620.52680498682, -47552.59872109875, -31386.274860653266, 0.006, 0.99, 0.08, 192.0, 0.0, 0.0, 0.0, 0.0, 0.0, 0.0, 0.0, 0.0, 0.0, 1.712437565896205E9, 0.0, 2024-04-06 17:06:05.896
3.0, 65708.94309388913, 36405.023801925636, -24202.513599695398, -58849.88562463351, -49695.46046202904, -51472.8488293706, -47665.20680966459, -31798.77630457596, 0.006, 0.99, 0.08, 192.0, 0.0, 0.0, 0.0, 0.0, 0.0, 0.0, 0.0, 0.0, 0.0, 1.712437565900165E9, 0.0, 2024-04-06 17:06:05.900
4.0, 65690.86053262479, 36570.09143472808, -23934.31501797617, -58570.667632897814, -49838.95866143211, -51480.47077422986, -47501.48028152946, -31738.22542884653, 0.006, 0.99, 0.08, 192.0, 0.0, 0.0, 0.0, 0.0, 0.0, 0.0, 0.0, 0.0, 0.0, 1.712437565904172E9, 0.0, 2024-04-06 17:06:05.904
5.0, 65858.9456509287, 36760.21537306492, -22646.832185606025, -58416.41824441174, -49950.27034881954, -51581.25478997884, -47309.545851891744, -31269.174071451915, 0.006, 0.99, 0.08, 192.0, 0.0, 0.0, 0.0, 0.0, 0.0, 0.0, 0.0, 0.0, 0.0, 1.712437565909139E9, 0.0, 2024-04-06 17:06:05.909
6.0, 65861.82902596344, 36523.39864056095, -22912.01328182379, -58690.629445389444, -49856.99651920754, -51582.819412090714, -47452.10527802769, -31410.057116753713, 0.006, 0.99, 0.08, 192.0, 0.0, 0.0, 0.0, 0.0, 0.0, 0.0, 0.0, 0.0, 0.0, 1.712437565912205E9, 0.0, 2024-04-06 17:06:05.912
7.0, 65699.66711994018, 36418.233682898725, -23986.640451746043, -58857.32875553713, -49756.65953834767, -51522.93908869495, -47636.931852928625, -31727.787164185902, 0.006, 0.99, 0.08, 192.0, 0.0, 0.0, 0.0, 0.0, 0.0, 0.0, 0.0, 0.0, 0.0, 1.712437565916164E9, 0.0, 2024-04-06 17:06:05.916
8.0, 65659.0987037538, 36504.24319556275, -24131.032720927327, -58667.98712825622, -49812.360085530294, -51488.71856793387, -47559.93009328009, -31846.78785166596, 0.006, 0.99, 0.08, 192.0, 0.0, 0.0, 0.0, 0.0, 0.0, 0.0, 0.0, 0.0, 0.0, 1.712437565920213E9, 0.0, 2024-04-06 17:06:05.920
9.0, 65819.09249056489, 36774.67695172751, -22755.75223633674, -58388.18799116469, -49959.12163962384, -51569.98951077337, -47309.948183291934, -31330.149630325992, 0.006, 0.99, 0.08, 192.0, 0.0, 0.0, 0.0, 0.0, 0.0, 0.0, 0.0, 0.0, 0.0, 1.712437565924291E9, 0.0, 2024-04-06 17:06:05.924
10.0, 65884.73956403013, 36550.53365832969, -22782.440219216376, -58653.234976915715, -49854.56017906191, -51583.06528127972, -47414.77786478733, -31426.955035561925, 0.006, 0.99, 0.08, 192.0, 0.0, 0.0, 0.0, 0.0, 0.0, 0.0, 0.0, 0.0, 0.0, 1.712437565928151E9, 0.0, 2024-04-06 17:06:05.928
11.0, 65732.74770173403, 36445.45810764529, -23780.222091701282, -58811.88765905949, -49761.73338433902, -51511.76321646729, -47588.339160482785, -31701.32269875082, 0.012, 0.986, 0.08, 192.0, 0.0, 96.0, 30.0, 208.0, 2.0, 128.0, 0.0, 0.0, 0.0, 1.712437565932151E9, 0.0, 2024-04-06 17:06:05.932
12.0, 65667.54766315791, 36458.73504385174, -24273.592147063275, -58761.08214391257, -49773.75862285598, -51494.32885579215, -47609.41685550414, -31935.770146342536, 0.012, 0.986, 0.08, 192.0, 0.0, 0.0, 0.0, 0.0, 0.0, 0.0, 0.0, 0.0, 0.0, 1.712437565937203E9, 0.0, 2024-04-06 17:06:05.937
13.0, 65802.30633047895, 36780.7342744749, -22932.576886722672, -58363.44461005266, -49941.32965103741, -51536.327783623674, -47313.03272402677, -31412.1134772436, 0.012, 0.986, 0.08, 192.0, 0.0, 0.0, 0.0, 0.0, 0.0, 0.0, 0.0, 0.0, 0.0, 1.712437565940268E9, 0.0, 2024-04-06 17:06:05.940
14.0, 65896.58598859144, 36580.61910636653, -22678.370497032465, -58633.69955226178, -49880.84583054136, -51607.45103448046, -47399.2881058798, -31376.283630881746, 0.012, 0.986, 0.08, 192.0, 0.0, 0.0, 0.0, 0.0, 0.0, 0.0, 0.0, 0.0, 0.0, 1.712437565944253E9, 0.0, 2024-04-06 17:06:05.944
15.0, 65759.14511193575, 36461.79723284212, -23580.173978826282, -58781.243417411264, -49789.87423060826, -51525.39778058503, -47562.478192147995, -31588.58049971825, 0.012, 0.986, 0.08, 192.0, 0.0, 0.0, 0.0, 0.0, 0.0, 0.0, 0.0, 0.0, 0.0, 1.712437565948168E9, 0.0, 2024-04-06 17:06:05.948
16.0, 65661.98207878854, 36413.763334007665, -24360.898060905703, -58853.05957234617, -49767.81305883087, -51525.0625044182, -47668.80544052189, -31872.715875234113, 0.012, 0.986, 0.08, 192.0, 0.0, 0.0, 0.0, 0.0, 0.0, 0.0, 0.0, 0.0, 0.0, 1.712437565952248E9, 0.0, 2024-04-06 17:06:05.952
17.0, 65767.41525738421, 36755.78972766277, -23193.68996544957, -58392.50187784456, -49936.680488190716, -51529.33168760916, -47349.80134365575, -31415.957977289916, 0.012, 0.986, 0.08, 192.0, 0.0, 0.0, 0.0, 0.0, 0.0, 0.0, 0.0, 0.0, 0.0, 1.712437565956206E9, 0.0, 2024-04-06 17:06:05.956
18.0, 65901.39161364932, 36641.30409256269, -22628.168478985845, -58588.66078718434, -49891.842888813364, -51617.442264251986, -47356.19394256997, -31257.171184679413, 0.012, 0.986, 0.08, 192.0, 0.0, 0.0, 0.0, 0.0, 0.0, 0.0, 0.0, 0.0, 0.0, 1.712437565960311E9, 0.0, 2024-04-06 17:06:05.960
19.0, 65785.36370818183, 36491.6144599455, -23392.195807957152, -58755.0695246541, -49801.96652435858, -51539.881710992064, -47513.6619822576, -31451.13962306257, 0.012, 0.986, 0.08, 192.0, 0.0, 0.0, 0.0, 0.0, 0.0, 0.0, 0.0, 0.0, 0.0, 1.712437565965235E9, 0.0, 2024-04-06 17:06:05.965
20.0, 65672.75561961599, 36418.658366043375, -24365.39076154122, -58870.516284765756, -49729.97155546803, -51512.836100201144, -47658.54598981691, -31801.14558948822, 0.012, 0.986, 0.08, 192.0, 0.0, 0.0, 0.0, 0.0, 0.0, 0.0, 0.0, 0.0, 0.0, 1.712437565968244E9, 0.0, 2024-04-06 17:06:05.968
21.0, 65732.6135912673, 36714.88603530956, -23467.96822166064, -58438.65823014477, -49902.57172615192, -51517.9099461925, -47390.995608686884, -31467.94813489296, 0.012, 0.99, 0.08, 192.0, 0.0, 96.0, 30.0, 240.0, 2.0, 128.0, 0.0, 0.0, 0.0, 1.712437565972286E9, 0.0, 2024-04-06 17:06:05.972
22.0, 65889.03109896554, 36705.94533752744, -22596.451353603763, -58519.32567588397, -49908.11495877683, -51615.78823516229, -47328.81305561222, -31192.060553081104, 0.012, 0.99, 0.08, 192.0, 0.0, 0.0, 0.0, 0.0, 0.0, 0.0, 0.0, 0.0, 0.0, 1.712437565976274E9, 0.0, 2024-04-06 17:06:05.976
23.0, 65804.27328399102, 36516.89428292445, -23217.22635236101, -58747.78285596167, -49829.90620492771, -51572.001167774346, -47505.995333909435, -31374.74136051433, 0.012, 0.99, 0.08, 192.0, 0.0, 0.0, 0.0, 0.0, 0.0, 0.0, 0.0, 0.0, 0.0, 1.712437565980299E9, 0.0, 2024-04-06 17:06:05.980
24.0, 65681.69631739812, 36432.47174411675, -24298.00025200847, -58881.22277035985, -49730.507997334964, -51512.076140889665, -47671.51000160098, -31752.70935925357, 0.012, 0.99, 0.08, 192.0, 0.0, 0.0, 0.0, 0.0, 0.0, 0.0, 0.0, 0.0, 0.0, 1.712437565984289E9, 0.0, 2024-04-06 17:06:05.984
25.0, 65709.23366656706, 36672.23890688884, -23735.80917546859, -58505.512297810594, -49873.44740312665, -51496.58638198214, -47457.49204844142, -31574.901232111602, 0.012, 0.99, 0.08, 192.0, 0.0, 0.0, 0.0, 0.0, 0.0, 0.0, 0.0, 0.0, 0.0, 1.712437565989327E9, 0.0, 2024-04-06 17:06:05.989
26.0, 65879.55395931649, 36777.1803471065, -22605.123830452423, -58457.85837863188, -49930.62316544332, -51593.861173851634, -47319.91706131901, -31190.87591062497, 0.012, 0.99, 0.08, 192.0, 0.0, 0.0, 0.0, 0.0, 0.0, 0.0, 0.0, 0.0, 0.0, 1.712437565992242E9, 0.0, 2024-04-06 17:06:05.992
27.0, 65841.57834548692, 36558.200306677856, -23049.09653056819, -58701.402986216905, -49829.570928760884, -51557.24901643384, -47475.14992656111, -31374.07080818067, 0.012, 0.99, 0.08, 192.0, 0.0, 0.0, 0.0, 0.0, 0.0, 0.0, 0.0, 0.0, 0.0, 1.712437565995278E9, 0.0, 2024-04-06 17:06:05.995
28.0, 65682.92566334315, 36457.48334616224, -24140.30869487628, -58851.89728163449, -49736.07358170433, -51499.64857097252, -47647.72774550054, -31719.22644605952, 0.012, 0.99, 0.08, 192.0, 0.0, 0.0, 0.0, 0.0, 0.0, 0.0, 0.0, 0.0, 0.0, 1.712437565999271E9, 0.0, 2024-04-06 17:06:05.999
29.0, 65676.04132605092, 36611.86684511505, -23977.02920163026, -58600.663673956835, -49837.90812944271, -51493.94887613641, -47530.179921410076, -31702.015602828935, 0.012, 0.99, 0.08, 192.0, 0.0, 0.0, 0.0, 0.0, 0.0, 0.0, 0.0, 0.0, 0.0, 1.712437566004296E9, 0.0, 2024-04-06 17:06:06.004
30.0, 65861.35963932986, 36829.77400180984, -22680.404505777897, -58388.478563842604, -49938.84860740288, -51568.4695921504, -47309.970535036395, -31241.726129260795, 0.012, 0.99, 0.08, 192.0, 0.0, 0.0, 0.0, 0.0, 0.0, 0.0, 0.0, 0.0, 0.0, 1.712437566009275E9, 0.0, 2024-04-06 17:06:06.009
31.0, 65876.53647381502, 36589.82802508212, -22905.77714512076, -58665.57313985505, -49846.558254546915, -51569.5201241398, -47448.9983855484, -31377.937659971438, 0.01, 0.992, 0.08, 192.0, 0.0, 80.0, 31.0, 0.0, 2.0, 128.0, 0.0, 0.0, 0.0, 1.712437566014243E9, 0.0, 2024-04-06 17:06:06.014
32.0, 65772.51145512002, 36518.66007073642, -24007.94166421195, -58801.06941474312, -49651.40517370763, -51437.77894232023, -47637.781219217926, -31737.80074570188, 0.01, 0.992, 0.08, 192.0, 0.0, 0.0, 0.0, 0.0, 0.0, 0.0, 0.0, 0.0, 0.0, 1.712437566017299E9, 0.0, 2024-04-06 17:06:06.017
33.0, 65654.36013392928, 36552.94764673086, -24117.06288064276, -58641.74618026569, -49846.49119931355, -51499.4027017835, -47527.43065684207, -31789.29916492691, 0.01, 0.992, 0.08, 192.0, 0.0, 0.0, 0.0, 0.0, 0.0, 0.0, 0.0, 0.0, 0.0, 1.712437566020443E9, 0.0, 2024-04-06 17:06:06.020
34.0, 65764.15190269375, 36800.068533428734, -22729.980674979768, -58409.2880379305, -50070.00864386662, -51648.198264622486, -47314.418532183, -31216.267492326202, 0.01, 0.992, 0.08, 192.0, 0.0, 0.0, 0.0, 0.0, 0.0, 0.0, 0.0, 0.0, 0.0, 1.712437566025252E9, 0.0, 2024-04-06 17:06:06.025
35.0, 65900.83282003795, 36610.88336835901, -22817.308940566654, -58698.63136990445, -49848.59226329235, -51602.958333844945, -47487.82336566727, -31368.371113344565, 0.01, 0.992, 0.08, 192.0, 0.0, 0.0, 0.0, 0.0, 0.0, 0.0, 0.0, 0.0, 0.0, 1.712437566028235E9, 0.0, 2024-04-06 17:06:06.028
36.0, 65827.42969124671, 36557.19447817737, -23860.95659267385, -58767.608853293525, -49638.239996223456, -51425.82075903664, -47628.01350689096, -31734.649149733683, 0.01, 0.992, 0.08, 192.0, 0.0, 0.0, 0.0, 0.0, 0.0, 0.0, 0.0, 0.0, 0.0, 1.712437566032223E9, 0.0, 2024-04-06 17:06:06.032
37.0, 65593.00459539946, 36457.12571825096, -24228.911009897114, -58778.807077265636, -49937.26163354655, -51605.908764113046, -47593.27889600741, -31815.83068559536, 0.01, 0.992, 0.08, 192.0, 0.0, 0.0, 0.0, 0.0, 0.0, 0.0, 0.0, 0.0, 0.0, 1.712437566036255E9, 0.0, 2024-04-06 17:06:06.036
38.0, 65838.04676986298, 36852.84100208771, -23037.205402517964, -58394.60294182336, -49897.229659227094, -51525.73305675186, -47393.09667266568, -31398.054229981215, 0.01, 0.992, 0.08, 192.0, 0.0, 0.0, 0.0, 0.0, 0.0, 0.0, 0.0, 0.0, 0.0, 1.712437566040291E9, 0.0, 2024-04-06 17:06:06.040
39.0, 65933.39931170932, 36679.39146511453, -22711.764003248692, -58586.470316227715, -49848.72637375908, -51576.0244817763, -47398.394036101585, -31356.39057831652, 0.01, 0.992, 0.08, 192.0, 0.0, 0.0, 0.0, 0.0, 0.0, 0.0, 0.0, 0.0, 0.0, 1.712437566044262E9, 0.0, 2024-04-06 17:06:06.044
40.0, 65781.60861511333, 36542.3752716035, -23579.078743347975, -58756.34357408805, -49779.27950373644, -51512.03143740076, -47564.8251253158, -31565.02176106236, 0.01, 0.992, 0.08, 192.0, 0.0, 0.0, 0.0, 0.0, 0.0, 0.0, 0.0, 0.0, 0.0, 1.712437566048258E9, 0.0, 2024-04-06 17:06:06.048
41.0, 65688.08891631234, 36493.15673031291, -24390.82704673136, -58817.78851959569, -49738.57697708333, -51491.35607377959, -47674.90746675819, -31881.99184918307, 0.014, 0.994, 0.084, 192.0, 0.0, 112.0, 31.0, 16.0, 2.0, 160.0, 0.0, 0.0, 0.0, 1.712437566051356E9, 0.0, 2024-04-06 17:06:06.051
42.0, 65768.42108588471, 36817.637004570606, -23242.327361384316, -58363.01992690801, -49932.59011895539, -51511.159719366995, -47364.88877116308, -31431.40303270853, 0.014, 0.994, 0.084, 192.0, 0.0, 0.0, 0.0, 0.0, 0.0, 0.0, 0.0, 0.0, 0.0, 1.712437566055332E9, 0.0, 2024-04-06 17:06:06.055
43.0, 65906.08547998495, 36711.80149457473, -22634.941057555803, -58576.21086552273, -49899.17426099471, -51617.26345029634, -47394.01309418835, -31248.61046655303, 0.014, 0.994, 0.084, 192.0, 0.0, 0.0, 0.0, 0.0, 0.0, 0.0, 0.0, 0.0, 0.0, 1.712437566060344E9, 0.0, 2024-04-06 17:06:06.060
44.0, 65808.22954275961, 36564.682312569894, -23385.557339853924, -58731.734303442754, -49799.03844583493, -51529.555205053715, -47546.049659973345, -31456.682855687483, 0.014, 0.994, 0.084, 192.0, 0.0, 0.0, 0.0, 0.0, 0.0, 0.0, 0.0, 0.0, 0.0, 1.712437566064408E9, 0.0, 2024-04-06 17:06:06.064
45.0, 65694.63797743774, 36481.913802851894, -24366.86597667527, -58856.50174099228, -49727.24464264449, -51501.459062273396, -47691.939496033134, -31805.571234890373, 0.014, 0.994, 0.084, 192.0, 0.0, 0.0, 0.0, 0.0, 0.0, 0.0, 0.0, 0.0, 0.0, 1.712437566068365E9, 0.0, 2024-04-06 17:06:06.068
46.0, 65754.69711478915, 36772.35237030416, -23512.35878614888, -58429.04698002899, -49890.30061844595, -51501.07908261765, -47429.798237061295, -31483.43789380049, 0.014, 0.994, 0.084, 192.0, 0.0, 0.0, 0.0, 0.0, 0.0, 0.0, 0.0, 0.0, 0.0, 1.712437566072377E9, 0.0, 2024-04-06 17:06:06.072
47.0, 65915.47321265617, 36778.2308790959, -22607.247246175677, -58499.11969889638, -49907.46675818763, -51609.88737462609, -47369.247361331865, -31182.918689598882, 0.014, 0.994, 0.084, 192.0, 0.0, 0.0, 0.0, 0.0, 0.0, 0.0, 0.0, 0.0, 0.0, 1.712437566076386E9, 0.0, 2024-04-06 17:06:06.076
48.0, 65851.793092703, 36594.387780951, -23206.586922000282, -58705.78392813014, -49811.51071924099, -51547.526007595785, -47528.39178185365, -31368.281706366746, 0.014, 0.994, 0.084, 192.0, 0.0, 0.0, 0.0, 0.0, 0.0, 0.0, 0.0, 0.0, 0.0, 1.712437566079356E9, 0.0, 2024-04-06 17:06:06.079
49.0, 65715.06747186989, 36505.94192814135, -24276.207301164544, -58844.83413038661, -49724.71889552104, -51498.66509421648, -47689.503155887505, -31720.27697804892, 0.014, 0.994, 0.084, 192.0, 0.0, 0.0, 0.0, 0.0, 0.0, 0.0, 0.0, 0.0, 0.0, 1.712437566083358E9, 0.0, 2024-04-06 17:06:06.083
50.0, 65739.78850123746, 36729.45937269442, -23784.401867914425, -58507.79217574504, -49862.62915881028, -51498.1063006051, -47508.07404614378, -31559.81380460427, 0.014, 0.992, 0.088, 192.0, 0.0, 112.0, 31.0, 0.0, 2.0, 192.0, 0.0, 0.0, 0.0, 1.712437566088397E9, 0.0, 2024-04-06 17:06:06.088
51.0, 65927.34198896194, 36860.53000218034, -22630.113080753457, -58412.57374436543, -49912.36179022334, -51572.31409219672, -47346.6273959431, -31164.567907401077, 0.014, 0.992, 0.088, 192.0, 0.0, 0.0, 0.0, 0.0, 0.0, 0.0, 0.0, 0.0, 0.0, 1.712437566092411E9, 0.0, 2024-04-06 17:06:06.092
52.0, 65901.27985492705, 36633.52568549224, -23039.46292870795, -58667.31657592256, -49828.85567293831, -51548.91181575201, -47499.267458828384, -31336.63163621803, 0.014, 0.992, 0.088, 192.0, 0.0, 0.0, 0.0, 0.0, 0.0, 0.0, 0.0, 0.0, 0.0, 1.712437566096376E9, 0.0, 2024-04-06 17:06:06.096
53.0, 65753.15484442173, 36531.26645460921, -24139.034645442327, -58835.289935504195, -49733.25726190296, -51499.8050331837, -47690.844260554826, -31681.966088052523, 0.014, 0.992, 0.088, 192.0, 0.0, 0.0, 0.0, 0.0, 0.0, 0.0, 0.0, 0.0, 0.0, 1.712437566100397E9, 0.0, 2024-04-06 17:06:06.100
54.0, 65739.85555647082, 36668.64027603153, -24034.98727500287, -58583.40812723734, -49822.19485309063, -51479.62140794056, -47572.670587619614, -31698.12639929371, 0.014, 0.992, 0.088, 192.0, 0.0, 0.0, 0.0, 0.0, 0.0, 0.0, 0.0, 0.0, 0.0, 1.712437566104415E9, 0.0, 2024-04-06 17:06:06.104
55.0, 65907.89597128582, 36892.89532815162, -22714.22269513878, -58369.50193280005, -49929.84085438739, -51563.06046999222, -47351.38831751208, -31219.106163872024, 0.014, 0.992, 0.088, 192.0, 0.0, 0.0, 0.0, 0.0, 0.0, 0.0, 0.0, 0.0, 0.0, 1.712437566107797E9, 0.0, 2024-04-06 17:06:06.107
56.0, 65927.05141628403, 36658.15730788199, -22896.992909549823, -58633.02899992812, -49837.05876315341, -51557.025498989286, -47467.05859506829, -31345.90761016698, 0.014, 0.992, 0.088, 192.0, 0.0, 0.0, 0.0, 0.0, 0.0, 0.0, 0.0, 0.0, 0.0, 1.712437566111402E9, 0.0, 2024-04-06 17:06:06.111
57.0, 65770.38803939677, 36549.77369901821, -23951.92819260695, -58817.74381610678, -49745.818942286845, -51506.689370475935, -47666.25734165399, -31638.469593342496, 0.014, 0.992, 0.088, 192.0, 0.0, 0.0, 0.0, 0.0, 0.0, 0.0, 0.0, 0.0, 0.0, 1.712437566116396E9, 0.0, 2024-04-06 17:06:06.116
58.0, 65726.44450979764, 36622.32746152013, -24230.60974247572, -58663.583834598525, -49769.53414315393, -51467.5961694236, -47617.70935269706, -31807.91816805818, 0.014, 0.992, 0.088, 192.0, 0.0, 0.0, 0.0, 0.0, 0.0, 0.0, 0.0, 0.0, 0.0, 1.712437566120419E9, 0.0, 2024-04-06 17:06:06.120
59.0, 65869.09334291141, 36917.59400577474, -22858.19028117541, -58330.76635965901, -49928.767970653535, -51536.752466768325, -47335.94326209346, -31288.821254828126, 0.014, 0.992, 0.088, 192.0, 0.0, 0.0, 0.0, 0.0, 0.0, 0.0, 0.0, 0.0, 0.0, 1.712437566124415E9, 0.0, 2024-04-06 17:06:06.124
60.0, 65931.03002679706, 36692.06490422069, -22796.253597289753, -58621.45079630027, -49855.096620928845, -51586.28393248128, -47443.209283734475, -31339.2467903193, 0.01, 0.988, 0.08600000000000001, 192.0, 0.0, 80.0, 30.0, 224.0, 2.0, 176.0, 0.0, 0.0, 0.0, 1.712437566128628E9, 0.0, 2024-04-06 17:06:06.128
61.0, 65774.61251909882, 36577.19928946487, -23769.292088662638, -58778.13652493197, -49763.11919249525, -51512.81374845669, -47615.72004744054, -31596.62712772216, 0.01, 0.988, 0.08600000000000001, 192.0, 0.0, 0.0, 0.0, 0.0, 0.0, 0.0, 0.0, 0.0, 0.0, 1.712437566132487E9, 0.0, 2024-04-06 17:06:06.132
62.0, 65699.39889900672, 36566.515155615234, -24367.87180517576, -58756.276518854684, -49746.020107986944, -51488.38329176704, -47660.75881251798, -31860.668284972704, 0.01, 0.988, 0.08600000000000001, 192.0, 0.0, 0.0, 0.0, 0.0, 0.0, 0.0, 0.0, 0.0, 0.0, 1.712437566135466E9, 0.0, 2024-04-06 17:06:06.135
63.0, 65816.2314672746, 36896.98569738695, -23064.60864122017, -58322.38445548826, -49927.44921773067, -51517.328800836665, -47346.381526754085, -31356.3011713387, 0.01, 0.988, 0.08600000000000001, 192.0, 0.0, 0.0, 0.0, 0.0, 0.0, 0.0, 0.0, 0.0, 0.0, 1.712437566139933E9, 0.0, 2024-04-06 17:06:06.139
64.0, 65921.37407319238, 36717.18826498846, -22705.63962526794, -58601.53539199059, -49877.180144450685, -51614.40242700606, -47425.41729514805, -31285.04381001518, 0.01, 0.988, 0.08600000000000001, 192.0, 0.0, 0.0, 0.0, 0.0, 0.0, 0.0, 0.0, 0.0, 0.0, 1.712437566143473E9, 0.0, 2024-04-06 17:06:06.143
65.0, 65788.26943496102, 36589.67156287093, -23568.70753392071, -58742.15021635893, -49779.435965947625, -51520.34628633813, -47584.60641915875, -31517.27843490582, 0.01, 0.988, 0.08600000000000001, 192.0, 0.0, 0.0, 0.0, 0.0, 0.0, 0.0, 0.0, 0.0, 0.0, 1.712437566148473E9, 0.0, 2024-04-06 17:06:06.148
66.0, 65684.82556162185, 36533.54633254365, -24409.82602951837, -58815.75451085025, -49734.911290992655, -51497.41339652699, -47696.81217632439, -31842.831592897368, 0.01, 0.988, 0.08600000000000001, 192.0, 0.0, 0.0, 0.0, 0.0, 0.0, 0.0, 0.0, 0.0, 0.0, 1.712437566152472E9, 0.0, 2024-04-06 17:06:06.152
67.0, 65776.26654818852, 36860.552353924795, -23311.66247268468, -58368.18317987719, -49910.037208799986, -51509.081007132656, -47399.0869401797, -31420.763602347804, 0.01, 0.988, 0.08600000000000001, 192.0, 0.0, 0.0, 0.0, 0.0, 0.0, 0.0, 0.0, 0.0, 0.0, 1.712437566156562E9, 0.0, 2024-04-06 17:06:06.156
68.0, 65919.22830572467, 36772.77705344881, -22648.396807717898, -58538.45876913772, -49886.545525377456, -51604.83588037919, -47395.22008838893, -31236.495821058255, 0.01, 0.988, 0.08600000000000001, 192.0, 0.0, 0.0, 0.0, 0.0, 0.0, 0.0, 0.0, 0.0, 0.0, 1.712437566159447E9, 0.0, 2024-04-06 17:06:06.159
69.0, 65818.0866620644, 36608.871711358035, -23373.44269435915, -58723.0618265941, -49799.798405146415, -51539.79230401425, -47560.77945956939, -31441.70718690243, 0.01, 0.988, 0.08600000000000001, 192.0, 0.0, 0.0, 0.0, 0.0, 0.0, 0.0, 0.0, 0.0, 0.0, 1.712437566163462E9, 0.0, 2024-04-06 17:06:06.163
70.0, 65699.66711994018, 36528.42778306339, -24374.01853490097, -58843.29186001919, -49728.02695370042, -51504.09656811912, -47704.83645258385, -31798.15045573121, 0.008, 0.988, 0.084, 192.0, 0.0, 64.0, 30.0, 224.0, 2.0, 160.0, 0.0, 0.0, 0.0, 1.712437566167446E9, 0.0, 2024-04-06 17:06:06.167
71.0, 65749.57856530888, 36800.44851308448, -23584.91254865081, -58452.82923612944, -49898.146080749764, -51521.91090845, -47472.17714454856, -31505.23084464441, 0.008, 0.988, 0.084, 192.0, 0.0, 0.0, 0.0, 0.0, 0.0, 0.0, 0.0, 0.0, 0.0, 1.712437566172492E9, 0.0, 2024-04-06 17:06:06.172
72.0, 65925.2632767276, 36830.556312865774, -22634.024636033137, -58476.298567807506, -49907.28794423198, -51605.26056352384, -47380.37853007061, -31200.040125851647, 0.008, 0.988, 0.084, 192.0, 0.0, 0.0, 0.0, 0.0, 0.0, 0.0, 0.0, 0.0, 0.0, 1.712437566176682E9, 0.0, 2024-04-06 17:06:06.176
73.0, 65859.9961829181, 36634.57621748164, -23192.30415729334, -58682.06872726307, -49812.47184425257, -51544.508522094315, -47530.537549321365, -31377.98236346035, 0.008, 0.988, 0.084, 192.0, 0.0, 0.0, 0.0, 0.0, 0.0, 0.0, 0.0, 0.0, 0.0, 1.712437566180501E9, 0.0, 2024-04-06 17:06:06.180
74.0, 65718.12966086026, 36533.38987033247, -24277.95073723206, -58839.000325083776, -49722.70723852006, -51501.19084133993, -47710.893775331235, -31726.289597307397, 0.008, 0.988, 0.084, 192.0, 0.0, 0.0, 0.0, 0.0, 0.0, 0.0, 0.0, 0.0, 0.0, 1.712437566184529E9, 0.0, 2024-04-06 17:06:06.184
75.0, 65732.21125986711, 36741.68577691147, -23848.797243690165, -58496.4598413062, -49851.3638796048, -51487.57862896665, -47520.90394746113, -31591.55328173081, 0.008, 0.988, 0.084, 192.0, 0.0, 0.0, 0.0, 0.0, 0.0, 0.0, 0.0, 0.0, 0.0, 1.71243756618855E9, 0.0, 2024-04-06 17:06:06.188
76.0, 65908.52182013057, 36884.24520304742, -22655.661124665872, -58401.12965120431, -49919.536700193494, -51586.50744992584, -47361.11132635013, -31162.846823078016, 0.008, 0.988, 0.084, 192.0, 0.0, 0.0, 0.0, 0.0, 0.0, 0.0, 0.0, 0.0, 0.0, 1.712437566194032E9, 0.0, 2024-04-06 17:06:06.194
77.0, 65923.25161972662, 36689.02506697477, -23051.599925947183, -58621.40609281136, -49775.30089322339, -51515.83123395815, -47500.899136173626, -31349.528592768744, 0.008, 0.988, 0.084, 192.0, 0.0, 0.0, 0.0, 0.0, 0.0, 0.0, 0.0, 0.0, 0.0, 1.712437566196554E9, 0.0, 2024-04-06 17:06:06.196
78.0, 65735.63107676877, 36562.737710802285, -24104.47884851442, -58837.525109949725, -49747.58473009882, -51528.14704515303, -47700.120234503775, -31619.761183233404, 0.008, 0.988, 0.084, 192.0, 0.0, 0.0, 0.0, 0.0, 0.0, 0.0, 0.0, 0.0, 0.0, 1.712437566200509E9, 0.0, 2024-04-06 17:06:06.200
79.0, 65668.48643642502, 36664.326389351656, -24030.963961000918, -58582.02231908111, -49915.893365847274, -51541.714554037404, -47555.66091008913, -31622.644558268137, 0.008, 0.988, 0.084, 192.0, 0.0, 0.0, 0.0, 0.0, 0.0, 0.0, 0.0, 0.0, 0.0, 1.712437566203641E9, 0.0, 2024-04-06 17:06:06.203
80.0, 65890.19338967722, 36915.78351447386, -22774.08066679009, -58422.36380843685, -49936.59108121289, -51600.74551114387, -47424.746742814394, -31168.74768361422, 0.008, 0.994, 0.078, 192.0, 0.0, 64.0, 31.0, 16.0, 2.0, 112.0, 0.0, 0.0, 0.0, 1.712437566207544E9, 0.0, 2024-04-06 17:06:06.207
81.0, 65943.85992811441, 36712.56145388621, -22933.15803207851, -58603.47999375821, -49815.578736731855, -51546.58723432866, -47491.15377559111, -31327.57917971363, 0.008, 0.994, 0.078, 192.0, 0.0, 0.0, 0.0, 0.0, 0.0, 0.0, 0.0, 0.0, 0.0, 1.712437566211512E9, 0.0, 2024-04-06 17:06:06.211
82.0, 65769.8739492743, 36594.29837397318, -23947.7037129049, -58796.19673445186, -49754.692584835604, -51520.07806540467, -47681.43417613914, -31594.2578428099, 0.008, 0.994, 0.078, 192.0, 0.0, 0.0, 0.0, 0.0, 0.0, 0.0, 0.0, 0.0, 0.0, 1.712437566215567E9, 0.0, 2024-04-06 17:06:06.215
83.0, 65730.35606507731, 36651.29532233421, -24279.135379688192, -58659.94050025231, -49768.818887331356, -51480.6495881855, -47649.11355365677, -31789.835606793837, 0.008, 0.994, 0.078, 192.0, 0.0, 0.0, 0.0, 0.0, 0.0, 0.0, 0.0, 0.0, 0.0, 1.71243756622064E9, 0.0, 2024-04-06 17:06:06.220
84.0, 65874.81538949197, 36956.44133763806, -22899.80922935119, -58309.219278004086, -49932.545415466484, -51547.86128376261, -47362.407727528545, -31271.968039508825, 0.008, 0.994, 0.078, 192.0, 0.0, 0.0, 0.0, 0.0, 0.0, 0.0, 0.0, 0.0, 0.0, 1.712437566224533E9, 0.0, 2024-04-06 17:06:06.224
85.0, 65953.78410265257, 36743.78684089027, -22787.402306485452, -58595.902752387854, -49853.263777883505, -51593.816470362726, -47458.319062986266, -31311.731792894818, 0.008, 0.994, 0.078, 192.0, 0.0, 0.0, 0.0, 0.0, 0.0, 0.0, 0.0, 0.0, 0.0, 1.712437566227544E9, 0.0, 2024-04-06 17:06:06.227
86.0, 65812.45402246166, 36628.2953772897, -23743.22995462775, -58753.46019905331, -49763.432116917626, -51517.5076147923, -47629.46637028055, -31564.77589187335, 0.008, 0.994, 0.078, 192.0, 0.0, 0.0, 0.0, 0.0, 0.0, 0.0, 0.0, 0.0, 0.0, 1.712437566231556E9, 0.0, 2024-04-06 17:06:06.231
87.0, 65738.24623087003, 36611.97860383733, -24376.946613424614, -58739.803283191126, -49758.71589883756, -51493.52419299176, -47674.92981850265, -31838.271837028486, 0.008, 0.994, 0.078, 192.0, 0.0, 0.0, 0.0, 0.0, 0.0, 0.0, 0.0, 0.0, 0.0, 1.712437566235647E9, 0.0, 2024-04-06 17:06:06.235
88.0, 65858.4986160396, 36941.420965364094, -23107.948673719013, -58340.44466500815, -49938.5356829805, -51542.206292415416, -47391.15207089807, -31340.274970564245, 0.008, 0.994, 0.078, 192.0, 0.0, 0.0, 0.0, 0.0, 0.0, 0.0, 0.0, 0.0, 0.0, 1.712437566239566E9, 0.0, 2024-04-06 17:06:06.239
89.0, 65984.40599255633, 36796.91693746053, -22709.2606078697, -58557.34599320245, -49867.34537689035, -51596.74454888637, -47428.63594634962, -31275.834891299593, 0.008, 0.994, 0.078, 192.0, 0.0, 0.0, 0.0, 0.0, 0.0, 0.0, 0.0, 0.0, 0.0, 1.712437566245589E9, 0.0, 2024-04-06 17:06:06.245
90.0, 65853.91650842625, 36662.51589805078, -23541.773681852064, -58717.71975966928, -49789.784823630434, -51520.90507994951, -47589.34498898328, -31488.735257236396, 0.012, 0.988, 0.08, 192.0, 0.0, 96.0, 30.0, 224.0, 2.0, 128.0, 0.0, 0.0, 0.0, 1.712437566248575E9, 0.0, 2024-04-06 17:06:06.248
91.0, 65813.99629282908, 36635.40323202649, -24466.107722056833, -58772.28036788468, -49636.94359504504, -51424.14437820249, -47712.65956314321, -31874.705180490637, 0.012, 0.988, 0.08, 192.0, 0.0, 0.0, 0.0, 0.0, 0.0, 0.0, 0.0, 0.0, 0.0, 1.712437566252661E9, 0.0, 2024-04-06 17:06:06.252
92.0, 65760.19564392515, 36869.67186566256, -23273.731562344023, -58346.94902264464, -50055.99410009314, -51588.58616216018, -47349.22019829991, -31336.564580984665, 0.012, 0.988, 0.08, 192.0, 0.0, 0.0, 0.0, 0.0, 0.0, 0.0, 0.0, 0.0, 0.0, 1.712437566256574E9, 0.0, 2024-04-06 17:06:06.256
93.0, 65988.58576876948, 36827.829400042225, -22671.933194629335, -58574.802705622045, -49886.478470144095, -51623.857214910655, -47457.64851065261, -31193.84869263753, 0.012, 0.988, 0.08, 192.0, 0.0, 0.0, 0.0, 0.0, 0.0, 0.0, 0.0, 0.0, 0.0, 1.712437566259632E9, 0.0, 2024-04-06 17:06:06.259
94.0, 65905.5043346291, 36686.54402334023, -23378.449485117137, -58669.84232304601, -49777.53606766892, -51506.21998384238, -47560.444183402564, -31437.773279878293, 0.012, 0.988, 0.08, 192.0, 0.0, 0.0, 0.0, 0.0, 0.0, 0.0, 0.0, 0.0, 0.0, 1.712437566263617E9, 0.0, 2024-04-06 17:06:06.263
95.0, 65774.88074003228, 36603.350830477575, -24379.628822759252, -58805.00332176725, -49712.87247095972, -51484.13646032053, -47704.814100839394, -31790.014420749478, 0.012, 0.988, 0.08, 192.0, 0.0, 0.0, 0.0, 0.0, 0.0, 0.0, 0.0, 0.0, 0.0, 1.712437566267852E9, 0.0, 2024-04-06 17:06:06.267
96.0, 65817.70668240865, 36865.022702815855, -23627.134993926884, -58423.861375315355, -49887.931333533685, -51502.062559373684, -47475.440499239034, -31508.42714410152, 0.012, 0.988, 0.08, 192.0, 0.0, 0.0, 0.0, 0.0, 0.0, 0.0, 0.0, 0.0, 0.0, 1.712437566273638E9, 0.0, 2024-04-06 17:06:06.273
97.0, 66004.2319898882, 36915.93997668505, -22631.834165076514, -58423.593154381895, -49900.96240055113, -51579.28783646677, -47369.91791366553, -31183.522186699178, 0.012, 0.988, 0.08, 192.0, 0.0, 0.0, 0.0, 0.0, 0.0, 0.0, 0.0, 0.0, 0.0, 1.712437566276568E9, 0.0, 2024-04-06 17:06:06.276
98.0, 66000.96863519771, 36746.71491941392, -23210.0290906464, -58617.96392416524, -49719.801511740865, -51468.1996665239, -47536.14783717965, -31404.5138841288, 0.012, 0.988, 0.08, 192.0, 0.0, 0.0, 0.0, 0.0, 0.0, 0.0, 0.0, 0.0, 0.0, 1.712437566280631E9, 0.0, 2024-04-06 17:06:06.280
99.0, 65720.45424228361, 36571.253725439754, -24170.818826057774, -58802.72344383281, -49870.85460076983, -51579.98074054489, -47660.37883286224, -31614.329709330766, 0.012, 0.988, 0.08, 192.0, 0.0, 0.0, 0.0, 0.0, 0.0, 0.0, 0.0, 0.0, 0.0, 1.712437566283603E9, 0.0, 2024-04-06 17:06:06.283
100.0, 65812.02933931701, 36800.24734738438, -23916.388918923014, -58555.96018504622, -49841.037373666455, -51508.74573096583, -47610.80266366037, -31564.44061570652, 0.008, 0.992, 0.076, 192.0, 0.0, 64.0, 31.0, 0.0, 2.0, 96.0, 0.0, 0.0, 0.0, 1.712437566287678E9, 0.0, 2024-04-06 17:06:06.287
101.0, 65996.94532119576, 36981.0282565389, -22690.373383804963, -58334.253231794035, -49905.79037735348, -51545.60375757262, -47362.78770718428, -31146.395939158912, 0.008, 0.992, 0.076, 192.0, 0.0, 0.0, 0.0, 0.0, 0.0, 0.0, 0.0, 0.0, 0.0, 1.71243756629171E9, 0.0, 2024-04-06 17:06:06.291
102.0, 65966.9716318812, 36737.52835244279, -23016.038300518787, -58625.205889368764, -49827.04518163743, -51553.85155127663, -47514.086665402254, -31266.5812690951, 0.008, 0.992, 0.076, 192.0, 0.0, 0.0, 0.0, 0.0, 0.0, 0.0, 0.0, 0.0, 0.0, 1.712437566295668E9, 0.0, 2024-04-06 17:06:06.295
103.0, 65817.75138589757, 36640.79000244022, -24105.32821480372, -58767.67590852689, -49714.41474132714, -51480.42607074095, -47682.015321494975, -31583.28313628234, 0.008, 0.992, 0.076, 192.0, 0.0, 0.0, 0.0, 0.0, 0.0, 0.0, 0.0, 0.0, 0.0, 1.71243756629975E9, 0.0, 2024-04-06 17:06:06.299
104.0, 65795.10906876434, 36754.783899162285, -24122.80727896777, -58553.903824556335, -49792.08705330933, -51465.6962711449, -47587.26627674893, -31636.569695063794, 0.008, 0.992, 0.076, 192.0, 0.0, 0.0, 0.0, 0.0, 0.0, 0.0, 0.0, 0.0, 0.0, 1.712437566304618E9, 0.0, 2024-04-06 17:06:06.304
105.0, 65959.19322481075, 37006.19632079558, -22767.08457077558, -58304.79363260193, -49923.71647640663, -51550.789362286254, -47344.54868370875, -31134.3483488975, 0.008, 0.992, 0.076, 192.0, 0.0, 0.0, 0.0, 0.0, 0.0, 0.0, 0.0, 0.0, 0.0, 1.712437566308655E9, 0.0, 2024-04-06 17:06:06.308
106.0, 65991.46914380422, 36768.57492549121, -22880.72083958636, -58599.72490068971, -49837.48344629806, -51574.079880008685, -47473.92058061607, -31239.289789115166, 0.008, 0.992, 0.076, 192.0, 0.0, 0.0, 0.0, 0.0, 0.0, 0.0, 0.0, 0.0, 0.0, 1.712437566311665E9, 0.0, 2024-04-06 17:06:06.311
107.0, 65845.28873506651, 36666.22628763036, -23919.764032335763, -58758.802265978135, -49741.92973875162, -51500.78850993973, -47657.80838224988, -31528.074327477734, 0.008, 0.992, 0.076, 192.0, 0.0, 0.0, 0.0, 0.0, 0.0, 0.0, 0.0, 0.0, 0.0, 1.712437566316744E9, 0.0, 2024-04-06 17:06:06.316
108.0, 65790.79518208446, 36702.59257585914, -24301.598882865776, -58651.8938722484, -49777.53606766892, -51473.072346815155, -47635.07665813883, -31721.193399571588, 0.008, 0.992, 0.076, 192.0, 0.0, 0.0, 0.0, 0.0, 0.0, 0.0, 0.0, 0.0, 0.0, 1.71243756632067E9, 0.0, 2024-04-06 17:06:06.320
109.0, 65992.69848974925, 37051.27978936193, -22990.64671881756, -58276.921007266166, -49838.936309687655, -51466.366823478565, -47367.079242119704, -31256.008893967737, 0.008, 0.992, 0.076, 192.0, 0.0, 0.0, 0.0, 0.0, 0.0, 0.0, 0.0, 0.0, 0.0, 1.712437566323709E9, 0.0, 2024-04-06 17:06:06.323
110.0, 65909.7064625867, 36740.79170713326, -22681.477389511754, -58592.281769786096, -50035.78812310554, -51700.43429141454, -47401.3891698586, -31120.959653968774, 0.008, 0.986, 0.08, 192.0, 0.0, 64.0, 30.0, 208.0, 2.0, 128.0, 0.0, 0.0, 0.0, 1.712437566327707E9, 0.0, 2024-04-06 17:06:06.327
111.0, 65870.99324119011, 36681.648991304515, -23755.098730933518, -58776.415440608915, -49736.520616593436, -51507.91871642098, -47679.10959471579, -31471.435007027987, 0.008, 0.986, 0.08, 192.0, 0.0, 0.0, 0.0, 0.0, 0.0, 0.0, 0.0, 0.0, 0.0, 1.712437566332781E9, 0.0, 2024-04-06 17:06:06.332
112.0, 65787.84475181637, 36665.91336320798, -24427.439204149152, -58722.63714344945, -49723.82482574282, -51465.38334672253, -47687.24562969752, -31787.063990481376, 0.008, 0.986, 0.08, 192.0, 0.0, 0.0, 0.0, 0.0, 0.0, 0.0, 0.0, 0.0, 0.0, 1.712437566336832E9, 0.0, 2024-04-06 17:06:06.336
113.0, 65894.03788972354, 36992.248832255464, -23163.716276135, -58296.34467319783, -49915.87101410282, -51509.01395189929, -47378.70214923646, -31316.96210109736, 0.008, 0.986, 0.08, 192.0, 0.0, 0.0, 0.0, 0.0, 0.0, 0.0, 0.0, 0.0, 0.0, 1.712437566339778E9, 0.0, 2024-04-06 17:06:06.339
114.0, 66014.37968187091, 36847.25306597389, -22702.53273278865, -58524.77950153107, -49862.7185657881, -51587.96031331543, -47420.67872532353, -31230.61731226651, 0.008, 0.986, 0.08, 192.0, 0.0, 0.0, 0.0, 0.0, 0.0, 0.0, 0.0, 0.0, 0.0, 1.712437566343687E9, 0.0, 2024-04-06 17:06:06.343
115.0, 65876.71528777067, 36713.58963413115, -23509.765983792066, -58673.55271262559, -49777.26784673546, -51505.32591406416, -47570.54717189636, -31450.60318119564, 0.008, 0.986, 0.08, 192.0, 0.0, 0.0, 0.0, 0.0, 0.0, 0.0, 0.0, 0.0, 0.0, 1.712437566347727E9, 0.0, 2024-04-06 17:06:06.347
116.0, 65761.6261555703, 36640.16415359547, -24420.152535456724, -58794.27448442871, -49725.16593041014, -51495.87112615957, -47720.23680451355, -31796.764647574983, 0.008, 0.986, 0.08, 192.0, 0.0, 0.0, 0.0, 0.0, 0.0, 0.0, 0.0, 0.0, 0.0, 1.712437566351758E9, 0.0, 2024-04-06 17:06:06.351
117.0, 65842.96415364316, 36954.74260505946, -23414.145221012262, -58330.72165617009, -49887.104318988844, -51488.36094002258, -47427.205434704476, -31439.717881645905, 0.008, 0.986, 0.08, 192.0, 0.0, 0.0, 0.0, 0.0, 0.0, 0.0, 0.0, 0.0, 0.0, 1.712437566355777E9, 0.0, 2024-04-06 17:06:06.355
118.0, 65991.69266124877, 36907.312203325295, -22646.318095483555, -58459.35594551038, -49876.330778161384, -51584.89812432505, -47397.61172504565, -31220.51432377271, 0.008, 0.986, 0.08, 192.0, 0.0, 0.0, 0.0, 0.0, 0.0, 0.0, 0.0, 0.0, 0.0, 1.712437566361742E9, 0.0, 2024-04-06 17:06:06.361
119.0, 65889.88046525484, 36744.05506182373, -23316.84807739831, -58647.289412890605, -49790.276562008454, -51519.8098444712, -47557.53845662338, -31423.691680871452, 0.008, 0.986, 0.08, 192.0, 0.0, 0.0, 0.0, 0.0, 0.0, 0.0, 0.0, 0.0, 0.0, 1.712437566364729E9, 0.0, 2024-04-06 17:06:06.364
120.0, 65810.37531022732, 36689.44975011942, -24401.757049770004, -58771.609815551026, -49616.04471397933, -51422.46799736834, -47733.04435408644, -31837.02013933899, 0.006, 0.992, 0.08, 192.0, 0.0, 48.0, 31.0, 0.0, 2.0, 128.0, 0.0, 0.0, 0.0, 1.712437566368887E9, 0.0, 2024-04-06 17:06:06.368
121.0, 65723.89641092974, 36875.81859538777, -23589.338194052958, -58373.50289505755, -49982.47921257964, -51545.000260472334, -47421.59514684619, -31484.46607404543, 0.006, 0.992, 0.08, 192.0, 0.0, 0.0, 0.0, 0.0, 0.0, 0.0, 0.0, 0.0, 0.0, 1.71243756637174E9, 0.0, 2024-04-06 17:06:06.371
122.0, 65948.26322177211, 36943.76789853191, -22642.47359543724, -58480.14306785382, -49905.276287231005, -51625.15361608906, -47442.27051046735, -31174.44737845032, 0.006, 0.992, 0.08, 192.0, 0.0, 0.0, 0.0, 0.0, 0.0, 0.0, 0.0, 0.0, 0.0, 1.71243756637574E9, 0.0, 2024-04-06 17:06:06.375
123.0, 65925.35268370541, 36763.90341090005, -23169.86300586021, -58604.68698795879, -49773.19982924459, -51502.46489077388, -47532.79507551135, -31402.39046840554, 0.006, 0.992, 0.08, 192.0, 0.0, 0.0, 0.0, 0.0, 0.0, 0.0, 0.0, 0.0, 0.0, 1.712437566379819E9, 0.0, 2024-04-06 17:06:06.379
124.0, 65755.39001886726, 36646.46734553186, -24236.354140800733, -58803.2822374442, -49714.10181690477, -51498.03924537173, -47716.414656211695, -31713.124419823223, 0.006, 0.992, 0.08, 192.0, 0.0, 0.0, 0.0, 0.0, 0.0, 0.0, 0.0, 0.0, 0.0, 1.712437566383767E9, 0.0, 2024-04-06 17:06:06.383
125.0, 65765.80593178344, 36835.07136524575, -23936.125509277048, -58478.01965213057, -49817.63509722175, -51462.96935832135, -47546.049659973345, -31636.79321250835, 0.006, 0.992, 0.08, 192.0, 0.0, 0.0, 0.0, 0.0, 0.0, 0.0, 0.0, 0.0, 0.0, 1.712437566387786E9, 0.0, 2024-04-06 17:06:06.387
126.0, 65939.63544841236, 37012.94654762108, -22678.951642388303, -58332.50979572652, -49913.90406059076, -51556.466705377905, -47357.915026893024, -31162.73506435574, 0.006, 0.992, 0.08, 192.0, 0.0, 0.0, 0.0, 0.0, 0.0, 0.0, 0.0, 0.0, 0.0, 1.71243756639281E9, 0.0, 2024-04-06 17:06:06.392
127.0, 65939.32252398998, 36784.623478010115, -22987.338660638175, -58597.89205764438, -49815.802254176415, -51546.94486223994, -47493.52306050337, -31281.08755124659, 0.006, 0.992, 0.08, 192.0, 0.0, 0.0, 0.0, 0.0, 0.0, 0.0, 0.0, 0.0, 0.0, 1.712437566395778E9, 0.0, 2024-04-06 17:06:06.395
128.0, 65791.3763274403, 36686.43226461796, -24070.57125217572, -58763.31731835811, -49712.62660177072, -51488.33858827813, -47659.88709448423, -31560.752577871393, 0.006, 0.992, 0.08, 192.0, 0.0, 0.0, 0.0, 0.0, 0.0, 0.0, 0.0, 0.0, 0.0, 1.712437566399744E9, 0.0, 2024-04-06 17:06:06.399
129.0, 65764.04014397146, 36792.06660891374, -24143.72851177794, -58552.96505128921, -49772.28340772193, -51457.537884418714, -47547.83779952977, -31600.3598690462, 0.006, 0.992, 0.08, 192.0, 0.0, 0.0, 0.0, 0.0, 0.0, 0.0, 0.0, 0.0, 0.0, 1.71243756640378E9, 0.0, 2024-04-06 17:06:06.403
130.0, 65913.52861088856, 37040.48389679002, -22789.302204764153, -58310.53803092695, -49908.919621577224, -51558.36660365661, -47306.327200690175, -31054.41851072532, 0.006, 0.99, 0.088, 192.0, 0.0, 48.0, 30.0, 240.0, 2.0, 192.0, 0.0, 0.0, 0.0, 1.712437566407783E9, 0.0, 2024-04-06 17:06:06.407
131.0, 65952.6665154298, 36808.830417255216, -22870.9978307483, -58584.793935393565, -49808.56028897289, -51566.23441770487, -47409.927536240524, -31126.502886593687, 0.006, 0.99, 0.088, 192.0, 0.0, 0.0, 0.0, 0.0, 0.0, 0.0, 0.0, 0.0, 0.0, 1.712437566411777E9, 0.0, 2024-04-06 17:06:06.411
132.0, 65789.76700183953, 36701.095008980636, -23886.795209264186, -58748.028725150674, -49716.89578496168, -51500.56499249518, -47578.057358033344, -31376.48479658184, 0.006, 0.99, 0.088, 192.0, 0.0, 0.0, 0.0, 0.0, 0.0, 0.0, 0.0, 0.0, 0.0, 1.712437566415801E9, 0.0, 2024-04-06 17:06:06.415
133.0, 65732.1665563782, 36735.11436404161, -24326.878705844727, -58670.155247468385, -49725.85883448826, -51471.50772470328, -47570.79304108537, -31580.980906603447, 0.006, 0.99, 0.088, 192.0, 0.0, 0.0, 0.0, 0.0, 0.0, 0.0, 0.0, 0.0, 0.0, 1.712437566421822E9, 0.0, 2024-04-06 17:06:06.421
134.0, 65869.62978477834, 37055.593676041804, -22971.446570330452, -58287.403975415706, -49896.335589448885, -51526.04598117423, -47265.982301948345, -31068.544813221077, 0.006, 0.99, 0.088, 192.0, 0.0, 0.0, 0.0, 0.0, 0.0, 0.0, 0.0, 0.0, 0.0, 1.712437566425803E9, 0.0, 2024-04-06 17:06:06.425
135.0, 66011.51865858062, 36885.653362948105, -22808.61411197354, -58548.025315764586, -49737.36998288274, -51527.85647247511, -47361.200733327954, -31133.275465163646, 0.006, 0.99, 0.088, 192.0, 0.0, 0.0, 0.0, 0.0, 0.0, 0.0, 0.0, 0.0, 0.0, 1.712437566429343E9, 0.0, 2024-04-06 17:06:06.429
136.0, 65762.94490849315, 36716.29419521024, -23604.38091807138, -58672.07749749154, -49835.89647244173, -51543.50269359383, -47431.876949295634, -31297.896063076983, 0.006, 0.99, 0.088, 192.0, 0.0, 0.0, 0.0, 0.0, 0.0, 0.0, 0.0, 0.0, 0.0, 1.712437566432801E9, 0.0, 2024-04-06 17:06:06.432
137.0, 65716.1627073482, 36672.82005224467, -24404.84159050484, -58842.062514074154, -49727.69167753359, -51540.57461507018, -47648.15242864519, -31645.868020757203, 0.006, 0.99, 0.088, 192.0, 0.0, 0.0, 0.0, 0.0, 0.0, 0.0, 0.0, 0.0, 0.0, 1.712437566436759E9, 0.0, 2024-04-06 17:06:06.436
138.0, 65934.69571288774, 37087.757836312994, -23273.619803621747, -58253.228158143545, -49736.855892760264, -51387.711034740336, -47284.60130507962, -31349.372130557556, 0.006, 0.99, 0.088, 192.0, 0.0, 0.0, 0.0, 0.0, 0.0, 0.0, 0.0, 0.0, 0.0, 1.712437566441859E9, 0.0, 2024-04-06 17:06:06.441
139.0, 65900.34108165992, 36861.78169986984, -22593.2327024022, -58517.1128531829, -49984.66968353626, -51669.790049766314, -47237.50617951229, -31102.698278748787, 0.006, 0.99, 0.088, 192.0, 0.0, 0.0, 0.0, 0.0, 0.0, 0.0, 0.0, 0.0, 0.0, 1.712437566444886E9, 0.0, 2024-04-06 17:06:06.444
140.0, 65932.52759367556, 36796.08992291569, -23557.75517913761, -58717.608000947, -49625.20892920601, -51437.37661092003, -47524.30141261833, -31481.292126332777, 0.008, 0.994, 0.088, 192.0, 0.0, 64.0, 31.0, 16.0, 2.0, 192.0, 0.0, 0.0, 0.0, 1.712437566448947E9, 0.0, 2024-04-06 17:06:06.448
141.0, 65699.77887866246, 36667.63444753104, -24346.458833987577, -58752.18614961936, -49794.121062054764, -51515.13832988004, -47523.92143296259, -31744.550972527384, 0.008, 0.994, 0.088, 192.0, 0.0, 0.0, 0.0, 0.0, 0.0, 0.0, 0.0, 0.0, 0.0, 1.71243756645182E9, 0.0, 2024-04-06 17:06:06.451
142.0, 65839.74550244158, 36992.38294272219, -23472.662087996257, -58407.70106407417, -49842.11025740031, -51482.5494864642, -47360.55253273875, -31445.886963115572, 0.008, 0.994, 0.088, 192.0, 0.0, 0.0, 0.0, 0.0, 0.0, 0.0, 0.0, 0.0, 0.0, 1.712437566455827E9, 0.0, 2024-04-06 17:06:06.455
143.0, 66017.75479528366, 36980.29064897187, -22672.760209174183, -58426.81180558346, -49825.70407697011, -51520.614507271595, -47254.2029326204, -31255.114824189524, 0.008, 0.994, 0.088, 192.0, 0.0, 0.0, 0.0, 0.0, 0.0, 0.0, 0.0, 0.0, 0.0, 1.712437566459854E9, 0.0, 2024-04-06 17:06:06.459
144.0, 65919.74239584713, 36790.12200714612, -23299.43606846763, -58659.381706640925, -49766.47195416355, -51498.7545011943, -47421.14811195709, -31435.761622877315, 0.008, 0.994, 0.088, 192.0, 0.0, 0.0, 0.0, 0.0, 0.0, 0.0, 0.0, 0.0, 0.0, 1.712437566463833E9, 0.0, 2024-04-06 17:06:06.463
145.0, 65795.69021412019, 36702.614927603594, -24358.59583122681, -58795.12385071801, -49669.73360416098, -51449.84888432609, -47581.767747612925, -31808.29814771392, 0.008, 0.994, 0.088, 192.0, 0.0, 0.0, 0.0, 0.0, 0.0, 0.0, 0.0, 0.0, 0.0, 1.712437566467808E9, 0.0, 2024-04-06 17:06:06.467
146.0, 65829.19547905869, 36944.05847120982, -23732.009378911185, -58413.19959321018, -49822.507777513005, -51440.08117199912, -47357.84797165966, -31598.079991111757, 0.008, 0.994, 0.088, 192.0, 0.0, 0.0, 0.0, 0.0, 0.0, 0.0, 0.0, 0.0, 0.0, 1.712437566471803E9, 0.0, 2024-04-06 17:06:06.471
147.0, 65999.56047529704, 37022.51309424795, -22656.555194444085, -58399.52032560353, -49874.788507793965, -51545.31318489471, -47236.92503415645, -31225.811687208618, 0.008, 0.994, 0.088, 192.0, 0.0, 0.0, 0.0, 0.0, 0.0, 0.0, 0.0, 0.0, 0.0, 1.712437566476828E9, 0.0, 2024-04-06 17:06:06.476
148.0, 65957.33803002095, 36810.75266727837, -23136.313037432796, -58637.94638370829, -49784.86743985027, -51507.82930944316, -47391.420291831535, -31392.890977012037, 0.008, 0.994, 0.088, 192.0, 0.0, 0.0, 0.0, 0.0, 0.0, 0.0, 0.0, 0.0, 0.0, 1.712437566479829E9, 0.0, 2024-04-06 17:06:06.479
