%OpenBCI Raw EXG Data
%Number of channels = 8
%Sample Rate = 250 Hz
%Board = OpenBCI_GUI$BoardCytonSerial
Sample Index, EXG Channel 0, EXG Channel 1, EXG Channel 2, EXG Channel 3, EXG Channel 4, EXG Channel 5, EXG Channel 6, EXG Channel 7, Accel Channel 0, Accel Channel 1, Accel Channel 2, Not Used, Digital Channel 0 (D11), Digital Channel 1 (D12), Digital Channel 2 (D13), Digital Channel 3 (D17), Not Used, Digital Channel 4 (D18), Analog Channel 0, Analog Channel 1, Analog Channel 2, Timestamp, Marker Channel, Timestamp (Formatted)
49.0, 30147.362368984508, 28686.407647896725, -46889.17659392078, -54900.3100276363, -55956.67582233856, -34725.245502620404, -54221.912231673276, -33379.066989310624, 0.0, 0.0, 0.0, 192.0, 0.0, 0.0, 0.0, 0.0, 0.0, 0.0, 0.0, 0.0, 0.0, 1.71243929958343E9, 0.0, 2024-04-06 17:34:59.583
50.0, 30126.19526698533, 28337.586323927204, -45331.17059840806, -54456.53849322063, -56130.01360058947, -35446.20102002633, -54498.604476285516, -33742.595761131735, 0.0, 0.0, 0.0, 192.0, 0.0, 0.0, 0.0, 0.0, 0.0, 0.0, 0.0, 0.0, 0.0, 1.712439299583465E9, 0.0, 2024-04-06 17:34:59.583
51.0, 29811.438001565697, 28392.683374009535, -46992.35224632648, -53637.61527986709, -55706.001008272295, -36296.12610293938, -54554.17091300141, -34076.10614014937, 0.0, 0.0, 0.0, 192.0, 0.0, 0.0, 0.0, 0.0, 0.0, 0.0, 0.0, 0.0, 0.0, 1.712439299583486E9, 0.0, 2024-04-06 17:34:59.583
52.0, 29652.986485122026, 28640.810089207902, -50131.74416205218, -53188.23345759314, -55099.73229166654, -36719.60225338963, -54394.62416107943, -34181.60637397842, 0.0, 0.0, 0.0, 192.0, 0.0, 0.0, 0.0, 0.0, 0.0, 0.0, 0.0, 0.0, 0.0, 1.712439299583505E9, 0.0, 2024-04-06 17:34:59.583
0.0, 0.0, 0.0, 0.0, 0.0, 0.0, 0.0, 0.0, 0.0, -0.022, 0.988, -0.05, 192.0, 255.0, 80.0, 30.0, 224.0, 254.0, 112.0, 0.0, 0.0, 0.0, 1.712439299677687E9, 0.0, 2024-04-06 17:34:59.677
1.0, 42601.5532137815, 39161.820907809844, -53967.88465593871, -57937.42036073451, -55727.36927597157, -34928.51226669696, -56719.36204664255, -33131.387309001366, -0.022, 0.988, -0.05, 192.0, 0.0, 0.0, 0.0, 0.0, 0.0, 0.0, 0.0, 0.0, 0.0, 1.712439299694681E9, 0.0, 2024-04-06 17:34:59.694
2.0, 42555.508620203575, 39422.06226850299, -52555.902606952506, -58640.60624129847, -55806.96383797692, -34093.38403861332, -56370.29485348402, -32585.73652335841, -0.022, 0.988, -0.05, 192.0, 0.0, 0.0, 0.0, 0.0, 0.0, 0.0, 0.0, 0.0, 0.0, 1.712439299698657E9, 0.0, 2024-04-06 17:34:59.698
3.0, 42811.369038983474, 39612.052096373096, -51965.32481495438, -58643.802540755576, -55995.41139547961, -34094.27810839154, -56301.27266660603, -32454.75530085031, -0.022, 0.988, -0.05, 192.0, 0.0, 0.0, 0.0, 0.0, 0.0, 0.0, 0.0, 0.0, 0.0, 1.712439299701689E9, 0.0, 2024-04-06 17:34:59.701
4.0, 42795.52165216466, 39454.20407702972, -52867.17300023711, -58236.08437014632, -55900.30472282228, -34499.60464234408, -56477.96320652524, -32735.18028678659, -0.022, 0.988, -0.05, 192.0, 0.0, 0.0, 0.0, 0.0, 0.0, 0.0, 0.0, 0.0, 0.0, 1.712439299706707E9, 0.0, 2024-04-06 17:34:59.706
5.0, 42643.26156893511, 39200.04239082842, -53942.82835040431, -57895.04145324725, -55756.44889550792, -34912.106086266765, -56696.80913648714, -33088.20373871371, -0.022, 0.988, -0.05, 192.0, 0.0, 0.0, 0.0, 0.0, 0.0, 0.0, 0.0, 0.0, 0.0, 1.71243929970977E9, 0.0, 2024-04-06 17:34:59.709
6.0, 42549.18307652272, 39358.471555527634, -52876.67249163062, -58491.184829614744, -55754.83956990714, -34234.44589787077, -56422.48617678716, -32694.343649666745, -0.022, 0.988, -0.05, 192.0, 0.0, 0.0, 0.0, 0.0, 0.0, 0.0, 0.0, 0.0, 0.0, 1.712439299712692E9, 0.0, 2024-04-06 17:34:59.712
7.0, 42794.18054749734, 39638.248340874714, -51889.21712508406, -58701.87237285047, -55984.16846801859, -33985.939203016664, -56257.48559921809, -32409.895349728507, -0.022, 0.988, -0.05, 192.0, 0.0, 0.0, 0.0, 0.0, 0.0, 0.0, 0.0, 0.0, 0.0, 1.712439299717665E9, 0.0, 2024-04-06 17:34:59.717
8.0, 42825.89767287942, 39490.30214432504, -52681.921742191524, -58311.27563849398, -55921.62828703264, -34440.59603698207, -56435.45018857124, -32702.14440848165, -0.008, 0.99, -0.062, 192.0, 255.0, 192.0, 30.0, 240.0, 254.0, 16.0, 0.0, 0.0, 0.0, 1.712439299721962E9, 0.0, 2024-04-06 17:34:59.721
9.0, 42684.008799077135, 39249.775022241476, -53844.34656433423, -57906.17262198599, -55779.47119229689, -34871.1800421691, -56666.05313611664, -33062.40982561229, -0.008, 0.99, -0.062, 192.0, 0.0, 0.0, 0.0, 0.0, 0.0, 0.0, 0.0, 0.0, 0.0, 1.712439299725669E9, 0.0, 2024-04-06 17:34:59.725
10.0, 42559.75545165008, 39307.509578169535, -53217.29072538504, -58327.815929390905, -55705.866897805565, -34412.745763390754, -56497.453927690265, -32830.06344199937, -0.008, 0.99, -0.062, 192.0, 0.0, 0.0, 0.0, 0.0, 0.0, 0.0, 0.0, 0.0, 0.0, 1.712439299729761E9, 0.0, 2024-04-06 17:34:59.729
11.0, 42765.61501808346, 39657.24732366173, -51878.42123251215, -58747.894614683944, -55956.78758106084, -33909.6526991907, -56238.35250596434, -32385.576651761134, -0.008, 0.99, -0.062, 192.0, 0.0, 0.0, 0.0, 0.0, 0.0, 0.0, 0.0, 0.0, 0.0, 1.712439299734039E9, 0.0, 2024-04-06 17:34:59.734
12.0, 42869.595333289544, 39549.84719155398, -52498.1904027689, -58356.13558961578, -55922.41059808858, -34377.5641176181, -56407.44345276874, -32650.26600960088, -0.008, 0.99, -0.062, 192.0, 0.0, 0.0, 0.0, 0.0, 0.0, 0.0, 0.0, 0.0, 0.0, 1.712439299738132E9, 0.0, 2024-04-06 17:34:59.738
13.0, 42721.470322784226, 39308.67186888121, -53677.75901290882, -57954.40768652054, -55809.958971733926, -34801.6661169131, -56639.83453987057, -32991.66655441124, -0.008, 0.99, -0.062, 192.0, 0.0, 0.0, 0.0, 0.0, 0.0, 0.0, 0.0, 0.0, 0.0, 1.712439299740672E9, 0.0, 2024-04-06 17:34:59.740
14.0, 42573.16649832326, 39248.523324551985, -53529.76811287023, -58183.580122420804, -55694.601618600085, -34600.522768559786, -56586.995015978224, -32945.04081547747, -0.008, 0.99, -0.062, 192.0, 0.0, 0.0, 0.0, 0.0, 0.0, 0.0, 0.0, 0.0, 0.0, 1.712439299745832E9, 0.0, 2024-04-06 17:34:59.745
15.0, 42724.26429084114, 39633.21919837227, -51958.77575382897, -58759.070486911594, -55924.37755160064, -33877.62264938625, -56253.70815440514, -32392.572747775645, -0.008, 0.99, -0.062, 192.0, 0.0, 0.0, 0.0, 0.0, 0.0, 0.0, 0.0, 0.0, 0.0, 1.712439299749803E9, 0.0, 2024-04-06 17:34:59.749
16.0, 42873.8198129916, 39557.75970909115, -52350.93711029734, -58437.160663266266, -55951.378458902655, -34321.349480313, -56399.866211398396, -32617.878331885142, -0.008, 0.99, -0.062, 192.0, 0.0, 0.0, 0.0, 0.0, 0.0, 0.0, 0.0, 0.0, 0.0, 1.712439299753815E9, 0.0, 2024-04-06 17:34:59.753
17.0, 42738.34588984798, 39325.748601645064, -53499.325036922106, -58051.593071412215, -55856.42824845651, -34727.480677065934, -56620.410873938905, -32948.3265219124, -0.008, 0.99, -0.062, 192.0, 0.0, 0.0, 0.0, 0.0, 0.0, 0.0, 0.0, 0.0, 0.0, 1.712439299756793E9, 0.0, 2024-04-06 17:34:59.756
18.0, 42586.91282116328, 39184.93261157663, -53796.89381085561, -58077.38698451364, -55703.341150682114, -34774.665209611085, -56670.29996756315, -33070.568212338476, -0.008, 0.99, -0.062, 192.0, 0.0, 0.0, 30.0, 240.0, 253.0, 208.0, 0.0, 0.0, 0.0, 1.712439299761745E9, 0.0, 2024-04-06 17:34:59.761
19.0, 42666.663845379815, 39567.48271792921, -52134.99690711462, -58760.18807413436, -55894.2921035638, -33917.56521672788, -56294.27657059152, -32450.75433859281, -0.008, 0.99, -0.062, 192.0, 0.0, 0.0, 0.0, 0.0, 0.0, 0.0, 0.0, 0.0, 0.0, 1.712439299765767E9, 0.0, 2024-04-06 17:34:59.765
20.0, 42873.57394380259, 39580.938468091306, -52217.22897496569, -58522.32080964099, -55982.492087184444, -34257.557601637556, -56372.86530409638, -32564.97175275943, -0.008, 0.99, -0.062, 192.0, 0.0, 0.0, 0.0, 0.0, 0.0, 0.0, 0.0, 0.0, 0.0, 1.712439299769816E9, 0.0, 2024-04-06 17:34:59.769
21.0, 42750.79581150959, 39361.17611660673, -53304.10490084945, -58155.483979640485, -55899.5447635108, -34663.21941175692, -56583.32932988755, -32870.967134352584, -0.008, 0.99, -0.062, 192.0, 0.0, 0.0, 0.0, 0.0, 0.0, 0.0, 0.0, 0.0, 0.0, 1.712439299773836E9, 0.0, 2024-04-06 17:34:59.773
22.0, 42601.933193437246, 39168.16880323515, -53972.466763552045, -57980.87215195563, -55720.41788344597, -34888.36853365523, -56720.99372398779, -33106.97920405617, -0.008, 0.99, -0.062, 192.0, 0.0, 0.0, 0.0, 0.0, 0.0, 0.0, 0.0, 0.0, 0.0, 1.71243929977695E9, 0.0, 2024-04-06 17:34:59.776
23.0, 42619.255795390105, 39513.16797890282, -52370.94192158484, -58686.42731743185, -55824.42055039651, -33977.80316803493, -56325.9936959736, -32487.835882644165, -0.008, 0.99, -0.062, 192.0, 0.0, 0.0, 0.0, 0.0, 0.0, 0.0, 0.0, 0.0, 0.0, 1.712439299780816E9, 0.0, 2024-04-06 17:34:59.780
24.0, 42851.780992958666, 39616.7012592198, -52087.45474665818, -58587.20792379474, -55988.63881690965, -34158.47231846718, -56336.70018156769, -32483.030257586273, -0.008, 0.99, -0.062, 192.0, 0.0, 0.0, 0.0, 0.0, 0.0, 0.0, 0.0, 0.0, 0.0, 1.712439299784784E9, 0.0, 2024-04-06 17:34:59.784
25.0, 42792.03478002963, 39436.03210878755, -53073.18902888168, -58187.290512000385, -55893.93447565252, -34551.795965647216, -56530.154529828375, -32782.878909454215, -0.008, 0.99, -0.062, 192.0, 0.0, 0.0, 0.0, 0.0, 0.0, 0.0, 0.0, 0.0, 0.0, 1.712439299789793E9, 0.0, 2024-04-06 17:34:59.789
26.0, 42633.449153119225, 39185.15612902118, -54010.95646750408, -57918.153157014036, -55739.93095635545, -34912.62017638924, -56730.13558747001, -33113.26004424811, -0.008, 0.99, -0.062, 192.0, 0.0, 0.0, 0.0, 0.0, 0.0, 0.0, 0.0, 0.0, 0.0, 1.71243929979391E9, 0.0, 2024-04-06 17:34:59.793
27.0, 42570.70780643318, 39426.26439646058, -52686.973236438425, -58593.84639189797, -55805.77919552079, -34121.569588371465, -56407.197583579735, -32616.31370977327, -0.008, 0.99, -0.062, 192.0, 0.0, 0.0, 0.0, 0.0, 0.0, 0.0, 0.0, 0.0, 0.0, 1.712439299798159E9, 0.0, 2024-04-06 17:34:59.798
28.0, 42835.82184741758, 39654.58746607154, -51990.112899555315, -58635.30887786256, -55995.85843036872, -34050.71455844815, -56311.554469055474, -32441.41130941049, 0.006, 0.992, -0.07200000000000001, 192.0, 0.0, 48.0, 31.0, 0.0, 253.0, 192.0, 0.0, 0.0, 0.0, 1.712439299803785E9, 0.0, 2024-04-06 17:34:59.803
29.0, 42803.054190046096, 39463.88238237886, -52877.343043964276, -58272.160085697185, -55934.16761567207, -34483.46668284734, -56496.87278233442, -32730.06173730633, 0.006, 0.992, -0.07200000000000001, 192.0, 0.0, 0.0, 0.0, 0.0, 0.0, 0.0, 0.0, 0.0, 0.0, 1.712439299806831E9, 0.0, 2024-04-06 17:34:59.806
30.0, 42678.95730483023, 39238.77796396947, -53974.92545544213, -57871.84034250264, -55766.8648084241, -34894.5376151249, -56720.099654209575, -33084.49334913413, 0.006, 0.992, -0.07200000000000001, 192.0, 0.0, 0.0, 0.0, 0.0, 0.0, 0.0, 0.0, 0.0, 0.0, 1.712439299809909E9, 0.0, 2024-04-06 17:34:59.809
31.0, 42575.66989370226, 39370.094462644396, -53003.74215885904, -58429.78458759601, -55739.43921797744, -34261.49150866169, -56461.154694694844, -32715.555455154834, 0.006, 0.992, -0.07200000000000001, 192.0, 0.0, 0.0, 0.0, 0.0, 0.0, 0.0, 0.0, 0.0, 0.0, 1.712439299813781E9, 0.0, 2024-04-06 17:34:59.813
32.0, 42807.21161451479, 39663.483460364754, -51921.89537547772, -58701.76061412819, -55974.378403947165, -33949.2152868766, -56265.554578966454, -32384.593175005102, 0.006, 0.992, -0.07200000000000001, 192.0, 0.0, 0.0, 0.0, 0.0, 0.0, 0.0, 0.0, 0.0, 0.0, 1.712439299817806E9, 0.0, 2024-04-06 17:34:59.817
33.0, 42846.57303650058, 39512.005688191144, -52686.90618120506, -58322.764435144, -55934.65935405008, -34421.93233036189, -56449.777656767095, -32674.919983735086, 0.006, 0.992, -0.07200000000000001, 192.0, 0.0, 0.0, 0.0, 0.0, 0.0, 0.0, 0.0, 0.0, 0.0, 1.712439299821846E9, 0.0, 2024-04-06 17:34:59.821
34.0, 42700.079703340496, 39267.23173466107, -53862.27266338738, -57930.8265961202, -55811.3224281457, -34861.65819903114, -56685.78972647068, -33031.43030779723, 0.006, 0.992, -0.07200000000000001, 192.0, 0.0, 0.0, 0.0, 0.0, 0.0, 0.0, 0.0, 0.0, 0.0, 1.712439299826947E9, 0.0, 2024-04-06 17:34:59.826
35.0, 42584.43177752874, 39310.661174137735, -53348.16018917086, -58278.955016011605, -55712.93004905344, -34460.60084826957, -56541.88919566741, -32843.51919216147, 0.006, 0.992, -0.07200000000000001, 192.0, 0.0, 0.0, 0.0, 0.0, 0.0, 0.0, 0.0, 0.0, 0.0, 1.712439299830818E9, 0.0, 2024-04-06 17:34:59.830
36.0, 42778.95900952328, 39676.7156930823, -51929.494968592524, -58736.115245356, -55947.8021797898, -33879.99193429851, -56243.605165911344, -32354.083043823608, 0.006, 0.992, -0.07200000000000001, 192.0, 0.0, 0.0, 0.0, 0.0, 0.0, 0.0, 0.0, 0.0, 0.0, 1.71243929983382E9, 0.0, 2024-04-06 17:34:59.833
37.0, 42883.56517357411, 39557.40208117987, -52507.62283892904, -58378.777906749005, -55949.702078068505, -34358.67689355337, -56410.326827803474, -32619.64411969711, 0.006, 0.992, -0.07200000000000001, 192.0, 0.0, 0.0, 0.0, 0.0, 0.0, 0.0, 0.0, 0.0, 0.0, 1.712439299836892E9, 0.0, 2024-04-06 17:34:59.836
38.0, 42763.60336108248, 39338.422040751226, -53670.13706804956, -57955.189997576475, -55822.56535560672, -34766.39506416262, -56637.97934508078, -32956.551963871956, 0.008, 0.994, -0.076, 192.0, 0.0, 64.0, 31.0, 16.0, 253.0, 160.0, 0.0, 0.0, 0.0, 1.712439299840845E9, 0.0, 2024-04-06 17:34:59.840
39.0, 42611.991478442134, 39256.74876651153, -53629.054561740704, -58137.75904628743, -55689.75129005329, -34627.456620628436, -56609.83849881155, -32947.81243178993, 0.008, 0.994, -0.076, 192.0, 0.0, 0.0, 0.0, 0.0, 0.0, 0.0, 0.0, 0.0, 0.0, 1.712439299844928E9, 0.0, 2024-04-06 17:34:59.844
40.0, 42753.5897795665, 39659.61660857399, -52014.72217020061, -58732.27074530968, -55902.0481588898, -33857.41667239865, -56254.937500350185, -32368.03053236372, 0.008, 0.994, -0.076, 192.0, 0.0, 0.0, 0.0, 0.0, 0.0, 0.0, 0.0, 0.0, 0.0, 1.712439299849824E9, 0.0, 2024-04-06 17:34:59.849
41.0, 42918.38919143548, 39607.358230037484, -52335.804979301094, -58425.76127359406, -55946.349316400214, -34277.048322802584, -56377.64857740982, -32565.083511481706, 0.008, 0.994, -0.076, 192.0, 0.0, 0.0, 0.0, 0.0, 0.0, 0.0, 0.0, 0.0, 0.0, 1.712439299854032E9, 0.0, 2024-04-06 17:34:59.854
42.0, 42786.42449217135, 39381.046817427494, -53464.09868766054, -58042.942946308016, -55850.46033268695, -34675.82579562972, -56592.98528349224, -32885.69693394863, 0.008, 0.994, -0.076, 192.0, 0.0, 0.0, 0.0, 0.0, 0.0, 0.0, 0.0, 0.0, 0.0, 1.712439299858479E9, 0.0, 2024-04-06 17:34:59.858
43.0, 42641.853409034426, 39229.27847257596, -53857.35527960721, -58013.17042269355, -55690.22067668685, -34768.07144499677, -56671.55166525265, -33041.44388931321, 0.008, 0.994, -0.076, 192.0, 0.0, 0.0, 0.0, 0.0, 0.0, 0.0, 0.0, 0.0, 0.0, 1.712439299861938E9, 0.0, 2024-04-06 17:34:59.861
44.0, 42711.00970637914, 39610.12984634994, -52196.419500877804, -58702.78879437313, -55862.932606093, -33891.167806526166, -56291.19202985669, -32421.115925445072, 0.008, 0.994, -0.076, 192.0, 0.0, 0.0, 0.0, 0.0, 0.0, 0.0, 0.0, 0.0, 0.0, 1.712439299865887E9, 0.0, 2024-04-06 17:34:59.865
45.0, 42937.67874690041, 39660.10834695201, -52185.08716643896, -58476.09740210741, -55959.559197373295, -34187.59664149245, -56358.96251904518, -32513.80860970123, 0.008, 0.994, -0.076, 192.0, 0.0, 0.0, 0.0, 0.0, 0.0, 0.0, 0.0, 0.0, 0.0, 1.712439299869026E9, 0.0, 2024-04-06 17:34:59.869
46.0, 42830.36802177048, 39449.62196941638, -53243.10699023092, -58108.34415058424, -55873.706146920464, -34589.27984109877, -56571.57231230406, -32832.0527472559, 0.008, 0.994, -0.076, 192.0, 0.0, 0.0, 0.0, 0.0, 0.0, 0.0, 0.0, 0.0, 0.0, 1.712439299873144E9, 0.0, 2024-04-06 17:34:59.873
47.0, 42679.06906355251, 39242.13072563776, -53985.96721720305, -57916.45442443543, -55707.02918851724, -34855.64557977267, -56726.067569979146, -33108.1638465123, 0.012, 0.994, -0.078, 192.0, 0.0, 96.0, 31.0, 16.0, 253.0, 144.0, 0.0, 0.0, 0.0, 1.712439299877905E9, 0.0, 2024-04-06 17:34:59.877
48.0, 42647.933083526266, 39529.283586655096, -52462.7852395517, -58649.256366402675, -55830.164948721525, -33992.06358099742, -56352.74873408661, -32535.892133223075, 0.012, 0.994, -0.078, 192.0, 0.0, 0.0, 0.0, 0.0, 0.0, 0.0, 0.0, 0.0, 0.0, 1.712439299881857E9, 0.0, 2024-04-06 17:34:59.881
49.0, 42910.38726692048, 39684.874079808484, -52068.52281910453, -58541.051571494536, -55961.90613054111, -34095.66391654777, -56328.78766403052, -32483.276126775283, 0.012, 0.994, -0.078, 192.0, 0.0, 0.0, 0.0, 0.0, 0.0, 0.0, 0.0, 0.0, 0.0, 1.712439299885903E9, 0.0, 2024-04-06 17:34:59.885
50.0, 42854.28438833766, 39503.44497006476, -53023.232880024065, -58154.992241262466, -55862.35146073717, -34487.266479404745, -56512.89898310888, -32766.24921157947, 0.012, 0.994, -0.078, 192.0, 0.0, 0.0, 0.0, 0.0, 0.0, 0.0, 0.0, 0.0, 0.0, 1.712439299888955E9, 0.0, 2024-04-06 17:34:59.888
51.0, 42707.99222087768, 39266.5164788385, -54010.01769423696, -57843.94536542241, -55706.38098792804, -34869.59306831277, -56720.949020498876, -33099.89370106384, 0.012, 0.994, -0.078, 192.0, 0.0, 0.0, 0.0, 0.0, 0.0, 0.0, 0.0, 0.0, 0.0, 1.712439299892973E9, 0.0, 2024-04-06 17:34:59.892
52.0, 42631.77277228508, 39480.08739710896, -52757.8059146173, -58503.79121348754, -55739.99801158882, -34099.17314042725, -56399.39682476483, -32612.044526582307, 0.012, 0.994, -0.078, 192.0, 0.0, 0.0, 0.0, 0.0, 0.0, 0.0, 0.0, 0.0, 0.0, 1.712439299896935E9, 0.0, 2024-04-06 17:34:59.896
53.0, 42868.81302223361, 39694.48532992427, -51983.250914007534, -58642.37202911044, -55972.36674694619, -33990.45425539664, -56287.48164027711, -32406.386125849025, 0.012, 0.994, -0.078, 192.0, 0.0, 0.0, 0.0, 0.0, 0.0, 0.0, 0.0, 0.0, 0.0, 1.712439299900994E9, 0.0, 2024-04-06 17:34:59.900
54.0, 42864.29796985364, 39513.81617949202, -52857.8746745437, -58263.778181526446, -55924.71282776748, -34447.18980159638, -56489.49670666418, -32714.549626654345, 0.012, 0.994, -0.078, 192.0, 0.0, 0.0, 0.0, 0.0, 0.0, 0.0, 0.0, 0.0, 0.0, 1.712439299905998E9, 0.0, 2024-04-06 17:34:59.905
55.0, 42722.92318617382, 39263.7672142705, -53979.14993514418, -57884.245560675336, -55775.000843405825, -34876.231536416, -56722.334828655105, -33079.26304093159, 0.012, 0.994, -0.078, 192.0, 0.0, 0.0, 0.0, 0.0, 0.0, 0.0, 0.0, 0.0, 0.0, 1.712439299909914E9, 0.0, 2024-04-06 17:34:59.909
56.0, 42620.39573435733, 39383.371398850846, -53121.78172132751, -58378.66614802673, -55726.74342712682, -34295.53321546713, -56494.302331722065, -32760.996551632474, 0.012, 0.994, -0.078, 192.0, 0.0, 0.0, 0.0, 0.0, 0.0, 0.0, 0.0, 0.0, 0.0, 1.712439299912957E9, 0.0, 2024-04-06 17:34:59.912
57.0, 42852.02686214768, 39711.76322838822, -51947.130494967765, -58683.18631448583, -55958.374554917165, -33901.38255374224, -56266.31453827793, -32378.60290749108, 0.016, 0.988, -0.076, 192.0, 0.0, 128.0, 30.0, 224.0, 253.0, 160.0, 0.0, 0.0, 0.0, 1.712439299916932E9, 0.0, 2024-04-06 17:34:59.916
58.0, 42907.10156048555, 39565.5381161616, -52664.733250705394, -58306.17944075817, -55923.88581322263, -34375.44070189485, -56445.016735198114, -32661.12895740616, 0.016, 0.988, -0.076, 192.0, 0.0, 0.0, 0.0, 0.0, 0.0, 0.0, 0.0, 0.0, 0.0, 1.712439299923456E9, 0.0, 2024-04-06 17:34:59.923
59.0, 42777.86377404496, 39331.560055203445, -53828.36506704868, -57888.26887467729, -55785.349701088635, -34801.17437853508, -56674.70326122085, -33009.81617090895, 0.016, 0.988, -0.076, 192.0, 0.0, 0.0, 0.0, 0.0, 0.0, 0.0, 0.0, 0.0, 0.0, 1.712439299925969E9, 0.0, 2024-04-06 17:34:59.925
60.0, 42628.19649317223, 39316.36086897384, -53440.13761760445, -58231.03287589942, -55693.55108661069, -34475.2859443767, -56559.34590808701, -32866.27326801697, 0.016, 0.988, -0.076, 192.0, 0.0, 0.0, 0.0, 0.0, 0.0, 0.0, 0.0, 0.0, 0.0, 1.712439299929983E9, 0.0, 2024-04-06 17:34:59.929
61.0, 42795.58870739803, 39674.99460875924, -51991.07402456689, -58739.95974540231, -55943.331830898744, -33862.065835245354, -56259.72077366362, -32360.229773548817, 0.016, 0.988, -0.076, 192.0, 0.0, 0.0, 0.0, 0.0, 0.0, 0.0, 0.0, 0.0, 0.0, 1.712439299934011E9, 0.0, 2024-04-06 17:34:59.934
62.0, 42922.814836837635, 39575.909325588866, -52508.62866742953, -58382.354185861856, -55945.07526696626, -34324.67989023685, -56419.35693256342, -32602.12035204415, 0.016, 0.988, -0.076, 192.0, 0.0, 0.0, 0.0, 0.0, 0.0, 0.0, 0.0, 0.0, 0.0, 1.712439299938025E9, 0.0, 2024-04-06 17:34:59.938
63.0, 42791.163061995874, 39354.291779314495, -53669.17594303798, -57979.39693682158, -55841.407876182544, -34738.07540393775, -56651.70331617634, -32933.08263219388, 0.016, 0.988, -0.076, 192.0, 0.0, 0.0, 0.0, 0.0, 0.0, 0.0, 0.0, 0.0, 0.0, 1.712439299940999E9, 0.0, 2024-04-06 17:34:59.940
64.0, 42660.00302553213, 39283.48145288008, -53727.648106533066, -58069.96620535448, -55676.720223035845, -34640.35357717914, -56647.00944984072, -32957.736606328086, 0.016, 0.988, -0.076, 192.0, 0.0, 0.0, 0.0, 0.0, 0.0, 0.0, 0.0, 0.0, 0.0, 1.712439299944992E9, 0.0, 2024-04-06 17:34:59.944
65.0, 42749.857038242466, 39649.714785780285, -52089.06407225896, -58736.651687222926, -55898.51658326585, -33838.21652391154, -56275.14347733778, -32350.21619203284, 0.016, 0.988, -0.076, 192.0, 0.0, 0.0, 0.0, 0.0, 0.0, 0.0, 0.0, 0.0, 0.0, 1.712439299948975E9, 0.0, 2024-04-06 17:34:59.948
66.0, 42919.59618563607, 39610.84510217251, -52352.54643589812, -58443.75442788058, -55976.770040603886, -34253.95897078025, -56398.59216196444, -32537.948493712964, 0.016, 0.988, -0.076, 192.0, 0.0, 0.0, 0.0, 0.0, 0.0, 0.0, 0.0, 0.0, 0.0, 1.712439299953004E9, 0.0, 2024-04-06 17:34:59.953
67.0, 42814.90061460741, 39421.95050978071, -53443.0656961281, -58029.04016125682, -55857.836408357194, -34627.68013807299, -56604.07174874208, -32845.039110784426, 0.01, 0.99, -0.08, 192.0, 0.0, 80.0, 30.0, 240.0, 253.0, 128.0, 0.0, 0.0, 0.0, 1.712439299956942E9, 0.0, 2024-04-06 17:34:59.956
68.0, 42657.20905747522, 39246.44461231764, -53926.01983857392, -57970.90327392856, -55702.35767392608, -34767.87027929667, -56706.487441836296, -33038.58286602293, 0.01, 0.99, -0.08, 192.0, 0.0, 0.0, 0.0, 0.0, 0.0, 0.0, 0.0, 0.0, 0.0, 1.712439299962017E9, 0.0, 2024-04-06 17:34:59.962
69.0, 42702.58309871949, 39604.78777942512, -52285.51355427666, -58681.33111969604, -55859.3339752357, -33880.41661744316, -56317.52238482504, -32424.915722002475, 0.01, 0.99, -0.08, 192.0, 0.0, 0.0, 0.0, 0.0, 0.0, 0.0, 0.0, 0.0, 0.0, 1.712439299965962E9, 0.0, 2024-04-06 17:34:59.965
70.0, 42935.44357245488, 39665.942152254844, -52192.4185386203, -58488.97200691367, -55972.769078346384, -34139.339225213436, -56351.474684652654, -32480.638620929556, 0.01, 0.99, -0.08, 192.0, 0.0, 0.0, 0.0, 0.0, 0.0, 0.0, 0.0, 0.0, 0.0, 1.712439299969161E9, 0.0, 2024-04-06 17:34:59.969
71.0, 42875.18326940337, 39500.49453979666, -53199.543440287525, -58069.83209488775, -55846.54877740727, -34506.19840695839, -56520.05154133458, -32758.694321953575, 0.01, 0.99, -0.08, 192.0, 0.0, 0.0, 0.0, 0.0, 0.0, 0.0, 0.0, 0.0, 0.0, 1.712439299973025E9, 0.0, 2024-04-06 17:34:59.973
72.0, 42739.8881602154, 39292.46685415111, -53989.11881317125, -57842.04546714371, -55665.72316476383, -34794.871186598684, -56667.64010997297, -33028.72574671814, 0.01, 0.99, -0.08, 192.0, 0.0, 0.0, 0.0, 0.0, 0.0, 0.0, 0.0, 0.0, 0.0, 1.712439299977014E9, 0.0, 2024-04-06 17:34:59.977
73.0, 42688.38974099037, 39555.07749975652, -52524.81133041517, -58594.11461283143, -55789.551829046235, -33957.44072883615, -56311.219192888646, -32474.849519115633, 0.01, 0.99, -0.08, 192.0, 0.0, 0.0, 0.0, 0.0, 0.0, 0.0, 0.0, 0.0, 0.0, 1.712439299981107E9, 0.0, 2024-04-06 17:34:59.981
74.0, 42932.515493931234, 39705.75060912974, -52062.465496357145, -58579.004833579645, -55985.68838664155, -34043.85257290037, -56286.96755015464, -32415.662099797977, 0.01, 0.99, -0.08, 192.0, 0.0, 0.0, 0.0, 0.0, 0.0, 0.0, 0.0, 0.0, 0.0, 1.712439299985018E9, 0.0, 2024-04-06 17:34:59.985
75.0, 42909.56025237564, 39543.99103450668, -52997.32720820036, -58174.86294208324, -55880.277559790324, -34448.97794115281, -56479.058442003545, -32725.010243059427, 0.01, 0.99, -0.08, 192.0, 0.0, 0.0, 0.0, 0.0, 0.0, 0.0, 0.0, 0.0, 0.0, 1.712439299990003E9, 0.0, 2024-04-06 17:34:59.990
76.0, 42769.03483498512, 39306.79432234697, -54023.20522346559, -57848.81804571367, -55721.82604334665, -34843.262713344426, -56700.944209211375, -33079.26304093159, 0.01, 0.99, -0.08, 192.0, 0.0, 0.0, 0.0, 0.0, 0.0, 0.0, 0.0, 0.0, 0.0, 1.712439299994041E9, 0.0, 2024-04-06 17:34:59.994
77.0, 42703.298354542065, 39516.610147548934, -52853.80665705284, -58455.33263150843, -55722.6530578915, -34108.225596931654, -56402.45901375521, -32625.142648833116, 0.006, 0.988, -0.078, 192.0, 0.0, 48.0, 30.0, 224.0, 253.0, 144.0, 0.0, 0.0, 0.0, 1.712439299997035E9, 0.0, 2024-04-06 17:34:59.997
78.0, 42956.722433176335, 39780.3383803771, -51966.71062311061, -58618.075682887524, -55935.084037194734, -33918.36987952827, -56257.21737828462, -32358.441633992392, 0.006, 0.988, -0.078, 192.0, 0.0, 0.0, 0.0, 0.0, 0.0, 0.0, 0.0, 0.0, 0.0, 1.712439300001029E9, 0.0, 2024-04-06 17:35:00.001
79.0, 42972.14513685049, 39621.59629125551, -52786.48320275345, -58243.03576267192, -55865.8383328722, -34365.29300991214, -56438.17710139479, -32640.27477982936, 0.006, 0.988, -0.078, 192.0, 0.0, 0.0, 0.0, 0.0, 0.0, 0.0, 0.0, 0.0, 0.0, 1.712439300005061E9, 0.0, 2024-04-06 17:35:00.005
80.0, 42817.35930649749, 39355.69993921518, -53937.218062546024, -57887.21834268789, -55738.925127854964, -34810.85268388423, -56678.34659556706, -33004.63056619532, 0.006, 0.988, -0.078, 192.0, 0.0, 0.0, 0.0, 0.0, 0.0, 0.0, 0.0, 0.0, 0.0, 1.712439300009056E9, 0.0, 2024-04-06 17:35:00.009
81.0, 42692.0777788255, 39422.08462024744, -53210.585202048445, -58373.4805433131, -55694.802784300184, -34307.111419094974, -56492.64830263237, -32735.76143214243, 0.006, 0.988, -0.078, 192.0, 0.0, 0.0, 0.0, 0.0, 0.0, 0.0, 0.0, 0.0, 0.0, 1.712439300013065E9, 0.0, 2024-04-06 17:35:00.013
82.0, 42898.831415037086, 39741.46869676933, -51976.679501137674, -58758.91402470041, -55955.82645604926, -33874.42634992914, -56262.55944520944, -32335.128764525507, 0.006, 0.988, -0.078, 192.0, 0.0, 0.0, 0.0, 0.0, 0.0, 0.0, 0.0, 0.0, 0.0, 1.712439300017063E9, 0.0, 2024-04-06 17:35:00.017
83.0, 42987.76900622476, 39613.68377371833, -52649.55641622024, -58372.4300113237, -55919.7507404984, -34340.41551833338, -56436.85834847193, -32615.330233017237, 0.006, 0.988, -0.078, 192.0, 0.0, 0.0, 0.0, 0.0, 0.0, 0.0, 0.0, 0.0, 0.0, 1.712439300022087E9, 0.0, 2024-04-06 17:35:00.022
84.0, 42830.70329793731, 39355.476421770625, -53825.28052631385, -57996.85364924117, -55807.76850077731, -34773.52527064386, -56660.55460698064, -32972.01937103503, 0.006, 0.988, -0.078, 192.0, 0.0, 0.0, 0.0, 0.0, 0.0, 0.0, 0.0, 0.0, 0.0, 1.712439300025075E9, 0.0, 2024-04-06 17:35:00.025
85.0, 42715.05537212556, 39357.26456132705, -53544.29674676618, -58235.883204446225, -55676.45200210238, -34495.78249404222, -56565.42558257885, -32877.471491989076, 0.006, 0.988, -0.078, 192.0, 0.0, 0.0, 0.0, 0.0, 0.0, 0.0, 0.0, 0.0, 0.0, 1.71243930002914E9, 0.0, 2024-04-06 17:35:00.029
86.0, 42884.30278114114, 39748.82242069512, -52010.36358003182, -58774.62730105249, -55900.3941298001, -33800.95616590454, -56224.0697412574, -32325.226941731806, 0.006, 0.988, -0.078, 192.0, 0.0, 0.0, 0.0, 0.0, 0.0, 0.0, 0.0, 0.0, 0.0, 1.712439300033048E9, 0.0, 2024-04-06 17:35:00.033
87.0, 42997.78258774073, 39638.047175174615, -52483.72882410632, -58460.96527111117, -55940.98489773094, -34273.092064034, -56373.20058026321, -32572.77251157433, 0.01, 0.986, -0.076, 192.0, 0.0, 80.0, 30.0, 208.0, 253.0, 160.0, 0.0, 0.0, 0.0, 1.71243930003713E9, 0.0, 2024-04-06 17:35:00.037
88.0, 42872.612818791014, 39418.50834113459, -53628.451064640416, -58058.164484282075, -55832.64599235606, -34678.53035670881, -56595.86865852698, -32920.52095181, 0.01, 0.986, -0.076, 192.0, 0.0, 0.0, 0.0, 0.0, 0.0, 0.0, 0.0, 0.0, 0.0, 1.712439300041115E9, 0.0, 2024-04-06 17:35:00.041
89.0, 42726.16418911984, 39302.122807755804, -53814.41757850857, -58126.73963627096, -55691.58413309862, -34662.21358325644, -56628.59161240955, -33014.13005758882, 0.01, 0.986, -0.076, 192.0, 0.0, 0.0, 0.0, 0.0, 0.0, 0.0, 0.0, 0.0, 0.0, 1.712439300045094E9, 0.0, 2024-04-06 17:35:00.045
90.0, 42842.57207424308, 39713.59607143355, -52150.061982877494, -58757.95289968883, -55864.92191134953, -33808.89103518618, -56239.38068620929, -32392.12571288654, 0.01, 0.986, -0.076, 192.0, 0.0, 0.0, 0.0, 0.0, 0.0, 0.0, 0.0, 0.0, 0.0, 1.712439300049167E9, 0.0, 2024-04-06 17:35:00.049
91.0, 43026.839855532635, 39692.026638034185, -52312.961496467775, -58506.093443166435, -55934.5028918389, -34177.940687887756, -56324.80905351747, -32529.81245873123, 0.01, 0.986, -0.076, 192.0, 0.0, 0.0, 0.0, 0.0, 0.0, 0.0, 0.0, 0.0, 0.0, 1.712439300052127E9, 0.0, 2024-04-06 17:35:00.052
92.0, 42885.01803696371, 39451.20894327271, -53416.57887894856, -58157.80856106384, -55869.727536407416, -34590.97857367737, -56540.41398053336, -32851.40935795419, 0.01, 0.986, -0.076, 192.0, 0.0, 0.0, 0.0, 0.0, 0.0, 0.0, 0.0, 0.0, 0.0, 1.712439300057107E9, 0.0, 2024-04-06 17:35:00.057
93.0, 42752.04750919909, 39285.94014477017, -53992.13629867272, -58015.874983772635, -55699.58605761362, -34779.40377943561, -56664.108534349034, -33082.34758166642, 0.01, 0.986, -0.076, 192.0, 0.0, 0.0, 0.0, 0.0, 0.0, 0.0, 0.0, 0.0, 0.0, 1.712439300061136E9, 0.0, 2024-04-06 17:35:00.061
94.0, 42774.71217807677, 39633.24155011673, -52372.171267529884, -58736.45052152283, -55831.81897781122, -33882.58473665533, -56266.13572432229, -32464.09833003263, 0.01, 0.986, -0.076, 192.0, 0.0, 0.0, 0.0, 0.0, 0.0, 0.0, 0.0, 0.0, 0.0, 1.712439300065161E9, 0.0, 2024-04-06 17:35:00.065
95.0, 42999.81659648617, 39711.49500745476, -52196.218335177706, -58591.45475524125, -55975.786563847854, -34112.98651850063, -56288.0851373774, -32490.272222789794, 0.01, 0.986, -0.076, 192.0, 0.0, 0.0, 0.0, 0.0, 0.0, 0.0, 0.0, 0.0, 0.0, 1.712439300069433E9, 0.0, 2024-04-06 17:35:00.069
96.0, 42934.16952302093, 39536.81612453653, -53186.266504081075, -58185.30120674387, -55875.22606554342, -34487.31118289366, -56474.11870647892, -32777.15686287366, 0.01, 0.986, -0.076, 192.0, 0.0, 0.0, 0.0, 0.0, 0.0, 0.0, 0.0, 0.0, 0.0, 1.712439300073213E9, 0.0, 2024-04-06 17:35:00.073
97.0, 42787.51972764966, 39314.237453250586, -54048.01565981098, -57932.190052531965, -55713.8017670872, -34806.09176231525, -56653.200883054844, -33077.38549439734, 0.012, 0.986, -0.076, 192.0, 0.0, 96.0, 30.0, 208.0, 253.0, 160.0, 0.0, 0.0, 0.0, 1.712439300077204E9, 0.0, 2024-04-06 17:35:00.077
98.0, 42755.444974356295, 39593.231927541725, -52641.040401582766, -58613.15829910735, -55776.409003306515, -33971.544679587445, -56302.27849510652, -32537.166182657027, 0.012, 0.986, -0.076, 192.0, 0.0, 0.0, 0.0, 0.0, 0.0, 0.0, 0.0, 0.0, 0.0, 1.712439300080181E9, 0.0, 2024-04-06 17:35:00.080
99.0, 42999.906003463984, 39775.286886130205, -52054.79884800898, -58643.6907820333, -55956.005270004905, -33976.037380222966, -56227.06487501441, -32401.625204280044, 0.012, 0.986, -0.076, 192.0, 0.0, 0.0, 0.0, 0.0, 0.0, 0.0, 0.0, 0.0, 0.0, 1.712439300084121E9, 0.0, 2024-04-06 17:35:00.084
100.0, 42950.486296473304, 39575.08231104402, -52986.19603946162, -58282.82186780237, -55906.25028684739, -34420.61357743902, -56430.30928734652, -32707.24060621746, 0.012, 0.986, -0.076, 192.0, 0.0, 0.0, 0.0, 0.0, 0.0, 0.0, 0.0, 0.0, 0.0, 1.712439300089167E9, 0.0, 2024-04-06 17:35:00.089
101.0, 42822.343745511025, 39343.227665809114, -54044.41702895368, -57908.765424342804, -55740.86972962257, -34821.13448633367, -56656.33012727858, -33055.48078483114, 0.012, 0.986, -0.076, 192.0, 0.0, 0.0, 0.0, 0.0, 0.0, 0.0, 0.0, 0.0, 0.0, 1.71243930009322E9, 0.0, 2024-04-06 17:35:00.093
102.0, 42750.01350045366, 39529.261234910635, -52957.33993736982, -58468.63191945934, -55704.10110999359, -34119.98261451514, -56373.915836085784, -32633.7033669595, 0.012, 0.986, -0.076, 192.0, 0.0, 0.0, 0.0, 0.0, 0.0, 0.0, 0.0, 0.0, 0.0, 1.712439300097175E9, 0.0, 2024-04-06 17:35:00.097
103.0, 42979.61061949857, 39795.64932532899, -51977.68532963817, -58698.36314897098, -55941.4542843645, -33872.74996909499, -56205.60720033732, -32332.334796468593, 0.012, 0.986, -0.076, 192.0, 0.0, 0.0, 0.0, 0.0, 0.0, 0.0, 0.0, 0.0, 0.0, 1.712439300101167E9, 0.0, 2024-04-06 17:35:00.101
104.0, 42989.33362833663, 39620.12107612146, -52778.63774044964, -58338.768284174, -55899.41065304407, -34339.54380029962, -56398.88273464236, -32627.668395956567, 0.012, 0.986, -0.076, 192.0, 0.0, 0.0, 0.0, 0.0, 0.0, 0.0, 0.0, 0.0, 0.0, 1.712439300105275E9, 0.0, 2024-04-06 17:35:00.105
105.0, 42841.789763187146, 39367.97104692114, -53946.29287079488, -57953.021878364314, -55786.73550924486, -34789.39500920713, -56654.7208016778, -33002.97653710563, 0.012, 0.986, -0.076, 192.0, 0.0, 0.0, 0.0, 0.0, 0.0, 0.0, 0.0, 0.0, 0.0, 1.712439300108295E9, 0.0, 2024-04-06 17:35:00.108
106.0, 42729.91928218833, 39428.6560331173, -53323.81913945903, -58355.912072171224, -55705.28575244972, -34336.16868688687, -56495.777546856116, -32776.41925530663, 0.012, 0.986, -0.076, 192.0, 0.0, 0.0, 0.0, 0.0, 0.0, 0.0, 0.0, 0.0, 0.0, 1.712439300112268E9, 0.0, 2024-04-06 17:35:00.112
107.0, 42946.373575493526, 39790.55312759318, -51986.111937297814, -58747.9169664284, -55923.706999266986, -33806.991136907476, -56217.677142343186, -32322.120049252517, 0.014, 0.994, -0.076, 192.0, 0.0, 112.0, 31.0, 16.0, 253.0, 160.0, 0.0, 0.0, 0.0, 1.712439300117278E9, 0.0, 2024-04-06 17:35:00.117
108.0, 43016.982736227845, 39649.64773054692, -52618.57689840518, -58404.81768903944, -55922.41059808858, -34287.50893920767, -56386.566923447484, -32601.96388983296, 0.014, 0.994, -0.076, 192.0, 0.0, 0.0, 0.0, 0.0, 0.0, 0.0, 0.0, 0.0, 0.0, 1.712439300121272E9, 0.0, 2024-04-06 17:35:00.121
109.0, 42872.94809495784, 39411.13226546434, -53796.916162600064, -58004.207373166966, -55820.71016081693, -34722.362127585664, -56630.51386243271, -32965.492661654076, 0.014, 0.994, -0.076, 192.0, 0.0, 0.0, 0.0, 0.0, 0.0, 0.0, 0.0, 0.0, 0.0, 1.712439300125322E9, 0.0, 2024-04-06 17:35:00.125
110.0, 42760.205895925275, 39387.97585820864, -53621.36556164808, -58179.735622374494, -55666.77369675323, -34499.26936617725, -56568.73364075824, -32912.65313776173, 0.014, 0.994, -0.076, 192.0, 0.0, 0.0, 0.0, 0.0, 0.0, 0.0, 0.0, 0.0, 0.0, 1.712439300129237E9, 0.0, 2024-04-06 17:35:00.129
111.0, 42903.39117090597, 39772.135290162005, -52048.31684211694, -58763.54083580266, -55885.08318484821, -33763.293476497354, -56214.61495335281, -32337.810973860145, 0.014, 0.994, -0.076, 192.0, 0.0, 0.0, 0.0, 0.0, 0.0, 0.0, 0.0, 0.0, 0.0, 1.712439300132332E9, 0.0, 2024-04-06 17:35:00.132
112.0, 43049.52687615477, 39704.02952480668, -52446.60257656605, -58437.786512111015, -55916.219164874456, -34205.16511263432, -56351.63114686384, -32552.946514242474, 0.014, 0.994, -0.076, 192.0, 0.0, 0.0, 0.0, 0.0, 0.0, 0.0, 0.0, 0.0, 0.0, 1.712439300136313E9, 0.0, 2024-04-06 17:35:00.136
113.0, 42908.04033375267, 39473.09130109445, -53579.299578583195, -58054.319984235764, -55823.63823934057, -34612.19037916546, -56570.790001248126, -32870.98948609704, 0.014, 0.994, -0.076, 192.0, 0.0, 0.0, 0.0, 0.0, 0.0, 0.0, 0.0, 0.0, 0.0, 1.712439300142263E9, 0.0, 2024-04-06 17:35:00.142
114.0, 42764.78800353861, 39342.959444875654, -53866.58655006726, -58056.286937747835, -55665.5890542971, -34648.690777860975, -56625.06003678561, -32988.96199333215, 0.014, 0.994, -0.076, 192.0, 0.0, 0.0, 0.0, 0.0, 0.0, 0.0, 0.0, 0.0, 0.0, 1.712439300145247E9, 0.0, 2024-04-06 17:35:00.145
115.0, 42862.35336808603, 39744.933217159894, -52201.40393989134, -58717.406835246904, -55829.96378302143, -33772.9717818465, -56230.08236051588, -32364.141328828497, 0.014, 0.994, -0.076, 192.0, 0.0, 0.0, 0.0, 0.0, 0.0, 0.0, 0.0, 0.0, 0.0, 1.712439300149364E9, 0.0, 2024-04-06 17:35:00.149
116.0, 43056.27710298027, 39744.48618227079, -52293.448423558286, -58495.14108838333, -55928.62438304715, -34118.082716236444, -56310.34747485489, -32494.67551644749, 0.014, 0.994, -0.076, 192.0, 0.0, 0.0, 0.0, 0.0, 0.0, 0.0, 0.0, 0.0, 0.0, 1.712439300154338E9, 0.0, 2024-04-06 17:35:00.154
117.0, 42940.428011468415, 39527.16017093184, -53362.018270733155, -58113.887383209156, -55845.900576818065, -34513.418020417455, -56519.269230278645, -32816.652395326186, 0.012, 0.992, -0.08, 192.0, 0.0, 96.0, 31.0, 0.0, 253.0, 128.0, 0.0, 0.0, 0.0, 1.712439300158332E9, 0.0, 2024-04-06 17:35:00.158
118.0, 42783.697579347805, 39317.50080794106, -54020.701828086596, -57962.07433486871, -55684.85625801757, -34744.42329936306, -56661.381621525485, -33072.40105538381, 0.012, 0.992, -0.08, 192.0, 0.0, 0.0, 0.0, 0.0, 0.0, 0.0, 0.0, 0.0, 0.0, 1.712439300161352E9, 0.0, 2024-04-06 17:35:00.161
119.0, 42787.16209973837, 39645.98204445625, -52459.0301464832, -58683.9015703084, -55811.501242101345, -33866.692646347605, -56290.3873670563, -32484.103141320127, 0.012, 0.992, -0.08, 192.0, 0.0, 0.0, 0.0, 0.0, 0.0, 0.0, 0.0, 0.0, 0.0, 1.71243930016433E9, 0.0, 2024-04-06 17:35:00.164
120.0, 43031.26550093478, 39759.752423733764, -52187.43409960677, -58568.63362415238, -55960.185046218045, -34045.14897407877, -56300.13272763881, -32478.09052206165, 0.012, 0.992, -0.08, 192.0, 0.0, 0.0, 0.0, 0.0, 0.0, 0.0, 0.0, 0.0, 0.0, 1.712439300168313E9, 0.0, 2024-04-06 17:35:00.168
121.0, 42952.252084285275, 39558.34085444699, -53170.553227729, -58194.80069813737, -55880.992815612895, -34447.994464396776, -56495.12934626691, -32765.735121456997, 0.012, 0.992, -0.08, 192.0, 0.0, 0.0, 0.0, 0.0, 0.0, 0.0, 0.0, 0.0, 0.0, 1.712439300173306E9, 0.0, 2024-04-06 17:35:00.173
122.0, 42821.82965538855, 39343.5852937204, -54086.79593644094, -57879.775211784276, -55702.31297043717, -34791.92075633058, -56688.20371487185, -33081.319401421475, 0.012, 0.992, -0.08, 192.0, 0.0, 0.0, 0.0, 0.0, 0.0, 0.0, 0.0, 0.0, 0.0, 1.712439300177359E9, 0.0, 2024-04-06 17:35:00.177
123.0, 42759.2447709137, 39579.21738376825, -52757.090658794725, -58558.91061531432, -55752.04560185023, -33989.090798984864, -56353.93337654274, -32571.63257260711, 0.012, 0.992, -0.08, 192.0, 0.0, 0.0, 0.0, 0.0, 0.0, 0.0, 0.0, 0.0, 0.0, 1.71243930018134E9, 0.0, 2024-04-06 17:35:00.181
124.0, 42999.03428543023, 39779.01962745424, -52092.75211009409, -58646.48475009022, -55966.17531373207, -33947.44949906463, -56272.88595114779, -32409.94005321742, 0.012, 0.992, -0.08, 192.0, 0.0, 0.0, 0.0, 0.0, 0.0, 0.0, 0.0, 0.0, 0.0, 1.712439300184301E9, 0.0, 2024-04-06 17:35:00.184
125.0, 42997.13438715153, 39625.44079130182, -52973.99198698902, -58250.25537613099, -55885.753737181876, -34374.54663211663, -56469.04486048757, -32696.623527601187, 0.012, 0.992, -0.08, 192.0, 0.0, 0.0, 0.0, 0.0, 0.0, 0.0, 0.0, 0.0, 0.0, 1.712439300188355E9, 0.0, 2024-04-06 17:35:00.188
126.0, 42842.683832965355, 39366.02644515353, -54064.08656407435, -57901.79168007275, -55739.416866232976, -34802.24726226893, -56702.017092945236, -33042.91910444726, 0.012, 0.992, -0.08, 192.0, 0.0, 0.0, 0.0, 0.0, 0.0, 0.0, 0.0, 0.0, 0.0, 1.712439300192362E9, 0.0, 2024-04-06 17:35:00.192
127.0, 42730.29926184408, 39491.822062948, -53106.64959033127, -58453.432733229725, -55712.90769730898, -34176.733693687165, -56452.88454924638, -32666.582783053254, 0.016, 0.992, -0.08600000000000001, 192.0, 0.0, 128.0, 31.0, 0.0, 253.0, 80.0, 0.0, 0.0, 0.0, 1.712439300196404E9, 0.0, 2024-04-06 17:35:00.196
128.0, 42942.12674404702, 39770.77183375023, -52055.17882766471, -58743.44661753734, -55970.08686901175, -33873.57698363984, -56261.17363705321, -32328.19972374436, 0.016, 0.992, -0.08600000000000001, 192.0, 0.0, 0.0, 0.0, 0.0, 0.0, 0.0, 0.0, 0.0, 0.0, 1.712439300201453E9, 0.0, 2024-04-06 17:35:00.201
129.0, 43019.88846300703, 39660.46597486329, -52794.61923773518, -58311.387397216255, -55890.067623861745, -34319.427230289846, -56430.37634257989, -32608.132971302628, 0.016, 0.992, -0.08600000000000001, 192.0, 0.0, 0.0, 0.0, 0.0, 0.0, 0.0, 0.0, 0.0, 0.0, 1.712439300205398E9, 0.0, 2024-04-06 17:35:00.205
130.0, 42878.71484502731, 39415.98259401114, -53931.89834736566, -57917.370845958096, -55747.77641865926, -34735.77317425885, -56648.75288590824, -32962.81045231944, 0.016, 0.992, -0.08600000000000001, 192.0, 0.0, 0.0, 0.0, 0.0, 0.0, 0.0, 0.0, 0.0, 0.0, 1.71243930020939E9, 0.0, 2024-04-06 17:35:00.209
131.0, 42736.11071540245, 39423.85040805941, -53434.25910881271, -58302.49140292304, -55685.21388592886, -34356.44171910783, -56516.94464885529, -32799.21803465105, 0.016, 0.992, -0.08600000000000001, 192.0, 0.0, 0.0, 0.0, 0.0, 0.0, 0.0, 0.0, 0.0, 0.0, 1.712439300212364E9, 0.0, 2024-04-06 17:35:00.212
132.0, 42940.495066701784, 39796.29752591819, -52046.55105430497, -58752.029687408176, -55927.66325803557, -33786.69575294206, -56240.14064552077, -32335.911075581444, 0.016, 0.992, -0.08600000000000001, 192.0, 0.0, 0.0, 0.0, 0.0, 0.0, 0.0, 0.0, 0.0, 0.0, 1.712439300216394E9, 0.0, 2024-04-06 17:35:00.216
133.0, 43045.794134830736, 39673.988780258755, -52631.116227044615, -58406.31525591794, -55936.53690058433, -34267.21355524225, -56408.20341208022, -32608.959985847472, 0.016, 0.992, -0.08600000000000001, 192.0, 0.0, 0.0, 0.0, 0.0, 0.0, 0.0, 0.0, 0.0, 0.0, 1.712439300220487E9, 0.0, 2024-04-06 17:35:00.220
134.0, 42926.16759850593, 39456.81923113099, -53784.756813616375, -57986.21421888044, -55806.874430999094, -34675.22229852942, -56625.32825771908, -32943.34208289887, 0.016, 0.992, -0.08600000000000001, 192.0, 0.0, 0.0, 0.0, 0.0, 0.0, 0.0, 0.0, 0.0, 0.0, 1.712439300224431E9, 0.0, 2024-04-06 17:35:00.224
135.0, 42793.93467830833, 39393.8990704893, -53733.526615324816, -58139.3236683993, -55656.60365302607, -34525.35385195659, -56585.69861479982, -32930.042794947956, 0.016, 0.992, -0.08600000000000001, 192.0, 0.0, 0.0, 0.0, 0.0, 0.0, 0.0, 0.0, 0.0, 0.0, 1.712439300228433E9, 0.0, 2024-04-06 17:35:00.228
136.0, 42938.90809284546, 39795.51521486226, -52123.79868314251, -58736.04819012263, -55862.597329926175, -33739.041833763345, -56212.22331669609, -32328.959683055844, 0.016, 0.992, -0.08600000000000001, 192.0, 0.0, 0.0, 0.0, 0.0, 0.0, 0.0, 0.0, 0.0, 0.0, 1.712439300233444E9, 0.0, 2024-04-06 17:35:00.233
137.0, 43098.633658723076, 39735.00904262174, -52449.5306550897, -58439.1946720117, -55913.60401077319, -34163.43440573626, -56336.364905400864, -32526.7279179964, 0.008, 0.99, -0.08, 192.0, 0.0, 64.0, 30.0, 240.0, 253.0, 128.0, 0.0, 0.0, 0.0, 1.712439300237498E9, 0.0, 2024-04-06 17:35:00.237
138.0, 42960.11989833354, 39500.539243285566, -53569.33070055613, -58064.042993073825, -55826.36515216412, -34570.4596722674, -56559.725887742745, -32848.92831431965, 0.008, 0.99, -0.08, 192.0, 0.0, 0.0, 0.0, 0.0, 0.0, 0.0, 0.0, 0.0, 0.0, 1.712439300241138E9, 0.0, 2024-04-06 17:35:00.241
139.0, 42820.309736765594, 39359.49973577258, -53961.35794655776, -58022.379341409134, -55666.6395862865, -34661.31951347822, -56648.70818241932, -33007.17866506323, 0.008, 0.99, -0.08, 192.0, 0.0, 0.0, 0.0, 0.0, 0.0, 0.0, 0.0, 0.0, 0.0, 1.712439300244495E9, 0.0, 2024-04-06 17:35:00.244
140.0, 42891.94707774485, 39745.87199042702, -52310.100473177496, -58706.923867097365, -55823.99586725186, -33777.03979933736, -56261.3300992644, -32377.373561546035, 0.008, 0.99, -0.08, 192.0, 0.0, 0.0, 0.0, 0.0, 0.0, 0.0, 0.0, 0.0, 0.0, 1.712439300248439E9, 0.0, 2024-04-06 17:35:00.248
141.0, 43096.28672555527, 39766.904981959466, -52319.64466805991, -58513.44716709223, -55940.53786284183, -34091.05945718997, -56328.87707100833, -32465.95352482242, 0.008, 0.99, -0.08, 192.0, 0.0, 0.0, 0.0, 0.0, 0.0, 0.0, 0.0, 0.0, 0.0, 1.712439300252493E9, 0.0, 2024-04-06 17:35:00.252
142.0, 42990.94295393741, 39557.62559862442, -53366.66743357986, -58137.312011398324, -55852.67315538802, -34483.04199970269, -56534.17784383033, -32759.81190917634, 0.008, 0.99, -0.08, 192.0, 0.0, 0.0, 0.0, 0.0, 0.0, 0.0, 0.0, 0.0, 0.0, 1.712439300256525E9, 0.0, 2024-04-06 17:35:00.256
143.0, 42838.146428840926, 39338.89142738479, -54102.82213721539, -57950.786703918784, -55693.752252310784, -34754.258066923394, -56698.083185921096, -33026.33411006142, 0.008, 0.99, -0.08, 192.0, 0.0, 0.0, 0.0, 0.0, 0.0, 0.0, 0.0, 0.0, 0.0, 1.712439300261476E9, 0.0, 2024-04-06 17:35:00.261
144.0, 42834.48074275026, 39657.40378587291, -52577.94142698544, -58653.1455699379, -55790.20002963544, -33875.45453017408, -56325.21138491767, -32443.37826292256, 0.008, 0.99, -0.08, 192.0, 0.0, 0.0, 0.0, 0.0, 0.0, 0.0, 0.0, 0.0, 0.0, 1.712439300265459E9, 0.0, 2024-04-06 17:35:00.265
145.0, 43063.04968155023, 39777.00797045326, -52207.21539344972, -58606.27396181512, -55964.43187766455, -34003.284156713984, -56311.2415446331, -32406.922567715952, 0.008, 0.99, -0.08, 192.0, 0.0, 0.0, 0.0, 0.0, 0.0, 0.0, 0.0, 0.0, 0.0, 1.712439300268594E9, 0.0, 2024-04-06 17:35:00.268
146.0, 43015.32870713815, 39602.23968055721, -53165.88171313783, -58210.916305889645, -55878.51177197835, -34412.544597690656, -56506.70754989476, -32709.542835896355, 0.008, 0.99, -0.08, 192.0, 0.0, 0.0, 0.0, 0.0, 0.0, 0.0, 0.0, 0.0, 0.0, 1.712439300272568E9, 0.0, 2024-04-06 17:35:00.272
147.0, 42874.91504846991, 39369.535669033015, -54133.55578584145, -57906.10556675262, -55709.04084551822, -34785.6622678831, -56709.99666571578, -33042.62853176934, 0.006, 0.99, -0.078, 192.0, 0.0, 48.0, 30.0, 240.0, 253.0, 144.0, 0.0, 0.0, 0.0, 1.712439300276512E9, 0.0, 2024-04-06 17:35:00.276
148.0, 42817.06873381958, 39601.770293923655, -52889.79296562588, -58534.323696413485, -55734.63359291954, -34019.89150284428, -56396.60285670792, -32570.939668528998, 0.006, 0.99, -0.078, 192.0, 0.0, 0.0, 0.0, 0.0, 0.0, 0.0, 0.0, 0.0, 0.0, 1.712439300280495E9, 0.0, 2024-04-06 17:35:00.280
149.0, 43059.02636754827, 39832.686165891435, -52106.61019165638, -58659.00172698519, -55946.9528135005, -33894.96760308357, -56269.555541223956, -32362.956686372363, 0.006, 0.99, -0.078, 192.0, 0.0, 0.0, 0.0, 0.0, 0.0, 0.0, 0.0, 0.0, 0.0, 1.712439300284561E9, 0.0, 2024-04-06 17:35:00.284
150.0, 43047.09053600914, 39655.392128871936, -52962.39143161672, -58281.592521857325, -55884.479687747924, -34339.61085553299, -56455.96908998121, -32665.308733619302, 0.006, 0.99, -0.078, 192.0, 0.0, 0.0, 0.0, 0.0, 0.0, 0.0, 0.0, 0.0, 0.0, 1.712439300288614E9, 0.0, 2024-04-06 17:35:00.288
151.0, 42912.19775822136, 39409.65705033029, -54071.01560485549, -57896.85194454813, -55736.913470853986, -34763.51168912789, -56691.80234572916, -33034.80542120998, 0.006, 0.99, -0.078, 192.0, 0.0, 0.0, 0.0, 0.0, 0.0, 0.0, 0.0, 0.0, 0.0, 1.712439300293551E9, 0.0, 2024-04-06 17:35:00.293
152.0, 42801.33310572304, 39513.59266204747, -53223.951545232725, -58405.756462306555, -55698.379063413035, -34194.19040610676, -56470.56477911053, -32724.540856425865, 0.006, 0.99, -0.078, 192.0, 0.0, 0.0, 0.0, 0.0, 0.0, 0.0, 0.0, 0.0, 0.0, 1.712439300296518E9, 0.0, 2024-04-06 17:35:00.296
153.0, 43010.72424778035, 39819.051601773695, -52070.40036563878, -58740.18326284686, -55947.69042106753, -33819.82103822482, -56244.856863600835, -32359.40275900397, 0.006, 0.99, -0.078, 192.0, 0.0, 0.0, 0.0, 0.0, 0.0, 0.0, 0.0, 0.0, 0.0, 1.712439300300752E9, 0.0, 2024-04-06 17:35:00.300
154.0, 43078.09240556865, 39683.80119607463, -52783.33160678526, -58345.67497321069, -55901.42231004505, -34283.95501183927, -56418.90989767431, -32649.573105522766, 0.006, 0.99, -0.078, 192.0, 0.0, 0.0, 0.0, 0.0, 0.0, 0.0, 0.0, 0.0, 0.0, 1.712439300304608E9, 0.0, 2024-04-06 17:35:00.304
155.0, 42929.05097354067, 39426.934948794245, -53942.470722493024, -57962.2307970799, -55779.29237834125, -34714.4943135374, -56654.65374644444, -33004.25058653958, 0.006, 0.99, -0.078, 192.0, 0.0, 0.0, 0.0, 0.0, 0.0, 0.0, 0.0, 0.0, 0.0, 1.712439300308531E9, 0.0, 2024-04-06 17:35:00.308
156.0, 42777.41673915586, 39411.534596864534, -53572.61640699106, -58296.277617964464, -55701.44125240341, -34410.53294068968, -56563.48098081124, -32886.70276244912, 0.006, 0.99, -0.078, 192.0, 0.0, 0.0, 0.0, 0.0, 0.0, 0.0, 0.0, 0.0, 0.0, 1.71243930031262E9, 0.0, 2024-04-06 17:35:00.312
157.0, 42963.36090127956, 39804.3441539221, -52121.474101719155, -58773.062678940616, -55930.52428132585, -33776.45865398153, -56252.38940148227, -32368.097587597083, 0.01, 0.988, -0.074, 192.0, 0.0, 80.0, 30.0, 224.0, 253.0, 176.0, 0.0, 0.0, 0.0, 1.712439300316562E9, 0.0, 2024-04-06 17:35:00.316
158.0, 43089.402388263035, 39715.42891447889, -52625.863567097615, -58407.87987802981, -55921.89650796611, -34219.380822107894, -56392.49013572814, -32593.98431706242, 0.01, 0.988, -0.074, 192.0, 0.0, 0.0, 0.0, 0.0, 0.0, 0.0, 0.0, 0.0, 0.0, 1.712439300321909E9, 0.0, 2024-04-06 17:35:00.321
159.0, 42953.74965116378, 39492.53731877057, -53762.44977264998, -58002.68745454401, -55807.50027984384, -34617.46539085691, -56606.53044063216, -32910.395611571745, 0.01, 0.988, -0.074, 192.0, 0.0, 0.0, 0.0, 0.0, 0.0, 0.0, 0.0, 0.0, 0.0, 1.712439300324594E9, 0.0, 2024-04-06 17:35:00.324
160.0, 42811.033762816645, 39402.728009549144, -53834.44474154052, -58109.26057210691, -55665.49964731928, -34538.11669804057, -56607.268048199185, -32939.02819621899, 0.01, 0.988, -0.074, 192.0, 0.0, 0.0, 0.0, 0.0, 0.0, 0.0, 0.0, 0.0, 0.0, 1.712439300328627E9, 0.0, 2024-04-06 17:35:00.328
161.0, 42930.95087181936, 39798.06331373016, -52208.04240799456, -58748.05107689513, -55862.12794329262, -33728.15653421361, -56228.54009014846, -32322.00829053024, 0.01, 0.988, -0.074, 192.0, 0.0, 0.0, 0.0, 0.0, 0.0, 0.0, 0.0, 0.0, 0.0, 1.712439300332621E9, 0.0, 2024-04-06 17:35:00.332
162.0, 43127.48976081488, 39783.10999668956, -52453.553969091656, -58437.11595977735, -55905.311513580265, -34115.53461736853, -56334.844986777905, -32485.80187389873, 0.01, 0.988, -0.074, 192.0, 0.0, 0.0, 0.0, 0.0, 0.0, 0.0, 0.0, 0.0, 0.0, 1.71243930033659E9, 0.0, 2024-04-06 17:35:00.336
163.0, 42998.520195307756, 39555.837459067996, -53544.632022933016, -58068.96037685399, -55814.988114236374, -34507.53951162571, -56545.44312303581, -32793.093656670295, 0.01, 0.988, -0.074, 192.0, 0.0, 0.0, 0.0, 0.0, 0.0, 0.0, 0.0, 0.0, 0.0, 1.712439300340691E9, 0.0, 2024-04-06 17:35:00.340
164.0, 42838.39229802994, 39365.6911689867, -54048.507398189, -58012.5445738488, -55683.22458067234, -34675.19994678497, -56663.52738899319, -32997.8356358809, 0.01, 0.988, -0.074, 192.0, 0.0, 0.0, 0.0, 0.0, 0.0, 0.0, 0.0, 0.0, 0.0, 1.712439300345574E9, 0.0, 2024-04-06 17:35:00.345
165.0, 42905.35812441804, 39749.269455584224, -52416.003038406736, -58694.496297180216, -55819.27964917179, -33778.2244417935, -56274.56233198194, -32381.665096481454, 0.01, 0.988, -0.074, 192.0, 0.0, 0.0, 0.0, 0.0, 0.0, 0.0, 0.0, 0.0, 0.0, 1.712439300348641E9, 0.0, 2024-04-06 17:35:00.348
166.0, 43117.43147580999, 39791.983639238315, -52332.56397635508, -58539.710466827215, -55947.93629025654, -34051.89920090428, -56321.076312193436, -32447.401576924512, 0.01, 0.988, -0.074, 192.0, 0.0, 0.0, 0.0, 0.0, 0.0, 0.0, 0.0, 0.0, 0.0, 1.712439300351599E9, 0.0, 2024-04-06 17:35:00.351
167.0, 43035.17705621446, 39600.94327937881, -53352.20585491727, -58150.65600283814, -55859.3339752357, -34445.28990331768, -56524.96892511474, -32753.44166200658, 0.014, 0.988, -0.076, 192.0, 0.0, 112.0, 30.0, 224.0, 253.0, 160.0, 0.0, 0.0, 0.0, 1.712439300356643E9, 0.0, 2024-04-06 17:35:00.356
168.0, 42894.74104580177, 39384.51133781807, -54152.01832676153, -57917.370845958096, -55691.964112754365, -34744.78092727434, -56697.90437196546, -33049.1999446392, 0.014, 0.988, -0.076, 192.0, 0.0, 0.0, 0.0, 0.0, 0.0, 0.0, 0.0, 0.0, 0.0, 1.712439300360647E9, 0.0, 2024-04-06 17:35:00.360
169.0, 42865.92964719888, 39664.93632375435, -52688.291989361285, -58621.74136897819, -55783.22628536538, -33891.61484141527, -56337.281326923534, -32492.48504549087, 0.014, 0.988, -0.076, 192.0, 0.0, 0.0, 0.0, 0.0, 0.0, 0.0, 0.0, 0.0, 0.0, 1.712439300364655E9, 0.0, 2024-04-06 17:35:00.364
170.0, 43105.92032741551, 39818.559863395676, -52212.646867352356, -58610.02905488361, -55961.92848228556, -33954.24442937904, -56291.013215901046, -32404.799151992698, 0.014, 0.988, -0.076, 192.0, 0.0, 0.0, 0.0, 0.0, 0.0, 0.0, 0.0, 0.0, 0.0, 1.712439300368675E9, 0.0, 2024-04-06 17:35:00.368
171.0, 43063.85434435062, 39641.10936416499, -53150.21314027467, -58228.44007354261, -55884.21146681446, -34374.99366700574, -56485.495744406675, -32705.296004449847, 0.014, 0.988, -0.076, 192.0, 0.0, 0.0, 0.0, 0.0, 0.0, 0.0, 0.0, 0.0, 0.0, 1.712439300372617E9, 0.0, 2024-04-06 17:35:00.372
172.0, 42916.42223792341, 39400.291669403516, -54165.29526296798, -57902.93161903997, -55729.69385739492, -34776.565107889786, -56703.49230807929, -33053.156203407794, 0.014, 0.988, -0.076, 192.0, 0.0, 0.0, 0.0, 0.0, 0.0, 0.0, 0.0, 0.0, 0.0, 1.712439300376651E9, 0.0, 2024-04-06 17:35:00.376
173.0, 42830.166856070384, 39586.30288676058, -53022.02588582348, -58517.29166713854, -55743.88721512404, -34064.77380571053, -56417.30057207353, -32623.26510229887, 0.014, 0.988, -0.076, 192.0, 0.0, 0.0, 0.0, 0.0, 0.0, 0.0, 0.0, 0.0, 0.0, 1.712439300379683E9, 0.0, 2024-04-06 17:35:00.379
174.0, 43088.687132440464, 39860.33527378265, -52140.85306416191, -58665.550788110595, -55950.08205772425, -33864.61393411326, -56272.841247658886, -32363.046093350185, 0.014, 0.988, -0.076, 192.0, 0.0, 0.0, 0.0, 0.0, 0.0, 0.0, 0.0, 0.0, 0.0, 1.712439300384678E9, 0.0, 2024-04-06 17:35:00.384
175.0, 43103.34987680315, 39696.496986925245, -52951.59553904481, -58289.14741148322, -55883.987949369905, -34307.78197142863, -56453.30923239103, -32643.113451375182, 0.014, 0.988, -0.076, 192.0, 0.0, 0.0, 0.0, 0.0, 0.0, 0.0, 0.0, 0.0, 0.0, 1.712439300388661E9, 0.0, 2024-04-06 17:35:00.388
176.0, 42967.22775307033, 39455.54518169704, -54084.22548582858, -57900.47292714989, -55751.55386347221, -34742.724566784455, -56693.56813354113, -33003.803551650475, 0.014, 0.988, -0.076, 192.0, 0.0, 0.0, 0.0, 0.0, 0.0, 0.0, 0.0, 0.0, 0.0, 1.712439300392717E9, 0.0, 2024-04-06 17:35:00.392
177.0, 42852.29508308114, 39541.46528738324, -53344.87448273593, -58354.63802273727, -55683.47044986134, -34223.292377387574, -56501.007855058655, -32723.33386222528, 0.014, 0.988, -0.084, 192.0, 0.0, 112.0, 30.0, 224.0, 253.0, 96.0, 0.0, 0.0, 0.0, 1.712439300396691E9, 0.0, 2024-04-06 17:35:00.396
178.0, 43054.377204701574, 39863.084538350646, -52111.125244036346, -58741.47966402527, -55939.420275619064, -33783.566508718315, -56259.340794007876, -32315.30276719365, 0.014, 0.988, -0.084, 192.0, 0.0, 0.0, 0.0, 0.0, 0.0, 0.0, 0.0, 0.0, 0.0, 1.712439300400723E9, 0.0, 2024-04-06 17:35:00.400
179.0, 43131.7812957503, 39731.81274316463, -52785.63383646415, -58359.26483383952, -55907.45728104798, -34255.00950276965, -56433.751455992635, -32595.370125218647, 0.014, 0.988, -0.084, 192.0, 0.0, 0.0, 0.0, 0.0, 0.0, 0.0, 0.0, 0.0, 0.0, 1.712439300404764E9, 0.0, 2024-04-06 17:35:00.404
180.0, 42986.629067257534, 39490.79388270305, -53942.56012947085, -57953.06658185322, -55780.49937254183, -34676.83162413021, -56662.96859538181, -32941.933922998185, 0.014, 0.988, -0.084, 192.0, 0.0, 0.0, 0.0, 0.0, 0.0, 0.0, 0.0, 0.0, 0.0, 1.712439300407729E9, 0.0, 2024-04-06 17:35:00.407
181.0, 42857.14541162794, 39469.358559770415, -53665.778477880776, -58201.39446275168, -55661.36457459505, -34411.11408604552, -56575.52857107265, -32852.41518645468, 0.014, 0.988, -0.084, 192.0, 0.0, 0.0, 0.0, 0.0, 0.0, 0.0, 0.0, 0.0, 0.0, 1.712439300412745E9, 0.0, 2024-04-06 17:35:00.412
182.0, 43029.58912010064, 39863.12924183956, -52151.85012243392, -58738.28336456816, -55888.257132560866, -33727.15070571312, -56240.69943913215, -32313.02288925921, 0.014, 0.988, -0.084, 192.0, 0.0, 0.0, 0.0, 0.0, 0.0, 0.0, 0.0, 0.0, 0.0, 1.712439300416694E9, 0.0, 2024-04-06 17:35:00.416
183.0, 43172.57322938123, 39787.75915953626, -52604.204726720425, -58395.1840871792, -55903.76924321285, -34179.92999314427, -56382.811830378996, -32549.996083974373, 0.014, 0.988, -0.084, 192.0, 0.0, 0.0, 0.0, 0.0, 0.0, 0.0, 0.0, 0.0, 0.0, 1.712439300420742E9, 0.0, 2024-04-06 17:35:00.420
184.0, 43042.03904176224, 39570.947238319786, -53731.02321994582, -57995.19962015148, -55796.45851808292, -34581.90376542852, -56598.7073300728, -32875.102207076816, 0.014, 0.988, -0.084, 192.0, 0.0, 0.0, 0.0, 0.0, 0.0, 0.0, 0.0, 0.0, 0.0, 1.712439300426726E9, 0.0, 2024-04-06 17:35:00.426
185.0, 42882.78286251818, 39441.79885885702, -53917.99556231446, -58065.69702216352, -55651.753324479265, -34574.03595138025, -56630.96089732181, -32958.071882494914, 0.014, 0.988, -0.084, 192.0, 0.0, 0.0, 0.0, 0.0, 0.0, 0.0, 0.0, 0.0, 0.0, 1.71243930042978E9, 0.0, 2024-04-06 17:35:00.429
186.0, 42982.650456744486, 39838.341157238625, -52280.81968794104, -58721.65366669341, -55841.966669793925, -33738.259522707405, -56252.23293927109, -32337.810973860145, 0.014, 0.988, -0.084, 192.0, 0.0, 0.0, 0.0, 0.0, 0.0, 0.0, 0.0, 0.0, 0.0, 1.712439300432749E9, 0.0, 2024-04-06 17:35:00.432
187.0, 43173.13202299261, 39833.15555252499, -52454.49274235878, -58458.57363445445, -55924.57871730074, -34108.96320449867, -56354.80509457649, -32477.755245894823, 0.016, 0.99, -0.084, 192.0, 0.0, 128.0, 30.0, 240.0, 253.0, 96.0, 0.0, 0.0, 0.0, 1.712439300435742E9, 0.0, 2024-04-06 17:35:00.435
188.0, 43079.50056546934, 39642.42811708786, -53521.8332435886, -58048.463827188476, -55820.39723639456, -34485.27717414823, -56563.39157383342, -32779.21322336355, 0.016, 0.99, -0.084, 192.0, 0.0, 0.0, 0.0, 0.0, 0.0, 0.0, 0.0, 0.0, 0.0, 1.712439300439755E9, 0.0, 2024-04-06 17:35:00.439
189.0, 42922.23369148179, 39439.11664952239, -54090.4169190427, -57941.89070962557, -55656.7377634928, -34674.26117351784, -56682.48166829129, -32994.12524630132, 0.016, 0.99, -0.084, 192.0, 0.0, 0.0, 0.0, 0.0, 0.0, 0.0, 0.0, 0.0, 0.0, 1.712439300444753E9, 0.0, 2024-04-06 17:35:00.444
190.0, 42920.40084843646, 39763.44046156889, -52504.60535342758, -58682.91809355237, -55809.601343822644, -33805.13594211769, -56305.58655328591, -32398.56301528967, 0.016, 0.99, -0.084, 192.0, 0.0, 0.0, 0.0, 0.0, 0.0, 0.0, 0.0, 0.0, 0.0, 1.71243930044876E9, 0.0, 2024-04-06 17:35:00.448
191.0, 43154.58007509471, 39852.176887056456, -52330.88759552093, -58534.56956560249, -55948.13745595664, -34029.45804947115, -56338.10834146838, -32436.784498308243, 0.016, 0.99, -0.084, 192.0, 0.0, 0.0, 0.0, 0.0, 0.0, 0.0, 0.0, 0.0, 0.0, 1.712439300452845E9, 0.0, 2024-04-06 17:35:00.452
192.0, 43074.13614680006, 39649.89359973593, -53332.581023285515, -58166.03400302339, -55870.353385252165, -34431.05184209965, -56543.36441080146, -32744.903295624652, 0.016, 0.99, -0.084, 192.0, 0.0, 0.0, 0.0, 0.0, 0.0, 0.0, 0.0, 0.0, 0.0, 1.712439300455759E9, 0.0, 2024-04-06 17:35:00.455
193.0, 42948.49699121678, 39438.84842858892, -54183.668396910245, -57877.808258272205, -55682.799897527686, -34750.905305255095, -56725.50877636776, -33049.33405510593, 0.016, 0.99, -0.084, 192.0, 0.0, 0.0, 0.0, 0.0, 0.0, 0.0, 0.0, 0.0, 0.0, 1.712439300459806E9, 0.0, 2024-04-06 17:35:00.459
194.0, 42906.520415129715, 39702.68842013936, -52783.219848062974, -58566.30904272903, -55739.05923832169, -33918.92867313966, -56366.29389122652, -32504.040897374263, 0.016, 0.99, -0.084, 192.0, 0.0, 0.0, 0.0, 0.0, 0.0, 0.0, 0.0, 0.0, 0.0, 1.712439300463809E9, 0.0, 2024-04-06 17:35:00.463
195.0, 43148.612159325145, 39879.06603563619, -52213.697399341756, -58609.626723483416, -55948.31626991228, -33930.14924885622, -56302.43495731771, -32377.820596435144, 0.016, 0.99, -0.084, 192.0, 0.0, 0.0, 0.0, 0.0, 0.0, 0.0, 0.0, 0.0, 0.0, 1.712439300467792E9, 0.0, 2024-04-06 17:35:00.467
196.0, 43106.12149311561, 39691.13256825597, -53129.96245979815, -58243.706315005584, -55883.45150750298, -34370.65742858141, -56504.60648591596, -32683.123073950184, 0.016, 0.99, -0.084, 192.0, 0.0, 0.0, 0.0, 0.0, 0.0, 0.0, 0.0, 0.0, 0.0, 1.712439300474514E9, 0.0, 2024-04-06 17:35:00.474
197.0, 42965.640779214, 39447.29738799303, -54180.449745708676, -57880.75868854031, -55723.12244452506, -34778.33089570176, -56727.11810196855, -33040.639226512816, 0.018000000000000002, 0.99, -0.08600000000000001, 192.0, 0.0, 144.0, 30.0, 240.0, 253.0, 80.0, 0.0, 0.0, 0.0, 1.712439300476835E9, 0.0, 2024-04-06 17:35:00.476
198.0, 42878.24545839375, 39615.22604408575, -53128.241375475096, -58451.24226227311, -55706.40333967249, -34098.81551251597, -56453.55510158004, -32645.527439776357, 0.018000000000000002, 0.99, -0.08600000000000001, 192.0, 0.0, 0.0, 0.0, 0.0, 0.0, 0.0, 0.0, 0.0, 0.0, 1.712439300480817E9, 0.0, 2024-04-06 17:35:00.480
199.0, 43106.456769282435, 39888.744340985344, -52163.40597431731, -58692.037605290134, -55949.567967601775, -33850.80055603988, -56288.71098622215, -32355.200631046373, 0.018000000000000002, 0.99, -0.08600000000000001, 192.0, 0.0, 0.0, 0.0, 0.0, 0.0, 0.0, 0.0, 0.0, 0.0, 1.712439300484775E9, 0.0, 2024-04-06 17:35:00.484
200.0, 43135.69285102998, 39726.78360066219, -52952.221387889556, -58309.39809195973, -55900.416481544555, -34308.161951084374, -56479.03609025909, -32645.460384542992, 0.018000000000000002, 0.99, -0.08600000000000001, 192.0, 0.0, 0.0, 0.0, 0.0, 0.0, 0.0, 0.0, 0.0, 0.0, 1.712439300487892E9, 0.0, 2024-04-06 17:35:00.487
201.0, 42992.708741749375, 39471.750196427136, -54093.74732896654, -57916.29796222424, -55769.055279380715, -34742.38929061762, -56713.99762797328, -32998.707353914666, 0.018000000000000002, 0.99, -0.08600000000000001, 192.0, 0.0, 0.0, 0.0, 0.0, 0.0, 0.0, 0.0, 0.0, 0.0, 1.712439300491826E9, 0.0, 2024-04-06 17:35:00.491
202.0, 42864.90146695393, 39518.15241791635, -53482.85180125854, -58326.74304565705, -55697.23912444581, -34299.60123295799, -56548.57236725955, -32769.669028481134, 0.018000000000000002, 0.99, -0.08600000000000001, 192.0, 0.0, 0.0, 0.0, 0.0, 0.0, 0.0, 0.0, 0.0, 0.0, 1.71243930049586E9, 0.0, 2024-04-06 17:35:00.495
203.0, 43079.880545125074, 39889.50430029682, -52164.52356154008, -58724.33587602805, -55933.94409822752, -33781.040761594864, -56280.4855442626, -32311.97235726981, 0.018000000000000002, 0.99, -0.08600000000000001, 192.0, 0.0, 0.0, 0.0, 0.0, 0.0, 0.0, 0.0, 0.0, 0.0, 1.712439300500818E9, 0.0, 2024-04-06 17:35:00.500
204.0, 43179.77049109584, 39780.62895305502, -52771.5075339684, -58344.95971738813, -55903.88100193513, -34239.028005484106, -56441.64162178536, -32573.621877863632, 0.018000000000000002, 0.99, -0.08600000000000001, 192.0, 0.0, 0.0, 0.0, 0.0, 0.0, 0.0, 0.0, 0.0, 0.0, 1.712439300504832E9, 0.0, 2024-04-06 17:35:00.504
205.0, 43043.22368421837, 39545.77917406311, -53914.776911112895, -57936.61569793412, -55779.270026596794, -34648.80253658325, -56657.2241970568, -32912.74254473955, 0.018000000000000002, 0.99, -0.08600000000000001, 192.0, 0.0, 0.0, 0.0, 0.0, 0.0, 0.0, 0.0, 0.0, 0.0, 1.712439300508875E9, 0.0, 2024-04-06 17:35:00.508
206.0, 42895.36689464652, 39483.14958609934, -53763.52265638384, -58150.879520282695, -55653.67557450242, -34451.99542665427, -56599.06495798409, -32870.52009946348, 0.018000000000000002, 0.99, -0.08600000000000001, 192.0, 0.0, 0.0, 0.0, 0.0, 0.0, 0.0, 0.0, 0.0, 0.0, 1.712439300511893E9, 0.0, 2024-04-06 17:35:00.511
207.0, 43052.85728607861, 39887.42558806248, -52201.13571895787, -58715.596343946025, -55863.938434593496, -33714.991356729435, -56249.953061336644, -32297.264909418216, 0.012, 0.99, -0.084, 192.0, 0.0, 96.0, 30.0, 240.0, 253.0, 96.0, 0.0, 0.0, 0.0, 1.712439300515879E9, 0.0, 2024-04-06 17:35:00.515
208.0, 43205.00561058588, 39824.46072393188, -52593.74411031534, -58396.59224707988, -55903.67983623503, -34155.29837075453, -56390.433775238256, -32510.254682332838, 0.012, 0.99, -0.084, 192.0, 0.0, 0.0, 0.0, 0.0, 0.0, 0.0, 0.0, 0.0, 0.0, 1.712439300519888E9, 0.0, 2024-04-06 17:35:00.519
209.0, 43073.130318299576, 39601.50207299019, -53708.49266153487, -58008.38714938011, -55797.151422161034, -34549.11375631258, -56598.57321960607, -32823.17910470714, 0.012, 0.99, -0.084, 192.0, 0.0, 0.0, 0.0, 0.0, 0.0, 0.0, 0.0, 0.0, 0.0, 1.712439300524064E9, 0.0, 2024-04-06 17:35:00.524
210.0, 42920.17733099191, 39463.59180970095, -54002.08282495533, -58014.556230849776, -55644.421952297926, -34596.45475106892, -56649.04345858616, -32941.933922998185, 0.012, 0.99, -0.084, 192.0, 0.0, 0.0, 0.0, 0.0, 0.0, 0.0, 0.0, 0.0, 0.0, 1.712439300528887E9, 0.0, 2024-04-06 17:35:00.528
211.0, 43000.55420405319, 39857.09427083663, -52361.822409847075, -58687.56725639907, -55820.10666371664, -33735.35379592822, -56262.00065159806, -32326.389232443482, 0.012, 0.99, -0.084, 192.0, 0.0, 0.0, 0.0, 0.0, 0.0, 0.0, 0.0, 0.0, 0.0, 1.712439300532878E9, 0.0, 2024-04-06 17:35:00.532
212.0, 43213.16399731207, 39886.17389037298, -52444.43445735389, -58445.76608488156, -55909.31247583777, -34062.35981730936, -56342.75750431508, -32447.42392866897, 0.012, 0.99, -0.084, 192.0, 0.0, 0.0, 0.0, 0.0, 0.0, 0.0, 0.0, 0.0, 0.0, 1.712439300536923E9, 0.0, 2024-04-06 17:35:00.536
213.0, 43091.369341775106, 39662.4105766309, -53504.10831023554, -58088.42874627456, -55833.13773073408, -34459.25974360225, -56555.97079467426, -32763.567002244832, 0.012, 0.99, -0.084, 192.0, 0.0, 0.0, 0.0, 0.0, 0.0, 0.0, 0.0, 0.0, 0.0, 1.712439300539923E9, 0.0, 2024-04-06 17:35:00.539
214.0, 42947.96054934985, 39463.23418178966, -54164.7364693566, -57914.308656967725, -55667.17602815343, -34695.42827551702, -56704.8334127466, -33025.41768853876, 0.012, 0.99, -0.084, 192.0, 0.0, 0.0, 0.0, 0.0, 0.0, 0.0, 0.0, 0.0, 0.0, 1.712439300543898E9, 0.0, 2024-04-06 17:35:00.543
215.0, 42963.003273368275, 39797.504520118775, -52596.091043483146, -58620.28850558859, -55770.77636370377, -33804.890072928676, -56318.841137747906, -32420.288910900228, 0.012, 0.99, -0.084, 192.0, 0.0, 0.0, 0.0, 0.0, 0.0, 0.0, 0.0, 0.0, 0.0, 1.712439300547952E9, 0.0, 2024-04-06 17:35:00.547
216.0, 43186.78893885481, 39887.17971887347, -52329.54649085361, -58545.1195889854, -55947.77982804535, -33990.02957225199, -56328.87707100833, -32410.565902062168, 0.012, 0.99, -0.084, 192.0, 0.0, 0.0, 0.0, 0.0, 0.0, 0.0, 0.0, 0.0, 0.0, 1.712439300551917E9, 0.0, 2024-04-06 17:35:00.551
217.0, 43131.64718528357, 39701.07909453858, -53303.2331828157, -58158.99320351997, -55861.09976304767, -34392.22686198078, -56527.449968749286, -32712.023879530894, 0.012, 0.99, -0.084, 192.0, 0.0, 96.0, 30.0, 240.0, 253.0, 96.0, 0.0, 0.0, 0.0, 1.712439300556974E9, 0.0, 2024-04-06 17:35:00.556
218.0, 42990.898250448496, 39464.99996960163, -54216.90544091528, -57870.87921749106, -55696.903848278984, -34751.01706397737, -56727.3416194131, -33042.29325560251, 0.012, 0.99, -0.084, 192.0, 0.0, 0.0, 0.0, 0.0, 0.0, 0.0, 0.0, 0.0, 0.0, 1.712439300560963E9, 0.0, 2024-04-06 17:35:00.560
219.0, 42942.394964980485, 39712.299670255146, -52906.89205013419, -58522.70078929672, -55739.148645299516, -33961.2181736491, -56403.95658063371, -32544.408147860548, 0.012, 0.99, -0.084, 192.0, 0.0, 0.0, 0.0, 0.0, 0.0, 0.0, 0.0, 0.0, 0.0, 1.712439300564953E9, 0.0, 2024-04-06 17:35:00.564
220.0, 43201.250517517394, 39941.09212649967, -52211.99866676315, -58585.75506040514, -55923.66229577808, -33887.01038205747, -56302.43495731771, -32357.368750258538, 0.012, 0.99, -0.084, 192.0, 0.0, 0.0, 0.0, 0.0, 0.0, 0.0, 0.0, 0.0, 0.0, 1.71243930056794E9, 0.0, 2024-04-06 17:35:00.567
221.0, 43177.33415095021, 39756.06438589864, -53089.34934012286, -58220.348742049784, -55860.31745199174, -34324.76929721466, -56494.07881427751, -32647.315579332782, 0.012, 0.99, -0.084, 192.0, 0.0, 0.0, 0.0, 0.0, 0.0, 0.0, 0.0, 0.0, 0.0, 1.712439300571998E9, 0.0, 2024-04-06 17:35:00.571
222.0, 43019.93316649594, 39486.61410648991, -54182.30494049847, -57876.53420883825, -55730.342057984126, -34759.17545070356, -56734.76239857226, -33010.55377847597, 0.012, 0.99, -0.084, 192.0, 0.0, 0.0, 0.0, 0.0, 0.0, 0.0, 0.0, 0.0, 0.0, 1.712439300575959E9, 0.0, 2024-04-06 17:35:00.575
223.0, 42928.40277295146, 39630.782858226645, -53239.10602797342, -58391.33958713288, -55695.808612800676, -34130.577341386954, -56493.49766892167, -32644.454556042503, 0.012, 0.99, -0.084, 192.0, 0.0, 0.0, 0.0, 0.0, 0.0, 0.0, 0.0, 0.0, 0.0, 1.71243930057996E9, 0.0, 2024-04-06 17:35:00.579
224.0, 43164.414842655046, 39942.992024778374, -52167.18341913026, -58660.99103224171, -55923.30466786679, -33797.29047981388, -56293.449556046675, -32286.983106968775, 0.012, 0.99, -0.084, 192.0, 0.0, 0.0, 0.0, 0.0, 0.0, 0.0, 0.0, 0.0, 0.0, 1.712439300584008E9, 0.0, 2024-04-06 17:35:00.584
225.0, 43189.80642435628, 39778.214964653846, -52919.45373051807, -58307.5652489144, -55893.085109363215, -34268.4876046762, -56474.92336927931, -32566.759892315855, 0.012, 0.99, -0.084, 192.0, 0.0, 0.0, 0.0, 0.0, 0.0, 0.0, 0.0, 0.0, 0.0, 1.712439300589076E9, 0.0, 2024-04-06 17:35:00.589
226.0, 43045.83883831964, 39525.43908660878, -54073.98838686805, -57907.98311328687, -55777.97362541838, -34707.05118263378, -56721.999552488276, -32931.31684438191, 0.012, 0.99, -0.084, 192.0, 0.0, 0.0, 0.0, 0.0, 0.0, 0.0, 0.0, 0.0, 0.0, 1.712439300593022E9, 0.0, 2024-04-06 17:35:00.593
227.0, 42934.81772361013, 39570.656665641865, -53565.106220854075, -58231.45755904407, -55665.56670255264, -34306.977308628244, -56580.53536183064, -32751.742929427975, 0.012, 0.996, -0.082, 192.0, 0.0, 96.0, 31.0, 32.0, 253.0, 112.0, 0.0, 0.0, 0.0, 1.712439300595945E9, 0.0, 2024-04-06 17:35:00.595
228.0, 43134.30704287375, 39954.83844933969, -52160.075564393475, -58685.62265463146, -55886.20077207098, -33724.24497893393, -56268.03562260099, -32264.832528213567, 0.012, 0.996, -0.082, 192.0, 0.0, 0.0, 0.0, 0.0, 0.0, 0.0, 0.0, 0.0, 0.0, 1.712439300599969E9, 0.0, 2024-04-06 17:35:00.599
229.0, 43228.519645752865, 39835.01074731478, -52730.06739974826, -58339.10356034083, -55884.85966740366, -34195.19623460725, -56418.038179640556, -32528.6278162751, 0.012, 0.996, -0.082, 192.0, 0.0, 0.0, 0.0, 0.0, 0.0, 0.0, 0.0, 0.0, 0.0, 1.71243930060407E9, 0.0, 2024-04-06 17:35:00.604
230.0, 43084.90968762752, 39597.25524154368, -53877.40479438363, -57937.442712478965, -55776.65487249552, -34611.09514368715, -56645.087199817564, -32874.36459950979, 0.012, 0.996, -0.082, 192.0, 0.0, 0.0, 0.0, 0.0, 0.0, 0.0, 0.0, 0.0, 0.0, 1.712439300607967E9, 0.0, 2024-04-06 17:35:00.607
231.0, 42944.16075279245, 39526.93665348729, -53841.64200325513, -58083.77958342786, -55631.34618179157, -34472.29081061969, -56614.04062676914, -32872.82232914237, 0.012, 0.996, -0.082, 192.0, 0.0, 0.0, 0.0, 0.0, 0.0, 0.0, 0.0, 0.0, 0.0, 1.71243930061211E9, 0.0, 2024-04-06 17:35:00.612
232.0, 43081.44516723695, 39932.86668454012, -52246.398001479865, -58687.47784942125, -55836.870472058115, -33695.38887684213, -56245.907395590235, -32277.215394641808, 0.012, 0.996, -0.082, 192.0, 0.0, 0.0, 0.0, 0.0, 0.0, 0.0, 0.0, 0.0, 0.0, 1.712439300616015E9, 0.0, 2024-04-06 17:35:00.616
233.0, 43238.734392968945, 39881.52472752628, -52567.52551406927, -58389.70790978765, -55886.55839998226, -34110.77369579956, -56362.15881850229, -32466.04293180024, 0.012, 0.996, -0.082, 192.0, 0.0, 0.0, 0.0, 0.0, 0.0, 0.0, 0.0, 0.0, 0.0, 1.712439300620716E9, 0.0, 2024-04-06 17:35:00.620
234.0, 43112.67055424101, 39662.05294871962, -53665.085573802666, -58003.939152233506, -55790.870581969095, -34505.30433718018, -56574.09805942751, -32784.130607143714, 0.012, 0.996, -0.082, 192.0, 0.0, 0.0, 0.0, 0.0, 0.0, 0.0, 0.0, 0.0, 0.0, 1.712439300623066E9, 0.0, 2024-04-06 17:35:00.623
235.0, 42952.16267730745, 39489.139853613364, -54070.03212809946, -57984.89546595758, -55650.16635062294, -34615.47608560039, -56667.036612872675, -32953.467423137125, 0.012, 0.996, -0.082, 192.0, 0.0, 0.0, 0.0, 0.0, 0.0, 0.0, 0.0, 0.0, 0.0, 1.712439300628081E9, 0.0, 2024-04-06 17:35:00.628
236.0, 43011.97594546985, 39853.11566032358, -52447.92132948892, -58695.18920125833, -55825.02404749681, -33754.4645374375, -56293.56131476895, -32335.97813081481, 0.012, 0.996, -0.082, 192.0, 0.0, 0.0, 0.0, 0.0, 0.0, 0.0, 0.0, 0.0, 0.0, 1.712439300632038E9, 0.0, 2024-04-06 17:35:00.632
237.0, 43223.84813116171, 39884.497509538836, -52457.443172626874, -58496.43748956174, -55935.9557552285, -34063.92443942123, -56366.91974007127, -32425.6533295695, 0.008, 0.996, -0.078, 192.0, 0.0, 64.0, 31.0, 32.0, 253.0, 144.0, 0.0, 0.0, 0.0, 1.712439300636087E9, 0.0, 2024-04-06 17:35:00.636
238.0, 43135.51403707433, 39696.54169041415, -53480.59427506856, -58101.68333073656, -55830.723742332906, -34439.09847010356, -56565.98437619024, -32721.38926045767, 0.008, 0.996, -0.078, 192.0, 0.0, 0.0, 0.0, 0.0, 0.0, 0.0, 0.0, 0.0, 0.0, 1.712439300640087E9, 0.0, 2024-04-06 17:35:00.640
239.0, 42983.008084655776, 39473.314818539, -54211.473967012644, -57914.77804360128, -55672.1381154225, -34712.952043169986, -56730.537918870206, -32995.421647479736, 0.008, 0.996, -0.078, 192.0, 0.0, 0.0, 0.0, 0.0, 0.0, 0.0, 0.0, 0.0, 0.0, 1.712439300645149E9, 0.0, 2024-04-06 17:35:00.645
240.0, 42986.0479219017, 39791.78247353822, -52703.267658146346, -58605.87163041492, -55768.69765146943, -33845.16791643714, -56364.52810341455, -32421.60766382309, 0.008, 0.996, -0.078, 192.0, 0.0, 0.0, 0.0, 0.0, 0.0, 0.0, 0.0, 0.0, 0.0, 1.712439300648021E9, 0.0, 2024-04-06 17:35:00.648
241.0, 43240.209608102996, 39943.059080011735, -52313.74380752371, -58537.22942319267, -55919.79544398731, -33946.48837405305, -56336.27549842304, -32364.230735806315, 0.008, 0.996, -0.078, 192.0, 0.0, 0.0, 0.0, 0.0, 0.0, 0.0, 0.0, 0.0, 0.0, 1.71243930065106E9, 0.0, 2024-04-06 17:35:00.651
242.0, 43172.97556078143, 39746.564894505136, -53262.84358058496, -58167.64332862417, -55841.34082094918, -34348.640960292934, -56531.38387577342, -32660.860736472696, 0.008, 0.996, -0.078, 192.0, 0.0, 0.0, 0.0, 0.0, 0.0, 0.0, 0.0, 0.0, 0.0, 1.712439300656103E9, 0.0, 2024-04-06 17:35:00.656
243.0, 43021.654250819, 39492.76083621512, -54236.21734812467, -57863.21256914289, -55695.33922616711, -34733.850924235696, -56745.826512077634, -33008.117438330344, 0.008, 0.996, -0.078, 192.0, 0.0, 0.0, 0.0, 0.0, 0.0, 0.0, 0.0, 0.0, 0.0, 1.712439300660077E9, 0.0, 2024-04-06 17:35:00.660
244.0, 42950.910979617955, 39699.53682417117, -53018.78488287746, -58503.835916976444, -55721.42371194646, -33987.772046062004, -56431.4715780582, -32545.369272872125, 0.008, 0.996, -0.078, 192.0, 0.0, 0.0, 0.0, 0.0, 0.0, 0.0, 0.0, 0.0, 0.0, 1.712439300664055E9, 0.0, 2024-04-06 17:35:00.664
245.0, 43202.658677418076, 39940.73449858838, -52241.793542122075, -58631.285563860605, -55933.005324960395, -33871.47591966104, -56310.05690217697, -32339.889686094488, 0.008, 0.996, -0.078, 192.0, 0.0, 0.0, 0.0, 0.0, 0.0, 0.0, 0.0, 0.0, 0.0, 1.712439300668102E9, 0.0, 2024-04-06 17:35:00.668
246.0, 43201.63049717313, 39775.39864485248, -53080.72156676312, -58246.61204178477, -55861.09976304767, -34298.01425910166, -56489.87668631991, -32631.624654725154, 0.008, 0.996, -0.078, 192.0, 0.0, 0.0, 0.0, 0.0, 0.0, 0.0, 0.0, 0.0, 0.0, 1.712439300672184E9, 0.0, 2024-04-06 17:35:00.672
247.0, 43042.30726269571, 39513.03386843608, -54188.71989115714, -57876.958891982904, -55737.69578190992, -34728.173581144045, -56730.20264270338, -33001.993060349596, 0.008, 0.996, -0.078, 192.0, 0.0, 0.0, 31.0, 0.0, 253.0, 112.0, 0.0, 0.0, 0.0, 1.71243930067613E9, 0.0, 2024-04-06 17:35:00.676
248.0, 42930.839113097085, 39629.397050070416, -53357.592625331, -58357.0743628829, -55691.338263909616, -34160.41692023479, -56515.15650929887, -32690.007411242415, 0.008, 0.996, -0.078, 192.0, 0.0, 0.0, 0.0, 0.0, 0.0, 0.0, 0.0, 0.0, 0.0, 1.712439300679081E9, 0.0, 2024-04-06 17:35:00.679
249.0, 43164.146621721586, 39967.84716461267, -52195.74894854414, -58672.97156726976, -55917.82849047524, -33762.60057241924, -56285.961721654145, -32297.734296051778, 0.008, 0.996, -0.078, 192.0, 0.0, 0.0, 0.0, 0.0, 0.0, 0.0, 0.0, 0.0, 0.0, 1.71243930068413E9, 0.0, 2024-04-06 17:35:00.684
250.0, 43209.9006426216, 39816.5482063947, -52917.33031479482, -58304.50305992402, -55889.35236803918, -34229.59556932397, -56463.971014496216, -32571.54316562929, 0.008, 0.996, -0.078, 192.0, 0.0, 0.0, 0.0, 0.0, 0.0, 0.0, 0.0, 0.0, 0.0, 1.712439300688182E9, 0.0, 2024-04-06 17:35:00.688
251.0, 43070.89514385404, 39579.70912214627, -54056.1069913038, -57897.00840675931, -55756.78417167475, -34650.90360056205, -56695.46803181983, -32916.050602918935, 0.008, 0.996, -0.078, 192.0, 0.0, 0.0, 0.0, 0.0, 0.0, 0.0, 0.0, 0.0, 0.0, 1.712439300692134E9, 0.0, 2024-04-06 17:35:00.692
252.0, 42923.574796149114, 39564.644046383386, -53688.44314675846, -58222.315695561854, -55662.39275483999, -34346.070509680576, -56593.02998698116, -32795.97703170503, 0.008, 0.996, -0.078, 192.0, 0.0, 0.0, 0.0, 0.0, 0.0, 0.0, 0.0, 0.0, 0.0, 1.712439300696109E9, 0.0, 2024-04-06 17:35:00.696
253.0, 43108.08844662768, 39950.45750742644, -52249.46019047024, -58719.95493411481, -55896.661388476066, -33725.31786266778, -56288.59922749987, -32293.308650649626, 0.008, 0.996, -0.078, 192.0, 0.0, 0.0, 0.0, 0.0, 0.0, 0.0, 0.0, 0.0, 0.0, 1.71243930070014E9, 0.0, 2024-04-06 17:35:00.700
254.0, 43248.05507040681, 39873.45574777791, -52746.29476622281, -58348.49129301206, -55880.76929816834, -34160.55103070152, -56431.672743758296, -32532.29350236577, 0.008, 0.996, -0.078, 192.0, 0.0, 0.0, 0.0, 0.0, 0.0, 0.0, 0.0, 0.0, 0.0, 1.712439300704215E9, 0.0, 2024-04-06 17:35:00.704
255.0, 43097.73958894487, 39624.03263140114, -53876.555428094325, -57979.463992054945, -55788.18837263446, -34573.052474624215, -56652.97736561029, -32866.139157550235, 0.008, 0.996, -0.078, 192.0, 0.0, 0.0, 0.0, 0.0, 0.0, 0.0, 0.0, 0.0, 0.0, 1.712439300707095E9, 0.0, 2024-04-06 17:35:00.707
0.0, 42956.007177353764, 39524.947348230766, -53968.465801294544, -58074.391850756634, -55652.82620821312, -34510.66875584945, -56664.93554889388, -32921.50442856603, 0.008, 0.988, -0.084, 192.0, 0.0, 64.0, 30.0, 224.0, 253.0, 96.0, 0.0, 0.0, 0.0, 1.712439300711153E9, 0.0, 2024-04-06 17:35:00.711
1.0, 43095.30324879924, 39941.315643944225, -52341.57172937057, -58692.48464017924, -55836.5798993802, -33694.785379741836, -56286.76638445454, -32316.129781738495, 0.008, 0.988, -0.084, 192.0, 0.0, 0.0, 0.0, 0.0, 0.0, 0.0, 0.0, 0.0, 0.0, 1.712439300716176E9, 0.0, 2024-04-06 17:35:00.716
2.0, 43280.15217544463, 39914.91823374251, -52585.183392188956, -58405.532944862, -55898.20365884348, -34084.97978269813, -56392.04310083904, -32485.466597731902, 0.008, 0.988, -0.084, 192.0, 0.0, 0.0, 0.0, 0.0, 0.0, 0.0, 0.0, 0.0, 0.0, 1.712439300720176E9, 0.0, 2024-04-06 17:35:00.720
3.0, 43144.16416217854, 39680.53784138415, -53671.85815237262, -58040.37249569566, -55820.866623028116, -34485.21011891486, -56604.742301075734, -32798.52513057293, 0.008, 0.988, -0.084, 192.0, 0.0, 0.0, 0.0, 0.0, 0.0, 0.0, 0.0, 0.0, 0.0, 1.712439300724227E9, 0.0, 2024-04-06 17:35:00.724
4.0, 42999.68248601943, 39509.77051374561, -54159.21558847614, -57940.84017763617, -55657.11774314854, -34630.921141019004, -56712.768282028235, -32986.57035667543, 0.008, 0.988, -0.084, 192.0, 0.0, 0.0, 0.0, 0.0, 0.0, 0.0, 0.0, 0.0, 0.0, 1.712439300728226E9, 0.0, 2024-04-06 17:35:00.728
5.0, 43048.07401276517, 39880.563602514696, -52538.15532185499, -58634.61597378445, -55796.257352382825, -33746.239095477955, -56324.02674246154, -32354.73124441281, 0.008, 0.988, -0.084, 192.0, 0.0, 0.0, 0.0, 0.0, 0.0, 0.0, 0.0, 0.0, 0.0, 1.712439300732196E9, 0.0, 2024-04-06 17:35:00.732
6.0, 43283.6166958352, 39961.432213954, -52431.939832203374, -58444.0450005585, -55904.10451937968, -33992.331801930886, -56358.15785624479, -32390.829311708134, 0.008, 0.988, -0.084, 192.0, 0.0, 0.0, 0.0, 0.0, 0.0, 0.0, 0.0, 0.0, 0.0, 1.712439300735198E9, 0.0, 2024-04-06 17:35:00.735
7.0, 43191.818081357254, 39761.987598179294, -53437.12013210299, -58071.86610363318, -55821.96185850643, -34380.35808567501, -56558.34007958652, -32687.861643774708, 0.008, 0.988, -0.084, 192.0, 0.0, 0.0, 0.0, 0.0, 0.0, 0.0, 0.0, 0.0, 0.0, 1.712439300739291E9, 0.0, 2024-04-06 17:35:00.739
8.0, 43045.23534121935, 39543.92397927332, -54233.95982193468, -57837.06102813018, -55659.55408329417, -34685.92878412352, -56738.495139896295, -32988.76082763205, 0.008, 0.988, -0.084, 192.0, 0.0, 0.0, 0.0, 0.0, 0.0, 0.0, 0.0, 0.0, 0.0, 1.71243930074423E9, 0.0, 2024-04-06 17:35:00.744
9.0, 43002.47645407635, 39821.66675587497, -52793.94868540153, -58546.95243203073, -55759.488732753845, -33850.197058939586, -56391.037272338544, -32446.641617613033, 0.008, 0.988, -0.084, 192.0, 0.0, 0.0, 0.0, 0.0, 0.0, 0.0, 0.0, 0.0, 0.0, 1.71243930075129E9, 0.0, 2024-04-06 17:35:00.751
10.0, 43254.29120710984, 39994.26692655885, -52309.251106888194, -58523.416045119295, -55924.51166206738, -33900.06380081938, -56343.092780481915, -32358.240468292293, 0.012, 0.992, -0.088, 192.0, 0.0, 96.0, 31.0, 0.0, 253.0, 64.0, 0.0, 0.0, 0.0, 1.712439300754266E9, 0.0, 2024-04-06 17:35:00.754
11.0, 43190.25345924538, 39794.17411019494, -53239.530711118074, -58167.17394199061, -55856.71882113443, -34318.62256748945, -56537.441198520806, -32654.98222768095, 0.012, 0.992, -0.088, 192.0, 0.0, 0.0, 0.0, 0.0, 0.0, 0.0, 0.0, 0.0, 0.0, 1.712439300757208E9, 0.0, 2024-04-06 17:35:00.757
12.0, 43040.809695817195, 39546.896761285876, -54249.226063397655, -57832.03188562774, -55706.73861583932, -34716.438915305014, -56752.71084936987, -33000.651955682275, 0.012, 0.992, -0.088, 192.0, 0.0, 0.0, 0.0, 0.0, 0.0, 0.0, 0.0, 0.0, 0.0, 1.71243930076018E9, 0.0, 2024-04-06 17:35:00.760
13.0, 42958.77879366622, 39733.19855132086, -53117.534889881004, -58425.537756149504, -55705.88924955002, -34002.367735191314, -56450.49291258966, -32558.757967800855, 0.012, 0.992, -0.088, 192.0, 0.0, 0.0, 0.0, 0.0, 0.0, 0.0, 0.0, 0.0, 0.0, 1.712439300763227E9, 0.0, 2024-04-06 17:35:00.763
14.0, 43218.64017470362, 40011.38836281161, -52226.21437623673, -58581.61998768091, -55906.47380429194, -33795.725857702004, -56278.11625935033, -32285.06085694562, 0.012, 0.992, -0.088, 192.0, 0.0, 0.0, 0.0, 0.0, 0.0, 0.0, 0.0, 0.0, 0.0, 1.712439300767323E9, 0.0, 2024-04-06 17:35:00.767
15.0, 43225.099828851206, 39841.38099448455, -53034.25229004053, -58210.06693960034, -55846.63818438509, -34233.7306420482, -56445.41906659831, -32565.508194626356, 0.012, 0.992, -0.088, 192.0, 0.0, 0.0, 0.0, 0.0, 0.0, 0.0, 0.0, 0.0, 0.0, 1.712439300772243E9, 0.0, 2024-04-06 17:35:00.772
16.0, 43067.18475427446, 39575.86462209995, -54159.9308442987, -57842.89483343302, -55725.67054339297, -34672.51773745033, -56679.777107212205, -32929.75222227004, 0.012, 0.992, -0.088, 192.0, 0.0, 0.0, 0.0, 0.0, 0.0, 0.0, 0.0, 0.0, 0.0, 1.712439300776385E9, 0.0, 2024-04-06 17:35:00.776
17.0, 42958.26470354375, 39666.500945866224, -53444.69737347333, -58275.53519910994, -55656.40248732597, -34172.08453084046, -56493.27415147712, -32671.567222066788, 0.012, 0.992, -0.088, 192.0, 0.0, 0.0, 0.0, 0.0, 0.0, 0.0, 0.0, 0.0, 0.0, 1.712439300780396E9, 0.0, 2024-04-06 17:35:00.780
18.0, 43194.14266278061, 40034.14243866711, -52190.13866068586, -58640.18155815382, -55874.622568443134, -33703.793132757324, -56235.58088965189, -32243.374853536472, 0.012, 0.992, -0.088, 192.0, 0.0, 0.0, 0.0, 0.0, 0.0, 0.0, 0.0, 0.0, 0.0, 1.712439300783254E9, 0.0, 2024-04-06 17:35:00.783
19.0, 43261.28730312435, 39885.79391071724, -52868.111773504235, -58290.287350450446, -55859.89276884709, -34182.7686646901, -56417.50173777363, -32521.229388860393, 0.012, 0.992, -0.088, 192.0, 0.0, 0.0, 0.0, 0.0, 0.0, 0.0, 0.0, 0.0, 0.0, 1.712439300787312E9, 0.0, 2024-04-06 17:35:00.787
20.0, 43123.46644681293, 39641.24347463172, -54017.63963909622, -57890.70521482292, -55746.4576657364, -34604.724896517386, -56658.78881916867, -32868.93312560715, 0.01, 0.992, -0.09, 192.0, 0.0, 80.0, 31.0, 0.0, 253.0, 48.0, 0.0, 0.0, 0.0, 1.712439300791381E9, 0.0, 2024-04-06 17:35:00.791
21.0, 42975.31908456315, 39596.58468921002, -53770.60815937617, -58154.83577905128, -55639.459865028846, -34359.23568716475, -56590.81716428008, -32783.90708969916, 0.01, 0.992, -0.09, 192.0, 0.0, 0.0, 0.0, 0.0, 0.0, 0.0, 0.0, 0.0, 0.0, 1.712439300795295E9, 0.0, 2024-04-06 17:35:00.795
22.0, 43149.238008169894, 39997.84320567169, -52262.424202254326, -58691.14353551192, -55858.73047813541, -33679.250917345395, -56267.94621562317, -32240.7596994352, 0.01, 0.992, -0.09, 192.0, 0.0, 0.0, 0.0, 0.0, 0.0, 0.0, 0.0, 0.0, 0.0, 1.712439300800285E9, 0.0, 2024-04-06 17:35:00.800
23.0, 43295.4184169076, 39927.36815540411, -52709.10146344918, -58356.58262450488, -55874.19788529848, -34117.56862611397, -56412.27142957109, -32474.357780737613, 0.01, 0.992, -0.09, 192.0, 0.0, 0.0, 0.0, 0.0, 0.0, 0.0, 0.0, 0.0, 0.0, 1.712439300804376E9, 0.0, 2024-04-06 17:35:00.804
24.0, 43146.13111569061, 39677.72152158279, -53835.76349446339, -57997.16657366355, -55796.01148319382, -34526.38203220154, -56636.90646134692, -32813.3443371468, 0.01, 0.992, -0.09, 192.0, 0.0, 0.0, 0.0, 0.0, 0.0, 0.0, 0.0, 0.0, 0.0, 1.712439300808364E9, 0.0, 2024-04-06 17:35:00.808
25.0, 43001.78354999823, 39558.60907538045, -54037.26447072798, -58036.46094041598, -55641.695039474376, -34519.38593618703, -56671.372851297005, -32912.563730783906, 0.01, 0.992, -0.09, 192.0, 0.0, 0.0, 0.0, 0.0, 0.0, 0.0, 0.0, 0.0, 0.0, 1.71243930081135E9, 0.0, 2024-04-06 17:35:00.811
26.0, 43108.267260583314, 39962.25922849885, -52394.70182594083, -58700.084233294045, -55816.64214332606, -33678.53566152283, -56282.050166374465, -32297.622537329502, 0.01, 0.992, -0.09, 192.0, 0.0, 0.0, 0.0, 0.0, 0.0, 0.0, 0.0, 0.0, 0.0, 1.712439300815333E9, 0.0, 2024-04-06 17:35:00.815
27.0, 43293.607925606724, 39947.77529809181, -52568.93367396995, -58469.54834098201, -55910.58652527172, -34056.280142817515, -56377.3580047319, -32444.875829801065, 0.01, 0.992, -0.09, 192.0, 0.0, 0.0, 0.0, 0.0, 0.0, 0.0, 0.0, 0.0, 0.0, 1.712439300819377E9, 0.0, 2024-04-06 17:35:00.819
28.0, 43176.55183989428, 39727.27533904021, -53642.063277013694, -58100.09635688023, -55832.93656503398, -34449.20145859736, -56585.050414210615, -32751.72057768352, 0.01, 0.992, -0.09, 192.0, 0.0, 0.0, 0.0, 0.0, 0.0, 0.0, 0.0, 0.0, 0.0, 1.712439300823359E9, 0.0, 2024-04-06 17:35:00.823
29.0, 43029.29854742272, 39531.362298889435, -54223.700371229694, -57974.971291419424, -55667.064269431154, -34644.80157432575, -56707.35915987005, -32974.76863560303, 0.01, 0.992, -0.09, 192.0, 0.0, 0.0, 0.0, 0.0, 0.0, 0.0, 0.0, 0.0, 0.0, 1.712439300828382E9, 0.0, 2024-04-06 17:35:00.828
30.0, 43079.20999279142, 39903.83176849267, -52626.51176768682, -58661.08043921953, -55776.252541095324, -33749.12247051269, -56309.69927426568, -32362.397892760982, 0.012, 0.99, -0.084, 192.0, 0.0, 96.0, 30.0, 240.0, 253.0, 96.0, 0.0, 0.0, 0.0, 1.712439300832352E9, 0.0, 2024-04-06 17:35:00.832
31.0, 43309.81294033682, 39985.572097965734, -52433.79502699316, -58544.5160918851, -55921.605935288186, -33962.93925797215, -56321.18807091571, -32380.860433681064, 0.012, 0.99, -0.084, 192.0, 0.0, 0.0, 0.0, 0.0, 0.0, 0.0, 0.0, 0.0, 0.0, 1.712439300837249E9, 0.0, 2024-04-06 17:35:00.837
32.0, 43230.53130275384, 39784.40639786797, -53423.35145751852, -58177.500447928964, -55846.97346055192, -34352.88779173944, -56515.983523843715, -32684.710047806508, 0.012, 0.99, -0.084, 192.0, 0.0, 0.0, 0.0, 0.0, 0.0, 0.0, 0.0, 0.0, 0.0, 1.71243930083943E9, 0.0, 2024-04-06 17:35:00.839
33.0, 43077.377149746084, 39543.78986880659, -54294.48834591966, -57924.03166580578, -55698.78139481323, -34693.506025493865, -56711.04719770518, -33008.20684530817, 0.012, 0.99, -0.084, 192.0, 0.0, 0.0, 0.0, 0.0, 0.0, 0.0, 0.0, 0.0, 0.0, 1.712439300843391E9, 0.0, 2024-04-06 17:35:00.843
34.0, 43051.49382966683, 39826.78530535523, -52909.73072168002, -58577.41785972332, -55744.669526179976, -33861.70820733407, -56365.1539522593, -32469.082769046163, 0.012, 0.99, -0.084, 192.0, 0.0, 0.0, 0.0, 0.0, 0.0, 0.0, 0.0, 0.0, 0.0, 1.71243930084738E9, 0.0, 2024-04-06 17:35:00.847
35.0, 43293.45146339553, 40010.516644777854, -52322.50569135019, -58635.15241565138, -55942.92949949855, -33853.549820607885, -56288.75568971106, -32323.550560897656, 0.012, 0.99, -0.084, 192.0, 0.0, 0.0, 0.0, 0.0, 0.0, 0.0, 0.0, 0.0, 0.0, 1.71243930085146E9, 0.0, 2024-04-06 17:35:00.851
36.0, 43273.066672452296, 39840.866904362076, -53222.118702187385, -58236.82197771335, -55866.0842020612, -34266.67711337532, -56477.382061169395, -32621.36520402017, 0.012, 0.99, -0.084, 192.0, 0.0, 0.0, 0.0, 0.0, 0.0, 0.0, 0.0, 0.0, 0.0, 1.712439300856436E9, 0.0, 2024-04-06 17:35:00.856
37.0, 43123.1311706461, 39581.65372391388, -54256.155104178804, -57896.65077884803, -55712.438310675425, -34670.84135661618, -56690.30477885065, -32977.786121104495, 0.012, 0.99, -0.084, 192.0, 0.0, 0.0, 0.0, 0.0, 0.0, 0.0, 0.0, 0.0, 0.0, 1.712439300860401E9, 0.0, 2024-04-06 17:35:00.860
38.0, 43017.22860541685, 39726.04599309516, -53237.63081283937, -58477.99730038611, -55722.47424393586, -34025.99352908057, -56434.31024960402, -32602.232110766425, 0.012, 0.99, -0.084, 192.0, 0.0, 0.0, 0.0, 0.0, 0.0, 0.0, 0.0, 0.0, 0.0, 1.712439300864349E9, 0.0, 2024-04-06 17:35:00.864
39.0, 43262.159021158106, 40024.01709842886, -52255.22694053972, -58693.19989600181, -55938.45915060749, -33762.10883404122, -56260.05604983045, -32295.946156495353, 0.012, 0.99, -0.084, 192.0, 0.0, 0.0, 0.0, 0.0, 0.0, 0.0, 0.0, 0.0, 0.0, 1.712439300867421E9, 0.0, 2024-04-06 17:35:00.867
40.0, 43274.05014920833, 39856.49077373633, -53035.07930458538, -58321.9150688547, -55885.15024008158, -34215.69278427277, -56436.835996727474, -32575.767645331343, 0.004, 0.994, -0.08, 192.0, 0.0, 32.0, 31.0, 16.0, 253.0, 128.0, 0.0, 0.0, 0.0, 1.712439300871398E9, 0.0, 2024-04-06 17:35:00.871
41.0, 43126.796856736764, 39608.58757598252, -54158.25446346456, -57923.69638963895, -55748.40226750401, -34637.313739933226, -56662.096877348056, -32927.740565269065, 0.004, 0.994, -0.08, 192.0, 0.0, 0.0, 0.0, 0.0, 0.0, 0.0, 0.0, 0.0, 0.0, 1.712439300880014E9, 0.0, 2024-04-06 17:35:00.880
42.0, 43006.767989011765, 39672.17828895787, -53548.76709565725, -58298.9598272991, -55652.803856468665, -34188.200138592736, -56488.24500897468, -32698.925757280085, 0.004, 0.994, -0.08, 192.0, 0.0, 0.0, 0.0, 0.0, 0.0, 0.0, 0.0, 0.0, 0.0, 1.712439300880295E9, 0.0, 2024-04-06 17:35:00.880
43.0, 43206.279660019834, 40033.42718284454, -52221.18523373428, -58734.32710579957, -55894.694434963996, -33675.58523125473, -56206.188345693154, -32237.697510444825, 0.004, 0.994, -0.08, 192.0, 0.0, 0.0, 0.0, 0.0, 0.0, 0.0, 0.0, 0.0, 0.0, 1.712439300883422E9, 0.0, 2024-04-06 17:35:00.883
44.0, 43285.18131794707, 39900.41195159101, -52852.59966285225, -58380.49899107206, -55900.10355712218, -34156.95239984422, -56387.86332462589, -32523.933949939485, 0.004, 0.994, -0.08, 192.0, 0.0, 0.0, 0.0, 0.0, 0.0, 0.0, 0.0, 0.0, 0.0, 1.712439300888558E9, 0.0, 2024-04-06 17:35:00.888
45.0, 43161.50911587586, 39681.744835584745, -53983.48617356851, -57949.177378318, -55762.908549655505, -34552.89120112553, -56614.55471689162, -32873.29171577594, 0.004, 0.994, -0.08, 192.0, 0.0, 0.0, 0.0, 0.0, 0.0, 0.0, 0.0, 0.0, 0.0, 1.712439300891379E9, 0.0, 2024-04-06 17:35:00.891
46.0, 43023.956480497895, 39629.598215770515, -53838.66922124258, -58141.96117424502, -55625.378266022, -34351.591390561036, -56565.31382385657, -32836.098413002306, 0.004, 0.994, -0.08, 192.0, 0.0, 0.0, 0.0, 0.0, 0.0, 0.0, 0.0, 0.0, 0.0, 1.712439300895365E9, 0.0, 2024-04-06 17:35:00.895
47.0, 43188.91235457806, 40042.23377015993, -52280.104432118475, -58705.113375796485, -55839.463274414935, -33617.962434048946, -56216.55955512042, -32260.250420600227, 0.004, 0.994, -0.08, 192.0, 0.0, 0.0, 0.0, 0.0, 0.0, 0.0, 0.0, 0.0, 0.0, 1.712439300899424E9, 0.0, 2024-04-06 17:35:00.899
48.0, 43333.662251670634, 39968.942400090986, -52668.35423330715, -58404.2365436836, -55882.95976912496, -34057.71065446266, -56351.36292593038, -32469.57450742418, 0.004, 0.994, -0.08, 192.0, 0.0, 0.0, 0.0, 0.0, 0.0, 0.0, 0.0, 0.0, 0.0, 1.712439300903579E9, 0.0, 2024-04-06 17:35:00.903
49.0, 43203.17276754055, 39740.93225490239, -53780.33116821422, -58023.31811467626, -55798.626637295085, -34453.515345277236, -56572.22051289326, -32791.30551711387, 0.004, 0.994, -0.08, 192.0, 0.0, 0.0, 0.0, 0.0, 0.0, 0.0, 0.0, 0.0, 0.0, 1.712439300907406E9, 0.0, 2024-04-06 17:35:00.907
50.0, 43052.074975022675, 39588.85098562849, -54088.293503319444, -58031.320039191254, -55637.1799870944, -34501.951575511885, -56643.567281194606, -32923.13610591127, 0.008, 0.992, -0.08, 192.0, 0.0, 64.0, 31.0, 0.0, 253.0, 128.0, 0.0, 0.0, 0.0, 1.712439300912439E9, 0.0, 2024-04-06 17:35:00.912
51.0, 43137.637452797586, 39978.933629862506, -52457.91255926044, -58705.247486263215, -55808.841384511165, -33643.42107098354, -56267.63329120079, -32309.044278746165, 0.008, 0.992, -0.08, 192.0, 0.0, 0.0, 0.0, 0.0, 0.0, 0.0, 0.0, 0.0, 0.0, 1.712439300916462E9, 0.0, 2024-04-06 17:35:00.916
52.0, 43320.318260230815, 39971.04346406978, -52550.82876096115, -58499.030291918556, -55921.20360388799, -33988.28613618447, -56354.402763176295, -32436.31511167468, 0.008, 0.992, -0.08, 192.0, 0.0, 0.0, 0.0, 0.0, 0.0, 0.0, 0.0, 0.0, 0.0, 1.712439300919473E9, 0.0, 2024-04-06 17:35:00.919
53.0, 43216.69557293601, 39765.45211856987, -53602.59009630563, -58109.19351687354, -55833.20478596745, -34376.22301295078, -56568.890102969424, -32754.760414929442, 0.008, 0.992, -0.08, 192.0, 0.0, 0.0, 0.0, 0.0, 0.0, 0.0, 0.0, 0.0, 0.0, 1.71243930092349E9, 0.0, 2024-04-06 17:35:00.923
54.0, 43065.061338551204, 39560.71013935925, -54255.14927567831, -57951.971346374914, -55665.5890542971, -34608.636451797065, -56715.137566940495, -33002.328336516424, 0.008, 0.992, -0.08, 192.0, 0.0, 0.0, 0.0, 0.0, 0.0, 0.0, 0.0, 0.0, 0.0, 1.712439300927469E9, 0.0, 2024-04-06 17:35:00.927
55.0, 43070.33635024266, 39895.248698621836, -52718.80212054278, -58662.332136909026, -55784.74620398834, -33744.71917685499, -56339.69531532471, -32407.30254737169, 0.008, 0.992, -0.08, 192.0, 0.0, 0.0, 0.0, 0.0, 0.0, 0.0, 0.0, 0.0, 0.0, 1.712439300931542E9, 0.0, 2024-04-06 17:35:00.931
56.0, 43311.489321170964, 40017.95977568147, -52436.56664330562, -58567.58309216298, -55931.48540633743, -33900.75670489749, -56333.90621351078, -32383.69910522689, 0.008, 0.992, -0.08, 192.0, 0.0, 0.0, 0.0, 0.0, 0.0, 0.0, 0.0, 0.0, 0.0, 1.712439300935611E9, 0.0, 2024-04-06 17:35:00.935
57.0, 43251.206666375, 39838.475267705355, -53400.262105496186, -58186.37409047772, -55844.02303028382, -34292.26986077665, -56524.81246290356, -32683.592460583743, 0.008, 0.992, -0.08, 192.0, 0.0, 0.0, 0.0, 0.0, 0.0, 0.0, 0.0, 0.0, 0.0, 1.71243930093957E9, 0.0, 2024-04-06 17:35:00.939
58.0, 43106.41206579353, 39599.669229944855, -54312.88383160637, -57894.75088056933, -55682.241103916305, -34642.81226906923, -56723.36300890005, -33018.80157217998, 0.008, 0.992, -0.08, 192.0, 0.0, 0.0, 0.0, 0.0, 0.0, 0.0, 0.0, 0.0, 0.0, 1.712439300944473E9, 0.0, 2024-04-06 17:35:00.944
59.0, 43066.08951879615, 39854.03208184625, -53009.10657752831, -58516.95639097171, -55708.28088620674, -33837.389509366694, -56388.39976649282, -32514.56856901271, 0.008, 0.992, -0.08, 192.0, 0.0, 0.0, 0.0, 0.0, 0.0, 0.0, 0.0, 0.0, 0.0, 1.712439300947522E9, 0.0, 2024-04-06 17:35:00.947
60.0, 43314.12682701669, 40066.48541289394, -52315.822519758054, -58607.12332810442, -55909.69245549351, -33757.79494736135, -56278.54094249498, -32325.651624876456, 0.014, 0.994, -0.082, 192.0, 0.0, 112.0, 31.0, 16.0, 253.0, 112.0, 0.0, 0.0, 0.0, 1.712439300951562E9, 0.0, 2024-04-06 17:35:00.951
61.0, 43278.52049809939, 39859.172983070974, -53201.7562629886, -58257.407934356685, -55865.458353216454, -34205.96977543471, -56476.86797104692, -32635.98324489394, 0.014, 0.994, -0.082, 192.0, 0.0, 0.0, 0.0, 0.0, 0.0, 0.0, 0.0, 0.0, 0.0, 1.712439300955566E9, 0.0, 2024-04-06 17:35:00.955
62.0, 43131.423667839015, 39596.942317121306, -54278.01511025609, -57893.968569513396, -55730.14089228403, -34640.442984156965, -56718.24445941979, -33013.168932577246, 0.014, 0.994, -0.082, 192.0, 0.0, 0.0, 0.0, 0.0, 0.0, 0.0, 0.0, 0.0, 0.0, 1.712439300959539E9, 0.0, 2024-04-06 17:35:00.959
63.0, 43045.570617386176, 39744.84381018207, -53348.56252057106, -58395.02762496801, -55684.99036848431, -34023.89246510177, -56477.65028210286, -32663.520594062877, 0.014, 0.994, -0.082, 192.0, 0.0, 0.0, 0.0, 0.0, 0.0, 0.0, 0.0, 0.0, 0.0, 1.712439300963501E9, 0.0, 2024-04-06 17:35:00.963
64.0, 43288.17645170408, 40064.74197682643, -52276.6399117279, -58663.6955933208, -55911.59235377221, -33687.83398721623, -56270.33785227989, -32313.045241003663, 0.014, 0.994, -0.082, 192.0, 0.0, 0.0, 0.0, 0.0, 0.0, 0.0, 0.0, 0.0, 0.0, 1.712439300967518E9, 0.0, 2024-04-06 17:35:00.967
65.0, 43325.45916145553, 39905.865777238105, -53016.460301454106, -58293.43894641864, -55870.979234096914, -34152.32558874197, -56446.760171265625, -32594.856035096174, 0.014, 0.994, -0.082, 192.0, 0.0, 0.0, 0.0, 0.0, 0.0, 0.0, 0.0, 0.0, 0.0, 1.712439300971572E9, 0.0, 2024-04-06 17:35:00.971
66.0, 43187.52654642183, 39662.63409407545, -54146.29628018097, -57887.75478455482, -55743.328421512655, -34580.51795727229, -56681.721708979814, -32948.348873656854, 0.014, 0.994, -0.082, 192.0, 0.0, 0.0, 0.0, 0.0, 0.0, 0.0, 0.0, 0.0, 0.0, 1.712439300975688E9, 0.0, 2024-04-06 17:35:00.975
67.0, 43045.16828598599, 39669.51843136769, -53674.04862332924, -58248.15431215219, -55655.41901056994, -34213.05527842704, -56547.432428292326, -32776.97804891802, 0.014, 0.994, -0.082, 192.0, 0.0, 0.0, 0.0, 0.0, 0.0, 0.0, 0.0, 0.0, 0.0, 1.712439300978542E9, 0.0, 2024-04-06 17:35:00.978
68.0, 43240.43312554755, 40047.93346499604, -52295.08010090353, -58712.69061716684, -55898.27071407685, -33641.25295177138, -56262.67120393172, -32293.24159541626, 0.014, 0.994, -0.082, 192.0, 0.0, 0.0, 0.0, 0.0, 0.0, 0.0, 0.0, 0.0, 0.0, 1.712439300984517E9, 0.0, 2024-04-06 17:35:00.984
69.0, 43359.85849617225, 39953.47499292791, -52856.421811154105, -58341.76341793101, -55883.63032145862, -34095.23923340312, -56427.69413324525, -32545.078700194204, 0.014, 0.994, -0.082, 192.0, 0.0, 0.0, 0.0, 0.0, 0.0, 0.0, 0.0, 0.0, 0.0, 1.712439300987682E9, 0.0, 2024-04-06 17:35:00.987
70.0, 43215.26506129087, 39707.31523124161, -53984.64846428019, -57957.00048887736, -55773.43622129396, -34503.136217968015, -56655.21254005582, -32866.496785461524, 0.018000000000000002, 0.992, -0.08600000000000001, 192.0, 0.0, 144.0, 31.0, 0.0, 253.0, 80.0, 0.0, 0.0, 0.0, 1.712439300991564E9, 0.0, 2024-04-06 17:35:00.991
71.0, 43063.22849550587, 39619.27170983216, -53967.25880709396, -58103.87380169318, -55644.82428369812, -34382.257983953714, -56644.953089350834, -32866.65324767271, 0.018000000000000002, 0.992, -0.08600000000000001, 192.0, 0.0, 0.0, 0.0, 0.0, 0.0, 0.0, 0.0, 0.0, 0.0, 1.712439300995603E9, 0.0, 2024-04-06 17:35:00.995
72.0, 43181.42452018554, 40017.222168114444, -52386.07405258108, -58731.533137742656, -55852.449637943464, -33621.49400967288, -56277.66922446123, -32273.236784128763, 0.018000000000000002, 0.992, -0.08600000000000001, 192.0, 0.0, 0.0, 0.0, 0.0, 0.0, 0.0, 0.0, 0.0, 0.0, 1.712439301000619E9, 0.0, 2024-04-06 17:35:01.000
73.0, 43352.57182747982, 39984.029827598315, -52708.96735298245, -58422.02853227002, -55898.56128675477, -34039.89631413178, -56390.99256884964, -32463.919516076985, 0.018000000000000002, 0.992, -0.08600000000000001, 192.0, 0.0, 0.0, 0.0, 0.0, 0.0, 0.0, 0.0, 0.0, 0.0, 1.712439301003574E9, 0.0, 2024-04-06 17:35:01.003
74.0, 43233.14645685512, 39774.169298907436, -53786.65671189508, -58027.60964961167, -55792.971645947895, -34411.80699012363, -56592.91822825888, -32765.042217378883, 0.018000000000000002, 0.992, -0.08600000000000001, 192.0, 0.0, 0.0, 0.0, 0.0, 0.0, 0.0, 0.0, 0.0, 0.0, 1.712439301008534E9, 0.0, 2024-04-06 17:35:01.008
75.0, 43076.818356134696, 39608.4981690047, -54184.7412806441, -57990.19282939349, -55638.878719673005, -34510.0429070047, -56670.054098374145, -32920.051565176436, 0.018000000000000002, 0.992, -0.08600000000000001, 192.0, 0.0, 0.0, 0.0, 0.0, 0.0, 0.0, 0.0, 0.0, 0.0, 1.71243930101151E9, 0.0, 2024-04-06 17:35:01.011
76.0, 43149.75209829237, 39996.45739751546, -52565.24563613482, -58673.575064370045, -55794.11158491512, -33634.48037320142, -56285.827611187415, -32302.763438554222, 0.018000000000000002, 0.992, -0.08600000000000001, 192.0, 0.0, 0.0, 0.0, 0.0, 0.0, 0.0, 0.0, 0.0, 0.0, 1.712439301015582E9, 0.0, 2024-04-06 17:35:01.015
77.0, 43359.746737449976, 40027.21339788597, -52570.34183387063, -58495.945751183724, -55915.32509509625, -33934.95487391411, -56348.77012357356, -32392.840968709108, 0.018000000000000002, 0.992, -0.08600000000000001, 192.0, 0.0, 0.0, 0.0, 0.0, 0.0, 0.0, 0.0, 0.0, 0.0, 1.71243930101958E9, 0.0, 2024-04-06 17:35:01.019
78.0, 43277.62642832118, 39831.65798564649, -53594.20819213489, -58108.47826105097, -55823.19120445147, -34319.002547145195, -56551.14281787191, -32697.80817005732, 0.018000000000000002, 0.992, -0.08600000000000001, 192.0, 0.0, 0.0, 0.0, 0.0, 0.0, 0.0, 0.0, 0.0, 0.0, 1.71243930102361E9, 0.0, 2024-04-06 17:35:01.023
79.0, 43119.39842932206, 39603.31256429107, -54325.713732923716, -57928.077331552195, -55659.91171120545, -34595.56068129071, -56714.77993902921, -32979.90953682775, 0.018000000000000002, 0.992, -0.08600000000000001, 192.0, 0.0, 0.0, 0.0, 0.0, 0.0, 0.0, 0.0, 0.0, 0.0, 1.712439301027554E9, 0.0, 2024-04-06 17:35:01.027
80.0, 43110.793007706765, 39913.59948081964, -52844.687145315074, -58627.46341555875, -55762.617976977584, -33740.94173204205, -56353.79926607601, -32415.595044564612, 0.014, 0.986, -0.088, 192.0, 0.0, 112.0, 30.0, 208.0, 253.0, 64.0, 0.0, 0.0, 0.0, 1.712439301030594E9, 0.0, 2024-04-06 17:35:01.030
81.0, 43375.884696946705, 40073.526212397366, -52458.24783542727, -58555.62490887939, -55917.336752097224, -33838.66355880065, -56327.80418727448, -32356.854660136065, 0.014, 0.986, -0.088, 192.0, 0.0, 0.0, 0.0, 0.0, 0.0, 0.0, 0.0, 0.0, 0.0, 1.71243930103459E9, 0.0, 2024-04-06 17:35:01.034
82.0, 43340.367775007224, 39897.774445745286, -53380.190238975316, -58157.51798838592, -55817.312695659726, -34218.598511051954, -56512.02726507512, -32644.208686853493, 0.014, 0.986, -0.088, 192.0, 0.0, 0.0, 0.0, 0.0, 0.0, 0.0, 0.0, 0.0, 0.0, 1.712439301039591E9, 0.0, 2024-04-06 17:35:01.039
83.0, 43186.565421410254, 39638.85183797501, -54331.99457311566, -57852.215510870876, -55659.55408329417, -34593.75018998983, -56715.80811927416, -32979.57426066092, 0.014, 0.986, -0.088, 192.0, 0.0, 0.0, 0.0, 0.0, 0.0, 0.0, 0.0, 0.0, 0.0, 1.712439301043584E9, 0.0, 2024-04-06 17:35:01.043
84.0, 43101.00294363534, 39839.72696539485, -53138.009087802064, -58495.43166106125, -55694.758080811276, -33858.51190787696, -56416.02652263958, -32520.022394659805, 0.014, 0.986, -0.088, 192.0, 0.0, 0.0, 0.0, 0.0, 0.0, 0.0, 0.0, 0.0, 0.0, 1.712439301047574E9, 0.0, 2024-04-06 17:35:01.047
85.0, 43343.13939131968, 40082.7127793685, -52366.18100001586, -58641.634421543415, -55917.11323465267, -33733.364490671695, -56297.361111326354, -32297.667240818413, 0.014, 0.986, -0.088, 192.0, 0.0, 0.0, 0.0, 0.0, 0.0, 0.0, 0.0, 0.0, 0.0, 1.712439301051632E9, 0.0, 2024-04-06 17:35:01.051
86.0, 43336.21035053854, 39899.54023355726, -53215.50258582862, -58271.78010604145, -55862.954957837464, -34181.069932111495, -56491.284846220595, -32596.39830546359, 0.014, 0.986, -0.088, 192.0, 0.0, 0.0, 0.0, 0.0, 0.0, 0.0, 0.0, 0.0, 0.0, 1.712439301054637E9, 0.0, 2024-04-06 17:35:01.054
87.0, 43206.25730827538, 39650.6088555585, -54303.473747190685, -57884.62554033107, -55712.81829033116, -34600.43336158197, -56721.708979810355, -32956.77548131651, 0.014, 0.986, -0.088, 192.0, 0.0, 0.0, 0.0, 0.0, 0.0, 0.0, 0.0, 0.0, 0.0, 1.71243930105884E9, 0.0, 2024-04-06 17:35:01.058
88.0, 43108.423722794505, 39764.178069135916, -53482.0247867137, -58355.845016937856, -55656.89422570399, -34040.23159029861, -56506.57343942803, -32646.086233387738, 0.014, 0.986, -0.088, 192.0, 0.0, 0.0, 0.0, 0.0, 0.0, 0.0, 0.0, 0.0, 0.0, 1.712439301062695E9, 0.0, 2024-04-06 17:35:01.062
89.0, 43339.473705229015, 40104.058695323314, -52317.856528503486, -58682.180485985344, -55884.88201914812, -33639.8894953596, -56275.478753504605, -32249.409824539405, 0.014, 0.986, -0.088, 192.0, 0.0, 0.0, 0.0, 0.0, 0.0, 0.0, 0.0, 0.0, 0.0, 1.712439301067653E9, 0.0, 2024-04-06 17:35:01.067
90.0, 43388.84870873079, 39947.127097502605, -53025.35629574732, -58326.22895553458, -55864.29606250478, -34110.93015801074, -56455.45499985874, -32529.477182564402, 0.018000000000000002, 0.992, -0.082, 192.0, 0.0, 144.0, 31.0, 0.0, 253.0, 112.0, 0.0, 0.0, 0.0, 1.712439301071663E9, 0.0, 2024-04-06 17:35:01.071
91.0, 43241.61776800368, 39688.27154496569, -54165.071745523426, -57940.95193635845, -55753.99020361784, -34542.2517707648, -56696.36210159804, -32891.01664912899, 0.018000000000000002, 0.992, -0.082, 192.0, 0.0, 0.0, 0.0, 0.0, 0.0, 0.0, 0.0, 0.0, 0.0, 1.712439301075832E9, 0.0, 2024-04-06 17:35:01.075
92.0, 43097.20314707794, 39673.765262814195, -53812.6517906966, -58235.83850095732, -55658.66001351595, -34241.464345629734, -56602.48477488575, -32775.79340646188, 0.018000000000000002, 0.992, -0.082, 192.0, 0.0, 0.0, 0.0, 0.0, 0.0, 0.0, 0.0, 0.0, 0.0, 1.71243930107964E9, 0.0, 2024-04-06 17:35:01.079
93.0, 43267.255218893915, 40059.48931687943, -52367.611511661, -58746.218233849795, -55890.067623861745, -33611.81570432374, -56284.79943094247, -32249.543935006135, 0.018000000000000002, 0.992, -0.082, 192.0, 0.0, 0.0, 0.0, 0.0, 0.0, 0.0, 0.0, 0.0, 0.0, 1.712439301082592E9, 0.0, 2024-04-06 17:35:01.082
94.0, 43392.15676691017, 39969.36708323564, -52877.387747453184, -58400.14617444827, -55903.433967046025, -34071.07699764693, -56441.97689795219, -32488.372324511092, 0.018000000000000002, 0.992, -0.082, 192.0, 0.0, 0.0, 0.0, 0.0, 0.0, 0.0, 0.0, 0.0, 0.0, 1.712439301086599E9, 0.0, 2024-04-06 17:35:01.086
95.0, 43268.61867530569, 39747.883647427996, -53993.58916206231, -57995.44548934048, -55795.922076216, -34468.80393848466, -56659.68288894688, -32823.13440121822, 0.018000000000000002, 0.992, -0.082, 192.0, 0.0, 0.0, 0.0, 0.0, 0.0, 0.0, 0.0, 0.0, 0.0, 1.712439301090689E9, 0.0, 2024-04-06 17:35:01.090
96.0, 43125.76867649182, 39645.669120033876, -54071.37323276678, -58084.62894971716, -55637.76113245024, -34394.6184986375, -56649.62460394199, -32875.370428010276, 0.018000000000000002, 0.992, -0.082, 192.0, 0.0, 0.0, 0.0, 0.0, 0.0, 0.0, 0.0, 0.0, 0.0, 1.712439301095685E9, 0.0, 2024-04-06 17:35:01.095
97.0, 43241.19308485903, 40048.11227895168, -52463.92517851892, -58723.33004752756, -55834.14355923457, -33586.781750533795, -56262.961776609634, -32269.369932337995, 0.018000000000000002, 0.992, -0.082, 192.0, 0.0, 0.0, 0.0, 0.0, 0.0, 0.0, 0.0, 0.0, 0.0, 1.712439301099628E9, 0.0, 2024-04-06 17:35:01.099
98.0, 43411.80395028638, 40015.72460123594, -52712.94596349549, -58459.177131554745, -55908.68662699302, -33986.14036871676, -56368.1043825274, -32446.395748424027, 0.018000000000000002, 0.992, -0.082, 192.0, 0.0, 0.0, 0.0, 0.0, 0.0, 0.0, 0.0, 0.0, 0.0, 1.712439301103665E9, 0.0, 2024-04-06 17:35:01.103
99.0, 43291.372751161194, 39796.11871196255, -53786.567304917255, -58076.17999031306, -55815.5245561033, -34377.18413796236, -56578.322539129564, -32766.24921157947, 0.018000000000000002, 0.992, -0.082, 192.0, 0.0, 0.0, 0.0, 0.0, 0.0, 0.0, 0.0, 0.0, 0.0, 1.712439301107603E9, 0.0, 2024-04-06 17:35:01.107
100.0, 43145.259397656846, 39622.49036103372, -54264.71582230519, -57980.89450370008, -55640.80096969617, -34517.486037908326, -56680.13473512349, -32958.02717900601, 0.02, 0.99, -0.084, 192.0, 0.0, 160.0, 30.0, 240.0, 253.0, 96.0, 0.0, 0.0, 0.0, 1.712439301110592E9, 0.0, 2024-04-06 17:35:01.110
101.0, 43188.91235457806, 39998.357295794165, -52663.481553015896, -58676.25727370469, -55780.588779519654, -33635.217980768444, -56293.49425953558, -32331.418374945926, 0.02, 0.99, -0.084, 192.0, 0.0, 0.0, 0.0, 0.0, 0.0, 0.0, 0.0, 0.0, 0.0, 1.712439301114687E9, 0.0, 2024-04-06 17:35:01.114
102.0, 43430.422953417656, 40081.774006101376, -52560.88704596604, -58492.458879048696, -55891.185211084514, -33873.30876270637, -56331.559280342975, -32370.98096263182, 0.02, 0.99, -0.084, 192.0, 0.0, 0.0, 0.0, 0.0, 0.0, 0.0, 0.0, 0.0, 0.0, 1.712439301118706E9, 0.0, 2024-04-06 17:35:01.118
103.0, 43333.19286503707, 39867.33136979716, -53557.66308995046, -58134.33922938576, -55806.82972751019, -34254.92009579183, -56528.075817594035, -32662.17948939556, 0.02, 0.99, -0.084, 192.0, 0.0, 0.0, 0.0, 0.0, 0.0, 0.0, 0.0, 0.0, 0.0, 1.712439301122686E9, 0.0, 2024-04-06 17:35:01.122
104.0, 43160.68210133101, 39611.336840550524, -54365.05280316506, -57922.17647101599, -55661.319871106134, -34577.54517525973, -56707.113290681045, -32961.022312763016, 0.02, 0.99, -0.084, 192.0, 0.0, 0.0, 0.0, 0.0, 0.0, 0.0, 0.0, 0.0, 0.0, 1.71243930112769E9, 0.0, 2024-04-06 17:35:01.127
105.0, 43135.603444052154, 39904.03293419277, -52941.917233695654, -58601.37892977941, -55738.52279645477, -33739.89120005265, -56356.19090273272, -32411.191750906917, 0.02, 0.99, -0.084, 192.0, 0.0, 0.0, 0.0, 0.0, 0.0, 0.0, 0.0, 0.0, 0.0, 1.712439301131666E9, 0.0, 2024-04-06 17:35:01.131
106.0, 43402.70679029307, 40097.50963419791, -52456.2808819152, -58574.57918817749, -55898.78480419932, -33778.00092434894, -56304.51366955205, -32309.580720613092, 0.02, 0.99, -0.084, 192.0, 0.0, 0.0, 0.0, 0.0, 0.0, 0.0, 0.0, 0.0, 0.0, 1.712439301135726E9, 0.0, 2024-04-06 17:35:01.135
107.0, 43372.64369400069, 39923.68011756898, -53357.391459630904, -58187.42462246712, -55814.18345143598, -34176.64428670934, -56486.76979384063, -32608.289433513815, 0.02, 0.99, -0.084, 192.0, 0.0, 0.0, 0.0, 0.0, 0.0, 0.0, 0.0, 0.0, 0.0, 1.712439301138773E9, 0.0, 2024-04-06 17:35:01.138
108.0, 43220.29420379332, 39661.62826557497, -54358.570797273016, -57865.49244707733, -55670.59584505509, -34576.80756769271, -56706.57684881412, -32974.32160071392, 0.02, 0.99, -0.084, 192.0, 0.0, 0.0, 0.0, 0.0, 0.0, 0.0, 0.0, 0.0, 0.0, 1.712439301142763E9, 0.0, 2024-04-06 17:35:01.142
109.0, 43125.83573172519, 39837.715308393876, -53256.89801655985, -58472.83404741694, -55686.152659195985, -33892.7994838714, -56435.226671126686, -32568.413921405547, 0.02, 0.99, -0.084, 192.0, 0.0, 0.0, 0.0, 0.0, 0.0, 0.0, 0.0, 0.0, 0.0, 1.712439301146771E9, 0.0, 2024-04-06 17:35:01.146
110.0, 43387.93228720812, 40128.533855501875, -52372.90887509691, -58633.74425575069, -55890.02292037284, -33683.00601041389, -56286.92284666572, -32299.857711775032, 0.02, 0.982, -0.084, 192.0, 0.0, 160.0, 30.0, 176.0, 253.0, 96.0, 0.0, 0.0, 0.0, 1.712439301150829E9, 0.0, 2024-04-06 17:35:01.150
111.0, 43392.91672622165, 39949.652844626056, -53185.61830349187, -58272.24949267501, -55845.878225073604, -34136.4558501787, -56482.16533448283, -32590.586851905213, 0.02, 0.982, -0.084, 192.0, 0.0, 0.0, 0.0, 0.0, 0.0, 0.0, 0.0, 0.0, 0.0, 1.71243930115579E9, 0.0, 2024-04-06 17:35:01.155
112.0, 43238.04148889083, 39684.695265852846, -54295.583581397965, -57897.18722071496, -55718.585040400634, -34569.051512366714, -56720.1890611874, -32946.49367886707, 0.02, 0.982, -0.084, 192.0, 0.0, 0.0, 0.0, 0.0, 0.0, 0.0, 0.0, 0.0, 0.0, 1.712439301159784E9, 0.0, 2024-04-06 17:35:01.159
113.0, 43104.020429136806, 39745.223789837815, -53605.786395762734, -58347.77603718949, -55678.39660386999, -34087.103198421384, -56548.88529168192, -32685.09002746225, 0.02, 0.982, -0.084, 192.0, 0.0, 0.0, 0.0, 0.0, 0.0, 0.0, 0.0, 0.0, 0.0, 1.712439301163726E9, 0.0, 2024-04-06 17:35:01.163
114.0, 43319.78181836389, 40095.85560510822, -52382.296607768134, -58720.3125620261, -55915.86153696317, -33631.90992258905, -56312.33678011141, -32254.260153086205, 0.02, 0.982, -0.084, 192.0, 0.0, 0.0, 0.0, 0.0, 0.0, 0.0, 0.0, 0.0, 0.0, 1.712439301166712E9, 0.0, 2024-04-06 17:35:01.166
115.0, 43411.91570900866, 39975.849089127674, -53038.56617672041, -58328.91116486921, -55881.126926079625, -34092.355858368384, -56485.96513104023, -32528.471354063913, 0.02, 0.982, -0.084, 192.0, 0.0, 0.0, 0.0, 0.0, 0.0, 0.0, 0.0, 0.0, 0.0, 1.712439301170798E9, 0.0, 2024-04-06 17:35:01.170
116.0, 43279.23575392196, 39739.904074657454, -54159.2826437095, -57924.03166580578, -55751.79973266122, -34490.86511026205, -56705.302799380166, -32874.47635823207, 0.02, 0.982, -0.084, 192.0, 0.0, 0.0, 0.0, 0.0, 0.0, 0.0, 0.0, 0.0, 0.0, 1.712439301174753E9, 0.0, 2024-04-06 17:35:01.174
117.0, 43123.175874135006, 39690.52907115568, -53919.91781233762, -58182.7307561315, -55649.942833178386, -34251.455575401254, -56632.927850833876, -32807.57758707733, 0.02, 0.982, -0.084, 192.0, 0.0, 0.0, 0.0, 0.0, 0.0, 0.0, 0.0, 0.0, 0.0, 1.712439301178833E9, 0.0, 2024-04-06 17:35:01.178
118.0, 43291.66332383911, 40093.84394810724, -52425.99426817826, -58714.18818404534, -55865.27953926082, -33562.75362524434, -56291.52730602352, -32256.00358915372, 0.02, 0.982, -0.084, 192.0, 0.0, 0.0, 0.0, 0.0, 0.0, 0.0, 0.0, 0.0, 0.0, 1.712439301183787E9, 0.0, 2024-04-06 17:35:01.183
119.0, 43432.12168599626, 40014.18233086853, -52869.0281950269, -58382.17537190621, -55887.564228482755, -34010.59317715087, -56423.894336687845, -32478.179929039474, 0.02, 0.982, -0.084, 192.0, 0.0, 0.0, 0.0, 0.0, 0.0, 0.0, 0.0, 0.0, 0.0, 1.712439301187888E9, 0.0, 2024-04-06 17:35:01.187
120.0, 43298.86058555372, 39790.039037470706, -53970.54451352889, -57988.404689837065, -55784.96972143289, -34402.35220221904, -56630.80443511062, -32797.51930207245, 0.014, 0.992, -0.092, 192.0, 0.0, 112.0, 31.0, 0.0, 253.0, 32.0, 0.0, 0.0, 0.0, 1.712439301191788E9, 0.0, 2024-04-06 17:35:01.191
121.0, 43142.39837436657, 39662.34352139754, -54167.6868996247, -58034.337524692724, -55641.29270807418, -34403.49214118626, -56664.957900638336, -32894.101189863824, 0.014, 0.992, -0.092, 192.0, 0.0, 0.0, 0.0, 0.0, 0.0, 0.0, 0.0, 0.0, 0.0, 1.712439301194857E9, 0.0, 2024-04-06 17:35:01.194
122.0, 43259.18623914555, 40084.702084625016, -52543.40798180199, -58674.02209925916, -55807.50027984384, -33558.30562809773, -56272.14834358077, -32269.63815327146, 0.014, 0.992, -0.092, 192.0, 0.0, 0.0, 0.0, 0.0, 0.0, 0.0, 0.0, 0.0, 0.0, 1.71243930119887E9, 0.0, 2024-04-06 17:35:01.198
123.0, 43454.27226475147, 40082.93629681305, -52708.207393670964, -58431.37156145234, -55891.98987388491, -33927.7576121995, -56358.537835900526, -32409.56007356168, 0.014, 0.992, -0.092, 192.0, 0.0, 0.0, 0.0, 0.0, 0.0, 0.0, 0.0, 0.0, 0.0, 1.712439301203038E9, 0.0, 2024-04-06 17:35:01.203
124.0, 43341.61947269672, 39868.22543957537, -53759.14171447059, -58050.699001634006, -55801.6217710521, -34309.19013132931, -56564.88914071192, -32719.71287962352, 0.014, 0.992, -0.092, 192.0, 0.0, 0.0, 0.0, 0.0, 0.0, 0.0, 0.0, 0.0, 0.0, 1.712439301206831E9, 0.0, 2024-04-06 17:35:01.206
125.0, 43182.095072519194, 39660.89065800794, -54334.721485939204, -57926.91504084052, -55644.66782148693, -34508.187712214916, -56692.98698818529, -32948.706501568144, 0.014, 0.992, -0.092, 192.0, 0.0, 0.0, 0.0, 0.0, 0.0, 0.0, 0.0, 0.0, 0.0, 1.712439301211802E9, 0.0, 2024-04-06 17:35:01.211
126.0, 43228.854921919694, 40038.79160151382, -52751.994461058915, -58592.88526688639, -55747.75406691481, -33609.04408801128, -56300.937390439205, -32323.975244042307, 0.014, 0.992, -0.092, 192.0, 0.0, 0.0, 0.0, 0.0, 0.0, 0.0, 0.0, 0.0, 0.0, 1.712439301215838E9, 0.0, 2024-04-06 17:35:01.215
127.0, 43441.26354947848, 40109.736038414965, -52566.47498207987, -58501.69014950874, -55892.01222562936, -33820.960977192044, -56318.93054472573, -32320.086040507085, 0.014, 0.992, -0.092, 192.0, 0.0, 0.0, 0.0, 0.0, 0.0, 0.0, 0.0, 0.0, 0.0, 1.712439301218793E9, 0.0, 2024-04-06 17:35:01.218
128.0, 43353.801173424865, 39892.49943405383, -53562.84869466409, -58146.43152313609, -55824.353495163145, -34230.422583868814, -56531.27211705114, -32628.830686668243, 0.014, 0.992, -0.092, 192.0, 0.0, 0.0, 0.0, 0.0, 0.0, 0.0, 0.0, 0.0, 0.0, 1.712439301222817E9, 0.0, 2024-04-06 17:35:01.222
129.0, 43220.51772123787, 39663.97519874277, -54415.72420784524, -57867.68291803395, -55658.883530960506, -34557.85328839461, -56722.759511799755, -32950.941676013674, 0.014, 0.992, -0.092, 192.0, 0.0, 0.0, 0.0, 0.0, 0.0, 0.0, 0.0, 0.0, 0.0, 1.712439301226894E9, 0.0, 2024-04-06 17:35:01.226
130.0, 43196.780168626334, 39948.26703646983, -53044.4670372566, -58518.36455087239, -55705.35280768309, -33735.42085116159, -56378.58735067694, -32431.42007963897, 0.014, 0.994, -0.092, 192.0, 0.0, 112.0, 31.0, 16.0, 253.0, 32.0, 0.0, 0.0, 0.0, 1.712439301230804E9, 0.0, 2024-04-06 17:35:01.230
131.0, 43453.60171241781, 40153.18782963608, -52453.553969091656, -58555.13317050137, -55885.21729531495, -33716.1089439522, -56296.35528282586, -32280.09876967654, 0.014, 0.994, -0.092, 192.0, 0.0, 0.0, 0.0, 0.0, 0.0, 0.0, 0.0, 0.0, 0.0, 1.712439301234836E9, 0.0, 2024-04-06 17:35:01.234
132.0, 43410.23932817452, 39954.14554526157, -53347.51198858166, -58205.84245989829, -55824.12997771859, -34146.13415552785, -56485.74161359568, -32571.140834229092, 0.014, 0.994, -0.092, 192.0, 0.0, 0.0, 0.0, 0.0, 0.0, 0.0, 0.0, 0.0, 0.0, 1.712439301239837E9, 0.0, 2024-04-06 17:35:01.239
133.0, 43234.88989292263, 39668.64671333393, -54403.162527461354, -57890.72756656737, -55708.392644929016, -34578.774521204774, -56730.26969793674, -32943.20797243214, 0.014, 0.994, -0.092, 192.0, 0.0, 0.0, 0.0, 0.0, 0.0, 0.0, 0.0, 0.0, 0.0, 1.712439301243841E9, 0.0, 2024-04-06 17:35:01.243
134.0, 43149.81915352573, 39844.04085207473, -53393.534230415135, -58425.00131428258, -55689.706586564374, -33927.578798243856, -56479.9301600373, -32567.25163069387, 0.014, 0.994, -0.092, 192.0, 0.0, 0.0, 0.0, 0.0, 0.0, 0.0, 0.0, 0.0, 0.0, 1.71243930124684E9, 0.0, 2024-04-06 17:35:01.246
135.0, 43410.97693574154, 40167.64940829866, -52414.90780292843, -58625.18353762431, -55892.43690877401, -33641.32000700474, -56298.25518110456, -32252.673179229878, 0.014, 0.994, -0.092, 192.0, 0.0, 0.0, 0.0, 0.0, 0.0, 0.0, 0.0, 0.0, 0.0, 1.712439301250926E9, 0.0, 2024-04-06 17:35:01.250
136.0, 43438.00019478801, 40002.96175515196, -53178.95748364419, -58258.749039024005, -55844.40300993955, -34087.43847458821, -56479.59488387047, -32541.033034447795, 0.014, 0.994, -0.092, 192.0, 0.0, 0.0, 0.0, 0.0, 0.0, 0.0, 0.0, 0.0, 0.0, 1.712439301254963E9, 0.0, 2024-04-06 17:35:01.254
137.0, 43282.78968129036, 39734.24908331026, -54306.29006699206, -57884.17850544197, -55729.85031960611, -34523.43160193344, -56722.960677499854, -32912.69784125064, 0.014, 0.994, -0.092, 192.0, 0.0, 0.0, 0.0, 0.0, 0.0, 0.0, 0.0, 0.0, 0.0, 1.712439301260889E9, 0.0, 2024-04-06 17:35:01.260
138.0, 43170.5392206358, 39788.563822336655, -53719.86969946262, -58256.223291900555, -55645.047801142675, -34094.21105315817, -56575.34975711701, -32710.638071374666, 0.014, 0.994, -0.092, 192.0, 0.0, 0.0, 0.0, 0.0, 0.0, 0.0, 0.0, 0.0, 0.0, 1.712439301263909E9, 0.0, 2024-04-06 17:35:01.263
139.0, 43376.8905254472, 40155.311245359335, -52410.839785437565, -58682.13578249643, -55875.673100432534, -33566.53107005728, -56306.41356783075, -32240.357368035005, 0.014, 0.994, -0.092, 192.0, 0.0, 0.0, 0.0, 0.0, 0.0, 0.0, 0.0, 0.0, 0.0, 1.71243930126686E9, 0.0, 2024-04-06 17:35:01.266
140.0, 43472.868916138286, 40031.32611886575, -53020.0142288225, -58319.54578394244, -55861.68090840351, -34033.99545359558, -56475.12453497941, -32497.089504848664, 0.016, 0.99, -0.094, 192.0, 0.0, 128.0, 30.0, 240.0, 253.0, 16.0, 0.0, 0.0, 0.0, 1.71243930127366E9, 0.0, 2024-04-06 17:35:01.273
141.0, 43330.376545235704, 39783.84760425659, -54148.19617845967, -57930.6254304201, -55752.5596919727, -34445.80399344015, -56705.347502869074, -32834.73495659053, 0.016, 0.99, -0.094, 192.0, 0.0, 0.0, 0.0, 0.0, 0.0, 0.0, 0.0, 0.0, 0.0, 1.71243930127487E9, 0.0, 2024-04-06 17:35:01.274
142.0, 43192.01924705735, 39727.70002218486, -54015.382112906234, -58121.53167981288, -55624.68536194389, -34265.96185755275, -56666.477819261294, -32807.01879346595, 0.016, 0.99, -0.094, 192.0, 0.0, 0.0, 0.0, 0.0, 0.0, 0.0, 0.0, 0.0, 0.0, 1.712439301278896E9, 0.0, 2024-04-06 17:35:01.278
143.0, 43334.62337668221, 40124.264672310914, -52484.086452017604, -58703.302884495606, -55843.68775411699, -33537.36204354311, -56317.32121912494, -32229.71793767428, 0.016, 0.99, -0.094, 192.0, 0.0, 0.0, 0.0, 0.0, 0.0, 0.0, 0.0, 0.0, 0.0, 1.712439301282803E9, 0.0, 2024-04-06 17:35:01.282
144.0, 43486.838756422854, 40066.12778498266, -52869.229360727, -58381.907150972744, -55887.832449416215, -33971.49997609854, -56451.252871901146, -32441.254847199303, 0.016, 0.99, -0.094, 192.0, 0.0, 0.0, 0.0, 0.0, 0.0, 0.0, 0.0, 0.0, 0.0, 1.712439301287945E9, 0.0, 2024-04-06 17:35:01.287
145.0, 43355.70107170357, 39841.93978809593, -53949.310356296344, -57992.47270732793, -55771.37986080407, -34349.73619577124, -56655.726630178295, -32756.615609719232, 0.016, 0.99, -0.094, 192.0, 0.0, 0.0, 0.0, 0.0, 0.0, 0.0, 0.0, 0.0, 0.0, 1.712439301291917E9, 0.0, 2024-04-06 17:35:01.291
146.0, 43197.204851770985, 39684.5164518972, -54249.06960118647, -57999.33469287571, -55628.84278641258, -34410.46588545631, -56719.94319199839, -32895.934032909165, 0.016, 0.99, -0.094, 192.0, 0.0, 0.0, 0.0, 0.0, 0.0, 0.0, 0.0, 0.0, 0.0, 1.712439301294975E9, 0.0, 2024-04-06 17:35:01.294
147.0, 43288.13174821517, 40093.0616370513, -52634.245471268354, -58655.47015136125, -55792.1669831475, -33548.806136704225, -56333.90621351078, -32286.021981957198, 0.016, 0.99, -0.094, 192.0, 0.0, 0.0, 0.0, 0.0, 0.0, 0.0, 0.0, 0.0, 0.0, 1.712439301298914E9, 0.0, 2024-04-06 17:35:01.298
