%OpenBCI Raw EEG Data
%Number of channels = 8
%Sample Rate = 250 Hz
%Board = OpenBCI_GUI$BoardCytonSerial
Sample Index, EXG Channel 0, EXG Channel 1, EXG Channel 2, EXG Channel 3, EXG Channel 4, EXG Channel 5, EXG Channel 6, EXG Channel 7, Accel Channel 0, Accel Channel 1, Accel Channel 2, Other, Other, Other, Other, Other, Other, Other, Analog Channel 0, Analog Channel 1, Analog Channel 2, Timestamp, Other, Timestamp (Formatted)
42.0, 187500.0, 187500.0, 15374.513313116231, -28911.556769795036, 9519.02681815944, -15221.24740138619, -41057.58411378672, 18848.086160193227, -0.122, 0.92, 0.34800000000000003, 192.0, 0.0, 0.0, 0.0, 0.0, 0.0, 0.0, 0.0, 0.0, 0.0, 1.698959865606698E9, 0.0, 2023-11-02 17:17:45.606
43.0, 187500.0, 187500.0, 15352.027458194192, -28916.183580897283, 9511.516632022456, -15232.132700935925, -41062.032110933316, 18842.609982801674, -0.122, 0.92, 0.34800000000000003, 192.0, 0.0, 0.0, 0.0, 0.0, 0.0, 0.0, 0.0, 0.0, 0.0, 1.6989598656067142E9, 0.0, 2023-11-02 17:17:45.606
44.0, 187500.0, 187500.0, 15338.884632454472, -28908.76280173812, 9519.987943171018, -15242.034523729626, -41054.767793985346, 18849.427264860544, -0.122, 0.92, 0.34800000000000003, 192.0, 0.0, 0.0, 0.0, 0.0, 0.0, 0.0, 0.0, 0.0, 0.0, 1.6989598656067271E9, 0.0, 2023-11-02 17:17:45.606
45.0, 187500.0, 187500.0, 15368.008955479736, -28892.513083519112, 9536.46117883458, -15239.844052773005, -41038.24985483287, 18864.134712712137, -0.12, 0.922, 0.352, 192.0, 252.0, 64.0, 28.0, 208.0, 11.0, 0.0, 0.0, 0.0, 0.0, 1.6989598656067395E9, 0.0, 2023-11-02 17:17:45.606
46.0, 187500.0, 187500.0, 15374.669775327418, -28913.30020586255, 9511.06959713335, -15238.01120972767, -41060.13221265462, 18843.1464246686, -0.12, 0.922, 0.352, 192.0, 0.0, 0.0, 0.0, 0.0, 0.0, 0.0, 0.0, 0.0, 0.0, 1.6989598656067572E9, 0.0, 2023-11-02 17:17:45.606
47.0, 187500.0, 187500.0, 15371.473475870309, -28890.05439162903, 9529.576841542344, -15244.247346430702, -41036.2829013208, 18868.716820325473, -0.12, 0.922, 0.352, 192.0, 0.0, 0.0, 0.0, 0.0, 0.0, 0.0, 0.0, 0.0, 0.0, 1.698959865606773E9, 0.0, 2023-11-02 17:17:45.606
48.0, 187500.0, 187500.0, 15363.538606588676, -28888.42271428379, 9533.488396822024, -15237.117139949458, -41035.27707282032, 18870.92964302655, -0.12, 0.922, 0.352, 192.0, 0.0, 0.0, 0.0, 0.0, 0.0, 0.0, 0.0, 0.0, 0.0, 1.6989598656071832E9, 0.0, 2023-11-02 17:17:45.607
49.0, 187500.0, 187500.0, 15354.732019273284, -28909.478057560693, 9513.528289023434, -15260.87704430545, -41058.612294031656, 18849.561375327277, -0.12, 0.922, 0.352, 192.0, 0.0, 0.0, 0.0, 0.0, 0.0, 0.0, 0.0, 0.0, 0.0, 1.6989598656072059E9, 0.0, 2023-11-02 17:17:45.607
50.0, 187500.0, 187500.0, 15361.884577498982, -28923.313787378527, 9497.859716160265, -15276.053878790604, -41073.52090758335, 18836.239735631912, -0.12, 0.922, 0.352, 192.0, 0.0, 0.0, 0.0, 0.0, 0.0, 0.0, 0.0, 0.0, 0.0, 1.698959865607221E9, 0.0, 2023-11-02 17:17:45.607
51.0, 187500.0, 187500.0, 15347.266536625211, -28933.886162505885, 9485.92388462113, -15283.765230627685, -41080.360541386675, 18828.304866350278, -0.12, 0.922, 0.352, 192.0, 0.0, 0.0, 0.0, 0.0, 0.0, 0.0, 0.0, 0.0, 0.0, 1.698959865607234E9, 0.0, 2023-11-02 17:17:45.607
52.0, 187500.0, 187500.0, 15334.235469607767, -28918.99990069865, 9501.503050506479, -15282.446477704822, -41062.54620105579, 18844.77810201384, -0.12, 0.922, 0.352, 192.0, 0.0, 0.0, 0.0, 0.0, 0.0, 0.0, 0.0, 0.0, 0.0, 1.6989598656072469E9, 0.0, 2023-11-02 17:17:45.607
53.0, 187500.0, 187500.0, 15355.17905416239, -28907.48875230417, 9518.043341403407, -15256.563157625576, -41049.112802638156, 18855.752808541394, -0.12, 0.922, 0.352, 192.0, 0.0, 0.0, 0.0, 0.0, 0.0, 0.0, 0.0, 0.0, 0.0, 1.6989598656072607E9, 0.0, 2023-11-02 17:17:45.607
54.0, 187500.0, 187500.0, 15368.187769435379, -28919.37988035439, 9512.5448122674, -15234.524337592644, -41058.120555653644, 18843.995790957902, -0.12, 0.922, 0.352, 192.0, 0.0, 0.0, 0.0, 0.0, 0.0, 0.0, 0.0, 0.0, 0.0, 1.6989598656072755E9, 0.0, 2023-11-02 17:17:45.607
55.0, 187500.0, 187500.0, 15360.342307131566, -28922.933807722788, 9507.336855809315, -15230.322209635046, -41061.36155859966, 18841.313581623268, -0.12, 0.918, 0.356, 192.0, 252.0, 64.0, 28.0, 176.0, 11.0, 32.0, 0.0, 0.0, 0.0, 1.6989598656072948E9, 0.0, 2023-11-02 17:17:45.607
56.0, 187500.0, 187500.0, 15341.030399922181, -28920.318653621514, 9506.845117431298, -15237.541823094109, -41059.01462543185, 18847.12503518165, -0.12, 0.918, 0.356, 192.0, 0.0, 0.0, 0.0, 0.0, 0.0, 0.0, 0.0, 0.0, 0.0, 1.6989598656073103E9, 0.0, 2023-11-02 17:17:45.607
57.0, 187500.0, 187500.0, 15339.868109210505, -28924.520781579115, 9496.429204515125, -15235.373703881945, -41063.775547000834, 18843.548756068798, -0.12, 0.918, 0.356, 192.0, 0.0, 0.0, 0.0, 0.0, 0.0, 0.0, 0.0, 0.0, 0.0, 1.6989598656073222E9, 0.0, 2023-11-02 17:17:45.607
58.0, 187500.0, 187500.0, 15344.114940657013, -28947.00663650115, 9472.624596670223, -15236.87127076045, -41082.68512281002, 18823.611000014665, -0.12, 0.918, 0.356, 192.0, 0.0, 0.0, 0.0, 0.0, 0.0, 0.0, 0.0, 0.0, 0.0, 1.698959865607332E9, 0.0, 2023-11-02 17:17:45.607
59.0, 187500.0, 187500.0, 15349.121731415002, -28940.614037586933, 9476.312634505348, -15248.717695321762, -41079.46647160846, 18831.38940708511, -0.12, 0.918, 0.356, 192.0, 0.0, 0.0, 0.0, 0.0, 0.0, 0.0, 0.0, 0.0, 0.0, 1.6989598656073442E9, 0.0, 2023-11-02 17:17:45.607
60.0, 187500.0, 187500.0, 15328.289905582657, -28942.938619010285, 9475.217399027038, -15257.390172170422, -41083.95917224397, 18828.617790772652, -0.12, 0.918, 0.356, 192.0, 0.0, 0.0, 0.0, 0.0, 0.0, 0.0, 0.0, 0.0, 0.0, 1.6989598656073596E9, 0.0, 2023-11-02 17:17:45.607
61.0, 187500.0, 187500.0, 15325.339475314555, -28934.132031694895, 9491.35535852377, -15253.031582001637, -41071.08456743772, 18837.6478955326, -0.12, 0.918, 0.356, 192.0, 0.0, 0.0, 0.0, 0.0, 0.0, 0.0, 0.0, 0.0, 0.0, 1.6989598656073728E9, 0.0, 2023-11-02 17:17:45.607
62.0, 187500.0, 187500.0, 15333.050827151637, -28944.749110311164, 9485.700367176578, -15248.047142988104, -41083.981523988434, 18825.10856689317, -0.12, 0.918, 0.356, 192.0, 0.0, 0.0, 0.0, 0.0, 0.0, 0.0, 0.0, 0.0, 0.0, 1.698959865607386E9, 0.0, 2023-11-02 17:17:45.607
63.0, 187500.0, 187500.0, 15339.801053977139, -28939.518802108625, 9490.751861423476, -15247.06366623207, -41075.599619817694, 18830.83061347373, -0.12, 0.918, 0.356, 192.0, 0.0, 0.0, 0.0, 0.0, 0.0, 0.0, 0.0, 0.0, 0.0, 1.6989598656074007E9, 0.0, 2023-11-02 17:17:45.607
64.0, 187500.0, 187500.0, 15316.644646721441, -28941.68692132079, 9490.997730612486, -15242.235689429725, -41078.19242217451, 18828.684846006017, -0.12, 0.918, 0.356, 192.0, 0.0, 0.0, 0.0, 0.0, 0.0, 0.0, 0.0, 0.0, 0.0, 1.698959865607472E9, 0.0, 2023-11-02 17:17:45.607
65.0, 187500.0, 187500.0, 15303.837097148551, -28943.519764366123, 9480.581817696311, -15241.431026629332, -41086.06023622277, 18825.689712249008, -0.128, 0.92, 0.35000000000000003, 192.0, 252.0, 0.0, 28.0, 192.0, 10.0, 240.0, 0.0, 0.0, 0.0, 1.6989598656074867E9, 0.0, 2023-11-02 17:17:45.607
66.0, 187500.0, 187500.0, 15327.485242782264, -28934.48965960618, 9485.5886084543, -15240.179328939836, -41077.25364890738, 18833.937505953018, -0.128, 0.92, 0.35000000000000003, 192.0, 0.0, 0.0, 0.0, 0.0, 0.0, 0.0, 0.0, 0.0, 0.0, 1.6989598656075008E9, 0.0, 2023-11-02 17:17:45.607
67.0, 187500.0, 187500.0, 15338.772873732196, -28936.143688695873, 9488.963721867052, -15231.305686391079, -41077.27600065184, 18829.355398339678, -0.128, 0.92, 0.35000000000000003, 192.0, 0.0, 0.0, 0.0, 0.0, 0.0, 0.0, 0.0, 0.0, 0.0, 1.698959865607514E9, 0.0, 2023-11-02 17:17:45.607
68.0, 187500.0, 187500.0, 15326.390007303955, -28929.68403454829, 9489.857791645265, -15243.643849330409, -41070.145794170596, 18835.122148409147, -0.128, 0.92, 0.35000000000000003, 192.0, 0.0, 0.0, 0.0, 0.0, 0.0, 0.0, 0.0, 0.0, 0.0, 1.698959865607525E9, 0.0, 2023-11-02 17:17:45.607
69.0, 187500.0, 187500.0, 15303.390062259445, -28936.702482307253, 9484.001634597973, -15254.618555857964, -41080.628762320135, 18828.126052394637, -0.128, 0.92, 0.35000000000000003, 192.0, 0.0, 0.0, 0.0, 0.0, 0.0, 0.0, 0.0, 0.0, 0.0, 1.6989598656075573E9, 0.0, 2023-11-02 17:17:45.607
70.0, 187500.0, 187500.0, 15317.918696155393, -28935.87546776241, 9487.667320688644, -15246.191948198313, -41081.45577686498, 18829.601267528687, -0.128, 0.92, 0.35000000000000003, 192.0, 0.0, 0.0, 0.0, 0.0, 0.0, 0.0, 0.0, 0.0, 0.0, 1.6989598656075683E9, 0.0, 2023-11-02 17:17:45.607
71.0, 187500.0, 187500.0, 15329.966286416804, -28946.49254637868, 9475.217399027038, -15240.514605106666, -41094.77741656035, 18819.140651123602, -0.128, 0.92, 0.35000000000000003, 192.0, 0.0, 0.0, 0.0, 0.0, 0.0, 0.0, 0.0, 0.0, 0.0, 1.6989598656075857E9, 0.0, 2023-11-02 17:17:45.607
72.0, 187500.0, 187500.0, 15311.235524563257, -28954.5838778715, 9462.119276776228, -15248.58358485503, -41107.31674519977, 18810.15524985257, -0.128, 0.92, 0.35000000000000003, 192.0, 0.0, 0.0, 0.0, 0.0, 0.0, 0.0, 0.0, 0.0, 0.0, 1.6989598656075983E9, 0.0, 2023-11-02 17:17:45.607
73.0, 187500.0, 187500.0, 15282.804105616106, -28976.17566301533, 9440.39338116567, -15259.446532660311, -41131.322518744775, 18788.585816453196, -0.128, 0.92, 0.35000000000000003, 192.0, 0.0, 0.0, 0.0, 0.0, 0.0, 0.0, 0.0, 0.0, 0.0, 1.698959865607614E9, 0.0, 2023-11-02 17:17:45.607
74.0, 187500.0, 187500.0, 15271.516474666176, -29000.874340638442, 9418.980409977486, -15281.351242226512, -41155.10477484522, 18763.41775219652, -0.128, 0.92, 0.35000000000000003, 192.0, 0.0, 0.0, 0.0, 0.0, 0.0, 0.0, 0.0, 0.0, 0.0, 1.6989598656076305E9, 0.0, 2023-11-02 17:17:45.607
75.0, 187500.0, 187500.0, 15288.392041729932, -29009.50211399819, 9410.822023251298, -15286.983881829248, -41161.60913248171, 18753.314763702725, -0.12, 0.922, 0.34800000000000003, 192.0, 252.0, 64.0, 28.0, 208.0, 10.0, 224.0, 0.0, 0.0, 0.0, 1.6989598656076436E9, 0.0, 2023-11-02 17:17:45.607
76.0, 187500.0, 187500.0, 15267.962547297782, -29024.611893249978, 9398.19328763405, -15294.73993715524, -41174.595496010246, 18736.260382683326, -0.12, 0.922, 0.34800000000000003, 192.0, 0.0, 0.0, 0.0, 0.0, 0.0, 0.0, 0.0, 0.0, 0.0, 1.6989598656076632E9, 0.0, 2023-11-02 17:17:45.607
77.0, 187500.0, 187500.0, 15225.740102021708, -29053.624457552967, 9366.073830851774, -15321.807899690617, -41203.183377168585, 18707.158411402514, -0.12, 0.922, 0.34800000000000003, 192.0, 0.0, 0.0, 0.0, 0.0, 0.0, 0.0, 0.0, 0.0, 0.0, 1.69895986560768E9, 0.0, 2023-11-02 17:17:45.607
78.0, 187500.0, 187500.0, 15207.434023312811, -29087.822626569585, 9330.378094956648, -15345.254879624234, -41236.241607217984, 18671.015640618283, -0.12, 0.922, 0.34800000000000003, 192.0, 0.0, 0.0, 0.0, 0.0, 0.0, 0.0, 0.0, 0.0, 0.0, 1.6989598656076934E9, 0.0, 2023-11-02 17:17:45.607
79.0, 187500.0, 187500.0, 15177.415630509333, -29151.793319200675, 9263.412268568549, -15379.90008352996, -41298.06653238136, 18604.16157295246, -0.12, 0.922, 0.34800000000000003, 192.0, 0.0, 0.0, 0.0, 0.0, 0.0, 0.0, 0.0, 0.0, 0.0, 1.698959865607782E9, 0.0, 2023-11-02 17:17:45.607
80.0, 187500.0, 187500.0, 15133.852080565941, -29199.02255523474, 9220.58632619218, -15413.830031613117, -41336.89151250023, 18556.887633429484, -0.12, 0.922, 0.34800000000000003, 192.0, 0.0, 0.0, 0.0, 0.0, 0.0, 0.0, 0.0, 0.0, 0.0, 1.698959865607807E9, 0.0, 2023-11-02 17:17:45.607
81.0, 187500.0, 187500.0, 15081.481943307155, -29238.674549898453, 9178.855619294121, -15456.72302922285, -41370.106204760814, 18518.152060288437, -0.12, 0.922, 0.34800000000000003, 192.0, 0.0, 0.0, 0.0, 0.0, 0.0, 0.0, 0.0, 0.0, 0.0, 1.6989598656078215E9, 0.0, 2023-11-02 17:17:45.607
82.0, 187500.0, 187500.0, 15049.764817925075, -29275.957259649906, 9133.012191416286, -15505.382776902054, -41404.01380109952, 18480.578777859067, -0.12, 0.922, 0.34800000000000003, 192.0, 0.0, 0.0, 0.0, 0.0, 0.0, 0.0, 0.0, 0.0, 0.0, 1.6989598656078367E9, 0.0, 2023-11-02 17:17:45.607
83.0, 187500.0, 187500.0, 15040.77941665404, -29320.258417160323, 9084.374795481539, -15539.98327731887, -41447.666758020736, 18435.897640692907, -0.12, 0.922, 0.34800000000000003, 192.0, 0.0, 0.0, 0.0, 0.0, 0.0, 0.0, 0.0, 0.0, 0.0, 1.6989598656078532E9, 0.0, 2023-11-02 17:17:45.607
84.0, 187500.0, 187500.0, 14983.938930504195, -29381.837473134696, 9021.11935867302, -15593.627464011606, -41508.28468898353, 18374.49739867418, -0.12, 0.922, 0.34800000000000003, 192.0, 0.0, 0.0, 0.0, 0.0, 0.0, 0.0, 0.0, 0.0, 0.0, 1.6989598656078677E9, 0.0, 2023-11-02 17:17:45.607
85.0, 187500.0, 187500.0, 14924.773862930997, -29410.224188592936, 8992.73264321478, -15638.867394789148, -41534.43622999624, 18346.62477333841, -0.12, 0.922, 0.34400000000000003, 192.0, 252.0, 64.0, 28.0, 208.0, 10.0, 192.0, 0.0, 0.0, 0.0, 1.6989598656078813E9, 0.0, 2023-11-02 17:17:45.607
86.0, 187500.0, 187500.0, 14893.23555150456, -29429.692558013507, 8981.73558494277, -15668.90813933708, -41557.4585267852, 18325.43531959478, -0.12, 0.922, 0.34400000000000003, 192.0, 0.0, 0.0, 0.0, 0.0, 0.0, 0.0, 0.0, 0.0, 0.0, 1.698959865607901E9, 0.0, 2023-11-02 17:17:45.607
87.0, 187500.0, 187500.0, 14877.298757707926, -29457.945163005017, 8945.481055436261, -15687.258921534887, -41603.7713412966, 18283.257577807617, -0.12, 0.922, 0.34400000000000003, 192.0, 0.0, 0.0, 0.0, 0.0, 0.0, 0.0, 0.0, 0.0, 0.0, 1.6989598656079187E9, 0.0, 2023-11-02 17:17:45.607
88.0, 187500.0, 187500.0, 14852.08598996234, -29468.674000343563, 8914.345075410018, -15710.482384023951, -41634.23676898918, 18253.127426281862, -0.12, 0.922, 0.34400000000000003, 192.0, 0.0, 0.0, 0.0, 0.0, 0.0, 0.0, 0.0, 0.0, 0.0, 1.6989598656079335E9, 0.0, 2023-11-02 17:17:45.607
89.0, 187500.0, 187500.0, 14816.591419767312, -29478.48641615944, 8898.497688591206, -15738.846747737736, -41647.737222640186, 18240.69985636471, -0.12, 0.922, 0.34400000000000003, 192.0, 0.0, 0.0, 0.0, 0.0, 0.0, 0.0, 0.0, 0.0, 0.0, 1.6989598656079483E9, 0.0, 2023-11-02 17:17:45.607
90.0, 187500.0, 187500.0, 14804.387367294714, -29483.046172028327, 8900.062310703077, -15761.31025091532, -41644.25035050516, 18243.22560348816, -0.12, 0.922, 0.34400000000000003, 192.0, 0.0, 0.0, 0.0, 0.0, 0.0, 0.0, 0.0, 0.0, 0.0, 1.6989598656079645E9, 0.0, 2023-11-02 17:17:45.607
91.0, 187500.0, 187500.0, 14823.140480892716, -29497.351288479724, 8896.128403678942, -15769.043954496856, -41651.514667453135, 18239.314048208482, -0.12, 0.922, 0.34400000000000003, 192.0, 0.0, 0.0, 0.0, 0.0, 0.0, 0.0, 0.0, 0.0, 0.0, 1.6989598656080005E9, 0.0, 2023-11-02 17:17:45.608
92.0, 187500.0, 187500.0, 14831.12005366326, -29501.821637370784, 8889.132307664431, -15775.324794688797, -41658.644873934376, 18236.967115040676, -0.12, 0.922, 0.34400000000000003, 192.0, 0.0, 0.0, 0.0, 0.0, 0.0, 0.0, 0.0, 0.0, 0.0, 1.6989598656080208E9, 0.0, 2023-11-02 17:17:45.608
93.0, 187500.0, 187500.0, 14802.219248082549, -29512.282253775866, 8879.029319170633, -15794.435536198085, -41666.132708326906, 18228.36169342538, -0.12, 0.922, 0.34400000000000003, 192.0, 0.0, 0.0, 0.0, 0.0, 0.0, 0.0, 0.0, 0.0, 0.0, 1.6989598656080418E9, 0.0, 2023-11-02 17:17:45.608
94.0, 187500.0, 187500.0, 14787.712965931054, -29509.51063746341, 8882.896170961401, -15808.763004393937, -41668.837269405994, 18231.781510327044, -0.12, 0.922, 0.34400000000000003, 192.0, 0.0, 0.0, 0.0, 0.0, 0.0, 0.0, 0.0, 0.0, 0.0, 1.6989598656080604E9, 0.0, 2023-11-02 17:17:45.608
95.0, 187500.0, 187500.0, 14781.812105394854, -29529.873076662196, 8858.286900316109, -15823.783376667903, -41688.707970226766, 18211.642588572813, -0.124, 0.922, 0.34600000000000003, 192.0, 252.0, 32.0, 28.0, 208.0, 10.0, 208.0, 0.0, 0.0, 0.0, 1.6989598656081803E9, 0.0, 2023-11-02 17:17:45.608
96.0, 187500.0, 187500.0, 14795.558428234868, -29522.809925414316, 8864.344223063496, -15834.489862261995, -41675.54279274259, 18220.60563809939, -0.124, 0.922, 0.34600000000000003, 192.0, 0.0, 0.0, 0.0, 0.0, 0.0, 0.0, 0.0, 0.0, 0.0, 1.6989598656081944E9, 0.0, 2023-11-02 17:17:45.608
97.0, 187500.0, 187500.0, 14786.103640330273, -29518.78661141236, 8870.245083599697, -15826.46558600254, -41666.42328100482, 18228.60756261439, -0.124, 0.922, 0.34600000000000003, 192.0, 0.0, 0.0, 0.0, 0.0, 0.0, 0.0, 0.0, 0.0, 0.0, 1.698959865608208E9, 0.0, 2023-11-02 17:17:45.608
98.0, 187500.0, 187500.0, 14775.441858225091, -29502.1122100487, 8891.99333095471, -15822.844603400781, -41655.31446401054, 18243.069141276974, -0.124, 0.922, 0.34600000000000003, 192.0, 0.0, 0.0, 0.0, 0.0, 0.0, 0.0, 0.0, 0.0, 0.0, 1.6989598656082287E9, 0.0, 2023-11-02 17:17:45.608
99.0, 187500.0, 187500.0, 14789.16582932065, -29498.960614080504, 8895.860182745479, -15816.407300997651, -41651.04528081957, 18243.51617616608, -0.124, 0.922, 0.34600000000000003, 192.0, 0.0, 0.0, 0.0, 0.0, 0.0, 0.0, 0.0, 0.0, 0.0, 1.6989598656082447E9, 0.0, 2023-11-02 17:17:45.608
100.0, 187500.0, 187500.0, 14818.625428512745, -29489.349363964724, 8895.122575178453, -15799.643492656172, -41636.36018471244, 18254.46853094918, -0.124, 0.922, 0.34600000000000003, 192.0, 0.0, 0.0, 0.0, 0.0, 0.0, 0.0, 0.0, 0.0, 0.0, 1.6989598656082575E9, 0.0, 2023-11-02 17:17:45.608
101.0, 187500.0, 187500.0, 14812.232829598526, -29492.433904699556, 8887.008891941177, -15798.190629266577, -41639.89176033637, 18251.56280416999, -0.124, 0.922, 0.34600000000000003, 192.0, 0.0, 0.0, 0.0, 0.0, 0.0, 0.0, 0.0, 0.0, 0.0, 1.6989598656082711E9, 0.0, 2023-11-02 17:17:45.608
102.0, 187500.0, 187500.0, 14782.30384377287, -29493.618547155686, 8892.105089676987, -15812.22752478451, -41644.89855109436, 18247.807711101497, -0.124, 0.922, 0.34600000000000003, 192.0, 0.0, 0.0, 0.0, 0.0, 0.0, 0.0, 0.0, 0.0, 0.0, 1.6989598656083047E9, 0.0, 2023-11-02 17:17:45.608
103.0, 187500.0, 187500.0, 14792.49623924449, -29485.773084851873, 8894.206153655787, -15804.1808967806, -41645.6808621503, 18254.021496060075, -0.124, 0.922, 0.34600000000000003, 192.0, 0.0, 0.0, 0.0, 0.0, 0.0, 0.0, 0.0, 0.0, 0.0, 1.698959865608335E9, 0.0, 2023-11-02 17:17:45.608
104.0, 187500.0, 187500.0, 14806.466079529058, -29498.111247791203, 8878.917560448357, -15797.430669955096, -41654.84507737697, 18242.018609287574, -0.124, 0.922, 0.34600000000000003, 192.0, 0.0, 0.0, 0.0, 0.0, 0.0, 0.0, 0.0, 0.0, 0.0, 1.6989598656083496E9, 0.0, 2023-11-02 17:17:45.608
105.0, 187500.0, 187500.0, 14810.735262720022, -29487.136541263648, 8887.612389041471, -15797.564780421828, -41642.17163827082, 18255.34024898294, -0.126, 0.918, 0.34800000000000003, 192.0, 252.0, 16.0, 28.0, 176.0, 10.0, 224.0, 0.0, 0.0, 0.0, 1.6989598656083632E9, 0.0, 2023-11-02 17:17:45.608
106.0, 187500.0, 187500.0, 14805.080271372828, -29468.808110810296, 8904.040921216121, -15787.148867505655, -41628.648832875355, 18274.18276955876, -0.126, 0.918, 0.34800000000000003, 192.0, 0.0, 0.0, 0.0, 0.0, 0.0, 0.0, 0.0, 0.0, 0.0, 1.698959865608378E9, 0.0, 2023-11-02 17:17:45.608
107.0, 187500.0, 187500.0, 14814.110376132772, -29463.86837528567, 8912.065197475576, -15773.44724815455, -41627.82181833051, 18278.675470194277, -0.126, 0.918, 0.34800000000000003, 192.0, 0.0, 0.0, 0.0, 0.0, 0.0, 0.0, 0.0, 0.0, 0.0, 1.6989598656083913E9, 0.0, 2023-11-02 17:17:45.608
108.0, 187500.0, 187500.0, 14823.140480892716, -29479.447541171023, 8900.531697336639, -15772.575530120796, -41639.48942893618, 18264.52681595407, -0.126, 0.918, 0.34800000000000003, 192.0, 0.0, 0.0, 0.0, 0.0, 0.0, 0.0, 0.0, 0.0, 0.0, 1.6989598656084065E9, 0.0, 2023-11-02 17:17:45.608
109.0, 187500.0, 187500.0, 14817.17256512315, -29488.008259297403, 8898.81061301358, -15759.030372980878, -41647.3795947289, 18257.262499006094, -0.126, 0.918, 0.34800000000000003, 192.0, 0.0, 0.0, 0.0, 0.0, 0.0, 0.0, 0.0, 0.0, 0.0, 1.6989598656084232E9, 0.0, 2023-11-02 17:17:45.608
110.0, 187500.0, 187500.0, 14789.724622932032, -29488.656459886606, 8894.452022844795, -15755.722314801493, -41651.87229536442, 18257.284850750548, -0.126, 0.918, 0.34800000000000003, 192.0, 0.0, 0.0, 0.0, 0.0, 0.0, 0.0, 0.0, 0.0, 0.0, 1.6989598656085134E9, 0.0, 2023-11-02 17:17:45.608
111.0, 187500.0, 187500.0, 14802.465117271557, -29469.791587566328, 8907.930124751345, -15747.005134463923, -41633.52151316661, 18277.356717271414, -0.126, 0.918, 0.34800000000000003, 192.0, 0.0, 0.0, 0.0, 0.0, 0.0, 0.0, 0.0, 0.0, 0.0, 1.6989598656085317E9, 0.0, 2023-11-02 17:17:45.608
112.0, 187500.0, 187500.0, 14803.649759727688, -29494.13263727816, 8884.170220395354, -15740.366666360696, -41657.70610066725, 18251.741618125634, -0.126, 0.918, 0.34800000000000003, 192.0, 0.0, 0.0, 0.0, 0.0, 0.0, 0.0, 0.0, 0.0, 0.0, 1.6989598656085608E9, 0.0, 2023-11-02 17:17:45.608
113.0, 187500.0, 187500.0, 14791.848038655287, -29508.817733385295, 8865.439458541807, -15749.352067631731, -41675.63219972041, 18234.262553961584, -0.126, 0.918, 0.34800000000000003, 192.0, 0.0, 0.0, 0.0, 0.0, 0.0, 0.0, 0.0, 0.0, 0.0, 1.698959865608577E9, 0.0, 2023-11-02 17:17:45.608
114.0, 187500.0, 187500.0, 14772.960814590553, -29500.234663514457, 8867.741688220704, -15776.352974933741, -41668.88197289491, 18242.599754643412, -0.126, 0.918, 0.34800000000000003, 192.0, 0.0, 0.0, 0.0, 0.0, 0.0, 0.0, 0.0, 0.0, 0.0, 1.698959865608594E9, 0.0, 2023-11-02 17:17:45.608
115.0, 187500.0, 187500.0, 14781.633291439211, -29475.558337635797, 8893.66971178886, -15780.130419746689, -41642.350452226456, 18268.170150300284, -0.11800000000000001, 0.922, 0.34600000000000003, 192.0, 252.0, 80.0, 28.0, 208.0, 10.0, 208.0, 0.0, 0.0, 0.0, 1.6989598656086066E9, 0.0, 2023-11-02 17:17:45.608
116.0, 187500.0, 187500.0, 14812.076367387339, -29460.560317106287, 8908.690084062826, -15765.557082361829, -41630.21345498723, 18280.776534173077, -0.11800000000000001, 0.922, 0.34600000000000003, 192.0, 0.0, 0.0, 0.0, 0.0, 0.0, 0.0, 0.0, 0.0, 0.0, 1.6989598656086211E9, 0.0, 2023-11-02 17:17:45.608
117.0, 187500.0, 187500.0, 14836.775045010454, -29447.909229744582, 8918.658962089892, -15754.716486301004, -41620.55750138253, 18290.23132207767, -0.11800000000000001, 0.922, 0.34600000000000003, 192.0, 0.0, 0.0, 0.0, 0.0, 0.0, 0.0, 0.0, 0.0, 0.0, 1.6989598656086361E9, 0.0, 2023-11-02 17:17:45.608
118.0, 187500.0, 187500.0, 14830.382446096237, -29432.039491181316, 8931.600622129516, -15754.001230478434, -41603.03373372957, 18307.33040658598, -0.11800000000000001, 0.922, 0.34600000000000003, 192.0, 0.0, 0.0, 0.0, 0.0, 0.0, 0.0, 0.0, 0.0, 0.0, 1.6989598656086533E9, 0.0, 2023-11-02 17:17:45.608
119.0, 187500.0, 187500.0, 14829.846004229308, -29413.599302005685, 8953.974718329277, -15744.769960018393, -41580.614934040896, 18328.162232418326, -0.11800000000000001, 0.922, 0.34600000000000003, 192.0, 0.0, 0.0, 0.0, 0.0, 0.0, 0.0, 0.0, 0.0, 0.0, 1.6989598656086695E9, 0.0, 2023-11-02 17:17:45.608
120.0, 187500.0, 187500.0, 14860.959632511096, -29394.175636074026, 8968.704517925325, -15729.615477277695, -41559.67134948628, 18348.547023361567, -0.11800000000000001, 0.922, 0.34600000000000003, 192.0, 0.0, 0.0, 0.0, 0.0, 0.0, 0.0, 0.0, 0.0, 0.0, 1.6989598656086884E9, 0.0, 2023-11-02 17:17:45.608
121.0, 187500.0, 187500.0, 14886.999414801528, -29384.743199913886, 8973.241922049752, -15716.159727115599, -41550.32832030396, 18357.375962421414, -0.11800000000000001, 0.922, 0.34600000000000003, 192.0, 0.0, 0.0, 0.0, 0.0, 0.0, 0.0, 0.0, 0.0, 0.0, 1.6989598656087048E9, 0.0, 2023-11-02 17:17:45.608
122.0, 187500.0, 187500.0, 14884.47366767808, -29370.460435206944, 8981.40030877594, -15710.124756112667, -41539.5547794765, 18370.719953861233, -0.11800000000000001, 0.922, 0.34600000000000003, 192.0, 0.0, 0.0, 0.0, 0.0, 0.0, 0.0, 0.0, 0.0, 0.0, 1.6989598656087213E9, 0.0, 2023-11-02 17:17:45.608
123.0, 187500.0, 187500.0, 14877.969310041584, -29355.37300769961, 9003.39442531996, -15709.34244505673, -41527.10485781489, 18384.958015079264, -0.11800000000000001, 0.922, 0.34600000000000003, 192.0, 0.0, 0.0, 0.0, 0.0, 0.0, 0.0, 0.0, 0.0, 0.0, 1.6989598656087399E9, 0.0, 2023-11-02 17:17:45.608
124.0, 187500.0, 187500.0, 14917.867173894309, -29316.726841536387, 9049.349611920074, -15687.929473868548, -41486.11175848386, 18422.084262619526, -0.11800000000000001, 0.922, 0.34600000000000003, 192.0, 0.0, 0.0, 0.0, 0.0, 0.0, 0.0, 0.0, 0.0, 0.0, 1.698959865608755E9, 0.0, 2023-11-02 17:17:45.608
125.0, 187500.0, 187500.0, 14960.20137789266, -29294.106876147616, 9069.287367974206, -15660.883863077624, -41459.312016881944, 18444.279544863646, -0.11800000000000001, 0.922, 0.35000000000000003, 192.0, 252.0, 80.0, 28.0, 208.0, 10.0, 240.0, 0.0, 0.0, 0.0, 1.6989598656088417E9, 0.0, 2023-11-02 17:17:45.608
126.0, 187500.0, 187500.0, 14956.5803952909, -29294.97859418137, 9061.754830092768, -15639.716761078449, -41457.501525581065, 18443.810158230088, -0.11800000000000001, 0.922, 0.35000000000000003, 192.0, 0.0, 0.0, 0.0, 0.0, 0.0, 0.0, 0.0, 0.0, 0.0, 1.6989598656088653E9, 0.0, 2023-11-02 17:17:45.608
127.0, 187500.0, 187500.0, 14918.358912272324, -29311.585940311666, 9042.711143816847, -15645.818787314749, -41472.07486296593, 18428.856841189485, -0.11800000000000001, 0.922, 0.35000000000000003, 192.0, 0.0, 0.0, 0.0, 0.0, 0.0, 0.0, 0.0, 0.0, 0.0, 1.6989598656088827E9, 0.0, 2023-11-02 17:17:45.608
128.0, 187500.0, 187500.0, 14927.009037376529, -29301.661765773508, 9055.496341645283, -15644.030647758324, -41465.749319285074, 18438.870422705462, -0.11800000000000001, 0.922, 0.35000000000000003, 192.0, 0.0, 0.0, 0.0, 0.0, 0.0, 0.0, 0.0, 0.0, 0.0, 1.6989598656088998E9, 0.0, 2023-11-02 17:17:45.608
129.0, 187500.0, 187500.0, 14968.091543685383, -29278.639468984544, 9075.612911655058, -15622.975304481424, -41452.606493545354, 18459.41167585989, -0.11800000000000001, 0.922, 0.35000000000000003, 192.0, 0.0, 0.0, 0.0, 0.0, 0.0, 0.0, 0.0, 0.0, 0.0, 1.698959865608922E9, 0.0, 2023-11-02 17:17:45.608
130.0, 187500.0, 187500.0, 14977.121648445327, -29261.27216354277, 9090.074490317642, -15603.66339727204, -41442.19058062918, 18475.102600467515, -0.11800000000000001, 0.922, 0.35000000000000003, 192.0, 0.0, 0.0, 0.0, 0.0, 0.0, 0.0, 0.0, 0.0, 0.0, 1.6989598656089392E9, 0.0, 2023-11-02 17:17:45.608
131.0, 187500.0, 187500.0, 14978.44040136819, -29232.63957889552, 9111.599220228103, -15589.581798265195, -41418.94476639566, 18502.4164321919, -0.11800000000000001, 0.922, 0.35000000000000003, 192.0, 0.0, 0.0, 0.0, 0.0, 0.0, 0.0, 0.0, 0.0, 0.0, 1.698959865608954E9, 0.0, 2023-11-02 17:17:45.608
132.0, 187500.0, 187500.0, 14975.333508888902, -29243.74839588981, 9096.757661909778, -15582.2280743394, -41432.825199702405, 18491.151152986426, -0.11800000000000001, 0.922, 0.35000000000000003, 192.0, 0.0, 0.0, 0.0, 0.0, 0.0, 0.0, 0.0, 0.0, 0.0, 1.69895986560897E9, 0.0, 2023-11-02 17:17:45.608
133.0, 187500.0, 187500.0, 14985.235331682603, -29255.103082073103, 9082.430193713928, -15584.865580185126, -41440.737717239586, 18477.22601619077, -0.11800000000000001, 0.922, 0.35000000000000003, 192.0, 0.0, 0.0, 0.0, 0.0, 0.0, 0.0, 0.0, 0.0, 0.0, 1.6989598656089945E9, 0.0, 2023-11-02 17:17:45.608
134.0, 187500.0, 187500.0, 14988.811610795452, -29246.02827382425, 9094.880115375534, -15573.46619051292, -41431.1264671238, 18482.83630404905, -0.112, 0.922, 0.352, 192.0, 252.0, 128.0, 28.0, 208.0, 11.0, 0.0, 0.0, 0.0, 0.0, 1.6989598656090088E9, 0.0, 2023-11-02 17:17:45.609
135.0, 187500.0, 187500.0, 14986.084697971904, -29215.45108740939, 9131.447569304415, -15562.200911307445, -41399.275231274994, 18512.67588289689, -0.112, 0.922, 0.352, 192.0, 0.0, 0.0, 0.0, 0.0, 0.0, 0.0, 0.0, 0.0, 0.0, 1.698959865609031E9, 0.0, 2023-11-02 17:17:45.609
136.0, 187500.0, 187500.0, 15006.4918406596, -29191.132389442017, 9152.659374792502, -15554.064876325712, -41373.77189085149, 18536.301676786148, -0.112, 0.922, 0.352, 192.0, 0.0, 0.0, 0.0, 0.0, 0.0, 0.0, 0.0, 0.0, 0.0, 1.698959865609043E9, 0.0, 2023-11-02 17:17:45.609
137.0, 187500.0, 187500.0, 15031.45873921618, -29195.73684879981, 9149.083095679653, -15546.241765766355, -41379.53864092095, 18531.652513939443, -0.112, 0.922, 0.352, 192.0, 0.0, 0.0, 0.0, 0.0, 0.0, 0.0, 0.0, 0.0, 0.0, 1.6989598656090631E9, 0.0, 2023-11-02 17:17:45.609
138.0, 187500.0, 187500.0, 15037.091378818915, -29197.77085754524, 9150.603014302613, -15544.386570976565, -41380.18684151016, 18530.13259531648, -0.112, 0.922, 0.352, 192.0, 0.0, 0.0, 0.0, 0.0, 0.0, 0.0, 0.0, 0.0, 0.0, 1.6989598656090806E9, 0.0, 2023-11-02 17:17:45.609
139.0, 187500.0, 187500.0, 15034.185652039725, -29173.47451132232, 9169.043203478243, -15540.542070930253, -41354.61644585329, 18553.870147928017, -0.112, 0.922, 0.352, 192.0, 0.0, 0.0, 0.0, 0.0, 0.0, 0.0, 0.0, 0.0, 0.0, 1.698959865609098E9, 0.0, 2023-11-02 17:17:45.609
140.0, 187500.0, 187500.0, 15035.59381194041, -29163.25976410625, 9177.268645437794, -15529.008570791313, -41345.04989922642, 18564.375467822014, -0.112, 0.922, 0.352, 192.0, 0.0, 0.0, 0.0, 0.0, 0.0, 0.0, 0.0, 0.0, 0.0, 1.6989598660858583E9, 0.0, 2023-11-02 17:17:46.085
141.0, 187500.0, 187500.0, 15050.54712898101, -29163.25976410625, 9181.068441995198, -15520.671370109485, -41344.401698637215, 18565.783627722696, -0.112, 0.922, 0.352, 192.0, 0.0, 0.0, 0.0, 0.0, 0.0, 0.0, 0.0, 0.0, 0.0, 1.6989598660859983E9, 0.0, 2023-11-02 17:17:46.085
142.0, 187500.0, 187500.0, 15065.522797766067, -29163.371522828525, 9182.610712362613, -15519.084396253158, -41343.59703583682, 18566.811807967642, -0.112, 0.922, 0.352, 192.0, 0.0, 0.0, 0.0, 0.0, 0.0, 0.0, 0.0, 0.0, 0.0, 1.6989598660860093E9, 0.0, 2023-11-02 17:17:46.086
143.0, 187500.0, 187500.0, 15047.082608590437, -29162.298639094668, 9178.877971038577, -15519.777300331272, -41344.22288468157, 18568.085857401595, -0.112, 0.922, 0.352, 192.0, 0.0, 0.0, 0.0, 0.0, 0.0, 0.0, 0.0, 0.0, 0.0, 1.6989598660860193E9, 0.0, 2023-11-02 17:17:46.086
144.0, 187500.0, 187500.0, 15043.819253899963, -29143.456118518847, 9198.927485814987, -15516.066910751691, -41324.955680961095, 18586.72721227732, -0.116, 0.922, 0.356, 192.0, 252.0, 96.0, 28.0, 208.0, 11.0, 32.0, 0.0, 0.0, 0.0, 1.6989598660860293E9, 0.0, 2023-11-02 17:17:46.086
145.0, 187500.0, 187500.0, 15073.055335647505, -29126.602903199542, 9219.066407569218, -15493.759869785294, -41309.287108097924, 18601.144087450994, -0.116, 0.922, 0.356, 192.0, 0.0, 0.0, 0.0, 0.0, 0.0, 0.0, 0.0, 0.0, 0.0, 1.6989598660860405E9, 0.0, 2023-11-02 17:17:46.086
146.0, 187500.0, 187500.0, 15085.70642300921, -29134.895400392463, 9208.002294063843, -15483.2545498913, -41322.586396048835, 18588.694165789388, -0.116, 0.922, 0.356, 192.0, 0.0, 0.0, 0.0, 0.0, 0.0, 0.0, 0.0, 0.0, 0.0, 1.69895986608605E9, 0.0, 2023-11-02 17:17:46.086
147.0, 187500.0, 187500.0, 15075.089344392938, -29133.107260836037, 9208.516384186314, -15490.474163350364, -41323.32400361586, 18588.91768323394, -0.116, 0.922, 0.356, 192.0, 0.0, 0.0, 0.0, 0.0, 0.0, 0.0, 0.0, 0.0, 0.0, 1.6989598660860596E9, 0.0, 2023-11-02 17:17:46.086
148.0, 187500.0, 187500.0, 15061.4547802752, -29125.977054354797, 9217.59119243517, -15490.697680794918, -41313.53393954443, 18596.91960774894, -0.116, 0.922, 0.356, 192.0, 0.0, 0.0, 0.0, 0.0, 0.0, 0.0, 0.0, 0.0, 0.0, 1.6989598660860696E9, 0.0, 2023-11-02 17:17:46.086
149.0, 187500.0, 187500.0, 15063.354678553902, -29139.76808068372, 9206.884706841076, -15489.557741827697, -41324.061611182886, 18586.906026232962, -0.116, 0.922, 0.356, 192.0, 0.0, 0.0, 0.0, 0.0, 0.0, 0.0, 0.0, 0.0, 0.0, 1.6989598660860791E9, 0.0, 2023-11-02 17:17:46.086
150.0, 187500.0, 187500.0, 15100.190353416248, -29116.589321683565, 9228.610602451636, -15475.945529454415, -41301.44164579411, 18611.515296878257, -0.116, 0.922, 0.356, 192.0, 0.0, 0.0, 0.0, 0.0, 0.0, 0.0, 0.0, 0.0, 0.0, 1.698959866086089E9, 0.0, 2023-11-02 17:17:46.086
151.0, 187500.0, 187500.0, 15105.42066161879, -29105.68167038938, 9235.092608343675, -15468.837674717626, -41291.98685788952, 18622.19943072789, -0.116, 0.922, 0.356, 192.0, 0.0, 0.0, 0.0, 0.0, 0.0, 0.0, 0.0, 0.0, 0.0, 1.698959866086099E9, 0.0, 2023-11-02 17:17:46.086
152.0, 187500.0, 187500.0, 15078.732678739152, -29110.33083323608, 9232.96919262042, -15480.68409927894, -41294.758474201975, 18617.72908183683, -0.116, 0.922, 0.356, 192.0, 0.0, 0.0, 0.0, 0.0, 0.0, 0.0, 0.0, 0.0, 0.0, 1.6989598660861084E9, 0.0, 2023-11-02 17:17:46.086
153.0, 187500.0, 187500.0, 15095.965873714194, -29085.7662660797, 9261.244149356384, -15480.527637067753, -41267.846973877786, 18641.31017223718, -0.116, 0.922, 0.356, 192.0, 0.0, 0.0, 0.0, 0.0, 0.0, 0.0, 0.0, 0.0, 0.0, 1.698959866086118E9, 0.0, 2023-11-02 17:17:46.086
154.0, 187500.0, 187500.0, 15119.569315858998, -29089.722524848286, 9256.192655109484, -15456.410104800476, -41272.22791579103, 18635.565773912167, -0.11800000000000001, 0.92, 0.358, 192.0, 252.0, 80.0, 28.0, 192.0, 11.0, 48.0, 0.0, 0.0, 0.0, 1.6989598660861278E9, 0.0, 2023-11-02 17:17:46.086
155.0, 187500.0, 187500.0, 15108.460498864712, -29096.13747550696, 9238.467721756426, -15457.907671678982, -41284.36491303026, 18625.842765074107, -0.11800000000000001, 0.92, 0.358, 192.0, 0.0, 0.0, 0.0, 0.0, 0.0, 0.0, 0.0, 0.0, 0.0, 1.6989598660861416E9, 0.0, 2023-11-02 17:17:46.086
156.0, 187500.0, 187500.0, 15106.404138374823, -29071.729370561767, 9255.678564987013, -15455.91836642246, -41259.956808085066, 18649.133282796538, -0.11800000000000001, 0.92, 0.358, 192.0, 0.0, 0.0, 0.0, 0.0, 0.0, 0.0, 0.0, 0.0, 0.0, 1.6989598660861604E9, 0.0, 2023-11-02 17:17:46.086
157.0, 187500.0, 187500.0, 15118.921115269795, -29062.31928614608, 9268.731983748912, -15443.669610460951, -41245.5846364003, 18660.063285835182, -0.11800000000000001, 0.92, 0.358, 192.0, 0.0, 0.0, 0.0, 0.0, 0.0, 0.0, 0.0, 0.0, 0.0, 1.69895986608617E9, 0.0, 2023-11-02 17:17:46.086
158.0, 187500.0, 187500.0, 15143.530385915088, -29060.777015778665, 9274.565789051747, -15426.145842807991, -41243.46122067705, 18660.756189913296, -0.11800000000000001, 0.92, 0.358, 192.0, 0.0, 0.0, 0.0, 0.0, 0.0, 0.0, 0.0, 0.0, 0.0, 1.69895986608618E9, 0.0, 2023-11-02 17:17:46.086
159.0, 187500.0, 187500.0, 15144.692676626764, -29065.403826880913, 9267.659100015057, -15425.609400941063, -41249.56324691335, 18654.609460188087, -0.11800000000000001, 0.92, 0.358, 192.0, 0.0, 0.0, 0.0, 0.0, 0.0, 0.0, 0.0, 0.0, 0.0, 1.6989598660861895E9, 0.0, 2023-11-02 17:17:46.086
160.0, 187500.0, 187500.0, 15129.605249119431, -29058.094806444027, 9273.31409136225, -15417.67453165943, -41243.237703232495, 18662.03023934725, -0.11800000000000001, 0.92, 0.358, 192.0, 0.0, 0.0, 0.0, 0.0, 0.0, 0.0, 0.0, 0.0, 0.0, 1.6989598660861993E9, 0.0, 2023-11-02 17:17:46.086
161.0, 187500.0, 187500.0, 15143.910365570828, -29026.17651536185, 9303.913629521565, -15408.040929799192, -41208.65955456014, 18694.909655441006, -0.11800000000000001, 0.92, 0.358, 192.0, 0.0, 0.0, 0.0, 0.0, 0.0, 0.0, 0.0, 0.0, 0.0, 1.6989598660862088E9, 0.0, 2023-11-02 17:17:46.086
162.0, 187500.0, 187500.0, 15167.62556643791, -29029.618684007968, 9304.31596092176, -15401.581275651608, -41213.08519996228, 18689.65699549401, -0.11800000000000001, 0.92, 0.358, 192.0, 0.0, 0.0, 0.0, 0.0, 0.0, 0.0, 0.0, 0.0, 0.0, 1.6989598660862186E9, 0.0, 2023-11-02 17:17:46.086
163.0, 187500.0, 187500.0, 15154.348630231456, -29059.480614600256, 9274.588140796202, -15413.38299672401, -41243.97531079952, 18659.124512568058, -0.11800000000000001, 0.92, 0.358, 192.0, 0.0, 0.0, 0.0, 0.0, 0.0, 0.0, 0.0, 0.0, 0.0, 1.6989598660862284E9, 0.0, 2023-11-02 17:17:46.086
164.0, 187500.0, 187500.0, 15114.204897189726, -29075.350353163525, 9247.698992216468, -15445.01071512827, -41261.007340074466, 18645.46759670587, -0.122, 0.918, 0.354, 192.0, 252.0, 48.0, 28.0, 176.0, 11.0, 16.0, 0.0, 0.0, 0.0, 1.698959866086238E9, 0.0, 2023-11-02 17:17:46.086
165.0, 187500.0, 187500.0, 15113.243772178146, -29061.380512878957, 9255.49975103137, -15440.406255770476, -41248.64682539068, 18658.6551259345, -0.122, 0.918, 0.354, 192.0, 0.0, 0.0, 0.0, 0.0, 0.0, 0.0, 0.0, 0.0, 0.0, 1.6989598660862484E9, 0.0, 2023-11-02 17:17:46.086
166.0, 187500.0, 187500.0, 15127.168908973803, -29056.194908165326, 9267.949672692976, -15422.122528806036, -41240.35432819776, 18663.483102736845, -0.122, 0.918, 0.354, 192.0, 0.0, 0.0, 0.0, 0.0, 0.0, 0.0, 0.0, 0.0, 0.0, 1.6989598660862591E9, 0.0, 2023-11-02 17:17:46.086
167.0, 187500.0, 187500.0, 15155.019182565116, -29041.487460313736, 9290.636693315113, -15391.321824946623, -41223.70227857856, 18677.967033143883, -0.122, 0.918, 0.354, 192.0, 0.0, 0.0, 0.0, 0.0, 0.0, 0.0, 0.0, 0.0, 0.0, 1.698959866086269E9, 0.0, 2023-11-02 17:17:46.086
168.0, 187500.0, 187500.0, 15125.55958337302, -29061.51462334569, 9264.775724980322, -15404.755223364262, -41244.75762185545, 18657.671649178465, -0.122, 0.918, 0.354, 192.0, 0.0, 0.0, 0.0, 0.0, 0.0, 0.0, 0.0, 0.0, 0.0, 1.6989598660862792E9, 0.0, 2023-11-02 17:17:46.086
169.0, 187500.0, 187500.0, 15129.918173541806, -29033.396128820914, 9290.614341570657, -15404.174078008424, -41216.14738895266, 18685.92425416997, -0.122, 0.918, 0.354, 192.0, 0.0, 0.0, 0.0, 0.0, 0.0, 0.0, 0.0, 0.0, 0.0, 1.6989598660862887E9, 0.0, 2023-11-02 17:17:46.086
170.0, 187500.0, 187500.0, 15164.898653614362, -29012.385489032924, 9317.816414572766, -15377.061411984136, -41195.36026660923, 18704.520905556787, -0.122, 0.918, 0.354, 192.0, 0.0, 0.0, 0.0, 0.0, 0.0, 0.0, 0.0, 0.0, 0.0, 1.6989598660862987E9, 0.0, 2023-11-02 17:17:46.086
171.0, 187500.0, 187500.0, 15178.24264505418, -29025.5506665171, 9303.578353354735, -15377.866074784528, -41210.49239760547, 18687.60063500412, -0.122, 0.918, 0.354, 192.0, 0.0, 0.0, 0.0, 0.0, 0.0, 0.0, 0.0, 0.0, 0.0, 1.6989598660863168E9, 0.0, 2023-11-02 17:17:46.086
172.0, 187500.0, 187500.0, 15156.963784332727, -29033.50788754319, 9297.632789329624, -15390.472458657321, -41219.813075043334, 18678.4587715219, -0.122, 0.918, 0.354, 192.0, 0.0, 0.0, 0.0, 0.0, 0.0, 0.0, 0.0, 0.0, 0.0, 1.6989598660863268E9, 0.0, 2023-11-02 17:17:46.086
173.0, 187500.0, 187500.0, 15144.312696971023, -29019.403936791892, 9316.609420372179, -15392.953502291859, -41201.216423656515, 18692.965053673393, -0.122, 0.918, 0.354, 192.0, 0.0, 0.0, 0.0, 0.0, 0.0, 0.0, 0.0, 0.0, 0.0, 1.6989598660863364E9, 0.0, 2023-11-02 17:17:46.086
174.0, 187500.0, 187500.0, 15165.546854203565, -29004.56237847357, 9330.42279844556, -15376.368507906021, -41181.72570249149, 18707.292521869247, -0.116, 0.91, 0.35000000000000003, 192.0, 252.0, 96.0, 28.0, 112.0, 10.0, 240.0, 0.0, 0.0, 0.0, 1.698959866086346E9, 0.0, 2023-11-02 17:17:46.086
175.0, 187500.0, 187500.0, 15185.10463060196, -29011.290253554616, 9316.631772116634, -15368.366583391022, -41189.95114445104, 18698.597693276133, -0.116, 0.91, 0.35000000000000003, 192.0, 0.0, 0.0, 0.0, 0.0, 0.0, 0.0, 0.0, 0.0, 0.0, 1.6989598660863564E9, 0.0, 2023-11-02 17:17:46.086
176.0, 187500.0, 187500.0, 15193.441831283788, -29000.20378830478, 9321.862080319177, -15366.176112434401, -41182.10568214723, 18711.517001571297, -0.116, 0.91, 0.35000000000000003, 192.0, 0.0, 0.0, 0.0, 0.0, 0.0, 0.0, 0.0, 0.0, 0.0, 1.6989598660863676E9, 0.0, 2023-11-02 17:17:46.086
177.0, 187500.0, 187500.0, 15187.943302147783, -28983.10470379647, 9338.290612493827, -15358.017725708214, -41167.97937965148, 18730.359522147122, -0.116, 0.91, 0.35000000000000003, 192.0, 0.0, 0.0, 0.0, 0.0, 0.0, 0.0, 0.0, 0.0, 0.0, 1.6989598660863774E9, 0.0, 2023-11-02 17:17:46.086
178.0, 187500.0, 187500.0, 15179.494342743677, -28993.900596368385, 9328.388789700126, -15356.363696618522, -41182.44095831406, 18717.66373129651, -0.116, 0.91, 0.35000000000000003, 192.0, 0.0, 0.0, 0.0, 0.0, 0.0, 0.0, 0.0, 0.0, 0.0, 1.6989598660863872E9, 0.0, 2023-11-02 17:17:46.086
179.0, 187500.0, 187500.0, 15192.86068592795, -28994.16881730185, 9331.89801357961, -15353.793246006162, -41184.00558042593, 18718.200173163437, -0.116, 0.91, 0.35000000000000003, 192.0, 0.0, 0.0, 0.0, 0.0, 0.0, 0.0, 0.0, 0.0, 0.0, 1.6989598660863972E9, 0.0, 2023-11-02 17:17:46.086
180.0, 187500.0, 187500.0, 15185.082278857504, -28998.750924915188, 9330.020467045364, -15355.357868118033, -41188.14065315016, 18714.4674318394, -0.116, 0.91, 0.35000000000000003, 192.0, 0.0, 0.0, 0.0, 0.0, 0.0, 0.0, 0.0, 0.0, 0.0, 1.6989598660864072E9, 0.0, 2023-11-02 17:17:46.086
181.0, 187500.0, 187500.0, 15170.508941472644, -28988.26795676565, 9341.442208462026, -15354.374391362, -41178.48469954547, 18724.74923428884, -0.116, 0.91, 0.35000000000000003, 192.0, 0.0, 0.0, 0.0, 0.0, 0.0, 0.0, 0.0, 0.0, 0.0, 1.6989598660864172E9, 0.0, 2023-11-02 17:17:46.086
182.0, 187500.0, 187500.0, 15174.442848496778, -28978.723761883233, 9348.237138776438, -15361.728115287795, -41172.9191151761, 18732.19236519246, -0.116, 0.91, 0.35000000000000003, 192.0, 0.0, 0.0, 0.0, 0.0, 0.0, 0.0, 0.0, 0.0, 0.0, 1.6989598660864267E9, 0.0, 2023-11-02 17:17:46.086
183.0, 187500.0, 187500.0, 15197.599255752475, -28983.17175902984, 9343.409161974092, -15352.496844827754, -41178.976437923484, 18725.576248833688, -0.116, 0.91, 0.35000000000000003, 192.0, 0.0, 0.0, 0.0, 0.0, 0.0, 0.0, 0.0, 0.0, 0.0, 1.6989598660864365E9, 0.0, 2023-11-02 17:17:46.086
184.0, 187500.0, 187500.0, 15197.040462141093, -28989.519654455147, 9333.32852522475, -15347.735923258773, -41183.84911821474, 18718.98248421937, -0.126, 0.914, 0.34800000000000003, 192.0, 252.0, 16.0, 28.0, 144.0, 10.0, 224.0, 0.0, 0.0, 0.0, 1.698959866086446E9, 0.0, 2023-11-02 17:17:46.086
185.0, 187500.0, 187500.0, 15188.323281803523, -28979.751942128176, 9345.242005019427, -15347.311240114122, -41175.44486229955, 18727.878478512583, -0.126, 0.914, 0.34800000000000003, 192.0, 0.0, 0.0, 0.0, 0.0, 0.0, 0.0, 0.0, 0.0, 0.0, 1.6989598660864563E9, 0.0, 2023-11-02 17:17:46.086
186.0, 187500.0, 187500.0, 15178.309700287546, -28985.988078831208, 9343.364458485183, -15354.106170428537, -41183.78206298138, 18721.46352785391, -0.126, 0.914, 0.34800000000000003, 192.0, 0.0, 0.0, 0.0, 0.0, 0.0, 0.0, 0.0, 0.0, 0.0, 1.6989598660864663E9, 0.0, 2023-11-02 17:17:46.086
187.0, 187500.0, 187500.0, 15193.285369072602, -28987.396238731893, 9340.101103794706, -15352.765065761218, -41183.24562111445, 18720.211830164415, -0.126, 0.914, 0.34800000000000003, 192.0, 0.0, 0.0, 0.0, 0.0, 0.0, 0.0, 0.0, 0.0, 0.0, 1.6989598660864868E9, 0.0, 2023-11-02 17:17:46.086
188.0, 187500.0, 187500.0, 15195.140563862393, -28999.242663293204, 9330.981592056942, -15349.054676181637, -41195.91906022061, 18707.22546663588, -0.126, 0.914, 0.34800000000000003, 192.0, 0.0, 0.0, 0.0, 0.0, 0.0, 0.0, 0.0, 0.0, 0.0, 1.6989598660864966E9, 0.0, 2023-11-02 17:17:46.086
189.0, 187500.0, 187500.0, 15163.646955924864, -29013.41366927787, 9314.50835639338, -15360.990507720771, -41210.939432494575, 18695.244931607835, -0.126, 0.914, 0.34800000000000003, 192.0, 0.0, 0.0, 0.0, 0.0, 0.0, 0.0, 0.0, 0.0, 0.0, 1.6989598660865061E9, 0.0, 2023-11-02 17:17:46.086
190.0, 187500.0, 187500.0, 15171.33595601749, -28978.612003160957, 9350.494664966425, -15352.161568660924, -41173.70142623204, 18730.650094825043, -0.126, 0.914, 0.34800000000000003, 192.0, 0.0, 0.0, 0.0, 0.0, 0.0, 0.0, 0.0, 0.0, 0.0, 1.698959866086516E9, 0.0, 2023-11-02 17:17:46.086
191.0, 187500.0, 187500.0, 15188.09976435897, -28982.322392740538, 9358.541292970336, -15329.094568383047, -41173.544964020846, 18724.5704203332, -0.126, 0.914, 0.34800000000000003, 192.0, 0.0, 0.0, 0.0, 0.0, 0.0, 0.0, 0.0, 0.0, 0.0, 1.6989598660865257E9, 0.0, 2023-11-02 17:17:46.086
192.0, 187500.0, 187500.0, 15213.826622227029, -28969.380732700913, 9371.415897776593, -15329.295734083145, -41158.59164698025, 18739.61314435162, -0.126, 0.914, 0.34800000000000003, 192.0, 0.0, 0.0, 0.0, 0.0, 0.0, 0.0, 0.0, 0.0, 0.0, 1.6989598660865352E9, 0.0, 2023-11-02 17:17:46.086
193.0, 187500.0, 187500.0, 15215.480651316722, -28958.182508728805, 9379.32841531377, -15331.821481206594, -41145.158248562606, 18752.420693924512, -0.126, 0.914, 0.34800000000000003, 192.0, 0.0, 0.0, 0.0, 0.0, 0.0, 0.0, 0.0, 0.0, 0.0, 1.6989598660865448E9, 0.0, 2023-11-02 17:17:46.086
194.0, 187500.0, 187500.0, 15197.733366219207, -28959.814186074043, 9379.775450202877, -15328.088739882558, -41144.77826890687, 18749.60437412314, -0.128, 0.914, 0.35000000000000003, 192.0, 252.0, 0.0, 28.0, 144.0, 10.0, 240.0, 0.0, 0.0, 0.0, 1.6989598660865543E9, 0.0, 2023-11-02 17:17:46.086
195.0, 187500.0, 187500.0, 15192.86068592795, -28980.042514806097, 9361.447019749525, -15323.79720494714, -41163.57608599378, 18724.592772077653, -0.128, 0.914, 0.35000000000000003, 192.0, 0.0, 0.0, 0.0, 0.0, 0.0, 0.0, 0.0, 0.0, 0.0, 1.6989598660865655E9, 0.0, 2023-11-02 17:17:46.086
196.0, 187500.0, 187500.0, 15194.984101651205, -28999.01914584865, 9343.364458485183, -15323.618390991496, -41183.82676647029, 18702.531600300266, -0.128, 0.914, 0.35000000000000003, 192.0, 0.0, 0.0, 0.0, 0.0, 0.0, 0.0, 0.0, 0.0, 0.0, 1.6989598660865755E9, 0.0, 2023-11-02 17:17:46.086
197.0, 187500.0, 187500.0, 15181.550703233564, -28999.488532482213, 9338.603536916202, -15339.063446410115, -41184.74318799296, 18701.905751455517, -0.128, 0.914, 0.35000000000000003, 192.0, 0.0, 0.0, 0.0, 0.0, 0.0, 0.0, 0.0, 0.0, 0.0, 1.6989598660865867E9, 0.0, 2023-11-02 17:17:46.086
198.0, 187500.0, 187500.0, 15179.986081121693, -28982.30004099608, 9353.355688256705, -15353.167397161413, -41166.63827498416, 18718.84837375264, -0.128, 0.914, 0.35000000000000003, 192.0, 0.0, 0.0, 0.0, 0.0, 0.0, 0.0, 0.0, 0.0, 0.0, 1.6989598660865965E9, 0.0, 2023-11-02 17:17:46.086
199.0, 187500.0, 187500.0, 15191.854857427463, -28979.751942128176, 9352.394563245125, -15355.067295440114, -41165.923019161586, 18719.42951910848, -0.128, 0.914, 0.35000000000000003, 192.0, 0.0, 0.0, 0.0, 0.0, 0.0, 0.0, 0.0, 0.0, 0.0, 1.698959866086606E9, 0.0, 2023-11-02 17:17:46.086
200.0, 187500.0, 187500.0, 15214.072491416036, -28980.06486655055, 9355.166179557584, -15351.043981438159, -41168.76169070741, 18717.59667606314, -0.128, 0.914, 0.35000000000000003, 192.0, 0.0, 0.0, 0.0, 0.0, 0.0, 0.0, 0.0, 0.0, 0.0, 1.6989598660866168E9, 0.0, 2023-11-02 17:17:46.086
201.0, 187500.0, 187500.0, 15209.780956480618, -28980.601308417477, 9357.177836558561, -15354.307336128633, -41168.44876628504, 18718.4683940969, -0.128, 0.914, 0.35000000000000003, 192.0, 0.0, 0.0, 0.0, 0.0, 0.0, 0.0, 0.0, 0.0, 0.0, 1.6989598660866263E9, 0.0, 2023-11-02 17:17:46.086
202.0, 187500.0, 187500.0, 15189.753793448663, -28986.83744512051, 9356.976670858463, -15356.296641385155, -41177.41181581162, 18712.07579518268, -0.128, 0.914, 0.35000000000000003, 192.0, 0.0, 0.0, 0.0, 0.0, 0.0, 0.0, 0.0, 0.0, 0.0, 1.698959866086644E9, 0.0, 2023-11-02 17:17:46.086
203.0, 187500.0, 187500.0, 15166.753848404152, -29008.295119797604, 9333.7532083694, -15371.94286250387, -41199.71885677801, 18690.12638212757, -0.128, 0.914, 0.35000000000000003, 192.0, 0.0, 0.0, 0.0, 0.0, 0.0, 0.0, 0.0, 0.0, 0.0, 1.6989598660866537E9, 0.0, 2023-11-02 17:17:46.086
204.0, 187500.0, 187500.0, 15185.506962002155, -29006.752849430188, 9333.641449647122, -15382.626996353507, -41197.75190326595, 18689.165257115994, -0.128, 0.908, 0.358, 192.0, 252.0, 0.0, 28.0, 96.0, 11.0, 48.0, 0.0, 0.0, 0.0, 1.6989598660866632E9, 0.0, 2023-11-02 17:17:46.086
205.0, 187500.0, 187500.0, 15186.401031780368, -29003.668308695356, 9347.119551553673, -15376.256749183745, -41194.60030729775, 18690.931044927962, -0.128, 0.908, 0.358, 192.0, 0.0, 0.0, 0.0, 0.0, 0.0, 0.0, 0.0, 0.0, 0.0, 1.6989598660866735E9, 0.0, 2023-11-02 17:17:46.086
206.0, 187500.0, 187500.0, 15175.806304908552, -28991.15133180038, 9364.822133162277, -15364.835007767084, -41186.821900227296, 18702.93393170046, -0.128, 0.908, 0.358, 192.0, 0.0, 0.0, 0.0, 0.0, 0.0, 0.0, 0.0, 0.0, 0.0, 1.6989598660866833E9, 0.0, 2023-11-02 17:17:46.086
207.0, 187500.0, 187500.0, 15173.928758374306, -28991.128980055928, 9368.130191341663, -15367.047830468158, -41188.721798506, 18703.00098693383, -0.128, 0.908, 0.358, 192.0, 0.0, 0.0, 0.0, 0.0, 0.0, 0.0, 0.0, 0.0, 0.0, 1.6989598660866928E9, 0.0, 2023-11-02 17:17:46.086
208.0, 187500.0, 187500.0, 15191.094898115982, -29000.427305749337, 9360.217673804484, -15354.061466939625, -41199.763560266925, 18693.635606007054, -0.128, 0.908, 0.358, 192.0, 0.0, 0.0, 0.0, 0.0, 0.0, 0.0, 0.0, 0.0, 0.0, 1.6989598660867023E9, 0.0, 2023-11-02 17:17:46.086
209.0, 187500.0, 187500.0, 15178.19794156527, -29019.13571585843, 9338.670592149567, -15363.18097867739, -41222.763505311435, 18675.955376142905, -0.128, 0.908, 0.358, 192.0, 0.0, 0.0, 0.0, 0.0, 0.0, 0.0, 0.0, 0.0, 0.0, 1.698959866086712E9, 0.0, 2023-11-02 17:17:46.086
210.0, 187500.0, 187500.0, 15168.698450171763, -29004.852951151486, 9353.66861267908, -15372.702821815352, -41211.45352261705, 18690.238140849848, -0.128, 0.908, 0.358, 192.0, 0.0, 0.0, 0.0, 0.0, 0.0, 0.0, 0.0, 0.0, 0.0, 1.698959866086722E9, 0.0, 2023-11-02 17:17:46.086
211.0, 187500.0, 187500.0, 15152.940470330772, -29013.033689622127, 9357.781333658855, -15371.160551447934, -41217.53319710889, 18681.811533190197, -0.128, 0.908, 0.358, 192.0, 0.0, 0.0, 0.0, 0.0, 0.0, 0.0, 0.0, 0.0, 0.0, 1.6989598660867329E9, 0.0, 2023-11-02 17:17:46.086
212.0, 187500.0, 187500.0, 15173.012336851638, -29007.669270952854, 9367.303176796815, -15377.530798617698, -41215.09685696326, 18686.41599254799, -0.128, 0.908, 0.358, 192.0, 0.0, 0.0, 0.0, 0.0, 0.0, 0.0, 0.0, 0.0, 0.0, 1.6989598660867424E9, 0.0, 2023-11-02 17:17:46.086
213.0, 187500.0, 187500.0, 15190.781973693607, -29002.5954249615, 9367.124362841174, -15377.821371295617, -41209.821845271814, 18691.445135050435, -0.128, 0.908, 0.358, 192.0, 0.0, 0.0, 0.0, 0.0, 0.0, 0.0, 0.0, 0.0, 0.0, 1.6989598660867522E9, 0.0, 2023-11-02 17:17:46.086
214.0, 187500.0, 187500.0, 15187.026880625115, -28985.183416030817, 9389.587866018757, -15375.697955572363, -41190.71110376252, 18708.030129436273, -0.116, 0.912, 0.356, 192.0, 252.0, 96.0, 28.0, 128.0, 11.0, 32.0, 0.0, 0.0, 0.0, 1.6989598660867617E9, 0.0, 2023-11-02 17:17:46.086
215.0, 187500.0, 187500.0, 15172.81117115154, -28980.64601190639, 9396.203982377529, -15381.040022497182, -41186.64308627166, 18708.879495725574, -0.116, 0.912, 0.356, 192.0, 0.0, 0.0, 0.0, 0.0, 0.0, 0.0, 0.0, 0.0, 0.0, 1.698959866086772E9, 0.0, 2023-11-02 17:17:46.086
216.0, 187500.0, 187500.0, 15196.749889463174, -28968.665476878345, 9403.088319669761, -15374.669775327418, -41174.95312392153, 18717.99900746334, -0.116, 0.912, 0.356, 192.0, 0.0, 0.0, 0.0, 0.0, 0.0, 0.0, 0.0, 0.0, 0.0, 1.6989598660868092E9, 0.0, 2023-11-02 17:17:46.086
217.0, 187500.0, 187500.0, 15210.786784981106, -28976.890918837897, 9388.850258451732, -15353.502673328243, -41190.28642061787, 18704.677367767974, -0.116, 0.912, 0.356, 192.0, 0.0, 0.0, 0.0, 0.0, 0.0, 0.0, 0.0, 0.0, 0.0, 1.6989598660868273E9, 0.0, 2023-11-02 17:17:46.086
218.0, 187500.0, 187500.0, 15187.228046325214, -28985.07165730854, 9378.791973446843, -15346.014838935715, -41199.271821888906, 18696.541332786244, -0.116, 0.912, 0.356, 192.0, 0.0, 0.0, 0.0, 0.0, 0.0, 0.0, 0.0, 0.0, 0.0, 1.6989598660868373E9, 0.0, 2023-11-02 17:17:46.086
219.0, 187500.0, 187500.0, 15182.71299394524, -28960.574145385523, 9400.406110335125, -15345.992487191259, -41175.37780706618, 18719.83185050867, -0.116, 0.912, 0.356, 192.0, 0.0, 0.0, 0.0, 0.0, 0.0, 0.0, 0.0, 0.0, 0.0, 1.698959866086867E9, 0.0, 2023-11-02 17:17:46.086
220.0, 187500.0, 187500.0, 15208.328093091022, -28925.10192693495, 9414.845337253253, -15323.84190843605, -41160.0668621143, 18730.784205291773, -0.116, 0.912, 0.356, 192.0, 0.0, 0.0, 0.0, 0.0, 0.0, 0.0, 0.0, 0.0, 0.0, 1.6989598660868769E9, 0.0, 2023-11-02 17:17:46.086
221.0, 187500.0, 187500.0, 15197.040462141093, -28951.521688881123, 9379.753098458421, -15324.266591580701, -41198.713028277525, 18691.288672839248, -0.116, 0.912, 0.356, 192.0, 0.0, 0.0, 0.0, 0.0, 0.0, 0.0, 0.0, 0.0, 0.0, 1.6989598660868864E9, 0.0, 2023-11-02 17:17:46.086
222.0, 187500.0, 187500.0, 15169.301947272057, -28959.903593051862, 9372.175857088072, -15353.212100650324, -41211.565281339324, 18679.464600022387, -0.116, 0.912, 0.356, 192.0, 0.0, 0.0, 0.0, 0.0, 0.0, 0.0, 0.0, 0.0, 0.0, 1.6989598660868964E9, 0.0, 2023-11-02 17:17:46.086
223.0, 187500.0, 187500.0, 15146.592574905466, -28954.516822638136, 9374.634548978156, -15367.85249326855, -41213.241662173474, 18683.44321053543, -0.116, 0.912, 0.356, 192.0, 0.0, 0.0, 0.0, 0.0, 0.0, 0.0, 0.0, 0.0, 0.0, 1.698959866086906E9, 0.0, 2023-11-02 17:17:46.086
224.0, 187500.0, 187500.0, 15163.33403150249, -28940.949313753765, 9378.680214724567, -15364.075048455603, -41205.64206905867, 18694.97671067437, -0.116, 0.91, 0.356, 192.0, 252.0, 96.0, 28.0, 112.0, 11.0, 32.0, 0.0, 0.0, 0.0, 1.6989598660869155E9, 0.0, 2023-11-02 17:17:46.086
225.0, 187500.0, 187500.0, 15188.010357381148, -28938.73649105269, 9382.167086859596, -15346.104245913535, -41209.66538306062, 18693.143867629038, -0.116, 0.91, 0.356, 192.0, 0.0, 0.0, 0.0, 0.0, 0.0, 0.0, 0.0, 0.0, 0.0, 1.698959866086926E9, 0.0, 2023-11-02 17:17:46.086
226.0, 187500.0, 187500.0, 15176.320395031024, -28948.280685935104, 9375.461563523002, -15336.962382431315, -41223.29994717836, 18682.817361690686, -0.116, 0.91, 0.356, 192.0, 0.0, 0.0, 0.0, 0.0, 0.0, 0.0, 0.0, 0.0, 0.0, 1.6989598660869372E9, 0.0, 2023-11-02 17:17:46.086
227.0, 187500.0, 187500.0, 15141.876356825394, -28956.506127894656, 9368.688984953045, -15355.268461140211, -41233.35823218325, 18673.83196041965, -0.116, 0.91, 0.356, 192.0, 0.0, 0.0, 0.0, 0.0, 0.0, 0.0, 0.0, 0.0, 0.0, 1.6989598660869472E9, 0.0, 2023-11-02 17:17:46.086
228.0, 187500.0, 187500.0, 15152.00169706365, -28939.697616064266, 9386.548028772835, -15357.637746052475, -41221.7800285554, 18690.595768761134, -0.116, 0.91, 0.356, 192.0, 0.0, 0.0, 0.0, 0.0, 0.0, 0.0, 0.0, 0.0, 0.0, 1.6989598660869567E9, 0.0, 2023-11-02 17:17:46.086
229.0, 187500.0, 187500.0, 15181.260130555645, -28929.125240936904, 9396.963941689008, -15332.447330051344, -41211.4758743615, 18701.74928924433, -0.116, 0.91, 0.356, 192.0, 0.0, 0.0, 0.0, 0.0, 0.0, 0.0, 0.0, 0.0, 0.0, 1.6989598660869665E9, 0.0, 2023-11-02 17:17:46.086
230.0, 187500.0, 187500.0, 15197.53220051911, -28919.178714654296, 9403.91533421461, -15318.812765933606, -41195.60613579823, 18713.953341716926, -0.116, 0.91, 0.356, 192.0, 0.0, 0.0, 0.0, 0.0, 0.0, 0.0, 0.0, 0.0, 0.0, 1.698959866086976E9, 0.0, 2023-11-02 17:17:46.086
231.0, 187500.0, 187500.0, 15175.00164210816, -28916.943540208762, 9412.163127918617, -15318.544545000143, -41189.3699990952, 18715.875591740085, -0.116, 0.91, 0.356, 192.0, 0.0, 0.0, 0.0, 0.0, 0.0, 0.0, 0.0, 0.0, 0.0, 1.6989598660869858E9, 0.0, 2023-11-02 17:17:46.086
232.0, 187500.0, 187500.0, 15181.260130555645, -28901.677298745788, 9432.458511884035, -15307.659245450408, -41175.53426927737, 18728.727844801884, -0.116, 0.91, 0.356, 192.0, 0.0, 0.0, 0.0, 0.0, 0.0, 0.0, 0.0, 0.0, 0.0, 1.6989598660869956E9, 0.0, 2023-11-02 17:17:46.086
233.0, 187500.0, 187500.0, 15201.331997076511, -28901.677298745788, 9426.155319947638, -15299.746727913229, -41182.75388273643, 18725.531545344777, -0.116, 0.91, 0.356, 192.0, 0.0, 0.0, 0.0, 0.0, 0.0, 0.0, 0.0, 0.0, 0.0, 1.6989598660870135E9, 0.0, 2023-11-02 17:17:46.087
234.0, 187500.0, 187500.0, 15207.635189012908, -28900.693821989757, 9436.727695075, -15288.861428363494, -41182.060978658315, 18723.586943577164, -0.11800000000000001, 0.918, 0.35000000000000003, 192.0, 252.0, 80.0, 28.0, 176.0, 10.0, 240.0, 0.0, 0.0, 0.0, 1.6989598660870233E9, 0.0, 2023-11-02 17:17:46.087
235.0, 187500.0, 187500.0, 15190.379642293412, -28894.703554475735, 9456.7325063625, -15287.36386148499, -41176.3165803333, 18727.5208506013, -0.11800000000000001, 0.918, 0.35000000000000003, 192.0, 0.0, 0.0, 0.0, 0.0, 0.0, 0.0, 0.0, 0.0, 0.0, 1.6989598660870333E9, 0.0, 2023-11-02 17:17:46.087
236.0, 187500.0, 187500.0, 15174.509903730144, -28902.504313290636, 9452.508026660445, -15291.45423072031, -41182.64212401416, 18720.27888539778, -0.11800000000000001, 0.918, 0.35000000000000003, 192.0, 0.0, 0.0, 0.0, 0.0, 0.0, 0.0, 0.0, 0.0, 0.0, 1.6989598660870428E9, 0.0, 2023-11-02 17:17:46.087
237.0, 187500.0, 187500.0, 15182.891807900884, -28916.250636130648, 9442.24857595546, -15292.236541776247, -41191.783987496376, 18707.98542594736, -0.11800000000000001, 0.918, 0.35000000000000003, 192.0, 0.0, 0.0, 0.0, 0.0, 0.0, 0.0, 0.0, 0.0, 0.0, 1.6989598660870526E9, 0.0, 2023-11-02 17:17:46.087
238.0, 187500.0, 187500.0, 15189.217351581736, -28920.944502466264, 9433.933727018086, -15295.656358677908, -41194.4214933421, 18701.905751455517, -0.11800000000000001, 0.918, 0.35000000000000003, 192.0, 0.0, 0.0, 0.0, 0.0, 0.0, 0.0, 0.0, 0.0, 0.0, 1.6989598660870621E9, 0.0, 2023-11-02 17:17:46.087
239.0, 187500.0, 187500.0, 15176.76742992013, -28913.031984929086, 9431.743256061465, -15302.65245469242, -41186.77719673839, 18709.70651027042, -0.11800000000000001, 0.918, 0.35000000000000003, 192.0, 0.0, 0.0, 0.0, 0.0, 0.0, 0.0, 0.0, 0.0, 0.0, 1.698959866087072E9, 0.0, 2023-11-02 17:17:46.087
240.0, 187500.0, 187500.0, 15190.558456249055, -28881.42661826928, 9462.052221542863, -15292.772983643174, -41156.11060334571, 18740.954249018938, -0.11800000000000001, 0.918, 0.35000000000000003, 192.0, 0.0, 0.0, 0.0, 0.0, 0.0, 0.0, 0.0, 0.0, 0.0, 1.6989598660870829E9, 0.0, 2023-11-02 17:17:46.087
241.0, 187500.0, 187500.0, 15214.832450727517, -28871.681257686767, 9472.624596670223, -15278.467867191777, -41150.09798408723, 18747.458606655433, -0.11800000000000001, 0.918, 0.35000000000000003, 192.0, 0.0, 0.0, 0.0, 0.0, 0.0, 0.0, 0.0, 0.0, 0.0, 1.6989598660870924E9, 0.0, 2023-11-02 17:17:46.087
242.0, 187500.0, 187500.0, 15223.3931688539, -28883.6170892259, 9453.737372605488, -15283.541713183131, -41164.13487960516, 18734.65105708254, -0.11800000000000001, 0.918, 0.35000000000000003, 192.0, 0.0, 0.0, 0.0, 0.0, 0.0, 0.0, 0.0, 0.0, 0.0, 1.698959866087102E9, 0.0, 2023-11-02 17:17:46.087
243.0, 187500.0, 187500.0, 15198.403918552867, -28894.636499242366, 9438.605241609244, -15311.101414096525, -41174.19316461005, 18722.871687754596, -0.11800000000000001, 0.918, 0.35000000000000003, 192.0, 0.0, 0.0, 0.0, 0.0, 0.0, 0.0, 0.0, 0.0, 0.0, 1.6989598660871117E9, 0.0, 2023-11-02 17:17:46.087
244.0, 187500.0, 187500.0, 15175.33691827499, -28894.14476086435, 9439.745180576467, -15332.044998651148, -41173.23203959847, 18723.3187226437, -0.12, 0.916, 0.34800000000000003, 192.0, 252.0, 64.0, 28.0, 160.0, 10.0, 224.0, 0.0, 0.0, 0.0, 1.6989598660871212E9, 0.0, 2023-11-02 17:17:46.087
245.0, 187500.0, 187500.0, 15177.974424120715, -28900.09032488946, 9430.513910116424, -15336.2694783532, -41181.166908880106, 18716.009702206815, -0.12, 0.916, 0.34800000000000003, 192.0, 0.0, 0.0, 0.0, 0.0, 0.0, 0.0, 0.0, 0.0, 0.0, 1.6989598660871315E9, 0.0, 2023-11-02 17:17:46.087
246.0, 187500.0, 187500.0, 15179.33788053249, -28920.139839665873, 9411.62668605169, -15350.865167482516, -41203.026914957394, 18692.294501339737, -0.12, 0.916, 0.34800000000000003, 192.0, 0.0, 0.0, 0.0, 0.0, 0.0, 0.0, 0.0, 0.0, 0.0, 1.6989598660871413E9, 0.0, 2023-11-02 17:17:46.087
247.0, 187500.0, 187500.0, 15145.944374316261, -28937.77536604111, 9391.532467786368, -15370.825275281106, -41221.66826983312, 18675.64245172053, -0.12, 0.916, 0.34800000000000003, 192.0, 0.0, 0.0, 0.0, 0.0, 0.0, 0.0, 0.0, 0.0, 0.0, 1.6989598660871513E9, 0.0, 2023-11-02 17:17:46.087
248.0, 187500.0, 187500.0, 15145.743208616163, -28913.411964584826, 9410.240877895461, -15372.456952626342, -41195.427321842595, 18704.766774745796, -0.12, 0.916, 0.34800000000000003, 192.0, 0.0, 0.0, 0.0, 0.0, 0.0, 0.0, 0.0, 0.0, 0.0, 1.6989598660871687E9, 0.0, 2023-11-02 17:17:46.087
249.0, 187500.0, 187500.0, 15151.33114472999, -28910.61799652791, 9416.208793665028, -15359.984679220282, -41190.666400273614, 18708.3654056031, -0.12, 0.916, 0.34800000000000003, 192.0, 0.0, 0.0, 0.0, 0.0, 0.0, 0.0, 0.0, 0.0, 0.0, 1.6989598660871787E9, 0.0, 2023-11-02 17:17:46.087
250.0, 187500.0, 187500.0, 15177.259168298146, -28907.265234859617, 9422.91431700162, -15341.924469700394, -41186.79954848284, 18711.338187615656, -0.12, 0.916, 0.34800000000000003, 192.0, 0.0, 0.0, 0.0, 0.0, 0.0, 0.0, 0.0, 0.0, 0.0, 1.6989598660871885E9, 0.0, 2023-11-02 17:17:46.087
251.0, 187500.0, 187500.0, 15171.872397884417, -28908.449877315747, 9419.561555333323, -15352.94387971686, -41187.447749072046, 18712.634588794066, -0.12, 0.916, 0.34800000000000003, 192.0, 0.0, 0.0, 0.0, 0.0, 0.0, 0.0, 0.0, 0.0, 0.0, 1.698959866087198E9, 0.0, 2023-11-02 17:17:46.087
252.0, 187500.0, 187500.0, 15151.487606941177, -28901.029098156585, 9429.664543827123, -15360.543472831665, -41183.536193792366, 18719.697740041942, -0.12, 0.916, 0.34800000000000003, 192.0, 0.0, 0.0, 0.0, 0.0, 0.0, 0.0, 0.0, 0.0, 0.0, 1.6989598660872076E9, 0.0, 2023-11-02 17:17:46.087
253.0, 187500.0, 187500.0, 15151.621717407908, -28899.95621442273, 9436.81710205282, -15345.836024980072, -41181.68099900258, 18720.770623775796, -0.12, 0.916, 0.34800000000000003, 192.0, 0.0, 0.0, 0.0, 0.0, 0.0, 0.0, 0.0, 0.0, 0.0, 1.6989598660872188E9, 0.0, 2023-11-02 17:17:46.087
254.0, 187500.0, 187500.0, 15177.952072376262, -28896.42463879879, 9438.717000331522, -15337.007085920226, -41177.590629767255, 18725.352731389135, -0.12, 0.92, 0.34400000000000003, 192.0, 252.0, 64.0, 28.0, 192.0, 10.0, 192.0, 0.0, 0.0, 0.0, 1.6989598660872288E9, 0.0, 2023-11-02 17:17:46.087
255.0, 187500.0, 187500.0, 15175.180456063803, -28904.359508080426, 9423.24959316845, -15346.216004635813, -41189.3699990952, 18710.93585621546, -0.12, 0.92, 0.34400000000000003, 192.0, 0.0, 0.0, 0.0, 0.0, 0.0, 0.0, 0.0, 0.0, 0.0, 1.6989598660872388E9, 0.0, 2023-11-02 17:17:46.087
0.0, 187500.0, 187500.0, 15138.56829864601, -28899.598586511445, 9409.547973817345, -15372.032269481691, -41200.948202723055, 18696.876608953073, -0.12, 0.92, 0.34400000000000003, 192.0, 0.0, 0.0, 0.0, 0.0, 0.0, 0.0, 0.0, 0.0, 0.0, 1.6989598660872483E9, 0.0, 2023-11-02 17:17:46.087
1.0, 187500.0, 187500.0, 15150.682944140786, -28869.33432451896, 9431.6762008281, -15370.110019458536, -41177.657685000624, 18723.1175569436, -0.12, 0.92, 0.34400000000000003, 192.0, 0.0, 0.0, 0.0, 0.0, 0.0, 0.0, 0.0, 0.0, 0.0, 1.698959866087258E9, 0.0, 2023-11-02 17:17:46.087
2.0, 187500.0, 187500.0, 15190.513752760144, -28865.7133419172, 9446.383648679692, -15340.2704406107, -41163.330216804774, 18738.495557128856, -0.12, 0.92, 0.34400000000000003, 192.0, 0.0, 0.0, 0.0, 0.0, 0.0, 0.0, 0.0, 0.0, 0.0, 1.698959866087268E9, 0.0, 2023-11-02 17:17:46.087
3.0, 187500.0, 187500.0, 15186.24456956918, -28889.60735673992, 9430.312744416326, -15329.116920127502, -41180.42930131308, 18720.055367953228, -0.12, 0.92, 0.34400000000000003, 192.0, 0.0, 0.0, 0.0, 0.0, 0.0, 0.0, 0.0, 0.0, 0.0, 1.6989598660872777E9, 0.0, 2023-11-02 17:17:46.087
4.0, 187500.0, 187500.0, 15178.689679943285, -28871.055408842018, 9446.517759146423, -15327.999332904737, -41161.095042359244, 18739.277868184792, -0.12, 0.92, 0.34400000000000003, 192.0, 0.0, 0.0, 0.0, 0.0, 0.0, 0.0, 0.0, 0.0, 0.0, 1.6989598665665376E9, 0.0, 2023-11-02 17:17:46.566
5.0, 187500.0, 187500.0, 15164.317508258524, -28881.896004902843, 9437.10767473074, -15330.07804513908, -41168.515821518406, 18730.76185354732, -0.12, 0.92, 0.34400000000000003, 192.0, 0.0, 0.0, 0.0, 0.0, 0.0, 0.0, 0.0, 0.0, 0.0, 1.69895986656672E9, 0.0, 2023-11-02 17:17:46.566
6.0, 187500.0, 187500.0, 15183.294139301079, -28874.81050191051, 9445.19900622356, -15328.55812651612, -41156.78115567937, 18737.668542584008, -0.12, 0.92, 0.34400000000000003, 192.0, 0.0, 0.0, 0.0, 0.0, 0.0, 0.0, 0.0, 0.0, 0.0, 1.6989598665667324E9, 0.0, 2023-11-02 17:17:46.566
7.0, 187500.0, 187500.0, 15189.329110304012, -28888.534473006068, 9437.375895664203, -15311.369635029989, -41166.39240579515, 18723.877516255085, -0.11800000000000001, 0.914, 0.34800000000000003, 192.0, 252.0, 80.0, 28.0, 144.0, 10.0, 224.0, 0.0, 0.0, 0.0, 1.698959866566746E9, 0.0, 2023-11-02 17:17:46.566
8.0, 187500.0, 187500.0, 15165.278633270102, -28887.57334799449, 9436.727695075, -15327.619353248998, -41165.16305985011, 18727.18557443447, -0.11800000000000001, 0.914, 0.34800000000000003, 192.0, 0.0, 0.0, 0.0, 0.0, 0.0, 0.0, 0.0, 0.0, 0.0, 1.698959866566954E9, 0.0, 2023-11-02 17:17:46.566
9.0, 187500.0, 187500.0, 15160.830636123495, -28875.6151647109, 9451.39043943768, -15335.665981252907, -41154.56833297829, 18740.507214129833, -0.11800000000000001, 0.914, 0.34800000000000003, 192.0, 0.0, 0.0, 0.0, 0.0, 0.0, 0.0, 0.0, 0.0, 0.0, 1.6989598665669649E9, 0.0, 2023-11-02 17:17:46.566
10.0, 187500.0, 187500.0, 15179.315528788034, -28869.42373149678, 9459.548826163867, -15328.289905582657, -41151.97553062147, 18746.56453687722, -0.11800000000000001, 0.914, 0.34800000000000003, 192.0, 0.0, 0.0, 0.0, 0.0, 0.0, 0.0, 0.0, 0.0, 0.0, 1.6989598665669749E9, 0.0, 2023-11-02 17:17:46.566
11.0, 187500.0, 187500.0, 15201.421404054334, -28870.608373952913, 9457.939500563085, -15318.07515836658, -41154.8142021673, 18746.31866768821, -0.11800000000000001, 0.914, 0.34800000000000003, 192.0, 0.0, 0.0, 0.0, 0.0, 0.0, 0.0, 0.0, 0.0, 0.0, 1.698959866566986E9, 0.0, 2023-11-02 17:17:46.566
12.0, 187500.0, 187500.0, 15195.475840029221, -28869.08845532995, 9464.086230288296, -15316.644646721441, -41152.221399810485, 18748.933821789484, -0.11800000000000001, 0.914, 0.34800000000000003, 192.0, 0.0, 0.0, 0.0, 0.0, 0.0, 0.0, 0.0, 0.0, 0.0, 1.6989598665670023E9, 0.0, 2023-11-02 17:17:46.567
13.0, 187500.0, 187500.0, 15156.449694210256, -28892.848359685944, 9443.120293989217, -15336.247126608745, -41176.24952509994, 18725.196269177948, -0.11800000000000001, 0.914, 0.34800000000000003, 192.0, 0.0, 0.0, 0.0, 0.0, 0.0, 0.0, 0.0, 0.0, 0.0, 1.698959866567014E9, 0.0, 2023-11-02 17:17:46.567
14.0, 187500.0, 187500.0, 15158.707220400242, -28898.346888821947, 9434.87250028521, -15347.624164536497, -41184.96670543751, 18716.836716751663, -0.11800000000000001, 0.914, 0.34800000000000003, 192.0, 0.0, 0.0, 0.0, 0.0, 0.0, 0.0, 0.0, 0.0, 0.0, 1.6989598665670316E9, 0.0, 2023-11-02 17:17:46.567
15.0, 187500.0, 187500.0, 15192.950092905772, -28877.939746134252, 9453.312689460838, -15343.109112156524, -41166.32535056178, 18738.450853639944, -0.11800000000000001, 0.914, 0.34800000000000003, 192.0, 0.0, 0.0, 0.0, 0.0, 0.0, 0.0, 0.0, 0.0, 0.0, 1.6989598665670435E9, 0.0, 2023-11-02 17:17:46.567
16.0, 187500.0, 187500.0, 15188.032709125604, -28877.135083333862, 9455.436105184092, -15333.386103318466, -41165.632446483665, 18740.28369668528, -0.11800000000000001, 0.914, 0.34800000000000003, 192.0, 0.0, 0.0, 0.0, 0.0, 0.0, 0.0, 0.0, 0.0, 0.0, 1.6989598665670545E9, 0.0, 2023-11-02 17:17:46.567
17.0, 187500.0, 187500.0, 15179.047307854571, -28856.90675460181, 9480.581817696311, -15319.885649667462, -41144.174771806574, 18760.869653328617, -0.11800000000000001, 0.914, 0.34400000000000003, 192.0, 252.0, 80.0, 28.0, 144.0, 10.0, 192.0, 0.0, 0.0, 0.0, 1.6989598665670648E9, 0.0, 2023-11-02 17:17:46.567
18.0, 187500.0, 187500.0, 15165.882130370395, -28876.822158911487, 9465.427334955613, -15323.014893891204, -41162.346740048735, 18740.19428970746, -0.11800000000000001, 0.914, 0.34400000000000003, 192.0, 0.0, 0.0, 0.0, 0.0, 0.0, 0.0, 0.0, 0.0, 0.0, 1.6989598665670764E9, 0.0, 2023-11-02 17:17:46.567
19.0, 187500.0, 187500.0, 15197.018110396637, -28863.27700177157, 9472.222265270027, -15326.74763521524, -41148.220437552984, 18753.80650208074, -0.11800000000000001, 0.914, 0.34400000000000003, 192.0, 0.0, 0.0, 0.0, 0.0, 0.0, 0.0, 0.0, 0.0, 0.0, 1.6989598665670917E9, 0.0, 2023-11-02 17:17:46.567
20.0, 187500.0, 187500.0, 15192.726575461218, -28875.972792622186, 9455.369049950725, -15328.848699194039, -41160.268027814396, 18740.730731574386, -0.11800000000000001, 0.914, 0.34400000000000003, 192.0, 0.0, 0.0, 0.0, 0.0, 0.0, 0.0, 0.0, 0.0, 0.0, 1.6989598665671048E9, 0.0, 2023-11-02 17:17:46.567
21.0, 187500.0, 187500.0, 15165.05511582555, -28883.05829561452, 9451.792770837876, -15335.665981252907, -41163.129051104675, 18734.740464060364, -0.11800000000000001, 0.914, 0.34400000000000003, 192.0, 0.0, 0.0, 0.0, 0.0, 0.0, 0.0, 0.0, 0.0, 0.0, 1.6989598665671167E9, 0.0, 2023-11-02 17:17:46.567
22.0, 187500.0, 187500.0, 15171.268900784124, -28874.028190854573, 9467.997785567974, -15326.70293172633, -41151.84142015474, 18744.28465894278, -0.11800000000000001, 0.914, 0.34400000000000003, 192.0, 0.0, 0.0, 0.0, 0.0, 0.0, 0.0, 0.0, 0.0, 0.0, 1.69895986656713E9, 0.0, 2023-11-02 17:17:46.567
23.0, 187500.0, 187500.0, 15172.721764173719, -28900.6714702453, 9439.58871836528, -15326.904097426428, -41174.6178477547, 18719.22835340838, -0.11800000000000001, 0.914, 0.34400000000000003, 192.0, 0.0, 0.0, 0.0, 0.0, 0.0, 0.0, 0.0, 0.0, 0.0, 1.69895986656717E9, 0.0, 2023-11-02 17:17:46.567
24.0, 187500.0, 187500.0, 15180.947206133273, -28891.171978851795, 9447.322421946816, -15337.409417320421, -41159.03868186935, 18732.080606470183, -0.11800000000000001, 0.914, 0.34400000000000003, 192.0, 0.0, 0.0, 0.0, 0.0, 0.0, 0.0, 0.0, 0.0, 0.0, 1.698959866567181E9, 0.0, 2023-11-02 17:17:46.567
25.0, 187500.0, 187500.0, 15171.313604273035, -28878.990278123652, 9464.935596577598, -15333.006123662726, -41144.21947529548, 18743.14471997556, -0.11800000000000001, 0.914, 0.34400000000000003, 192.0, 0.0, 0.0, 0.0, 0.0, 0.0, 0.0, 0.0, 0.0, 0.0, 1.6989598665671928E9, 0.0, 2023-11-02 17:17:46.567
26.0, 187500.0, 187500.0, 15167.044421082071, -28870.116635574894, 9470.322366991326, -15335.241298108256, -41135.32348100227, 18750.90077530155, -0.11800000000000001, 0.914, 0.34400000000000003, 192.0, 0.0, 0.0, 0.0, 0.0, 0.0, 0.0, 0.0, 0.0, 0.0, 1.698959866567206E9, 0.0, 2023-11-02 17:17:46.567
27.0, 187500.0, 187500.0, 15186.468087013733, -28869.602545452424, 9467.39428846768, -15334.391931818955, -41136.686937414044, 18750.990182279373, -0.116, 0.914, 0.35000000000000003, 192.0, 252.0, 96.0, 28.0, 144.0, 10.0, 240.0, 0.0, 0.0, 0.0, 1.6989598665672252E9, 0.0, 2023-11-02 17:17:46.567
28.0, 187500.0, 187500.0, 15199.879133686916, -28867.14385356234, 9472.177561781116, -15344.964306946315, -41136.061088569295, 18751.794845079763, -0.116, 0.914, 0.35000000000000003, 192.0, 0.0, 0.0, 0.0, 0.0, 0.0, 0.0, 0.0, 0.0, 0.0, 1.6989598665672367E9, 0.0, 2023-11-02 17:17:46.567
29.0, 187500.0, 187500.0, 15191.34076730499, -28852.972847577676, 9484.962759609552, -15351.200443649346, -41120.86190233969, 18767.77634236531, -0.116, 0.914, 0.35000000000000003, 192.0, 0.0, 0.0, 0.0, 0.0, 0.0, 0.0, 0.0, 0.0, 0.0, 1.698959866567247E9, 0.0, 2023-11-02 17:17:46.567
30.0, 187500.0, 187500.0, 15187.853895169961, -28847.183745763752, 9490.014253856452, -15340.359847588523, -41115.60924239269, 18774.32540349071, -0.116, 0.914, 0.35000000000000003, 192.0, 0.0, 0.0, 0.0, 0.0, 0.0, 0.0, 0.0, 0.0, 0.0, 1.69895986656726E9, 0.0, 2023-11-02 17:17:46.567
31.0, 187500.0, 187500.0, 15209.780956480618, -28836.343149702927, 9502.665341218155, -15326.188841603858, -41103.89692829811, 18783.221397783924, -0.116, 0.914, 0.35000000000000003, 192.0, 0.0, 0.0, 0.0, 0.0, 0.0, 0.0, 0.0, 0.0, 0.0, 1.69895986656727E9, 0.0, 2023-11-02 17:17:46.567
32.0, 187500.0, 187500.0, 15224.846032243495, -28835.694949113724, 9514.31060007937, -15306.631065205464, -41101.08060849674, 18782.52849370581, -0.116, 0.914, 0.35000000000000003, 192.0, 0.0, 0.0, 0.0, 0.0, 0.0, 0.0, 0.0, 0.0, 0.0, 1.6989598665672803E9, 0.0, 2023-11-02 17:17:46.567
33.0, 187500.0, 187500.0, 15200.4379272983, -28840.589981149435, 9506.107509864272, -15309.782661173662, -41104.45572190949, 18777.47699945891, -0.116, 0.914, 0.35000000000000003, 192.0, 0.0, 0.0, 0.0, 0.0, 0.0, 0.0, 0.0, 0.0, 0.0, 1.6989598665672915E9, 0.0, 2023-11-02 17:17:46.567
34.0, 187500.0, 187500.0, 15187.630377725409, -28831.626931622857, 9510.26493433296, -15316.979922888271, -41097.52668112835, 18784.942482106984, -0.116, 0.914, 0.35000000000000003, 192.0, 0.0, 0.0, 0.0, 0.0, 0.0, 0.0, 0.0, 0.0, 0.0, 1.6989598665673056E9, 0.0, 2023-11-02 17:17:46.567
35.0, 187500.0, 187500.0, 15214.564229794054, -28814.17021920326, 9530.135635153727, -15295.857524378005, -41082.75217804339, 18799.895799147584, -0.116, 0.914, 0.35000000000000003, 192.0, 0.0, 0.0, 0.0, 0.0, 0.0, 0.0, 0.0, 0.0, 0.0, 1.6989598665673172E9, 0.0, 2023-11-02 17:17:46.567
36.0, 187500.0, 187500.0, 15223.080244431525, -28827.42480366526, 9519.809129215375, -15276.21034100179, -41093.25749793738, 18786.305938518755, -0.116, 0.914, 0.35000000000000003, 192.0, 0.0, 0.0, 0.0, 0.0, 0.0, 0.0, 0.0, 0.0, 0.0, 1.6989598665673282E9, 0.0, 2023-11-02 17:17:46.567
37.0, 187500.0, 187500.0, 15208.842183213495, -28829.637626366333, 9517.17162336965, -15277.842018347028, -41097.59373636171, 18786.551807707765, -0.116, 0.912, 0.354, 192.0, 252.0, 96.0, 28.0, 128.0, 11.0, 16.0, 0.0, 0.0, 0.0, 1.6989598665673392E9, 0.0, 2023-11-02 17:17:46.567
38.0, 187500.0, 187500.0, 15201.331997076511, -28812.89616976931, 9532.348457854803, -15274.891588078928, -41086.88725076762, 18802.935636393504, -0.116, 0.912, 0.354, 192.0, 0.0, 0.0, 0.0, 0.0, 0.0, 0.0, 0.0, 0.0, 0.0, 1.6989598665678945E9, 0.0, 2023-11-02 17:17:46.567
39.0, 187500.0, 187500.0, 15212.239648370702, -28814.304329669994, 9530.69442876511, -15265.369744940966, -41090.93291651403, 18799.96285438095, -0.116, 0.912, 0.354, 192.0, 0.0, 0.0, 0.0, 0.0, 0.0, 0.0, 0.0, 0.0, 0.0, 1.6989598665679104E9, 0.0, 2023-11-02 17:17:46.567
40.0, 187500.0, 187500.0, 15229.092863690003, -28818.729975072143, 9522.424283316646, -15268.096657764514, -41098.84543405121, 18794.777249667317, -0.116, 0.912, 0.354, 192.0, 0.0, 0.0, 0.0, 0.0, 0.0, 0.0, 0.0, 0.0, 0.0, 1.6989598665679235E9, 0.0, 2023-11-02 17:17:46.567
41.0, 187500.0, 187500.0, 15220.375683352433, -28820.719280328667, 9513.684751234621, -15273.192855500325, -41104.14279748712, 18792.475019988422, -0.116, 0.912, 0.354, 192.0, 0.0, 0.0, 0.0, 0.0, 0.0, 0.0, 0.0, 0.0, 0.0, 1.6989598665679364E9, 0.0, 2023-11-02 17:17:46.567
42.0, 187500.0, 187500.0, 15210.518564047643, -28800.669765552255, 9527.900460708197, -15277.774963113663, -41082.61806757666, 18813.86563943215, -0.116, 0.912, 0.354, 192.0, 0.0, 0.0, 0.0, 0.0, 0.0, 0.0, 0.0, 0.0, 0.0, 1.698959866567948E9, 0.0, 2023-11-02 17:17:46.567
43.0, 187500.0, 187500.0, 15208.350444835478, -28814.281977925537, 9508.767367454455, -15271.4047159439, -41097.30316368379, 18801.080441603714, -0.116, 0.912, 0.354, 192.0, 0.0, 0.0, 0.0, 0.0, 0.0, 0.0, 0.0, 0.0, 0.0, 1.6989598665679612E9, 0.0, 2023-11-02 17:17:46.567
44.0, 187500.0, 187500.0, 15205.24355235619, -28839.762966604587, 9479.374823495726, -15282.580588171553, -41123.56646341878, 18775.241825013378, -0.116, 0.912, 0.354, 192.0, 0.0, 0.0, 0.0, 0.0, 0.0, 0.0, 0.0, 0.0, 0.0, 1.6989598665679731E9, 0.0, 2023-11-02 17:17:46.567
45.0, 187500.0, 187500.0, 15188.122116103426, -28854.246897011628, 9476.312634505348, -15296.952759856316, -41137.22337928097, 18760.51202541733, -0.116, 0.912, 0.354, 192.0, 0.0, 0.0, 0.0, 0.0, 0.0, 0.0, 0.0, 0.0, 0.0, 1.698959866567988E9, 0.0, 2023-11-02 17:17:46.567
46.0, 187500.0, 187500.0, 15168.966671105227, -28842.37812070586, 9495.423376014636, -15308.866239650994, -41122.67239364057, 18774.683031401997, -0.116, 0.912, 0.354, 192.0, 0.0, 0.0, 0.0, 0.0, 0.0, 0.0, 0.0, 0.0, 0.0, 1.6989598665680037E9, 0.0, 2023-11-02 17:17:46.568
47.0, 187500.0, 187500.0, 15170.017203094627, -28843.22748699516, 9489.164887567149, -15309.581495473563, -41123.99114656343, 18776.113543047137, -0.116, 0.914, 0.352, 192.0, 252.0, 96.0, 28.0, 144.0, 11.0, 0.0, 0.0, 0.0, 0.0, 1.6989598665680156E9, 0.0, 2023-11-02 17:17:46.568
48.0, 187500.0, 187500.0, 15180.746040433174, -28851.14000453234, 9481.83351538581, -15302.674806436875, -41131.76955363388, 18766.971679564915, -0.116, 0.914, 0.352, 192.0, 0.0, 0.0, 0.0, 0.0, 0.0, 0.0, 0.0, 0.0, 0.0, 1.6989598665680447E9, 0.0, 2023-11-02 17:17:46.568
49.0, 187500.0, 187500.0, 15187.786839936596, -28840.724091616168, 9493.523477735935, -15291.342471998034, -41122.11360002919, 18773.4313337125, -0.116, 0.914, 0.352, 192.0, 0.0, 0.0, 0.0, 0.0, 0.0, 0.0, 0.0, 0.0, 0.0, 1.6989598665680563E9, 0.0, 2023-11-02 17:17:46.568
50.0, 187500.0, 187500.0, 15166.731496659697, -28841.551106161012, 9488.44963174458, -15295.902227866916, -41123.78998086333, 18771.84435985617, -0.116, 0.914, 0.352, 192.0, 0.0, 0.0, 0.0, 0.0, 0.0, 0.0, 0.0, 0.0, 0.0, 1.6989598665680678E9, 0.0, 2023-11-02 17:17:46.568
51.0, 187500.0, 187500.0, 15171.537121717587, -28820.540466373026, 9504.92286740814, -15303.233600048257, -41102.53347188634, 18793.39144151109, -0.116, 0.914, 0.352, 192.0, 0.0, 0.0, 0.0, 0.0, 0.0, 0.0, 0.0, 0.0, 0.0, 1.698959866568079E9, 0.0, 2023-11-02 17:17:46.568
52.0, 187500.0, 187500.0, 15201.890790687894, -28807.285881911026, 9531.655553776689, -15283.698175394318, -41087.691913568015, 18804.924941650028, -0.116, 0.914, 0.352, 192.0, 0.0, 0.0, 0.0, 0.0, 0.0, 0.0, 0.0, 0.0, 0.0, 1.6989598665680935E9, 0.0, 2023-11-02 17:17:46.568
53.0, 187500.0, 187500.0, 15202.941322677294, -28810.593940090414, 9528.705123508587, -15263.78277108464, -41088.56363160177, 18804.656720716564, -0.116, 0.914, 0.352, 192.0, 0.0, 0.0, 0.0, 0.0, 0.0, 0.0, 0.0, 0.0, 0.0, 1.6989598665681036E9, 0.0, 2023-11-02 17:17:46.568
54.0, 187500.0, 187500.0, 15177.728554931708, -28823.625007107858, 9507.627428487234, -15264.676840862852, -41101.14766373011, 18793.369089766635, -0.116, 0.914, 0.352, 192.0, 0.0, 0.0, 0.0, 0.0, 0.0, 0.0, 0.0, 0.0, 0.0, 1.6989598665681612E9, 0.0, 2023-11-02 17:17:46.568
55.0, 187500.0, 187500.0, 15164.00458383615, -28817.344166915915, 9511.583687255823, -15284.324024239068, -41094.62095434916, 18800.409889270057, -0.116, 0.914, 0.352, 192.0, 0.0, 0.0, 0.0, 0.0, 0.0, 0.0, 0.0, 0.0, 0.0, 1.6989598665681748E9, 0.0, 2023-11-02 17:17:46.568
56.0, 187500.0, 187500.0, 15180.321357288523, -28822.149791973807, 9511.807204700375, -15274.936291567838, -41099.87361429616, 18794.821953156228, -0.116, 0.914, 0.352, 192.0, 0.0, 0.0, 0.0, 0.0, 0.0, 0.0, 0.0, 0.0, 0.0, 1.6989598665681868E9, 0.0, 2023-11-02 17:17:46.568
57.0, 187500.0, 187500.0, 15178.421459009822, -28841.931085816752, 9489.768384667443, -15280.658338148396, -41120.30310872831, 18775.040659313283, -0.128, 0.92, 0.34800000000000003, 192.0, 252.0, 0.0, 28.0, 192.0, 10.0, 224.0, 0.0, 0.0, 0.0, 1.698959866568197E9, 0.0, 2023-11-02 17:17:46.568
58.0, 187500.0, 187500.0, 15173.928758374306, -28823.289730941025, 9498.999655127485, -15295.54459995563, -41105.90858529909, 18793.033813599803, -0.128, 0.92, 0.34800000000000003, 192.0, 0.0, 0.0, 0.0, 0.0, 0.0, 0.0, 0.0, 0.0, 0.0, 1.6989598665682087E9, 0.0, 2023-11-02 17:17:46.568
59.0, 187500.0, 187500.0, 15173.414668251833, -28802.927291742242, 9523.02778041694, -15288.749669641218, -41082.52866059884, 18813.664473732053, -0.128, 0.92, 0.34800000000000003, 192.0, 0.0, 0.0, 0.0, 0.0, 0.0, 0.0, 0.0, 0.0, 0.0, 1.6989598665682192E9, 0.0, 2023-11-02 17:17:46.568
60.0, 187500.0, 187500.0, 15186.95982539175, -28800.826227763442, 9531.07440842085, -15275.092753779025, -41080.71816929796, 18815.43026154402, -0.128, 0.92, 0.34800000000000003, 192.0, 0.0, 0.0, 0.0, 0.0, 0.0, 0.0, 0.0, 0.0, 0.0, 1.6989598665682304E9, 0.0, 2023-11-02 17:17:46.568
61.0, 187500.0, 187500.0, 15190.379642293412, -28818.729975072143, 9508.946181410096, -15277.17146601337, -41102.53347188634, 18795.783078167806, -0.128, 0.92, 0.34800000000000003, 192.0, 0.0, 0.0, 0.0, 0.0, 0.0, 0.0, 0.0, 0.0, 0.0, 1.698959866568241E9, 0.0, 2023-11-02 17:17:46.568
62.0, 187500.0, 187500.0, 15161.56824369052, -28840.858202082898, 9482.168791552638, -15292.437707476343, -41125.80163786431, 18775.66650815803, -0.128, 0.92, 0.34800000000000003, 192.0, 0.0, 0.0, 0.0, 0.0, 0.0, 0.0, 0.0, 0.0, 0.0, 1.6989598665682516E9, 0.0, 2023-11-02 17:17:46.568
63.0, 187500.0, 187500.0, 15148.023086550606, -28825.010815264086, 9495.579838225824, -15295.857524378005, -41110.64715512361, 18793.81612465574, -0.128, 0.92, 0.34800000000000003, 192.0, 0.0, 0.0, 0.0, 0.0, 0.0, 0.0, 0.0, 0.0, 0.0, 1.698959866568262E9, 0.0, 2023-11-02 17:17:46.568
64.0, 187500.0, 187500.0, 15173.213502551736, -28810.41512613477, 9508.342684309804, -15277.752611369207, -41097.03494275033, 18808.68003471852, -0.128, 0.92, 0.34800000000000003, 192.0, 0.0, 0.0, 0.0, 0.0, 0.0, 0.0, 0.0, 0.0, 0.0, 1.6989598665682733E9, 0.0, 2023-11-02 17:17:46.568
65.0, 187500.0, 187500.0, 15187.205694580758, -28818.12647797185, 9498.843192916298, -15271.248253732712, -41107.204986477496, 18799.471116002933, -0.128, 0.92, 0.34800000000000003, 192.0, 0.0, 0.0, 0.0, 0.0, 0.0, 0.0, 0.0, 0.0, 0.0, 1.6989598665682857E9, 0.0, 2023-11-02 17:17:46.568
66.0, 187500.0, 187500.0, 15176.521560731122, -28818.819382049965, 9500.474870261534, -15280.725393381763, -41107.13793124413, 18798.62174971363, -0.128, 0.92, 0.34800000000000003, 192.0, 0.0, 0.0, 0.0, 0.0, 0.0, 0.0, 0.0, 0.0, 0.0, 1.6989598665682964E9, 0.0, 2023-11-02 17:17:46.568
67.0, 187500.0, 187500.0, 15171.604176950954, -28793.78542826002, 9523.184242628127, -15279.428992203355, -41084.65207632209, 18819.319465079247, -0.12, 0.916, 0.34600000000000003, 192.0, 252.0, 64.0, 28.0, 160.0, 10.0, 208.0, 0.0, 0.0, 0.0, 1.6989598665683067E9, 0.0, 2023-11-02 17:17:46.568
68.0, 187500.0, 187500.0, 15192.05602312756, -28773.914727439253, 9536.014143945473, -15265.079172263047, -41070.905753482075, 18830.271819862344, -0.12, 0.916, 0.34600000000000003, 192.0, 0.0, 0.0, 0.0, 0.0, 0.0, 0.0, 0.0, 0.0, 0.0, 1.698959866568318E9, 0.0, 2023-11-02 17:17:46.568
69.0, 187500.0, 187500.0, 15194.358252806456, -28799.820399262953, 9510.242582588504, -15261.704058850297, -41099.51598638487, 18800.409889270057, -0.12, 0.916, 0.34600000000000003, 192.0, 0.0, 0.0, 0.0, 0.0, 0.0, 0.0, 0.0, 0.0, 0.0, 1.698959866568358E9, 0.0, 2023-11-02 17:17:46.568
70.0, 187500.0, 187500.0, 15172.274729284612, -28827.693024598724, 9473.697480404076, -15285.3075009951, -41129.959062333, 18773.252519756858, -0.12, 0.916, 0.34600000000000003, 192.0, 0.0, 0.0, 0.0, 0.0, 0.0, 0.0, 0.0, 0.0, 0.0, 1.6989598665683715E9, 0.0, 2023-11-02 17:17:46.568
71.0, 187500.0, 187500.0, 15138.23302247918, -28837.773661348067, 9459.124143019217, -15307.949818128327, -41137.044565325334, 18764.825912097207, -0.12, 0.916, 0.34600000000000003, 192.0, 0.0, 0.0, 0.0, 0.0, 0.0, 0.0, 0.0, 0.0, 0.0, 1.6989598665683832E9, 0.0, 2023-11-02 17:17:46.568
72.0, 187500.0, 187500.0, 15153.23104300869, -28808.02348947805, 9505.97339939754, -15281.485352693244, -41103.38283817564, 18793.14557232208, -0.12, 0.916, 0.34600000000000003, 192.0, 0.0, 0.0, 0.0, 0.0, 0.0, 0.0, 0.0, 0.0, 0.0, 1.698959866568394E9, 0.0, 2023-11-02 17:17:46.568
73.0, 187500.0, 187500.0, 15178.332052032001, -28811.152733701794, 9509.281457576926, -15251.310497678578, -41105.953288788, 18789.546941464778, -0.12, 0.916, 0.34600000000000003, 192.0, 0.0, 0.0, 0.0, 0.0, 0.0, 0.0, 0.0, 0.0, 0.0, 1.698959866568405E9, 0.0, 2023-11-02 17:17:46.568
74.0, 187500.0, 187500.0, 15189.239703326191, -28802.167332430763, 9515.338780324315, -15244.269698175158, -41096.58790786123, 18798.845267158184, -0.12, 0.916, 0.34600000000000003, 192.0, 0.0, 0.0, 0.0, 0.0, 0.0, 0.0, 0.0, 0.0, 0.0, 1.6989598665684173E9, 0.0, 2023-11-02 17:17:46.568
75.0, 187500.0, 187500.0, 15190.804325438063, -28783.615384532855, 9529.576841542344, -15236.603049826987, -41078.460643107974, 18817.128994122624, -0.12, 0.916, 0.34600000000000003, 192.0, 0.0, 0.0, 0.0, 0.0, 0.0, 0.0, 0.0, 0.0, 0.0, 1.6989598665684288E9, 0.0, 2023-11-02 17:17:46.568
76.0, 187500.0, 187500.0, 15174.95693861925, -28794.858311993878, 9515.539946024412, -15240.559308595575, -41089.636515335624, 18804.366148038644, -0.12, 0.916, 0.34600000000000003, 192.0, 0.0, 0.0, 0.0, 0.0, 0.0, 0.0, 0.0, 0.0, 0.0, 1.6989598665684416E9, 0.0, 2023-11-02 17:17:46.568
77.0, 187500.0, 187500.0, 15191.586636493998, -28792.39962010379, 9516.948105925096, -15244.91789876436, -41087.71426531247, 18804.634368972107, -0.12, 0.916, 0.35000000000000003, 192.0, 252.0, 64.0, 28.0, 160.0, 10.0, 240.0, 0.0, 0.0, 0.0, 1.6989598665684533E9, 0.0, 2023-11-02 17:17:46.568
78.0, 187500.0, 187500.0, 15200.4379272983, -28800.580358574436, 9507.716835465055, -15248.784750555129, -41093.972753759954, 18796.565389223742, -0.12, 0.916, 0.35000000000000003, 192.0, 0.0, 0.0, 0.0, 0.0, 0.0, 0.0, 0.0, 0.0, 0.0, 1.6989598665684645E9, 0.0, 2023-11-02 17:17:46.568
79.0, 187500.0, 187500.0, 15180.567226477531, -28798.79221901801, 9506.68865522011, -15265.481503663243, -41089.70357056899, 18800.096964847682, -0.12, 0.916, 0.35000000000000003, 192.0, 0.0, 0.0, 0.0, 0.0, 0.0, 0.0, 0.0, 0.0, 0.0, 1.6989598665685008E9, 0.0, 2023-11-02 17:17:46.568
80.0, 187500.0, 187500.0, 15175.33691827499, -28786.968146201154, 9520.36792282676, -15269.214244987279, -41074.191459917005, 18812.926866165028, -0.12, 0.916, 0.35000000000000003, 192.0, 0.0, 0.0, 0.0, 0.0, 0.0, 0.0, 0.0, 0.0, 0.0, 1.6989598665685115E9, 0.0, 2023-11-02 17:17:46.568
81.0, 187500.0, 187500.0, 15203.902447688872, -28773.64650650579, 9536.528234067946, -15254.26092794668, -41061.473317321936, 18825.890877949107, -0.12, 0.916, 0.35000000000000003, 192.0, 0.0, 0.0, 0.0, 0.0, 0.0, 0.0, 0.0, 0.0, 0.0, 1.6989598665685225E9, 0.0, 2023-11-02 17:17:46.568
82.0, 187500.0, 187500.0, 15222.186174653314, -28768.30443958097, 9541.13269342574, -15238.01120972767, -41062.54620105579, 18828.34956983919, -0.12, 0.916, 0.35000000000000003, 192.0, 0.0, 0.0, 0.0, 0.0, 0.0, 0.0, 0.0, 0.0, 0.0, 1.698959866568533E9, 0.0, 2023-11-02 17:17:46.568
83.0, 187500.0, 187500.0, 15214.67598851633, -28760.995419144085, 9542.071466692862, -15227.930572978328, -41058.76875624285, 18833.021084430347, -0.12, 0.916, 0.35000000000000003, 192.0, 0.0, 0.0, 0.0, 0.0, 0.0, 0.0, 0.0, 0.0, 0.0, 1.6989598665685828E9, 0.0, 2023-11-02 17:17:46.568
84.0, 187500.0, 187500.0, 15197.085165630004, -28754.60282022987, 9550.69924005261, -15230.590430568509, -41056.77945098632, 18836.329142609735, -0.12, 0.916, 0.35000000000000003, 192.0, 0.0, 0.0, 0.0, 0.0, 0.0, 0.0, 0.0, 0.0, 0.0, 1.6989598665685952E9, 0.0, 2023-11-02 17:17:46.568
85.0, 187500.0, 187500.0, 15222.119119419947, -28737.146107810273, 9572.782763574454, -15212.843145470995, -41040.61913974513, 18852.936488740026, -0.12, 0.916, 0.35000000000000003, 192.0, 0.0, 0.0, 0.0, 0.0, 0.0, 0.0, 0.0, 0.0, 0.0, 1.6989598665686514E9, 0.0, 2023-11-02 17:17:46.568
86.0, 187500.0, 187500.0, 15225.270715388146, -28764.102311623374, 9544.284289393938, -15195.900523173872, -41068.670579036545, 18826.11439539366, -0.12, 0.916, 0.35000000000000003, 192.0, 0.0, 0.0, 0.0, 0.0, 0.0, 0.0, 0.0, 0.0, 0.0, 1.6989598665686672E9, 0.0, 2023-11-02 17:17:46.568
87.0, 187500.0, 187500.0, 15201.91314243235, -28773.55709952797, 9527.65459151919, -15210.630322769919, -41078.12536694114, 18817.66543598955, -0.12, 0.91, 0.352, 192.0, 252.0, 64.0, 28.0, 112.0, 11.0, 0.0, 0.0, 0.0, 0.0, 1.698959866568678E9, 0.0, 2023-11-02 17:17:46.568
88.0, 187500.0, 187500.0, 15189.977310893217, -28763.297648822983, 9541.691487037122, -15214.072491416036, -41067.46358483596, 18829.601267528687, -0.12, 0.91, 0.352, 192.0, 0.0, 0.0, 0.0, 0.0, 0.0, 0.0, 0.0, 0.0, 0.0, 1.6989598665686934E9, 0.0, 2023-11-02 17:17:46.568
89.0, 187500.0, 187500.0, 15194.872342928928, -28768.30443958097, 9537.578766057344, -15212.306703604068, -41070.23520114842, 18826.67318900504, -0.12, 0.91, 0.352, 192.0, 0.0, 0.0, 0.0, 0.0, 0.0, 0.0, 0.0, 0.0, 0.0, 1.698959866568705E9, 0.0, 2023-11-02 17:17:46.568
90.0, 187500.0, 187500.0, 15218.565192051554, -28767.96916341414, 9534.538928811424, -15206.808174468062, -41070.346959870694, 18827.366093083154, -0.12, 0.91, 0.352, 192.0, 0.0, 0.0, 0.0, 0.0, 0.0, 0.0, 0.0, 0.0, 0.0, 1.6989598665687208E9, 0.0, 2023-11-02 17:17:46.568
91.0, 187500.0, 187500.0, 15219.481613574222, -28766.35983781336, 9532.191995643616, -15202.181363365813, -41073.52090758335, 18827.00846517187, -0.12, 0.91, 0.352, 192.0, 0.0, 0.0, 0.0, 0.0, 0.0, 0.0, 0.0, 0.0, 0.0, 1.6989598665687408E9, 0.0, 2023-11-02 17:17:46.568
92.0, 187500.0, 187500.0, 15216.53118330612, -28734.30743626445, 9558.79057154543, -15201.667273243342, -41042.876665935124, 18857.630355075642, -0.12, 0.91, 0.352, 192.0, 0.0, 0.0, 0.0, 0.0, 0.0, 0.0, 0.0, 0.0, 0.0, 1.6989598665687532E9, 0.0, 2023-11-02 17:17:46.568
93.0, 187500.0, 187500.0, 15234.412578870366, -28722.34925298086, 9575.46497290909, -15178.153238076358, -41027.54336923878, 18868.82857904775, -0.12, 0.91, 0.352, 192.0, 0.0, 0.0, 0.0, 0.0, 0.0, 0.0, 0.0, 0.0, 0.0, 1.698959866568769E9, 0.0, 2023-11-02 17:17:46.568
94.0, 187500.0, 187500.0, 15247.845977288007, -28733.323959508416, 9555.5048651105, -15175.269863041623, -41038.02633738832, 18858.747942298407, -0.12, 0.91, 0.352, 192.0, 0.0, 0.0, 0.0, 0.0, 0.0, 0.0, 0.0, 0.0, 0.0, 1.6989598665688183E9, 0.0, 2023-11-02 17:17:46.568
95.0, 187500.0, 187500.0, 15255.06559074707, -28727.512505950035, 9562.165684958183, -15162.66347916883, -41034.83003793121, 18865.140541212626, -0.12, 0.91, 0.352, 192.0, 0.0, 0.0, 0.0, 0.0, 0.0, 0.0, 0.0, 0.0, 0.0, 1.6989598665688453E9, 0.0, 2023-11-02 17:17:46.568
96.0, 187500.0, 187500.0, 15231.663314302365, -28721.6787006472, 9571.84399030733, -15156.740266888175, -41027.36455528314, 18872.874244794162, -0.12, 0.91, 0.352, 192.0, 0.0, 0.0, 0.0, 0.0, 0.0, 0.0, 0.0, 0.0, 0.0, 1.698959866568864E9, 0.0, 2023-11-02 17:17:46.568
97.0, 187500.0, 187500.0, 15242.63802082992, -28699.215197469617, 9597.682606897666, -15155.063886054026, -41001.66004915954, 18897.304701483812, -0.124, 0.91, 0.35000000000000003, 192.0, 252.0, 32.0, 28.0, 112.0, 10.0, 240.0, 0.0, 0.0, 0.0, 1.698959866568882E9, 0.0, 2023-11-02 17:17:46.568
98.0, 187500.0, 187500.0, 15261.838169317029, -28706.7253836066, 9592.5640574174, -15148.268955739613, -41006.75624689535, 18890.353308958212, -0.124, 0.91, 0.35000000000000003, 192.0, 0.0, 0.0, 0.0, 0.0, 0.0, 0.0, 0.0, 0.0, 0.0, 1.6989598665689447E9, 0.0, 2023-11-02 17:17:46.568
99.0, 187500.0, 187500.0, 15256.987840770227, -28719.01884305702, 9580.918798556186, -15145.072656282504, -41018.759133667845, 18876.11524774018, -0.124, 0.91, 0.35000000000000003, 192.0, 0.0, 0.0, 0.0, 0.0, 0.0, 0.0, 0.0, 0.0, 0.0, 1.6989598665689628E9, 0.0, 2023-11-02 17:17:46.568
100.0, 187500.0, 187500.0, 15223.773148509641, -28716.49309593357, 9583.668063124189, -15163.401086735856, -41019.00500285685, 18879.06567800828, -0.124, 0.91, 0.35000000000000003, 192.0, 0.0, 0.0, 0.0, 0.0, 0.0, 0.0, 0.0, 0.0, 0.0, 1.6989598665690863E9, 0.0, 2023-11-02 17:17:46.569
101.0, 187500.0, 187500.0, 15254.931480280338, -28665.598173808838, 9637.379305050292, -15143.619792892909, -40969.83116505518, 18930.98878037796, -0.124, 0.91, 0.35000000000000003, 192.0, 0.0, 0.0, 0.0, 0.0, 0.0, 0.0, 0.0, 0.0, 0.0, 1.6989598665691087E9, 0.0, 2023-11-02 17:17:46.569
102.0, 187500.0, 187500.0, 15272.567006655576, -28676.885804758767, 9627.298668300948, -15124.285533939068, -40978.16836573701, 18919.812908150307, -0.124, 0.91, 0.35000000000000003, 192.0, 0.0, 0.0, 0.0, 0.0, 0.0, 0.0, 0.0, 0.0, 0.0, 1.6989598665691245E9, 0.0, 2023-11-02 17:17:46.569
103.0, 187500.0, 187500.0, 15276.947948568815, -28688.732229320078, 9609.66314192571, -15126.341894428957, -40986.885546074576, 18909.12877430067, -0.124, 0.91, 0.35000000000000003, 192.0, 0.0, 0.0, 0.0, 0.0, 0.0, 0.0, 0.0, 0.0, 0.0, 1.6989598665691435E9, 0.0, 2023-11-02 17:17:46.569
104.0, 187500.0, 187500.0, 15259.357125682489, -28680.082104215875, 9615.273429783992, -15146.61492664992, -40979.08478725968, 18918.583562205265, -0.124, 0.91, 0.35000000000000003, 192.0, 0.0, 0.0, 0.0, 0.0, 0.0, 0.0, 0.0, 0.0, 0.0, 1.6989598665691607E9, 0.0, 2023-11-02 17:17:46.569
105.0, 187500.0, 187500.0, 15281.865332348983, -28635.780946705458, 9663.463790829634, -15130.164042730814, -40933.57663554867, 18965.432818583588, -0.124, 0.91, 0.35000000000000003, 192.0, 0.0, 0.0, 0.0, 0.0, 0.0, 0.0, 0.0, 0.0, 0.0, 1.69895986656918E9, 0.0, 2023-11-02 17:17:46.569
106.0, 187500.0, 187500.0, 15316.376425787977, -28622.772231432467, 9673.76794502353, -15103.073728450981, -40920.70203074241, 18976.31811813332, -0.124, 0.91, 0.35000000000000003, 192.0, 0.0, 0.0, 0.0, 0.0, 0.0, 0.0, 0.0, 0.0, 0.0, 1.6989598665692055E9, 0.0, 2023-11-02 17:17:46.569
107.0, 187500.0, 187500.0, 15308.12863208397, -28652.47769981357, 9642.788427208476, -15106.314731397002, -40951.01099622381, 18943.237536339468, -0.12, 0.916, 0.354, 192.0, 252.0, 64.0, 28.0, 160.0, 11.0, 16.0, 0.0, 0.0, 0.0, 1.6989598665692265E9, 0.0, 2023-11-02 17:17:46.569
108.0, 187500.0, 187500.0, 15282.088849793536, -28655.606944037314, 9639.167444606715, -15124.218478705703, -40956.82244978219, 18937.98487639247, -0.12, 0.916, 0.354, 192.0, 0.0, 0.0, 0.0, 0.0, 0.0, 0.0, 0.0, 0.0, 0.0, 1.6989598665692434E9, 0.0, 2023-11-02 17:17:46.569
109.0, 187500.0, 187500.0, 15276.813838102084, -28636.362092061296, 9658.904034960751, -15128.688827596765, -40939.94688271843, 18955.933327190083, -0.12, 0.916, 0.354, 192.0, 0.0, 0.0, 0.0, 0.0, 0.0, 0.0, 0.0, 0.0, 0.0, 1.698959866569262E9, 0.0, 2023-11-02 17:17:46.569
110.0, 187500.0, 187500.0, 15286.715660895785, -28639.111356629295, 9653.271395358015, -15122.27387693809, -40942.271464141784, 18951.999420165947, -0.12, 0.916, 0.354, 192.0, 0.0, 0.0, 0.0, 0.0, 0.0, 0.0, 0.0, 0.0, 0.0, 1.6989598665692885E9, 0.0, 2023-11-02 17:17:46.569
111.0, 187500.0, 187500.0, 15311.123765840981, -28627.37669079026, 9660.602767539354, -15112.215591933204, -40931.56497854769, 18961.096580159257, -0.12, 0.916, 0.354, 192.0, 0.0, 0.0, 0.0, 0.0, 0.0, 0.0, 0.0, 0.0, 0.0, 1.69895986656931E9, 0.0, 2023-11-02 17:17:46.569
112.0, 187500.0, 187500.0, 15307.435728005854, -28626.124993100762, 9657.138247148783, -15104.548943585032, -40931.07324016967, 18960.56013829233, -0.12, 0.916, 0.354, 192.0, 0.0, 0.0, 0.0, 0.0, 0.0, 0.0, 0.0, 0.0, 0.0, 1.6989598665693402E9, 0.0, 2023-11-02 17:17:46.569
113.0, 187500.0, 187500.0, 15272.768172355674, -28637.90436242871, 9651.505607546045, -15116.954161757729, -40942.9643682199, 18948.713713731016, -0.12, 0.916, 0.354, 192.0, 0.0, 0.0, 0.0, 0.0, 0.0, 0.0, 0.0, 0.0, 0.0, 1.6989598665693662E9, 0.0, 2023-11-02 17:17:46.569
114.0, 187500.0, 187500.0, 15285.866294606483, -28625.834420422845, 9666.10129667536, -15128.778234574585, -40931.095591914134, 18961.342449348267, -0.12, 0.916, 0.354, 192.0, 0.0, 0.0, 0.0, 0.0, 0.0, 0.0, 0.0, 0.0, 0.0, 1.6989598665693884E9, 0.0, 2023-11-02 17:17:46.569
115.0, 187500.0, 187500.0, 15318.835117678062, -28617.407812763195, 9672.471543845122, -15120.709254826219, -40922.66898425448, 18969.053801185346, -0.12, 0.916, 0.354, 192.0, 0.0, 0.0, 0.0, 0.0, 0.0, 0.0, 0.0, 0.0, 0.0, 1.6989598665695813E9, 0.0, 2023-11-02 17:17:46.569
116.0, 187500.0, 187500.0, 15306.65341694992, -28635.57978100536, 9648.041087155472, -15125.80545256203, -40943.67962404247, 18950.211280609525, -0.12, 0.916, 0.354, 192.0, 0.0, 0.0, 0.0, 0.0, 0.0, 0.0, 0.0, 0.0, 0.0, 1.6989598665696113E9, 0.0, 2023-11-02 17:17:46.569
117.0, 187500.0, 187500.0, 15272.87993107795, -28643.469946798083, 9635.501758516046, -15147.598403405955, -40951.74860379084, 18943.438702039566, -0.126, 0.916, 0.35000000000000003, 192.0, 252.0, 16.0, 28.0, 160.0, 10.0, 240.0, 0.0, 0.0, 0.0, 1.6989598665696316E9, 0.0, 2023-11-02 17:17:46.569
118.0, 187500.0, 187500.0, 15288.772021385674, -28616.24552205152, 9661.094505917372, -15137.383656189879, -40925.88763545604, 18968.85263548525, -0.126, 0.916, 0.35000000000000003, 192.0, 0.0, 0.0, 0.0, 0.0, 0.0, 0.0, 0.0, 0.0, 0.0, 1.69895986656966E9, 0.0, 2023-11-02 17:17:46.569
119.0, 187500.0, 187500.0, 15324.333646814066, -28605.583739946338, 9674.684366546198, -15100.726795283175, -40913.10243762761, 18978.553292578854, -0.126, 0.916, 0.35000000000000003, 192.0, 0.0, 0.0, 0.0, 0.0, 0.0, 0.0, 0.0, 0.0, 0.0, 1.698959866569687E9, 0.0, 2023-11-02 17:17:46.569
120.0, 187500.0, 187500.0, 15333.251992851734, -28599.973452088056, 9681.054613715962, -15084.722946253176, -40906.46396952438, 18983.98476648149, -0.126, 0.916, 0.35000000000000003, 192.0, 0.0, 0.0, 0.0, 0.0, 0.0, 0.0, 0.0, 0.0, 0.0, 1.6989598665697136E9, 0.0, 2023-11-02 17:17:46.569
121.0, 187500.0, 187500.0, 15316.041149621147, -28603.728545156548, 9683.423898628223, -15073.16709436978, -40905.52519625726, 18982.57660658081, -0.126, 0.916, 0.35000000000000003, 192.0, 0.0, 0.0, 0.0, 0.0, 0.0, 0.0, 0.0, 0.0, 0.0, 1.6989598665697267E9, 0.0, 2023-11-02 17:17:46.569
122.0, 187500.0, 187500.0, 15307.748652428229, -28601.13574279973, 9689.213000442149, -15066.46157103319, -40899.6019839766, 18987.024603727416, -0.126, 0.916, 0.35000000000000003, 192.0, 0.0, 0.0, 0.0, 0.0, 0.0, 0.0, 0.0, 0.0, 0.0, 1.6989598665697608E9, 0.0, 2023-11-02 17:17:46.569
123.0, 187500.0, 187500.0, 15330.055693394626, -28607.126010313754, 9680.562875337944, -15054.436332516234, -40908.27446082526, 18980.028507712905, -0.126, 0.916, 0.35000000000000003, 192.0, 0.0, 0.0, 0.0, 0.0, 0.0, 0.0, 0.0, 0.0, 0.0, 1.6989598665697885E9, 0.0, 2023-11-02 17:17:46.569
124.0, 187500.0, 187500.0, 15335.889498697461, -28601.448667222103, 9672.896226989775, -15055.93389939474, -40904.117036356576, 18986.063478715834, -0.126, 0.916, 0.35000000000000003, 192.0, 0.0, 0.0, 0.0, 0.0, 0.0, 0.0, 0.0, 0.0, 0.0, 1.6989598665698352E9, 0.0, 2023-11-02 17:17:46.569
125.0, 187500.0, 187500.0, 15337.297658598145, -28582.38262920173, 9696.074985989928, -15042.724018421653, -40886.45915823688, 19003.43078415761, -0.126, 0.916, 0.35000000000000003, 192.0, 0.0, 0.0, 0.0, 0.0, 0.0, 0.0, 0.0, 0.0, 0.0, 1.6989598670473156E9, 0.0, 2023-11-02 17:17:47.047
126.0, 187500.0, 187500.0, 15317.56106824411, -28592.440914206614, 9689.168296953238, -15045.02624810055, -40901.747751444316, 18989.684461317596, -0.126, 0.916, 0.35000000000000003, 192.0, 0.0, 0.0, 0.0, 0.0, 0.0, 0.0, 0.0, 0.0, 0.0, 1.6989598670474925E9, 0.0, 2023-11-02 17:17:47.047
127.0, 187500.0, 187500.0, 15344.763141246218, -28582.539091412913, 9693.124555721826, -15037.605468941389, -40899.04319036522, 18994.71360382004, -0.122, 0.918, 0.34400000000000003, 192.0, 252.0, 48.0, 28.0, 176.0, 10.0, 192.0, 0.0, 0.0, 0.0, 1.6989598670475073E9, 0.0, 2023-11-02 17:17:47.047
128.0, 187500.0, 187500.0, 15359.18001641989, -28584.573100158348, 9684.139154450793, -15040.69000967622, -40903.960574145385, 18990.80204854036, -0.122, 0.918, 0.34400000000000003, 192.0, 0.0, 0.0, 0.0, 0.0, 0.0, 0.0, 0.0, 0.0, 0.0, 1.6989598670475235E9, 0.0, 2023-11-02 17:17:47.047
129.0, 187500.0, 187500.0, 15361.772818776706, -28560.768492313447, 9709.553087896478, -15039.617125942366, -40875.46209996487, 19014.62900812972, -0.122, 0.918, 0.34400000000000003, 192.0, 0.0, 0.0, 0.0, 0.0, 0.0, 0.0, 0.0, 0.0, 0.0, 1.6989598670475361E9, 0.0, 2023-11-02 17:17:47.047
130.0, 187500.0, 187500.0, 15366.667850812419, -28545.949285739578, 9725.378122970835, -15024.216774012659, -40855.61375088856, 19028.285923991913, -0.122, 0.918, 0.34400000000000003, 192.0, 0.0, 0.0, 0.0, 0.0, 0.0, 0.0, 0.0, 0.0, 0.0, 1.6989598670475492E9, 0.0, 2023-11-02 17:17:47.047
131.0, 187500.0, 187500.0, 15362.443371110365, -28580.52743441194, 9695.091509233895, -15015.656055886277, -40886.72737917035, 18993.752478808463, -0.122, 0.918, 0.34400000000000003, 192.0, 0.0, 0.0, 0.0, 0.0, 0.0, 0.0, 0.0, 0.0, 0.0, 1.6989598670477278E9, 0.0, 2023-11-02 17:17:47.047
132.0, 187500.0, 187500.0, 15349.904042470938, -28602.7003649116, 9677.701852047665, -15024.775567624041, -40906.19574859092, 18971.04310644187, -0.122, 0.918, 0.34400000000000003, 192.0, 0.0, 0.0, 0.0, 0.0, 0.0, 0.0, 0.0, 0.0, 0.0, 1.6989598670477388E9, 0.0, 2023-11-02 17:17:47.047
133.0, 187500.0, 187500.0, 15335.375408574988, -28599.526417198947, 9675.712546791143, -15032.464567716666, -40904.29585031222, 18975.08877218828, -0.122, 0.918, 0.34400000000000003, 192.0, 0.0, 0.0, 0.0, 0.0, 0.0, 0.0, 0.0, 0.0, 0.0, 1.6989598670477743E9, 0.0, 2023-11-02 17:17:47.047
134.0, 187500.0, 187500.0, 15316.890515910449, -28593.558501429383, 9680.62993057131, -15041.874652132352, -40899.981963632345, 18982.911882747638, -0.122, 0.918, 0.34400000000000003, 192.0, 0.0, 0.0, 0.0, 0.0, 0.0, 0.0, 0.0, 0.0, 0.0, 1.6989598670477853E9, 0.0, 2023-11-02 17:17:47.047
135.0, 187500.0, 187500.0, 15331.4191498064, -28590.004574060986, 9683.312139905947, -15042.858128888385, -40899.6019839766, 18986.66697581613, -0.122, 0.918, 0.34400000000000003, 192.0, 0.0, 0.0, 0.0, 0.0, 0.0, 0.0, 0.0, 0.0, 0.0, 1.6989598670477953E9, 0.0, 2023-11-02 17:17:47.047
136.0, 187500.0, 187500.0, 15351.826292494094, -28588.95404207159, 9678.43945961469, -15044.892137633818, -40903.8041119342, 18982.241330413977, -0.124, 0.924, 0.34800000000000003, 192.0, 252.0, 32.0, 28.0, 224.0, 10.0, 224.0, 0.0, 0.0, 0.0, 1.6989598670478065E9, 0.0, 2023-11-02 17:17:47.047
137.0, 187500.0, 187500.0, 15340.203385377336, -28587.791751359913, 9673.902055490262, -15050.345963280914, -40905.10051311261, 18981.32490889131, -0.124, 0.924, 0.34800000000000003, 192.0, 0.0, 0.0, 0.0, 0.0, 0.0, 0.0, 0.0, 0.0, 0.0, 1.6989598670478184E9, 0.0, 2023-11-02 17:17:47.047
138.0, 187500.0, 187500.0, 15315.50470775422, -28596.66539390867, 9665.229578641603, -15053.810483671485, -40910.688449226436, 18975.289937888378, -0.124, 0.924, 0.34800000000000003, 192.0, 0.0, 0.0, 0.0, 0.0, 0.0, 0.0, 0.0, 0.0, 0.0, 1.698959867047829E9, 0.0, 2023-11-02 17:17:47.047
139.0, 187500.0, 187500.0, 15310.050882107125, -28605.98607134653, 9655.305404103447, -15068.920262923273, -40919.562091775195, 18967.198606395556, -0.124, 0.924, 0.34800000000000003, 192.0, 0.0, 0.0, 0.0, 0.0, 0.0, 0.0, 0.0, 0.0, 0.0, 1.6989598670478432E9, 0.0, 2023-11-02 17:17:47.047
140.0, 187500.0, 187500.0, 15329.36278931651, -28613.295091783417, 9654.14311339177, -15059.465475018678, -40925.775876733765, 18958.5261295469, -0.124, 0.924, 0.34800000000000003, 192.0, 0.0, 0.0, 0.0, 0.0, 0.0, 0.0, 0.0, 0.0, 0.0, 1.6989598670478542E9, 0.0, 2023-11-02 17:17:47.047
141.0, 187500.0, 187500.0, 15318.522193255687, -28621.542885487426, 9653.00317442455, -15063.779361698553, -40930.447391324924, 18950.010114909426, -0.124, 0.924, 0.34800000000000003, 192.0, 0.0, 0.0, 0.0, 0.0, 0.0, 0.0, 0.0, 0.0, 0.0, 1.6989598670478647E9, 0.0, 2023-11-02 17:17:47.047
142.0, 187500.0, 187500.0, 15297.511553467699, -28619.19595231962, 9655.305404103447, -15072.496542036122, -40924.926510444464, 18953.005248666435, -0.124, 0.924, 0.34800000000000003, 192.0, 0.0, 0.0, 0.0, 0.0, 0.0, 0.0, 0.0, 0.0, 0.0, 1.698959867047876E9, 0.0, 2023-11-02 17:17:47.047
143.0, 187500.0, 187500.0, 15291.45423072031, -28627.15317334571, 9645.358877820836, -15080.096135150927, -40935.47653382737, 18943.014018894915, -0.124, 0.924, 0.34800000000000003, 192.0, 0.0, 0.0, 0.0, 0.0, 0.0, 0.0, 0.0, 0.0, 0.0, 1.698959867047887E9, 0.0, 2023-11-02 17:17:47.047
144.0, 187500.0, 187500.0, 15300.305521524611, -28638.66432174019, 9632.66308697022, -15080.073783406471, -40948.03821421125, 18927.70307394303, -0.124, 0.924, 0.34800000000000003, 192.0, 0.0, 0.0, 0.0, 0.0, 0.0, 0.0, 0.0, 0.0, 0.0, 1.6989598670478985E9, 0.0, 2023-11-02 17:17:47.047
145.0, 187500.0, 187500.0, 15296.483373222754, -28644.207554365108, 9628.885642157275, -15078.17388512777, -40949.31226364521, 18921.89162038465, -0.124, 0.924, 0.34800000000000003, 192.0, 0.0, 0.0, 0.0, 0.0, 0.0, 0.0, 0.0, 0.0, 0.0, 1.69895986704791E9, 0.0, 2023-11-02 17:17:47.047
146.0, 187500.0, 187500.0, 15269.482465920742, -28650.846022468333, 9624.19177582166, -15088.947425955228, -40956.71069105991, 18917.42127149359, -0.124, 0.924, 0.354, 192.0, 252.0, 32.0, 28.0, 224.0, 11.0, 16.0, 0.0, 0.0, 0.0, 1.6989598670479438E9, 0.0, 2023-11-02 17:17:47.047
147.0, 187500.0, 187500.0, 15271.82939908855, -28642.19589736413, 9627.030447367484, -15096.099984180926, -40950.29574040124, 18927.479556498474, -0.124, 0.924, 0.354, 192.0, 0.0, 0.0, 0.0, 0.0, 0.0, 0.0, 0.0, 0.0, 0.0, 1.698959867047956E9, 0.0, 2023-11-02 17:17:47.047
148.0, 187500.0, 187500.0, 15288.749669641218, -28652.075368413374, 9621.397807764746, -15092.657815534809, -40959.83993528366, 18918.069472082792, -0.124, 0.924, 0.354, 192.0, 0.0, 0.0, 0.0, 0.0, 0.0, 0.0, 0.0, 0.0, 0.0, 1.6989598670479677E9, 0.0, 2023-11-02 17:17:47.047
149.0, 187500.0, 187500.0, 15273.997518300715, -28684.48539787357, 9598.956656331618, -15095.116507424893, -40988.45016818645, 18888.341651957235, -0.124, 0.924, 0.354, 192.0, 0.0, 0.0, 0.0, 0.0, 0.0, 0.0, 0.0, 0.0, 0.0, 1.698959867047978E9, 0.0, 2023-11-02 17:17:47.047
150.0, 187500.0, 187500.0, 15227.662352044863, -28709.564055152427, 9572.17926647416, -15119.368150158902, -41010.55604345275, 18865.83344529074, -0.124, 0.924, 0.354, 192.0, 0.0, 0.0, 0.0, 0.0, 0.0, 0.0, 0.0, 0.0, 0.0, 1.6989598670479887E9, 0.0, 2023-11-02 17:17:47.047
151.0, 187500.0, 187500.0, 15216.553535050576, -28709.854627830344, 9560.578711101856, -15137.584821889976, -41012.12066556462, 18865.453465635, -0.124, 0.924, 0.354, 192.0, 0.0, 0.0, 0.0, 0.0, 0.0, 0.0, 0.0, 0.0, 0.0, 1.6989598670479994E9, 0.0, 2023-11-02 17:17:47.047
152.0, 187500.0, 187500.0, 15218.29697111809, -28734.30743626445, 9538.137559668727, -15142.23398473668, -41039.74742171138, 18838.474910077442, -0.124, 0.924, 0.354, 192.0, 0.0, 0.0, 0.0, 0.0, 0.0, 0.0, 0.0, 0.0, 0.0, 1.69895986704801E9, 0.0, 2023-11-02 17:17:47.048
153.0, 187500.0, 187500.0, 15216.933514706316, -28752.59116322889, 9532.750789254998, -15142.099874269948, -41059.32754985423, 18817.68778773401, -0.124, 0.924, 0.354, 192.0, 0.0, 0.0, 0.0, 0.0, 0.0, 0.0, 0.0, 0.0, 0.0, 1.6989598670480213E9, 0.0, 2023-11-02 17:17:47.048
154.0, 187500.0, 187500.0, 15184.791706179585, -28777.468654807646, 9509.281457576926, -15154.19216802027, -41082.05927396528, 18792.296206032777, -0.124, 0.924, 0.354, 192.0, 0.0, 0.0, 0.0, 0.0, 0.0, 0.0, 0.0, 0.0, 0.0, 1.6989598670480316E9, 0.0, 2023-11-02 17:17:47.048
155.0, 187500.0, 187500.0, 15141.876356825394, -28808.291710411515, 9477.340814750292, -15175.918063630828, -41110.31187895678, 18761.473150428912, -0.124, 0.924, 0.354, 192.0, 0.0, 0.0, 0.0, 0.0, 0.0, 0.0, 0.0, 0.0, 0.0, 1.698959867048045E9, 0.0, 2023-11-02 17:17:47.048
156.0, 187500.0, 187500.0, 15101.017367961094, -28866.875632628875, 9422.221412923505, -15213.826622227029, -41164.24663832744, 18701.838696222152, -0.128, 0.922, 0.34600000000000003, 192.0, 252.0, 0.0, 28.0, 208.0, 10.0, 208.0, 0.0, 0.0, 0.0, 1.6989598670480547E9, 0.0, 2023-11-02 17:17:47.048
157.0, 187500.0, 187500.0, 15081.124315395871, -28903.174865624296, 9388.313816584805, -15252.87511979045, -41193.23685088597, 18668.422838261467, -0.128, 0.922, 0.34600000000000003, 192.0, 0.0, 0.0, 0.0, 0.0, 0.0, 0.0, 0.0, 0.0, 0.0, 1.6989598670480654E9, 0.0, 2023-11-02 17:17:47.048
158.0, 187500.0, 187500.0, 15047.328477779447, -28926.01834845762, 9365.112705840196, -15284.100506794513, -41215.23096743, 18647.3004397512, -0.128, 0.922, 0.34600000000000003, 192.0, 0.0, 0.0, 0.0, 0.0, 0.0, 0.0, 0.0, 0.0, 0.0, 1.6989598670480757E9, 0.0, 2023-11-02 17:17:47.048
159.0, 187500.0, 187500.0, 15007.832945326918, -28946.760767312142, 9343.386810229636, -15317.941047899849, -41233.60410137226, 18627.809718586173, -0.128, 0.922, 0.34600000000000003, 192.0, 0.0, 0.0, 0.0, 0.0, 0.0, 0.0, 0.0, 0.0, 0.0, 1.698959867048086E9, 0.0, 2023-11-02 17:17:47.048
160.0, 187500.0, 187500.0, 14984.408317137757, -28992.22421553424, 9295.93405675102, -15345.634859279975, -41278.08407283832, 18581.318090119137, -0.128, 0.922, 0.34600000000000003, 192.0, 0.0, 0.0, 0.0, 0.0, 0.0, 0.0, 0.0, 0.0, 0.0, 1.6989598670480976E9, 0.0, 2023-11-02 17:17:47.048
161.0, 187500.0, 187500.0, 14962.615366293832, -29036.011282922183, 9251.074105629219, -15381.487057386286, -41322.720506515565, 18536.05580759714, -0.128, 0.922, 0.34600000000000003, 192.0, 0.0, 0.0, 0.0, 0.0, 0.0, 0.0, 0.0, 0.0, 0.0, 1.6989598670481377E9, 0.0, 2023-11-02 17:17:47.048
162.0, 187500.0, 187500.0, 14941.068284638917, -29059.391207622437, 9226.196614050463, -15417.316903748144, -41350.973111507075, 18510.8206881071, -0.128, 0.922, 0.34600000000000003, 192.0, 0.0, 0.0, 0.0, 0.0, 0.0, 0.0, 0.0, 0.0, 0.0, 1.6989598670481489E9, 0.0, 2023-11-02 17:17:47.048
163.0, 187500.0, 187500.0, 14911.876906380287, -29068.063684471093, 9212.517346443814, -15458.15354086799, -41359.57853312237, 18503.936350814864, -0.128, 0.922, 0.34600000000000003, 192.0, 0.0, 0.0, 0.0, 0.0, 0.0, 0.0, 0.0, 0.0, 0.0, 1.6989598670481603E9, 0.0, 2023-11-02 17:17:47.048
164.0, 187500.0, 187500.0, 14899.561095185412, -29087.599109125033, 9193.54071540126, -15475.96788119887, -41380.70093163263, 18481.42814414837, -0.128, 0.922, 0.34600000000000003, 192.0, 0.0, 0.0, 0.0, 0.0, 0.0, 0.0, 0.0, 0.0, 0.0, 1.6989598670481715E9, 0.0, 2023-11-02 17:17:47.048
165.0, 187500.0, 187500.0, 14880.13742925375, -29136.415319015425, 9152.346450370127, -15500.577151844163, -41429.80771420094, 18430.01913190116, -0.128, 0.922, 0.34600000000000003, 192.0, 0.0, 0.0, 0.0, 0.0, 0.0, 0.0, 0.0, 0.0, 0.0, 1.6989598670481825E9, 0.0, 2023-11-02 17:17:47.048
166.0, 187500.0, 187500.0, 14862.814827300886, -29155.05667389115, 9129.257098347796, -15531.959001059415, -41447.42088883172, 18411.824811914543, -0.126, 0.918, 0.34600000000000003, 192.0, 252.0, 16.0, 28.0, 176.0, 10.0, 208.0, 0.0, 0.0, 0.0, 1.6989598670481925E9, 0.0, 2023-11-02 17:17:47.048
167.0, 187500.0, 187500.0, 14841.737132279532, -29151.30158082266, 9119.087054620632, -15545.437102965965, -41453.00882494555, 18405.722785678245, -0.126, 0.918, 0.34600000000000003, 192.0, 0.0, 0.0, 0.0, 0.0, 0.0, 0.0, 0.0, 0.0, 0.0, 1.698959867048204E9, 0.0, 2023-11-02 17:17:47.048
168.0, 187500.0, 187500.0, 14816.412605811669, -29170.81465373214, 9090.186249039918, -15560.971565362403, -41487.274049195534, 18371.07758177252, -0.126, 0.918, 0.34600000000000003, 192.0, 0.0, 0.0, 0.0, 0.0, 0.0, 0.0, 0.0, 0.0, 0.0, 1.6989598670482144E9, 0.0, 2023-11-02 17:17:47.048
169.0, 187500.0, 187500.0, 14797.011291624463, -29211.6959943409, 9046.60034735207, -15598.32133034722, -41531.77637240605, 18327.402273106847, -0.126, 0.918, 0.34600000000000003, 192.0, 0.0, 0.0, 0.0, 0.0, 0.0, 0.0, 0.0, 0.0, 0.0, 1.6989598670482244E9, 0.0, 2023-11-02 17:17:47.048
170.0, 187500.0, 187500.0, 14798.575913736335, -29210.578407118133, 9045.773332807223, -15620.650723058072, -41534.52563697405, 18323.066034682517, -0.126, 0.918, 0.34600000000000003, 192.0, 0.0, 0.0, 0.0, 0.0, 0.0, 0.0, 0.0, 0.0, 0.0, 1.6989598670482357E9, 0.0, 2023-11-02 17:17:47.048
171.0, 187500.0, 187500.0, 14757.247538238471, -29233.06426204017, 9025.545004075171, -15644.38827566961, -41560.69952973122, 18296.154534358328, -0.126, 0.918, 0.34600000000000003, 192.0, 0.0, 0.0, 0.0, 0.0, 0.0, 0.0, 0.0, 0.0, 0.0, 1.698959867048247E9, 0.0, 2023-11-02 17:17:47.048
172.0, 187500.0, 187500.0, 14736.460415895035, -29251.77267214926, 9009.809375978635, -15666.33768872472, -41581.28548637456, 18276.395592259836, -0.126, 0.918, 0.34600000000000003, 192.0, 0.0, 0.0, 0.0, 0.0, 0.0, 0.0, 0.0, 0.0, 0.0, 1.6989598670482583E9, 0.0, 2023-11-02 17:17:47.048
173.0, 187500.0, 187500.0, 14709.794784759855, -29312.3682513676, 8946.419828703383, -15706.0567386218, -41643.55744642705, 18215.151812452295, -0.126, 0.918, 0.34600000000000003, 192.0, 0.0, 0.0, 0.0, 0.0, 0.0, 0.0, 0.0, 0.0, 0.0, 1.6989598670482695E9, 0.0, 2023-11-02 17:17:47.048
174.0, 187500.0, 187500.0, 14689.43234556107, -29333.781222555786, 8927.86788080548, -15740.903108227625, -41664.54573447058, 18194.07411743094, -0.126, 0.918, 0.34600000000000003, 192.0, 0.0, 0.0, 0.0, 0.0, 0.0, 0.0, 0.0, 0.0, 0.0, 1.6989598670482807E9, 0.0, 2023-11-02 17:17:47.048
175.0, 187500.0, 187500.0, 14663.929005137565, -29332.55187661074, 8941.34598271203, -15755.49879735694, -41667.56321997204, 18192.353033107884, -0.126, 0.918, 0.34600000000000003, 192.0, 0.0, 0.0, 0.0, 0.0, 0.0, 0.0, 0.0, 0.0, 0.0, 1.6989598670482922E9, 0.0, 2023-11-02 17:17:47.048
176.0, 187500.0, 187500.0, 14647.120493307173, -29337.737481324373, 8933.746389597225, -15774.542483632862, -41675.31927529803, 18187.793277238998, -0.124, 0.918, 0.352, 192.0, 252.0, 32.0, 28.0, 176.0, 11.0, 0.0, 0.0, 0.0, 0.0, 1.698959867048312E9, 0.0, 2023-11-02 17:17:47.048
177.0, 187500.0, 187500.0, 14653.982478854952, -29350.768548341817, 8921.72115108027, -15783.952568048546, -41689.87026093844, 18174.91867243274, -0.124, 0.918, 0.352, 192.0, 0.0, 0.0, 0.0, 0.0, 0.0, 0.0, 0.0, 0.0, 0.0, 1.698959867048354E9, 0.0, 2023-11-02 17:17:47.048
178.0, 187500.0, 187500.0, 14657.357592267705, -29358.815176345728, 8919.664790590381, -15791.038071040879, -41699.79443547659, 18163.720448460634, -0.124, 0.918, 0.352, 192.0, 0.0, 0.0, 0.0, 0.0, 0.0, 0.0, 0.0, 0.0, 0.0, 1.698959867048365E9, 0.0, 2023-11-02 17:17:47.048
179.0, 187500.0, 187500.0, 14609.36839692216, -29396.43316226401, 8882.605598283482, -15809.969998594523, -41738.84293304002, 18123.420253207714, -0.124, 0.918, 0.352, 192.0, 0.0, 0.0, 0.0, 0.0, 0.0, 0.0, 0.0, 0.0, 0.0, 1.6989598670483775E9, 0.0, 2023-11-02 17:17:47.048
180.0, 187500.0, 187500.0, 14574.678489527523, -29400.903511155073, 8879.18578138182, -15833.99812388398, -41742.73213657524, 18118.01113104953, -0.124, 0.918, 0.352, 192.0, 0.0, 0.0, 0.0, 0.0, 0.0, 0.0, 0.0, 0.0, 0.0, 1.6989598670483878E9, 0.0, 2023-11-02 17:17:47.048
181.0, 187500.0, 187500.0, 14583.261559398361, -29409.128953114625, 8875.85537145798, -15823.89513539018, -41752.321034946566, 18107.997549533553, -0.124, 0.918, 0.352, 192.0, 0.0, 0.0, 0.0, 0.0, 0.0, 0.0, 0.0, 0.0, 0.0, 1.6989598670483997E9, 0.0, 2023-11-02 17:17:47.048
182.0, 187500.0, 187500.0, 14573.672661027034, -29440.801375007795, 8843.579452464515, -15824.968019124035, -41784.44049172884, 18075.833389262367, -0.124, 0.918, 0.352, 192.0, 0.0, 0.0, 0.0, 0.0, 0.0, 0.0, 0.0, 0.0, 0.0, 1.6989598670484111E9, 0.0, 2023-11-02 17:17:47.048
183.0, 187500.0, 187500.0, 14539.54154724378, -29460.806186295296, 8815.50566142865, -15850.627821758728, -41805.093503605545, 18055.47095006358, -0.124, 0.918, 0.352, 192.0, 0.0, 0.0, 0.0, 0.0, 0.0, 0.0, 0.0, 0.0, 0.0, 1.6989598670484242E9, 0.0, 2023-11-02 17:17:47.048
184.0, 187500.0, 187500.0, 14505.924523582999, -29480.319259204778, 8794.047986751555, -15868.911548723168, -41827.109971894024, 18035.354380053806, -0.124, 0.918, 0.352, 192.0, 0.0, 0.0, 0.0, 0.0, 0.0, 0.0, 0.0, 0.0, 0.0, 1.6989598670484347E9, 0.0, 2023-11-02 17:17:47.048
185.0, 187500.0, 187500.0, 14501.700043880946, -29488.812922097793, 8785.062585480522, -15881.830857018336, -41834.7766202422, 18027.933600894645, -0.124, 0.918, 0.352, 192.0, 0.0, 0.0, 0.0, 0.0, 0.0, 0.0, 0.0, 0.0, 0.0, 1.6989598670484464E9, 0.0, 2023-11-02 17:17:47.048
186.0, 187500.0, 187500.0, 14526.711645926434, -29485.795436596327, 8793.958579773735, -15874.90181623719, -41827.13232363848, 18033.27566781946, -0.126, 0.918, 0.35000000000000003, 192.0, 252.0, 16.0, 28.0, 176.0, 10.0, 240.0, 0.0, 0.0, 0.0, 1.698959867048464E9, 0.0, 2023-11-02 17:17:47.048
187.0, 187500.0, 187500.0, 14507.533849183781, -29503.520369949387, 8774.713727797714, -15887.61995883226, -41846.3771756145, 18017.495336234017, -0.126, 0.918, 0.35000000000000003, 192.0, 0.0, 0.0, 0.0, 0.0, 0.0, 0.0, 0.0, 0.0, 0.0, 1.6989598670484772E9, 0.0, 2023-11-02 17:17:47.048
188.0, 187500.0, 187500.0, 14470.765229554801, -29509.622396185685, 8764.230759648175, -15909.52466839846, -41858.447117620366, 18008.688748918623, -0.126, 0.918, 0.35000000000000003, 192.0, 0.0, 0.0, 0.0, 0.0, 0.0, 0.0, 0.0, 0.0, 0.0, 1.6989598670484889E9, 0.0, 2023-11-02 17:17:47.048
189.0, 187500.0, 187500.0, 14467.188950441952, -29510.851742130726, 8769.997509717645, -15913.659741122692, -41862.13515545549, 18005.313635505874, -0.126, 0.918, 0.35000000000000003, 192.0, 0.0, 0.0, 0.0, 0.0, 0.0, 0.0, 0.0, 0.0, 0.0, 1.6989598670485E9, 0.0, 2023-11-02 17:17:47.048
190.0, 187500.0, 187500.0, 14465.736087052357, -29533.22583833049, 8746.30466059502, -15922.466328438084, -41888.30904821266, 17981.46432417206, -0.126, 0.918, 0.35000000000000003, 192.0, 0.0, 0.0, 0.0, 0.0, 0.0, 0.0, 0.0, 0.0, 0.0, 1.6989598670485115E9, 0.0, 2023-11-02 17:17:47.048
191.0, 187500.0, 187500.0, 14461.802180028222, -29530.051890617837, 8747.086971650955, -15925.930848828657, -41885.5374319002, 17986.51581841896, -0.126, 0.918, 0.35000000000000003, 192.0, 0.0, 0.0, 0.0, 0.0, 0.0, 0.0, 0.0, 0.0, 0.0, 1.6989598670485249E9, 0.0, 2023-11-02 17:17:47.048
192.0, 187500.0, 187500.0, 14437.058798916198, -29532.84585867475, 8746.751695484125, -15926.91432558469, -41884.35278944407, 17986.359356207773, -0.126, 0.918, 0.35000000000000003, 192.0, 0.0, 0.0, 0.0, 0.0, 0.0, 0.0, 0.0, 0.0, 0.0, 1.6989598670485504E9, 0.0, 2023-11-02 17:17:47.048
193.0, 187500.0, 187500.0, 14430.599144768614, -29526.02857661588, 8756.005317688623, -15930.691770397636, -41871.83581254909, 17993.89189408921, -0.126, 0.918, 0.35000000000000003, 192.0, 0.0, 0.0, 0.0, 0.0, 0.0, 0.0, 0.0, 0.0, 0.0, 1.6989598670485618E9, 0.0, 2023-11-02 17:17:47.048
194.0, 187500.0, 187500.0, 14454.157883424508, -29524.396899270643, 8759.782762501569, -15917.77246210247, -41865.75613805725, 17996.283530745928, -0.126, 0.918, 0.35000000000000003, 192.0, 0.0, 0.0, 0.0, 0.0, 0.0, 0.0, 0.0, 0.0, 0.0, 1.6989598670485723E9, 0.0, 2023-11-02 17:17:47.048
195.0, 187500.0, 187500.0, 14468.083020220163, -29509.421230485586, 8770.109268439921, -15910.329331198853, -41849.99815821626, 18012.354435009293, -0.126, 0.918, 0.35000000000000003, 192.0, 0.0, 0.0, 0.0, 0.0, 0.0, 0.0, 0.0, 0.0, 0.0, 1.698959867048583E9, 0.0, 2023-11-02 17:17:47.048
196.0, 187500.0, 187500.0, 14452.727371779369, -29508.12482930718, 8769.550474828538, -15903.087365995332, -41849.14879192696, 18012.823821642854, -0.126, 0.922, 0.35000000000000003, 192.0, 252.0, 16.0, 28.0, 208.0, 10.0, 240.0, 0.0, 0.0, 0.0, 1.6989598670485928E9, 0.0, 2023-11-02 17:17:47.048
197.0, 187500.0, 187500.0, 14421.725502219857, -29529.358986539723, 8740.359096569908, -15910.463441665584, -41873.22162070532, 17989.823876598344, -0.126, 0.922, 0.35000000000000003, 192.0, 0.0, 0.0, 0.0, 0.0, 0.0, 0.0, 0.0, 0.0, 0.0, 1.6989598670486116E9, 0.0, 2023-11-02 17:17:47.048
198.0, 187500.0, 187500.0, 14441.864423974088, -29520.79826841334, 8745.432942561263, -15905.054319507399, -41870.00296950376, 17995.814144112366, -0.126, 0.922, 0.35000000000000003, 192.0, 0.0, 0.0, 0.0, 0.0, 0.0, 0.0, 0.0, 0.0, 0.0, 1.6989598670486224E9, 0.0, 2023-11-02 17:17:47.048
199.0, 187500.0, 187500.0, 14464.23852017385, -29501.75458213742, 8771.897407996346, -15891.732679812038, -41854.580265829594, 18012.957932109588, -0.126, 0.922, 0.35000000000000003, 192.0, 0.0, 0.0, 0.0, 0.0, 0.0, 0.0, 0.0, 0.0, 0.0, 1.6989598670486329E9, 0.0, 2023-11-02 17:17:47.048
200.0, 187500.0, 187500.0, 14453.263813646296, -29493.909119833606, 8784.88377152488, -15891.062127478377, -41848.8805709935, 18020.825746157854, -0.126, 0.922, 0.35000000000000003, 192.0, 0.0, 0.0, 0.0, 0.0, 0.0, 0.0, 0.0, 0.0, 0.0, 1.698959867048644E9, 0.0, 2023-11-02 17:17:47.048
201.0, 187500.0, 187500.0, 14433.974258181366, -29495.898425090127, 8782.805059290537, -15902.260351450486, -41849.86404774953, 18020.62458045776, -0.126, 0.922, 0.35000000000000003, 192.0, 0.0, 0.0, 0.0, 0.0, 0.0, 0.0, 0.0, 0.0, 0.0, 1.698959867048655E9, 0.0, 2023-11-02 17:17:47.048
202.0, 187500.0, 187500.0, 14454.537863080248, -29487.78474185285, 8785.040233736067, -15896.985339759034, -41838.91169296643, 18030.325237551362, -0.126, 0.922, 0.35000000000000003, 192.0, 0.0, 0.0, 0.0, 0.0, 0.0, 0.0, 0.0, 0.0, 0.0, 1.6989598670486653E9, 0.0, 2023-11-02 17:17:47.048
203.0, 187500.0, 187500.0, 14468.06066847571, -29484.87901507366, 8794.316207685019, -15892.693804823615, -41833.10023940805, 18035.309676564895, -0.126, 0.922, 0.35000000000000003, 192.0, 0.0, 0.0, 0.0, 0.0, 0.0, 0.0, 0.0, 0.0, 0.0, 1.6989598670486777E9, 0.0, 2023-11-02 17:17:47.048
204.0, 187500.0, 187500.0, 14456.258947403307, -29473.88195680165, 8813.806928850046, -15896.359490914285, -41822.41610555841, 18047.51372903749, -0.126, 0.922, 0.35000000000000003, 192.0, 0.0, 0.0, 0.0, 0.0, 0.0, 0.0, 0.0, 0.0, 0.0, 1.69895986704869E9, 0.0, 2023-11-02 17:17:47.048
205.0, 187500.0, 187500.0, 14473.58154935617, -29428.127935901637, 8860.432667783818, -15866.877539977735, -41779.12077654848, 18088.953863257633, -0.126, 0.922, 0.35000000000000003, 192.0, 0.0, 0.0, 0.0, 0.0, 0.0, 0.0, 0.0, 0.0, 0.0, 1.6989598670487013E9, 0.0, 2023-11-02 17:17:47.048
206.0, 187500.0, 187500.0, 14489.54069489726, -29419.16488637506, 8862.399621295885, -15840.882461176214, -41776.21504976929, 18089.847933035842, -0.122, 0.922, 0.34600000000000003, 192.0, 252.0, 48.0, 28.0, 208.0, 10.0, 208.0, 0.0, 0.0, 0.0, 1.6989598670487115E9, 0.0, 2023-11-02 17:17:47.048
207.0, 187500.0, 187500.0, 14518.48620396688, -29399.942386143495, 8875.006005168678, -15827.739635436492, -41764.88271533045, 18106.54468614396, -0.122, 0.922, 0.34600000000000003, 192.0, 0.0, 0.0, 0.0, 0.0, 0.0, 0.0, 0.0, 0.0, 0.0, 1.6989598670487456E9, 0.0, 2023-11-02 17:17:47.048
208.0, 187500.0, 187500.0, 14517.189802788473, -29390.845226150184, 8877.196476125298, -15825.526812735417, -41761.820526340074, 18114.837183336876, -0.122, 0.922, 0.34600000000000003, 192.0, 0.0, 0.0, 0.0, 0.0, 0.0, 0.0, 0.0, 0.0, 0.0, 1.698959867048756E9, 0.0, 2023-11-02 17:17:47.048
