%OpenBCI Raw EEG Data
%Number of channels = 8
%Sample Rate = 250 Hz
%Board = OpenBCI_GUI$BoardCytonSerial
Sample Index, EXG Channel 0, EXG Channel 1, EXG Channel 2, EXG Channel 3, EXG Channel 4, EXG Channel 5, EXG Channel 6, EXG Channel 7, Accel Channel 0, Accel Channel 1, Accel Channel 2, Other, Other, Other, Other, Other, Other, Other, Analog Channel 0, Analog Channel 1, Analog Channel 2, Timestamp, Other, Timestamp (Formatted)
25.0, -7051.774209949281, -16010.085166702887, -76742.25589540672, -95203.05337942284, -77001.51377934382, -38063.52324050942, -65089.73271724376, -72135.20373525664, 0.0, 0.0, 0.0, 192.0, 0.0, 0.0, 0.0, 0.0, 0.0, 0.0, 0.0, 0.0, 0.0, 1.696277452729113E9, 0.0, 2023-10-02 16:10:52.729
26.0, -7050.4331052819625, -16011.426271370206, -76744.33460764105, -95206.89787946915, -77008.44282012497, -38059.11994685173, -65088.190446876346, -72136.83541260188, 0.0, 0.0, 0.0, 192.0, 0.0, 0.0, 0.0, 0.0, 0.0, 0.0, 0.0, 0.0, 0.0, 1.69627745272913E9, 0.0, 2023-10-02 16:10:52.729
27.0, -7053.003555894323, -16013.326169648906, -76755.84575603555, -95206.00380969094, -77008.73339280288, -38067.8371271893, -65091.27498761118, -72142.08807254888, 0.0, 0.0, 0.0, 192.0, 0.0, 0.0, 0.0, 0.0, 0.0, 0.0, 0.0, 0.0, 0.0, 1.69627745272914E9, 0.0, 2023-10-02 16:10:52.729
28.0, -7053.674108227981, -16011.470974859116, -76749.87784026598, -95201.33229509978, -77005.13476194558, -38070.49698477948, -65088.77159223218, -72144.9267440947, 0.0, 0.0, 0.0, 192.0, 0.0, 0.0, 0.0, 0.0, 0.0, 0.0, 0.0, 0.0, 0.0, 1.6962774527291496E9, 0.0, 2023-10-02 16:10:52.729
29.0, -7049.047297125733, -16006.9782742236, -76740.49010759474, -95201.64521952215, -77010.38742189258, -38064.70788296555, -65089.106868399016, -72154.5826976994, 0.0, 0.0, 0.0, 192.0, 0.0, 0.0, 0.0, 0.0, 0.0, 0.0, 0.0, 0.0, 0.0, 1.696277452729159E9, 0.0, 2023-10-02 16:10:52.729
30.0, -7044.644003468037, -16005.011320711534, -76740.95949422831, -95204.10391141224, -77009.85098002566, -38066.7865951999, -65092.48198181176, -72164.86450014883, 0.0, 0.0, 0.0, 192.0, 0.0, 0.0, 0.0, 0.0, 0.0, 0.0, 0.0, 0.0, 0.0, 1.6962774527291684E9, 0.0, 2023-10-02 16:10:52.729
31.0, -7045.247500568331, -16004.16195442223, -76745.5639535861, -95199.90178345464, -77006.2747009128, -38077.761301727456, -65093.44310682334, -72165.24447980458, 0.0, 0.0, 0.0, 192.0, 0.0, 0.0, 0.0, 0.0, 0.0, 0.0, 0.0, 0.0, 0.0, 1.6962774527291782E9, 0.0, 2023-10-02 16:10:52.729
32.0, -7048.10852385861, -16004.184306166686, -76744.46871810779, -95198.96301018751, -77007.14641894656, -38081.40463607367, -65096.907627213914, -72168.95486938416, 0.0, 0.0, 0.0, 192.0, 0.0, 0.0, 0.0, 0.0, 0.0, 0.0, 0.0, 0.0, 0.0, 1.6962774527291875E9, 0.0, 2023-10-02 16:10:52.729
33.0, -7039.547805732228, -15998.171686908208, -76724.88858996495, -95194.82793746328, -76998.71981128691, -38073.29095283639, -65089.2633306102, -72162.74108442558, 0.0, 0.0, 0.0, 192.0, 0.0, 0.0, 0.0, 0.0, 0.0, 0.0, 0.0, 0.0, 0.0, 1.6962774527291973E9, 0.0, 2023-10-02 16:10:52.729
34.0, -7034.786884163247, -15996.763527007524, -76719.4571160623, -95199.09712065425, -77002.69842179996, -38063.52324050942, -65091.72202250028, -72160.77413091352, -0.122, 1.008, 0.008, 192.0, 252.0, 48.0, 31.0, 128.0, 0.0, 64.0, 0.0, 0.0, 0.0, 1.6962774527292068E9, 0.0, 2023-10-02 16:10:52.729
35.0, -7038.117294087088, -16001.077413687399, -76724.28509286465, -95197.15251888664, -77004.03952646727, -38071.525165024424, -65100.193333648844, -72160.46120649115, -0.122, 1.008, 0.008, 192.0, 0.0, 0.0, 0.0, 0.0, 0.0, 0.0, 0.0, 0.0, 0.0, 1.696277452729218E9, 0.0, 2023-10-02 16:10:52.729
36.0, -7049.986070392856, -16010.845126014368, -76730.78945050115, -95203.0757311673, -77016.60120685115, -38083.37158958573, -65109.93869423136, -72166.87615714982, -0.122, 1.008, 0.008, 192.0, 0.0, 0.0, 0.0, 0.0, 0.0, 0.0, 0.0, 0.0, 0.0, 1.6962774527292278E9, 0.0, 2023-10-02 16:10:52.729
37.0, -7048.689669214448, -16009.973407980611, -76723.12280215297, -95206.33908585776, -77020.06572724173, -38077.35897032726, -65112.68795879936, -72167.97139262813, -0.122, 1.008, 0.008, 192.0, 0.0, 0.0, 0.0, 0.0, 0.0, 0.0, 0.0, 0.0, 0.0, 1.6962774527292376E9, 0.0, 2023-10-02 16:10:52.729
38.0, -7035.457436496907, -16000.205695653642, -76712.77394447017, -95197.55485028683, -77006.54292184627, -38067.121871366726, -65099.299263870635, -72153.17453779871, -0.122, 1.008, 0.008, 192.0, 0.0, 0.0, 0.0, 0.0, 0.0, 0.0, 0.0, 0.0, 0.0, 1.696277452729247E9, 0.0, 2023-10-02 16:10:52.729
39.0, -7036.977355119867, -16002.999663710556, -76716.08200264955, -95195.23026886348, -76998.60805256464, -38073.44741504758, -65096.54999930263, -72148.45831971864, -0.122, 1.008, 0.008, 192.0, 0.0, 0.0, 0.0, 0.0, 0.0, 0.0, 0.0, 0.0, 0.0, 1.6962774527292569E9, 0.0, 2023-10-02 16:10:52.729
40.0, -7048.466151769895, -16011.35921613684, -76723.56983704207, -95201.98049568899, -77000.19502642096, -38080.041179661894, -65100.79683074914, -72147.05015981795, -0.122, 1.008, 0.008, 192.0, 0.0, 0.0, 0.0, 0.0, 0.0, 0.0, 0.0, 0.0, 0.0, 1.6962774527292664E9, 0.0, 2023-10-02 16:10:52.729
41.0, -7050.790733193247, -16013.393224882273, -76723.48043006426, -95207.23315563597, -77006.29705265726, -38077.98481917201, -65103.38963310595, -72148.7265406521, -0.122, 1.008, 0.008, 192.0, 0.0, 0.0, 0.0, 0.0, 0.0, 0.0, 0.0, 0.0, 0.0, 1.6962774527293732E9, 0.0, 2023-10-02 16:10:52.729
42.0, -7040.5759859771715, -16003.334939877384, -76713.39979331491, -95203.81333873431, -77005.13476194558, -38069.424101045624, -65096.907627213914, -72145.530241195, -0.122, 1.008, 0.008, 192.0, 0.0, 0.0, 0.0, 0.0, 0.0, 0.0, 0.0, 0.0, 0.0, 1.6962774527293832E9, 0.0, 2023-10-02 16:10:52.729
43.0, -7036.262099297297, -15999.579846808892, -76717.7583834837, -95199.41004507663, -77004.79948577876, -38067.0324643889, -65097.913455714406, -72142.11042429334, -0.122, 1.008, 0.008, 192.0, 0.0, 0.0, 0.0, 0.0, 0.0, 0.0, 0.0, 0.0, 0.0, 1.6962774527293935E9, 0.0, 2023-10-02 16:10:52.729
44.0, -7036.6420789530375, -15999.512791575527, -76716.41727881639, -95190.93873392807, -77000.5750060767, -38068.57473475632, -65096.75116500273, -72133.23678174458, -0.132, 1.008, 0.01, 192.0, 251.0, 224.0, 31.0, 128.0, 0.0, 80.0, 0.0, 0.0, 0.0, 1.696277452729403E9, 0.0, 2023-10-02 16:10:52.729
45.0, -7041.3359452886525, -16005.21248641163, -76713.89153169293, -95198.04658866485, -77008.59928233616, -38072.709807480554, -65096.92997895837, -72136.72365387961, -0.132, 1.008, 0.01, 192.0, 0.0, 0.0, 0.0, 0.0, 0.0, 0.0, 0.0, 0.0, 0.0, 1.6962774527294135E9, 0.0, 2023-10-02 16:10:52.729
46.0, -7037.603203964616, -16008.229971913097, -76711.72341248077, -95201.68992301106, -77013.47196262742, -38067.457147533554, -65095.18654289086, -72143.36212198283, -0.132, 1.008, 0.01, 192.0, 0.0, 0.0, 0.0, 0.0, 0.0, 0.0, 0.0, 0.0, 0.0, 1.6962774527294233E9, 0.0, 2023-10-02 16:10:52.729
47.0, -7030.048314338722, -16004.117250933321, -76714.6067875155, -95192.70452174003, -77006.16294219052, -38066.47367077752, -65088.07868815407, -72140.83637485938, -0.132, 1.008, 0.01, 192.0, 0.0, 0.0, 0.0, 0.0, 0.0, 0.0, 0.0, 0.0, 0.0, 1.6962774527294347E9, 0.0, 2023-10-02 16:10:52.729
48.0, -7035.2339190523535, -16004.83250675589, -76719.9041509514, -95187.25069609293, -76999.77034327631, -38075.213202859544, -65083.854208452016, -72139.24940100305, -0.132, 1.008, 0.01, 192.0, 0.0, 0.0, 0.0, 0.0, 0.0, 0.0, 0.0, 0.0, 0.0, 1.6962774527294445E9, 0.0, 2023-10-02 16:10:52.729
49.0, -7033.468131240384, -16000.585675309381, -76709.86821769098, -95178.51116401091, -76991.2766803833, -38073.827394703316, -65074.98056590326, -72130.88984857677, -0.132, 1.008, 0.01, 192.0, 0.0, 0.0, 0.0, 0.0, 0.0, 0.0, 0.0, 0.0, 0.0, 1.6962774527294543E9, 0.0, 2023-10-02 16:10:52.729
50.0, -7034.004573107311, -16001.099765431854, -76705.39786879992, -95185.84253619226, -77001.15615143254, -38067.613609744745, -65076.54518801513, -72134.28731373398, -0.132, 1.008, 0.01, 192.0, 0.0, 0.0, 0.0, 0.0, 0.0, 0.0, 0.0, 0.0, 0.0, 1.696277452729464E9, 0.0, 2023-10-02 16:10:52.729
51.0, -7029.15424456051, -15994.327186861896, -76708.92944442385, -95183.69676872453, -76999.9268054875, -38071.21224060205, -65076.96987115978, -72142.02101731552, -0.132, 1.008, 0.01, 192.0, 0.0, 0.0, 0.0, 0.0, 0.0, 0.0, 0.0, 0.0, 0.0, 1.6962774527294734E9, 0.0, 2023-10-02 16:10:52.729
52.0, -7032.507006228806, -15993.947207206156, -76711.76811596968, -95180.70163496753, -76996.95402347494, -38079.01299941695, -65077.10398162651, -72147.18427028469, -0.132, 1.008, 0.01, 192.0, 0.0, 0.0, 0.0, 0.0, 0.0, 0.0, 0.0, 0.0, 0.0, 1.6962774527294831E9, 0.0, 2023-10-02 16:10:52.729
53.0, -7040.844206910635, -15999.44573634216, -76710.94110142483, -95185.86488793671, -76997.84809325315, -38084.77974948642, -65080.99318516174, -72155.76734015552, -0.132, 1.008, 0.01, 192.0, 0.0, 0.0, 0.0, 0.0, 0.0, 0.0, 0.0, 0.0, 0.0, 1.696277452729493E9, 0.0, 2023-10-02 16:10:52.729
54.0, -7034.362201018596, -15991.533218804983, -76702.38038329844, -95188.1671176156, -76996.95402347494, -38079.772958728434, -65080.50144678372, -72156.81787214492, -0.132, 1.002, 0.01, 192.0, 251.0, 224.0, 31.0, 80.0, 0.0, 80.0, 0.0, 0.0, 0.0, 1.6962774527295024E9, 0.0, 2023-10-02 16:10:52.729
55.0, -7028.707209671404, -15988.672195514704, -76703.49797052122, -95190.15642287213, -77000.28443339877, -38077.5377842829, -65086.37995557547, -72158.56130821245, -0.132, 1.002, 0.01, 192.0, 0.0, 0.0, 0.0, 0.0, 0.0, 0.0, 0.0, 0.0, 0.0, 1.6962774527295125E9, 0.0, 2023-10-02 16:10:52.729
56.0, -7034.451607996418, -15996.49530607406, -76714.27151134868, -95194.80558571883, -77004.86654101212, -38081.315229095846, -65092.794906234136, -72166.22795656061, -0.132, 1.002, 0.01, 192.0, 0.0, 0.0, 0.0, 0.0, 0.0, 0.0, 0.0, 0.0, 0.0, 1.6962774527295508E9, 0.0, 2023-10-02 16:10:52.729
57.0, -7042.1629598334985, -16004.318416633418, -76722.69811900832, -95199.47710030999, -77008.88985501407, -38091.97701120103, -65102.719080772295, -72172.57585198592, -0.132, 1.002, 0.01, 192.0, 0.0, 0.0, 0.0, 0.0, 0.0, 0.0, 0.0, 0.0, 0.0, 1.6962774527295609E9, 0.0, 2023-10-02 16:10:52.729
58.0, -7040.151302832521, -16001.189172409675, -76718.87597070646, -95200.30411485484, -77014.34368066117, -38084.13154889722, -65104.97660696228, -72170.58654672939, -0.132, 1.002, 0.01, 192.0, 0.0, 0.0, 0.0, 0.0, 0.0, 0.0, 0.0, 0.0, 0.0, 1.6962774527295704E9, 0.0, 2023-10-02 16:10:52.729
59.0, -7029.333058516152, -15991.153239149242, -76715.81378171609, -95192.88333569567, -77000.88793049907, -38075.77199647093, -65090.33621434405, -72160.30474427996, -0.132, 1.002, 0.01, 192.0, 0.0, 0.0, 0.0, 0.0, 0.0, 0.0, 0.0, 0.0, 0.0, 1.69627745272958E9, 0.0, 2023-10-02 16:10:52.729
60.0, -7030.5400527167385, -15992.471992072105, -76719.32300559556, -95191.43047230608, -76997.93750023097, -38081.49404305149, -65084.189484618844, -72158.27073553452, -0.132, 1.002, 0.01, 192.0, 0.0, 0.0, 0.0, 0.0, 0.0, 0.0, 0.0, 0.0, 0.0, 1.6962774527295897E9, 0.0, 2023-10-02 16:10:52.729
61.0, -7038.5196254872835, -16000.988006709578, -76724.73212775376, -95194.78323397438, -76996.5293403303, -38090.65825827816, -65086.87169395348, -72156.4825959781, -0.132, 1.002, 0.01, 192.0, 0.0, 0.0, 0.0, 0.0, 0.0, 0.0, 0.0, 0.0, 0.0, 1.6962774527295995E9, 0.0, 2023-10-02 16:10:52.729
62.0, -7032.48465448435, -15995.623588040304, -76715.0091189157, -95192.8162804623, -76992.9754129619, -38083.058665163364, -65081.060240395105, -72146.89369760678, -0.132, 1.002, 0.01, 192.0, 0.0, 0.0, 0.0, 0.0, 0.0, 0.0, 0.0, 0.0, 0.0, 1.696277452729609E9, 0.0, 2023-10-02 16:10:52.729
63.0, -7029.19894804942, -15995.556532806939, -76718.83126721755, -95195.99022817495, -76997.53516883077, -38076.911935438155, -65081.484923539756, -72144.09972954985, -0.132, 1.002, 0.01, 192.0, 0.0, 0.0, 0.0, 0.0, 0.0, 0.0, 0.0, 0.0, 0.0, 1.6962774527296185E9, 0.0, 2023-10-02 16:10:52.729
64.0, -7032.462302739895, -15997.702300274648, -76725.5144388097, -95198.73949274296, -77000.75382003235, -38079.705903495065, -65082.803676462616, -72141.99866557105, -0.128, 0.998, 0.018000000000000002, 192.0, 252.0, 0.0, 31.0, 48.0, 0.0, 144.0, 0.0, 0.0, 0.0, 1.696277452729628E9, 0.0, 2023-10-02 16:10:52.729
65.0, -7033.848110896124, -15997.657596785737, -76728.53192431116, -95194.44795780754, -76993.84713099565, -38086.21026113156, -65083.54128402964, -72141.46222370413, -0.128, 0.998, 0.018000000000000002, 192.0, 0.0, 0.0, 0.0, 0.0, 0.0, 0.0, 0.0, 0.0, 0.0, 1.6962774527296383E9, 0.0, 2023-10-02 16:10:52.729
66.0, -7029.221299793876, -15989.230989126087, -76710.15879036889, -95185.06022513632, -76987.14160765905, -38071.4357580466, -65075.62876649246, -72132.20860149963, -0.128, 0.998, 0.018000000000000002, 192.0, 0.0, 0.0, 0.0, 0.0, 0.0, 0.0, 0.0, 0.0, 0.0, 1.696277452729648E9, 0.0, 2023-10-02 16:10:52.729
67.0, -7029.713038171893, -15991.64497752726, -76708.21418860128, -95193.97857117398, -76999.30095664275, -38060.282237563406, -65080.18852236134, -72135.33784572338, -0.128, 0.998, 0.018000000000000002, 192.0, 0.0, 0.0, 0.0, 0.0, 0.0, 0.0, 0.0, 0.0, 0.0, 1.696277452729658E9, 0.0, 2023-10-02 16:10:52.729
68.0, -7030.495349227828, -15993.83544848388, -76721.98286318575, -95192.88333569567, -76999.65858455402, -38067.747720211475, -65078.22156884928, -72137.66242714673, -0.128, 0.998, 0.018000000000000002, 192.0, 0.0, 0.0, 0.0, 0.0, 0.0, 0.0, 0.0, 0.0, 0.0, 1.696277452729669E9, 0.0, 2023-10-02 16:10:52.729
69.0, -7034.161035318499, -15996.45060258515, -76721.66993876339, -95185.4178530476, -76999.0774391982, -38072.30747608036, -65070.86784492348, -72134.35436896734, -0.128, 0.998, 0.018000000000000002, 192.0, 0.0, 0.0, 0.0, 0.0, 0.0, 0.0, 0.0, 0.0, 0.0, 1.6962774527296789E9, 0.0, 2023-10-02 16:10:52.729
70.0, -7037.670259197982, -15999.088108430877, -76718.853618962, -95190.11171938322, -77004.66537531202, -38070.3852260572, -65072.43246703535, -72138.66825564722, -0.128, 0.998, 0.018000000000000002, 192.0, 0.0, 0.0, 0.0, 0.0, 0.0, 0.0, 0.0, 0.0, 0.0, 1.6962774527296884E9, 0.0, 2023-10-02 16:10:52.729
71.0, -7025.957945103401, -15990.460335071128, -76710.44936304682, -95186.62484724818, -77001.04439271026, -38057.68943520659, -65071.87367342397, -72129.28052297598, -0.128, 0.998, 0.018000000000000002, 192.0, 0.0, 0.0, 0.0, 0.0, 0.0, 0.0, 0.0, 0.0, 0.0, 1.6962774527297072E9, 0.0, 2023-10-02 16:10:52.729
72.0, -7028.930727115957, -15996.718823518613, -76722.07227016357, -95196.86194620872, -77003.57013983371, -38059.90225790766, -65083.80950496311, -72132.58858115537, -0.128, 0.998, 0.018000000000000002, 192.0, 0.0, 0.0, 0.0, 0.0, 0.0, 0.0, 0.0, 0.0, 0.0, 1.6962774527297168E9, 0.0, 2023-10-02 16:10:52.729
73.0, -7035.502139985817, -16003.603160810848, -76734.23161914726, -95200.95231544404, -77005.47003811241, -38077.02369416043, -65088.97275793228, -72138.44473820267, -0.128, 0.998, 0.018000000000000002, 192.0, 0.0, 0.0, 0.0, 0.0, 0.0, 0.0, 0.0, 0.0, 0.0, 1.6962774527297263E9, 0.0, 2023-10-02 16:10:52.729
74.0, -7032.618764951082, -15997.50113457455, -76724.6650725204, -95194.11268164072, -77002.0725729552, -38077.02369416043, -65084.323595085574, -72135.024921301, -0.128, 0.996, 0.012, 192.0, 252.0, 0.0, 31.0, 32.0, 0.0, 96.0, 0.0, 0.0, 0.0, 1.696277452729736E9, 0.0, 2023-10-02 16:10:52.729
75.0, -7031.232956794854, -15997.791707252469, -76717.53486603915, -95195.9678764305, -77004.30774740073, -38070.474633035024, -65087.69870849833, -72140.0764155479, -0.128, 0.996, 0.012, 192.0, 0.0, 0.0, 0.0, 0.0, 0.0, 0.0, 0.0, 0.0, 0.0, 1.6962774527297463E9, 0.0, 2023-10-02 16:10:52.729
76.0, -7022.314610757186, -15991.153239149242, -76718.89832245091, -95185.70842572552, -76998.83157000919, -38068.641789989684, -65088.88335095446, -72139.04823530295, -0.128, 0.996, 0.012, 192.0, 0.0, 0.0, 0.0, 0.0, 0.0, 0.0, 0.0, 0.0, 0.0, 1.6962774527297559E9, 0.0, 2023-10-02 16:10:52.729
77.0, -7028.170767804476, -15997.702300274648, -76722.42989807486, -95185.46255653651, -77003.16780843351, -38073.60387725876, -65092.88431321196, -72143.11625279383, -0.128, 0.996, 0.012, 192.0, 0.0, 0.0, 0.0, 0.0, 0.0, 0.0, 0.0, 0.0, 0.0, 1.6962774527297654E9, 0.0, 2023-10-02 16:10:52.729
78.0, -7031.098846328122, -15999.423384597707, -76721.93815969685, -95181.59570474573, -76997.08813394167, -38076.82252846033, -65089.53155154367, -72144.30089524995, -0.128, 0.996, 0.012, 192.0, 0.0, 0.0, 0.0, 0.0, 0.0, 0.0, 0.0, 0.0, 0.0, 1.6962774527297747E9, 0.0, 2023-10-02 16:10:52.729
79.0, -7027.656677682005, -15996.07062292941, -76709.59999675752, -95181.19337334555, -76997.4234101085, -38064.84199343229, -65083.89891194092, -72142.53510743799, -0.128, 0.996, 0.012, 192.0, 0.0, 0.0, 0.0, 0.0, 0.0, 0.0, 0.0, 0.0, 0.0, 1.6962774527297847E9, 0.0, 2023-10-02 16:10:52.729
80.0, -7027.321401515174, -15995.958864207134, -76708.19183685683, -95187.67537923758, -77006.54292184627, -38059.566981740834, -65089.64331026594, -72146.15609003975, -0.128, 0.996, 0.012, 192.0, 0.0, 0.0, 0.0, 0.0, 0.0, 0.0, 0.0, 0.0, 0.0, 1.6962774527297945E9, 0.0, 2023-10-02 16:10:52.729
81.0, -7033.311669029197, -16001.636207298781, -76722.7651742417, -95194.78323397438, -77008.08519221368, -38069.58056325681, -65096.17001964689, -72152.41457848724, -0.128, 0.996, 0.012, 192.0, 0.0, 0.0, 0.0, 0.0, 0.0, 0.0, 0.0, 0.0, 0.0, 1.6962774527298043E9, 0.0, 2023-10-02 16:10:52.729
82.0, -7034.876291141069, -15999.02105319751, -76724.97799694276, -95190.75991997242, -76997.2222444084, -38075.14614762618, -65092.660795767406, -72145.35142723935, -0.128, 0.996, 0.012, 192.0, 0.0, 0.0, 0.0, 0.0, 0.0, 0.0, 0.0, 0.0, 0.0, 1.6962774527298138E9, 0.0, 2023-10-02 16:10:52.729
83.0, -7037.089113842144, -15999.848067742358, -76720.19472362933, -95197.95718168703, -77010.83445678168, -38065.55724925485, -65095.946502202336, -72147.51954645151, -0.128, 0.996, 0.012, 192.0, 0.0, 0.0, 0.0, 0.0, 0.0, 0.0, 0.0, 0.0, 0.0, 1.6962774527298236E9, 0.0, 2023-10-02 16:10:52.729
84.0, -7032.797578906725, -15994.953035706645, -76725.5591422986, -95197.0184084199, -77012.08615447118, -38064.61847598773, -65099.03104293717, -72152.01224708704, -0.132, 0.998, 0.01, 192.0, 251.0, 224.0, 31.0, 48.0, 0.0, 80.0, 0.0, 0.0, 0.0, 1.6962774527298331E9, 0.0, 2023-10-02 16:10:52.729
85.0, -7038.430218509462, -15998.126983419299, -76733.62812204697, -95198.20305087604, -77017.38351790709, -38073.06743539184, -65102.04852843864, -72155.05208433296, -0.132, 0.998, 0.01, 192.0, 0.0, 0.0, 0.0, 0.0, 0.0, 0.0, 0.0, 0.0, 0.0, 1.6962774527298434E9, 0.0, 2023-10-02 16:10:52.729
86.0, -7039.883081899057, -16001.50209683205, -76730.85650573451, -95191.81045196182, -77011.30384341524, -38078.789481972395, -65098.42754583688, -72149.15122379675, -0.132, 0.998, 0.01, 192.0, 0.0, 0.0, 0.0, 0.0, 0.0, 0.0, 0.0, 0.0, 0.0, 1.696277452729853E9, 0.0, 2023-10-02 16:10:52.729
87.0, -7035.5244917302725, -16001.300931131951, -76722.04991841911, -95188.39063506016, -77011.5273608598, -38071.70397898006, -65101.802659249624, -72145.15026153925, -0.132, 0.998, 0.01, 192.0, 0.0, 0.0, 0.0, 0.0, 0.0, 0.0, 0.0, 0.0, 0.0, 1.6962774527298906E9, 0.0, 2023-10-02 16:10:52.729
88.0, -7028.215471293387, -15996.16002990723, -76716.59609277203, -95182.42271929058, -77004.46420961192, -38059.45522301856, -65097.93580745886, -72138.73531088058, -0.132, 0.998, 0.01, 192.0, 0.0, 0.0, 0.0, 0.0, 0.0, 0.0, 0.0, 0.0, 0.0, 1.6962774527299004E9, 0.0, 2023-10-02 16:10:52.729
89.0, -7033.244613795831, -16000.317454375918, -76725.17916264286, -95182.13214661267, -77006.94525324646, -38057.331807295304, -65094.02425217918, -72138.51179343603, -0.132, 0.998, 0.01, 192.0, 0.0, 0.0, 0.0, 0.0, 0.0, 0.0, 0.0, 0.0, 0.0, 1.6962774527299116E9, 0.0, 2023-10-02 16:10:52.729
90.0, -7036.3515062751185, -16001.010358454032, -76725.73795625425, -95177.66179772161, -77001.29026189927, -38064.037330631894, -65094.42658357938, -72141.01518881503, -0.132, 0.998, 0.01, 192.0, 0.0, 0.0, 0.0, 0.0, 0.0, 0.0, 0.0, 0.0, 0.0, 1.696277452729921E9, 0.0, 2023-10-02 16:10:52.729
91.0, -7040.017192365789, -16006.084204445388, -76717.5572177836, -95185.68607398107, -77003.79365727826, -38060.95278989706, -65094.85126672403, -72141.50692719304, -0.132, 0.998, 0.01, 192.0, 0.0, 0.0, 0.0, 0.0, 0.0, 0.0, 0.0, 0.0, 0.0, 1.6962774527299309E9, 0.0, 2023-10-02 16:10:52.729
92.0, -7036.910299886501, -16008.922875991211, -76715.63496776044, -95186.64719899264, -77007.10171545765, -38052.637940959685, -65094.02425217918, -72138.8247178584, -0.132, 0.998, 0.01, 192.0, 0.0, 0.0, 0.0, 0.0, 0.0, 0.0, 0.0, 0.0, 0.0, 1.696277452729941E9, 0.0, 2023-10-02 16:10:52.729
93.0, -7037.15616907551, -16011.605085325848, -76725.40268008741, -95185.68607398107, -77008.73339280288, -38054.15785958265, -65100.32744411557, -72136.03074980149, -0.132, 0.998, 0.01, 192.0, 0.0, 0.0, 0.0, 0.0, 0.0, 0.0, 0.0, 0.0, 0.0, 1.6962774527299504E9, 0.0, 2023-10-02 16:10:52.729
94.0, -7037.647907453526, -16008.587599824383, -76728.08488942205, -95183.18267860207, -77004.9782997344, -38068.038292889396, -65102.294397627644, -72137.99770331357, -0.13, 0.996, 0.006, 192.0, 251.0, 240.0, 31.0, 32.0, 0.0, 48.0, 0.0, 0.0, 0.0, 1.69627745272996E9, 0.0, 2023-10-02 16:10:52.729
95.0, -7042.4535325114175, -16010.822774269913, -76725.06740392059, -95189.06118739382, -77010.85680852614, -38071.86044119125, -65100.66272028241, -72142.84803186035, -0.13, 0.996, 0.006, 192.0, 0.0, 0.0, 0.0, 0.0, 0.0, 0.0, 0.0, 0.0, 0.0, 1.6962774527299705E9, 0.0, 2023-10-02 16:10:52.729
96.0, -7029.713038171893, -15999.490439831072, -76709.28707233514, -95182.17685010158, -77002.16197993302, -38060.63986547469, -65087.3634323315, -72134.08614803388, -0.13, 0.996, 0.006, 192.0, 0.0, 0.0, 0.0, 0.0, 0.0, 0.0, 0.0, 0.0, 0.0, 1.69627745272998E9, 0.0, 2023-10-02 16:10:52.729
97.0, -7025.86853812558, -15996.718823518613, -76707.34247056753, -95180.70163496753, -77002.89958750005, -38056.281275305904, -65081.14964737292, -72132.23095324408, -0.13, 0.996, 0.006, 192.0, 0.0, 0.0, 0.0, 0.0, 0.0, 0.0, 0.0, 0.0, 0.0, 1.6962774527299895E9, 0.0, 2023-10-02 16:10:52.729
98.0, -7029.288355027242, -16001.59150380987, -76713.01981365918, -95176.3653965432, -77001.06674445471, -38065.06551087684, -65075.673469981375, -72132.09684277736, -0.13, 0.996, 0.006, 192.0, 0.0, 0.0, 0.0, 0.0, 0.0, 0.0, 0.0, 0.0, 0.0, 1.6962774527299993E9, 0.0, 2023-10-02 16:10:52.729
99.0, -7029.266003282786, -16003.066718943921, -76708.25889209019, -95175.22545757597, -77000.88793049907, -38063.47853702051, -65076.96987115978, -72133.14737476676, -0.13, 0.996, 0.006, 192.0, 0.0, 0.0, 0.0, 0.0, 0.0, 0.0, 0.0, 0.0, 0.0, 1.6962774527300093E9, 0.0, 2023-10-02 16:10:52.730
100.0, -7021.48759621234, -15995.73534676258, -76702.22392108726, -95169.70457669551, -76994.4282763515, -38051.67681594811, -65074.24295833623, -72127.31356946392, -0.13, 0.996, 0.006, 192.0, 0.0, 0.0, 0.0, 0.0, 0.0, 0.0, 0.0, 0.0, 0.0, 1.6962774527300189E9, 0.0, 2023-10-02 16:10:52.730
101.0, -7023.901584613513, -15996.249436885053, -76706.73897346723, -95174.53255349786, -76994.83060775169, -38044.79247865587, -65069.102057111515, -72124.76547059602, -0.13, 0.996, 0.006, 192.0, 0.0, 0.0, 0.0, 0.0, 0.0, 0.0, 0.0, 0.0, 0.0, 1.6962774527300284E9, 0.0, 2023-10-02 16:10:52.730
102.0, -7036.82089290868, -16009.101689946854, -76723.14515389742, -95182.40036754613, -77001.7820002773, -38053.66612120463, -65075.27113858118, -72132.81209859993, -0.13, 0.996, 0.006, 192.0, 0.0, 0.0, 0.0, 0.0, 0.0, 0.0, 0.0, 0.0, 0.0, 1.696277452730049E9, 0.0, 2023-10-02 16:10:52.730
103.0, -7043.772285434281, -16017.21537318413, -76721.1558486409, -95185.08257688077, -77005.38063113458, -38060.52810675241, -65079.40621130541, -72135.33784572338, -0.13, 0.996, 0.006, 192.0, 0.0, 0.0, 0.0, 0.0, 0.0, 0.0, 0.0, 0.0, 0.0, 1.696277452730059E9, 0.0, 2023-10-02 16:10:52.730
104.0, -7037.759666175803, -16007.291198645975, -76713.28803459264, -95185.82018444779, -77008.55457884724, -38059.67874046311, -65082.62486250697, -72138.48944169158, -0.126, 0.994, 0.008, 192.0, 252.0, 16.0, 31.0, 16.0, 0.0, 64.0, 0.0, 0.0, 0.0, 1.6962774527300687E9, 0.0, 2023-10-02 16:10:52.730
105.0, -7028.573099204672, -15998.574018308404, -76708.9517961683, -95181.19337334555, -77006.25234916835, -38055.61072297224, -65078.26627233819, -72135.47195619011, -0.126, 0.994, 0.008, 192.0, 0.0, 0.0, 0.0, 0.0, 0.0, 0.0, 0.0, 0.0, 0.0, 1.6962774527300792E9, 0.0, 2023-10-02 16:10:52.730
106.0, -7029.400113749518, -15998.30579737494, -76718.22777011726, -95177.48298376596, -77001.08909619917, -38063.25501957596, -65082.62486250697, -72137.59537191337, -0.126, 0.994, 0.008, 192.0, 0.0, 0.0, 0.0, 0.0, 0.0, 0.0, 0.0, 0.0, 0.0, 1.696277452730089E9, 0.0, 2023-10-02 16:10:52.730
107.0, -7026.807311392702, -15990.460335071128, -76713.48920029274, -95168.07289935029, -76991.81312225021, -38063.0315021314, -65078.89212118294, -72129.81696484292, -0.126, 0.994, 0.008, 192.0, 0.0, 0.0, 0.0, 0.0, 0.0, 0.0, 0.0, 0.0, 0.0, 1.6962774527300987E9, 0.0, 2023-10-02 16:10:52.730
108.0, -7030.160073060999, -15991.197942638153, -76711.20932235829, -95176.3206930543, -77002.4302008665, -38056.348330539266, -65087.02815616467, -72138.84706960287, -0.126, 0.994, 0.008, 192.0, 0.0, 0.0, 0.0, 0.0, 0.0, 0.0, 0.0, 0.0, 0.0, 1.6962774527301085E9, 0.0, 2023-10-02 16:10:52.730
109.0, -7025.689724169937, -15990.102707159844, -76714.24915960421, -95177.88531516616, -77008.55457884724, -38049.06166184684, -65095.63357777996, -72143.54093593848, -0.126, 0.994, 0.008, 192.0, 0.0, 0.0, 0.0, 0.0, 0.0, 0.0, 0.0, 0.0, 0.0, 1.6962774527301185E9, 0.0, 2023-10-02 16:10:52.730
110.0, -7030.405942250007, -15998.64107354177, -76727.03435743265, -95179.5169925114, -77007.14641894656, -38058.40469102916, -65107.41294710791, -72150.46997671961, -0.126, 0.994, 0.008, 192.0, 0.0, 0.0, 0.0, 0.0, 0.0, 0.0, 0.0, 0.0, 0.0, 1.6962774527301283E9, 0.0, 2023-10-02 16:10:52.730
111.0, -7036.038581852745, -16006.151259678754, -76727.12376441047, -95176.7677279434, -77002.20668342194, -38065.49019402149, -65108.038795952656, -72147.8771743628, -0.126, 0.994, 0.008, 192.0, 0.0, 0.0, 0.0, 0.0, 0.0, 0.0, 0.0, 0.0, 0.0, 1.6962774527301397E9, 0.0, 2023-10-02 16:10:52.730
112.0, -7036.150340575021, -16009.079338202399, -76714.0032904152, -95178.39940528863, -76998.71981128691, -38062.360949797745, -65106.429470351875, -72145.88786910629, -0.126, 0.994, 0.008, 192.0, 0.0, 0.0, 0.0, 0.0, 0.0, 0.0, 0.0, 0.0, 0.0, 1.6962774527301495E9, 0.0, 2023-10-02 16:10:52.730
113.0, -7037.782017920258, -16011.26980915902, -76711.72341248077, -95186.87071643719, -77002.89958750005, -38054.02374911591, -65109.55871457562, -72146.8266423734, -0.126, 0.994, 0.008, 192.0, 0.0, 0.0, 0.0, 0.0, 0.0, 0.0, 0.0, 0.0, 0.0, 1.6962774527301595E9, 0.0, 2023-10-02 16:10:52.730
114.0, -7037.804369664714, -16009.12404169131, -76720.73116549625, -95187.85419319323, -77001.5808345772, -38059.075243362815, -65112.97853147728, -72147.76541564053, -0.116, 1.0, 0.01, 192.0, 252.0, 96.0, 31.0, 64.0, 0.0, 80.0, 0.0, 0.0, 0.0, 1.69627745273017E9, 0.0, 2023-10-02 16:10:52.730
115.0, -7035.256270796808, -16007.671178301714, -76715.14322938243, -95177.90766691061, -76987.65569778153, -38067.47949927801, -65095.3653568465, -72135.76252886803, -0.116, 1.0, 0.01, 192.0, 0.0, 0.0, 0.0, 0.0, 0.0, 0.0, 0.0, 0.0, 0.0, 1.696277452730181E9, 0.0, 2023-10-02 16:10:52.730
116.0, -7043.459361011906, -16016.701283061659, -76704.61555774398, -95189.53057402738, -76996.9763752194, -38060.99749338597, -65093.95719694581, -72139.38351146979, -0.116, 1.0, 0.01, 192.0, 0.0, 0.0, 0.0, 0.0, 0.0, 0.0, 0.0, 0.0, 0.0, 1.6962774527301915E9, 0.0, 2023-10-02 16:10:52.730
117.0, -7041.671221455482, -16017.684759817692, -76708.59416825703, -95196.7725392309, -77008.93455850298, -38058.181173584606, -65106.496525585244, -72151.8334331314, -0.116, 1.0, 0.01, 192.0, 0.0, 0.0, 0.0, 0.0, 0.0, 0.0, 0.0, 0.0, 0.0, 1.6962774527302115E9, 0.0, 2023-10-02 16:10:52.730
118.0, -7038.184349320454, -16017.751815051059, -76713.84682820403, -95190.4693472945, -77010.11920095912, -38062.31624630884, -65106.07184244059, -72149.28533426349, -0.116, 1.0, 0.01, 192.0, 0.0, 0.0, 0.0, 0.0, 0.0, 0.0, 0.0, 0.0, 0.0, 1.696277452730224E9, 0.0, 2023-10-02 16:10:52.730
119.0, -7037.20087256442, -16016.298951661463, -76709.71175547979, -95178.60057098872, -76993.84713099565, -38061.26571431944, -65098.56165630361, -72135.82958410139, -0.116, 1.0, 0.01, 192.0, 0.0, 0.0, 0.0, 0.0, 0.0, 0.0, 0.0, 0.0, 0.0, 1.696277452730234E9, 0.0, 2023-10-02 16:10:52.730
120.0, -7038.676087698471, -16014.35434989385, -76702.38038329844, -95177.28181806587, -76994.85295949614, -38056.03540611689, -65095.14183940195, -72132.96856081112, -0.116, 1.0, 0.01, 192.0, 0.0, 0.0, 0.0, 0.0, 0.0, 0.0, 0.0, 0.0, 0.0, 1.6962774527302444E9, 0.0, 2023-10-02 16:10:52.730
121.0, -7037.044410353233, -16013.706149304648, -76698.71469720778, -95181.43924253456, -76998.54099733126, -38046.67002519012, -65097.60053129203, -72136.20956375713, -0.116, 1.0, 0.01, 192.0, 0.0, 0.0, 0.0, 0.0, 0.0, 0.0, 0.0, 0.0, 0.0, 1.6962774527302556E9, 0.0, 2023-10-02 16:10:52.730
122.0, -7031.836453895146, -16008.967579480122, -76704.41439204388, -95180.3663588007, -76998.09396244216, -38047.16176356814, -65095.87944696897, -72137.88594459128, -0.116, 1.0, 0.01, 192.0, 0.0, 0.0, 0.0, 0.0, 0.0, 0.0, 0.0, 0.0, 0.0, 1.6962774527302659E9, 0.0, 2023-10-02 16:10:52.730
123.0, -7034.384552763052, -16010.509849847538, -76704.19087459933, -95174.7113674535, -76994.31651762921, -38057.130641595206, -65090.895007955434, -72134.1755550117, -0.116, 1.0, 0.01, 192.0, 0.0, 0.0, 0.0, 0.0, 0.0, 0.0, 0.0, 0.0, 0.0, 1.696277452730276E9, 0.0, 2023-10-02 16:10:52.730
124.0, -7040.263061554798, -16019.36114065184, -76701.26279607568, -95176.92419015458, -76999.83739850967, -38057.756490439955, -65090.64913876643, -72136.38837771278, -0.122, 1.0, 0.006, 192.0, 252.0, 48.0, 31.0, 64.0, 0.0, 48.0, 0.0, 0.0, 0.0, 1.696277452730286E9, 0.0, 2023-10-02 16:10:52.730
125.0, -7039.279584798764, -16020.92576276371, -76697.77592394066, -95182.33331231277, -77005.02300322331, -38050.33571128079, -65089.82212422158, -72138.24357250257, -0.122, 1.0, 0.006, 192.0, 0.0, 0.0, 0.0, 0.0, 0.0, 0.0, 0.0, 0.0, 0.0, 1.696277452730297E9, 0.0, 2023-10-02 16:10:52.730
126.0, -7041.403000522018, -16020.657541830247, -76702.93917690983, -95188.50239378243, -77006.98995673537, -38051.20742931455, -65094.00190043473, -72139.74113938108, -0.122, 1.0, 0.006, 192.0, 0.0, 0.0, 0.0, 0.0, 0.0, 0.0, 0.0, 0.0, 0.0, 1.6962774527303083E9, 0.0, 2023-10-02 16:10:52.730
127.0, -7043.660526712004, -16021.21633544163, -76710.67288049137, -95185.03787339186, -77002.13962818857, -38062.87503992022, -65094.80656323511, -72139.6293806588, -0.122, 1.0, 0.006, 192.0, 0.0, 0.0, 0.0, 0.0, 0.0, 0.0, 0.0, 0.0, 0.0, 1.6962774527303185E9, 0.0, 2023-10-02 16:10:52.730
128.0, -7044.3310790456635, -16021.842184286379, -76703.11799086547, -95183.07091987978, -76998.29512814226, -38060.90808640815, -65089.15157188792, -72135.65077014574, -0.122, 1.0, 0.006, 192.0, 0.0, 0.0, 0.0, 0.0, 0.0, 0.0, 0.0, 0.0, 0.0, 1.6962774527303283E9, 0.0, 2023-10-02 16:10:52.730
129.0, -7033.624593451571, -16009.660483558237, -76687.29295579111, -95175.20310583152, -76989.28737512678, -38045.46303098954, -65075.807580448105, -72129.54874390946, -0.122, 1.0, 0.006, 192.0, 0.0, 0.0, 0.0, 0.0, 0.0, 0.0, 0.0, 0.0, 0.0, 1.6962774527303393E9, 0.0, 2023-10-02 16:10:52.730
130.0, -7032.864634140091, -16009.168745180219, -76687.67293544686, -95179.62875123367, -76990.94140421646, -38035.36004249573, -65070.912548412394, -72130.26399973202, -0.122, 1.0, 0.006, 192.0, 0.0, 0.0, 0.0, 0.0, 0.0, 0.0, 0.0, 0.0, 0.0, 1.6962774527303503E9, 0.0, 2023-10-02 16:10:52.730
131.0, -7042.498236000328, -16019.204678440652, -76706.89543567842, -95186.15546061462, -76995.38940136306, -38052.59323747078, -65076.74635371523, -72135.04727304546, -0.122, 1.0, 0.006, 192.0, 0.0, 0.0, 0.0, 0.0, 0.0, 0.0, 0.0, 0.0, 0.0, 1.6962774527303607E9, 0.0, 2023-10-02 16:10:52.730
132.0, -7051.505989015817, -16022.088053475387, -76712.43866830334, -95192.32454208429, -77003.34662238916, -38066.94305741108, -65081.887254939946, -72140.23287775909, -0.122, 1.0, 0.006, 192.0, 0.0, 0.0, 0.0, 0.0, 0.0, 0.0, 0.0, 0.0, 0.0, 1.6962774527303874E9, 0.0, 2023-10-02 16:10:52.730
133.0, -7042.565291233694, -16013.952018493655, -76702.53684550963, -95190.02231240539, -76997.55752057524, -38066.63013298871, -65083.004842162714, -72135.31549397892, -0.126, 1.0, 0.01, 192.0, 252.0, 16.0, 31.0, 64.0, 0.0, 80.0, 0.0, 0.0, 0.0, 1.6962774527303977E9, 0.0, 2023-10-02 16:10:52.730
134.0, -7035.7033056859145, -16011.292160903475, -76701.84394143152, -95192.48100429548, -76999.7256397874, -38069.04412138988, -65084.99414741924, -72136.99187481307, -0.126, 1.0, 0.01, 192.0, 0.0, 0.0, 0.0, 0.0, 0.0, 0.0, 0.0, 0.0, 0.0, 1.6962774527304091E9, 0.0, 2023-10-02 16:10:52.730
135.0, -7033.781055662758, -16008.341730635373, -76706.13547636694, -95188.72591122698, -76994.74120077386, -38079.907069195164, -65083.295414840635, -72137.14833702426, -0.126, 1.0, 0.01, 192.0, 0.0, 0.0, 0.0, 0.0, 0.0, 0.0, 0.0, 0.0, 0.0, 1.69627745273042E9, 0.0, 2023-10-02 16:10:52.730
136.0, -7039.860730154602, -16015.047253971965, -76704.01206064368, -95193.03979790685, -76995.99289846336, -38090.85942397826, -65084.79298171914, -72144.25619176104, -0.126, 1.0, 0.01, 192.0, 0.0, 0.0, 0.0, 0.0, 0.0, 0.0, 0.0, 0.0, 0.0, 1.6962774527304306E9, 0.0, 2023-10-02 16:10:52.730
137.0, -7040.061895854699, -16016.053082472454, -76702.89447342092, -95197.57720203129, -77005.71590730142, -38088.847766977284, -65091.52085680018, -72150.89465986427, -0.126, 1.0, 0.01, 192.0, 0.0, 0.0, 0.0, 0.0, 0.0, 0.0, 0.0, 0.0, 0.0, 1.6962774527304425E9, 0.0, 2023-10-02 16:10:52.730
138.0, -7033.624593451571, -16011.26980915902, -76704.90613042189, -95197.13016714218, -77009.40394513654, -38082.67868550762, -65094.27012136819, -72152.32517150941, -0.126, 1.0, 0.01, 192.0, 0.0, 0.0, 0.0, 0.0, 0.0, 0.0, 0.0, 0.0, 0.0, 1.696277452730454E9, 0.0, 2023-10-02 16:10:52.730
139.0, -7034.652773696515, -16015.091957460876, -76708.19183685683, -95191.20695486153, -76998.0716106977, -38086.903165209675, -65098.248731881235, -72150.69349416417, -0.126, 1.0, 0.01, 192.0, 0.0, 0.0, 0.0, 0.0, 0.0, 0.0, 0.0, 0.0, 0.0, 1.6962774527304654E9, 0.0, 2023-10-02 16:10:52.730
140.0, -7038.430218509462, -16018.735291807092, -76710.69523223583, -95181.75216695693, -76992.41661935051, -38093.116950168245, -65091.52085680018, -72149.24063077458, -0.126, 1.0, 0.01, 192.0, 0.0, 0.0, 0.0, 0.0, 0.0, 0.0, 0.0, 0.0, 0.0, 1.6962774527304764E9, 0.0, 2023-10-02 16:10:52.730
141.0, -7035.926823130468, -16018.109442962343, -76697.53005475165, -95172.90087615262, -76989.77911350479, -38081.7399122405, -65083.1613043739, -72139.27175274752, -0.126, 1.0, 0.01, 192.0, 0.0, 0.0, 0.0, 0.0, 0.0, 0.0, 0.0, 0.0, 0.0, 1.696277452730488E9, 0.0, 2023-10-02 16:10:52.730
142.0, -7030.0706660831775, -16013.326169648906, -76681.43679874383, -95171.00097787392, -76989.71205827143, -38062.96444689804, -65075.517007770184, -72130.44281368767, -0.126, 1.0, 0.01, 192.0, 0.0, 0.0, 0.0, 0.0, 0.0, 0.0, 0.0, 0.0, 0.0, 1.6962774527305007E9, 0.0, 2023-10-02 16:10:52.730
143.0, -7027.142587559532, -16012.588562081883, -76684.58839471202, -95168.1623063281, -76991.47784608339, -38056.549496239364, -65077.349850815524, -72125.5254299075, -0.126, 1.0, 0.016, 192.0, 252.0, 16.0, 31.0, 64.0, 0.0, 128.0, 0.0, 0.0, 0.0, 1.6962774527305148E9, 0.0, 2023-10-02 16:10:52.730
144.0, -7032.305840528708, -16016.83539352839, -76692.6573744604, -95165.99418711594, -76987.83451173718, -38062.092728864285, -65078.08745838255, -72125.36896769631, -0.126, 1.0, 0.016, 192.0, 0.0, 0.0, 0.0, 0.0, 0.0, 0.0, 0.0, 0.0, 0.0, 1.6962774527305267E9, 0.0, 2023-10-02 16:10:52.730
145.0, -7030.204776549909, -16012.07447195941, -76680.85565338799, -95160.42860274657, -76981.79954073424, -38056.705958450555, -65066.01751637668, -72119.60221762685, -0.126, 1.0, 0.016, 192.0, 0.0, 0.0, 0.0, 0.0, 0.0, 0.0, 0.0, 0.0, 0.0, 1.6962774527305367E9, 0.0, 2023-10-02 16:10:52.730
146.0, -7025.443854980928, -16007.604123068348, -76675.46888297425, -95165.39069001564, -76989.64500303805, -38043.987815855486, -65063.51412099769, -72118.39522342625, -0.126, 1.0, 0.016, 192.0, 0.0, 0.0, 0.0, 0.0, 0.0, 0.0, 0.0, 0.0, 0.0, 1.6962774527305524E9, 0.0, 2023-10-02 16:10:52.730
147.0, -7029.735389916348, -16013.996721982567, -76689.21520581427, -95174.6666639646, -77000.35148863215, -38047.18411531259, -65073.63946123594, -72123.24555197306, -0.126, 1.0, 0.016, 192.0, 0.0, 0.0, 0.0, 0.0, 0.0, 0.0, 0.0, 0.0, 0.0, 1.6962774527307067E9, 0.0, 2023-10-02 16:10:52.730
0.0, 0.0, 0.0, 0.0, 0.0, 0.0, 0.0, 0.0, 0.0, -0.126, 1.02, 0.01, 192.0, 252.0, 16.0, 31.0, 224.0, 0.0, 80.0, 0.0, 0.0, 0.0, 1.6962774528297515E9, 0.0, 2023-10-02 16:10:52.829
1.0, -7711.351837080937, -17040.679400048186, -76484.0038399701, -95315.97439241105, -76916.86772309158, -37842.7327087799, -64968.85448322946, -72219.76038453107, -0.126, 1.02, 0.01, 192.0, 0.0, 0.0, 0.0, 0.0, 0.0, 0.0, 0.0, 0.0, 0.0, 1.696277453313605E9, 0.0, 2023-10-02 16:10:53.313
2.0, -7702.411139298813, -17032.118681921802, -76485.47905510415, -95314.0521423879, -76919.68404289294, -37841.61512155714, -64978.19751241178, -72221.70498629869, -0.126, 1.02, 0.01, 192.0, 0.0, 0.0, 0.0, 0.0, 0.0, 0.0, 0.0, 0.0, 0.0, 1.6962774533136914E9, 0.0, 2023-10-02 16:10:53.313
3.0, -7703.618133499401, -17032.006923199526, -76501.86288378989, -95310.43115978614, -76918.81232485919, -37858.848316532174, -64994.82721028653, -72226.89059101231, -0.126, 1.02, 0.01, 192.0, 0.0, 0.0, 0.0, 0.0, 0.0, 0.0, 0.0, 0.0, 0.0, 1.696277453313708E9, 0.0, 2023-10-02 16:10:53.313
4.0, -7696.867906673898, -17025.524917307488, -76498.7559913106, -95299.25528755848, -76919.14760102602, -37860.54704911078, -65003.36557666845, -72221.7943932765, -0.126, 1.02, 0.01, 192.0, 0.0, 0.0, 0.0, 0.0, 0.0, 0.0, 0.0, 0.0, 0.0, 1.6962774533137228E9, 0.0, 2023-10-02 16:10:53.313
5.0, -7686.0273106130735, -17015.734853236063, -76480.96400272417, -95292.59446771079, -76919.16995277048, -37847.65009256006, -65016.37429194144, -72220.11801244236, -0.126, 1.02, 0.01, 192.0, 0.0, 0.0, 0.0, 0.0, 0.0, 0.0, 0.0, 0.0, 0.0, 1.6962774533137617E9, 0.0, 2023-10-02 16:10:53.313
6.0, -7677.667758186789, -17009.45401304412, -76480.78518876854, -95286.82771764132, -76920.3992987155, -37843.626778558115, -65030.59000141502, -72222.86727701036, -0.126, 1.02, 0.01, 192.0, 0.0, 0.0, 0.0, 0.0, 0.0, 0.0, 0.0, 0.0, 0.0, 1.6962774533137753E9, 0.0, 2023-10-02 16:10:53.313
7.0, -7682.965121622697, -17016.718329992098, -76488.07185746096, -95292.23683979952, -76925.0037580733, -37847.113650693136, -65034.88153635044, -72228.45521312418, -0.126, 1.02, 0.01, 192.0, 0.0, 0.0, 0.0, 0.0, 0.0, 0.0, 0.0, 0.0, 0.0, 1.6962774533137867E9, 0.0, 2023-10-02 16:10:53.313
8.0, -7686.764918180099, -17017.008902670015, -76489.77059003957, -95293.55559272238, -76925.38373772905, -37854.40031938557, -65034.210984016776, -72233.03732073752, -0.134, 1.024, 0.018000000000000002, 192.0, 251.0, 208.0, 32.0, 0.0, 0.0, 144.0, 0.0, 0.0, 0.0, 1.696277453313798E9, 0.0, 2023-10-02 16:10:53.313
9.0, -7676.170191308283, -17010.057510144416, -76472.17976715324, -95288.48174673102, -76917.4041649585, -37845.72784253691, -65026.56668741306, -72225.70594855618, -0.134, 1.024, 0.018000000000000002, 192.0, 0.0, 0.0, 0.0, 0.0, 0.0, 0.0, 0.0, 0.0, 0.0, 1.6962774533138137E9, 0.0, 2023-10-02 16:10:53.313
10.0, -7670.9398831057415, -17008.582295010365, -76466.21185138368, -95292.43800549961, -76916.84537134712, -37833.121458664114, -65025.739672868214, -72222.55435258799, -0.134, 1.024, 0.018000000000000002, 192.0, 0.0, 0.0, 0.0, 0.0, 0.0, 0.0, 0.0, 0.0, 0.0, 1.696277453313835E9, 0.0, 2023-10-02 16:10:53.313
11.0, -7677.533647720057, -17014.013768913006, -76478.1476829228, -95297.26598230195, -76915.63837714653, -37835.49074357638, -65026.387873457425, -72221.41441362076, -0.134, 1.024, 0.018000000000000002, 192.0, 0.0, 0.0, 0.0, 0.0, 0.0, 0.0, 0.0, 0.0, 0.0, 1.6962774533138463E9, 0.0, 2023-10-02 16:10:53.313
12.0, -7683.881543145364, -17019.42289107119, -76484.04854345901, -95291.90156363268, -76903.99311828532, -37839.849333745165, -65014.20617272928, -72210.57381755994, -0.134, 1.024, 0.018000000000000002, 192.0, 0.0, 0.0, 0.0, 0.0, 0.0, 0.0, 0.0, 0.0, 0.0, 1.6962774533138635E9, 0.0, 2023-10-02 16:10:53.313
13.0, -7685.021482112585, -17020.65223701623, -76470.65984853028, -95289.08524383132, -76894.38186816954, -37826.147714394065, -65001.46567838975, -72194.50291329657, -0.134, 1.024, 0.018000000000000002, 192.0, 0.0, 0.0, 0.0, 0.0, 0.0, 0.0, 0.0, 0.0, 0.0, 1.6962774533138769E9, 0.0, 2023-10-02 16:10:53.313
14.0, -7675.18671455225, -17009.923399677682, -76462.99320018211, -95285.86659262975, -76884.88237677603, -37807.126379862595, -64991.5415038516, -72179.19196834469, -0.134, 1.024, 0.018000000000000002, 192.0, 0.0, 0.0, 0.0, 0.0, 0.0, 0.0, 0.0, 0.0, 0.0, 1.6962774533138912E9, 0.0, 2023-10-02 16:10:53.313
15.0, -7684.865019901397, -17020.831050971872, -76479.22056665666, -95292.90739213317, -76883.89890002, -37804.891205417065, -64985.17125668183, -72175.6827444652, -0.134, 1.024, 0.018000000000000002, 192.0, 0.0, 0.0, 0.0, 0.0, 0.0, 0.0, 0.0, 0.0, 0.0, 1.696277453314114E9, 0.0, 2023-10-02 16:10:53.314
16.0, -7699.550116008534, -17034.487966834065, -76498.19719769922, -95302.20571782658, -76882.60249884159, -37811.93200492048, -64979.80683801256, -72175.4368752762, -0.134, 1.024, 0.018000000000000002, 192.0, 0.0, 0.0, 0.0, 0.0, 0.0, 0.0, 0.0, 0.0, 0.0, 1.6962774533141284E9, 0.0, 2023-10-02 16:10:53.314
17.0, -7696.979665396174, -17032.27514413299, -76487.82598827196, -95300.35052303679, -76873.05830395917, -37800.063228614716, -64961.791331981585, -72163.32222978142, -0.134, 1.016, 0.028, 192.0, 251.0, 208.0, 31.0, 192.0, 0.0, 224.0, 0.0, 0.0, 0.0, 1.6962774533141437E9, 0.0, 2023-10-02 16:10:53.314
18.0, -7703.707540477221, -17039.65121980324, -76486.99897372711, -95310.45351153059, -76876.18754818292, -37790.45197849894, -64962.95362269326, -72164.23865130408, -0.134, 1.016, 0.028, 192.0, 0.0, 0.0, 0.0, 0.0, 0.0, 0.0, 0.0, 0.0, 0.0, 1.69627745331416E9, 0.0, 2023-10-02 16:10:53.314
19.0, -7702.947581165741, -17040.1206064368, -76491.89400576282, -95308.1512818517, -76871.98542022532, -37787.45684474192, -64964.04885817157, -72162.27169779202, -0.134, 1.016, 0.028, 192.0, 0.0, 0.0, 0.0, 0.0, 0.0, 0.0, 0.0, 0.0, 0.0, 1.6962774533141758E9, 0.0, 2023-10-02 16:10:53.314
20.0, -7702.634656743367, -17043.4733681051, -76499.33713666644, -95306.6984184621, -76863.87173698805, -37795.48112100138, -64959.86908195843, -72158.62836344581, -0.134, 1.016, 0.028, 192.0, 0.0, 0.0, 0.0, 0.0, 0.0, 0.0, 0.0, 0.0, 0.0, 1.6962774533141923E9, 0.0, 2023-10-02 16:10:53.314
21.0, -7706.255639345127, -17046.04381871746, -76497.19136919873, -95308.5983167408, -76860.20605089737, -37799.25856581433, -64959.891433702884, -72157.9354593677, -0.134, 1.016, 0.028, 192.0, 0.0, 0.0, 0.0, 0.0, 0.0, 0.0, 0.0, 0.0, 0.0, 1.6962774533142068E9, 0.0, 2023-10-02 16:10:53.314
22.0, -7710.2118981137155, -17045.149748939246, -76495.42558138676, -95316.30966857787, -76863.06707418765, -37792.19541456645, -64965.81464598354, -72162.33875302538, -0.134, 1.016, 0.028, 192.0, 0.0, 0.0, 0.0, 0.0, 0.0, 0.0, 0.0, 0.0, 0.0, 1.6962774533142283E9, 0.0, 2023-10-02 16:10:53.314
23.0, -7713.162328381816, -17048.100179207348, -76506.57910186995, -95323.50693029248, -76869.70554229087, -37794.78821692327, -64972.207244897756, -72172.97818338612, -0.134, 1.016, 0.028, 192.0, 0.0, 0.0, 0.0, 0.0, 0.0, 0.0, 0.0, 0.0, 0.0, 1.696277453314242E9, 0.0, 2023-10-02 16:10:53.314
24.0, -7705.853307944931, -17040.1206064368, -76511.58589262795, -95314.67799123265, -76857.5908967961, -37807.95339440744, -64971.916672219835, -72179.79546544499, -0.134, 1.016, 0.028, 192.0, 0.0, 0.0, 0.0, 0.0, 0.0, 0.0, 0.0, 0.0, 0.0, 1.6962774533142571E9, 0.0, 2023-10-02 16:10:53.314
25.0, -7706.054473645029, -17037.684266291173, -76513.1058112509, -95318.34367732331, -76852.71821650484, -37821.185627124985, -64981.2373496577, -72193.541788285, -0.134, 1.016, 0.028, 192.0, 0.0, 0.0, 0.0, 0.0, 0.0, 0.0, 0.0, 0.0, 0.0, 1.6962774533142695E9, 0.0, 2023-10-02 16:10:53.314
26.0, -7702.902877676831, -17033.236269144567, -76513.23992171764, -95327.12791289424, -76864.81051025516, -37829.701641762455, -65001.778602812126, -72211.42318384924, -0.134, 1.016, 0.028, 192.0, 0.0, 0.0, 0.0, 0.0, 0.0, 0.0, 0.0, 0.0, 0.0, 1.6962774533142858E9, 0.0, 2023-10-02 16:10:53.314
27.0, -7698.790156697054, -17032.632772044275, -76522.1135642664, -95330.61478502928, -76868.2973823902, -37837.54710406627, -65024.95736181228, -72223.40371887729, -0.14200000000000002, 0.996, 0.038, 192.0, 251.0, 144.0, 31.0, 32.0, 1.0, 48.0, 0.0, 0.0, 0.0, 1.6962774533143115E9, 0.0, 2023-10-02 16:10:53.314
28.0, -7703.394616054848, -17032.409254599723, -76534.27291325008, -95332.6487937747, -76871.27016440275, -37852.276903662314, -65036.937896840325, -72231.20447769218, -0.14200000000000002, 0.996, 0.038, 192.0, 0.0, 0.0, 0.0, 0.0, 0.0, 0.0, 0.0, 0.0, 0.0, 1.6962774533143277E9, 0.0, 2023-10-02 16:10:53.314
29.0, -7703.171098610294, -17030.487004576564, -76532.41771846029, -95327.32907859434, -76871.82895801413, -37854.98146474141, -65042.034094576135, -72231.76327130357, -0.14200000000000002, 0.996, 0.038, 192.0, 0.0, 0.0, 0.0, 0.0, 0.0, 0.0, 0.0, 0.0, 0.0, 1.6962774533143408E9, 0.0, 2023-10-02 16:10:53.314
30.0, -7697.113775862906, -17023.245039373047, -76519.5654653985, -95321.94230818062, -76872.00777196977, -37845.12434543662, -65044.001048088205, -72225.21421017816, -0.14200000000000002, 0.996, 0.038, 192.0, 0.0, 0.0, 0.0, 0.0, 0.0, 0.0, 0.0, 0.0, 0.0, 1.6962774533143892E9, 0.0, 2023-10-02 16:10:53.314
31.0, -7693.962179894707, -17022.999170184037, -76517.2632357196, -95327.55259603889, -76881.1943389409, -37834.931949964994, -65049.186652801836, -72225.795355534, -0.14200000000000002, 0.996, 0.038, 192.0, 0.0, 0.0, 0.0, 0.0, 0.0, 0.0, 0.0, 0.0, 0.0, 1.6962774533144028E9, 0.0, 2023-10-02 16:10:53.314
32.0, -7694.699787461733, -17028.095367919846, -76523.63348288936, -95325.51858729347, -76876.00873422727, -37840.69870003447, -65050.97479235826, -72222.04026246551, -0.14200000000000002, 0.996, 0.038, 192.0, 0.0, 0.0, 0.0, 0.0, 0.0, 0.0, 0.0, 0.0, 0.0, 1.6962774533144176E9, 0.0, 2023-10-02 16:10:53.314
33.0, -7699.013674141607, -17032.588068555364, -76522.1135642664, -95317.56136626737, -76864.85521374407, -37842.95622622445, -65042.90581260989, -72213.7924687615, -0.14200000000000002, 0.996, 0.038, 192.0, 0.0, 0.0, 0.0, 0.0, 0.0, 0.0, 0.0, 0.0, 0.0, 1.6962774533144355E9, 0.0, 2023-10-02 16:10:53.314
34.0, -7687.7260431916775, -17014.59491426884, -76498.59952909942, -95304.1950230831, -76851.86885021554, -37817.6764032455, -65019.97292279875, -72195.91107319726, -0.14200000000000002, 0.996, 0.038, 192.0, 0.0, 0.0, 0.0, 0.0, 0.0, 0.0, 0.0, 0.0, 0.0, 1.6962774533144495E9, 0.0, 2023-10-02 16:10:53.314
35.0, -7684.887371645853, -17012.091518889847, -76492.78807554103, -95310.11823536376, -76854.50635606126, -37799.05740011423, -65012.28392270612, -72194.5923202744, -0.14200000000000002, 0.996, 0.038, 192.0, 0.0, 0.0, 0.0, 0.0, 0.0, 0.0, 0.0, 0.0, 0.0, 1.6962774533144653E9, 0.0, 2023-10-02 16:10:53.314
36.0, -7683.9709501231855, -17014.550210779933, -76498.37601165487, -95304.01620912745, -76847.59966702458, -37799.61619372561, -65000.45984988927, -72186.7915614595, -0.14200000000000002, 0.996, 0.038, 192.0, 0.0, 0.0, 0.0, 0.0, 0.0, 0.0, 0.0, 0.0, 0.0, 1.6962774533144789E9, 0.0, 2023-10-02 16:10:53.314
37.0, -7691.101156604428, -17017.813565470406, -76504.52274138007, -95304.46324401656, -76842.21289661084, -37804.71239146142, -64992.32381490753, -72176.82268343243, -0.15, 0.984, 0.046, 192.0, 251.0, 80.0, 30.0, 192.0, 1.0, 112.0, 0.0, 0.0, 0.0, 1.6962774533144908E9, 0.0, 2023-10-02 16:10:53.314
38.0, -7687.211953069205, -17015.109004391314, -76494.33034590846, -95296.05898810137, -76827.32663480361, -37787.88152788657, -64971.782561753105, -72157.5331279675, -0.15, 0.984, 0.046, 192.0, 0.0, 0.0, 0.0, 0.0, 0.0, 0.0, 0.0, 0.0, 0.0, 1.6962774533145125E9, 0.0, 2023-10-02 16:10:53.314
39.0, -7683.255694300616, -17012.963236923606, -76487.89304350532, -95294.78493866742, -76824.9797016358, -37760.165364762, -64958.39386682438, -72138.53414518049, -0.15, 0.984, 0.046, 192.0, 0.0, 0.0, 0.0, 0.0, 0.0, 0.0, 0.0, 0.0, 0.0, 1.696277453314526E9, 0.0, 2023-10-02 16:10:53.314
40.0, -7691.481136260169, -17023.22268762859, -76503.71807857968, -95304.41854052765, -76832.78046045071, -37755.38209144856, -64965.09939016097, -72138.02005505802, -0.15, 0.984, 0.046, 192.0, 0.0, 0.0, 0.0, 0.0, 0.0, 0.0, 0.0, 0.0, 0.0, 1.6962774533145397E9, 0.0, 2023-10-02 16:10:53.314
41.0, -7694.073938616984, -17026.463690574612, -76514.7598403406, -95303.747988194, -76827.34898654807, -37763.5628299192, -64961.992497681684, -72138.06475854693, -0.15, 0.984, 0.046, 192.0, 0.0, 0.0, 0.0, 0.0, 0.0, 0.0, 0.0, 0.0, 0.0, 1.6962774533145568E9, 0.0, 2023-10-02 16:10:53.314
42.0, -7701.606476498423, -17034.398559856243, -76525.10869802341, -95311.66050573117, -76832.95927440636, -37772.727045145875, -64966.9322332063, -72145.21731677263, -0.15, 0.984, 0.046, 192.0, 0.0, 0.0, 0.0, 0.0, 0.0, 0.0, 0.0, 0.0, 0.0, 1.6962774533145766E9, 0.0, 2023-10-02 16:10:53.314
43.0, -7690.028272870573, -17025.591972540853, -76515.72096535219, -95307.7489504515, -76830.47823077181, -37768.681379399466, -64962.685401759794, -72143.18330802719, -0.15, 0.984, 0.046, 192.0, 0.0, 0.0, 0.0, 0.0, 0.0, 0.0, 0.0, 0.0, 0.0, 1.6962774533145947E9, 0.0, 2023-10-02 16:10:53.314
44.0, -7690.7211769486885, -17027.38011209728, -76525.04164279005, -95316.30966857787, -76838.18958260889, -37776.72800740338, -64969.45798032975, -72151.96754359812, -0.15, 0.984, 0.046, 192.0, 0.0, 0.0, 0.0, 0.0, 0.0, 0.0, 0.0, 0.0, 0.0, 1.696277453314611E9, 0.0, 2023-10-02 16:10:53.314
45.0, -7698.924267163786, -17032.588068555364, -76546.58872444496, -95321.20470061358, -76845.87858270152, -37799.16915883651, -64980.298576390574, -72164.43981700418, -0.15, 0.984, 0.046, 192.0, 0.0, 0.0, 0.0, 0.0, 0.0, 0.0, 0.0, 0.0, 0.0, 1.696277453314667E9, 0.0, 2023-10-02 16:10:53.314
46.0, -7696.085595617962, -17033.102158677837, -76539.1679452858, -95320.42238955766, -76842.10113788857, -37812.714315976424, -64981.572625824534, -72172.19587233018, -0.15, 0.984, 0.046, 192.0, 0.0, 0.0, 0.0, 0.0, 0.0, 0.0, 0.0, 0.0, 0.0, 1.6962774533146825E9, 0.0, 2023-10-02 16:10:53.314
47.0, -7686.47434550218, -17026.709559763618, -76528.32734922497, -95319.05893314588, -76845.16332687894, -37816.73762997838, -64991.25093117368, -72180.19779684518, -0.14400000000000002, 0.974, 0.052000000000000005, 192.0, 251.0, 128.0, 30.0, 112.0, 1.0, 160.0, 0.0, 0.0, 0.0, 1.6962774533147016E9, 0.0, 2023-10-02 16:10:53.314
48.0, -7679.210028554205, -17018.260600359514, -76531.65775914882, -95313.6498109877, -76843.93398093391, -37816.89409218956, -65000.41514640035, -72174.90043340928, -0.14400000000000002, 0.974, 0.052000000000000005, 192.0, 0.0, 0.0, 0.0, 0.0, 0.0, 0.0, 0.0, 0.0, 0.0, 1.6962774533147352E9, 0.0, 2023-10-02 16:10:53.314
49.0, -7683.90389488982, -17020.18285038267, -76537.04452956254, -95310.31940106385, -76845.31978909014, -37828.40524058405, -65006.65128310338, -72182.52237826854, -0.14400000000000002, 0.974, 0.052000000000000005, 192.0, 0.0, 0.0, 0.0, 0.0, 0.0, 0.0, 0.0, 0.0, 0.0, 1.696277453314754E9, 0.0, 2023-10-02 16:10:53.314
50.0, -7688.016615869596, -17021.769824238996, -76535.43520396177, -95308.24068882951, -76847.55496353567, -37834.84254298718, -65010.27226570514, -72193.76530572955, -0.14400000000000002, 0.974, 0.052000000000000005, 192.0, 0.0, 0.0, 0.0, 0.0, 0.0, 0.0, 0.0, 0.0, 0.0, 1.6962774533147817E9, 0.0, 2023-10-02 16:10:53.314
51.0, -7682.652197200322, -17014.50550729102, -76529.40023295883, -95308.48655801851, -76850.55009729268, -37831.936816207985, -65017.40247218639, -72198.12389589833, -0.14400000000000002, 0.974, 0.052000000000000005, 192.0, 0.0, 0.0, 0.0, 0.0, 0.0, 0.0, 0.0, 0.0, 0.0, 1.6962774533148024E9, 0.0, 2023-10-02 16:10:53.314
52.0, -7679.210028554205, -17010.32573107788, -76532.84240160494, -95308.1512818517, -76854.72987350581, -37830.70747026295, -65021.53754491062, -72197.90037845378, -0.14400000000000002, 0.974, 0.052000000000000005, 192.0, 0.0, 0.0, 0.0, 0.0, 0.0, 0.0, 0.0, 0.0, 0.0, 1.6962774533148253E9, 0.0, 2023-10-02 16:10:53.314
53.0, -7687.502525747124, -17017.187716625656, -76549.49445122415, -95316.6002412558, -76863.80468175467, -37842.01745295733, -65029.29360023661, -72207.6904425252, -0.14400000000000002, 0.974, 0.052000000000000005, 192.0, 0.0, 0.0, 0.0, 0.0, 0.0, 0.0, 0.0, 0.0, 0.0, 1.6962774533148417E9, 0.0, 2023-10-02 16:10:53.314
54.0, -7685.468517001691, -17014.907838691215, -76545.2699715221, -95308.6430202297, -76855.82510898414, -37843.9844064694, -65024.95736181228, -72204.04710817899, -0.14400000000000002, 0.974, 0.052000000000000005, 192.0, 0.0, 0.0, 0.0, 0.0, 0.0, 0.0, 0.0, 0.0, 0.0, 1.696277453314855E9, 0.0, 2023-10-02 16:10:53.314
55.0, -7682.47338324468, -17016.248943358536, -76532.64123590484, -95307.77130219595, -76854.70752176136, -37827.31000510573, -65015.65903611887, -72192.20068361767, -0.14400000000000002, 0.974, 0.052000000000000005, 192.0, 0.0, 0.0, 0.0, 0.0, 0.0, 0.0, 0.0, 0.0, 0.0, 1.6962774533148844E9, 0.0, 2023-10-02 16:10:53.314
56.0, -7683.076880344973, -17019.020559670993, -76532.17184927128, -95310.31940106385, -76855.62394328404, -37813.65308924355, -65014.89907680739, -72184.98107015861, -0.14400000000000002, 0.974, 0.052000000000000005, 192.0, 0.0, 0.0, 0.0, 0.0, 0.0, 0.0, 0.0, 0.0, 0.0, 1.6962774533149104E9, 0.0, 2023-10-02 16:10:53.314
57.0, -7682.607493711412, -17014.863135202308, -76536.61984641789, -95306.98899114001, -76847.33144609112, -37806.38877229557, -65005.846620303, -72175.50393050957, -0.134, 0.974, 0.056, 192.0, 251.0, 208.0, 30.0, 112.0, 1.0, 192.0, 0.0, 0.0, 0.0, 1.6962774533149304E9, 0.0, 2023-10-02 16:10:53.314
58.0, -7687.591932724945, -17016.047777658438, -76533.84823010543, -95305.20085158359, -76841.25177159927, -37810.970879908906, -64994.00019574168, -72167.61376471684, -0.134, 0.974, 0.056, 192.0, 0.0, 0.0, 0.0, 0.0, 0.0, 0.0, 0.0, 0.0, 0.0, 1.6962774533149617E9, 0.0, 2023-10-02 16:10:53.314
59.0, -7694.968008395196, -17023.669722517698, -76524.4157939453, -95314.56623251036, -76845.05156815668, -37793.64827795605, -64990.513323606654, -72162.22699430311, -0.134, 0.974, 0.056, 192.0, 0.0, 0.0, 0.0, 0.0, 0.0, 0.0, 0.0, 0.0, 0.0, 1.696277453314992E9, 0.0, 2023-10-02 16:10:53.314
60.0, -7697.225534585183, -17027.38011209728, -76531.90362833782, -95323.84220645932, -76854.37224559454, -37783.29942027324, -64996.72710856523, -72163.47869199261, -0.134, 0.974, 0.056, 192.0, 0.0, 0.0, 0.0, 0.0, 0.0, 0.0, 0.0, 0.0, 0.0, 1.6962774533151388E9, 0.0, 2023-10-02 16:10:53.315
61.0, -7692.732833949666, -17023.803832984428, -76534.60818941692, -95317.53901452292, -76847.21968736884, -37778.247926026335, -64994.80485854207, -72156.14731981127, -0.134, 0.974, 0.056, 192.0, 0.0, 0.0, 0.0, 0.0, 0.0, 0.0, 0.0, 0.0, 0.0, 1.6962774533151667E9, 0.0, 2023-10-02 16:10:53.315
62.0, -7692.241095571649, -17025.524917307488, -76528.17088701378, -95306.60901148427, -76842.6375797555, -37775.78923413625, -64992.413221885356, -72147.65365691825, -0.134, 0.974, 0.056, 192.0, 0.0, 0.0, 0.0, 0.0, 0.0, 0.0, 0.0, 0.0, 0.0, 1.6962774533151937E9, 0.0, 2023-10-02 16:10:53.315
63.0, -7697.225534585183, -17032.297495877447, -76530.49546843713, -95316.46613078906, -76853.34406534959, -37776.48213821437, -65002.04682374559, -72161.24351754707, -0.134, 0.974, 0.056, 192.0, 0.0, 0.0, 0.0, 0.0, 0.0, 0.0, 0.0, 0.0, 0.0, 1.6962774533152144E9, 0.0, 2023-10-02 16:10:53.315
64.0, -7692.28579906056, -17029.3694173538, -76530.47311669268, -95320.98118316903, -76863.8940887325, -37776.32567600318, -65010.13815523841, -72174.20752933115, -0.134, 0.974, 0.056, 192.0, 0.0, 0.0, 0.0, 0.0, 0.0, 0.0, 0.0, 0.0, 0.0, 1.6962774533152385E9, 0.0, 2023-10-02 16:10:53.315
65.0, -7693.224572327683, -17028.40829234222, -76535.07757605048, -95319.08128489033, -76866.2410219003, -37789.33439127617, -65010.026396516136, -72183.21528234665, -0.134, 0.974, 0.056, 192.0, 0.0, 0.0, 0.0, 0.0, 0.0, 0.0, 0.0, 0.0, 0.0, 1.6962774533152559E9, 0.0, 2023-10-02 16:10:53.315
66.0, -7689.76005193711, -17027.35776035282, -76537.55861968502, -95311.3475813088, -76858.21674564085, -37806.14290310656, -65001.6444923454, -72188.33383182691, -0.134, 0.974, 0.056, 192.0, 0.0, 0.0, 0.0, 0.0, 0.0, 0.0, 0.0, 0.0, 0.0, 1.6962774533152745E9, 0.0, 2023-10-02 16:10:53.315
67.0, -7684.216819312194, -17023.245039373047, -76522.80646834451, -95306.31843880635, -76856.42860608443, -37803.5724524942, -64990.379213139924, -72182.25415733506, -0.14200000000000002, 0.978, 0.058, 192.0, 251.0, 144.0, 30.0, 144.0, 1.0, 208.0, 0.0, 0.0, 0.0, 1.6962774533152966E9, 0.0, 2023-10-02 16:10:53.315
68.0, -7680.484077988158, -17019.60170502683, -76512.6587763618, -95312.28635457592, -76866.35278062258, -37798.11862684711, -64994.357823652965, -72187.50681728206, -0.14200000000000002, 0.978, 0.058, 192.0, 0.0, 0.0, 0.0, 0.0, 0.0, 0.0, 0.0, 0.0, 0.0, 1.6962774533153176E9, 0.0, 2023-10-02 16:10:53.315
69.0, -7674.516162218591, -17012.337388078857, -76509.99891877163, -95307.30191556239, -76858.35085610759, -37808.69100197447, -65007.500649392685, -72189.92080568324, -0.14200000000000002, 0.978, 0.058, 192.0, 0.0, 0.0, 0.0, 0.0, 0.0, 0.0, 0.0, 0.0, 0.0, 1.6962774533153644E9, 0.0, 2023-10-02 16:10:53.315
70.0, -7676.214894797194, -17011.13039387827, -76511.5635408835, -95298.71884569155, -76854.32754210563, -37822.996118425865, -65016.77662334164, -72180.80129394548, -0.14200000000000002, 0.978, 0.058, 192.0, 0.0, 0.0, 0.0, 0.0, 0.0, 0.0, 0.0, 0.0, 0.0, 1.696277453315387E9, 0.0, 2023-10-02 16:10:53.315
71.0, -7675.9913773526405, -17009.27519908848, -76495.33617440893, -95292.72857817753, -76857.3450276071, -37821.878531203096, -65011.72512909474, -72174.94513689818, -0.14200000000000002, 0.978, 0.058, 192.0, 0.0, 0.0, 0.0, 0.0, 0.0, 0.0, 0.0, 0.0, 0.0, 1.696277453315411E9, 0.0, 2023-10-02 16:10:53.315
72.0, -7666.402478981314, -16999.17221059468, -76482.43921785822, -95289.86755488724, -76858.6414287855, -37810.34503106416, -65013.26739946216, -72170.25127056257, -0.14200000000000002, 0.978, 0.058, 192.0, 0.0, 0.0, 0.0, 0.0, 0.0, 0.0, 0.0, 0.0, 0.0, 1.6962774533154366E9, 0.0, 2023-10-02 16:10:53.315
73.0, -7660.032231811551, -16994.657158214708, -76481.54514808001, -95286.67125543013, -76849.90189670348, -37808.95922290793, -65013.26739946216, -72169.29014555099, -0.14200000000000002, 0.978, 0.058, 192.0, 0.0, 0.0, 0.0, 0.0, 0.0, 0.0, 0.0, 0.0, 0.0, 1.6962774533154616E9, 0.0, 2023-10-02 16:10:53.315
74.0, -7664.346118491426, -17000.423908284178, -76495.24676743112, -95291.85686014377, -76852.60645778256, -37816.75998172283, -65017.782451842126, -72174.60986073135, -0.14200000000000002, 0.978, 0.058, 192.0, 0.0, 0.0, 0.0, 0.0, 0.0, 0.0, 0.0, 0.0, 0.0, 1.6962774533154817E9, 0.0, 2023-10-02 16:10:53.315
75.0, -7666.670699914778, -17005.073071130882, -76494.12918020836, -95295.1425665787, -76852.38294033801, -37817.34112707867, -65021.31402746607, -72175.8839101653, -0.14200000000000002, 0.978, 0.058, 192.0, 0.0, 0.0, 0.0, 0.0, 0.0, 0.0, 0.0, 0.0, 0.0, 1.6962774533154953E9, 0.0, 2023-10-02 16:10:53.315
76.0, -7662.736792890644, -17002.234399585057, -76489.16709293927, -95298.18240382463, -76853.61228628305, -37813.764847965824, -65020.8446408325, -72173.20170083067, -0.14200000000000002, 0.978, 0.058, 192.0, 0.0, 0.0, 0.0, 0.0, 0.0, 0.0, 0.0, 0.0, 0.0, 1.6962774533156276E9, 0.0, 2023-10-02 16:10:53.315
77.0, -7659.495789944624, -16999.820411183886, -76489.2564999171, -95299.81408116985, -76848.02435016923, -37806.634641484576, -65012.93212329533, -72164.97625887112, -0.152, 0.986, 0.056, 192.0, 251.0, 64.0, 30.0, 208.0, 1.0, 192.0, 0.0, 0.0, 0.0, 1.6962774533156536E9, 0.0, 2023-10-02 16:10:53.315
78.0, -7665.553112692012, -17007.59881825433, -76500.87940703385, -95306.25138357299, -76851.35476009308, -37817.274071845306, -65017.58128614203, -72170.67595370722, -0.152, 0.986, 0.056, 192.0, 0.0, 0.0, 0.0, 0.0, 0.0, 0.0, 0.0, 0.0, 0.0, 1.6962774533156793E9, 0.0, 2023-10-02 16:10:53.315
79.0, -7664.055545813507, -17011.152745622723, -76503.22634020167, -95308.28539231842, -76846.99616992428, -37822.97376668141, -65022.14104201091, -72173.38051478632, -0.152, 0.986, 0.056, 192.0, 0.0, 0.0, 0.0, 0.0, 0.0, 0.0, 0.0, 0.0, 0.0, 1.6962774533157012E9, 0.0, 2023-10-02 16:10:53.315
80.0, -7654.846627097921, -17004.64838798623, -76493.92801450826, -95302.7421596935, -76832.44518428388, -37806.88051067359, -64998.96228301076, -72162.13758732528, -0.152, 0.986, 0.056, 192.0, 0.0, 0.0, 0.0, 0.0, 0.0, 0.0, 0.0, 0.0, 0.0, 1.6962774533157177E9, 0.0, 2023-10-02 16:10:53.315
81.0, -7647.917586316775, -16997.69699546063, -76492.54220635202, -95297.91418289115, -76828.91360865995, -37801.739609448865, -64990.66978581784, -72160.95294486916, -0.152, 0.986, 0.056, 192.0, 0.0, 0.0, 0.0, 0.0, 0.0, 0.0, 0.0, 0.0, 0.0, 1.6962774533157415E9, 0.0, 2023-10-02 16:10:53.315
82.0, -7658.981699822152, -17009.543420021942, -76509.17190422678, -95307.7489504515, -76839.57539076512, -37810.76971420881, -64998.47054463274, -72170.22891881812, -0.152, 0.986, 0.056, 192.0, 0.0, 0.0, 0.0, 0.0, 0.0, 0.0, 0.0, 0.0, 0.0, 1.6962774533157592E9, 0.0, 2023-10-02 16:10:53.315
83.0, -7658.42290621077, -17010.482193289066, -76516.77149734157, -95295.47784274553, -76826.0302336252, -37816.40235381155, -64996.57064635404, -72168.73135193961, -0.152, 0.986, 0.056, 192.0, 0.0, 0.0, 0.0, 0.0, 0.0, 0.0, 0.0, 0.0, 0.0, 1.6962774533157847E9, 0.0, 2023-10-02 16:10:53.315
84.0, -7648.744600861622, -17000.245094328537, -76504.03100300205, -95281.59740943878, -76819.70468994435, -37801.76196119332, -64986.9370444938, -72154.15801455475, -0.152, 0.986, 0.056, 192.0, 0.0, 0.0, 0.0, 0.0, 0.0, 0.0, 0.0, 0.0, 0.0, 1.6962774533158166E9, 0.0, 2023-10-02 16:10:53.315
85.0, -7649.057525283996, -17006.525934520476, -76503.22634020167, -95291.92391537713, -76829.91943716042, -37786.5180714748, -64994.96132075326, -72156.25907853355, -0.152, 0.986, 0.056, 192.0, 0.0, 0.0, 0.0, 0.0, 0.0, 0.0, 0.0, 0.0, 0.0, 1.6962774533158424E9, 0.0, 2023-10-02 16:10:53.315
86.0, -7659.406382966803, -17014.997245669038, -76523.38761370035, -95301.11048234827, -76839.24011459829, -37793.692981444954, -65013.69208260681, -72164.55157572647, -0.152, 0.986, 0.056, 192.0, 0.0, 0.0, 0.0, 0.0, 0.0, 0.0, 0.0, 0.0, 0.0, 1.6962774533158677E9, 0.0, 2023-10-02 16:10:53.315
87.0, -7671.208104039205, -17027.290705119456, -76542.40894823181, -95309.98412489702, -76849.03017866972, -37801.80666468223, -65024.57738215654, -72169.84893916237, -0.15, 0.984, 0.046, 192.0, 251.0, 80.0, 30.0, 192.0, 1.0, 112.0, 0.0, 0.0, 0.0, 1.6962774533158882E9, 0.0, 2023-10-02 16:10:53.315
88.0, -7670.246979027627, -17027.581277797377, -76536.55279118453, -95316.04144764441, -76848.27021935824, -37802.00783038233, -65024.24210598971, -72172.7323141971, -0.15, 0.984, 0.046, 192.0, 0.0, 0.0, 0.0, 0.0, 0.0, 0.0, 0.0, 0.0, 0.0, 1.6962774533159168E9, 0.0, 2023-10-02 16:10:53.315
89.0, -7662.759144635099, -17023.356798095323, -76530.29430273703, -95312.1522441092, -76852.69586476039, -37795.43641751247, -65025.29263797911, -72171.57002348543, -0.15, 0.984, 0.046, 192.0, 0.0, 0.0, 0.0, 0.0, 0.0, 0.0, 0.0, 0.0, 0.0, 1.6962774533159547E9, 0.0, 2023-10-02 16:10:53.315
90.0, -7659.920473089275, -17023.736777751063, -76539.68203540827, -95310.43115978614, -76852.56175429365, -37808.06515312972, -65035.39562647291, -72177.11325611034, -0.15, 0.984, 0.046, 192.0, 0.0, 0.0, 0.0, 0.0, 0.0, 0.0, 0.0, 0.0, 0.0, 1.6962774533159873E9, 0.0, 2023-10-02 16:10:53.315
91.0, -7658.758182377599, -17023.803832984428, -76538.20682027422, -95306.6984184621, -76853.3887688385, -37823.24198761487, -65037.74255964072, -72179.59429974489, -0.15, 0.984, 0.046, 192.0, 0.0, 0.0, 0.0, 0.0, 0.0, 0.0, 0.0, 0.0, 0.0, 1.6962774533161657E9, 0.0, 2023-10-02 16:10:53.316
92.0, -7656.835932354443, -17022.88741146176, -76531.41188995981, -95308.08422661832, -76860.5413270642, -37828.449944072956, -65043.39755098791, -72183.97524165813, -0.15, 0.984, 0.046, 192.0, 0.0, 0.0, 0.0, 0.0, 0.0, 0.0, 0.0, 0.0, 0.0, 1.696277453316199E9, 0.0, 2023-10-02 16:10:53.316
93.0, -7652.924377074764, -17018.819393970894, -76523.49937242262, -95309.35827605227, -76865.41400735546, -37819.24102535737, -65046.90677486739, -72182.76824745754, -0.15, 0.984, 0.046, 192.0, 0.0, 0.0, 0.0, 0.0, 0.0, 0.0, 0.0, 0.0, 0.0, 1.6962774533162255E9, 0.0, 2023-10-02 16:10:53.316
94.0, -7643.268423470071, -17009.722233977584, -76518.53728515355, -95297.84712765779, -76854.59576303909, -37817.72110673441, -65043.844585877014, -72178.72258171113, -0.15, 0.984, 0.046, 192.0, 0.0, 0.0, 0.0, 0.0, 0.0, 0.0, 0.0, 0.0, 0.0, 1.6962774533162456E9, 0.0, 2023-10-02 16:10:53.316
95.0, -7644.207196737194, -17011.622132256285, -76519.09607876492, -95294.69553168959, -76856.00392293978, -37831.02039468532, -65043.82223413256, -72180.57777650091, -0.15, 0.984, 0.046, 192.0, 0.0, 0.0, 0.0, 0.0, 0.0, 0.0, 0.0, 0.0, 0.0, 1.696277453316265E9, 0.0, 2023-10-02 16:10:53.316
96.0, -7643.715458359177, -17009.632826999765, -76515.3633374409, -95295.23197355653, -76859.62490554154, -37838.95526396695, -65043.28579226563, -72186.21041610366, -0.15, 0.984, 0.046, 192.0, 0.0, 0.0, 0.0, 0.0, 0.0, 0.0, 0.0, 0.0, 0.0, 1.696277453316279E9, 0.0, 2023-10-02 16:10:53.316
97.0, -7632.628993109345, -17000.93799840665, -76509.44012516024, -95294.51671773395, -76857.05445492917, -37835.66955753202, -65046.77266440066, -72189.80904696096, -0.14400000000000002, 0.978, 0.04, 192.0, 251.0, 128.0, 30.0, 144.0, 1.0, 64.0, 0.0, 0.0, 0.0, 1.696277453316296E9, 0.0, 2023-10-02 16:10:53.316
98.0, -7624.515309872068, -16992.511390747, -76510.60241587191, -95294.85199390078, -76852.27118161574, -37837.70356627746, -65045.85624287799, -72195.66520400826, -0.14400000000000002, 0.978, 0.04, 192.0, 0.0, 0.0, 0.0, 0.0, 0.0, 0.0, 0.0, 0.0, 0.0, 1.6962774533163352E9, 0.0, 2023-10-02 16:10:53.316
99.0, -7636.093513499918, -17002.79319319644, -76526.33804396846, -95301.6916277041, -76855.06514967265, -37853.059214718254, -65050.281888280144, -72207.10929716937, -0.14400000000000002, 0.978, 0.04, 192.0, 0.0, 0.0, 0.0, 0.0, 0.0, 0.0, 0.0, 0.0, 0.0, 1.6962774533163607E9, 0.0, 2023-10-02 16:10:53.316
100.0, -7649.303394473004, -17015.01959741349, -76535.03287256157, -95310.11823536376, -76862.86590848755, -37868.92895328152, -65055.28867903813, -72220.02860546454, -0.14400000000000002, 0.978, 0.04, 192.0, 0.0, 0.0, 0.0, 0.0, 0.0, 0.0, 0.0, 0.0, 0.0, 1.696277453316383E9, 0.0, 2023-10-02 16:10:53.316
101.0, -7642.150836247306, -17005.676568231174, -76525.24280849013, -95304.10561610528, -76855.9368677064, -37860.815270044244, -65047.152644056405, -72214.99946296209, -0.14400000000000002, 0.978, 0.04, 192.0, 0.0, 0.0, 0.0, 0.0, 0.0, 0.0, 0.0, 0.0, 0.0, 1.6962774533164127E9, 0.0, 2023-10-02 16:10:53.316
102.0, -7638.954536790197, -17002.770841451984, -76521.39830844382, -95297.8918311467, -76849.1866408809, -37850.68992980599, -65037.18376602933, -72207.77984950303, -0.14400000000000002, 0.978, 0.04, 192.0, 0.0, 0.0, 0.0, 0.0, 0.0, 0.0, 0.0, 0.0, 0.0, 1.696277453316439E9, 0.0, 2023-10-02 16:10:53.316
103.0, -7641.7708565915655, -17006.682396731663, -76529.06495679199, -95297.19892706859, -76848.62784726953, -37856.18845894199, -65034.88153635044, -72207.01989019154, -0.14400000000000002, 0.978, 0.04, 192.0, 0.0, 0.0, 0.0, 0.0, 0.0, 0.0, 0.0, 0.0, 0.0, 1.6962774533164673E9, 0.0, 2023-10-02 16:10:53.316
104.0, -7649.973946806664, -17013.499678790533, -76532.50712543812, -95299.9928951255, -76855.60159153958, -37858.55774385425, -65036.15558578439, -72206.12582041333, -0.14400000000000002, 0.978, 0.04, 192.0, 0.0, 0.0, 0.0, 0.0, 0.0, 0.0, 0.0, 0.0, 0.0, 1.696277453316482E9, 0.0, 2023-10-02 16:10:53.316
105.0, -7648.565786905979, -17010.728062478072, -76529.55669517002, -95293.75675842247, -76851.75709149326, -37842.978577968905, -65026.36552171296, -72197.27452960903, -0.14400000000000002, 0.978, 0.04, 192.0, 0.0, 0.0, 0.0, 0.0, 0.0, 0.0, 0.0, 0.0, 0.0, 1.6962774533165004E9, 0.0, 2023-10-02 16:10:53.316
106.0, -7642.553167647501, -17002.904951918717, -76523.812296845, -95287.20769729707, -76846.77265247973, -37827.08648766118, -65019.07885302054, -72187.17154111524, -0.14400000000000002, 0.978, 0.04, 192.0, 0.0, 0.0, 0.0, 0.0, 0.0, 0.0, 0.0, 0.0, 0.0, 1.696277453316642E9, 0.0, 2023-10-02 16:10:53.316
107.0, -7651.493865429625, -17009.051681643927, -76537.15628828482, -95290.49340373199, -76851.77944323773, -37830.37219409611, -65028.555992669586, -72190.21137836116, -0.128, 0.982, 0.028, 192.0, 252.0, 0.0, 30.0, 176.0, 0.0, 224.0, 0.0, 0.0, 0.0, 1.6962774533166819E9, 0.0, 2023-10-02 16:10:53.316
108.0, -7660.188694022739, -17016.427757314177, -76544.17473604379, -95291.00749385447, -76851.66768451544, -37837.59180755518, -65031.484071193234, -72190.792523717, -0.128, 0.982, 0.028, 192.0, 0.0, 0.0, 0.0, 0.0, 0.0, 0.0, 0.0, 0.0, 0.0, 1.6962774533167078E9, 0.0, 2023-10-02 16:10:53.316
109.0, -7665.329595247459, -17021.27808586098, -76547.95218085674, -95296.12604333473, -76856.7415305068, -37830.86393247413, -65032.37814097144, -72189.85375044987, -0.128, 0.982, 0.028, 192.0, 0.0, 0.0, 0.0, 0.0, 0.0, 0.0, 0.0, 0.0, 0.0, 1.6962774533167353E9, 0.0, 2023-10-02 16:10:53.316
110.0, -7660.859246356398, -17020.674588760685, -76551.97549485869, -95295.05315960088, -76855.06514967265, -37820.80564746924, -65031.43936770432, -72184.8916631808, -0.128, 0.982, 0.028, 192.0, 0.0, 0.0, 0.0, 0.0, 0.0, 0.0, 0.0, 0.0, 0.0, 1.6962774533167567E9, 0.0, 2023-10-02 16:10:53.316
111.0, -7657.282967243549, -17018.662931759707, -76548.6674366793, -95288.1911740531, -76854.10402466108, -37820.04568815776, -65023.303332722586, -72174.81102643145, -0.128, 0.982, 0.028, 192.0, 0.0, 0.0, 0.0, 0.0, 0.0, 0.0, 0.0, 0.0, 0.0, 1.6962774533167827E9, 0.0, 2023-10-02 16:10:53.316
112.0, -7664.301415002516, -17023.334446350866, -76550.99201810265, -95289.26405778696, -76854.886335717, -37824.33722309318, -65020.86699257696, -72171.16769208523, -0.128, 0.982, 0.028, 192.0, 0.0, 0.0, 0.0, 0.0, 0.0, 0.0, 0.0, 0.0, 0.0, 1.696277453316827E9, 0.0, 2023-10-02 16:10:53.316
113.0, -7666.223665025672, -17028.140071408758, -76550.45557623572, -95295.18727006762, -76864.43053059942, -37819.15161837955, -65021.17991699933, -72169.44660776218, -0.128, 0.982, 0.028, 192.0, 0.0, 0.0, 0.0, 0.0, 0.0, 0.0, 0.0, 0.0, 0.0, 1.6962774533168452E9, 0.0, 2023-10-02 16:10:53.316
114.0, -7661.306281245504, -17021.85923121682, -76554.90357338233, -95298.02594161344, -76872.23128941433, -37815.016545655315, -65026.07494903505, -72168.88781415079, -0.128, 0.982, 0.028, 192.0, 0.0, 0.0, 0.0, 0.0, 0.0, 0.0, 0.0, 0.0, 0.0, 1.6962774533168602E9, 0.0, 2023-10-02 16:10:53.316
115.0, -7652.544397419024, -17012.94088517915, -76555.55177397153, -95292.50506073298, -76872.38775162552, -37824.98542368239, -65028.73480662523, -72167.97139262813, -0.128, 0.982, 0.028, 192.0, 0.0, 0.0, 0.0, 0.0, 0.0, 0.0, 0.0, 0.0, 0.0, 1.6962774533168783E9, 0.0, 2023-10-02 16:10:53.316
116.0, -7645.593004893423, -17009.923399677682, -76550.05324483554, -95279.65280767117, -76867.11273993406, -37842.10685993515, -65029.89709733691, -72167.47965425011, -0.128, 0.982, 0.028, 192.0, 0.0, 0.0, 0.0, 0.0, 0.0, 0.0, 0.0, 0.0, 0.0, 1.6962774533169005E9, 0.0, 2023-10-02 16:10:53.316
117.0, -7647.068220027473, -17009.923399677682, -76540.59845693094, -95284.12315656223, -76877.50630110578, -37846.286636148296, -65045.49861496671, -72183.50585502456, -0.112, 0.984, 0.024, 192.0, 252.0, 128.0, 30.0, 192.0, 0.0, 192.0, 0.0, 0.0, 0.0, 1.69627745331693E9, 0.0, 2023-10-02 16:10:53.316
118.0, -7636.540548389024, -16998.322844305378, -76532.64123590484, -95282.11149956126, -76880.56849009615, -37842.576246568715, -65058.28381279515, -72196.46986680863, -0.112, 0.984, 0.024, 192.0, 0.0, 0.0, 0.0, 0.0, 0.0, 0.0, 0.0, 0.0, 0.0, 1.696277453316953E9, 0.0, 2023-10-02 16:10:53.316
119.0, -7644.6542316263, -17005.430699042165, -76544.30884651051, -95291.09690083229, -76893.13017048004, -37850.891095506086, -65072.231301335254, -72215.22298040664, -0.112, 0.984, 0.024, 192.0, 0.0, 0.0, 0.0, 0.0, 0.0, 0.0, 0.0, 0.0, 0.0, 1.6962774533169873E9, 0.0, 2023-10-02 16:10:53.316
120.0, -7647.17997874975, -17007.42000429869, -76555.46236699371, -95288.52645021993, -76888.07867623314, -37870.51592713784, -65080.94848167283, -72226.57766658995, -0.112, 0.984, 0.024, 192.0, 0.0, 0.0, 0.0, 0.0, 0.0, 0.0, 0.0, 0.0, 0.0, 1.696277453317022E9, 0.0, 2023-10-02 16:10:53.317
121.0, -7641.837911824931, -17004.55898100841, -76542.74422439864, -95279.69751116008, -76882.22251918585, -37870.42652016002, -65070.35375480101, -72222.53200084352, -0.112, 0.984, 0.024, 192.0, 0.0, 0.0, 0.0, 0.0, 0.0, 0.0, 0.0, 0.0, 0.0, 1.6962774537937365E9, 0.0, 2023-10-02 16:10:53.793
122.0, -7639.356868190393, -17002.03323388496, -76527.56738991349, -95285.19604029608, -76892.03493500173, -37850.041729216784, -65070.93490015685, -72223.18020143274, -0.112, 0.984, 0.024, 192.0, 0.0, 0.0, 0.0, 0.0, 0.0, 0.0, 0.0, 0.0, 0.0, 1.696277453793856E9, 0.0, 2023-10-02 16:10:53.793
123.0, -7637.1887489782275, -17001.31797806239, -76529.28847423656, -95284.01139783996, -76893.08546699114, -37849.214714671936, -65079.02623164967, -72230.42216663626, -0.112, 0.984, 0.024, 192.0, 0.0, 0.0, 0.0, 0.0, 0.0, 0.0, 0.0, 0.0, 0.0, 1.6962774537938683E9, 0.0, 2023-10-02 16:10:53.793
124.0, -7641.346173446915, -17001.608550740308, -76530.89779983733, -95275.7859558804, -76885.46352213187, -37856.05434847526, -65072.0077838907, -72224.72247180015, -0.112, 0.984, 0.024, 192.0, 0.0, 0.0, 0.0, 0.0, 0.0, 0.0, 0.0, 0.0, 0.0, 1.6962774537938795E9, 0.0, 2023-10-02 16:10:53.793
125.0, -7642.173187991762, -16999.775707694975, -76521.063032277, -95273.19315352359, -76886.51405412126, -37857.171935698025, -65059.46845525128, -72217.3910996188, -0.112, 0.984, 0.024, 192.0, 0.0, 0.0, 0.0, 0.0, 0.0, 0.0, 0.0, 0.0, 0.0, 1.6962774537938907E9, 0.0, 2023-10-02 16:10:53.793
126.0, -7641.301469958004, -16996.400594282222, -76507.3614129259, -95275.80830762486, -76894.58303386964, -37848.074775704714, -65050.03601909114, -72213.45719259468, -0.112, 0.984, 0.024, 192.0, 0.0, 0.0, 0.0, 0.0, 0.0, 0.0, 0.0, 0.0, 0.0, 1.6962774537939036E9, 0.0, 2023-10-02 16:10:53.793
127.0, -7643.313126958982, -16995.68533845965, -76512.63642461735, -95276.6353221697, -76899.85804556108, -37844.69966229197, -65045.92329811136, -72211.0879076824, -0.098, 1.002, 0.012, 192.0, 252.0, 240.0, 31.0, 80.0, 0.0, 96.0, 0.0, 0.0, 0.0, 1.6962774537939148E9, 0.0, 2023-10-02 16:10:53.793
128.0, -7650.264519484583, -17002.88260017426, -76515.564503141, -95273.30491224586, -76897.13113273754, -37855.5849618417, -65033.58513517203, -72207.17635240273, -0.098, 1.002, 0.012, 192.0, 0.0, 0.0, 0.0, 0.0, 0.0, 0.0, 0.0, 0.0, 0.0, 1.6962774537939267E9, 0.0, 2023-10-02 16:10:53.793
129.0, -7656.858284098898, -17009.94575142214, -76512.4129071728, -95270.75681337796, -76893.26428094677, -37848.67827280501, -65018.78828034262, -72193.16180862926, -0.098, 1.002, 0.012, 192.0, 0.0, 0.0, 0.0, 0.0, 0.0, 0.0, 0.0, 0.0, 0.0, 1.6962774537939377E9, 0.0, 2023-10-02 16:10:53.793
130.0, -7660.99335682313, -17015.71250149161, -76506.28852919204, -95275.45067971357, -76895.9464902814, -37836.58597905469, -65014.38498668492, -72187.35035507087, -0.098, 1.002, 0.012, 192.0, 0.0, 0.0, 0.0, 0.0, 0.0, 0.0, 0.0, 0.0, 0.0, 1.696277453793949E9, 0.0, 2023-10-02 16:10:53.793
131.0, -7666.536589448046, -17024.407330084723, -76512.79288682854, -95288.68291243112, -76903.97076654086, -37835.55779880974, -65018.900039064894, -72192.22303536213, -0.098, 1.002, 0.012, 192.0, 0.0, 0.0, 0.0, 0.0, 0.0, 0.0, 0.0, 0.0, 0.0, 1.69627745379396E9, 0.0, 2023-10-02 16:10:53.793
132.0, -7670.917531361286, -17026.955428952628, -76523.92405556727, -95287.67708393063, -76907.43528693143, -37842.26332214634, -65021.02345478815, -72194.27939585202, -0.098, 1.002, 0.012, 192.0, 0.0, 0.0, 0.0, 0.0, 0.0, 0.0, 0.0, 0.0, 0.0, 1.6962774537939713E9, 0.0, 2023-10-02 16:10:53.793
133.0, -7674.382051751859, -17028.832975486872, -76519.65487237631, -95280.5915809383, -76901.98146128433, -37852.61217982914, -65011.03222501663, -72185.67397423674, -0.098, 1.002, 0.012, 192.0, 0.0, 0.0, 0.0, 0.0, 0.0, 0.0, 0.0, 0.0, 0.0, 1.6962774537939868E9, 0.0, 2023-10-02 16:10:53.793
134.0, -7676.7513366641215, -17032.409254599723, -76510.17773272726, -95283.63141818422, -76909.6034061436, -37848.29829314927, -65006.85244880348, -72184.71284922515, -0.098, 1.002, 0.012, 192.0, 0.0, 0.0, 0.0, 0.0, 0.0, 0.0, 0.0, 0.0, 0.0, 1.6962774537939968E9, 0.0, 2023-10-02 16:10:53.793
135.0, -7664.435525469247, -17020.27225736049, -76505.97560476967, -95274.735423891, -76909.35753695459, -37839.3799471116, -65007.61240811496, -72181.5836050014, -0.098, 1.002, 0.012, 192.0, 0.0, 0.0, 0.0, 0.0, 0.0, 0.0, 0.0, 0.0, 0.0, 1.6962774537940066E9, 0.0, 2023-10-02 16:10:53.794
136.0, -7661.261577756593, -17016.785385225463, -76507.47317164818, -95263.29133072989, -76904.9542432969, -37839.491705833876, -65003.09735573499, -72174.94513689818, -0.098, 1.002, 0.012, 192.0, 0.0, 0.0, 0.0, 0.0, 0.0, 0.0, 0.0, 0.0, 0.0, 1.6962774537940164E9, 0.0, 2023-10-02 16:10:53.794
137.0, -7668.8835226158535, -17023.669722517698, -76506.13206698085, -95264.16304876364, -76910.69864162192, -37843.000929713366, -65000.52690512263, -72172.88877640829, -0.084, 1.01, 0.002, 192.0, 253.0, 96.0, 31.0, 144.0, 0.0, 16.0, 0.0, 0.0, 0.0, 1.6962774537940557E9, 0.0, 2023-10-02 16:10:53.794
138.0, -7662.714441146189, -17019.534649793466, -76497.10196222091, -95260.25149348397, -76908.26230147628, -37845.05729020325, -65008.1935534708, -72177.96262239965, -0.084, 1.01, 0.002, 192.0, 0.0, 0.0, 0.0, 0.0, 0.0, 0.0, 0.0, 0.0, 0.0, 1.696277453794067E9, 0.0, 2023-10-02 16:10:53.794
139.0, -7653.930205575252, -17011.89035318975, -76490.93288075125, -95258.06102252734, -76909.35753695459, -37839.134077922594, -65015.681387863326, -72181.9412329127, -0.084, 1.01, 0.002, 192.0, 0.0, 0.0, 0.0, 0.0, 0.0, 0.0, 0.0, 0.0, 0.0, 1.6962774537940767E9, 0.0, 2023-10-02 16:10:53.794
140.0, -7657.551188177013, -17015.51133579151, -76502.24286344563, -95265.92883657561, -76917.51592368078, -37849.39352862758, -65035.261516006176, -72196.89454995329, -0.084, 1.01, 0.002, 192.0, 0.0, 0.0, 0.0, 0.0, 0.0, 0.0, 0.0, 0.0, 0.0, 1.6962774537940865E9, 0.0, 2023-10-02 16:10:53.794
141.0, -7659.764010878088, -17016.427757314177, -76513.1058112509, -95267.89579008768, -76922.0086243163, -37864.99504625738, -65051.48888248073, -72211.75846001608, -0.084, 1.01, 0.002, 192.0, 0.0, 0.0, 0.0, 0.0, 0.0, 0.0, 0.0, 0.0, 0.0, 1.696277453794096E9, 0.0, 2023-10-02 16:10:53.794
142.0, -7649.817484595476, -17010.37043456679, -76498.71128782169, -95261.39143245119, -76910.94451081092, -37855.786127541796, -65050.05837083559, -72204.51649481255, -0.084, 1.01, 0.002, 192.0, 0.0, 0.0, 0.0, 0.0, 0.0, 0.0, 0.0, 0.0, 0.0, 1.6962774537941055E9, 0.0, 2023-10-02 16:10:53.794
143.0, -7634.08185649894, -16999.149858850225, -76485.61316557087, -95256.33993820428, -76907.90467356499, -37837.323586621715, -65049.790149902125, -72202.46013432267, -0.084, 1.01, 0.002, 192.0, 0.0, 0.0, 0.0, 0.0, 0.0, 0.0, 0.0, 0.0, 0.0, 1.6962774537941155E9, 0.0, 2023-10-02 16:10:53.794
144.0, -7634.931222788242, -17003.463745530098, -76494.39740114182, -95267.22523775403, -76912.93381606744, -37834.529618564804, -65057.79207441713, -72213.5913030614, -0.084, 1.01, 0.002, 192.0, 0.0, 0.0, 0.0, 0.0, 0.0, 0.0, 0.0, 0.0, 0.0, 1.6962774537941253E9, 0.0, 2023-10-02 16:10:53.794
145.0, -7641.145007746817, -17009.90104793323, -76503.69572683523, -95265.97354006453, -76908.37406019856, -37843.5820750692, -65052.87469063696, -72212.25019839409, -0.084, 1.01, 0.002, 192.0, 0.0, 0.0, 0.0, 0.0, 0.0, 0.0, 0.0, 0.0, 0.0, 1.6962774537941349E9, 0.0, 2023-10-02 16:10:53.794
146.0, -7647.51525491658, -17015.08665264686, -76505.08153499145, -95274.26603725745, -76913.73847886783, -37841.57041806822, -65046.54914695611, -72210.21618964865, -0.076, 1.01, 0.002, 192.0, 253.0, 160.0, 31.0, 144.0, 0.0, 16.0, 0.0, 0.0, 0.0, 1.6962774537941446E9, 0.0, 2023-10-02 16:10:53.794
147.0, -7645.034211282041, -17016.07012940289, -76500.36531691138, -95281.82092688333, -76915.3031009797, -37839.04467094477, -65039.21777477477, -72210.08207918193, -0.076, 1.01, 0.002, 192.0, 0.0, 0.0, 0.0, 0.0, 0.0, 0.0, 0.0, 0.0, 0.0, 1.696277453794155E9, 0.0, 2023-10-02 16:10:53.794
148.0, -7650.935071818241, -17023.69207426215, -76510.87063680538, -95289.08524383132, -76912.59853990062, -37838.46352558894, -65037.6531526629, -72209.90326522628, -0.076, 1.01, 0.002, 192.0, 0.0, 0.0, 0.0, 0.0, 0.0, 0.0, 0.0, 0.0, 0.0, 1.6962774537941644E9, 0.0, 2023-10-02 16:10:53.794
149.0, -7661.149819034317, -17029.45882433162, -76522.85117183342, -95287.69943567508, -76900.23802521682, -37840.81045875674, -65031.417015959865, -72206.77402100254, -0.076, 1.01, 0.002, 192.0, 0.0, 0.0, 0.0, 0.0, 0.0, 0.0, 0.0, 0.0, 0.0, 1.6962774537941742E9, 0.0, 2023-10-02 16:10:53.794
150.0, -7676.2819500305595, -17044.05451346094, -76529.89197133684, -95302.45158701559, -76901.24385371731, -37847.672444304524, -65028.131309524935, -72215.98293971813, -0.076, 1.01, 0.002, 192.0, 0.0, 0.0, 0.0, 0.0, 0.0, 0.0, 0.0, 0.0, 0.0, 1.6962774537941835E9, 0.0, 2023-10-02 16:10:53.794
151.0, -7679.277083787571, -17049.55304259694, -76530.60722715942, -95311.7946161979, -76904.88718806353, -37842.82211575772, -65023.63860888942, -72218.86631475286, -0.076, 1.01, 0.002, 192.0, 0.0, 0.0, 0.0, 0.0, 0.0, 0.0, 0.0, 0.0, 0.0, 1.6962774537941935E9, 0.0, 2023-10-02 16:10:53.794
152.0, -7677.645406442333, -17051.6764583202, -76535.36814872839, -95312.8451481873, -76903.09904850711, -37842.75506052435, -65015.32375995204, -72217.05582345198, -0.076, 1.01, 0.002, 192.0, 0.0, 0.0, 0.0, 0.0, 0.0, 0.0, 0.0, 0.0, 0.0, 1.6962774537942111E9, 0.0, 2023-10-02 16:10:53.794
153.0, -7680.797002410532, -17052.257603676033, -76538.49739295214, -95307.7489504515, -76900.1039147501, -37849.773508283324, -65006.941855781304, -72211.53494257152, -0.076, 1.01, 0.002, 192.0, 0.0, 0.0, 0.0, 0.0, 0.0, 0.0, 0.0, 0.0, 0.0, 1.6962774537942207E9, 0.0, 2023-10-02 16:10:53.794
154.0, -7681.04287159954, -17048.23428967408, -76534.80935511702, -95299.83643291432, -76898.15931298248, -37845.996063470375, -65003.20911445727, -72206.72931751363, -0.076, 1.01, 0.002, 192.0, 0.0, 0.0, 0.0, 0.0, 0.0, 0.0, 0.0, 0.0, 0.0, 1.6962774537942307E9, 0.0, 2023-10-02 16:10:53.794
155.0, -7675.432583741258, -17042.109911693326, -76522.06886077748, -95291.87921188823, -76899.27690020525, -37827.891150461575, -64998.35878591047, -72192.9382911847, -0.076, 1.01, 0.002, 192.0, 0.0, 0.0, 0.0, 0.0, 0.0, 0.0, 0.0, 0.0, 0.0, 1.6962774537942417E9, 0.0, 2023-10-02 16:10:53.794
156.0, -7672.415098239791, -17037.550155824443, -76521.21949448818, -95293.2426683, -76912.48678117833, -37816.8270369562, -65007.29948369259, -72191.038392906, -0.07200000000000001, 1.01, 0.004, 192.0, 253.0, 192.0, 31.0, 144.0, 0.0, 32.0, 0.0, 0.0, 0.0, 1.6962774537942517E9, 0.0, 2023-10-02 16:10:53.794
157.0, -7675.1643628077945, -17041.349952381846, -76532.19420101574, -95297.42244451314, -76916.7559643693, -37826.75121149435, -65019.05650127608, -72198.50387555407, -0.07200000000000001, 1.01, 0.004, 192.0, 0.0, 0.0, 0.0, 0.0, 0.0, 0.0, 0.0, 0.0, 0.0, 1.696277453794262E9, 0.0, 2023-10-02 16:10:53.794
158.0, -7680.6852436882555, -17048.547214096452, -76530.07078529248, -95295.74606367899, -76920.6004644156, -37839.89403723407, -65026.186707757326, -72210.73027977113, -0.07200000000000001, 1.01, 0.004, 192.0, 0.0, 0.0, 0.0, 0.0, 0.0, 0.0, 0.0, 0.0, 0.0, 1.6962774537942717E9, 0.0, 2023-10-02 16:10:53.794
159.0, -7670.381089494359, -17040.724103537097, -76508.72486933766, -95284.34667400678, -76917.29240623623, -37832.8308859862, -65033.76394912767, -72209.56798905945, -0.07200000000000001, 1.01, 0.004, 192.0, 0.0, 0.0, 0.0, 0.0, 0.0, 0.0, 0.0, 0.0, 0.0, 1.6962774537942812E9, 0.0, 2023-10-02 16:10:53.794
160.0, -7661.976833579163, -17037.639562802266, -76495.47028487567, -95281.95503735007, -76918.07471729215, -37820.87270270261, -65035.9991235732, -72207.33281461392, -0.07200000000000001, 1.01, 0.004, 192.0, 0.0, 0.0, 0.0, 0.0, 0.0, 0.0, 0.0, 0.0, 0.0, 1.6962774537942908E9, 0.0, 2023-10-02 16:10:53.794
161.0, -7661.395688223325, -17039.76297852552, -76497.41488664328, -95273.86370585725, -76916.91242658049, -37819.46454280192, -65041.81057713158, -72208.11512566985, -0.07200000000000001, 1.01, 0.004, 192.0, 0.0, 0.0, 0.0, 0.0, 0.0, 0.0, 0.0, 0.0, 0.0, 1.6962774537943006E9, 0.0, 2023-10-02 16:10:53.794
162.0, -7663.228531268661, -17035.56085056792, -76498.26425293258, -95266.1300022757, -76917.71708938088, -37822.996118425865, -65055.176920315855, -72208.0927739254, -0.07200000000000001, 1.01, 0.004, 192.0, 0.0, 0.0, 0.0, 0.0, 0.0, 0.0, 0.0, 0.0, 0.0, 1.69627745379431E9, 0.0, 2023-10-02 16:10:53.794
163.0, -7661.172170778772, -17034.644429045253, -76494.15153195281, -95271.91910408964, -76919.7063946374, -37818.77163872381, -65057.903833139404, -72210.26089313757, -0.07200000000000001, 1.01, 0.004, 192.0, 0.0, 0.0, 0.0, 0.0, 0.0, 0.0, 0.0, 0.0, 0.0, 1.6962774537943196E9, 0.0, 2023-10-02 16:10:53.794
164.0, -7655.494827687125, -17030.598763298844, -76487.87069176087, -95277.48468845901, -76924.78024062875, -37811.23910084237, -65060.429580262855, -72213.94893097269, -0.07200000000000001, 1.01, 0.004, 192.0, 0.0, 0.0, 0.0, 0.0, 0.0, 0.0, 0.0, 0.0, 0.0, 1.6962774537943292E9, 0.0, 2023-10-02 16:10:53.794
165.0, -7653.930205575252, -17030.2187836431, -76490.12821795086, -95281.68681641661, -76924.28850225074, -37814.23423459938, -65061.94949888581, -72216.27351239604, -0.07200000000000001, 1.01, 0.004, 192.0, 0.0, 0.0, 0.0, 0.0, 0.0, 0.0, 0.0, 0.0, 0.0, 1.6962774537943387E9, 0.0, 2023-10-02 16:10:53.794
166.0, -7662.379164979358, -17034.84559474535, -76503.33809892394, -95288.07941533082, -76927.12717379656, -37826.61710102762, -65067.44802802182, -72220.16271593126, -0.062, 1.014, 0.014, 192.0, 254.0, 16.0, 31.0, 176.0, 0.0, 112.0, 0.0, 0.0, 0.0, 1.69627745379435E9, 0.0, 2023-10-02 16:10:53.794
167.0, -7665.731926647655, -17034.689132534164, -76499.00186049961, -95290.60516245427, -76922.61212141659, -37824.24781611536, -65064.78817043164, -72217.41345136326, -0.062, 1.014, 0.014, 192.0, 0.0, 0.0, 0.0, 0.0, 0.0, 0.0, 0.0, 0.0, 0.0, 1.696277453794369E9, 0.0, 2023-10-02 16:10:53.794
168.0, -7659.004051566608, -17032.07397843289, -76487.64717431631, -95294.80729041187, -76920.08637429314, -37813.38486831008, -65049.61133594649, -72216.42997460724, -0.062, 1.014, 0.014, 192.0, 0.0, 0.0, 0.0, 0.0, 0.0, 0.0, 0.0, 0.0, 0.0, 1.6962774537943788E9, 0.0, 2023-10-02 16:10:53.794
169.0, -7662.602682423912, -17039.293591891957, -76501.01351750059, -95307.57013649585, -76924.57907492865, -37822.705545747944, -65050.66186793589, -72226.89059101231, -0.062, 1.014, 0.014, 192.0, 0.0, 0.0, 0.0, 0.0, 0.0, 0.0, 0.0, 0.0, 0.0, 1.6962774537943883E9, 0.0, 2023-10-02 16:10:53.794
170.0, -7668.056508071007, -17044.635658816776, -76513.88812230685, -95307.32426730685, -76919.39347021503, -37839.67051978952, -65045.118635310966, -72228.72343405765, -0.062, 1.014, 0.014, 192.0, 0.0, 0.0, 0.0, 0.0, 0.0, 0.0, 0.0, 0.0, 0.0, 1.696277453794398E9, 0.0, 2023-10-02 16:10:53.794
171.0, -7665.329595247459, -17042.713408793617, -76510.60241587191, -95303.30095330489, -76913.71612712338, -37836.67538603251, -65028.24306824721, -72217.30169264099, -0.062, 1.014, 0.014, 192.0, 0.0, 0.0, 0.0, 0.0, 0.0, 0.0, 0.0, 0.0, 0.0, 1.6962774537944076E9, 0.0, 2023-10-02 16:10:53.794
172.0, -7661.216874267683, -17039.71827503661, -76508.03196525955, -95306.85488067329, -76919.3487667261, -37822.41497307002, -65020.17408849885, -72215.46884959565, -0.062, 1.014, 0.014, 192.0, 0.0, 0.0, 0.0, 0.0, 0.0, 0.0, 0.0, 0.0, 0.0, 1.6962774537944171E9, 0.0, 2023-10-02 16:10:53.794
173.0, -7655.159551520294, -17034.398559856243, -76505.59562511393, -95305.40201728369, -76918.83467660364, -37820.91740619152, -65019.5482396541, -72218.7992595195, -0.062, 1.014, 0.014, 192.0, 0.0, 0.0, 0.0, 0.0, 0.0, 0.0, 0.0, 0.0, 0.0, 1.696277453794427E9, 0.0, 2023-10-02 16:10:53.794
174.0, -7656.858284098898, -17034.398559856243, -76511.07180250548, -95295.76841542344, -76913.71612712338, -37824.76190623783, -65012.93212329533, -72214.66418679526, -0.062, 1.014, 0.014, 192.0, 0.0, 0.0, 0.0, 0.0, 0.0, 0.0, 0.0, 0.0, 0.0, 1.6962774537944367E9, 0.0, 2023-10-02 16:10:53.794
175.0, -7659.473438200169, -17036.924306979694, -76507.6519856038, -95285.01722634045, -76903.94841479641, -37816.558816022734, -64997.57647485453, -72202.25896862257, -0.062, 1.014, 0.014, 192.0, 0.0, 0.0, 0.0, 0.0, 0.0, 0.0, 0.0, 0.0, 0.0, 1.6962774537944465E9, 0.0, 2023-10-02 16:10:53.794
176.0, -7655.450124198213, -17034.063283689415, -76503.22634020167, -95285.71013041856, -76903.09904850711, -37801.09140885966, -64996.458887631765, -72196.82749471992, -0.068, 1.016, 0.018000000000000002, 192.0, 253.0, 224.0, 31.0, 192.0, 0.0, 144.0, 0.0, 0.0, 0.0, 1.6962774537944572E9, 0.0, 2023-10-02 16:10:53.794
177.0, -7650.488036929136, -17027.581277797377, -76502.91341577929, -95283.05027282838, -76906.76473459777, -37790.76490292131, -65000.14692546689, -72198.23565462061, -0.068, 1.016, 0.018000000000000002, 192.0, 0.0, 0.0, 0.0, 0.0, 0.0, 0.0, 0.0, 0.0, 0.0, 1.6962774537944674E9, 0.0, 2023-10-02 16:10:53.794
178.0, -7652.879673585853, -17029.771748753996, -76513.9551775402, -95275.69654890259, -76910.81040034418, -37794.94467913445, -65010.69694884979, -72200.64964302178, -0.068, 1.016, 0.018000000000000002, 192.0, 0.0, 0.0, 0.0, 0.0, 0.0, 0.0, 0.0, 0.0, 0.0, 1.696277453794477E9, 0.0, 2023-10-02 16:10:53.794
179.0, -7649.795132851021, -17028.140071408758, -76509.17190422678, -95267.20288600956, -76907.88232182054, -37796.28578380177, -65014.47439366274, -72196.11223889736, -0.068, 1.016, 0.018000000000000002, 192.0, 0.0, 0.0, 0.0, 0.0, 0.0, 0.0, 0.0, 0.0, 0.0, 1.6962774537944865E9, 0.0, 2023-10-02 16:10:53.794
180.0, -7644.788342093032, -17023.625019028786, -76498.13014246584, -95270.26507499994, -76909.80457184369, -37791.99424886635, -65025.762024612675, -72195.79931447498, -0.068, 1.016, 0.018000000000000002, 192.0, 0.0, 0.0, 0.0, 0.0, 0.0, 0.0, 0.0, 0.0, 0.0, 1.6962774537944963E9, 0.0, 2023-10-02 16:10:53.794
181.0, -7640.027420524052, -17018.93115269317, -76497.48194187664, -95274.46720295754, -76910.56453115518, -37791.48015874388, -65035.619143917465, -72195.82166621943, -0.068, 1.016, 0.018000000000000002, 192.0, 0.0, 0.0, 0.0, 0.0, 0.0, 0.0, 0.0, 0.0, 0.0, 1.696277453794506E9, 0.0, 2023-10-02 16:10:53.794
182.0, -7645.235376982138, -17021.65806551672, -76512.56936938399, -95279.60810418226, -76916.8006678582, -37802.030182126786, -65048.2031760458, -72203.06363142296, -0.068, 1.016, 0.018000000000000002, 192.0, 0.0, 0.0, 0.0, 0.0, 0.0, 0.0, 0.0, 0.0, 0.0, 1.6962774537945251E9, 0.0, 2023-10-02 16:10:53.794
183.0, -7636.629955366845, -17012.22562935658, -76507.02613675906, -95269.8850953442, -76899.81334207217, -37807.50635951834, -65041.11767305347, -72192.20068361767, -0.068, 1.016, 0.018000000000000002, 192.0, 0.0, 0.0, 0.0, 0.0, 0.0, 0.0, 0.0, 0.0, 0.0, 1.6962774537945347E9, 0.0, 2023-10-02 16:10:53.794
184.0, -7635.490016399624, -17010.4151380557, -76494.79973254201, -95278.11053730376, -76894.96301352537, -37795.21290006792, -65043.19638528781, -72186.61274750385, -0.068, 1.016, 0.018000000000000002, 192.0, 0.0, 0.0, 0.0, 0.0, 0.0, 0.0, 0.0, 0.0, 0.0, 1.6962774537945447E9, 0.0, 2023-10-02 16:10:53.794
185.0, -7640.452103668703, -17017.791213725952, -76499.78417155554, -95299.50115674749, -76904.73072585234, -37789.669667443, -65055.176920315855, -72194.23469236311, -0.068, 1.016, 0.018000000000000002, 192.0, 0.0, 0.0, 0.0, 0.0, 0.0, 0.0, 0.0, 0.0, 0.0, 1.696277453794556E9, 0.0, 2023-10-02 16:10:53.794
186.0, -7642.441408925225, -17021.501603305533, -76517.41969793079, -95307.7489504515, -76908.77639159876, -37798.9232896475, -65065.68224020985, -72202.41543083376, -0.068, 1.004, 0.022, 192.0, 253.0, 224.0, 31.0, 96.0, 0.0, 176.0, 0.0, 0.0, 0.0, 1.6962774537945664E9, 0.0, 2023-10-02 16:10:53.794
187.0, -7638.216929223172, -17012.78442296796, -76513.35168043991, -95294.11438633376, -76890.15738846749, -37799.929118147986, -65048.180824301344, -72190.88193069481, -0.068, 1.004, 0.022, 192.0, 0.0, 0.0, 0.0, 0.0, 0.0, 0.0, 0.0, 0.0, 0.0, 1.6962774537945766E9, 0.0, 2023-10-02 16:10:53.794
188.0, -7642.106132758396, -17018.57352478189, -76503.24869194612, -95304.77616843894, -76896.19235947041, -37799.795007681256, -65049.99131560222, -72198.07919240942, -0.068, 1.004, 0.022, 192.0, 0.0, 0.0, 0.0, 0.0, 0.0, 0.0, 0.0, 0.0, 0.0, 1.6962774537945862E9, 0.0, 2023-10-02 16:10:53.794
189.0, -7643.737810103633, -17023.781481239974, -76503.04752624602, -95313.56040400987, -76906.27299621976, -37793.71533318941, -65053.52289122617, -72209.25506463708, -0.068, 1.004, 0.022, 192.0, 0.0, 0.0, 0.0, 0.0, 0.0, 0.0, 0.0, 0.0, 0.0, 1.6962774537945964E9, 0.0, 2023-10-02 16:10:53.794
190.0, -7646.218853738172, -17028.497699320043, -76515.11746825189, -95314.16390111017, -76905.91536830847, -37798.27508905829, -65051.690048180826, -72218.62044556385, -0.068, 1.004, 0.022, 192.0, 0.0, 0.0, 0.0, 0.0, 0.0, 0.0, 0.0, 0.0, 0.0, 1.6962774537946067E9, 0.0, 2023-10-02 16:10:53.794
191.0, -7653.617281152879, -17036.41021685722, -76526.315692224, -95312.8004446984, -76905.02129853026, -37813.8766066881, -65048.62785919045, -72224.00721597757, -0.068, 1.004, 0.022, 192.0, 0.0, 0.0, 0.0, 0.0, 0.0, 0.0, 0.0, 0.0, 0.0, 1.6962774537946165E9, 0.0, 2023-10-02 16:10:53.794
192.0, -7651.315051473982, -17036.99136221306, -76525.37691895687, -95304.86557541676, -76900.7521153393, -37814.99419391086, -65039.84362361952, -72216.3405676294, -0.068, 1.004, 0.022, 192.0, 0.0, 0.0, 0.0, 0.0, 0.0, 0.0, 0.0, 0.0, 0.0, 1.6962774537946265E9, 0.0, 2023-10-02 16:10:53.794
193.0, -7637.322859444959, -17027.22364988609, -76513.6646048623, -95297.6906654466, -76893.17487396895, -37798.65506871403, -65028.01955080266, -72204.78471574602, -0.068, 1.004, 0.022, 192.0, 0.0, 0.0, 0.0, 0.0, 0.0, 0.0, 0.0, 0.0, 0.0, 1.696277453794638E9, 0.0, 2023-10-02 16:10:53.794
194.0, -7639.580385634946, -17028.60945804232, -76519.31959620948, -95303.03273237143, -76896.72880133735, -37803.214824582916, -65024.53267866763, -72212.65252979429, -0.068, 1.004, 0.022, 192.0, 0.0, 0.0, 0.0, 0.0, 0.0, 0.0, 0.0, 0.0, 0.0, 1.6962774537946477E9, 0.0, 2023-10-02 16:10:53.794
195.0, -7646.732943860644, -17031.93986796616, -76532.46242194921, -95299.45645325858, -76897.86874030456, -37817.408182312036, -65026.83490834653, -72216.2958641405, -0.068, 1.004, 0.022, 192.0, 0.0, 0.0, 0.0, 0.0, 0.0, 0.0, 0.0, 0.0, 0.0, 1.6962774537946575E9, 0.0, 2023-10-02 16:10:53.794
196.0, -7647.448199683214, -17032.006923199526, -76525.22045674568, -95294.47201424504, -76894.404219914, -37812.04376364276, -65013.75913784017, -72208.47275358114, -0.07, 0.994, 0.022, 192.0, 253.0, 208.0, 31.0, 16.0, 0.0, 176.0, 0.0, 0.0, 0.0, 1.6962774537946684E9, 0.0, 2023-10-02 16:10:53.794
197.0, -7649.973946806664, -17034.84559474535, -76525.08634627896, -95303.43506377161, -76906.29534796422, -37803.48304551638, -65011.47925990573, -72213.03250945003, -0.07, 0.994, 0.022, 192.0, 0.0, 0.0, 0.0, 0.0, 0.0, 0.0, 0.0, 0.0, 0.0, 1.6962774537946892E9, 0.0, 2023-10-02 16:10:53.794
198.0, -7640.9438420467195, -17025.457862074123, -76524.19227650073, -95294.78493866742, -76900.23802521682, -37803.99713563885, -65005.46664064725, -72215.2453321511, -0.07, 0.994, 0.022, 192.0, 0.0, 0.0, 0.0, 0.0, 0.0, 0.0, 0.0, 0.0, 0.0, 1.696277453794699E9, 0.0, 2023-10-02 16:10:53.794
199.0, -7644.095438014918, -17029.436472587167, -76527.03094804657, -95290.53810722091, -76896.01354551477, -37814.10012413265, -65002.18093421232, -72212.60782630538, -0.07, 0.994, 0.022, 192.0, 0.0, 0.0, 0.0, 0.0, 0.0, 0.0, 0.0, 0.0, 0.0, 1.6962774537947087E9, 0.0, 2023-10-02 16:10:53.794
200.0, -7645.0565630264955, -17029.32471386489, -76524.19227650073, -95287.58767695281, -76899.43336241643, -37817.408182312036, -65005.28782669161, -72211.15496291578, -0.07, 0.994, 0.022, 192.0, 0.0, 0.0, 0.0, 0.0, 0.0, 0.0, 0.0, 0.0, 0.0, 1.6962774537947185E9, 0.0, 2023-10-02 16:10:53.794
201.0, -7635.333554188437, -17017.70180674813, -76507.58493037045, -95281.59740943878, -76902.11557175107, -37804.69003971697, -65005.60075111398, -72201.81193373346, -0.07, 0.994, 0.022, 192.0, 0.0, 0.0, 0.0, 0.0, 0.0, 0.0, 0.0, 0.0, 0.0, 1.696277453794728E9, 0.0, 2023-10-02 16:10:53.794
202.0, -7625.811711050476, -17010.102213633327, -76499.09126747743, -95277.10470880326, -76900.03685951672, -37793.0224291113, -65003.29852143509, -72196.38045983082, -0.07, 0.994, 0.022, 192.0, 0.0, 0.0, 0.0, 0.0, 0.0, 0.0, 0.0, 0.0, 0.0, 1.6962774537947376E9, 0.0, 2023-10-02 16:10:53.794
203.0, -7626.169338961761, -17009.49871653303, -76503.13693322384, -95275.47303145804, -76896.3488216816, -37798.14097859156, -65010.24991396069, -72189.58552951641, -0.07, 0.994, 0.022, 192.0, 0.0, 0.0, 0.0, 0.0, 0.0, 0.0, 0.0, 0.0, 0.0, 1.696277453794747E9, 0.0, 2023-10-02 16:10:53.794
204.0, -7627.644554095812, -17009.006978155016, -76504.83566580244, -95281.8879821167, -76899.88039730555, -37806.76875195131, -65023.88447807843, -72189.25025334957, -0.07, 0.994, 0.022, 192.0, 0.0, 0.0, 0.0, 0.0, 0.0, 0.0, 0.0, 0.0, 0.0, 1.696277453794757E9, 0.0, 2023-10-02 16:10:53.794
205.0, -7615.7087225566775, -16997.249960571524, -76490.79877028451, -95276.70237740307, -76895.52180713676, -37796.978687879884, -65021.17991699933, -72186.67980273721, -0.07, 0.994, 0.022, 192.0, 0.0, 0.0, 0.0, 0.0, 0.0, 0.0, 0.0, 0.0, 0.0, 1.6962774537947667E9, 0.0, 2023-10-02 16:10:53.794
206.0, -7613.8311760224315, -17000.84859142883, -76479.84641550141, -95275.27186575794, -76893.95718502489, -37786.60747845262, -65017.357768697475, -72185.62927074781, -0.07, 1.004, 0.028, 192.0, 253.0, 208.0, 31.0, 96.0, 0.0, 224.0, 0.0, 0.0, 0.0, 1.6962774537947764E9, 0.0, 2023-10-02 16:10:53.794
207.0, -7616.111053956874, -17002.32380656288, -76484.94261323722, -95273.8413541128, -76892.43726640192, -37788.596783709145, -65019.190611742815, -72186.47863703711, -0.07, 1.004, 0.028, 192.0, 0.0, 0.0, 0.0, 0.0, 0.0, 0.0, 0.0, 0.0, 0.0, 1.6962774537947865E9, 0.0, 2023-10-02 16:10:53.794
208.0, -7628.650382596301, -17008.55994326591, -76493.30216566351, -95276.92589484762, -76894.78419956974, -37797.0233913688, -65022.76689085566, -72190.81487546145, -0.07, 1.004, 0.028, 192.0, 0.0, 0.0, 0.0, 0.0, 0.0, 0.0, 0.0, 0.0, 0.0, 1.6962774537947965E9, 0.0, 2023-10-02 16:10:53.794
209.0, -7635.646478610812, -17019.75816723802, -76490.08351446195, -95282.91616236165, -76895.67826934795, -37793.78238842278, -65020.48701292122, -72193.25121560707, -0.07, 1.004, 0.028, 192.0, 0.0, 0.0, 0.0, 0.0, 0.0, 0.0, 0.0, 0.0, 0.0, 1.696277453794806E9, 0.0, 2023-10-02 16:10:53.794
210.0, -7634.148911732306, -17021.568658538898, -76493.61509008588, -95290.71692117654, -76898.62869961605, -37791.23428955487, -65024.73384436773, -72201.99074768911, -0.07, 1.004, 0.028, 192.0, 0.0, 0.0, 0.0, 0.0, 0.0, 0.0, 0.0, 0.0, 0.0, 1.6962774537948155E9, 0.0, 2023-10-02 16:10:53.794
211.0, -7633.925394287753, -17020.093443404847, -76497.05725873199, -95285.93364786312, -76889.21861520036, -37795.52582449029, -65014.58615238502, -72202.28132036702, -0.07, 1.004, 0.028, 192.0, 0.0, 0.0, 0.0, 0.0, 0.0, 0.0, 0.0, 0.0, 0.0, 1.6962774537948253E9, 0.0, 2023-10-02 16:10:53.794
212.0, -7655.986566065141, -17037.214879657615, -76507.6072821149, -95300.81990967035, -76896.63939435952, -37815.84356020016, -65010.85341106098, -72211.73610827162, -0.07, 1.004, 0.028, 192.0, 0.0, 0.0, 0.0, 0.0, 0.0, 0.0, 0.0, 0.0, 0.0, 1.6962774537948427E9, 0.0, 2023-10-02 16:10:53.794
213.0, -7666.7154034036885, -17050.98355424208, -76513.86577056239, -95314.11919762126, -76899.96980428336, -37824.98542368239, -65007.366538925955, -72221.97320723215, -0.07, 1.004, 0.028, 192.0, 0.0, 0.0, 0.0, 0.0, 0.0, 0.0, 0.0, 0.0, 0.0, 1.6962774537948527E9, 0.0, 2023-10-02 16:10:53.794
214.0, -7661.663909156789, -17049.441283874665, -76517.4644014197, -95319.05893314588, -76900.59565312811, -37823.19728412596, -65000.34809116699, -72225.68359681172, -0.07, 1.004, 0.028, 192.0, 0.0, 0.0, 0.0, 0.0, 0.0, 0.0, 0.0, 0.0, 0.0, 1.6962774537948625E9, 0.0, 2023-10-02 16:10:53.794
215.0, -7671.18575229475, -17060.03601074648, -76525.98041605717, -95327.06085766088, -76902.2049787289, -37827.600577783654, -65000.929236522825, -72231.6515125813, -0.07, 1.004, 0.028, 192.0, 0.0, 0.0, 0.0, 0.0, 0.0, 0.0, 0.0, 0.0, 0.0, 1.696277453794872E9, 0.0, 2023-10-02 16:10:53.794
216.0, -7683.322749533982, -17074.09525800887, -76537.55861968502, -95332.91701470817, -76903.65784211848, -37842.86681924663, -65006.00308251418, -72237.97705626214, -0.07200000000000001, 1.006, 0.036000000000000004, 192.0, 253.0, 192.0, 31.0, 112.0, 1.0, 32.0, 0.0, 0.0, 0.0, 1.6962774537948816E9, 0.0, 2023-10-02 16:10:53.794
217.0, -7681.445202999736, -17071.122475996315, -76538.00565457412, -95328.67018326167, -76903.21080722938, -37842.88917099109, -65000.77277431164, -72227.06940496796, -0.07200000000000001, 1.006, 0.036000000000000004, 192.0, 0.0, 0.0, 0.0, 0.0, 0.0, 0.0, 0.0, 0.0, 0.0, 1.696277453794892E9, 0.0, 2023-10-02 16:10:53.794
218.0, -7673.264464529093, -17062.584109614385, -76531.56835217099, -95324.95979368208, -76899.76863858326, -37824.76190623783, -64994.022547486136, -72217.32404438544, -0.07200000000000001, 1.006, 0.036000000000000004, 192.0, 0.0, 0.0, 0.0, 0.0, 0.0, 0.0, 0.0, 0.0, 0.0, 1.6962774537949016E9, 0.0, 2023-10-02 16:10:53.794
219.0, -7669.8222958829765, -17058.60549910134, -76536.95512258472, -95322.43404655863, -76905.11070550808, -37823.48785680388, -64999.02933824412, -72221.30265489849, -0.07200000000000001, 1.006, 0.036000000000000004, 192.0, 0.0, 0.0, 0.0, 0.0, 0.0, 0.0, 0.0, 0.0, 0.0, 1.6962774537949123E9, 0.0, 2023-10-02 16:10:53.794
220.0, -7672.035118584052, -17057.465560134122, -76541.47017496469, -95312.33105806482, -76901.98146128433, -37831.7803539968, -64994.62604458643, -72215.37944261784, -0.07200000000000001, 1.006, 0.036000000000000004, 192.0, 0.0, 0.0, 0.0, 0.0, 0.0, 0.0, 0.0, 0.0, 0.0, 1.6962774537949224E9, 0.0, 2023-10-02 16:10:53.794
221.0, -7676.237246541649, -17060.28187993549, -76533.95998882772, -95311.43698828662, -76898.56164438267, -37827.66763301702, -64989.17221893933, -72208.33864311442, -0.07200000000000001, 1.006, 0.036000000000000004, 192.0, 0.0, 0.0, 0.0, 0.0, 0.0, 0.0, 0.0, 0.0, 0.0, 1.696277453794932E9, 0.0, 2023-10-02 16:10:53.794
222.0, -7666.983624337152, -17048.033123973983, -76530.27195099258, -95309.06770337436, -76899.0533827607, -37812.155522365036, -64986.71352704925, -72201.87898896683, -0.07200000000000001, 1.006, 0.036000000000000004, 192.0, 0.0, 0.0, 0.0, 0.0, 0.0, 0.0, 0.0, 0.0, 0.0, 1.6962774537949417E9, 0.0, 2023-10-02 16:10:53.794
223.0, -7659.674603900266, -17038.89126049176, -76529.60139865892, -95303.81504342736, -76892.70548733539, -37803.080714116186, -64975.202378654765, -72194.63702376331, -0.07200000000000001, 1.006, 0.036000000000000004, 192.0, 0.0, 0.0, 0.0, 0.0, 0.0, 0.0, 0.0, 0.0, 0.0, 1.6962774537949512E9, 0.0, 2023-10-02 16:10:53.794
224.0, -7663.407345224303, -17043.00398147154, -76534.20585801672, -95306.43019752864, -76896.21471121487, -37810.479141530894, -64980.67855604632, -72196.76043948656, -0.07200000000000001, 1.006, 0.036000000000000004, 192.0, 0.0, 0.0, 0.0, 0.0, 0.0, 0.0, 0.0, 0.0, 0.0, 1.6962774537949607E9, 0.0, 2023-10-02 16:10:53.794
225.0, -7660.836894611943, -17041.61817331531, -76530.65193064832, -95306.76547369546, -76895.56651062566, -37813.38486831008, -64987.1382101939, -72195.88872145281, -0.07200000000000001, 1.006, 0.036000000000000004, 192.0, 0.0, 0.0, 0.0, 0.0, 0.0, 0.0, 0.0, 0.0, 0.0, 1.6962774537949705E9, 0.0, 2023-10-02 16:10:53.794
226.0, -7650.599795651412, -17032.208088899624, -76517.2632357196, -95304.6420579722, -76893.10781873559, -37797.269260557805, -64982.86902700294, -72187.6409277488, -0.07, 1.004, 0.042, 192.0, 253.0, 208.0, 31.0, 96.0, 1.0, 80.0, 0.0, 0.0, 0.0, 1.696277453794982E9, 0.0, 2023-10-02 16:10:53.794
227.0, -7647.51525491658, -17030.46465283211, -76517.7102706087, -95310.11823536376, -76899.74628683881, -37783.701751673434, -64988.94870149478, -72187.10448588186, -0.07, 1.004, 0.042, 192.0, 0.0, 0.0, 0.0, 0.0, 0.0, 0.0, 0.0, 0.0, 0.0, 1.6962774537949924E9, 0.0, 2023-10-02 16:10:53.794
228.0, -7654.265481742083, -17038.198356413646, -76528.19323875823, -95317.56136626737, -76904.68602236343, -37791.48015874388, -65000.45984988927, -72197.02866042002, -0.07, 1.004, 0.042, 192.0, 0.0, 0.0, 0.0, 0.0, 0.0, 0.0, 0.0, 0.0, 0.0, 1.69627745379501E9, 0.0, 2023-10-02 16:10:53.795
229.0, -7652.812618352487, -17038.71244653612, -76525.22045674568, -95314.9462121661, -76897.30994669317, -37801.69490595996, -64993.88843701941, -72205.00823319057, -0.07, 1.004, 0.042, 192.0, 0.0, 0.0, 0.0, 0.0, 0.0, 0.0, 0.0, 0.0, 0.0, 1.6962774537950196E9, 0.0, 2023-10-02 16:10:53.795
230.0, -7655.450124198213, -17041.12643493729, -76524.6616631343, -95320.24357560201, -76906.07183051966, -37802.7230862049, -65000.638663844904, -72219.2462944086, -0.07, 1.004, 0.042, 192.0, 0.0, 0.0, 0.0, 0.0, 0.0, 0.0, 0.0, 0.0, 0.0, 1.6962774537950292E9, 0.0, 2023-10-02 16:10:53.795
231.0, -7650.778609607055, -17037.46074884662, -76523.65583463381, -95314.63328774372, -76905.15540899699, -37801.605498982135, -65002.98559701272, -72225.9518177452, -0.07, 1.004, 0.042, 192.0, 0.0, 0.0, 0.0, 0.0, 0.0, 0.0, 0.0, 0.0, 0.0, 1.6962774537950387E9, 0.0, 2023-10-02 16:10:53.795
232.0, -7652.0973625299175, -17040.522937837, -76533.22238126068, -95310.67702897514, -76902.58495838463, -37816.357650322636, -65008.551181382085, -72234.49018412712, -0.07, 1.004, 0.042, 192.0, 0.0, 0.0, 0.0, 0.0, 0.0, 0.0, 0.0, 0.0, 0.0, 1.6962774537950487E9, 0.0, 2023-10-02 16:10:53.795
233.0, -7652.767914863577, -17043.093388449357, -76531.43424170426, -95305.87140391725, -76891.54319662371, -37828.516999306325, -65007.858277303974, -72236.85946903938, -0.07, 1.004, 0.042, 192.0, 0.0, 0.0, 0.0, 0.0, 0.0, 0.0, 0.0, 0.0, 0.0, 1.6962774537950585E9, 0.0, 2023-10-02 16:10:53.795
234.0, -7643.89427231482, -17033.862117989316, -76518.73845085365, -95297.15422357968, -76881.75313255229, -37828.40524058405, -64984.34424213699, -72233.37259690436, -0.07, 1.004, 0.042, 192.0, 0.0, 0.0, 0.0, 0.0, 0.0, 0.0, 0.0, 0.0, 0.0, 1.6962774537950685E9, 0.0, 2023-10-02 16:10:53.795
235.0, -7642.150836247306, -17032.409254599723, -76518.04554677552, -95297.8918311467, -76877.79687378369, -37825.164237638026, -64965.0323349276, -72232.36676840387, -0.07, 1.004, 0.042, 192.0, 0.0, 0.0, 0.0, 0.0, 0.0, 0.0, 0.0, 0.0, 0.0, 1.696277453795078E9, 0.0, 2023-10-02 16:10:53.795
236.0, -7652.589100907934, -17041.528766337487, -76530.51782018159, -95302.56334573786, -76876.41106562747, -37834.55197030926, -64964.42883782731, -72238.80407080699, -0.066, 1.004, 0.04, 192.0, 253.0, 240.0, 31.0, 96.0, 1.0, 64.0, 0.0, 0.0, 0.0, 1.6962774537950876E9, 0.0, 2023-10-02 16:10:53.795
237.0, -7666.313072003493, -17051.18471994218, -76541.17960228678, -95306.51960450645, -76883.85419653109, -37850.01937747233, -64965.47936981671, -72243.9002685428, -0.066, 1.004, 0.04, 192.0, 0.0, 0.0, 0.0, 0.0, 0.0, 0.0, 0.0, 0.0, 0.0, 1.6962774537950976E9, 0.0, 2023-10-02 16:10:53.795
238.0, -7673.711499418199, -17055.073923477405, -76540.50904995312, -95311.83931968681, -76885.1953011984, -37847.7842030268, -64959.57850928051, -72242.2015359642, -0.066, 1.004, 0.04, 192.0, 0.0, 0.0, 0.0, 0.0, 0.0, 0.0, 0.0, 0.0, 0.0, 1.6962774537951071E9, 0.0, 2023-10-02 16:10:53.795
239.0, -7674.605569196412, -17056.57149035591, -76536.37397722888, -95313.4039417987, -76888.57041461115, -37834.931949964994, -64951.82245395452, -72238.91582952927, -0.066, 1.004, 0.04, 192.0, 0.0, 0.0, 0.0, 0.0, 0.0, 0.0, 0.0, 0.0, 0.0, 1.696277453795117E9, 0.0, 2023-10-02 16:10:53.795
240.0, -7671.364566250392, -17053.643411832265, -76537.75978538512, -95304.01620912745, -76884.5471006092, -37830.5286563073, -64938.72433170371, -72226.24239042311, -0.066, 1.004, 0.04, 192.0, 0.0, 0.0, 0.0, 0.0, 0.0, 0.0, 0.0, 0.0, 0.0, 1.6962774537951279E9, 0.0, 2023-10-02 16:10:53.795
241.0, -7679.254732043116, -17059.276051435, -76536.08340455097, -95307.61483998476, -76888.41395239996, -37834.7307842649, -64935.483328757684, -72217.7487275301, -0.066, 1.004, 0.04, 192.0, 0.0, 0.0, 0.0, 0.0, 0.0, 0.0, 0.0, 0.0, 0.0, 1.6962774542738252E9, 0.0, 2023-10-02 16:10:54.273
242.0, -7677.555999464513, -17057.152635711747, -76526.94154106874, -95306.36314229526, -76898.2040164714, -37821.14092363607, -64941.920631160814, -72205.72348901314, -0.066, 1.004, 0.04, 192.0, 0.0, 0.0, 0.0, 0.0, 0.0, 0.0, 0.0, 0.0, 0.0, 1.6962774542739444E9, 0.0, 2023-10-02 16:10:54.273
243.0, -7673.33151976246, -17052.749342054052, -76525.2651602346, -95312.1522441092, -76909.71516486588, -37804.399467039046, -64952.358895821446, -72205.49997156858, -0.066, 1.004, 0.04, 192.0, 0.0, 0.0, 0.0, 0.0, 0.0, 0.0, 0.0, 0.0, 0.0, 1.6962774542742355E9, 0.0, 2023-10-02 16:10:54.274
244.0, -7663.8990836023195, -17044.90387975024, -76530.02608180357, -95308.1512818517, -76910.76569685528, -37795.68228670148, -64958.59503252448, -72201.58841628891, -0.066, 1.004, 0.04, 192.0, 0.0, 0.0, 0.0, 0.0, 0.0, 0.0, 0.0, 0.0, 0.0, 1.696277454274264E9, 0.0, 2023-10-02 16:10:54.274
245.0, -7663.988490580141, -17046.066170461916, -76531.12131728188, -95303.65858121618, -76898.22636821585, -37797.58218498018, -64955.44343655628, -72194.92759644122, -0.066, 1.004, 0.04, 192.0, 0.0, 0.0, 0.0, 0.0, 0.0, 0.0, 0.0, 0.0, 0.0, 1.6962774542742867E9, 0.0, 2023-10-02 16:10:54.274
246.0, -7664.927263847264, -17049.262469919024, -76520.68305262126, -95305.91610740616, -76896.43822865942, -37789.80377790973, -64953.78940746658, -72186.76920971504, -0.074, 1.006, 0.04, 192.0, 253.0, 176.0, 31.0, 112.0, 1.0, 64.0, 0.0, 0.0, 0.0, 1.6962774542743068E9, 0.0, 2023-10-02 16:10:54.274
247.0, -7663.6085109244, -17049.061304218925, -76519.49841016512, -95312.17459585365, -76907.79291484272, -37772.14589979004, -64962.73010524871, -72187.6856312377, -0.074, 1.006, 0.04, 192.0, 0.0, 0.0, 0.0, 0.0, 0.0, 0.0, 0.0, 0.0, 0.0, 1.696277454274331E9, 0.0, 2023-10-02 16:10:54.274
248.0, -7656.433600954248, -17041.461711104123, -76524.08051777846, -95306.47490101754, -76906.20594098639, -37763.40636770801, -64971.71550651974, -72186.1433608703, -0.074, 1.006, 0.04, 192.0, 0.0, 0.0, 0.0, 0.0, 0.0, 0.0, 0.0, 0.0, 0.0, 1.696277454274349E9, 0.0, 2023-10-02 16:10:54.274
249.0, -7654.265481742083, -17043.56277508292, -76521.08538402145, -95300.48463350353, -76905.55774039718, -37768.457861954914, -64978.219864156235, -72185.00342190306, -0.074, 1.006, 0.04, 192.0, 0.0, 0.0, 0.0, 0.0, 0.0, 0.0, 0.0, 0.0, 0.0, 1.696277454274366E9, 0.0, 2023-10-02 16:10:54.274
250.0, -7655.986566065141, -17048.435455374176, -76510.71417459419, -95296.03663635692, -76904.28369096323, -37768.14493753254, -64972.542521064584, -72178.81198868895, -0.074, 1.006, 0.04, 192.0, 0.0, 0.0, 0.0, 0.0, 0.0, 0.0, 0.0, 0.0, 0.0, 1.696277454274381E9, 0.0, 2023-10-02 16:10:54.274
251.0, -7650.823313095965, -17042.37813262679, -76504.14276172433, -95295.76841542344, -76898.15931298248, -37758.891315328045, -64970.664974530344, -72177.60499448836, -0.074, 1.006, 0.04, 192.0, 0.0, 0.0, 0.0, 0.0, 0.0, 0.0, 0.0, 0.0, 0.0, 1.6962774542744021E9, 0.0, 2023-10-02 16:10:54.274
252.0, -7644.542472904024, -17037.08076919088, -76505.97560476967, -95293.46618574455, -76894.09129549161, -37754.39861469252, -64974.97886121021, -72186.88096843731, -0.074, 1.006, 0.04, 192.0, 0.0, 0.0, 0.0, 0.0, 0.0, 0.0, 0.0, 0.0, 0.0, 1.696277454274429E9, 0.0, 2023-10-02 16:10:54.274
253.0, -7652.0973625299175, -17044.546251838954, -76518.69374736474, -95291.94626712159, -76895.6559176035, -37764.30043748623, -64977.99634671168, -72201.94604420019, -0.074, 1.006, 0.04, 192.0, 0.0, 0.0, 0.0, 0.0, 0.0, 0.0, 0.0, 0.0, 0.0, 1.6962774542744548E9, 0.0, 2023-10-02 16:10:54.274
254.0, -7651.359754962892, -17044.18862392767, -76519.67722412077, -95287.07358683033, -76888.21278669988, -37782.517109217304, -64975.984689710705, -72211.60199780489, -0.074, 1.006, 0.04, 192.0, 0.0, 0.0, 0.0, 0.0, 0.0, 0.0, 0.0, 0.0, 0.0, 1.6962774542744873E9, 0.0, 2023-10-02 16:10:54.274
255.0, -7640.519158902069, -17033.5715453114, -76506.3555844254, -95281.37389199423, -76878.22155692834, -37782.76297840631, -64970.06147743005, -72212.04903269399, -0.074, 1.006, 0.04, 192.0, 0.0, 0.0, 0.0, 0.0, 0.0, 0.0, 0.0, 0.0, 0.0, 1.6962774542745185E9, 0.0, 2023-10-02 16:10:54.274
0.0, -7640.60856587989, -17035.247926145545, -76512.63642461735, -95289.77814790943, -76889.44213264491, -37783.47823422888, -64979.00217521217, -72224.34249214441, -0.07200000000000001, 0.998, 0.042, 192.0, 253.0, 192.0, 31.0, 48.0, 1.0, 80.0, 0.0, 0.0, 0.0, 1.696277454274549E9, 0.0, 2023-10-02 16:10:54.274
1.0, -7643.313126958982, -17040.411179114722, -76527.41092770231, -95293.8908688892, -76887.6986965774, -37795.7716936793, -64980.67855604632, -72232.12089921486, -0.07200000000000001, 0.998, 0.042, 192.0, 0.0, 0.0, 0.0, 0.0, 0.0, 0.0, 0.0, 0.0, 0.0, 1.6962774542745788E9, 0.0, 2023-10-02 16:10:54.274
2.0, -7645.235376982138, -17040.344123881358, -76527.94736956923, -95288.48174673102, -76872.34304813661, -37803.550100749744, -64967.66984077333, -72227.2482189236, -0.07200000000000001, 0.998, 0.042, 192.0, 0.0, 0.0, 0.0, 0.0, 0.0, 0.0, 0.0, 0.0, 0.0, 1.6962774542746997E9, 0.0, 2023-10-02 16:10:54.274
3.0, -7640.586214135435, -17034.331504622878, -76512.50231415061, -95279.742214649, -76861.25658288677, -37795.659934957024, -64953.185910366294, -72217.07817519644, -0.07200000000000001, 0.998, 0.042, 192.0, 0.0, 0.0, 0.0, 0.0, 0.0, 0.0, 0.0, 0.0, 0.0, 1.6962774542747252E9, 0.0, 2023-10-02 16:10:54.274
4.0, -7638.8874815568315, -17032.833937744374, -76503.8521890464, -95280.36806349375, -76854.21578338335, -37783.58999295116, -64944.155805606344, -72206.79637274699, -0.07200000000000001, 0.998, 0.042, 192.0, 0.0, 0.0, 0.0, 0.0, 0.0, 0.0, 0.0, 0.0, 0.0, 1.6962774542747493E9, 0.0, 2023-10-02 16:10:54.274
5.0, -7646.710592116188, -17039.494757592056, -76517.15147699731, -95285.12898506272, -76859.31198111916, -37786.920402874995, -64936.73502644718, -72207.64573903629, -0.07200000000000001, 0.998, 0.042, 192.0, 0.0, 0.0, 0.0, 0.0, 0.0, 0.0, 0.0, 0.0, 0.0, 1.6962774542748168E9, 0.0, 2023-10-02 16:10:54.274
6.0, -7659.764010878088, -17054.04574323246, -76526.53920966855, -95293.13090957773, -76868.45384460138, -37796.6210599686, -64938.61257298143, -72211.02085244904, -0.07200000000000001, 0.998, 0.042, 192.0, 0.0, 0.0, 0.0, 0.0, 0.0, 0.0, 0.0, 0.0, 0.0, 1.696277454274853E9, 0.0, 2023-10-02 16:10:54.274
7.0, -7657.439429454736, -17052.95050775415, -76518.85020957592, -95296.95305787958, -76872.65597255898, -37788.57443196469, -64942.01003813864, -72205.05293667948, -0.07200000000000001, 0.998, 0.042, 192.0, 0.0, 0.0, 0.0, 0.0, 0.0, 0.0, 0.0, 0.0, 0.0, 1.6962774542748785E9, 0.0, 2023-10-02 16:10:54.274
8.0, -7654.220778253171, -17052.816397287417, -76521.04068053255, -95307.97246789605, -76886.22348144335, -37775.65512366952, -64951.86715744343, -72206.81872449144, -0.07200000000000001, 0.998, 0.042, 192.0, 0.0, 0.0, 0.0, 0.0, 0.0, 0.0, 0.0, 0.0, 0.0, 1.6962774542749064E9, 0.0, 2023-10-02 16:10:54.274
9.0, -7649.817484595476, -17052.95050775415, -76536.68690165125, -95307.5477847514, -76886.6928680769, -37780.25958302731, -64940.55717474904, -72204.36003260137, -0.076, 0.994, 0.042, 192.0, 253.0, 160.0, 31.0, 16.0, 1.0, 80.0, 0.0, 0.0, 0.0, 1.696277454274927E9, 0.0, 2023-10-02 16:10:54.274
10.0, -7651.046830540518, -17052.23525193158, -76534.40702371682, -95306.22903182854, -76885.08354247613, -37784.99815285184, -64900.23462775167, -72197.96743368715, -0.076, 0.994, 0.042, 192.0, 0.0, 0.0, 0.0, 0.0, 0.0, 0.0, 0.0, 0.0, 0.0, 1.6962774542749553E9, 0.0, 2023-10-02 16:10:54.274
11.0, -7655.070144542474, -17054.179853699192, -76528.39440445833, -95312.06283713137, -76891.2973274347, -37778.38203649307, -64901.50867718562, -72202.12485815583, -0.076, 0.994, 0.042, 192.0, 0.0, 0.0, 0.0, 0.0, 0.0, 0.0, 0.0, 0.0, 0.0, 1.6962774542749832E9, 0.0, 2023-10-02 16:10:54.274
12.0, -7658.042926555029, -17057.84553978986, -76532.23890450464, -95323.05989540338, -76903.23315897383, -37768.01082706581, -64915.925552359295, -72209.05389893698, -0.076, 0.994, 0.042, 192.0, 0.0, 0.0, 0.0, 0.0, 0.0, 0.0, 0.0, 0.0, 0.0, 1.696277454275015E9, 0.0, 2023-10-02 16:10:54.275
13.0, -7654.399592208814, -17054.649240332754, -76539.816145875, -95316.64494474471, -76898.6510513605, -37758.35487346112, -64920.328846016986, -72201.63311977782, -0.076, 0.994, 0.042, 192.0, 0.0, 0.0, 0.0, 0.0, 0.0, 0.0, 0.0, 0.0, 0.0, 1.6962774542750473E9, 0.0, 2023-10-02 16:10:54.275
14.0, -7656.232435254149, -17056.213862444623, -76539.90555285283, -95309.38062779674, -76898.31577519367, -37754.59978039262, -64915.18794479227, -72187.90914868226, -0.076, 0.994, 0.042, 192.0, 0.0, 0.0, 0.0, 0.0, 0.0, 0.0, 0.0, 0.0, 0.0, 1.6962774542750666E9, 0.0, 2023-10-02 16:10:54.275
15.0, -7659.652252155812, -17059.43251364619, -76536.93277084027, -95310.16293885266, -76901.1991502284, -37751.336425702146, -64921.446433239755, -72190.12197138334, -0.076, 0.994, 0.042, 192.0, 0.0, 0.0, 0.0, 0.0, 0.0, 0.0, 0.0, 0.0, 0.0, 1.6962774542750895E9, 0.0, 2023-10-02 16:10:54.275
16.0, -7653.147894519317, -17055.76682755552, -76523.25350323362, -95310.36410455276, -76903.0543450182, -37732.672719081966, -64931.012979866624, -72187.75268647107, -0.076, 0.994, 0.042, 192.0, 0.0, 0.0, 0.0, 0.0, 0.0, 0.0, 0.0, 0.0, 0.0, 1.696277454275112E9, 0.0, 2023-10-02 16:10:54.275
17.0, -7640.809731579988, -17046.69201930666, -76523.32055846698, -95303.50211900499, -76892.66078384648, -37729.90110276951, -64942.16650034983, -72188.55734927146, -0.076, 0.994, 0.042, 192.0, 0.0, 0.0, 0.0, 0.0, 0.0, 0.0, 0.0, 0.0, 0.0, 1.696277454275245E9, 0.0, 2023-10-02 16:10:54.275
18.0, -7631.578461119946, -17039.22653665859, -76520.83951483245, -95290.60516245427, -76884.68121107593, -37746.19552447743, -64944.06639862852, -72189.67493649422, -0.076, 0.994, 0.042, 192.0, 0.0, 0.0, 0.0, 0.0, 0.0, 0.0, 0.0, 0.0, 0.0, 1.6962774542752678E9, 0.0, 2023-10-02 16:10:54.275
19.0, -7627.666905840267, -17033.817414500405, -76512.94934903971, -95282.8938106172, -76881.30609766318, -37758.44428043893, -64954.594070266976, -72198.52622729853, -0.078, 1.0, 0.05, 192.0, 253.0, 144.0, 31.0, 64.0, 1.0, 144.0, 0.0, 0.0, 0.0, 1.6962774542752876E9, 0.0, 2023-10-02 16:10:54.275
20.0, -7619.687333069723, -17025.70373126313, -76504.36627916888, -95281.10567106077, -76886.02231574325, -37764.09927178613, -64954.54936677806, -72211.2443698936, -0.078, 1.0, 0.05, 192.0, 0.0, 0.0, 0.0, 0.0, 0.0, 0.0, 0.0, 0.0, 0.0, 1.6962774542753115E9, 0.0, 2023-10-02 16:10:54.275
21.0, -7617.675676068745, -17024.22851612908, -76506.62380535887, -95281.4409472276, -76885.55292910969, -37778.449091726434, -64954.14703537787, -72228.67873056875, -0.078, 1.0, 0.05, 192.0, 0.0, 0.0, 0.0, 0.0, 0.0, 0.0, 0.0, 0.0, 0.0, 1.6962774542753375E9, 0.0, 2023-10-02 16:10:54.275
22.0, -7616.334571401427, -17020.205202127123, -76509.21660771569, -95271.36031047825, -76877.17102493894, -37802.09723736015, -64956.33750633449, -72238.37938766234, -0.078, 1.0, 0.05, 192.0, 0.0, 0.0, 0.0, 0.0, 0.0, 0.0, 0.0, 0.0, 0.0, 1.6962774542753558E9, 0.0, 2023-10-02 16:10:54.275
23.0, -7622.07896972644, -17023.89323996225, -76499.78417155554, -95269.8850953442, -76871.47133010285, -37814.10012413265, -64948.55909926404, -72235.98775100562, -0.078, 1.0, 0.05, 192.0, 0.0, 0.0, 0.0, 0.0, 0.0, 0.0, 0.0, 0.0, 0.0, 1.6962774542753704E9, 0.0, 2023-10-02 16:10:54.275
