%OpenBCI Raw EXG Data
%Number of channels = 8
%Sample Rate = 250 Hz
%Board = OpenBCI_GUI$BoardCytonSerial
Sample Index, EXG Channel 0, EXG Channel 1, EXG Channel 2, EXG Channel 3, EXG Channel 4, EXG Channel 5, EXG Channel 6, EXG Channel 7, Accel Channel 0, Accel Channel 1, Accel Channel 2, Other, Other, Other, Other, Other, Other, Other, Analog Channel 0, Analog Channel 1, Analog Channel 2, Timestamp, Other, Timestamp (Formatted)
104.0, 36920.477380809476, 69093.77951547856, 7200.927400699545, -7553.123838081818, 22091.74896380293, -34769.36784617518, 17154.472131070153, 6825.105169428011, 0.0, 0.0, 0.0, 192.0, 0.0, 0.0, 0.0, 0.0, 0.0, 0.0, 0.0, 0.0, 0.0, 1.700950960942673E9, 0.0, 2023-11-25 17:22:40.942
105.0, 36947.5676950893, 69126.3683588944, 7196.211182619475, -7541.903262365254, 22094.051193481828, -34637.87253354461, 17149.91237520127, 6843.567710348095, 0.0, 0.0, 0.0, 192.0, 0.0, 0.0, 0.0, 0.0, 0.0, 0.0, 0.0, 0.0, 0.0, 1.700950960942698E9, 0.0, 2023-11-25 17:22:40.942
106.0, 36998.909652103146, 69176.34685949647, 7224.329677144251, -7510.275543960995, 22129.47870844349, -34582.8648904401, 17174.63340456884, 6859.21393146681, 0.0, 0.0, 0.0, 192.0, 0.0, 0.0, 0.0, 0.0, 0.0, 0.0, 0.0, 0.0, 0.0, 1.70095096094271E9, 0.0, 2023-11-25 17:22:40.942
0.0, 0.0, 0.0, 0.0, 0.0, 0.0, 0.0, 0.0, 0.0, 0.0, 0.0, 0.0, 192.0, 0.0, 0.0, 0.0, 0.0, 0.0, 0.0, 0.0, 0.0, 0.0, 1.700950961007968E9, 0.0, 2023-11-25 17:22:41.007
1.0, 37488.211689974276, 69475.88258694203, 7212.416197349572, -7689.380072281369, 22500.964701290693, -34729.26881662236, 17655.15120686903, 7393.599437904291, -0.06, 0.966, 0.21, 192.0, 254.0, 32.0, 30.0, 48.0, 6.0, 144.0, 0.0, 0.0, 0.0, 1.70095096101684E9, 0.0, 2023-11-25 17:22:41.016
2.0, 37526.88020788196, 69516.11572696158, 7218.7864445193345, -7666.737755148144, 22518.153192776823, -34557.048625594216, 17654.815930702203, 7420.443882995115, -0.06, 0.966, 0.21, 192.0, 0.0, 0.0, 0.0, 0.0, 0.0, 0.0, 0.0, 0.0, 0.0, 1.700950961021156E9, 0.0, 2023-11-25 17:22:41.021
3.0, 37566.82277522359, 69548.25753548832, 7240.825264552268, -7644.341307203926, 22568.377562567897, -34500.833988289116, 17666.505893052326, 7431.642106967224, -0.06, 0.966, 0.21, 192.0, 0.0, 0.0, 0.0, 0.0, 0.0, 0.0, 0.0, 0.0, 0.0, 1.700950961026853E9, 0.0, 2023-11-25 17:22:41.026
4.0, 37514.854969365, 69484.37624983506, 7208.974028703455, -7693.671607216788, 22617.529048625118, -34434.359900279036, 17636.2639828043, 7420.08625508383, -0.06, 0.966, 0.21, 192.0, 0.0, 0.0, 0.0, 0.0, 0.0, 0.0, 0.0, 0.0, 0.0, 1.700950961030997E9, 0.0, 2023-11-25 17:22:41.030
5.0, 37488.59166963001, 69469.42293279445, 7207.6329240361365, -7693.112813605406, 22506.798506593528, -34726.87717996564, 17630.519584479283, 7377.528533640926, -0.06, 0.966, 0.21, 192.0, 0.0, 0.0, 0.0, 0.0, 0.0, 0.0, 0.0, 0.0, 0.0, 1.700950961033995E9, 0.0, 2023-11-25 17:22:41.033
6.0, 37513.8044373756, 69501.72120353236, 7209.041083936821, -7673.37622325137, 22518.153192776823, -34588.94456493194, 17634.20762231441, 7408.262182266973, -0.06, 0.966, 0.21, 192.0, 0.0, 0.0, 0.0, 0.0, 0.0, 0.0, 0.0, 0.0, 0.0, 1.700950961036852E9, 0.0, 2023-11-25 17:22:41.036
7.0, 37559.04436815314, 69547.02818954327, 7233.203319693008, -7644.207196737194, 22547.165757079812, -34522.62693913304, 17648.691552721448, 7417.89578412721, -0.06, 0.966, 0.21, 192.0, 0.0, 0.0, 0.0, 0.0, 0.0, 0.0, 0.0, 0.0, 0.0, 1.700950961040871E9, 0.0, 2023-11-25 17:22:41.040
8.0, 37517.44777172182, 69494.0992586731, 7211.633886293636, -7683.546266978535, 22623.295798694588, -34416.79142913716, 17627.926782122468, 7423.394313263216, -0.06, 0.966, 0.20400000000000001, 192.0, 254.0, 32.0, 30.0, 48.0, 6.0, 96.0, 0.0, 0.0, 0.0, 1.700950961045899E9, 0.0, 2023-11-25 17:22:41.045
9.0, 37479.114529980965, 69467.9477176604, 7208.8622699811785, -7696.622037484889, 22516.677977642772, -34689.81798765874, 17617.3097035062, 7376.276835951428, -0.06, 0.966, 0.20400000000000001, 192.0, 0.0, 0.0, 0.0, 0.0, 0.0, 0.0, 0.0, 0.0, 0.0, 1.700950961048915E9, 0.0, 2023-11-25 17:22:41.048
10.0, 37508.99881231771, 69501.09535468761, 7217.959429974489, -7677.734813420155, 22519.337835232956, -34623.56741709321, 17624.708130920902, 7403.948295587099, -0.06, 0.966, 0.20400000000000001, 192.0, 0.0, 0.0, 0.0, 0.0, 0.0, 0.0, 0.0, 0.0, 0.0, 1.700950961052923E9, 0.0, 2023-11-25 17:22:41.052
11.0, 37564.07351065559, 69551.67735238998, 7243.485122142449, -7647.850531083409, 22539.476756987187, -34533.24401774931, 17642.611878229603, 7414.8335951368335, -0.06, 0.966, 0.20400000000000001, 192.0, 0.0, 0.0, 0.0, 0.0, 0.0, 0.0, 0.0, 0.0, 0.0, 1.700950961057087E9, 0.0, 2023-11-25 17:22:41.057
12.0, 37538.23489406525, 69511.64537807052, 7233.650354582114, -7673.33151976246, 22630.62717087593, -34418.33369950458, 17634.38643627005, 7432.692638956623, -0.06, 0.966, 0.20400000000000001, 192.0, 0.0, 0.0, 0.0, 0.0, 0.0, 0.0, 0.0, 0.0, 0.0, 1.70095096106105E9, 0.0, 2023-11-25 17:22:41.061
13.0, 37494.559585399584, 69477.58131952064, 7228.084770212743, -7691.056453115518, 22546.94223963526, -34635.927931777, 17621.44477623043, 7390.112565769264, -0.06, 0.966, 0.20400000000000001, 192.0, 0.0, 0.0, 0.0, 0.0, 0.0, 0.0, 0.0, 0.0, 0.0, 1.700950961064059E9, 0.0, 2023-11-25 17:22:41.064
14.0, 37516.598405432516, 69508.65024431351, 7237.517206372882, -7668.32472900447, 22530.714873160705, -34652.825850585206, 17637.269811304788, 7412.352551502294, -0.06, 0.966, 0.20400000000000001, 192.0, 0.0, 0.0, 0.0, 0.0, 0.0, 0.0, 0.0, 0.0, 0.0, 1.700950961069003E9, 0.0, 2023-11-25 17:22:41.069
15.0, 37557.703263485826, 69550.09037853366, 7244.513302387393, -7651.717382874177, 22530.156079549324, -34528.237226991325, 17647.238689331854, 7419.393351005716, -0.06, 0.966, 0.20400000000000001, 192.0, 0.0, 0.0, 0.0, 0.0, 0.0, 0.0, 0.0, 0.0, 0.0, 1.700950961073317E9, 0.0, 2023-11-25 17:22:41.073
16.0, 37556.988007663254, 69531.98546552485, 7246.837883810746, -7660.702784145211, 22625.016883017648, -34424.43572574088, 17653.810102201714, 7445.053153640409, -0.06, 0.966, 0.20400000000000001, 192.0, 0.0, 0.0, 0.0, 0.0, 0.0, 0.0, 0.0, 0.0, 0.0, 1.700950961077037E9, 0.0, 2023-11-25 17:22:41.077
17.0, 37502.740323870225, 69476.68724974242, 7228.5318051018485, -7692.844592671942, 22572.087952147478, -34560.803718662704, 17633.425311258474, 7405.13293804323, -0.06, 0.966, 0.20400000000000001, 192.0, 0.0, 0.0, 0.0, 0.0, 0.0, 0.0, 0.0, 0.0, 0.0, 1.700950961081014E9, 0.0, 2023-11-25 17:22:41.081
18.0, 37513.580919931046, 69495.57447380715, 7242.456941897505, -7671.163400550295, 22528.055015570524, -34682.84424338868, 17644.601183486127, 7409.5585834453805, -0.064, 0.966, 0.2, 192.0, 254.0, 0.0, 30.0, 48.0, 6.0, 64.0, 0.0, 0.0, 0.0, 1.700950961085058E9, 0.0, 2023-11-25 17:22:41.085
19.0, 37557.45739429681, 69542.37902669657, 7253.744572847435, -7646.151798504806, 22536.101643574435, -34526.896122324004, 17650.01030564431, 7424.154272574696, -0.064, 0.966, 0.2, 192.0, 0.0, 0.0, 0.0, 0.0, 0.0, 0.0, 0.0, 0.0, 0.0, 1.700950961088071E9, 0.0, 2023-11-25 17:22:41.088
20.0, 37567.44862406834, 69541.48495691836, 7263.713450874502, -7643.424885681258, 22614.2880456791, -34449.20145859736, 17660.180349371476, 7444.427304795659, -0.064, 0.966, 0.2, 192.0, 0.0, 0.0, 0.0, 0.0, 0.0, 0.0, 0.0, 0.0, 0.0, 1.700950961092119E9, 0.0, 2023-11-25 17:22:41.092
21.0, 37507.03185880564, 69479.21299686587, 7236.824302294768, -7686.228476313171, 22600.251150161166, -34501.68335457842, 17632.620648458083, 7412.151385802196, -0.064, 0.966, 0.2, 192.0, 0.0, 0.0, 0.0, 0.0, 0.0, 0.0, 0.0, 0.0, 0.0, 1.700950961096142E9, 0.0, 2023-11-25 17:22:41.096
22.0, 37504.7519808712, 69490.05359292669, 7241.272299441373, -7672.884484873353, 22525.283399258067, -34712.28149083632, 17635.660485704004, 7393.867658837755, -0.064, 0.966, 0.2, 192.0, 0.0, 0.0, 0.0, 0.0, 0.0, 0.0, 0.0, 0.0, 0.0, 1.700950961101101E9, 0.0, 2023-11-25 17:22:41.101
23.0, 37547.75673720321, 69538.22160222789, 7247.463732655494, -7652.030307296552, 22534.045283084546, -34538.854305607594, 17640.39905552853, 7418.141653316218, -0.064, 0.966, 0.2, 192.0, 0.0, 0.0, 0.0, 0.0, 0.0, 0.0, 0.0, 0.0, 0.0, 1.70095096110511E9, 0.0, 2023-11-25 17:22:41.105
24.0, 37573.416539837905, 69554.27015474679, 7260.986538050955, -7645.36948744887, 22594.462048347243, -34475.91179322145, 17649.58562249966, 7430.412761022182, -0.064, 0.966, 0.2, 192.0, 0.0, 0.0, 0.0, 0.0, 0.0, 0.0, 0.0, 0.0, 0.0, 1.700950961109187E9, 0.0, 2023-11-25 17:22:41.109
25.0, 37514.29617575362, 69486.41025858048, 7229.403523135606, -7695.347988050937, 22616.56792361354, -34453.716510977334, 17619.16489829599, 7410.743225901512, -0.064, 0.966, 0.2, 192.0, 0.0, 0.0, 0.0, 0.0, 0.0, 0.0, 0.0, 0.0, 0.0, 1.700950961113134E9, 0.0, 2023-11-25 17:22:41.113
26.0, 37500.147521513405, 69489.11481965958, 7237.807779050801, -7682.205162311217, 22518.041434054547, -34720.350470584686, 17624.551668709715, 7387.8326878348225, -0.064, 0.966, 0.2, 192.0, 0.0, 0.0, 0.0, 0.0, 0.0, 0.0, 0.0, 0.0, 0.0, 1.700950961117163E9, 0.0, 2023-11-25 17:22:41.117
27.0, 37523.572149702566, 69518.97675025187, 7232.488063870438, -7672.146877306328, 22524.970474835693, -34552.82414589216, 17620.081319818655, 7413.805414891889, -0.064, 0.966, 0.2, 192.0, 0.0, 0.0, 0.0, 0.0, 0.0, 0.0, 0.0, 0.0, 0.0, 1.700950961120133E9, 0.0, 2023-11-25 17:22:41.120
28.0, 37549.74604245974, 69540.65794237351, 7239.059476740298, -7663.764973135588, 22554.13950134987, -34505.34904066909, 17623.43408148695, 7418.722798672056, -0.062, 0.966, 0.19, 192.0, 254.0, 16.0, 30.0, 48.0, 5.0, 240.0, 0.0, 0.0, 0.0, 1.700950961124123E9, 0.0, 2023-11-25 17:22:41.124
29.0, 37513.26799550867, 69489.31598535967, 7221.870985254167, -7696.510278762613, 22621.395900415886, -34424.078097829595, 17612.034691814744, 7425.785949919934, -0.062, 0.966, 0.19, 192.0, 0.0, 0.0, 0.0, 0.0, 0.0, 0.0, 0.0, 0.0, 0.0, 1.700950961128133E9, 0.0, 2023-11-25 17:22:41.128
30.0, 37484.478948650234, 69472.48512178482, 7219.032313708343, -7699.8183369419985, 22512.051166540525, -34709.84515069069, 17606.692624889925, 7385.351644200283, -0.062, 0.966, 0.19, 192.0, 0.0, 0.0, 0.0, 0.0, 0.0, 0.0, 0.0, 0.0, 0.0, 1.700950961134193E9, 0.0, 2023-11-25 17:22:41.134
31.0, 37515.97255658777, 69511.66772981497, 7220.641639309125, -7680.998168110629, 22521.751823634128, -34584.25069859633, 17612.906409848503, 7417.627563193747, -0.062, 0.966, 0.19, 192.0, 0.0, 0.0, 0.0, 0.0, 0.0, 0.0, 0.0, 0.0, 0.0, 1.70095096113741E9, 0.0, 2023-11-25 17:22:41.137
32.0, 37561.614818765505, 69558.15935828202, 7239.864139540689, -7656.366545720881, 22542.896573888847, -34517.28487220823, 17628.64203794504, 7427.7529034320005, -0.062, 0.966, 0.19, 192.0, 0.0, 0.0, 0.0, 0.0, 0.0, 0.0, 0.0, 0.0, 0.0, 1.700950961141198E9, 0.0, 2023-11-25 17:22:41.141
33.0, 37522.745135157726, 69497.2508546413, 7212.885583983134, -7699.930095664275, 22616.277350935623, -34415.24915876975, 17614.135755793544, 7434.301964557406, -0.062, 0.966, 0.19, 192.0, 0.0, 0.0, 0.0, 0.0, 0.0, 0.0, 0.0, 0.0, 0.0, 1.700950961144232E9, 0.0, 2023-11-25 17:22:41.144
34.0, 37495.23013773324, 69480.57645327765, 7217.244174151919, -7703.171098610294, 22522.98116957917, -34679.871461376126, 17619.0084360848, 7399.410891462671, -0.062, 0.966, 0.19, 192.0, 0.0, 0.0, 0.0, 0.0, 0.0, 0.0, 0.0, 0.0, 0.0, 1.700950961148242E9, 0.0, 2023-11-25 17:22:41.148
35.0, 37521.42638223486, 69511.89124725953, 7223.055627710299, -7685.133240834862, 22520.813050367004, -34623.165085693014, 17622.741177408836, 7423.617830707769, -0.062, 0.966, 0.19, 192.0, 0.0, 0.0, 0.0, 0.0, 0.0, 0.0, 0.0, 0.0, 0.0, 1.700950961152205E9, 0.0, 2023-11-25 17:22:41.152
36.0, 37562.71005424381, 69550.24684074483, 7236.533729616849, -7664.167304535784, 22527.295056259045, -34534.83099160564, 17630.363122268096, 7424.8024731639, -0.062, 0.966, 0.19, 192.0, 0.0, 0.0, 0.0, 0.0, 0.0, 0.0, 0.0, 0.0, 0.0, 1.700950961156261E9, 0.0, 2023-11-25 17:22:41.156
37.0, 37539.0619086101, 69509.87959025856, 7226.676610312058, -7688.128374591873, 22616.925551524826, -34425.84388564157, 17624.752834409814, 7438.168816348174, -0.062, 0.966, 0.19, 192.0, 0.0, 0.0, 0.0, 0.0, 0.0, 0.0, 0.0, 0.0, 0.0, 1.700950961161235E9, 0.0, 2023-11-25 17:22:41.161
38.0, 37488.27874520764, 69468.68532522743, 7210.896278726612, -7713.072921403996, 22532.301847017032, -34634.787992809775, 17604.14452602202, 7383.518801154948, -0.064, 0.966, 0.188, 192.0, 254.0, 0.0, 30.0, 48.0, 5.0, 224.0, 0.0, 0.0, 0.0, 1.700950961165225E9, 0.0, 2023-11-25 17:22:41.165
39.0, 37507.30007973911, 69501.0506511987, 7216.841842751724, -7691.279970560071, 22509.54777116153, -34676.54105145229, 17607.25141850131, 7393.13005127073, -0.064, 0.966, 0.188, 192.0, 0.0, 0.0, 0.0, 0.0, 0.0, 0.0, 0.0, 0.0, 0.0, 1.700950961169263E9, 0.0, 2023-11-25 17:22:41.169
40.0, 37542.57113248958, 69545.79884359823, 7219.792273019823, -7674.314996518493, 22509.011329294604, -34549.58314294615, 17608.81604061318, 7401.020217063453, -0.064, 0.966, 0.188, 192.0, 0.0, 0.0, 0.0, 0.0, 0.0, 0.0, 0.0, 0.0, 0.0, 1.700950961172286E9, 0.0, 2023-11-25 17:22:41.172
41.0, 37553.501135528226, 69542.7143028634, 7234.4550173825055, -7669.487019716146, 22613.0363479896, -34442.898266660966, 17629.58081121216, 7435.531310502447, -0.064, 0.966, 0.188, 192.0, 0.0, 0.0, 0.0, 0.0, 0.0, 0.0, 0.0, 0.0, 0.0, 1.700950961176287E9, 0.0, 2023-11-25 17:22:41.176
42.0, 37504.81903610456, 69494.7027557734, 7222.04979920981, -7695.035063628562, 22572.780856225596, -34550.76778540228, 17616.594447683627, 7409.916211356665, -0.064, 0.966, 0.188, 192.0, 0.0, 0.0, 0.0, 0.0, 0.0, 0.0, 0.0, 0.0, 0.0, 1.700950961182352E9, 0.0, 2023-11-25 17:22:41.182
43.0, 37510.60813791849, 69507.28678790174, 7231.951622003511, -7676.2819500305595, 22519.69546314424, -34686.84520564618, 17627.993837355833, 7418.6557434386905, -0.064, 0.966, 0.188, 192.0, 0.0, 0.0, 0.0, 0.0, 0.0, 0.0, 0.0, 0.0, 0.0, 1.700950961185326E9, 0.0, 2023-11-25 17:22:41.185
44.0, 37549.857801182014, 69552.39260821255, 7239.9088430296, -7657.461781199191, 22526.490393458655, -34525.085631023125, 17632.15126182452, 7435.151330846707, -0.064, 0.966, 0.188, 192.0, 0.0, 0.0, 0.0, 0.0, 0.0, 0.0, 0.0, 0.0, 0.0, 1.700950961189178E9, 0.0, 2023-11-25 17:22:41.189
45.0, 37560.072548398086, 69552.25849774582, 7248.514264644893, -7659.741659133632, 22599.75941178315, -34451.123708620515, 17637.00159037132, 7444.382601306749, -0.064, 0.966, 0.188, 192.0, 0.0, 0.0, 0.0, 0.0, 0.0, 0.0, 0.0, 0.0, 0.0, 1.700950961193423E9, 0.0, 2023-11-25 17:22:41.193
46.0, 37503.18735875933, 69489.13717140403, 7222.8321102657455, -7703.036988143563, 22589.812885500538, -34488.3393631386, 17610.850049358614, 7419.013371349975, -0.064, 0.966, 0.188, 192.0, 0.0, 0.0, 0.0, 0.0, 0.0, 0.0, 0.0, 0.0, 0.0, 1.700950961196419E9, 0.0, 2023-11-25 17:22:41.196
47.0, 37502.405047703396, 69500.04482269823, 7236.153749961109, -7686.47434550218, 22511.648835140328, -34713.2426158479, 17621.847107630623, 7415.571202703858, -0.064, 0.966, 0.188, 192.0, 0.0, 0.0, 0.0, 0.0, 0.0, 0.0, 0.0, 0.0, 0.0, 1.700950961200513E9, 0.0, 2023-11-25 17:22:41.200
48.0, 37538.0113766207, 69541.99904704084, 7237.964241261989, -7671.94571160623, 22519.829573610972, -34540.39657597501, 17622.00356984181, 7433.765522690478, -0.066, 0.974, 0.192, 192.0, 253.0, 240.0, 30.0, 112.0, 6.0, 0.0, 0.0, 0.0, 0.0, 1.700950961204486E9, 0.0, 2023-11-25 17:22:41.204
49.0, 37571.740159003755, 69567.03300083078, 7256.806761837812, -7659.294624244527, 22579.464027817732, -34483.37727586953, 17638.588564227648, 7448.383563564249, -0.066, 0.974, 0.192, 192.0, 0.0, 0.0, 0.0, 0.0, 0.0, 0.0, 0.0, 0.0, 0.0, 1.700950961208375E9, 0.0, 2023-11-25 17:22:41.208
50.0, 37514.74321064272, 69498.2566831418, 7224.933174244545, -7709.295476591048, 22608.297778165077, -34442.40652828295, 17610.984159825344, 7433.363191290283, -0.066, 0.974, 0.192, 192.0, 0.0, 0.0, 0.0, 0.0, 0.0, 0.0, 0.0, 0.0, 0.0, 1.70095096121236E9, 0.0, 2023-11-25 17:22:41.212
51.0, 37497.04062903412, 69491.81938073867, 7231.057552225298, -7701.494717776146, 22506.373823448877, -34722.451534563486, 17612.97346508187, 7399.6344089072245, -0.066, 0.974, 0.192, 192.0, 0.0, 0.0, 0.0, 0.0, 0.0, 0.0, 0.0, 0.0, 0.0, 1.70095096121638E9, 0.0, 2023-11-25 17:22:41.216
52.0, 37531.23879805074, 69529.63853235704, 7233.33743015974, -7686.742566435643, 22517.92967533227, -34567.19631757693, 17612.34761623712, 7419.013371349975, -0.066, 0.974, 0.192, 192.0, 0.0, 0.0, 0.0, 0.0, 0.0, 0.0, 0.0, 0.0, 0.0, 1.70095096122142E9, 0.0, 2023-11-25 17:22:41.221
53.0, 37563.067682155095, 69556.03594255877, 7245.6085378657035, -7675.857266885909, 22551.099664103946, -34519.18477048693, 17622.20473554191, 7420.399179506205, -0.066, 0.974, 0.192, 192.0, 0.0, 0.0, 0.0, 0.0, 0.0, 0.0, 0.0, 0.0, 0.0, 1.70095096122444E9, 0.0, 2023-11-25 17:22:41.224
54.0, 37523.48274272475, 69501.60944481009, 7226.542499845326, -7712.961162681719, 22622.915819038848, -34428.90607463194, 17613.755776137805, 7433.944336646121, -0.066, 0.974, 0.192, 192.0, 0.0, 0.0, 0.0, 0.0, 0.0, 0.0, 0.0, 0.0, 0.0, 1.700950961228846E9, 0.0, 2023-11-25 17:22:41.228
55.0, 37488.92694579684, 69477.73778173182, 7220.351066631207, -7722.237136630672, 22507.82668683847, -34714.4943135374, 17605.485630689338, 7389.956103558076, -0.066, 0.974, 0.192, 192.0, 0.0, 0.0, 0.0, 0.0, 0.0, 0.0, 0.0, 0.0, 0.0, 1.700950961233511E9, 0.0, 2023-11-25 17:22:41.233
56.0, 37514.38558273144, 69510.84071527013, 7220.686342798036, -7704.534555022068, 22510.97828280667, -34609.686983786465, 17612.861706359592, 7414.855946881288, -0.066, 0.974, 0.192, 192.0, 0.0, 0.0, 0.0, 0.0, 0.0, 0.0, 0.0, 0.0, 0.0, 1.700950961236523E9, 0.0, 2023-11-25 17:22:41.236
57.0, 37562.21831586579, 69563.25555601783, 7244.3791919206615, -7672.526856962068, 22537.129823819378, -34536.149744528506, 17639.34852353913, 7433.474950012559, -0.062, 0.962, 0.198, 192.0, 254.0, 16.0, 30.0, 16.0, 6.0, 48.0, 0.0, 0.0, 0.0, 1.700950961240437E9, 0.0, 2023-11-25 17:22:41.240
58.0, 37531.3058532841, 69520.40726189701, 7230.454055125005, -7700.041854386552, 22628.23553421921, -34410.59999592305, 17633.045331602734, 7452.742153733034, -0.062, 0.962, 0.198, 192.0, 0.0, 0.0, 0.0, 0.0, 0.0, 0.0, 0.0, 0.0, 0.0, 1.700950961244438E9, 0.0, 2023-11-25 17:22:41.244
59.0, 37484.43424516133, 69480.01765966626, 7217.71356078548, -7719.532575551579, 22522.712948645705, -34661.45362394496, 17619.120194807077, 7402.182507775129, -0.062, 0.962, 0.198, 192.0, 0.0, 0.0, 0.0, 0.0, 0.0, 0.0, 0.0, 0.0, 0.0, 1.700950961249514E9, 0.0, 2023-11-25 17:22:41.249
60.0, 37502.06977153656, 69500.93889247644, 7219.166424175075, -7704.266334088605, 22509.30190197252, -34638.766603322816, 17621.86945937508, 7414.364208503272, -0.062, 0.962, 0.198, 192.0, 0.0, 0.0, 0.0, 0.0, 0.0, 0.0, 0.0, 0.0, 0.0, 1.700950961252488E9, 0.0, 2023-11-25 17:22:41.252
61.0, 37553.52348727268, 69553.62195415758, 7239.19358720703, -7676.974854108675, 22521.662416656305, -34548.66672142348, 17635.14639558153, 7422.544946973914, -0.062, 0.962, 0.198, 192.0, 0.0, 0.0, 0.0, 0.0, 0.0, 0.0, 0.0, 0.0, 0.0, 1.70095096125567E9, 0.0, 2023-11-25 17:22:41.255
62.0, 37536.60321672001, 69520.38491015256, 7230.185834191541, -7701.2264968426825, 22616.702034080274, -34430.76126942173, 17631.190136812944, 7439.174644848663, -0.062, 0.962, 0.198, 192.0, 0.0, 0.0, 0.0, 0.0, 0.0, 0.0, 0.0, 0.0, 0.0, 1.700950961260524E9, 0.0, 2023-11-25 17:22:41.260
63.0, 37482.6461056049, 69470.0934851281, 7207.744682758414, -7732.921270480308, 22532.346550505943, -34614.38085012208, 17603.742194621827, 7385.776327344934, -0.062, 0.962, 0.198, 192.0, 0.0, 0.0, 0.0, 0.0, 0.0, 0.0, 0.0, 0.0, 0.0, 1.700950961264563E9, 0.0, 2023-11-25 17:22:41.264
64.0, 37501.89095758092, 69494.45688658439, 7220.1946044200195, -7707.932020179274, 22502.68578561375, -34681.16786255454, 17611.788822625735, 7394.828783849333, -0.062, 0.962, 0.198, 192.0, 0.0, 0.0, 0.0, 0.0, 0.0, 0.0, 0.0, 0.0, 0.0, 1.700950961268556E9, 0.0, 2023-11-25 17:22:41.268
65.0, 37551.80240294962, 69546.7152651209, 7241.093485485731, -7677.198371553228, 22514.88983808635, -34546.208029533394, 17627.099767577623, 7413.872470125255, -0.062, 0.962, 0.198, 192.0, 0.0, 0.0, 0.0, 0.0, 0.0, 0.0, 0.0, 0.0, 0.0, 1.700950961272609E9, 0.0, 2023-11-25 17:22:41.272
66.0, 37557.43504255236, 69536.6122766271, 7248.693078600536, -7678.181848309261, 22608.633054331905, -34443.300598061156, 17641.20371832892, 7438.191168092629, -0.062, 0.962, 0.198, 192.0, 0.0, 0.0, 0.0, 0.0, 0.0, 0.0, 0.0, 0.0, 0.0, 1.700950961276539E9, 0.0, 2023-11-25 17:22:41.276
67.0, 37501.555681414095, 69477.22369160935, 7224.061456210788, -7716.448034816746, 22569.584556768485, -34538.98841607433, 17616.147412794522, 7399.075615295842, -0.064, 0.966, 0.20600000000000002, 192.0, 254.0, 0.0, 30.0, 48.0, 6.0, 112.0, 0.0, 0.0, 0.0, 1.700950961280614E9, 0.0, 2023-11-25 17:22:41.280
68.0, 37508.887053595434, 69493.60752029509, 7232.5774708482595, -7698.410177041314, 22508.810163594506, -34703.3407930542, 17623.43408148695, 7396.03577804992, -0.064, 0.966, 0.20600000000000002, 192.0, 0.0, 0.0, 0.0, 0.0, 0.0, 0.0, 0.0, 0.0, 0.0, 1.700950961286283E9, 0.0, 2023-11-25 17:22:41.286
69.0, 37556.80919370761, 69547.98931455486, 7243.4404186535385, -7675.745508163633, 22518.577875921474, -34544.531648699245, 17631.994799613334, 7415.638257937224, -0.064, 0.966, 0.20600000000000002, 192.0, 0.0, 0.0, 0.0, 0.0, 0.0, 0.0, 0.0, 0.0, 0.0, 1.700950961289232E9, 0.0, 2023-11-25 17:22:41.289
70.0, 37575.69641777234, 69559.20989027142, 7254.191607736541, -7668.637653426845, 22594.79732451407, -34468.82629022912, 17646.903413165022, 7438.571147748369, -0.064, 0.966, 0.20600000000000002, 192.0, 0.0, 0.0, 0.0, 0.0, 0.0, 0.0, 0.0, 0.0, 0.0, 1.700950961292684E9, 0.0, 2023-11-25 17:22:41.292
71.0, 37513.916196097874, 69493.67457552845, 7222.876813754656, -7714.2575638601265, 22594.41734485833, -34477.275249633225, 17621.57888669716, 7414.855946881288, -0.064, 0.966, 0.20600000000000002, 192.0, 0.0, 0.0, 0.0, 0.0, 0.0, 0.0, 0.0, 0.0, 0.0, 1.700950961296734E9, 0.0, 2023-11-25 17:22:41.296
72.0, 37505.690754138326, 69499.21780815338, 7231.705752814502, -7701.4053107983245, 22510.218323495188, -34718.696441495, 17627.72561642237, 7393.755900115479, -0.064, 0.966, 0.20600000000000002, 192.0, 0.0, 0.0, 0.0, 0.0, 0.0, 0.0, 0.0, 0.0, 0.0, 1.700950961300703E9, 0.0, 2023-11-25 17:22:41.300
73.0, 37543.59931273452, 69541.37319819609, 7237.807779050801, -7682.115755333395, 22524.143460290845, -34557.182736060946, 17629.290238534242, 7416.308810270883, -0.064, 0.966, 0.20600000000000002, 192.0, 0.0, 0.0, 0.0, 0.0, 0.0, 0.0, 0.0, 0.0, 0.0, 1.700950961304663E9, 0.0, 2023-11-25 17:22:41.304
74.0, 37584.815929510114, 69571.1233700661, 7264.562817163804, -7660.479266700658, 22585.074315676015, -34498.21883418785, 17655.73235222487, 7446.550720518914, -0.064, 0.966, 0.20600000000000002, 192.0, 0.0, 0.0, 0.0, 0.0, 0.0, 0.0, 0.0, 0.0, 0.0, 1.700950961308743E9, 0.0, 2023-11-25 17:22:41.308
75.0, 37528.06485033809, 69500.02247095376, 7232.197491192519, -7712.6705900038, 22623.608723116962, -34436.48331600229, 17627.747968166826, 7434.570185490869, -0.064, 0.966, 0.20600000000000002, 192.0, 0.0, 0.0, 0.0, 0.0, 0.0, 0.0, 0.0, 0.0, 0.0, 1.700950961311718E9, 0.0, 2023-11-25 17:22:41.311
76.0, 37507.52359718366, 69486.90199695849, 7232.398656892617, -7709.831918457976, 22516.677977642772, -34726.228979376436, 17621.757700652804, 7390.7160628695565, -0.064, 0.966, 0.20600000000000002, 192.0, 0.0, 0.0, 0.0, 0.0, 0.0, 0.0, 0.0, 0.0, 0.0, 1.700950961316867E9, 0.0, 2023-11-25 17:22:41.316
77.0, 37539.48659175475, 69523.84943054312, 7234.38796214914, -7691.302322304527, 22526.55744869202, -34581.74730321733, 17626.988008855344, 7423.5284237299475, -0.064, 0.962, 0.20800000000000002, 192.0, 254.0, 0.0, 30.0, 16.0, 6.0, 128.0, 0.0, 0.0, 0.0, 1.700950961321091E9, 0.0, 2023-11-25 17:22:41.321
78.0, 37579.38445560747, 69564.17197754049, 7253.878683314167, -7671.141048805839, 22560.12976886389, -34530.0030148033, 17640.711979950902, 7436.246566325018, -0.064, 0.962, 0.20800000000000002, 192.0, 0.0, 0.0, 0.0, 0.0, 0.0, 0.0, 0.0, 0.0, 0.0, 1.70095096132556E9, 0.0, 2023-11-25 17:22:41.325
79.0, 37534.412745763395, 69506.660939057, 7229.537633602337, -7712.156499881327, 22634.114043010955, -34420.81474313912, 17616.30387500571, 7435.888938413733, -0.064, 0.962, 0.20800000000000002, 192.0, 0.0, 0.0, 0.0, 0.0, 0.0, 0.0, 0.0, 0.0, 0.0, 1.700950961328687E9, 0.0, 2023-11-25 17:22:41.328
80.0, 37506.24954774971, 69489.58420629313, 7230.029371980354, -7712.961162681719, 22526.892724858848, -34703.698420965484, 17611.252380758808, 7387.519763412448, -0.064, 0.962, 0.20800000000000002, 192.0, 0.0, 0.0, 0.0, 0.0, 0.0, 0.0, 0.0, 0.0, 0.0, 1.700950961332802E9, 0.0, 2023-11-25 17:22:41.332
81.0, 37538.95014988782, 69526.06225324419, 7235.125569716164, -7690.922342648786, 22530.580762693975, -34605.17193140649, 17616.616799428084, 7416.219403293062, -0.064, 0.962, 0.20800000000000002, 192.0, 0.0, 0.0, 0.0, 0.0, 0.0, 0.0, 0.0, 0.0, 0.0, 1.700950961336766E9, 0.0, 2023-11-25 17:22:41.336
82.0, 37582.24547889775, 69569.40228574304, 7251.822322824279, -7668.32472900447, 22542.874222144394, -34538.20610501839, 17627.882078633556, 7418.074598082852, -0.064, 0.962, 0.20800000000000002, 192.0, 0.0, 0.0, 0.0, 0.0, 0.0, 0.0, 0.0, 0.0, 0.0, 1.700950961339717E9, 0.0, 2023-11-25 17:22:41.339
83.0, 37558.93260943086, 69527.24689570033, 7244.915633787589, -7691.727005449177, 22642.160671014866, -34411.58347267908, 17629.983142612356, 7440.694563471623, -0.064, 0.962, 0.20800000000000002, 192.0, 0.0, 0.0, 0.0, 0.0, 0.0, 0.0, 0.0, 0.0, 0.0, 1.700950961343748E9, 0.0, 2023-11-25 17:22:41.343
84.0, 37514.698507153815, 69489.13717140403, 7235.013810993888, -7709.7425114801545, 22544.88587914537, -34651.775318595806, 17616.66150291699, 7390.783118102922, -0.064, 0.962, 0.20800000000000002, 192.0, 0.0, 0.0, 0.0, 0.0, 0.0, 0.0, 0.0, 0.0, 0.0, 1.700950961348857E9, 0.0, 2023-11-25 17:22:41.348
85.0, 37535.75385043071, 69514.21582868288, 7237.226633694963, -7694.968008395196, 22524.3669777354, -34644.10867024764, 17618.047311073224, 7401.780176374934, -0.064, 0.962, 0.20800000000000002, 192.0, 0.0, 0.0, 0.0, 0.0, 0.0, 0.0, 0.0, 0.0, 0.0, 1.700950961352912E9, 0.0, 2023-11-25 17:22:41.352
86.0, 37580.03265619667, 69562.74146589535, 7252.135247246653, -7671.498676717124, 22528.055015570524, -34547.3032650117, 17626.563325710693, 7407.859850866777, -0.064, 0.962, 0.20800000000000002, 192.0, 0.0, 0.0, 0.0, 0.0, 0.0, 0.0, 0.0, 0.0, 0.0, 1.70095096135683E9, 0.0, 2023-11-25 17:22:41.356
87.0, 37570.4661095698, 69540.63559062906, 7251.53175014636, -7684.99913036813, 22629.75545284217, -34428.21317055383, 17633.760587425302, 7439.487569271037, -0.06, 0.962, 0.21, 192.0, 254.0, 32.0, 30.0, 16.0, 6.0, 144.0, 0.0, 0.0, 0.0, 1.700950961360798E9, 0.0, 2023-11-25 17:22:41.360
88.0, 37513.20094027531, 69484.44330506842, 7227.838901023734, -7719.599630784945, 22554.09479786096, -34589.86098645461, 17615.186287782944, 7398.583876917824, -0.06, 0.962, 0.21, 192.0, 0.0, 0.0, 0.0, 0.0, 0.0, 0.0, 0.0, 0.0, 0.0, 1.700950961363815E9, 0.0, 2023-11-25 17:22:41.363
89.0, 37523.28157702465, 69501.47533434335, 7231.012848736388, -7702.1652701098055, 22511.648835140328, -34680.09497882068, 17625.199869298922, 7405.691731654612, -0.06, 0.962, 0.21, 192.0, 0.0, 0.0, 0.0, 0.0, 0.0, 0.0, 0.0, 0.0, 0.0, 1.700950961367831E9, 0.0, 2023-11-25 17:22:41.367
90.0, 37559.781975720165, 69545.35180870912, 7235.1032179717095, -7686.921380391286, 22508.944274061236, -34550.79013714673, 17629.089072834144, 7414.23009803654, -0.06, 0.962, 0.21, 192.0, 0.0, 0.0, 0.0, 0.0, 0.0, 0.0, 0.0, 0.0, 0.0, 1.700950961371796E9, 0.0, 2023-11-25 17:22:41.371
91.0, 37569.32617060258, 69543.40720694151, 7245.161502976597, -7686.85432515792, 22604.453278118763, -34452.75538596576, 17645.20468058642, 7444.159083862196, -0.06, 0.962, 0.21, 192.0, 0.0, 0.0, 0.0, 0.0, 0.0, 0.0, 0.0, 0.0, 0.0, 1.700950961376787E9, 0.0, 2023-11-25 17:22:41.376
92.0, 37505.266070993675, 69478.96712767686, 7215.7913107623235, -7729.859081489931, 22571.99854516966, -34524.77270660075, 17619.96956109638, 7410.27383926795, -0.06, 0.962, 0.21, 192.0, 0.0, 0.0, 0.0, 0.0, 0.0, 0.0, 0.0, 0.0, 0.0, 1.70095096138082E9, 0.0, 2023-11-25 17:22:41.380
93.0, 37507.32243148356, 69489.31598535967, 7223.681476555047, -7714.011694671118, 22504.004538536614, -34706.023002388836, 17627.233878044353, 7405.4458624656045, -0.06, 0.962, 0.21, 192.0, 0.0, 0.0, 0.0, 0.0, 0.0, 0.0, 0.0, 0.0, 0.0, 1.700950961384934E9, 0.0, 2023-11-25 17:22:41.384
94.0, 37544.7616034462, 69533.68419810345, 7225.491967855927, -7697.583162496468, 22505.6138641374, -34548.867887123575, 17623.47878497586, 7423.975458619054, -0.06, 0.962, 0.21, 192.0, 0.0, 0.0, 0.0, 0.0, 0.0, 0.0, 0.0, 0.0, 0.0, 1.700950961388865E9, 0.0, 2023-11-25 17:22:41.388
95.0, 37561.86068795451, 69546.73761686536, 7233.873872026667, -7693.850421172431, 22574.90427194885, -34480.44919734588, 17627.412691999994, 7435.754827947, -0.06, 0.962, 0.21, 192.0, 0.0, 0.0, 0.0, 0.0, 0.0, 0.0, 0.0, 0.0, 0.0, 1.700950961391877E9, 0.0, 2023-11-25 17:22:41.391
96.0, 37512.82096061957, 69491.26058712728, 7213.042046194321, -7733.345953624958, 22592.226873901713, -34470.703836763365, 17603.51867717727, 7414.118339314264, -0.06, 0.962, 0.21, 192.0, 0.0, 0.0, 0.0, 0.0, 0.0, 0.0, 0.0, 0.0, 0.0, 1.70095096139632E9, 0.0, 2023-11-25 17:22:41.396
97.0, 37512.105704796995, 69496.8485232411, 7230.6999243140135, -7715.173985382794, 22511.447669440233, -34719.05406940628, 17621.735348908347, 7400.908458341177, -0.062, 0.968, 0.21, 192.0, 254.0, 16.0, 30.0, 64.0, 6.0, 144.0, 0.0, 0.0, 0.0, 1.700950961399909E9, 0.0, 2023-11-25 17:22:41.399
98.0, 37551.109498871505, 69535.9640760379, 7242.836921553246, -7693.671607216788, 22529.731396404673, -34553.58410520364, 17631.771282168782, 7430.904499400199, -0.062, 0.968, 0.21, 192.0, 0.0, 0.0, 0.0, 0.0, 0.0, 0.0, 0.0, 0.0, 0.0, 1.700950961404055E9, 0.0, 2023-11-25 17:22:41.404
99.0, 37579.31740037411, 69553.10786403512, 7256.896168815633, -7684.32857803447, 22572.62439401441, -34500.16343595546, 17640.577869484172, 7439.599327993314, -0.062, 0.968, 0.21, 192.0, 0.0, 0.0, 0.0, 0.0, 0.0, 0.0, 0.0, 0.0, 0.0, 1.700950961408945E9, 0.0, 2023-11-25 17:22:41.408
100.0, 37531.5070189842, 69491.5511598052, 7229.984668491444, -7728.383866355881, 22618.758394570163, -34421.842923384065, 17617.332055250652, 7427.730551687545, -0.062, 0.968, 0.21, 192.0, 0.0, 0.0, 0.0, 0.0, 0.0, 0.0, 0.0, 0.0, 0.0, 1.700950961412948E9, 0.0, 2023-11-25 17:22:41.412
101.0, 37508.887053595434, 69483.07984865663, 7231.772808047868, -7727.825072744498, 22507.02202403808, -34709.68868847951, 17611.67706390346, 7385.977493045032, -0.062, 0.968, 0.21, 192.0, 0.0, 0.0, 0.0, 0.0, 0.0, 0.0, 0.0, 0.0, 0.0, 1.700950961416E9, 0.0, 2023-11-25 17:22:41.416
102.0, 37539.21837082128, 69523.44709914293, 7236.176101705564, -7708.848441701943, 22517.46028869871, -34576.405236292514, 17613.19698252642, 7409.8491561232995, -0.062, 0.968, 0.21, 192.0, 0.0, 0.0, 0.0, 0.0, 0.0, 0.0, 0.0, 0.0, 0.0, 1.700950961420018E9, 0.0, 2023-11-25 17:22:41.420
103.0, 37580.479691085784, 69564.68606766297, 7261.38886945115, -7683.836839656454, 22551.881975159882, -34523.25278797779, 17625.53514546575, 7414.699484670101, -0.062, 0.968, 0.21, 192.0, 0.0, 0.0, 0.0, 0.0, 0.0, 0.0, 0.0, 0.0, 0.0, 1.700950961424049E9, 0.0, 2023-11-25 17:22:41.424
104.0, 37548.42728953687, 69520.36255840809, 7251.5988053797255, -7712.447072559246, 22644.015865804657, -34401.704001629834, 17616.30387500571, 7431.262127311484, -0.062, 0.968, 0.21, 192.0, 0.0, 0.0, 0.0, 0.0, 0.0, 0.0, 0.0, 0.0, 0.0, 1.700950961428029E9, 0.0, 2023-11-25 17:22:41.428
105.0, 37515.86079786549, 69497.07204068566, 7250.14594199013, -7718.817319729009, 22537.50980347512, -34675.69168516299, 17609.66540690248, 7384.479926166526, -0.062, 0.968, 0.21, 192.0, 0.0, 0.0, 0.0, 0.0, 0.0, 0.0, 0.0, 0.0, 0.0, 1.700950961432029E9, 0.0, 2023-11-25 17:22:41.432
106.0, 37538.77133593218, 69519.69200607443, 7249.609500123203, -7706.166232367305, 22532.525364461588, -34600.81334123771, 17614.82865987166, 7406.965781088565, -0.062, 0.968, 0.21, 192.0, 0.0, 0.0, 0.0, 0.0, 0.0, 0.0, 0.0, 0.0, 0.0, 1.700950961436974E9, 0.0, 2023-11-25 17:22:41.436
107.0, 37581.038484697165, 69560.79686412774, 7266.730936375969, -7684.842668156943, 22543.008332611123, -34531.098250281604, 17628.57498271167, 7415.213574792573, -0.068, 0.976, 0.20600000000000002, 192.0, 253.0, 224.0, 30.0, 128.0, 6.0, 112.0, 0.0, 0.0, 0.0, 1.700950961441025E9, 0.0, 2023-11-25 17:22:41.441
108.0, 37555.08810938455, 69522.55302936472, 7257.522017660382, -7709.42958705778, 22642.2947814816, -34404.67678364239, 17624.462261731896, 7437.073580869864, -0.068, 0.976, 0.20600000000000002, 192.0, 0.0, 0.0, 0.0, 0.0, 0.0, 0.0, 0.0, 0.0, 0.0, 1.700950961444018E9, 0.0, 2023-11-25 17:22:41.444
109.0, 37508.77529487316, 69485.71735450237, 7247.083752999753, -7723.801758742543, 22552.999562382647, -34630.60821659663, 17614.06870056018, 7394.828783849333, -0.068, 0.976, 0.20600000000000002, 192.0, 0.0, 0.0, 0.0, 0.0, 0.0, 0.0, 0.0, 0.0, 0.0, 1.700950961448017E9, 0.0, 2023-11-25 17:22:41.448
110.0, 37533.58573121855, 69517.34507290662, 7259.936006061555, -7692.598723482934, 22542.22602155519, -34632.530466619784, 17632.464186246896, 7425.093045841819, -0.068, 0.976, 0.20600000000000002, 192.0, 0.0, 0.0, 0.0, 0.0, 0.0, 0.0, 0.0, 0.0, 0.0, 1.700950961452057E9, 0.0, 2023-11-25 17:22:41.452
111.0, 37584.90533648793, 69572.24095728886, 7283.047709828343, -7659.093458544428, 22555.301792061546, -34520.57057864316, 17654.525358024282, 7443.868511184277, -0.068, 0.976, 0.20600000000000002, 192.0, 0.0, 0.0, 0.0, 0.0, 0.0, 0.0, 0.0, 0.0, 0.0, 1.7009509614561E9, 0.0, 2023-11-25 17:22:41.456
112.0, 37563.067682155095, 69537.95338129441, 7270.82130561129, -7682.898066389331, 22641.087787281012, -34400.318193473606, 17653.743046968346, 7467.091973673341, -0.068, 0.976, 0.20600000000000002, 192.0, 0.0, 0.0, 0.0, 0.0, 0.0, 0.0, 0.0, 0.0, 0.0, 1.700950961460125E9, 0.0, 2023-11-25 17:22:41.460
113.0, 37506.2048442608, 69485.29267135772, 7249.877721056667, -7716.358627838926, 22576.26772836062, -34550.92424761346, 17635.481671748363, 7422.857871396288, -0.068, 0.976, 0.20600000000000002, 192.0, 0.0, 0.0, 0.0, 0.0, 0.0, 0.0, 0.0, 0.0, 0.0, 1.700950961464147E9, 0.0, 2023-11-25 17:22:41.464
114.0, 37520.44290547883, 69510.3042734032, 7262.193532251541, -7691.727005449177, 22536.906306374825, -34656.446833186965, 17653.139549868054, 7433.206729079096, -0.068, 0.976, 0.20600000000000002, 192.0, 0.0, 0.0, 0.0, 0.0, 0.0, 0.0, 0.0, 0.0, 0.0, 1.700950961469096E9, 0.0, 2023-11-25 17:22:41.469
115.0, 37566.82277522359, 69560.90862285002, 7270.195456766541, -7670.895179616831, 22539.70027443174, -34520.95055829889, 17660.985012171866, 7446.550720518914, -0.068, 0.976, 0.20600000000000002, 192.0, 0.0, 0.0, 0.0, 0.0, 0.0, 0.0, 0.0, 0.0, 0.0, 1.700950961472102E9, 0.0, 2023-11-25 17:22:41.472
116.0, 37580.34558061905, 69562.22737577288, 7277.727994647979, -7672.437449984247, 22626.22387721823, -34427.81083915363, 17673.099657666644, 7471.5399708199475, -0.068, 0.976, 0.20600000000000002, 192.0, 0.0, 0.0, 0.0, 0.0, 0.0, 0.0, 0.0, 0.0, 0.0, 1.700950961476227E9, 0.0, 2023-11-25 17:22:41.476
117.0, 37520.44290547883, 69502.16823842148, 7247.3743256776725, -7714.235212115671, 22603.067469962534, -34480.40449385697, 17649.071532377187, 7438.682906470645, -0.066, 0.976, 0.20600000000000002, 192.0, 253.0, 240.0, 30.0, 128.0, 6.0, 112.0, 0.0, 0.0, 0.0, 1.700950961480133E9, 0.0, 2023-11-25 17:22:41.480
118.0, 37525.96378635929, 69520.09433747463, 7258.259625227407, -7692.621075227389, 22532.74888190614, -34683.783016655805, 17659.35333482663, 7429.250470310506, -0.066, 0.976, 0.20600000000000002, 192.0, 0.0, 0.0, 0.0, 0.0, 0.0, 0.0, 0.0, 0.0, 0.0, 1.70095096148419E9, 0.0, 2023-11-25 17:22:41.484
119.0, 37564.07351065559, 69561.48976820587, 7261.746497362435, -7673.845609884931, 22540.147309320844, -34520.771744343256, 17663.264890106308, 7451.825732210366, -0.066, 0.976, 0.20600000000000002, 192.0, 0.0, 0.0, 0.0, 0.0, 0.0, 0.0, 0.0, 0.0, 0.0, 1.700950961488189E9, 0.0, 2023-11-25 17:22:41.488
120.0, 37584.79357776565, 69570.3187072657, 7271.6706719005915, -7668.8835226158535, 22604.207408929757, -34458.79035696869, 17669.478675064885, 7466.801400995422, -0.066, 0.976, 0.20600000000000002, 192.0, 0.0, 0.0, 0.0, 0.0, 0.0, 0.0, 0.0, 0.0, 0.0, 1.700950961492288E9, 0.0, 2023-11-25 17:22:41.492
121.0, 37532.22227480677, 69514.908732761, 7249.38598267865, -7711.061264403018, 22632.01297903216, -34427.632025197985, 17648.557442254718, 7456.340784590338, -0.066, 0.976, 0.20600000000000002, 192.0, 0.0, 0.0, 0.0, 0.0, 0.0, 0.0, 0.0, 0.0, 0.0, 1.700950961497232E9, 0.0, 2023-11-25 17:22:41.497
122.0, 37520.778181645655, 69515.7580990503, 7256.225616481975, -7704.758072466621, 22534.35820750692, -34690.33207778121, 17654.994744657844, 7437.610022736791, -0.066, 0.976, 0.20600000000000002, 192.0, 0.0, 0.0, 0.0, 0.0, 0.0, 0.0, 0.0, 0.0, 0.0, 1.700950961500227E9, 0.0, 2023-11-25 17:22:41.500
123.0, 37552.025920394175, 69543.60837264161, 7254.124552503175, -7692.218743827194, 22536.727492419184, -34536.06033755068, 17654.50300627983, 7460.297043358928, -0.066, 0.976, 0.20600000000000002, 192.0, 0.0, 0.0, 0.0, 0.0, 0.0, 0.0, 0.0, 0.0, 0.0, 1.700950961505253E9, 0.0, 2023-11-25 17:22:41.505
124.0, 37588.63807781197, 69570.9669078549, 7270.083698044265, -7675.276121530071, 22582.079181919, -34491.759180040266, 17657.83341620367, 7462.7333835045565, -0.066, 0.976, 0.20600000000000002, 192.0, 0.0, 0.0, 0.0, 0.0, 0.0, 0.0, 0.0, 0.0, 0.0, 1.700950961508281E9, 0.0, 2023-11-25 17:22:41.508
125.0, 37541.09591735553, 69516.29454091722, 7244.6697645985805, -7714.391674326858, 22638.830261091025, -34402.84394059705, 17630.743101923836, 7458.374793335771, -0.066, 0.976, 0.20600000000000002, 192.0, 0.0, 0.0, 0.0, 0.0, 0.0, 0.0, 0.0, 0.0, 0.0, 1.700950961512391E9, 0.0, 2023-11-25 17:22:41.512
126.0, 37517.33601299954, 69505.6104070676, 7247.977822777966, -7710.547174280546, 22531.02779758308, -34692.00845861536, 17632.30772403571, 7419.169833561163, -0.066, 0.976, 0.20600000000000002, 192.0, 0.0, 0.0, 0.0, 0.0, 0.0, 0.0, 0.0, 0.0, 0.0, 1.700950961516298E9, 0.0, 2023-11-25 17:22:41.516
127.0, 37549.07549012607, 69542.69195111895, 7250.570625134782, -7692.822240927487, 22539.208536053724, -34570.057340867206, 17633.71588393639, 7436.604194236303, -0.058, 0.968, 0.202, 192.0, 254.0, 48.0, 30.0, 64.0, 6.0, 80.0, 0.0, 0.0, 0.0, 1.700950961520424E9, 0.0, 2023-11-25 17:22:41.520
128.0, 37593.71192380333, 69586.05433536223, 7269.524904432882, -7666.514237703591, 22562.431998542786, -34512.97098552835, 17647.663372476505, 7438.392333792727, -0.058, 0.968, 0.202, 192.0, 0.0, 0.0, 0.0, 0.0, 0.0, 0.0, 0.0, 0.0, 0.0, 1.70095096152638E9, 0.0, 2023-11-25 17:22:41.526
129.0, 37551.400071549426, 69528.87857304557, 7245.6085378657035, -7703.841650943953, 22644.82052860505, -34384.96254503281, 17632.575944969172, 7456.541950290436, -0.058, 0.968, 0.202, 192.0, 0.0, 0.0, 0.0, 0.0, 0.0, 0.0, 0.0, 0.0, 0.0, 1.700950961529464E9, 0.0, 2023-11-25 17:22:41.529
130.0, 37523.929777613856, 69508.71729954687, 7248.737782089446, -7706.255639345127, 22549.065655358514, -34654.05519653025, 17633.87234614758, 7419.639220194724, -0.058, 0.968, 0.202, 192.0, 0.0, 0.0, 0.0, 0.0, 0.0, 0.0, 0.0, 0.0, 0.0, 1.700950961532392E9, 0.0, 2023-11-25 17:22:41.532
131.0, 37545.47685926877, 69531.65018935803, 7248.581319878259, -7694.90095316183, 22541.13078607688, -34596.7676754913, 17637.180404326966, 7437.431208781149, -0.058, 0.968, 0.202, 192.0, 0.0, 0.0, 0.0, 0.0, 0.0, 0.0, 0.0, 0.0, 0.0, 1.700950961536354E9, 0.0, 2023-11-25 17:22:41.536
132.0, 37591.00736272423, 69578.58885271417, 7267.423840454083, -7668.5929499379345, 22551.16671933731, -34528.01370954677, 17652.983087656867, 7444.270842584472, -0.058, 0.968, 0.202, 192.0, 0.0, 0.0, 0.0, 0.0, 0.0, 0.0, 0.0, 0.0, 0.0, 1.70095096154035E9, 0.0, 2023-11-25 17:22:41.540
133.0, 37567.35921709052, 69535.7629103378, 7253.297537958329, -7697.292589818549, 22646.00517106118, -34397.07719052758, 17646.791654442746, 7465.169723650185, -0.058, 0.968, 0.202, 192.0, 0.0, 0.0, 0.0, 0.0, 0.0, 0.0, 0.0, 0.0, 0.0, 1.700950961544393E9, 0.0, 2023-11-25 17:22:41.544
134.0, 37525.82967589256, 69499.84365699813, 7244.826226809768, -7714.726950493688, 22565.337725321977, -34608.5693965637, 17637.06864560469, 7420.555641717392, -0.058, 0.968, 0.202, 192.0, 0.0, 0.0, 0.0, 0.0, 0.0, 0.0, 0.0, 0.0, 0.0, 1.700950961548474E9, 0.0, 2023-11-25 17:22:41.548
135.0, 37538.2125423208, 69523.08947123164, 7250.0118315233985, -7697.918438663297, 22538.2697627866, -34637.04551899976, 17643.573003241185, 7435.196034335618, -0.058, 0.968, 0.202, 192.0, 0.0, 0.0, 0.0, 0.0, 0.0, 0.0, 0.0, 0.0, 0.0, 1.700950961552449E9, 0.0, 2023-11-25 17:22:41.552
136.0, 37576.501080572736, 69564.79782638524, 7258.796067094335, -7678.09244133144, 22536.66043718582, -34526.38203220154, 17648.82566318818, 7443.309717572894, -0.058, 0.968, 0.202, 192.0, 0.0, 0.0, 0.0, 0.0, 0.0, 0.0, 0.0, 0.0, 0.0, 1.700950961556488E9, 0.0, 2023-11-25 17:22:41.556
137.0, 37573.684760771364, 69546.89407907655, 7261.031241539865, -7687.591932724945, 22637.645618634895, -34411.359955234526, 17655.642945247047, 7473.395165609738, -0.056, 0.966, 0.202, 192.0, 254.0, 64.0, 30.0, 48.0, 6.0, 80.0, 0.0, 0.0, 0.0, 1.700950961559513E9, 0.0, 2023-11-25 17:22:41.559
138.0, 37515.592576932024, 69487.90782545898, 7238.925366273566, -7724.047627931551, 22581.81096098554, -34538.49667769631, 17636.286334548753, 7432.782045934445, -0.056, 0.966, 0.202, 192.0, 0.0, 0.0, 0.0, 0.0, 0.0, 0.0, 0.0, 0.0, 0.0, 1.700950961563495E9, 0.0, 2023-11-25 17:22:41.563
139.0, 37526.94726311532, 69504.33635763364, 7252.023488524376, -7700.33242706447, 22534.80524239603, -34666.90744959205, 17652.670163234492, 7440.471046027071, -0.056, 0.966, 0.202, 192.0, 0.0, 0.0, 0.0, 0.0, 0.0, 0.0, 0.0, 0.0, 0.0, 1.700950961568502E9, 0.0, 2023-11-25 17:22:41.568
140.0, 37565.86165021201, 69547.13994826555, 7257.522017660382, -7681.534609977557, 22533.352379006432, -34522.40342168849, 17658.727485981883, 7458.397145080226, -0.056, 0.966, 0.202, 192.0, 0.0, 0.0, 0.0, 0.0, 0.0, 0.0, 0.0, 0.0, 0.0, 1.700950961572532E9, 0.0, 2023-11-25 17:22:41.572
141.0, 37578.84801374054, 69554.06898904669, 7267.177971265075, -7678.293607031537, 22616.053833491067, -34437.422089269414, 17675.781867001282, 7487.700282061134, -0.056, 0.966, 0.202, 192.0, 0.0, 0.0, 0.0, 0.0, 0.0, 0.0, 0.0, 0.0, 0.0, 1.700950961576537E9, 0.0, 2023-11-25 17:22:41.576
142.0, 37518.58771068903, 69490.18770339343, 7236.5113778723935, -7722.326543608492, 22599.312376894042, -34473.81072924265, 17648.132759110067, 7458.419496824682, -0.056, 0.966, 0.202, 192.0, 0.0, 0.0, 0.0, 0.0, 0.0, 0.0, 0.0, 0.0, 0.0, 1.700950961582549E9, 0.0, 2023-11-25 17:22:41.582
143.0, 37513.67032690887, 69493.20518889489, 7237.00311625041, -7711.754168481132, 22518.086137543458, -34691.829644659716, 17653.027791145778, 7445.880168185255, -0.056, 0.966, 0.202, 192.0, 0.0, 0.0, 0.0, 0.0, 0.0, 0.0, 0.0, 0.0, 0.0, 1.700950961585517E9, 0.0, 2023-11-25 17:22:41.585
144.0, 37556.786841963156, 69538.04278827224, 7241.764037819391, -7690.810583926509, 22527.943256848248, -34536.37326197306, 17660.806198216225, 7468.030746940464, -0.056, 0.966, 0.202, 192.0, 0.0, 0.0, 0.0, 0.0, 0.0, 0.0, 0.0, 0.0, 0.0, 1.700950961588533E9, 0.0, 2023-11-25 17:22:41.588
145.0, 37594.56129009263, 69565.35661999663, 7269.39079396615, -7668.637653426845, 22600.698185050274, -34471.6873135194, 17684.74491652786, 7493.712901319612, -0.056, 0.966, 0.202, 192.0, 0.0, 0.0, 0.0, 0.0, 0.0, 0.0, 0.0, 0.0, 0.0, 1.700950961591577E9, 0.0, 2023-11-25 17:22:41.591
146.0, 37538.57017023208, 69503.7999157667, 7244.334488431751, -7710.48011904718, 22635.72336861174, -34418.199589037846, 17663.68957325096, 7485.867439015799, -0.056, 0.966, 0.202, 192.0, 0.0, 0.0, 0.0, 0.0, 0.0, 0.0, 0.0, 0.0, 0.0, 1.700950961597584E9, 0.0, 2023-11-25 17:22:41.597
147.0, 37516.62075717697, 69496.22267439635, 7243.775694820368, -7710.6812847472775, 22529.709044660216, -34695.65179296157, 17653.519529523794, 7442.259185583495, -0.06, 0.968, 0.202, 192.0, 254.0, 32.0, 30.0, 64.0, 6.0, 80.0, 0.0, 0.0, 0.0, 1.700950961600565E9, 0.0, 2023-11-25 17:22:41.600
148.0, 37551.17655410487, 69538.19925048343, 7249.609500123203, -7691.883467660364, 22536.325161018987, -34553.80762264819, 17647.953945154422, 7453.6362235112465, -0.06, 0.968, 0.202, 192.0, 0.0, 0.0, 0.0, 0.0, 0.0, 0.0, 0.0, 0.0, 0.0, 1.700950961604553E9, 0.0, 2023-11-25 17:22:41.604
149.0, 37591.186176679876, 69573.13502706707, 7273.481163201472, -7671.431621483758, 22577.407667327843, -34502.75623831228, 17659.979183671378, 7461.414630581693, -0.06, 0.968, 0.202, 192.0, 0.0, 0.0, 0.0, 0.0, 0.0, 0.0, 0.0, 0.0, 0.0, 1.700950961608588E9, 0.0, 2023-11-25 17:22:41.608
150.0, 37544.31456855709, 69511.53361934825, 7248.693078600536, -7718.0126569286185, 22641.646580892397, -34403.11216153052, 17634.29702929223, 7452.988022922043, -0.06, 0.968, 0.202, 192.0, 0.0, 0.0, 0.0, 0.0, 0.0, 0.0, 0.0, 0.0, 0.0, 1.700950961611702E9, 0.0, 2023-11-25 17:22:41.611
151.0, 37523.97448110276, 69509.09727920262, 7261.210055495508, -7708.557869024024, 22541.823690154994, -34689.77328416983, 17633.894697892036, 7413.201917791595, -0.06, 0.968, 0.202, 192.0, 0.0, 0.0, 0.0, 0.0, 0.0, 0.0, 0.0, 0.0, 0.0, 1.700950961615615E9, 0.0, 2023-11-25 17:22:41.615
152.0, 37560.16195537591, 69553.77841636878, 7273.034128312365, -7680.327615776971, 22558.699257218752, -34564.33529428665, 17646.67989572047, 7450.551682776414, -0.06, 0.968, 0.202, 192.0, 0.0, 0.0, 0.0, 0.0, 0.0, 0.0, 0.0, 0.0, 0.0, 1.700950961619646E9, 0.0, 2023-11-25 17:22:41.619
153.0, 37602.51851111872, 69592.93867265448, 7290.8708203877, -7660.479266700658, 22579.061696417535, -34505.70666858037, 17661.007363916324, 7455.2231973675725, -0.06, 0.968, 0.202, 192.0, 0.0, 0.0, 0.0, 0.0, 0.0, 0.0, 0.0, 0.0, 0.0, 1.700950961623649E9, 0.0, 2023-11-25 17:22:41.623
154.0, 37558.731443730765, 69537.4616429164, 7268.027337554377, -7702.321732320993, 22661.96431660227, -34385.767207833196, 17648.95977365491, 7464.901502716721, -0.06, 0.968, 0.202, 192.0, 0.0, 0.0, 0.0, 0.0, 0.0, 0.0, 0.0, 0.0, 0.0, 1.700950961628676E9, 0.0, 2023-11-25 17:22:41.628
155.0, 37518.4536002223, 69506.75034603481, 7262.260587484907, -7716.157462138827, 22559.906251419336, -34648.75783309434, 17646.54578525374, 7419.795682405911, -0.06, 0.968, 0.202, 192.0, 0.0, 0.0, 0.0, 0.0, 0.0, 0.0, 0.0, 0.0, 0.0, 1.700950961632655E9, 0.0, 2023-11-25 17:22:41.632
156.0, 37536.33499578655, 69529.37031142358, 7262.774677607379, -7704.333389321971, 22550.40676002583, -34609.195245408446, 17649.093884121645, 7434.145502346219, -0.06, 0.968, 0.202, 192.0, 0.0, 0.0, 0.0, 0.0, 0.0, 0.0, 0.0, 0.0, 0.0, 1.700950961636684E9, 0.0, 2023-11-25 17:22:41.636
157.0, 37583.407769609425, 69578.65590794754, 7279.762003393413, -7679.321787276482, 22560.152120608345, -34529.10894502508, 17662.706096494927, 7439.308755315395, -0.062, 0.972, 0.20400000000000001, 192.0, 254.0, 16.0, 30.0, 96.0, 6.0, 96.0, 0.0, 0.0, 0.0, 1.700950961639657E9, 0.0, 2023-11-25 17:22:41.639
158.0, 37564.78876647816, 69547.47522443238, 7269.435497455061, -7701.897049176342, 22655.594069432507, -34402.48631268577, 17661.364991827606, 7462.979252693564, -0.062, 0.972, 0.20400000000000001, 192.0, 0.0, 0.0, 0.0, 0.0, 0.0, 0.0, 0.0, 0.0, 0.0, 1.700950961643703E9, 0.0, 2023-11-25 17:22:41.643
159.0, 37517.33601299954, 69508.06909895767, 7256.426782182072, -7724.785235498576, 22573.317298092523, -34593.59372777864, 17650.032657388765, 7427.238813309528, -0.062, 0.972, 0.20400000000000001, 192.0, 0.0, 0.0, 0.0, 0.0, 0.0, 0.0, 0.0, 0.0, 0.0, 1.700950961647675E9, 0.0, 2023-11-25 17:22:41.647
160.0, 37535.01624286368, 69536.56757313819, 7266.373308464684, -7701.070034631495, 22547.836309413473, -34641.359405679636, 17666.550596541238, 7445.857816440799, -0.062, 0.972, 0.20400000000000001, 192.0, 0.0, 0.0, 0.0, 0.0, 0.0, 0.0, 0.0, 0.0, 0.0, 1.700950961654817E9, 0.0, 2023-11-25 17:22:41.654
161.0, 37577.462205584314, 69584.28854755027, 7277.750346392435, -7677.354833764414, 22551.74786469315, -34521.598758888096, 17678.68759378047, 7457.346613090827, -0.062, 0.972, 0.20400000000000001, 192.0, 0.0, 0.0, 0.0, 0.0, 0.0, 0.0, 0.0, 0.0, 0.0, 1.70095096165675E9, 0.0, 2023-11-25 17:22:41.656
162.0, 37571.874269470485, 69564.44019847395, 7276.252779513929, -7690.274142059582, 22642.85357509298, -34414.4221442249, 17690.86929450861, 7482.425270369682, -0.062, 0.972, 0.20400000000000001, 192.0, 0.0, 0.0, 0.0, 0.0, 0.0, 0.0, 0.0, 0.0, 0.0, 1.700950961660695E9, 0.0, 2023-11-25 17:22:41.660
163.0, 37515.3020042541, 69504.91750298948, 7253.856331569712, -7727.914479722319, 22595.356118125455, -34527.20904674638, 17678.12880016909, 7444.76258096249, -0.062, 0.972, 0.20400000000000001, 192.0, 0.0, 0.0, 0.0, 0.0, 0.0, 0.0, 0.0, 0.0, 0.0, 1.700950961665763E9, 0.0, 2023-11-25 17:22:41.665
164.0, 37532.06581259559, 69524.49763113233, 7270.173105022086, -7702.567601510001, 22546.383446023876, -34672.607144428155, 17702.089870225176, 7451.043421154431, -0.062, 0.972, 0.20400000000000001, 192.0, 0.0, 0.0, 0.0, 0.0, 0.0, 0.0, 0.0, 0.0, 0.0, 1.700950961670087E9, 0.0, 2023-11-25 17:22:41.670
165.0, 37569.72850200278, 69565.44602697444, 7272.698852145536, -7683.881543145364, 22544.975286123194, -34522.425773432944, 17707.07430923871, 7463.225121882573, -0.062, 0.972, 0.20400000000000001, 192.0, 0.0, 0.0, 0.0, 0.0, 0.0, 0.0, 0.0, 0.0, 0.0, 1.700950961673034E9, 0.0, 2023-11-25 17:22:41.673
166.0, 37591.56615633561, 69578.2759282918, 7285.193477296052, -7672.884484873353, 22630.090729009, -34436.88564740249, 17725.670960625524, 7490.248380929039, -0.062, 0.972, 0.20400000000000001, 192.0, 0.0, 0.0, 0.0, 0.0, 0.0, 0.0, 0.0, 0.0, 0.0, 1.700950961675799E9, 0.0, 2023-11-25 17:22:41.675
167.0, 37536.44675450883, 69516.62981708406, 7252.62698562467, -7715.151633638339, 22623.3405021835, -34453.515345277236, 17694.55733234374, 7457.346613090827, -0.062, 0.974, 0.198, 192.0, 254.0, 16.0, 30.0, 112.0, 6.0, 48.0, 0.0, 0.0, 0.0, 1.700950961679794E9, 0.0, 2023-11-25 17:22:41.679
168.0, 37532.110516084496, 69521.92718051997, 7254.549235647826, -7703.081691632473, 22539.5214604761, -34688.5886417137, 17694.289111410275, 7431.70916220059, -0.062, 0.974, 0.198, 192.0, 0.0, 0.0, 0.0, 0.0, 0.0, 0.0, 0.0, 0.0, 0.0, 1.700950961683906E9, 0.0, 2023-11-25 17:22:41.683
169.0, 37573.43889158236, 69563.99316358485, 7253.543407147337, -7684.99913036813, 22548.529213491587, -34528.46074443588, 17693.1268206986, 7450.685793243146, -0.062, 0.974, 0.198, 192.0, 0.0, 0.0, 0.0, 0.0, 0.0, 0.0, 0.0, 0.0, 0.0, 1.700950961688842E9, 0.0, 2023-11-25 17:22:41.688
170.0, 37605.714810575824, 69587.41779177402, 7266.261549742407, -7670.515199961091, 22608.56599909854, -34471.37438909702, 17707.70015808346, 7466.354366106316, -0.062, 0.974, 0.198, 192.0, 0.0, 0.0, 0.0, 0.0, 0.0, 0.0, 0.0, 0.0, 0.0, 1.700950961691879E9, 0.0, 2023-11-25 17:22:41.691
171.0, 37557.52444953018, 69532.23133471386, 7240.042953496332, -7709.42958705778, 22648.642676906908, -34413.32690874659, 17689.68465205248, 7458.844179969333, -0.062, 0.974, 0.198, 192.0, 0.0, 0.0, 0.0, 0.0, 0.0, 0.0, 0.0, 0.0, 0.0, 1.700950961695827E9, 0.0, 2023-11-25 17:22:41.695
172.0, 37550.6624639824, 69533.43832891445, 7249.631851867659, -7694.275104317082, 22552.194899582257, -34692.947231882485, 17700.435841135484, 7431.150368589208, -0.062, 0.974, 0.198, 192.0, 0.0, 0.0, 0.0, 0.0, 0.0, 0.0, 0.0, 0.0, 0.0, 1.70095096169989E9, 0.0, 2023-11-25 17:22:41.699
173.0, 37585.88881324397, 69571.3692392551, 7248.983651278455, -7673.644444184833, 22561.51557702012, -34544.241076021324, 17708.817745306224, 7458.307738102405, -0.062, 0.974, 0.198, 192.0, 0.0, 0.0, 0.0, 0.0, 0.0, 0.0, 0.0, 0.0, 0.0, 1.700950961703854E9, 0.0, 2023-11-25 17:22:41.703
174.0, 37627.97714805331, 69606.10385013865, 7264.29459623034, -7652.99143230813, 22599.37943212741, -34497.145950453996, 17725.89447807008, 7467.740174262545, -0.062, 0.974, 0.198, 192.0, 0.0, 0.0, 0.0, 0.0, 0.0, 0.0, 0.0, 0.0, 0.0, 1.700950961707854E9, 0.0, 2023-11-25 17:22:41.707
175.0, 37587.25226965574, 69547.78814885476, 7237.204281950508, -7691.6599502158115, 22674.660107452884, -34389.63405962397, 17710.203553462452, 7469.640072541246, -0.062, 0.974, 0.198, 192.0, 0.0, 0.0, 0.0, 0.0, 0.0, 0.0, 0.0, 0.0, 0.0, 1.700950961711898E9, 0.0, 2023-11-25 17:22:41.711
176.0, 37557.05506289662, 69523.22358169837, 7231.370476647673, -7697.516107263102, 22561.828501442495, -34681.32432476572, 17701.262855680332, 7417.225231793551, -0.062, 0.974, 0.198, 192.0, 0.0, 0.0, 0.0, 0.0, 0.0, 0.0, 0.0, 0.0, 0.0, 1.70095096171694E9, 0.0, 2023-11-25 17:22:41.716
177.0, 37586.08997894407, 69550.76093086731, 7227.749494045913, -7681.780479166566, 22563.75075146565, -34586.396466064034, 17698.245370178865, 7432.46912151207, -0.06, 0.966, 0.196, 192.0, 254.0, 32.0, 30.0, 48.0, 6.0, 32.0, 0.0, 0.0, 0.0, 1.700950961719949E9, 0.0, 2023-11-25 17:22:41.719
178.0, 37637.47663944682, 69594.5256465108, 7245.407372165606, -7657.506484688102, 22585.968385454224, -34528.170171757956, 17709.197724961963, 7436.157159347196, -0.06, 0.966, 0.196, 192.0, 0.0, 0.0, 0.0, 0.0, 0.0, 0.0, 0.0, 0.0, 0.0, 1.700950961723959E9, 0.0, 2023-11-25 17:22:41.723
179.0, 37604.88779603098, 69542.93782030795, 7227.280107412352, -7691.056453115518, 22680.382154033443, -34395.75843760472, 17703.900361526055, 7457.19015087964, -0.06, 0.966, 0.196, 192.0, 0.0, 0.0, 0.0, 0.0, 0.0, 0.0, 0.0, 0.0, 0.0, 1.700950961729E9, 0.0, 2023-11-25 17:22:41.729
180.0, 37563.5147170442, 69507.91263674649, 7219.591107319726, -7704.400444555336, 22581.833312729992, -34650.925952306505, 17694.803201532748, 7406.876374110744, -0.06, 0.966, 0.196, 192.0, 0.0, 0.0, 0.0, 0.0, 0.0, 0.0, 0.0, 0.0, 0.0, 1.700950961732096E9, 0.0, 2023-11-25 17:22:41.732
181.0, 37586.87229, 69535.07000625969, 7222.876813754656, -7682.965121622697, 22573.071428903513, -34625.28850141627, 17700.704062068948, 7425.89770864221, -0.06, 0.966, 0.196, 192.0, 0.0, 0.0, 0.0, 0.0, 0.0, 0.0, 0.0, 0.0, 0.0, 1.700950961735999E9, 0.0, 2023-11-25 17:22:41.735
182.0, 37629.60882539854, 69581.11459983762, 7234.097389471221, -7664.27906325806, 22578.882882461894, -34541.31299749768, 17705.152059215554, 7423.662534196679, -0.06, 0.966, 0.196, 192.0, 0.0, 0.0, 0.0, 0.0, 0.0, 0.0, 0.0, 0.0, 0.0, 1.700950961740006E9, 0.0, 2023-11-25 17:22:41.740
183.0, 37620.5787206386, 69556.75119838133, 7225.939002745034, -7685.513220490601, 22677.43172376534, -34420.70298441684, 17700.145268457563, 7441.767447205478, -0.06, 0.966, 0.196, 192.0, 0.0, 0.0, 0.0, 0.0, 0.0, 0.0, 0.0, 0.0, 0.0, 1.700950961745068E9, 0.0, 2023-11-25 17:22:41.745
184.0, 37571.22606888128, 69512.49474435982, 7206.940019958022, -7714.682247004777, 22597.85951350445, -34604.724896517386, 17682.800314760247, 7395.767557116456, -0.06, 0.966, 0.196, 192.0, 0.0, 0.0, 0.0, 0.0, 0.0, 0.0, 0.0, 0.0, 0.0, 1.700950961748098E9, 0.0, 2023-11-25 17:22:41.748
185.0, 37591.0744179576, 69540.14385225104, 7220.149900931108, -7688.888333903353, 22567.79641721206, -34670.774301382815, 17699.228846934897, 7414.498318970003, -0.06, 0.966, 0.196, 192.0, 0.0, 0.0, 0.0, 0.0, 0.0, 0.0, 0.0, 0.0, 0.0, 1.700950961751036E9, 0.0, 2023-11-25 17:22:41.751
186.0, 37631.64283414398, 69582.61216671612, 7227.973011490466, -7669.509371460602, 22565.404780555342, -34549.58314294615, 17702.64866383656, 7426.724723187056, -0.06, 0.966, 0.196, 192.0, 0.0, 0.0, 0.0, 0.0, 0.0, 0.0, 0.0, 0.0, 0.0, 1.700950961756058E9, 0.0, 2023-11-25 17:22:41.756
187.0, 37634.25798824525, 69571.45864623293, 7228.263584168385, -7679.075918087473, 22652.665990908863, -34450.14023186448, 17706.51551562733, 7451.37869732126, -0.06, 0.964, 0.196, 192.0, 254.0, 32.0, 30.0, 32.0, 6.0, 32.0, 0.0, 0.0, 0.0, 1.700950961760097E9, 0.0, 2023-11-25 17:22:41.760
188.0, 37575.13762416096, 69511.77948853726, 7197.552287286793, -7721.566584297012, 22607.984853742702, -34544.73281439934, 17676.720640268402, 7412.8442898803105, -0.06, 0.964, 0.196, 192.0, 0.0, 0.0, 0.0, 0.0, 0.0, 0.0, 0.0, 0.0, 0.0, 1.700950961764087E9, 0.0, 2023-11-25 17:22:41.764
189.0, 37580.63615329697, 69527.85039280062, 7204.660142023581, -7703.461671288213, 22542.829518655482, -34710.33688906871, 17680.721602525904, 7410.519708456959, -0.06, 0.964, 0.196, 192.0, 0.0, 0.0, 0.0, 0.0, 0.0, 0.0, 0.0, 0.0, 0.0, 1.700950961768125E9, 0.0, 2023-11-25 17:22:41.768
190.0, 37624.19970324036, 69579.7287916814, 7217.624153807659, -7678.271255287083, 22550.205594325733, -34555.305189526705, 17687.896512496056, 7430.144540088719, -0.06, 0.964, 0.196, 192.0, 0.0, 0.0, 0.0, 0.0, 0.0, 0.0, 0.0, 0.0, 0.0, 1.700950961772152E9, 0.0, 2023-11-25 17:22:41.772
191.0, 37646.50674420676, 69591.70932670943, 7235.662011583092, -7668.637653426845, 22631.655351120873, -34476.02355194373, 17703.341567914675, 7456.340784590338, -0.06, 0.964, 0.196, 192.0, 0.0, 0.0, 0.0, 0.0, 0.0, 0.0, 0.0, 0.0, 0.0, 1.700950961776065E9, 0.0, 2023-11-25 17:22:41.776
192.0, 37587.14051093346, 69527.93979977844, 7207.655275780592, -7712.022389414596, 22634.85165057798, -34476.24706938828, 17676.83239899068, 7439.062886126386, -0.06, 0.964, 0.196, 192.0, 0.0, 0.0, 0.0, 0.0, 0.0, 0.0, 0.0, 0.0, 0.0, 1.700950961780082E9, 0.0, 2023-11-25 17:22:41.780
193.0, 37580.18911840786, 69532.43250041395, 7216.28304914034, -7699.795985197543, 22546.964591379714, -34718.20470311698, 17679.805181003238, 7423.751941174501, -0.06, 0.964, 0.196, 192.0, 0.0, 0.0, 0.0, 0.0, 0.0, 0.0, 0.0, 0.0, 0.0, 1.70095096178406E9, 0.0, 2023-11-25 17:22:41.784
194.0, 37619.975223538306, 69574.00674510084, 7223.323848643762, -7682.272217544582, 22556.732303706685, -34557.00392210531, 17678.64289029156, 7444.8072844514, -0.06, 0.964, 0.196, 192.0, 0.0, 0.0, 0.0, 0.0, 0.0, 0.0, 0.0, 0.0, 0.0, 1.700950961788135E9, 0.0, 2023-11-25 17:22:41.788
195.0, 37658.53198272371, 69598.99599540187, 7245.6085378657035, -7664.23435976915, 22615.56209511305, -34495.71543880885, 17694.333814899186, 7456.229025868061, -0.06, 0.964, 0.196, 192.0, 0.0, 0.0, 0.0, 0.0, 0.0, 0.0, 0.0, 0.0, 0.0, 1.700950961792283E9, 0.0, 2023-11-25 17:22:41.792
196.0, 37612.82266531261, 69541.77552959627, 7222.563889332282, -7702.031159643074, 22661.67374392435, -34429.040185098675, 17672.272643121796, 7450.149351376218, -0.06, 0.964, 0.196, 192.0, 0.0, 0.0, 0.0, 0.0, 0.0, 0.0, 0.0, 0.0, 0.0, 1.700950961796125E9, 0.0, 2023-11-25 17:22:41.796
197.0, 37595.097731959555, 69537.2157737274, 7227.101293456709, -7694.1856973392605, 22557.2240420847, -34715.36603157115, 17672.83143673318, 7411.65964742418, -0.066, 0.966, 0.196, 192.0, 253.0, 240.0, 30.0, 48.0, 6.0, 32.0, 0.0, 0.0, 0.0, 1.700950961800085E9, 0.0, 2023-11-25 17:22:41.800
198.0, 37629.36295620954, 69577.53832072477, 7231.482235369949, -7673.487981973646, 22570.99271666917, -34569.409140278, 17676.899454224047, 7437.386505292238, -0.066, 0.966, 0.196, 192.0, 0.0, 0.0, 0.0, 0.0, 0.0, 0.0, 0.0, 0.0, 0.0, 1.700950961803127E9, 0.0, 2023-11-25 17:22:41.803
199.0, 37668.36675028405, 69610.82006821872, 7248.335450689251, -7655.293661987026, 22602.441621117785, -34515.42967741843, 17688.432954362983, 7444.315546073383, -0.066, 0.966, 0.196, 192.0, 0.0, 0.0, 0.0, 0.0, 0.0, 0.0, 0.0, 0.0, 0.0, 1.700950961807127E9, 0.0, 2023-11-25 17:22:41.807
200.0, 37630.90522657696, 69558.7181518934, 7229.850558024712, -7690.296493804038, 22682.662031967884, -34402.32985047458, 17677.435896090974, 7455.558473534403, -0.066, 0.966, 0.196, 192.0, 0.0, 0.0, 0.0, 0.0, 0.0, 0.0, 0.0, 0.0, 0.0, 1.700950961813202E9, 0.0, 2023-11-25 17:22:41.813
201.0, 37589.1745196789, 69528.87857304557, 7217.691209041025, -7703.99811315514, 22564.242489843666, -34684.25240328937, 17663.10842789512, 7403.344798486805, -0.066, 0.966, 0.196, 192.0, 0.0, 0.0, 0.0, 0.0, 0.0, 0.0, 0.0, 0.0, 0.0, 1.700950961816176E9, 0.0, 2023-11-25 17:22:41.816
202.0, 37617.51653164822, 69562.24972751734, 7220.149900931108, -7685.04383385704, 22565.449484044253, -34594.6666115125, 17665.58947152966, 7421.8520428958, -0.066, 0.966, 0.196, 192.0, 0.0, 0.0, 0.0, 0.0, 0.0, 0.0, 0.0, 0.0, 0.0, 1.700950961820182E9, 0.0, 2023-11-25 17:22:41.820
203.0, 37665.75159618278, 69613.77049848682, 7245.00504076541, -7654.891330586831, 22587.24243488818, -34522.20225598839, 17687.538884584774, 7435.151330846707, -0.066, 0.966, 0.196, 192.0, 0.0, 0.0, 0.0, 0.0, 0.0, 0.0, 0.0, 0.0, 0.0, 1.700950961824225E9, 0.0, 2023-11-25 17:22:41.824
204.0, 37633.475677189315, 69562.94263159545, 7227.458921367994, -7691.302322304527, 22676.984688876237, -34396.451341682834, 17679.067573436212, 7451.6469182547235, -0.066, 0.966, 0.196, 192.0, 0.0, 0.0, 0.0, 0.0, 0.0, 0.0, 0.0, 0.0, 0.0, 1.700950961831245E9, 0.0, 2023-11-25 17:22:41.831
205.0, 37589.75566503473, 69526.06225324419, 7215.992476462421, -7709.988380669163, 22577.2288533722, -34647.5284871493, 17664.091904651155, 7394.851135593789, -0.066, 0.966, 0.196, 192.0, 0.0, 0.0, 0.0, 0.0, 0.0, 0.0, 0.0, 0.0, 0.0, 1.700950961834196E9, 0.0, 2023-11-25 17:22:41.834
206.0, 37607.16767396542, 69549.2186604999, 7216.573621818259, -7695.482098517668, 22559.436864785777, -34637.13492597758, 17670.886834965568, 7415.70531317059, -0.066, 0.966, 0.196, 192.0, 0.0, 0.0, 0.0, 0.0, 0.0, 0.0, 0.0, 0.0, 0.0, 1.700950961838227E9, 0.0, 2023-11-25 17:22:41.838
207.0, 37651.02179658673, 69597.83370469019, 7232.219842936975, -7672.884484873353, 22565.024800899602, -34545.26925626627, 17688.812934018726, 7426.99294412052, -0.07, 0.966, 0.196, 192.0, 253.0, 208.0, 30.0, 48.0, 6.0, 32.0, 0.0, 0.0, 0.0, 1.700950961841363E9, 0.0, 2023-11-25 17:22:41.841
208.0, 37645.79148838419, 69577.91830038051, 7239.372401162673, -7680.439374499247, 22674.48129349724, -34420.032432083186, 17702.73807081438, 7464.163895149696, -0.07, 0.966, 0.196, 192.0, 0.0, 0.0, 0.0, 0.0, 0.0, 0.0, 0.0, 0.0, 0.0, 1.700950961844278E9, 0.0, 2023-11-25 17:22:41.844
209.0, 37593.35429589204, 69525.57051486618, 7223.435607366038, -7706.300342834037, 22602.441621117785, -34577.63458223755, 17684.83432350568, 7428.758731932489, -0.07, 0.966, 0.196, 192.0, 0.0, 0.0, 0.0, 0.0, 0.0, 0.0, 0.0, 0.0, 0.0, 1.700950961848298E9, 0.0, 2023-11-25 17:22:41.848
210.0, 37610.43102865589, 69551.67735238998, 7238.43362789555, -7680.752298921621, 22567.975231167704, -34657.00562679835, 17700.30173066875, 7443.555586761902, -0.07, 0.966, 0.196, 192.0, 0.0, 0.0, 0.0, 0.0, 0.0, 0.0, 0.0, 0.0, 0.0, 1.700950961852282E9, 0.0, 2023-11-25 17:22:41.852
211.0, 37645.50091570627, 69597.14080061208, 7244.401543665117, -7663.094420801929, 22568.735190479183, -34526.560846157176, 17702.671015581014, 7454.686755500646, -0.07, 0.966, 0.196, 192.0, 0.0, 0.0, 0.0, 0.0, 0.0, 0.0, 0.0, 0.0, 0.0, 1.700950961856292E9, 0.0, 2023-11-25 17:22:41.856
212.0, 37644.49508720578, 69579.63938470357, 7241.3840581636505, -7676.728984919666, 22650.028485063136, -34432.92938863389, 17701.59813184716, 7471.249398142028, -0.07, 0.966, 0.196, 192.0, 0.0, 0.0, 0.0, 0.0, 0.0, 0.0, 0.0, 0.0, 0.0, 1.700950961859282E9, 0.0, 2023-11-25 17:22:41.859
213.0, 37585.8217580106, 69513.29940716022, 7210.046912437309, -7723.287668620071, 22614.51156312365, -34512.859226806075, 17670.015116931812, 7430.479816255548, -0.07, 0.966, 0.196, 192.0, 0.0, 0.0, 0.0, 0.0, 0.0, 0.0, 0.0, 0.0, 0.0, 1.700950961863333E9, 0.0, 2023-11-25 17:22:41.863
214.0, 37600.23863318427, 69535.82996557116, 7224.352028888707, -7696.979665396174, 22554.966515894714, -34697.350525540176, 17687.65064330705, 7431.70916220059, -0.07, 0.966, 0.196, 192.0, 0.0, 0.0, 0.0, 0.0, 0.0, 0.0, 0.0, 0.0, 0.0, 1.700950961867356E9, 0.0, 2023-11-25 17:22:41.867
215.0, 37643.13163079401, 69582.54511148276, 7229.738799302435, -7676.416060497291, 22560.599155497453, -34532.68522413793, 17695.317291655218, 7459.71589800309, -0.07, 0.966, 0.196, 192.0, 0.0, 0.0, 0.0, 0.0, 0.0, 0.0, 0.0, 0.0, 0.0, 1.700950961872341E9, 0.0, 2023-11-25 17:22:41.872
216.0, 37663.047035103686, 69593.34100405467, 7244.334488431751, -7670.492848216635, 22630.984798787213, -34460.287923847194, 17705.286169682287, 7479.541895334947, -0.062, 0.972, 0.196, 192.0, 254.0, 16.0, 30.0, 96.0, 6.0, 32.0, 0.0, 0.0, 0.0, 1.700950961876362E9, 0.0, 2023-11-25 17:22:41.876
217.0, 37607.14532222096, 69529.03503525675, 7217.266525896374, -7715.665723760811, 22646.094578039003, -34452.35305456556, 17676.16184665702, 7456.564302034892, -0.062, 0.972, 0.196, 192.0, 0.0, 0.0, 0.0, 0.0, 0.0, 0.0, 0.0, 0.0, 0.0, 1.700950961880411E9, 0.0, 2023-11-25 17:22:41.880
218.0, 37603.45728438584, 69539.71916910639, 7230.588165591737, -7699.281895075071, 22563.50488227664, -34703.89958666558, 17682.956776971434, 7435.643069224724, -0.062, 0.972, 0.196, 192.0, 0.0, 0.0, 0.0, 0.0, 0.0, 0.0, 0.0, 0.0, 0.0, 1.700950961883373E9, 0.0, 2023-11-25 17:22:41.883
219.0, 37639.9353313369, 69584.02032661681, 7233.292726670829, -7683.881543145364, 22569.65161200185, -34542.005901575794, 17678.53113156928, 7454.776162478467, -0.062, 0.972, 0.196, 192.0, 0.0, 0.0, 0.0, 0.0, 0.0, 0.0, 0.0, 0.0, 0.0, 1.700950961888471E9, 0.0, 2023-11-25 17:22:41.888
220.0, 37672.81474743065, 69614.46340256494, 7250.749439090424, -7668.8835226158535, 22617.529048625118, -34490.552185839675, 17687.65064330705, 7470.645901041735, -0.062, 0.972, 0.196, 192.0, 0.0, 0.0, 0.0, 0.0, 0.0, 0.0, 0.0, 0.0, 0.0, 1.700950961892453E9, 0.0, 2023-11-25 17:22:41.892
221.0, 37620.86929331652, 69552.12438727908, 7224.62024982217, -7711.95533418123, 22669.183930061332, -34411.874045357, 17662.50493079483, 7469.796534752433, -0.062, 0.972, 0.196, 192.0, 0.0, 0.0, 0.0, 0.0, 0.0, 0.0, 0.0, 0.0, 0.0, 1.700950961895891E9, 0.0, 2023-11-25 17:22:41.895
222.0, 37602.853787285545, 69542.89311681905, 7232.979802248455, -7702.500546276635, 22563.95191716575, -34697.976374384925, 17663.443704061952, 7432.9161564011765, -0.062, 0.972, 0.196, 192.0, 0.0, 0.0, 0.0, 0.0, 0.0, 0.0, 0.0, 0.0, 0.0, 1.70095096189952E9, 0.0, 2023-11-25 17:22:41.899
223.0, 37633.49802893377, 69577.29245153576, 7237.137226717142, -7683.278046045071, 22571.439751558275, -34558.434433750444, 17664.941270940457, 7455.066735156386, -0.062, 0.972, 0.196, 192.0, 0.0, 0.0, 0.0, 0.0, 0.0, 0.0, 0.0, 0.0, 0.0, 1.700950961904451E9, 0.0, 2023-11-25 17:22:41.904
224.0, 37674.4911282648, 69615.46923106542, 7258.147866505131, -7662.0215370680735, 22600.89935075037, -34502.33155516763, 17679.894587981056, 7467.874284729277, -0.062, 0.972, 0.196, 192.0, 0.0, 0.0, 0.0, 0.0, 0.0, 0.0, 0.0, 0.0, 0.0, 1.700950961908558E9, 0.0, 2023-11-25 17:22:41.908
225.0, 37647.46786921834, 69569.4246374875, 7248.3130989447955, -7688.038967614051, 22695.67074724087, -34377.586469362555, 17677.838227491167, 7489.24255242855, -0.062, 0.972, 0.196, 192.0, 0.0, 0.0, 0.0, 0.0, 0.0, 0.0, 0.0, 0.0, 0.0, 1.700950961911466E9, 0.0, 2023-11-25 17:22:41.911
226.0, 37608.665240843926, 69541.93199180746, 7241.652279097114, -7698.790156697054, 22584.828446487005, -34653.518754663324, 17668.294032608752, 7441.700391972112, -0.07, 0.98, 0.188, 192.0, 253.0, 208.0, 30.0, 160.0, 5.0, 224.0, 0.0, 0.0, 0.0, 1.700950961915494E9, 0.0, 2023-11-25 17:22:41.915
227.0, 37627.84303758658, 69571.3692392551, 7240.713505829991, -7685.133240834862, 22578.56995803952, -34578.573355504675, 17672.227939632885, 7461.995775937531, -0.07, 0.98, 0.188, 192.0, 0.0, 0.0, 0.0, 0.0, 0.0, 0.0, 0.0, 0.0, 0.0, 1.700950961919471E9, 0.0, 2023-11-25 17:22:41.919
228.0, 37673.373541042034, 69615.24571362087, 7259.15369500562, -7659.808714366998, 22589.2317401447, -34508.232415703824, 17689.662300308028, 7465.7285172615675, -0.07, 0.98, 0.188, 192.0, 0.0, 0.0, 0.0, 0.0, 0.0, 0.0, 0.0, 0.0, 0.0, 1.700950961923513E9, 0.0, 2023-11-25 17:22:41.923
229.0, 37646.953779095864, 69575.88429163507, 7248.782485578357, -7685.915551890797, 22687.601767492506, -34374.61368735, 17695.473753866405, 7488.750814050533, -0.07, 0.98, 0.188, 192.0, 0.0, 0.0, 0.0, 0.0, 0.0, 0.0, 0.0, 0.0, 0.0, 1.7009509619275E9, 0.0, 2023-11-25 17:22:41.927
230.0, 37602.74202856327, 69539.09332026164, 7239.752380818413, -7704.6910172332555, 22595.557283825554, -34600.120437159596, 17687.762402029326, 7445.120208873775, -0.07, 0.98, 0.188, 192.0, 0.0, 0.0, 0.0, 0.0, 0.0, 0.0, 0.0, 0.0, 0.0, 1.700950961931541E9, 0.0, 2023-11-25 17:22:41.931
231.0, 37617.89651130397, 69558.58404142667, 7237.114874972686, -7690.631769970867, 22568.355210823443, -34613.48678034387, 17693.707966054437, 7458.240682869039, -0.07, 0.98, 0.188, 192.0, 0.0, 0.0, 0.0, 0.0, 0.0, 0.0, 0.0, 0.0, 0.0, 1.700950961936541E9, 0.0, 2023-11-25 17:22:41.936
232.0, 37664.365788026545, 69606.0814983942, 7249.765962334391, -7667.408307481803, 22570.32216433551, -34513.68624135092, 17703.945065014967, 7463.3815840937605, -0.07, 0.98, 0.188, 192.0, 0.0, 0.0, 0.0, 0.0, 0.0, 0.0, 0.0, 0.0, 0.0, 1.700950961939715E9, 0.0, 2023-11-25 17:22:41.939
233.0, 37650.64181693099, 69577.60537595814, 7241.920500030577, -7686.563752480001, 22664.378305003444, -34398.50770217273, 17704.347396415164, 7488.147316950241, -0.07, 0.98, 0.188, 192.0, 0.0, 0.0, 0.0, 0.0, 0.0, 0.0, 0.0, 0.0, 0.0, 1.700950961943539E9, 0.0, 2023-11-25 17:22:41.943
234.0, 37589.353333634535, 69517.72505256237, 7214.338447372729, -7720.694866263255, 22600.3852606279, -34548.577314445654, 17677.72646876889, 7443.287365828439, -0.07, 0.98, 0.188, 192.0, 0.0, 0.0, 0.0, 0.0, 0.0, 0.0, 0.0, 0.0, 0.0, 1.700950961947547E9, 0.0, 2023-11-25 17:22:41.947
235.0, 37602.563214607624, 69539.3615411951, 7221.8933369986225, -7699.438357286258, 22557.17933859579, -34659.41961519952, 17687.06949795121, 7447.578900763858, -0.07, 0.98, 0.188, 192.0, 0.0, 0.0, 0.0, 0.0, 0.0, 0.0, 0.0, 0.0, 0.0, 1.700950961952591E9, 0.0, 2023-11-25 17:22:41.952
236.0, 37643.44455521638, 69586.65783246253, 7227.391866134628, -7681.132278577362, 22556.97817289569, -34522.69399436641, 17691.226922419897, 7458.888883458243, -0.066, 0.966, 0.198, 192.0, 253.0, 240.0, 30.0, 48.0, 6.0, 48.0, 0.0, 0.0, 0.0, 1.700950961956615E9, 0.0, 2023-11-25 17:22:41.956
237.0, 37647.15494479596, 69575.92899512399, 7227.168348690075, -7689.581237981468, 22638.42792969083, -34433.175257822906, 17696.233713177888, 7478.536066834458, -0.066, 0.966, 0.198, 192.0, 0.0, 0.0, 0.0, 0.0, 0.0, 0.0, 0.0, 0.0, 0.0, 1.700950961960987E9, 0.0, 2023-11-25 17:22:41.960
238.0, 37588.7721882787, 69515.84750602812, 7201.553249544293, -7727.400389599847, 22616.880848035915, -34490.2392614173, 17676.0724396792, 7452.6974502441235, -0.066, 0.966, 0.198, 192.0, 0.0, 0.0, 0.0, 0.0, 0.0, 0.0, 0.0, 0.0, 0.0, 1.700950961964577E9, 0.0, 2023-11-25 17:22:41.964
239.0, 37589.085112701076, 69531.18080272446, 7213.533784572338, -7707.775557968088, 22549.445635014254, -34684.967659111935, 17687.091849695666, 7447.444790297126, -0.066, 0.966, 0.198, 192.0, 0.0, 0.0, 0.0, 0.0, 0.0, 0.0, 0.0, 0.0, 0.0, 1.70095096196758E9, 0.0, 2023-11-25 17:22:41.967
240.0, 37621.53984565018, 69570.56457645471, 7215.724255528958, -7694.364511294903, 22549.80326292554, -34526.4490874349, 17684.387288616574, 7462.219293382084, -0.066, 0.966, 0.198, 192.0, 0.0, 0.0, 0.0, 0.0, 0.0, 0.0, 0.0, 0.0, 0.0, 1.700950961971656E9, 0.0, 2023-11-25 17:22:41.971
241.0, 37650.35124425307, 69591.95519589844, 7237.561909861793, -7677.645406442333, 22620.770051571137, -34457.15867962345, 17704.88383828209, 7491.05304372943, -0.066, 0.966, 0.198, 192.0, 0.0, 0.0, 0.0, 0.0, 0.0, 0.0, 0.0, 0.0, 0.0, 1.700950961975607E9, 0.0, 2023-11-25 17:22:41.975
242.0, 37600.08217097309, 69532.52190739178, 7213.354970616695, -7716.224517372194, 22647.838014106514, -34424.90511237444, 17686.577759573192, 7487.342654149849, -0.066, 0.966, 0.198, 192.0, 0.0, 0.0, 0.0, 0.0, 0.0, 0.0, 0.0, 0.0, 0.0, 1.700950961979679E9, 0.0, 2023-11-25 17:22:41.979
243.0, 37590.49327260176, 69530.55495387972, 7218.272354396863, -7706.814432956509, 22554.2736118166, -34688.320420780234, 17691.249274164355, 7457.301909601916, -0.066, 0.966, 0.198, 192.0, 0.0, 0.0, 0.0, 0.0, 0.0, 0.0, 0.0, 0.0, 0.0, 1.700950961983683E9, 0.0, 2023-11-25 17:22:41.983
244.0, 37635.37557546802, 69573.85028288965, 7227.235403923441, -7686.653159457823, 22569.115170134923, -34531.36647121507, 17698.245370178865, 7477.396127867238, -0.066, 0.966, 0.198, 192.0, 0.0, 0.0, 0.0, 0.0, 0.0, 0.0, 0.0, 0.0, 0.0, 1.700950961988483E9, 0.0, 2023-11-25 17:22:41.988
245.0, 37670.31135205166, 69602.95225417045, 7245.116799487687, -7672.906836617808, 22612.768127056137, -34479.4880723343, 17706.336701671684, 7481.888828502754, -0.066, 0.966, 0.198, 192.0, 0.0, 0.0, 0.0, 0.0, 0.0, 0.0, 0.0, 0.0, 0.0, 1.700950961993053E9, 0.0, 2023-11-25 17:22:41.993
246.0, 37630.458191687845, 69554.02428555778, 7229.4705783689715, -7703.662836988311, 22681.835017423036, -34389.388190434955, 17693.104468954145, 7487.8567442723215, -0.066, 0.968, 0.202, 192.0, 253.0, 240.0, 30.0, 64.0, 6.0, 80.0, 0.0, 0.0, 0.0, 1.700950961995694E9, 0.0, 2023-11-25 17:22:41.995
247.0, 37604.70898207533, 69538.82509932818, 7226.184871934041, -7705.316866078004, 22572.892614947872, -34673.83649037319, 17686.890683995567, 7445.589595507336, -0.066, 0.968, 0.202, 192.0, 0.0, 0.0, 0.0, 0.0, 0.0, 0.0, 0.0, 0.0, 0.0, 1.700950961999694E9, 0.0, 2023-11-25 17:22:41.999
248.0, 37630.36878471003, 69565.915413608, 7218.741741030424, -7696.823203184987, 22571.104475391447, -34553.38293950354, 17675.334832112174, 7458.084220657853, -0.066, 0.968, 0.202, 192.0, 0.0, 0.0, 0.0, 0.0, 0.0, 0.0, 0.0, 0.0, 0.0, 1.700950962003964E9, 0.0, 2023-11-25 17:22:42.003
249.0, 37680.48139577883, 69614.3292920982, 7245.72029658798, -7666.335423747948, 22601.212275172744, -34504.5443778687, 17689.50583809684, 7461.615796281791, -0.066, 0.968, 0.202, 192.0, 0.0, 0.0, 0.0, 0.0, 0.0, 0.0, 0.0, 0.0, 0.0, 1.700950962007772E9, 0.0, 2023-11-25 17:22:42.007
250.0, 37648.40664248546, 69567.18946304196, 7230.029371980354, -7698.18665959676, 22692.0050611502, -34382.43679790936, 17676.765343757314, 7468.455430085115, -0.066, 0.968, 0.202, 192.0, 0.0, 0.0, 0.0, 0.0, 0.0, 0.0, 0.0, 0.0, 0.0, 1.700950962011876E9, 0.0, 2023-11-25 17:22:42.011
251.0, 37606.98886000978, 69537.57340163869, 7218.451168352505, -7713.587011526467, 22582.61562378593, -34654.54693490826, 17663.890738951057, 7415.727664915045, -0.066, 0.968, 0.202, 192.0, 0.0, 0.0, 0.0, 0.0, 0.0, 0.0, 0.0, 0.0, 0.0, 1.700950962015803E9, 0.0, 2023-11-25 17:22:42.015
252.0, 37624.870255574024, 69562.67441066199, 7214.271392139362, -7699.95244740873, 22574.36783008192, -34594.2642801123, 17670.573910543193, 7439.9569559045985, -0.066, 0.968, 0.202, 192.0, 0.0, 0.0, 0.0, 0.0, 0.0, 0.0, 0.0, 0.0, 0.0, 1.700950962019981E9, 0.0, 2023-11-25 17:22:42.019
253.0, 37681.66603823496, 69617.45853632195, 7241.361706419195, -7663.027365568562, 22593.925606480316, -34513.57448262865, 17695.853733522144, 7458.777124735967, -0.066, 0.968, 0.202, 192.0, 0.0, 0.0, 0.0, 0.0, 0.0, 0.0, 0.0, 0.0, 0.0, 1.70095096202382E9, 0.0, 2023-11-25 17:22:42.023
254.0, 37652.206439042864, 69573.40324800054, 7227.011886478888, -7692.9563513942185, 22686.841808181027, -34383.08499849856, 17692.210399175932, 7480.234799413061, -0.066, 0.968, 0.202, 192.0, 0.0, 0.0, 0.0, 0.0, 0.0, 0.0, 0.0, 0.0, 0.0, 1.700950962026798E9, 0.0, 2023-11-25 17:22:42.026
255.0, 37605.088961731075, 69535.22646847088, 7216.215993906974, -7714.324619093492, 22600.608778072452, -34593.66078301201, 17679.626367047593, 7435.844234924822, -0.066, 0.968, 0.202, 192.0, 0.0, 0.0, 0.0, 0.0, 0.0, 0.0, 0.0, 0.0, 0.0, 1.700950962031825E9, 0.0, 2023-11-25 17:22:42.031
0.0, 37621.629252628, 69559.99220132735, 7225.8272440227565, -7693.738662450155, 22581.319222607523, -34614.04557395525, 17695.965492244424, 7465.281482372461, -0.064, 0.966, 0.2, 192.0, 254.0, 0.0, 30.0, 48.0, 6.0, 64.0, 0.0, 0.0, 0.0, 1.700950962035829E9, 0.0, 2023-11-25 17:22:42.035
1.0, 37673.77587244223, 69614.75397524286, 7248.111933244698, -7663.56380743549, 22590.058754689548, -34503.695011579395, 17711.544658129773, 7478.536066834458, -0.064, 0.966, 0.2, 192.0, 0.0, 0.0, 0.0, 0.0, 0.0, 0.0, 0.0, 0.0, 0.0, 1.700950962040182E9, 0.0, 2023-11-25 17:22:42.040
2.0, 37667.718549694844, 69592.55869299873, 7245.7873518213455, -7677.6901099312445, 22684.740744202227, -34389.72346660179, 17714.94212328698, 7505.805195069933, -0.064, 0.966, 0.2, 192.0, 0.0, 0.0, 0.0, 0.0, 0.0, 0.0, 0.0, 0.0, 0.0, 1.700950962043912E9, 0.0, 2023-11-25 17:22:42.043
3.0, 37610.49808388926, 69538.69098886145, 7225.156691689097, -7713.832880715476, 22629.978970286724, -34520.190598987414, 17693.484448609885, 7470.24356964154, -0.064, 0.966, 0.2, 192.0, 0.0, 0.0, 0.0, 0.0, 0.0, 0.0, 0.0, 0.0, 0.0, 1.700950962047917E9, 0.0, 2023-11-25 17:22:42.047
4.0, 37619.3270229491, 69554.89600359154, 7234.767941804879, -7695.996188640141, 22580.872187718414, -34646.00856852634, 17701.531076613795, 7479.296026145938, -0.064, 0.966, 0.2, 192.0, 0.0, 0.0, 0.0, 0.0, 0.0, 0.0, 0.0, 0.0, 0.0, 1.70095096205193E9, 0.0, 2023-11-25 17:22:42.051
5.0, 37659.38134901301, 69596.71611746743, 7241.294651185829, -7676.259598286105, 22583.75556275315, -34507.405401158976, 17705.330873171195, 7494.159936208718, -0.064, 0.966, 0.2, 192.0, 0.0, 0.0, 0.0, 0.0, 0.0, 0.0, 0.0, 0.0, 0.0, 1.700950962054935E9, 0.0, 2023-11-25 17:22:42.054
6.0, 37673.68646546441, 69595.59853024465, 7254.526883903371, -7671.230455783661, 22669.4521509948, -34422.468772228814, 17716.46204190994, 7517.539860908969, -0.064, 0.966, 0.2, 192.0, 0.0, 0.0, 0.0, 0.0, 0.0, 0.0, 0.0, 0.0, 0.0, 1.70095096205892E9, 0.0, 2023-11-25 17:22:42.058
7.0, 37611.59331936757, 69530.53260213525, 7226.9448312455215, -7714.771653982599, 22655.61642117696, -34460.10910989155, 17688.79058227427, 7484.995720982042, -0.064, 0.966, 0.2, 192.0, 0.0, 0.0, 0.0, 0.0, 0.0, 0.0, 0.0, 0.0, 0.0, 1.70095096206393E9, 0.0, 2023-11-25 17:22:42.063
8.0, 37606.05008674265, 69540.38972144005, 7232.197491192519, -7703.864002688409, 22574.770161482116, -34672.83066187271, 17695.384346888586, 7469.684776030157, -0.064, 0.966, 0.2, 192.0, 0.0, 0.0, 0.0, 0.0, 0.0, 0.0, 0.0, 0.0, 0.0, 1.700950962067923E9, 0.0, 2023-11-25 17:22:42.067
9.0, 37646.886723862495, 69587.06016386273, 7237.76307556189, -7685.401461768325, 22583.017955186126, -34512.32278493915, 17702.045166736265, 7489.24255242855, -0.064, 0.966, 0.2, 192.0, 0.0, 0.0, 0.0, 0.0, 0.0, 0.0, 0.0, 0.0, 0.0, 1.700950962071991E9, 0.0, 2023-11-25 17:22:42.071
10.0, 37669.752558440276, 69605.25448384935, 7250.280052456863, -7676.349005263925, 22645.75930187217, -34449.98376965329, 17714.49508839787, 7503.793538068955, -0.064, 0.966, 0.198, 192.0, 254.0, 0.0, 30.0, 48.0, 6.0, 48.0, 0.0, 0.0, 0.0, 1.700950962076084E9, 0.0, 2023-11-25 17:22:42.076
11.0, 37609.73812457778, 69536.18759348245, 7218.473520096961, -7723.24296513116, 22670.837959151027, -34413.170446535405, 17680.565140314717, 7479.474840101581, -0.064, 0.966, 0.198, 192.0, 0.0, 0.0, 0.0, 0.0, 0.0, 0.0, 0.0, 0.0, 0.0, 1.700950962078996E9, 0.0, 2023-11-25 17:22:42.078
12.0, 37594.56129009263, 69535.04765451523, 7224.352028888707, -7711.664761503311, 22573.27259460361, -34687.24753704638, 17678.821704247202, 7449.121171131274, -0.064, 0.966, 0.198, 192.0, 0.0, 0.0, 0.0, 0.0, 0.0, 0.0, 0.0, 0.0, 0.0, 1.70095096208303E9, 0.0, 2023-11-25 17:22:42.083
13.0, 37623.99853754026, 69569.60345144314, 7221.647467809614, -7698.544287508045, 22578.435847572786, -34533.35577647159, 17673.278471622285, 7468.544837062936, -0.064, 0.966, 0.198, 192.0, 0.0, 0.0, 0.0, 0.0, 0.0, 0.0, 0.0, 0.0, 0.0, 1.700950962087022E9, 0.0, 2023-11-25 17:22:42.087
14.0, 37663.114090337054, 69604.58393151569, 7246.234386710452, -7677.198371553228, 22626.983836529715, -34486.59592707109, 17691.048108464256, 7475.920912733187, -0.064, 0.966, 0.198, 192.0, 0.0, 0.0, 0.0, 0.0, 0.0, 0.0, 0.0, 0.0, 0.0, 1.700950962091998E9, 0.0, 2023-11-25 17:22:42.091
15.0, 37616.84597931457, 69546.0223610428, 7225.559023089293, -7717.297401106049, 22693.92731117336, -34386.527167144675, 17675.26777687881, 7480.838296513355, -0.064, 0.966, 0.198, 192.0, 0.0, 0.0, 0.0, 0.0, 0.0, 0.0, 0.0, 0.0, 0.0, 1.700950962096013E9, 0.0, 2023-11-25 17:22:42.096
16.0, 37592.68374355838, 69531.87370680258, 7229.627040580159, -7715.0845784049725, 22586.504827321154, -34673.27769676181, 17679.693422280958, 7446.99775540802, -0.064, 0.966, 0.198, 192.0, 0.0, 0.0, 0.0, 0.0, 0.0, 0.0, 0.0, 0.0, 0.0, 1.700950962100045E9, 0.0, 2023-11-25 17:22:42.100
17.0, 37619.841113071576, 69561.82504437269, 7225.134339944642, -7702.09821487644, 22586.907158721348, -34556.04279709373, 17678.21820714691, 7471.405860353215, -0.064, 0.966, 0.198, 192.0, 0.0, 0.0, 0.0, 0.0, 0.0, 0.0, 0.0, 0.0, 0.0, 1.700950962103063E9, 0.0, 2023-11-25 17:22:42.103
18.0, 37663.22584905933, 69601.94642566996, 7243.663936098092, -7680.2158570546935, 22603.402746129366, -34506.19840695839, 17688.12002994061, 7472.210523153606, -0.064, 0.966, 0.198, 192.0, 0.0, 0.0, 0.0, 0.0, 0.0, 0.0, 0.0, 0.0, 0.0, 1.700950962107043E9, 0.0, 2023-11-25 17:22:42.107
19.0, 37629.631177143005, 69553.51019543532, 7231.884566770144, -7710.837746958465, 22696.16248561889, -34381.766245575694, 17680.20751240343, 7485.621569826791, -0.064, 0.966, 0.198, 192.0, 0.0, 0.0, 0.0, 0.0, 0.0, 0.0, 0.0, 0.0, 0.0, 1.700950962111123E9, 0.0, 2023-11-25 17:22:42.111
20.0, 37588.660429556425, 69524.22941019887, 7229.604688835703, -7720.918383707808, 22596.585464070497, -34642.18642022448, 17673.323175111196, 7440.8063221939, -0.068, 0.964, 0.202, 192.0, 253.0, 224.0, 30.0, 32.0, 6.0, 80.0, 0.0, 0.0, 0.0, 1.700950962115165E9, 0.0, 2023-11-25 17:22:42.115
21.0, 37607.7264675768, 69552.34790472363, 7229.738799302435, -7705.115700377906, 22589.343498866976, -34592.87847195607, 17676.944157712955, 7464.052136427419, -0.068, 0.964, 0.202, 192.0, 0.0, 0.0, 0.0, 0.0, 0.0, 0.0, 0.0, 0.0, 0.0, 1.700950962120183E9, 0.0, 2023-11-25 17:22:42.120
22.0, 37654.374558255025, 69604.98626291589, 7247.508436144404, -7680.61818845489, 22597.367775126433, -34514.31209019567, 17687.293015395764, 7467.7848777514555, -0.068, 0.964, 0.202, 192.0, 0.0, 0.0, 0.0, 0.0, 0.0, 0.0, 0.0, 0.0, 0.0, 1.700950962124193E9, 0.0, 2023-11-25 17:22:42.124
23.0, 37632.60395915556, 69570.00578284333, 7238.143055217631, -7705.182755611272, 22692.362689061487, -34386.728332844774, 17688.20943691843, 7490.091918717852, -0.068, 0.964, 0.202, 192.0, 0.0, 0.0, 0.0, 0.0, 0.0, 0.0, 0.0, 0.0, 0.0, 1.700950962128181E9, 0.0, 2023-11-25 17:22:42.128
24.0, 37573.908278215924, 69516.00396823931, 7217.132415429643, -7739.157407183338, 22601.882827506404, -34589.190434120945, 17666.505893052326, 7435.464255269081, -0.068, 0.964, 0.202, 192.0, 0.0, 0.0, 0.0, 0.0, 0.0, 0.0, 0.0, 0.0, 0.0, 1.700950962132165E9, 0.0, 2023-11-25 17:22:42.132
25.0, 37588.99570572325, 69536.0087795268, 7222.921517243567, -7722.818281986509, 22572.691449247774, -34643.84044931417, 17672.36205009962, 7446.081333885352, -0.068, 0.964, 0.202, 192.0, 0.0, 0.0, 0.0, 0.0, 0.0, 0.0, 0.0, 0.0, 0.0, 1.700950962135174E9, 0.0, 2023-11-25 17:22:42.135
26.0, 37646.73026165131, 69596.93963491198, 7247.150808233119, -7684.686205945755, 22590.304623878554, -34520.81644783216, 17697.30659691174, 7477.19496216714, -0.068, 0.964, 0.202, 192.0, 0.0, 0.0, 0.0, 0.0, 0.0, 0.0, 0.0, 0.0, 0.0, 1.700950962139244E9, 0.0, 2023-11-25 17:22:42.139
27.0, 37641.20938077085, 69578.38768701407, 7244.736819831946, -7695.012711884107, 22685.701869213804, -34405.10146678704, 17708.437765650484, 7511.191965483662, -0.068, 0.964, 0.202, 192.0, 0.0, 0.0, 0.0, 0.0, 0.0, 0.0, 0.0, 0.0, 0.0, 1.700950962143284E9, 0.0, 2023-11-25 17:22:42.143
28.0, 37582.53605157567, 69519.82611654117, 7218.920554986067, -7731.021372201607, 22637.131528512422, -34516.97194778585, 17689.908169497034, 7479.474840101581, -0.068, 0.964, 0.202, 192.0, 0.0, 0.0, 0.0, 0.0, 0.0, 0.0, 0.0, 0.0, 0.0, 1.700950962147263E9, 0.0, 2023-11-25 17:22:42.147
29.0, 37585.75470277723, 69538.86980281709, 7228.755322546402, -7710.301305091537, 22584.26965287562, -34658.57024891022, 17702.089870225176, 7482.648787814234, -0.068, 0.964, 0.202, 192.0, 0.0, 0.0, 0.0, 0.0, 0.0, 0.0, 0.0, 0.0, 0.0, 1.700950962151321E9, 0.0, 2023-11-25 17:22:42.151
30.0, 37634.07917428961, 69597.63253899009, 7245.38502042115, -7681.445202999736, 22595.356118125455, -34507.38304941452, 17713.176335475007, 7499.814927555911, -0.068, 0.966, 0.202, 192.0, 253.0, 224.0, 30.0, 48.0, 6.0, 80.0, 0.0, 0.0, 0.0, 1.700950962156241E9, 0.0, 2023-11-25 17:22:42.156
31.0, 37649.85950587506, 69604.47217279341, 7253.9457385475325, -7680.752298921621, 22673.92249988586, -34417.61844368201, 17725.514498414337, 7524.759474368033, -0.068, 0.966, 0.202, 192.0, 0.0, 0.0, 0.0, 0.0, 0.0, 0.0, 0.0, 0.0, 0.0, 1.700950962159302E9, 0.0, 2023-11-25 17:22:42.159
32.0, 37585.48648184377, 69535.94172429344, 7218.250002652408, -7732.518939080112, 22659.95265960129, -34447.01098764074, 17687.695346795957, 7490.471898373592, -0.068, 0.966, 0.202, 192.0, 0.0, 0.0, 0.0, 0.0, 0.0, 0.0, 0.0, 0.0, 0.0, 1.700950962163246E9, 0.0, 2023-11-25 17:22:42.163
33.0, 37585.77705452169, 69546.00000929832, 7228.6435638241255, -7716.604497027934, 22580.358097595945, -34680.29614452078, 17693.59620733216, 7469.57301730788, -0.068, 0.966, 0.202, 192.0, 0.0, 0.0, 0.0, 0.0, 0.0, 0.0, 0.0, 0.0, 0.0, 1.700950962167306E9, 0.0, 2023-11-25 17:22:42.167
34.0, 37629.22884574281, 69584.176788828, 7236.846654039223, -7695.839726428953, 22592.159818668344, -34515.60849137408, 17695.987843988878, 7494.718729820101, -0.068, 0.966, 0.202, 192.0, 0.0, 0.0, 0.0, 0.0, 0.0, 0.0, 0.0, 0.0, 0.0, 1.700950962171262E9, 0.0, 2023-11-25 17:22:42.171
35.0, 37653.8381163881, 69595.12914361109, 7249.5424448898375, -7687.2566565581155, 22649.559098429574, -34456.5328307787, 17706.49316388287, 7506.855727059332, -0.068, 0.966, 0.202, 192.0, 0.0, 0.0, 0.0, 0.0, 0.0, 0.0, 0.0, 0.0, 0.0, 1.700950962175325E9, 0.0, 2023-11-25 17:22:42.175
36.0, 37595.83533952658, 69528.27507594528, 7219.121720686165, -7734.999982714651, 22682.796142434614, -34404.05093479764, 17681.03452694828, 7495.568096109402, -0.068, 0.966, 0.202, 192.0, 0.0, 0.0, 0.0, 0.0, 0.0, 0.0, 0.0, 0.0, 0.0, 1.700950962179317E9, 0.0, 2023-11-25 17:22:42.179
37.0, 37569.661446769416, 69514.93108450546, 7218.294706141318, -7735.223500159204, 22573.831388214992, -34685.90643237906, 17679.134628669577, 7457.793647979934, -0.068, 0.966, 0.202, 192.0, 0.0, 0.0, 0.0, 0.0, 0.0, 0.0, 0.0, 0.0, 0.0, 1.70095096218536E9, 0.0, 2023-11-25 17:22:42.185
38.0, 37604.44076114187, 69555.90183209203, 7223.122682943665, -7715.57631678299, 22584.04613543107, -34539.34604398561, 17680.699250781447, 7476.613816811302, -0.068, 0.966, 0.202, 192.0, 0.0, 0.0, 0.0, 0.0, 0.0, 0.0, 0.0, 0.0, 0.0, 1.700950962188379E9, 0.0, 2023-11-25 17:22:42.188
39.0, 37652.85463963207, 69597.54313201227, 7249.43068616756, -7687.927208891775, 22626.179173729324, -34484.38310437001, 17699.228846934897, 7487.432061127671, -0.068, 0.966, 0.202, 192.0, 0.0, 0.0, 0.0, 0.0, 0.0, 0.0, 0.0, 0.0, 0.0, 1.700950962191333E9, 0.0, 2023-11-25 17:22:42.191
40.0, 37601.55738610714, 69536.23229697136, 7219.9040317421, -7733.122436180406, 22690.9545291608, -34378.56994611859, 17673.770210000304, 7487.432061127671, -0.064, 0.966, 0.202, 192.0, 254.0, 0.0, 30.0, 48.0, 6.0, 80.0, 0.0, 0.0, 0.0, 1.700950962195724E9, 0.0, 2023-11-25 17:22:42.195
41.0, 37571.471938070295, 69521.63660784204, 7220.999267220411, -7733.860043747431, 22584.649632531364, -34669.455548459955, 17666.68470700797, 7437.744133203523, -0.064, 0.966, 0.202, 192.0, 0.0, 0.0, 0.0, 0.0, 0.0, 0.0, 0.0, 0.0, 0.0, 1.700950962199403E9, 0.0, 2023-11-25 17:22:42.199
42.0, 37606.832397798586, 69565.53543395227, 7235.416142394083, -7703.774595710587, 22602.151048439868, -34562.54715473022, 17684.655509550037, 7472.322281875883, -0.064, 0.966, 0.202, 192.0, 0.0, 0.0, 0.0, 0.0, 0.0, 0.0, 0.0, 0.0, 0.0, 1.700950962203382E9, 0.0, 2023-11-25 17:22:42.203
43.0, 37654.8886483775, 69610.17186762951, 7261.791200851346, -7674.337348262948, 22625.843897562492, -34491.468607362345, 17707.051957494255, 7486.560343093914, -0.064, 0.966, 0.202, 192.0, 0.0, 0.0, 0.0, 0.0, 0.0, 0.0, 0.0, 0.0, 0.0, 1.700950962207659E9, 0.0, 2023-11-25 17:22:42.207
44.0, 37625.51845616323, 69563.41201822902, 7247.888415800145, -7707.306171334526, 22715.988482950746, -34359.8615360095, 17698.13361145659, 7503.838241557866, -0.064, 0.966, 0.202, 192.0, 0.0, 0.0, 0.0, 0.0, 0.0, 0.0, 0.0, 0.0, 0.0, 1.700950962212454E9, 0.0, 2023-11-25 17:22:42.212
45.0, 37575.159975905415, 69522.50832587581, 7233.203319693008, -7729.680267534289, 22608.09661246498, -34609.57522506419, 17683.31440488272, 7452.496284544026, -0.064, 0.966, 0.202, 192.0, 0.0, 0.0, 0.0, 0.0, 0.0, 0.0, 0.0, 0.0, 0.0, 1.700950962215396E9, 0.0, 2023-11-25 17:22:42.215
46.0, 37592.571984836104, 69545.50827092031, 7233.560947604293, -7717.610325528422, 22593.56797856903, -34587.96108817591, 17687.471829351405, 7464.454467827615, -0.064, 0.966, 0.202, 192.0, 0.0, 0.0, 0.0, 0.0, 0.0, 0.0, 0.0, 0.0, 0.0, 1.700950962219416E9, 0.0, 2023-11-25 17:22:42.219
47.0, 37646.84202037359, 69603.42164080401, 7260.852427584223, -7684.28387454556, 22611.00233924417, -34498.8446830326, 17711.20938196294, 7478.089031945352, -0.064, 0.966, 0.202, 192.0, 0.0, 0.0, 0.0, 0.0, 0.0, 0.0, 0.0, 0.0, 0.0, 1.700950962223467E9, 0.0, 2023-11-25 17:22:42.223
48.0, 37624.244406729274, 69566.7647798973, 7250.4812181569605, -7707.574392267989, 22705.907846201404, -34372.22205069328, 17707.54369587227, 7496.976256010086, -0.064, 0.966, 0.202, 192.0, 0.0, 0.0, 0.0, 0.0, 0.0, 0.0, 0.0, 0.0, 0.0, 1.70095096222797E9, 0.0, 2023-11-25 17:22:42.227
49.0, 37575.96463870581, 69520.78724155274, 7236.28786042784, -7733.614174558423, 22632.549420899086, -34555.774576160264, 17692.702137553948, 7452.071601399375, -0.064, 0.966, 0.202, 192.0, 0.0, 0.0, 0.0, 0.0, 0.0, 0.0, 0.0, 0.0, 0.0, 1.7009509622315E9, 0.0, 2023-11-25 17:22:42.231
50.0, 37590.49327260176, 69538.17689873897, 7241.696982586024, -7716.000999927641, 22598.977100727214, -34622.11455370361, 17706.31434992723, 7471.00352895302, -0.066, 0.966, 0.20400000000000001, 192.0, 253.0, 240.0, 30.0, 48.0, 6.0, 96.0, 0.0, 0.0, 0.0, 1.700950962235481E9, 0.0, 2023-11-25 17:22:42.235
51.0, 37640.516476692734, 69591.55286449824, 7256.896168815633, -7690.408252526314, 22603.62626357392, -34493.50261610778, 17720.150079745064, 7492.707072819123, -0.066, 0.966, 0.20400000000000001, 192.0, 0.0, 0.0, 0.0, 0.0, 0.0, 0.0, 0.0, 0.0, 0.0, 1.700950962240541E9, 0.0, 2023-11-25 17:22:42.240
52.0, 37647.46786921834, 69582.88038764958, 7263.221712496485, -7695.683264217766, 22696.453058296807, -34391.846882325044, 17730.029550794312, 7522.501948178047, -0.066, 0.966, 0.20400000000000001, 192.0, 0.0, 0.0, 0.0, 0.0, 0.0, 0.0, 0.0, 0.0, 0.0, 1.700950962243508E9, 0.0, 2023-11-25 17:22:42.243
53.0, 37584.368894621, 69520.42961364146, 7237.7407238174355, -7735.9164042373195, 22654.096502554003, -34483.86901424754, 17710.315312184728, 7491.924761763187, -0.066, 0.966, 0.20400000000000001, 192.0, 0.0, 0.0, 0.0, 0.0, 0.0, 0.0, 0.0, 0.0, 0.0, 1.700950962247579E9, 0.0, 2023-11-25 17:22:42.247
54.0, 37592.30376390264, 69541.663770874, 7250.995308279433, -7714.592840026956, 22598.775935027115, -34646.99204528237, 17730.074254283223, 7496.439814143159, -0.066, 0.966, 0.20400000000000001, 192.0, 0.0, 0.0, 0.0, 0.0, 0.0, 0.0, 0.0, 0.0, 0.0, 1.700950962251478E9, 0.0, 2023-11-25 17:22:42.251
55.0, 37633.65449114496, 69587.41779177402, 7257.119686260186, -7695.862078173409, 22603.961539740747, -34494.37433414153, 17733.963457818445, 7510.566116638914, -0.066, 0.966, 0.20400000000000001, 192.0, 0.0, 0.0, 0.0, 0.0, 0.0, 0.0, 0.0, 0.0, 0.0, 1.70095096225555E9, 0.0, 2023-11-25 17:22:42.255
56.0, 37652.31819776514, 69595.15149535555, 7267.647357898636, -7691.458784515713, 22681.11976160047, -34416.05382157014, 17745.251088768375, 7530.056837803941, -0.066, 0.966, 0.20400000000000001, 192.0, 0.0, 0.0, 0.0, 0.0, 0.0, 0.0, 0.0, 0.0, 0.0, 1.700950962259819E9, 0.0, 2023-11-25 17:22:42.259
57.0, 37590.8732522575, 69533.907715548, 7240.7358575744465, -7733.904747236342, 22683.310232557087, -34422.468772228814, 17717.42316692152, 7500.016093256008, -0.066, 0.966, 0.20400000000000001, 192.0, 0.0, 0.0, 0.0, 0.0, 0.0, 0.0, 0.0, 0.0, 0.0, 1.700950962263539E9, 0.0, 2023-11-25 17:22:42.263
58.0, 37579.00447595173, 69536.34405569364, 7245.452075654516, -7723.466482575713, 22594.394993113878, -34669.92493509351, 17715.277399453807, 7472.545799320436, -0.066, 0.966, 0.20400000000000001, 192.0, 0.0, 0.0, 0.0, 0.0, 0.0, 0.0, 0.0, 0.0, 0.0, 1.700950962268542E9, 0.0, 2023-11-25 17:22:42.268
59.0, 37616.73422059229, 69581.74044868237, 7250.280052456863, -7701.114738120406, 22605.95084499727, -34500.565767355656, 17717.42316692152, 7502.9441717796535, -0.066, 0.966, 0.20400000000000001, 192.0, 0.0, 0.0, 0.0, 0.0, 0.0, 0.0, 0.0, 0.0, 0.0, 1.700950962271547E9, 0.0, 2023-11-25 17:22:42.271
60.0, 37647.177296540416, 69602.23699834789, 7264.853389841723, -7687.346063535937, 22659.036238078625, -34438.87495265901, 17729.873088583125, 7520.624401643801, -0.064, 0.966, 0.202, 192.0, 254.0, 0.0, 30.0, 48.0, 6.0, 80.0, 0.0, 0.0, 0.0, 1.700950962274702E9, 0.0, 2023-11-25 17:22:42.274
61.0, 37597.176444193894, 69541.73082610736, 7239.595918607226, -7730.373171612403, 22702.91271244439, -34372.93730651585, 17705.152059215554, 7509.91791604971, -0.064, 0.966, 0.202, 192.0, 0.0, 0.0, 0.0, 0.0, 0.0, 0.0, 0.0, 0.0, 0.0, 1.700950962279594E9, 0.0, 2023-11-25 17:22:42.279
62.0, 37577.21633639531, 69535.60644812661, 7241.987555263943, -7726.86394773292, 22596.250187903668, -34662.95119082346, 17702.671015581014, 7471.8305434978665, -0.064, 0.966, 0.202, 192.0, 0.0, 0.0, 0.0, 0.0, 0.0, 0.0, 0.0, 0.0, 0.0, 1.700950962283779E9, 0.0, 2023-11-25 17:22:42.283
63.0, 37606.65358384295, 69568.8658438761, 7241.294651185829, -7712.067092903507, 22603.872132762925, -34519.16241874247, 17703.20745744794, 7497.199773454639, -0.064, 0.966, 0.202, 192.0, 0.0, 0.0, 0.0, 0.0, 0.0, 0.0, 0.0, 0.0, 0.0, 1.700950962287612E9, 0.0, 2023-11-25 17:22:42.287
64.0, 37645.67972966191, 69604.51687628233, 7260.651261884125, -7694.275104317082, 22638.651447135384, -34466.792281483686, 17715.70208259846, 7500.418424656204, -0.064, 0.966, 0.202, 192.0, 0.0, 0.0, 0.0, 0.0, 0.0, 0.0, 0.0, 0.0, 0.0, 1.700950962291665E9, 0.0, 2023-11-25 17:22:42.291
65.0, 37601.69149657387, 69545.73178836486, 7238.366572662184, -7736.631660059889, 22713.64154978294, -34359.414501120395, 17699.78764054628, 7502.161860723718, -0.064, 0.966, 0.202, 192.0, 0.0, 0.0, 0.0, 0.0, 0.0, 0.0, 0.0, 0.0, 0.0, 1.700950962295642E9, 0.0, 2023-11-25 17:22:42.295
66.0, 37570.24259212525, 69524.72114857688, 7237.025467994866, -7743.650107818856, 22604.60974032995, -34649.71895810592, 17697.775983545303, 7457.458371813103, -0.064, 0.966, 0.202, 192.0, 0.0, 0.0, 0.0, 0.0, 0.0, 0.0, 0.0, 0.0, 0.0, 1.700950962299659E9, 0.0, 2023-11-25 17:22:42.299
67.0, 37602.80908379663, 69558.80755887122, 7243.507473886904, -7724.047627931551, 22609.840048532493, -34554.947561615416, 17706.31434992723, 7485.733328549067, -0.064, 0.966, 0.202, 192.0, 0.0, 0.0, 0.0, 0.0, 0.0, 0.0, 0.0, 0.0, 0.0, 1.700950962302759E9, 0.0, 2023-11-25 17:22:42.302
68.0, 37644.15981103895, 69599.53243726879, 7257.142038004642, -7704.020464899596, 22618.914856781346, -34486.148892181984, 17715.74678608737, 7484.638093070757, -0.064, 0.966, 0.202, 192.0, 0.0, 0.0, 0.0, 0.0, 0.0, 0.0, 0.0, 0.0, 0.0, 1.700950962306741E9, 0.0, 2023-11-25 17:22:42.306
69.0, 37617.44947641486, 69558.89696584904, 7241.696982586024, -7732.027200702096, 22711.048747426124, -34360.68855055435, 17712.952818030455, 7506.229878214584, -0.064, 0.966, 0.202, 192.0, 0.0, 0.0, 0.0, 0.0, 0.0, 0.0, 0.0, 0.0, 0.0, 1.700950962311718E9, 0.0, 2023-11-25 17:22:42.311
70.0, 37582.58075506458, 69530.53260213525, 7238.232462195452, -7742.957203740741, 22618.914856781346, -34596.90178595803, 17714.383329675595, 7471.651729542224, -0.064, 0.972, 0.20400000000000001, 192.0, 254.0, 0.0, 30.0, 96.0, 6.0, 96.0, 0.0, 0.0, 0.0, 1.700950962315763E9, 0.0, 2023-11-25 17:22:42.315
71.0, 37605.4242378979, 69553.42078845749, 7243.9098052871, -7724.33820060947, 22604.85560951896, -34585.45769279691, 17722.049978023766, 7492.192982696651, -0.064, 0.972, 0.20400000000000001, 192.0, 0.0, 0.0, 0.0, 0.0, 0.0, 0.0, 0.0, 0.0, 0.0, 1.700950962319771E9, 0.0, 2023-11-25 17:22:42.319
72.0, 37640.42706971491, 69586.85899816263, 7248.871892556178, -7712.916459192808, 22601.36873738393, -34493.413209129954, 17718.943085544477, 7485.24159017105, -0.064, 0.972, 0.20400000000000001, 192.0, 0.0, 0.0, 0.0, 0.0, 0.0, 0.0, 0.0, 0.0, 0.0, 1.700950962323959E9, 0.0, 2023-11-25 17:22:42.323
73.0, 37631.19579925487, 69560.39453272754, 7246.927290788566, -7728.8756047338975, 22699.425840309363, -34380.447492652835, 17721.51353615684, 7505.425215414192, -0.064, 0.972, 0.20400000000000001, 192.0, 0.0, 0.0, 0.0, 0.0, 0.0, 0.0, 0.0, 0.0, 0.0, 1.70095096232677E9, 0.0, 2023-11-25 17:22:42.326
74.0, 37583.16190042042, 69513.09824146012, 7234.767941804879, -7751.070886978017, 22633.331731955022, -34544.665759165975, 17709.84592555117, 7471.763488264501, -0.064, 0.972, 0.20400000000000001, 192.0, 0.0, 0.0, 0.0, 0.0, 0.0, 0.0, 0.0, 0.0, 0.0, 1.700950962330811E9, 0.0, 2023-11-25 17:22:42.330
75.0, 37595.96944999331, 69535.42763417098, 7239.752380818413, -7732.585994313478, 22596.250187903668, -34629.602388096144, 17725.916829814534, 7483.341691892349, -0.064, 0.972, 0.20400000000000001, 192.0, 0.0, 0.0, 0.0, 0.0, 0.0, 0.0, 0.0, 0.0, 0.0, 1.700950962334808E9, 0.0, 2023-11-25 17:22:42.334
76.0, 37638.236598758296, 69584.19914057245, 7245.452075654516, -7712.491776048158, 22598.373603626922, -34500.16343595546, 17730.007199049855, 7487.342654149849, -0.064, 0.972, 0.20400000000000001, 192.0, 0.0, 0.0, 0.0, 0.0, 0.0, 0.0, 0.0, 0.0, 0.0, 1.700950962339838E9, 0.0, 2023-11-25 17:22:42.339
77.0, 37640.739994137286, 69568.64232643155, 7244.490950642938, -7722.952392453241, 22683.19847383481, -34405.3696877205, 17731.705931628458, 7505.849898558843, -0.064, 0.972, 0.20400000000000001, 192.0, 0.0, 0.0, 0.0, 0.0, 0.0, 0.0, 0.0, 0.0, 0.0, 1.700950962343824E9, 0.0, 2023-11-25 17:22:42.343
78.0, 37580.971429463796, 69507.01856696827, 7219.077017197254, -7759.832770804498, 22655.705828154783, -34479.84570024558, 17712.03639650779, 7478.848991256833, -0.064, 0.972, 0.20400000000000001, 192.0, 0.0, 0.0, 0.0, 0.0, 0.0, 0.0, 0.0, 0.0, 0.0, 1.700950962347874E9, 0.0, 2023-11-25 17:22:42.347
79.0, 37583.00543820923, 69521.05546248621, 7226.520148100871, -7739.760904283632, 22592.293929135078, -34656.871516331616, 17721.334722201198, 7476.4126511112045, -0.064, 0.972, 0.20400000000000001, 192.0, 0.0, 0.0, 0.0, 0.0, 0.0, 0.0, 0.0, 0.0, 0.0, 1.700950962350879E9, 0.0, 2023-11-25 17:22:42.350
80.0, 37629.07238353162, 69572.28566077776, 7233.650354582114, -7717.185642383772, 22600.295853650077, -34502.95740401237, 17719.166602989033, 7493.019997241498, -0.062, 0.968, 0.20400000000000001, 192.0, 254.0, 16.0, 30.0, 64.0, 6.0, 96.0, 0.0, 0.0, 0.0, 1.700950962354937E9, 0.0, 2023-11-25 17:22:42.354
81.0, 37652.608770443054, 69589.54120749727, 7245.765000076891, -7708.826089957487, 22670.905014384392, -34430.00131011025, 17727.0344170373, 7514.052988773941, -0.062, 0.968, 0.20400000000000001, 192.0, 0.0, 0.0, 0.0, 0.0, 0.0, 0.0, 0.0, 0.0, 0.0, 1.700950962358964E9, 0.0, 2023-11-25 17:22:42.358
82.0, 37597.735237805275, 69531.33726493565, 7220.3734183756615, -7751.607328844944, 22686.528883758652, -34417.26081577073, 17707.811916805735, 7502.452433401637, -0.062, 0.968, 0.20400000000000001, 192.0, 0.0, 0.0, 0.0, 0.0, 0.0, 0.0, 0.0, 0.0, 0.0, 1.700950962362854E9, 0.0, 2023-11-25 17:22:42.362
83.0, 37588.9733539788, 69535.3605789376, 7234.6338313381475, -7738.017468216118, 22599.401783871865, -34666.23689725839, 17726.02858853681, 7489.421366384193, -0.062, 0.968, 0.20400000000000001, 192.0, 0.0, 0.0, 0.0, 0.0, 0.0, 0.0, 0.0, 0.0, 0.0, 1.700950962366921E9, 0.0, 2023-11-25 17:22:42.366
84.0, 37627.41835444193, 69579.3711637701, 7247.9107675446, -7710.949505680741, 22615.316225924045, -34493.50261610778, 17740.825443366222, 7525.675895890701, -0.062, 0.968, 0.20400000000000001, 192.0, 0.0, 0.0, 0.0, 0.0, 0.0, 0.0, 0.0, 0.0, 0.0, 1.700950962371948E9, 0.0, 2023-11-25 17:22:42.371
85.0, 37646.059709317655, 69593.92214941051, 7253.521055402882, -7707.105005634428, 22653.113025797968, -34436.90799914694, 17743.28413525631, 7534.057800061441, -0.062, 0.968, 0.20400000000000001, 192.0, 0.0, 0.0, 0.0, 0.0, 0.0, 0.0, 0.0, 0.0, 0.0, 1.70095096237643E9, 0.0, 2023-11-25 17:22:42.376
86.0, 37595.20949068183, 69532.79012832524, 7222.630944565648, -7754.624814346411, 22698.01768040868, -34371.19387044834, 17713.958646530944, 7518.992724298564, -0.062, 0.968, 0.20400000000000001, 192.0, 0.0, 0.0, 0.0, 0.0, 0.0, 0.0, 0.0, 0.0, 0.0, 1.700950962378951E9, 0.0, 2023-11-25 17:22:42.378
87.0, 37579.093882929556, 69530.04086375724, 7229.984668491444, -7748.1875119432825, 22593.545626824576, -34662.884135590095, 17716.573800632217, 7478.536066834458, -0.062, 0.968, 0.20400000000000001, 192.0, 0.0, 0.0, 0.0, 0.0, 0.0, 0.0, 0.0, 0.0, 0.0, 1.700950962383071E9, 0.0, 2023-11-25 17:22:42.383
88.0, 37613.20264496835, 69562.920279851, 7231.728104558958, -7731.602517557445, 22602.82160077353, -34526.33732871262, 17720.32889370071, 7500.753700823034, -0.062, 0.968, 0.20400000000000001, 192.0, 0.0, 0.0, 0.0, 0.0, 0.0, 0.0, 0.0, 0.0, 0.0, 1.700950962387065E9, 0.0, 2023-11-25 17:22:42.387
89.0, 37655.17922105542, 69598.54896051275, 7251.53175014636, -7709.966028924708, 22635.969237800746, -34471.6873135194, 17732.331780473207, 7506.475747403592, -0.062, 0.968, 0.20400000000000001, 192.0, 0.0, 0.0, 0.0, 0.0, 0.0, 0.0, 0.0, 0.0, 0.0, 1.700950962391065E9, 0.0, 2023-11-25 17:22:42.391
90.0, 37613.42616241291, 69541.59671564064, 7233.180967948552, -7748.0086979876405, 22715.094413172534, -34356.955809230305, 17713.109280241642, 7511.460186417125, -0.062, 0.964, 0.20400000000000001, 192.0, 254.0, 16.0, 30.0, 32.0, 6.0, 96.0, 0.0, 0.0, 0.0, 1.70095096239502E9, 0.0, 2023-11-25 17:22:42.395
91.0, 37588.34750513405, 69528.49859338983, 7242.456941897505, -7747.807532287542, 22613.14810671188, -34638.58778936718, 17711.991693018877, 7471.696433031134, -0.062, 0.964, 0.20400000000000001, 192.0, 0.0, 0.0, 0.0, 0.0, 0.0, 0.0, 0.0, 0.0, 0.0, 1.700950962400015E9, 0.0, 2023-11-25 17:22:42.400
92.0, 37619.572892138116, 69563.12144555109, 7250.14594199013, -7728.741494267166, 22612.566961356042, -34559.03793085074, 17720.351245445163, 7495.813965298411, -0.062, 0.964, 0.20400000000000001, 192.0, 0.0, 0.0, 0.0, 0.0, 0.0, 0.0, 0.0, 0.0, 0.0, 1.700950962403996E9, 0.0, 2023-11-25 17:22:42.403
93.0, 37660.5883432136, 69601.14176286958, 7263.892264830144, -7711.038912658562, 22618.80309805907, -34489.501653850275, 17730.297771727775, 7494.249343186539, -0.062, 0.964, 0.20400000000000001, 192.0, 0.0, 0.0, 0.0, 0.0, 0.0, 0.0, 0.0, 0.0, 0.0, 1.700950962408051E9, 0.0, 2023-11-25 17:22:42.408
94.0, 37638.0354330582, 69559.7686838828, 7256.918520560089, -7733.614174558423, 22718.78245100766, -34359.973294731775, 17736.064521797245, 7518.255116731539, -0.062, 0.964, 0.20400000000000001, 192.0, 0.0, 0.0, 0.0, 0.0, 0.0, 0.0, 0.0, 0.0, 0.0, 1.700950962411054E9, 0.0, 2023-11-25 17:22:42.411
95.0, 37588.794540023155, 69519.91552351898, 7245.586186121248, -7750.8920730223745, 22630.046025520092, -34582.52961427327, 17734.008161307356, 7477.083203444863, -0.062, 0.964, 0.20400000000000001, 192.0, 0.0, 0.0, 0.0, 0.0, 0.0, 0.0, 0.0, 0.0, 0.0, 1.70095096241505E9, 0.0, 2023-11-25 17:22:42.415
96.0, 37607.12297047651, 69547.94461106595, 7252.381116435661, -7730.127302423394, 22613.885714278906, -34589.816282965694, 17751.8895568716, 7494.986950753564, -0.062, 0.964, 0.20400000000000001, 192.0, 0.0, 0.0, 0.0, 0.0, 0.0, 0.0, 0.0, 0.0, 0.0, 1.700950962419109E9, 0.0, 2023-11-25 17:22:42.419
97.0, 37648.45134597437, 69591.68697496498, 7261.500628173427, -7707.306171334526, 22617.95373176977, -34483.913717736454, 17762.23841455441, 7499.412596155715, -0.062, 0.964, 0.20400000000000001, 192.0, 0.0, 0.0, 0.0, 0.0, 0.0, 0.0, 0.0, 0.0, 0.0, 1.700950962423123E9, 0.0, 2023-11-25 17:22:42.423
98.0, 37633.54273242268, 69561.80269262823, 7250.6600321126025, -7724.494662820657, 22708.232427624756, -34372.132643715464, 17765.792341922803, 7517.137529508774, -0.062, 0.964, 0.20400000000000001, 192.0, 0.0, 0.0, 0.0, 0.0, 0.0, 0.0, 0.0, 0.0, 0.0, 1.700950962427236E9, 0.0, 2023-11-25 17:22:42.427
99.0, 37591.49910110225, 69524.94466602143, 7237.76307556189, -7745.237081675182, 22654.34237174301, -34513.775648328745, 17761.210234309463, 7482.738194792056, -0.062, 0.964, 0.20400000000000001, 192.0, 0.0, 0.0, 0.0, 0.0, 0.0, 0.0, 0.0, 0.0, 0.0, 1.700950962432113E9, 0.0, 2023-11-25 17:22:42.432
100.0, 37600.193929695364, 69544.45773893091, 7237.137226717142, -7728.920308222808, 22609.884752021404, -34616.5713210787, 17775.962385649967, 7493.958770508621, -0.066, 0.968, 0.198, 192.0, 253.0, 240.0, 30.0, 64.0, 6.0, 48.0, 0.0, 0.0, 0.0, 1.700950962435094E9, 0.0, 2023-11-25 17:22:42.435
101.0, 37646.52909595121, 69596.15732385604, 7244.513302387393, -7706.076825389484, 22616.43381314681, -34480.15862466796, 17786.71357473297, 7507.5262793929915, -0.066, 0.968, 0.198, 192.0, 0.0, 0.0, 0.0, 0.0, 0.0, 0.0, 0.0, 0.0, 0.0, 1.700950962439133E9, 0.0, 2023-11-25 17:22:42.439
102.0, 37648.49604946328, 69585.58494872868, 7242.568700619781, -7713.9669911822075, 22702.465677555287, -34392.65154512543, 17791.18392362403, 7523.306610978439, -0.066, 0.968, 0.198, 192.0, 0.0, 0.0, 0.0, 0.0, 0.0, 0.0, 0.0, 0.0, 0.0, 1.700950962443173E9, 0.0, 2023-11-25 17:22:42.443
103.0, 37586.559365577625, 69522.82125029818, 7210.404540348594, -7759.095163237473, 22676.33648828703, -34457.71747323483, 17762.17135932104, 7485.263941915506, -0.066, 0.968, 0.198, 192.0, 0.0, 0.0, 0.0, 0.0, 0.0, 0.0, 0.0, 0.0, 0.0, 1.700950962447262E9, 0.0, 2023-11-25 17:22:42.447
104.0, 37594.941269748364, 69541.70847436291, 7219.971086975466, -7737.346915882459, 22607.738984553693, -34661.78890011179, 17774.464818771463, 7475.272712143983, -0.066, 0.968, 0.198, 192.0, 0.0, 0.0, 0.0, 0.0, 0.0, 0.0, 0.0, 0.0, 0.0, 1.700950962451169E9, 0.0, 2023-11-25 17:22:42.451
105.0, 37640.89645634848, 69587.30603305173, 7224.530842844349, -7714.52578479359, 22617.41728990284, -34501.68335457842, 17781.840894441713, 7495.322226920393, -0.066, 0.968, 0.198, 192.0, 0.0, 0.0, 0.0, 0.0, 0.0, 0.0, 0.0, 0.0, 0.0, 1.700950962455337E9, 0.0, 2023-11-25 17:22:42.455
106.0, 37664.231677559816, 69599.30891982424, 7231.035200480843, -7707.753206223632, 22684.427819779852, -34436.88564740249, 17792.18975212452, 7513.047160273452, -0.066, 0.968, 0.198, 192.0, 0.0, 0.0, 0.0, 0.0, 0.0, 0.0, 0.0, 0.0, 0.0, 1.700950962460256E9, 0.0, 2023-11-25 17:22:42.460
107.0, 37607.5253018767, 69532.96894228089, 7194.981836674433, -7753.283709679093, 22703.762078733693, -34413.036336068675, 17763.557167477273, 7491.813003040911, -0.066, 0.968, 0.198, 192.0, 0.0, 0.0, 0.0, 0.0, 0.0, 0.0, 0.0, 0.0, 0.0, 1.700950962463211E9, 0.0, 2023-11-25 17:22:42.463
108.0, 37605.31247917563, 69539.80857608421, 7200.212144876975, -7740.0291252170955, 22609.95180725477, -34683.38068525561, 17769.502731502384, 7457.257206113006, -0.066, 0.968, 0.198, 192.0, 0.0, 0.0, 0.0, 0.0, 0.0, 0.0, 0.0, 0.0, 0.0, 1.700950962467191E9, 0.0, 2023-11-25 17:22:42.467
109.0, 37653.54754371018, 69585.98728012887, 7206.291819368818, -7717.610325528422, 22623.407557416864, -34530.69591888141, 17777.57171125075, 7479.206619168118, -0.066, 0.968, 0.198, 192.0, 0.0, 0.0, 0.0, 0.0, 0.0, 0.0, 0.0, 0.0, 0.0, 1.700950962471241E9, 0.0, 2023-11-25 17:22:42.471
110.0, 37694.0489046632, 69618.37495784461, 7223.726180043957, -7700.555944509023, 22669.116874827967, -34480.02451420123, 17791.0498131573, 7492.48355537457, -0.064, 0.97, 0.202, 192.0, 254.0, 0.0, 30.0, 80.0, 6.0, 80.0, 0.0, 0.0, 0.0, 1.700950962475749E9, 0.0, 2023-11-25 17:22:42.475
111.0, 37647.087889562594, 69561.48976820587, 7193.171345373553, -7747.092276464972, 22724.68331154386, -34396.674859127386, 17766.99933612339, 7491.7906512964555, -0.064, 0.97, 0.202, 192.0, 0.0, 0.0, 0.0, 0.0, 0.0, 0.0, 0.0, 0.0, 0.0, 1.700950962479237E9, 0.0, 2023-11-25 17:22:42.479
112.0, 37629.31825272063, 69559.45575946043, 7194.378339574139, -7743.9630322412295, 22618.19960095878, -34688.81215915825, 17763.132484332622, 7456.050211912419, -0.064, 0.97, 0.202, 192.0, 0.0, 0.0, 0.0, 0.0, 0.0, 0.0, 0.0, 0.0, 0.0, 1.70095096248539E9, 0.0, 2023-11-25 17:22:42.485
113.0, 37670.75838694077, 69601.63350124759, 7201.083862910732, -7721.0077906856295, 22629.75545284217, -34562.211878563394, 17766.32878378973, 7484.056947714919, -0.064, 0.97, 0.202, 192.0, 0.0, 0.0, 0.0, 0.0, 0.0, 0.0, 0.0, 0.0, 0.0, 1.700950962488278E9, 0.0, 2023-11-25 17:22:42.488
114.0, 37718.85934100859, 69639.3855976326, 7222.7203515434685, -7697.091424118451, 22658.075113067047, -34510.08761049362, 17777.459952528472, 7486.605046582824, -0.064, 0.97, 0.202, 192.0, 0.0, 0.0, 0.0, 0.0, 0.0, 0.0, 0.0, 0.0, 0.0, 1.700950962492332E9, 0.0, 2023-11-25 17:22:42.492
115.0, 37684.61646850306, 69583.23801556087, 7206.090653668721, -7731.28959313507, 22747.437387399365, -34392.13745500296, 17759.153873819574, 7495.232819942573, -0.064, 0.97, 0.202, 192.0, 0.0, 0.0, 0.0, 0.0, 0.0, 0.0, 0.0, 0.0, 0.0, 1.70095096249534E9, 0.0, 2023-11-25 17:22:42.495
116.0, 37638.41541271393, 69548.50340467732, 7193.305455840285, -7748.075753221006, 22635.90218256738, -34662.43710070099, 17739.484338698905, 7442.549758261413, -0.064, 0.97, 0.202, 192.0, 0.0, 0.0, 0.0, 0.0, 0.0, 0.0, 0.0, 0.0, 0.0, 1.70095096249929E9, 0.0, 2023-11-25 17:22:42.499
117.0, 37662.421186258936, 69577.6724311915, 7190.913819183567, -7735.581128070489, 22623.94399928379, -34608.72585877489, 17735.773949119324, 7456.117267145785, -0.064, 0.97, 0.202, 192.0, 0.0, 0.0, 0.0, 0.0, 0.0, 0.0, 0.0, 0.0, 0.0, 1.700950962503339E9, 0.0, 2023-11-25 17:22:42.503
118.0, 37711.66207929398, 69627.67328353802, 7207.6329240361365, -7709.139014379861, 22636.013941289657, -34536.44031720642, 17744.98286783491, 7461.481685815059, -0.064, 0.97, 0.202, 192.0, 0.0, 0.0, 0.0, 0.0, 0.0, 0.0, 0.0, 0.0, 0.0, 1.700950962507538E9, 0.0, 2023-11-25 17:22:42.507
119.0, 37691.25493660628, 69589.04946911926, 7194.333636085229, -7732.787160013576, 22731.858221514016, -34405.19087376486, 17744.17820503452, 7487.454412872125, -0.064, 0.974, 0.202, 192.0, 254.0, 0.0, 30.0, 112.0, 6.0, 80.0, 0.0, 0.0, 0.0, 1.70095096251131E9, 0.0, 2023-11-25 17:22:42.511
120.0, 37644.87506686152, 69549.12925352207, 7182.129583612631, -7749.707430566244, 22647.525089684143, -34614.82788501118, 17733.65053339607, 7448.249453097517, -0.064, 0.974, 0.202, 192.0, 0.0, 0.0, 0.0, 0.0, 0.0, 0.0, 0.0, 0.0, 0.0, 1.700950962515651E9, 0.0, 2023-11-25 17:22:42.515
121.0, 37663.382311270514, 69576.6218992021, 7191.070281394754, -7726.439264588269, 22631.20831623177, -34639.95124577895, 17747.866242869644, 7473.90925573221, -0.064, 0.974, 0.202, 192.0, 0.0, 0.0, 0.0, 0.0, 0.0, 0.0, 0.0, 0.0, 0.0, 1.700950962519337E9, 0.0, 2023-11-25 17:22:42.519
122.0, 37706.252957135795, 69623.58291430271, 7201.6426565221145, -7705.070996888995, 22632.348255198987, -34531.47822993735, 17750.615507437647, 7475.6526917997235, -0.064, 0.974, 0.202, 192.0, 0.0, 0.0, 0.0, 0.0, 0.0, 0.0, 0.0, 0.0, 0.0, 1.70095096252241E9, 0.0, 2023-11-25 17:22:42.522
123.0, 37698.6980675099, 69601.8793704366, 7196.278237852841, -7720.448997074247, 22724.862125499505, -34425.463905985824, 17744.066446312245, 7488.124965205785, -0.064, 0.974, 0.202, 192.0, 0.0, 0.0, 0.0, 0.0, 0.0, 0.0, 0.0, 0.0, 0.0, 1.700950962527332E9, 0.0, 2023-11-25 17:22:42.527
124.0, 37648.45134597437, 69553.89017509106, 7175.80403993178, -7753.529578868101, 22670.21211030628, -34562.480099496854, 17719.524230900315, 7443.935566417643, -0.064, 0.974, 0.202, 192.0, 0.0, 0.0, 0.0, 0.0, 0.0, 0.0, 0.0, 0.0, 0.0, 1.700950962531374E9, 0.0, 2023-11-25 17:22:42.531
125.0, 37660.9906746138, 69568.77643689829, 7184.007130146877, -7734.731761781188, 22620.971217271235, -34688.92391788053, 17731.258896739353, 7449.18822636464, -0.064, 0.974, 0.202, 192.0, 0.0, 0.0, 0.0, 0.0, 0.0, 0.0, 0.0, 0.0, 0.0, 1.700950962535379E9, 0.0, 2023-11-25 17:22:42.535
126.0, 37707.68346878093, 69615.71510025443, 7198.021673920354, -7709.0943108909505, 22628.86138306396, -34546.02921557775, 17749.721437659435, 7474.490401088047, -0.064, 0.974, 0.202, 192.0, 0.0, 0.0, 0.0, 0.0, 0.0, 0.0, 0.0, 0.0, 0.0, 1.700950962540285E9, 0.0, 2023-11-25 17:22:42.540
127.0, 37714.67956479544, 69615.20101013196, 7205.487156568427, -7712.715293492711, 22709.2606078697, -34461.94195293688, 17758.70683893047, 7500.485479889569, -0.064, 0.974, 0.202, 192.0, 0.0, 0.0, 0.0, 0.0, 0.0, 0.0, 0.0, 0.0, 0.0, 1.700950962544464E9, 0.0, 2023-11-25 17:22:42.544
128.0, 37653.30167452117, 69552.95140182393, 7181.324920812241, -7753.507227123646, 22693.413221050887, -34503.04681099019, 17735.013989807845, 7476.569113322391, -0.064, 0.974, 0.202, 192.0, 0.0, 0.0, 0.0, 0.0, 0.0, 0.0, 0.0, 0.0, 0.0, 1.700950962547543E9, 0.0, 2023-11-25 17:22:42.547
129.0, 37643.891590105486, 69553.80076811323, 7183.7389092134135, -7743.515997352123, 22609.75064155467, -34721.31159559627, 17733.002332806867, 7457.503075302015, -0.066, 0.968, 0.2, 192.0, 253.0, 240.0, 30.0, 64.0, 6.0, 64.0, 0.0, 0.0, 0.0, 1.700950962550442E9, 0.0, 2023-11-25 17:22:42.550
130.0, 37684.10237838059, 69598.3254430682, 7189.192734860509, -7725.142863409861, 22620.70299633777, -34562.61420996359, 17730.878917083613, 7471.495267331036, -0.066, 0.968, 0.2, 192.0, 0.0, 0.0, 0.0, 0.0, 0.0, 0.0, 0.0, 0.0, 0.0, 1.70095096255466E9, 0.0, 2023-11-25 17:22:42.554
131.0, 37712.153817672, 69615.9833211879, 7204.146051901109, -7717.744435995154, 22683.176122090357, -34501.817465045155, 17734.388140963096, 7479.296026145938, -0.066, 0.968, 0.2, 192.0, 0.0, 0.0, 0.0, 0.0, 0.0, 0.0, 0.0, 0.0, 0.0, 1.700950962560462E9, 0.0, 2023-11-25 17:22:42.560
132.0, 37666.51155549426, 69562.45089321744, 7188.18690636002, -7751.160293955839, 22719.92238997488, -34459.19268836888, 17709.890629040077, 7467.1366771622515, -0.066, 0.968, 0.2, 192.0, 0.0, 0.0, 0.0, 0.0, 0.0, 0.0, 0.0, 0.0, 0.0, 1.700950962563554E9, 0.0, 2023-11-25 17:22:42.563
133.0, 37663.89640139299, 69573.13502706707, 7209.443415337017, -7727.690962277766, 22636.1927552453, -34722.00449967438, 17725.067463525233, 7453.211540366596, -0.066, 0.968, 0.2, 192.0, 0.0, 0.0, 0.0, 0.0, 0.0, 0.0, 0.0, 0.0, 0.0, 1.70095096256748E9, 0.0, 2023-11-25 17:22:42.567
134.0, 37693.95949768538, 69609.12133564011, 7208.28112462534, -7715.643372016356, 22641.4454151923, -34560.669608195974, 17722.07232976822, 7475.071546443885, -0.066, 0.968, 0.2, 192.0, 0.0, 0.0, 0.0, 0.0, 0.0, 0.0, 0.0, 0.0, 0.0, 1.700950962570537E9, 0.0, 2023-11-25 17:22:42.570
135.0, 37721.072163709665, 69629.75199577237, 7217.624153807659, -7707.842613201454, 22673.29665104111, -34515.34027044061, 17726.31916121473, 7475.116249932797, -0.066, 0.968, 0.2, 192.0, 0.0, 0.0, 0.0, 0.0, 0.0, 0.0, 0.0, 0.0, 0.0, 1.700950962574584E9, 0.0, 2023-11-25 17:22:42.574
136.0, 37670.62427647404, 69567.43533223098, 7189.751528471891, -7753.730744568199, 22731.791166280647, -34424.54748446315, 17706.582570860694, 7477.306720889416, -0.066, 0.968, 0.2, 192.0, 0.0, 0.0, 0.0, 0.0, 0.0, 0.0, 0.0, 0.0, 0.0, 1.700950962578605E9, 0.0, 2023-11-25 17:22:42.578
137.0, 37649.03249133021, 69559.81338737172, 7197.976970431444, -7746.712296809233, 22627.632037118918, -34711.07449663574, 17715.903248298557, 7444.226139095562, -0.066, 0.968, 0.2, 192.0, 0.0, 0.0, 0.0, 0.0, 0.0, 0.0, 0.0, 0.0, 0.0, 1.70095096258266E9, 0.0, 2023-11-25 17:22:42.582
138.0, 37675.58636374311, 69588.33421329668, 7195.51827854136, -7732.876566991397, 22633.219973232746, -34588.22930910937, 17716.46204190994, 7471.137639419751, -0.066, 0.968, 0.2, 192.0, 0.0, 0.0, 0.0, 0.0, 0.0, 0.0, 0.0, 0.0, 0.0, 1.700950962587123E9, 0.0, 2023-11-25 17:22:42.587
139.0, 37718.65817530849, 69627.11448992664, 7214.42785435055, -7710.882450447375, 22656.82341537755, -34524.92916881194, 17728.531983915804, 7476.926741233676, -0.064, 0.964, 0.198, 192.0, 254.0, 0.0, 30.0, 32.0, 6.0, 48.0, 0.0, 0.0, 0.0, 1.700950962591546E9, 0.0, 2023-11-25 17:22:42.591
140.0, 37680.77196845674, 69577.80654165824, 7195.8312029637345, -7745.393543886369, 22742.520003619196, -34396.9207283164, 17720.597114634173, 7497.423290899193, -0.064, 0.964, 0.198, 192.0, 0.0, 0.0, 0.0, 0.0, 0.0, 0.0, 0.0, 0.0, 0.0, 1.700950962595591E9, 0.0, 2023-11-25 17:22:42.595
141.0, 37639.22007551433, 69550.55976516721, 7188.18690636002, -7757.955224270252, 22639.165537257857, -34659.44196694398, 17717.26670471033, 7455.156142134207, -0.064, 0.964, 0.198, 192.0, 0.0, 0.0, 0.0, 0.0, 0.0, 0.0, 0.0, 0.0, 0.0, 1.700950962598645E9, 0.0, 2023-11-25 17:22:42.598
142.0, 37663.78464267071, 69577.20304455794, 7188.835106949224, -7741.459636862235, 22630.76128134266, -34611.69864078744, 17726.90030657057, 7477.9996249675305, -0.064, 0.964, 0.198, 192.0, 0.0, 0.0, 0.0, 0.0, 0.0, 0.0, 0.0, 0.0, 0.0, 1.70095096260261E9, 0.0, 2023-11-25 17:22:42.602
143.0, 37704.50952106828, 69617.81616423323, 7197.462880308972, -7723.7123517647215, 22632.57177264354, -34530.51710492577, 17730.901268828067, 7479.184267423662, -0.064, 0.964, 0.198, 192.0, 0.0, 0.0, 0.0, 0.0, 0.0, 0.0, 0.0, 0.0, 0.0, 1.700950962606684E9, 0.0, 2023-11-25 17:22:42.606
144.0, 37691.277288350735, 69591.7763819428, 7192.56784827326, -7741.459636862235, 22733.378140136974, -34415.74089714776, 17726.565030403737, 7497.266828688005, -0.064, 0.964, 0.198, 192.0, 0.0, 0.0, 0.0, 0.0, 0.0, 0.0, 0.0, 0.0, 0.0, 1.700950962610643E9, 0.0, 2023-11-25 17:22:42.610
145.0, 37651.155907053464, 69556.81825361469, 7185.549400514294, -7758.558721370545, 22660.131473556936, -34611.87745474309, 17715.098585498166, 7454.150313633718, -0.064, 0.964, 0.198, 192.0, 0.0, 0.0, 0.0, 0.0, 0.0, 0.0, 0.0, 0.0, 0.0, 1.700950962614853E9, 0.0, 2023-11-25 17:22:42.614
146.0, 37670.087834607104, 69580.24288180386, 7192.344330828707, -7741.526692095601, 22632.728234854727, -34659.21844949942, 17725.02276003632, 7469.751831263523, -0.064, 0.964, 0.198, 192.0, 0.0, 0.0, 0.0, 0.0, 0.0, 0.0, 0.0, 0.0, 0.0, 1.700950962619701E9, 0.0, 2023-11-25 17:22:42.619
147.0, 37720.42396312046, 69629.75199577237, 7208.28112462534, -7716.939773194764, 22639.724330869238, -34541.514163197775, 17733.628181651617, 7478.357252878815, -0.064, 0.964, 0.198, 192.0, 0.0, 0.0, 0.0, 0.0, 0.0, 0.0, 0.0, 0.0, 0.0, 1.700950962623735E9, 0.0, 2023-11-25 17:22:42.623
148.0, 37720.98275673184, 69616.60917003265, 7211.14214791562, -7724.606421542933, 22733.869878514994, -34434.60576946804, 17740.46781545494, 7501.24543920105, -0.064, 0.964, 0.198, 192.0, 0.0, 0.0, 0.0, 0.0, 0.0, 0.0, 0.0, 0.0, 0.0, 1.700950962626687E9, 0.0, 2023-11-25 17:22:42.626
149.0, 37660.83421240261, 69560.10396004963, 7184.722385969447, -7761.889131294386, 22683.913729657383, -34546.31978825567, 17714.003350019855, 7462.800438737922, -0.058, 0.966, 0.198, 192.0, 254.0, 48.0, 30.0, 48.0, 6.0, 48.0, 0.0, 0.0, 0.0, 1.700950962631681E9, 0.0, 2023-11-25 17:22:42.631
150.0, 37669.37257878454, 69578.63355620307, 7193.596028518204, -7743.24777641866, 22628.794327830594, -34694.08717084971, 17718.250181466363, 7460.185284636651, -0.058, 0.966, 0.198, 192.0, 0.0, 0.0, 0.0, 0.0, 0.0, 0.0, 0.0, 0.0, 0.0, 1.700950962635793E9, 0.0, 2023-11-25 17:22:42.635
151.0, 37718.36760263057, 69628.14267017158, 7208.303476369796, -7719.063188918018, 22639.366702957956, -34542.63175042054, 17719.65834136705, 7474.937435977154, -0.058, 0.966, 0.198, 192.0, 0.0, 0.0, 0.0, 0.0, 0.0, 0.0, 0.0, 0.0, 0.0, 1.700950962639825E9, 0.0, 2023-11-25 17:22:42.639
152.0, 37729.54347485823, 69629.8861062391, 7219.5464038308155, -7719.599630784945, 22715.943779461835, -34461.69608374788, 17723.659303624547, 7492.930590263676, -0.058, 0.966, 0.198, 192.0, 0.0, 0.0, 0.0, 0.0, 0.0, 0.0, 0.0, 0.0, 0.0, 1.700950962642842E9, 0.0, 2023-11-25 17:22:42.642
153.0, 37666.6903694499, 69567.23416653088, 7190.712653483469, -7768.4381924197905, 22704.879665956458, -34489.5910608281, 17693.618559076614, 7458.911235202699, -0.058, 0.966, 0.198, 192.0, 0.0, 0.0, 0.0, 0.0, 0.0, 0.0, 0.0, 0.0, 0.0, 1.700950962646821E9, 0.0, 2023-11-25 17:22:42.646
