%OpenBCI Raw EXG Data
%Number of channels = 8
%Sample Rate = 250 Hz
%Board = OpenBCI_GUI$BoardCytonSerial
Sample Index, EXG Channel 0, EXG Channel 1, EXG Channel 2, EXG Channel 3, EXG Channel 4, EXG Channel 5, EXG Channel 6, EXG Channel 7, Accel Channel 0, Accel Channel 1, Accel Channel 2, Other, Other, Other, Other, Other, Other, Other, Analog Channel 0, Analog Channel 1, Analog Channel 2, Timestamp, Other, Timestamp (Formatted)
80.0, 34004.133523003286, 43667.84318302193, -45058.21109511985, -39408.29359391852, -57203.76905247797, -20732.360569520068, -6154.195207857515, -24843.718092884792, 0.0, 0.0, 0.0, 192.0, 0.0, 0.0, 0.0, 0.0, 0.0, 0.0, 0.0, 0.0, 0.0, 1.700950633746357E9, 0.0, 2023-11-25 17:17:13.746
81.0, 33924.851885420314, 43588.78506288351, -45104.30039218669, -39475.2147168177, -57278.692099892156, -20815.77727982727, -6219.998743533939, -24876.53045374518, 0.0, 0.0, 0.0, 192.0, 0.0, 0.0, 0.0, 0.0, 0.0, 0.0, 0.0, 0.0, 0.0, 1.700950633746384E9, 0.0, 2023-11-25 17:17:13.746
82.0, 33948.32121709838, 43657.31551138348, -45089.5929443351, -39433.86398957539, -57271.986576555566, -20788.86577950308, -6339.312355436368, -24859.833700637068, 0.0, 0.0, 0.0, 192.0, 0.0, 0.0, 0.0, 0.0, 0.0, 0.0, 0.0, 0.0, 0.0, 1.700950633746398E9, 0.0, 2023-11-25 17:17:13.746
0.0, 0.0, 0.0, 0.0, 0.0, 0.0, 0.0, 0.0, 0.0, -0.202, 0.906, 0.364, 192.0, 249.0, 176.0, 28.0, 80.0, 11.0, 96.0, 0.0, 0.0, 0.0, 1.700950633816777E9, 0.0, 2023-11-25 17:17:13.816
1.0, 34201.18650212127, 43850.568693944064, -45010.020734074205, -39363.56775326344, -57149.297851240386, -20955.073351272746, -6287.232790855503, -24879.547939246648, -0.202, 0.906, 0.364, 192.0, 0.0, 0.0, 0.0, 0.0, 0.0, 0.0, 0.0, 0.0, 0.0, 1.700950633833871E9, 0.0, 2023-11-25 17:17:13.833
2.0, 34212.78705749357, 43900.010752679205, -45002.80112061514, -39327.1344098013, -57146.32506922782, -20932.38633065061, -6403.663027723197, -24859.096093070042, -0.202, 0.906, 0.364, 192.0, 0.0, 0.0, 0.0, 0.0, 0.0, 0.0, 0.0, 0.0, 0.0, 1.700950633836653E9, 0.0, 2023-11-25 17:17:13.836
3.0, 34269.20286049877, 43992.345809024075, -44960.310454405604, -39267.79052827245, -57110.98696124399, -20895.461248810443, -6513.9912383545925, -24814.034976248146, -0.202, 0.906, 0.364, 192.0, 0.0, 0.0, 0.0, 0.0, 0.0, 0.0, 0.0, 0.0, 0.0, 1.700950633840571E9, 0.0, 2023-11-25 17:17:13.840
4.0, 34290.43701773131, 43969.971712824314, -44956.533009592655, -39270.115109695806, -57070.977338668985, -20853.775245401295, -6324.359038395767, -24821.43340366285, -0.202, 0.906, 0.364, 192.0, 0.0, 0.0, 0.0, 0.0, 0.0, 0.0, 0.0, 0.0, 0.0, 1.700950633843784E9, 0.0, 2023-11-25 17:17:13.843
5.0, 34218.93378721878, 43871.95931338779, -45008.5231671957, -39352.16836359124, -57134.12101675523, -20935.76144406336, -6260.991842864972, -24864.616973950502, -0.202, 0.906, 0.364, 192.0, 0.0, 0.0, 0.0, 0.0, 0.0, 0.0, 0.0, 0.0, 0.0, 1.700950633846591E9, 0.0, 2023-11-25 17:17:13.846
6.0, 34213.90464471634, 43901.35185734652, -45008.7243328958, -39338.5337994735, -57149.141389029195, -20939.53888887631, -6387.033329848448, -24867.455645496328, -0.202, 0.906, 0.364, 192.0, 0.0, 0.0, 0.0, 0.0, 0.0, 0.0, 0.0, 0.0, 0.0, 1.700950633850648E9, 0.0, 2023-11-25 17:17:13.850
7.0, 34259.859831316455, 43994.11159683605, -44975.4649371463, -39284.73315056958, -57127.08021725181, -20917.298903143277, -6518.461587245654, -24851.094168555042, -0.202, 0.906, 0.364, 192.0, 0.0, 0.0, 0.0, 0.0, 0.0, 0.0, 0.0, 0.0, 0.0, 1.700950633854649E9, 0.0, 2023-11-25 17:17:13.854
8.0, 34296.65080268989, 44000.14656783898, -44955.10249794752, -39266.85175500534, -57076.43116431608, -20869.354411286644, -6390.117870583281, -24862.426502993883, -0.198, 0.904, 0.364, 192.0, 249.0, 208.0, 28.0, 64.0, 11.0, 96.0, 0.0, 0.0, 0.0, 1.70095063385865E9, 0.0, 2023-11-25 17:17:13.858
9.0, 34232.523647847614, 43897.01561892219, -45007.62909741749, -39341.37247101933, -57121.984019516, -20927.737167803905, -6254.755706161941, -24897.675203999905, -0.198, 0.904, 0.364, 192.0, 0.0, 0.0, 0.0, 0.0, 0.0, 0.0, 0.0, 0.0, 0.0, 1.700950633862615E9, 0.0, 2023-11-25 17:17:13.862
10.0, 34210.14955164785, 43904.2128806368, -45013.82053063161, -39333.50465697106, -57142.52527267043, -20934.2415254404, -6363.854570848295, -24852.47997671127, -0.198, 0.904, 0.364, 192.0, 0.0, 0.0, 0.0, 0.0, 0.0, 0.0, 0.0, 0.0, 0.0, 1.70095063386768E9, 0.0, 2023-11-25 17:17:13.867
11.0, 34257.15527023736, 44003.07464636262, -44980.158803481914, -39272.3726358858, -57117.51367062494, -20901.27270236882, -6485.403357196255, -24823.757985086202, -0.198, 0.904, 0.364, 192.0, 0.0, 0.0, 0.0, 0.0, 0.0, 0.0, 0.0, 0.0, 0.0, 1.70095063387171E9, 0.0, 2023-11-25 17:17:13.871
12.0, 34297.83544514602, 44025.15816988447, -44950.43098335636, -39240.43199305916, -57066.998728155944, -20852.769416900806, -6410.614420248798, -24820.338168184542, -0.198, 0.904, 0.364, 192.0, 0.0, 0.0, 0.0, 0.0, 0.0, 0.0, 0.0, 0.0, 0.0, 1.700950633874679E9, 0.0, 2023-11-25 17:17:13.874
13.0, 34243.498354375166, 43920.26143315571, -44997.168481012406, -39310.70587762664, -57097.71002503754, -20890.90149294156, -6223.686781369064, -24851.161223788407, -0.198, 0.904, 0.364, 192.0, 0.0, 0.0, 0.0, 0.0, 0.0, 0.0, 0.0, 0.0, 0.0, 1.700950633878685E9, 0.0, 2023-11-25 17:17:13.878
14.0, 34201.342964332456, 43888.36549381799, -45016.05570507714, -39333.72817441561, -57142.301755225875, -20937.214307452956, -6341.726343837541, -24863.789959405658, -0.198, 0.904, 0.364, 192.0, 0.0, 0.0, 0.0, 0.0, 0.0, 0.0, 0.0, 0.0, 0.0, 1.700950633882734E9, 0.0, 2023-11-25 17:17:13.882
15.0, 34236.524610105116, 43971.89396284747, -44993.54749841065, -39283.21323194662, -57129.20363297506, -20907.978225705414, -6466.896112787261, -24841.482918439262, -0.198, 0.904, 0.364, 192.0, 0.0, 0.0, 0.0, 0.0, 0.0, 0.0, 0.0, 0.0, 0.0, 1.700950633886927E9, 0.0, 2023-11-25 17:17:13.886
16.0, 34299.19890155779, 44035.551731056185, -44942.764335008185, -39226.32804230786, -57067.423411300595, -20846.332114497676, -6447.315984644411, -24787.369345112962, -0.198, 0.904, 0.364, 192.0, 0.0, 0.0, 0.0, 0.0, 0.0, 0.0, 0.0, 0.0, 0.0, 1.700950633890825E9, 0.0, 2023-11-25 17:17:13.890
17.0, 34263.05613077356, 43947.21763696881, -44990.507661164724, -39288.6223541048, -57084.76836499791, -20865.286393795777, -6217.18242373257, -24830.038825278145, -0.198, 0.904, 0.364, 192.0, 0.0, 0.0, 0.0, 0.0, 0.0, 0.0, 0.0, 0.0, 0.0, 1.700950633894788E9, 0.0, 2023-11-25 17:17:13.894
18.0, 34206.84149346846, 43895.22747936576, -45020.3248882681, -39330.531874958506, -57141.69825812558, -20932.989827750902, -6306.030607942415, -24847.026151064176, -0.194, 0.902, 0.356, 192.0, 249.0, 240.0, 28.0, 48.0, 11.0, 32.0, 0.0, 0.0, 0.0, 1.700950633899803E9, 0.0, 2023-11-25 17:17:13.899
19.0, 34233.06008971454, 43969.03293955719, -45003.11404503752, -39283.883784280275, -57128.82365331932, -20903.262007625344, -6418.996324419538, -24821.43340366285, -0.194, 0.902, 0.356, 192.0, 0.0, 0.0, 0.0, 0.0, 0.0, 0.0, 0.0, 0.0, 0.0, 1.700950633902821E9, 0.0, 2023-11-25 17:17:13.902
20.0, 34291.532253209625, 44042.01138520377, -44954.96838748078, -39226.9091876637, -57077.99578642796, -20858.35735301463, -6472.864028556827, -24785.491798578718, -0.194, 0.902, 0.356, 192.0, 0.0, 0.0, 0.0, 0.0, 0.0, 0.0, 0.0, 0.0, 0.0, 1.700950633905885E9, 0.0, 2023-11-25 17:17:13.905
21.0, 34280.17756702633, 43973.123308792514, -44978.57182962559, -39265.24242940455, -57064.36122231022, -20846.84620462015, -6232.80629310683, -24822.998025774723, -0.194, 0.902, 0.356, 192.0, 0.0, 0.0, 0.0, 0.0, 0.0, 0.0, 0.0, 0.0, 0.0, 1.700950633910808E9, 0.0, 2023-11-25 17:17:13.910
22.0, 34219.649043041354, 43892.791139220135, -45012.322963753104, -39329.10136331336, -57126.23085096251, -20933.347455662188, -6290.093814145782, -24876.619860723004, -0.194, 0.902, 0.356, 192.0, 0.0, 0.0, 0.0, 0.0, 0.0, 0.0, 0.0, 0.0, 0.0, 1.700950633914805E9, 0.0, 2023-11-25 17:17:13.914
23.0, 34239.87737177341, 43951.531523648686, -44999.269544991206, -39291.88570879528, -57120.70997008205, -20909.431089095007, -6400.042045121437, -24857.62087793599, -0.194, 0.902, 0.356, 192.0, 0.0, 0.0, 0.0, 0.0, 0.0, 0.0, 0.0, 0.0, 0.0, 1.700950633920538E9, 0.0, 2023-11-25 17:17:13.920
24.0, 34301.948166125796, 44039.73150726932, -44946.050041443115, -39229.68080397616, -57076.498219549445, -20865.711076940428, -6485.269246729523, -24797.561740584584, -0.194, 0.902, 0.356, 192.0, 0.0, 0.0, 0.0, 0.0, 0.0, 0.0, 0.0, 0.0, 0.0, 1.700950633922887E9, 0.0, 2023-11-25 17:17:13.922
25.0, 34310.061849363075, 43994.89390789198, -44957.20356192632, -39247.80806872941, -57050.369030281196, -20834.105710280623, -6260.075421342304, -24801.71916505327, -0.194, 0.902, 0.356, 192.0, 0.0, 0.0, 0.0, 0.0, 0.0, 0.0, 0.0, 0.0, 0.0, 1.700950633926871E9, 0.0, 2023-11-25 17:17:13.926
26.0, 34232.43424086979, 43898.08850265604, -45010.91480385242, -39330.375412747315, -57124.42035966163, -20936.700217330483, -6263.539941732877, -24869.176729819388, -0.194, 0.902, 0.356, 192.0, 0.0, 0.0, 0.0, 0.0, 0.0, 0.0, 0.0, 0.0, 0.0, 1.700950633930826E9, 0.0, 2023-11-25 17:17:13.930
27.0, 34237.753956050154, 43942.63552935547, -45007.89731835095, -39304.40268569025, -57129.49420565298, -20927.17837419252, -6390.251981050013, -24863.477034983283, -0.192, 0.904, 0.36, 192.0, 250.0, 0.0, 28.0, 64.0, 11.0, 64.0, 0.0, 0.0, 0.0, 1.700950633933899E9, 0.0, 2023-11-25 17:17:13.933
28.0, 34293.610965443964, 44036.110524667565, -44966.32307366408, -39246.221094873086, -57096.65949304814, -20895.61771102163, -6506.1234243063245, -24825.94845604282, -0.192, 0.904, 0.36, 192.0, 0.0, 0.0, 0.0, 0.0, 0.0, 0.0, 0.0, 0.0, 0.0, 1.70095063393884E9, 0.0, 2023-11-25 17:17:13.938
29.0, 34311.91704415286, 44012.350620311576, -44962.74679455123, -39249.59620828584, -57057.208664084515, -20855.429274490987, -6323.330858150824, -24831.603447390014, -0.192, 0.904, 0.36, 192.0, 0.0, 0.0, 0.0, 0.0, 0.0, 0.0, 0.0, 0.0, 0.0, 1.700950633942876E9, 0.0, 2023-11-25 17:17:13.942
30.0, 34238.9833019952, 43907.38682834945, -45015.832187632586, -39335.69512792768, -57120.9334875266, -20941.3940836661, -6252.7216974165085, -24873.714133943813, -0.192, 0.904, 0.36, 192.0, 0.0, 0.0, 0.0, 0.0, 0.0, 0.0, 0.0, 0.0, 0.0, 1.70095063394691E9, 0.0, 2023-11-25 17:17:13.946
31.0, 34236.41285138283, 43940.08743048757, -45007.942021839866, -39315.35504047335, -57129.11422599724, -20936.67786558603, -6375.008091331493, -24860.705418670826, -0.192, 0.904, 0.36, 192.0, 0.0, 0.0, 0.0, 0.0, 0.0, 0.0, 0.0, 0.0, 0.0, 1.700950633951222E9, 0.0, 2023-11-25 17:17:13.951
32.0, 34288.2912502636, 44033.450667077384, -44969.38526265446, -39258.46985083459, -57103.566182084825, -20905.318368115233, -6495.819270112428, -24825.032034520154, -0.192, 0.904, 0.36, 192.0, 0.0, 0.0, 0.0, 0.0, 0.0, 0.0, 0.0, 0.0, 0.0, 1.700950633955113E9, 0.0, 2023-11-25 17:17:13.955
33.0, 34326.02099490416, 44046.92876898393, -44944.35130886451, -39235.06757438989, -57051.128989592675, -20849.349599999143, -6363.452239448099, -24810.19047620183, -0.192, 0.904, 0.36, 192.0, 0.0, 0.0, 0.0, 0.0, 0.0, 0.0, 0.0, 0.0, 0.0, 1.700950633959018E9, 0.0, 2023-11-25 17:17:13.959
34.0, 34254.45070915827, 43937.02524149719, -45004.991591571765, -39320.56299693144, -57107.23186817549, -20921.09869970068, -6228.760627360419, -24880.374953791495, -0.192, 0.904, 0.36, 192.0, 0.0, 0.0, 0.0, 0.0, 0.0, 0.0, 0.0, 0.0, 0.0, 1.700950633961963E9, 0.0, 2023-11-25 17:17:13.961
35.0, 34221.39247910887, 43929.090372215556, -45019.96726035682, -39328.766087146534, -57143.77697035992, -20950.87122331515, -6356.791419600418, -24880.978450891787, -0.192, 0.904, 0.36, 192.0, 0.0, 0.0, 0.0, 0.0, 0.0, 0.0, 0.0, 0.0, 0.0, 1.700950633966983E9, 0.0, 2023-11-25 17:17:13.966
36.0, 34264.01725578514, 44021.98422217181, -44989.70299836433, -39269.489260851056, -57123.280420694406, -20914.795507764284, -6482.609389139341, -24839.985351560754, -0.192, 0.904, 0.36, 192.0, 0.0, 0.0, 0.0, 0.0, 0.0, 0.0, 0.0, 0.0, 0.0, 1.700950633971013E9, 0.0, 2023-11-25 17:17:13.971
37.0, 34313.63812847592, 44059.28928366772, -44951.68268104585, -39227.959719653096, -57065.165885110604, -20854.490501223863, -6420.292725597946, -24811.352766913507, -0.196, 0.9, 0.356, 192.0, 249.0, 224.0, 28.0, 32.0, 11.0, 32.0, 0.0, 0.0, 0.0, 1.700950633974966E9, 0.0, 2023-11-25 17:17:13.974
38.0, 34259.59161038299, 43955.733651606286, -45003.09169329306, -39302.3239734559, -57097.95589422654, -20888.956891173948, -6216.556574887822, -24846.512060941706, -0.196, 0.9, 0.356, 192.0, 0.0, 0.0, 0.0, 0.0, 0.0, 0.0, 0.0, 0.0, 0.0, 1.700950633978967E9, 0.0, 2023-11-25 17:17:13.978
39.0, 34220.90074073085, 43925.4693896138, -45015.92159461041, -39323.513427199534, -57137.183205745605, -20931.782833550315, -6326.527157607932, -24850.24480226574, -0.196, 0.9, 0.356, 192.0, 0.0, 0.0, 0.0, 0.0, 0.0, 0.0, 0.0, 0.0, 0.0, 1.700950633983023E9, 0.0, 2023-11-25 17:17:13.983
40.0, 34252.662569601845, 43999.81129167215, -44991.58054489858, -39274.63016207578, -57122.1851852161, -20899.641025023586, -6442.018621208504, -24823.15448798591, -0.196, 0.9, 0.356, 192.0, 0.0, 0.0, 0.0, 0.0, 0.0, 0.0, 0.0, 0.0, 0.0, 1.700950633986109E9, 0.0, 2023-11-25 17:17:13.986
41.0, 34313.63812847592, 44055.08715571012, -44937.26580587218, -39217.72262069257, -57060.13674260816, -20841.370027228597, -6448.99236547856, -24785.067115434067, -0.196, 0.9, 0.356, 192.0, 0.0, 0.0, 0.0, 0.0, 0.0, 0.0, 0.0, 0.0, 0.0, 1.700950633990093E9, 0.0, 2023-11-25 17:17:13.990
42.0, 34274.07554079003, 43964.71905287731, -44980.38232092647, -39277.20061268814, -57074.17363812609, -20858.98320185938, -6221.7868830903635, -24855.430406979372, -0.196, 0.9, 0.356, 192.0, 0.0, 0.0, 0.0, 0.0, 0.0, 0.0, 0.0, 0.0, 0.0, 1.700950633994126E9, 0.0, 2023-11-25 17:17:13.994
43.0, 34211.46830457071, 43899.854290468014, -45012.14414979746, -39322.84287486588, -57133.80809233285, -20930.642894583096, -6307.036436442904, -24869.243785052753, -0.196, 0.9, 0.356, 192.0, 0.0, 0.0, 0.0, 0.0, 0.0, 0.0, 0.0, 0.0, 0.0, 1.700950633999795E9, 0.0, 2023-11-25 17:17:13.999
44.0, 34245.375900909414, 43975.8278698716, -44993.63690538846, -39271.3221038964, -57118.07246423632, -20892.488466797884, -6415.352990073323, -24816.046633249123, -0.196, 0.9, 0.356, 192.0, 0.0, 0.0, 0.0, 0.0, 0.0, 0.0, 0.0, 0.0, 0.0, 1.700950634003345E9, 0.0, 2023-11-25 17:17:14.003
45.0, 34309.23483481823, 44057.299978411196, -44944.0607361866, -39211.35237352281, -57067.62457700069, -20843.247573762845, -6472.99813902356, -24761.776597711636, -0.196, 0.9, 0.356, 192.0, 0.0, 0.0, 0.0, 0.0, 0.0, 0.0, 0.0, 0.0, 0.0, 1.700950634007148E9, 0.0, 2023-11-25 17:17:14.007
46.0, 34299.10949457997, 43995.13977708099, -44970.27933243267, -39252.09960366483, -57058.84034142976, -20837.816099860203, -6239.623575165699, -24815.9572262713, -0.196, 0.9, 0.356, 192.0, 0.0, 0.0, 0.0, 0.0, 0.0, 0.0, 0.0, 0.0, 0.0, 1.700950634011077E9, 0.0, 2023-11-25 17:17:14.011
47.0, 34227.136877433884, 43909.97963070627, -45014.66989692091, -39325.413325478235, -57131.08117950931, -20934.889726029603, -6283.075366386815, -24878.296241557153, -0.198, 0.902, 0.358, 192.0, 249.0, 208.0, 28.0, 48.0, 11.0, 48.0, 0.0, 0.0, 0.0, 1.700950634015087E9, 0.0, 2023-11-25 17:17:14.015
48.0, 34244.86181078694, 43968.31768373462, -45002.71171363732, -39291.371618672805, -57127.92958354111, -20913.074423441223, -6402.07605386687, -24857.39736049144, -0.198, 0.902, 0.358, 192.0, 0.0, 0.0, 0.0, 0.0, 0.0, 0.0, 0.0, 0.0, 0.0, 1.700950634018143E9, 0.0, 2023-11-25 17:17:14.018
49.0, 34301.50113123669, 44048.560446329175, -44955.43777411435, -39236.05105114592, -57088.322292366305, -20878.51862651332, -6501.407206226255, -24816.471316393774, -0.198, 0.902, 0.358, 192.0, 0.0, 0.0, 0.0, 0.0, 0.0, 0.0, 0.0, 0.0, 0.0, 1.700950634022127E9, 0.0, 2023-11-25 17:17:14.022
50.0, 34310.10655285198, 44004.52750975222, -44959.57284683858, -39251.3619960978, -57053.63238497167, -20838.687817893962, -6280.616674496731, -24813.364423914485, -0.198, 0.902, 0.358, 192.0, 0.0, 0.0, 0.0, 0.0, 0.0, 0.0, 0.0, 0.0, 0.0, 1.700950634027374E9, 0.0, 2023-11-25 17:17:14.027
51.0, 34233.30595890355, 43905.84455798204, -45008.94785034035, -39331.82827613691, -57122.00637126045, -20929.391196893597, -6258.28728178588, -24853.95519184532, -0.198, 0.902, 0.358, 192.0, 0.0, 0.0, 0.0, 0.0, 0.0, 0.0, 0.0, 0.0, 0.0, 1.700950634031145E9, 0.0, 2023-11-25 17:17:14.031
52.0, 34231.38370888039, 43940.4227066544, -45009.05960906263, -39307.39781944726, -57130.611792875745, -20920.539906089296, -6379.0984605668145, -24848.568421431595, -0.198, 0.902, 0.358, 192.0, 0.0, 0.0, 0.0, 0.0, 0.0, 0.0, 0.0, 0.0, 0.0, 1.700950634035122E9, 0.0, 2023-11-25 17:17:14.035
53.0, 34284.31263975056, 44029.42735307543, -44968.96057950981, -39246.399908828724, -57101.040434961375, -20890.253292352354, -6508.202136540668, -24812.403298902907, -0.198, 0.902, 0.358, 192.0, 0.0, 0.0, 0.0, 0.0, 0.0, 0.0, 0.0, 0.0, 0.0, 1.700950634038169E9, 0.0, 2023-11-25 17:17:14.038
54.0, 34317.236759333224, 44027.169826885445, -44952.59910256852, -39231.111315621296, -57051.061934359306, -20837.12319578209, -6325.63308782972, -24807.57532210056, -0.198, 0.902, 0.358, 192.0, 0.0, 0.0, 0.0, 0.0, 0.0, 0.0, 0.0, 0.0, 0.0, 1.700950634042187E9, 0.0, 2023-11-25 17:17:14.042
55.0, 34236.658720571846, 43919.07679069958, -45017.150940555446, -39324.6310144223, -57122.1851852161, -20930.419377138543, -6238.550691431844, -24882.11838985901, -0.198, 0.902, 0.358, 192.0, 0.0, 0.0, 0.0, 0.0, 0.0, 0.0, 0.0, 0.0, 0.0, 1.70095063404825E9, 0.0, 2023-11-25 17:17:14.048
56.0, 34222.21949365372, 43936.80172405264, -45022.29184178017, -39318.30547074145, -57142.61467964824, -20942.712836588962, -6369.5319139399435, -24875.837549667067, -0.198, 0.902, 0.358, 192.0, 0.0, 0.0, 0.0, 0.0, 0.0, 0.0, 0.0, 0.0, 0.0, 1.700950634051205E9, 0.0, 2023-11-25 17:17:14.051
57.0, 34277.763578625156, 44040.46911483635, -44970.0111114992, -39249.37269084129, -57106.38250188619, -20897.294091855776, -6495.461642201143, -24817.052461749612, -0.192, 0.91, 0.352, 192.0, 250.0, 0.0, 28.0, 112.0, 11.0, 0.0, 0.0, 0.0, 0.0, 1.700950634055161E9, 0.0, 2023-11-25 17:17:14.055
58.0, 34312.297023808605, 44053.589588831615, -44938.159875650395, -39219.73427769355, -57046.926861635075, -20832.049349790734, -6361.574692913854, -24783.323679366553, -0.192, 0.91, 0.352, 192.0, 0.0, 0.0, 0.0, 0.0, 0.0, 0.0, 0.0, 0.0, 0.0, 1.700950634059194E9, 0.0, 2023-11-25 17:17:14.059
59.0, 34235.608188582446, 43940.71327933232, -44995.91678332291, -39303.530967656494, -57095.56425756982, -20896.93646394449, -6204.5313363708665, -24850.043636565642, -0.192, 0.91, 0.352, 192.0, 0.0, 0.0, 0.0, 0.0, 0.0, 0.0, 0.0, 0.0, 0.0, 1.700950634063279E9, 0.0, 2023-11-25 17:17:14.063
60.0, 34204.002821922644, 43936.913482774915, -44998.554289168635, -39301.54166239997, -57117.71483632503, -20917.969455476938, -6326.6836198191195, -24844.187479518354, -0.192, 0.91, 0.352, 192.0, 0.0, 0.0, 0.0, 0.0, 0.0, 0.0, 0.0, 0.0, 0.0, 1.700950634066236E9, 0.0, 2023-11-25 17:17:14.066
61.0, 34247.342854421484, 44029.270890864245, -44964.89256201894, -39240.78962097045, -57091.29507437886, -20878.764495702326, -6440.945737474649, -24793.069039949067, -0.192, 0.91, 0.352, 192.0, 0.0, 0.0, 0.0, 0.0, 0.0, 0.0, 0.0, 0.0, 0.0, 1.700950634070264E9, 0.0, 2023-11-25 17:17:14.070
62.0, 34300.16002656937, 44072.27564719626, -44927.118113889475, -39200.31061176188, -57037.18150105256, -20827.10961426611, -6397.493946253532, -24775.701734507293, -0.192, 0.91, 0.352, 192.0, 0.0, 0.0, 0.0, 0.0, 0.0, 0.0, 0.0, 0.0, 0.0, 1.700950634074296E9, 0.0, 2023-11-25 17:17:14.074
63.0, 34246.06880498753, 43967.401262211955, -44984.293876206146, -39282.09564472385, -57075.82766721579, -20880.664393981027, -6204.419577648589, -24878.16213109042, -0.192, 0.91, 0.352, 192.0, 0.0, 0.0, 0.0, 0.0, 0.0, 0.0, 0.0, 0.0, 0.0, 1.700950634078325E9, 0.0, 2023-11-25 17:17:14.078
64.0, 34192.871653183895, 43924.754133791226, -45007.18206252838, -39318.88661609729, -57129.51655739744, -20938.46600514245, -6316.133596436214, -24892.1766748639, -0.192, 0.91, 0.352, 192.0, 0.0, 0.0, 0.0, 0.0, 0.0, 0.0, 0.0, 0.0, 0.0, 1.700950634082253E9, 0.0, 2023-11-25 17:17:14.082
65.0, 34222.934749476284, 44003.32051555163, -44980.53878313766, -39267.63406606127, -57114.09385372327, -20896.51178079984, -6429.076961168881, -24822.416880418885, -0.192, 0.91, 0.352, 192.0, 0.0, 0.0, 0.0, 0.0, 0.0, 0.0, 0.0, 0.0, 0.0, 1.700950634087333E9, 0.0, 2023-11-25 17:17:14.087
66.0, 34285.47493046224, 44065.3019029262, -44925.19586386631, -39210.704172933605, -57054.48175126097, -20839.000742316337, -6444.142036931758, -24765.397580313394, -0.192, 0.91, 0.352, 192.0, 0.0, 0.0, 0.0, 0.0, 0.0, 0.0, 0.0, 0.0, 0.0, 1.700950634091336E9, 0.0, 2023-11-25 17:17:14.091
67.0, 34256.59647662598, 43985.39441649848, -44959.84106777204, -39264.303656137425, -57057.52158850689, -20846.108597053124, -6199.9492287575285, -24811.464525635784, -0.198, 0.91, 0.352, 192.0, 249.0, 208.0, 28.0, 112.0, 11.0, 0.0, 0.0, 0.0, 0.0, 1.700950634094329E9, 0.0, 2023-11-25 17:17:14.094
68.0, 34184.40034203534, 43915.27699414218, -44996.81085310112, -39321.54647368747, -57123.615696861234, -20927.513650359353, -6279.09675587377, -24840.052406794122, -0.198, 0.91, 0.352, 192.0, 0.0, 0.0, 0.0, 0.0, 0.0, 0.0, 0.0, 0.0, 0.0, 1.700950634098411E9, 0.0, 2023-11-25 17:17:14.098
69.0, 34199.44306605376, 43978.19715478387, -44988.496004163746, -39285.560165114424, -57120.262935192935, -20914.10260368617, -6412.469615038588, -24851.29533425514, -0.198, 0.91, 0.352, 192.0, 0.0, 0.0, 0.0, 0.0, 0.0, 0.0, 0.0, 0.0, 0.0, 1.700950634102801E9, 0.0, 2023-11-25 17:17:14.102
70.0, 34266.09596801949, 44063.26789418077, -44933.60011978151, -39218.12495209277, -57066.10465837773, -20866.783960674282, -6486.90092407476, -24808.96113025679, -0.198, 0.91, 0.352, 192.0, 0.0, 0.0, 0.0, 0.0, 0.0, 0.0, 0.0, 0.0, 0.0, 1.700950634106376E9, 0.0, 2023-11-25 17:17:14.106
71.0, 34261.938543550794, 44004.39339928549, -44957.20356192632, -39245.796411728435, -57049.22909131397, -20836.095015537147, -6232.269851239902, -24797.38292662894, -0.198, 0.91, 0.352, 192.0, 0.0, 0.0, 0.0, 0.0, 0.0, 0.0, 0.0, 0.0, 0.0, 1.700950634110318E9, 0.0, 2023-11-25 17:17:14.110
72.0, 34190.32355431599, 43916.79691276514, -45007.18206252838, -39318.43958120818, -57122.58751661629, -20927.983036992915, -6261.841209154273, -24836.118499769986, -0.198, 0.91, 0.352, 192.0, 0.0, 0.0, 0.0, 0.0, 0.0, 0.0, 0.0, 0.0, 0.0, 1.700950634116401E9, 0.0, 2023-11-25 17:17:14.116
73.0, 34199.308955587025, 43966.216619755825, -45006.735027639275, -39289.896403538754, -57129.87418530872, -20914.214362408446, -6380.327806511857, -24822.260418207698, -0.198, 0.91, 0.352, 192.0, 0.0, 0.0, 0.0, 0.0, 0.0, 0.0, 0.0, 0.0, 0.0, 1.70095063412144E9, 0.0, 2023-11-25 17:17:14.121
74.0, 34257.624656870925, 44052.85198126459, -44958.32114914908, -39227.22211208607, -57088.948141211054, -20874.338850300177, -6491.326569476912, -24775.388810084918, -0.198, 0.91, 0.352, 192.0, 0.0, 0.0, 0.0, 0.0, 0.0, 0.0, 0.0, 0.0, 0.0, 1.700950634125425E9, 0.0, 2023-11-25 17:17:14.125
75.0, 34271.61684889995, 44016.84332094709, -44959.52814334967, -39237.258045346505, -57052.09011460425, -20832.116405024102, -6273.95585464905, -24791.079734692543, -0.198, 0.91, 0.352, 192.0, 0.0, 0.0, 0.0, 0.0, 0.0, 0.0, 0.0, 0.0, 0.0, 1.700950634128418E9, 0.0, 2023-11-25 17:17:14.128
76.0, 34196.179711363286, 43915.1652354199, -45010.40071372995, -39320.026555064505, -57121.246411948974, -20926.686635814505, -6243.1551507896365, -24856.97267734679, -0.198, 0.91, 0.352, 192.0, 0.0, 0.0, 0.0, 0.0, 0.0, 0.0, 0.0, 0.0, 0.0, 1.700950634131379E9, 0.0, 2023-11-25 17:17:14.131
77.0, 34193.05046713954, 43951.397413181956, -45006.936193339374, -39299.552357143446, -57131.93054579861, -20926.641932325594, -6371.029480818449, -24859.72194191479, -0.192, 0.914, 0.358, 192.0, 250.0, 0.0, 28.0, 144.0, 11.0, 48.0, 0.0, 0.0, 0.0, 1.700950634134451E9, 0.0, 2023-11-25 17:17:14.134
78.0, 34249.55567712256, 44051.82380101965, -44956.44360261483, -39235.26874008998, -57094.87135349171, -20889.716850485427, -6491.304217732456, -24808.000005245212, -0.192, 0.914, 0.358, 192.0, 0.0, 0.0, 0.0, 0.0, 0.0, 0.0, 0.0, 0.0, 0.0, 1.700950634138423E9, 0.0, 2023-11-25 17:17:14.138
79.0, 34273.561450667556, 44041.9443299704, -44944.28425363115, -39224.96458589609, -57046.09984709023, -20836.07266379269, -6316.625334814231, -24798.276996407152, -0.192, 0.914, 0.358, 192.0, 0.0, 0.0, 0.0, 0.0, 0.0, 0.0, 0.0, 0.0, 0.0, 1.700950634142443E9, 0.0, 2023-11-25 17:17:14.142
80.0, 34193.98924040666, 43929.135075704464, -45004.835129360574, -39314.63978465078, -57107.52244085341, -20919.98111247791, -6220.199909234037, -24862.806482649623, -0.192, 0.914, 0.358, 192.0, 0.0, 0.0, 0.0, 0.0, 0.0, 0.0, 0.0, 0.0, 0.0, 1.700950634147487E9, 0.0, 2023-11-25 17:17:14.147
81.0, 34178.343019287946, 43941.093258988054, -45008.03142881768, -39308.33659271438, -57127.41549341864, -20931.53696436131, -6346.710782851074, -24857.419712235896, -0.192, 0.914, 0.358, 192.0, 0.0, 0.0, 0.0, 0.0, 0.0, 0.0, 0.0, 0.0, 0.0, 1.700950634150464E9, 0.0, 2023-11-25 17:17:14.150
82.0, 34228.14270593437, 44028.75680074177, -44975.196716212835, -39253.84303973235, -57107.053054219854, -20902.859676225147, -6473.71339484613, -24816.560723371593, -0.192, 0.914, 0.358, 192.0, 0.0, 0.0, 0.0, 0.0, 0.0, 0.0, 0.0, 0.0, 0.0, 1.700950634154461E9, 0.0, 2023-11-25 17:17:14.154
83.0, 34277.94239258079, 44050.303882396685, -44938.428096583855, -39218.14730383722, -57045.49634998994, -20835.60327715913, -6364.92745458215, -24777.154597896886, -0.192, 0.914, 0.358, 192.0, 0.0, 0.0, 0.0, 0.0, 0.0, 0.0, 0.0, 0.0, 0.0, 1.70095063415953E9, 0.0, 2023-11-25 17:17:14.159
84.0, 34218.03971744057, 43944.110744489524, -44991.17821349838, -39301.13933099977, -57091.07155693431, -20895.215379621433, -6196.484708366956, -24841.862898095, -0.192, 0.914, 0.358, 192.0, 0.0, 0.0, 0.0, 0.0, 0.0, 0.0, 0.0, 0.0, 0.0, 1.700950634162472E9, 0.0, 2023-11-25 17:17:14.162
85.0, 34175.03496110856, 43923.435380868366, -45012.457074219834, -39325.346270244874, -57137.63024063471, -20938.71187433146, -6321.743884294497, -24854.446930223337, -0.192, 0.914, 0.358, 192.0, 0.0, 0.0, 0.0, 0.0, 0.0, 0.0, 0.0, 0.0, 0.0, 1.70095063416654E9, 0.0, 2023-11-25 17:17:14.166
86.0, 34216.81037149553, 44010.65188773297, -44982.52808839418, -39273.24435391955, -57119.59238285928, -20909.922827473027, -6453.641528325264, -24816.314854182587, -0.192, 0.914, 0.358, 192.0, 0.0, 0.0, 0.0, 0.0, 0.0, 0.0, 0.0, 0.0, 0.0, 1.700950634170562E9, 0.0, 2023-11-25 17:17:14.170
87.0, 34280.02110481514, 44062.91026626948, -44931.40964882489, -39220.985975383046, -57053.90060590513, -20848.90256511004, -6416.694094740641, -24787.235234646232, -0.188, 0.91, 0.352, 192.0, 250.0, 32.0, 28.0, 112.0, 11.0, 0.0, 0.0, 0.0, 0.0, 1.700950634175537E9, 0.0, 2023-11-25 17:17:14.175
88.0, 34231.6295780694, 43968.49649769026, -44981.96929478279, -39293.91971754071, -57078.733393994975, -20889.00159466286, -6209.783996317863, -24865.712209428813, -0.188, 0.91, 0.352, 192.0, 0.0, 0.0, 0.0, 0.0, 0.0, 0.0, 0.0, 0.0, 0.0, 1.700950634178641E9, 0.0, 2023-11-25 17:17:14.178
89.0, 34189.83181593798, 43937.539331619664, -44998.15195776844, -39321.18884577618, -57120.77702531541, -20944.769197078847, -6316.357113880767, -24878.139779345966, -0.188, 0.91, 0.352, 192.0, 0.0, 0.0, 0.0, 0.0, 0.0, 0.0, 0.0, 0.0, 0.0, 1.70095063418158E9, 0.0, 2023-11-25 17:17:14.181
90.0, 34219.00084245215, 44010.67423947743, -44982.818661072095, -39277.75940629952, -57111.47869962201, -20914.884914742102, -6432.183853648169, -24834.889153824945, -0.188, 0.91, 0.352, 192.0, 0.0, 0.0, 0.0, 0.0, 0.0, 0.0, 0.0, 0.0, 0.0, 1.700950634186627E9, 0.0, 2023-11-25 17:17:14.186
91.0, 34278.32237223654, 44072.186240218434, -44935.87999771595, -39226.43980103014, -57059.46619027451, -20863.475902494898, -6454.602653336841, -24779.233310131232, -0.188, 0.91, 0.352, 192.0, 0.0, 0.0, 0.0, 0.0, 0.0, 0.0, 0.0, 0.0, 0.0, 1.700950634190684E9, 0.0, 2023-11-25 17:17:14.190
92.0, 34245.42060439833, 43984.70151242036, -44979.17532672588, -39283.749673813545, -57070.083268890776, -20872.438952021475, -6214.053179508827, -24834.64328463594, -0.188, 0.91, 0.352, 192.0, 0.0, 0.0, 0.0, 0.0, 0.0, 0.0, 0.0, 0.0, 0.0, 1.700950634194661E9, 0.0, 2023-11-25 17:17:14.194
93.0, 34179.23708906616, 43917.24394765424, -45009.93132709638, -39334.24226453809, -57129.69537135308, -20947.876089558136, -6291.613732768743, -24853.91048835641, -0.188, 0.91, 0.352, 192.0, 0.0, 0.0, 0.0, 0.0, 0.0, 0.0, 0.0, 0.0, 0.0, 1.700950634198809E9, 0.0, 2023-11-25 17:17:14.198
94.0, 34196.69380148576, 43981.66167517444, -44998.822510102094, -39294.27734545199, -57127.63901086319, -20927.536002103807, -6410.9720481600825, -24849.082511554065, -0.188, 0.91, 0.352, 192.0, 0.0, 0.0, 0.0, 0.0, 0.0, 0.0, 0.0, 0.0, 0.0, 1.700950634205646E9, 0.0, 2023-11-25 17:17:14.205
95.0, 34257.57995338201, 44063.647873836504, -44951.54857057912, -39235.73812672355, -57083.494315563956, -20889.76155397434, -6498.747348636073, -24819.15352572841, -0.188, 0.91, 0.352, 192.0, 0.0, 0.0, 0.0, 0.0, 0.0, 0.0, 0.0, 0.0, 0.0, 1.700950634211758E9, 0.0, 2023-11-25 17:17:14.211
96.0, 34253.10960449095, 44009.33313481011, -44969.07233823209, -39261.10735668032, -57060.51672226391, -20858.290297781266, -6247.871368869707, -24822.886267052447, -0.188, 0.91, 0.352, 192.0, 0.0, 0.0, 0.0, 0.0, 0.0, 0.0, 0.0, 0.0, 0.0, 1.700950634214704E9, 0.0, 2023-11-25 17:17:14.214
97.0, 34175.66080995331, 43921.84840701204, -45016.01100158823, -39335.471610483124, -57132.422284176624, -20945.506804645873, -6259.136648075181, -24842.376988217475, -0.2, 0.912, 0.35000000000000003, 192.0, 249.0, 192.0, 28.0, 128.0, 10.0, 240.0, 0.0, 0.0, 0.0, 1.700950634217928E9, 0.0, 2023-11-25 17:17:14.217
98.0, 34189.13891185986, 43976.4313669719, -45012.97116434231, -39308.53775841448, -57138.993697046484, -20934.062711484756, -6388.039158348937, -24832.609275890503, -0.2, 0.912, 0.35000000000000003, 192.0, 0.0, 0.0, 0.0, 0.0, 0.0, 0.0, 0.0, 0.0, 0.0, 1.700950634221737E9, 0.0, 2023-11-25 17:17:14.221
99.0, 34249.06393874454, 44067.782946560736, -44964.75845155221, -39246.95870244011, -57100.45928960554, -20899.350452345665, -6504.201174283168, -24789.984499214235, -0.2, 0.912, 0.35000000000000003, 192.0, 0.0, 0.0, 0.0, 0.0, 0.0, 0.0, 0.0, 0.0, 0.0, 1.700950634224711E9, 0.0, 2023-11-25 17:17:14.224
100.0, 34263.50316566267, 44035.61878628955, -44962.478573617766, -39250.15500189722, -57057.58864374026, -20850.73540815537, -6288.573895522821, -24794.09722019401, -0.2, 0.912, 0.35000000000000003, 192.0, 0.0, 0.0, 0.0, 0.0, 0.0, 0.0, 0.0, 0.0, 0.0, 1.700950634227716E9, 0.0, 2023-11-25 17:17:14.227
101.0, 34183.6180309794, 43926.22934892528, -45016.50273996624, -39338.24322679558, -57127.84017656329, -20943.2939819448, -6238.416580965112, -24863.58879370556, -0.2, 0.912, 0.35000000000000003, 192.0, 0.0, 0.0, 0.0, 0.0, 0.0, 0.0, 0.0, 0.0, 0.0, 1.700950634230729E9, 0.0, 2023-11-25 17:17:14.230
102.0, 34181.136987344864, 43953.900808560946, -45014.04404807616, -39320.87592135381, -57138.94899355758, -20941.036455754813, -6365.083916793337, -24855.63157267947, -0.2, 0.912, 0.35000000000000003, 192.0, 0.0, 0.0, 0.0, 0.0, 0.0, 0.0, 0.0, 0.0, 0.0, 1.700950634234751E9, 0.0, 2023-11-25 17:17:14.234
103.0, 34241.37493865191, 44052.56140858668, -44962.478573617766, -39251.876086220276, -57100.749862283454, -20897.56231278924, -6484.263418229034, -24789.38100211394, -0.2, 0.912, 0.35000000000000003, 192.0, 0.0, 0.0, 0.0, 0.0, 0.0, 0.0, 0.0, 0.0, 0.0, 1.700950634237688E9, 0.0, 2023-11-25 17:17:14.237
104.0, 34276.288363491105, 44054.05897546518, -44941.93732046334, -39232.94415866663, -57048.335021535764, -20839.2689632498, -6318.68169530412, -24777.109894407975, -0.2, 0.912, 0.35000000000000003, 192.0, 0.0, 0.0, 0.0, 0.0, 0.0, 0.0, 0.0, 0.0, 0.0, 1.700950634241745E9, 0.0, 2023-11-25 17:17:14.241
105.0, 34201.76764747711, 43940.959148521324, -44998.57664091309, -39318.26076725254, -57106.293094908375, -20918.930580488515, -6211.415673663101, -24848.121386542487, -0.2, 0.912, 0.35000000000000003, 192.0, 0.0, 0.0, 0.0, 0.0, 0.0, 0.0, 0.0, 0.0, 0.0, 1.700950634246735E9, 0.0, 2023-11-25 17:17:14.246
106.0, 34189.83181593798, 43952.09031726007, -44997.66021939042, -39307.82250259191, -57122.74397882748, -20928.720644559937, -6342.888634549217, -24832.877496823967, -0.2, 0.912, 0.35000000000000003, 192.0, 0.0, 0.0, 0.0, 0.0, 0.0, 0.0, 0.0, 0.0, 0.0, 1.70095063425083E9, 0.0, 2023-11-25 17:17:14.250
107.0, 34241.28553167409, 44046.36997537255, -44963.23853292925, -39251.160830397705, -57099.90049599415, -20897.271740111322, -6470.695909344663, -24792.756115526692, -0.202, 0.906, 0.354, 192.0, 249.0, 176.0, 28.0, 80.0, 11.0, 16.0, 0.0, 0.0, 0.0, 1.700950634255095E9, 0.0, 2023-11-25 17:17:14.255
108.0, 34285.989020584704, 44071.22511520686, -44934.13656164844, -39222.796466683925, -57046.926861635075, -20843.225222018387, -6379.724309411563, -24779.300365364597, -0.202, 0.906, 0.354, 192.0, 0.0, 0.0, 0.0, 0.0, 0.0, 0.0, 0.0, 0.0, 0.0, 1.700950634257768E9, 0.0, 2023-11-25 17:17:14.257
109.0, 34221.50423783115, 43965.38960521098, -44993.368684455, -39309.342421214875, -57093.418490102114, -20905.65364428206, -6204.911316026606, -24850.40126447693, -0.202, 0.906, 0.354, 192.0, 0.0, 0.0, 0.0, 0.0, 0.0, 0.0, 0.0, 0.0, 0.0, 1.700950634261842E9, 0.0, 2023-11-25 17:17:14.261
110.0, 34185.04854262454, 43943.84252355606, -45005.751550883244, -39327.1344098013, -57131.4835109095, -20947.026723268835, -6321.609773827765, -24851.407092977417, -0.202, 0.906, 0.354, 192.0, 0.0, 0.0, 0.0, 0.0, 0.0, 0.0, 0.0, 0.0, 0.0, 1.700950634266576E9, 0.0, 2023-11-25 17:17:14.266
111.0, 34226.04164195558, 44029.896739708995, -44976.58252436907, -39275.635990576266, -57114.07150197882, -20917.56712407674, -6448.366516633811, -24816.51601988268, -0.202, 0.906, 0.354, 192.0, 0.0, 0.0, 0.0, 0.0, 0.0, 0.0, 0.0, 0.0, 0.0, 1.70095063426987E9, 0.0, 2023-11-25 17:17:14.269
112.0, 34287.08425606302, 44080.992827533824, -44928.593329023526, -39223.3105568064, -57051.35250703723, -20861.97833561639, -6426.372400089789, -24787.27993813514, -0.202, 0.906, 0.354, 192.0, 0.0, 0.0, 0.0, 0.0, 0.0, 0.0, 0.0, 0.0, 0.0, 1.700950634274822E9, 0.0, 2023-11-25 17:17:14.274
113.0, 34245.19708695377, 43984.14271880898, -44974.4144051569, -39285.51546162552, -57069.1221438792, -20883.23484459339, -6198.27284792338, -24831.938723556847, -0.202, 0.906, 0.354, 192.0, 0.0, 0.0, 0.0, 0.0, 0.0, 0.0, 0.0, 0.0, 0.0, 1.700950634278815E9, 0.0, 2023-11-25 17:17:14.278
114.0, 34189.5188915156, 43934.052459484636, -45000.27537349169, -39324.854531866855, -57122.45340614956, -20947.853737813683, -6302.856660229762, -24848.613124920503, -0.202, 0.906, 0.354, 192.0, 0.0, 0.0, 0.0, 0.0, 0.0, 0.0, 0.0, 0.0, 0.0, 1.700950634282895E9, 0.0, 2023-11-25 17:17:14.282
115.0, 34220.92309247531, 44015.971602913334, -44980.47172790429, -39278.34055165536, -57108.84119377628, -20921.299865400775, -6429.255775124523, -24832.452813679316, -0.202, 0.906, 0.354, 192.0, 0.0, 0.0, 0.0, 0.0, 0.0, 0.0, 0.0, 0.0, 0.0, 1.70095063428594E9, 0.0, 2023-11-25 17:17:14.285
116.0, 34280.53519493761, 44083.47387116836, -44934.96357619329, -39226.283338818954, -57059.510893763414, -20874.94234740047, -6465.219731953112, -24796.62296731746, -0.202, 0.906, 0.354, 192.0, 0.0, 0.0, 0.0, 0.0, 0.0, 0.0, 0.0, 0.0, 0.0, 1.70095063428993E9, 0.0, 2023-11-25 17:17:14.289
117.0, 34253.288418446595, 43997.6878759489, -44975.28612319066, -39280.10633946733, -57063.467152532, -20878.160998602034, -6220.401074934134, -24838.219563748786, -0.2, 0.908, 0.356, 192.0, 249.0, 192.0, 28.0, 96.0, 11.0, 32.0, 0.0, 0.0, 0.0, 1.700950634293915E9, 0.0, 2023-11-25 17:17:14.293
118.0, 34188.0213246371, 43929.64916582694, -45010.579527685586, -39338.3326337734, -57127.951935285564, -20962.270612987355, -6291.658436257653, -24874.608203722026, -0.2, 0.908, 0.356, 192.0, 0.0, 0.0, 0.0, 0.0, 0.0, 0.0, 0.0, 0.0, 0.0, 1.700950634298084E9, 0.0, 2023-11-25 17:17:14.298
119.0, 34210.48482781468, 43993.99983811377, -44994.4192164444, -39294.67967685219, -57118.29598168087, -20927.75951954836, -6403.797138189929, -24828.898886310923, -0.2, 0.908, 0.356, 192.0, 0.0, 0.0, 0.0, 0.0, 0.0, 0.0, 0.0, 0.0, 0.0, 1.700950634303988E9, 0.0, 2023-11-25 17:17:14.303
120.0, 34268.46525293175, 44072.901496041006, -44946.36296586549, -39235.98399591255, -57073.86071370372, -20885.71588822793, -6481.603560638852, -24775.031182173632, -0.2, 0.908, 0.356, 192.0, 0.0, 0.0, 0.0, 0.0, 0.0, 0.0, 0.0, 0.0, 0.0, 1.700950634307002E9, 0.0, 2023-11-25 17:17:14.307
121.0, 34268.8899360764, 44024.28645185071, -44957.13650669295, -39254.96062695511, -57045.5634052233, -20852.434140733974, -6244.451551968044, -24794.700717294305, -0.2, 0.908, 0.356, 192.0, 0.0, 0.0, 0.0, 0.0, 0.0, 0.0, 0.0, 0.0, 0.0, 1.700950634310984E9, 0.0, 2023-11-25 17:17:14.310
122.0, 34189.161263604314, 43927.190473936855, -45007.159710783926, -39332.49882847057, -57118.36303691424, -20945.90913604607, -6254.353374761746, -24847.026151064176, -0.2, 0.908, 0.356, 192.0, 0.0, 0.0, 0.0, 0.0, 0.0, 0.0, 0.0, 0.0, 0.0, 1.700950634314012E9, 0.0, 2023-11-25 17:17:14.314
123.0, 34201.00768816563, 43976.409015227444, -44997.34729496805, -39299.060618765434, -57120.39704565967, -20927.60305733717, -6372.281178507946, -24829.25651422221, -0.2, 0.908, 0.356, 192.0, 0.0, 0.0, 0.0, 0.0, 0.0, 0.0, 0.0, 0.0, 0.0, 1.700950634318113E9, 0.0, 2023-11-25 17:17:14.318
124.0, 34263.97255229623, 44071.35922567359, -44941.5573408076, -39229.52434176497, -57076.922902694096, -20880.75380095885, -6487.2809037305005, -24760.077865133033, -0.2, 0.908, 0.356, 192.0, 0.0, 0.0, 0.0, 0.0, 0.0, 0.0, 0.0, 0.0, 0.0, 1.700950634322092E9, 0.0, 2023-11-25 17:17:14.322
125.0, 34286.97249734074, 44051.555580086184, -44933.84598897052, -39225.90335916321, -57027.927878848066, -20826.372006699086, -6273.285302315391, -24753.394693540897, -0.2, 0.908, 0.356, 192.0, 0.0, 0.0, 0.0, 0.0, 0.0, 0.0, 0.0, 0.0, 0.0, 1.700950634326051E9, 0.0, 2023-11-25 17:17:14.326
126.0, 34210.73069700369, 43943.1719712224, -44989.27831521968, -39312.78458986099, -57094.51372558042, -20920.38344387811, -6213.9190690420955, -24823.042729263634, -0.2, 0.908, 0.356, 192.0, 0.0, 0.0, 0.0, 0.0, 0.0, 0.0, 0.0, 0.0, 0.0, 1.700950634330156E9, 0.0, 2023-11-25 17:17:14.330
127.0, 34203.60049052245, 43969.99406456877, -44987.71369310781, -39294.88084255229, -57106.53896409738, -20920.09287120019, -6341.033439759427, -24817.231275705253, -0.194, 0.908, 0.354, 192.0, 249.0, 240.0, 28.0, 96.0, 11.0, 16.0, 0.0, 0.0, 0.0, 1.700950634335086E9, 0.0, 2023-11-25 17:17:14.335
128.0, 34263.212592984746, 44067.648836094006, -44941.66909952988, -39230.887798176744, -57072.76547822541, -20887.347565573164, -6475.054499513448, -24774.941775195814, -0.194, 0.908, 0.354, 192.0, 0.0, 0.0, 0.0, 0.0, 0.0, 0.0, 0.0, 0.0, 0.0, 1.700950634339082E9, 0.0, 2023-11-25 17:17:14.339
129.0, 34302.082276592526, 44073.68380709694, -44917.596270751514, -39208.871329888265, -57017.71313163199, -20829.948285811937, -6326.750675052485, -24771.85723446098, -0.194, 0.908, 0.354, 192.0, 0.0, 0.0, 0.0, 0.0, 0.0, 0.0, 0.0, 0.0, 0.0, 1.700950634342098E9, 0.0, 2023-11-25 17:17:14.342
130.0, 34228.52268559011, 43960.94160806437, -44976.98485576926, -39298.03243852049, -57078.55458003934, -20911.643911796084, -6205.313647426802, -24853.48580521176, -0.194, 0.908, 0.354, 192.0, 0.0, 0.0, 0.0, 0.0, 0.0, 0.0, 0.0, 0.0, 0.0, 1.700950634346092E9, 0.0, 2023-11-25 17:17:14.346
131.0, 34215.06693542802, 43968.20592501234, -44977.83422205856, -39293.96442102962, -57100.45928960554, -20930.687598072007, -6336.518387379455, -24842.01936030619, -0.194, 0.908, 0.354, 192.0, 0.0, 0.0, 0.0, 0.0, 0.0, 0.0, 0.0, 0.0, 0.0, 1.700950634350218E9, 0.0, 2023-11-25 17:17:14.350
132.0, 34259.099872004976, 44057.88112376704, -44948.26286414419, -39242.220132615585, -57081.66147251862, -20902.010309935846, -6461.643452840263, -24794.633662060936, -0.194, 0.908, 0.354, 192.0, 0.0, 0.0, 0.0, 0.0, 0.0, 0.0, 0.0, 0.0, 0.0, 1.700950634355151E9, 0.0, 2023-11-25 17:17:14.355
133.0, 34303.60219521549, 44082.40098743451, -44918.37858180745, -39212.11233283429, -57029.40309398212, -20847.0697220647, -6379.366681500278, -24767.9456791813, -0.194, 0.908, 0.354, 192.0, 0.0, 0.0, 0.0, 0.0, 0.0, 0.0, 0.0, 0.0, 0.0, 1.700950634359214E9, 0.0, 2023-11-25 17:17:14.359
134.0, 34239.47504037321, 43970.21758201332, -44979.71176859281, -39299.70881935464, -57076.76644048291, -20904.1337256591, -6194.853031021718, -24835.269133480684, -0.194, 0.908, 0.354, 192.0, 0.0, 0.0, 0.0, 0.0, 0.0, 0.0, 0.0, 0.0, 0.0, 1.700950634364176E9, 0.0, 2023-11-25 17:17:14.364
135.0, 34200.024211409596, 43943.775468322696, -44992.116986765504, -39318.23841550809, -57115.8819932797, -20945.976191279435, -6314.904250491172, -24829.368272944484, -0.194, 0.908, 0.354, 192.0, 0.0, 0.0, 0.0, 0.0, 0.0, 0.0, 0.0, 0.0, 0.0, 1.700950634367226E9, 0.0, 2023-11-25 17:17:14.367
136.0, 34233.55182809255, 44021.73835298281, -44967.75358530922, -39268.796356772946, -57100.727510539, -20915.019025208836, -6437.727086273085, -24798.81343827408, -0.194, 0.908, 0.354, 192.0, 0.0, 0.0, 0.0, 0.0, 0.0, 0.0, 0.0, 0.0, 0.0, 1.700950634371241E9, 0.0, 2023-11-25 17:17:14.371
137.0, 34290.16879679785, 44074.980208275345, -44920.122017874965, -39216.917957892176, -57039.930765620564, -20858.826739648193, -6424.696019255641, -24769.063266404068, -0.198, 0.912, 0.352, 192.0, 249.0, 208.0, 28.0, 128.0, 11.0, 0.0, 0.0, 0.0, 0.0, 1.700950634374684E9, 0.0, 2023-11-25 17:17:14.374
138.0, 34250.65091260087, 43984.299181020164, -44961.89742826193, -39276.97709524359, -57053.162998338106, -20878.116295113123, -6197.714054311998, -24830.128232255964, -0.198, 0.912, 0.352, 192.0, 0.0, 0.0, 0.0, 0.0, 0.0, 0.0, 0.0, 0.0, 0.0, 1.700950634378257E9, 0.0, 2023-11-25 17:17:14.378
139.0, 34189.0718566265, 43923.65889831292, -44993.07811177708, -39322.82052312142, -57113.423301389616, -20951.027685526336, -6298.140442149693, -24865.62280245099, -0.198, 0.912, 0.352, 192.0, 0.0, 0.0, 0.0, 0.0, 0.0, 0.0, 0.0, 0.0, 0.0, 1.700950634382301E9, 0.0, 2023-11-25 17:17:14.382
140.0, 34227.002766967154, 44004.95219289687, -44965.04902423013, -39268.014045717006, -57093.86552499122, -20913.52145833033, -6419.063379652904, -24826.797822332126, -0.198, 0.912, 0.352, 192.0, 0.0, 0.0, 0.0, 0.0, 0.0, 0.0, 0.0, 0.0, 0.0, 1.700950634386305E9, 0.0, 2023-11-25 17:17:14.386
141.0, 34287.039552574104, 44073.57204837466, -44918.73620971873, -39211.41942875617, -57043.015306355395, -20864.03469610628, -6456.9942899935595, -24774.13711239542, -0.198, 0.912, 0.352, 192.0, 0.0, 0.0, 0.0, 0.0, 0.0, 0.0, 0.0, 0.0, 0.0, 1.700950634390374E9, 0.0, 2023-11-25 17:17:14.390
142.0, 34269.359322709955, 43999.81129167215, -44951.61562581249, -39259.02864444598, -57039.39432375364, -20858.960850114927, -6213.159109730615, -24818.14769722792, -0.198, 0.912, 0.352, 192.0, 0.0, 0.0, 0.0, 0.0, 0.0, 0.0, 0.0, 0.0, 0.0, 1.700950634394601E9, 0.0, 2023-11-25 17:17:14.394
143.0, 34199.308955587025, 43921.08844770056, -44991.40173094293, -39326.68737491219, -57109.93642925459, -20947.13848199111, -6272.704156959553, -24861.91241287141, -0.198, 0.912, 0.352, 192.0, 0.0, 0.0, 0.0, 0.0, 0.0, 0.0, 0.0, 0.0, 0.0, 1.700950634398273E9, 0.0, 2023-11-25 17:17:14.398
144.0, 34219.67139478581, 43983.58392519759, -44975.30847493511, -39284.44257789166, -57103.81205127383, -20915.37665312012, -6393.515335740488, -24820.8075548181, -0.198, 0.912, 0.352, 192.0, 0.0, 0.0, 0.0, 0.0, 0.0, 0.0, 0.0, 0.0, 0.0, 1.700950634401329E9, 0.0, 2023-11-25 17:17:14.401
145.0, 34277.24948850268, 44068.4534988944, -44921.50782603119, -39219.5554637379, -57056.67222221759, -20864.101751339647, -6481.42474668321, -24753.729969707725, -0.198, 0.912, 0.352, 192.0, 0.0, 0.0, 0.0, 0.0, 0.0, 0.0, 0.0, 0.0, 0.0, 1.700950634406309E9, 0.0, 2023-11-25 17:17:14.406
146.0, 34279.35055248148, 44018.25148084778, -44934.91887270437, -39242.376594826776, -57029.91718410459, -20833.03282654677, -6250.397115993156, -24784.307156122584, -0.198, 0.912, 0.352, 192.0, 0.0, 0.0, 0.0, 0.0, 0.0, 0.0, 0.0, 0.0, 0.0, 1.700950634410327E9, 0.0, 2023-11-25 17:17:14.410
147.0, 34204.44985681175, 43919.434418610865, -44981.008169771216, -39318.75250563055, -57096.39127211467, -20920.696368300483, -6236.717848386508, -24813.029147747657, -0.202, 0.908, 0.34800000000000003, 192.0, 249.0, 176.0, 28.0, 96.0, 10.0, 224.0, 0.0, 0.0, 0.0, 1.700950634414326E9, 0.0, 2023-11-25 17:17:14.414
148.0, 34219.4255255968, 43965.45666044434, -44966.14425970844, -39282.565031357415, -57092.56912381281, -20901.384461091096, -6355.383259699734, -24787.77167651316, -0.202, 0.908, 0.34800000000000003, 192.0, 0.0, 0.0, 0.0, 0.0, 0.0, 0.0, 0.0, 0.0, 0.0, 1.700950634418329E9, 0.0, 2023-11-25 17:17:14.418
149.0, 34281.98805832721, 44058.95400750089, -44915.07052362806, -39219.354298037804, -57054.32528904978, -20870.404943276044, -6477.356729192345, -24760.457844788772, -0.202, 0.908, 0.34800000000000003, 192.0, 0.0, 0.0, 0.0, 0.0, 0.0, 0.0, 0.0, 0.0, 0.0, 1.700950634422356E9, 0.0, 2023-11-25 17:17:14.422
150.0, 34300.85293064749, 44035.059992678165, -44909.79551193661, -39219.84603641582, -57013.28748622984, -20823.086300264156, -6277.062747128338, -24765.419932057852, -0.202, 0.908, 0.34800000000000003, 192.0, 0.0, 0.0, 0.0, 0.0, 0.0, 0.0, 0.0, 0.0, 0.0, 1.700950634426491E9, 0.0, 2023-11-25 17:17:14.426
151.0, 34222.040679698075, 43925.22352042479, -44967.150088208924, -39309.99062180408, -57082.71200450802, -20916.449536853976, -6215.461339409511, -24843.271057995687, -0.202, 0.908, 0.34800000000000003, 192.0, 0.0, 0.0, 0.0, 0.0, 0.0, 0.0, 0.0, 0.0, 0.0, 1.70095063442949E9, 0.0, 2023-11-25 17:17:14.429
152.0, 34208.62963302489, 43943.10491598903, -44972.64861734493, -39302.122807755804, -57105.242562918975, -20921.009292722858, -6340.9440327816055, -24833.34688345753, -0.202, 0.908, 0.34800000000000003, 192.0, 0.0, 0.0, 0.0, 0.0, 0.0, 0.0, 0.0, 0.0, 0.0, 1.700950634435442E9, 0.0, 2023-11-25 17:17:14.435
153.0, 34250.15917422285, 44025.00170767328, -44938.22693088376, -39249.417394330194, -57082.91317020812, -20890.119181885624, -6472.640511112275, -24774.76296124017, -0.202, 0.908, 0.34800000000000003, 192.0, 0.0, 0.0, 0.0, 0.0, 0.0, 0.0, 0.0, 0.0, 0.0, 1.700950634438477E9, 0.0, 2023-11-25 17:17:14.438
154.0, 34294.527386966634, 44035.70819326737, -44907.828558424546, -39220.76245793849, -57020.95413457801, -20827.51194566631, -6334.126750722737, -24755.383998797417, -0.202, 0.908, 0.34800000000000003, 192.0, 0.0, 0.0, 0.0, 0.0, 0.0, 0.0, 0.0, 0.0, 0.0, 1.700950634442461E9, 0.0, 2023-11-25 17:17:14.442
155.0, 34230.95902573574, 43931.191436194356, -44960.62337882798, -39298.88180480979, -57068.38453631217, -20894.008385420846, -6193.690740310042, -24817.63360710545, -0.202, 0.908, 0.34800000000000003, 192.0, 0.0, 0.0, 0.0, 0.0, 0.0, 0.0, 0.0, 0.0, 0.0, 1.700950634446505E9, 0.0, 2023-11-25 17:17:14.446
156.0, 34200.918281187805, 43924.955299491325, -44973.29681793413, -39301.4746071666, -57100.23577216098, -20921.322217145233, -6323.286154661912, -24825.747290342726, -0.202, 0.908, 0.34800000000000003, 192.0, 0.0, 0.0, 0.0, 0.0, 0.0, 0.0, 0.0, 0.0, 0.0, 1.700950634450133E9, 0.0, 2023-11-25 17:17:14.450
157.0, 34234.84822927097, 44008.86374817655, -44950.319224634084, -39250.64674027524, -57086.288283620874, -20894.70128949896, -6450.020545723503, -24787.9504904688, -0.198, 0.902, 0.358, 192.0, 249.0, 208.0, 28.0, 48.0, 11.0, 48.0, 0.0, 0.0, 0.0, 1.700950634453556E9, 0.0, 2023-11-25 17:17:14.453
158.0, 34283.53032869462, 44042.123143926045, -44915.67402072836, -39212.447609001116, -57030.2077567825, -20834.038655047258, -6376.259789020991, -24746.17508008183, -0.198, 0.902, 0.358, 192.0, 0.0, 0.0, 0.0, 0.0, 0.0, 0.0, 0.0, 0.0, 0.0, 1.700950634457508E9, 0.0, 2023-11-25 17:17:14.457
159.0, 34231.31665364702, 43937.85225604204, -44970.79342255514, -39291.930412284186, -57066.95402466703, -20884.263024838332, -6184.191248916537, -24807.843543034025, -0.198, 0.902, 0.358, 192.0, 0.0, 0.0, 0.0, 0.0, 0.0, 0.0, 0.0, 0.0, 0.0, 1.700950634461533E9, 0.0, 2023-11-25 17:17:14.461
160.0, 34189.250670582136, 43906.224537637776, -44988.16072799692, -39317.45610445215, -57111.41164438864, -20935.314409174254, -6303.884840474706, -24822.30512169661, -0.198, 0.902, 0.358, 192.0, 0.0, 0.0, 0.0, 0.0, 0.0, 0.0, 0.0, 0.0, 0.0, 1.700950634467047E9, 0.0, 2023-11-25 17:17:14.467
161.0, 34223.6276535544, 43988.2330880443, -44962.6126840845, -39267.745824783546, -57095.474850592, -20905.519533815328, -6426.282993111968, -24791.929100981844, -0.198, 0.902, 0.358, 192.0, 0.0, 0.0, 0.0, 0.0, 0.0, 0.0, 0.0, 0.0, 0.0, 1.700950634470619E9, 0.0, 2023-11-25 17:17:14.470
162.0, 34279.61877341494, 44043.888931738016, -44918.22211959626, -39218.460228259595, -57041.47303598798, -20854.55755645723, -6427.489987312554, -24761.41896980035, -0.198, 0.902, 0.358, 192.0, 0.0, 0.0, 0.0, 0.0, 0.0, 0.0, 0.0, 0.0, 0.0, 1.700950634474567E9, 0.0, 2023-11-25 17:17:14.474
163.0, 34249.10864223345, 43962.305064476146, -44956.3094921481, -39273.84785101985, -57050.12316109218, -20867.946251385958, -6195.501231610922, -24806.569493600073, -0.198, 0.902, 0.358, 192.0, 0.0, 0.0, 0.0, 0.0, 0.0, 0.0, 0.0, 0.0, 0.0, 1.700950634477563E9, 0.0, 2023-11-25 17:17:14.477
164.0, 34188.691876970755, 43898.73670324525, -44988.54070765265, -39322.79817137697, -57112.21630718903, -20942.489319144406, -6285.914037932639, -24832.13988925694, -0.198, 0.902, 0.358, 192.0, 0.0, 0.0, 0.0, 0.0, 0.0, 0.0, 0.0, 0.0, 0.0, 1.70095063448165E9, 0.0, 2023-11-25 17:17:14.481
165.0, 34212.78705749357, 43968.36238722353, -44973.29681793413, -39280.08398772287, -57104.68376930759, -20914.05790019726, -6408.222783592079, -24793.247853904708, -0.198, 0.902, 0.358, 192.0, 0.0, 0.0, 0.0, 0.0, 0.0, 0.0, 0.0, 0.0, 0.0, 1.700950634486146E9, 0.0, 2023-11-25 17:17:14.486
166.0, 34276.37777046893, 44051.846152764105, -44919.29500333012, -39218.7060974486, -57050.05610585882, -20865.33109728469, -6461.196417951157, -24743.269353302643, -0.198, 0.902, 0.358, 192.0, 0.0, 0.0, 0.0, 0.0, 0.0, 0.0, 0.0, 0.0, 0.0, 1.700950634489621E9, 0.0, 2023-11-25 17:17:14.489
167.0, 34255.72475859222, 43979.627666429005, -44952.66615780189, -39265.4659468491, -57046.54688197934, -20863.006515861336, -6219.171728989092, -24793.13609518243, -0.19, 0.902, 0.34600000000000003, 192.0, 250.0, 16.0, 28.0, 48.0, 10.0, 208.0, 0.0, 0.0, 0.0, 1.700950634495614E9, 0.0, 2023-11-25 17:17:14.495
168.0, 34187.216661836705, 43898.35672358951, -44992.02757978768, -39334.66694768274, -57115.39025490168, -20959.074313530247, -6273.397061037667, -24845.327418485573, -0.19, 0.902, 0.34600000000000003, 192.0, 0.0, 0.0, 0.0, 0.0, 0.0, 0.0, 0.0, 0.0, 0.0, 1.700950634498586E9, 0.0, 2023-11-25 17:17:14.498
169.0, 34205.05335391204, 43956.24774172875, -44983.93624829486, -39301.16168274423, -57116.284324679895, -20939.628295854127, -6394.252943307512, -24825.166144986888, -0.19, 0.902, 0.34600000000000003, 192.0, 0.0, 0.0, 0.0, 0.0, 0.0, 0.0, 0.0, 0.0, 0.0, 1.700950634502573E9, 0.0, 2023-11-25 17:17:14.502
170.0, 34261.22328772823, 44036.84813223459, -44941.13265766295, -39248.925655952175, -57080.767402740414, -20910.52632457332, -6500.200212025668, -24794.208978916286, -0.19, 0.902, 0.34600000000000003, 192.0, 0.0, 0.0, 0.0, 0.0, 0.0, 0.0, 0.0, 0.0, 0.0, 1.700950634505578E9, 0.0, 2023-11-25 17:17:14.505
171.0, 34267.4370726868, 43994.379817769506, -44949.22398915577, -39263.275475892486, -57049.743181436446, -20873.958870644437, -6272.726508704008, -24814.571418115072, -0.19, 0.902, 0.34600000000000003, 192.0, 0.0, 0.0, 0.0, 0.0, 0.0, 0.0, 0.0, 0.0, 0.0, 1.700950634509588E9, 0.0, 2023-11-25 17:17:14.509
172.0, 34189.76476070461, 43898.13320614496, -44997.45905369033, -39337.6844331842, -57117.468967136025, -20957.554394907285, -6251.872331127207, -24839.426557949373, -0.19, 0.902, 0.34600000000000003, 192.0, 0.0, 0.0, 0.0, 0.0, 0.0, 0.0, 0.0, 0.0, 0.0, 1.700950634513646E9, 0.0, 2023-11-25 17:17:14.513
173.0, 34199.24190035366, 43945.34009043456, -44986.2161262293, -39301.69812461115, -57115.30084792386, -20940.678827843527, -6374.136373297736, -24813.967921014777, -0.19, 0.902, 0.34600000000000003, 192.0, 0.0, 0.0, 0.0, 0.0, 0.0, 0.0, 0.0, 0.0, 0.0, 1.700950634517695E9, 0.0, 2023-11-25 17:17:14.517
174.0, 34254.137784735896, 44037.026946190235, -44940.953843707306, -39241.884856448756, -57080.5215335514, -20907.218266393935, -6491.773604366017, -24774.0477054176, -0.19, 0.902, 0.34600000000000003, 192.0, 0.0, 0.0, 0.0, 0.0, 0.0, 0.0, 0.0, 0.0, 0.0, 1.700950634521676E9, 0.0, 2023-11-25 17:17:14.521
175.0, 34277.02597105813, 44021.96187042736, -44929.37564007946, -39235.40285055672, -57031.75002714992, -20849.3719517436, -6298.72158750553, -24761.687190733814, -0.19, 0.902, 0.34600000000000003, 192.0, 0.0, 0.0, 0.0, 0.0, 0.0, 0.0, 0.0, 0.0, 0.0, 1.700950634526732E9, 0.0, 2023-11-25 17:17:14.526
176.0, 34200.58300502098, 43909.577299306075, -44988.78657684167, -39324.8321801224, -57099.788737271876, -20939.13655747611, -6224.580851147277, -24834.799746847126, -0.19, 0.902, 0.34600000000000003, 192.0, 0.0, 0.0, 0.0, 0.0, 0.0, 0.0, 0.0, 0.0, 0.0, 1.700950634530731E9, 0.0, 2023-11-25 17:17:14.530
177.0, 34190.435313038266, 43926.564625092105, -44992.0722832766, -39316.182055018195, -57119.368865414726, -20948.501938402886, -6355.919701566661, -24838.688950382348, -0.192, 0.904, 0.364, 192.0, 250.0, 0.0, 28.0, 64.0, 11.0, 96.0, 0.0, 0.0, 0.0, 1.700950634533946E9, 0.0, 2023-11-25 17:17:14.533
178.0, 34245.01827299813, 44021.73835298281, -44948.218160655284, -39254.111260665806, -57088.50110632195, -20910.74984201787, -6483.257589728545, -24783.65895553338, -0.192, 0.904, 0.364, 192.0, 0.0, 0.0, 0.0, 0.0, 0.0, 0.0, 0.0, 0.0, 0.0, 1.700950634537815E9, 0.0, 2023-11-25 17:17:14.537
179.0, 34284.42439847284, 44035.842303734105, -44920.01025915269, -39225.590434740836, -57030.34186724924, -20845.61685867511, -6353.326899209846, -24760.502548277684, -0.192, 0.904, 0.364, 192.0, 0.0, 0.0, 0.0, 0.0, 0.0, 0.0, 0.0, 0.0, 0.0, 1.700950634541769E9, 0.0, 2023-11-25 17:17:14.541
180.0, 34219.939615719275, 43928.97861349328, -44975.57669586858, -39304.96147930163, -57077.50404804994, -20905.60894079315, -6205.090129982249, -24816.940703027332, -0.192, 0.904, 0.364, 192.0, 0.0, 0.0, 0.0, 0.0, 0.0, 0.0, 0.0, 0.0, 0.0, 1.700950634545775E9, 0.0, 2023-11-25 17:17:14.545
181.0, 34189.9212229158, 43916.148712175935, -44988.22778323028, -39314.17039801722, -57109.95878099904, -20937.23665919741, -6328.248241930991, -24829.457679922307, -0.192, 0.904, 0.364, 192.0, 0.0, 0.0, 0.0, 0.0, 0.0, 0.0, 0.0, 0.0, 0.0, 1.700950634549802E9, 0.0, 2023-11-25 17:17:14.549
182.0, 34231.92015074732, 44003.78990218519, -44956.823582270576, -39260.03447294646, -57090.78098425639, -20913.208533907957, -6461.911673773727, -24804.937816254835, -0.192, 0.904, 0.364, 192.0, 0.0, 0.0, 0.0, 0.0, 0.0, 0.0, 0.0, 0.0, 0.0, 1.700950634554761E9, 0.0, 2023-11-25 17:17:14.554
183.0, 34283.57503218354, 44039.17271365794, -44917.5515672626, -39220.896568405224, -57035.23689928495, -20854.289335523765, -6400.042045121437, -24764.548214024093, -0.192, 0.904, 0.364, 192.0, 0.0, 0.0, 0.0, 0.0, 0.0, 0.0, 0.0, 0.0, 0.0, 1.700950634559798E9, 0.0, 2023-11-25 17:17:14.559
184.0, 34227.87448500091, 43932.64429958395, -44977.00720751372, -39305.34145895737, -57075.00065267094, -20902.882027969605, -6192.237876920447, -24821.276941451662, -0.192, 0.904, 0.364, 192.0, 0.0, 0.0, 0.0, 0.0, 0.0, 0.0, 0.0, 0.0, 0.0, 1.700950634562772E9, 0.0, 2023-11-25 17:17:14.562
185.0, 34191.977583405685, 43905.039895181646, -44992.0722832766, -39332.29766277047, -57118.519499125425, -20954.939240806012, -6307.77404400993, -24819.757022828704, -0.192, 0.904, 0.364, 192.0, 0.0, 0.0, 0.0, 0.0, 0.0, 0.0, 0.0, 0.0, 0.0, 1.700950634566806E9, 0.0, 2023-11-25 17:17:14.566
186.0, 34227.695671045265, 43987.22725954381, -44969.09468997654, -39286.141310470266, -57107.07540596431, -20930.307618416264, -6433.636717037763, -24796.95824348429, -0.198, 0.908, 0.366, 192.0, 249.0, 208.0, 28.0, 96.0, 11.0, 112.0, 0.0, 0.0, 0.0, 1.700950634569778E9, 0.0, 2023-11-25 17:17:14.569
187.0, 34283.127997294425, 44044.4477253494, -44922.17837836485, -39230.64192898774, -57051.4642657595, -20875.23292007839, -6443.22561540909, -24750.42191152834, -0.198, 0.908, 0.366, 192.0, 0.0, 0.0, 0.0, 0.0, 0.0, 0.0, 0.0, 0.0, 0.0, 1.700950634574812E9, 0.0, 2023-11-25 17:17:14.574
188.0, 34252.41670041284, 43961.14277376447, -44956.331843892556, -39279.25697317803, -57052.40303902663, -20881.625518992605, -6212.019170763394, -24795.661842305883, -0.198, 0.908, 0.366, 192.0, 0.0, 0.0, 0.0, 0.0, 0.0, 0.0, 0.0, 0.0, 0.0, 1.700950634579841E9, 0.0, 2023-11-25 17:17:14.579
189.0, 34189.5188915156, 43896.03214216616, -44985.36675994, -39324.13927604428, -57108.86354552073, -20953.57578439424, -6292.820726969329, -24820.360519928996, -0.198, 0.908, 0.366, 192.0, 0.0, 0.0, 0.0, 0.0, 0.0, 0.0, 0.0, 0.0, 0.0, 1.700950634582861E9, 0.0, 2023-11-25 17:17:14.582
190.0, 34208.137894646876, 43960.65103538645, -44972.78272781167, -39284.15200521374, -57102.381539628695, -20932.118109717147, -6408.491004525543, -24802.792048787123, -0.198, 0.908, 0.366, 192.0, 0.0, 0.0, 0.0, 0.0, 0.0, 0.0, 0.0, 0.0, 0.0, 1.700950634586869E9, 0.0, 2023-11-25 17:17:14.586
191.0, 34271.8403663445, 44042.03373694822, -44919.004430652196, -39220.47188526057, -57047.463303502, -20881.93844341498, -6467.298444187456, -24744.722216692237, -0.198, 0.908, 0.366, 192.0, 0.0, 0.0, 0.0, 0.0, 0.0, 0.0, 0.0, 0.0, 0.0, 1.700950634589886E9, 0.0, 2023-11-25 17:17:14.589
192.0, 34260.8880115614, 43980.6334949295, -44942.22789314126, -39256.413490344705, -57033.582870195256, -20866.851015907647, -6225.161996503115, -24783.256624133188, -0.198, 0.908, 0.366, 192.0, 0.0, 0.0, 0.0, 0.0, 0.0, 0.0, 0.0, 0.0, 0.0, 1.700950634593897E9, 0.0, 2023-11-25 17:17:14.593
193.0, 34189.161263604314, 43895.62981076596, -44984.53974539516, -39327.022651079016, -57104.7284727965, -20960.013086797368, -6266.780944678896, -24828.29538921063, -0.198, 0.908, 0.366, 192.0, 0.0, 0.0, 0.0, 0.0, 0.0, 0.0, 0.0, 0.0, 0.0, 1.700950634597887E9, 0.0, 2023-11-25 17:17:14.597
194.0, 34203.68989750027, 43948.84931431405, -44977.49894589173, -39296.17724373069, -57110.29405716587, -20943.696313344994, -6389.581428716354, -24817.16422047189, -0.198, 0.908, 0.366, 192.0, 0.0, 0.0, 0.0, 0.0, 0.0, 0.0, 0.0, 0.0, 0.0, 1.700950634601968E9, 0.0, 2023-11-25 17:17:14.601
195.0, 34263.68197961831, 44032.62365253254, -44929.621509268465, -39238.33092908036, -57072.96664392551, -20903.75374600336, -6494.902848589761, -24781.736705510226, -0.198, 0.908, 0.366, 192.0, 0.0, 0.0, 0.0, 0.0, 0.0, 0.0, 0.0, 0.0, 0.0, 1.700950634605916E9, 0.0, 2023-11-25 17:17:14.605
196.0, 34274.56727916805, 43991.13881482349, -44938.74102100623, -39254.37948159927, -57040.44485574304, -20862.09009433867, -6272.212418581536, -24801.33918539753, -0.196, 0.904, 0.358, 192.0, 249.0, 224.0, 28.0, 64.0, 11.0, 48.0, 0.0, 0.0, 0.0, 1.7009506346099E9, 0.0, 2023-11-25 17:17:14.609
197.0, 34197.833740452974, 43886.219726350275, -44990.28414372017, -39333.951691860166, -57108.08123446479, -20944.47862440093, -6243.825703123296, -24829.39062468894, -0.196, 0.904, 0.358, 192.0, 0.0, 0.0, 0.0, 0.0, 0.0, 0.0, 0.0, 0.0, 0.0, 1.700950634614952E9, 0.0, 2023-11-25 17:17:14.614
198.0, 34203.511083544625, 43916.48398834276, -44981.09757674904, -39303.30745021194, -57109.377635643206, -20928.117147459645, -6367.9449400836165, -24803.104973209498, -0.196, 0.904, 0.358, 192.0, 0.0, 0.0, 0.0, 0.0, 0.0, 0.0, 0.0, 0.0, 0.0, 1.700950634617938E9, 0.0, 2023-11-25 17:17:14.617
199.0, 34264.08431101851, 44009.62370748803, -44929.24152961273, -39235.67107149018, -57067.57987351178, -20890.119181885624, -6491.773604366017, -24764.36940006845, -0.196, 0.904, 0.358, 192.0, 0.0, 0.0, 0.0, 0.0, 0.0, 0.0, 0.0, 0.0, 0.0, 1.700950634620977E9, 0.0, 2023-11-25 17:17:14.620
200.0, 34286.54781419609, 43993.955134624855, -44917.32804981805, -39229.12201036477, -57018.1601665211, -20838.777224871785, -6311.663247545153, -24765.822263458045, -0.196, 0.904, 0.358, 192.0, 0.0, 0.0, 0.0, 0.0, 0.0, 0.0, 0.0, 0.0, 0.0, 1.700950634626016E9, 0.0, 2023-11-25 17:17:14.626
201.0, 34213.90464471634, 43885.83974669454, -44969.98875975475, -39315.46679919562, -57075.40298407114, -20923.602095079674, -6221.876290068185, -24828.541258399637, -0.196, 0.904, 0.358, 192.0, 0.0, 0.0, 0.0, 0.0, 0.0, 0.0, 0.0, 0.0, 0.0, 1.700950634630028E9, 0.0, 2023-11-25 17:17:14.630
202.0, 34203.68989750027, 43909.75611326172, -44966.05485273062, -39302.99452578957, -57090.46805983401, -20934.28622892931, -6346.353154939789, -24816.560723371593, -0.196, 0.904, 0.358, 192.0, 0.0, 0.0, 0.0, 0.0, 0.0, 0.0, 0.0, 0.0, 0.0, 1.700950634634096E9, 0.0, 2023-11-25 17:17:14.634
203.0, 34252.55081087957, 43999.36425678304, -44932.66134651439, -39249.37269084129, -57070.23973110196, -20913.119126930134, -6474.2498367130565, -24782.496664821705, -0.196, 0.904, 0.358, 192.0, 0.0, 0.0, 0.0, 0.0, 0.0, 0.0, 0.0, 0.0, 0.0, 1.700950634640059E9, 0.0, 2023-11-25 17:17:14.640
204.0, 34296.628450945434, 44015.41280930195, -44904.00641012268, -39219.46605676008, -57016.08145428675, -20859.18436755948, -6365.195675515613, -24765.1964146133, -0.196, 0.904, 0.358, 192.0, 0.0, 0.0, 0.0, 0.0, 0.0, 0.0, 0.0, 0.0, 0.0, 1.700950634644078E9, 0.0, 2023-11-25 17:17:14.644
205.0, 34232.21072342524, 43908.43736033885, -44959.99752998323, -39300.44642692166, -57064.137704865665, -20922.0374729678, -6206.431234649567, -24820.20405771781, -0.196, 0.904, 0.358, 192.0, 0.0, 0.0, 0.0, 0.0, 0.0, 0.0, 0.0, 0.0, 0.0, 1.700950634647093E9, 0.0, 2023-11-25 17:17:14.647
206.0, 34194.838606695965, 43896.18860437735, -44977.34248368055, -39316.40557246275, -57106.293094908375, -20962.00239205389, -6335.981945512527, -24825.613179875993, -0.198, 0.914, 0.354, 192.0, 249.0, 208.0, 28.0, 144.0, 11.0, 16.0, 0.0, 0.0, 0.0, 1.700950634650086E9, 0.0, 2023-11-25 17:17:14.650
207.0, 34241.39729039637, 43993.66456194694, -44944.32895712006, -39260.23563864656, -57085.28245512038, -20929.145327704588, -6462.537522618476, -24775.031182173632, -0.198, 0.914, 0.354, 192.0, 0.0, 0.0, 0.0, 0.0, 0.0, 0.0, 0.0, 0.0, 0.0, 1.7009506346541E9, 0.0, 2023-11-25 17:17:14.654
208.0, 34299.06479109106, 44042.681937537425, -44901.12303508795, -39214.95100438011, -57025.133910791155, -20870.203777575945, -6410.614420248798, -24734.418062498342, -0.198, 0.914, 0.354, 192.0, 0.0, 0.0, 0.0, 0.0, 0.0, 0.0, 0.0, 0.0, 0.0, 1.700950634659081E9, 0.0, 2023-11-25 17:17:14.659
209.0, 34250.44974690077, 43951.33035794859, -44951.28034964566, -39287.594173859856, -57052.5147977489, -20910.52632457332, -6205.425406149078, -24806.65890057789, -0.198, 0.914, 0.354, 192.0, 0.0, 0.0, 0.0, 0.0, 0.0, 0.0, 0.0, 0.0, 0.0, 1.700950634663107E9, 0.0, 2023-11-25 17:17:14.663
210.0, 34206.61797602391, 43913.712372030306, -44971.642788844445, -39319.467761453125, -57101.889801250676, -20972.351249736697, -6325.118997707248, -24833.257476479706, -0.198, 0.914, 0.354, 192.0, 0.0, 0.0, 0.0, 0.0, 0.0, 0.0, 0.0, 0.0, 0.0, 1.700950634669113E9, 0.0, 2023-11-25 17:17:14.669
211.0, 34243.11837471943, 43992.32345727962, -44948.88871298894, -39270.42803411818, -57089.17165865561, -20943.025761011337, -6447.450095111143, -24806.167162199876, -0.198, 0.914, 0.354, 192.0, 0.0, 0.0, 0.0, 0.0, 0.0, 0.0, 0.0, 0.0, 0.0, 1.700950634673126E9, 0.0, 2023-11-25 17:17:14.673
212.0, 34305.993831872205, 44057.635254578025, -44896.96561061926, -39210.59241421132, -57029.47014921548, -20882.430181793, -6453.216845180613, -24743.98460912521, -0.198, 0.914, 0.354, 192.0, 0.0, 0.0, 0.0, 0.0, 0.0, 0.0, 0.0, 0.0, 0.0, 1.700950634676167E9, 0.0, 2023-11-25 17:17:14.676
213.0, 34270.767482610645, 43970.28463724669, -44944.75364026471, -39269.24339166205, -57041.62949819917, -20892.08613539769, -6208.778167817374, -24794.14192368292, -0.198, 0.914, 0.354, 192.0, 0.0, 0.0, 0.0, 0.0, 0.0, 0.0, 0.0, 0.0, 0.0, 1.700950634679141E9, 0.0, 2023-11-25 17:17:14.679
214.0, 34208.65198476934, 43910.3149068731, -44976.738986580254, -39320.49594169807, -57102.8285745178, -20972.61947067016, -6294.251238614469, -24835.850278836522, -0.198, 0.914, 0.354, 192.0, 0.0, 0.0, 0.0, 0.0, 0.0, 0.0, 0.0, 0.0, 0.0, 1.700950634683173E9, 0.0, 2023-11-25 17:17:14.683
215.0, 34240.86084852944, 43988.367198511034, -44951.570922323575, -39265.644760804746, -57085.930655709584, -20930.978170749924, -6408.178080103169, -24792.376135870953, -0.198, 0.914, 0.354, 192.0, 0.0, 0.0, 0.0, 0.0, 0.0, 0.0, 0.0, 0.0, 0.0, 1.700950634686221E9, 0.0, 2023-11-25 17:17:14.686
216.0, 34297.053134090085, 44064.58664710363, -44906.487453757225, -39208.737219421535, -57043.641155200145, -20885.782943461294, -6480.798897838462, -24756.032199386624, -0.192, 0.912, 0.356, 192.0, 250.0, 0.0, 28.0, 128.0, 11.0, 32.0, 0.0, 0.0, 0.0, 1.700950634690197E9, 0.0, 2023-11-25 17:17:14.690
217.0, 34286.74897989619, 44004.34869579657, -44927.96748017878, -39239.493219792035, -57026.13973929164, -20859.40788500403, -6235.041467552361, -24777.154597896886, -0.192, 0.912, 0.356, 192.0, 0.0, 0.0, 0.0, 0.0, 0.0, 0.0, 0.0, 0.0, 0.0, 1.70095063469426E9, 0.0, 2023-11-25 17:17:14.694
218.0, 34208.33906034697, 43912.237156896255, -44976.42606215788, -39313.79041836148, -57097.86648724872, -20945.126824990133, -6258.913130630628, -24823.825040319567, -0.192, 0.912, 0.356, 192.0, 0.0, 0.0, 0.0, 0.0, 0.0, 0.0, 0.0, 0.0, 0.0, 1.700950634701206E9, 0.0, 2023-11-25 17:17:14.701
219.0, 34214.977528450196, 43958.5276196632, -44972.983893511766, -39286.118958725805, -57102.806222773346, -20927.133670703613, -6387.770937415474, -24813.38677565894, -0.192, 0.912, 0.356, 192.0, 0.0, 0.0, 0.0, 0.0, 0.0, 0.0, 0.0, 0.0, 0.0, 1.700950634705212E9, 0.0, 2023-11-25 17:17:14.705
220.0, 34270.20868899926, 44043.35248987109, -44927.96748017878, -39228.026774886464, -57067.848094445246, -20886.162923117034, -6498.456775958154, -24766.716333236258, -0.192, 0.912, 0.356, 192.0, 0.0, 0.0, 0.0, 0.0, 0.0, 0.0, 0.0, 0.0, 0.0, 1.700950634709283E9, 0.0, 2023-11-25 17:17:14.709
221.0, 34282.45744496077, 44003.253460318265, -44933.60011978151, -39237.97330116908, -57032.107655061205, -20840.341846983654, -6275.945159905572, -24782.407257843883, -0.192, 0.912, 0.356, 192.0, 0.0, 0.0, 0.0, 0.0, 0.0, 0.0, 0.0, 0.0, 0.0, 1.700950634712259E9, 0.0, 2023-11-25 17:17:14.712
222.0, 34201.5217782881, 43899.161386389904, -44993.659257132924, -39326.35209874536, -57106.89659200866, -20938.10837723117, -6246.127932802193, -24864.102883828033, -0.192, 0.912, 0.356, 192.0, 0.0, 0.0, 0.0, 0.0, 0.0, 0.0, 0.0, 0.0, 0.0, 1.700950634715259E9, 0.0, 2023-11-25 17:17:14.715
223.0, 34201.65588875483, 43936.287633930166, -44992.38520769897, -39304.29092696797, -57117.02193224692, -20930.508784116362, -6368.079050550348, -24854.33517150106, -0.192, 0.912, 0.356, 192.0, 0.0, 0.0, 0.0, 0.0, 0.0, 0.0, 0.0, 0.0, 0.0, 1.700950634719312E9, 0.0, 2023-11-25 17:17:14.719
224.0, 34257.624656870925, 44031.23784437631, -44947.34644262153, -39239.67203374768, -57079.783925984375, -20890.36505107463, -6487.392662452778, -24789.470409091762, -0.192, 0.912, 0.356, 192.0, 0.0, 0.0, 0.0, 0.0, 0.0, 0.0, 0.0, 0.0, 0.0, 1.700950634722306E9, 0.0, 2023-11-25 17:17:14.722
225.0, 34289.87822411993, 44027.08041990762, -44930.85085521351, -39224.249330073515, -57024.32924799076, -20832.74225386885, -6318.972267982039, -24780.015621187165, -0.192, 0.912, 0.356, 192.0, 0.0, 0.0, 0.0, 0.0, 0.0, 0.0, 0.0, 0.0, 0.0, 1.700950634726307E9, 0.0, 2023-11-25 17:17:14.726
226.0, 34212.36237434892, 43918.92032848839, -44992.87694607698, -39316.24911025156, -57088.456402833035, -20918.640007810594, -6221.6751243680865, -24852.77054938919, -0.198, 0.904, 0.362, 192.0, 249.0, 208.0, 28.0, 64.0, 11.0, 80.0, 0.0, 0.0, 0.0, 1.700950634729325E9, 0.0, 2023-11-25 17:17:14.729
227.0, 34195.889138685365, 43934.23127344028, -44995.760321111724, -39311.04115379348, -57108.41651063163, -20929.972342249435, -6343.894463049706, -24837.191383503843, -0.198, 0.904, 0.362, 192.0, 0.0, 0.0, 0.0, 0.0, 0.0, 0.0, 0.0, 0.0, 0.0, 1.700950634733308E9, 0.0, 2023-11-25 17:17:14.733
228.0, 34242.82780204151, 44026.20870187387, -44962.36681489549, -39258.313388623406, -57087.562333054826, -20901.496219813376, -6471.880551800794, -24791.48206609274, -0.198, 0.904, 0.362, 192.0, 0.0, 0.0, 0.0, 0.0, 0.0, 0.0, 0.0, 0.0, 0.0, 1.700950634737328E9, 0.0, 2023-11-25 17:17:14.737
229.0, 34289.45354097528, 44052.62846382004, -44933.44365757032, -39226.66331847469, -57030.028942826866, -20843.046408062746, -6367.699070894608, -24771.253737360687, -0.198, 0.904, 0.362, 192.0, 0.0, 0.0, 0.0, 0.0, 0.0, 0.0, 0.0, 0.0, 0.0, 1.700950634742307E9, 0.0, 2023-11-25 17:17:14.742
230.0, 34225.86282799993, 43945.161276478924, -44992.474614676794, -39309.83415959289, -57077.906379450134, -20911.17452516252, -6204.419577648589, -24857.866747125, -0.198, 0.904, 0.362, 192.0, 0.0, 0.0, 0.0, 0.0, 0.0, 0.0, 0.0, 0.0, 0.0, 1.700950634746351E9, 0.0, 2023-11-25 17:17:14.746
231.0, 34192.51402527261, 43927.12341870349, -45007.00324857274, -39322.21702602113, -57116.26197293544, -20955.743903606406, -6335.847835045795, -24883.839474182067, -0.198, 0.904, 0.362, 192.0, 0.0, 0.0, 0.0, 0.0, 0.0, 0.0, 0.0, 0.0, 0.0, 1.700950634750391E9, 0.0, 2023-11-25 17:17:14.750
232.0, 34233.26125541464, 44019.50317853727, -44979.97998952628, -39263.09666193684, -57097.285341892886, -20920.1375746891, -6462.179894707191, -24830.754081100713, -0.198, 0.904, 0.362, 192.0, 0.0, 0.0, 0.0, 0.0, 0.0, 0.0, 0.0, 0.0, 0.0, 1.700950634753404E9, 0.0, 2023-11-25 17:17:14.753
233.0, 34289.721761908746, 44075.136670486536, -44932.95191919231, -39207.619632198766, -57031.88413761665, -20850.869518622105, -6419.666876753196, -24764.07882739053, -0.198, 0.904, 0.362, 192.0, 0.0, 0.0, 0.0, 0.0, 0.0, 0.0, 0.0, 0.0, 0.0, 1.700950634757401E9, 0.0, 2023-11-25 17:17:14.757
234.0, 34243.52070611963, 43980.119404807025, -44981.343445938044, -39274.384292886774, -57051.59837622623, -20881.267891081323, -6197.445833378534, -24824.741461842237, -0.198, 0.904, 0.362, 192.0, 0.0, 0.0, 0.0, 0.0, 0.0, 0.0, 0.0, 0.0, 0.0, 1.700950634761462E9, 0.0, 2023-11-25 17:17:14.761
235.0, 34192.20110085024, 43940.15448572094, -45002.398789214945, -39307.84485433636, -57100.749862283454, -20944.746845334394, -6307.3717126097345, -24854.379874989972, -0.198, 0.904, 0.362, 192.0, 0.0, 0.0, 0.0, 0.0, 0.0, 0.0, 0.0, 0.0, 0.0, 1.70095063476537E9, 0.0, 2023-11-25 17:17:14.765
236.0, 34217.74914476265, 44017.98325991431, -44985.545573895644, -39265.26478114901, -57093.59730405776, -20924.496164857886, -6430.909804214216, -24840.365331216497, -0.194, 0.904, 0.356, 192.0, 249.0, 240.0, 28.0, 64.0, 11.0, 32.0, 0.0, 0.0, 0.0, 1.700950634770397E9, 0.0, 2023-11-25 17:17:14.770
237.0, 34283.485625205714, 44092.526327672764, -44927.98983192323, -39203.19398679662, -57032.44293122804, -20869.734390942383, -6461.308176673434, -24795.214807416774, -0.194, 0.904, 0.356, 192.0, 0.0, 0.0, 0.0, 0.0, 0.0, 0.0, 0.0, 0.0, 0.0, 1.700950634774409E9, 0.0, 2023-11-25 17:17:14.774
238.0, 34262.74320635119, 44018.58675701461, -44959.8634195165, -39246.28815010645, -57028.754893392914, -20866.202815318444, -6207.8170428057965, -24838.420729448884, -0.194, 0.904, 0.356, 192.0, 0.0, 0.0, 0.0, 0.0, 0.0, 0.0, 0.0, 0.0, 0.0, 1.700950634778468E9, 0.0, 2023-11-25 17:17:14.778
239.0, 34191.79876945004, 43942.25554969973, -45000.54359442516, -39305.29675546846, -57096.994769214965, -20948.658400614073, -6277.822706439818, -24871.277793798185, -0.194, 0.904, 0.356, 192.0, 0.0, 0.0, 0.0, 0.0, 0.0, 0.0, 0.0, 0.0, 0.0, 1.700950634781492E9, 0.0, 2023-11-25 17:17:14.781
240.0, 34216.363336606424, 44010.383666799506, -44982.03635001616, -39257.888705478756, -57086.13182140968, -20912.716795529937, -6392.688321195641, -24820.516982140183, -0.194, 0.904, 0.356, 192.0, 0.0, 0.0, 0.0, 0.0, 0.0, 0.0, 0.0, 0.0, 0.0, 1.700950634785549E9, 0.0, 2023-11-25 17:17:14.785
241.0, 34288.4924159637, 44103.098702800125, -44923.98886966573, -39188.7994633674, -57030.31951550478, -20861.866576894114, -6467.343147676367, -24759.675533732836, -0.194, 0.904, 0.356, 192.0, 0.0, 0.0, 0.0, 0.0, 0.0, 0.0, 0.0, 0.0, 0.0, 1.70095063478961E9, 0.0, 2023-11-25 17:17:14.789
242.0, 34282.099817049486, 44040.40205960299, -44951.10153569002, -39226.99859464152, -57016.886117087146, -20846.376817986587, -6226.346638959246, -24802.9038075094, -0.194, 0.904, 0.356, 192.0, 0.0, 0.0, 0.0, 0.0, 0.0, 0.0, 0.0, 0.0, 0.0, 1.700950634793466E9, 0.0, 2023-11-25 17:17:14.793
243.0, 34213.27879587159, 43953.29731146066, -44994.79919610014, -39300.379371688294, -57086.26593187642, -20939.024798753835, -6247.938424103073, -24844.455700451817, -0.194, 0.904, 0.356, 192.0, 0.0, 0.0, 0.0, 0.0, 0.0, 0.0, 0.0, 0.0, 0.0, 1.700950634797607E9, 0.0, 2023-11-25 17:17:14.797
244.0, 34227.852133256456, 44012.17180635593, -44986.43964367386, -39268.4163771172, -57086.31063536533, -20920.651664811572, -6377.824411132862, -24825.38966243144, -0.194, 0.904, 0.356, 192.0, 0.0, 0.0, 0.0, 0.0, 0.0, 0.0, 0.0, 0.0, 0.0, 1.700950634802481E9, 0.0, 2023-11-25 17:17:14.802
245.0, 34290.57112819805, 44109.021915080775, -44936.617605282976, -39204.22216704156, -57045.38459126766, -20883.592472504675, -6491.259514243546, -24781.915519465867, -0.194, 0.904, 0.356, 192.0, 0.0, 0.0, 0.0, 0.0, 0.0, 0.0, 0.0, 0.0, 0.0, 1.700950634807532E9, 0.0, 2023-11-25 17:17:14.807
246.0, 34302.05992484807, 44075.71781584237, -44940.32799486256, -39210.52535897796, -57009.17476525006, -20843.2699255073, -6280.639026241187, -24803.730822054247, -0.194, 0.902, 0.35000000000000003, 192.0, 249.0, 240.0, 28.0, 48.0, 10.0, 240.0, 0.0, 0.0, 0.0, 1.700950634810655E9, 0.0, 2023-11-25 17:17:14.810
247.0, 34214.709307516736, 43965.23314299979, -45002.6223066595, -39299.418246676716, -57085.68478652058, -20940.611772610162, -6235.890833841662, -24871.925994387388, -0.194, 0.902, 0.35000000000000003, 192.0, 0.0, 0.0, 0.0, 0.0, 0.0, 0.0, 0.0, 0.0, 0.0, 1.700950634814517E9, 0.0, 2023-11-25 17:17:14.814
248.0, 34213.25644412714, 44000.97358238383, -44998.129606023984, -39273.55727834193, -57095.20662965854, -20936.387292908108, -6364.748640626507, -24854.40222673443, -0.194, 0.902, 0.35000000000000003, 192.0, 0.0, 0.0, 0.0, 0.0, 0.0, 0.0, 0.0, 0.0, 0.0, 1.700950634818661E9, 0.0, 2023-11-25 17:17:14.818
249.0, 34267.52647966462, 44099.70123764291, -44955.12484969197, -39211.01709735597, -57062.930710665074, -20906.458307082452, -6495.886325345794, -24815.599598360015, -0.194, 0.902, 0.35000000000000003, 192.0, 0.0, 0.0, 0.0, 0.0, 0.0, 0.0, 0.0, 0.0, 0.0, 1.700950634821616E9, 0.0, 2023-11-25 17:17:14.821
250.0, 34304.317451038056, 44104.484510956354, -44933.17543663686, -39191.45932095758, -57010.158242006095, -20847.94144009846, -6333.500901877988, -24798.075830707054, -0.194, 0.902, 0.35000000000000003, 192.0, 0.0, 0.0, 0.0, 0.0, 0.0, 0.0, 0.0, 0.0, 0.0, 1.700950634825592E9, 0.0, 2023-11-25 17:17:14.825
251.0, 34231.137839691386, 43998.5372422382, -44991.17821349838, -39279.32402841139, -57069.01038515692, -20921.702196800972, -6209.202850962026, -24844.276886496173, -0.194, 0.902, 0.35000000000000003, 192.0, 0.0, 0.0, 0.0, 0.0, 0.0, 0.0, 0.0, 0.0, 0.0, 1.700950634829725E9, 0.0, 2023-11-25 17:17:14.829
252.0, 34210.59658653696, 44009.690762721395, -44995.04506528915, -39277.91586851071, -57093.418490102114, -20940.58942086571, -6339.7146868365635, -24833.34688345753, -0.194, 0.902, 0.35000000000000003, 192.0, 0.0, 0.0, 0.0, 0.0, 0.0, 0.0, 0.0, 0.0, 0.0, 1.700950634833628E9, 0.0, 2023-11-25 17:17:14.833
253.0, 34252.304941690556, 44099.589478920636, -44963.596160840534, -39225.925710907664, -57074.19598987055, -20915.37665312012, -6468.460734899132, -24795.058345205587, -0.194, 0.902, 0.35000000000000003, 192.0, 0.0, 0.0, 0.0, 0.0, 0.0, 0.0, 0.0, 0.0, 0.0, 1.700950634837724E9, 0.0, 2023-11-25 17:17:14.837
254.0, 34297.477817234736, 44132.60300548113, -44931.163779635885, -39191.9510593356, -57018.04840779882, -20858.714980925917, -6379.210219289091, -24779.255661875686, -0.194, 0.902, 0.35000000000000003, 192.0, 0.0, 0.0, 0.0, 0.0, 0.0, 0.0, 0.0, 0.0, 0.0, 1.70095063484166E9, 0.0, 2023-11-25 17:17:14.841
255.0, 34236.81518278303, 44030.27671936473, -44987.80310008563, -39270.7186067961, -57061.254329830925, -20911.152173418068, -6202.810252047808, -24848.546069687138, -0.194, 0.902, 0.35000000000000003, 192.0, 0.0, 0.0, 0.0, 0.0, 0.0, 0.0, 0.0, 0.0, 0.0, 1.700950634846715E9, 0.0, 2023-11-25 17:17:14.846
0.0, 34199.51012128712, 44011.34479181108, -45003.96341132682, -39285.76133081452, -57100.727510539, -20946.91496454656, -6320.335724393813, -24842.19817426183, -0.196, 0.91, 0.358, 192.0, 249.0, 224.0, 28.0, 112.0, 11.0, 48.0, 0.0, 0.0, 0.0, 1.700950634849695E9, 0.0, 2023-11-25 17:17:14.849
1.0, 34244.30301717556, 44101.01999056578, -44973.18505921186, -39230.64192898774, -57083.561370797324, -20915.10843218666, -6444.589071820864, -24806.390679644428, -0.196, 0.91, 0.358, 192.0, 0.0, 0.0, 0.0, 0.0, 0.0, 0.0, 0.0, 0.0, 0.0, 1.700950634853771E9, 0.0, 2023-11-25 17:17:14.853
2.0, 34300.763523669666, 44149.50092428934, -44932.638994769935, -39185.91608833267, -57031.057123071805, -20866.73925718537, -6428.965202446605, -24796.935891739835, -0.196, 0.91, 0.358, 192.0, 0.0, 0.0, 0.0, 0.0, 0.0, 0.0, 0.0, 0.0, 0.0, 1.700950634857697E9, 0.0, 2023-11-25 17:17:14.857
3.0, 34261.938543550794, 44052.963739986866, -44980.24821045974, -39253.686577521155, -57051.93365239307, -20893.09196389818, -6208.912278284107, -24856.860918624512, -0.196, 0.91, 0.358, 192.0, 0.0, 0.0, 0.0, 0.0, 0.0, 0.0, 0.0, 0.0, 0.0, 1.700950634861725E9, 0.0, 2023-11-25 17:17:14.861
4.0, 34209.70251675874, 44000.124216094526, -45001.90705083693, -39292.757426829034, -57102.76151928443, -20951.608830882175, -6308.601058554776, -24868.34971527454, -0.196, 0.91, 0.358, 192.0, 0.0, 0.0, 0.0, 0.0, 0.0, 0.0, 0.0, 0.0, 0.0, 1.700950634865691E9, 0.0, 2023-11-25 17:17:14.865
5.0, 34241.598456096464, 44075.15902223099, -44977.05191100263, -39243.60594077181, -57087.04824293235, -20915.0860804422, -6423.265507610501, -24826.328435698564, -0.196, 0.91, 0.358, 192.0, 0.0, 0.0, 0.0, 0.0, 0.0, 0.0, 0.0, 0.0, 0.0, 1.700950634869939E9, 0.0, 2023-11-25 17:17:14.869
6.0, 34301.255262047685, 44145.05292714274, -44927.49809354521, -39186.027847054946, -57031.99589633893, -20855.853957635638, -6452.456885869132, -24757.842690687503, -0.196, 0.91, 0.358, 192.0, 0.0, 0.0, 0.0, 0.0, 0.0, 0.0, 0.0, 0.0, 0.0, 1.700950634874706E9, 0.0, 2023-11-25 17:17:14.874
7.0, 34278.70235189228, 44068.274684938755, -44963.19382944034, -39234.37467031177, -57030.31951550478, -20854.490501223863, -6208.912278284107, -24815.376080915463, -0.196, 0.91, 0.358, 192.0, 0.0, 0.0, 0.0, 0.0, 0.0, 0.0, 0.0, 0.0, 0.0, 1.700950634877719E9, 0.0, 2023-11-25 17:17:14.877
8.0, 34204.494560300656, 43987.04844558817, -45003.69519039335, -39297.07131350891, -57098.02294945991, -20939.561240620762, -6275.475773272011, -24856.726808157782, -0.196, 0.91, 0.358, 192.0, 0.0, 0.0, 0.0, 0.0, 0.0, 0.0, 0.0, 0.0, 0.0, 1.700950634881781E9, 0.0, 2023-11-25 17:17:14.881
9.0, 34228.254464656646, 44047.934597484425, -44983.89154480595, -39249.685615263654, -57085.7741934984, -20903.70904251445, -6395.16936483018, -24813.789107059136, -0.196, 0.91, 0.358, 192.0, 0.0, 0.0, 0.0, 0.0, 0.0, 0.0, 0.0, 0.0, 0.0, 1.700950634885757E9, 0.0, 2023-11-25 17:17:14.885
10.0, 34293.141578810406, 44127.0150693673, -44930.94026219133, -39185.78197786593, -57037.3156115193, -20858.35735301463, -6474.003967524049, -24762.29068783411, -0.188, 0.908, 0.356, 192.0, 250.0, 32.0, 28.0, 96.0, 11.0, 32.0, 0.0, 0.0, 0.0, 1.700950634889778E9, 0.0, 2023-11-25 17:17:14.889
11.0, 34288.15713979687, 44071.51568788477, -44953.18024792436, -39217.61086197029, -57020.21652701098, -20835.044483547746, -6232.9404035735615, -24794.924234738857, -0.188, 0.908, 0.356, 192.0, 0.0, 0.0, 0.0, 0.0, 0.0, 0.0, 0.0, 0.0, 0.0, 1.700950634896758E9, 0.0, 2023-11-25 17:17:14.896
12.0, 34213.09998191595, 43978.1300995505, -45001.683533392374, -39298.03243852049, -57093.59730405776, -20931.51461261685, -6242.194025778059, -24848.34490398704, -0.188, 0.908, 0.356, 192.0, 0.0, 0.0, 0.0, 0.0, 0.0, 0.0, 0.0, 0.0, 0.0, 1.70095063490077E9, 0.0, 2023-11-25 17:17:14.900
13.0, 34219.15730466334, 44028.57798678613, -44999.09073103556, -39274.2725341645, -57101.9792082285, -20923.95972299096, -6372.907027352694, -24837.90663932641, -0.188, 0.908, 0.356, 192.0, 0.0, 0.0, 0.0, 0.0, 0.0, 0.0, 0.0, 0.0, 0.0, 1.700950634903806E9, 0.0, 2023-11-25 17:17:14.903
14.0, 34277.07067454704, 44118.45435124092, -44957.22591367077, -39221.90239690571, -57071.96081542502, -20899.730432001405, -6497.450947457665, -24807.038880233635, -0.188, 0.908, 0.356, 192.0, 0.0, 0.0, 0.0, 0.0, 0.0, 0.0, 0.0, 0.0, 0.0, 1.700950634907801E9, 0.0, 2023-11-25 17:17:14.907
15.0, 34301.523482981145, 44098.270725997776, -44948.88871298894, -39220.18131258265, -57024.26219275739, -20850.958925599924, -6293.96066593655, -24805.340147655028, -0.188, 0.908, 0.356, 192.0, 0.0, 0.0, 0.0, 0.0, 0.0, 0.0, 0.0, 0.0, 0.0, 1.700950634910815E9, 0.0, 2023-11-25 17:17:14.910
16.0, 34227.427450111805, 43998.20196607136, -45001.37060897, -39304.514444412525, -57087.78585049938, -20938.33189467572, -6229.095903527249, -24857.73263665827, -0.188, 0.908, 0.356, 192.0, 0.0, 0.0, 0.0, 0.0, 0.0, 0.0, 0.0, 0.0, 0.0, 1.700950634913852E9, 0.0, 2023-11-25 17:17:14.913
17.0, 34214.17286564981, 44021.31366983816, -45004.3210392381, -39291.25985995053, -57105.71194955253, -20942.914002289057, -6357.439620189622, -24854.78220639017, -0.188, 0.908, 0.356, 192.0, 0.0, 0.0, 0.0, 0.0, 0.0, 0.0, 0.0, 0.0, 0.0, 1.700950634919323E9, 0.0, 2023-11-25 17:17:14.919
18.0, 34266.31948546404, 44111.52531045977, -44960.39986138343, -39231.245426088026, -57076.45351606054, -20914.86256299765, -6493.338226477889, -24815.71135708229, -0.188, 0.908, 0.356, 192.0, 0.0, 0.0, 0.0, 0.0, 0.0, 0.0, 0.0, 0.0, 0.0, 1.700950634924875E9, 0.0, 2023-11-25 17:17:14.924
19.0, 34307.98313712873, 44119.30371753022, -44934.36007909299, -39203.506911218996, -57017.19904150952, -20848.611992432117, -6339.513521136466, -24783.01075494418, -0.188, 0.908, 0.356, 192.0, 0.0, 0.0, 0.0, 0.0, 0.0, 0.0, 0.0, 0.0, 0.0, 1.7009506349299E9, 0.0, 2023-11-25 17:17:14.929
20.0, 34237.64219732788, 44006.7850359422, -44994.86625133351, -39288.01885700451, -57074.44185905956, -20916.85186825417, -6204.307818926313, -24830.172935744875, -0.19, 0.908, 0.356, 192.0, 250.0, 16.0, 28.0, 96.0, 11.0, 32.0, 0.0, 0.0, 0.0, 1.700950634934931E9, 0.0, 2023-11-25 17:17:14.934
21.0, 34214.73165926119, 44006.65092547547, -45003.650486904444, -39290.745769828056, -57104.54965884086, -20942.265801699854, -6333.702067578086, -24836.610238148005, -0.19, 0.908, 0.356, 192.0, 0.0, 0.0, 0.0, 0.0, 0.0, 0.0, 0.0, 0.0, 0.0, 1.700950634937949E9, 0.0, 2023-11-25 17:17:14.937
22.0, 34258.71989234923, 44101.08704579915, -44968.08886147605, -39235.447554045626, -57083.20374288604, -20914.393176364087, -6467.387851165277, -24804.37902264345, -0.19, 0.908, 0.356, 192.0, 0.0, 0.0, 0.0, 0.0, 0.0, 0.0, 0.0, 0.0, 0.0, 1.700950634940947E9, 0.0, 2023-11-25 17:17:14.940
23.0, 34304.74213418271, 44131.28425255827, -44938.584558795046, -39205.22799554205, -57031.481806216456, -20860.1231408266, -6390.609608961297, -24789.895092236413, -0.19, 0.908, 0.356, 192.0, 0.0, 0.0, 0.0, 0.0, 0.0, 0.0, 0.0, 0.0, 0.0, 1.700950634943922E9, 0.0, 2023-11-25 17:17:14.943
24.0, 34242.00078749666, 44023.101809394575, -45000.25302174724, -39290.99163901706, -57076.27470210489, -20917.27655139882, -6212.555612630322, -24871.903642642934, -0.19, 0.908, 0.356, 192.0, 0.0, 0.0, 0.0, 0.0, 0.0, 0.0, 0.0, 0.0, 0.0, 1.700950634947928E9, 0.0, 2023-11-25 17:17:14.947
25.0, 34206.01447892362, 44000.727713194814, -45008.970202084805, -39305.60967989083, -57110.36111239924, -20954.246336727898, -6321.654477316675, -24856.905622113423, -0.19, 0.908, 0.356, 192.0, 0.0, 0.0, 0.0, 0.0, 0.0, 0.0, 0.0, 0.0, 0.0, 1.700950634951231E9, 0.0, 2023-11-25 17:17:14.951
26.0, 34249.89095328939, 44091.542850916725, -44973.85561154552, -39246.422260573185, -57084.053109175344, -20914.393176364087, -6438.285879884467, -24797.33822314003, -0.19, 0.908, 0.356, 192.0, 0.0, 0.0, 0.0, 0.0, 0.0, 0.0, 0.0, 0.0, 0.0, 1.700950634953984E9, 0.0, 2023-11-25 17:17:14.953
27.0, 34306.5973289725, 44143.555360264225, -44926.08993364453, -39196.39905648221, -57023.74810263492, -20856.41275124702, -6419.9574494311155, -24753.37234179644, -0.19, 0.908, 0.356, 192.0, 0.0, 0.0, 0.0, 0.0, 0.0, 0.0, 0.0, 0.0, 0.0, 1.70095063495808E9, 0.0, 2023-11-25 17:17:14.958
28.0, 34264.91132556335, 44050.169771929955, -44972.983893511766, -39261.59909505834, -57043.775265666874, -20880.95496665895, -6183.36423437169, -24820.137002484444, -0.19, 0.908, 0.356, 192.0, 0.0, 0.0, 0.0, 0.0, 0.0, 0.0, 0.0, 0.0, 0.0, 1.700950634961951E9, 0.0, 2023-11-25 17:17:14.961
29.0, 34202.3711445774, 43996.07855034811, -45003.784597371174, -39308.02366829201, -57105.1308041967, -20953.10639776068, -6281.533096019399, -24852.591735433547, -0.19, 0.908, 0.356, 192.0, 0.0, 0.0, 0.0, 0.0, 0.0, 0.0, 0.0, 0.0, 0.0, 1.700950634965013E9, 0.0, 2023-11-25 17:17:14.965
30.0, 34229.41675536832, 44067.89470528301, -44987.221954729794, -39263.65545554822, -57095.56425756982, -20927.290132914797, -6410.659123737708, -24836.990217803745, -0.192, 0.91, 0.354, 192.0, 250.0, 0.0, 28.0, 112.0, 11.0, 16.0, 0.0, 0.0, 0.0, 1.700950634969044E9, 0.0, 2023-11-25 17:17:14.969
31.0, 34294.70620092228, 44143.37654630859, -44932.840160470034, -39202.657544929694, -57039.81900689829, -20874.830588678193, -6462.9845575075815, -24789.403353858397, -0.192, 0.91, 0.354, 192.0, 0.0, 0.0, 0.0, 0.0, 0.0, 0.0, 0.0, 0.0, 0.0, 1.700950634973989E9, 0.0, 2023-11-25 17:17:14.973
32.0, 34279.73053213722, 44076.2542577093, -44959.79636428313, -39242.153077382216, -57029.47014921548, -20860.704286182437, -6208.577002117277, -24815.9572262713, -0.192, 0.91, 0.354, 192.0, 0.0, 0.0, 0.0, 0.0, 0.0, 0.0, 0.0, 0.0, 0.0, 1.700950634978011E9, 0.0, 2023-11-25 17:17:14.978
33.0, 34209.90368245884, 43994.62568695852, -45000.320076980606, -39307.241357236075, -57096.838307003774, -20942.82459531124, -6252.4311247385895, -24842.376988217475, -0.192, 0.91, 0.354, 192.0, 0.0, 0.0, 0.0, 0.0, 0.0, 0.0, 0.0, 0.0, 0.0, 1.700950634982104E9, 0.0, 2023-11-25 17:17:14.982
34.0, 34219.49258083017, 44049.43216436293, -44995.872079834, -39276.79828128794, -57100.39223437217, -20927.066615470245, -6380.461916978588, -24825.277903709164, -0.192, 0.91, 0.354, 192.0, 0.0, 0.0, 0.0, 0.0, 0.0, 0.0, 0.0, 0.0, 0.0, 1.700950634986123E9, 0.0, 2023-11-25 17:17:14.986
35.0, 34276.22130825774, 44136.223988082886, -44943.23372164175, -39213.4534375016, -57053.028887871376, -20883.70423122695, -6475.210961724635, -24769.823225715547, -0.192, 0.91, 0.354, 192.0, 0.0, 0.0, 0.0, 0.0, 0.0, 0.0, 0.0, 0.0, 0.0, 1.700950634989137E9, 0.0, 2023-11-25 17:17:14.989
36.0, 34275.6401629019, 44088.52536541526, -44956.22008517028, -39234.37467031177, -57026.27384975837, -20857.016248347314, -6247.245520024958, -24805.0048714882, -0.192, 0.91, 0.354, 192.0, 0.0, 0.0, 0.0, 0.0, 0.0, 0.0, 0.0, 0.0, 0.0, 1.700950634993114E9, 0.0, 2023-11-25 17:17:14.993
37.0, 34203.39932482235, 43989.99887585627, -45001.46001594782, -39311.35407821585, -57095.16192616963, -20949.328952947733, -6240.852921110741, -24852.748197644734, -0.192, 0.91, 0.354, 192.0, 0.0, 0.0, 0.0, 0.0, 0.0, 0.0, 0.0, 0.0, 0.0, 1.700950634997034E9, 0.0, 2023-11-25 17:17:14.997
38.0, 34213.94934820525, 44035.79760024519, -44989.9712192978, -39277.69235106616, -57095.49720233646, -20928.586534093207, -6355.584425399831, -24822.416880418885, -0.192, 0.91, 0.354, 192.0, 0.0, 0.0, 0.0, 0.0, 0.0, 0.0, 0.0, 0.0, 0.0, 1.70095063500241E9, 0.0, 2023-11-25 17:17:15.002
39.0, 34270.409854699355, 44130.18901707995, -44945.5583030651, -39218.63904221523, -57062.84130368725, -20898.18816163399, -6479.815421082428, -24781.356725854486, -0.192, 0.91, 0.354, 192.0, 0.0, 0.0, 0.0, 0.0, 0.0, 0.0, 0.0, 0.0, 0.0, 1.700950635006082E9, 0.0, 2023-11-25 17:17:15.006
40.0, 34296.04730558959, 44114.54279596124, -44941.3561751075, -39220.1589608382, -57019.747140377425, -20853.864652379114, -6290.317331590335, -24794.074868449556, -0.196, 0.904, 0.356, 192.0, 249.0, 224.0, 28.0, 64.0, 11.0, 32.0, 0.0, 0.0, 0.0, 1.700950635010092E9, 0.0, 2023-11-25 17:17:15.010
41.0, 34227.47215360071, 44008.99785864328, -44994.978010055784, -39308.96244155913, -57084.65660627563, -20945.57385987924, -6227.620688393198, -24868.97556411929, -0.196, 0.904, 0.356, 192.0, 0.0, 0.0, 0.0, 0.0, 0.0, 0.0, 0.0, 0.0, 0.0, 1.700950635021165E9, 0.0, 2023-11-25 17:17:15.021
42.0, 34224.409964610335, 44031.30489960968, -44992.698132121346, -39295.64080186377, -57100.19106867207, -20949.217194225454, -6356.92553006715, -24857.576174447084, -0.196, 0.904, 0.356, 192.0, 0.0, 0.0, 0.0, 0.0, 0.0, 0.0, 0.0, 0.0, 0.0, 1.700950635025182E9, 0.0, 2023-11-25 17:17:15.025
43.0, 34274.36611346795, 44120.086028586156, -44952.95673047981, -39235.782830212454, -57072.184332869576, -20918.52824908832, -6485.403357196255, -24815.979578015755, -0.196, 0.904, 0.356, 192.0, 0.0, 0.0, 0.0, 0.0, 0.0, 0.0, 0.0, 0.0, 0.0, 1.700950635028245E9, 0.0, 2023-11-25 17:17:15.028
44.0, 34311.13473309693, 44128.803208923724, -44928.10159064551, -39209.11719907728, -57016.08145428675, -20856.099826824648, -6350.8682073197615, -24802.367365642473, -0.196, 0.904, 0.356, 192.0, 0.0, 0.0, 0.0, 0.0, 0.0, 0.0, 0.0, 0.0, 0.0, 1.700950635031132E9, 0.0, 2023-11-25 17:17:15.031
45.0, 34236.993996738674, 44018.54205352569, -44989.85946057552, -39295.81961581941, -57072.0725741473, -20924.205592179966, -6204.374874159679, -24857.978505847277, -0.196, 0.904, 0.356, 192.0, 0.0, 0.0, 0.0, 0.0, 0.0, 0.0, 0.0, 0.0, 0.0, 1.700950635035254E9, 0.0, 2023-11-25 17:17:15.035
46.0, 34211.53535980408, 44018.09501863659, -44997.302591479136, -39298.9265082987, -57101.35335938375, -20949.753636092384, -6333.970288511549, -24854.849261623534, -0.196, 0.904, 0.356, 192.0, 0.0, 0.0, 0.0, 0.0, 0.0, 0.0, 0.0, 0.0, 0.0, 1.700950635038254E9, 0.0, 2023-11-25 17:17:15.038
47.0, 34253.847212057975, 44102.27168825528, -44967.015977742194, -39242.75657448251, -57082.84611497475, -20918.483545599407, -6459.005946994537, -24820.29346469563, -0.196, 0.904, 0.356, 192.0, 0.0, 0.0, 0.0, 0.0, 0.0, 0.0, 0.0, 0.0, 0.0, 1.70095063504125E9, 0.0, 2023-11-25 17:17:15.041
48.0, 34304.876244649444, 44139.68850847346, -44927.47574180076, -39200.28826001743, -57021.80350086731, -20857.50798672533, -6394.767033429985, -24794.879531249946, -0.196, 0.904, 0.356, 192.0, 0.0, 0.0, 0.0, 0.0, 0.0, 0.0, 0.0, 0.0, 0.0, 1.700950635045352E9, 0.0, 2023-11-25 17:17:15.045
49.0, 34257.31173244855, 44046.19116141691, -44974.05677724562, -39270.271571907, -57048.22326281348, -20894.790696476783, -6194.920086255084, -24846.623819663982, -0.196, 0.904, 0.356, 192.0, 0.0, 0.0, 0.0, 0.0, 0.0, 0.0, 0.0, 0.0, 0.0, 1.700950635048279E9, 0.0, 2023-11-25 17:17:15.048
50.0, 34218.620862796415, 44014.719905223836, -44989.747701853245, -39296.400761175246, -57091.69740577906, -20946.33381919072, -6309.115148677248, -24850.69183715485, -0.202, 0.908, 0.35000000000000003, 192.0, 249.0, 176.0, 28.0, 96.0, 10.0, 240.0, 0.0, 0.0, 0.0, 1.700950635052339E9, 0.0, 2023-11-25 17:17:15.052
51.0, 34248.192220710785, 44089.12886251556, -44969.94405626584, -39251.876086220276, -57082.55554229684, -20920.070519455734, -6433.32379261539, -24809.072888979066, -0.202, 0.908, 0.35000000000000003, 192.0, 0.0, 0.0, 0.0, 0.0, 0.0, 0.0, 0.0, 0.0, 0.0, 1.700950635057412E9, 0.0, 2023-11-25 17:17:15.057
52.0, 34303.55749172658, 44150.752621978834, -44922.357192320495, -39200.73529490653, -57026.586774180745, -20863.90058563955, -6434.106103671325, -24754.80285344158, -0.202, 0.908, 0.35000000000000003, 192.0, 0.0, 0.0, 0.0, 0.0, 0.0, 0.0, 0.0, 0.0, 0.0, 1.700950635061342E9, 0.0, 2023-11-25 17:17:15.061
53.0, 34269.44872968778, 44066.26302793778, -44961.5621520951, -39258.089871178854, -57035.125140562675, -20876.752838701348, -6183.587751816243, -24798.18758942933, -0.202, 0.908, 0.35000000000000003, 192.0, 0.0, 0.0, 0.0, 0.0, 0.0, 0.0, 0.0, 0.0, 0.0, 1.700950635064239E9, 0.0, 2023-11-25 17:17:15.064
54.0, 34210.23895862567, 44008.483768520804, -44991.11115826502, -39303.463912423125, -57094.334911624785, -20951.161795993066, -6266.132744089693, -24823.109784497, -0.202, 0.908, 0.35000000000000003, 192.0, 0.0, 0.0, 0.0, 0.0, 0.0, 0.0, 0.0, 0.0, 0.0, 1.700950635068412E9, 0.0, 2023-11-25 17:17:15.068
55.0, 34235.89876126037, 44077.88593505454, -44977.49894589173, -39260.77208051349, -57088.63521678868, -20930.10645271617, -6392.643617706731, -24805.47425812176, -0.202, 0.908, 0.35000000000000003, 192.0, 0.0, 0.0, 0.0, 0.0, 0.0, 0.0, 0.0, 0.0, 0.0, 1.700950635071442E9, 0.0, 2023-11-25 17:17:15.071
56.0, 34299.578881213536, 44157.23462787088, -44925.48643654423, -39200.95881235109, -57036.13096906316, -20888.37574581811, -6463.699813330151, -24774.271222862153, -0.202, 0.908, 0.35000000000000003, 192.0, 0.0, 0.0, 0.0, 0.0, 0.0, 0.0, 0.0, 0.0, 0.0, 1.700950635074474E9, 0.0, 2023-11-25 17:17:15.074
57.0, 34289.274727019634, 44095.454406196404, -44956.197733425826, -39243.42712681617, -57028.821948626275, -20890.007423163348, -6233.320383229302, -24858.134968058464, -0.202, 0.908, 0.35000000000000003, 192.0, 0.0, 0.0, 0.0, 0.0, 0.0, 0.0, 0.0, 0.0, 0.0, 1.700950635078408E9, 0.0, 2023-11-25 17:17:15.078
58.0, 34219.96196746373, 44012.0376958892, -44998.554289168635, -39313.63395615029, -57099.25229540495, -20983.214197541976, -6275.587531994287, -24898.993956922764, -0.202, 0.908, 0.35000000000000003, 192.0, 0.0, 0.0, 0.0, 0.0, 0.0, 0.0, 0.0, 0.0, 0.0, 1.700950635081309E9, 0.0, 2023-11-25 17:17:15.081
59.0, 34234.557656593046, 44072.23094370734, -44986.05966401812, -39276.06067372092, -57096.011292458934, -20950.67005761505, -6391.8389549063395, -24835.224429991777, -0.202, 0.908, 0.35000000000000003, 192.0, 0.0, 0.0, 0.0, 0.0, 0.0, 0.0, 0.0, 0.0, 0.0, 1.700950635085353E9, 0.0, 2023-11-25 17:17:15.085
60.0, 34292.716895665755, 44158.68749126047, -44931.856683713995, -39210.681821189144, -57050.86076865921, -20900.46803956843, -6483.034072283992, -24749.796062683592, -0.198, 0.908, 0.35000000000000003, 192.0, 249.0, 208.0, 28.0, 96.0, 10.0, 240.0, 0.0, 0.0, 0.0, 1.700950635089384E9, 0.0, 2023-11-25 17:17:15.089
61.0, 34301.948166125796, 44120.73422917536, -44932.23666336974, -39219.26489105998, -57012.32636121826, -20856.50215822484, -6248.251348525447, -24759.742588966204, -0.198, 0.908, 0.35000000000000003, 192.0, 0.0, 0.0, 0.0, 0.0, 0.0, 0.0, 0.0, 0.0, 0.0, 1.700950635094336E9, 0.0, 2023-11-25 17:17:15.094
62.0, 34222.91239773183, 44016.91037618046, -44983.42215817239, -39301.0275722775, -57083.91899870861, -20951.43001692653, -6231.487540183966, -24834.77739510267, -0.198, 0.908, 0.35000000000000003, 192.0, 0.0, 0.0, 0.0, 0.0, 0.0, 0.0, 0.0, 0.0, 0.0, 1.700950635097364E9, 0.0, 2023-11-25 17:17:15.097
63.0, 34217.36916510692, 44048.15811492898, -44982.751605838734, -39279.36873190031, -57093.75376626894, -20943.338685433708, -6359.607739401787, -24822.215714718786, -0.198, 0.908, 0.35000000000000003, 192.0, 0.0, 0.0, 0.0, 0.0, 0.0, 0.0, 0.0, 0.0, 0.0, 1.700950635101391E9, 0.0, 2023-11-25 17:17:15.101
64.0, 34279.37290422594, 44142.05779338572, -44929.30858484609, -39210.79357991142, -57050.4137337701, -20900.535094801795, -6477.580246636898, -24760.390789555408, -0.198, 0.908, 0.35000000000000003, 192.0, 0.0, 0.0, 0.0, 0.0, 0.0, 0.0, 0.0, 0.0, 0.0, 1.700950635105411E9, 0.0, 2023-11-25 17:17:15.105
65.0, 34308.83250341803, 44128.84791241264, -44914.77995095014, -39199.170672794666, -56998.6023901227, -20844.275754007787, -6286.249314099469, -24766.895147191903, -0.198, 0.908, 0.35000000000000003, 192.0, 0.0, 0.0, 0.0, 0.0, 0.0, 0.0, 0.0, 0.0, 0.0, 1.70095063510944E9, 0.0, 2023-11-25 17:17:15.109
66.0, 34228.20976116774, 44018.09501863659, -44975.6661028464, -39291.3269151839, -57068.94332992355, -20935.023836496333, -6201.737368313953, -24841.862898095, -0.198, 0.908, 0.35000000000000003, 192.0, 0.0, 0.0, 0.0, 0.0, 0.0, 0.0, 0.0, 0.0, 0.0, 1.700950635113467E9, 0.0, 2023-11-25 17:17:15.113
67.0, 34213.01057493813, 44031.215492631854, -44981.075225004584, -39285.13548196977, -57091.76446101242, -20948.81486282526, -6332.450369888588, -24840.63355214996, -0.198, 0.908, 0.35000000000000003, 192.0, 0.0, 0.0, 0.0, 0.0, 0.0, 0.0, 0.0, 0.0, 0.0, 1.7009506351175E9, 0.0, 2023-11-25 17:17:15.117
68.0, 34262.229116228715, 44118.5661099632, -44943.747811764224, -39229.72550746507, -57067.17754211158, -20920.405795622566, -6467.007871509537, -24795.39362137242, -0.198, 0.908, 0.35000000000000003, 192.0, 0.0, 0.0, 0.0, 0.0, 0.0, 0.0, 0.0, 0.0, 0.0, 1.700950635122463E9, 0.0, 2023-11-25 17:17:15.122
69.0, 34300.204730058285, 44126.21040656691, -44921.28430858664, -39209.497178733014, -57014.6062391527, -20861.933632127482, -6342.843931060306, -24773.824187973045, -0.198, 0.908, 0.35000000000000003, 192.0, 0.0, 0.0, 0.0, 0.0, 0.0, 0.0, 0.0, 0.0, 0.0, 1.700950635125475E9, 0.0, 2023-11-25 17:17:15.125
70.0, 34228.187409423284, 44013.71407672335, -44983.600972128035, -39299.82057807691, -57070.1726758686, -20931.51461261685, -6187.767528029386, -24843.1145957845, -0.198, 0.908, 0.354, 192.0, 249.0, 208.0, 28.0, 96.0, 11.0, 16.0, 0.0, 0.0, 0.0, 1.700950635129455E9, 0.0, 2023-11-25 17:17:15.129
71.0, 34199.48776954267, 44006.18153884191, -44988.94303905285, -39304.022706034506, -57097.71002503754, -20958.269650729853, -6316.9382592366055, -24840.879421338966, -0.198, 0.908, 0.354, 192.0, 0.0, 0.0, 0.0, 0.0, 0.0, 0.0, 0.0, 0.0, 0.0, 1.700950635133689E9, 0.0, 2023-11-25 17:17:15.133
72.0, 34240.72673806271, 44092.615734650586, -44958.38820438245, -39250.04324317494, -57077.79462072786, -20931.872240528137, -6453.8873975142715, -24814.593769859526, -0.198, 0.908, 0.354, 192.0, 0.0, 0.0, 0.0, 0.0, 0.0, 0.0, 0.0, 0.0, 0.0, 1.700950635137532E9, 0.0, 2023-11-25 17:17:15.137
73.0, 34292.11339856546, 44132.20067408093, -44921.731343475745, -39207.9549083656, -57022.29523924533, -20873.355373544142, -6402.411330033699, -24785.223577645254, -0.198, 0.908, 0.354, 192.0, 0.0, 0.0, 0.0, 0.0, 0.0, 0.0, 0.0, 0.0, 0.0, 1.70095063514151E9, 0.0, 2023-11-25 17:17:15.141
74.0, 34240.279703173605, 44030.880216465026, -44978.772995325686, -39283.23558369107, -57057.7674576959, -20914.05790019726, -6198.451661879023, -24841.505270183716, -0.198, 0.908, 0.354, 192.0, 0.0, 0.0, 0.0, 0.0, 0.0, 0.0, 0.0, 0.0, 0.0, 1.700950635147607E9, 0.0, 2023-11-25 17:17:15.147
75.0, 34197.02907765259, 43994.11159683605, -44996.386169956466, -39309.20831074814, -57103.0297402179, -20966.517444433863, -6310.9479917225835, -24847.003799319722, -0.198, 0.908, 0.354, 192.0, 0.0, 0.0, 0.0, 0.0, 0.0, 0.0, 0.0, 0.0, 0.0, 1.700950635150543E9, 0.0, 2023-11-25 17:17:15.150
76.0, 34223.87352274341, 44062.9996732473, -44977.09661449154, -39264.77304277099, -57093.30673137984, -20939.628295854127, -6427.042952423448, -24807.776487800656, -0.198, 0.908, 0.354, 192.0, 0.0, 0.0, 0.0, 0.0, 0.0, 0.0, 0.0, 0.0, 0.0, 1.700950635153544E9, 0.0, 2023-11-25 17:17:15.153
77.0, 34282.83742461651, 44122.1647408205, -44933.823637226065, -39216.225053814065, -57042.83649239976, -20889.448629551964, -6438.956432218127, -24762.871833189947, -0.198, 0.908, 0.354, 192.0, 0.0, 0.0, 0.0, 0.0, 0.0, 0.0, 0.0, 0.0, 0.0, 1.700950635157566E9, 0.0, 2023-11-25 17:17:15.157
78.0, 34251.27676144562, 44035.99876594529, -44979.28708544816, -39278.11703421081, -57057.32042280679, -20907.195914649477, -6202.251458436425, -24827.24485722123, -0.198, 0.908, 0.354, 192.0, 0.0, 0.0, 0.0, 0.0, 0.0, 0.0, 0.0, 0.0, 0.0, 1.700950635162558E9, 0.0, 2023-11-25 17:17:15.162
79.0, 34188.96009790422, 43972.6762739034, -45010.579527685586, -39331.62711043681, -57119.011237503444, -20990.232645300945, -6286.249314099469, -24858.760816903214, -0.202, 0.906, 0.358, 192.0, 249.0, 176.0, 28.0, 80.0, 11.0, 48.0, 0.0, 0.0, 0.0, 1.700950635165547E9, 0.0, 2023-11-25 17:17:15.165
80.0, 34222.7782872651, 44048.225170162346, -44989.01009428622, -39281.73801681257, -57102.11331869523, -20954.246336727898, -6403.998303890026, -24809.96695875728, -0.202, 0.906, 0.358, 192.0, 0.0, 0.0, 0.0, 0.0, 0.0, 0.0, 0.0, 0.0, 0.0, 1.700950635176539E9, 0.0, 2023-11-25 17:17:15.176
81.0, 34290.50407296468, 44129.652575213026, -44934.874169215465, -39217.677917203655, -57048.111504091205, -20906.27949312681, -6471.098240744858, -24762.80477795658, -0.202, 0.906, 0.358, 192.0, 0.0, 0.0, 0.0, 0.0, 0.0, 0.0, 0.0, 0.0, 0.0, 1.700950635179638E9, 0.0, 2023-11-25 17:17:15.179
82.0, 34279.37290422594, 44069.1016994836, -44957.382375881956, -39251.29494086444, -57032.35352425022, -20888.71102198494, -6228.626516893687, -24809.832848290545, -0.202, 0.906, 0.358, 192.0, 0.0, 0.0, 0.0, 0.0, 0.0, 0.0, 0.0, 0.0, 0.0, 1.700950635182596E9, 0.0, 2023-11-25 17:17:15.182
83.0, 34201.141798632365, 43981.75108215226, -45003.2705072487, -39326.41915397873, -57103.834403018285, -20988.042174344322, -6267.362090034734, -24876.955136889832, -0.202, 0.906, 0.358, 192.0, 0.0, 0.0, 0.0, 0.0, 0.0, 0.0, 0.0, 0.0, 0.0, 1.700950635186661E9, 0.0, 2023-11-25 17:17:15.186
84.0, 34213.16703714932, 44028.980318186324, -44993.81571934411, -39292.89153729576, -57102.15802218414, -20968.752618879393, -6389.402614760711, -24850.378912732474, -0.202, 0.906, 0.358, 192.0, 0.0, 0.0, 0.0, 0.0, 0.0, 0.0, 0.0, 0.0, 0.0, 1.700950635189663E9, 0.0, 2023-11-25 17:17:15.189
85.0, 34279.283497248114, 44119.75075241933, -44936.37173609397, -39222.438838772636, -57053.297108804836, -20915.063728697747, -6490.365444465333, -24763.117702378953, -0.202, 0.906, 0.358, 192.0, 0.0, 0.0, 0.0, 0.0, 0.0, 0.0, 0.0, 0.0, 0.0, 1.700950635192654E9, 0.0, 2023-11-25 17:17:15.192
86.0, 34295.80143640059, 44088.23479273734, -44936.1035151605, -39229.59139699834, -57014.24861124142, -20870.47199850941, -6272.659453470642, -24776.90872870788, -0.202, 0.906, 0.358, 192.0, 0.0, 0.0, 0.0, 0.0, 0.0, 0.0, 0.0, 0.0, 0.0, 1.700950635195617E9, 0.0, 2023-11-25 17:17:15.195
87.0, 34218.68791802978, 43989.03775084469, -44988.00426578573, -39312.67283113871, -57083.360205097226, -20961.95768856498, -6242.9763368339945, -24835.44794743633, -0.202, 0.906, 0.358, 192.0, 0.0, 0.0, 0.0, 0.0, 0.0, 0.0, 0.0, 0.0, 0.0, 1.700950635199652E9, 0.0, 2023-11-25 17:17:15.199
88.0, 34216.76566800662, 44023.526492539226, -44985.03148377317, -39290.29873493895, -57091.96562671252, -20954.38044719463, -6364.0110330594825, -24821.92514204087, -0.202, 0.906, 0.358, 192.0, 0.0, 0.0, 0.0, 0.0, 0.0, 0.0, 0.0, 0.0, 0.0, 1.700950635202634E9, 0.0, 2023-11-25 17:17:15.202
89.0, 34273.78496811211, 44115.10158957262, -44938.94218670633, -39226.66331847469, -57056.49340826195, -20922.52921134582, -6489.113746775836, -24775.47821706274, -0.194, 0.91, 0.35000000000000003, 192.0, 249.0, 240.0, 28.0, 112.0, 10.0, 240.0, 0.0, 0.0, 0.0, 1.700950635207638E9, 0.0, 2023-11-25 17:17:15.207
90.0, 34296.04730558959, 44104.14923478952, -44928.41451506788, -39216.13564683624, -57007.431329182546, -20867.56627173022, -6313.518442334944, -24781.692002021315, -0.194, 0.91, 0.35000000000000003, 192.0, 0.0, 0.0, 0.0, 0.0, 0.0, 0.0, 0.0, 0.0, 0.0, 1.700950635210659E9, 0.0, 2023-11-25 17:17:15.210
91.0, 34209.97073769221, 43984.27682927571, -44996.9226118234, -39314.46097069514, -57079.58276028428, -20960.43776994202, -6223.195042991048, -24857.129139557976, -0.194, 0.91, 0.35000000000000003, 192.0, 0.0, 0.0, 0.0, 0.0, 0.0, 0.0, 0.0, 0.0, 0.0, 1.700950635213679E9, 0.0, 2023-11-25 17:17:15.213
92.0, 34205.05335391204, 44004.05812311866, -44989.01009428622, -39295.23847046357, -57089.573990055804, -20960.750694364393, -6349.281233463435, -24824.00385427521, -0.194, 0.91, 0.35000000000000003, 192.0, 0.0, 0.0, 0.0, 0.0, 0.0, 0.0, 0.0, 0.0, 0.0, 1.700950635217922E9, 0.0, 2023-11-25 17:17:15.217
93.0, 34257.31173244855, 44100.72941788786, -44947.301739132614, -39231.91597842169, -57058.50506526293, -20923.110356701658, -6468.840714554873, -24780.19443514281, -0.194, 0.91, 0.35000000000000003, 192.0, 0.0, 0.0, 0.0, 0.0, 0.0, 0.0, 0.0, 0.0, 0.0, 1.700950635221709E9, 0.0, 2023-11-25 17:17:15.221
94.0, 34302.708125437275, 44121.85181639813, -44917.238642840224, -39202.18815829613, -57001.061082012784, -20862.17950131649, -6358.758373112485, -24753.37234179644, -0.194, 0.91, 0.35000000000000003, 192.0, 0.0, 0.0, 0.0, 0.0, 0.0, 0.0, 0.0, 0.0, 0.0, 1.70095063522671E9, 0.0, 2023-11-25 17:17:15.226
95.0, 34237.99982523916, 44013.602318001074, -44977.40953891391, -39285.984848259075, -57050.011402369906, -20923.736205546404, -6193.981312987961, -24812.716223325282, -0.194, 0.91, 0.35000000000000003, 192.0, 0.0, 0.0, 0.0, 0.0, 0.0, 0.0, 0.0, 0.0, 0.0, 1.700950635230679E9, 0.0, 2023-11-25 17:17:15.230
96.0, 34208.20494988024, 43999.87834690551, -44986.17142274039, -39299.552357143446, -57087.38351909918, -20961.890633331615, -6321.922698250139, -24821.09812749602, -0.194, 0.91, 0.35000000000000003, 192.0, 0.0, 0.0, 0.0, 0.0, 0.0, 0.0, 0.0, 0.0, 0.0, 1.7009506352347E9, 0.0, 2023-11-25 17:17:15.234
97.0, 34251.053244001065, 44082.69156011243, -44958.432907871356, -39248.031586173965, -57072.36314682521, -20934.80031905178, -6449.931138745683, -24793.493723093718, -0.194, 0.91, 0.35000000000000003, 192.0, 0.0, 0.0, 0.0, 0.0, 0.0, 0.0, 0.0, 0.0, 0.0, 1.700950635244766E9, 0.0, 2023-11-25 17:17:15.244
98.0, 34301.7470004257, 44122.14238907604, -44920.99373590872, -39206.83732114283, -57019.05423629931, -20881.916091670526, -6416.872908696283, -24771.544310038604, -0.194, 0.91, 0.35000000000000003, 192.0, 0.0, 0.0, 0.0, 0.0, 0.0, 0.0, 0.0, 0.0, 0.0, 1.700950635247789E9, 0.0, 2023-11-25 17:17:15.247
99.0, 34250.986188767696, 44017.20094885838, -44975.353178424026, -39281.089816223364, -57050.79371342585, -20921.881010756613, -6209.001685261927, -24843.159299273408, -0.196, 0.91, 0.34800000000000003, 192.0, 249.0, 224.0, 28.0, 112.0, 10.0, 224.0, 0.0, 0.0, 0.0, 1.70095063525182E9, 0.0, 2023-11-25 17:17:15.251
100.0, 34196.20206310774, 43970.30698899114, -44999.33660022457, -39317.27729049651, -57102.47094660652, -20983.080087075246, -6318.592288326298, -24859.58783144806, -0.196, 0.91, 0.34800000000000003, 192.0, 0.0, 0.0, 0.0, 0.0, 0.0, 0.0, 0.0, 0.0, 0.0, 1.700950635254775E9, 0.0, 2023-11-25 17:17:15.254
101.0, 34224.968758221716, 44042.413716603965, -44980.24821045974, -39272.3726358858, -57090.66922553411, -20959.43194144153, -6446.891301499761, -24840.924124827878, -0.196, 0.91, 0.34800000000000003, 192.0, 0.0, 0.0, 0.0, 0.0, 0.0, 0.0, 0.0, 0.0, 0.0, 1.700950635257769E9, 0.0, 2023-11-25 17:17:15.257
102.0, 34289.65470667538, 44109.91598485899, -44924.36884932147, -39210.12302757776, -57028.59843118172, -20903.641987281084, -6477.289673958979, -24805.653072077403, -0.196, 0.91, 0.34800000000000003, 192.0, 0.0, 0.0, 0.0, 0.0, 0.0, 0.0, 0.0, 0.0, 0.0, 1.700950635260907E9, 0.0, 2023-11-25 17:17:15.260
103.0, 34261.26799121714, 44029.829684475626, -44961.003358483715, -39262.67197879219, -57031.88413761665, -20904.960740203947, -6232.538072173366, -24853.172880789385, -0.196, 0.91, 0.34800000000000003, 192.0, 0.0, 0.0, 0.0, 0.0, 0.0, 0.0, 0.0, 0.0, 0.0, 1.700950635277876E9, 0.0, 2023-11-25 17:17:15.277
104.0, 34191.128217116384, 43955.46543067282, -44997.45905369033, -39321.501770198556, -57098.514687837924, -20978.185055039532, -6289.557372278854, -24839.471261438284, -0.196, 0.91, 0.34800000000000003, 192.0, 0.0, 0.0, 0.0, 0.0, 0.0, 0.0, 0.0, 0.0, 0.0, 1.700950635280884E9, 0.0, 2023-11-25 17:17:15.280
105.0, 34217.79384825157, 44024.71113499536, -44977.94598078084, -39276.01597023201, -57088.814030744325, -20939.15890922057, -6391.950713628616, -24774.539443795617, -0.196, 0.91, 0.34800000000000003, 192.0, 0.0, 0.0, 0.0, 0.0, 0.0, 0.0, 0.0, 0.0, 0.0, 1.70095063528487E9, 0.0, 2023-11-25 17:17:15.284
106.0, 34280.04345655959, 44105.49033945684, -44926.67107900036, -39217.43204801465, -57042.56827146629, -20898.36697558963, -6468.885418043783, -24740.050702101078, -0.196, 0.91, 0.34800000000000003, 192.0, 0.0, 0.0, 0.0, 0.0, 0.0, 0.0, 0.0, 0.0, 0.0, 1.700950635287873E9, 0.0, 2023-11-25 17:17:15.287
107.0, 34273.002657056175, 44044.917111982955, -44950.16276242289, -39251.09377516434, -57024.977448579964, -20881.871388181615, -6238.260118753925, -24795.348917883508, -0.196, 0.91, 0.34800000000000003, 192.0, 0.0, 0.0, 0.0, 0.0, 0.0, 0.0, 0.0, 0.0, 0.0, 1.7009506352911E9, 0.0, 2023-11-25 17:17:15.291
108.0, 34200.60535676543, 43953.16320099392, -44993.100463521536, -39321.97115683212, -57092.47971683499, -20972.328897992244, -6265.283377800391, -24848.00962782021, -0.196, 0.91, 0.34800000000000003, 192.0, 0.0, 0.0, 0.0, 0.0, 0.0, 0.0, 0.0, 0.0, 0.0, 1.700950635294762E9, 0.0, 2023-11-25 17:17:15.294
109.0, 34211.691822015266, 44002.560556240154, -44983.735082594765, -39288.085912237875, -57092.524420323905, -20953.620487883152, -6385.0887280808365, -24831.29052296764, -0.2, 0.91, 0.352, 192.0, 249.0, 192.0, 28.0, 112.0, 11.0, 0.0, 0.0, 0.0, 0.0, 1.700950635297892E9, 0.0, 2023-11-25 17:17:15.297
110.0, 34270.23104074372, 44091.45344393891, -44937.109343660995, -39228.71967896458, -57055.308765805814, -20926.19489743649, -6504.402339983266, -24821.23223796275, -0.2, 0.91, 0.352, 192.0, 0.0, 0.0, 0.0, 0.0, 0.0, 0.0, 0.0, 0.0, 0.0, 1.700950635301628E9, 0.0, 2023-11-25 17:17:15.301
111.0, 34281.96570658275, 44064.2513709368, -44942.11613441898, -39237.92859768017, -57019.34480897723, -20883.324251571208, -6290.473793801522, -24831.983427045754, -0.2, 0.91, 0.352, 192.0, 0.0, 0.0, 0.0, 0.0, 0.0, 0.0, 0.0, 0.0, 0.0, 1.700950635303922E9, 0.0, 2023-11-25 17:17:15.303
112.0, 34213.09998191595, 43974.06208205964, -44983.4668616613, -39307.19665374716, -57073.92776893709, -20949.775987836838, -6230.012325049916, -24824.33913044204, -0.2, 0.91, 0.352, 192.0, 0.0, 0.0, 0.0, 0.0, 0.0, 0.0, 0.0, 0.0, 0.0, 1.700950635307988E9, 0.0, 2023-11-25 17:17:15.307
113.0, 34213.658775527336, 44014.22816684582, -44973.1627074674, -39282.5203278685, -57078.50987655042, -20936.61081035266, -6343.514483393966, -24787.637566046425, -0.2, 0.91, 0.352, 192.0, 0.0, 0.0, 0.0, 0.0, 0.0, 0.0, 0.0, 0.0, 0.0, 1.700950635310948E9, 0.0, 2023-11-25 17:17:15.310
114.0, 34263.97255229623, 44109.513653458795, -44931.36494533598, -39228.451458031115, -57051.620727970694, -20913.320292630233, -6473.266359957023, -24762.245984345198, -0.2, 0.91, 0.352, 192.0, 0.0, 0.0, 0.0, 0.0, 0.0, 0.0, 0.0, 0.0, 0.0, 1.700950635313948E9, 0.0, 2023-11-25 17:17:15.313
115.0, 34295.53321546713, 44103.992772578335, -44915.584613750536, -39215.308632291395, -57002.55864889129, -20858.849091392647, -6315.731265036019, -24758.37913255443, -0.2, 0.91, 0.352, 192.0, 0.0, 0.0, 0.0, 0.0, 0.0, 0.0, 0.0, 0.0, 0.0, 1.70095063531805E9, 0.0, 2023-11-25 17:17:15.318
116.0, 34220.14078141937, 43995.296239292176, -44977.52129763619, -39304.983831046084, -57065.188236855065, -20941.14821447709, -6213.270868452892, -24829.30121771112, -0.2, 0.91, 0.352, 192.0, 0.0, 0.0, 0.0, 0.0, 0.0, 0.0, 0.0, 0.0, 0.0, 1.700950635320994E9, 0.0, 2023-11-25 17:17:15.320
117.0, 34200.8735776989, 44004.460454518856, -44983.55626863912, -39300.49113041057, -57091.183315656584, -20959.186072252523, -6337.524215879944, -24833.659807879903, -0.2, 0.91, 0.352, 192.0, 0.0, 0.0, 0.0, 0.0, 0.0, 0.0, 0.0, 0.0, 0.0, 1.700950635323955E9, 0.0, 2023-11-25 17:17:15.323
118.0, 34250.96383702324, 44096.2590689968, -44947.36879436598, -39241.929559937664, -57069.47977179048, -20929.078272471223, -6467.141981976269, -24785.38003985644, -0.2, 0.91, 0.352, 192.0, 0.0, 0.0, 0.0, 0.0, 0.0, 0.0, 0.0, 0.0, 0.0, 1.700950635327947E9, 0.0, 2023-11-25 17:17:15.327
119.0, 34304.40685801588, 44128.959671134915, -44909.12495960295, -39201.13762630673, -57007.14075650463, -20863.788826917273, -6364.8380476043285, -24743.917553891846, -0.198, 0.912, 0.35000000000000003, 192.0, 249.0, 208.0, 28.0, 128.0, 10.0, 240.0, 0.0, 0.0, 0.0, 1.700950635330998E9, 0.0, 2023-11-25 17:17:15.330
120.0, 34244.57123810902, 44025.80637047367, -44965.31724516359, -39280.754540056536, -57050.72665819248, -20919.04233921079, -6188.773356529875, -24807.128287211453, -0.198, 0.912, 0.35000000000000003, 192.0, 0.0, 0.0, 0.0, 0.0, 0.0, 0.0, 0.0, 0.0, 0.0, 1.700950635334033E9, 0.0, 2023-11-25 17:17:15.334
121.0, 34203.019345166605, 43998.60429747156, -44985.210297728816, -39304.00035429005, -57094.401966858146, -20966.517444433863, -6313.719608035041, -24824.741461842237, -0.198, 0.912, 0.35000000000000003, 192.0, 0.0, 0.0, 0.0, 0.0, 0.0, 0.0, 0.0, 0.0, 0.0, 1.700950635337048E9, 0.0, 2023-11-25 17:17:15.337
122.0, 34246.091156731985, 44088.614772393084, -44955.70599504781, -39252.77015599849, -57074.28539684837, -20943.785720322816, -6450.199359679146, -24802.970862742768, -0.198, 0.912, 0.35000000000000003, 192.0, 0.0, 0.0, 0.0, 0.0, 0.0, 0.0, 0.0, 0.0, 0.0, 1.700950635341134E9, 0.0, 2023-11-25 17:17:15.341
123.0, 34304.02687836014, 44145.61172075412, -44911.53894800413, -39208.20077755461, -57016.52848917586, -20891.817914464227, -6426.975897190082, -24783.144865410908, -0.198, 0.912, 0.35000000000000003, 192.0, 0.0, 0.0, 0.0, 0.0, 0.0, 0.0, 0.0, 0.0, 0.0, 1.700950635351155E9, 0.0, 2023-11-25 17:17:15.351
124.0, 34258.809299327055, 44056.76353654427, -44957.06945145958, -39276.686522565666, -57037.58383245276, -20920.76342353385, -6205.738330571453, -24842.62285740648, -0.198, 0.912, 0.35000000000000003, 192.0, 0.0, 0.0, 0.0, 0.0, 0.0, 0.0, 0.0, 0.0, 0.0, 1.700950635354412E9, 0.0, 2023-11-25 17:17:15.354
125.0, 34206.170941134806, 44011.99299240029, -44979.57765812608, -39312.71753462762, -57088.97049295551, -20978.497979461907, -6304.778910252919, -24841.527621928173, -0.198, 0.912, 0.35000000000000003, 192.0, 0.0, 0.0, 0.0, 0.0, 0.0, 0.0, 0.0, 0.0, 0.0, 1.700950635358094E9, 0.0, 2023-11-25 17:17:15.358
126.0, 34235.6305403269, 44088.055978781704, -44957.62824507097, -39261.19676365814, -57075.85001896024, -20942.936354033514, -6420.0692081533925, -24788.7998567581, -0.198, 0.912, 0.35000000000000003, 192.0, 0.0, 0.0, 0.0, 0.0, 0.0, 0.0, 0.0, 0.0, 0.0, 1.70095063536107E9, 0.0, 2023-11-25 17:17:15.361
127.0, 34294.61679394446, 44150.909084190025, -44910.44371252581, -39205.0044780975, -57022.406997967606, -20891.348527830665, -6451.026374223992, -24740.341274778995, -0.198, 0.912, 0.35000000000000003, 192.0, 0.0, 0.0, 0.0, 0.0, 0.0, 0.0, 0.0, 0.0, 0.0, 1.700950635364085E9, 0.0, 2023-11-25 17:17:15.364
128.0, 34273.293229734096, 44075.650760609, -44946.72059377678, -39254.96062695511, -57020.95413457801, -20890.297995841265, -6207.191193961048, -24786.430571845838, -0.198, 0.912, 0.35000000000000003, 192.0, 0.0, 0.0, 0.0, 0.0, 0.0, 0.0, 0.0, 0.0, 0.0, 1.70095063536814E9, 0.0, 2023-11-25 17:17:15.368
129.0, 34205.187464378774, 44004.236937074296, -44983.37745468348, -39316.85260735185, -57087.405870843635, -20976.441618972018, -6271.921845903617, -24828.228333977266, -0.192, 0.908, 0.354, 192.0, 250.0, 0.0, 28.0, 96.0, 11.0, 16.0, 0.0, 0.0, 0.0, 1.700950635371129E9, 0.0, 2023-11-25 17:17:15.371
130.0, 34225.68401404429, 44069.34756867261, -44968.491192876245, -39275.94891499864, -57080.856809718236, -20950.4465401705, -6395.1246613412695, -24804.982519743746, -0.192, 0.908, 0.354, 192.0, 0.0, 0.0, 0.0, 0.0, 0.0, 0.0, 0.0, 0.0, 0.0, 1.700950635374101E9, 0.0, 2023-11-25 17:17:15.374
131.0, 34286.95014559629, 44151.57963652368, -44918.26682308517, -39215.71096369159, -57034.074608573275, -20909.855772239658, -6480.977711794104, -24772.52778679464, -0.192, 0.908, 0.354, 192.0, 0.0, 0.0, 0.0, 0.0, 0.0, 0.0, 0.0, 0.0, 0.0, 1.700950635377215E9, 0.0, 2023-11-25 17:17:15.377
132.0, 34279.015276314654, 44095.476757940865, -44940.0597739291, -39245.61759777279, -57013.734521118946, -20887.973414417913, -6249.033659581382, -24812.962092514288, -0.192, 0.908, 0.354, 192.0, 0.0, 0.0, 0.0, 0.0, 0.0, 0.0, 0.0, 0.0, 0.0, 1.700950635381136E9, 0.0, 2023-11-25 17:17:15.381
133.0, 34204.18163587828, 44005.95802139736, -44985.81379482911, -39319.49011319758, -57082.041452174366, -20977.000412583402, -6263.674052199609, -24851.854127866525, -0.192, 0.908, 0.354, 192.0, 0.0, 0.0, 0.0, 0.0, 0.0, 0.0, 0.0, 0.0, 0.0, 1.700950635384205E9, 0.0, 2023-11-25 17:17:15.384
134.0, 34212.85411272694, 44055.57889408814, -44975.91197203541, -39285.694275581154, -57082.91317020812, -20954.492205916908, -6380.663082678686, -24827.714243854793, -0.192, 0.908, 0.354, 192.0, 0.0, 0.0, 0.0, 0.0, 0.0, 0.0, 0.0, 0.0, 0.0, 1.700950635387285E9, 0.0, 2023-11-25 17:17:15.387
135.0, 34267.615886642445, 44146.39403181005, -44928.638032512434, -39223.422315528675, -57044.222300555986, -20917.209496165455, -6492.935895077693, -24772.796007728102, -0.192, 0.908, 0.354, 192.0, 0.0, 0.0, 0.0, 0.0, 0.0, 0.0, 0.0, 0.0, 0.0, 1.700950635391201E9, 0.0, 2023-11-25 17:17:15.391
136.0, 34285.76550314015, 44121.3153745312, -44923.206558609796, -39223.1093911063, -57000.591695379226, -20867.834492663682, -6285.914037932639, -24780.23913863172, -0.192, 0.908, 0.354, 192.0, 0.0, 0.0, 0.0, 0.0, 0.0, 0.0, 0.0, 0.0, 0.0, 1.700950635394168E9, 0.0, 2023-11-25 17:17:15.394
137.0, 34211.825932481996, 44020.48665529331, -44972.80507955612, -39306.9284328137, -57065.612919999716, -20960.258955986377, -6236.270813497403, -24852.211755777807, -0.192, 0.908, 0.354, 192.0, 0.0, 0.0, 0.0, 0.0, 0.0, 0.0, 0.0, 0.0, 0.0, 1.700950635398203E9, 0.0, 2023-11-25 17:17:15.398
138.0, 34211.15538014834, 44053.47783010934, -44969.1617452099, -39286.87891803729, -57076.16294338262, -20956.079179773235, -6358.601910901298, -24838.510136426707, -0.192, 0.908, 0.354, 192.0, 0.0, 0.0, 0.0, 0.0, 0.0, 0.0, 0.0, 0.0, 0.0, 1.700950635401251E9, 0.0, 2023-11-25 17:17:15.401
139.0, 34262.60909588446, 44142.862456186114, -44927.49809354521, -39228.29499581993, -57049.07262910278, -20917.90240024357, -6481.357691449844, -24770.180853626833, -0.19, 0.902, 0.354, 192.0, 250.0, 16.0, 28.0, 48.0, 11.0, 16.0, 0.0, 0.0, 0.0, 1.700950635406226E9, 0.0, 2023-11-25 17:17:15.406
140.0, 34298.90832887987, 44143.48830503086, -44906.196881079304, -39209.81010315539, -56995.204924965496, -20855.585736702174, -6325.543680851899, -24739.156632322865, -0.19, 0.902, 0.354, 192.0, 0.0, 0.0, 0.0, 0.0, 0.0, 0.0, 0.0, 0.0, 0.0, 1.700950635426287E9, 0.0, 2023-11-25 17:17:15.426
141.0, 34224.58877856598, 44031.97545194333, -44970.458146388315, -39301.653421122246, -57058.817989685296, -20939.33772317621, -6202.854955536718, -24811.553932613606, -0.19, 0.902, 0.354, 192.0, 0.0, 0.0, 0.0, 0.0, 0.0, 0.0, 0.0, 0.0, 0.0, 1.700950635430245E9, 0.0, 2023-11-25 17:17:15.430
142.0, 34198.79486546455, 44032.78011474373, -44980.11409999301, -39302.547490900455, -57088.14347841066, -20966.539796178316, -6332.383314655222, -24818.974711772767, -0.19, 0.902, 0.354, 192.0, 0.0, 0.0, 0.0, 0.0, 0.0, 0.0, 0.0, 0.0, 0.0, 1.700950635433245E9, 0.0, 2023-11-25 17:17:15.433
143.0, 34243.230133441706, 44124.15404607702, -44947.94993972182, -39247.51749605149, -57068.76451596791, -20936.72256907494, -6463.99038600807, -24780.909690965378, -0.19, 0.902, 0.354, 192.0, 0.0, 0.0, 0.0, 0.0, 0.0, 0.0, 0.0, 0.0, 0.0, 1.700950635436294E9, 0.0, 2023-11-25 17:17:15.436
144.0, 34292.60513694348, 44147.80219171074, -44913.70706721629, -39211.262966544986, -57011.78991935134, -20877.04341137927, -6382.987664102038, -24752.61238248496, -0.19, 0.902, 0.354, 192.0, 0.0, 0.0, 0.0, 0.0, 0.0, 0.0, 0.0, 0.0, 0.0, 1.700950635440322E9, 0.0, 2023-11-25 17:17:15.440
145.0, 34236.18933393828, 44040.55852181417, -44965.92074226389, -39288.26472619352, -57049.34085003625, -20931.38050215012, -6196.954095000518, -24817.834772805545, -0.19, 0.902, 0.354, 192.0, 0.0, 0.0, 0.0, 0.0, 0.0, 0.0, 0.0, 0.0, 0.0, 1.700950635443331E9, 0.0, 2023-11-25 17:17:15.443
146.0, 34200.94063293227, 44015.32340232413, -44977.454242402826, -39306.816674091424, -57088.948141211054, -20981.314299263275, -6323.777893039929, -24839.29244748264, -0.19, 0.902, 0.354, 192.0, 0.0, 0.0, 0.0, 0.0, 0.0, 0.0, 0.0, 0.0, 0.0, 1.700950635446322E9, 0.0, 2023-11-25 17:17:15.446
147.0, 34239.25152292866, 44100.505900443306, -44951.4591636013, -39254.178315899175, -57072.00551891393, -20951.944107049003, -6449.148827689747, -24802.34501389802, -0.19, 0.902, 0.354, 192.0, 0.0, 0.0, 0.0, 0.0, 0.0, 0.0, 0.0, 0.0, 0.0, 1.700950635451142E9, 0.0, 2023-11-25 17:17:15.451
