%OpenBCI Raw EXG Data
%Number of channels = 8
%Sample Rate = 250 Hz
%Board = OpenBCI_GUI$BoardCytonSerial
Sample Index, EXG Channel 0, EXG Channel 1, EXG Channel 2, EXG Channel 3, EXG Channel 4, EXG Channel 5, EXG Channel 6, EXG Channel 7, Accel Channel 0, Accel Channel 1, Accel Channel 2, Other, Other, Other, Other, Other, Other, Other, Analog Channel 0, Analog Channel 1, Analog Channel 2, Timestamp, Other, Timestamp (Formatted)
251.0, 8731.708971465703, 16932.094625484304, -53369.57316035905, -56524.85716639247, -47876.38609127833, -57306.989408372574, -33389.192329548874, -14277.579102227583, 0.0, 0.0, 0.0, 192.0, 0.0, 0.0, 0.0, 0.0, 0.0, 0.0, 0.0, 0.0, 0.0, 1.700946918159001E9, 0.0, 2023-11-25 16:15:18.159
252.0, 8876.056537158078, 16981.626091197264, -53375.228151706244, -56525.61712570395, -47732.68672617516, -57188.636921481724, -33405.73262044581, -14293.49354427976, 0.0, 0.0, 0.0, 192.0, 0.0, 0.0, 0.0, 0.0, 0.0, 0.0, 0.0, 0.0, 0.0, 1.700946918159016E9, 0.0, 2023-11-25 16:15:18.159
253.0, 8937.635593132449, 16884.507761538956, -53374.736413328224, -56582.47996359825, -47270.676168283964, -57234.27918365946, -33458.214516426866, -14350.55754787416, 0.0, 0.0, 0.0, 192.0, 0.0, 0.0, 0.0, 0.0, 0.0, 0.0, 0.0, 0.0, 0.0, 1.700946918159023E9, 0.0, 2023-11-25 16:15:18.159
254.0, 8682.266912730565, 16874.315366067334, -53356.69855555279, -56529.729846683724, -47636.06013489487, -57464.45744806021, -33399.407076764954, -14285.312805809119, 0.0, 0.0, 0.0, 192.0, 0.0, 0.0, 0.0, 0.0, 0.0, 0.0, 0.0, 0.0, 0.0, 1.70094691815903E9, 0.0, 2023-11-25 16:15:18.159
0.0, 0.0, 0.0, 0.0, 0.0, 0.0, 0.0, 0.0, 0.0, 0.0, 0.0, 0.0, 192.0, 0.0, 0.0, 0.0, 0.0, 0.0, 0.0, 0.0, 0.0, 0.0, 1.700946918252475E9, 0.0, 2023-11-25 16:15:18.252
1.0, 8916.021456244165, 17441.848509532036, -53095.49606984807, -56245.348601978854, -47727.43406622816, -57023.74810263492, -33376.92122184292, -14043.466930802695, -0.122, 0.9480000000000001, 0.246, 192.0, 252.0, 48.0, 29.0, 160.0, 7.0, 176.0, 0.0, 0.0, 0.0, 1.700946918268603E9, 0.0, 2023-11-25 16:15:18.268
2.0, 9061.866588815044, 17483.109829796533, -53125.13448299581, -56267.05214584496, -47561.38295666969, -56889.59293241417, -33413.98041414981, -14085.488210378673, -0.122, 0.9480000000000001, 0.246, 192.0, 0.0, 0.0, 0.0, 0.0, 0.0, 0.0, 0.0, 0.0, 0.0, 1.700946918272547E9, 0.0, 2023-11-25 16:15:18.272
3.0, 9158.649642306524, 17421.933105222357, -53119.79241607099, -56309.52046031004, -47165.108879221545, -56891.381071970594, -33461.835499028624, -14136.852519136968, -0.122, 0.9480000000000001, 0.246, 192.0, 0.0, 0.0, 0.0, 0.0, 0.0, 0.0, 0.0, 0.0, 0.0, 1.700946918275692E9, 0.0, 2023-11-25 16:15:18.275
4.0, 8938.931994310857, 17384.940968148825, -53100.39110188378, -56275.94814013817, -47330.2212155129, -57117.7818915584, -33417.735507218305, -14089.176248213798, -0.122, 0.9480000000000001, 0.246, 192.0, 0.0, 0.0, 0.0, 0.0, 0.0, 0.0, 0.0, 0.0, 0.0, 1.700946918280535E9, 0.0, 2023-11-25 16:15:18.280
5.0, 8890.607522798482, 17430.40441637092, -53085.97422671011, -56252.65762241574, -47736.37476401029, -57082.8237632303, -33395.31670752963, -14075.54168409606, -0.122, 0.9480000000000001, 0.246, 192.0, 0.0, 0.0, 0.0, 0.0, 0.0, 0.0, 0.0, 0.0, 0.0, 1.700946918283811E9, 0.0, 2023-11-25 16:15:18.283
6.0, 9039.738361804291, 17472.202178502343, -53114.9867910131, -56272.95300638116, -47580.583105156795, -56923.79110143079, -33437.315635361156, -14120.9827805737, -0.122, 0.9480000000000001, 0.246, 192.0, 0.0, 0.0, 0.0, 0.0, 0.0, 0.0, 0.0, 0.0, 0.0, 1.700946918286591E9, 0.0, 2023-11-25 16:15:18.286
7.0, 9156.928557983465, 17435.12063445099, -53110.695256077684, -56306.52532655303, -47233.59462423261, -56902.04285407578, -33476.29707769121, -14164.903958428378, -0.122, 0.9480000000000001, 0.246, 192.0, 0.0, 0.0, 0.0, 0.0, 0.0, 0.0, 0.0, 0.0, 0.0, 1.700946918291552E9, 0.0, 2023-11-25 16:15:18.291
8.0, 8987.837611179068, 17374.435648254832, -53103.475642618614, -56296.35528282586, -47206.7948826307, -57096.88301049269, -33453.96768498036, -14139.735894171703, -0.11800000000000001, 0.9480000000000001, 0.244, 192.0, 252.0, 80.0, 29.0, 160.0, 7.0, 160.0, 0.0, 0.0, 0.0, 1.700946918295605E9, 0.0, 2023-11-25 16:15:18.295
9.0, 8863.539560263105, 17411.427785328364, -53092.858564002345, -56257.575006195904, -47730.49625521854, -57137.674944123624, -33411.76759144874, -14096.954655284246, -0.11800000000000001, 0.9480000000000001, 0.244, 192.0, 0.0, 0.0, 0.0, 0.0, 0.0, 0.0, 0.0, 0.0, 0.0, 1.700946918299688E9, 0.0, 2023-11-25 16:15:18.299
10.0, 9004.199088120353, 17447.525852623683, -53133.13640751081, -56287.302826321466, -47607.96399211455, -56954.34593610119, -33454.68294080293, -14136.18196680331, -0.11800000000000001, 0.9480000000000001, 0.244, 192.0, 0.0, 0.0, 0.0, 0.0, 0.0, 0.0, 0.0, 0.0, 0.0, 1.700946918303618E9, 0.0, 2023-11-25 16:15:18.303
11.0, 9135.023848417264, 17441.423826387385, -53123.972192284135, -56301.51853579504, -47324.70033463244, -56899.003016829854, -33475.02302825726, -14151.381153032919, -0.11800000000000001, 0.9480000000000001, 0.244, 192.0, 0.0, 0.0, 0.0, 0.0, 0.0, 0.0, 0.0, 0.0, 0.0, 1.700946918307853E9, 0.0, 2023-11-25 16:15:18.307
12.0, 9025.321486630617, 17358.878834113937, -53120.84294806039, -56315.30956212396, -47124.920442690905, -57043.97643136697, -33467.62460084255, -14143.26746979564, -0.11800000000000001, 0.9480000000000001, 0.244, 192.0, 0.0, 0.0, 0.0, 0.0, 0.0, 0.0, 0.0, 0.0, 0.0, 1.700946918311657E9, 0.0, 2023-11-25 16:15:18.311
13.0, 8830.637792424894, 17389.992462395723, -53099.31821814993, -56259.25138703005, -47711.96665906509, -57157.23272052201, -33397.77539941971, -14071.920701494302, -0.11800000000000001, 0.9480000000000001, 0.244, 192.0, 0.0, 0.0, 0.0, 0.0, 0.0, 0.0, 0.0, 0.0, 0.0, 1.70094691831466E9, 0.0, 2023-11-25 16:15:18.314
14.0, 8970.313843526106, 17434.1148059505, -53128.55429989747, -56279.47971576211, -47642.98917567601, -56953.89890121209, -33426.85501895607, -14099.279236707598, -0.11800000000000001, 0.9480000000000001, 0.244, 192.0, 0.0, 0.0, 0.0, 0.0, 0.0, 0.0, 0.0, 0.0, 0.0, 1.700946918319671E9, 0.0, 2023-11-25 16:15:18.319
15.0, 9100.624513700546, 17433.98069548377, -53141.42890470373, -56304.42426257423, -47408.16174842856, -56886.150763768055, -33457.58866758212, -14122.882678852402, -0.11800000000000001, 0.9480000000000001, 0.244, 192.0, 0.0, 0.0, 0.0, 0.0, 0.0, 0.0, 0.0, 0.0, 0.0, 1.700946918323633E9, 0.0, 2023-11-25 16:15:18.323
16.0, 9062.023051026232, 17354.073209056045, -53128.55429989747, -56321.94803022719, -47085.3131515161, -56983.35850040418, -33457.54396409321, -14123.55323118606, -0.11800000000000001, 0.9480000000000001, 0.244, 192.0, 0.0, 0.0, 0.0, 0.0, 0.0, 0.0, 0.0, 0.0, 0.0, 1.700946918327709E9, 0.0, 2023-11-25 16:15:18.327
17.0, 8826.167443533832, 17369.562967963575, -53109.86824153284, -56265.08519233289, -47651.9969286915, -57154.28229025392, -33377.23414626529, -14042.081122646467, -0.11800000000000001, 0.9480000000000001, 0.244, 192.0, 0.0, 0.0, 0.0, 0.0, 0.0, 0.0, 0.0, 0.0, 0.0, 1.700946918331719E9, 0.0, 2023-11-25 16:15:18.331
18.0, 8925.744465082225, 17391.87000892997, -53153.61060543187, -56303.77606198503, -47674.05810046889, -56979.8492765247, -33422.02704215372, -14088.21512320222, -0.114, 0.9500000000000001, 0.244, 192.0, 252.0, 112.0, 29.0, 176.0, 7.0, 160.0, 0.0, 0.0, 0.0, 1.700946918335711E9, 0.0, 2023-11-25 16:15:18.335
19.0, 9057.664460857446, 17427.54339308064, -53158.84091363441, -56306.592381786395, -47494.41713028159, -56890.41994695902, -33432.33119634762, -14094.384204671886, -0.114, 0.9500000000000001, 0.244, 192.0, 0.0, 0.0, 0.0, 0.0, 0.0, 0.0, 0.0, 0.0, 0.0, 1.700946918338702E9, 0.0, 2023-11-25 16:15:18.338
20.0, 9081.647882657991, 17350.206357265277, -53144.42403846074, -56334.487358866616, -47093.85151789803, -56935.23519459191, -33445.87635348753, -14105.64948387736, -0.114, 0.9500000000000001, 0.244, 192.0, 0.0, 0.0, 0.0, 0.0, 0.0, 0.0, 0.0, 0.0, 0.0, 1.700946918342746E9, 0.0, 2023-11-25 16:15:18.342
21.0, 8819.014885308134, 17347.837072353017, -53124.86626206234, -56277.736279694596, -47567.3285206948, -57151.085990796804, -33372.920259585415, -14020.310523546998, -0.114, 0.9500000000000001, 0.244, 192.0, 0.0, 0.0, 0.0, 0.0, 0.0, 0.0, 0.0, 0.0, 0.0, 1.700946918346946E9, 0.0, 2023-11-25 16:15:18.346
22.0, 8899.704682791791, 17397.033261899145, -53133.829311588925, -56279.21149482865, -47708.368028207784, -56989.84050629622, -33380.76572188923, -14031.01700914109, -0.114, 0.9500000000000001, 0.244, 192.0, 0.0, 0.0, 0.0, 0.0, 0.0, 0.0, 0.0, 0.0, 0.0, 1.700946918351704E9, 0.0, 2023-11-25 16:15:18.351
23.0, 9044.164007206442, 17434.651247817426, -53154.41526823226, -56292.264913590545, -47535.99137496846, -56870.07985950469, -33412.639309482496, -14060.16368391081, -0.114, 0.9500000000000001, 0.244, 192.0, 0.0, 0.0, 0.0, 0.0, 0.0, 0.0, 0.0, 0.0, 0.0, 1.700946918355804E9, 0.0, 2023-11-25 16:15:18.355
24.0, 9115.175499340952, 17375.732049433238, -53132.08587552141, -56320.361056370864, -47121.85825370053, -56892.364548726626, -33436.93565570541, -14090.271483692108, -0.114, 0.9500000000000001, 0.244, 192.0, 0.0, 0.0, 0.0, 0.0, 0.0, 0.0, 0.0, 0.0, 0.0, 1.700946918359772E9, 0.0, 2023-11-25 16:15:18.359
25.0, 8868.56870276555, 17363.036258582622, -53103.54269785198, -56268.147381323266, -47443.23163547894, -57117.08898748029, -33371.46739619582, -14028.625372484372, -0.114, 0.9500000000000001, 0.244, 192.0, 0.0, 0.0, 0.0, 0.0, 0.0, 0.0, 0.0, 0.0, 0.0, 1.700946918363757E9, 0.0, 2023-11-25 16:15:18.363
26.0, 8896.28486589013, 17417.373349353475, -53098.96059023865, -56256.0774393174, -47727.83639762836, -57019.948306077524, -33368.65107639445, -14034.079198131467, -0.114, 0.9500000000000001, 0.244, 192.0, 0.0, 0.0, 0.0, 0.0, 0.0, 0.0, 0.0, 0.0, 0.0, 1.700946918366918E9, 0.0, 2023-11-25 16:15:18.366
27.0, 9050.131922976008, 17467.64242263346, -53121.64761086078, -56275.09877384887, -47565.495677649466, -56885.83783934568, -33406.62669022402, -14075.184056184777, -0.114, 0.9500000000000001, 0.244, 192.0, 0.0, 0.0, 0.0, 0.0, 0.0, 0.0, 0.0, 0.0, 0.0, 1.700946918370811E9, 0.0, 2023-11-25 16:15:18.370
28.0, 9132.09576989362, 17393.233465341746, -53130.52125340954, -56333.10155071039, -47169.020434501224, -56898.06424356273, -33466.50701361978, -14142.283993039608, -0.112, 0.9540000000000001, 0.24, 192.0, 252.0, 128.0, 29.0, 208.0, 7.0, 128.0, 0.0, 0.0, 0.0, 1.700946918374835E9, 0.0, 2023-11-25 16:15:18.374
29.0, 8914.054502732099, 17355.43666546782, -53112.6845613342, -56301.11620439484, -47314.418532183, -57122.47575789401, -33423.14462937649, -14095.859419805935, -0.112, 0.9540000000000001, 0.24, 192.0, 0.0, 0.0, 0.0, 0.0, 0.0, 0.0, 0.0, 0.0, 0.0, 1.700946918379951E9, 0.0, 2023-11-25 16:15:18.379
30.0, 8871.876760944935, 17415.69696851933, -53084.76723250953, -56257.530302707, -47737.805275655424, -57087.29411212136, -33380.542204444675, -14056.810922242514, -0.112, 0.9540000000000001, 0.24, 192.0, 0.0, 0.0, 0.0, 0.0, 0.0, 0.0, 0.0, 0.0, 0.0, 1.700946918383774E9, 0.0, 2023-11-25 16:15:18.383
31.0, 9020.672323783914, 17460.802788830137, -53110.71760782214, -56275.545808737974, -47580.96308481254, -56918.650200206066, -33416.84143744009, -14094.339501182974, -0.112, 0.9540000000000001, 0.24, 192.0, 0.0, 0.0, 0.0, 0.0, 0.0, 0.0, 0.0, 0.0, 0.0, 1.700946918387813E9, 0.0, 2023-11-25 16:15:18.387
32.0, 9141.483502564848, 17433.77952978367, -53094.9819797256, -56299.81980321644, -47234.42163877746, -56880.69693812096, -33443.440013341904, -14125.07314980902, -0.112, 0.9540000000000001, 0.24, 192.0, 0.0, 0.0, 0.0, 0.0, 0.0, 0.0, 0.0, 0.0, 0.0, 1.700946918391846E9, 0.0, 2023-11-25 16:15:18.391
33.0, 8975.25357905073, 17361.225767281743, -53093.03737795799, -56303.463137562656, -47177.51409739424, -57068.96568166801, -33431.88416145851, -14114.098443281466, -0.112, 0.9540000000000001, 0.24, 192.0, 0.0, 0.0, 0.0, 0.0, 0.0, 0.0, 0.0, 0.0, 0.0, 1.700946918394869E9, 0.0, 2023-11-25 16:15:18.394
34.0, 8837.186853550298, 17394.663976986885, -53087.91882847773, -56270.49431449107, -47715.58764166685, -57130.70119985357, -33399.92116688743, -14079.676756820292, -0.112, 0.9540000000000001, 0.24, 192.0, 0.0, 0.0, 0.0, 0.0, 0.0, 0.0, 0.0, 0.0, 0.0, 1.700946918399864E9, 0.0, 2023-11-25 16:15:18.399
35.0, 8989.49164026876, 17451.817387559102, -53113.64568634578, -56283.83830593089, -47603.717160668035, -56944.868796452145, -33432.130030647524, -14108.756376356647, -0.112, 0.9540000000000001, 0.24, 192.0, 0.0, 0.0, 0.0, 0.0, 0.0, 0.0, 0.0, 0.0, 0.0, 1.700946918403921E9, 0.0, 2023-11-25 16:15:18.403
36.0, 9120.159938354485, 17446.78824505666, -53112.595154356386, -56305.63125677482, -47326.51082593332, -56887.26835099082, -33461.209650183875, -14134.706751669259, -0.112, 0.9540000000000001, 0.24, 192.0, 0.0, 0.0, 0.0, 0.0, 0.0, 0.0, 0.0, 0.0, 0.0, 1.700946918406936E9, 0.0, 2023-11-25 16:15:18.406
37.0, 9020.605268550547, 17364.53382546113, -53112.729264823116, -56321.79156801601, -47107.866061671506, -57030.18540503805, -33462.5954583401, -14129.968181844733, -0.112, 0.9540000000000001, 0.24, 192.0, 0.0, 0.0, 0.0, 0.0, 0.0, 0.0, 0.0, 0.0, 0.0, 1.700946918410906E9, 0.0, 2023-11-25 16:15:18.410
38.0, 8827.0838650565, 17395.423936298364, -53091.91979073522, -56261.88889287578, -47689.212583209584, -57153.72349664253, -33391.20398654985, -14057.727343765182, -0.11, 0.9560000000000001, 0.234, 192.0, 252.0, 144.0, 29.0, 224.0, 7.0, 80.0, 0.0, 0.0, 0.0, 1.700946918415173E9, 0.0, 2023-11-25 16:15:18.415
39.0, 8967.430468491373, 17444.46366363331, -53121.245279460585, -56280.06086111795, -47625.80068418988, -56953.00483143388, -33425.17863812192, -14091.120849981411, -0.11, 0.9560000000000001, 0.234, 192.0, 0.0, 0.0, 0.0, 0.0, 0.0, 0.0, 0.0, 0.0, 0.0, 1.700946918418991E9, 0.0, 2023-11-25 16:15:18.418
40.0, 9100.08807183362, 17460.959251041324, -53126.56499464095, -56296.80231771497, -47396.40473084507, -56880.763993354325, -33449.20676341138, -14112.802042103058, -0.11, 0.9560000000000001, 0.234, 192.0, 0.0, 0.0, 0.0, 0.0, 0.0, 0.0, 0.0, 0.0, 0.0, 1.700946918423872E9, 0.0, 2023-11-25 16:15:18.423
41.0, 9061.46425741485, 17368.288918529623, -53126.38618068531, -56332.185129187725, -47051.62907262195, -56976.09418345621, -33465.05415023019, -14129.968181844733, -0.11, 0.9560000000000001, 0.234, 192.0, 0.0, 0.0, 0.0, 0.0, 0.0, 0.0, 0.0, 0.0, 0.0, 1.700946918427936E9, 0.0, 2023-11-25 16:15:18.427
42.0, 8822.79233012108, 17394.77573570916, -53093.015026213536, -56258.424372485206, -47614.7365706845, -57158.26090076696, -33379.13404454399, -14035.666171987794, -0.11, 0.9560000000000001, 0.234, 192.0, 0.0, 0.0, 0.0, 0.0, 0.0, 0.0, 0.0, 0.0, 0.0, 1.700946918431976E9, 0.0, 2023-11-25 16:15:18.431
43.0, 8936.518005909682, 17432.661942560906, -53120.08298874891, -56280.77611694051, -47651.66165252467, -56970.48389559793, -33405.95613789036, -14059.359021110418, -0.11, 0.9560000000000001, 0.234, 192.0, 0.0, 0.0, 0.0, 0.0, 0.0, 0.0, 0.0, 0.0, 0.0, 1.700946918434997E9, 0.0, 2023-11-25 16:15:18.434
44.0, 9072.662481386958, 17459.551091140638, -53133.404628444274, -56295.550620025475, -47467.48327821294, -56879.69110962047, -33423.94929217688, -14076.771030041104, -0.11, 0.9560000000000001, 0.234, 192.0, 0.0, 0.0, 0.0, 0.0, 0.0, 0.0, 0.0, 0.0, 0.0, 1.700946918439095E9, 0.0, 2023-11-25 16:15:18.439
45.0, 9097.741138665813, 17375.061497099578, -53127.34730569689, -56337.214271690165, -47063.4084419499, -56933.78233120231, -33453.38653962452, -14111.572696158017, -0.11, 0.9560000000000001, 0.234, 192.0, 0.0, 0.0, 0.0, 0.0, 0.0, 0.0, 0.0, 0.0, 0.0, 1.700946918443098E9, 0.0, 2023-11-25 16:15:18.443
46.0, 8843.937080375801, 17379.800066924105, -53102.00042748457, -56275.00936687105, -47528.078857431276, -57154.12582804273, -33376.273021253706, -14029.161814351299, -0.11, 0.9560000000000001, 0.234, 192.0, 0.0, 0.0, 0.0, 0.0, 0.0, 0.0, 0.0, 0.0, 0.0, 1.700946918446982E9, 0.0, 2023-11-25 16:15:18.446
47.0, 8913.629819587448, 17424.391797112443, -53110.963477011144, -56278.22801807261, -47689.81608030988, -57000.99402677942, -33385.61605043603, -14041.410570312808, -0.11, 0.9560000000000001, 0.234, 192.0, 0.0, 0.0, 0.0, 0.0, 0.0, 0.0, 0.0, 0.0, 0.0, 1.700946918450971E9, 0.0, 2023-11-25 16:15:18.450
48.0, 9053.015298010743, 17465.049620276644, -53129.26955572004, -56289.247428089075, -47516.92533694808, -56885.43550794548, -33411.67818447092, -14066.891558991858, -0.12, 0.9500000000000001, 0.222, 192.0, 252.0, 64.0, 29.0, 176.0, 6.0, 240.0, 0.0, 0.0, 0.0, 1.700946918455985E9, 0.0, 2023-11-25 16:15:18.455
49.0, 9118.461205775882, 17389.232503084244, -53122.87695680583, -56333.52623385504, -47094.790291165154, -56905.66383667754, -33452.15719367948, -14111.148013013366, -0.12, 0.9500000000000001, 0.222, 192.0, 0.0, 0.0, 0.0, 0.0, 0.0, 0.0, 0.0, 0.0, 0.0, 1.700946918459988E9, 0.0, 2023-11-25 16:15:18.459
50.0, 8869.775696966135, 17358.498854458197, -53107.52130836503, -56292.890762435294, -47392.04614067628, -57138.30079296837, -33398.69182094238, -14051.759427995614, -0.12, 0.9500000000000001, 0.222, 192.0, 0.0, 0.0, 0.0, 0.0, 0.0, 0.0, 0.0, 0.0, 0.0, 1.700946918463032E9, 0.0, 2023-11-25 16:15:18.463
51.0, 8869.261606843664, 17395.759212465193, -53115.27736369102, -56291.10262287887, -47702.44481592713, -57056.20283558403, -33400.01057386525, -14053.815788485503, -0.12, 0.9500000000000001, 0.222, 192.0, 0.0, 0.0, 0.0, 0.0, 0.0, 0.0, 0.0, 0.0, 0.0, 1.700946918467012E9, 0.0, 2023-11-25 16:15:18.467
52.0, 9014.436187080883, 17444.374256655487, -53138.858454091365, -56303.39608232929, -47553.15751471013, -56912.79404315878, -33424.75395497727, -14077.396878885851, -0.12, 0.9500000000000001, 0.222, 192.0, 0.0, 0.0, 0.0, 0.0, 0.0, 0.0, 0.0, 0.0, 0.0, 1.700946918471064E9, 0.0, 2023-11-25 16:15:18.471
53.0, 9120.159938354485, 17399.424898555862, -53127.48141616362, -56335.82846353394, -47163.231332687305, -56897.617208673626, -33458.16981293796, -14114.098443281466, -0.12, 0.9500000000000001, 0.222, 192.0, 0.0, 0.0, 0.0, 0.0, 0.0, 0.0, 0.0, 0.0, 0.0, 1.700946918475024E9, 0.0, 2023-11-25 16:15:18.475
54.0, 8916.312028922084, 17358.834130625026, -53111.455215389164, -56304.89364920779, -47272.17373516247, -57109.60115308776, -33417.62374849603, -14064.365811868407, -0.12, 0.9500000000000001, 0.222, 192.0, 0.0, 0.0, 0.0, 0.0, 0.0, 0.0, 0.0, 0.0, 0.0, 1.700946918479011E9, 0.0, 2023-11-25 16:15:18.479
55.0, 8854.263586314153, 17408.96909343828, -53097.70889254915, -56264.928730121705, -47715.63234515576, -57084.34368185326, -33388.61118419304, -14035.800282454526, -0.12, 0.9500000000000001, 0.222, 192.0, 0.0, 0.0, 0.0, 0.0, 0.0, 0.0, 0.0, 0.0, 0.0, 1.700946918484082E9, 0.0, 2023-11-25 16:15:18.484
56.0, 8998.007654906232, 17451.191538714356, -53132.86818657735, -56284.79943094247, -47570.03308177389, -56910.9835518579, -33436.734490005314, -14085.30939642303, -0.12, 0.9500000000000001, 0.222, 192.0, 0.0, 0.0, 0.0, 0.0, 0.0, 0.0, 0.0, 0.0, 0.0, 1.700946918488049E9, 0.0, 2023-11-25 16:15:18.488
57.0, 9118.237688331328, 17425.867012246494, -53123.681619606214, -56307.86643122035, -47228.11844684106, -56874.43844967347, -33467.31167642018, -14123.083844552499, -0.122, 0.9560000000000001, 0.228, 192.0, 252.0, 48.0, 29.0, 224.0, 7.0, 32.0, 0.0, 0.0, 0.0, 1.700946918491067E9, 0.0, 2023-11-25 16:15:18.491
58.0, 8980.886218653468, 17376.80493316709, -53100.12288095032, -56288.30865482196, -47134.50934106223, -57043.95407962252, -33440.71310051836, -14093.870114549412, -0.122, 0.9560000000000001, 0.228, 192.0, 0.0, 0.0, 0.0, 0.0, 0.0, 0.0, 0.0, 0.0, 0.0, 1.700946918495115E9, 0.0, 2023-11-25 16:15:18.495
59.0, 8849.972051378734, 17423.92241047888, -53075.20068588266, -56237.90547107524, -47676.62855108125, -57102.8285745178, -33391.6286696945, -14042.68461974676, -0.122, 0.9560000000000001, 0.228, 192.0, 0.0, 0.0, 0.0, 0.0, 0.0, 0.0, 0.0, 0.0, 0.0, 1.700946918499141E9, 0.0, 2023-11-25 16:15:18.499
60.0, 8991.860925181023, 17459.752256840737, -53112.6845613342, -56269.04145110148, -47569.541343395875, -56922.82997641921, -33434.47696381533, -14090.807925559036, -0.122, 0.9560000000000001, 0.228, 192.0, 0.0, 0.0, 0.0, 0.0, 0.0, 0.0, 0.0, 0.0, 0.0, 1.700946918503136E9, 0.0, 2023-11-25 16:15:18.503
61.0, 9127.625421002558, 17454.79016957166, -53106.40372114226, -56286.16288735424, -47296.5147848743, -56866.79415306976, -33453.163022179964, -14115.551306671061, -0.122, 0.9560000000000001, 0.228, 192.0, 0.0, 0.0, 0.0, 0.0, 0.0, 0.0, 0.0, 0.0, 0.0, 1.700946918507193E9, 0.0, 2023-11-25 16:15:18.507
62.0, 9045.773332807223, 17378.168389578866, -53095.76429078154, -56298.56810552694, -47052.903122055905, -56994.10968948719, -33450.12318493405, -14110.544515913072, -0.122, 0.9560000000000001, 0.228, 192.0, 0.0, 0.0, 0.0, 0.0, 0.0, 0.0, 0.0, 0.0, 0.0, 1.700946918512117E9, 0.0, 2023-11-25 16:15:18.512
63.0, 8839.757304162658, 17406.488049803742, -53076.0277004275, -56241.70526763264, -47633.82496044934, -57129.360095186246, -33384.587870191084, -14042.282288346565, -0.122, 0.9560000000000001, 0.228, 192.0, 0.0, 0.0, 0.0, 0.0, 0.0, 0.0, 0.0, 0.0, 0.0, 1.700946918516109E9, 0.0, 2023-11-25 16:15:18.516
64.0, 8968.883331880967, 17437.132291451966, -53115.76910206903, -56275.076422104416, -47587.89212559368, -56941.20311036147, -33426.676205000425, -14085.175285956298, -0.122, 0.9560000000000001, 0.228, 192.0, 0.0, 0.0, 0.0, 0.0, 0.0, 0.0, 0.0, 0.0, 0.0, 1.700946918519106E9, 0.0, 2023-11-25 16:15:18.519
65.0, 9103.932571879932, 17454.991335271756, -53119.68065734871, -56287.302826321466, -47372.06368113324, -56872.42679267249, -33445.58578080962, -14103.88369606539, -0.122, 0.9560000000000001, 0.228, 192.0, 0.0, 0.0, 0.0, 0.0, 0.0, 0.0, 0.0, 0.0, 0.0, 1.700946918523126E9, 0.0, 2023-11-25 16:15:18.523
66.0, 9082.363138480561, 17373.76509592117, -53109.19768919917, -56310.794509743995, -47014.12284542595, -56953.943604701, -33457.38750188202, -14116.400672960362, -0.122, 0.9560000000000001, 0.228, 192.0, 0.0, 0.0, 0.0, 0.0, 0.0, 0.0, 0.0, 0.0, 0.0, 1.700946918527133E9, 0.0, 2023-11-25 16:15:18.527
67.0, 8832.560042448049, 17390.797125196117, -53086.1306889213, -56247.04733455746, -47562.209971214535, -57145.229833749516, -33379.759893388735, -14034.369770809386, -0.114, 0.9540000000000001, 0.23600000000000002, 192.0, 252.0, 112.0, 29.0, 208.0, 7.0, 96.0, 0.0, 0.0, 0.0, 1.700946918531329E9, 0.0, 2023-11-25 16:15:18.531
68.0, 8937.322668710074, 17428.526869836674, -53113.80214855697, -56271.366032524835, -47621.15152134318, -56971.445020609506, -33405.911434401445, -14066.69039329176, -0.114, 0.9540000000000001, 0.23600000000000002, 192.0, 0.0, 0.0, 0.0, 0.0, 0.0, 0.0, 0.0, 0.0, 0.0, 1.700946918535186E9, 0.0, 2023-11-25 16:15:18.535
69.0, 9067.141600506497, 17449.805730558128, -53133.65049763328, -56292.60018975737, -47441.21997847796, -56883.78147885579, -33429.067841657146, -14094.138335482876, -0.114, 0.9540000000000001, 0.23600000000000002, 192.0, 0.0, 0.0, 0.0, 0.0, 0.0, 0.0, 0.0, 0.0, 0.0, 1.700946918540243E9, 0.0, 2023-11-25 16:15:18.540
70.0, 9097.987007854821, 17366.277261528645, -53125.9391457962, -56331.51457685406, -47031.71366831227, -56929.98253464491, -33453.49829834679, -14123.530879441605, -0.114, 0.9540000000000001, 0.23600000000000002, 192.0, 0.0, 0.0, 0.0, 0.0, 0.0, 0.0, 0.0, 0.0, 0.0, 1.700946918544247E9, 0.0, 2023-11-25 16:15:18.544
71.0, 8842.148940819376, 17364.422066738854, -53101.0840059619, -56272.50597149205, -47467.5056299574, -57149.02963030692, -33377.77058813222, -14041.075294145978, -0.114, 0.9540000000000001, 0.23600000000000002, 192.0, 0.0, 0.0, 0.0, 0.0, 0.0, 0.0, 0.0, 0.0, 0.0, 1.700946918547177E9, 0.0, 2023-11-25 16:15:18.547
72.0, 8907.930124751345, 17416.389872597443, -53105.19672694168, -56272.550674980965, -47650.85698972428, -57002.67040761357, -33375.22248926431, -14038.97423016718, -0.114, 0.9540000000000001, 0.23600000000000002, 192.0, 0.0, 0.0, 0.0, 0.0, 0.0, 0.0, 0.0, 0.0, 0.0, 1.700946918551165E9, 0.0, 2023-11-25 16:15:18.551
73.0, 9043.31464091714, 17455.34896318304, -53134.16458775575, -56299.30571309396, -47492.58428723625, -56887.06718529072, -33406.93961464639, -14066.891558991858, -0.114, 0.9540000000000001, 0.23600000000000002, 192.0, 0.0, 0.0, 0.0, 0.0, 0.0, 0.0, 0.0, 0.0, 0.0, 1.700946918555322E9, 0.0, 2023-11-25 16:15:18.555
74.0, 9116.807176686189, 17380.761191935682, -53134.76808485605, -56350.17828347425, -47081.155727047415, -56906.73672041139, -33455.88993500351, -14120.245173006675, -0.114, 0.9540000000000001, 0.23600000000000002, 192.0, 0.0, 0.0, 0.0, 0.0, 0.0, 0.0, 0.0, 0.0, 0.0, 1.700946918559236E9, 0.0, 2023-11-25 16:15:18.559
75.0, 8876.57062728055, 17360.95754634828, -53112.84102354539, -56301.04914916148, -47351.29891053426, -57135.66328712265, -33400.18938782089, -14059.001393199134, -0.114, 0.9540000000000001, 0.23600000000000002, 192.0, 0.0, 0.0, 0.0, 0.0, 0.0, 0.0, 0.0, 0.0, 0.0, 1.700946918563834E9, 0.0, 2023-11-25 16:15:18.563
76.0, 8875.52009529115, 17417.01572144219, -53103.27447691852, -56275.56816048243, -47677.58967609283, -57053.297108804836, -33390.9804691053, -14047.311430849008, -0.114, 0.9540000000000001, 0.23600000000000002, 192.0, 0.0, 0.0, 0.0, 0.0, 0.0, 0.0, 0.0, 0.0, 0.0, 1.700946918567238E9, 0.0, 2023-11-25 16:15:18.567
77.0, 9022.013428451231, 17464.80375108764, -53129.627183631324, -56289.44859378917, -47523.76497075141, -56903.830993632204, -33429.62663526853, -14082.068393477011, -0.112, 0.9580000000000001, 0.23600000000000002, 192.0, 252.0, 128.0, 29.0, 240.0, 7.0, 96.0, 0.0, 0.0, 0.0, 1.700946918572281E9, 0.0, 2023-11-25 16:15:18.572
78.0, 9142.176406642962, 17430.24795415973, -53110.87407003332, -56311.6438760333, -47131.201282882845, -56877.902970064046, -33463.24365892931, -14115.953638071256, -0.112, 0.9580000000000001, 0.23600000000000002, 192.0, 0.0, 0.0, 0.0, 0.0, 0.0, 0.0, 0.0, 0.0, 0.0, 1.700946918575272E9, 0.0, 2023-11-25 16:15:18.575
79.0, 8946.57629091457, 17385.700927460304, -53097.17245068222, -56285.09000362039, -47199.86584184955, -57081.79558298535, -33432.264141114254, -14079.721460309203, -0.112, 0.9580000000000001, 0.23600000000000002, 192.0, 0.0, 0.0, 0.0, 0.0, 0.0, 0.0, 0.0, 0.0, 0.0, 1.700946918579366E9, 0.0, 2023-11-25 16:15:18.579
80.0, 8879.47635405974, 17439.948611253334, -53075.737127749584, -56239.93947982067, -47657.42840259414, -57072.13962938066, -33392.478035983804, -14044.361000580908, -0.112, 0.9580000000000001, 0.23600000000000002, 192.0, 0.0, 0.0, 0.0, 0.0, 0.0, 0.0, 0.0, 0.0, 0.0, 1.700946918583266E9, 0.0, 2023-11-25 16:15:18.583
81.0, 9034.955088490855, 17489.100097310555, -53103.1850699407, -56254.78103813899, -47521.17216839459, -56892.96804582692, -33428.86667595705, -14079.721460309203, -0.112, 0.9580000000000001, 0.23600000000000002, 192.0, 0.0, 0.0, 0.0, 0.0, 0.0, 0.0, 0.0, 0.0, 0.0, 1.70094691858736E9, 0.0, 2023-11-25 16:15:18.587
82.0, 9156.034488205254, 17456.13127423898, -53101.62044782883, -56288.0851373774, -47196.96011507036, -56857.78640005427, -33468.65278108749, -14119.194641017277, -0.112, 0.9580000000000001, 0.23600000000000002, 192.0, 0.0, 0.0, 0.0, 0.0, 0.0, 0.0, 0.0, 0.0, 0.0, 1.700946918591333E9, 0.0, 2023-11-25 16:15:18.591
83.0, 9008.222402122308, 17388.67370947286, -53091.22688665711, -56287.302826321466, -47085.98370384976, -57029.26898351539, -33454.72764429184, -14101.067376264022, -0.112, 0.9580000000000001, 0.23600000000000002, 192.0, 0.0, 0.0, 0.0, 0.0, 0.0, 0.0, 0.0, 0.0, 0.0, 1.700946918595328E9, 0.0, 2023-11-25 16:15:18.595
84.0, 8857.75045844918, 17434.07010246159, -53066.103525889346, -56234.19508149566, -47638.63058550723, -57101.48746985048, -33392.008649350246, -14038.191919111243, -0.112, 0.9580000000000001, 0.23600000000000002, 192.0, 0.0, 0.0, 0.0, 0.0, 0.0, 0.0, 0.0, 0.0, 0.0, 1.700946918598301E9, 0.0, 2023-11-25 16:15:18.598
85.0, 9004.601419520548, 17473.722097125305, -53100.346398394875, -56260.592491697374, -47538.51712209191, -56909.0836535792, -33420.79769620868, -14074.088820706465, -0.112, 0.9580000000000001, 0.23600000000000002, 192.0, 0.0, 0.0, 0.0, 0.0, 0.0, 0.0, 0.0, 0.0, 0.0, 1.700946918602295E9, 0.0, 2023-11-25 16:15:18.602
86.0, 9129.257098347796, 17462.389762686464, -53107.94599150968, -56289.9850356561, -47268.95508396091, -56853.31605116321, -33456.67224605945, -14111.907972324845, -0.112, 0.9580000000000001, 0.23600000000000002, 192.0, 0.0, 0.0, 0.0, 0.0, 0.0, 0.0, 0.0, 0.0, 0.0, 1.700946918607313E9, 0.0, 2023-11-25 16:15:18.607
87.0, 9053.998774766776, 17385.767982693673, -53101.06165421745, -56306.033588175014, -47006.16562439986, -56986.51009637238, -33464.6965223189, -14116.333617726998, -0.114, 0.96, 0.232, 192.0, 252.0, 112.0, 30.0, 0.0, 7.0, 64.0, 0.0, 0.0, 0.0, 1.700946918611351E9, 0.0, 2023-11-25 16:15:18.611
88.0, 8854.040068869599, 17429.040959959148, -53067.198761367654, -56232.04931402794, -47582.99709355797, -57120.419397404126, -33385.81721613613, -14030.167642851788, -0.114, 0.96, 0.232, 192.0, 0.0, 0.0, 0.0, 0.0, 0.0, 0.0, 0.0, 0.0, 0.0, 1.700946918615339E9, 0.0, 2023-11-25 16:15:18.615
89.0, 8990.184544346876, 17475.174960514898, -53090.51163083454, -56245.907395590235, -47553.805715299335, -56925.06515086474, -33410.3370798036, -14060.1189804219, -0.114, 0.96, 0.232, 192.0, 0.0, 0.0, 0.0, 0.0, 0.0, 0.0, 0.0, 0.0, 0.0, 1.700946918619343E9, 0.0, 2023-11-25 16:15:18.619
90.0, 9125.680819234947, 17493.57044620162, -53093.99850296957, -56258.33496550739, -47341.06181157372, -56843.77185628079, -33425.9385974334, -14080.9731579987, -0.114, 0.96, 0.232, 192.0, 0.0, 0.0, 0.0, 0.0, 0.0, 0.0, 0.0, 0.0, 0.0, 1.700946918623358E9, 0.0, 2023-11-25 16:15:18.623
91.0, 9103.306723035184, 17404.2081718693, -53090.17635466771, -56295.66237874775, -46969.665225704346, -56925.914517154044, -33446.390443610006, -14104.867172821425, -0.114, 0.96, 0.232, 192.0, 0.0, 0.0, 0.0, 0.0, 0.0, 0.0, 0.0, 0.0, 0.0, 1.70094691862639E9, 0.0, 2023-11-25 16:15:18.626
92.0, 8845.546405976584, 17402.621198012974, -53081.12389816331, -56252.03177357099, -47499.64743848413, -57130.902365553666, -33383.537338201684, -14038.035456900056, -0.114, 0.96, 0.232, 192.0, 0.0, 0.0, 0.0, 0.0, 0.0, 0.0, 0.0, 0.0, 0.0, 1.700946918630721E9, 0.0, 2023-11-25 16:15:18.630
93.0, 8944.966965313788, 17439.07689321958, -53106.82840428691, -56276.37282328282, -47583.1312040247, -56967.75698277438, -33407.096076857575, -14064.902253735336, -0.114, 0.96, 0.232, 192.0, 0.0, 0.0, 0.0, 0.0, 0.0, 0.0, 0.0, 0.0, 0.0, 1.700946918634426E9, 0.0, 2023-11-25 16:15:18.634
94.0, 9062.783010337713, 17459.59579462955, -53132.935241810716, -56308.42522483173, -47410.352219385175, -56879.31112996473, -33438.701443517384, -14097.491097151173, -0.114, 0.96, 0.232, 192.0, 0.0, 0.0, 0.0, 0.0, 0.0, 0.0, 0.0, 0.0, 0.0, 1.700946918639402E9, 0.0, 2023-11-25 16:15:18.639
95.0, 9109.788728927222, 17395.178067109355, -53108.92946826571, -56335.96257400067, -46991.167603870344, -56915.6327147046, -33451.95602797938, -14111.773861858113, -0.114, 0.96, 0.232, 192.0, 0.0, 0.0, 0.0, 0.0, 0.0, 0.0, 0.0, 0.0, 0.0, 1.700946918643412E9, 0.0, 2023-11-25 16:15:18.643
96.0, 8859.739763705702, 17388.606654239495, -53087.71766277763, -56280.06086111795, -47396.27062037833, -57134.322182455326, -33382.39739923446, -14033.810977198003, -0.114, 0.96, 0.232, 192.0, 0.0, 0.0, 0.0, 0.0, 0.0, 0.0, 0.0, 0.0, 0.0, 1.700946918647443E9, 0.0, 2023-11-25 16:15:18.647
97.0, 8909.025360229654, 17427.856317503014, -53102.20159318466, -56282.45249777466, -47603.18071880111, -57002.91627680258, -33391.13693131649, -14041.276459846076, -0.114, 0.96, 0.234, 192.0, 252.0, 112.0, 30.0, 0.0, 7.0, 80.0, 0.0, 0.0, 0.0, 1.700946918651528E9, 0.0, 2023-11-25 16:15:18.651
98.0, 9045.348649662572, 17468.51414066722, -53130.36479119835, -56298.076367148926, -47449.31130997078, -56884.340272467176, -33419.680108985915, -14059.9178147218, -0.114, 0.96, 0.234, 192.0, 0.0, 0.0, 0.0, 0.0, 0.0, 0.0, 0.0, 0.0, 0.0, 1.700946918655066E9, 0.0, 2023-11-25 16:15:18.655
99.0, 9123.646810489514, 17404.72226199177, -53123.74867483958, -56335.113207711365, -47033.121828212956, -56889.95056032546, -33459.15328969399, -14096.440565161773, -0.114, 0.96, 0.234, 192.0, 0.0, 0.0, 0.0, 0.0, 0.0, 0.0, 0.0, 0.0, 0.0, 1.700946918658455E9, 0.0, 2023-11-25 16:15:18.658
100.0, 8885.913656462868, 17375.083848844035, -53110.471738633125, -56294.85771594736, -47278.94631373243, -57115.39025490168, -33410.7841146927, -14043.019895913589, -0.114, 0.96, 0.234, 192.0, 0.0, 0.0, 0.0, 0.0, 0.0, 0.0, 0.0, 0.0, 0.0, 1.700946918662479E9, 0.0, 2023-11-25 16:15:18.662
101.0, 8875.765964480159, 17420.0108551992, -53110.38233165531, -56278.13861109479, -47639.032916907425, -57054.43704777206, -33404.90560590096, -14042.796378469036, -0.114, 0.96, 0.234, 192.0, 0.0, 0.0, 0.0, 0.0, 0.0, 0.0, 0.0, 0.0, 0.0, 1.70094691866746E9, 0.0, 2023-11-25 16:15:18.667
102.0, 9017.610134793536, 17464.446123176353, -53139.908986080765, -56295.01417815855, -47504.00602865291, -56914.44807224847, -33446.90453373248, -14088.21512320222, -0.114, 0.96, 0.234, 192.0, 0.0, 0.0, 0.0, 0.0, 0.0, 0.0, 0.0, 0.0, 0.0, 1.700946918671583E9, 0.0, 2023-11-25 16:15:18.671
103.0, 9136.052028662209, 17437.959305996814, -53115.12090147983, -56308.60403878737, -47115.28684083067, -56881.30043522125, -33469.77036831026, -14117.115928782932, -0.114, 0.96, 0.234, 192.0, 0.0, 0.0, 0.0, 0.0, 0.0, 0.0, 0.0, 0.0, 0.0, 1.700946918675467E9, 0.0, 2023-11-25 16:15:18.675
104.0, 8955.271119507684, 17397.72616597726, -53091.69627329067, -56274.450573259666, -47140.656070787445, -57071.31261483581, -33430.163077135454, -14075.474628862696, -0.114, 0.96, 0.234, 192.0, 0.0, 0.0, 0.0, 0.0, 0.0, 0.0, 0.0, 0.0, 0.0, 1.700946918679529E9, 0.0, 2023-11-25 16:15:18.679
105.0, 8871.362670822462, 17440.641515331452, -53077.189991139174, -56236.27379373, -47607.60636420326, -57073.68189974808, -33397.4848267418, -14044.629221514371, -0.114, 0.96, 0.234, 192.0, 0.0, 0.0, 0.0, 0.0, 0.0, 0.0, 0.0, 0.0, 0.0, 1.700946918682512E9, 0.0, 2023-11-25 16:15:18.682
106.0, 9020.918192972922, 17494.531571213196, -53101.285171662, -56247.315555490924, -47488.24804881192, -56899.628865674604, -33430.386594580006, -14081.710765565726, -0.114, 0.96, 0.234, 192.0, 0.0, 0.0, 0.0, 0.0, 0.0, 0.0, 0.0, 0.0, 0.0, 1.700946918686578E9, 0.0, 2023-11-25 16:15:18.686
107.0, 9152.90524398151, 17480.762896628727, -53088.56702906693, -56263.76643941003, -47168.23812344529, -56843.30246964723, -33457.67807455994, -14108.354044956452, -0.114, 0.96, 0.23600000000000002, 192.0, 252.0, 112.0, 30.0, 0.0, 7.0, 96.0, 0.0, 0.0, 0.0, 1.700946918690614E9, 0.0, 2023-11-25 16:15:18.690
108.0, 9028.629544810003, 17418.78150925416, -53070.66328175823, -56255.58570093939, -47022.21417691877, -56994.84729705421, -33437.025062683235, -14081.39784114335, -0.114, 0.96, 0.23600000000000002, 192.0, 0.0, 0.0, 0.0, 0.0, 0.0, 0.0, 0.0, 0.0, 0.0, 1.700946918694547E9, 0.0, 2023-11-25 16:15:18.694
109.0, 8874.715432490759, 17457.047695761645, -53049.876159414795, -56203.193211936145, -47575.621017887715, -57076.31940559381, -33376.965925331824, -14022.67980845926, -0.114, 0.96, 0.23600000000000002, 192.0, 0.0, 0.0, 0.0, 0.0, 0.0, 0.0, 0.0, 0.0, 0.0, 1.700946918699298E9, 0.0, 2023-11-25 16:15:18.699
110.0, 9010.725797501302, 17487.80369613215, -53094.669055303224, -56238.21839549761, -47494.528889003865, -56897.0807668067, -33422.205856109365, -14068.947919481745, -0.114, 0.96, 0.23600000000000002, 192.0, 0.0, 0.0, 0.0, 0.0, 0.0, 0.0, 0.0, 0.0, 0.0, 1.700946918703713E9, 0.0, 2023-11-25 16:15:18.703
111.0, 9144.500988066315, 17492.341100256577, -53094.199668669666, -56255.2280730281, -47244.390516804524, -56838.40743761152, -33442.18831565241, -14088.21512320222, -0.114, 0.96, 0.23600000000000002, 192.0, 0.0, 0.0, 0.0, 0.0, 0.0, 0.0, 0.0, 0.0, 0.0, 1.700946918707587E9, 0.0, 2023-11-25 16:15:18.707
112.0, 9080.552647179682, 17410.377253338964, -53090.73514827909, -56278.94327389518, -46960.50101047767, -56957.519883813846, -33448.625618055536, -14093.93716978278, -0.114, 0.96, 0.23600000000000002, 192.0, 0.0, 0.0, 0.0, 0.0, 0.0, 0.0, 0.0, 0.0, 0.0, 1.70094691871063E9, 0.0, 2023-11-25 16:15:18.710
113.0, 8853.905958402867, 17433.667771061395, -53076.20651438314, -56224.78499707997, -47539.1206191922, -57113.51270836744, -33381.52568120071, -14021.562221236494, -0.114, 0.96, 0.23600000000000002, 192.0, 0.0, 0.0, 0.0, 0.0, 0.0, 0.0, 0.0, 0.0, 0.0, 1.70094691871461E9, 0.0, 2023-11-25 16:15:18.714
114.0, 8974.20304706133, 17477.298376238155, -53106.09079671989, -56242.39817171075, -47547.54722685185, -56935.190491103, -33413.33221356061, -14050.038343672555, -0.114, 0.96, 0.23600000000000002, 192.0, 0.0, 0.0, 0.0, 0.0, 0.0, 0.0, 0.0, 0.0, 0.0, 1.70094691871864E9, 0.0, 2023-11-25 16:15:18.718
115.0, 9116.941287152922, 17504.791021918183, -53108.46008163215, -56247.36025897983, -47356.238646058875, -56847.482245860374, -33430.07367015763, -14061.795361256047, -0.114, 0.96, 0.23600000000000002, 192.0, 0.0, 0.0, 0.0, 0.0, 0.0, 0.0, 0.0, 0.0, 0.0, 1.700946918722664E9, 0.0, 2023-11-25 16:15:18.722
116.0, 9110.593391727614, 17419.072081932078, -53102.715683307135, -56286.47581177662, -46965.84307740248, -56918.53844148379, -33452.42541461294, -14085.622320845405, -0.114, 0.96, 0.23600000000000002, 192.0, 0.0, 0.0, 0.0, 0.0, 0.0, 0.0, 0.0, 0.0, 0.0, 1.70094691872763E9, 0.0, 2023-11-25 16:15:18.727
117.0, 8859.471542772239, 17437.109939707512, -53076.0277004275, -56225.768473836004, -47471.61835093718, -57120.0841212373, -33369.85807059504, -14001.065671570977, -0.11, 0.96, 0.232, 192.0, 252.0, 144.0, 30.0, 0.0, 7.0, 64.0, 0.0, 0.0, 0.0, 1.70094691873168E9, 0.0, 2023-11-25 16:15:18.731
118.0, 8947.492712437239, 17468.782361600683, -53108.862413032344, -56252.67997416019, -47574.2799132204, -56971.489724098414, -33401.53049248821, -14037.767235966592, -0.11, 0.96, 0.232, 192.0, 0.0, 0.0, 0.0, 0.0, 0.0, 0.0, 0.0, 0.0, 0.0, 1.700946918735641E9, 0.0, 2023-11-25 16:15:18.735
119.0, 9087.74990889429, 17510.781289432205, -53118.18309047021, -56256.45741897314, -47417.92946075553, -56873.23145547289, -33427.011481167254, -14060.811884500014, -0.11, 0.96, 0.232, 192.0, 0.0, 0.0, 0.0, 0.0, 0.0, 0.0, 0.0, 0.0, 0.0, 1.700946918738643E9, 0.0, 2023-11-25 16:15:18.738
120.0, 9142.958717698899, 17441.02149498719, -53102.46981411813, -56290.655587989764, -46985.71377822325, -56895.180868528, -33453.878278002536, -14094.0265767606, -0.11, 0.96, 0.232, 192.0, 0.0, 0.0, 0.0, 0.0, 0.0, 0.0, 0.0, 0.0, 0.0, 1.700946918742693E9, 0.0, 2023-11-25 16:15:18.742
121.0, 8879.431650570828, 17425.643494801938, -53088.097642433364, -56245.013325812026, -47353.95876812444, -57117.02193224692, -33385.10196031356, -14023.082139859456, -0.11, 0.96, 0.232, 192.0, 0.0, 0.0, 0.0, 0.0, 0.0, 0.0, 0.0, 0.0, 0.0, 1.700946918746718E9, 0.0, 2023-11-25 16:15:18.746
122.0, 8918.591906856527, 17464.826102832092, -53097.2842094045, -56243.47105544461, -47582.32654122431, -56998.93766628953, -33386.331306258595, -14022.478642759163, -0.11, 0.96, 0.232, 192.0, 0.0, 0.0, 0.0, 0.0, 0.0, 0.0, 0.0, 0.0, 0.0, 1.700946918750744E9, 0.0, 2023-11-25 16:15:18.750
123.0, 9048.276728186218, 17504.947484129367, -53123.771026584036, -56258.60318644085, -47445.511513413374, -56878.35000495315, -33411.47701877082, -14042.036419157555, -0.11, 0.96, 0.232, 192.0, 0.0, 0.0, 0.0, 0.0, 0.0, 0.0, 0.0, 0.0, 0.0, 1.70094691875472E9, 0.0, 2023-11-25 16:15:18.754
124.0, 9133.794502472223, 17445.35773341152, -53109.95764851066, -56297.227000859624, -47027.24331942121, -56871.48801940537, -33440.55663830717, -14070.378431126885, -0.11, 0.96, 0.232, 192.0, 0.0, 0.0, 0.0, 0.0, 0.0, 0.0, 0.0, 0.0, 0.0, 1.700946918759825E9, 0.0, 2023-11-25 16:15:18.759
125.0, 8904.845584016513, 17414.735843507748, -53093.75263378056, -56266.403945255755, -47225.45858925088, -57092.30090287935, -33389.0805708266, -14011.883915887347, -0.11, 0.96, 0.232, 192.0, 0.0, 0.0, 0.0, 0.0, 0.0, 0.0, 0.0, 0.0, 0.0, 1.70094691876477E9, 0.0, 2023-11-25 16:15:18.764
126.0, 8889.691101275814, 17473.945614569857, -53075.379499838295, -56234.731523362585, -47606.68994268059, -57039.99782085393, -33359.46450942332, -13990.180372021243, -0.11, 0.96, 0.232, 192.0, 0.0, 0.0, 0.0, 0.0, 0.0, 0.0, 0.0, 0.0, 0.0, 1.700946918768798E9, 0.0, 2023-11-25 16:15:18.768
127.0, 9038.061980970142, 17528.0368361517, -53099.04999721647, -56248.41079096923, -47485.58819122174, -56889.704691136445, -33394.02030635122, -14032.58163125296, -0.114, 0.964, 0.232, 192.0, 252.0, 112.0, 30.0, 32.0, 7.0, 64.0, 0.0, 0.0, 0.0, 1.700946918771795E9, 0.0, 2023-11-25 16:15:18.771
128.0, 9156.749744027824, 17488.206027532342, -53090.198706412164, -56283.458326275155, -47112.42581754039, -56867.73292633688, -33435.32633010463, -14085.890541778868, -0.114, 0.964, 0.232, 192.0, 0.0, 0.0, 0.0, 0.0, 0.0, 0.0, 0.0, 0.0, 0.0, 1.700946918774737E9, 0.0, 2023-11-25 16:15:18.774
129.0, 8985.0212913777, 17437.467567618798, -53070.55152303595, -56258.24555852957, -47106.23438432627, -57056.225187328484, -33403.56450123364, -14055.000430941634, -0.114, 0.964, 0.232, 192.0, 0.0, 0.0, 0.0, 0.0, 0.0, 0.0, 0.0, 0.0, 0.0, 1.700946918778751E9, 0.0, 2023-11-25 16:15:18.778
130.0, 8885.131345406931, 17476.56076867113, -53058.30276707444, -56220.806386566925, -47587.46744244903, -57076.00648117143, -33370.43921595087, -14021.003427625112, -0.114, 0.964, 0.232, 192.0, 0.0, 0.0, 0.0, 0.0, 0.0, 0.0, 0.0, 0.0, 0.0, 1.700946918782772E9, 0.0, 2023-11-25 16:15:18.782
131.0, 9026.886108742488, 17528.32740882962, -53088.92465697821, -56235.64794488525, -47492.62899072516, -56912.50347048086, -33405.486751256794, -14055.201596641731, -0.114, 0.964, 0.232, 192.0, 0.0, 0.0, 0.0, 0.0, 0.0, 0.0, 0.0, 0.0, 0.0, 1.700946918786783E9, 0.0, 2023-11-25 16:15:18.786
132.0, 9160.169560929486, 17519.09613836958, -53078.06170917294, -56253.3281747494, -47186.5889056431, -56853.226644185386, -33434.3428533486, -14082.135448710376, -0.114, 0.964, 0.232, 192.0, 0.0, 0.0, 0.0, 0.0, 0.0, 0.0, 0.0, 0.0, 0.0, 1.700946918791805E9, 0.0, 2023-11-25 16:15:18.791
133.0, 9044.946318262377, 17448.576384613083, -53067.31052008993, -56255.38453523929, -46997.53785104011, -56994.51202088738, -33419.680108985915, -14065.148122924344, -0.114, 0.964, 0.232, 192.0, 0.0, 0.0, 0.0, 0.0, 0.0, 0.0, 0.0, 0.0, 0.0, 1.700946918794789E9, 0.0, 2023-11-25 16:15:18.794
134.0, 8875.296577846597, 17477.45483844934, -53054.480618772584, -56207.75296780503, -47543.99329948346, -57087.562333054826, -33364.76187285923, -14009.20170655271, -0.114, 0.964, 0.232, 192.0, 0.0, 0.0, 0.0, 0.0, 0.0, 0.0, 0.0, 0.0, 0.0, 1.700946918798975E9, 0.0, 2023-11-25 16:15:18.798
135.0, 9003.573239275604, 17513.2846848112, -53095.518421592526, -56236.407904196734, -47496.38408379365, -56920.97478162942, -33407.67722221342, -14051.49120706215, -0.114, 0.964, 0.232, 192.0, 0.0, 0.0, 0.0, 0.0, 0.0, 0.0, 0.0, 0.0, 0.0, 1.700946918802935E9, 0.0, 2023-11-25 16:15:18.802
136.0, 9141.61761303158, 17519.69963546987, -53099.56408733894, -56257.306785262444, -47259.433240822946, -56856.6688128315, -33435.840420227105, -14081.576655098994, -0.114, 0.964, 0.232, 192.0, 0.0, 0.0, 0.0, 0.0, 0.0, 0.0, 0.0, 0.0, 0.0, 1.700946918806911E9, 0.0, 2023-11-25 16:15:18.806
137.0, 9091.437946729417, 17440.35094265353, -53086.75653776605, -56273.71296569264, -46939.177446267306, -56950.03204942132, -33440.0425481847, -14087.186942957276, -0.124, 0.966, 0.23600000000000002, 192.0, 252.0, 32.0, 30.0, 48.0, 7.0, 96.0, 0.0, 0.0, 0.0, 1.70094691881096E9, 0.0, 2023-11-25 16:15:18.810
138.0, 8863.271339329642, 17459.21581497381, -53064.53890377747, -56210.99397075105, -47499.17805185057, -57097.84413550427, -33369.99218106177, -14010.72162517567, -0.124, 0.966, 0.23600000000000002, 192.0, 0.0, 0.0, 0.0, 0.0, 0.0, 0.0, 0.0, 0.0, 0.0, 1.700946918814871E9, 0.0, 2023-11-25 16:15:18.814
139.0, 8981.690881453858, 17499.65012069346, -53093.52911633601, -56229.344752948855, -47542.74160179396, -56929.759017200355, -33402.29045179969, -14038.795416211537, -0.124, 0.966, 0.23600000000000002, 192.0, 0.0, 0.0, 0.0, 0.0, 0.0, 0.0, 0.0, 0.0, 0.0, 1.700946918820023E9, 0.0, 2023-11-25 16:15:18.820
140.0, 9126.530185524249, 17533.64712400998, -53095.585476825894, -56239.04541004246, -47375.975236412916, -56843.280117902774, -33424.06105089916, -14058.956689710223, -0.124, 0.966, 0.23600000000000002, 192.0, 0.0, 0.0, 0.0, 0.0, 0.0, 0.0, 0.0, 0.0, 0.0, 1.700946918822867E9, 0.0, 2023-11-25 16:15:18.822
141.0, 9122.70803722239, 17425.53173607966, -53108.08010197641, -56300.177431127726, -46961.17156281132, -56901.97579884241, -33462.66251357347, -14107.12469901141, -0.124, 0.966, 0.23600000000000002, 192.0, 0.0, 0.0, 0.0, 0.0, 0.0, 0.0, 0.0, 0.0, 0.0, 1.700946918826907E9, 0.0, 2023-11-25 16:15:18.826
142.0, 8863.964243407756, 17428.929201236868, -53088.49997383356, -56245.281546745486, -47440.59412963321, -57108.192993187076, -33388.34296325957, -14028.938296906746, -0.124, 0.966, 0.23600000000000002, 192.0, 0.0, 0.0, 0.0, 0.0, 0.0, 0.0, 0.0, 0.0, 0.0, 1.700946918830922E9, 0.0, 2023-11-25 16:15:18.830
143.0, 8952.298337495129, 17482.46162920733, -53095.00433147005, -56245.66152640123, -47586.886297093195, -56960.112686170665, -33395.65198369646, -14038.817767955992, -0.124, 0.966, 0.23600000000000002, 192.0, 0.0, 0.0, 0.0, 0.0, 0.0, 0.0, 0.0, 0.0, 0.0, 1.700946918834897E9, 0.0, 2023-11-25 16:15:18.834
144.0, 9094.053100830686, 17531.881336198014, -53100.905192006256, -56246.46618920162, -47456.37446121866, -56852.42198138499, -33409.01832688074, -14053.815788485503, -0.124, 0.966, 0.23600000000000002, 192.0, 0.0, 0.0, 0.0, 0.0, 0.0, 0.0, 0.0, 0.0, 0.0, 1.700946918838977E9, 0.0, 2023-11-25 16:15:18.838
145.0, 9165.131648198563, 17454.343134682553, -53082.867334230825, -56282.81012568595, -47002.924621453836, -56857.0711442317, -33437.583856294616, -14087.231646446187, -0.124, 0.966, 0.23600000000000002, 192.0, 0.0, 0.0, 0.0, 0.0, 0.0, 0.0, 0.0, 0.0, 0.0, 1.700946918842912E9, 0.0, 2023-11-25 16:15:18.842
146.0, 8904.555011338594, 17421.508422077706, -53076.05005217196, -56250.601261925854, -47327.04726780025, -57079.56040853982, -33386.44306498087, -14031.709913219203, -0.124, 0.966, 0.23600000000000002, 192.0, 0.0, 0.0, 0.0, 0.0, 0.0, 0.0, 0.0, 0.0, 0.0, 1.700946918846907E9, 0.0, 2023-11-25 16:15:18.846
147.0, 8932.226470974263, 17469.408210445432, -53077.99465393957, -56244.00749731153, -47604.61123044625, -56987.06888998376, -33374.68604739739, -14026.30079106102, -0.12, 0.9560000000000001, 0.244, 192.0, 252.0, 64.0, 29.0, 224.0, 7.0, 160.0, 0.0, 0.0, 0.0, 1.70094691885046E9, 0.0, 2023-11-25 16:15:18.850
148.0, 9056.211597467853, 17505.171001573923, -53109.89059327729, -56265.979262111105, -47512.52204329039, -56874.259635717826, -33409.21949258083, -14058.554358310028, -0.12, 0.9560000000000001, 0.244, 192.0, 0.0, 0.0, 0.0, 0.0, 0.0, 0.0, 0.0, 0.0, 0.0, 1.700946918855083E9, 0.0, 2023-11-25 16:15:18.855
149.0, 9151.161807913997, 17445.670657833893, -53094.75846228105, -56301.58559102841, -47093.94092487585, -56855.662984331015, -33437.24858012779, -14091.009091259133, -0.12, 0.9560000000000001, 0.244, 192.0, 0.0, 0.0, 0.0, 0.0, 0.0, 0.0, 0.0, 0.0, 0.0, 1.700946918859007E9, 0.0, 2023-11-25 16:15:18.859
150.0, 8930.036000017644, 17403.425860813364, -53082.01796794152, -56276.819858171926, -47234.71221145537, -57063.24363508745, -33386.688934169884, -14037.186090610754, -0.12, 0.9560000000000001, 0.244, 192.0, 0.0, 0.0, 0.0, 0.0, 0.0, 0.0, 0.0, 0.0, 0.0, 1.70094691886303E9, 0.0, 2023-11-25 16:15:18.863
151.0, 8882.829115728035, 17437.959305996814, -53085.90717147675, -56263.47586673211, -47638.80939946287, -57035.818044640786, -33369.83571885058, -14029.228869584666, -0.12, 0.9560000000000001, 0.244, 192.0, 0.0, 0.0, 0.0, 0.0, 0.0, 0.0, 0.0, 0.0, 0.0, 1.700946918866987E9, 0.0, 2023-11-25 16:15:18.866
152.0, 9022.818091251624, 17497.929036370402, -53105.2861339195, -56264.436991743685, -47565.98741602748, -56896.74549063987, -33390.041695838176, -14049.278384361076, -0.12, 0.9560000000000001, 0.244, 192.0, 0.0, 0.0, 0.0, 0.0, 0.0, 0.0, 0.0, 0.0, 0.0, 1.700946918871046E9, 0.0, 2023-11-25 16:15:18.871
153.0, 9149.66424103549, 17454.74546608275, -53101.91102050675, -56301.205611372665, -47203.37506572904, -56855.461818630916, -33434.07463241513, -14097.133469239889, -0.12, 0.9560000000000001, 0.244, 192.0, 0.0, 0.0, 0.0, 0.0, 0.0, 0.0, 0.0, 0.0, 0.0, 1.700946918874993E9, 0.0, 2023-11-25 16:15:18.874
154.0, 8979.500410497238, 17393.322872319564, -53095.00433147005, -56289.672111233725, -47142.44421034386, -57033.29229751734, -33419.255425841264, -14078.492114364162, -0.12, 0.9560000000000001, 0.244, 192.0, 0.0, 0.0, 0.0, 0.0, 0.0, 0.0, 0.0, 0.0, 0.0, 1.700946918878213E9, 0.0, 2023-11-25 16:15:18.878
155.0, 8868.479295787727, 17446.229451445277, -53074.84305797137, -56238.21839549761, -47633.62379474924, -57064.58473975477, -33378.50819569924, -14035.800282454526, -0.12, 0.9560000000000001, 0.244, 192.0, 0.0, 0.0, 0.0, 0.0, 0.0, 0.0, 0.0, 0.0, 0.0, 1.700946918883133E9, 0.0, 2023-11-25 16:15:18.883
156.0, 9005.137861387475, 17494.285702024186, -53107.49895662057, -56250.95888983714, -47578.03500628889, -56911.47529023592, -33418.1378386185, -14075.228759673688, -0.12, 0.9560000000000001, 0.244, 192.0, 0.0, 0.0, 0.0, 0.0, 0.0, 0.0, 0.0, 0.0, 0.0, 1.700946918887021E9, 0.0, 2023-11-25 16:15:18.887
157.0, 9143.495159565826, 17479.60060591705, -53105.06261647494, -56272.30480579195, -47289.272819670776, -56854.16541745251, -33451.5984000681, -14107.884658322891, -0.112, 0.9500000000000001, 0.246, 192.0, 252.0, 128.0, 29.0, 176.0, 7.0, 176.0, 0.0, 0.0, 0.0, 1.700946918891074E9, 0.0, 2023-11-25 16:15:18.891
158.0, 9045.482760129305, 17405.504573047707, -53096.94893323767, -56280.50789600705, -47043.13540972894, -56974.306043899785, -33448.491507588806, -14100.620341374915, -0.112, 0.9500000000000001, 0.246, 192.0, 0.0, 0.0, 0.0, 0.0, 0.0, 0.0, 0.0, 0.0, 0.0, 1.700946918895178E9, 0.0, 2023-11-25 16:15:18.895
159.0, 8859.158618349866, 17435.344151895544, -53086.75653776605, -56232.54105240596, -47588.89795409417, -57078.10754515023, -33394.66850694043, -14042.818730213492, -0.112, 0.9500000000000001, 0.246, 192.0, 0.0, 0.0, 0.0, 0.0, 0.0, 0.0, 0.0, 0.0, 0.0, 1.700946918899067E9, 0.0, 2023-11-25 16:15:18.899
160.0, 8982.16026808742, 17485.300300753155, -53118.16073872575, -56247.85199735785, -47587.579201171306, -56916.79500541628, -33425.491562544295, -14073.753544539637, -0.112, 0.9500000000000001, 0.246, 192.0, 0.0, 0.0, 0.0, 0.0, 0.0, 0.0, 0.0, 0.0, 0.0, 1.700946918903091E9, 0.0, 2023-11-25 16:15:18.903
161.0, 9124.674990734458, 17503.069937595123, -53107.94599150968, -56257.75382015155, -47373.717710222925, -56842.85543475812, -33439.01436793976, -14090.919684281313, -0.112, 0.9500000000000001, 0.246, 192.0, 0.0, 0.0, 0.0, 0.0, 0.0, 0.0, 0.0, 0.0, 0.0, 1.700946918906058E9, 0.0, 2023-11-25 16:15:18.906
162.0, 9088.286350761218, 17407.739747493237, -53103.11801470733, -56295.125936880824, -46990.94408642579, -56925.55688924276, -33455.59936232559, -14111.907972324845, -0.112, 0.9500000000000001, 0.246, 192.0, 0.0, 0.0, 0.0, 0.0, 0.0, 0.0, 0.0, 0.0, 0.0, 1.700946918910046E9, 0.0, 2023-11-25 16:15:18.910
163.0, 8854.509455503161, 17426.872840746983, -53078.41933708422, -56234.91033731823, -47508.20815661051, -57086.66826327661, -33381.70449515635, -14035.532061521062, -0.112, 0.9500000000000001, 0.246, 192.0, 0.0, 0.0, 0.0, 0.0, 0.0, 0.0, 0.0, 0.0, 0.0, 1.700946918915055E9, 0.0, 2023-11-25 16:15:18.915
164.0, 8965.642328934948, 17485.12148679751, -53086.82359299941, -56235.89381407426, -47587.42273896012, -56931.1895288455, -33389.52760571571, -14047.847872715936, -0.112, 0.9500000000000001, 0.246, 192.0, 0.0, 0.0, 0.0, 0.0, 0.0, 0.0, 0.0, 0.0, 0.0, 1.70094691891913E9, 0.0, 2023-11-25 16:15:18.919
165.0, 9113.007380128787, 17518.202068591367, -53080.94508420767, -56238.8218925979, -47437.35312668719, -56838.5638998227, -33396.56840521913, -14060.566015311006, -0.112, 0.9500000000000001, 0.246, 192.0, 0.0, 0.0, 0.0, 0.0, 0.0, 0.0, 0.0, 0.0, 0.0, 1.700946918923134E9, 0.0, 2023-11-25 16:15:18.923
166.0, 9138.7565897413, 17417.0604249311, -53077.637026028286, -56291.79552695698, -46980.282304320615, -56879.24407473136, -33437.74031850581, -14107.437623433785, -0.112, 0.9500000000000001, 0.246, 192.0, 0.0, 0.0, 0.0, 0.0, 0.0, 0.0, 0.0, 0.0, 0.0, 1.700946918927101E9, 0.0, 2023-11-25 16:15:18.927
167.0, 8871.47442954474, 17408.43265157135, -53067.69049974567, -56249.84130261437, -47402.86438499265, -57087.62938828819, -33383.11265505703, -14046.97615468218, -0.108, 0.9520000000000001, 0.244, 192.0, 252.0, 160.0, 29.0, 192.0, 7.0, 160.0, 0.0, 0.0, 0.0, 1.700946918931143E9, 0.0, 2023-11-25 16:15:18.931
168.0, 8938.306145466107, 17471.93395756888, -53071.490296303076, -56243.00166881105, -47583.377073213705, -56963.91248272807, -33386.71128591434, -14053.569919296495, -0.108, 0.9520000000000001, 0.244, 192.0, 0.0, 0.0, 0.0, 0.0, 0.0, 0.0, 0.0, 0.0, 0.0, 1.700946918934099E9, 0.0, 2023-11-25 16:15:18.934
169.0, 9083.123097792042, 17527.768615218236, -53077.94995045065, -56242.66639264422, -47480.82726965276, -56861.2732721893, -33404.12329484502, -14068.992622970656, -0.108, 0.9520000000000001, 0.244, 192.0, 0.0, 0.0, 0.0, 0.0, 0.0, 0.0, 0.0, 0.0, 0.0, 1.70094691893816E9, 0.0, 2023-11-25 16:15:18.938
170.0, 9154.894549238034, 17443.614297344007, -53077.145287650266, -56296.19882061468, -47006.59030754451, -56859.4180773995, -33451.03960645671, -14118.144109027877, -0.108, 0.9520000000000001, 0.244, 192.0, 0.0, 0.0, 0.0, 0.0, 0.0, 0.0, 0.0, 0.0, 0.0, 1.700946918942102E9, 0.0, 2023-11-25 16:15:18.942
171.0, 8904.353845638496, 17414.937009207846, -53067.60109276785, -56259.69842191916, -47272.576066562666, -57070.57500726879, -33397.44012325288, -14054.419285585796, -0.108, 0.9520000000000001, 0.244, 192.0, 0.0, 0.0, 0.0, 0.0, 0.0, 0.0, 0.0, 0.0, 0.0, 1.700946918947145E9, 0.0, 2023-11-25 16:15:18.947
172.0, 8917.38491265594, 17469.13998951197, -53070.59622652486, -56243.73927637807, -47576.78330859939, -56992.79093656432, -33386.688934169884, -14036.739055721648, -0.108, 0.9520000000000001, 0.244, 192.0, 0.0, 0.0, 0.0, 0.0, 0.0, 0.0, 0.0, 0.0, 0.0, 1.700946918951154E9, 0.0, 2023-11-25 16:15:18.951
173.0, 9044.49928337327, 17519.543173258684, -53100.6816745617, -56253.1270090493, -47511.82913921227, -56882.66389163303, -33411.432315281905, -14052.944070451746, -0.108, 0.9520000000000001, 0.244, 192.0, 0.0, 0.0, 0.0, 0.0, 0.0, 0.0, 0.0, 0.0, 0.0, 1.700946918955217E9, 0.0, 2023-11-25 16:15:18.955
174.0, 9150.625366047068, 17454.007858515724, -53097.820651271424, -56295.59532351438, -47078.38411073496, -56846.856397015625, -33449.45263260038, -14093.713652338225, -0.108, 0.9520000000000001, 0.244, 192.0, 0.0, 0.0, 0.0, 0.0, 0.0, 0.0, 0.0, 0.0, 0.0, 1.70094691895821E9, 0.0, 2023-11-25 16:15:18.958
175.0, 8937.456779176806, 17407.516230048685, -53090.28811338999, -56271.94717788067, -47155.676443061406, -57036.376838252174, -33413.55573100516, -14051.044172173044, -0.108, 0.9520000000000001, 0.244, 192.0, 0.0, 0.0, 0.0, 0.0, 0.0, 0.0, 0.0, 0.0, 0.0, 1.700946918962156E9, 0.0, 2023-11-25 16:15:18.962
176.0, 8872.636720256414, 17453.31495443761, -53088.79054651148, -56246.197968268156, -47579.532573167395, -57026.83264336976, -33396.12137033002, -14029.742959707137, -0.108, 0.9520000000000001, 0.244, 192.0, 0.0, 0.0, 0.0, 0.0, 0.0, 0.0, 0.0, 0.0, 0.0, 1.700946918966315E9, 0.0, 2023-11-25 16:15:18.966
177.0, 9008.870602711511, 17519.94550465888, -53104.01208448554, -56240.0735902874, -47544.48503786147, -56888.520048680315, -33409.130085603014, -14036.761407466103, -0.11800000000000001, 0.9540000000000001, 0.232, 192.0, 252.0, 80.0, 29.0, 208.0, 7.0, 64.0, 0.0, 0.0, 0.0, 1.700946918971271E9, 0.0, 2023-11-25 16:15:18.971
178.0, 9145.52916831126, 17482.618091418517, -53094.825517514415, -56276.57398898292, -47175.033053759704, -56825.93516420545, -33444.8928767315, -14079.274425420097, -0.11800000000000001, 0.9540000000000001, 0.232, 192.0, 0.0, 0.0, 0.0, 0.0, 0.0, 0.0, 0.0, 0.0, 0.0, 1.700946918975249E9, 0.0, 2023-11-25 16:15:18.975
179.0, 8985.088346611064, 17405.72809049226, -53102.447462373675, -56290.096794378376, -47047.516351642174, -56996.63543661064, -33443.037681941714, -14077.374527141397, -0.11800000000000001, 0.9540000000000001, 0.232, 192.0, 0.0, 0.0, 0.0, 0.0, 0.0, 0.0, 0.0, 0.0, 0.0, 1.700946918979267E9, 0.0, 2023-11-25 16:15:18.979
180.0, 8859.918577661345, 17460.51221615222, -53079.06753767342, -56237.63725014177, -47554.74448856646, -57052.29128030435, -33391.04752433867, -14025.362017793897, -0.11800000000000001, 0.9540000000000001, 0.232, 192.0, 0.0, 0.0, 0.0, 0.0, 0.0, 0.0, 0.0, 0.0, 0.0, 1.700946918983395E9, 0.0, 2023-11-25 16:15:18.983
181.0, 8994.140803115464, 17524.259391338754, -53096.12191869282, -56239.00070655355, -47544.52974135039, -56899.8300313747, -33409.063030369645, -14042.63991625785, -0.11800000000000001, 0.9540000000000001, 0.232, 192.0, 0.0, 0.0, 0.0, 0.0, 0.0, 0.0, 0.0, 0.0, 0.0, 1.700946918986299E9, 0.0, 2023-11-25 16:15:18.986
182.0, 9129.882947192544, 17501.438260249884, -53099.228811172106, -56274.80820117095, -47264.01534843628, -56831.165472408, -33448.87148724455, -14084.571788856005, -0.11800000000000001, 0.9540000000000001, 0.232, 192.0, 0.0, 0.0, 0.0, 0.0, 0.0, 0.0, 0.0, 0.0, 0.0, 1.700946918990564E9, 0.0, 2023-11-25 16:15:18.990
183.0, 9036.720876302825, 17399.40254681141, -53115.36677066884, -56316.024817946534, -46961.328025022514, -56955.37411634614, -33475.24654570181, -14108.465803678728, -0.11800000000000001, 0.9540000000000001, 0.232, 192.0, 0.0, 0.0, 0.0, 0.0, 0.0, 0.0, 0.0, 0.0, 0.0, 1.700946918994259E9, 0.0, 2023-11-25 16:15:18.994
184.0, 8850.307327545563, 17442.295544421144, -53088.321159877916, -56252.72467764911, -47498.61925823918, -57072.7207747365, -33405.88908265699, -14031.531099263562, -0.11800000000000001, 0.9540000000000001, 0.232, 192.0, 0.0, 0.0, 0.0, 0.0, 0.0, 0.0, 0.0, 0.0, 0.0, 1.700946918998273E9, 0.0, 2023-11-25 16:15:18.998
185.0, 8972.727831927281, 17503.56167597314, -53102.84979377387, -56252.12118054881, -47544.19446518356, -56914.3363135262, -33416.550864762175, -14043.757503480614, -0.11800000000000001, 0.9540000000000001, 0.232, 192.0, 0.0, 0.0, 0.0, 0.0, 0.0, 0.0, 0.0, 0.0, 0.0, 1.700946919003348E9, 0.0, 2023-11-25 16:15:19.003
186.0, 9111.219240572362, 17518.26912382473, -53093.7302820361, -56257.75382015155, -47357.46799200392, -56828.63972528455, -33422.205856109365, -14055.693335019749, -0.11800000000000001, 0.9540000000000001, 0.232, 192.0, 0.0, 0.0, 0.0, 0.0, 0.0, 0.0, 0.0, 0.0, 0.0, 1.700946919007352E9, 0.0, 2023-11-25 16:15:19.007
187.0, 9090.432118228928, 17407.605637026507, -53100.56991583943, -56309.43105333222, -46929.11916126242, -56891.91751383752, -33456.40402512599, -14092.529009882095, -0.124, 0.9540000000000001, 0.234, 192.0, 252.0, 32.0, 29.0, 208.0, 7.0, 80.0, 0.0, 0.0, 0.0, 1.700946919011306E9, 0.0, 2023-11-25 16:15:19.011
188.0, 8853.66008921386, 17415.83107898606, -53086.1306889213, -56260.34662250837, -47421.10340846818, -57073.19016137006, -33391.00282084976, -14026.211384083199, -0.124, 0.9540000000000001, 0.234, 192.0, 0.0, 0.0, 0.0, 0.0, 0.0, 0.0, 0.0, 0.0, 0.0, 1.700946919014304E9, 0.0, 2023-11-25 16:15:19.014
189.0, 8946.732753125758, 17469.341155212063, -53102.24629667358, -56267.432125500694, -47539.65706105913, -56936.24102309239, -33402.491617499785, -14042.081122646467, -0.124, 0.9540000000000001, 0.234, 192.0, 0.0, 0.0, 0.0, 0.0, 0.0, 0.0, 0.0, 0.0, 0.0, 1.700946919018301E9, 0.0, 2023-11-25 16:15:19.018
190.0, 9078.876266345533, 17501.929998627904, -53106.71664556464, -56276.75280293856, -47419.69524856749, -56851.70672556243, -33418.96485316334, -14057.34736410944, -0.124, 0.9540000000000001, 0.234, 192.0, 0.0, 0.0, 0.0, 0.0, 0.0, 0.0, 0.0, 0.0, 0.0, 1.70094691902261E9, 0.0, 2023-11-25 16:15:19.022
191.0, 9124.674990734458, 17415.093471419033, -53097.060691959945, -56323.177376172236, -46927.26396647262, -56867.01767051431, -33448.31269363316, -14099.301588452052, -0.124, 0.9540000000000001, 0.234, 192.0, 0.0, 0.0, 0.0, 0.0, 0.0, 0.0, 0.0, 0.0, 0.0, 1.70094691902639E9, 0.0, 2023-11-25 16:15:19.026
192.0, 8872.592016767505, 17411.360730095, -53083.51553482003, -56275.545808737974, -47300.91807853199, -57063.69066997655, -33380.34103874458, -14035.68852373225, -0.124, 0.9540000000000001, 0.234, 192.0, 0.0, 0.0, 0.0, 0.0, 0.0, 0.0, 0.0, 0.0, 0.0, 1.700946919030345E9, 0.0, 2023-11-25 16:15:19.030
193.0, 8928.024343016667, 17471.531626168686, -53086.778889510504, -56264.794619654975, -47520.747485249936, -56957.96691870296, -33375.8259863646, -14035.219137098687, -0.124, 0.9540000000000001, 0.234, 192.0, 0.0, 0.0, 0.0, 0.0, 0.0, 0.0, 0.0, 0.0, 0.0, 1.700946919036523E9, 0.0, 2023-11-25 16:15:19.036
194.0, 9065.442867927894, 17527.500394284772, -53092.05390120196, -56262.1794655537, -47454.92159782906, -56858.50165587684, -33385.48193996929, -14048.45136981623, -0.124, 0.9540000000000001, 0.234, 192.0, 0.0, 0.0, 0.0, 0.0, 0.0, 0.0, 0.0, 0.0, 0.0, 1.700946919039491E9, 0.0, 2023-11-25 16:15:19.039
195.0, 9151.966470714387, 17427.96807622529, -53103.36388389634, -56331.80514953198, -46962.7361849232, -56850.075048217186, -33447.41862385495, -14120.245173006675, -0.124, 0.9540000000000001, 0.234, 192.0, 0.0, 0.0, 0.0, 0.0, 0.0, 0.0, 0.0, 0.0, 0.0, 1.700946919043387E9, 0.0, 2023-11-25 16:15:19.043
196.0, 8905.516136350172, 17387.980805394745, -53106.89545952028, -56307.12882365332, -47174.273094448225, -57068.98803341246, -33417.869617685035, -14079.83321903148, -0.124, 0.9540000000000001, 0.234, 192.0, 0.0, 0.0, 0.0, 0.0, 0.0, 0.0, 0.0, 0.0, 0.0, 1.700946919046405E9, 0.0, 2023-11-25 16:15:19.046
197.0, 8896.508383334683, 17446.721189823293, -53105.68846531969, -56281.37961404081, -47509.68337174456, -57011.208773995495, -33407.096076857575, -14064.589329312961, -0.12, 0.9520000000000001, 0.234, 192.0, 252.0, 64.0, 29.0, 192.0, 7.0, 80.0, 0.0, 0.0, 0.0, 1.700946919050428E9, 0.0, 2023-11-25 16:15:19.050
198.0, 9028.78600702119, 17518.716158713836, -53109.66707583274, -56263.386459754285, -47479.419109752074, -56889.79409811427, -33419.344832819086, -14066.35511712493, -0.12, 0.9520000000000001, 0.234, 192.0, 0.0, 0.0, 0.0, 0.0, 0.0, 0.0, 0.0, 0.0, 0.0, 1.700946919055177E9, 0.0, 2023-11-25 16:15:19.055
199.0, 9154.00047945982, 17454.74546608275, -53102.022779229024, -56308.89461146529, -47036.832217792544, -56838.63095505607, -33476.610002113586, -14116.870059593924, -0.12, 0.9520000000000001, 0.234, 192.0, 0.0, 0.0, 0.0, 0.0, 0.0, 0.0, 0.0, 0.0, 0.0, 1.700946919058448E9, 0.0, 2023-11-25 16:15:19.058
200.0, 8956.925148597378, 17393.88166593095, -53102.872145518326, -56299.17160262723, -47032.630089834944, -57017.959000821, -33456.47108035935, -14087.49986737965, -0.12, 0.9520000000000001, 0.234, 192.0, 0.0, 0.0, 0.0, 0.0, 0.0, 0.0, 0.0, 0.0, 0.0, 1.700946919063458E9, 0.0, 2023-11-25 16:15:19.063
201.0, 8889.981673953733, 17448.64343984645, -53093.81968901392, -56257.597357940365, -47467.99736833541, -57021.60233516721, -33425.11158288855, -14050.35126809493, -0.12, 0.9520000000000001, 0.234, 192.0, 0.0, 0.0, 0.0, 0.0, 0.0, 0.0, 0.0, 0.0, 0.0, 1.700946919067432E9, 0.0, 2023-11-25 16:15:19.067
202.0, 9017.274858626706, 17514.670492967427, -53113.01983750104, -56247.248500257556, -47470.09843231421, -56887.42481320201, -33444.60230405358, -14060.811884500014, -0.12, 0.9520000000000001, 0.234, 192.0, 0.0, 0.0, 0.0, 0.0, 0.0, 0.0, 0.0, 0.0, 0.0, 1.700946919070485E9, 0.0, 2023-11-25 16:15:19.070
203.0, 9155.855674249611, 17471.79984710215, -53103.65445657426, -56279.99380588458, -47114.28101233018, -56816.81565246769, -33476.11826373557, -14096.284102950587, -0.12, 0.9520000000000001, 0.234, 192.0, 0.0, 0.0, 0.0, 0.0, 0.0, 0.0, 0.0, 0.0, 0.0, 1.700946919074454E9, 0.0, 2023-11-25 16:15:19.074
204.0, 9003.461480553327, 17370.993479608715, -53121.91583179424, -56308.44757657619, -46919.01617276861, -56969.85804675318, -33478.129920736545, -14104.174268743309, -0.12, 0.9520000000000001, 0.234, 192.0, 0.0, 0.0, 0.0, 0.0, 0.0, 0.0, 0.0, 0.0, 0.0, 1.700946919081435E9, 0.0, 2023-11-25 16:15:19.081
205.0, 8842.640679197393, 17406.64451201493, -53116.30554393597, -56266.98509061159, -47431.0946382397, -57049.452608758525, -33434.007577181765, -14058.576710054484, -0.12, 0.9520000000000001, 0.234, 192.0, 0.0, 0.0, 0.0, 0.0, 0.0, 0.0, 0.0, 0.0, 0.0, 1.700946919084451E9, 0.0, 2023-11-25 16:15:19.084
206.0, 8962.468381222294, 17477.588948916073, -53130.85652957637, -56260.458381230645, -47463.5046676999, -56904.90387736606, -33441.987149952314, -14065.215178157709, -0.12, 0.9520000000000001, 0.234, 192.0, 0.0, 0.0, 0.0, 0.0, 0.0, 0.0, 0.0, 0.0, 0.0, 1.700946919087546E9, 0.0, 2023-11-25 16:15:19.087
207.0, 9123.557403511692, 17483.847437363558, -53104.816747285935, -56269.980224368606, -47207.48778670881, -56820.0119519248, -33450.07848144513, -14078.626224830894, -0.11, 0.9560000000000001, 0.232, 192.0, 252.0, 144.0, 29.0, 224.0, 7.0, 64.0, 0.0, 0.0, 0.0, 1.700946919092574E9, 0.0, 2023-11-25 16:15:19.092
208.0, 9056.502170145772, 17380.940005891323, -53112.12576772282, -56314.706065023674, -46851.223331835674, -56922.718217696936, -33477.705237591894, -14109.024597290112, -0.11, 0.9560000000000001, 0.232, 192.0, 0.0, 0.0, 0.0, 0.0, 0.0, 0.0, 0.0, 0.0, 0.0, 1.700946919094643E9, 0.0, 2023-11-25 16:15:19.094
209.0, 8844.026487353622, 17408.946741693824, -53097.060691959945, -56264.369936510324, -47381.85374520466, -57062.64013798716, -33414.94153916139, -14044.472759303184, -0.11, 0.9560000000000001, 0.232, 192.0, 0.0, 0.0, 0.0, 0.0, 0.0, 0.0, 0.0, 0.0, 0.0, 1.700946919098537E9, 0.0, 2023-11-25 16:15:19.098
210.0, 8953.77355262918, 17481.88048385149, -53106.426072886716, -56257.48559921809, -47467.72914740195, -56916.21386006044, -33415.701498472874, -14047.043209915544, -0.11, 0.9560000000000001, 0.232, 192.0, 0.0, 0.0, 0.0, 0.0, 0.0, 0.0, 0.0, 0.0, 0.0, 1.700946919102578E9, 0.0, 2023-11-25 16:15:19.102
211.0, 9108.335865537629, 17513.776423189214, -53085.9295232212, -56256.0774393174, -47300.00165700933, -56823.6105827821, -33414.159228105455, -14053.34640185194, -0.11, 0.9560000000000001, 0.232, 192.0, 0.0, 0.0, 0.0, 0.0, 0.0, 0.0, 0.0, 0.0, 0.0, 1.700946919106558E9, 0.0, 2023-11-25 16:15:19.106
212.0, 9104.357255024583, 17385.991500138225, -53104.548526352475, -56328.76531228606, -46836.22531130616, -56884.049699789255, -33464.18243219643, -14112.287951980587, -0.11, 0.9560000000000001, 0.232, 192.0, 0.0, 0.0, 0.0, 0.0, 0.0, 0.0, 0.0, 0.0, 0.0, 1.70094691911064E9, 0.0, 2023-11-25 16:15:19.110
213.0, 8856.632871226415, 17397.279131088155, -53087.58355231089, -56275.8810849048, -47306.72953209037, -57069.792696212855, -33395.45081799637, -14041.365866823897, -0.11, 0.9560000000000001, 0.232, 192.0, 0.0, 0.0, 0.0, 0.0, 0.0, 0.0, 0.0, 0.0, 0.0, 1.70094691911452E9, 0.0, 2023-11-25 16:15:19.114
214.0, 8937.881462321457, 17467.754181355736, -53094.44553785867, -56265.75574466655, -47466.410394479084, -56939.37026731614, -33391.449855738865, -14041.052942401522, -0.11, 0.9560000000000001, 0.232, 192.0, 0.0, 0.0, 0.0, 0.0, 0.0, 0.0, 0.0, 0.0, 0.0, 1.700946919120553E9, 0.0, 2023-11-25 16:15:19.120
215.0, 9074.428269198927, 17513.37409178902, -53091.15983142374, -56262.71590742063, -47377.40574805805, -56846.856397015625, -33394.40028600697, -14050.664192517304, -0.11, 0.9560000000000001, 0.232, 192.0, 0.0, 0.0, 0.0, 0.0, 0.0, 0.0, 0.0, 0.0, 0.0, 1.700946919122629E9, 0.0, 2023-11-25 16:15:19.122
216.0, 9132.363990827083, 17414.177049896367, -53089.32698837841, -56319.042303448005, -46872.21161987921, -56858.00991749882, -33439.66256852896, -14107.571733900517, -0.11, 0.9560000000000001, 0.232, 192.0, 0.0, 0.0, 0.0, 0.0, 0.0, 0.0, 0.0, 0.0, 0.0, 1.700946919125594E9, 0.0, 2023-11-25 16:15:19.125
217.0, 8872.592016767505, 17391.601787996507, -53091.45040410166, -56285.91701816524, -47217.85899613607, -57067.15519036713, -33392.96977436182, -14054.084009418966, -0.106, 0.9580000000000001, 0.23600000000000002, 192.0, 252.0, 176.0, 29.0, 240.0, 7.0, 96.0, 0.0, 0.0, 0.0, 1.700946919130584E9, 0.0, 2023-11-25 16:15:19.130
218.0, 8905.449081116805, 17453.806692815626, -53101.44163387318, -56273.75766918155, -47476.93806611754, -56972.31673864326, -33392.0310010947, -14048.563128538506, -0.106, 0.9580000000000001, 0.23600000000000002, 192.0, 0.0, 0.0, 0.0, 0.0, 0.0, 0.0, 0.0, 0.0, 0.0, 1.700946919134562E9, 0.0, 2023-11-25 16:15:19.134
219.0, 9039.06780947063, 17521.621885493027, -53103.85562227436, -56258.60318644085, -47441.890530811615, -56863.217873956906, -33391.94159411688, -14044.53981453655, -0.106, 0.9580000000000001, 0.23600000000000002, 192.0, 0.0, 0.0, 0.0, 0.0, 0.0, 0.0, 0.0, 0.0, 0.0, 1.700946919138548E9, 0.0, 2023-11-25 16:15:19.138
220.0, 9147.876101479067, 17436.998180985236, -53100.52521235052, -56310.8392132329, -46954.22017028573, -56833.93708872046, -33443.79764125319, -14098.854553562947, -0.106, 0.9580000000000001, 0.23600000000000002, 192.0, 0.0, 0.0, 0.0, 0.0, 0.0, 0.0, 0.0, 0.0, 0.0, 1.700946919142572E9, 0.0, 2023-11-25 16:15:19.142
221.0, 8918.591906856527, 17397.97203516627, -53098.737072794094, -56282.72071870813, -47122.70761998983, -57035.549823707326, -33412.773419949226, -14058.911986221312, -0.106, 0.9580000000000001, 0.23600000000000002, 192.0, 0.0, 0.0, 0.0, 0.0, 0.0, 0.0, 0.0, 0.0, 0.0, 1.700946919146594E9, 0.0, 2023-11-25 16:15:19.146
222.0, 8900.464642103272, 17461.540396397162, -53091.472755846116, -56249.39426772526, -47473.47354572696, -56981.41389863657, -33391.51691097223, -14034.235660342654, -0.106, 0.9580000000000001, 0.23600000000000002, 192.0, 0.0, 0.0, 0.0, 0.0, 0.0, 0.0, 0.0, 0.0, 0.0, 1.700946919150838E9, 0.0, 2023-11-25 16:15:19.150
223.0, 9019.711198772335, 17526.04753089518, -53106.001389742065, -56240.36416296532, -47464.42108922257, -56864.49192339086, -33408.05720186916, -14045.299773848032, -0.106, 0.9580000000000001, 0.23600000000000002, 192.0, 0.0, 0.0, 0.0, 0.0, 0.0, 0.0, 0.0, 0.0, 0.0, 1.700946919153746E9, 0.0, 2023-11-25 16:15:19.153
224.0, 9150.71477302489, 17464.78139934318, -53093.015026213536, -56280.53024775151, -47035.02172649166, -56809.01489365279, -33450.97255122335, -14088.952730769246, -0.106, 0.9580000000000001, 0.23600000000000002, 192.0, 0.0, 0.0, 0.0, 0.0, 0.0, 0.0, 0.0, 0.0, 0.0, 1.700946919159561E9, 0.0, 2023-11-25 16:15:19.159
225.0, 8966.871674879989, 17400.900113689913, -53090.69044479018, -56269.93552087969, -46998.387217329415, -56979.98338699143, -33429.961911435355, -14056.028611186579, -0.106, 0.9580000000000001, 0.23600000000000002, 192.0, 0.0, 0.0, 0.0, 0.0, 0.0, 0.0, 0.0, 0.0, 0.0, 1.700946919162681E9, 0.0, 2023-11-25 16:15:19.162
226.0, 8884.326682606541, 17461.31687895261, -53073.300787603956, -56220.76168307802, -47443.410449434574, -56984.364328904674, -33388.27590802621, -14007.63708444084, -0.114, 0.9540000000000001, 0.23, 192.0, 252.0, 112.0, 29.0, 208.0, 7.0, 48.0, 0.0, 0.0, 0.0, 1.700946919166857E9, 0.0, 2023-11-25 16:15:19.166
227.0, 9013.83268998059, 17546.56643230515, -53077.9275987062, -56202.3661973913, -47461.180086276545, -56846.498769104335, -33392.54509121717, -14007.301808274009, -0.114, 0.9540000000000001, 0.23, 192.0, 0.0, 0.0, 0.0, 0.0, 0.0, 0.0, 0.0, 0.0, 0.0, 1.700946919170744E9, 0.0, 2023-11-25 16:15:19.170
228.0, 9163.187046430952, 17512.94940864437, -53065.43297355568, -56238.93365132018, -47121.23240485578, -56775.86725662557, -33427.90555094547, -14049.658364016816, -0.114, 0.9540000000000001, 0.23, 192.0, 0.0, 0.0, 0.0, 0.0, 0.0, 0.0, 0.0, 0.0, 0.0, 1.700946919174692E9, 0.0, 2023-11-25 16:15:19.174
229.0, 9038.26314667024, 17411.897171961926, -53079.93925570718, -56274.294111048475, -46885.35444561893, -56923.32171479723, -33443.887048231016, -14066.936262480767, -0.114, 0.9540000000000001, 0.23, 192.0, 0.0, 0.0, 0.0, 0.0, 0.0, 0.0, 0.0, 0.0, 0.0, 1.700946919178708E9, 0.0, 2023-11-25 16:15:19.178
230.0, 8875.453040057784, 17449.40339915793, -53069.590398024375, -56228.96477329311, -47395.37655060012, -57011.11936701767, -33398.06597209763, -14021.763386936593, -0.114, 0.9540000000000001, 0.23, 192.0, 0.0, 0.0, 0.0, 0.0, 0.0, 0.0, 0.0, 0.0, 0.0, 1.700946919181756E9, 0.0, 2023-11-25 16:15:19.181
231.0, 8982.741413443258, 17519.118490114033, -53089.17052616722, -56228.0707035149, -47448.1490192591, -56874.259635717826, -33412.773419949226, -14035.263840587599, -0.114, 0.9540000000000001, 0.23, 192.0, 0.0, 0.0, 0.0, 0.0, 0.0, 0.0, 0.0, 0.0, 0.0, 1.700946919185727E9, 0.0, 2023-11-25 16:15:19.185
232.0, 9133.570985027669, 17519.94550465888, -53073.0772701594, -56245.95209907915, -47211.77932164423, -56796.67673071346, -33430.96773993585, -14054.262823374609, -0.114, 0.9540000000000001, 0.23, 192.0, 0.0, 0.0, 0.0, 0.0, 0.0, 0.0, 0.0, 0.0, 0.0, 1.700946919190809E9, 0.0, 2023-11-25 16:15:19.190
233.0, 9073.780068609723, 17403.224695113266, -53091.048072701466, -56306.301809108474, -46831.307927525995, -56895.87377260611, -33466.05997873068, -14092.484306393184, -0.114, 0.9540000000000001, 0.23, 192.0, 0.0, 0.0, 0.0, 0.0, 0.0, 0.0, 0.0, 0.0, 0.0, 1.70094691919473E9, 0.0, 2023-11-25 16:15:19.194
234.0, 8857.839865427002, 17426.716378535795, -53080.40864234074, -56260.36897425282, -47353.04234660177, -57045.675163945576, -33405.33028904561, -14029.139462606843, -0.114, 0.9540000000000001, 0.23, 192.0, 0.0, 0.0, 0.0, 0.0, 0.0, 0.0, 0.0, 0.0, 0.0, 1.70094691919879E9, 0.0, 2023-11-25 16:15:19.198
235.0, 8957.8639218645, 17497.012614847736, -53094.22202041412, -56256.63623292879, -47465.18104853405, -56910.87179313562, -33409.77828619222, -14037.454311544217, -0.114, 0.9540000000000001, 0.23, 192.0, 0.0, 0.0, 0.0, 0.0, 0.0, 0.0, 0.0, 0.0, 0.0, 1.70094691920291E9, 0.0, 2023-11-25 16:15:19.202
236.0, 9108.112348093075, 17528.617981507537, -53078.15111615075, -56256.680936417695, -47318.50890141832, -56820.45898681391, -33413.891007171995, -14045.947974437235, -0.114, 0.9560000000000001, 0.234, 192.0, 252.0, 112.0, 29.0, 224.0, 7.0, 80.0, 0.0, 0.0, 0.0, 1.700946919206746E9, 0.0, 2023-11-25 16:15:19.206
237.0, 9115.153147596497, 17408.67852076036, -53089.0811191894, -56320.71868428215, -46839.93570088574, -56870.146914738056, -33459.35445539409, -14099.972140785712, -0.114, 0.9560000000000001, 0.234, 192.0, 0.0, 0.0, 0.0, 0.0, 0.0, 0.0, 0.0, 0.0, 0.0, 1.700946919209768E9, 0.0, 2023-11-25 16:15:19.209
238.0, 8859.337432305507, 17412.098337662024, -53079.291055117974, -56271.09781159137, -47280.55563933321, -57058.21449258501, -33397.79775116417, -14035.710875476703, -0.114, 0.9560000000000001, 0.234, 192.0, 0.0, 0.0, 0.0, 0.0, 0.0, 0.0, 0.0, 0.0, 0.0, 1.700946919213813E9, 0.0, 2023-11-25 16:15:19.213
239.0, 8923.263421447686, 17471.576329657597, -53093.57381982492, -56267.454477245155, -47454.85454259569, -56935.52576726983, -33407.8336844246, -14045.523291292584, -0.114, 0.9560000000000001, 0.234, 192.0, 0.0, 0.0, 0.0, 0.0, 0.0, 0.0, 0.0, 0.0, 0.0, 1.700946919218861E9, 0.0, 2023-11-25 16:15:19.218
240.0, 9067.231007484319, 17530.070844897135, -53081.86150573033, -56251.27181425951, -47373.8294689452, -56840.39674286804, -33404.14564658948, -14040.270631345587, -0.114, 0.9560000000000001, 0.234, 192.0, 0.0, 0.0, 0.0, 0.0, 0.0, 0.0, 0.0, 0.0, 0.0, 1.700946919222859E9, 0.0, 2023-11-25 16:15:19.222
241.0, 9147.183197400951, 17431.410244871407, -53079.246351629066, -56308.64874227629, -46838.706354940696, -56839.07798994517, -33445.2952081317, -14091.254960448143, -0.114, 0.9560000000000001, 0.234, 192.0, 0.0, 0.0, 0.0, 0.0, 0.0, 0.0, 0.0, 0.0, 0.0, 1.700946919226932E9, 0.0, 2023-11-25 16:15:19.226
242.0, 8892.9991594552, 17404.811668969593, -53080.475697574104, -56274.31646279293, -47142.265396388226, -57045.80927441231, -33392.96977436182, -14036.49318653264, -0.114, 0.9560000000000001, 0.234, 192.0, 0.0, 0.0, 0.0, 0.0, 0.0, 0.0, 0.0, 0.0, 0.0, 1.700946919230874E9, 0.0, 2023-11-25 16:15:19.230
243.0, 8920.067121990576, 17468.51414066722, -53087.71766277763, -56257.03856432898, -47405.05485594927, -56956.469351824446, -33382.93384110139, -14030.100587618423, -0.114, 0.9560000000000001, 0.234, 192.0, 0.0, 0.0, 0.0, 0.0, 0.0, 0.0, 0.0, 0.0, 0.0, 1.700946919234873E9, 0.0, 2023-11-25 16:15:19.234
244.0, 9042.532329861204, 17537.71514150085, -53091.13747967929, -56241.54880542145, -47379.596219014675, -56851.23733892886, -33387.44889348136, -14035.017971398589, -0.114, 0.9560000000000001, 0.234, 192.0, 0.0, 0.0, 0.0, 0.0, 0.0, 0.0, 0.0, 0.0, 0.0, 1.700946919237883E9, 0.0, 2023-11-25 16:15:19.237
245.0, 9156.660337050002, 17451.54916662564, -53093.05972970244, -56300.66916950574, -46879.58769554945, -56823.72234150438, -33446.81512675466, -14100.642693119371, -0.114, 0.9560000000000001, 0.234, 192.0, 0.0, 0.0, 0.0, 0.0, 0.0, 0.0, 0.0, 0.0, 0.0, 1.700946919241869E9, 0.0, 2023-11-25 16:15:19.241
246.0, 8927.420845916373, 17401.123631134466, -53101.97807574011, -56284.19593384218, -46999.705970252275, -57031.59356493874, -33426.966777678346, -14069.841989259958, -0.114, 0.9580000000000001, 0.23, 192.0, 252.0, 112.0, 29.0, 240.0, 7.0, 48.0, 0.0, 0.0, 0.0, 1.700946919246889E9, 0.0, 2023-11-25 16:15:19.246
247.0, 8898.028301957644, 17462.054486519635, -53099.89936350577, -56253.57404393841, -47365.55932349674, -56993.79676506481, -33409.688879214395, -14051.155930895322, -0.114, 0.9580000000000001, 0.23, 192.0, 0.0, 0.0, 0.0, 0.0, 0.0, 0.0, 0.0, 0.0, 0.0, 1.700946919250991E9, 0.0, 2023-11-25 16:15:19.250
248.0, 9013.273896369206, 17518.157365102456, -53119.34538118188, -56256.390363739774, -47365.60402698565, -56884.09440327816, -33435.01340568226, -14071.920701494302, -0.114, 0.9580000000000001, 0.23, 192.0, 0.0, 0.0, 0.0, 0.0, 0.0, 0.0, 0.0, 0.0, 0.0, 1.70094691925493E9, 0.0, 2023-11-25 16:15:19.254
249.0, 9155.498046338325, 17470.704611623838, -53090.89161049028, -56284.97824489811, -46945.21241727024, -56824.50465256032, -33465.38942639702, -14104.621303632415, -0.114, 0.9580000000000001, 0.23, 192.0, 0.0, 0.0, 0.0, 0.0, 0.0, 0.0, 0.0, 0.0, 0.0, 1.700946919258969E9, 0.0, 2023-11-25 16:15:19.258
250.0, 8979.388651774962, 17398.508477033196, -53088.61173255584, -56283.458326275155, -46864.924951186775, -56987.56062836178, -33453.40889136898, -14087.343405168464, -0.114, 0.9580000000000001, 0.23, 192.0, 0.0, 0.0, 0.0, 0.0, 0.0, 0.0, 0.0, 0.0, 0.0, 1.70094691926192E9, 0.0, 2023-11-25 16:15:19.261
251.0, 8884.28197911763, 17460.489864407762, -53068.6292730128, -56231.870500072306, -47310.97636353688, -57007.25251522691, -33407.94544314688, -14037.141387121843, -0.114, 0.9580000000000001, 0.23, 192.0, 0.0, 0.0, 0.0, 0.0, 0.0, 0.0, 0.0, 0.0, 0.0, 1.700946919265937E9, 0.0, 2023-11-25 16:15:19.265
252.0, 9012.178660890897, 17544.13009215952, -53075.26774111602, -56216.000761509036, -47323.672154387496, -56863.977833268385, -33408.99597513628, -14031.15111960782, -0.114, 0.9580000000000001, 0.23, 192.0, 0.0, 0.0, 0.0, 0.0, 0.0, 0.0, 0.0, 0.0, 0.0, 1.700946919272016E9, 0.0, 2023-11-25 16:15:19.272
253.0, 9157.934386483954, 17510.624827221018, -53067.8246102124, -56253.55169219395, -46985.84788868998, -56790.172373076966, -33445.87635348753, -14072.926529994791, -0.114, 0.9580000000000001, 0.23, 192.0, 0.0, 0.0, 0.0, 0.0, 0.0, 0.0, 0.0, 0.0, 0.0, 1.70094691927501E9, 0.0, 2023-11-25 16:15:19.275
254.0, 9043.828731039612, 17412.366558595488, -53076.094755660866, -56282.89953266377, -46716.218795325614, -56920.50539499586, -33454.347664636094, -14081.017861487611, -0.114, 0.9580000000000001, 0.23, 192.0, 0.0, 0.0, 0.0, 0.0, 0.0, 0.0, 0.0, 0.0, 0.0, 1.700946919279015E9, 0.0, 2023-11-25 16:15:19.279
255.0, 8868.591054510005, 17432.30431464962, -53080.52040106302, -56252.00942182654, -47209.87942336553, -57015.88028858665, -33413.64513798298, -14038.281326089065, -0.114, 0.9580000000000001, 0.23, 192.0, 0.0, 0.0, 0.0, 0.0, 0.0, 0.0, 0.0, 0.0, 0.0, 1.70094691928311E9, 0.0, 2023-11-25 16:15:19.283
0.0, 8979.34394828605, 17506.646216707974, -53096.85952625985, -56244.231014756086, -47254.64996750951, -56872.851475817144, -33415.790905450696, -14037.096683632933, -0.114, 0.9580000000000001, 0.228, 192.0, 252.0, 112.0, 29.0, 240.0, 7.0, 32.0, 0.0, 0.0, 0.0, 1.700946919287021E9, 0.0, 2023-11-25 16:15:19.287
1.0, 9134.733275739345, 17515.11752785653, -53081.66034003024, -56257.1279713068, -47006.411493588865, -56783.310387529185, -33422.85405669857, -14052.586442540462, -0.114, 0.9580000000000001, 0.228, 192.0, 0.0, 0.0, 0.0, 0.0, 0.0, 0.0, 0.0, 0.0, 0.0, 1.700946919290409E9, 0.0, 2023-11-25 16:15:19.290
2.0, 9087.839315872112, 17395.759212465193, -53093.37265412482, -56311.95680045567, -46586.757491440476, -56869.00697577083, -33454.61588556956, -14089.712690080725, -0.114, 0.9580000000000001, 0.228, 192.0, 0.0, 0.0, 0.0, 0.0, 0.0, 0.0, 0.0, 0.0, 0.0, 1.700946919294053E9, 0.0, 2023-11-25 16:15:19.294
3.0, 8858.286900316109, 17411.092509161535, -53084.58841855388, -56266.962738867136, -47085.02257883818, -57025.469186957984, -33399.25061455376, -14027.73130270616, -0.114, 0.9580000000000001, 0.228, 192.0, 0.0, 0.0, 0.0, 0.0, 0.0, 0.0, 0.0, 0.0, 0.0, 1.700946919298052E9, 0.0, 2023-11-25 16:15:19.298
4.0, 8955.159360785408, 17486.864922865025, -53094.93727623669, -56256.122142806315, -47206.48195820832, -56889.637635903084, -33400.34585003208, -14023.864450915391, -0.114, 0.9580000000000001, 0.228, 192.0, 0.0, 0.0, 0.0, 0.0, 0.0, 0.0, 0.0, 0.0, 0.0, 1.700946919302086E9, 0.0, 2023-11-25 16:15:19.302
5.0, 9097.629379943535, 17512.256504566252, -53090.623389556815, -56264.23582604359, -47081.848631125526, -56805.52802151776, -33416.46145778435, -14042.34934357993, -0.114, 0.9580000000000001, 0.228, 192.0, 0.0, 0.0, 0.0, 0.0, 0.0, 0.0, 0.0, 0.0, 0.0, 1.700946919306998E9, 0.0, 2023-11-25 16:15:19.306
6.0, 9128.966525669877, 17404.34228233603, -53085.862467987834, -56316.76242551356, -46590.803157186885, -56844.129484192075, -33440.71310051836, -14079.743812053659, -0.114, 0.9580000000000001, 0.228, 192.0, 0.0, 0.0, 0.0, 0.0, 0.0, 0.0, 0.0, 0.0, 0.0, 1.700946919311053E9, 0.0, 2023-11-25 16:15:19.311
7.0, 8870.535656277616, 17405.191648625332, -53071.199723625155, -56264.638157443784, -47020.604851317985, -57035.2145475405, -33371.579154918094, -14003.904343116803, -0.114, 0.9580000000000001, 0.228, 192.0, 0.0, 0.0, 0.0, 0.0, 0.0, 0.0, 0.0, 0.0, 0.0, 1.700946919314019E9, 0.0, 2023-11-25 16:15:19.314
8.0, 8927.376142427462, 17473.520931425206, -53086.37655811031, -56256.747991651064, -47232.90172015449, -56925.221613075926, -33379.80459687765, -14012.666226943282, -0.114, 0.9580000000000001, 0.228, 192.0, 0.0, 0.0, 0.0, 0.0, 0.0, 0.0, 0.0, 0.0, 0.0, 1.700946919318189E9, 0.0, 2023-11-25 16:15:19.318
9.0, 9061.151332992475, 17529.489699541296, -53089.237581400586, -56254.24459627207, -47190.65692313396, -56835.524062576784, -33390.91341387194, -14025.116148604888, -0.114, 0.9580000000000001, 0.228, 192.0, 0.0, 0.0, 0.0, 0.0, 0.0, 0.0, 0.0, 0.0, 0.0, 1.700946919322169E9, 0.0, 2023-11-25 16:15:19.322
10.0, 9144.8586159776, 17439.725093808782, -53081.12389816331, -56307.26293412005, -46695.99046659356, -56839.32385913419, -33432.35354809208, -14076.346346896453, -0.114, 0.9540000000000001, 0.23600000000000002, 192.0, 252.0, 112.0, 29.0, 208.0, 7.0, 96.0, 0.0, 0.0, 0.0, 1.700946919326057E9, 0.0, 2023-11-25 16:15:19.326
11.0, 8900.486993847728, 17420.4131865994, -53078.50874406204, -56272.99770987007, -46999.61656327445, -57049.519663991894, -33393.50621622875, -14034.190956853743, -0.114, 0.9540000000000001, 0.23600000000000002, 192.0, 0.0, 0.0, 0.0, 0.0, 0.0, 0.0, 0.0, 0.0, 0.0, 1.700946919330099E9, 0.0, 2023-11-25 16:15:19.330
12.0, 8915.641476588426, 17485.277949008698, -53088.74584302257, -56257.68676491818, -47312.42922692648, -56979.37988989114, -33396.94838487487, -14036.448483043729, -0.114, 0.9540000000000001, 0.23600000000000002, 192.0, 0.0, 0.0, 0.0, 0.0, 0.0, 0.0, 0.0, 0.0, 0.0, 1.700946919334126E9, 0.0, 2023-11-25 16:15:19.334
13.0, 9052.054172999166, 17563.307888902174, -53084.6331220428, -56235.290316973966, -47315.11143626111, -56865.49775189135, -33393.90854762895, -14032.1122446194, -0.114, 0.9540000000000001, 0.23600000000000002, 192.0, 0.0, 0.0, 0.0, 0.0, 0.0, 0.0, 0.0, 0.0, 0.0, 1.700946919339142E9, 0.0, 2023-11-25 16:15:19.339
14.0, 9170.138438956552, 17478.773591372203, -53080.60980804084, -56294.65655024726, -46838.438134007236, -56831.120768919085, -33450.5478680787, -14098.340463440474, -0.114, 0.9540000000000001, 0.23600000000000002, 192.0, 0.0, 0.0, 0.0, 0.0, 0.0, 0.0, 0.0, 0.0, 0.0, 1.700946919342441E9, 0.0, 2023-11-25 16:15:19.342
15.0, 8947.984450815255, 17431.432596615865, -53076.94412195017, -56275.2328843156, -46949.54865569457, -57033.24759402843, -33421.87057994254, -14060.498960077639, -0.114, 0.9540000000000001, 0.23600000000000002, 192.0, 0.0, 0.0, 0.0, 0.0, 0.0, 0.0, 0.0, 0.0, 0.0, 1.700946919346096E9, 0.0, 2023-11-25 16:15:19.346
16.0, 8910.277057919153, 17499.1807340599, -53061.74493572056, -56232.18342449468, -47340.592424940165, -56990.82398305226, -33395.54022497418, -14027.641895728339, -0.114, 0.9540000000000001, 0.23600000000000002, 192.0, 0.0, 0.0, 0.0, 0.0, 0.0, 0.0, 0.0, 0.0, 0.0, 1.70094691935115E9, 0.0, 2023-11-25 16:15:19.351
17.0, 9038.710181559347, 17576.920101275457, -53059.308595574934, -56208.289409671954, -47352.72942217939, -56857.62993784308, -33399.11650408703, -14024.020913126578, -0.114, 0.9540000000000001, 0.23600000000000002, 192.0, 0.0, 0.0, 0.0, 0.0, 0.0, 0.0, 0.0, 0.0, 0.0, 1.700946919357156E9, 0.0, 2023-11-25 16:15:19.357
18.0, 9186.075232753186, 17521.666588981938, -53043.081229100375, -56247.315555490924, -46945.86061785944, -56795.8050126797, -33441.04837668519, -14071.339556138464, -0.114, 0.9540000000000001, 0.23600000000000002, 192.0, 0.0, 0.0, 0.0, 0.0, 0.0, 0.0, 0.0, 0.0, 0.0, 1.700946919360142E9, 0.0, 2023-11-25 16:15:19.360
19.0, 9018.83948073858, 17446.654134589928, -53044.757609934524, -56248.94723283616, -46848.71993645668, -56963.15252341658, -33433.96287369286, -14059.157855410322, -0.114, 0.9540000000000001, 0.23600000000000002, 192.0, 0.0, 0.0, 0.0, 0.0, 0.0, 0.0, 0.0, 0.0, 0.0, 1.700946919363129E9, 0.0, 2023-11-25 16:15:19.363
20.0, 8907.326627651051, 17501.818239905624, -53036.06278134141, -56203.55083984743, -47326.041439299755, -56994.020282509366, -33396.72486743032, -14017.114224089888, -0.12, 0.9540000000000001, 0.24, 192.0, 252.0, 64.0, 29.0, 208.0, 7.0, 128.0, 0.0, 0.0, 0.0, 1.700946919367162E9, 0.0, 2023-11-25 16:15:19.367
21.0, 9021.678152284403, 17572.91913901796, -53056.089944373365, -56197.89584850024, -47371.549591010764, -56860.066277988706, -33401.70930644385, -14022.769215437082, -0.12, 0.9540000000000001, 0.24, 192.0, 0.0, 0.0, 0.0, 0.0, 0.0, 0.0, 0.0, 0.0, 0.0, 1.700946919370189E9, 0.0, 2023-11-25 16:15:19.370
22.0, 9168.05972672221, 17545.024161937734, -53043.59531922285, -56229.00947678203, -47065.80007860662, -56784.13740207403, -33421.04356539769, -14048.92075644979, -0.12, 0.9540000000000001, 0.24, 192.0, 0.0, 0.0, 0.0, 0.0, 0.0, 0.0, 0.0, 0.0, 0.0, 1.700946919374186E9, 0.0, 2023-11-25 16:15:19.374
23.0, 9054.669327100435, 17435.679428062373, -53060.51558977552, -56271.61190171384, -46793.622886374345, -56924.01461887534, -33437.76267025026, -14066.288061891564, -0.12, 0.9540000000000001, 0.24, 192.0, 0.0, 0.0, 0.0, 0.0, 0.0, 0.0, 0.0, 0.0, 0.0, 1.700946919378179E9, 0.0, 2023-11-25 16:15:19.378
24.0, 8890.160487909376, 17491.89406536747, -53027.25619402602, -56199.72869154557, -47317.45836942892, -57007.58779139374, -33359.73273035678, -13983.921883573757, -0.12, 0.9540000000000001, 0.24, 192.0, 0.0, 0.0, 0.0, 0.0, 0.0, 0.0, 0.0, 0.0, 0.0, 1.700946919382192E9, 0.0, 2023-11-25 16:15:19.382
25.0, 9006.367207332518, 17562.9949644798, -53038.38736276476, -56190.631531552266, -47388.08988190769, -56849.33744065016, -33360.69385536836, -13982.714889373172, -0.12, 0.9540000000000001, 0.24, 192.0, 0.0, 0.0, 0.0, 0.0, 0.0, 0.0, 0.0, 0.0, 0.0, 1.700946919386243E9, 0.0, 2023-11-25 16:15:19.386
26.0, 9144.277470621762, 17553.026086452734, -53038.54382497595, -56221.231069711575, -47179.97278928433, -56772.35803274609, -33384.99020159128, -14015.661360700293, -0.12, 0.9540000000000001, 0.24, 192.0, 0.0, 0.0, 0.0, 0.0, 0.0, 0.0, 0.0, 0.0, 0.0, 1.700946919390268E9, 0.0, 2023-11-25 16:15:19.390
27.0, 9106.503022492292, 17443.480186877274, -53040.287261043464, -56266.672166189215, -46770.824107029934, -56859.373373910596, -33409.75593444776, -14047.959631438212, -0.12, 0.9540000000000001, 0.24, 192.0, 0.0, 0.0, 0.0, 0.0, 0.0, 0.0, 0.0, 0.0, 0.0, 1.700946919394313E9, 0.0, 2023-11-25 16:15:19.394
28.0, 8885.064290173566, 17458.098227751045, -53031.03363883897, -56217.69949408764, -47275.41473810849, -57016.52848917586, -33355.240029721266, -13991.119145288367, -0.12, 0.9540000000000001, 0.24, 192.0, 0.0, 0.0, 0.0, 0.0, 0.0, 0.0, 0.0, 0.0, 0.0, 1.700946919398219E9, 0.0, 2023-11-25 16:15:19.398
29.0, 8973.44308774985, 17528.305057085163, -53047.32806054688, -56210.63634283976, -47404.563117571255, -56882.3286154662, -33365.96886705981, -13999.791622137025, -0.12, 0.9540000000000001, 0.24, 192.0, 0.0, 0.0, 0.0, 0.0, 0.0, 0.0, 0.0, 0.0, 0.0, 1.700946919402865E9, 0.0, 2023-11-25 16:15:19.402
30.0, 9121.836319188633, 17570.41574363896, -53033.76055166251, -56208.20000269413, -47279.68392129945, -56785.21028580789, -33375.80363462015, -14011.056901342501, -0.128, 0.9500000000000001, 0.242, 192.0, 252.0, 0.0, 29.0, 176.0, 7.0, 144.0, 0.0, 0.0, 0.0, 1.700946919406597E9, 0.0, 2023-11-25 16:15:19.406
31.0, 9136.946098440421, 17433.466605361296, -53061.63317699828, -56295.483564792106, -46790.11366249486, -56836.798112010736, -33441.87539123004, -14084.705899322737, -0.128, 0.9500000000000001, 0.242, 192.0, 0.0, 0.0, 0.0, 0.0, 0.0, 0.0, 0.0, 0.0, 0.0, 1.700946919411264E9, 0.0, 2023-11-25 16:15:19.411
32.0, 8874.067231901554, 17428.25864890321, -53058.1239531188, -56253.17171253821, -47222.15053107149, -57041.070704587786, -33381.0786463116, -14019.617619468883, -0.128, 0.9500000000000001, 0.242, 192.0, 0.0, 0.0, 0.0, 0.0, 0.0, 0.0, 0.0, 0.0, 0.0, 1.700946919415292E9, 0.0, 2023-11-25 16:15:19.415
33.0, 8937.479130921261, 17498.800754404157, -53066.3270433339, -56241.03471529898, -47443.16458024557, -56921.91355489654, -33376.00480032025, -14014.38731126634, -0.128, 0.9500000000000001, 0.242, 192.0, 0.0, 0.0, 0.0, 0.0, 0.0, 0.0, 0.0, 0.0, 0.0, 1.700946919418362E9, 0.0, 2023-11-25 16:15:19.418
34.0, 9078.295120989695, 17562.23500516832, -53060.11325837532, -56230.395284938255, -47397.3882076011, -56818.78260597976, -33368.96400081683, -14011.034549598045, -0.128, 0.9500000000000001, 0.242, 192.0, 0.0, 0.0, 0.0, 0.0, 0.0, 0.0, 0.0, 0.0, 0.0, 1.700946919423002E9, 0.0, 2023-11-25 16:15:19.423
35.0, 9159.43195336246, 17455.460721905318, -53066.90818868973, -56304.17839338522, -46887.18728866426, -56825.666943271994, -33425.223341610836, -14079.11796320891, -0.128, 0.9500000000000001, 0.242, 192.0, 0.0, 0.0, 0.0, 0.0, 0.0, 0.0, 0.0, 0.0, 0.0, 1.700946919426374E9, 0.0, 2023-11-25 16:15:19.426
36.0, 8891.702758276791, 17408.92438994937, -53082.46500283063, -56290.00738740056, -47160.88439951949, -57057.074553617786, -33394.5343964737, -14046.551471537528, -0.128, 0.9500000000000001, 0.242, 192.0, 0.0, 0.0, 0.0, 0.0, 0.0, 0.0, 0.0, 0.0, 0.0, 1.700946919429588E9, 0.0, 2023-11-25 16:15:19.429
37.0, 8899.928200236345, 17471.330460468587, -53082.241485386076, -56264.727564421606, -47470.52311545886, -56976.541218345315, -33377.323553243106, -14029.20651784021, -0.128, 0.9500000000000001, 0.242, 192.0, 0.0, 0.0, 0.0, 0.0, 0.0, 0.0, 0.0, 0.0, 0.0, 1.700946919434327E9, 0.0, 2023-11-25 16:15:19.434
38.0, 9025.58970756408, 17533.84828971008, -53090.57868606791, -56258.67024167422, -47455.27922574034, -56859.999222755345, -33387.02421033671, -14037.946049922235, -0.128, 0.9500000000000001, 0.242, 192.0, 0.0, 0.0, 0.0, 0.0, 0.0, 0.0, 0.0, 0.0, 0.0, 1.700946919438655E9, 0.0, 2023-11-25 16:15:19.438
39.0, 9154.04518294873, 17464.289660965165, -53070.618578269314, -56302.09968115088, -46988.61950500244, -56829.24322238484, -33426.45268755587, -14084.661195833827, -0.128, 0.9500000000000001, 0.242, 192.0, 0.0, 0.0, 0.0, 0.0, 0.0, 0.0, 0.0, 0.0, 0.0, 1.70094691944245E9, 0.0, 2023-11-25 16:15:19.442
40.0, 8944.117599024486, 17408.902038204913, -53067.198761367654, -56287.168715854736, -47066.94001757384, -57025.24566951343, -33405.218530323335, -14059.224910643687, -0.12, 0.9460000000000001, 0.248, 192.0, 252.0, 64.0, 29.0, 144.0, 7.0, 192.0, 0.0, 0.0, 0.0, 1.700946919446368E9, 0.0, 2023-11-25 16:15:19.446
41.0, 8891.367482109963, 17465.74252435476, -53066.505857289536, -56254.62457592781, -47468.13147880215, -56998.982369778445, -33394.869672640525, -14038.72836097817, -0.12, 0.9460000000000001, 0.248, 192.0, 0.0, 0.0, 0.0, 0.0, 0.0, 0.0, 0.0, 0.0, 0.0, 1.700946919450326E9, 0.0, 2023-11-25 16:15:19.450
42.0, 9018.258335382741, 17546.454673582874, -53075.871238216314, -56234.08332277338, -47474.07704282726, -56855.55122560874, -33397.79775116417, -14035.35324756542, -0.12, 0.9460000000000001, 0.248, 192.0, 0.0, 0.0, 0.0, 0.0, 0.0, 0.0, 0.0, 0.0, 0.0, 1.70094691945491E9, 0.0, 2023-11-25 16:15:19.454
43.0, 9173.558255858214, 17516.101004612567, -53047.775095435994, -56253.30582300494, -47067.096479785025, -56783.35509101809, -33417.84726594058, -14061.191864155755, -0.12, 0.9460000000000001, 0.248, 192.0, 0.0, 0.0, 0.0, 0.0, 0.0, 0.0, 0.0, 0.0, 0.0, 1.700946919457408E9, 0.0, 2023-11-25 16:15:19.457
44.0, 9006.098986399054, 17427.364579125, -53059.12978161929, -56266.15807606674, -46942.038469557585, -56956.692869269005, -33417.33317581811, -14062.175340911788, -0.12, 0.9460000000000001, 0.248, 192.0, 0.0, 0.0, 0.0, 0.0, 0.0, 0.0, 0.0, 0.0, 0.0, 1.700946919461388E9, 0.0, 2023-11-25 16:15:19.461
45.0, 8880.638644771416, 17474.59381515906, -53053.89947341674, -56219.86761329981, -47423.13741721361, -56991.58394236374, -33378.79876837716, -14019.930543891258, -0.12, 0.9460000000000001, 0.248, 192.0, 0.0, 0.0, 0.0, 0.0, 0.0, 0.0, 0.0, 0.0, 0.0, 1.700946919466334E9, 0.0, 2023-11-25 16:15:19.466
46.0, 8994.900762426945, 17548.645144539492, -53078.1287644063, -56215.643133597754, -47454.13928677313, -56842.87778650258, -33396.16607381893, -14034.123901620378, -0.12, 0.9460000000000001, 0.248, 192.0, 0.0, 0.0, 0.0, 0.0, 0.0, 0.0, 0.0, 0.0, 0.0, 1.700946919470834E9, 0.0, 2023-11-25 16:15:19.470
47.0, 9149.641889291035, 17532.17190887593, -53063.95775842163, -56239.8724245873, -47157.28576866219, -56771.68748041242, -33421.915283431445, -14063.874073490391, -0.12, 0.9460000000000001, 0.248, 192.0, 0.0, 0.0, 0.0, 0.0, 0.0, 0.0, 0.0, 0.0, 0.0, 1.700946919474455E9, 0.0, 2023-11-25 16:15:19.474
48.0, 9057.239777712795, 17429.4656431038, -53067.08700264538, -56273.93648313719, -46871.988102434654, -56911.27412453582, -33431.12420214703, -14078.715631808715, -0.12, 0.9460000000000001, 0.248, 192.0, 0.0, 0.0, 0.0, 0.0, 0.0, 0.0, 0.0, 0.0, 0.0, 1.700946919478392E9, 0.0, 2023-11-25 16:15:19.478
49.0, 8877.040013914111, 17468.31297496712, -53044.64585121225, -56218.63826735476, -47386.32409409572, -57004.41384368108, -33353.80951807612, -14008.48645073014, -0.12, 0.9460000000000001, 0.248, 192.0, 0.0, 0.0, 0.0, 0.0, 0.0, 0.0, 0.0, 0.0, 0.0, 1.7009469194824E9, 0.0, 2023-11-25 16:15:19.482
50.0, 8972.459610993816, 17526.740434973293, -53074.351319593356, -56228.60714538183, -47447.65728088108, -56853.89719651904, -33370.46156769533, -14026.30079106102, -0.112, 0.9460000000000001, 0.246, 192.0, 252.0, 128.0, 29.0, 144.0, 7.0, 176.0, 0.0, 0.0, 0.0, 1.700946919485409E9, 0.0, 2023-11-25 16:15:19.485
51.0, 9130.933479181944, 17550.90267072948, -53051.5748919934, -56229.79178783796, -47244.189351104425, -56769.0499745667, -33380.69866665586, -14035.576765009971, -0.112, 0.9460000000000001, 0.246, 192.0, 0.0, 0.0, 0.0, 0.0, 0.0, 0.0, 0.0, 0.0, 0.0, 1.700946919490464E9, 0.0, 2023-11-25 16:15:19.490
52.0, 9108.179403326441, 17439.814500786604, -53054.86059842833, -56280.19497158468, -46829.69860192521, -56865.16247572452, -33410.51589375924, -14068.702050292737, -0.112, 0.9460000000000001, 0.246, 192.0, 0.0, 0.0, 0.0, 0.0, 0.0, 0.0, 0.0, 0.0, 0.0, 1.700946919494572E9, 0.0, 2023-11-25 16:15:19.494
53.0, 8879.14107789291, 17458.098227751045, -53048.020964625, -56233.72569486209, -47332.63520391408, -57028.95605909301, -33354.83769832107, -14007.592380951928, -0.112, 0.9460000000000001, 0.246, 192.0, 0.0, 0.0, 0.0, 0.0, 0.0, 0.0, 0.0, 0.0, 0.0, 1.700946919498464E9, 0.0, 2023-11-25 16:15:19.498
54.0, 8958.422715475883, 17517.285647068697, -53079.715738262625, -56242.42052345521, -47459.61546416467, -56894.666778405524, -33383.71615215733, -14030.122939362876, -0.112, 0.9460000000000001, 0.246, 192.0, 0.0, 0.0, 0.0, 0.0, 0.0, 0.0, 0.0, 0.0, 0.0, 1.700946919502596E9, 0.0, 2023-11-25 16:15:19.502
55.0, 9107.888830648522, 17563.754923791283, -53064.024813655, -56235.58088965189, -47329.43890445696, -56793.94981788991, -33389.95228886036, -14027.552488750516, -0.112, 0.9460000000000001, 0.246, 192.0, 0.0, 0.0, 0.0, 0.0, 0.0, 0.0, 0.0, 0.0, 0.0, 1.700946919506527E9, 0.0, 2023-11-25 16:15:19.506
56.0, 9145.037429933242, 17450.565689869607, -53066.81878171191, -56301.496184050586, -46846.55181724451, -56850.92441450649, -33438.67909177293, -14077.64274807486, -0.112, 0.9460000000000001, 0.246, 192.0, 0.0, 0.0, 0.0, 0.0, 0.0, 0.0, 0.0, 0.0, 0.0, 1.700946919510526E9, 0.0, 2023-11-25 16:15:19.510
57.0, 8883.834944228523, 17434.60654432852, -53060.135610119774, -56265.643985944276, -47261.40019433501, -57063.377745554186, -33379.55872768864, -14015.259029300098, -0.112, 0.9460000000000001, 0.246, 192.0, 0.0, 0.0, 0.0, 0.0, 0.0, 0.0, 0.0, 0.0, 0.0, 1.700946919513526E9, 0.0, 2023-11-25 16:15:19.513
58.0, 8939.49078792224, 17502.265274794732, -53066.88583694528, -56256.52447420651, -47471.37248174816, -56936.84452019269, -33382.44210272338, -14016.577782222961, -0.112, 0.9460000000000001, 0.246, 192.0, 0.0, 0.0, 0.0, 0.0, 0.0, 0.0, 0.0, 0.0, 0.0, 1.700946919517523E9, 0.0, 2023-11-25 16:15:19.517
59.0, 9070.494362174793, 17552.891975986004, -53079.8274969849, -56260.43602948618, -47409.54755658479, -56833.13242592006, -33403.65390821146, -14038.750712722625, -0.112, 0.9460000000000001, 0.246, 192.0, 0.0, 0.0, 0.0, 0.0, 0.0, 0.0, 0.0, 0.0, 0.0, 1.700946919522575E9, 0.0, 2023-11-25 16:15:19.522
60.0, 9160.817761518689, 17461.49569290825, -53072.13849689228, -56317.38827435831, -46922.70421060374, -56853.51721686331, -33454.638237314015, -14099.79332683007, -0.116, 0.9480000000000001, 0.23800000000000002, 192.0, 252.0, 96.0, 29.0, 160.0, 7.0, 112.0, 0.0, 0.0, 0.0, 1.700946919526533E9, 0.0, 2023-11-25 16:15:19.526
61.0, 8921.497633635716, 17436.2158699293, -53055.30763331743, -56274.56233198194, -47182.11855675204, -57065.14353336615, -33395.920204629925, -14039.823596456481, -0.116, 0.9480000000000001, 0.23800000000000002, 192.0, 0.0, 0.0, 0.0, 0.0, 0.0, 0.0, 0.0, 0.0, 0.0, 1.70094691953055E9, 0.0, 2023-11-25 16:15:19.530
62.0, 8926.012686015689, 17504.27693179571, -53053.13951410526, -56245.281546745486, -47482.16837432008, -56971.020337464855, -33383.93966960188, -14027.798357939526, -0.116, 0.9480000000000001, 0.23800000000000002, 192.0, 0.0, 0.0, 0.0, 0.0, 0.0, 0.0, 0.0, 0.0, 0.0, 1.700946919534619E9, 0.0, 2023-11-25 16:15:19.534
63.0, 9050.377792165016, 17572.025069239746, -53061.00732815354, -56230.01530528251, -47437.30842319828, -56825.890460716546, -33397.82010290863, -14039.801244712025, -0.116, 0.9480000000000001, 0.23800000000000002, 192.0, 0.0, 0.0, 0.0, 0.0, 0.0, 0.0, 0.0, 0.0, 0.0, 1.700946919537616E9, 0.0, 2023-11-25 16:15:19.537
64.0, 9176.91101752651, 17497.996091603767, -53049.00444138103, -56279.07738436191, -46973.17444958383, -56799.62716098156, -33444.155269164476, -14090.070317992011, -0.116, 0.9480000000000001, 0.23800000000000002, 192.0, 0.0, 0.0, 0.0, 0.0, 0.0, 0.0, 0.0, 0.0, 0.0, 1.700946919541588E9, 0.0, 2023-11-25 16:15:19.541
65.0, 8965.217645790297, 17432.438425116354, -53052.379554793784, -56270.89664589127, -47052.009052277695, -57017.780186865355, -33420.529475275216, -14062.35415486743, -0.116, 0.9480000000000001, 0.23800000000000002, 192.0, 0.0, 0.0, 0.0, 0.0, 0.0, 0.0, 0.0, 0.0, 0.0, 1.700946919545588E9, 0.0, 2023-11-25 16:15:19.545
66.0, 8904.778528783147, 17494.911550868936, -53041.67306919969, -56229.769436093506, -47463.1023362997, -56981.65976782558, -33388.70059117086, -14025.406721282807, -0.116, 0.9480000000000001, 0.23800000000000002, 192.0, 0.0, 0.0, 0.0, 0.0, 0.0, 0.0, 0.0, 0.0, 0.0, 1.700946919549589E9, 0.0, 2023-11-25 16:15:19.549
67.0, 9032.876376256512, 17578.03768849822, -53049.78675243697, -56215.4196161532, -47444.1480570016, -56815.83217571166, -33390.64519293847, -14024.244430571132, -0.116, 0.9480000000000001, 0.23800000000000002, 192.0, 0.0, 0.0, 0.0, 0.0, 0.0, 0.0, 0.0, 0.0, 0.0, 1.700946919555103E9, 0.0, 2023-11-25 16:15:19.555
68.0, 9176.48633438186, 17521.912458170948, -53042.678897700185, -56258.93846260768, -47059.45218318131, -56770.25696876729, -33428.911379445955, -14065.326936879987, -0.116, 0.9480000000000001, 0.23800000000000002, 192.0, 0.0, 0.0, 0.0, 0.0, 0.0, 0.0, 0.0, 0.0, 0.0, 1.70094691955889E9, 0.0, 2023-11-25 16:15:19.558
69.0, 9024.002733707755, 17438.629858330474, -53049.54088324796, -56267.096849333866, -46954.22017028573, -56965.141828673106, -33419.63540549701, -14051.0665239175, -0.116, 0.9480000000000001, 0.23800000000000002, 192.0, 0.0, 0.0, 0.0, 0.0, 0.0, 0.0, 0.0, 0.0, 0.0, 1.700946919562649E9, 0.0, 2023-11-25 16:15:19.562
70.0, 8896.28486589013, 17487.35666124304, -53042.56713897791, -56220.69462784465, -47444.01394653487, -56995.74136683242, -33373.45670145234, -14002.049148327013, -0.122, 0.9520000000000001, 0.234, 192.0, 252.0, 48.0, 29.0, 192.0, 7.0, 80.0, 0.0, 0.0, 0.0, 1.700946919565599E9, 0.0, 2023-11-25 16:15:19.565
71.0, 9002.612114264026, 17560.916252245457, -53069.791563724466, -56217.78890106546, -47452.84288559471, -56832.12659741958, -33391.69572492787, -14016.756596178604, -0.122, 0.9520000000000001, 0.234, 192.0, 0.0, 0.0, 0.0, 0.0, 0.0, 0.0, 0.0, 0.0, 0.0, 1.700946919571625E9, 0.0, 2023-11-25 16:15:19.571
72.0, 9166.71862205489, 17559.08340920012, -53049.76440069251, -56231.37876169429, -47160.638530330485, -56762.970300074856, -33407.163132090944, -14038.057808644511, -0.122, 0.9520000000000001, 0.234, 192.0, 0.0, 0.0, 0.0, 0.0, 0.0, 0.0, 0.0, 0.0, 0.0, 1.70094691957461E9, 0.0, 2023-11-25 16:15:19.574
73.0, 9082.56430418066, 17449.35869566902, -53057.98984265207, -56271.343680780374, -46882.314608373, -56920.751264184866, -33421.46824854234, -14058.487303076661, -0.122, 0.9520000000000001, 0.234, 192.0, 0.0, 0.0, 0.0, 0.0, 0.0, 0.0, 0.0, 0.0, 0.0, 1.700946919578636E9, 0.0, 2023-11-25 16:15:19.578
74.0, 8878.09054590351, 17469.654079634438, -53055.59820599535, -56231.62463088329, -47414.35318164268, -57036.600355696726, -33375.088378797576, -14005.91600011778, -0.122, 0.9520000000000001, 0.234, 192.0, 0.0, 0.0, 0.0, 0.0, 0.0, 0.0, 0.0, 0.0, 0.0, 1.700946919583672E9, 0.0, 2023-11-25 16:15:19.583
75.0, 8991.123317613998, 17557.47408359934, -53061.186142109174, -56214.32438067489, -47467.59503693522, -56853.40545814103, -33377.0776840541, -14000.842154126425, -0.122, 0.9520000000000001, 0.234, 192.0, 0.0, 0.0, 0.0, 0.0, 0.0, 0.0, 0.0, 0.0, 0.0, 1.700946919586819E9, 0.0, 2023-11-25 16:15:19.586
76.0, 9146.065610178186, 17571.24275818381, -53053.96652865011, -56230.75291284954, -47253.130048886545, -56762.120933785554, -33399.205911064855, -14024.646761971328, -0.122, 0.9520000000000001, 0.234, 192.0, 0.0, 0.0, 0.0, 0.0, 0.0, 0.0, 0.0, 0.0, 0.0, 1.700946919590669E9, 0.0, 2023-11-25 16:15:19.590
77.0, 9127.446607046915, 17454.030210260178, -53063.6224822548, -56289.31448332244, -46858.26413133909, -56888.47534519141, -33436.533324305216, -14070.579596826983, -0.122, 0.9520000000000001, 0.234, 192.0, 0.0, 0.0, 0.0, 0.0, 0.0, 0.0, 0.0, 0.0, 0.0, 1.700946919593727E9, 0.0, 2023-11-25 16:15:19.593
78.0, 8877.308234847575, 17443.994276999747, -53075.40185158275, -56267.298015033964, -47365.671082219014, -57074.86654220421, -33399.92116688743, -14026.993695139134, -0.122, 0.9520000000000001, 0.234, 192.0, 0.0, 0.0, 0.0, 0.0, 0.0, 0.0, 0.0, 0.0, 0.0, 1.700946919597685E9, 0.0, 2023-11-25 16:15:19.597
79.0, 8957.081610808566, 17516.928019157414, -53088.45527034465, -56260.23486378609, -47486.4599092555, -56915.230383304406, -33408.28071931371, -14032.447520786229, -0.122, 0.9520000000000001, 0.234, 192.0, 0.0, 0.0, 0.0, 0.0, 0.0, 0.0, 0.0, 0.0, 0.0, 1.700946919601696E9, 0.0, 2023-11-25 16:15:19.601
80.0, 9108.559382982181, 17572.025069239746, -53064.2259793551, -56242.062895543924, -47342.268805774314, -56792.42989926695, -33403.43039076691, -14030.100587618423, -0.128, 0.9540000000000001, 0.232, 192.0, 252.0, 0.0, 29.0, 208.0, 7.0, 64.0, 0.0, 0.0, 0.0, 1.700946919605701E9, 0.0, 2023-11-25 16:15:19.605
81.0, 9151.765305014289, 17462.434466175375, -53058.59333975236, -56299.462175305154, -46875.273808869584, -56865.49775189135, -33445.563429065165, -14079.050907975545, -0.128, 0.9540000000000001, 0.232, 192.0, 0.0, 0.0, 0.0, 0.0, 0.0, 0.0, 0.0, 0.0, 0.0, 1.700946919609723E9, 0.0, 2023-11-25 16:15:19.609
82.0, 8891.322778621052, 17441.446178131842, -53061.83434269838, -56270.248445302066, -47288.579915592665, -57086.4223940876, -33404.21270182284, -14033.028666142067, -0.128, 0.9540000000000001, 0.232, 192.0, 0.0, 0.0, 0.0, 0.0, 0.0, 0.0, 0.0, 0.0, 0.0, 1.70094691961476E9, 0.0, 2023-11-25 16:15:19.614
83.0, 8942.172997256876, 17512.681187710903, -53069.389232324276, -56255.31748000592, -47495.1100343597, -56944.6899824965, -33405.95613789036, -14033.453349286718, -0.128, 0.9540000000000001, 0.232, 192.0, 0.0, 0.0, 0.0, 0.0, 0.0, 0.0, 0.0, 0.0, 0.0, 1.700946919617748E9, 0.0, 2023-11-25 16:15:19.617
84.0, 9076.395222710995, 17565.811284281168, -53077.145287650266, -56251.94236659317, -47408.1393966841, -56811.85356519861, -33419.411888052455, -14043.668096502794, -0.128, 0.9540000000000001, 0.232, 192.0, 0.0, 0.0, 0.0, 0.0, 0.0, 0.0, 0.0, 0.0, 0.0, 1.700946919621878E9, 0.0, 2023-11-25 16:15:19.621
85.0, 9162.784715030755, 17466.63659413297, -53072.943159692666, -56308.22405913164, -46938.77511486711, -56846.61052782661, -33461.9472577509, -14092.193733715265, -0.128, 0.9540000000000001, 0.232, 192.0, 0.0, 0.0, 0.0, 0.0, 0.0, 0.0, 0.0, 0.0, 0.0, 1.700946919625841E9, 0.0, 2023-11-25 16:15:19.625
86.0, 8926.012686015689, 17435.54531759564, -53059.12978161929, -56269.66729994623, -47196.73659762581, -57066.75285896693, -33406.58198673511, -14032.1122446194, -0.128, 0.9540000000000001, 0.232, 192.0, 0.0, 0.0, 0.0, 0.0, 0.0, 0.0, 0.0, 0.0, 0.0, 1.700946919629791E9, 0.0, 2023-11-25 16:15:19.629
87.0, 8930.259517462197, 17509.328426042608, -53055.75466820654, -56234.77622685149, -47499.04394138383, -56957.519883813846, -33386.59952719206, -14010.63221819785, -0.128, 0.9540000000000001, 0.232, 192.0, 0.0, 0.0, 0.0, 0.0, 0.0, 0.0, 0.0, 0.0, 0.0, 1.700946919633782E9, 0.0, 2023-11-25 16:15:19.633
88.0, 9065.286405716706, 17587.201903724897, -53061.476714787095, -56216.17957546468, -47423.18212070252, -56795.24621906832, -33389.639364437986, -14013.984979866145, -0.128, 0.9540000000000001, 0.232, 192.0, 0.0, 0.0, 0.0, 0.0, 0.0, 0.0, 0.0, 0.0, 0.0, 1.700946919637817E9, 0.0, 2023-11-25 16:15:19.637
89.0, 9189.651511866035, 17511.138917343487, -53050.90433965973, -56265.30870977744, -46971.52042049413, -56791.93816088893, -33434.432260326415, -14070.758410782626, -0.128, 0.9540000000000001, 0.232, 192.0, 0.0, 0.0, 0.0, 0.0, 0.0, 0.0, 0.0, 0.0, 0.0, 1.700946919642796E9, 0.0, 2023-11-25 16:15:19.642
90.0, 8990.564524002615, 17456.73477133927, -53045.472865757096, -56247.33790723538, -47050.01974702117, -57018.49544268793, -33405.44204776789, -14040.49414879014, -0.114, 0.9520000000000001, 0.232, 192.0, 252.0, 112.0, 29.0, 192.0, 7.0, 64.0, 0.0, 0.0, 0.0, 1.700946919645833E9, 0.0, 2023-11-25 16:15:19.645
91.0, 8924.984505770744, 17515.922190656926, -53040.62253721029, -56209.80932829492, -47464.93517934503, -56976.85414276769, -33375.89304159797, -14010.252238542109, -0.114, 0.9520000000000001, 0.232, 192.0, 0.0, 0.0, 0.0, 0.0, 0.0, 0.0, 0.0, 0.0, 0.0, 1.700946919649886E9, 0.0, 2023-11-25 16:15:19.649
92.0, 9044.298117673174, 17591.67225261596, -53051.26196757102, -56195.07952869887, -47431.4969696399, -56792.34049228913, -33374.90956484194, -14004.86546812838, -0.114, 0.9520000000000001, 0.232, 192.0, 0.0, 0.0, 0.0, 0.0, 0.0, 0.0, 0.0, 0.0, 0.0, 1.700946919653899E9, 0.0, 2023-11-25 16:15:19.653
93.0, 9183.750651329834, 17542.05137992518, -53040.80135116594, -56237.16786350821, -47060.63682563744, -56753.6943261259, -33404.32446054512, -14047.244375615643, -0.114, 0.9520000000000001, 0.232, 192.0, 0.0, 0.0, 0.0, 0.0, 0.0, 0.0, 0.0, 0.0, 0.0, 1.700946919657838E9, 0.0, 2023-11-25 16:15:19.657
94.0, 9038.576071092615, 17452.867919548502, -53048.55740649193, -56256.85975037334, -46958.042318587584, -56962.75019201639, -33399.272966298224, -14042.0140674131, -0.114, 0.9520000000000001, 0.232, 192.0, 0.0, 0.0, 0.0, 0.0, 0.0, 0.0, 0.0, 0.0, 0.0, 1.700946919661876E9, 0.0, 2023-11-25 16:15:19.661
95.0, 8908.019531729165, 17502.354681772555, -53041.29308954395, -56212.424482396185, -47460.755403131894, -57000.725805845956, -33357.13992799997, -13999.05401457, -0.114, 0.9520000000000001, 0.232, 192.0, 0.0, 0.0, 0.0, 0.0, 0.0, 0.0, 0.0, 0.0, 0.0, 1.700946919665924E9, 0.0, 2023-11-25 16:15:19.665
96.0, 9021.655800539947, 17573.56733960716, -53068.83043871289, -56212.759758563014, -47450.697118127006, -56815.474547800375, -33378.150567787954, -14015.795471167026, -0.114, 0.9520000000000001, 0.232, 192.0, 0.0, 0.0, 0.0, 0.0, 0.0, 0.0, 0.0, 0.0, 0.0, 1.700946919671337E9, 0.0, 2023-11-25 16:15:19.671
97.0, 9167.031546477265, 17562.19030167941, -53057.207531596134, -56234.68681987367, -47161.420841386425, -56755.1471895155, -33401.597547721576, -14039.376561567375, -0.114, 0.9520000000000001, 0.232, 192.0, 0.0, 0.0, 0.0, 0.0, 0.0, 0.0, 0.0, 0.0, 0.0, 1.700946919674592E9, 0.0, 2023-11-25 16:15:19.674
98.0, 9094.99187409781, 17465.049620276644, -53053.18421759418, -56262.3806312538, -46896.39620737985, -56924.61811597564, -33410.314728059144, -14046.663230259805, -0.114, 0.9520000000000001, 0.232, 192.0, 0.0, 0.0, 0.0, 0.0, 0.0, 0.0, 0.0, 0.0, 0.0, 1.70094691967795E9, 0.0, 2023-11-25 16:15:19.677
99.0, 8893.245028644209, 17489.03304207719, -53049.809104181426, -56221.387531922766, -47436.079077253235, -57043.81996915579, -33366.70647462684, -13994.628369167849, -0.114, 0.9520000000000001, 0.232, 192.0, 0.0, 0.0, 0.0, 0.0, 0.0, 0.0, 0.0, 0.0, 0.0, 1.700946919681925E9, 0.0, 2023-11-25 16:15:19.681
100.0, 9000.689864240869, 17562.257356912774, -53066.93054043419, -56218.83943305486, -47476.11105157269, -56852.176112195986, -33385.81721613613, -14010.542811220028, -0.11, 0.9520000000000001, 0.234, 192.0, 252.0, 144.0, 29.0, 192.0, 7.0, 80.0, 0.0, 0.0, 0.0, 1.700946919685984E9, 0.0, 2023-11-25 16:15:19.685
101.0, 9147.8090462457, 17573.366173907063, -53060.582645008886, -56234.21743324011, -47256.92984544395, -56762.612672163574, -33411.32055655963, -14039.577727267471, -0.11, 0.9520000000000001, 0.234, 192.0, 0.0, 0.0, 0.0, 0.0, 0.0, 0.0, 0.0, 0.0, 0.0, 1.700946919689985E9, 0.0, 2023-11-25 16:15:19.689
102.0, 9131.76049372679, 17464.40141968744, -53061.40965955373, -56285.17941059821, -46872.70335825722, -56902.24401977588, -33447.373920366044, -14080.727288809692, -0.11, 0.9520000000000001, 0.234, 192.0, 0.0, 0.0, 0.0, 0.0, 0.0, 0.0, 0.0, 0.0, 0.0, 1.700946919693936E9, 0.0, 2023-11-25 16:15:19.693
103.0, 8897.245990901709, 17480.762896628727, -53044.0200023675, -56231.64698262775, -47379.57386727022, -57073.234864858976, -33381.726846900805, -14011.928619376258, -0.11, 0.9520000000000001, 0.234, 192.0, 0.0, 0.0, 0.0, 0.0, 0.0, 0.0, 0.0, 0.0, 0.0, 1.700946919699042E9, 0.0, 2023-11-25 16:15:19.699
104.0, 8966.29052952415, 17531.94839143138, -53068.74103173507, -56240.36416296532, -47476.915714373084, -56895.00205457235, -33404.61503322304, -14034.883860931857, -0.11, 0.9520000000000001, 0.234, 192.0, 0.0, 0.0, 0.0, 0.0, 0.0, 0.0, 0.0, 0.0, 0.0, 1.700946919702097E9, 0.0, 2023-11-25 16:15:19.702
105.0, 9107.195926570408, 17575.936624519425, -53058.392174052264, -56236.63142164129, -47312.071599015195, -56777.47658222635, -33411.74523970428, -14041.902308690824, -0.11, 0.9520000000000001, 0.234, 192.0, 0.0, 0.0, 0.0, 0.0, 0.0, 0.0, 0.0, 0.0, 0.0, 1.700946919706035E9, 0.0, 2023-11-25 16:15:19.706
106.0, 9155.945081227432, 17466.189559243867, -53055.88877867327, -56297.45051830418, -46858.621759250374, -56865.47540014689, -33455.24173441431, -14092.1266784819, -0.11, 0.9520000000000001, 0.234, 192.0, 0.0, 0.0, 0.0, 0.0, 0.0, 0.0, 0.0, 0.0, 0.0, 1.700946919710029E9, 0.0, 2023-11-25 16:15:19.710
107.0, 8906.834889273036, 17460.132236496476, -53041.96364187761, -56252.12118054881, -47271.369072362075, -57085.170696398105, -33397.21660580833, -14029.228869584666, -0.11, 0.9520000000000001, 0.234, 192.0, 0.0, 0.0, 0.0, 0.0, 0.0, 0.0, 0.0, 0.0, 0.0, 1.700946919714035E9, 0.0, 2023-11-25 16:15:19.714
108.0, 8946.978622314766, 17517.79973719117, -53062.21432235412, -56250.44479971466, -47467.3044642573, -56932.59768874618, -33404.033887867205, -14036.87316618838, -0.11, 0.9520000000000001, 0.234, 192.0, 0.0, 0.0, 0.0, 0.0, 0.0, 0.0, 0.0, 0.0, 0.0, 1.700946919718011E9, 0.0, 2023-11-25 16:15:19.718
109.0, 9076.842257600101, 17577.90357803149, -53067.757554979034, -56241.05706704344, -47354.003471613345, -56791.51347774428, -33407.63251872451, -14040.516500534595, -0.11, 0.9520000000000001, 0.234, 192.0, 0.0, 0.0, 0.0, 0.0, 0.0, 0.0, 0.0, 0.0, 0.0, 1.70094691972205E9, 0.0, 2023-11-25 16:15:19.722
110.0, 9180.889628039555, 17489.65889092194, -53053.45243852764, -56285.492335020586, -46878.60421879342, -56819.00612342431, -33441.294245874196, -14082.82835278849, -0.112, 0.9560000000000001, 0.23800000000000002, 192.0, 252.0, 128.0, 29.0, 224.0, 7.0, 112.0, 0.0, 0.0, 0.0, 1.700946919727059E9, 0.0, 2023-11-25 16:15:19.727
111.0, 8929.09722675052, 17429.01860821469, -53066.528209034, -56268.348547023365, -47128.630832270486, -57060.87435017519, -33410.247672825775, -14044.1151313919, -0.112, 0.9560000000000001, 0.23800000000000002, 192.0, 0.0, 0.0, 0.0, 0.0, 0.0, 0.0, 0.0, 0.0, 0.0, 1.700946919730035E9, 0.0, 2023-11-25 16:15:19.730
112.0, 8927.353790683006, 17500.208914304843, -53060.78381070898, -56231.04348552746, -47441.264681966866, -56944.95820342997, -33388.63353593749, -14018.72354969067, -0.112, 0.9560000000000001, 0.23800000000000002, 192.0, 0.0, 0.0, 0.0, 0.0, 0.0, 0.0, 0.0, 0.0, 0.0, 1.700946919733016E9, 0.0, 2023-11-25 16:15:19.733
113.0, 9055.898673045478, 17566.548891848193, -53077.50291556155, -56224.85205231334, -47351.05304134524, -56767.41829722146, -33407.029021624214, -14032.06754113049, -0.112, 0.9560000000000001, 0.23800000000000002, 192.0, 0.0, 0.0, 0.0, 0.0, 0.0, 0.0, 0.0, 0.0, 0.0, 1.700946919738062E9, 0.0, 2023-11-25 16:15:19.738
114.0, 9187.86337230961, 17508.143783586478, -53056.49227577356, -56259.65371843025, -46915.84222505596, -56762.00917506328, -33438.38851909501, -14067.070372947499, -0.112, 0.9560000000000001, 0.23800000000000002, 192.0, 0.0, 0.0, 0.0, 0.0, 0.0, 0.0, 0.0, 0.0, 0.0, 1.700946919742056E9, 0.0, 2023-11-25 16:15:19.742
115.0, 8991.793869947656, 17435.947648995836, -53063.53307527698, -56262.3806312538, -46979.54469675359, -57000.099957001206, -33426.832667211616, -14051.40180008433, -0.112, 0.9560000000000001, 0.23800000000000002, 192.0, 0.0, 0.0, 0.0, 0.0, 0.0, 0.0, 0.0, 0.0, 0.0, 1.700946919746039E9, 0.0, 2023-11-25 16:15:19.746
116.0, 8917.250802189208, 17493.346928757062, -53057.60986299633, -56227.17663373669, -47399.243402390886, -56964.8959594841, -33399.80940816515, -14021.606924725405, -0.112, 0.9560000000000001, 0.23800000000000002, 192.0, 0.0, 0.0, 0.0, 0.0, 0.0, 0.0, 0.0, 0.0, 0.0, 1.700946919750094E9, 0.0, 2023-11-25 16:15:19.750
117.0, 9042.085294972097, 17565.073676714146, -53076.228866127596, -56224.89675580225, -47337.26201501632, -56778.61652119357, -33419.545998519185, -14033.453349286718, -0.112, 0.9560000000000001, 0.23800000000000002, 192.0, 0.0, 0.0, 0.0, 0.0, 0.0, 0.0, 0.0, 0.0, 0.0, 1.700946919755194E9, 0.0, 2023-11-25 16:15:19.755
118.0, 9185.337625186161, 17530.31671408614, -53059.107429874835, -56258.93846260768, -46975.655493218364, -56745.02184927725, -33449.743205278304, -14062.577672311983, -0.112, 0.9560000000000001, 0.23800000000000002, 192.0, 0.0, 0.0, 0.0, 0.0, 0.0, 0.0, 0.0, 0.0, 0.0, 1.700946919758343E9, 0.0, 2023-11-25 16:15:19.758
119.0, 9047.494417130281, 17448.017591001702, -53060.06855488641, -56275.054070359954, -46867.853029710415, -56960.15738965957, -33439.93078946242, -14053.34640185194, -0.112, 0.9560000000000001, 0.23800000000000002, 192.0, 0.0, 0.0, 0.0, 0.0, 0.0, 0.0, 0.0, 0.0, 0.0, 1.700946919761096E9, 0.0, 2023-11-25 16:15:19.761
120.0, 8914.00979924319, 17504.70161494036, -53041.04722035494, -56220.404055166735, -47375.70701547945, -56997.97654127795, -33385.88427136949, -13998.405813980797, -0.114, 0.9540000000000001, 0.23800000000000002, 192.0, 252.0, 112.0, 29.0, 208.0, 7.0, 112.0, 0.0, 0.0, 0.0, 1.700946919766288E9, 0.0, 2023-11-25 16:15:19.766
121.0, 9028.45073085436, 17570.594557594606, -53066.41645031172, -56224.9191075467, -47349.84604714466, -56804.18691685044, -33406.17965533491, -14023.506823004107, -0.114, 0.9540000000000001, 0.23800000000000002, 192.0, 0.0, 0.0, 0.0, 0.0, 0.0, 0.0, 0.0, 0.0, 0.0, 1.700946919770129E9, 0.0, 2023-11-25 16:15:19.770
122.0, 9171.43484013496, 17560.983307478822, -53055.48644727307, -56249.193102025165, -47064.794250106126, -56748.10639001208, -33431.99592018079, -14059.090800176955, -0.114, 0.9540000000000001, 0.23800000000000002, 192.0, 0.0, 0.0, 0.0, 0.0, 0.0, 0.0, 0.0, 0.0, 0.0, 1.700946919774202E9, 0.0, 2023-11-25 16:15:19.774
123.0, 9102.055025345686, 17464.0214400317, -53053.47479027209, -56280.77611694051, -46806.02810454704, -56933.42470329103, -33446.5469058212, -14077.59804458595, -0.114, 0.9540000000000001, 0.23800000000000002, 192.0, 0.0, 0.0, 0.0, 0.0, 0.0, 0.0, 0.0, 0.0, 0.0, 1.700946919778249E9, 0.0, 2023-11-25 16:15:19.778
124.0, 8904.71147354978, 17498.46547823733, -53036.15218831923, -56227.95894479263, -47348.70610817744, -57048.5138354914, -33390.84635863857, -14018.432977012752, -0.114, 0.9540000000000001, 0.23800000000000002, 192.0, 0.0, 0.0, 0.0, 0.0, 0.0, 0.0, 0.0, 0.0, 0.0, 1.700946919783195E9, 0.0, 2023-11-25 16:15:19.783
125.0, 9003.126204386497, 17561.38563887902, -53061.23084559809, -56233.390418695264, -47377.495155035875, -56853.271347674294, -33421.42354505343, -14044.003372669624, -0.114, 0.9540000000000001, 0.23800000000000002, 192.0, 0.0, 0.0, 0.0, 0.0, 0.0, 0.0, 0.0, 0.0, 0.0, 1.700946919786212E9, 0.0, 2023-11-25 16:15:19.786
126.0, 9146.467941578381, 17580.85400829959, -53052.08898211586, -56240.49827343205, -47165.62296934402, -56764.71373614237, -33439.17083015094, -14063.091762434455, -0.114, 0.9540000000000001, 0.23800000000000002, 192.0, 0.0, 0.0, 0.0, 0.0, 0.0, 0.0, 0.0, 0.0, 0.0, 1.700946919789596E9, 0.0, 2023-11-25 16:15:19.789
127.0, 9145.082133422153, 17486.686108909384, -53037.64975519774, -56273.22122731462, -46789.711331094666, -56895.53849643928, -33456.739301292815, -14083.096573721956, -0.114, 0.9540000000000001, 0.23800000000000002, 192.0, 0.0, 0.0, 0.0, 0.0, 0.0, 0.0, 0.0, 0.0, 0.0, 1.700946919794239E9, 0.0, 2023-11-25 16:15:19.794
128.0, 8912.936915509334, 17506.355644030053, -53019.09780729983, -56214.88317428627, -47289.42928188197, -57064.0706496323, -33391.69572492787, -14009.49227923063, -0.114, 0.9540000000000001, 0.23800000000000002, 192.0, 0.0, 0.0, 0.0, 0.0, 0.0, 0.0, 0.0, 0.0, 0.0, 1.700946919798146E9, 0.0, 2023-11-25 16:15:19.798
129.0, 8992.39736704795, 17562.95026099089, -53045.182293079175, -56220.56051737792, -47390.86149822015, -56877.36652819712, -33411.07468737062, -14027.261916072597, -0.114, 0.9540000000000001, 0.23800000000000002, 192.0, 0.0, 0.0, 0.0, 0.0, 0.0, 0.0, 0.0, 0.0, 0.0, 1.700946919802169E9, 0.0, 2023-11-25 16:15:19.802
130.0, 9125.412598301482, 17597.99779629681, -53052.82658968289, -56226.43902616967, -47240.65777548048, -56761.2492157518, -33427.860847456555, -14042.908137191313, -0.114, 0.9540000000000001, 0.234, 192.0, 252.0, 112.0, 29.0, 208.0, 7.0, 80.0, 0.0, 0.0, 0.0, 1.700946919806194E9, 0.0, 2023-11-25 16:15:19.806
