%OpenBCI Raw EXG Data
%Number of channels = 8
%Sample Rate = 250 Hz
%Board = OpenBCI_GUI$BoardCytonSerial
Sample Index, EXG Channel 0, EXG Channel 1, EXG Channel 2, EXG Channel 3, EXG Channel 4, EXG Channel 5, EXG Channel 6, EXG Channel 7, Accel Channel 0, Accel Channel 1, Accel Channel 2, Other, Other, Other, Other, Other, Other, Other, Analog Channel 0, Analog Channel 1, Analog Channel 2, Timestamp, Other, Timestamp (Formatted)
103.0, 11015.006722808686, 12019.069435485535, -63005.007863641724, -62425.44948166007, -70270.46475058375, 4794.1809647299015, -27332.204858327492, 24914.081384430097, 0.0, 0.0, 0.0, 192.0, 0.0, 0.0, 0.0, 0.0, 0.0, 0.0, 0.0, 0.0, 0.0, 1.700950073131636E9, 0.0, 2023-11-25 17:07:53.131
104.0, 10937.624983504413, 11893.095003735425, -63118.286504541225, -62544.27135518448, -70260.6299830234, 4805.602706146563, -27368.79466400083, 24847.29437199764, 0.0, 0.0, 0.0, 192.0, 0.0, 0.0, 0.0, 0.0, 0.0, 0.0, 0.0, 0.0, 0.0, 1.700950073131674E9, 0.0, 2023-11-25 17:07:53.131
105.0, 10844.48526435915, 11803.95624684766, -63118.04063535221, -62565.214939739104, -70355.1555103249, 4672.721585359763, -27411.866475566207, 24820.360519928996, 0.0, 0.0, 0.0, 192.0, 0.0, 0.0, 0.0, 0.0, 0.0, 0.0, 0.0, 0.0, 0.0, 1.700950073131693E9, 0.0, 2023-11-25 17:07:53.131
0.0, 0.0, 0.0, 0.0, 0.0, 0.0, 0.0, 0.0, 0.0, -0.212, 0.9480000000000001, 0.158, 192.0, 249.0, 96.0, 29.0, 160.0, 4.0, 240.0, 0.0, 0.0, 0.0, 1.700950073259289E9, 0.0, 2023-11-25 17:07:53.259
1.0, 10088.415156413932, 12046.42797069883, -62342.94919287553, -61241.701095307006, -70389.3089758526, 4438.1176755568595, -27679.483911929598, 25470.349248689326, -0.212, 0.9480000000000001, 0.158, 192.0, 0.0, 0.0, 0.0, 0.0, 0.0, 0.0, 0.0, 0.0, 0.0, 1.700950073263397E9, 0.0, 2023-11-25 17:07:53.263
2.0, 10191.63551230854, 12162.433524421875, -62276.631567076634, -61163.5370449468, -70320.04091978562, 4505.351722878423, -27627.404347348733, 25531.458918030134, -0.212, 0.9480000000000001, 0.158, 192.0, 0.0, 0.0, 0.0, 0.0, 0.0, 0.0, 0.0, 0.0, 0.0, 1.700950073266387E9, 0.0, 2023-11-25 17:07:53.266
3.0, 10160.119552626556, 12073.71945067876, -62361.38938205116, -61246.88670002064, -70270.17417790582, 4562.460429961733, -27641.262428911024, 25478.932318560164, -0.212, 0.9480000000000001, 0.158, 192.0, 0.0, 0.0, 0.0, 0.0, 0.0, 0.0, 0.0, 0.0, 0.0, 1.700950073271383E9, 0.0, 2023-11-25 17:07:53.271
4.0, 10041.744713991251, 11935.384504244865, -62390.044318442866, -61300.66499718011, -70375.85322569052, 4412.63668687781, -27698.86287437235, 25420.706024254087, -0.212, 0.9480000000000001, 0.158, 192.0, 0.0, 0.0, 0.0, 0.0, 0.0, 0.0, 0.0, 0.0, 0.0, 1.700950073279388E9, 0.0, 2023-11-25 17:07:53.279
5.0, 10064.118810191014, 11997.879981741904, -62353.543919747346, -61255.11214198019, -70393.35464159903, 4427.366486473857, -27686.077676543915, 25457.251126438514, -0.212, 0.9480000000000001, 0.158, 192.0, 0.0, 0.0, 0.0, 0.0, 0.0, 0.0, 0.0, 0.0, 0.0, 1.700950073282404E9, 0.0, 2023-11-25 17:07:53.282
6.0, 10162.891168939015, 12115.003122687713, -62279.93962525602, -61172.09776307318, -70345.32074276457, 4468.717213716175, -27645.28574291298, 25506.044984584452, -0.212, 0.9480000000000001, 0.158, 192.0, 0.0, 0.0, 0.0, 0.0, 0.0, 0.0, 0.0, 0.0, 0.0, 1.700950073301479E9, 0.0, 2023-11-25 17:07:53.301
7.0, 10165.43926780692, 12068.667956431862, -62347.48659699996, -61232.87215624716, -70274.13043667442, 4549.295252477557, -27643.43054812319, 25466.75061783202, -0.212, 0.9480000000000001, 0.158, 192.0, 0.0, 0.0, 0.0, 0.0, 0.0, 0.0, 0.0, 0.0, 0.0, 1.700950073305444E9, 0.0, 2023-11-25 17:07:53.305
8.0, 10046.617394282508, 11927.248469263133, -62393.15121092215, -61301.80493614733, -70366.57725174156, 4410.669733365743, -27700.896883117784, 25410.848904949296, -0.214, 0.9500000000000001, 0.154, 192.0, 249.0, 80.0, 29.0, 176.0, 4.0, 208.0, 0.0, 0.0, 0.0, 1.700950073308493E9, 0.0, 2023-11-25 17:07:53.308
9.0, 10053.099400174548, 11976.958748931736, -62363.13281811868, -61260.722429838475, -70394.33811835505, 4409.842718820896, -27690.548025434975, 25464.13546373075, -0.214, 0.9500000000000001, 0.154, 192.0, 0.0, 0.0, 0.0, 0.0, 0.0, 0.0, 0.0, 0.0, 0.0, 1.700950073322503E9, 0.0, 2023-11-25 17:07:53.322
10.0, 10154.419857790454, 12117.662980277895, -62283.96293925797, -61168.81205663825, -70358.9106033934, 4446.3878210053235, -27650.225478437602, 25525.580409238388, -0.214, 0.9500000000000001, 0.154, 192.0, 0.0, 0.0, 0.0, 0.0, 0.0, 0.0, 0.0, 0.0, 0.0, 1.700950073326482E9, 0.0, 2023-11-25 17:07:53.326
11.0, 10183.074794182157, 12110.264552863187, -62334.27671602687, -61210.78863272532, -70281.0371257111, 4542.589729140965, -27632.500545084542, 25511.90114163174, -0.214, 0.9500000000000001, 0.154, 192.0, 0.0, 0.0, 0.0, 0.0, 0.0, 0.0, 0.0, 0.0, 0.0, 1.700950073341538E9, 0.0, 2023-11-25 17:07:53.341
12.0, 10057.480342087787, 11945.912175883315, -62394.8275917563, -61300.57559020229, -70356.0048766142, 4424.30429748348, -27703.80260989697, 25427.21038189058, -0.214, 0.9500000000000001, 0.154, 192.0, 0.0, 0.0, 0.0, 0.0, 0.0, 0.0, 0.0, 0.0, 0.0, 1.700950073344555E9, 0.0, 2023-11-25 17:07:53.344
13.0, 10053.524083319198, 11968.308623827532, -62352.7169052025, -61259.29191819333, -70384.12337113898, 4405.506480396567, -27692.447923713677, 25458.547527616924, -0.214, 0.9500000000000001, 0.154, 192.0, 0.0, 0.0, 0.0, 0.0, 0.0, 0.0, 0.0, 0.0, 0.0, 1.70095007334865E9, 0.0, 2023-11-25 17:07:53.348
14.0, 10127.19543304389, 12084.492991506218, -62293.1048027402, -61189.53212374832, -70376.16615011288, 4421.979716060128, -27673.895975815773, 25501.753449649033, -0.214, 0.9500000000000001, 0.154, 192.0, 0.0, 0.0, 0.0, 0.0, 0.0, 0.0, 0.0, 0.0, 0.0, 1.70095007335663E9, 0.0, 2023-11-25 17:07:53.356
15.0, 10194.96592223238, 12129.867032750491, -62297.93277954254, -61184.368870779144, -70278.73489603221, 4525.624755099387, -27640.860097510827, 25509.66596718621, -0.214, 0.9500000000000001, 0.154, 192.0, 0.0, 0.0, 0.0, 0.0, 0.0, 0.0, 0.0, 0.0, 0.0, 1.700950073393003E9, 0.0, 2023-11-25 17:07:53.393
16.0, 10086.381147668499, 11978.769240232616, -62385.66337652962, -61291.210209275516, -70328.78045186764, 4446.633690194331, -27712.944473379193, 25410.35716657128, -0.214, 0.9500000000000001, 0.154, 192.0, 0.0, 0.0, 0.0, 0.0, 0.0, 0.0, 0.0, 0.0, 0.0, 1.700950073395744E9, 0.0, 2023-11-25 17:07:53.395
17.0, 10047.46676057181, 11960.284347568077, -62366.10560013123, -61275.83220909026, -70388.03492641865, 4380.874858006819, -27729.3953572983, 25432.150117415207, -0.214, 0.9500000000000001, 0.154, 192.0, 0.0, 0.0, 0.0, 0.0, 0.0, 0.0, 0.0, 0.0, 0.0, 1.700950073398766E9, 0.0, 2023-11-25 17:07:53.398
18.0, 10102.273237976222, 12063.594110440506, -62319.54691643082, -61213.739062993416, -70392.03588867615, 4407.786358331008, -27706.797743653984, 25485.593138407843, -0.21, 0.9500000000000001, 0.156, 192.0, 249.0, 112.0, 29.0, 176.0, 4.0, 224.0, 0.0, 0.0, 0.0, 1.700950073402757E9, 0.0, 2023-11-25 17:07:53.402
19.0, 10185.73465177234, 12132.72805604077, -62299.76562258788, -61182.424269011535, -70307.76981207966, 4496.008693696105, -27667.10104550136, 25496.210217024116, -0.21, 0.9500000000000001, 0.156, 192.0, 0.0, 0.0, 0.0, 0.0, 0.0, 0.0, 0.0, 0.0, 0.0, 1.700950073405791E9, 0.0, 2023-11-25 17:07:53.405
20.0, 10115.796043371683, 12012.47567087122, -62377.929672948085, -61273.59703464473, -70306.33930043451, 4484.184620879248, -27701.120400562337, 25432.016006948474, -0.21, 0.9500000000000001, 0.156, 192.0, 0.0, 0.0, 0.0, 0.0, 0.0, 0.0, 0.0, 0.0, 0.0, 1.700950073409826E9, 0.0, 2023-11-25 17:07:53.409
21.0, 10055.066353686614, 11960.79843769055, -62361.61289949571, -61267.74087759744, -70377.84253094703, 4393.794166301986, -27718.2418368151, 25458.726341572565, -0.21, 0.9500000000000001, 0.156, 192.0, 0.0, 0.0, 0.0, 0.0, 0.0, 0.0, 0.0, 0.0, 0.0, 1.700950073413842E9, 0.0, 2023-11-25 17:07:53.413
22.0, 10099.099290263568, 12056.843883615004, -62320.79861412032, -61209.98396992493, -70385.0621444061, 4430.87571035334, -27701.63449068481, 25518.740775435064, -0.21, 0.9500000000000001, 0.156, 192.0, 0.0, 0.0, 0.0, 0.0, 0.0, 0.0, 0.0, 0.0, 0.0, 1.70095007341685E9, 0.0, 2023-11-25 17:07:53.416
23.0, 10193.289541398233, 12158.41021041992, -62274.9998897314, -61153.836387853196, -70310.2955592031, 4508.950353735728, -27659.255583197544, 25565.612383557844, -0.21, 0.9500000000000001, 0.156, 192.0, 0.0, 0.0, 0.0, 0.0, 0.0, 0.0, 0.0, 0.0, 0.0, 1.700950073420881E9, 0.0, 2023-11-25 17:07:53.420
24.0, 10133.342162769099, 12047.366743965953, -62370.88887344467, -61255.87210129167, -70291.90007351639, 4529.581013867976, -27693.029069069515, 25499.42886822568, -0.21, 0.9500000000000001, 0.156, 192.0, 0.0, 0.0, 0.0, 0.0, 0.0, 0.0, 0.0, 0.0, 0.0, 1.700950073424107E9, 0.0, 2023-11-25 17:07:53.424
25.0, 10043.51050180322, 11949.354344529433, -62371.73823973397, -61280.011985303405, -70380.32357458158, 4398.957419271162, -27725.975540396637, 25468.18112947716, -0.21, 0.9500000000000001, 0.156, 192.0, 0.0, 0.0, 0.0, 0.0, 0.0, 0.0, 0.0, 0.0, 0.0, 1.700950073427837E9, 0.0, 2023-11-25 17:07:53.427
26.0, 10084.23538020079, 12038.202528739277, -62325.20190777802, -61221.80804274179, -70383.43046706087, 4427.813521362963, -27702.6403191853, 25516.416194011712, -0.21, 0.9500000000000001, 0.156, 192.0, 0.0, 0.0, 0.0, 0.0, 0.0, 0.0, 0.0, 0.0, 0.0, 1.700950073430855E9, 0.0, 2023-11-25 17:07:53.430
27.0, 10190.83084950815, 12162.947614544346, -62252.78225574282, -61142.079370269705, -70316.8446203285, 4494.846402984429, -27640.860097510827, 25574.39661912878, -0.21, 0.9500000000000001, 0.156, 192.0, 0.0, 0.0, 0.0, 0.0, 0.0, 0.0, 0.0, 0.0, 0.0, 1.700950073435178E9, 0.0, 2023-11-25 17:07:53.435
28.0, 10144.428628018932, 12068.220921542756, -62355.10854185922, -61245.43383663105, -70283.20524492327, 4544.936662308773, -27659.769673320017, 25507.43079274068, -0.218, 0.9520000000000001, 0.164, 192.0, 249.0, 48.0, 29.0, 192.0, 5.0, 32.0, 0.0, 0.0, 0.0, 1.700950073437889E9, 0.0, 2023-11-25 17:07:53.437
29.0, 10037.341420333556, 11943.632297948874, -62372.00646066743, -61288.818572618795, -70374.0650861341, 4402.779567573019, -27715.805496669473, 25456.021780493473, -0.218, 0.9520000000000001, 0.164, 192.0, 0.0, 0.0, 0.0, 0.0, 0.0, 0.0, 0.0, 0.0, 0.0, 1.700950073441901E9, 0.0, 2023-11-25 17:07:53.441
30.0, 10061.481304345287, 12012.252153426667, -62334.20966079351, -61239.957659239495, -70389.04075491914, 4418.4481404361895, -27706.395412253787, 25487.984775064564, -0.218, 0.9520000000000001, 0.164, 192.0, 0.0, 0.0, 0.0, 0.0, 0.0, 0.0, 0.0, 0.0, 0.0, 1.700950073445016E9, 0.0, 2023-11-25 17:07:53.445
31.0, 10160.767753215761, 12140.618221833494, -62257.833749989724, -61153.121132030625, -70344.31491426408, 4460.223550823159, -27668.71037110214, 25537.560944266435, -0.218, 0.9520000000000001, 0.164, 192.0, 0.0, 0.0, 0.0, 0.0, 0.0, 0.0, 0.0, 0.0, 0.0, 1.700950073448966E9, 0.0, 2023-11-25 17:07:53.448
32.0, 10169.417878319964, 12106.688273750338, -62321.178593776065, -61209.045196657804, -70268.69896277177, 4551.66453738982, -27659.65791459774, 25518.159630079226, -0.218, 0.9520000000000001, 0.164, 192.0, 0.0, 0.0, 0.0, 0.0, 0.0, 0.0, 0.0, 0.0, 0.0, 1.700950073451921E9, 0.0, 2023-11-25 17:07:53.451
33.0, 10045.879786715483, 11955.992812632658, -62373.749896734946, -61286.94102608455, -70359.3576382825, 4414.916564812251, -27724.3438630514, 25456.021780493473, -0.218, 0.9520000000000001, 0.164, 192.0, 0.0, 0.0, 0.0, 0.0, 0.0, 0.0, 0.0, 0.0, 0.0, 1.700950073455968E9, 0.0, 2023-11-25 17:07:53.455
34.0, 10047.46676057181, 11995.488345085187, -62341.69749518603, -61247.17727269856, -70385.68799325085, 4409.1721664872375, -27725.595560740898, 25489.750562876532, -0.218, 0.9520000000000001, 0.164, 192.0, 0.0, 0.0, 0.0, 0.0, 0.0, 0.0, 0.0, 0.0, 0.0, 1.700950073459236E9, 0.0, 2023-11-25 17:07:53.459
35.0, 10132.738665668807, 12116.947724455325, -62267.08737219422, -61163.22412052443, -70357.77066442618, 4438.385896490324, -27696.135961548804, 25543.975894925108, -0.218, 0.9520000000000001, 0.164, 192.0, 0.0, 0.0, 0.0, 0.0, 0.0, 0.0, 0.0, 0.0, 0.0, 1.700950073461963E9, 0.0, 2023-11-25 17:07:53.461
36.0, 10181.979558703848, 12125.821367004082, -62297.59750337571, -61184.41357426806, -70265.68147727031, 4540.555720395532, -27671.10200775886, 25541.71836873512, -0.218, 0.9520000000000001, 0.164, 192.0, 0.0, 0.0, 0.0, 0.0, 0.0, 0.0, 0.0, 0.0, 0.0, 1.70095007346604E9, 0.0, 2023-11-25 17:07:53.466
37.0, 10062.174208423401, 11966.65459473784, -62377.25912061443, -61285.48816269496, -70346.12540556496, 4422.918489327251, -27746.427386573243, 25449.18214669015, -0.22, 0.9560000000000001, 0.154, 192.0, 249.0, 32.0, 29.0, 224.0, 4.0, 208.0, 0.0, 0.0, 0.0, 1.700950073469027E9, 0.0, 2023-11-25 17:07:53.469
38.0, 10054.105228675036, 11988.671063026317, -62342.837434153254, -61248.87600527716, -70385.82210371758, 4387.178049943215, -27745.041578417015, 25470.058676011406, -0.22, 0.9560000000000001, 0.154, 192.0, 0.0, 0.0, 0.0, 0.0, 0.0, 0.0, 0.0, 0.0, 0.0, 1.700950073471993E9, 0.0, 2023-11-25 17:07:53.471
39.0, 10137.365476771054, 12115.450157576819, -62269.32254663975, -61162.15123679057, -70365.48201626325, 4425.01955330605, -27711.268092545044, 25525.49100226057, -0.22, 0.9560000000000001, 0.154, 192.0, 0.0, 0.0, 0.0, 0.0, 0.0, 0.0, 0.0, 0.0, 0.0, 1.700950073476053E9, 0.0, 2023-11-25 17:07:53.476
40.0, 10201.805556035704, 12155.817408063103, -62273.636433319625, -61153.2328907529, -70272.52111107363, 4532.822016813996, -27667.168100734725, 25556.179947397704, -0.22, 0.9560000000000001, 0.154, 192.0, 0.0, 0.0, 0.0, 0.0, 0.0, 0.0, 0.0, 0.0, 0.0, 1.70095007347905E9, 0.0, 2023-11-25 17:07:53.479
41.0, 10088.415156413932, 11994.035481695591, -62370.15126587764, -61268.187912486545, -70322.58901865353, 4457.317824043968, -27740.660636503773, 25462.526138129968, -0.22, 0.9560000000000001, 0.154, 192.0, 0.0, 0.0, 0.0, 0.0, 0.0, 0.0, 0.0, 0.0, 0.0, 1.700950073482086E9, 0.0, 2023-11-25 17:07:53.482
42.0, 10041.141216890957, 11961.737210957672, -62350.258213312416, -61255.58152861375, -70386.98439442925, 4384.831116775407, -27754.697532021706, 25466.102417242815, -0.22, 0.9560000000000001, 0.154, 192.0, 0.0, 0.0, 0.0, 0.0, 0.0, 0.0, 0.0, 0.0, 0.0, 1.70095007348607E9, 0.0, 2023-11-25 17:07:53.486
43.0, 10094.13720299449, 12064.085848818524, -62289.439116649526, -61183.56420797876, -70379.63067050347, 4420.526852670533, -27723.896828162295, 25517.71259519012, -0.22, 0.9560000000000001, 0.154, 192.0, 0.0, 0.0, 0.0, 0.0, 0.0, 0.0, 0.0, 0.0, 0.0, 1.700950073489274E9, 0.0, 2023-11-25 17:07:53.489
44.0, 10187.791012262227, 12150.877672538481, -62249.56360454126, -61133.339838187676, -70282.80291352308, 4522.674324831286, -27664.24002221108, 25577.794084285986, -0.22, 0.9560000000000001, 0.154, 192.0, 0.0, 0.0, 0.0, 0.0, 0.0, 0.0, 0.0, 0.0, 0.0, 1.700950073492121E9, 0.0, 2023-11-25 17:07:53.492
45.0, 10102.116775765035, 12016.655447084362, -62354.25917556992, -61247.11021746519, -70297.46565788575, 4507.363379879401, -27706.998909354083, 25517.44437425666, -0.22, 0.9560000000000001, 0.154, 192.0, 0.0, 0.0, 0.0, 0.0, 0.0, 0.0, 0.0, 0.0, 0.0, 1.700950073495281E9, 0.0, 2023-11-25 17:07:53.495
46.0, 10033.340458076056, 11954.964632387715, -62344.33500103176, -61250.68649657804, -70377.97664141377, 4399.672675093731, -27728.76950845355, 25527.27914181699, -0.22, 0.9560000000000001, 0.154, 192.0, 0.0, 0.0, 0.0, 0.0, 0.0, 0.0, 0.0, 0.0, 0.0, 1.700950073499134E9, 0.0, 2023-11-25 17:07:53.499
47.0, 10078.71449932033, 12041.95762180777, -62302.11255575569, -61192.43785052751, -70386.06797290659, 4432.082704553927, -27713.27974954602, 25593.954395527173, -0.222, 0.9520000000000001, 0.156, 192.0, 249.0, 16.0, 29.0, 192.0, 4.0, 224.0, 0.0, 0.0, 0.0, 1.700950073502139E9, 0.0, 2023-11-25 17:07:53.502
48.0, 10171.049555665202, 12138.561861343607, -62254.43628483252, -61133.60805912114, -70315.83879182802, 4505.776406023074, -27667.145748990268, 25655.622858479364, -0.222, 0.9520000000000001, 0.156, 192.0, 0.0, 0.0, 0.0, 0.0, 0.0, 0.0, 0.0, 0.0, 0.0, 1.700950073505057E9, 0.0, 2023-11-25 17:07:53.505
49.0, 10111.660970647452, 12028.837147812505, -62355.57792849278, -61238.63890631663, -70295.36459390695, 4526.027086499583, -27702.506208718565, 25587.807665801964, -0.222, 0.9520000000000001, 0.156, 192.0, 0.0, 0.0, 0.0, 0.0, 0.0, 0.0, 0.0, 0.0, 0.0, 1.700950073508089E9, 0.0, 2023-11-25 17:07:53.508
50.0, 10026.970210906293, 11931.562355943008, -62350.50408250142, -61256.676764092066, -70376.83670244656, 4392.0954337233825, -27741.152374881793, 25546.456938559644, -0.222, 0.9520000000000001, 0.156, 192.0, 0.0, 0.0, 0.0, 0.0, 0.0, 0.0, 0.0, 0.0, 0.0, 1.700950073512219E9, 0.0, 2023-11-25 17:07:53.512
51.0, 10061.66011830093, 12010.307551659054, -62308.37104420317, -61201.87028668765, -70382.93872868284, 4419.63278289232, -27727.00372064158, 25584.566662855945, -0.222, 0.9520000000000001, 0.156, 192.0, 0.0, 0.0, 0.0, 0.0, 0.0, 0.0, 0.0, 0.0, 0.0, 1.700950073515166E9, 0.0, 2023-11-25 17:07:53.515
52.0, 10168.68027075294, 12136.393742131442, -62231.056360132265, -61115.25727692334, -70317.13519300643, 4480.4965830441215, -27674.722990360617, 25653.141814844825, -0.222, 0.9520000000000001, 0.156, 192.0, 0.0, 0.0, 0.0, 0.0, 0.0, 0.0, 0.0, 0.0, 0.0, 1.700950073518283E9, 0.0, 2023-11-25 17:07:53.518
53.0, 10136.471406992843, 12057.335621993021, -62324.01726532188, -61207.30176059029, -70270.77767500612, 4539.549891895043, -27681.87554858632, 25606.672538122242, -0.222, 0.9520000000000001, 0.156, 192.0, 0.0, 0.0, 0.0, 0.0, 0.0, 0.0, 0.0, 0.0, 0.0, 1.70095007352213E9, 0.0, 2023-11-25 17:07:53.522
54.0, 10014.833213667062, 11917.011370302604, -62360.22709133948, -61270.75836309891, -70374.15449311191, 4380.561933584444, -27747.25440111809, 25536.219839599114, -0.222, 0.9520000000000001, 0.156, 192.0, 0.0, 0.0, 0.0, 0.0, 0.0, 0.0, 0.0, 0.0, 0.0, 1.700950073525309E9, 0.0, 2023-11-25 17:07:53.525
55.0, 10041.387086079965, 11988.201676392757, -62316.909410585096, -61218.85761247369, -70387.45378106282, 4392.698930823676, -27732.39049105531, 25575.64831681828, -0.222, 0.9520000000000001, 0.156, 192.0, 0.0, 0.0, 0.0, 0.0, 0.0, 0.0, 0.0, 0.0, 0.0, 1.700950073528205E9, 0.0, 2023-11-25 17:07:53.528
56.0, 10147.49081700931, 12126.737788526749, -62229.98347639841, -61122.74511131586, -70335.68714090432, 4442.856245381385, -27678.858063084852, 25647.822099664463, -0.222, 0.9520000000000001, 0.156, 192.0, 0.0, 0.0, 0.0, 0.0, 0.0, 0.0, 0.0, 0.0, 0.0, 1.700950073531233E9, 0.0, 2023-11-25 17:07:53.531
57.0, 10151.067096122159, 12088.739822952726, -62298.69273885402, -61185.0394231128, -70268.3860383494, 4526.831749299973, -27677.807531095452, 25609.31004396797, -0.222, 0.9520000000000001, 0.152, 192.0, 249.0, 16.0, 29.0, 192.0, 4.0, 192.0, 0.0, 0.0, 0.0, 1.70095007353513E9, 0.0, 2023-11-25 17:07:53.535
58.0, 10038.615469767508, 11944.705181682728, -62347.50894874441, -61259.33662168225, -70349.81344340008, 4397.035169248005, -27743.4993080496, 25544.557040280946, -0.222, 0.9520000000000001, 0.152, 192.0, 0.0, 0.0, 0.0, 0.0, 0.0, 0.0, 0.0, 0.0, 0.0, 1.700950073538158E9, 0.0, 2023-11-25 17:07:53.538
59.0, 10043.644612269953, 11988.089917670479, -62316.37296871817, -61219.93049620754, -70379.49656003673, 4381.8806865073075, -27750.16012789728, 25572.20614817216, -0.222, 0.9520000000000001, 0.152, 192.0, 0.0, 0.0, 0.0, 0.0, 0.0, 0.0, 0.0, 0.0, 0.0, 1.700950073541206E9, 0.0, 2023-11-25 17:07:53.541
60.0, 10137.164311070957, 12122.513308824697, -62240.645258503595, -61131.171718975515, -70351.40041725642, 4414.357771200868, -27714.86672340235, 25628.756061644086, -0.222, 0.9520000000000001, 0.152, 192.0, 0.0, 0.0, 0.0, 0.0, 0.0, 0.0, 0.0, 0.0, 0.0, 1.700950073544205E9, 0.0, 2023-11-25 17:07:53.544
61.0, 10187.209866906389, 12135.097340953034, -62271.22244491845, -61150.4836261849, -70261.45699756825, 4512.012542726105, -27693.118476047337, 25621.73761388512, -0.222, 0.9520000000000001, 0.152, 192.0, 0.0, 0.0, 0.0, 0.0, 0.0, 0.0, 0.0, 0.0, 0.0, 1.700950073548333E9, 0.0, 2023-11-25 17:07:53.548
62.0, 10056.586272309574, 11960.284347568077, -62355.24265232595, -61254.37453441317, -70330.32272223505, 4407.853413564374, -27765.605183315896, 25540.131394878794, -0.222, 0.9520000000000001, 0.152, 192.0, 0.0, 0.0, 0.0, 0.0, 0.0, 0.0, 0.0, 0.0, 0.0, 1.700950073551252E9, 0.0, 2023-11-25 17:07:53.551
63.0, 10028.4677777848, 11959.211463834223, -62322.45264321002, -61223.61853404267, -70371.09230412153, 4369.7883927569865, -27764.48759609313, 25577.905843008262, -0.222, 0.9520000000000001, 0.152, 192.0, 0.0, 0.0, 0.0, 0.0, 0.0, 0.0, 0.0, 0.0, 0.0, 1.700950073554251E9, 0.0, 2023-11-25 17:07:53.554
64.0, 10107.48119443431, 12083.174238583355, -62253.9445464545, -61144.33689645969, -70356.72013243678, 4406.579364130422, -27733.3963195558, 25632.891134368318, -0.222, 0.9520000000000001, 0.152, 192.0, 0.0, 0.0, 0.0, 0.0, 0.0, 0.0, 0.0, 0.0, 0.0, 1.700950073558299E9, 0.0, 2023-11-25 17:07:53.558
65.0, 10173.664709766474, 12131.811634518104, -62257.61023254517, -61137.8325388232, -70275.49389308618, 4503.2730106440795, -27700.20397903967, 25646.3021810415, -0.222, 0.9520000000000001, 0.152, 192.0, 0.0, 0.0, 0.0, 0.0, 0.0, 0.0, 0.0, 0.0, 0.0, 1.700950073561261E9, 0.0, 2023-11-25 17:07:53.561
66.0, 10072.65717657294, 11985.497115313663, -62349.207681323016, -61248.205452943504, -70315.1458877499, 4441.649251180798, -27770.187290929236, 25543.305342591448, -0.222, 0.9520000000000001, 0.152, 192.0, 0.0, 0.0, 0.0, 0.0, 0.0, 0.0, 0.0, 0.0, 0.0, 1.700950073565413E9, 0.0, 2023-11-25 17:07:53.565
67.0, 10025.159719605414, 11952.88592015337, -62329.87342236918, -61240.78467378434, -70383.74339148324, 4359.1042589073495, -27798.663413365295, 25541.49485129057, -0.22, 0.9520000000000001, 0.152, 192.0, 249.0, 32.0, 29.0, 192.0, 4.0, 192.0, 0.0, 0.0, 0.0, 1.700950073568248E9, 0.0, 2023-11-25 17:07:53.568
68.0, 10080.323824921112, 12053.044087057602, -62281.526599112345, -61180.52437073283, -70387.05144966263, 4390.553163355967, -27781.07259047897, 25592.97091877114, -0.22, 0.9520000000000001, 0.152, 192.0, 0.0, 0.0, 0.0, 0.0, 0.0, 0.0, 0.0, 0.0, 0.0, 1.700950073572272E9, 0.0, 2023-11-25 17:07:53.572
69.0, 10166.10982014058, 12135.723189797782, -62249.161273141064, -61138.503091156854, -70301.1983992098, 4488.36439709239, -27712.43038325672, 25659.26619282558, -0.22, 0.9520000000000001, 0.152, 192.0, 0.0, 0.0, 0.0, 0.0, 0.0, 0.0, 0.0, 0.0, 0.0, 1.70095007357529E9, 0.0, 2023-11-25 17:07:53.575
70.0, 10069.304414904645, 11989.721595015717, -62362.216396596006, -61260.4095054161, -70316.48699241722, 4475.914475430784, -27761.15718616929, 25606.605482888877, -0.22, 0.9520000000000001, 0.152, 192.0, 0.0, 0.0, 0.0, 0.0, 0.0, 0.0, 0.0, 0.0, 0.0, 1.700950073579334E9, 0.0, 2023-11-25 17:07:53.579
71.0, 10012.754501432717, 11938.916079868804, -62337.47301548398, -61253.368705912675, -70385.10684789502, 4371.308311379947, -27786.07938123696, 25608.863009078865, -0.22, 0.9520000000000001, 0.152, 192.0, 0.0, 0.0, 0.0, 0.0, 0.0, 0.0, 0.0, 0.0, 0.0, 1.700950073582313E9, 0.0, 2023-11-25 17:07:53.582
72.0, 10075.115868463025, 12052.462941701764, -62275.62573857615, -61178.93739687651, -70372.88044367796, 4413.195480489192, -27750.383645341833, 25655.019361379073, -0.22, 0.9520000000000001, 0.152, 192.0, 0.0, 0.0, 0.0, 0.0, 0.0, 0.0, 0.0, 0.0, 0.0, 1.700950073586315E9, 0.0, 2023-11-25 17:07:53.586
73.0, 10174.692890011418, 12161.047716265646, -62212.70557793446, -61107.16594543051, -70295.63281484041, 4486.464498813689, -27690.883301601807, 25697.867655499897, -0.22, 0.9520000000000001, 0.152, 192.0, 0.0, 0.0, 0.0, 0.0, 0.0, 0.0, 0.0, 0.0, 0.0, 1.700950073589412E9, 0.0, 2023-11-25 17:07:53.589
74.0, 10116.377188727522, 12051.47946494573, -62317.51290768539, -61215.348388594204, -70272.74462851818, 4516.549946850532, -27723.91917990675, 25616.48495393812, -0.22, 0.9520000000000001, 0.152, 192.0, 0.0, 0.0, 0.0, 0.0, 0.0, 0.0, 0.0, 0.0, 0.0, 1.70095007359339E9, 0.0, 2023-11-25 17:07:53.593
75.0, 10018.007161379715, 11939.65368743583, -62327.34767524573, -61250.91001402259, -70367.3595627975, 4374.862238748341, -27773.137721197334, 25575.044819717983, -0.22, 0.9520000000000001, 0.152, 192.0, 0.0, 0.0, 0.0, 0.0, 0.0, 0.0, 0.0, 0.0, 0.0, 1.70095007359641E9, 0.0, 2023-11-25 17:07:53.596
76.0, 10059.4249438554, 12027.540746634097, -62279.224369433454, -61193.30956856127, -70372.12048436647, 4402.801919317475, -27753.311723865478, 25624.68804415322, -0.22, 0.9520000000000001, 0.152, 192.0, 0.0, 0.0, 0.0, 0.0, 0.0, 0.0, 0.0, 0.0, 0.0, 1.700950073599415E9, 0.0, 2023-11-25 17:07:53.599
77.0, 10160.00779390428, 12144.440370135353, -62208.972836610425, -61116.12899495709, -70325.42769019934, 4456.513161243577, -27706.70833667616, 25680.6121087804, -0.222, 0.96, 0.148, 192.0, 249.0, 16.0, 30.0, 0.0, 4.0, 160.0, 0.0, 0.0, 0.0, 1.700950073603405E9, 0.0, 2023-11-25 17:07:53.603
78.0, 10126.033142332213, 12061.403639483886, -62306.359387202196, -61211.63799901462, -70289.73195430422, 4509.755016536119, -27733.373967811345, 25615.903808582283, -0.222, 0.96, 0.148, 192.0, 0.0, 0.0, 0.0, 0.0, 0.0, 0.0, 0.0, 0.0, 0.0, 1.700950073606397E9, 0.0, 2023-11-25 17:07:53.606
79.0, 10006.853640896517, 11920.542945926542, -62341.943364375045, -61275.69809862353, -70390.7171357533, 4355.684442005688, -27806.665337880295, 25541.181926868194, -0.222, 0.96, 0.148, 192.0, 0.0, 0.0, 0.0, 0.0, 0.0, 0.0, 0.0, 0.0, 0.0, 1.700950073609377E9, 0.0, 2023-11-25 17:07:53.609
80.0, 10042.03528666917, 11995.488345085187, -62285.929892770044, -61212.196792626004, -70392.2147026318, 4375.264570148536, -27774.389418886833, 25586.086581478907, -0.222, 0.96, 0.148, 192.0, 0.0, 0.0, 0.0, 0.0, 0.0, 0.0, 0.0, 0.0, 0.0, 1.700950073613497E9, 0.0, 2023-11-25 17:07:53.613
81.0, 10143.176930329435, 12130.135253683955, -62204.8824673751, -61117.134823457585, -70345.49955672021, 4421.1527015152815, -27724.857953173872, 25641.98829436163, -0.222, 0.96, 0.148, 192.0, 0.0, 0.0, 0.0, 0.0, 0.0, 0.0, 0.0, 0.0, 0.0, 1.700950073616412E9, 0.0, 2023-11-25 17:07:53.616
82.0, 10146.14971234199, 12097.524058523662, -62277.50328511039, -61176.70222243098, -70279.98659372171, 4504.3235426334795, -27726.780203197028, 25613.82509634794, -0.222, 0.96, 0.148, 192.0, 0.0, 0.0, 0.0, 0.0, 0.0, 0.0, 0.0, 0.0, 0.0, 1.700950073619426E9, 0.0, 2023-11-25 17:07:53.619
83.0, 10013.492108999742, 11933.596364688441, -62347.8665766557, -61266.712697352494, -70372.34400181103, 4369.564875312433, -27802.574968644974, 25538.455014044644, -0.222, 0.96, 0.148, 192.0, 0.0, 0.0, 0.0, 0.0, 0.0, 0.0, 0.0, 0.0, 0.0, 1.700950073622442E9, 0.0, 2023-11-25 17:07:53.622
84.0, 10016.397835778933, 11974.924740186303, -62311.209715749, -61222.903278220096, -70400.84247599155, 4354.790372227475, -27800.65271862182, 25565.120645179828, -0.222, 0.96, 0.148, 192.0, 0.0, 0.0, 0.0, 0.0, 0.0, 0.0, 0.0, 0.0, 0.0, 1.700950073626737E9, 0.0, 2023-11-25 17:07:53.626
85.0, 10099.389862941487, 12103.246105104221, -62240.26527884785, -61139.285402212794, -70380.10005713702, 4389.2791139220135, -27770.097883951414, 25623.88338135283, -0.222, 0.96, 0.148, 192.0, 0.0, 0.0, 0.0, 0.0, 0.0, 0.0, 0.0, 0.0, 0.0, 1.700950073629517E9, 0.0, 2023-11-25 17:07:53.629
86.0, 10150.553005999685, 12124.524965825674, -62262.84054074771, -61148.583727906196, -70290.87189327144, 4494.55583030651, -27736.614970757364, 25631.281808767537, -0.222, 0.96, 0.148, 192.0, 0.0, 0.0, 0.0, 0.0, 0.0, 0.0, 0.0, 0.0, 0.0, 1.700950073632441E9, 0.0, 2023-11-25 17:07:53.632
87.0, 10036.804978466627, 11968.755658716638, -62344.0667800983, -61244.986801741936, -70352.80857715709, 4402.3101809394575, -27807.514704169596, 25532.308284319435, -0.218, 0.9520000000000001, 0.156, 192.0, 249.0, 48.0, 29.0, 192.0, 4.0, 224.0, 0.0, 0.0, 0.0, 1.700950073636476E9, 0.0, 2023-11-25 17:07:53.636
88.0, 10006.048978096125, 11962.296004569054, -62319.837489108744, -61220.69045551902, -70407.68210979487, 4347.056668645939, -27818.55646593052, 25533.828202942397, -0.218, 0.9520000000000001, 0.156, 192.0, 0.0, 0.0, 0.0, 0.0, 0.0, 0.0, 0.0, 0.0, 0.0, 1.700950073639469E9, 0.0, 2023-11-25 17:07:53.639
89.0, 10087.632845357997, 12089.030395630645, -62244.22153761644, -61128.020123007314, -70385.50917929522, 4390.4861081226, -27781.92195676827, 25588.902901280275, -0.218, 0.9520000000000001, 0.156, 192.0, 0.0, 0.0, 0.0, 0.0, 0.0, 0.0, 0.0, 0.0, 0.0, 1.70095007364247E9, 0.0, 2023-11-25 17:07:53.642
90.0, 10150.664764721962, 12134.538547341652, -62248.02133417384, -61112.46330886642, -70304.64056785591, 4489.258466870602, -27737.933723680228, 25620.150640028794, -0.218, 0.9520000000000001, 0.156, 192.0, 0.0, 0.0, 0.0, 0.0, 0.0, 0.0, 0.0, 0.0, 0.0, 1.700950073645531E9, 0.0, 2023-11-25 17:07:53.645
91.0, 10045.388048337467, 11981.18322863379, -62352.44868426904, -61227.26186838888, -70344.38196949744, 4435.748390644597, -27796.1600179863, 25531.43656628568, -0.218, 0.9520000000000001, 0.156, 192.0, 0.0, 0.0, 0.0, 0.0, 0.0, 0.0, 0.0, 0.0, 0.0, 1.700950073649647E9, 0.0, 2023-11-25 17:07:53.649
92.0, 9999.365806503989, 11942.402952003831, -62331.661561925604, -61218.45528107349, -70413.91824649791, 4344.441514544668, -27815.091945539945, 25518.85253415734, -0.218, 0.9520000000000001, 0.156, 192.0, 0.0, 0.0, 0.0, 0.0, 0.0, 0.0, 0.0, 0.0, 0.0, 1.700950073652533E9, 0.0, 2023-11-25 17:07:53.652
93.0, 10056.698031031852, 12053.580528924529, -62279.13496245563, -61152.94231807499, -70410.58783657406, 4377.320930638424, -27790.750895828118, 25560.53853756649, -0.218, 0.9520000000000001, 0.156, 192.0, 0.0, 0.0, 0.0, 0.0, 0.0, 0.0, 0.0, 0.0, 0.0, 1.700950073655522E9, 0.0, 2023-11-25 17:07:53.655
94.0, 10154.86689267956, 12151.704687083327, -62231.65985723256, -61095.69950052494, -70318.61040814048, 4473.679300985254, -27735.609142256875, 25612.148715513795, -0.218, 0.9520000000000001, 0.156, 192.0, 0.0, 0.0, 0.0, 0.0, 0.0, 0.0, 0.0, 0.0, 0.0, 1.700950073659549E9, 0.0, 2023-11-25 17:07:53.659
95.0, 10088.303397691656, 12036.324982205031, -62321.603276920716, -61192.34844354969, -70300.61725385395, 4495.673417529276, -27757.49150007862, 25559.599764299368, -0.218, 0.9520000000000001, 0.156, 192.0, 0.0, 0.0, 0.0, 0.0, 0.0, 0.0, 0.0, 0.0, 0.0, 1.700950073662506E9, 0.0, 2023-11-25 17:07:53.662
96.0, 10006.205440307313, 11950.091952096458, -62321.33505598725, -61208.82167921325, -70386.67147000688, 4375.577494570911, -27786.481712637153, 25540.91370593473, -0.218, 0.9520000000000001, 0.156, 192.0, 0.0, 0.0, 0.0, 0.0, 0.0, 0.0, 0.0, 0.0, 0.0, 1.700950073666533E9, 0.0, 2023-11-25 17:07:53.666
97.0, 10053.859359486027, 12044.95275556478, -62276.74332579891, -61150.64008839609, -70390.47126656429, 4402.198422217181, -27771.416636874277, 25568.02637195902, -0.214, 0.9440000000000001, 0.162, 192.0, 249.0, 80.0, 29.0, 128.0, 5.0, 16.0, 0.0, 0.0, 0.0, 1.700950073669574E9, 0.0, 2023-11-25 17:07:53.669
98.0, 10151.2459100778, 12154.74452432925, -62222.048607116776, -61083.495448052345, -70326.99231231121, 4464.895065414317, -27721.05815661647, 25613.4451166922, -0.214, 0.9440000000000001, 0.162, 192.0, 0.0, 0.0, 0.0, 0.0, 0.0, 0.0, 0.0, 0.0, 0.0, 1.70095007367259E9, 0.0, 2023-11-25 17:07:53.672
99.0, 10103.636694387997, 12058.073229560046, -62329.24757352443, -61184.14535333459, -70298.4938381307, 4505.2623159006025, -27744.52748829454, 25554.212993885638, -0.214, 0.9440000000000001, 0.162, 192.0, 0.0, 0.0, 0.0, 0.0, 0.0, 0.0, 0.0, 0.0, 0.0, 1.700950073676743E9, 0.0, 2023-11-25 17:07:53.676
100.0, 10002.830326894562, 11944.12403632689, -62346.480768499474, -61219.461109573975, -70390.78419098665, 4359.707756007642, -27801.569140144486, 25506.71553691811, -0.214, 0.9440000000000001, 0.162, 192.0, 0.0, 0.0, 0.0, 0.0, 0.0, 0.0, 0.0, 0.0, 0.0, 1.70095007367972E9, 0.0, 2023-11-25 17:07:53.679
101.0, 10039.263670356711, 12029.887679801903, -62302.447831922516, -61161.21246352345, -70395.32159511109, 4381.72422429612, -27780.31263116749, 25547.887450204784, -0.214, 0.9440000000000001, 0.162, 192.0, 0.0, 0.0, 0.0, 0.0, 0.0, 0.0, 0.0, 0.0, 0.0, 1.700950073682604E9, 0.0, 2023-11-25 17:07:53.682
102.0, 10141.969936128848, 12159.773666831692, -62231.21282234345, -61082.936654440964, -70347.57826895456, 4426.1371405288155, -27728.47893577563, 25599.743497341096, -0.214, 0.9440000000000001, 0.162, 192.0, 0.0, 0.0, 0.0, 0.0, 0.0, 0.0, 0.0, 0.0, 0.0, 1.700950073686682E9, 0.0, 2023-11-25 17:07:53.686
103.0, 10122.1886422859, 12097.904038179404, -62316.46237569599, -61167.448600226475, -70294.24700668419, 4492.007731438605, -27739.40893881428, 25557.811624742943, -0.214, 0.9440000000000001, 0.162, 192.0, 0.0, 0.0, 0.0, 0.0, 0.0, 0.0, 0.0, 0.0, 0.0, 1.700950073689697E9, 0.0, 2023-11-25 17:07:53.689
104.0, 10001.668036182886, 11949.376696273888, -62353.14158834715, -61234.079150447746, -70383.74339148324, 4345.983784912084, -27804.11723901239, 25494.84676061234, -0.214, 0.9440000000000001, 0.162, 192.0, 0.0, 0.0, 0.0, 0.0, 0.0, 0.0, 0.0, 0.0, 0.0, 1.700950073693401E9, 0.0, 2023-11-25 17:07:53.693
105.0, 10012.754501432717, 11999.221086409223, -62320.93272458705, -61195.29887381779, -70405.80456326062, 4343.569796510911, -27797.12114299788, 25528.553191250943, -0.214, 0.9440000000000001, 0.162, 192.0, 0.0, 0.0, 0.0, 0.0, 0.0, 0.0, 0.0, 0.0, 0.0, 1.700950073695659E9, 0.0, 2023-11-25 17:07:53.695
106.0, 10102.563810654141, 12126.514271082197, -62248.535424296315, -61114.76553854532, -70374.69093497883, 4371.86710499133, -27763.43706410373, 25577.414104630247, -0.214, 0.9440000000000001, 0.162, 192.0, 0.0, 0.0, 0.0, 0.0, 0.0, 0.0, 0.0, 0.0, 0.0, 1.700950073699701E9, 0.0, 2023-11-25 17:07:53.699
107.0, 10132.693962179896, 12118.78056750066, -62293.01539576238, -61151.377695963114, -70292.07888747203, 4467.532571260044, -27740.43711905922, 25566.327639380415, -0.20800000000000002, 0.9440000000000001, 0.166, 192.0, 249.0, 128.0, 29.0, 128.0, 5.0, 48.0, 0.0, 0.0, 0.0, 1.700950073702668E9, 0.0, 2023-11-25 17:07:53.702
108.0, 10015.436710767355, 11968.621548249906, -62358.72952446098, -61238.281278405346, -70371.67344947737, 4344.888549433774, -27804.653680879317, 25488.252995998027, -0.20800000000000002, 0.9440000000000001, 0.166, 192.0, 0.0, 0.0, 0.0, 0.0, 0.0, 0.0, 0.0, 0.0, 0.0, 1.700950073705675E9, 0.0, 2023-11-25 17:07:53.705
109.0, 10000.572800704575, 11990.950940960758, -62338.6129544512, -61211.995626925906, -70416.19812443234, 4309.841014127853, -27813.817896105993, 25506.559074706922, -0.20800000000000002, 0.9440000000000001, 0.166, 192.0, 0.0, 0.0, 0.0, 0.0, 0.0, 0.0, 0.0, 0.0, 0.0, 1.700950073708708E9, 0.0, 2023-11-25 17:07:53.708
110.0, 10089.823316314616, 12125.910773981903, -62257.632584289626, -61118.520631613814, -70385.12919963947, 4348.5989390133545, -27779.776189300563, 25569.72510453762, -0.20800000000000002, 0.9440000000000001, 0.166, 192.0, 0.0, 0.0, 0.0, 0.0, 0.0, 0.0, 0.0, 0.0, 0.0, 1.700950073712743E9, 0.0, 2023-11-25 17:07:53.712
111.0, 10159.91838692646, 12172.380050704485, -62259.37602035714, -61107.94825648645, -70279.69602104378, 4470.304187572502, -27729.663578231764, 25603.49859040959, -0.20800000000000002, 0.9440000000000001, 0.166, 192.0, 0.0, 0.0, 0.0, 0.0, 0.0, 0.0, 0.0, 0.0, 0.0, 1.700950073715713E9, 0.0, 2023-11-25 17:07:53.715
112.0, 10045.23158612628, 12012.252153426667, -62345.87727139918, -61215.66131301658, -70336.93883859382, 4386.552201098466, -27796.607052875406, 25512.035252098474, -0.20800000000000002, 0.9440000000000001, 0.166, 192.0, 0.0, 0.0, 0.0, 0.0, 0.0, 0.0, 0.0, 0.0, 0.0, 1.700950073719693E9, 0.0, 2023-11-25 17:07:53.719
113.0, 10015.570821234087, 11998.394071864375, -62312.0590820383, -61188.12396384764, -70384.77157172818, 4335.657278973732, -27801.03269827756, 25543.931191436197, -0.20800000000000002, 0.9440000000000001, 0.166, 192.0, 0.0, 0.0, 0.0, 0.0, 0.0, 0.0, 0.0, 0.0, 0.0, 1.700950073722827E9, 0.0, 2023-11-25 17:07:53.722
114.0, 10085.867057546027, 12115.092529665533, -62243.908613194064, -61108.93173324248, -70368.74537095372, 4379.578456828411, -27767.505081594598, 25604.83969507691, -0.20800000000000002, 0.9440000000000001, 0.166, 192.0, 0.0, 0.0, 0.0, 0.0, 0.0, 0.0, 0.0, 0.0, 0.0, 1.700950073725788E9, 0.0, 2023-11-25 17:07:53.725
115.0, 10146.417933275454, 12164.959271545324, -62239.70648523647, -61095.56539005821, -70292.5929775945, 4472.31584457348, -27724.746194451596, 25621.4470412072, -0.20800000000000002, 0.9440000000000001, 0.166, 192.0, 0.0, 0.0, 0.0, 0.0, 0.0, 0.0, 0.0, 0.0, 0.0, 1.70095007372981E9, 0.0, 2023-11-25 17:07:53.729
116.0, 10046.12565590449, 12012.855650526959, -62339.17174806259, -61209.06754840226, -70320.3985476969, 4440.397553491301, -27777.138683454836, 25549.25090661656, -0.20800000000000002, 0.9440000000000001, 0.166, 192.0, 0.0, 0.0, 0.0, 0.0, 0.0, 0.0, 0.0, 0.0, 0.0, 1.700950073733016E9, 0.0, 2023-11-25 17:07:53.733
117.0, 9986.200629019813, 11958.473856267197, -62325.40307347812, -61208.75462397988, -70395.612167789, 4349.627119258299, -27797.098791253426, 25557.498700320568, -0.212, 0.9520000000000001, 0.164, 192.0, 249.0, 96.0, 29.0, 192.0, 5.0, 32.0, 0.0, 0.0, 0.0, 1.700950073735793E9, 0.0, 2023-11-25 17:07:53.735
118.0, 10052.004164696236, 12073.942968123314, -62262.61702330316, -61133.94333528797, -70386.17973162887, 4389.368520899835, -27766.20868041619, 25617.91546558326, -0.212, 0.9520000000000001, 0.164, 192.0, 0.0, 0.0, 0.0, 0.0, 0.0, 0.0, 0.0, 0.0, 0.0, 1.70095007373985E9, 0.0, 2023-11-25 17:07:53.739
119.0, 10163.58407301713, 12186.998091578256, -62200.18860103949, -61063.66945072049, -70290.71543106025, 4486.5092023026, -27700.226330784124, 25673.683067999253, -0.212, 0.9520000000000001, 0.164, 192.0, 0.0, 0.0, 0.0, 0.0, 0.0, 0.0, 0.0, 0.0, 0.0, 1.700950073742948E9, 0.0, 2023-11-25 17:07:53.742
120.0, 10085.956464523848, 12062.632985428929, -62310.114480270684, -61180.5914259662, -70286.82622752503, 4493.907629717306, -27742.87345920485, 25580.878625020818, -0.212, 0.9520000000000001, 0.164, 192.0, 0.0, 0.0, 0.0, 0.0, 0.0, 0.0, 0.0, 0.0, 0.0, 1.700950073746147E9, 0.0, 2023-11-25 17:07:53.746
121.0, 9983.808992363096, 11956.819827177505, -62326.3641984897, -61216.331865350236, -70389.24192061924, 4349.135380880282, -27798.998689532127, 25528.597894739854, -0.212, 0.9520000000000001, 0.164, 192.0, 0.0, 0.0, 0.0, 0.0, 0.0, 0.0, 0.0, 0.0, 0.0, 1.700950073748903E9, 0.0, 2023-11-25 17:07:53.748
122.0, 10026.612582995009, 12046.159749765367, -62282.8006485463, -61158.53025418881, -70392.70644100982, 4376.717433538131, -27779.463264878188, 25575.223633673628, -0.212, 0.9520000000000001, 0.164, 192.0, 0.0, 0.0, 0.0, 0.0, 0.0, 0.0, 0.0, 0.0, 0.0, 1.700950073752887E9, 0.0, 2023-11-25 17:07:53.752
123.0, 10137.209014559867, 12170.83778033707, -62210.69392093348, -61075.247654348335, -70319.7950505966, 4445.78432390503, -27721.72870895013, 25633.60639019089, -0.212, 0.9520000000000001, 0.164, 192.0, 0.0, 0.0, 0.0, 0.0, 0.0, 0.0, 0.0, 0.0, 0.0, 1.700950073755988E9, 0.0, 2023-11-25 17:07:53.755
124.0, 10108.732892123806, 12090.349148553509, -62297.28457895334, -61160.94424258998, -70272.76698026263, 4498.757958264107, -27738.716034736164, 25575.111874951348, -0.212, 0.9520000000000001, 0.164, 192.0, 0.0, 0.0, 0.0, 0.0, 0.0, 0.0, 0.0, 0.0, 0.0, 1.700950073758838E9, 0.0, 2023-11-25 17:07:53.758
125.0, 9998.136460558946, 11961.84896967995, -62322.89967809912, -61211.16861238106, -70373.75216171172, 4346.654337245744, -27802.194988989235, 25511.454106742636, -0.212, 0.9520000000000001, 0.164, 192.0, 0.0, 0.0, 0.0, 0.0, 0.0, 0.0, 0.0, 0.0, 0.0, 1.700950073762934E9, 0.0, 2023-11-25 17:07:53.762
126.0, 10016.710760201307, 12023.070397743035, -62292.70247134, -61167.873283371126, -70396.28272012266, 4355.259758861036, -27794.327174940965, 25546.76986298202, -0.212, 0.9520000000000001, 0.164, 192.0, 0.0, 0.0, 0.0, 0.0, 0.0, 0.0, 0.0, 0.0, 0.0, 1.700950073765845E9, 0.0, 2023-11-25 17:07:53.765
127.0, 10120.825185874128, 12152.866977795004, -62213.33142677921, -61077.683994493964, -70345.09722532002, 4400.477337894123, -27748.930781952236, 25607.745421856096, -0.216, 0.9580000000000001, 0.16, 192.0, 249.0, 64.0, 29.0, 240.0, 5.0, 0.0, 0.0, 0.0, 0.0, 1.700950073768871E9, 0.0, 2023-11-25 17:07:53.768
128.0, 10124.423816731432, 12107.984674928746, -62278.97850024444, -61138.14546324557, -70267.4919685712, 4491.895972716328, -27746.38268308433, 25579.24694767558, -0.216, 0.9580000000000001, 0.16, 192.0, 0.0, 0.0, 0.0, 0.0, 0.0, 0.0, 0.0, 0.0, 0.0, 1.700950073772902E9, 0.0, 2023-11-25 17:07:53.772
129.0, 9987.11705054248, 11943.609946204419, -62343.329172531274, -61227.77595851135, -70372.92514716687, 4342.80983719943, -27826.2678177676, 25510.515333475512, -0.216, 0.9580000000000001, 0.16, 192.0, 0.0, 0.0, 0.0, 0.0, 0.0, 0.0, 0.0, 0.0, 0.0, 1.700950073775921E9, 0.0, 2023-11-25 17:07:53.775
130.0, 10000.416338493389, 11999.3328451315, -62308.37104420317, -61184.927664390525, -70397.869693979, 4336.0372586294725, -27813.482619939165, 25550.30143860596, -0.216, 0.9580000000000001, 0.16, 192.0, 0.0, 0.0, 0.0, 0.0, 0.0, 0.0, 0.0, 0.0, 0.0, 1.700950073778945E9, 0.0, 2023-11-25 17:07:53.778
131.0, 10095.008921028248, 12134.963230486303, -62230.139938609595, -61094.06782317971, -70362.01749587269, 4368.648453789765, -27774.009439231093, 25605.867875321852, -0.216, 0.9580000000000001, 0.16, 192.0, 0.0, 0.0, 0.0, 0.0, 0.0, 0.0, 0.0, 0.0, 0.0, 1.700950073781884E9, 0.0, 2023-11-25 17:07:53.781
132.0, 10122.590973686096, 12127.475396093774, -62273.23410191943, -61128.08717824068, -70277.79612276508, 4464.157457847293, -27762.38653211433, 25580.990383743094, -0.216, 0.9580000000000001, 0.16, 192.0, 0.0, 0.0, 0.0, 0.0, 0.0, 0.0, 0.0, 0.0, 0.0, 1.700950073785938E9, 0.0, 2023-11-25 17:07:53.785
133.0, 10013.782681677661, 11977.472839054208, -62328.7111316575, -61206.54180127881, -70341.36448399597, 4360.735936252587, -27818.444707208244, 25504.592121194855, -0.216, 0.9580000000000001, 0.16, 192.0, 0.0, 0.0, 0.0, 0.0, 0.0, 0.0, 0.0, 0.0, 0.0, 1.700950073788946E9, 0.0, 2023-11-25 17:07:53.788
134.0, 10010.966361876293, 12001.389205621386, -62293.685948096034, -61169.19203629399, -70377.21668210228, 4337.959508652629, -27811.69448038274, 25527.323845305902, -0.216, 0.9580000000000001, 0.16, 192.0, 0.0, 0.0, 0.0, 0.0, 0.0, 0.0, 0.0, 0.0, 0.0, 1.700950073791939E9, 0.0, 2023-11-25 17:07:53.791
135.0, 10079.899141776461, 12111.359788341499, -62239.34885732518, -61102.159154672525, -70372.47811227776, 4365.049822932461, -27786.571119614975, 25577.25764241906, -0.216, 0.9580000000000001, 0.16, 192.0, 0.0, 0.0, 0.0, 0.0, 0.0, 0.0, 0.0, 0.0, 0.0, 1.700950073794901E9, 0.0, 2023-11-25 17:07:53.794
136.0, 10134.124473825035, 12141.556995100618, -62252.78225574282, -61106.45068960795, -70286.62506182493, 4469.231303838647, -27753.892869221316, 25600.414049674757, -0.216, 0.9580000000000001, 0.16, 192.0, 0.0, 0.0, 0.0, 0.0, 0.0, 0.0, 0.0, 0.0, 0.0, 1.700950073797935E9, 0.0, 2023-11-25 17:07:53.797
137.0, 10032.714609231307, 11996.091842185479, -62331.52745145887, -61206.944132679004, -70328.22165825625, 4401.080834994416, -27819.025852564082, 25508.727193919087, -0.214, 0.9520000000000001, 0.162, 192.0, 249.0, 80.0, 29.0, 192.0, 5.0, 16.0, 0.0, 0.0, 0.0, 1.700950073831055E9, 0.0, 2023-11-25 17:07:53.831
138.0, 9987.273512753667, 11973.002490163148, -62312.61787564968, -61194.96359765096, -70393.7122695103, 4330.069342859905, -27839.03066385158, 25517.354967278836, -0.214, 0.9520000000000001, 0.162, 192.0, 0.0, 0.0, 0.0, 0.0, 0.0, 0.0, 0.0, 0.0, 0.0, 1.700950073860114E9, 0.0, 2023-11-25 17:07:53.860
139.0, 10060.766048522717, 12094.551276511107, -62240.913479437055, -61112.932695499985, -70376.97081291328, 4374.348148625869, -27803.13376225636, 25582.979688999618, -0.214, 0.9520000000000001, 0.162, 192.0, 0.0, 0.0, 0.0, 0.0, 0.0, 0.0, 0.0, 0.0, 0.0, 1.700950073866178E9, 0.0, 2023-11-25 17:07:53.866
140.0, 10142.193453573402, 12171.731850115282, -62216.438319258494, -61075.47117179289, -70286.9379862473, 4477.0320626535495, -27744.1475086388, 25624.397471475302, -0.214, 0.9520000000000001, 0.162, 192.0, 0.0, 0.0, 0.0, 0.0, 0.0, 0.0, 0.0, 0.0, 0.0, 1.700950073873184E9, 0.0, 2023-11-25 17:07:53.873
141.0, 10036.134426132969, 12017.95184826277, -62333.60616369321, -61200.104498875684, -70318.96803605175, 4435.636631922321, -27808.229959992168, 25528.441432528667, -0.214, 0.9520000000000001, 0.162, 192.0, 0.0, 0.0, 0.0, 0.0, 0.0, 0.0, 0.0, 0.0, 0.0, 1.700950073884239E9, 0.0, 2023-11-25 17:07:53.884
142.0, 9982.870219095972, 11971.124943628902, -62314.33895997274, -61191.3426150492, -70389.9124729529, 4331.678668460688, -27837.331931272976, 25513.219894554604, -0.214, 0.9520000000000001, 0.162, 192.0, 0.0, 0.0, 0.0, 0.0, 0.0, 0.0, 0.0, 0.0, 0.0, 1.700950073887211E9, 0.0, 2023-11-25 17:07:53.887
143.0, 10028.534833018164, 12061.873026117448, -62272.094162952206, -61134.591535877174, -70397.44501083434, 4357.114953650827, -27821.015157820602, 25544.646447258765, -0.214, 0.9520000000000001, 0.162, 192.0, 0.0, 0.0, 0.0, 0.0, 0.0, 0.0, 0.0, 0.0, 0.0, 1.700950073896479E9, 0.0, 2023-11-25 17:07:53.896
144.0, 10116.935982338904, 12153.962213273313, -62221.86979316113, -61073.25834909181, -70318.96803605175, 4437.536530201021, -27764.01820945957, 25595.898997294786, -0.214, 0.9520000000000001, 0.162, 192.0, 0.0, 0.0, 0.0, 0.0, 0.0, 0.0, 0.0, 0.0, 0.0, 1.700950073902262E9, 0.0, 2023-11-25 17:07:53.902
145.0, 10059.737868277773, 12046.673839887839, -62314.42836695056, -61169.549664205275, -70293.6435095839, 4465.699728214709, -27782.994840502124, 25544.3782263253, -0.214, 0.9520000000000001, 0.162, 192.0, 0.0, 0.0, 0.0, 0.0, 0.0, 0.0, 0.0, 0.0, 0.0, 1.700950073905269E9, 0.0, 2023-11-25 17:07:53.905
146.0, 9983.250198751712, 11961.781914446583, -62311.0085500489, -61185.01707136835, -70375.62970824596, 4342.362802310325, -27820.858695609415, 25530.028406384994, -0.214, 0.9520000000000001, 0.162, 192.0, 0.0, 0.0, 0.0, 0.0, 0.0, 0.0, 0.0, 0.0, 0.0, 1.70095007390935E9, 0.0, 2023-11-25 17:07:53.909
147.0, 10020.488205014253, 12047.165578265856, -62276.2515874209, -61134.97151553292, -70389.6666037639, 4362.881703720296, -27813.4155647058, 25565.277107391015, -0.20800000000000002, 0.9500000000000001, 0.168, 192.0, 249.0, 128.0, 29.0, 176.0, 5.0, 64.0, 0.0, 0.0, 0.0, 1.700950073941448E9, 0.0, 2023-11-25 17:07:53.941
148.0, 10128.871813878039, 12179.107925785533, -62207.96700810993, -61055.84634016113, -70329.0486728011, 4417.464663680156, -27768.041523461525, 25606.583131144424, -0.20800000000000002, 0.9500000000000001, 0.168, 192.0, 0.0, 0.0, 0.0, 0.0, 0.0, 0.0, 0.0, 0.0, 0.0, 1.700950073944427E9, 0.0, 2023-11-25 17:07:53.944
149.0, 10087.297569191167, 12091.086756120534, -62314.83069835076, -61159.7372483894, -70299.05263174207, 4465.8785421703515, -27797.50112265362, 25534.252886087048, -0.20800000000000002, 0.9500000000000001, 0.168, 192.0, 0.0, 0.0, 0.0, 0.0, 0.0, 0.0, 0.0, 0.0, 0.0, 1.700950073947433E9, 0.0, 2023-11-25 17:07:53.947
150.0, 9970.219131734268, 11955.478722510186, -62342.1668818196, -61211.079205403235, -70395.612167789, 4325.621345713299, -27855.235678581677, 25494.84676061234, -0.20800000000000002, 0.9500000000000001, 0.168, 192.0, 0.0, 0.0, 0.0, 0.0, 0.0, 0.0, 0.0, 0.0, 0.0, 1.700950073951397E9, 0.0, 2023-11-25 17:07:53.951
151.0, 9994.426070979365, 12020.388188408398, -62294.20003821851, -61154.953975075965, -70400.95423471382, 4348.509532035534, -27835.454384738732, 25558.683342776698, -0.20800000000000002, 0.9500000000000001, 0.168, 192.0, 0.0, 0.0, 0.0, 0.0, 0.0, 0.0, 0.0, 0.0, 0.0, 1.700950073954408E9, 0.0, 2023-11-25 17:07:53.954
152.0, 10097.087633262592, 12154.386896417964, -62212.035025600795, -61066.999860644326, -70351.46747248978, 4401.572573372433, -27772.601279330407, 25641.518907728067, -0.20800000000000002, 0.9500000000000001, 0.168, 192.0, 0.0, 0.0, 0.0, 0.0, 0.0, 0.0, 0.0, 0.0, 0.0, 1.700950073957485E9, 0.0, 2023-11-25 17:07:53.957
153.0, 10110.208107257857, 12125.776663515171, -62273.56937808626, -61127.08134974019, -70280.90301524437, 4492.097138416426, -27760.53133732454, 25629.27015176656, -0.20800000000000002, 0.9500000000000001, 0.168, 192.0, 0.0, 0.0, 0.0, 0.0, 0.0, 0.0, 0.0, 0.0, 0.0, 1.700950073960482E9, 0.0, 2023-11-25 17:07:53.960
154.0, 9995.543658202132, 11977.98692917668, -62318.74225363044, -61203.9937024109, -70365.75023719671, 4353.739840238076, -27825.574913689485, 25543.037121657984, -0.20800000000000002, 0.9500000000000001, 0.168, 192.0, 0.0, 0.0, 0.0, 0.0, 0.0, 0.0, 0.0, 0.0, 0.0, 1.700950073966458E9, 0.0, 2023-11-25 17:07:53.966
155.0, 10000.863373382494, 12015.157880205856, -62280.38666014513, -61164.69933565847, -70388.14668514094, 4340.820531942908, -27821.909227598815, 25561.00792420005, -0.20800000000000002, 0.9500000000000001, 0.168, 192.0, 0.0, 0.0, 0.0, 0.0, 0.0, 0.0, 0.0, 0.0, 0.0, 1.700950073970437E9, 0.0, 2023-11-25 17:07:53.970
156.0, 10089.08570874759, 12138.092474710045, -62205.821240642224, -61082.109639896116, -70362.1069028505, 4363.082869420394, -27797.277605209067, 25599.296462451992, -0.20800000000000002, 0.9500000000000001, 0.168, 192.0, 0.0, 0.0, 0.0, 0.0, 0.0, 0.0, 0.0, 0.0, 0.0, 1.700950073973884E9, 0.0, 2023-11-25 17:07:53.973
157.0, 10133.81154940266, 12150.877672538481, -62238.63360150262, -61104.684901795976, -70272.74462851818, 4466.660853226287, -27771.953078741204, 25601.665747364255, -0.21, 0.9480000000000001, 0.166, 192.0, 249.0, 112.0, 29.0, 160.0, 5.0, 48.0, 0.0, 0.0, 0.0, 1.700950073977461E9, 0.0, 2023-11-25 17:07:53.977
158.0, 10006.808937407606, 11989.699243271261, -62320.44098620904, -61205.558324522775, -70349.14289106643, 4356.198532128159, -27847.010236622125, 25521.512391747525, -0.21, 0.9480000000000001, 0.166, 192.0, 0.0, 0.0, 0.0, 0.0, 0.0, 0.0, 0.0, 0.0, 0.0, 1.700950073980451E9, 0.0, 2023-11-25 17:07:53.980
159.0, 9985.284207497145, 11994.057833440047, -62297.01635801988, -61177.8421613982, -70398.40613584591, 4313.774921151987, -27856.286210571077, 25539.840822200877, -0.21, 0.9480000000000001, 0.166, 192.0, 0.0, 0.0, 0.0, 0.0, 0.0, 0.0, 0.0, 0.0, 0.0, 1.700950073983576E9, 0.0, 2023-11-25 17:07:53.983
160.0, 10080.815563299127, 12132.504538596218, -62208.01171159884, -61075.180599114974, -70364.1632633404, 4359.663052518732, -27817.014195563104, 25603.431535176223, -0.21, 0.9480000000000001, 0.166, 192.0, 0.0, 0.0, 0.0, 0.0, 0.0, 0.0, 0.0, 0.0, 0.0, 1.700950073987481E9, 0.0, 2023-11-25 17:07:53.987
161.0, 10147.15554084248, 12175.844571095058, -62211.29741803377, -61065.725811210374, -70272.43170409581, 4471.354719561901, -27772.198947930214, 25626.140907542816, -0.21, 0.9480000000000001, 0.166, 192.0, 0.0, 0.0, 0.0, 0.0, 0.0, 0.0, 0.0, 0.0, 0.0, 1.700950073990476E9, 0.0, 2023-11-25 17:07:53.990
162.0, 10007.568896719087, 11991.688548527783, -62334.030846837864, -61204.574847766744, -70344.89605961992, 4383.490012108089, -27862.455292040744, 25506.670833429198, -0.21, 0.9480000000000001, 0.166, 192.0, 0.0, 0.0, 0.0, 0.0, 0.0, 0.0, 0.0, 0.0, 0.0, 1.700950073994481E9, 0.0, 2023-11-25 17:07:53.994
163.0, 9969.63798637843, 11969.895597683859, -62303.47601216746, -61183.050117856284, -70400.26133063571, 4310.891546117252, -27866.456254298242, 25518.964292879617, -0.21, 0.9480000000000001, 0.166, 192.0, 0.0, 0.0, 0.0, 0.0, 0.0, 0.0, 0.0, 0.0, 0.0, 1.70095007399756E9, 0.0, 2023-11-25 17:07:53.997
164.0, 10033.60867900952, 12084.53769499513, -62243.23806086041, -61110.02696872079, -70390.98535668675, 4351.795238470464, -27836.326102772488, 25580.72216280963, -0.21, 0.9480000000000001, 0.166, 192.0, 0.0, 0.0, 0.0, 0.0, 0.0, 0.0, 0.0, 0.0, 0.0, 1.700950074001549E9, 0.0, 2023-11-25 17:07:54.001
180.0, 9984.099565041013, 12014.688493572296, -62279.649052578105, -61169.281443271815, -70398.22732189028, 4321.978011367084, -27856.107396615436, 25551.19550838417, -0.21, 0.9480000000000001, 0.166, 192.0, 0.0, 0.0, 0.0, 0.0, 0.0, 0.0, 0.0, 0.0, 0.0, 1.700950074005005E9, 0.0, 2023-11-25 17:07:54.005
166.0, 10021.941068403848, 12013.928534260815, -62328.42055897958, -61192.415498783055, -70328.22165825625, 4413.307239211469, -27851.99467563566, 25520.28304580248, -0.21, 0.9480000000000001, 0.166, 192.0, 0.0, 0.0, 0.0, 0.0, 0.0, 0.0, 0.0, 0.0, 0.0, 1.70095007400863E9, 0.0, 2023-11-25 17:07:54.008
167.0, 9957.679803094841, 11958.853835922937, -62311.165012260084, -61189.10744060367, -70401.82595274759, 4309.572793194388, -27878.593251537473, 25521.6241504698, -0.214, 0.9520000000000001, 0.16, 192.0, 249.0, 80.0, 29.0, 192.0, 5.0, 0.0, 0.0, 0.0, 0.0, 1.700950074011604E9, 0.0, 2023-11-25 17:07:54.011
168.0, 10005.244315295735, 12057.00034582619, -62261.0971046802, -61127.97541951841, -70401.08834518056, 4343.636851744277, -27855.615658237417, 25567.244060903082, -0.214, 0.9520000000000001, 0.16, 192.0, 0.0, 0.0, 0.0, 0.0, 0.0, 0.0, 0.0, 0.0, 0.0, 1.700950074014789E9, 0.0, 2023-11-25 17:07:54.014
169.0, 10107.660008389952, 12167.194445990855, -62202.75905165185, -61061.09900010813, -70322.67842563134, 4422.2032335046815, -27793.2095877182, 25622.74344238561, -0.214, 0.9520000000000001, 0.16, 192.0, 0.0, 0.0, 0.0, 0.0, 0.0, 0.0, 0.0, 0.0, 0.0, 1.70095007401871E9, 0.0, 2023-11-25 17:07:54.018
178.0, 10100.105118764057, 12122.558012313606, -62257.69963952299, -61124.82382355021, -70284.36753563494, 4466.750260204108, -27794.64009936334, 25608.907712567772, -0.214, 0.9520000000000001, 0.16, 192.0, 0.0, 0.0, 0.0, 0.0, 0.0, 0.0, 0.0, 0.0, 0.0, 1.7009500740216E9, 0.0, 2023-11-25 17:07:54.021
176.0, 9986.960588331292, 12025.529089633119, -62283.89588402461, -61161.07835305671, -70408.28560689517, 4329.219976570604, -27863.215251352223, 25553.76595899653, -0.214, 0.9520000000000001, 0.16, 192.0, 0.0, 0.0, 0.0, 0.0, 0.0, 0.0, 0.0, 0.0, 0.0, 1.700950074024639E9, 0.0, 2023-11-25 17:07:54.024
172.0, 9991.83326862255, 12034.112159503957, -62266.34976462719, -61140.09006501318, -70399.63548179096, 4345.447343045156, -27855.95093440425, 25555.68820901969, -0.214, 0.9520000000000001, 0.16, 192.0, 0.0, 0.0, 0.0, 0.0, 0.0, 0.0, 0.0, 0.0, 0.0, 1.700950074028621E9, 0.0, 2023-11-25 17:07:54.028
173.0, 10106.028331044714, 12171.955367559834, -62179.73675486288, -61042.32353476567, -70324.8465448435, 4418.984582303117, -27789.72271558317, 25643.552916473498, -0.214, 0.9520000000000001, 0.16, 192.0, 0.0, 0.0, 0.0, 0.0, 0.0, 0.0, 0.0, 0.0, 0.0, 1.700950074031623E9, 0.0, 2023-11-25 17:07:54.031
174.0, 10092.840801816083, 12112.29856160862, -62262.66172679207, -61123.125090971604, -70269.61538429445, 4485.592780779932, -27794.08130575196, 25590.378116414326, -0.214, 0.9520000000000001, 0.16, 192.0, 0.0, 0.0, 0.0, 0.0, 0.0, 0.0, 0.0, 0.0, 0.0, 1.700950074035656E9, 0.0, 2023-11-25 17:07:54.035
181.0, 10068.879731759993, 12140.55116660013, -62204.50248771936, -61082.64608176304, -70373.03690588915, 4359.439535074179, -27820.054032809025, 25612.752212614087, -0.214, 0.9520000000000001, 0.16, 192.0, 0.0, 0.0, 0.0, 0.0, 0.0, 0.0, 0.0, 0.0, 0.0, 1.700950074038992E9, 0.0, 2023-11-25 17:07:54.038
182.0, 10125.876680121026, 12166.613300635017, -62223.099139106176, -61088.3681283436, -70274.01867795213, 4475.959178919695, -27787.040506248537, 25627.124384298848, -0.214, 0.9520000000000001, 0.16, 192.0, 0.0, 0.0, 0.0, 0.0, 0.0, 0.0, 0.0, 0.0, 0.0, 1.700950074043112E9, 0.0, 2023-11-25 17:07:54.043
183.0, 10008.798242664128, 12007.312417902043, -62305.68883486853, -61190.515600504354, -70341.36448399597, 4374.996349215073, -27857.157928604836, 25528.95552265114, -0.214, 0.9520000000000001, 0.16, 192.0, 0.0, 0.0, 0.0, 0.0, 0.0, 0.0, 0.0, 0.0, 0.0, 1.700950074045716E9, 0.0, 2023-11-25 17:07:54.045
184.0, 9979.137477771936, 11999.623417809418, -62287.47216313746, -61172.23187353992, -70398.98728120176, 4314.423121741191, -27874.05584741305, 25526.943865650162, -0.214, 0.9520000000000001, 0.16, 192.0, 0.0, 0.0, 0.0, 0.0, 0.0, 0.0, 0.0, 0.0, 0.0, 1.700950074049682E9, 0.0, 2023-11-25 17:07:54.049
185.0, 10050.75246700674, 12118.422939589374, -62219.679322204516, -61089.016328932805, -70383.56457752759, 4349.202436113648, -27843.813937165018, 25594.624947860833, -0.214, 0.9520000000000001, 0.16, 192.0, 0.0, 0.0, 0.0, 0.0, 0.0, 0.0, 0.0, 0.0, 0.0, 1.700950074052774E9, 0.0, 2023-11-25 17:07:54.052
186.0, 10118.277087006223, 12173.072954782601, -62219.45580475996, -61075.64998574853, -70297.26449218566, 4447.281890783535, -27803.245520978635, 25625.82798312044, -0.226, 0.9500000000000001, 0.16, 192.0, 248.0, 240.0, 29.0, 176.0, 5.0, 0.0, 0.0, 0.0, 0.0, 1.700950074055787E9, 0.0, 2023-11-25 17:07:54.055
187.0, 10020.868184669995, 12027.987781523203, -62314.02603555036, -61187.028728369325, -70331.97675132475, 4389.703797066664, -27864.265783341623, 25530.900124418753, -0.226, 0.9500000000000001, 0.16, 192.0, 0.0, 0.0, 0.0, 0.0, 0.0, 0.0, 0.0, 0.0, 0.0, 1.700950074058753E9, 0.0, 2023-11-25 17:07:54.058
188.0, 9973.415431191377, 11990.146278160368, -62295.80936381929, -61177.797457909284, -70399.3672608575, 4306.0412175704505, -27884.650574284864, 25528.374377295302, -0.226, 0.9500000000000001, 0.16, 192.0, 0.0, 0.0, 0.0, 0.0, 0.0, 0.0, 0.0, 0.0, 0.0, 1.70095007406279E9, 0.0, 2023-11-25 17:07:54.062
189.0, 10007.680655441363, 12074.904093134892, -62262.41585760306, -61132.021085264816, -70416.73456629927, 4321.508624733523, -27874.458178813242, 25562.192566656184, -0.226, 0.9500000000000001, 0.16, 192.0, 0.0, 0.0, 0.0, 0.0, 0.0, 0.0, 0.0, 0.0, 0.0, 1.700950074065752E9, 0.0, 2023-11-25 17:07:54.065
190.0, 10096.037101273192, 12166.121562257, -62218.91936289303, -61080.29914859524, -70327.21582975576, 4412.904907811273, -27814.242579250644, 25609.287692223515, -0.226, 0.9500000000000001, 0.16, 192.0, 0.0, 0.0, 0.0, 0.0, 0.0, 0.0, 0.0, 0.0, 0.0, 1.70095007406977E9, 0.0, 2023-11-25 17:07:54.069
191.0, 10018.253030568723, 12038.515453161652, -62320.17276527557, -61190.58265573772, -70327.9981408117, 4411.58615488841, -27857.470853027207, 25530.34133080737, -0.226, 0.9500000000000001, 0.16, 192.0, 0.0, 0.0, 0.0, 0.0, 0.0, 0.0, 0.0, 0.0, 0.0, 1.700950074076106E9, 0.0, 2023-11-25 17:07:54.076
192.0, 9936.333887140023, 11958.876187667393, -62318.63049490816, -61207.41351931257, -70417.42747037738, 4285.455260927112, -27897.90515874686, 25503.407478738725, -0.226, 0.9500000000000001, 0.16, 192.0, 0.0, 0.0, 0.0, 0.0, 0.0, 0.0, 0.0, 0.0, 0.0, 1.700950074076334E9, 0.0, 2023-11-25 17:07:54.076
193.0, 9986.82647786456, 12056.15097953689, -62264.829846004235, -61142.2805359698, -70414.96877848731, 4321.039238099961, -27875.28519335809, 25544.288819347483, -0.226, 0.9500000000000001, 0.16, 192.0, 0.0, 0.0, 0.0, 0.0, 0.0, 0.0, 0.0, 0.0, 0.0, 1.700950074079839E9, 0.0, 2023-11-25 17:07:54.079
194.0, 10093.064319260637, 12173.229416993789, -62200.702691161954, -61067.46924727789, -70337.96701883877, 4391.469584878634, -27823.65266366633, 25597.8435990624, -0.226, 0.9500000000000001, 0.16, 192.0, 0.0, 0.0, 0.0, 0.0, 0.0, 0.0, 0.0, 0.0, 0.0, 1.700950074082833E9, 0.0, 2023-11-25 17:07:54.082
195.0, 10054.619318797508, 12089.611540986483, -62289.148543971605, -61155.222196009425, -70296.3927741519, 4437.692992412209, -27843.121033086903, 25550.457900817146, -0.226, 0.9500000000000001, 0.16, 192.0, 0.0, 0.0, 0.0, 0.0, 0.0, 0.0, 0.0, 0.0, 0.0, 1.70095007408579E9, 0.0, 2023-11-25 17:07:54.085
196.0, 9961.032564763138, 11983.105478656946, -62297.64220686463, -61185.0394231128, -70382.78226647167, 4304.253078014026, -27887.66805978633, 25514.985682366572, -0.22, 0.9540000000000001, 0.156, 192.0, 249.0, 32.0, 29.0, 208.0, 4.0, 224.0, 0.0, 0.0, 0.0, 1.700950074089817E9, 0.0, 2023-11-25 17:07:54.089
197.0, 9996.437727980343, 12061.694212161805, -62260.60536630218, -61136.73730334489, -70395.85803697801, 4321.888604389263, -27875.37460033591, 25546.144014137273, -0.22, 0.9540000000000001, 0.156, 192.0, 0.0, 0.0, 0.0, 0.0, 0.0, 0.0, 0.0, 0.0, 0.0, 1.700950074092837E9, 0.0, 2023-11-25 17:07:54.092
198.0, 10091.56675238213, 12182.393632220464, -62195.29356900377, -61064.22824433187, -70349.32170502207, 4365.34039561038, -27832.638064937364, 25596.92717753973, -0.22, 0.9540000000000001, 0.156, 192.0, 0.0, 0.0, 0.0, 0.0, 0.0, 0.0, 0.0, 0.0, 0.0, 1.700950074095821E9, 0.0, 2023-11-25 17:07:54.095
199.0, 10071.89721726146, 12124.2120414033, -62274.7987240313, -61141.20765223595, -70291.56479734955, 4433.580271432433, -27844.104509842935, 25556.984610198095, -0.22, 0.9540000000000001, 0.156, 192.0, 0.0, 0.0, 0.0, 0.0, 0.0, 0.0, 0.0, 0.0, 0.0, 1.70095007409881E9, 0.0, 2023-11-25 17:07:54.098
200.0, 9953.365916414967, 11977.428135565298, -62309.66744538158, -61204.12781287764, -70382.20112111582, 4293.099557530828, -27901.77201053763, 25498.892426358754, -0.22, 0.9540000000000001, 0.156, 192.0, 0.0, 0.0, 0.0, 0.0, 0.0, 0.0, 0.0, 0.0, 0.0, 1.700950074102874E9, 0.0, 2023-11-25 17:07:54.102
201.0, 9981.618521406475, 12047.09852303249, -62259.018392445854, -61145.70035287146, -70388.59372003004, 4310.891546117252, -27875.64282126937, 25554.078883418904, -0.22, 0.9540000000000001, 0.156, 192.0, 0.0, 0.0, 0.0, 0.0, 0.0, 0.0, 0.0, 0.0, 0.0, 1.700950074105833E9, 0.0, 2023-11-25 17:07:54.105
202.0, 10066.555150336642, 12171.106001270533, -62189.12448753411, -61065.725811210374, -70359.00001037121, 4344.888549433774, -27833.710948671218, 25609.801782345985, -0.22, 0.9540000000000001, 0.156, 192.0, 0.0, 0.0, 0.0, 0.0, 0.0, 0.0, 0.0, 0.0, 0.0, 1.700950074109178E9, 0.0, 2023-11-25 17:07:54.109
203.0, 10096.461784417843, 12161.49475115475, -62234.49852877838, -61103.09792793965, -70275.49389308618, 4441.358678502879, -27813.16969551679, 25589.372287913837, -0.22, 0.9540000000000001, 0.156, 192.0, 0.0, 0.0, 0.0, 0.0, 0.0, 0.0, 0.0, 0.0, 0.0, 1.700950074111905E9, 0.0, 2023-11-25 17:07:54.111
204.0, 9972.96839630227, 11999.601066064963, -62306.73936685793, -61196.86349592966, -70364.99027788524, 4312.679685673676, -27887.3327836195, 25494.019746067497, -0.22, 0.9540000000000001, 0.156, 192.0, 0.0, 0.0, 0.0, 0.0, 0.0, 0.0, 0.0, 0.0, 0.0, 1.700950074115979E9, 0.0, 2023-11-25 17:07:54.115
205.0, 9960.987861274227, 12021.014037253146, -62282.48772412392, -61167.09097231519, -70406.63157780547, 4283.175382992671, -27894.015955211635, 25514.158667821728, -0.22, 0.9540000000000001, 0.156, 192.0, 0.0, 0.0, 0.0, 0.0, 0.0, 0.0, 0.0, 0.0, 0.0, 1.700950074118877E9, 0.0, 2023-11-25 17:07:54.118
206.0, 10033.832196454072, 12136.371390386987, -62214.18079306851, -61088.882218466075, -70390.98535668675, 4316.18890955316, -27863.595231007963, 25568.67457254822, -0.218, 0.9500000000000001, 0.16, 192.0, 249.0, 48.0, 29.0, 176.0, 5.0, 0.0, 0.0, 0.0, 0.0, 1.700950074121913E9, 0.0, 2023-11-25 17:07:54.121
207.0, 10081.307301677145, 12153.425771406386, -62239.795892214286, -61103.90259074004, -70308.1944952243, 4413.910736311762, -27834.157983560322, 25578.24111917509, -0.218, 0.9500000000000001, 0.16, 192.0, 0.0, 0.0, 0.0, 0.0, 0.0, 0.0, 0.0, 0.0, 0.0, 1.700950074124886E9, 0.0, 2023-11-25 17:07:54.124
208.0, 9977.125820770958, 12002.193868421778, -62315.300084984316, -61199.72451921994, -70360.02819061615, 4331.835130671875, -27888.495074331175, 25504.010975839017, -0.218, 0.9500000000000001, 0.16, 192.0, 0.0, 0.0, 0.0, 0.0, 0.0, 0.0, 0.0, 0.0, 0.0, 1.700950074128875E9, 0.0, 2023-11-25 17:07:54.128
209.0, 9964.20651247579, 12012.81094703805, -62272.161218185574, -61159.3349169892, -70396.30507186711, 4287.489269672546, -27882.929489961803, 25515.253903300036, -0.218, 0.9500000000000001, 0.16, 192.0, 0.0, 0.0, 0.0, 0.0, 0.0, 0.0, 0.0, 0.0, 0.0, 1.700950074131914E9, 0.0, 2023-11-25 17:07:54.131
210.0, 10025.047960883137, 12124.435558847852, -62212.59381921218, -61085.440049819954, -70386.89498745144, 4323.85555790133, -27851.435882024278, 25573.435494117202, -0.218, 0.9500000000000001, 0.16, 192.0, 0.0, 0.0, 0.0, 0.0, 0.0, 0.0, 0.0, 0.0, 0.0, 1.700950074134948E9, 0.0, 2023-11-25 17:07:54.134
211.0, 10095.657121617453, 12178.325614729598, -62200.76974639532, -61062.03777337525, -70296.21396019626, 4429.109922541371, -27799.535131399054, 25623.101070296892, -0.218, 0.9500000000000001, 0.16, 192.0, 0.0, 0.0, 0.0, 0.0, 0.0, 0.0, 0.0, 0.0, 0.0, 1.70095007414596E9, 0.0, 2023-11-25 17:07:54.145
212.0, 9991.36388198899, 12024.94794427728, -62303.0066255339, -61177.90921663156, -70328.42282395635, 4385.635779575799, -27859.013123394627, 25539.952580923153, -0.218, 0.9500000000000001, 0.16, 192.0, 0.0, 0.0, 0.0, 0.0, 0.0, 0.0, 0.0, 0.0, 0.0, 1.700950074149043E9, 0.0, 2023-11-25 17:07:54.149
213.0, 9931.01417195966, 11976.534065787086, -62289.03678524933, -61174.020013096335, -70401.08834518056, 4287.623380139277, -27885.835216740994, 25523.76991793751, -0.218, 0.9500000000000001, 0.16, 192.0, 0.0, 0.0, 0.0, 0.0, 0.0, 0.0, 0.0, 0.0, 0.0, 1.700950074152963E9, 0.0, 2023-11-25 17:07:54.152
214.0, 9979.048070794115, 12073.697098934306, -62241.204052114976, -61110.988093732376, -70404.28464463766, 4312.23265078457, -27869.51844328862, 25555.777615997507, -0.218, 0.9500000000000001, 0.16, 192.0, 0.0, 0.0, 0.0, 0.0, 0.0, 0.0, 0.0, 0.0, 0.0, 1.700950074155947E9, 0.0, 2023-11-25 17:07:54.155
215.0, 10080.390880154477, 12175.643405394962, -62193.661891658536, -61051.063066847695, -70318.52100116265, 4401.103186738871, -27808.90051232583, 25607.767773600553, -0.218, 0.9500000000000001, 0.16, 192.0, 0.0, 0.0, 0.0, 0.0, 0.0, 0.0, 0.0, 0.0, 0.0, 1.700950074160009E9, 0.0, 2023-11-25 17:07:54.160
216.0, 10012.329818288066, 12055.10044754749, -62298.51392489838, -61162.95589959096, -70315.79408833911, 4402.757215828564, -27856.241507082166, 25516.95263587864, -0.216, 0.9560000000000001, 0.162, 192.0, 249.0, 64.0, 29.0, 224.0, 5.0, 16.0, 0.0, 0.0, 0.0, 1.700950074162995E9, 0.0, 2023-11-25 17:07:54.162
217.0, 9938.63611681892, 11970.409687806332, -62286.622796848154, -61172.63420494011, -70392.34881309854, 4289.500926673523, -27884.628222540407, 25498.780667636474, -0.216, 0.9560000000000001, 0.162, 192.0, 0.0, 0.0, 0.0, 0.0, 0.0, 0.0, 0.0, 0.0, 0.0, 1.70095007416605E9, 0.0, 2023-11-25 17:07:54.166
218.0, 9971.046146279115, 12047.277336988132, -62245.71910449494, -61117.35834090214, -70398.18261840136, 4327.4094852697235, -27868.691428743772, 25561.477310833612, -0.216, 0.9560000000000001, 0.162, 192.0, 0.0, 0.0, 0.0, 0.0, 0.0, 0.0, 0.0, 0.0, 0.0, 1.700950074176044E9, 0.0, 2023-11-25 17:07:54.176
219.0, 10072.94774925086, 12164.623995378495, -62181.636653141584, -61043.48582547734, -70330.34507397951, 4391.179012200715, -27810.107506526412, 25613.82509634794, -0.216, 0.9560000000000001, 0.162, 192.0, 0.0, 0.0, 0.0, 0.0, 0.0, 0.0, 0.0, 0.0, 0.0, 1.700950074179161E9, 0.0, 2023-11-25 17:07:54.179
220.0, 10034.994487165748, 12082.503686249696, -62276.8997880101, -61140.15712024655, -70294.6940415733, 4436.664812167265, -27832.83923063746, 25553.05070317396, -0.216, 0.9560000000000001, 0.162, 192.0, 0.0, 0.0, 0.0, 0.0, 0.0, 0.0, 0.0, 0.0, 0.0, 1.700950074183259E9, 0.0, 2023-11-25 17:07:54.183
221.0, 9928.331962625023, 11957.088048110969, -62296.077584752755, -61185.978196379925, -70391.83472297605, 4290.864383085297, -27888.42801909781, 25503.42983048318, -0.216, 0.9560000000000001, 0.162, 192.0, 0.0, 0.0, 0.0, 0.0, 0.0, 0.0, 0.0, 0.0, 0.0, 1.700950074187074E9, 0.0, 2023-11-25 17:07:54.187
222.0, 9957.813913561573, 12023.517432632141, -62255.21859588845, -61140.80532083575, -70404.46345859331, 4303.783691380464, -27879.62143178242, 25533.91760992022, -0.216, 0.9560000000000001, 0.162, 192.0, 0.0, 0.0, 0.0, 0.0, 0.0, 0.0, 0.0, 0.0, 0.0, 1.700950074190091E9, 0.0, 2023-11-25 17:07:54.190
223.0, 10061.771877023206, 12147.1672829589, -62177.38982169507, -61058.01445937329, -70352.71917017928, 4353.985709427084, -27830.40289049183, 25593.328546682424, -0.216, 0.9560000000000001, 0.162, 192.0, 0.0, 0.0, 0.0, 0.0, 0.0, 0.0, 0.0, 0.0, 0.0, 1.700950074193208E9, 0.0, 2023-11-25 17:07:54.193
224.0, 10064.185865424379, 12099.669825991372, -62251.08352316422, -61126.567259617725, -70288.94964324828, 4437.335364500924, -27832.593361448453, 25557.11872066483, -0.216, 0.9560000000000001, 0.162, 192.0, 0.0, 0.0, 0.0, 0.0, 0.0, 0.0, 0.0, 0.0, 0.0, 1.700950074197142E9, 0.0, 2023-11-25 17:07:54.197
225.0, 9955.757553071684, 11960.150237101345, -62290.86962829467, -61191.18615283802, -70379.96594667029, 4299.559211678411, -27898.374545380422, 25479.781684849466, -0.216, 0.9560000000000001, 0.162, 192.0, 0.0, 0.0, 0.0, 0.0, 0.0, 0.0, 0.0, 0.0, 0.0, 1.700950074200127E9, 0.0, 2023-11-25 17:07:54.200
226.0, 9978.69044288283, 12020.142319219389, -62248.31190685176, -61139.57597489071, -70394.98631894425, 4310.2656972725035, -27881.633088783397, 25526.00509238304, -0.218, 0.9540000000000001, 0.16, 192.0, 249.0, 48.0, 29.0, 208.0, 5.0, 0.0, 0.0, 0.0, 0.0, 1.70095007420317E9, 0.0, 2023-11-25 17:07:54.203
227.0, 10065.504618347242, 12141.713457311806, -62185.16822876552, -61064.45176177642, -70374.19919660082, 4342.832188943886, -27846.540849988563, 25585.48308437861, -0.218, 0.9540000000000001, 0.16, 192.0, 0.0, 0.0, 0.0, 0.0, 0.0, 0.0, 0.0, 0.0, 0.0, 1.700950074206227E9, 0.0, 2023-11-25 17:07:54.206
228.0, 10085.755298823751, 12125.01670420369, -62243.930964938525, -61113.08915771117, -70305.10995448947, 4432.440332465212, -27838.136594073367, 25561.05262768896, -0.218, 0.9540000000000001, 0.16, 192.0, 0.0, 0.0, 0.0, 0.0, 0.0, 0.0, 0.0, 0.0, 0.0, 1.700950074210203E9, 0.0, 2023-11-25 17:07:54.210
229.0, 9973.147210257914, 11976.489362298174, -62297.552799886806, -61190.78382143782, -70370.17588259887, 4318.491139232056, -27900.72147854823, 25476.89830981473, -0.218, 0.9540000000000001, 0.16, 192.0, 0.0, 0.0, 0.0, 0.0, 0.0, 0.0, 0.0, 0.0, 0.0, 1.70095007421324E9, 0.0, 2023-11-25 17:07:54.213
230.0, 9962.373669430455, 11995.018958451625, -62265.031011704334, -61157.36796347713, -70406.22924640527, 4288.651560384222, -27902.151990193368, 25496.90312110223, -0.218, 0.9540000000000001, 0.16, 192.0, 0.0, 0.0, 0.0, 0.0, 0.0, 0.0, 0.0, 0.0, 0.0, 1.700950074216182E9, 0.0, 2023-11-25 17:07:54.216
231.0, 10050.03721118417, 12130.045846706134, -62188.72215613391, -61070.4643810349, -70383.60928101651, 4324.034371856973, -27863.14819611886, 25569.88156674881, -0.218, 0.9540000000000001, 0.16, 192.0, 0.0, 0.0, 0.0, 0.0, 0.0, 0.0, 0.0, 0.0, 0.0, 1.70095007422928E9, 0.0, 2023-11-25 17:07:54.229
232.0, 10104.664874632941, 12160.891254054459, -62201.7308714069, -61072.9677764139, -70294.58228285101, 4426.271250995547, -27828.570047446497, 25583.20320644417, -0.218, 0.9540000000000001, 0.16, 192.0, 0.0, 0.0, 0.0, 0.0, 0.0, 0.0, 0.0, 0.0, 0.0, 1.700950074234378E9, 0.0, 2023-11-25 17:07:54.234
233.0, 9979.293939983123, 11986.99468219217, -62295.094107996716, -61184.234760312414, -70352.67446669037, 4342.00517439904, -27905.549455350574, 25479.915795316196, -0.218, 0.9540000000000001, 0.16, 192.0, 0.0, 0.0, 0.0, 0.0, 0.0, 0.0, 0.0, 0.0, 0.0, 1.700950074245371E9, 0.0, 2023-11-25 17:07:54.245
234.0, 9928.331962625023, 11955.970460888204, -62284.387622402624, -61176.7916294088, -70423.66360708042, 4267.015071751484, -27926.20246722728, 25485.8166558524, -0.218, 0.9540000000000001, 0.16, 192.0, 0.0, 0.0, 0.0, 0.0, 0.0, 0.0, 0.0, 0.0, 0.0, 1.700950074251271E9, 0.0, 2023-11-25 17:07:54.251
235.0, 9999.723434415273, 12079.39679377041, -62220.439281515995, -61099.76751801581, -70414.56644708711, 4302.576697179878, -27887.735115019696, 25553.028351429508, -0.218, 0.9540000000000001, 0.16, 192.0, 0.0, 0.0, 0.0, 0.0, 0.0, 0.0, 0.0, 0.0, 0.0, 1.700950074256573E9, 0.0, 2023-11-25 17:07:54.256
236.0, 10084.950636023359, 12155.21391096281, -62198.28870276079, -61065.97168039939, -70324.69008263231, 4404.053617006972, -27825.70902415622, 25598.424744418237, -0.222, 0.9520000000000001, 0.162, 192.0, 249.0, 16.0, 29.0, 192.0, 5.0, 16.0, 0.0, 0.0, 0.0, 1.700950074259386E9, 0.0, 2023-11-25 17:07:54.259
237.0, 9988.033472065148, 12006.105423701458, -62305.28650346834, -61184.41357426806, -70351.28865853413, 4367.821439244919, -27887.37748710841, 25503.29572001645, -0.222, 0.9520000000000001, 0.162, 192.0, 0.0, 0.0, 0.0, 0.0, 0.0, 0.0, 0.0, 0.0, 0.0, 1.700950074263428E9, 0.0, 2023-11-25 17:07:54.263
238.0, 9928.399017858388, 11950.159007329823, -62289.66263409408, -61183.29598704529, -70426.27876118169, 4258.499057114012, -27920.033385757615, 25480.85456858332, -0.222, 0.9520000000000001, 0.162, 192.0, 0.0, 0.0, 0.0, 0.0, 0.0, 0.0, 0.0, 0.0, 0.0, 1.7009500742664E9, 0.0, 2023-11-25 17:07:54.266
239.0, 9987.049995309115, 12054.38519172492, -62228.530613008814, -61111.16690768801, -70413.49356335326, 4301.235592512559, -27892.94307147778, 25545.8310897149, -0.222, 0.9520000000000001, 0.162, 192.0, 0.0, 0.0, 0.0, 0.0, 0.0, 0.0, 0.0, 0.0, 0.0, 1.700950074269424E9, 0.0, 2023-11-25 17:07:54.269
240.0, 10073.99828124026, 12142.607527090016, -62181.21196999693, -61053.90173839352, -70333.6978356478, 4387.379215643313, -27839.611809207418, 25612.148715513795, -0.222, 0.9520000000000001, 0.162, 192.0, 0.0, 0.0, 0.0, 0.0, 0.0, 0.0, 0.0, 0.0, 0.0, 1.700950074272485E9, 0.0, 2023-11-25 17:07:54.272
241.0, 10011.659265954408, 12030.066493757546, -62273.72584029745, -61150.617736651635, -70311.03316677012, 4411.653210121776, -27869.585498521985, 25548.49094730508, -0.222, 0.9520000000000001, 0.162, 192.0, 0.0, 0.0, 0.0, 0.0, 0.0, 0.0, 0.0, 0.0, 0.0, 1.700950074277501E9, 0.0, 2023-11-25 17:07:54.277
242.0, 9916.373779341433, 11926.220289018189, -62279.492590366914, -61177.08220208671, -70404.6199208045, 4276.022824766973, -27919.09461249049, 25499.898254859243, -0.222, 0.9520000000000001, 0.162, 192.0, 0.0, 0.0, 0.0, 0.0, 0.0, 0.0, 0.0, 0.0, 0.0, 1.700950074280449E9, 0.0, 2023-11-25 17:07:54.280
243.0, 9948.761457057173, 12003.42321436682, -62241.13699688161, -61124.175622961004, -70415.52757209868, 4295.312380231903, -27909.975100752727, 25537.80681345544, -0.222, 0.9520000000000001, 0.162, 192.0, 0.0, 0.0, 0.0, 0.0, 0.0, 0.0, 0.0, 0.0, 0.0, 1.700950074284447E9, 0.0, 2023-11-25 17:07:54.284
244.0, 10056.072182187103, 12128.391817616442, -62171.51131290333, -61042.14472081003, -70347.71237942128, 4362.233503131092, -27852.307600058033, 25610.606445146375, -0.222, 0.9520000000000001, 0.162, 192.0, 0.0, 0.0, 0.0, 0.0, 0.0, 0.0, 0.0, 0.0, 0.0, 1.700950074287686E9, 0.0, 2023-11-25 17:07:54.287
245.0, 10018.275382313179, 12049.601918411485, -62273.7481920419, -61140.7829690913, -70311.88253305943, 4411.429692677223, -27879.219100382223, 25551.77665374001, -0.222, 0.9520000000000001, 0.162, 192.0, 0.0, 0.0, 0.0, 0.0, 0.0, 0.0, 0.0, 0.0, 0.0, 1.700950074291573E9, 0.0, 2023-11-25 17:07:54.291
246.0, 9911.00936067216, 11927.382579729865, -62299.76562258788, -61193.175458094534, -70409.38084237347, 4262.544722860423, -27940.217011000757, 25497.52896994698, -0.218, 0.9460000000000001, 0.158, 192.0, 249.0, 48.0, 29.0, 144.0, 4.0, 240.0, 0.0, 0.0, 0.0, 1.700950074294463E9, 0.0, 2023-11-25 17:07:54.294
247.0, 9937.406770873878, 11993.521391573118, -62254.50334006588, -61144.29219297078, -70418.23213317778, 4279.710862602099, -27924.593141626498, 25543.417101313724, -0.218, 0.9460000000000001, 0.158, 192.0, 0.0, 0.0, 0.0, 0.0, 0.0, 0.0, 0.0, 0.0, 0.0, 1.700950074297514E9, 0.0, 2023-11-25 17:07:54.297
248.0, 10039.867167457005, 12121.485128579752, -62167.26448145682, -61052.672392448476, -70364.4538360183, 4332.393924283258, -27871.57480377851, 25614.942683570705, -0.218, 0.9460000000000001, 0.158, 192.0, 0.0, 0.0, 0.0, 0.0, 0.0, 0.0, 0.0, 0.0, 0.0, 1.700950074301632E9, 0.0, 2023-11-25 17:07:54.301
249.0, 10039.755408734729, 12080.91671239337, -62236.286668334804, -61114.78789028977, -70298.06915498605, 4414.536585156511, -27869.987829922182, 25581.59388084339, -0.218, 0.9460000000000001, 0.158, 192.0, 0.0, 0.0, 0.0, 0.0, 0.0, 0.0, 0.0, 0.0, 0.0, 1.700950074304603E9, 0.0, 2023-11-25 17:07:54.304
250.0, 9918.58660204251, 11934.892765866849, -62284.32056716926, -61185.66527195755, -70386.64911826243, 4277.430984667657, -27939.725272622738, 25504.189789794662, -0.218, 0.9460000000000001, 0.158, 192.0, 0.0, 0.0, 0.0, 0.0, 0.0, 0.0, 0.0, 0.0, 0.0, 1.700950074308536E9, 0.0, 2023-11-25 17:07:54.308
251.0, 9920.86647997695, 11972.443696551765, -62256.96203195597, -61147.08616102769, -70417.04749072164, 4266.568036862378, -27940.86521158996, 25530.85542092984, -0.218, 0.9460000000000001, 0.158, 192.0, 0.0, 0.0, 0.0, 0.0, 0.0, 0.0, 0.0, 0.0, 0.0, 1.700950074311519E9, 0.0, 2023-11-25 17:07:54.311
252.0, 10018.588306735553, 12104.698968493816, -62178.30624321774, -61052.33711628165, -70383.09519089403, 4307.628191426777, -27896.09466744598, 25600.704622352678, -0.218, 0.9460000000000001, 0.158, 192.0, 0.0, 0.0, 0.0, 0.0, 0.0, 0.0, 0.0, 0.0, 0.0, 1.700950074314534E9, 0.0, 2023-11-25 17:07:54.314
253.0, 10050.663060028919, 12105.213058616288, -62230.36345605415, -61086.55763704272, -70305.37817542293, 4416.011800290561, -27873.00531542365, 25604.77263984354, -0.218, 0.9460000000000001, 0.158, 192.0, 0.0, 0.0, 0.0, 0.0, 0.0, 0.0, 0.0, 0.0, 0.0, 1.700950074317525E9, 0.0, 2023-11-25 17:07:54.317
254.0, 9918.899526464884, 11933.55166119953, -62325.783053133855, -61199.81392619776, -70394.40517358843, 4291.154955763216, -27962.25583103369, 25502.960443849617, -0.218, 0.9460000000000001, 0.158, 192.0, 0.0, 0.0, 0.0, 0.0, 0.0, 0.0, 0.0, 0.0, 0.0, 1.700950074321502E9, 0.0, 2023-11-25 17:07:54.321
255.0, 9902.739215223697, 11945.219271805201, -62303.09603251172, -61176.52340847533, -70443.28843871217, 4241.98111796154, -27973.11877883897, 25513.130487576782, -0.218, 0.9460000000000001, 0.158, 192.0, 0.0, 0.0, 0.0, 0.0, 0.0, 0.0, 0.0, 0.0, 0.0, 1.700950074324609E9, 0.0, 2023-11-25 17:07:54.324
0.0, 9984.524248185666, 12071.976014611248, -62226.34014205219, -61092.25733187883, -70422.72483381329, 4277.922723045674, -27933.891467319903, 25583.58318609991, -0.20800000000000002, 0.9480000000000001, 0.158, 192.0, 249.0, 128.0, 29.0, 160.0, 4.0, 240.0, 0.0, 0.0, 0.0, 1.700950074327663E9, 0.0, 2023-11-25 17:07:54.327
1.0, 10055.692202531363, 12122.02157044668, -62215.968932624935, -61073.906549681014, -70318.87862907394, 4393.928276768717, -27884.51646381813, 25612.551046913988, -0.20800000000000002, 0.9480000000000001, 0.158, 192.0, 0.0, 0.0, 0.0, 0.0, 0.0, 0.0, 0.0, 0.0, 0.0, 1.700950074330675E9, 0.0, 2023-11-25 17:07:54.330
2.0, 9926.499119579688, 11950.159007329823, -62320.15041353112, -61196.058833129275, -70377.57431001357, 4312.277354273481, -27964.982743857236, 25502.4687054716, -0.20800000000000002, 0.9480000000000001, 0.158, 192.0, 0.0, 0.0, 0.0, 0.0, 0.0, 0.0, 0.0, 0.0, 0.0, 1.700950074334667E9, 0.0, 2023-11-25 17:07:54.334
3.0, 9880.610988212942, 11921.45936744921, -62296.703433597504, -61181.17257132204, -70441.05326426665, 4233.062771923873, -27982.48415976574, 25505.821467139896, -0.20800000000000002, 0.9480000000000001, 0.158, 192.0, 0.0, 0.0, 0.0, 0.0, 0.0, 0.0, 0.0, 0.0, 0.0, 1.700950074337553E9, 0.0, 2023-11-25 17:07:54.337
4.0, 9942.01123023167, 12029.798272824082, -62237.136034624105, -61109.646989065055, -70436.4264531644, 4266.2998159289145, -27947.950714582294, 25564.91947947973, -0.20800000000000002, 0.9480000000000001, 0.158, 192.0, 0.0, 0.0, 0.0, 0.0, 0.0, 0.0, 0.0, 0.0, 0.0, 1.700950074340631E9, 0.0, 2023-11-25 17:07:54.340
5.0, 10048.2714233722, 12129.822329261582, -62190.80086836826, -61052.69474419293, -70332.51319319167, 4373.431727103201, -27877.2297951257, 25624.017491819563, -0.20800000000000002, 0.9480000000000001, 0.158, 192.0, 0.0, 0.0, 0.0, 0.0, 0.0, 0.0, 0.0, 0.0, 0.0, 1.700950074343729E9, 0.0, 2023-11-25 17:07:54.343
6.0, 9957.724506583752, 11989.94511246027, -62302.98427378944, -61172.7906671513, -70351.57923121205, 4348.5989390133545, -27930.15872599587, 25528.262618573026, -0.20800000000000002, 0.9480000000000001, 0.158, 192.0, 0.0, 0.0, 0.0, 0.0, 0.0, 0.0, 0.0, 0.0, 0.0, 1.700950074347614E9, 0.0, 2023-11-25 17:07:54.347
7.0, 9872.542008464576, 11917.816033102994, -62304.750061601415, -61190.42619352653, -70443.08727301208, 4222.557452029879, -27972.895261394413, 25487.984775064564, -0.20800000000000002, 0.9480000000000001, 0.158, 192.0, 0.0, 0.0, 0.0, 0.0, 0.0, 0.0, 0.0, 0.0, 0.0, 1.700950074368734E9, 0.0, 2023-11-25 17:07:54.368
8.0, 9913.378645584422, 12022.086920987002, -62248.73658999641, -61125.11439622813, -70437.81226132062, 4256.576807090856, -27944.419138958354, 25535.593990754365, -0.20800000000000002, 0.9480000000000001, 0.158, 192.0, 0.0, 0.0, 0.0, 0.0, 0.0, 0.0, 0.0, 0.0, 0.0, 1.700950074373759E9, 0.0, 2023-11-25 17:07:54.373
9.0, 10012.173356076879, 12134.806768275115, -62174.864074571626, -61044.782226655756, -70340.64922817341, 4347.928386679696, -27869.294925844068, 25612.953378314185, -0.20800000000000002, 0.9480000000000001, 0.158, 192.0, 0.0, 0.0, 0.0, 0.0, 0.0, 0.0, 0.0, 0.0, 0.0, 1.700950074380818E9, 0.0, 2023-11-25 17:07:54.380
10.0, 9952.248329192202, 12030.133548990912, -62268.36142162817, -61142.0346667808, -70311.70371910378, 4385.546372597977, -27889.85853074295, 25556.448168331168, -0.22, 0.9500000000000001, 0.154, 192.0, 249.0, 32.0, 29.0, 176.0, 4.0, 208.0, 0.0, 0.0, 0.0, 1.700950074384725E9, 0.0, 2023-11-25 17:07:54.384
11.0, 9852.51484543262, 11926.734379140662, -62277.63739557713, -61176.65751894206, -70408.620883062, 4245.378583118747, -27937.19952549929, 25511.67762418719, -0.22, 0.9500000000000001, 0.154, 192.0, 0.0, 0.0, 0.0, 0.0, 0.0, 0.0, 0.0, 0.0, 0.0, 1.70095007438774E9, 0.0, 2023-11-25 17:07:54.387
12.0, 9877.414688755833, 12001.56801957703, -62243.61804051615, -61134.457425410445, -70426.03289199268, 4259.549589103412, -27930.181077740323, 25543.282990846994, -0.22, 0.9500000000000001, 0.154, 192.0, 0.0, 0.0, 0.0, 0.0, 0.0, 0.0, 0.0, 0.0, 0.0, 1.700950074390755E9, 0.0, 2023-11-25 17:07:54.390
13.0, 9990.134536043946, 12134.963230486303, -62155.8203882957, -61039.104883564105, -70351.04278934513, 4320.838072399863, -27877.006277681146, 25601.86691306435, -0.22, 0.9500000000000001, 0.154, 192.0, 0.0, 0.0, 0.0, 0.0, 0.0, 0.0, 0.0, 0.0, 0.0, 1.700950074429932E9, 0.0, 2023-11-25 17:07:54.429
14.0, 9965.413506676377, 12067.05863083108, -62237.40425555757, -61116.26310542382, -70293.19647469479, 4389.614390088844, -27880.202577138258, 25563.82424400142, -0.22, 0.9500000000000001, 0.154, 192.0, 0.0, 0.0, 0.0, 0.0, 0.0, 0.0, 0.0, 0.0, 0.0, 1.700950074440933E9, 0.0, 2023-11-25 17:07:54.440
15.0, 9848.223310497202, 11934.736303655662, -62269.70252629549, -61172.96948110694, -70391.25357762023, 4233.241585879515, -27941.62517090144, 25500.85937987082, -0.22, 0.9500000000000001, 0.154, 192.0, 0.0, 0.0, 0.0, 0.0, 0.0, 0.0, 0.0, 0.0, 0.0, 1.700950074444998E9, 0.0, 2023-11-25 17:07:54.444
16.0, 9843.954127306239, 11985.340653102476, -62244.489758549906, -61134.41272192154, -70416.73456629927, 4242.629318550744, -27924.77195558214, 25539.662008245232, -0.22, 0.9500000000000001, 0.154, 192.0, 0.0, 0.0, 0.0, 0.0, 0.0, 0.0, 0.0, 0.0, 0.0, 1.700950074447964E9, 0.0, 2023-11-25 17:07:54.447
17.0, 9929.449549847788, 12124.167337914389, -62151.19357719345, -61029.091302048124, -70359.2011760713, 4303.336656491359, -27857.292039071566, 25622.609331918877, -0.22, 0.9500000000000001, 0.154, 192.0, 0.0, 0.0, 0.0, 0.0, 0.0, 0.0, 0.0, 0.0, 0.0, 1.700950074451941E9, 0.0, 2023-11-25 17:07:54.451
18.0, 9917.781939242119, 12100.295674836121, -62214.18079306851, -61079.53918928376, -70281.86414025594, 4404.880631551818, -27851.324123301998, 25590.914558281253, -0.22, 0.9500000000000001, 0.154, 192.0, 0.0, 0.0, 0.0, 0.0, 0.0, 0.0, 0.0, 0.0, 0.0, 1.700950074454921E9, 0.0, 2023-11-25 17:07:54.454
19.0, 9777.50239104061, 11939.005486846625, -62284.56643635827, -61169.59436769419, -70382.73756298274, 4256.062716968384, -27939.278237733633, 25485.414324452202, -0.22, 0.9500000000000001, 0.154, 192.0, 0.0, 0.0, 0.0, 0.0, 0.0, 0.0, 0.0, 0.0, 0.0, 1.700950074458989E9, 0.0, 2023-11-25 17:07:54.458
20.0, 9776.720079984676, 11977.048155909557, -62260.27009013535, -61134.166852732524, -70420.44495587885, 4239.455370838091, -27940.842859845503, 25505.039156083963, -0.218, 0.9580000000000001, 0.156, 192.0, 249.0, 48.0, 29.0, 240.0, 4.0, 224.0, 0.0, 0.0, 0.0, 1.700950074462066E9, 0.0, 2023-11-25 17:07:54.462
21.0, 9856.582862923487, 12101.122689380967, -62193.527781191806, -61054.92991863846, -70404.46345859331, 4269.6078741083, -27909.773935052628, 25556.381113097803, -0.218, 0.9580000000000001, 0.156, 192.0, 0.0, 0.0, 0.0, 0.0, 0.0, 0.0, 0.0, 0.0, 0.0, 1.700950074466019E9, 0.0, 2023-11-25 17:07:54.466
22.0, 9903.208601857257, 12118.668808778384, -62221.42275827203, -61070.03969789025, -70313.78243133813, 4381.523058596023, -27872.446521812264, 25559.935040466196, -0.218, 0.9580000000000001, 0.156, 192.0, 0.0, 0.0, 0.0, 0.0, 0.0, 0.0, 0.0, 0.0, 0.0, 1.700950074469789E9, 0.0, 2023-11-25 17:07:54.469
23.0, 9783.515010299088, 11958.429152778286, -62305.66648312408, -61170.9354723615, -70386.60441477352, 4277.565095134389, -27940.95461856778, 25463.263745696993, -0.218, 0.9580000000000001, 0.156, 192.0, 0.0, 0.0, 0.0, 0.0, 0.0, 0.0, 0.0, 0.0, 0.0, 1.700950074473088E9, 0.0, 2023-11-25 17:07:54.473
24.0, 9769.276949081059, 11970.007356406137, -62273.81524727527, -61136.62554462261, -70429.89974378345, 4235.7226295140545, -27932.125679507935, 25491.56105417741, -0.218, 0.9580000000000001, 0.156, 192.0, 0.0, 0.0, 0.0, 0.0, 0.0, 0.0, 0.0, 0.0, 0.0, 1.700950074476697E9, 0.0, 2023-11-25 17:07:54.476
25.0, 9842.635374383375, 12091.91377066538, -62207.22940054291, -61055.5110639943, -70416.42164187689, 4270.434888653146, -27891.26669064363, 25547.507470549044, -0.218, 0.9580000000000001, 0.156, 192.0, 0.0, 0.0, 0.0, 0.0, 0.0, 0.0, 0.0, 0.0, 0.0, 1.700950074480045E9, 0.0, 2023-11-25 17:07:54.480
26.0, 9909.15416588237, 12146.183806202866, -62204.636598186094, -61041.8094446432, -70328.82515535655, 4372.850581747363, -27840.03649235207, 25566.43939810269, -0.218, 0.9580000000000001, 0.156, 192.0, 0.0, 0.0, 0.0, 0.0, 0.0, 0.0, 0.0, 0.0, 0.0, 1.700950074484054E9, 0.0, 2023-11-25 17:07:54.484
27.0, 9781.70451899821, 11972.376641318398, -62319.16693677509, -61169.59436769419, -70385.44212406184, 4302.487290202056, -27910.131562963914, 25480.60869939431, -0.218, 0.9580000000000001, 0.156, 192.0, 0.0, 0.0, 0.0, 0.0, 0.0, 0.0, 0.0, 0.0, 0.0, 1.700950074486995E9, 0.0, 2023-11-25 17:07:54.486
28.0, 9742.343097012414, 11943.02880084858, -62288.098011982205, -61145.47683542691, -70441.05326426665, 4218.154158372183, -27923.56496138155, 25491.069315799396, -0.218, 0.9580000000000001, 0.156, 192.0, 0.0, 0.0, 0.0, 0.0, 0.0, 0.0, 0.0, 0.0, 0.0, 1.700950074491044E9, 0.0, 2023-11-25 17:07:54.491
29.0, 9804.03391170906, 12057.335621993021, -62228.84353743119, -61072.94542466944, -70432.73841532927, 4246.071487196861, -27897.838103513495, 25525.312188304924, -0.218, 0.9580000000000001, 0.156, 192.0, 0.0, 0.0, 0.0, 0.0, 0.0, 0.0, 0.0, 0.0, 0.0, 1.700950074494124E9, 0.0, 2023-11-25 17:07:54.494
30.0, 9882.309720791545, 12137.913660754402, -62201.46265047344, -61034.72394165087, -70353.54618472412, 4326.42600851369, -27839.388291762865, 25553.229517129603, -0.218, 0.9480000000000001, 0.156, 192.0, 249.0, 48.0, 29.0, 160.0, 4.0, 224.0, 0.0, 0.0, 0.0, 1.700950074497076E9, 0.0, 2023-11-25 17:07:54.497
31.0, 9789.482926068655, 12007.42417662432, -62313.71311112799, -61152.53998667479, -70365.861995919, 4310.04217982795, -27887.57865280851, 25469.879862055765, -0.218, 0.9480000000000001, 0.156, 192.0, 0.0, 0.0, 0.0, 0.0, 0.0, 0.0, 0.0, 0.0, 0.0, 1.700950074501183E9, 0.0, 2023-11-25 17:07:54.501
32.0, 9720.885422335317, 11947.74501892865, -62307.6557883806, -61157.85970185515, -70447.69173236987, 4197.143518584195, -27915.071298488536, 25467.89055679924, -0.218, 0.9480000000000001, 0.156, 192.0, 0.0, 0.0, 0.0, 0.0, 0.0, 0.0, 0.0, 0.0, 0.0, 1.700950074504133E9, 0.0, 2023-11-25 17:07:54.504
33.0, 9780.899856197817, 12057.045049315102, -62250.703543508476, -61086.69174750945, -70439.24277296576, 4238.829521993342, -27880.13552190489, 25524.41811852671, -0.218, 0.9480000000000001, 0.156, 192.0, 0.0, 0.0, 0.0, 0.0, 0.0, 0.0, 0.0, 0.0, 0.0, 1.700950074507094E9, 0.0, 2023-11-25 17:07:54.507
45.0, 9729.155567783782, 12028.881851301414, -62249.89888070809, -61081.550846284736, -70387.23026361827, 4246.585577319333, -27878.392085837375, 25517.734946934575, -0.218, 0.9480000000000001, 0.156, 192.0, 0.0, 0.0, 0.0, 0.0, 0.0, 0.0, 0.0, 0.0, 0.0, 1.700950074511139E9, 0.0, 2023-11-25 17:07:54.511
35.0, 9814.650990325332, 12060.330755750032, -62284.07469798025, -61112.88799201107, -70326.5452774221, 4351.303500092447, -27841.265838297113, 25517.84670565685, -0.218, 0.9480000000000001, 0.156, 192.0, 0.0, 0.0, 0.0, 0.0, 0.0, 0.0, 0.0, 0.0, 0.0, 1.700950074514132E9, 0.0, 2023-11-25 17:07:54.514
43.0, 9848.625641897397, 12150.07300973809, -62223.12149085063, -61035.21568002888, -70273.30342212957, 4391.335474411902, -27800.138628499346, 25572.36261038335, -0.218, 0.9480000000000001, 0.156, 192.0, 0.0, 0.0, 0.0, 0.0, 0.0, 0.0, 0.0, 0.0, 0.0, 1.700950074517168E9, 0.0, 2023-11-25 17:07:54.517
41.0, 9739.16914929976, 12039.655392128872, -62253.38575284312, -61087.630520776576, -70404.19523765985, 4239.120094671261, -27857.2249838382, 25521.13241209178, -0.218, 0.9480000000000001, 0.156, 192.0, 0.0, 0.0, 0.0, 0.0, 0.0, 0.0, 0.0, 0.0, 0.0, 1.700950074521136E9, 0.0, 2023-11-25 17:07:54.521
50.0, 9764.873655423362, 12113.237334875743, -62210.06807208873, -61041.51887196528, -70401.49067658075, 4243.366926117769, -27830.134669558367, 25564.74066552409, -0.218, 0.9480000000000001, 0.162, 192.0, 249.0, 48.0, 29.0, 160.0, 5.0, 16.0, 0.0, 0.0, 0.0, 1.700950074524174E9, 0.0, 2023-11-25 17:07:54.524
39.0, 9839.796702837551, 12112.007988930702, -62256.17972090003, -61080.25444510632, -70302.00306201018, 4364.714546765631, -27810.30867222651, 25544.445281558666, -0.218, 0.9480000000000001, 0.162, 192.0, 0.0, 0.0, 0.0, 0.0, 0.0, 0.0, 0.0, 0.0, 0.0, 1.700950074527221E9, 0.0, 2023-11-25 17:07:54.527
46.0, 9804.100966942426, 12147.010820747713, -62182.9777578089, -61005.487859903325, -70370.93584191035, 4273.742946832532, -27850.22888782369, 25579.67163082023, -0.218, 0.9480000000000001, 0.162, 192.0, 0.0, 0.0, 0.0, 0.0, 0.0, 0.0, 0.0, 0.0, 0.0, 1.700950074530147E9, 0.0, 2023-11-25 17:07:54.530
47.0, 9858.415705968822, 12174.45876293883, -62198.065185316234, -61013.98152279634, -70277.52790183162, 4377.767965527531, -27796.294128453035, 25597.910654295763, -0.218, 0.9480000000000001, 0.162, 192.0, 0.0, 0.0, 0.0, 0.0, 0.0, 0.0, 0.0, 0.0, 0.0, 1.700950074534173E9, 0.0, 2023-11-25 17:07:54.534
51.0, 9835.32635394649, 12172.447105937852, -62192.49960094686, -61012.953342551395, -70304.75232657818, 4349.649471002755, -27772.69068630823, 25596.189569972703, -0.218, 0.9480000000000001, 0.162, 192.0, 0.0, 0.0, 0.0, 0.0, 0.0, 0.0, 0.0, 0.0, 0.0, 1.700950074537179E9, 0.0, 2023-11-25 17:07:54.537
52.0, 9721.108939779871, 12014.129699960911, -62299.25153246541, -61133.58570737669, -70346.14775730942, 4291.870211585786, -27840.75174817464, 25483.916757573697, -0.218, 0.9480000000000001, 0.162, 192.0, 0.0, 0.0, 0.0, 0.0, 0.0, 0.0, 0.0, 0.0, 0.0, 1.700950074541154E9, 0.0, 2023-11-25 17:07:54.541
53.0, 9665.877779230808, 11975.41647856432, -62281.41484039007, -61127.01429450683, -70417.51687735521, 4201.412701775158, -27858.342571060966, 25497.819542624897, -0.218, 0.9480000000000001, 0.162, 192.0, 0.0, 0.0, 0.0, 0.0, 0.0, 0.0, 0.0, 0.0, 0.0, 1.700950074544195E9, 0.0, 2023-11-25 17:07:54.544
54.0, 9722.137120024816, 12084.96237813978, -62222.1380140946, -61057.74623843983, -70411.05722320762, 4238.404838848691, -27824.03264332207, 25574.15074993977, -0.218, 0.9480000000000001, 0.162, 192.0, 0.0, 0.0, 0.0, 0.0, 0.0, 0.0, 0.0, 0.0, 0.0, 1.700950074547221E9, 0.0, 2023-11-25 17:07:54.547
55.0, 9814.494528114144, 12175.665757139417, -62176.383993194584, -61002.51507789077, -70322.7454808647, 4330.695191704654, -27759.369046612865, 25619.5471429285, -0.218, 0.9480000000000001, 0.162, 192.0, 0.0, 0.0, 0.0, 0.0, 0.0, 0.0, 0.0, 0.0, 0.0, 1.700950074550197E9, 0.0, 2023-11-25 17:07:54.550
56.0, 9719.83489034592, 12032.86046181446, -62294.84823880771, -61129.428282908004, -70333.60842866999, 4317.932345620674, -27812.856771094415, 25517.556132978934, -0.218, 0.9480000000000001, 0.162, 192.0, 0.0, 0.0, 0.0, 0.0, 0.0, 0.0, 0.0, 0.0, 0.0, 1.700950074554378E9, 0.0, 2023-11-25 17:07:54.554
57.0, 9658.881683216296, 11972.667213996318, -62274.061116464276, -61129.71885558592, -70403.83760974856, 4208.45350127858, -27822.199800276736, 25510.403574753236, -0.218, 0.9480000000000001, 0.162, 192.0, 0.0, 0.0, 0.0, 0.0, 0.0, 0.0, 0.0, 0.0, 0.0, 1.70095007455723E9, 0.0, 2023-11-25 17:07:54.557
58.0, 9699.226581958126, 12065.650470930395, -62234.02914214482, -61076.924035182485, -70411.97364473029, 4239.812998749376, -27795.578872630464, 25550.703770006156, -0.218, 0.9480000000000001, 0.162, 192.0, 0.0, 0.0, 0.0, 0.0, 0.0, 0.0, 0.0, 0.0, 0.0, 1.700950074560273E9, 0.0, 2023-11-25 17:07:54.560
59.0, 9795.964931960694, 12176.783344362182, -62172.2265687259, -61004.5490866362, -70342.92910610785, 4308.18698503816, -27742.225258615646, 25596.34603218389, -0.218, 0.9480000000000001, 0.162, 192.0, 0.0, 0.0, 0.0, 0.0, 0.0, 0.0, 0.0, 0.0, 0.0, 1.700950074564297E9, 0.0, 2023-11-25 17:07:54.564
60.0, 9753.876597151351, 12083.554218239096, -62259.26426163486, -61090.75976500032, -70299.05263174207, 4363.5299043095, -27759.391398357322, 25535.77280471001, -0.22, 0.9500000000000001, 0.168, 192.0, 249.0, 32.0, 29.0, 176.0, 5.0, 64.0, 0.0, 0.0, 0.0, 1.700950074567252E9, 0.0, 2023-11-25 17:07:54.567
61.0, 9661.04980242846, 11976.89169369837, -62258.951337212486, -61113.44678562246, -70376.59083325753, 4233.93448995763, -27798.77517208757, 25492.589234422358, -0.22, 0.9500000000000001, 0.168, 192.0, 0.0, 0.0, 0.0, 0.0, 0.0, 0.0, 0.0, 0.0, 0.0, 1.70095007457053E9, 0.0, 2023-11-25 17:07:54.570
62.0, 9684.787355039996, 12051.09948528999, -62222.27212456133, -61062.14953209753, -70387.85611246302, 4253.536969844934, -27791.622613861873, 25516.773821922998, -0.22, 0.9500000000000001, 0.168, 192.0, 0.0, 0.0, 0.0, 0.0, 0.0, 0.0, 0.0, 0.0, 0.0, 1.700950074574278E9, 0.0, 2023-11-25 17:07:54.574
63.0, 9781.257484109103, 12177.878579840492, -62151.52885336028, -60979.22456016834, -70340.04573107311, 4299.246287256037, -27757.335037867433, 25570.6862295492, -0.22, 0.9500000000000001, 0.168, 192.0, 0.0, 0.0, 0.0, 0.0, 0.0, 0.0, 0.0, 0.0, 0.0, 1.700950074577351E9, 0.0, 2023-11-25 17:07:54.577
64.0, 9763.21962633367, 12119.54052681214, -62236.46548229045, -61057.835645417654, -70284.03225946812, 4375.3092736374465, -27765.06874144897, 25531.973008152607, -0.22, 0.9500000000000001, 0.168, 192.0, 0.0, 0.0, 0.0, 0.0, 0.0, 0.0, 0.0, 0.0, 0.0, 1.700950074580722E9, 0.0, 2023-11-25 17:07:54.580
65.0, 9642.00611615254, 11968.196865105256, -62280.25254967839, -61123.46036713843, -70375.31678382358, 4237.711934770577, -27824.3679194889, 25474.126693502272, -0.22, 0.9500000000000001, 0.168, 192.0, 0.0, 0.0, 0.0, 0.0, 0.0, 0.0, 0.0, 0.0, 0.0, 1.700950074584543E9, 0.0, 2023-11-25 17:07:54.584
66.0, 9660.401601839258, 12027.317229189543, -62242.16517712655, -61073.213645602904, -70389.57719678608, 4248.641937809221, -27811.023928049082, 25521.847667914353, -0.22, 0.9500000000000001, 0.168, 192.0, 0.0, 0.0, 0.0, 0.0, 0.0, 0.0, 0.0, 0.0, 0.0, 1.700950074587389E9, 0.0, 2023-11-25 17:07:54.587
67.0, 9753.809541917986, 12163.238187222265, -62162.70472558794, -60981.34797589159, -70350.72986492275, 4288.539801661945, -27770.41080837379, 25574.284860406504, -0.22, 0.9500000000000001, 0.168, 192.0, 0.0, 0.0, 0.0, 0.0, 0.0, 0.0, 0.0, 0.0, 0.0, 1.700950074590437E9, 0.0, 2023-11-25 17:07:54.590
68.0, 9778.12823988536, 12157.583195875073, -62206.96117960945, -61016.1496420085, -70264.63094528091, 4391.357826156357, -27741.711168493173, 25566.662915547244, -0.22, 0.9500000000000001, 0.168, 192.0, 0.0, 0.0, 0.0, 0.0, 0.0, 0.0, 0.0, 0.0, 0.0, 1.700950074594378E9, 0.0, 2023-11-25 17:07:54.594
69.0, 9647.504645288545, 11993.029653195103, -62280.699584567505, -61113.15621294454, -70353.36737076848, 4264.221103694571, -27816.03071880707, 25479.22289123808, -0.22, 0.9500000000000001, 0.168, 192.0, 0.0, 0.0, 0.0, 0.0, 0.0, 0.0, 0.0, 0.0, 0.0, 1.700950074597408E9, 0.0, 2023-11-25 17:07:54.597
70.0, 9625.421121766702, 12006.261885912643, -62262.88524423662, -61092.19027664546, -70403.85996149301, 4225.93256544263, -27830.380538747377, 25489.6164524098, -0.22, 0.9520000000000001, 0.166, 192.0, 249.0, 32.0, 29.0, 192.0, 5.0, 48.0, 0.0, 0.0, 0.0, 1.70095007460037E9, 0.0, 2023-11-25 17:07:54.600
71.0, 9702.624047115332, 12134.672657808384, -62193.70659514744, -61011.634589628535, -70386.73852524025, 4256.196827435116, -27797.434067420254, 25545.719330992622, -0.22, 0.9520000000000001, 0.166, 192.0, 0.0, 0.0, 0.0, 0.0, 0.0, 0.0, 0.0, 0.0, 0.0, 1.700950074603376E9, 0.0, 2023-11-25 17:07:54.603
72.0, 9766.192408346225, 12181.656024653439, -62200.702691161954, -61011.142851250515, -70291.09541071599, 4365.027471188006, -27743.767528983062, 25563.511319579044, -0.22, 0.9520000000000001, 0.166, 192.0, 0.0, 0.0, 0.0, 0.0, 0.0, 0.0, 0.0, 0.0, 0.0, 1.700950074607389E9, 0.0, 2023-11-25 17:07:54.607
73.0, 9657.093543659872, 12025.32792393302, -62286.913369526075, -61119.30294266975, -70346.66184743188, 4279.487345157546, -27801.747954100127, 25474.350210946825, -0.22, 0.9520000000000001, 0.166, 192.0, 0.0, 0.0, 0.0, 0.0, 0.0, 0.0, 0.0, 0.0, 0.0, 1.700950074610431E9, 0.0, 2023-11-25 17:07:54.610
74.0, 9612.32299951589, 11991.710900272239, -62268.42847686154, -61109.60228557614, -70409.20202841783, 4206.240678577505, -27813.59437866144, 25477.211234237104, -0.22, 0.9520000000000001, 0.166, 192.0, 0.0, 0.0, 0.0, 0.0, 0.0, 0.0, 0.0, 0.0, 0.0, 1.700950074613391E9, 0.0, 2023-11-25 17:07:54.613
75.0, 9677.72420379212, 12110.286904607643, -62199.115717305634, -61028.57721192566, -70393.33228985456, 4243.456333095591, -27773.405942130797, 25536.3763018103, -0.22, 0.9520000000000001, 0.166, 192.0, 0.0, 0.0, 0.0, 0.0, 0.0, 0.0, 0.0, 0.0, 0.0, 1.700950074617411E9, 0.0, 2023-11-25 17:07:54.617
76.0, 9761.990280388627, 12189.70265265735, -62178.95444380694, -60995.2954644317, -70301.75719282117, 4342.116933121316, -27710.463429744654, 25561.58906955589, -0.22, 0.9520000000000001, 0.166, 192.0, 0.0, 0.0, 0.0, 0.0, 0.0, 0.0, 0.0, 0.0, 0.0, 1.700950074620397E9, 0.0, 2023-11-25 17:07:54.620
77.0, 9659.19460763867, 12035.833243827015, -62289.66263409408, -61116.978361246394, -70334.7483676372, 4296.340560476847, -27774.031790975547, 25457.27347818297, -0.22, 0.9520000000000001, 0.166, 192.0, 0.0, 0.0, 0.0, 0.0, 0.0, 0.0, 0.0, 0.0, 0.0, 1.700950074623427E9, 0.0, 2023-11-25 17:07:54.623
78.0, 9593.771051617987, 11979.059812910535, -62273.56937808626, -61111.83746002168, -70408.26325515071, 4198.529326740423, -27793.991898774137, 25469.499882400025, -0.22, 0.9520000000000001, 0.166, 192.0, 0.0, 0.0, 0.0, 0.0, 0.0, 0.0, 0.0, 0.0, 0.0, 1.700950074627443E9, 0.0, 2023-11-25 17:07:54.627
79.0, 9655.81949422592, 12091.176163098355, -62214.44901400197, -61038.70255216391, -70400.90953122491, 4233.688620768621, -27763.034732703538, 25527.05562437244, -0.216, 0.9500000000000001, 0.16, 192.0, 249.0, 64.0, 29.0, 176.0, 5.0, 0.0, 0.0, 0.0, 0.0, 1.700950074630462E9, 0.0, 2023-11-25 17:07:54.630
80.0, 9766.259463579592, 12202.353740019053, -62152.624088838595, -60967.0428594402, -70306.98750102372, 4322.3579910228245, -27692.783199880505, 25578.218767430637, -0.216, 0.9500000000000001, 0.16, 192.0, 0.0, 0.0, 0.0, 0.0, 0.0, 0.0, 0.0, 0.0, 0.0, 1.700950074633463E9, 0.0, 2023-11-25 17:07:54.633
81.0, 9692.968093510639, 12081.050822860101, -62256.291479622305, -61074.8676746926, -70295.40929739586, 4338.674764475199, -27727.54016250851, 25509.37539450829, -0.216, 0.9500000000000001, 0.16, 192.0, 0.0, 0.0, 0.0, 0.0, 0.0, 0.0, 0.0, 0.0, 0.0, 1.700950074636483E9, 0.0, 2023-11-25 17:07:54.636
82.0, 9595.983874319063, 11980.155048388846, -62262.28174713633, -61100.415718605014, -70390.24774911974, 4203.491414009502, -27770.41080837379, 25473.769065590986, -0.216, 0.9500000000000001, 0.16, 192.0, 0.0, 0.0, 0.0, 0.0, 0.0, 0.0, 0.0, 0.0, 0.0, 1.700950074640511E9, 0.0, 2023-11-25 17:07:54.640
83.0, 9632.28310731448, 12066.43278198633, -62219.96989488243, -61044.87163363357, -70396.28272012266, 4229.799417233398, -27748.461395318678, 25513.19754281015, -0.216, 0.9500000000000001, 0.16, 192.0, 0.0, 0.0, 0.0, 0.0, 0.0, 0.0, 0.0, 0.0, 0.0, 1.700950074643474E9, 0.0, 2023-11-25 17:07:54.643
84.0, 9727.792111372008, 12177.789172862671, -62157.89910053004, -60973.07783044313, -70334.16722228136, 4291.736101119054, -27701.43332498471, 25560.20326139966, -0.216, 0.9500000000000001, 0.16, 192.0, 0.0, 0.0, 0.0, 0.0, 0.0, 0.0, 0.0, 0.0, 0.0, 1.700950074646461E9, 0.0, 2023-11-25 17:07:54.646
85.0, 9689.39181439779, 12094.3054073221, -62249.854177219175, -61064.071782120685, -70289.39667813739, 4346.609633756832, -27724.00858688457, 25487.42598145318, -0.216, 0.9500000000000001, 0.16, 192.0, 0.0, 0.0, 0.0, 0.0, 0.0, 0.0, 0.0, 0.0, 0.0, 1.700950074650494E9, 0.0, 2023-11-25 17:07:54.650
86.0, 9582.03638577895, 11969.247397094656, -62265.29923263779, -61105.176640173995, -70378.78130421416, 4204.743111698998, -27775.864634020883, 25435.860506994788, -0.216, 0.9500000000000001, 0.16, 192.0, 0.0, 0.0, 0.0, 0.0, 0.0, 0.0, 0.0, 0.0, 0.0, 1.700950074653486E9, 0.0, 2023-11-25 17:07:54.653
87.0, 9605.170441290193, 12040.974145051736, -62226.20603158546, -61055.48871224985, -70391.32063285359, 4229.665306766666, -27760.39722685781, 25497.95365309163, -0.216, 0.9500000000000001, 0.16, 192.0, 0.0, 0.0, 0.0, 0.0, 0.0, 0.0, 0.0, 0.0, 0.0, 1.700950074656482E9, 0.0, 2023-11-25 17:07:54.656
88.0, 9710.15658499677, 12175.017556550212, -62145.33742014616, -60966.14878966198, -70342.07973981855, 4279.80026957992, -27713.458563501667, 25572.96610748364, -0.216, 0.9500000000000001, 0.16, 192.0, 0.0, 0.0, 0.0, 0.0, 0.0, 0.0, 0.0, 0.0, 0.0, 1.700950074659563E9, 0.0, 2023-11-25 17:07:54.659
89.0, 9719.723131623643, 12144.26155617971, -62207.05058658726, -61024.151566523506, -70265.65912552585, 4377.276227149514, -27697.43236272721, 25552.491909562577, -0.218, 0.9460000000000001, 0.16, 192.0, 249.0, 48.0, 29.0, 144.0, 5.0, 0.0, 0.0, 0.0, 0.0, 1.700950074663535E9, 0.0, 2023-11-25 17:07:54.663
90.0, 9596.162688274704, 11997.164725919334, -62260.31479362426, -61102.69559653945, -70360.87755690546, 4235.633222536233, -27765.560479826985, 25473.254975468517, -0.218, 0.9460000000000001, 0.16, 192.0, 0.0, 0.0, 0.0, 0.0, 0.0, 0.0, 0.0, 0.0, 0.0, 1.700950074666539E9, 0.0, 2023-11-25 17:07:54.666
91.0, 9605.684531412666, 12044.505720675674, -62227.18950834149, -61060.920186152485, -70387.00674617372, 4226.357248587281, -27770.276697907055, 25494.37737397878, -0.218, 0.9460000000000001, 0.16, 192.0, 0.0, 0.0, 0.0, 0.0, 0.0, 0.0, 0.0, 0.0, 0.0, 1.700950074669533E9, 0.0, 2023-11-25 17:07:54.669
92.0, 9686.262570174047, 12161.047716265646, -62161.81065580972, -60980.87858925803, -70364.34207729604, 4259.549589103412, -27734.960941667672, 25552.648371773765, -0.218, 0.9460000000000001, 0.16, 192.0, 0.0, 0.0, 0.0, 0.0, 0.0, 0.0, 0.0, 0.0, 0.0, 1.700950074673535E9, 0.0, 2023-11-25 17:07:54.673
93.0, 9713.643457131799, 12153.78339931767, -62205.463612730935, -61014.428557685445, -70282.75821003417, 4366.256817133048, -27700.874531373327, 25556.135243908793, -0.218, 0.9460000000000001, 0.16, 192.0, 0.0, 0.0, 0.0, 0.0, 0.0, 0.0, 0.0, 0.0, 0.0, 1.700950074676624E9, 0.0, 2023-11-25 17:07:54.676
94.0, 9587.736080615054, 11990.302740371555, -62284.78995380282, -61116.084291468185, -70364.54324299614, 4248.84310350932, -27777.2057386882, 25465.074236997873, -0.218, 0.9460000000000001, 0.16, 192.0, 0.0, 0.0, 0.0, 0.0, 0.0, 0.0, 0.0, 0.0, 0.0, 1.700950074679564E9, 0.0, 2023-11-25 17:07:54.679
95.0, 9574.906179297708, 12004.451394611764, -62252.13405515362, -61081.57319802919, -70403.39057485946, 4217.662419994166, -27776.60224158791, 25500.926435104186, -0.218, 0.9460000000000001, 0.16, 192.0, 0.0, 0.0, 0.0, 0.0, 0.0, 0.0, 0.0, 0.0, 0.0, 1.70095007468357E9, 0.0, 2023-11-25 17:07:54.683
96.0, 9668.045898442972, 12142.45106487883, -62164.0234785108, -60985.617159082554, -70369.7064959653, 4262.410612393691, -27723.91917990675, 25583.739648311097, -0.218, 0.9460000000000001, 0.16, 192.0, 0.0, 0.0, 0.0, 0.0, 0.0, 0.0, 0.0, 0.0, 0.0, 1.700950074686587E9, 0.0, 2023-11-25 17:07:54.686
97.0, 9736.26342252057, 12190.708481157837, -62162.190635465464, -60975.58122582212, -70270.17417790582, 4370.168372412726, -27670.14088274728, 25613.802744603487, -0.218, 0.9460000000000001, 0.16, 192.0, 0.0, 0.0, 0.0, 0.0, 0.0, 0.0, 0.0, 0.0, 0.0, 1.700950074689598E9, 0.0, 2023-11-25 17:07:54.689
98.0, 9611.875964626786, 12023.025694254124, -62273.077639708245, -61105.24369540736, -70335.32951299305, 4282.817755081386, -27745.689779006218, 25509.24128404156, -0.218, 0.9460000000000001, 0.16, 192.0, 0.0, 0.0, 0.0, 0.0, 0.0, 0.0, 0.0, 0.0, 0.0, 1.700950074693052E9, 0.0, 2023-11-25 17:07:54.693
99.0, 9553.64967032071, 11983.016071679125, -62270.26131990687, -61112.440957121966, -70419.30501691163, 4184.783003900409, -27778.323325910966, 25485.593138407843, -0.22, 0.9420000000000001, 0.158, 192.0, 249.0, 32.0, 29.0, 112.0, 4.0, 240.0, 0.0, 0.0, 0.0, 1.700950074696684E9, 0.0, 2023-11-25 17:07:54.696
100.0, 9636.932270161185, 12114.891363965437, -62186.84460959967, -61018.78714785423, -70394.04754567714, 4230.469969567057, -27734.02216840055, 25549.787348483485, -0.22, 0.9420000000000001, 0.158, 192.0, 0.0, 0.0, 0.0, 0.0, 0.0, 0.0, 0.0, 0.0, 0.0, 1.700950074699661E9, 0.0, 2023-11-25 17:07:54.699
101.0, 9718.270268234048, 12191.356681747042, -62159.57548136419, -60979.02339446824, -70302.76302132166, 4329.9352323931735, -27678.589842151385, 25596.72601183963, -0.22, 0.9420000000000001, 0.158, 192.0, 0.0, 0.0, 0.0, 0.0, 0.0, 0.0, 0.0, 0.0, 0.0, 1.700950074702643E9, 0.0, 2023-11-25 17:07:54.702
102.0, 9634.853557926841, 12055.681592903327, -62253.45280807648, -61080.05327940623, -70307.1439632349, 4311.919726362196, -27722.890999661806, 25514.80686841093, -0.22, 0.9420000000000001, 0.158, 192.0, 0.0, 0.0, 0.0, 0.0, 0.0, 0.0, 0.0, 0.0, 0.0, 1.700950074707145E9, 0.0, 2023-11-25 17:07:54.707
103.0, 9567.32893792736, 11994.683682284794, -62240.354685825674, -61081.17086662899, -70383.63163276097, 4203.536117498412, -27745.466261561665, 25493.706821645123, -0.22, 0.9420000000000001, 0.158, 192.0, 0.0, 0.0, 0.0, 0.0, 0.0, 0.0, 0.0, 0.0, 0.0, 1.70095007470965E9, 0.0, 2023-11-25 17:07:54.709
104.0, 9621.19664206465, 12098.641645746427, -62184.16240026503, -61012.752176851296, -70378.49073153624, 4238.874225482253, -27713.838543157406, 25545.29464784797, -0.22, 0.9420000000000001, 0.158, 192.0, 0.0, 0.0, 0.0, 0.0, 0.0, 0.0, 0.0, 0.0, 0.0, 1.700950074712649E9, 0.0, 2023-11-25 17:07:54.712
105.0, 9715.431596688222, 12201.0796905851, -62133.9156787295, -60956.42578082393, -70305.0428992561, 4313.216127540604, -27657.5792023634, 25591.763924570554, -0.22, 0.9420000000000001, 0.158, 192.0, 0.0, 0.0, 0.0, 0.0, 0.0, 0.0, 0.0, 0.0, 0.0, 1.700950074715641E9, 0.0, 2023-11-25 17:07:54.715
106.0, 9652.91376744673, 12090.05857587559, -62237.9406974245, -61067.692764722444, -70289.8884165154, 4330.516377749012, -27692.71614464714, 25508.280159029982, -0.22, 0.9420000000000001, 0.158, 192.0, 0.0, 0.0, 0.0, 0.0, 0.0, 0.0, 0.0, 0.0, 0.0, 1.700950074719709E9, 0.0, 2023-11-25 17:07:54.719
107.0, 9561.65159483571, 11991.777955505606, -62240.86877594815, -61093.6207882906, -70377.84253094703, 4198.126995340228, -27723.047461872993, 25484.274385484983, -0.22, 0.9420000000000001, 0.158, 192.0, 0.0, 0.0, 0.0, 0.0, 0.0, 0.0, 0.0, 0.0, 0.0, 1.700950074722644E9, 0.0, 2023-11-25 17:07:54.722
108.0, 9600.94596158814, 12083.48716300573, -62193.84070561418, -61029.96302008189, -70377.57431001357, 4235.946146958608, -27692.626737669318, 25548.982685683095, -0.22, 0.9420000000000001, 0.158, 192.0, 0.0, 0.0, 0.0, 0.0, 0.0, 0.0, 0.0, 0.0, 0.0, 1.700950074725713E9, 0.0, 2023-11-25 17:07:54.725
109.0, 9701.238238959104, 12202.733719674794, -62124.97498094738, -60950.21199586535, -70315.05648077208, 4299.961543078607, -27640.301303899447, 25603.319776453947, -0.216, 0.9480000000000001, 0.16, 192.0, 249.0, 64.0, 29.0, 160.0, 5.0, 0.0, 0.0, 0.0, 0.0, 1.700950074729671E9, 0.0, 2023-11-25 17:07:54.729
110.0, 9668.984671710095, 12122.602715802517, -62213.75610992386, -61035.34979049562, -70265.25679412566, 4364.535732809989, -27658.965010519627, 25539.840822200877, -0.216, 0.9480000000000001, 0.16, 192.0, 0.0, 0.0, 0.0, 0.0, 0.0, 0.0, 0.0, 0.0, 0.0, 1.700950074732701E9, 0.0, 2023-11-25 17:07:54.732
111.0, 9545.670097550166, 11978.545722788063, -62254.816264488254, -61099.90162848254, -70373.32747856707, 4212.543870513901, -27733.798650955996, 25466.594155620834, -0.216, 0.9480000000000001, 0.16, 192.0, 0.0, 0.0, 0.0, 0.0, 0.0, 0.0, 0.0, 0.0, 0.0, 1.700950074735708E9, 0.0, 2023-11-25 17:07:54.735
112.0, 9562.143333213728, 12036.727313605228, -62219.589915226694, -61055.734581438854, -70392.23705437625, 4224.904385197686, -27723.449793273187, 25510.42592649769, -0.216, 0.9480000000000001, 0.16, 192.0, 0.0, 0.0, 0.0, 0.0, 0.0, 0.0, 0.0, 0.0, 0.0, 1.700950074739719E9, 0.0, 2023-11-25 17:07:54.739
113.0, 9654.4783895586, 12152.799922561637, -62148.17609169199, -60975.268301399745, -70355.37902776945, 4263.729365316554, -27682.948432320172, 25558.52688056551, -0.216, 0.9480000000000001, 0.16, 192.0, 0.0, 0.0, 0.0, 0.0, 0.0, 0.0, 0.0, 0.0, 0.0, 1.700950074742746E9, 0.0, 2023-11-25 17:07:54.742
114.0, 9680.24995091557, 12138.427750876876, -62192.0302143133, -61015.344979208116, -70266.10616041496, 4365.027471188006, -27667.458673412642, 25535.14695586526, -0.216, 0.9480000000000001, 0.16, 192.0, 0.0, 0.0, 0.0, 0.0, 0.0, 0.0, 0.0, 0.0, 0.0, 1.700950074745728E9, 0.0, 2023-11-25 17:07:54.745
115.0, 9559.237606434537, 11986.815868236527, -62249.40714233007, -61096.45945983642, -70354.32849578005, 4235.812036491876, -27735.47503179014, 25466.996487021028, -0.216, 0.9480000000000001, 0.16, 192.0, 0.0, 0.0, 0.0, 0.0, 0.0, 0.0, 0.0, 0.0, 0.0, 1.700950074748738E9, 0.0, 2023-11-25 17:07:54.748
116.0, 9565.741964071032, 12031.206432724766, -62216.01363611384, -61055.62282271658, -70381.75408622672, 4228.637126521722, -27724.790897940507, 25517.176153323195, -0.216, 0.9480000000000001, 0.16, 192.0, 0.0, 0.0, 0.0, 0.0, 0.0, 0.0, 0.0, 0.0, 0.0, 1.700950074752756E9, 0.0, 2023-11-25 17:07:54.752
117.0, 9650.320965089913, 12158.253748208732, -62145.65034456854, -60974.03895545471, -70358.28475454864, 4261.181266448649, -27688.603423667366, 25571.759113283053, -0.216, 0.9480000000000001, 0.16, 192.0, 0.0, 0.0, 0.0, 0.0, 0.0, 0.0, 0.0, 0.0, 0.0, 1.700950074755755E9, 0.0, 2023-11-25 17:07:54.755
118.0, 9690.330587664914, 12170.88248382598, -62178.552112406745, -60995.58603710962, -70272.40935235136, 4363.239331631581, -27664.508243144544, 25567.177005669717, -0.216, 0.9480000000000001, 0.16, 192.0, 0.0, 0.0, 0.0, 0.0, 0.0, 0.0, 0.0, 0.0, 0.0, 1.70095007475883E9, 0.0, 2023-11-25 17:07:54.758
119.0, 9560.981042502051, 12001.389205621386, -62267.37794487214, -61104.41668086251, -70350.55105096711, 4245.780914518942, -27744.438081316723, 25466.90708004321, -0.22, 0.9440000000000001, 0.158, 192.0, 249.0, 32.0, 29.0, 128.0, 4.0, 240.0, 0.0, 0.0, 0.0, 1.700950074762857E9, 0.0, 2023-11-25 17:07:54.762
120.0, 9546.005373716996, 12013.928534260815, -62232.55392701077, -61069.4138490455, -70389.82306597508, 4203.178489587127, -27743.745177238605, 25495.204388523627, -0.22, 0.9440000000000001, 0.158, 192.0, 0.0, 0.0, 0.0, 0.0, 0.0, 0.0, 0.0, 0.0, 0.0, 1.700950074765895E9, 0.0, 2023-11-25 17:07:54.765
121.0, 9622.582450220878, 12135.879652008969, -62162.86118779912, -60991.11568821856, -70375.5626530126, 4234.113303913272, -27714.442040257698, 25543.126528635807, -0.22, 0.9440000000000001, 0.158, 192.0, 0.0, 0.0, 0.0, 0.0, 0.0, 0.0, 0.0, 0.0, 0.0, 1.700950074768843E9, 0.0, 2023-11-25 17:07:54.768
122.0, 9696.477317390123, 12190.484963713285, -62152.15470220503, -60973.524865332234, -70278.66784079884, 4337.557177252434, -27662.407179165744, 25561.25379338906, -0.22, 0.9440000000000001, 0.158, 192.0, 0.0, 0.0, 0.0, 0.0, 0.0, 0.0, 0.0, 0.0, 0.0, 1.700950074771801E9, 0.0, 2023-11-25 17:07:54.771
123.0, 9576.068470009384, 12021.796348309083, -62260.51595932436, -61099.54400057125, -70333.36255948097, 4268.132658974249, -27731.049386387993, 25471.153911489717, -0.22, 0.9440000000000001, 0.158, 192.0, 0.0, 0.0, 0.0, 0.0, 0.0, 0.0, 0.0, 0.0, 0.0, 1.700950074775916E9, 0.0, 2023-11-25 17:07:54.775
124.0, 9515.562297768867, 11978.031632665592, -62251.73172375342, -61102.00269246134, -70413.73943254226, 4171.707233394055, -27756.843299489417, 25468.225832966073, -0.22, 0.9440000000000001, 0.158, 192.0, 0.0, 0.0, 0.0, 0.0, 0.0, 0.0, 0.0, 0.0, 0.0, 1.700950074778812E9, 0.0, 2023-11-25 17:07:54.778
125.0, 9574.74971708652, 12090.125631108956, -62196.83583937119, -61033.98633408384, -70411.75012728573, 4201.993847130996, -27732.658711988774, 25519.590141724366, -0.22, 0.9440000000000001, 0.158, 192.0, 0.0, 0.0, 0.0, 0.0, 0.0, 0.0, 0.0, 0.0, 0.0, 1.700950074781883E9, 0.0, 2023-11-25 17:07:54.781
126.0, 9674.572607823922, 12186.238132266777, -62152.53468186077, -60975.625929311034, -70315.1458877499, 4306.75647339302, -27667.726894346106, 25566.238232402593, -0.22, 0.9440000000000001, 0.158, 192.0, 0.0, 0.0, 0.0, 0.0, 0.0, 0.0, 0.0, 0.0, 0.0, 1.700950074785823E9, 0.0, 2023-11-25 17:07:54.785
127.0, 9576.47080140958, 12045.220976498244, -62267.37794487214, -61096.72768076989, -70330.14390827941, 4289.9032580737185, -27720.25349381608, 25471.355077189815, -0.22, 0.9440000000000001, 0.158, 192.0, 0.0, 0.0, 0.0, 0.0, 0.0, 0.0, 0.0, 0.0, 0.0, 1.700950074789009E9, 0.0, 2023-11-25 17:07:54.789
128.0, 9505.369902297247, 11976.08703089798, -62249.76477024136, -61096.05712843623, -70403.70349928182, 4177.183410785605, -27751.903563964795, 25453.048998480917, -0.22, 0.9440000000000001, 0.158, 192.0, 0.0, 0.0, 0.0, 0.0, 0.0, 0.0, 0.0, 0.0, 0.0, 1.700950074791952E9, 0.0, 2023-11-25 17:07:54.791
129.0, 9573.676833352665, 12091.243218331721, -62175.44521992746, -61011.5004791618, -70381.86584494899, 4231.36403934527, -27712.85506640137, 25517.824353912398, -0.218, 0.9460000000000001, 0.158, 192.0, 249.0, 48.0, 29.0, 144.0, 4.0, 240.0, 0.0, 0.0, 0.0, 1.700950074795898E9, 0.0, 2023-11-25 17:07:54.795
130.0, 9668.314119376435, 12197.861039383537, -62120.459928567405, -60950.12258888753, -70310.69789060329, 4302.219069268593, -27663.34595243287, 25570.30624989346, -0.218, 0.9460000000000001, 0.158, 192.0, 0.0, 0.0, 0.0, 0.0, 0.0, 0.0, 0.0, 0.0, 0.0, 1.70095007479897E9, 0.0, 2023-11-25 17:07:54.798
131.0, 9610.780729148475, 12094.05953813309, -62221.5345169943, -61055.77928492776, -70286.334489147, 4334.003249884039, -27693.453752214165, 25507.09551657385, -0.218, 0.9460000000000001, 0.158, 192.0, 0.0, 0.0, 0.0, 0.0, 0.0, 0.0, 0.0, 0.0, 0.0, 1.70095007480206E9, 0.0, 2023-11-25 17:07:54.802
132.0, 9498.038530115906, 11967.883940682881, -62248.35661034067, -61105.020177962804, -70395.58981604455, 4187.956951613063, -27738.894848691805, 25473.65730686871, -0.218, 0.9460000000000001, 0.158, 192.0, 0.0, 0.0, 0.0, 0.0, 0.0, 0.0, 0.0, 0.0, 0.0, 1.700950074805925E9, 0.0, 2023-11-25 17:07:54.805
133.0, 9530.783835742932, 12044.773941609137, -62211.05154884476, -61054.52758723827, -70409.64906330693, 4211.135710613216, -27720.3429007939, 25527.30149356145, -0.218, 0.9460000000000001, 0.158, 192.0, 0.0, 0.0, 0.0, 0.0, 0.0, 0.0, 0.0, 0.0, 0.0, 1.700950074808963E9, 0.0, 2023-11-25 17:07:54.808
134.0, 9639.949755662652, 12178.482076940785, -62134.34036187415, -60964.986498950304, -70348.69585617732, 4274.569961377378, -27666.98928677908, 25590.512226881056, -0.218, 0.9460000000000001, 0.158, 192.0, 0.0, 0.0, 0.0, 0.0, 0.0, 0.0, 0.0, 0.0, 0.0, 1.700950074812988E9, 0.0, 2023-11-25 17:07:54.812
135.0, 9620.5707932199, 12116.187765143844, -62221.15453733857, -61043.82110164418, -70294.38111715092, 4346.989613412573, -27675.281783972, 25532.24122908607, -0.218, 0.9460000000000001, 0.158, 192.0, 0.0, 0.0, 0.0, 0.0, 0.0, 0.0, 0.0, 0.0, 0.0, 1.700950074816048E9, 0.0, 2023-11-25 17:07:54.816
136.0, 9501.145422595195, 11971.840199451472, -62260.85123549119, -61104.32727388469, -70390.78419098665, 4199.02106511844, -27736.234991101624, 25463.531966630457, -0.218, 0.9460000000000001, 0.158, 192.0, 0.0, 0.0, 0.0, 0.0, 0.0, 0.0, 0.0, 0.0, 0.0, 1.700950074819004E9, 0.0, 2023-11-25 17:07:54.819
137.0, 9518.624486759245, 12030.781749580116, -62221.84744141668, -61054.70640119391, -70404.8657899935, 4210.576917001834, -27728.881267175828, 25508.90600787473, -0.218, 0.9460000000000001, 0.158, 192.0, 0.0, 0.0, 0.0, 0.0, 0.0, 0.0, 0.0, 0.0, 0.0, 1.700950074821978E9, 0.0, 2023-11-25 17:07:54.821
138.0, 9622.515394987511, 12166.479190168286, -62130.83113799467, -60959.28680411421, -70354.93199288035, 4257.068545468873, -27685.831807354905, 25581.415066887745, -0.218, 0.9460000000000001, 0.158, 192.0, 0.0, 0.0, 0.0, 0.0, 0.0, 0.0, 0.0, 0.0, 0.0, 1.700950074831011E9, 0.0, 2023-11-25 17:07:54.831
139.0, 9639.882700429285, 12138.315992154598, -62186.375222966104, -61012.84158382912, -70276.3879628644, 4352.510494293034, -27674.499472916064, 25561.276145133514, -0.216, 0.9520000000000001, 0.162, 192.0, 249.0, 64.0, 29.0, 192.0, 5.0, 16.0, 0.0, 0.0, 0.0, 1.700950074831122E9, 0.0, 2023-11-25 17:07:54.831
140.0, 9502.218306329049, 11963.525350514097, -62263.44403784801, -61118.4759281249, -70382.35758332702, 4196.204745317072, -27764.554651326496, 25450.23267867955, -0.216, 0.9520000000000001, 0.162, 192.0, 0.0, 0.0, 0.0, 0.0, 0.0, 0.0, 0.0, 0.0, 0.0, 1.700950074831971E9, 0.0, 2023-11-25 17:07:54.831
141.0, 9521.865489705264, 12013.503851116164, -62209.68809243299, -61061.79190418624, -70398.27202537919, 4184.559486455856, -27751.0989011644, 25498.847722869843, -0.216, 0.9520000000000001, 0.162, 192.0, 0.0, 0.0, 0.0, 0.0, 0.0, 0.0, 0.0, 0.0, 0.0, 1.700950074835979E9, 0.0, 2023-11-25 17:07:54.835
142.0, 9610.423101237191, 12143.63570733496, -62132.88749848455, -60971.91553973145, -70368.76772269819, 4231.922832956652, -27701.858008129362, 25588.455866391167, -0.216, 0.9520000000000001, 0.162, 192.0, 0.0, 0.0, 0.0, 0.0, 0.0, 0.0, 0.0, 0.0, 0.0, 1.700950074838999E9, 0.0, 2023-11-25 17:07:54.838
143.0, 9651.460904057134, 12156.35384993003, -62165.766914578315, -60992.07681323014, -70285.95450949128, 4337.937156908173, -27663.837690810884, 25600.615215374855, -0.216, 0.9520000000000001, 0.162, 192.0, 0.0, 0.0, 0.0, 0.0, 0.0, 0.0, 0.0, 0.0, 0.0, 1.700950074841999E9, 0.0, 2023-11-25 17:07:54.841
144.0, 9532.482568321535, 11997.477650341709, -62252.446979575994, -61094.112526668614, -70350.70751317829, 4242.0034697059955, -27734.133927122824, 25507.09551657385, -0.216, 0.9520000000000001, 0.162, 192.0, 0.0, 0.0, 0.0, 0.0, 0.0, 0.0, 0.0, 0.0, 0.0, 1.700950074845994E9, 0.0, 2023-11-25 17:07:54.845
145.0, 9494.998692869985, 11987.687586270284, -62236.77840671282, -61076.789924715755, -70410.58783657406, 4177.451631719069, -27756.038636689027, 25500.01001358152, -0.216, 0.9520000000000001, 0.162, 192.0, 0.0, 0.0, 0.0, 0.0, 0.0, 0.0, 0.0, 0.0, 0.0, 1.700950074849E9, 0.0, 2023-11-25 17:07:54.849
146.0, 9570.07820249536, 12111.1586226414, -62160.670716842505, -60992.07681323014, -70392.16999914289, 4209.8393094348085, -27720.49936300509, 25559.19743289917, -0.216, 0.9520000000000001, 0.162, 192.0, 0.0, 0.0, 0.0, 0.0, 0.0, 0.0, 0.0, 0.0, 0.0, 1.70095007485309E9, 0.0, 2023-11-25 17:07:54.853
147.0, 9649.650412756255, 12175.442239694863, -62138.20721366492, -60963.71244951635, -70291.00600373818, 4324.5708137239, -27657.065112240925, 25614.786221359518, -0.216, 0.9520000000000001, 0.162, 192.0, 0.0, 0.0, 0.0, 0.0, 0.0, 0.0, 0.0, 0.0, 0.0, 1.700950074856018E9, 0.0, 2023-11-25 17:07:54.856
148.0, 9544.284289393938, 12018.912973274348, -62236.21961310144, -61079.650948006034, -70325.0477105436, 4273.139449732238, -27715.649034458285, 25526.116851105315, -0.216, 0.9520000000000001, 0.162, 192.0, 0.0, 0.0, 0.0, 0.0, 0.0, 0.0, 0.0, 0.0, 0.0, 1.70095007485906E9, 0.0, 2023-11-25 17:07:54.859
149.0, 9495.579838225824, 11980.400917577854, -62213.577295968214, -61070.75495371282, -70392.48292356526, 4179.686806164599, -27734.29038933401, 25521.914723147718, -0.222, 0.9500000000000001, 0.158, 192.0, 249.0, 16.0, 29.0, 176.0, 4.0, 240.0, 0.0, 0.0, 0.0, 1.700950074863063E9, 0.0, 2023-11-25 17:07:54.863
150.0, 9552.017992975474, 12087.622235729961, -62161.40832440953, -61006.4489849149, -70392.16999914289, 4207.917059411652, -27701.276862773524, 25570.23919466009, -0.222, 0.9500000000000001, 0.158, 192.0, 0.0, 0.0, 0.0, 0.0, 0.0, 0.0, 0.0, 0.0, 0.0, 1.700950074866173E9, 0.0, 2023-11-25 17:07:54.866
