%OpenBCI Raw EXG Data
%Number of channels = 8
%Sample Rate = 250 Hz
%Board = OpenBCI_GUI$BoardCytonSerial
Sample Index, EXG Channel 0, EXG Channel 1, EXG Channel 2, EXG Channel 3, EXG Channel 4, EXG Channel 5, EXG Channel 6, EXG Channel 7, Accel Channel 0, Accel Channel 1, Accel Channel 2, Other, Other, Other, Other, Other, Other, Other, Analog Channel 0, Analog Channel 1, Analog Channel 2, Timestamp, Other, Timestamp (Formatted)
118.0, 35505.567253299625, 51764.04735613434, 17628.64203794504, -24762.938888423312, 10909.372378512906, 41801.673686703885, 13266.564997025132, 31036.693577372265, 0.0, 0.0, 0.0, 192.0, 0.0, 0.0, 0.0, 0.0, 0.0, 0.0, 0.0, 0.0, 0.0, 1.700951435865297E9, 0.0, 2023-11-25 17:30:35.865
119.0, 35520.74408778478, 51843.105476272765, 17610.470069702875, -24708.46768718573, 10877.185866497262, 41800.57845122558, 13273.047002917172, 31053.747958391665, 0.0, 0.0, 0.0, 192.0, 0.0, 0.0, 0.0, 0.0, 0.0, 0.0, 0.0, 0.0, 0.0, 1.700951435865323E9, 0.0, 2023-11-25 17:30:35.865
120.0, 35609.36875455007, 51917.11210216428, 17634.58760197015, -24656.857509238424, 10931.657067734846, 41852.41214661743, 13291.82246825963, 31063.180394551804, -0.062, 0.988, -0.004, 192.0, 254.0, 16.0, 30.0, 224.0, 255.0, 224.0, 0.0, 0.0, 0.0, 1.700951435865353E9, 0.0, 2023-11-25 17:30:35.865
121.0, 35733.55504674376, 51894.29097107542, 17660.292108093752, -24602.453363234206, 11114.047302490151, 42407.87534807627, 13288.246189146781, 31070.44471149978, -0.062, 0.988, -0.004, 192.0, 0.0, 0.0, 0.0, 0.0, 0.0, 0.0, 0.0, 0.0, 0.0, 1.700951435865367E9, 0.0, 2023-11-25 17:30:35.865
0.0, 0.0, 0.0, 0.0, 0.0, 0.0, 0.0, 0.0, 0.0, -0.06, 0.988, -0.012, 192.0, 254.0, 32.0, 30.0, 224.0, 255.0, 160.0, 0.0, 0.0, 0.0, 1.700951435961528E9, 0.0, 2023-11-25 17:30:35.961
1.0, 35462.40603475643, 52206.25426843813, 17041.528766337487, -23974.570509740177, 11221.693303786911, 40802.57306129611, 12715.259220034985, 30966.88907943834, -0.06, 0.988, -0.012, 192.0, 0.0, 0.0, 0.0, 0.0, 0.0, 0.0, 0.0, 0.0, 0.0, 1.700951435976539E9, 0.0, 2023-11-25 17:30:35.976
2.0, 35618.555321521206, 52206.50013762715, 17082.700679624162, -23890.438543610402, 11440.136902348626, 41322.78756174893, 12714.454557234592, 30983.049390679527, -0.06, 0.988, -0.012, 192.0, 0.0, 0.0, 0.0, 0.0, 0.0, 0.0, 0.0, 0.0, 0.0, 1.700951435979546E9, 0.0, 2023-11-25 17:30:35.979
3.0, 35425.25743547171, 52071.02621448353, 17056.303269422446, -24055.081493268193, 11260.89826356152, 40925.351193589115, 12710.61005718828, 30944.805555916497, -0.06, 0.988, -0.012, 192.0, 0.0, 0.0, 0.0, 0.0, 0.0, 0.0, 0.0, 0.0, 0.0, 1.700951435982613E9, 0.0, 2023-11-25 17:30:35.982
4.0, 35391.103969944, 52114.85798536039, 17039.4724058476, -24009.57334155719, 11220.396902608503, 40701.90080426941, 12720.266010792973, 30971.761759729598, -0.06, 0.988, -0.012, 192.0, 0.0, 0.0, 0.0, 0.0, 0.0, 0.0, 0.0, 0.0, 0.0, 1.70095143598683E9, 0.0, 2023-11-25 17:30:35.986
5.0, 35428.029051784164, 52188.797556018544, 17029.861155731818, -23983.332393566656, 11184.254131824271, 40756.34965376254, 12717.13676656923, 30964.676256737264, -0.06, 0.988, -0.012, 192.0, 0.0, 0.0, 0.0, 0.0, 0.0, 0.0, 0.0, 0.0, 0.0, 1.700951435990534E9, 0.0, 2023-11-25 17:30:35.990
6.0, 35593.56607122017, 52211.864556296416, 17072.731801597096, -23883.040116195694, 11410.96787583445, 41228.30673793635, 12724.289324794929, 30979.495463311134, -0.06, 0.988, -0.012, 192.0, 0.0, 0.0, 0.0, 0.0, 0.0, 0.0, 0.0, 0.0, 0.0, 1.700951435994628E9, 0.0, 2023-11-25 17:30:35.994
7.0, 35450.64901717294, 52080.704519832674, 17050.692981564163, -24029.93578075597, 11276.768002124787, 41059.17108764304, 12710.967685099566, 30938.569419213465, -0.06, 0.988, -0.012, 192.0, 0.0, 0.0, 0.0, 0.0, 0.0, 0.0, 0.0, 0.0, 0.0, 1.700951435998616E9, 0.0, 2023-11-25 17:30:35.998
8.0, 35373.446091824306, 52090.718101348655, 17030.978742954583, -24022.4702981079, 11206.069434412651, 40684.95818197229, 12723.305848038895, 30964.452739292712, -0.06, 0.988, -0.018000000000000002, 192.0, 254.0, 32.0, 30.0, 224.0, 255.0, 112.0, 0.0, 0.0, 0.0, 1.700951436002817E9, 0.0, 2023-11-25 17:30:36.002
9.0, 35405.63260383995, 52171.743174999145, 17016.785385225463, -23994.105934394116, 11155.152160543461, 40780.221316840805, 12727.820900418867, 30991.543053572543, -0.06, 0.988, -0.018000000000000002, 192.0, 0.0, 0.0, 0.0, 0.0, 0.0, 0.0, 0.0, 0.0, 0.0, 1.700951436006617E9, 0.0, 2023-11-25 17:30:36.006
10.0, 35572.22015526535, 52216.49136739867, 17070.56368238493, -23880.469665583332, 11375.942692272985, 41159.463365014, 12751.267880352483, 31036.470059927713, -0.06, 0.988, -0.018000000000000002, 192.0, 0.0, 0.0, 0.0, 0.0, 0.0, 0.0, 0.0, 0.0, 0.0, 1.700951436009613E9, 0.0, 2023-11-25 17:30:36.009
11.0, 35499.420523574416, 52108.13011027934, 17063.74640032606, -23980.896053421027, 11321.963229413419, 41245.29406372238, 12735.755769700501, 31002.495408355644, -0.06, 0.988, -0.018000000000000002, 192.0, 0.0, 0.0, 0.0, 0.0, 0.0, 0.0, 0.0, 0.0, 0.0, 1.700951436014693E9, 0.0, 2023-11-25 17:30:36.014
12.0, 35375.92713545885, 52082.78323206702, 17050.156539697236, -24015.362443371112, 11220.821585753154, 40708.82984505056, 12749.077409395864, 31014.051260239037, -0.06, 0.988, -0.018000000000000002, 192.0, 0.0, 0.0, 0.0, 0.0, 0.0, 0.0, 0.0, 0.0, 0.0, 1.700951436018849E9, 0.0, 2023-11-25 17:30:36.018
13.0, 35408.65008934141, 52168.92685519777, 17031.31401912141, -23975.41987602948, 11172.363003774048, 40796.515738548725, 12740.8072639474, 31020.108582986428, -0.06, 0.988, -0.018000000000000002, 192.0, 0.0, 0.0, 0.0, 0.0, 0.0, 0.0, 0.0, 0.0, 0.0, 1.700951436022649E9, 0.0, 2023-11-25 17:30:36.022
14.0, 35554.33875970111, 52229.23186173819, 17072.3294701969, -23889.09743894308, 11341.789226745275, 41031.52197975183, 12742.461293037093, 31030.94917904725, -0.06, 0.988, -0.018000000000000002, 192.0, 0.0, 0.0, 0.0, 0.0, 0.0, 0.0, 0.0, 0.0, 0.0, 1.700951436026779E9, 0.0, 2023-11-25 17:30:36.026
15.0, 35559.65847488147, 52152.07363987847, 17073.62587137531, -23937.77953836674, 11372.098192226673, 41321.401753592705, 12719.729568926046, 30994.337021629457, -0.06, 0.988, -0.018000000000000002, 192.0, 0.0, 0.0, 0.0, 0.0, 0.0, 0.0, 0.0, 0.0, 0.0, 1.700951436030753E9, 0.0, 2023-11-25 17:30:36.030
16.0, 35379.48106282724, 52082.0903279889, 17048.547214096452, -24034.540240113765, 11218.78757700772, 40705.45473163781, 12719.126071825753, 30975.94153594274, -0.06, 0.988, -0.018000000000000002, 192.0, 0.0, 0.0, 0.0, 0.0, 0.0, 0.0, 0.0, 0.0, 0.0, 1.700951436034724E9, 0.0, 2023-11-25 17:30:36.034
17.0, 35405.23027243975, 52168.05513716402, 17028.095367919846, -23988.65210874702, 11173.704108441367, 40763.032825354676, 12709.492469965515, 30985.016344191594, -0.06, 0.988, -0.018000000000000002, 192.0, 0.0, 0.0, 0.0, 0.0, 0.0, 0.0, 0.0, 0.0, 0.0, 1.700951436037716E9, 0.0, 2023-11-25 17:30:36.037
18.0, 35512.09396268058, 52225.074437269504, 17048.61426932982, -23929.15176500699, 11273.057612545206, 40906.28515556874, 12704.306865251883, 30981.28360286756, -0.064, 0.978, -0.018000000000000002, 192.0, 254.0, 0.0, 30.0, 144.0, 255.0, 112.0, 0.0, 0.0, 0.0, 1.700951436043778E9, 0.0, 2023-11-25 17:30:36.043
19.0, 35586.592326950115, 52178.82867799148, 17069.08846725088, -23922.4462416704, 11389.890180813096, 41345.720451560075, 12694.919132580655, 30970.37595157337, -0.064, 0.978, -0.018000000000000002, 192.0, 0.0, 0.0, 0.0, 0.0, 0.0, 0.0, 0.0, 0.0, 0.0, 1.700951436046749E9, 0.0, 2023-11-25 17:30:36.046
20.0, 35386.54421407512, 52077.23999944211, 17047.4743303626, -24053.740388600876, 11211.255039126283, 40715.17774047586, 12702.27285650645, 30956.65198047781, -0.064, 0.978, -0.018000000000000002, 192.0, 0.0, 0.0, 0.0, 0.0, 0.0, 0.0, 0.0, 0.0, 0.0, 1.700951436050756E9, 0.0, 2023-11-25 17:30:36.050
21.0, 35404.02327823917, 52150.93370091125, 17024.89906846274, -23997.65986176251, 11174.732288686311, 40728.02999353767, 12698.495411693504, 30979.540166800045, -0.064, 0.978, -0.018000000000000002, 192.0, 0.0, 0.0, 0.0, 0.0, 0.0, 0.0, 0.0, 0.0, 0.0, 1.700951436054775E9, 0.0, 2023-11-25 17:30:36.054
22.0, 35482.79082569967, 52213.42917840829, 17037.863080246818, -23958.924288621463, 11220.93334447543, 40804.09297991908, 12698.785984371423, 30975.852128964918, -0.064, 0.978, -0.018000000000000002, 192.0, 0.0, 0.0, 0.0, 0.0, 0.0, 0.0, 0.0, 0.0, 0.0, 1.70095143605879E9, 0.0, 2023-11-25 17:30:36.058
23.0, 35608.251167327304, 52191.54682058655, 17067.85912130584, -23907.716442074354, 11402.988303063907, 41331.14711417522, 12695.813202358868, 30974.08634115295, -0.064, 0.978, -0.018000000000000002, 192.0, 0.0, 0.0, 0.0, 0.0, 0.0, 0.0, 0.0, 0.0, 0.0, 1.70095143606283E9, 0.0, 2023-11-25 17:30:36.062
24.0, 35400.37994389295, 52067.51699060405, 17041.394655870754, -24068.403132963555, 11211.45620482638, 40803.53418630769, 12693.46626919106, 30939.59759945841, -0.064, 0.978, -0.018000000000000002, 192.0, 0.0, 0.0, 0.0, 0.0, 0.0, 0.0, 0.0, 0.0, 0.0, 1.700951436065799E9, 0.0, 2023-11-25 17:30:36.065
25.0, 35400.357592148495, 52134.549872225514, 17022.775652739485, -24011.60735030262, 11182.30953005666, 40704.73947581524, 12693.198048257596, 30956.74138745563, -0.064, 0.978, -0.018000000000000002, 192.0, 0.0, 0.0, 0.0, 0.0, 0.0, 0.0, 0.0, 0.0, 0.0, 1.700951436069917E9, 0.0, 2023-11-25 17:30:36.069
26.0, 35458.941514365855, 52208.6235533504, 17029.771748753996, -23975.151655096015, 11183.896503912987, 40753.48863047226, 12697.444879704104, 30956.383759544347, -0.064, 0.978, -0.018000000000000002, 192.0, 0.0, 0.0, 0.0, 0.0, 0.0, 0.0, 0.0, 0.0, 0.0, 1.700951436074874E9, 0.0, 2023-11-25 17:30:36.074
27.0, 35620.14229537753, 52219.419445922314, 17075.03403127599, -23878.525063815723, 11414.499451458389, 41271.57971520182, 12710.185374043629, 30985.84335873644, -0.064, 0.978, -0.018000000000000002, 192.0, 0.0, 0.0, 0.0, 0.0, 0.0, 0.0, 0.0, 0.0, 0.0, 1.700951436078861E9, 0.0, 2023-11-25 17:30:36.078
28.0, 35434.84633384304, 52082.64912160029, 17045.730894295084, -24037.535373870778, 11246.012001754285, 40937.48819082835, 12707.749033898, 30961.725826469163, -0.064, 0.986, -0.016, 192.0, 254.0, 0.0, 30.0, 208.0, 255.0, 128.0, 0.0, 0.0, 0.0, 1.700951436082819E9, 0.0, 2023-11-25 17:30:36.082
29.0, 35397.65303106941, 52122.21170928618, 17031.291667376958, -23998.017489673795, 11203.811908222666, 40691.28372565314, 12719.081368336841, 30996.549844330533, -0.064, 0.986, -0.016, 192.0, 0.0, 0.0, 0.0, 0.0, 0.0, 0.0, 0.0, 0.0, 0.0, 1.700951436085838E9, 0.0, 2023-11-25 17:30:36.085
30.0, 35437.50619143322, 52198.38645438987, 17022.66389401721, -23973.139998095037, 11164.249320536772, 40740.27874949917, 12717.874374136254, 30998.427390864777, -0.064, 0.986, -0.016, 192.0, 0.0, 0.0, 0.0, 0.0, 0.0, 0.0, 0.0, 0.0, 0.0, 1.700951436090052E9, 0.0, 2023-11-25 17:30:36.090
31.0, 35607.08887661563, 52225.45441692525, 17069.736667840083, -23866.499825298768, 11395.768689604842, 41186.24075487146, 12728.893784152722, 31021.784963820573, -0.064, 0.986, -0.016, 192.0, 0.0, 0.0, 0.0, 0.0, 0.0, 0.0, 0.0, 0.0, 0.0, 1.700951436093892E9, 0.0, 2023-11-25 17:30:36.093
32.0, 35476.39822678545, 52098.31769446346, 17050.00007748605, -24004.27597812128, 11281.148944038028, 41089.27888742434, 12715.885068879732, 30986.55861455901, -0.064, 0.986, -0.016, 192.0, 0.0, 0.0, 0.0, 0.0, 0.0, 0.0, 0.0, 0.0, 0.0, 1.700951436098893E9, 0.0, 2023-11-25 17:30:36.098
33.0, 35391.34983913301, 52099.77055785305, 17031.828109243885, -24008.545161312242, 11206.002379179285, 40676.75509175719, 12722.009446860488, 31006.853998524428, -0.064, 0.986, -0.016, 192.0, 0.0, 0.0, 0.0, 0.0, 0.0, 0.0, 0.0, 0.0, 0.0, 1.700951436102889E9, 0.0, 2023-11-25 17:30:36.102
34.0, 35422.664633114895, 52177.30875936851, 17011.778594467472, -23986.08165813466, 11148.513692440236, 40745.97844433528, 12712.018217088964, 30999.924957743286, -0.064, 0.986, -0.016, 192.0, 0.0, 0.0, 0.0, 0.0, 0.0, 0.0, 0.0, 0.0, 0.0, 1.700951436106981E9, 0.0, 2023-11-25 17:30:36.106
35.0, 35582.65841992598, 52223.71098085773, 17056.37032465581, -23889.477418598824, 11354.574424573711, 41071.57630581574, 12717.42733924715, 31007.99393749165, -0.064, 0.986, -0.016, 192.0, 0.0, 0.0, 0.0, 0.0, 0.0, 0.0, 0.0, 0.0, 0.0, 1.700951436110943E9, 0.0, 2023-11-25 17:30:36.110
36.0, 35524.722698297825, 52123.642220931324, 17048.81543502992, -23985.209940100904, 11316.978790399884, 41174.28257158787, 12700.171792527652, 30963.22339334767, -0.064, 0.986, -0.016, 192.0, 0.0, 0.0, 0.0, 0.0, 0.0, 0.0, 0.0, 0.0, 0.0, 1.700951436114066E9, 0.0, 2023-11-25 17:30:36.114
37.0, 35382.67736228435, 52085.73366233512, 17030.196431898647, -24035.389606403067, 11204.50481230078, 40616.22656777222, 12712.353493255794, 30971.761759729598, -0.064, 0.986, -0.016, 192.0, 0.0, 0.0, 0.0, 0.0, 0.0, 0.0, 0.0, 0.0, 0.0, 1.700951436117895E9, 0.0, 2023-11-25 17:30:36.117
38.0, 35410.281766686654, 52168.32335809748, 17012.22562935658, -23995.201169872424, 11152.15702678645, 40706.84053979404, 12707.503164708993, 30990.22430064968, -0.062, 0.982, -0.02, 192.0, 254.0, 16.0, 30.0, 176.0, 255.0, 96.0, 0.0, 0.0, 0.0, 1.700951436121991E9, 0.0, 2023-11-25 17:30:36.121
39.0, 35550.82953582162, 52231.46703618372, 17054.89510952176, -23905.950654262382, 11316.442348532957, 40915.985812662344, 12718.455519492092, 31006.18344619077, -0.062, 0.982, -0.02, 192.0, 0.0, 0.0, 0.0, 0.0, 0.0, 0.0, 0.0, 0.0, 0.0, 1.700951436126056E9, 0.0, 2023-11-25 17:30:36.126
40.0, 35568.912097085966, 52160.835523704955, 17059.23134794609, -23941.10994829058, 11368.6336718361, 41256.04525280539, 12701.959932084077, 30979.115483655394, -0.062, 0.982, -0.02, 192.0, 0.0, 0.0, 0.0, 0.0, 0.0, 0.0, 0.0, 0.0, 0.0, 1.70095143612998E9, 0.0, 2023-11-25 17:30:36.129
41.0, 35386.85713849749, 52082.179734966725, 17033.95152496714, -24036.10486222564, 11212.104405415585, 40640.053527361575, 12705.983246086033, 30968.14077712784, -0.062, 0.982, -0.02, 192.0, 0.0, 0.0, 0.0, 0.0, 0.0, 0.0, 0.0, 0.0, 0.0, 1.700951436134987E9, 0.0, 2023-11-25 17:30:36.134
42.0, 35413.96980452178, 52162.24368360564, 17013.052643901425, -23983.779428455764, 11171.424230506926, 40712.696696841325, 12700.66353090567, 30984.524605813578, -0.062, 0.982, -0.02, 192.0, 0.0, 0.0, 0.0, 0.0, 0.0, 0.0, 0.0, 0.0, 0.0, 1.700951436139055E9, 0.0, 2023-11-25 17:30:36.139
43.0, 35523.605111075056, 52229.343620460466, 17044.747417539053, -23918.35587243508, 11275.13632477955, 40831.116238965544, 12708.732510654034, 30996.862768752908, -0.062, 0.982, -0.02, 192.0, 0.0, 0.0, 0.0, 0.0, 0.0, 0.0, 0.0, 0.0, 0.0, 1.700951436142167E9, 0.0, 2023-11-25 17:30:36.142
44.0, 35605.23368182584, 52187.27763739558, 17064.461656148633, -23898.284005914215, 11408.822108366741, 41304.88381444023, 12699.031853560431, 30993.398248362333, -0.062, 0.982, -0.02, 192.0, 0.0, 0.0, 0.0, 0.0, 0.0, 0.0, 0.0, 0.0, 0.0, 1.700951436145977E9, 0.0, 2023-11-25 17:30:36.145
45.0, 35390.634583310435, 52076.949426764186, 17034.912649978716, -24041.938667528473, 11220.888640986519, 40698.369228645475, 12699.836516360821, 30971.873518451874, -0.062, 0.982, -0.02, 192.0, 0.0, 0.0, 0.0, 0.0, 0.0, 0.0, 0.0, 0.0, 0.0, 1.70095143615001E9, 0.0, 2023-11-25 17:30:36.150
46.0, 35401.78810379364, 52145.74809619762, 17010.79511771144, -23987.646280246532, 11183.136544601506, 40691.08255995304, 12700.618827416758, 30994.13585592936, -0.062, 0.982, -0.02, 192.0, 0.0, 0.0, 0.0, 0.0, 0.0, 0.0, 0.0, 0.0, 0.0, 1.700951436154024E9, 0.0, 2023-11-25 17:30:36.154
47.0, 35478.61104948653, 52212.222184207705, 17025.12258590729, -23948.97776233885, 11220.240440397316, 40742.402165222426, 12709.313656009872, 30996.125161185882, -0.06, 0.982, -0.026000000000000002, 192.0, 254.0, 32.0, 30.0, 176.0, 255.0, 48.0, 0.0, 0.0, 0.0, 1.700951436158E9, 0.0, 2023-11-25 17:30:36.158
48.0, 35609.525216761256, 52197.69355031176, 17058.873720034804, -23886.39287786399, 11416.220535781447, 41277.279410037925, 12707.771385642456, 31003.076553711482, -0.06, 0.982, -0.026000000000000002, 192.0, 0.0, 0.0, 0.0, 0.0, 0.0, 0.0, 0.0, 0.0, 0.0, 1.700951436163028E9, 0.0, 2023-11-25 17:30:36.163
49.0, 35399.240004925734, 52065.66179581425, 17029.41412084271, -24051.885193811082, 11227.147129434006, 40788.69262798937, 12705.312693752372, 30970.733579484655, -0.06, 0.982, -0.026000000000000002, 192.0, 0.0, 0.0, 0.0, 0.0, 0.0, 0.0, 0.0, 0.0, 0.0, 1.700951436168027E9, 0.0, 2023-11-25 17:30:36.168
50.0, 35391.21572866628, 52126.369133754866, 17009.677530488676, -23998.553931540722, 11194.491230784803, 40667.97085618626, 12709.783042643434, 30998.27092865359, -0.06, 0.982, -0.026000000000000002, 192.0, 0.0, 0.0, 0.0, 0.0, 0.0, 0.0, 0.0, 0.0, 0.0, 1.700951436172141E9, 0.0, 2023-11-25 17:30:36.172
51.0, 35450.000816583735, 52203.7732248036, 17013.343216579346, -23967.97674512586, 11186.511658014257, 40695.99994373321, 12710.94533335511, 30995.23109140767, -0.06, 0.982, -0.026000000000000002, 192.0, 0.0, 0.0, 0.0, 0.0, 0.0, 0.0, 0.0, 0.0, 0.0, 1.7009514361751E9, 0.0, 2023-11-25 17:30:36.175
52.0, 35619.53879827724, 52223.48746341318, 17062.427647403198, -23864.331706086603, 11424.267163785358, 41222.78585705589, 12716.89089738022, 31010.765553804107, -0.06, 0.982, -0.026000000000000002, 192.0, 0.0, 0.0, 0.0, 0.0, 0.0, 0.0, 0.0, 0.0, 0.0, 1.700951436178059E9, 0.0, 2023-11-25 17:30:36.178
53.0, 35445.239895014754, 52089.801679825985, 17037.70661803563, -24017.530562583277, 11265.972109552875, 40944.97602522088, 12703.010464073475, 30972.052332407515, -0.06, 0.982, -0.026000000000000002, 192.0, 0.0, 0.0, 0.0, 0.0, 0.0, 0.0, 0.0, 0.0, 0.0, 1.700951436182079E9, 0.0, 2023-11-25 17:30:36.182
54.0, 35399.53057760365, 52124.42453198726, 17026.37428359679, -23984.964070911894, 11224.733141032833, 40653.53162926813, 12714.56631595687, 30999.589681576454, -0.06, 0.982, -0.026000000000000002, 192.0, 0.0, 0.0, 0.0, 0.0, 0.0, 0.0, 0.0, 0.0, 0.0, 1.700951436186093E9, 0.0, 2023-11-25 17:30:36.186
55.0, 35436.58976991055, 52201.13571895787, 17021.389844583256, -23964.22165205737, 11183.82944867962, 40708.360458416995, 12712.75582465599, 30988.994954704638, -0.06, 0.982, -0.026000000000000002, 192.0, 0.0, 0.0, 0.0, 0.0, 0.0, 0.0, 0.0, 0.0, 0.0, 1.700951436191151E9, 0.0, 2023-11-25 17:30:36.191
56.0, 35610.5533970062, 52240.00540256565, 17076.978633043604, -23856.888575182984, 11420.422663739046, 41132.39540247863, 12723.797586416911, 31011.301995671034, -0.06, 0.982, -0.026000000000000002, 192.0, 0.0, 0.0, 0.0, 0.0, 0.0, 0.0, 0.0, 0.0, 0.0, 1.700951436195132E9, 0.0, 2023-11-25 17:30:36.195
57.0, 35496.760665984235, 52116.512014450076, 17059.387810157277, -23987.579225013167, 11319.795110201254, 41078.818271019256, 12707.458461220082, 30985.910413969807, -0.066, 0.98, -0.034, 192.0, 253.0, 240.0, 30.0, 160.0, 254.0, 240.0, 0.0, 0.0, 0.0, 1.700951436198136E9, 0.0, 2023-11-25 17:30:36.198
58.0, 35402.302193916104, 52113.96391558217, 17043.361609382824, -23997.928082695973, 11239.261774928782, 40621.948614352776, 12715.99682760201, 30998.874425753886, -0.066, 0.98, -0.034, 192.0, 0.0, 0.0, 0.0, 0.0, 0.0, 0.0, 0.0, 0.0, 0.0, 1.700951436202186E9, 0.0, 2023-11-25 17:30:36.202
59.0, 35433.05819428661, 52192.910276998315, 17018.908800948717, -23973.877605662063, 11176.945111387386, 40714.373077675475, 12706.430280975137, 30993.62176580689, -0.066, 0.98, -0.034, 192.0, 0.0, 0.0, 0.0, 0.0, 0.0, 0.0, 0.0, 0.0, 0.0, 1.700951436206212E9, 0.0, 2023-11-25 17:30:36.206
60.0, 35589.587460707124, 52241.212396766234, 17063.52288288151, -23875.172302147424, 11376.322671928725, 41037.82517168822, 12715.102757823797, 31012.553693360533, -0.066, 0.98, -0.034, 192.0, 0.0, 0.0, 0.0, 0.0, 0.0, 0.0, 0.0, 0.0, 0.0, 1.700951436210212E9, 0.0, 2023-11-25 17:30:36.210
61.0, 35542.58174211762, 52140.51778799508, 17055.61036534433, -23957.136149065038, 11356.116694941127, 41211.565281339324, 12695.65674014768, 30977.103826654416, -0.066, 0.98, -0.034, 192.0, 0.0, 0.0, 0.0, 0.0, 0.0, 0.0, 0.0, 0.0, 0.0, 1.700951436214214E9, 0.0, 2023-11-25 17:30:36.214
62.0, 35391.5063013442, 52094.31673220596, 17036.119644179304, -24018.201114916938, 11234.187928937428, 40628.67648943383, 12704.508030951982, 30982.982335446162, -0.066, 0.98, -0.034, 192.0, 0.0, 0.0, 0.0, 0.0, 0.0, 0.0, 0.0, 0.0, 0.0, 1.700951436218213E9, 0.0, 2023-11-25 17:30:36.218
63.0, 35417.344917934526, 52177.21935239069, 17015.332521835866, -23978.035030130748, 11184.12002135754, 40707.1087607275, 12701.13291753923, 30998.360335631412, -0.066, 0.98, -0.034, 192.0, 0.0, 0.0, 0.0, 0.0, 0.0, 0.0, 0.0, 0.0, 0.0, 1.700951436223997E9, 0.0, 2023-11-25 17:30:36.223
64.0, 35549.689596854405, 52240.00540256565, 17055.14097871077, -23895.579444835123, 11334.43550281948, 40896.495091497316, 12712.241734533518, 31006.56342584651, -0.066, 0.98, -0.034, 192.0, 0.0, 0.0, 0.0, 0.0, 0.0, 0.0, 0.0, 0.0, 0.0, 1.700951436226222E9, 0.0, 2023-11-25 17:30:36.226
65.0, 35581.920812358956, 52174.02305293358, 17062.94173752567, -23920.501639902788, 11401.4907361854, 41269.679816923126, 12699.389481471717, 30980.166015644794, -0.066, 0.98, -0.034, 192.0, 0.0, 0.0, 0.0, 0.0, 0.0, 0.0, 0.0, 0.0, 0.0, 1.700951436230262E9, 0.0, 2023-11-25 17:30:36.230
66.0, 35389.09231294302, 52084.705482090176, 17032.722179022097, -24035.09903372515, 11231.975106236352, 40645.507353008674, 12702.94340884011, 30967.425521305267, -0.066, 0.98, -0.034, 192.0, 0.0, 0.0, 0.0, 0.0, 0.0, 0.0, 0.0, 0.0, 0.0, 1.700951436234238E9, 0.0, 2023-11-25 17:30:36.234
67.0, 35409.655917841905, 52162.17662837227, 17008.64935024373, -23983.377097055567, 11188.50096327078, 40702.839577536535, 12696.84138260381, 30980.724809256175, -0.064, 0.986, -0.026000000000000002, 192.0, 254.0, 0.0, 30.0, 208.0, 255.0, 48.0, 0.0, 0.0, 0.0, 1.700951436238276E9, 0.0, 2023-11-25 17:30:36.238
68.0, 35512.60805280305, 52231.42233269481, 17037.08076919088, -23922.60270388159, 11276.723298635878, 40806.41756134243, 12710.52065021046, 30989.687858782752, -0.064, 0.986, -0.026000000000000002, 192.0, 0.0, 0.0, 0.0, 0.0, 0.0, 0.0, 0.0, 0.0, 0.0, 1.700951436242288E9, 0.0, 2023-11-25 17:30:36.242
69.0, 35612.34153656263, 52203.14737595885, 17064.394600915268, -23884.58238656311, 11429.251602798891, 41304.63794525122, 12708.888972865221, 30999.299108898536, -0.064, 0.986, -0.026000000000000002, 192.0, 0.0, 0.0, 0.0, 0.0, 0.0, 0.0, 0.0, 0.0, 0.0, 1.700951436246266E9, 0.0, 2023-11-25 17:30:36.246
70.0, 35403.88916777243, 52090.13695599281, 17039.025370958494, -24028.66173132202, 11241.429894140947, 40713.747228830725, 12707.950199598099, 30978.579041788467, -0.064, 0.986, -0.026000000000000002, 192.0, 0.0, 0.0, 0.0, 0.0, 0.0, 0.0, 0.0, 0.0, 0.0, 1.700951436251281E9, 0.0, 2023-11-25 17:30:36.251
71.0, 35416.495551645225, 52161.32726208297, 17021.076920160882, -23967.328544536656, 11210.249210625794, 40686.52280408416, 12707.056129819886, 31004.08238221197, -0.064, 0.986, -0.026000000000000002, 192.0, 0.0, 0.0, 0.0, 0.0, 0.0, 0.0, 0.0, 0.0, 0.0, 1.700951436254298E9, 0.0, 2023-11-25 17:30:36.254
72.0, 35486.5235670237, 52229.61184139393, 17035.56085056792, -23929.77761385174, 11236.691324316422, 40732.276824984176, 12712.688769422624, 31004.775286290085, -0.064, 0.986, -0.026000000000000002, 192.0, 0.0, 0.0, 0.0, 0.0, 0.0, 0.0, 0.0, 0.0, 0.0, 1.700951436258518E9, 0.0, 2023-11-25 17:30:36.258
73.0, 35629.0606414152, 52221.83343432348, 17073.558816141944, -23858.810825206143, 11445.233100084437, 41268.49517446699, 12712.487603722526, 31013.33600441647, -0.064, 0.986, -0.026000000000000002, 192.0, 0.0, 0.0, 0.0, 0.0, 0.0, 0.0, 0.0, 0.0, 0.0, 1.700951436262482E9, 0.0, 2023-11-25 17:30:36.262
74.0, 35426.03974652765, 52087.633560613824, 17043.80864427193, -24024.23608591987, 11257.41139142649, 40816.20762541385, 12708.129013553742, 30978.37787608837, -0.064, 0.986, -0.026000000000000002, 192.0, 0.0, 0.0, 0.0, 0.0, 0.0, 0.0, 0.0, 0.0, 0.0, 1.700951436266403E9, 0.0, 2023-11-25 17:30:36.266
75.0, 35408.113647474485, 52137.52265423807, 17022.485080061564, -23976.917442907983, 11217.245306640305, 40673.33527485553, 12710.163022299173, 31006.18344619077, -0.064, 0.986, -0.026000000000000002, 192.0, 0.0, 0.0, 0.0, 0.0, 0.0, 0.0, 0.0, 0.0, 0.0, 1.700951436270818E9, 0.0, 2023-11-25 17:30:36.270
76.0, 35456.97456085379, 52212.065721996514, 17020.875754460783, -23956.085617075638, 11195.318245329649, 40698.30217341211, 12706.430280975137, 30997.578024575476, -0.064, 0.986, -0.026000000000000002, 192.0, 0.0, 0.0, 0.0, 0.0, 0.0, 0.0, 0.0, 0.0, 0.0, 1.700951436274621E9, 0.0, 2023-11-25 17:30:36.274
77.0, 35620.16464712199, 52226.21437623673, 17061.66768809172, -23856.82151994962, 11424.848309141196, 41201.03760970088, 12709.671283921158, 31007.18927469126, -0.062, 0.99, -0.024, 192.0, 254.0, 16.0, 30.0, 240.0, 255.0, 64.0, 0.0, 0.0, 0.0, 1.700951436278364E9, 0.0, 2023-11-25 17:30:36.278
78.0, 35451.744252651246, 52091.43335717123, 17035.56085056792, -24014.624835804087, 11270.665975888489, 40949.28991190075, 12700.060033805375, 30968.408998061303, -0.062, 0.99, -0.024, 192.0, 0.0, 0.0, 0.0, 0.0, 0.0, 0.0, 0.0, 0.0, 0.0, 1.700951436282374E9, 0.0, 2023-11-25 17:30:36.282
79.0, 35395.14963569041, 52116.69082840572, 17017.724158492587, -23990.395544814535, 11216.84297524011, 40631.51516097965, 12710.453594977093, 31000.260233910114, -0.062, 0.99, -0.024, 192.0, 0.0, 0.0, 0.0, 0.0, 0.0, 0.0, 0.0, 0.0, 0.0, 1.700951436285395E9, 0.0, 2023-11-25 17:30:36.285
80.0, 35428.453734928815, 52193.692588054255, 17001.94382690714, -23972.26828006128, 11165.501018226269, 40687.036894206634, 12703.166926284663, 30997.42156236429, -0.062, 0.99, -0.024, 192.0, 0.0, 0.0, 0.0, 0.0, 0.0, 0.0, 0.0, 0.0, 0.0, 1.700951436289478E9, 0.0, 2023-11-25 17:30:36.289
81.0, 35601.00920212379, 52239.08898104298, 17053.241080432068, -23864.57757527561, 11398.45089893948, 41087.78132054584, 12714.074577578853, 31016.04056549556, -0.062, 0.99, -0.024, 192.0, 0.0, 0.0, 0.0, 0.0, 0.0, 0.0, 0.0, 0.0, 0.0, 1.700951436294527E9, 0.0, 2023-11-25 17:30:36.294
82.0, 35500.24753811926, 52124.84921513191, 17036.566679068408, -23986.193416856935, 11312.374331042092, 41070.011683703866, 12704.306865251883, 30972.99110567464, -0.062, 0.99, -0.024, 192.0, 0.0, 0.0, 0.0, 0.0, 0.0, 0.0, 0.0, 0.0, 0.0, 1.70095143629848E9, 0.0, 2023-11-25 17:30:36.298
83.0, 35395.954298490804, 52112.35458998139, 17018.70763524862, -24005.482972321865, 11222.45326309839, 40596.445273929276, 12712.912286867177, 30988.32440237098, -0.062, 0.99, -0.024, 192.0, 0.0, 0.0, 0.0, 0.0, 0.0, 0.0, 0.0, 0.0, 0.0, 1.700951436302546E9, 0.0, 2023-11-25 17:30:36.302
84.0, 35427.33614770605, 52189.44575660775, 17001.608550740308, -23975.26341381829, 11166.97623336032, 40681.80658600409, 12702.250504761996, 30992.168902417292, -0.062, 0.99, -0.024, 192.0, 0.0, 0.0, 0.0, 0.0, 0.0, 0.0, 0.0, 0.0, 0.0, 1.700951436306533E9, 0.0, 2023-11-25 17:30:36.306
85.0, 35580.49030071381, 52240.51949268812, 17049.530690852487, -23877.072200426126, 11361.01172697684, 40967.90891503202, 12712.621714189258, 31009.200931692238, -0.062, 0.99, -0.024, 192.0, 0.0, 0.0, 0.0, 0.0, 0.0, 0.0, 0.0, 0.0, 0.0, 1.70095143631049E9, 0.0, 2023-11-25 17:30:36.310
86.0, 35553.82466957864, 52153.72766896817, 17051.60940308683, -23944.283896003235, 11363.425715378013, 41191.00167644044, 12705.312693752372, 30985.284565125057, -0.062, 0.99, -0.024, 192.0, 0.0, 0.0, 0.0, 0.0, 0.0, 0.0, 0.0, 0.0, 0.0, 1.70095143631348E9, 0.0, 2023-11-25 17:30:36.313
87.0, 35397.697734558315, 52104.88910733332, 17034.577373811888, -24010.62387354659, 11234.41144638198, 40606.66002114535, 12716.063882835375, 30989.643155293845, -0.062, 0.986, -0.026000000000000002, 192.0, 254.0, 16.0, 30.0, 208.0, 255.0, 48.0, 0.0, 0.0, 0.0, 1.700951436318465E9, 0.0, 2023-11-25 17:30:36.318
88.0, 35424.31866220458, 52185.19892516124, 17013.343216579346, -23969.429608515456, 11184.410594035458, 40692.53542334264, 12707.65962692018, 30995.767533274597, -0.062, 0.986, -0.026000000000000002, 192.0, 0.0, 0.0, 0.0, 0.0, 0.0, 0.0, 0.0, 0.0, 0.0, 1.700951436322523E9, 0.0, 2023-11-25 17:30:36.322
89.0, 35552.52826840022, 52247.06855381353, 17052.65993507623, -23890.282081399215, 11325.628915504089, 40864.107413781574, 12720.780100915445, 31016.6217108514, -0.062, 0.986, -0.026000000000000002, 192.0, 0.0, 0.0, 0.0, 0.0, 0.0, 0.0, 0.0, 0.0, 0.0, 1.700951436326624E9, 0.0, 2023-11-25 17:30:36.326
90.0, 35599.869263156565, 52187.61291356241, 17066.80858931644, -23901.86028502706, 11412.979532835428, 41264.87419186523, 12709.559525198882, 31002.5177601001, -0.062, 0.986, -0.026000000000000002, 192.0, 0.0, 0.0, 0.0, 0.0, 0.0, 0.0, 0.0, 0.0, 0.0, 1.700951436330579E9, 0.0, 2023-11-25 17:30:36.330
91.0, 35398.323583403064, 52088.751147836585, 17031.33637086587, -24025.80070803174, 11232.779769036742, 40644.747393697195, 12701.602304172791, 30969.012495161594, -0.062, 0.986, -0.026000000000000002, 192.0, 0.0, 0.0, 0.0, 0.0, 0.0, 0.0, 0.0, 0.0, 0.0, 1.700951436336581E9, 0.0, 2023-11-25 17:30:36.336
92.0, 35418.7083743463, 52165.931721440764, 17006.36947230929, -23976.26924231878, 11189.17151560444, 40675.34693185651, 12692.594551157303, 30972.83464346345, -0.062, 0.986, -0.026000000000000002, 192.0, 0.0, 0.0, 0.0, 0.0, 0.0, 0.0, 0.0, 0.0, 0.0, 1.700951436339681E9, 0.0, 2023-11-25 17:30:36.339
93.0, 35513.21154990334, 52231.62349839491, 17029.749397009542, -23921.999206781293, 11263.84869382962, 40756.34965376254, 12700.484716950026, 30974.46632080869, -0.062, 0.986, -0.026000000000000002, 192.0, 0.0, 0.0, 0.0, 0.0, 0.0, 0.0, 0.0, 0.0, 0.0, 1.700951436342695E9, 0.0, 2023-11-25 17:30:36.342
94.0, 35619.71761223288, 52207.34950391645, 17060.3265834244, -23878.01097369325, 11429.922155132552, 41281.30272403988, 12701.021158816953, 30985.217509891692, -0.062, 0.986, -0.026000000000000002, 192.0, 0.0, 0.0, 0.0, 0.0, 0.0, 0.0, 0.0, 0.0, 0.0, 1.700951436345651E9, 0.0, 2023-11-25 17:30:36.345
95.0, 35408.29246143013, 52091.99215078261, 17037.013713957516, -24025.46543186491, 11242.391019152525, 40711.981441018754, 12706.720853653056, 30971.98527717415, -0.062, 0.986, -0.026000000000000002, 192.0, 0.0, 0.0, 0.0, 0.0, 0.0, 0.0, 0.0, 0.0, 0.0, 1.700951436350611E9, 0.0, 2023-11-25 17:30:36.350
96.0, 35413.65688009941, 52159.717936482186, 17018.238248615056, -23969.474312004368, 11213.154937404983, 40653.218704845756, 12705.826783874845, 30997.063934453006, -0.062, 0.986, -0.026000000000000002, 192.0, 0.0, 0.0, 0.0, 0.0, 0.0, 0.0, 0.0, 0.0, 0.0, 1.700951436354668E9, 0.0, 2023-11-25 17:30:36.354
97.0, 35481.248555332255, 52231.73525711719, 17031.33637086587, -23929.867020829563, 11235.864309771576, 40695.53055709965, 12710.788871143923, 31004.70823105672, -0.06, 0.982, -0.024, 192.0, 254.0, 32.0, 30.0, 176.0, 255.0, 64.0, 0.0, 0.0, 0.0, 1.700951436359226E9, 0.0, 2023-11-25 17:30:36.359
98.0, 35625.21614136889, 52226.7284663592, 17066.875644549804, -23847.791415189677, 11450.93279492054, 41250.12204052473, 12709.492469965515, 31016.264082940113, -0.06, 0.982, -0.024, 192.0, 0.0, 0.0, 0.0, 0.0, 0.0, 0.0, 0.0, 0.0, 0.0, 1.700951436361622E9, 0.0, 2023-11-25 17:30:36.361
99.0, 35424.20690348231, 52092.43918567171, 17039.98649597007, -24012.85904799212, 11270.598920655122, 40829.573968598124, 12706.139708297218, 30983.65288777982, -0.06, 0.982, -0.024, 192.0, 0.0, 0.0, 0.0, 0.0, 0.0, 0.0, 0.0, 0.0, 0.0, 1.700951436365658E9, 0.0, 2023-11-25 17:30:36.365
100.0, 35402.39160089393, 52143.11059035189, 17025.770786496494, -23966.4568265029, 11233.115045203573, 40637.28191104912, 12713.627542689746, 31011.346699159945, -0.06, 0.982, -0.024, 192.0, 0.0, 0.0, 0.0, 0.0, 0.0, 0.0, 0.0, 0.0, 0.0, 1.700951436369735E9, 0.0, 2023-11-25 17:30:36.369
101.0, 35446.715110148805, 52216.22314646521, 17018.484117804066, -23944.485061703333, 11204.281294856226, 40689.406179118894, 12709.51482170997, 30999.99201297665, -0.06, 0.982, -0.024, 192.0, 0.0, 0.0, 0.0, 0.0, 0.0, 0.0, 0.0, 0.0, 0.0, 1.70095143637375E9, 0.0, 2023-11-25 17:30:36.373
102.0, 35620.94695817792, 52243.469922956225, 17068.66378410623, -23842.91873489842, 11442.997925638905, 41165.18541159456, 12718.32140902536, 31019.393327163856, -0.06, 0.982, -0.024, 192.0, 0.0, 0.0, 0.0, 0.0, 0.0, 0.0, 0.0, 0.0, 0.0, 1.70095143637773E9, 0.0, 2023-11-25 17:30:36.377
103.0, 35468.19513657035, 52114.74622663811, 17046.446150117656, -23989.479123291865, 11304.90884839402, 40956.37541489308, 12711.682940922135, 30987.18446340376, -0.06, 0.982, -0.024, 192.0, 0.0, 0.0, 0.0, 0.0, 0.0, 0.0, 0.0, 0.0, 0.0, 1.700951436382696E9, 0.0, 2023-11-25 17:30:36.382
104.0, 35399.35176364801, 52133.18641581374, 17026.307228363425, -23976.291594063234, 11242.569833108168, 40611.51034969215, 12718.164946814173, 31012.441934638256, -0.06, 0.982, -0.024, 192.0, 0.0, 0.0, 0.0, 0.0, 0.0, 0.0, 0.0, 0.0, 0.0, 1.700951436386709E9, 0.0, 2023-11-25 17:30:36.386
105.0, 35431.40416519692, 52212.95979177473, 17011.040986900447, -23957.136149065038, 11189.126812115528, 40675.1010626675, 12714.007522345486, 31013.89479802785, -0.06, 0.982, -0.024, 192.0, 0.0, 0.0, 0.0, 0.0, 0.0, 0.0, 0.0, 0.0, 0.0, 1.700951436389817E9, 0.0, 2023-11-25 17:30:36.389
106.0, 35598.52815848925, 52256.76921090713, 17062.114722980827, -23845.62329597751, 11415.885259614619, 41057.67352076453, 12728.960839386087, 31037.81116459503, -0.06, 0.982, -0.024, 192.0, 0.0, 0.0, 0.0, 0.0, 0.0, 0.0, 0.0, 0.0, 0.0, 1.700951436393775E9, 0.0, 2023-11-25 17:30:36.393
107.0, 35504.76259049924, 52135.93568038174, 17042.98162972708, -23962.67938168995, 11341.252784878348, 41098.443102651014, 12714.700426423602, 30996.48278909717, -0.064, 0.98, -0.022, 192.0, 254.0, 0.0, 30.0, 160.0, 255.0, 80.0, 0.0, 0.0, 0.0, 1.700951436397774E9, 0.0, 2023-11-25 17:30:36.397
108.0, 35384.91253672988, 52112.041665559016, 17021.83687947236, -23997.436344317957, 11237.875966772554, 40599.06042803054, 12721.562411971381, 31001.60133857743, -0.064, 0.98, -0.022, 192.0, 0.0, 0.0, 0.0, 0.0, 0.0, 0.0, 0.0, 0.0, 0.0, 1.700951436401767E9, 0.0, 2023-11-25 17:30:36.401
109.0, 35414.416839410886, 52194.83252702148, 17001.45208852912, -23965.920384635974, 11179.672024210933, 40676.95625745729, 12712.241734533518, 31001.333117643968, -0.064, 0.98, -0.022, 192.0, 0.0, 0.0, 0.0, 0.0, 0.0, 0.0, 0.0, 0.0, 0.0, 1.700951436406794E9, 0.0, 2023-11-25 17:30:36.406
110.0, 35565.60403890658, 52253.2823387721, 17046.51320535102, -23868.28796485519, 11366.756125301854, 40943.90314148702, 12721.003618359999, 31013.157190460824, -0.064, 0.98, -0.022, 192.0, 0.0, 0.0, 0.0, 0.0, 0.0, 0.0, 0.0, 0.0, 0.0, 1.700951436410783E9, 0.0, 2023-11-25 17:30:36.410
111.0, 35553.399986433986, 52168.92685519777, 17047.630792573786, -23926.469555672356, 11385.084555755206, 41199.137711422176, 12702.18344952863, 30980.03190517806, -0.064, 0.98, -0.022, 192.0, 0.0, 0.0, 0.0, 0.0, 0.0, 0.0, 0.0, 0.0, 0.0, 1.700951436414756E9, 0.0, 2023-11-25 17:30:36.414
112.0, 35384.46550184077, 52106.92311607875, 17027.581277797377, -24008.589864801153, 11246.861368043586, 40591.79611108257, 12704.440975718615, 30977.953192943718, -0.064, 0.98, -0.022, 192.0, 0.0, 0.0, 0.0, 0.0, 0.0, 0.0, 0.0, 0.0, 0.0, 1.700951436417767E9, 0.0, 2023-11-25 17:30:36.417
113.0, 35411.600519609514, 52188.50698334062, 17007.978797910073, -23962.478215989857, 11197.59812326409, 40655.38682405792, 12693.17569651314, 30982.781169746064, -0.064, 0.98, -0.022, 192.0, 0.0, 0.0, 0.0, 0.0, 0.0, 0.0, 0.0, 0.0, 0.0, 1.700951436421808E9, 0.0, 2023-11-25 17:30:36.421
114.0, 35534.9374455139, 52255.405754495354, 17045.730894295084, -23885.87878774152, 11326.433578304479, 40800.06966591712, 12697.735452382023, 30993.912338484806, -0.064, 0.98, -0.022, 192.0, 0.0, 0.0, 0.0, 0.0, 0.0, 0.0, 0.0, 0.0, 0.0, 1.700951436425857E9, 0.0, 2023-11-25 17:30:36.425
115.0, 35592.31437353067, 52198.14058520086, 17058.650202590252, -23887.555168575665, 11428.536346976322, 41239.28144446391, 12678.043565516899, 30978.310820855004, -0.064, 0.98, -0.022, 192.0, 0.0, 0.0, 0.0, 0.0, 0.0, 0.0, 0.0, 0.0, 0.0, 1.700951436429838E9, 0.0, 2023-11-25 17:30:36.429
116.0, 35390.14284493242, 52096.95423805169, 17032.118681921802, -24016.010643960315, 11246.906071532498, 40612.96321308175, 12676.545998638392, 30961.88228868035, -0.064, 0.98, -0.022, 192.0, 0.0, 0.0, 0.0, 0.0, 0.0, 0.0, 0.0, 0.0, 0.0, 1.700951436433836E9, 0.0, 2023-11-25 17:30:36.433
117.0, 35409.72297307527, 52174.0677564225, 17009.5657717664, -23961.427684000457, 11207.343483846604, 40637.50542849367, 12677.350661438782, 30983.116445912892, -0.066, 0.984, -0.018000000000000002, 192.0, 253.0, 240.0, 30.0, 192.0, 255.0, 112.0, 0.0, 0.0, 0.0, 1.70095143643939E9, 0.0, 2023-11-25 17:30:36.439
118.0, 35497.72179099581, 52242.486446200186, 17031.962219710615, -23912.946750276897, 11272.387060211548, 40707.041705494135, 12690.98522555652, 30993.264137895603, -0.066, 0.984, -0.018000000000000002, 192.0, 0.0, 0.0, 0.0, 0.0, 0.0, 0.0, 0.0, 0.0, 0.0, 1.700951436442844E9, 0.0, 2023-11-25 17:30:36.442
119.0, 35614.219083096876, 52219.1735767333, 17063.098199736858, -23861.515386285235, 11449.79285595332, 41247.216313745535, 12695.120298280752, 31005.579949090476, -0.066, 0.984, -0.018000000000000002, 192.0, 0.0, 0.0, 0.0, 0.0, 0.0, 0.0, 0.0, 0.0, 0.0, 1.700951436445879E9, 0.0, 2023-11-25 17:30:36.445
120.0, 35396.69190605783, 52089.48875540361, 17031.381074354777, -24024.14667894205, 11254.528016391758, 40711.42264740737, 12699.747109383, 30979.137835399848, -0.066, 0.984, -0.018000000000000002, 192.0, 0.0, 0.0, 0.0, 0.0, 0.0, 0.0, 0.0, 0.0, 0.0, 1.70095143644989E9, 0.0, 2023-11-25 17:30:36.449
121.0, 35399.82115028157, 52158.15331437031, 17016.584219525364, -23963.5063962348, 11226.40952186698, 40623.33442250901, 12707.927847853643, 31009.156228203326, -0.066, 0.984, -0.018000000000000002, 192.0, 0.0, 0.0, 0.0, 0.0, 0.0, 0.0, 0.0, 0.0, 0.0, 1.700951436453913E9, 0.0, 2023-11-25 17:30:36.453
122.0, 35462.093110334055, 52234.596280407466, 17025.94960045214, -23927.16245975047, 11236.244289427315, 40662.40527181688, 12713.649894434202, 31007.502199113635, -0.066, 0.984, -0.018000000000000002, 192.0, 0.0, 0.0, 0.0, 0.0, 0.0, 0.0, 0.0, 0.0, 0.0, 1.700951436457999E9, 0.0, 2023-11-25 17:30:36.457
123.0, 35614.353193563606, 52238.3290217315, 17064.75222882655, -23838.38133077399, 11459.091181646727, 41211.833502272784, 12713.582839200835, 31017.828705051987, -0.066, 0.984, -0.018000000000000002, 192.0, 0.0, 0.0, 0.0, 0.0, 0.0, 0.0, 0.0, 0.0, 0.0, 1.700951436461922E9, 0.0, 2023-11-25 17:30:36.461
124.0, 35422.12819124797, 52103.83857534392, 17036.253754646033, -23998.41982107399, 11281.238351015849, 40843.32029143814, 12703.256333262485, 30979.696629011232, -0.066, 0.984, -0.018000000000000002, 192.0, 0.0, 0.0, 0.0, 0.0, 0.0, 0.0, 0.0, 0.0, 0.0, 1.700951436465947E9, 0.0, 2023-11-25 17:30:36.465
125.0, 35396.42368512436, 52154.77820095757, 17022.932114950672, -23953.35870425209, 11246.503740132302, 40618.57350094003, 12711.414719988672, 31010.206760192727, -0.066, 0.984, -0.018000000000000002, 192.0, 0.0, 0.0, 0.0, 0.0, 0.0, 0.0, 0.0, 0.0, 0.0, 1.700951436470921E9, 0.0, 2023-11-25 17:30:36.470
126.0, 35440.47897344577, 52230.125931516406, 17014.23728635756, -23932.862154586575, 11210.942114703908, 40665.42275731835, 12705.670321663658, 31005.982280490673, -0.066, 0.984, -0.018000000000000002, 192.0, 0.0, 0.0, 0.0, 0.0, 0.0, 0.0, 0.0, 0.0, 0.0, 1.70095143647398E9, 0.0, 2023-11-25 17:30:36.473
127.0, 35607.155931848996, 52254.221112039224, 17057.532615367487, -23833.15102257145, 11444.182568095037, 41142.76661190589, 12706.698501908602, 31018.23103645218, -0.064, 0.984, -0.02, 192.0, 254.0, 0.0, 30.0, 192.0, 255.0, 96.0, 0.0, 0.0, 0.0, 1.700951436477924E9, 0.0, 2023-11-25 17:30:36.477
128.0, 35459.45560448833, 52121.2505842746, 17029.995266198548, -23985.165236611992, 11306.227601316883, 40975.553211635735, 12690.94052206761, 30975.025114420074, -0.064, 0.984, -0.02, 192.0, 0.0, 0.0, 0.0, 0.0, 0.0, 0.0, 0.0, 0.0, 0.0, 1.700951436482052E9, 0.0, 2023-11-25 17:30:36.482
129.0, 35382.27503088415, 52131.666497190774, 17009.99045491105, -23983.801780200218, 11232.489196358823, 40577.200421953254, 12701.043510561409, 30991.543053572543, -0.064, 0.984, -0.02, 192.0, 0.0, 0.0, 0.0, 0.0, 0.0, 0.0, 0.0, 0.0, 0.0, 1.700951436486046E9, 0.0, 2023-11-25 17:30:36.486
130.0, 35410.706449831305, 52205.4719573822, 16989.40449826771, -23968.714352692885, 11172.720631685334, 40631.33634702401, 12692.862772090766, 30975.22628012017, -0.064, 0.984, -0.02, 192.0, 0.0, 0.0, 0.0, 0.0, 0.0, 0.0, 0.0, 0.0, 0.0, 1.7009514364901E9, 0.0, 2023-11-25 17:30:36.490
131.0, 35569.18031801943, 52242.44174271128, 17032.99039995556, -23869.40555207796, 11388.236151723404, 40986.50556641884, 12700.194144272107, 30992.392419861844, -0.064, 0.984, -0.02, 192.0, 0.0, 0.0, 0.0, 0.0, 0.0, 0.0, 0.0, 0.0, 0.0, 1.700951436494028E9, 0.0, 2023-11-25 17:30:36.494
132.0, 35488.53522402468, 52132.49351173562, 17020.294609104945, -23974.861082418094, 11330.05456090624, 41060.57924754373, 12684.525571408936, 30968.297239339026, -0.064, 0.984, -0.02, 192.0, 0.0, 0.0, 0.0, 0.0, 0.0, 0.0, 0.0, 0.0, 0.0, 1.700951436499015E9, 0.0, 2023-11-25 17:30:36.499
133.0, 35361.26439109616, 52108.21951725716, 17002.07793737387, -24013.976635214884, 11224.330809632636, 40522.23748233765, 12692.773365112946, 30976.07564640947, -0.064, 0.984, -0.02, 192.0, 0.0, 0.0, 0.0, 0.0, 0.0, 0.0, 0.0, 0.0, 0.0, 1.70095143650204E9, 0.0, 2023-11-25 17:30:36.502
134.0, 35391.21572866628, 52191.300951397534, 16980.329690018858, -23978.54912025322, 11170.708974684356, 40609.36458222444, 12683.407984186171, 30977.014419676594, -0.064, 0.984, -0.02, 192.0, 0.0, 0.0, 0.0, 0.0, 0.0, 0.0, 0.0, 0.0, 0.0, 1.700951436506067E9, 0.0, 2023-11-25 17:30:36.506
135.0, 35539.92188452743, 52250.935405604294, 17029.3694173538, -23883.040116195694, 11350.640517549577, 40855.81491658866, 12693.421565702149, 30995.40990536331, -0.064, 0.984, -0.02, 192.0, 0.0, 0.0, 0.0, 0.0, 0.0, 0.0, 0.0, 0.0, 0.0, 1.700951436510091E9, 0.0, 2023-11-25 17:30:36.510
136.0, 35547.61088462006, 52176.146468656836, 17040.813510514916, -23923.340311448614, 11389.845477324187, 41163.77725169388, 12678.088269005808, 30977.37204758788, -0.064, 0.984, -0.02, 192.0, 0.0, 0.0, 0.0, 0.0, 0.0, 0.0, 0.0, 0.0, 0.0, 1.700951436514091E9, 0.0, 2023-11-25 17:30:36.514
137.0, 35376.68709477033, 52109.69473239121, 17021.21103062761, -24010.243893890845, 11242.011039496785, 40553.082889685975, 12681.284568462917, 30973.84047196394, -0.062, 0.984, -0.022, 192.0, 254.0, 16.0, 30.0, 192.0, 255.0, 80.0, 0.0, 0.0, 0.0, 1.700951436518138E9, 0.0, 2023-11-25 17:30:36.518
138.0, 35406.01258349569, 52195.74894854414, 17002.592027496343, -23960.153634566504, 11199.855649454075, 40615.62307067193, 12673.014423014454, 30986.17863490327, -0.062, 0.984, -0.022, 192.0, 0.0, 0.0, 0.0, 0.0, 0.0, 0.0, 0.0, 0.0, 0.0, 1.700951436522832E9, 0.0, 2023-11-25 17:30:36.522
139.0, 35522.82280001912, 52261.17250456483, 17036.36551336831, -23892.919587244938, 11315.458871776924, 40747.855990869524, 12681.888065563211, 30994.068800695994, -0.062, 0.984, -0.022, 192.0, 0.0, 0.0, 0.0, 0.0, 0.0, 0.0, 0.0, 0.0, 0.0, 1.700951436527146E9, 0.0, 2023-11-25 17:30:36.527
140.0, 35593.83429215363, 52209.85289929544, 17057.309097922935, -23884.850607496574, 11433.029047611839, 41207.31844989282, 12672.165056725153, 30985.217509891692, -0.062, 0.984, -0.022, 192.0, 0.0, 0.0, 0.0, 0.0, 0.0, 0.0, 0.0, 0.0, 0.0, 1.700951436530192E9, 0.0, 2023-11-25 17:30:36.530
141.0, 35384.62196405196, 52098.56356365247, 17028.56475455341, -24018.22346666139, 11249.878853545053, 40598.881614074904, 12672.612091614259, 30960.719997968674, -0.062, 0.984, -0.022, 192.0, 0.0, 0.0, 0.0, 0.0, 0.0, 0.0, 0.0, 0.0, 0.0, 1.700951436534188E9, 0.0, 2023-11-25 17:30:36.534
142.0, 35396.87072001347, 52166.08818365195, 17002.726137963073, -23964.17694856846, 11208.751643747288, 40615.4889602052, 12668.208797956562, 30975.22628012017, -0.062, 0.984, -0.022, 192.0, 0.0, 0.0, 0.0, 0.0, 0.0, 0.0, 0.0, 0.0, 0.0, 1.70095143653912E9, 0.0, 2023-11-25 17:30:36.539
143.0, 35482.05321813264, 52235.40094320786, 17022.775652739485, -23914.623131111042, 11263.155789751505, 40685.13699592793, 12679.384670184216, 30978.35552434391, -0.062, 0.984, -0.022, 192.0, 0.0, 0.0, 0.0, 0.0, 0.0, 0.0, 0.0, 0.0, 0.0, 1.700951436542261E9, 0.0, 2023-11-25 17:30:36.542
144.0, 35609.92754816145, 52219.978239533695, 17060.70656308014, -23848.663133223432, 11460.07465840276, 41234.25230196146, 12683.899722564189, 30995.85694025242, -0.062, 0.984, -0.022, 192.0, 0.0, 0.0, 0.0, 0.0, 0.0, 0.0, 0.0, 0.0, 0.0, 1.700951436546212E9, 0.0, 2023-11-25 17:30:36.546
145.0, 35402.39160089393, 52100.418758442254, 17037.3713418688, -24002.621949031585, 11272.163542766993, 40712.11555148549, 12691.991054057009, 30977.640268521343, -0.062, 0.984, -0.022, 192.0, 0.0, 0.0, 0.0, 0.0, 0.0, 0.0, 0.0, 0.0, 0.0, 1.700951436550207E9, 0.0, 2023-11-25 17:30:36.550
146.0, 35399.19530143682, 52164.14358188434, 17015.4666323026, -23947.74841639381, 11237.473635372358, 40614.08080030451, 12697.713100637568, 31000.774324032587, -0.062, 0.984, -0.022, 192.0, 0.0, 0.0, 0.0, 0.0, 0.0, 0.0, 0.0, 0.0, 0.0, 1.70095143655326E9, 0.0, 2023-11-25 17:30:36.553
147.0, 35450.894886361944, 52232.78578910659, 17014.349045079834, -23921.68628235892, 11230.030504468741, 40654.15747811288, 12695.70144363659, 30996.03575420806, -0.058, 0.984, -0.022, 192.0, 254.0, 48.0, 30.0, 192.0, 255.0, 80.0, 0.0, 0.0, 0.0, 1.700951436557196E9, 0.0, 2023-11-25 17:30:36.557
148.0, 35606.53008300425, 52242.03941131108, 17054.47042637711, -23827.89836262445, 11459.046478157816, 41188.498281061446, 12701.110565794776, 31014.073611983495, -0.058, 0.984, -0.022, 192.0, 0.0, 0.0, 0.0, 0.0, 0.0, 0.0, 0.0, 0.0, 0.0, 1.700951436561156E9, 0.0, 2023-11-25 17:30:36.561
149.0, 35416.96493827879, 52108.01835155706, 17029.347065609345, -23990.59671051463, 11290.201400542426, 40841.80037281518, 12699.389481471717, 30981.864748223397, -0.058, 0.984, -0.022, 192.0, 0.0, 0.0, 0.0, 0.0, 0.0, 0.0, 0.0, 0.0, 0.0, 1.700951436566238E9, 0.0, 2023-11-25 17:30:36.566
150.0, 35378.09525467101, 52141.83654091794, 17007.17413510968, -23958.36549501008, 11242.03339124124, 40591.59494538247, 12704.865658863266, 31006.3175566575, -0.058, 0.984, -0.022, 192.0, 0.0, 0.0, 0.0, 0.0, 0.0, 0.0, 0.0, 0.0, 0.0, 1.700951436570241E9, 0.0, 2023-11-25 17:30:36.570
151.0, 35412.96397602129, 52210.94813477375, 16992.131411091257, -23946.854346615597, 11192.211352850361, 40631.13518132391, 12697.444879704104, 30994.717001285197, -0.058, 0.984, -0.022, 192.0, 0.0, 0.0, 0.0, 0.0, 0.0, 0.0, 0.0, 0.0, 0.0, 1.700951436574437E9, 0.0, 2023-11-25 17:30:36.574
152.0, 35586.458216483385, 52242.486446200186, 17043.272202405, -23839.52126974121, 11430.59270746621, 41072.85035524969, 12707.167888542162, 31017.60518760743, -0.058, 0.984, -0.022, 192.0, 0.0, 0.0, 0.0, 0.0, 0.0, 0.0, 0.0, 0.0, 0.0, 1.700951436578197E9, 0.0, 2023-11-25 17:30:36.578
153.0, 35458.11449982101, 52117.67430516175, 17025.860193474316, -23979.040858631237, 11314.229525831883, 40960.91281901751, 12691.991054057009, 30981.84239647894, -0.058, 0.984, -0.022, 192.0, 0.0, 0.0, 0.0, 0.0, 0.0, 0.0, 0.0, 0.0, 0.0, 1.700951436581964E9, 0.0, 2023-11-25 17:30:36.581
154.0, 35369.243963866706, 52118.0989883064, 17007.285893831955, -23984.51703602279, 11237.875966772554, 40541.839962224956, 12694.8967808362, 30988.27969888207, -0.058, 0.984, -0.022, 192.0, 0.0, 0.0, 0.0, 0.0, 0.0, 0.0, 0.0, 0.0, 0.0, 1.700951436585223E9, 0.0, 2023-11-25 17:30:36.585
155.0, 35395.68607755734, 52191.27859965308, 16983.190713309137, -23968.64729745952, 11175.134620086506, 40610.213948513745, 12673.595568370292, 30967.31376258299, -0.058, 0.984, -0.022, 192.0, 0.0, 0.0, 0.0, 0.0, 0.0, 0.0, 0.0, 0.0, 0.0, 1.700951436590008E9, 0.0, 2023-11-25 17:30:36.590
156.0, 35556.819803335646, 52235.557405419044, 17028.65416153123, -23868.57853753311, 11383.899913299074, 40941.9138362305, 12671.561559624859, 30976.612088276397, -0.058, 0.984, -0.022, 192.0, 0.0, 0.0, 0.0, 0.0, 0.0, 0.0, 0.0, 0.0, 0.0, 1.700951436594262E9, 0.0, 2023-11-25 17:30:36.594
157.0, 35499.353468341054, 52135.868625148374, 17020.42871957168, -23957.292611276225, 11345.141988413572, 41067.910619725066, 12655.758876294956, 30947.577172228954, -0.058, 0.982, -0.026000000000000002, 192.0, 254.0, 48.0, 30.0, 176.0, 255.0, 48.0, 0.0, 0.0, 0.0, 1.700951436598384E9, 0.0, 2023-11-25 17:30:36.598
158.0, 35368.28283885513, 52107.59366841241, 17005.1624781087, -24001.884341464563, 11235.394923138014, 40521.32106081499, 12667.225321200529, 30968.49840503912, -0.058, 0.982, -0.026000000000000002, 192.0, 0.0, 0.0, 0.0, 0.0, 0.0, 0.0, 0.0, 0.0, 0.0, 1.700951436602268E9, 0.0, 2023-11-25 17:30:36.602
159.0, 35402.23513868274, 52197.82766077849, 16991.818486668883, -23958.656067687996, 11189.037405137708, 40604.80482635556, 12663.447876387583, 30988.749085515632, -0.058, 0.982, -0.026000000000000002, 192.0, 0.0, 0.0, 0.0, 0.0, 0.0, 0.0, 0.0, 0.0, 0.0, 1.700951436606288E9, 0.0, 2023-11-25 17:30:36.606
160.0, 35546.18037297492, 52260.47960048671, 17038.824205258396, -23866.209252620847, 11359.380049631602, 40824.32130865113, 12679.854056817778, 31006.250501424136, -0.058, 0.982, -0.026000000000000002, 192.0, 0.0, 0.0, 0.0, 0.0, 0.0, 0.0, 0.0, 0.0, 0.0, 1.700951436609278E9, 0.0, 2023-11-25 17:30:36.609
161.0, 35562.38538770502, 52188.931666485274, 17047.787254784973, -23901.614415838056, 11413.82889912473, 41164.2689900719, 12668.767591567945, 30983.004687190616, -0.058, 0.982, -0.026000000000000002, 192.0, 0.0, 0.0, 0.0, 0.0, 0.0, 0.0, 0.0, 0.0, 0.0, 1.700951436613361E9, 0.0, 2023-11-25 17:30:36.613
162.0, 35376.97766744824, 52114.92504059375, 17025.547269051942, -23998.553931540722, 11258.66308911599, 40543.89632271485, 12681.910417307667, 30973.79576847503, -0.058, 0.982, -0.026000000000000002, 192.0, 0.0, 0.0, 0.0, 0.0, 0.0, 0.0, 0.0, 0.0, 0.0, 1.700951436617352E9, 0.0, 2023-11-25 17:30:36.617
163.0, 35398.59180433652, 52193.64788456534, 16999.64159722824, -23950.78825363973, 11209.869230970053, 40615.51131194965, 12678.200027728086, 30981.395361589835, -0.058, 0.982, -0.026000000000000002, 192.0, 0.0, 0.0, 0.0, 0.0, 0.0, 0.0, 0.0, 0.0, 0.0, 1.700951436621396E9, 0.0, 2023-11-25 17:30:36.621
164.0, 35507.89183472298, 52262.71477493224, 17031.71635052161, -23886.61639530854, 11313.24604907585, 40728.499380171226, 12689.487658678016, 30990.93955647225, -0.058, 0.982, -0.026000000000000002, 192.0, 0.0, 0.0, 0.0, 0.0, 0.0, 0.0, 0.0, 0.0, 0.0, 1.700951436626377E9, 0.0, 2023-11-25 17:30:36.626
165.0, 35596.0024113658, 52222.30282095705, 17058.627850845798, -23862.074179896616, 11454.84435020022, 41213.48753136248, 12686.626635387736, 30992.526530328578, -0.058, 0.982, -0.026000000000000002, 192.0, 0.0, 0.0, 0.0, 0.0, 0.0, 0.0, 0.0, 0.0, 0.0, 1.700951436630487E9, 0.0, 2023-11-25 17:30:36.630
166.0, 35385.270164641166, 52109.091235290914, 17030.017617943005, -24002.241969375846, 11268.453153187413, 40619.579329440516, 12688.504181921982, 30974.667486508788, -0.058, 0.982, -0.026000000000000002, 192.0, 0.0, 0.0, 0.0, 0.0, 0.0, 0.0, 0.0, 0.0, 0.0, 1.700951436634331E9, 0.0, 2023-11-25 17:30:36.634
167.0, 35396.82601652456, 52178.47105008019, 17003.59785599683, -23945.759111137286, 11231.282202158238, 40622.90973936436, 12682.111583007763, 30992.772399517587, -0.064, 0.984, -0.024, 192.0, 254.0, 0.0, 30.0, 192.0, 255.0, 64.0, 0.0, 0.0, 0.0, 1.700951436637359E9, 0.0, 2023-11-25 17:30:36.637
168.0, 35478.20871808633, 52250.64483292637, 17022.46272831711, -23902.173209449436, 11273.079964289662, 40678.230306891244, 12689.599417400292, 30997.578024575476, -0.064, 0.984, -0.024, 192.0, 0.0, 0.0, 0.0, 0.0, 0.0, 0.0, 0.0, 0.0, 0.0, 1.700951436641351E9, 0.0, 2023-11-25 17:30:36.641
169.0, 35614.9566906639, 52236.540882175075, 17055.56566185542, -23836.839060406575, 11471.406992841601, 41226.40683965765, 12688.951216811087, 31007.591606091453, -0.064, 0.984, -0.024, 192.0, 0.0, 0.0, 0.0, 0.0, 0.0, 0.0, 0.0, 0.0, 0.0, 1.70095143664535E9, 0.0, 2023-11-25 17:30:36.645
170.0, 35408.739496319235, 52108.800662613, 17030.732873765573, -23996.743440239843, 11282.735917894355, 40734.2661302407, 12689.55471391138, 30970.040675406537, -0.064, 0.984, -0.024, 192.0, 0.0, 0.0, 0.0, 0.0, 0.0, 0.0, 0.0, 0.0, 0.0, 1.70095143664937E9, 0.0, 2023-11-25 17:30:36.649
171.0, 35396.69190605783, 52166.60227377442, 17011.75624272302, -23942.562811680178, 11248.493045388825, 40606.6823728898, 12694.472097691549, 30991.27483263908, -0.064, 0.984, -0.024, 192.0, 0.0, 0.0, 0.0, 0.0, 0.0, 0.0, 0.0, 0.0, 0.0, 1.70095143665337E9, 0.0, 2023-11-25 17:30:36.653
172.0, 35446.692758404344, 52239.29014674308, 17012.382091567768, -23919.71932884685, 11234.679667315444, 40644.03213787462, 12694.98618781402, 30994.359373373914, -0.064, 0.984, -0.024, 192.0, 0.0, 0.0, 0.0, 0.0, 0.0, 0.0, 0.0, 0.0, 0.0, 1.700951436658414E9, 0.0, 2023-11-25 17:30:36.658
173.0, 35611.89450167352, 52256.41158299585, 17057.532615367487, -23821.95279859934, 11469.75296375191, 41177.456519300526, 12701.758766383979, 31023.32723418799, -0.064, 0.984, -0.024, 192.0, 0.0, 0.0, 0.0, 0.0, 0.0, 0.0, 0.0, 0.0, 0.0, 1.700951436662461E9, 0.0, 2023-11-25 17:30:36.662
174.0, 35436.88034258847, 52123.999848842606, 17031.045798187948, -23983.980594155862, 11307.434595517469, 40880.535945956224, 12690.94052206761, 30983.786998246553, -0.064, 0.984, -0.024, 192.0, 0.0, 0.0, 0.0, 0.0, 0.0, 0.0, 0.0, 0.0, 0.0, 1.700951436665505E9, 0.0, 2023-11-25 17:30:36.665
175.0, 35391.99803972221, 52154.01824164608, 17013.499678790533, -23957.98551535434, 11257.053763515207, 40589.65034361486, 12692.303978479384, 31004.171789189793, -0.064, 0.984, -0.024, 192.0, 0.0, 0.0, 0.0, 0.0, 0.0, 0.0, 0.0, 0.0, 0.0, 1.700951436669512E9, 0.0, 2023-11-25 17:30:36.669
176.0, 35433.706394875815, 52230.729428616694, 17005.900085675727, -23940.48409944583, 11212.551440304691, 40630.688146434804, 12687.476001677038, 30996.259271652612, -0.064, 0.984, -0.024, 192.0, 0.0, 0.0, 0.0, 0.0, 0.0, 0.0, 0.0, 0.0, 0.0, 1.700951436673445E9, 0.0, 2023-11-25 17:30:36.673
177.0, 35606.9547661489, 52263.67589994382, 17053.777522298995, -23837.844888907064, 11445.903652418096, 41061.965055699955, 12694.650911647192, 31005.624652579387, -0.066, 0.984, -0.024, 192.0, 253.0, 240.0, 30.0, 192.0, 255.0, 64.0, 0.0, 0.0, 0.0, 1.700951436677432E9, 0.0, 2023-11-25 17:30:36.677
178.0, 35485.18246235639, 52134.818093158974, 17030.352894109834, -23973.497626006323, 11335.24016561987, 40993.7251798779, 12672.74620208099, 30955.087358365938, -0.066, 0.984, -0.024, 192.0, 0.0, 0.0, 0.0, 0.0, 0.0, 0.0, 0.0, 0.0, 0.0, 1.700951436681603E9, 0.0, 2023-11-25 17:30:36.681
179.0, 35391.72981878875, 52132.33704952444, 17014.952542180126, -23977.900919664018, 11254.729182091854, 40528.65243299633, 12681.396327185194, 30974.175748130772, -0.066, 0.984, -0.024, 192.0, 0.0, 0.0, 0.0, 0.0, 0.0, 0.0, 0.0, 0.0, 0.0, 1.700951436686541E9, 0.0, 2023-11-25 17:30:36.686
180.0, 35426.30796746111, 52216.200794720746, 16996.490001260045, -23948.12839604955, 11198.112213386561, 40597.495805918676, 12674.400231170683, 30980.166015644794, -0.066, 0.984, -0.024, 192.0, 0.0, 0.0, 0.0, 0.0, 0.0, 0.0, 0.0, 0.0, 0.0, 1.70095143669062E9, 0.0, 2023-11-25 17:30:36.690
181.0, 35585.49709147181, 52265.44168775579, 17040.724103537097, -23850.227755335305, 11398.316788472746, 40912.16366436049, 12682.335100452317, 31001.489579855155, -0.066, 0.984, -0.024, 192.0, 0.0, 0.0, 0.0, 0.0, 0.0, 0.0, 0.0, 0.0, 0.0, 1.700951436693486E9, 0.0, 2023-11-25 17:30:36.693
182.0, 35537.77611705972, 52167.87632320837, 17028.251830131034, -23935.901991832496, 11371.092363726184, 41091.737579314424, 12661.525626364426, 30964.922125926274, -0.066, 0.984, -0.024, 192.0, 0.0, 0.0, 0.0, 0.0, 0.0, 0.0, 0.0, 0.0, 0.0, 1.700951436697822E9, 0.0, 2023-11-25 17:30:36.697
183.0, 35389.807568765595, 52127.911404122286, 17007.978797910073, -23996.296405350735, 11244.246213942315, 40511.10631359891, 12667.337079922805, 30964.56449801499, -0.066, 0.984, -0.024, 192.0, 0.0, 0.0, 0.0, 0.0, 0.0, 0.0, 0.0, 0.0, 0.0, 1.70095143670162E9, 0.0, 2023-11-25 17:30:36.701
184.0, 35421.99408078123, 52217.49719589916, 16991.259693057502, -23948.195451282914, 11195.944094174398, 40591.66200061584, 12666.93474852261, 30982.535300557054, -0.066, 0.984, -0.024, 192.0, 0.0, 0.0, 0.0, 0.0, 0.0, 0.0, 0.0, 0.0, 0.0, 1.700951436705571E9, 0.0, 2023-11-25 17:30:36.705
185.0, 35551.47773641083, 52275.00823438266, 17031.001094699037, -23862.923546185917, 11345.991354702874, 40793.36414258053, 12684.302053964384, 31003.344774644946, -0.066, 0.984, -0.024, 192.0, 0.0, 0.0, 0.0, 0.0, 0.0, 0.0, 0.0, 0.0, 0.0, 1.700951436709561E9, 0.0, 2023-11-25 17:30:36.709
186.0, 35579.03743732422, 52204.98021900418, 17041.819339015405, -23885.5882150636, 11414.477099713935, 41167.62175174019, 12676.41188817166, 30986.089227925448, -0.066, 0.984, -0.024, 192.0, 0.0, 0.0, 0.0, 0.0, 0.0, 0.0, 0.0, 0.0, 0.0, 1.70095143671484E9, 0.0, 2023-11-25 17:30:36.714
187.0, 35385.35957161899, 52118.121340050864, 17016.718329992098, -23993.14480938254, 11248.649507600012, 40545.97503494919, 12682.804487085878, 30970.97944867366, -0.064, 0.984, -0.022, 192.0, 254.0, 0.0, 30.0, 192.0, 255.0, 80.0, 0.0, 0.0, 0.0, 1.700951436719582E9, 0.0, 2023-11-25 17:30:36.719
188.0, 35408.87360678597, 52196.53125960008, 16996.69116696014, -23935.723177876855, 11207.388187335515, 40607.956422323754, 12680.993995784998, 30988.972602960184, -0.064, 0.984, -0.022, 192.0, 0.0, 0.0, 0.0, 0.0, 0.0, 0.0, 0.0, 0.0, 0.0, 1.700951436722625E9, 0.0, 2023-11-25 17:30:36.722
189.0, 35517.592491816584, 52265.285225544605, 17031.671647032697, -23870.165511389438, 11299.52207798029, 40707.06405723859, 12697.08725179282, 31003.23301592267, -0.064, 0.984, -0.022, 192.0, 0.0, 0.0, 0.0, 0.0, 0.0, 0.0, 0.0, 0.0, 0.0, 1.700951436726615E9, 0.0, 2023-11-25 17:30:36.726
190.0, 35615.58253950865, 52228.60601289344, 17056.75030431155, -23839.856545908042, 11448.608213497188, 41212.3252406508, 12690.18056275613, 30997.823893764486, -0.064, 0.984, -0.022, 192.0, 0.0, 0.0, 0.0, 0.0, 0.0, 0.0, 0.0, 0.0, 0.0, 1.700951436729661E9, 0.0, 2023-11-25 17:30:36.729
191.0, 35403.91151951689, 52112.667514403765, 17027.4695190751, -23990.50730353681, 11254.393905925024, 40625.99428009919, 12689.755879611479, 30964.69860848172, -0.064, 0.984, -0.022, 192.0, 0.0, 0.0, 0.0, 0.0, 0.0, 0.0, 0.0, 0.0, 0.0, 1.700951436733715E9, 0.0, 2023-11-25 17:30:36.733
192.0, 35414.416839410886, 52184.32720712748, 17007.397652554235, -23932.30336097519, 11220.5980683086, 40596.40057044036, 12692.929827324133, 30990.76074251661, -0.064, 0.984, -0.022, 192.0, 0.0, 0.0, 0.0, 0.0, 0.0, 0.0, 0.0, 0.0, 0.0, 1.700951436737668E9, 0.0, 2023-11-25 17:30:36.737
193.0, 35481.13679660998, 52245.72744914621, 17012.85147820133, -23902.195561193894, 11237.808911539187, 40648.97187339925, 12693.063937790865, 30986.290393625546, -0.064, 0.984, -0.022, 192.0, 0.0, 0.0, 0.0, 0.0, 0.0, 0.0, 0.0, 0.0, 0.0, 1.700951436741718E9, 0.0, 2023-11-25 17:30:36.741
194.0, 35620.94695817792, 52236.742047875174, 17048.3236966519, -23832.279304537693, 11439.01931512586, 41179.35641757923, 12694.427394202638, 30997.42156236429, -0.064, 0.984, -0.022, 192.0, 0.0, 0.0, 0.0, 0.0, 0.0, 0.0, 0.0, 0.0, 0.0, 1.700951436746723E9, 0.0, 2023-11-25 17:30:36.746
195.0, 35413.96980452178, 52099.43528168622, 17013.499678790533, -24000.386774586055, 11245.833187798642, 40725.280728969665, 12690.091155778307, 30970.55476552901, -0.064, 0.984, -0.022, 192.0, 0.0, 0.0, 0.0, 0.0, 0.0, 0.0, 0.0, 0.0, 0.0, 1.70095143674973E9, 0.0, 2023-11-25 17:30:36.749
196.0, 35395.395504879416, 52154.5099800241, 16991.483210502054, -23956.7561694093, 11205.689454756912, 40571.56778235052, 12692.952179068587, 30994.717001285197, -0.064, 0.984, -0.022, 192.0, 0.0, 0.0, 0.0, 0.0, 0.0, 0.0, 0.0, 0.0, 0.0, 1.700951436753741E9, 0.0, 2023-11-25 17:30:36.753
197.0, 35447.340958993555, 52236.49617868617, 16991.773783179975, -23931.006959796785, 11187.40572779247, 40609.61045141345, 12689.55471391138, 30988.011477948607, -0.056, 0.984, -0.02, 192.0, 254.0, 64.0, 30.0, 192.0, 255.0, 96.0, 0.0, 0.0, 0.0, 1.700951436757741E9, 0.0, 2023-11-25 17:30:36.757
198.0, 35614.1073243746, 52255.11518181744, 17035.963181968116, -23833.262781293724, 11420.668532928054, 41110.02130627886, 12689.934693567122, 31008.530379358577, -0.056, 0.984, -0.02, 192.0, 0.0, 0.0, 0.0, 0.0, 0.0, 0.0, 0.0, 0.0, 0.0, 1.700951436761761E9, 0.0, 2023-11-25 17:30:36.761
199.0, 35449.19615378334, 52121.71997090817, 17012.449146801133, -23990.395544814535, 11269.391926454537, 40843.09677399359, 12674.98137652652, 30968.677218994766, -0.056, 0.984, -0.02, 192.0, 0.0, 0.0, 0.0, 0.0, 0.0, 0.0, 0.0, 0.0, 0.0, 1.700951436765784E9, 0.0, 2023-11-25 17:30:36.765
200.0, 35399.597632837016, 52152.96770965668, 17000.64742572873, -23965.450998002412, 11219.256963641283, 40509.38522927585, 12679.205856228573, 30979.026076677572, -0.056, 0.984, -0.02, 192.0, 0.0, 0.0, 0.0, 0.0, 0.0, 0.0, 0.0, 0.0, 0.0, 1.700951436769804E9, 0.0, 2023-11-25 17:30:36.769
201.0, 35437.886171088954, 52228.11427451543, 16986.968158122083, -23945.133262292537, 11169.680794439411, 40565.84573576996, 12663.671393832135, 30959.46830027918, -0.056, 0.984, -0.02, 192.0, 0.0, 0.0, 0.0, 0.0, 0.0, 0.0, 0.0, 0.0, 0.0, 1.700951436773788E9, 0.0, 2023-11-25 17:30:36.773
202.0, 35607.46885627137, 52267.67686220132, 17039.159481425224, -23837.53196448469, 11400.820183851742, 40978.25777271483, 12670.734545080013, 30986.625669792378, -0.056, 0.984, -0.02, 192.0, 0.0, 0.0, 0.0, 0.0, 0.0, 0.0, 0.0, 0.0, 0.0, 1.700951436778789E9, 0.0, 2023-11-25 17:30:36.778
203.0, 35505.433142832895, 52153.8617794349, 17025.99430394105, -23954.230422285847, 11318.05167413374, 40963.34915916314, 12660.296280419385, 30967.60433526091, -0.056, 0.984, -0.02, 192.0, 0.0, 0.0, 0.0, 0.0, 0.0, 0.0, 0.0, 0.0, 0.0, 1.700951436781803E9, 0.0, 2023-11-25 17:30:36.781
204.0, 35399.307060159095, 52140.89776765082, 17007.554114765422, -23974.391695784536, 11229.047027712706, 40494.16369130179, 12670.019289257443, 30981.998858690127, -0.056, 0.984, -0.02, 192.0, 0.0, 0.0, 0.0, 0.0, 0.0, 0.0, 0.0, 0.0, 0.0, 1.700951436785825E9, 0.0, 2023-11-25 17:30:36.785
205.0, 35431.20299949682, 52223.04042852407, 16991.751431435518, -23940.998189568305, 11173.88292239701, 40573.11005271793, 12666.64417584469, 30986.290393625546, -0.056, 0.984, -0.02, 192.0, 0.0, 0.0, 0.0, 0.0, 0.0, 0.0, 0.0, 0.0, 0.0, 1.700951436789787E9, 0.0, 2023-11-25 17:30:36.789
206.0, 35581.831405381134, 52275.23175182722, 17036.65608604623, -23845.19861283286, 11366.309090412748, 40858.251256734286, 12681.664548118657, 31002.383649633368, -0.056, 0.984, -0.02, 192.0, 0.0, 0.0, 0.0, 0.0, 0.0, 0.0, 0.0, 0.0, 0.0, 1.700951436793827E9, 0.0, 2023-11-25 17:30:36.793
207.0, 35548.080271253624, 52179.94626521424, 17029.637638287262, -23919.96519803586, 11357.278985652803, 41071.15162267109, 12663.7384490655, 30967.626687005366, -0.06, 0.982, -0.02, 192.0, 254.0, 32.0, 30.0, 176.0, 255.0, 96.0, 0.0, 0.0, 0.0, 1.700951436797887E9, 0.0, 2023-11-25 17:30:36.797
208.0, 35387.68415304234, 52125.944450610215, 17007.285893831955, -23989.322661080678, 11223.07911194314, 40478.96450507218, 12666.13008572222, 30963.446910792223, -0.06, 0.982, -0.02, 192.0, 0.0, 0.0, 0.0, 0.0, 0.0, 0.0, 0.0, 0.0, 0.0, 1.700951436801874E9, 0.0, 2023-11-25 17:30:36.801
209.0, 35415.042688255635, 52211.88690804088, 16988.465725000588, -23940.21587851237, 11176.989814876297, 40568.058558471035, 12663.961966510054, 30982.93763195725, -0.06, 0.982, -0.02, 192.0, 0.0, 0.0, 0.0, 0.0, 0.0, 0.0, 0.0, 0.0, 0.0, 1.700951436804938E9, 0.0, 2023-11-25 17:30:36.804
210.0, 35543.811088062655, 52273.86829541544, 17028.85532723133, -23857.87205193902, 11321.940877668963, 40746.87251411349, 12684.74908885349, 31011.167885204304, -0.06, 0.982, -0.02, 192.0, 0.0, 0.0, 0.0, 0.0, 0.0, 0.0, 0.0, 0.0, 0.0, 1.700951436811861E9, 0.0, 2023-11-25 17:30:36.811
211.0, 35588.11224557307, 52208.511794628124, 17042.46753960461, -23871.596023034577, 11409.73852988941, 41148.511010230905, 12676.143667238197, 30991.3642396169, -0.06, 0.982, -0.02, 192.0, 0.0, 0.0, 0.0, 0.0, 0.0, 0.0, 0.0, 0.0, 0.0, 1.70095143681588E9, 0.0, 2023-11-25 17:30:36.815
212.0, 35391.01456296618, 52116.020276072064, 17015.93601893616, -23989.83675120315, 11239.306478417693, 40519.77879044757, 12679.496428906492, 30970.197137617724, -0.06, 0.982, -0.02, 192.0, 0.0, 0.0, 0.0, 0.0, 0.0, 0.0, 0.0, 0.0, 0.0, 1.70095143681892E9, 0.0, 2023-11-25 17:30:36.818
213.0, 35407.979537007755, 52194.05021596554, 16992.26552155799, -23937.421910455458, 11196.45818429687, 40569.60082883845, 12676.36718468275, 30992.660640795308, -0.06, 0.982, -0.02, 192.0, 0.0, 0.0, 0.0, 0.0, 0.0, 0.0, 0.0, 0.0, 0.0, 1.700951436821919E9, 0.0, 2023-11-25 17:30:36.821
214.0, 35503.823817232114, 52260.74782142018, 17016.673626503187, -23881.207273150358, 11275.18102826846, 40671.86005972148, 12690.739356367512, 31006.228149679682, -0.06, 0.982, -0.02, 192.0, 0.0, 0.0, 0.0, 0.0, 0.0, 0.0, 0.0, 0.0, 0.0, 1.700951436825937E9, 0.0, 2023-11-25 17:30:36.825
215.0, 35610.26282432828, 52227.443722181764, 17041.215841915113, -23839.901249396953, 11436.605326724688, 41191.716932263014, 12685.486696420516, 31005.42348687929, -0.06, 0.982, -0.02, 192.0, 0.0, 0.0, 0.0, 0.0, 0.0, 0.0, 0.0, 0.0, 0.0, 1.700951436828938E9, 0.0, 2023-11-25 17:30:36.828
216.0, 35394.59084207903, 52104.911459077775, 17010.437489800155, -23995.42468731698, 11241.6534115855, 40608.64932640187, 12681.731603352024, 30968.49840503912, -0.062, 0.988, -0.022, 192.0, 254.0, 16.0, 30.0, 224.0, 255.0, 80.0, 0.0, 0.0, 0.0, 1.700951436832963E9, 0.0, 2023-11-25 17:30:36.832
217.0, 35404.73853406173, 52179.83450649196, 16994.88067565926, -23933.666817386966, 11214.093710672107, 40550.69125302926, 12684.346757453295, 30992.884158239864, -0.062, 0.988, -0.022, 192.0, 0.0, 0.0, 0.0, 0.0, 0.0, 0.0, 0.0, 0.0, 0.0, 1.700951436836952E9, 0.0, 2023-11-25 17:30:36.836
218.0, 35472.19609882785, 52250.801295137564, 17004.514277519498, -23899.759221048265, 11232.288030658727, 40607.12940777891, 12685.978434798531, 30996.147512930336, -0.062, 0.988, -0.022, 192.0, 0.0, 0.0, 0.0, 0.0, 0.0, 0.0, 0.0, 0.0, 0.0, 1.700951436841927E9, 0.0, 2023-11-25 17:30:36.841
219.0, 35617.638899998536, 52247.82851312501, 17042.668705304706, -23822.019853832706, 11444.517844261867, 41147.952216619524, 12685.598455142792, 31013.581873605475, -0.062, 0.988, -0.022, 192.0, 0.0, 0.0, 0.0, 0.0, 0.0, 0.0, 0.0, 0.0, 0.0, 1.700951436845936E9, 0.0, 2023-11-25 17:30:36.845
220.0, 35416.31673768959, 52113.18160452624, 17013.723196235085, -23987.042783146237, 11258.551330393711, 40723.045554524135, 12679.541132395403, 30973.818120219486, -0.062, 0.988, -0.022, 192.0, 0.0, 0.0, 0.0, 0.0, 0.0, 0.0, 0.0, 0.0, 0.0, 1.70095143685021E9, 0.0, 2023-11-25 17:30:36.850
221.0, 35397.8541967695, 52167.38458483036, 17000.200390839625, -23939.590029667623, 11224.643734055011, 40535.045031910544, 12687.878333077233, 31000.304937399025, -0.062, 0.988, -0.022, 192.0, 0.0, 0.0, 0.0, 0.0, 0.0, 0.0, 0.0, 0.0, 0.0, 1.700951436853979E9, 0.0, 2023-11-25 17:30:36.853
222.0, 35443.004720569224, 52239.1783880208, 16994.098364603327, -23916.120697989547, 11197.68753024191, 40586.52109939112, 12685.419641187149, 30998.27092865359, -0.062, 0.988, -0.022, 192.0, 0.0, 0.0, 0.0, 0.0, 0.0, 0.0, 0.0, 0.0, 0.0, 1.700951436857008E9, 0.0, 2023-11-25 17:30:36.857
223.0, 35610.776914450755, 52260.68076618681, 17041.394655870754, -23817.01306307472, 11432.492605744912, 41076.22546866244, 12686.380766198727, 31011.726678815685, -0.062, 0.988, -0.022, 192.0, 0.0, 0.0, 0.0, 0.0, 0.0, 0.0, 0.0, 0.0, 0.0, 1.700951436861026E9, 0.0, 2023-11-25 17:30:36.861
224.0, 35455.655807930925, 52130.32539252346, 17017.3665305813, -23970.860120160596, 11288.010929585807, 40871.19291677391, 12668.544074123392, 30967.872556194376, -0.062, 0.988, -0.022, 192.0, 0.0, 0.0, 0.0, 0.0, 0.0, 0.0, 0.0, 0.0, 0.0, 1.700951436865052E9, 0.0, 2023-11-25 17:30:36.865
225.0, 35396.69190605783, 52156.47693353617, 17006.727100220574, -23951.771730395765, 11234.143225448517, 40510.25694730961, 12675.316652693351, 30987.318573870492, -0.062, 0.988, -0.022, 192.0, 0.0, 0.0, 0.0, 0.0, 0.0, 0.0, 0.0, 0.0, 0.0, 1.700951436869009E9, 0.0, 2023-11-25 17:30:36.869
226.0, 35438.42261295588, 52240.29597524357, 16997.585236738352, -23925.329616705134, 11188.88094292652, 40567.11978520391, 12669.214626457051, 30978.243765621635, -0.058, 0.984, -0.028, 192.0, 254.0, 48.0, 30.0, 192.0, 255.0, 32.0, 0.0, 0.0, 0.0, 1.700951436874012E9, 0.0, 2023-11-25 17:30:36.874
227.0, 35609.97225165037, 52285.692368232296, 17050.98355424208, -23816.18604852987, 11416.511108459366, 40944.21606590939, 12680.234036473517, 30998.76266703161, -0.058, 0.984, -0.028, 192.0, 0.0, 0.0, 0.0, 0.0, 0.0, 0.0, 0.0, 0.0, 0.0, 1.700951436878267E9, 0.0, 2023-11-25 17:30:36.878
228.0, 35516.72077378282, 52166.08818365195, 17031.291667376958, -23931.297532474702, 11341.208081389437, 40981.990514038866, 12655.513007105948, 30955.3555792994, -0.058, 0.984, -0.028, 192.0, 0.0, 0.0, 0.0, 0.0, 0.0, 0.0, 0.0, 0.0, 0.0, 1.700951436882091E9, 0.0, 2023-11-25 17:30:36.882
229.0, 35397.29540315812, 52144.25052931911, 17008.98462641056, -23960.26539328878, 11244.22386219786, 40487.34640924292, 12660.609204841758, 30959.825928190465, -0.058, 0.984, -0.028, 192.0, 0.0, 0.0, 0.0, 0.0, 0.0, 0.0, 0.0, 0.0, 0.0, 1.700951436885052E9, 0.0, 2023-11-25 17:30:36.885
230.0, 35420.831790069555, 52224.605050635946, 16989.672719201175, -23926.961294050372, 11188.210390592862, 40574.38410215189, 12657.368201895739, 30966.08441663795, -0.058, 0.984, -0.028, 192.0, 0.0, 0.0, 0.0, 0.0, 0.0, 0.0, 0.0, 0.0, 0.0, 1.700951436889321E9, 0.0, 2023-11-25 17:30:36.889
231.0, 35568.93444883042, 52280.01502514065, 17037.639562802266, -23825.707891667833, 11374.176904461016, 40848.01415777375, 12676.70246084958, 31003.99297523415, -0.058, 0.984, -0.028, 192.0, 0.0, 0.0, 0.0, 0.0, 0.0, 0.0, 0.0, 0.0, 0.0, 1.70095143689312E9, 0.0, 2023-11-25 17:30:36.893
232.0, 35552.349454444586, 52193.60318107643, 17038.600687813843, -23885.34234587459, 11392.035948280805, 41107.98729753343, 12668.655832845669, 30987.117408170394, -0.058, 0.984, -0.028, 192.0, 0.0, 0.0, 0.0, 0.0, 0.0, 0.0, 0.0, 0.0, 0.0, 1.70095143689727E9, 0.0, 2023-11-25 17:30:36.897
233.0, 35389.315830387575, 52132.64997394681, 17019.825222471383, -23961.718256678374, 11256.696135603921, 40513.29678455553, 12683.78796384191, 30991.632460550365, -0.058, 0.984, -0.028, 192.0, 0.0, 0.0, 0.0, 0.0, 0.0, 0.0, 0.0, 0.0, 0.0, 1.700951436902116E9, 0.0, 2023-11-25 17:30:36.902
234.0, 35416.361441178495, 52213.31741968601, 16997.02644312697, -23916.388918923014, 11208.014036180262, 40599.75333210866, 12682.022176029943, 31002.629518822378, -0.058, 0.984, -0.028, 192.0, 0.0, 0.0, 0.0, 0.0, 0.0, 0.0, 0.0, 0.0, 0.0, 1.700951436906195E9, 0.0, 2023-11-25 17:30:36.906
235.0, 35535.87621878102, 52273.75653669317, 17030.375245854288, -23842.29288605367, 11334.43550281948, 40762.2728660432, 12694.315635480361, 31010.318518915003, -0.058, 0.984, -0.028, 192.0, 0.0, 0.0, 0.0, 0.0, 0.0, 0.0, 0.0, 0.0, 0.0, 1.700951436910173E9, 0.0, 2023-11-25 17:30:36.910
236.0, 35589.542757218216, 52216.33490518748, 17042.266373904513, -23847.679656467397, 11432.090274344717, 41193.30390611934, 12680.681071362624, 30986.335097114457, -0.06, 0.992, -0.026000000000000002, 192.0, 254.0, 32.0, 31.0, 0.0, 255.0, 48.0, 0.0, 0.0, 0.0, 1.700951436913133E9, 0.0, 2023-11-25 17:30:36.913
237.0, 35385.56073731908, 52117.31667725047, 17012.85147820133, -23974.190530084437, 11254.528016391758, 40564.43757586928, 12684.570274897847, 30972.901698696816, -0.06, 0.992, -0.026000000000000002, 192.0, 0.0, 0.0, 0.0, 0.0, 0.0, 0.0, 0.0, 0.0, 0.0, 1.700951436917164E9, 0.0, 2023-11-25 17:30:36.917
238.0, 35408.270109685676, 52198.05117822304, 16993.919550647683, -23913.34908167709, 11221.827414253643, 40594.545375650574, 12686.872504576744, 31003.724754300685, -0.06, 0.992, -0.026000000000000002, 192.0, 0.0, 0.0, 0.0, 0.0, 0.0, 0.0, 0.0, 0.0, 0.0, 1.70095143692126E9, 0.0, 2023-11-25 17:30:36.921
239.0, 35500.42635207491, 52268.52622849062, 17018.260600359514, -23857.648534494467, 11288.23444703036, 40678.43147259134, 12700.440013461115, 31015.012385250615, -0.06, 0.992, -0.026000000000000002, 192.0, 0.0, 0.0, 0.0, 0.0, 0.0, 0.0, 0.0, 0.0, 0.0, 1.70095143692519E9, 0.0, 2023-11-25 17:30:36.925
240.0, 35618.86824594358, 52246.24153926868, 17049.19541468566, -23809.368766471, 11460.476989802955, 41208.413685371124, 12699.277722749439, 31020.13093473088, -0.06, 0.992, -0.026000000000000002, 192.0, 0.0, 0.0, 0.0, 0.0, 0.0, 0.0, 0.0, 0.0, 0.0, 1.700951436930311E9, 0.0, 2023-11-25 17:30:36.930
241.0, 35407.46544688528, 52124.64804943181, 17022.50743180602, -23965.898032891517, 11270.442458443935, 40653.93396066832, 12702.026987317442, 30995.05227745203, -0.06, 0.992, -0.026000000000000002, 192.0, 0.0, 0.0, 0.0, 0.0, 0.0, 0.0, 0.0, 0.0, 0.0, 1.700951436934248E9, 0.0, 2023-11-25 17:30:36.934
242.0, 35407.353688163006, 52188.70814904072, 17001.832068184864, -23913.997282266293, 11238.926498761952, 40581.894288288866, 12700.440013461115, 31010.162056703815, -0.06, 0.992, -0.026000000000000002, 192.0, 0.0, 0.0, 0.0, 0.0, 0.0, 0.0, 0.0, 0.0, 0.0, 1.700951436938248E9, 0.0, 2023-11-25 17:30:36.938
243.0, 35465.31176153562, 52259.67493768632, 17005.296588575435, -23889.25390115427, 11242.726295319355, 40623.647346931386, 12698.808336115879, 31000.506103099124, -0.06, 0.992, -0.026000000000000002, 192.0, 0.0, 0.0, 0.0, 0.0, 0.0, 0.0, 0.0, 0.0, 0.0, 1.700951436941277E9, 0.0, 2023-11-25 17:30:36.941
244.0, 35622.310414589694, 52265.687556944795, 17045.060341961427, -23805.345452469046, 11462.019260170373, 41145.58293170726, 12695.924961081144, 31015.906455028828, -0.06, 0.992, -0.026000000000000002, 192.0, 0.0, 0.0, 0.0, 0.0, 0.0, 0.0, 0.0, 0.0, 0.0, 1.700951436945319E9, 0.0, 2023-11-25 17:30:36.945
245.0, 35429.45956342931, 52129.431322745244, 17013.23145785707, -23975.106951607104, 11280.94777833793, 40751.856953127026, 12678.8929318062, 30970.778282973562, -0.06, 0.992, -0.026000000000000002, 192.0, 0.0, 0.0, 0.0, 0.0, 0.0, 0.0, 0.0, 0.0, 0.0, 1.700951436949316E9, 0.0, 2023-11-25 17:30:36.949
246.0, 35401.743400304724, 52178.582808802465, 16997.294664060435, -23932.817451097664, 11242.32396391916, 40531.625215008884, 12682.089231263308, 30993.912338484806, -0.062, 0.986, -0.028, 192.0, 254.0, 16.0, 30.0, 208.0, 255.0, 32.0, 0.0, 0.0, 0.0, 1.700951436953361E9, 0.0, 2023-11-25 17:30:36.953
247.0, 35447.408014226916, 52257.01508009614, 16992.064355857892, -23909.951616519884, 11209.422196080946, 40571.903058517346, 12677.373013183238, 30986.536262814556, -0.062, 0.986, -0.028, 192.0, 0.0, 0.0, 0.0, 0.0, 0.0, 0.0, 0.0, 0.0, 0.0, 1.700951436957274E9, 0.0, 2023-11-25 17:30:36.957
248.0, 35622.28806284524, 52284.66418798736, 17041.461711104123, -23807.446516447846, 11444.830768684242, 41029.71148845094, 12682.290396963406, 31009.647966581342, -0.062, 0.986, -0.028, 192.0, 0.0, 0.0, 0.0, 0.0, 0.0, 0.0, 0.0, 0.0, 0.0, 1.700951436962295E9, 0.0, 2023-11-25 17:30:36.962
249.0, 35478.54399425316, 52156.141657369335, 17017.232420114568, -23953.69398041892, 11311.502613008335, 40865.53792542672, 12663.000841498477, 30965.771492215576, -0.062, 0.986, -0.028, 192.0, 0.0, 0.0, 0.0, 0.0, 0.0, 0.0, 0.0, 0.0, 0.0, 1.700951436966309E9, 0.0, 2023-11-25 17:30:36.966
250.0, 35405.945528262324, 52169.84327672044, 17001.31797806239, -23940.528802934743, 11249.141245978028, 40497.31528726999, 12664.02902174342, 30979.249594122124, -0.062, 0.986, -0.028, 192.0, 0.0, 0.0, 0.0, 0.0, 0.0, 0.0, 0.0, 0.0, 0.0, 1.700951436969302E9, 0.0, 2023-11-25 17:30:36.969
251.0, 35441.23893275725, 52251.516550960136, 16991.12558259077, -23912.611474110065, 11201.6437890105, 40567.902096259844, 12657.681126318113, 30977.57321328798, -0.062, 0.986, -0.028, 192.0, 0.0, 0.0, 0.0, 0.0, 0.0, 0.0, 0.0, 0.0, 0.0, 1.700951436973357E9, 0.0, 2023-11-25 17:30:36.973
252.0, 35601.88092015754, 52287.63696999991, 17036.70078953514, -23811.38042347198, 11416.287591014814, 40942.71849903089, 12669.549902623881, 30996.795713519543, -0.062, 0.986, -0.028, 192.0, 0.0, 0.0, 0.0, 0.0, 0.0, 0.0, 0.0, 0.0, 0.0, 1.700951436977333E9, 0.0, 2023-11-25 17:30:36.977
253.0, 35529.10364021106, 52180.01332044761, 17030.442301087656, -23913.326729932636, 11362.375183388613, 41009.818435885725, 12663.783152554412, 30964.072759636972, -0.062, 0.986, -0.028, 192.0, 0.0, 0.0, 0.0, 0.0, 0.0, 0.0, 0.0, 0.0, 0.0, 1.700951436981377E9, 0.0, 2023-11-25 17:30:36.981
254.0, 35410.48293238675, 52155.51580852459, 17017.008902670015, -23946.474366959857, 11261.32294670617, 40476.05877829299, 12681.664548118657, 30979.830739477962, -0.062, 0.986, -0.028, 192.0, 0.0, 0.0, 0.0, 0.0, 0.0, 0.0, 0.0, 0.0, 0.0, 1.700951436985437E9, 0.0, 2023-11-25 17:30:36.985
255.0, 35438.55672342262, 52236.00444030815, 16996.713518704597, -23908.409346152468, 11208.304608858181, 40559.7213577892, 12681.396327185194, 30997.42156236429, -0.062, 0.986, -0.028, 192.0, 0.0, 0.0, 0.0, 0.0, 0.0, 0.0, 0.0, 0.0, 0.0, 1.700951436989388E9, 0.0, 2023-11-25 17:30:36.989
0.0, 35578.99273383531, 52289.40275781188, 17039.56181282542, -23818.28711250867, 11383.028195265317, 40806.21639564233, 12698.6965773936, 31023.3719376769, -0.062, 0.984, -0.028, 192.0, 254.0, 16.0, 30.0, 192.0, 255.0, 32.0, 0.0, 0.0, 0.0, 1.70095143699434E9, 0.0, 2023-11-25 17:30:36.994
1.0, 35576.98107683433, 52207.95300101674, 17044.23332741658, -23868.734999744298, 11414.45474796948, 41103.785169575836, 12688.057147032876, 31000.886082754863, -0.062, 0.984, -0.028, 192.0, 0.0, 0.0, 0.0, 0.0, 0.0, 0.0, 0.0, 0.0, 0.0, 1.700951436997449E9, 0.0, 2023-11-25 17:30:36.997
2.0, 35400.37994389295, 52137.14267458233, 17022.820356228396, -23957.627887443054, 11265.458019430402, 40495.19187154673, 12699.009501815975, 30994.38172511837, -0.062, 0.984, -0.028, 192.0, 0.0, 0.0, 0.0, 0.0, 0.0, 0.0, 0.0, 0.0, 0.0, 1.700951437001455E9, 0.0, 2023-11-25 17:30:37.001
3.0, 35425.525656405174, 52218.21245172172, 17002.770841451984, -23906.889427529506, 11221.760359020276, 40566.96332299272, 12699.054205304887, 31013.89479802785, -0.062, 0.984, -0.028, 192.0, 0.0, 0.0, 0.0, 0.0, 0.0, 0.0, 0.0, 0.0, 0.0, 1.70095143700568E9, 0.0, 2023-11-25 17:30:37.005
4.0, 35536.09973622557, 52278.58451349551, 17030.84463248785, -23839.834194163584, 11332.513252796323, 40707.9581270168, 12703.837478618321, 31021.159114975824, -0.062, 0.984, -0.028, 192.0, 0.0, 0.0, 0.0, 0.0, 0.0, 0.0, 0.0, 0.0, 0.0, 1.700951437009423E9, 0.0, 2023-11-25 17:30:37.009
5.0, 35608.07235337167, 52227.68959137078, 17047.787254784973, -23834.693292938864, 11447.155350107592, 41149.85211489822, 12691.722833123546, 31010.05029798154, -0.062, 0.984, -0.028, 192.0, 0.0, 0.0, 0.0, 0.0, 0.0, 0.0, 0.0, 0.0, 0.0, 1.700951437013637E9, 0.0, 2023-11-25 17:30:37.013
6.0, 35400.20112993731, 52119.797720885006, 17014.572562524387, -23969.809588171196, 11260.004193783307, 40535.84969471094, 12687.744222610501, 30986.46920758119, -0.062, 0.984, -0.028, 192.0, 0.0, 0.0, 0.0, 0.0, 0.0, 0.0, 0.0, 0.0, 0.0, 1.700951437017573E9, 0.0, 2023-11-25 17:30:37.017
7.0, 35414.93092953336, 52194.56430608801, 16987.37048952228, -23919.026424768737, 11216.798271751199, 40563.230581668686, 12675.026080015432, 30998.27092865359, -0.062, 0.984, -0.028, 192.0, 0.0, 0.0, 0.0, 0.0, 0.0, 0.0, 0.0, 0.0, 0.0, 1.700951437021802E9, 0.0, 2023-11-25 17:30:37.021
8.0, 35501.231014875295, 52267.98978662369, 17008.336425821355, -23876.245185881282, 11267.782600853754, 40627.4918469777, 12681.955120796576, 31005.37878339038, -0.062, 0.984, -0.028, 192.0, 0.0, 0.0, 0.0, 0.0, 0.0, 0.0, 0.0, 0.0, 0.0, 1.700951437024528E9, 0.0, 2023-11-25 17:30:37.024
9.0, 35629.462972815396, 52252.276510271615, 17041.70758029313, -23821.125784054493, 11452.162140865583, 41142.94542586153, 12677.283606205418, 31008.485675869666, -0.062, 0.984, -0.028, 192.0, 0.0, 0.0, 0.0, 0.0, 0.0, 0.0, 0.0, 0.0, 0.0, 1.700951437029557E9, 0.0, 2023-11-25 17:30:37.029
10.0, 35420.29534820263, 52127.86670063338, 17010.45984154461, -23980.60548074311, 11260.51828390578, 40613.007916570656, 12674.869617804245, 30973.6616580083, -0.058, 0.986, -0.022, 192.0, 254.0, 48.0, 30.0, 208.0, 255.0, 80.0, 0.0, 0.0, 0.0, 1.700951437033729E9, 0.0, 2023-11-25 17:30:37.033
11.0, 35414.886226044444, 52188.596390318446, 16988.197504067124, -23928.056529528683, 11227.41535036747, 40519.7117352142, 12673.21558871455, 30993.711172784708, -0.058, 0.986, -0.022, 192.0, 0.0, 0.0, 0.0, 0.0, 0.0, 0.0, 0.0, 0.0, 0.0, 1.700951437037548E9, 0.0, 2023-11-25 17:30:37.037
12.0, 35469.37977902649, 52258.24442604118, 16989.60566396781, -23901.033270482218, 11222.945001476408, 40551.67472978529, 12669.393440412694, 30978.80255923302, -0.058, 0.986, -0.022, 192.0, 0.0, 0.0, 0.0, 0.0, 0.0, 0.0, 0.0, 0.0, 0.0, 1.700951437041605E9, 0.0, 2023-11-25 17:30:37.041
13.0, 35626.87017045858, 52262.424202254326, 17029.592934798355, -23813.436783961868, 11443.02027738336, 41074.30321863928, 12668.007632256466, 30978.534338299556, -0.058, 0.986, -0.022, 192.0, 0.0, 0.0, 0.0, 0.0, 0.0, 0.0, 0.0, 0.0, 0.0, 1.700951437045754E9, 0.0, 2023-11-25 17:30:37.045
14.0, 35437.95322632232, 52126.88322387734, 16998.479306516565, -23981.253681332313, 11268.363746209592, 40724.923101058375, 12651.824969270823, 30937.429480246246, -0.058, 0.986, -0.022, 192.0, 0.0, 0.0, 0.0, 0.0, 0.0, 0.0, 0.0, 0.0, 0.0, 1.700951437048531E9, 0.0, 2023-11-25 17:30:37.048
15.0, 35404.559720106095, 52175.095936667436, 16988.331614533858, -23938.114814533572, 11236.624269083057, 40464.033539776035, 12661.950309509077, 30980.501291811623, -0.058, 0.986, -0.022, 192.0, 0.0, 0.0, 0.0, 0.0, 0.0, 0.0, 0.0, 0.0, 0.0, 1.700951437052535E9, 0.0, 2023-11-25 17:30:37.052
16.0, 35452.34774975154, 52259.92080687533, 16990.79030642394, -23904.654253083976, 11209.466899569858, 40526.461962039706, 12671.963891025054, 30996.371030374892, -0.058, 0.986, -0.022, 192.0, 0.0, 0.0, 0.0, 0.0, 0.0, 0.0, 0.0, 0.0, 0.0, 1.70095143705756E9, 0.0, 2023-11-25 17:30:37.057
17.0, 35629.10534490411, 52295.057749159074, 17047.31786815141, -23793.14139999645, 11452.430361799046, 40991.89233683256, 12685.88902782071, 31017.828705051987, -0.058, 0.986, -0.022, 192.0, 0.0, 0.0, 0.0, 0.0, 0.0, 0.0, 0.0, 0.0, 0.0, 1.700951437061619E9, 0.0, 2023-11-25 17:30:37.061
18.0, 35497.99001192928, 52169.709166253706, 17028.47534757559, -23929.799965596198, 11334.413151075025, 40887.44263499292, 12669.236978201507, 30979.517815055588, -0.058, 0.986, -0.022, 192.0, 0.0, 0.0, 0.0, 0.0, 0.0, 0.0, 0.0, 0.0, 0.0, 1.700951437065563E9, 0.0, 2023-11-25 17:30:37.065
19.0, 35413.94745277732, 52176.54880005703, 17015.779556724974, -23925.150802749493, 11264.98863279684, 40478.51747018308, 12680.949292296087, 31004.75293454563, -0.058, 0.986, -0.022, 192.0, 0.0, 0.0, 0.0, 0.0, 0.0, 0.0, 0.0, 0.0, 0.0, 1.700951437069698E9, 0.0, 2023-11-25 17:30:37.069
20.0, 35441.99889206873, 52253.9305393613, 17000.580370495365, -23896.898197757986, 11211.41150133747, 40554.53575307557, 12673.707327092568, 31009.267986925603, -0.064, 0.986, -0.022, 192.0, 254.0, 0.0, 30.0, 208.0, 255.0, 80.0, 0.0, 0.0, 0.0, 1.700951437073587E9, 0.0, 2023-11-25 17:30:37.073
21.0, 35600.919795145965, 52293.78369972512, 17044.03216171648, -23798.48346692127, 11417.695750915498, 40908.09564686962, 12680.569312640348, 31026.30001620055, -0.064, 0.986, -0.022, 192.0, 0.0, 0.0, 0.0, 0.0, 0.0, 0.0, 0.0, 0.0, 0.0, 1.700951437076628E9, 0.0, 2023-11-25 17:30:37.076
22.0, 35536.16679145894, 52186.54002982855, 17032.76688251101, -23898.30635765867, 11372.165247460038, 41026.29167154928, 12662.93378626511, 30982.825873234975, -0.064, 0.986, -0.022, 192.0, 0.0, 0.0, 0.0, 0.0, 0.0, 0.0, 0.0, 0.0, 0.0, 1.700951437080665E9, 0.0, 2023-11-25 17:30:37.080
23.0, 35399.77644679266, 52150.73253521115, 17013.45497530162, -23945.401483226, 11259.646565872023, 40463.117118253365, 12674.377879426227, 30988.391457604346, -0.064, 0.986, -0.022, 192.0, 0.0, 0.0, 0.0, 0.0, 0.0, 0.0, 0.0, 0.0, 0.0, 1.700951437084651E9, 0.0, 2023-11-25 17:30:37.084
24.0, 35427.80553433961, 52231.578794905996, 16989.024518611972, -23910.26454094226, 11203.566039033656, 40556.07802344299, 12669.885178790712, 30999.410867620812, -0.064, 0.986, -0.022, 192.0, 0.0, 0.0, 0.0, 0.0, 0.0, 0.0, 0.0, 0.0, 0.0, 1.700951437089674E9, 0.0, 2023-11-25 17:30:37.089
25.0, 35565.84990809559, 52291.74969097968, 17030.732873765573, -23827.42897599089, 11364.096267711671, 40771.79470918116, 12680.546960895892, 31019.259216697126, -0.064, 0.986, -0.022, 192.0, 0.0, 0.0, 0.0, 0.0, 0.0, 0.0, 0.0, 0.0, 0.0, 1.700951437093617E9, 0.0, 2023-11-25 17:30:37.093
26.0, 35579.73034140233, 52216.31255344302, 17033.638600544764, -23867.95268868836, 11411.414910723557, 41096.431445650036, 12665.593643855293, 30994.113504184905, -0.064, 0.986, -0.022, 192.0, 0.0, 0.0, 0.0, 0.0, 0.0, 0.0, 0.0, 0.0, 0.0, 1.700951437097665E9, 0.0, 2023-11-25 17:30:37.097
27.0, 35399.99996423721, 52145.97161364217, 17015.08665264686, -23959.751303166307, 11260.004193783307, 40475.29881898151, 12678.110620750263, 30991.453646594724, -0.064, 0.986, -0.022, 192.0, 0.0, 0.0, 0.0, 0.0, 0.0, 0.0, 0.0, 0.0, 0.0, 1.700951437101683E9, 0.0, 2023-11-25 17:30:37.101
28.0, 35419.87066505798, 52222.79455933507, 16985.82821915486, -23911.136258976014, 11211.120928659551, 40563.0741194575, 12667.717059578546, 31004.685879312263, -0.064, 0.986, -0.022, 192.0, 0.0, 0.0, 0.0, 0.0, 0.0, 0.0, 0.0, 0.0, 0.0, 1.700951437104752E9, 0.0, 2023-11-25 17:30:37.104
29.0, 35530.802372789665, 52292.755519480175, 17018.97585618208, -23844.90804015494, 11317.33641831117, 40673.08940566652, 12680.166981240152, 31018.05222249654, -0.064, 0.986, -0.022, 192.0, 0.0, 0.0, 0.0, 0.0, 0.0, 0.0, 0.0, 0.0, 0.0, 1.700951437108758E9, 0.0, 2023-11-25 17:30:37.108
30.0, 35615.42607729746, 52250.91305385984, 17039.047722702948, -23823.986807344772, 11451.402181554102, 41153.540152733345, 12674.154361981675, 31014.587702105964, -0.062, 0.986, -0.02, 192.0, 254.0, 16.0, 30.0, 208.0, 255.0, 96.0, 0.0, 0.0, 0.0, 1.700951437112773E9, 0.0, 2023-11-25 17:30:37.112
31.0, 35400.67051657087, 52137.969689127174, 17005.385995553257, -23968.08850384814, 11259.154827494005, 40550.95947396272, 12667.158265967164, 30982.825873234975, -0.062, 0.986, -0.02, 192.0, 0.0, 0.0, 0.0, 0.0, 0.0, 0.0, 0.0, 0.0, 0.0, 1.700951437117779E9, 0.0, 2023-11-25 17:30:37.117
32.0, 35414.975633022266, 52213.87621329739, 16982.944844120128, -23909.68339558642, 11225.247231155305, 40538.73306974567, 12660.899777519677, 30995.968698974695, -0.062, 0.986, -0.02, 192.0, 0.0, 0.0, 0.0, 0.0, 0.0, 0.0, 0.0, 0.0, 0.0, 1.700951437121802E9, 0.0, 2023-11-25 17:30:37.121
33.0, 35492.31266883763, 52282.09373737499, 16995.88650415975, -23866.946860187873, 11265.256853730305, 40596.19940474026, 12664.74427756599, 30994.627594307378, -0.062, 0.986, -0.02, 192.0, 0.0, 0.0, 0.0, 0.0, 0.0, 0.0, 0.0, 0.0, 0.0, 1.700951437125788E9, 0.0, 2023-11-25 17:30:37.125
34.0, 35627.071336158675, 52271.14138259189, 17031.984571455072, -23805.792487358154, 11463.382716582146, 41125.511065186394, 12665.481885133015, 30997.958004231215, -0.062, 0.986, -0.02, 192.0, 0.0, 0.0, 0.0, 0.0, 0.0, 0.0, 0.0, 0.0, 0.0, 1.700951437129845E9, 0.0, 2023-11-25 17:30:37.129
35.0, 35417.6578423569, 52144.16112234129, 17004.044890885936, -23966.680343947453, 11274.845752101632, 40632.83391390251, 12662.665565331647, 30963.402207303312, -0.062, 0.986, -0.02, 192.0, 0.0, 0.0, 0.0, 0.0, 0.0, 0.0, 0.0, 0.0, 0.0, 1.700951437132728E9, 0.0, 2023-11-25 17:30:37.132
36.0, 35404.78323755065, 52202.09684396945, 16985.22472205457, -23912.25384619878, 11242.882757530542, 40523.042145138046, 12663.112600220753, 30994.784056518565, -0.062, 0.986, -0.02, 192.0, 0.0, 0.0, 0.0, 0.0, 0.0, 0.0, 0.0, 0.0, 0.0, 1.700951437136755E9, 0.0, 2023-11-25 17:30:37.136
37.0, 35460.39437775545, 52275.87995241642, 16990.298568045924, -23885.87878774152, 11235.03729522673, 40566.06925321451, 12660.922129264132, 30989.84432099394, -0.062, 0.986, -0.02, 192.0, 0.0, 0.0, 0.0, 0.0, 0.0, 0.0, 0.0, 0.0, 0.0, 1.700951437140796E9, 0.0, 2023-11-25 17:30:37.140
38.0, 35627.25015011432, 52291.74969097968, 17036.678437790684, -23794.23663547476, 11467.78601023984, 41073.02916920533, 12664.498408376981, 30996.259271652612, -0.062, 0.986, -0.02, 192.0, 0.0, 0.0, 0.0, 0.0, 0.0, 0.0, 0.0, 0.0, 0.0, 1.7009514371448E9, 0.0, 2023-11-25 17:30:37.144
39.0, 35449.26320901671, 52156.38752655835, 17006.59298975384, -23955.25860253079, 11301.958418125918, 40761.26703754271, 12651.042658214887, 30954.595619987922, -0.062, 0.986, -0.02, 192.0, 0.0, 0.0, 0.0, 0.0, 0.0, 0.0, 0.0, 0.0, 0.0, 1.700951437149827E9, 0.0, 2023-11-25 17:30:37.149
40.0, 35405.67730732886, 52194.98898923266, 16993.89719890323, -23924.68141611593, 11255.645603614523, 40461.53014439704, 12659.111637963253, 30987.318573870492, -0.066, 0.98, -0.022, 192.0, 253.0, 240.0, 30.0, 160.0, 255.0, 80.0, 0.0, 0.0, 0.0, 1.700951437153865E9, 0.0, 2023-11-25 17:30:37.153
41.0, 35446.02220607069, 52272.97422563723, 16987.83987615584, -23897.278177413726, 11216.753568262287, 40509.1617118313, 12661.212701942051, 30990.604280305422, -0.066, 0.98, -0.022, 192.0, 0.0, 0.0, 0.0, 0.0, 0.0, 0.0, 0.0, 0.0, 0.0, 1.700951437157929E9, 0.0, 2023-11-25 17:30:37.157
42.0, 35615.67194648647, 52300.377464339435, 17035.694961034653, -23792.068516262596, 11448.563510008278, 40947.36766187759, 12673.349699181283, 31013.671280583298, -0.066, 0.98, -0.022, 192.0, 0.0, 0.0, 0.0, 0.0, 0.0, 0.0, 0.0, 0.0, 0.0, 1.700951437160891E9, 0.0, 2023-11-25 17:30:37.160
43.0, 35491.59741301506, 52171.94434069924, 17013.969065424095, -23928.79413709571, 11338.280002865793, 40878.7478063998, 12657.368201895739, 30970.21948936218, -0.066, 0.98, -0.022, 192.0, 0.0, 0.0, 0.0, 0.0, 0.0, 0.0, 0.0, 0.0, 0.0, 1.700951437164894E9, 0.0, 2023-11-25 17:30:37.164
44.0, 35395.70842930179, 52169.84327672044, 16998.993396639038, -23934.851459843096, 11258.283109460248, 40438.3960888858, 12669.035812501408, 30993.13002742887, -0.066, 0.98, -0.022, 192.0, 0.0, 0.0, 0.0, 0.0, 0.0, 0.0, 0.0, 0.0, 0.0, 1.700951437168872E9, 0.0, 2023-11-25 17:30:37.168
45.0, 35419.60244412452, 52243.84990261196, 16976.909873117194, -23908.476401385833, 11198.805117464677, 40524.33854631645, 12657.658774573658, 30992.727696028676, -0.066, 0.98, -0.022, 192.0, 0.0, 0.0, 0.0, 0.0, 0.0, 0.0, 0.0, 0.0, 0.0, 1.700951437172907E9, 0.0, 2023-11-25 17:30:37.172
46.0, 35577.4951669568, 52293.090795647004, 17023.580315539875, -23810.084022293573, 11403.5918001642, 40843.767326327245, 12667.918225278643, 31010.586739848466, -0.066, 0.98, -0.022, 192.0, 0.0, 0.0, 0.0, 0.0, 0.0, 0.0, 0.0, 0.0, 0.0, 1.700951437176937E9, 0.0, 2023-11-25 17:30:37.176
47.0, 35530.15417220046, 52193.80434677653, 17016.360702080812, -23893.724250045332, 11380.278930697314, 41005.057514316744, 12655.133027450209, 30975.673315009277, -0.066, 0.98, -0.022, 192.0, 0.0, 0.0, 0.0, 0.0, 0.0, 0.0, 0.0, 0.0, 0.0, 1.70095143718201E9, 0.0, 2023-11-25 17:30:37.182
48.0, 35379.97280120526, 52150.59842474442, 16993.159591336203, -23953.26929727427, 11254.349202436115, 40429.79066727051, 12662.822027542834, 30978.489634810645, -0.066, 0.98, -0.022, 192.0, 0.0, 0.0, 0.0, 0.0, 0.0, 0.0, 0.0, 0.0, 0.0, 1.700951437185984E9, 0.0, 2023-11-25 17:30:37.185
49.0, 35409.83473179755, 52238.3290217315, 16974.74175390503, -23904.833067039617, 11205.287123356715, 40514.90611015631, 12658.865768774245, 30994.247614651635, -0.066, 0.98, -0.022, 192.0, 0.0, 0.0, 0.0, 0.0, 0.0, 0.0, 0.0, 0.0, 0.0, 1.70095143718897E9, 0.0, 2023-11-25 17:30:37.188
50.0, 35546.35918693056, 52296.8458887155, 17015.84661195834, -23820.969321843306, 11358.418924620024, 40718.9104817999, 12672.545036380892, 31013.38070790538, -0.062, 0.984, -0.02, 192.0, 254.0, 16.0, 30.0, 192.0, 255.0, 96.0, 0.0, 0.0, 0.0, 1.700951437193063E9, 0.0, 2023-11-25 17:30:37.193
51.0, 35574.05299831069, 52224.605050635946, 17022.574487039386, -23848.663133223432, 11424.222460296449, 41089.68121882453, 12659.491617618993, 30989.88902448285, -0.062, 0.984, -0.02, 192.0, 0.0, 0.0, 0.0, 0.0, 0.0, 0.0, 0.0, 0.0, 0.0, 1.700951437196964E9, 0.0, 2023-11-25 17:30:37.196
52.0, 35383.236155895735, 52144.76461944159, 17001.87677167377, -23951.436454228933, 11265.390964197037, 40469.73323461214, 12670.46632414655, 30987.340925614946, -0.062, 0.984, -0.02, 192.0, 0.0, 0.0, 0.0, 0.0, 0.0, 0.0, 0.0, 0.0, 0.0, 1.700951437201E9, 0.0, 2023-11-25 17:30:37.201
53.0, 35406.0572869846, 52228.67306812681, 16982.6095679533, -23894.283043656713, 11227.996495723308, 40539.35891859042, 12670.511027635459, 31001.24371066615, -0.062, 0.984, -0.02, 192.0, 0.0, 0.0, 0.0, 0.0, 0.0, 0.0, 0.0, 0.0, 0.0, 1.70095143720544E9, 0.0, 2023-11-25 17:30:37.205
54.0, 35504.47201782132, 52293.82840321403, 17011.532725278466, -23833.218077804813, 11319.057502634229, 40655.9456176693, 12678.55765563937, 31003.83651302296, -0.062, 0.984, -0.02, 192.0, 0.0, 0.0, 0.0, 0.0, 0.0, 0.0, 0.0, 0.0, 0.0, 1.700951437210039E9, 0.0, 2023-11-25 17:30:37.210
55.0, 35600.80803642369, 52258.087963829996, 17039.427702358687, -23801.18802800036, 11469.55179805181, 41147.05814684131, 12674.355527681771, 31010.81025729302, -0.062, 0.984, -0.02, 192.0, 0.0, 0.0, 0.0, 0.0, 0.0, 0.0, 0.0, 0.0, 0.0, 1.700951437213078E9, 0.0, 2023-11-25 17:30:37.213
56.0, 35386.588917564026, 52140.1601600838, 17006.6153414983, -23950.83295712864, 11277.080926547162, 40558.84963975545, 12672.589739869803, 30994.22526290718, -0.062, 0.984, -0.02, 192.0, 0.0, 0.0, 0.0, 0.0, 0.0, 0.0, 0.0, 0.0, 0.0, 1.700951437217063E9, 0.0, 2023-11-25 17:30:37.217
57.0, 35396.088408957534, 52208.645905094854, 16979.16739930718, -23898.284005914215, 11238.03242898374, 40543.15871514782, 12663.02319324293, 31005.311728157012, -0.062, 0.984, -0.02, 192.0, 0.0, 0.0, 0.0, 0.0, 0.0, 0.0, 0.0, 0.0, 0.0, 1.70095143722115E9, 0.0, 2023-11-25 17:30:37.221
58.0, 35472.12904359449, 52282.29490307509, 16993.494867503032, -23857.42501704991, 11267.983766553853, 40592.91369830533, 12663.917263021143, 31002.85303626693, -0.062, 0.984, -0.02, 192.0, 0.0, 0.0, 0.0, 0.0, 0.0, 0.0, 0.0, 0.0, 0.0, 1.700951437225142E9, 0.0, 2023-11-25 17:30:37.225
59.0, 35618.98000466586, 52278.137478606404, 17033.348027866847, -23780.98205101276, 11479.475972589968, 41125.153437275105, 12663.403172898672, 31011.078478226482, -0.062, 0.984, -0.02, 192.0, 0.0, 0.0, 0.0, 0.0, 0.0, 0.0, 0.0, 0.0, 0.0, 1.7009514372291E9, 0.0, 2023-11-25 17:30:37.229
60.0, 35415.042688255635, 52148.251491576615, 17004.000187397025, -23944.17213728096, 11295.208191300415, 40651.18469610032, 12656.652946073169, 30969.861861450896, -0.062, 0.984, -0.024, 192.0, 254.0, 16.0, 30.0, 192.0, 255.0, 64.0, 0.0, 0.0, 0.0, 1.70095143723317E9, 0.0, 2023-11-25 17:30:37.233
61.0, 35402.458656127295, 52206.03075099358, 16992.01965236898, -23890.706764543866, 11269.302519476714, 40498.32111577048, 12662.017364742442, 30994.18055941827, -0.062, 0.984, -0.024, 192.0, 0.0, 0.0, 0.0, 0.0, 0.0, 0.0, 0.0, 0.0, 0.0, 1.700951437238153E9, 0.0, 2023-11-25 17:30:37.238
62.0, 35453.19711604084, 52283.61365599796, 16995.30535880391, -23861.33657232959, 11252.963394279885, 40544.23159888168, 12661.45857113106, 30991.028963450073, -0.062, 0.984, -0.024, 192.0, 0.0, 0.0, 0.0, 0.0, 0.0, 0.0, 0.0, 0.0, 0.0, 1.700951437241242E9, 0.0, 2023-11-25 17:30:37.241
63.0, 35620.499923288815, 52299.84102247251, 17040.724103537097, -23764.17353918237, 11486.650882560121, 41051.28092185032, 12662.799675798378, 31003.18831243376, -0.062, 0.984, -0.024, 192.0, 0.0, 0.0, 0.0, 0.0, 0.0, 0.0, 0.0, 0.0, 0.0, 1.700951437244186E9, 0.0, 2023-11-25 17:30:37.244
64.0, 35451.520735206694, 52163.45067780622, 17013.767899723996, -23924.994340538306, 11328.489938794368, 40796.851014715554, 12650.237995414496, 30967.13494862735, -0.062, 0.984, -0.024, 192.0, 0.0, 0.0, 0.0, 0.0, 0.0, 0.0, 0.0, 0.0, 0.0, 1.700951437249618E9, 0.0, 2023-11-25 17:30:37.249
65.0, 35399.12824620346, 52195.65954156632, 17002.50262051852, -23896.29470065769, 11278.824362614676, 40482.65254290731, 12665.191312455096, 31008.75389680313, -0.062, 0.984, -0.024, 192.0, 0.0, 0.0, 0.0, 0.0, 0.0, 0.0, 0.0, 0.0, 0.0, 1.700951437253188E9, 0.0, 2023-11-25 17:30:37.253
66.0, 35436.14273502144, 52274.20357158227, 16989.426850012165, -23873.808845735653, 11230.991629480319, 40541.907017458325, 12664.40900139916, 31006.295204913047, -0.062, 0.984, -0.024, 192.0, 0.0, 0.0, 0.0, 0.0, 0.0, 0.0, 0.0, 0.0, 0.0, 1.700951437257451E9, 0.0, 2023-11-25 17:30:37.257
67.0, 35606.9547661489, 52309.474624332746, 17037.70661803563, -23771.482559619257, 11458.666498502076, 40944.28312114276, 12673.193236970095, 31021.13676323137, -0.062, 0.984, -0.024, 192.0, 0.0, 0.0, 0.0, 0.0, 0.0, 0.0, 0.0, 0.0, 0.0, 1.700951437261232E9, 0.0, 2023-11-25 17:30:37.261
68.0, 35503.890872465476, 52188.931666485274, 17022.08274866137, -23894.037174467707, 11367.001994490862, 40916.276385340265, 12661.682088575613, 30989.486693082657, -0.062, 0.984, -0.024, 192.0, 0.0, 0.0, 0.0, 0.0, 0.0, 0.0, 0.0, 0.0, 0.0, 1.700951437266326E9, 0.0, 2023-11-25 17:30:37.266
69.0, 35400.29053691513, 52175.69943376773, 17006.03419614246, -23909.661043841967, 11279.830191115165, 40447.67206283475, 12672.07564974733, 31002.785981033565, -0.062, 0.984, -0.024, 192.0, 0.0, 0.0, 0.0, 0.0, 0.0, 0.0, 0.0, 0.0, 0.0, 1.700951437269266E9, 0.0, 2023-11-25 17:30:37.269
70.0, 35426.9114645614, 52255.271644028624, 16986.565826721886, -23882.77189526223, 11220.754530519787, 40529.79237196355, 12660.877425775221, 30998.159169931314, -0.068, 0.978, -0.026000000000000002, 192.0, 253.0, 224.0, 30.0, 144.0, 255.0, 48.0, 0.0, 0.0, 0.0, 1.700951437272277E9, 0.0, 2023-11-25 17:30:37.272
71.0, 35581.362018747575, 52308.267630132155, 17032.811585999916, -23783.127818480472, 11416.175832292538, 40817.39226786998, 12670.22045495754, 31022.56727487651, -0.068, 0.978, -0.026000000000000002, 192.0, 0.0, 0.0, 0.0, 0.0, 0.0, 0.0, 0.0, 0.0, 0.0, 1.700951437277258E9, 0.0, 2023-11-25 17:30:37.277
72.0, 35545.889800297, 52212.28923944107, 17026.4189870857, -23856.955630416353, 11408.799756622286, 41026.381078527105, 12654.59658558328, 30996.23691990816, -0.068, 0.978, -0.026000000000000002, 192.0, 0.0, 0.0, 0.0, 0.0, 0.0, 0.0, 0.0, 0.0, 0.0, 1.700951437281301E9, 0.0, 2023-11-25 17:30:37.281
73.0, 35384.28668788513, 52158.93562542625, 17004.894257175238, -23922.558000392677, 11278.89141784804, 40445.638054089315, 12665.995975255488, 30995.47696059668, -0.068, 0.978, -0.026000000000000002, 192.0, 0.0, 0.0, 0.0, 0.0, 0.0, 0.0, 0.0, 0.0, 0.0, 1.700951437285341E9, 0.0, 2023-11-25 17:30:37.285
74.0, 35408.58303410805, 52241.927652588805, 16981.871960386274, -23875.373467847523, 11229.717580046366, 40550.19951465124, 12661.324460664327, 31005.535245601568, -0.068, 0.978, -0.026000000000000002, 192.0, 0.0, 0.0, 0.0, 0.0, 0.0, 0.0, 0.0, 0.0, 0.0, 1.700951437289508E9, 0.0, 2023-11-25 17:30:37.289
75.0, 35535.27272168073, 52299.90807770587, 17017.45593755912, -23797.544693654145, 11368.38780264709, 40739.80936286561, 12673.8414375593, 31023.304882443535, -0.068, 0.978, -0.026000000000000002, 192.0, 0.0, 0.0, 0.0, 0.0, 0.0, 0.0, 0.0, 0.0, 0.0, 1.700951437293366E9, 0.0, 2023-11-25 17:30:37.293
76.0, 35579.953858846886, 52236.563233919536, 17030.934039465672, -23811.559237427624, 11449.524635019856, 41133.42358272357, 12667.739411323002, 31018.02987075208, -0.068, 0.978, -0.026000000000000002, 192.0, 0.0, 0.0, 0.0, 0.0, 0.0, 0.0, 0.0, 0.0, 0.0, 1.700951437297348E9, 0.0, 2023-11-25 17:30:37.297
77.0, 35382.99028670672, 52143.915253152285, 17001.94382690714, -23929.867020829563, 11277.460906202901, 40504.40079026232, 12672.70149859208, 31001.55663508852, -0.068, 0.978, -0.026000000000000002, 192.0, 0.0, 0.0, 0.0, 0.0, 0.0, 0.0, 0.0, 0.0, 0.0, 1.700951437300435E9, 0.0, 2023-11-25 17:30:37.300
78.0, 35402.54806310512, 52226.43789368128, 16978.89917837372, -23877.63099403751, 11238.971202250863, 40547.53965706106, 12668.521722378937, 31015.057088739526, -0.068, 0.978, -0.026000000000000002, 192.0, 0.0, 0.0, 0.0, 0.0, 0.0, 0.0, 0.0, 0.0, 0.0, 1.700951437304435E9, 0.0, 2023-11-25 17:30:37.304
79.0, 35499.57698578561, 52298.45521431628, 17005.497754275533, -23820.768156143207, 11318.006970644828, 40629.52585572313, 12678.021213772443, 31020.66737659781, -0.068, 0.978, -0.026000000000000002, 192.0, 0.0, 0.0, 0.0, 0.0, 0.0, 0.0, 0.0, 0.0, 0.0, 1.700951437309378E9, 0.0, 2023-11-25 17:30:37.309
80.0, 35606.88771091554, 52267.18512382331, 17032.76688251101, -23783.41839115839, 11478.201923156015, 41135.72581240247, 12669.482847390515, 31026.255312711637, -0.07, 0.978, -0.024, 192.0, 253.0, 208.0, 30.0, 144.0, 255.0, 64.0, 0.0, 0.0, 0.0, 1.700951437314509E9, 0.0, 2023-11-25 17:30:37.314
81.0, 35393.71912404527, 52148.65382297681, 17002.167344351692, -23936.63959939952, 11284.591112684146, 40570.04786372756, 12664.006669998966, 31000.595510076942, -0.07, 0.978, -0.024, 192.0, 0.0, 0.0, 0.0, 0.0, 0.0, 0.0, 0.0, 0.0, 0.0, 1.700951437317435E9, 0.0, 2023-11-25 17:30:37.317
82.0, 35402.883339271946, 52221.520509901115, 16984.375355765267, -23875.06054342515, 11258.998365282818, 40525.63494749486, 12667.806466556367, 31026.255312711637, -0.07, 0.978, -0.024, 192.0, 0.0, 0.0, 0.0, 0.0, 0.0, 0.0, 0.0, 0.0, 0.0, 1.700951437320442E9, 0.0, 2023-11-25 17:30:37.320
83.0, 35472.285505805674, 52296.175336381835, 16996.825277426873, -23837.5766679736, 11279.249045759327, 40575.322875419006, 12671.069821246841, 31022.276702198593, -0.07, 0.978, -0.024, 192.0, 0.0, 0.0, 0.0, 0.0, 0.0, 0.0, 0.0, 0.0, 0.0, 1.70095143732544E9, 0.0, 2023-11-25 17:30:37.325
84.0, 35622.109248889596, 52292.15202237988, 17034.867946489805, -23766.296954905625, 11489.198981428026, 41111.18359699054, 12659.759838552456, 31010.18440844827, -0.07, 0.978, -0.024, 192.0, 0.0, 0.0, 0.0, 0.0, 0.0, 0.0, 0.0, 0.0, 0.0, 1.700951437329439E9, 0.0, 2023-11-25 17:30:37.329
85.0, 35423.58105463756, 52162.936587683755, 17009.588123510854, -23934.426776698445, 11304.215944315905, 40659.05251014859, 12648.628669813714, 30953.656846720798, -0.07, 0.978, -0.024, 192.0, 0.0, 0.0, 0.0, 0.0, 0.0, 0.0, 0.0, 0.0, 0.0, 1.700951437333448E9, 0.0, 2023-11-25 17:30:37.333
86.0, 35401.34106890453, 52214.54676563106, 16990.11975409028, -23882.928357473418, 11268.475504931868, 40479.34448472792, 12652.204948926563, 30989.196120404737, -0.07, 0.978, -0.024, 192.0, 0.0, 0.0, 0.0, 0.0, 0.0, 0.0, 0.0, 0.0, 0.0, 1.700951437336471E9, 0.0, 2023-11-25 17:30:37.336
87.0, 35447.765642138205, 52291.12384213494, 16985.492942988032, -23858.67671473941, 11244.112103475583, 40530.17235161929, 12648.271041902428, 30997.84624550894, -0.07, 0.978, -0.024, 192.0, 0.0, 0.0, 0.0, 0.0, 0.0, 0.0, 0.0, 0.0, 0.0, 1.700951437340501E9, 0.0, 2023-11-25 17:30:37.340
88.0, 35621.23753085584, 52319.26468840417, 17037.259583146522, -23755.52341407817, 11484.147487181126, 41007.6279649291, 12655.490655361493, 31019.52743763059, -0.07, 0.978, -0.024, 192.0, 0.0, 0.0, 0.0, 0.0, 0.0, 0.0, 0.0, 0.0, 0.0, 1.700951437344484E9, 0.0, 2023-11-25 17:30:37.344
89.0, 35462.74131092326, 52189.51281184111, 17013.767899723996, -23904.631901339522, 11338.168244143515, 40786.43510179938, 12646.415847112637, 30980.4118848338, -0.07, 0.978, -0.024, 192.0, 0.0, 0.0, 0.0, 0.0, 0.0, 0.0, 0.0, 0.0, 0.0, 1.700951437348536E9, 0.0, 2023-11-25 17:30:37.348
90.0, 35399.26235667019, 52211.75279757414, 16998.12167860528, -23887.331651131113, 11280.344281237636, 40443.760507555075, 12659.826893785823, 31009.960891003717, -0.062, 0.984, -0.026000000000000002, 192.0, 254.0, 16.0, 30.0, 192.0, 255.0, 48.0, 0.0, 0.0, 0.0, 1.700951437353475E9, 0.0, 2023-11-25 17:30:37.353
91.0, 35433.080546031066, 52289.35805432297, 16981.93901561964, -23867.90798519945, 11225.157824177484, 40509.65345020932, 12655.065972216842, 31009.782077048076, -0.062, 0.984, -0.026000000000000002, 192.0, 0.0, 0.0, 0.0, 0.0, 0.0, 0.0, 0.0, 0.0, 0.0, 1.700951437357501E9, 0.0, 2023-11-25 17:30:37.357
92.0, 35598.03642011123, 52323.06448496157, 17028.296533619945, -23767.191024683838, 11445.367210551169, 40902.1053793556, 12664.476056632526, 31023.28253069908, -0.062, 0.984, -0.026000000000000002, 192.0, 0.0, 0.0, 0.0, 0.0, 0.0, 0.0, 0.0, 0.0, 0.0, 1.700951437361554E9, 0.0, 2023-11-25 17:30:37.361
93.0, 35502.10273290906, 52203.549707359045, 17014.349045079834, -23886.72815403082, 11368.454857880457, 40915.47172253987, 12649.992126225487, 30985.17280640278, -0.062, 0.984, -0.026000000000000002, 192.0, 0.0, 0.0, 0.0, 0.0, 0.0, 0.0, 0.0, 0.0, 0.0, 1.700951437364742E9, 0.0, 2023-11-25 17:30:37.364
94.0, 35381.962106461775, 52180.50505882562, 16991.751431435518, -23918.78055557973, 11266.41914444198, 40427.108457935865, 12655.892986761688, 30994.85111175193, -0.062, 0.984, -0.026000000000000002, 192.0, 0.0, 0.0, 0.0, 0.0, 0.0, 0.0, 0.0, 0.0, 0.0, 1.700951437368544E9, 0.0, 2023-11-25 17:30:37.368
95.0, 35410.2594149422, 52261.41837375383, 16973.93709110464, -23886.61639530854, 11210.405672836981, 40510.100485098425, 12646.92993723511, 30990.55957681651, -0.062, 0.984, -0.026000000000000002, 192.0, 0.0, 0.0, 0.0, 0.0, 0.0, 0.0, 0.0, 0.0, 0.0, 1.700951437372532E9, 0.0, 2023-11-25 17:30:37.372
96.0, 35561.491317926804, 52314.52611857964, 17021.948638194637, -23785.7653243262, 11399.993169306896, 40778.50023251775, 12662.196178698085, 31015.861751539916, -0.062, 0.984, -0.026000000000000002, 192.0, 0.0, 0.0, 0.0, 0.0, 0.0, 0.0, 0.0, 0.0, 0.0, 1.70095143737658E9, 0.0, 2023-11-25 17:30:37.376
97.0, 35547.36501543105, 52223.42040817981, 17021.591010283355, -23848.327857056604, 11411.191393279005, 41029.62208147313, 12651.623803570725, 30998.919129242797, -0.062, 0.984, -0.026000000000000002, 192.0, 0.0, 0.0, 0.0, 0.0, 0.0, 0.0, 0.0, 0.0, 0.0, 1.700951437381592E9, 0.0, 2023-11-25 17:30:37.381
98.0, 35378.16230990438, 52159.04738414853, 16995.283007059457, -23926.78248009473, 11269.056650287706, 40438.798420285995, 12659.044582729886, 31001.109600199416, -0.062, 0.984, -0.026000000000000002, 192.0, 0.0, 0.0, 0.0, 0.0, 0.0, 0.0, 0.0, 0.0, 0.0, 1.70095143738562E9, 0.0, 2023-11-25 17:30:37.385
99.0, 35400.692868315324, 52239.401905465355, 16972.417172481677, -23883.934185973907, 11220.17338516395, 40525.187912605754, 12657.368201895739, 31017.940463774263, -0.062, 0.984, -0.026000000000000002, 192.0, 0.0, 0.0, 0.0, 0.0, 0.0, 0.0, 0.0, 0.0, 0.0, 1.700951437390296E9, 0.0, 2023-11-25 17:30:37.390
100.0, 35525.281491909205, 52301.38329283992, 17009.297550832933, -23810.776926371687, 11349.366468115624, 40680.08550168103, 12675.629577115724, 31032.46909767021, -0.066, 0.982, -0.024, 192.0, 253.0, 240.0, 30.0, 176.0, 255.0, 64.0, 0.0, 0.0, 0.0, 1.70095143739284E9, 0.0, 2023-11-25 17:30:37.392
101.0, 35584.04422808221, 52241.860597355444, 17020.02638817148, -23820.254066020738, 11446.060114629283, 41102.42171316406, 12667.761763067456, 31017.6722428408, -0.066, 0.982, -0.024, 192.0, 0.0, 0.0, 0.0, 0.0, 0.0, 0.0, 0.0, 0.0, 0.0, 1.700951437396642E9, 0.0, 2023-11-25 17:30:37.396
102.0, 35379.27989712714, 52138.93081413875, 16985.917626132683, -23946.89905010451, 11263.17814149596, 40484.70890339719, 12664.07372523233, 31000.6178618214, -0.066, 0.982, -0.024, 192.0, 0.0, 0.0, 0.0, 0.0, 0.0, 0.0, 0.0, 0.0, 0.0, 1.700951437400711E9, 0.0, 2023-11-25 17:30:37.400
103.0, 35395.462560112785, 52216.44666390976, 16962.135370032236, -23891.19850292188, 11223.570850321157, 40514.79435143404, 12657.904643762666, 31015.3700131619, -0.066, 0.982, -0.024, 192.0, 0.0, 0.0, 0.0, 0.0, 0.0, 0.0, 0.0, 0.0, 0.0, 1.700951437405236E9, 0.0, 2023-11-25 17:30:37.405
104.0, 35488.19994785785, 52288.35222582248, 16985.090611587835, -23836.66024645093, 11292.347168010136, 40588.28688720309, 12661.011536241955, 31018.722774830196, -0.066, 0.982, -0.024, 192.0, 0.0, 0.0, 0.0, 0.0, 0.0, 0.0, 0.0, 0.0, 0.0, 1.700951437408785E9, 0.0, 2023-11-25 17:30:37.408
105.0, 35608.832312683146, 52267.29688254558, 17013.85730670182, -23791.50972265121, 11465.483780560944, 41099.13600672913, 12645.410018612149, 31012.933673016272, -0.066, 0.982, -0.024, 192.0, 0.0, 0.0, 0.0, 0.0, 0.0, 0.0, 0.0, 0.0, 0.0, 1.700951437413786E9, 0.0, 2023-11-25 17:30:37.413
106.0, 35398.882377014445, 52148.385602043345, 16986.45406799961, -23947.144919293514, 11272.23059800036, 40535.469715055195, 12639.576213309314, 30978.400227832823, -0.066, 0.982, -0.024, 192.0, 0.0, 0.0, 0.0, 0.0, 0.0, 0.0, 0.0, 0.0, 0.0, 1.700951437417724E9, 0.0, 2023-11-25 17:30:37.417
107.0, 35404.96205150629, 52218.301858699546, 16969.422038724668, -23886.839912753097, 11243.776827308755, 40470.38143520134, 12642.124312177219, 31006.853998524428, -0.066, 0.982, -0.024, 192.0, 0.0, 0.0, 0.0, 0.0, 0.0, 0.0, 0.0, 0.0, 0.0, 1.700951437420728E9, 0.0, 2023-11-25 17:30:37.420
108.0, 35466.20583131383, 52289.805089212074, 16974.719402160576, -23853.24524083677, 11251.175254723461, 40524.427953294275, 12643.957155222555, 31005.825818279485, -0.066, 0.982, -0.024, 192.0, 0.0, 0.0, 0.0, 0.0, 0.0, 0.0, 0.0, 0.0, 0.0, 1.700951437424801E9, 0.0, 2023-11-25 17:30:37.424
109.0, 35620.634033755545, 52289.40275781188, 17015.13135613577, -23772.17546369737, 11469.46239107399, 41053.38198582912, 12646.59466106828, 31014.94533001725, -0.066, 0.982, -0.024, 192.0, 0.0, 0.0, 0.0, 0.0, 0.0, 0.0, 0.0, 0.0, 0.0, 1.700951437428755E9, 0.0, 2023-11-25 17:30:37.428
110.0, 35427.87258957298, 52151.1572183558, 16985.627053454766, -23942.36164598008, 11287.206266785415, 40650.08946062201, 12638.726847020012, 30970.331248084458, -0.068, 0.984, -0.028, 192.0, 253.0, 224.0, 30.0, 192.0, 255.0, 32.0, 0.0, 0.0, 0.0, 1.700951437432774E9, 0.0, 2023-11-25 17:30:37.432
111.0, 35396.96012699129, 52194.89958225484, 16966.583367178842, -23900.429773381922, 11244.335620920137, 40438.75371679708, 12644.515948833938, 30990.5148733276, -0.068, 0.984, -0.028, 192.0, 0.0, 0.0, 0.0, 0.0, 0.0, 0.0, 0.0, 0.0, 0.0, 1.700951437436845E9, 0.0, 2023-11-25 17:30:37.436
112.0, 35434.28754023165, 52267.45334475677, 16955.78747460693, -23883.643613295986, 11205.667103012456, 40493.26962152358, 12637.408094097149, 30980.568347044988, -0.068, 0.984, -0.028, 192.0, 0.0, 0.0, 0.0, 0.0, 0.0, 0.0, 0.0, 0.0, 0.0, 1.700951437441757E9, 0.0, 2023-11-25 17:30:37.441
113.0, 35606.35126904861, 52296.801185226584, 17005.542457764444, -23778.52335912268, 11443.26614657237, 40954.27435091428, 12645.186501167596, 31006.89870201334, -0.068, 0.984, -0.028, 192.0, 0.0, 0.0, 0.0, 0.0, 0.0, 0.0, 0.0, 0.0, 0.0, 1.700951437445864E9, 0.0, 2023-11-25 17:30:37.445
114.0, 35461.511964978214, 52172.68194826627, 16985.112963332293, -23920.144011991502, 11312.419034531002, 40771.23591556978, 12639.375047609217, 30976.12034989838, -0.068, 0.984, -0.028, 192.0, 0.0, 0.0, 0.0, 0.0, 0.0, 0.0, 0.0, 0.0, 0.0, 1.700951437448823E9, 0.0, 2023-11-25 17:30:37.448
115.0, 35391.93098448885, 52189.42340486329, 16972.32776550386, -23905.905950773475, 11249.99061226733, 40396.643030243285, 12651.489693103993, 30997.555672831022, -0.068, 0.984, -0.028, 192.0, 0.0, 0.0, 0.0, 0.0, 0.0, 0.0, 0.0, 0.0, 0.0, 1.700951437452849E9, 0.0, 2023-11-25 17:30:37.452
116.0, 35424.29631046013, 52265.44168775579, 16957.530910674443, -23878.234491137802, 11194.044195895696, 40477.91397308278, 12640.604393554258, 30993.219434406692, -0.068, 0.984, -0.028, 192.0, 0.0, 0.0, 0.0, 0.0, 0.0, 0.0, 0.0, 0.0, 0.0, 1.700951437456909E9, 0.0, 2023-11-25 17:30:37.456
117.0, 35594.03545785373, 52310.16752841086, 17009.588123510854, -23770.23086192976, 11413.158346791071, 40838.62642510253, 12649.947422736577, 31016.532303873577, -0.068, 0.984, -0.028, 192.0, 0.0, 0.0, 0.0, 0.0, 0.0, 0.0, 0.0, 0.0, 0.0, 1.700951437460865E9, 0.0, 2023-11-25 17:30:37.460
118.0, 35519.470038350824, 52201.22512593569, 17001.340329806844, -23875.90990971445, 11354.082686195694, 40904.318202056675, 12637.408094097149, 30982.021210434585, -0.068, 0.984, -0.028, 192.0, 0.0, 0.0, 0.0, 0.0, 0.0, 0.0, 0.0, 0.0, 0.0, 1.700951437464903E9, 0.0, 2023-11-25 17:30:37.464
119.0, 35391.01456296618, 52173.57601804448, 16982.31899527538, -23910.845686298097, 11248.068362244174, 40390.272783073524, 12651.512044848449, 30993.107675684416, -0.068, 0.984, -0.028, 192.0, 0.0, 0.0, 0.0, 0.0, 0.0, 0.0, 0.0, 0.0, 0.0, 1.700951437468831E9, 0.0, 2023-11-25 17:30:37.468
120.0, 35419.378926679965, 52256.679803929306, 16963.945861333115, -23874.501749813768, 11192.770146461744, 40491.2579645226, 12654.350716394272, 31004.171789189793, -0.068, 0.986, -0.024, 192.0, 253.0, 224.0, 30.0, 208.0, 255.0, 64.0, 0.0, 0.0, 0.0, 1.700951437473983E9, 0.0, 2023-11-25 17:30:37.473
121.0, 35565.492280184306, 52314.906098235384, 17009.476364788577, -23782.613728358, 11367.717250313432, 40743.98913907875, 12672.522684636437, 31027.08232725648, -0.068, 0.986, -0.024, 192.0, 0.0, 0.0, 0.0, 0.0, 0.0, 0.0, 0.0, 0.0, 0.0, 1.700951437476885E9, 0.0, 2023-11-25 17:30:37.476
122.0, 35564.397044706, 52230.394152449866, 17007.285893831955, -23841.734092442286, 11389.733718601909, 41029.21975007293, 12655.602414083769, 31000.215530421203, -0.068, 0.986, -0.024, 192.0, 0.0, 0.0, 0.0, 0.0, 0.0, 0.0, 0.0, 0.0, 0.0, 1.700951437480923E9, 0.0, 2023-11-25 17:30:37.480
123.0, 35389.8522722545, 52163.785953973056, 16982.140181319737, -23931.386939452525, 11239.574699351157, 40416.02199268604, 12662.062068231353, 30995.812236763508, -0.068, 0.986, -0.024, 192.0, 0.0, 0.0, 0.0, 0.0, 0.0, 0.0, 0.0, 0.0, 0.0, 1.700951437484874E9, 0.0, 2023-11-25 17:30:37.484
124.0, 35419.781258080155, 52252.74589690517, 16966.628070667753, -23874.948784702872, 11201.509678543769, 40492.621420934374, 12666.152437466675, 31014.654757339333, -0.068, 0.986, -0.024, 192.0, 0.0, 0.0, 0.0, 0.0, 0.0, 0.0, 0.0, 0.0, 0.0, 1.700951437488972E9, 0.0, 2023-11-25 17:30:37.488
125.0, 35539.810125805154, 52322.796264028104, 17002.770841451984, -23801.61271114501, 11320.733883468376, 40640.63467271742, 12678.26708296145, 31020.175638219793, -0.068, 0.986, -0.024, 192.0, 0.0, 0.0, 0.0, 0.0, 0.0, 0.0, 0.0, 0.0, 0.0, 1.700951437492944E9, 0.0, 2023-11-25 17:30:37.492
126.0, 35612.676812729456, 52276.841077428, 17020.920457949695, -23800.38336519997, 11431.68794294452, 41072.17980291603, 12660.720963564036, 30995.43225710777, -0.068, 0.986, -0.024, 192.0, 0.0, 0.0, 0.0, 0.0, 0.0, 0.0, 0.0, 0.0, 0.0, 1.700951437497476E9, 0.0, 2023-11-25 17:30:37.497
127.0, 35403.19626369432, 52171.00556743212, 16986.230550555058, -23935.41025345448, 11243.240385441826, 40453.7964408155, 12653.41194312715, 30965.056236393004, -0.068, 0.986, -0.024, 192.0, 0.0, 0.0, 0.0, 0.0, 0.0, 0.0, 0.0, 0.0, 0.0, 1.700951437501945E9, 0.0, 2023-11-25 17:30:37.501
128.0, 35418.08252550155, 52247.06855381353, 16964.05762005539, -23879.30737487166, 11206.784690235221, 40477.46693819368, 12647.734600035501, 30988.771437260086, -0.068, 0.986, -0.024, 192.0, 0.0, 0.0, 0.0, 0.0, 0.0, 0.0, 0.0, 0.0, 0.0, 1.700951437504974E9, 0.0, 2023-11-25 17:30:37.504
129.0, 35507.26598587823, 52322.9974297282, 16987.973986622572, -23824.99263584526, 11267.13440026455, 40541.30352035803, 12655.714172806047, 31001.08724845496, -0.068, 0.986, -0.024, 192.0, 0.0, 0.0, 0.0, 0.0, 0.0, 0.0, 0.0, 0.0, 0.0, 1.700951437509005E9, 0.0, 2023-11-25 17:30:37.509
130.0, 35637.37549035257, 52302.43382482932, 17017.858268959317, -23767.593356084035, 11451.26807108737, 41067.86591623616, 12648.047524457876, 31007.166922946803, -0.068, 0.982, -0.018000000000000002, 192.0, 253.0, 224.0, 30.0, 176.0, 255.0, 112.0, 0.0, 0.0, 0.0, 1.700951437513115E9, 0.0, 2023-11-25 17:30:37.513
131.0, 35421.748211592225, 52169.351538342424, 16984.956501121105, -23934.471480187356, 11256.740839092832, 40546.26560762711, 12641.274945887917, 30967.783149216553, -0.068, 0.982, -0.018000000000000002, 192.0, 0.0, 0.0, 0.0, 0.0, 0.0, 0.0, 0.0, 0.0, 0.0, 1.700951437516994E9, 0.0, 2023-11-25 17:30:37.516
132.0, 35419.26716795769, 52230.10357977195, 16965.219910767068, -23880.648479538977, 11222.36385612057, 40461.70895835268, 12640.671448787625, 30993.04062045105, -0.068, 0.982, -0.018000000000000002, 192.0, 0.0, 0.0, 0.0, 0.0, 0.0, 0.0, 0.0, 0.0, 0.0, 1.700951437521036E9, 0.0, 2023-11-25 17:30:37.521
133.0, 35481.58383149908, 52305.38425509742, 16974.227663782556, -23846.405607033445, 11225.537803833224, 40497.20352854771, 12647.198158168574, 31004.46236186771, -0.068, 0.982, -0.018000000000000002, 192.0, 0.0, 0.0, 0.0, 0.0, 0.0, 0.0, 0.0, 0.0, 0.0, 1.700951437525046E9, 0.0, 2023-11-25 17:30:37.525
134.0, 35639.11892642009, 52311.93331622283, 17015.824260213885, -23758.764417024187, 11451.849216443208, 41019.96612786843, 12648.673373302625, 31017.627539351888, -0.068, 0.982, -0.018000000000000002, 192.0, 0.0, 0.0, 0.0, 0.0, 0.0, 0.0, 0.0, 0.0, 0.0, 1.700951437530056E9, 0.0, 2023-11-25 17:30:37.530
135.0, 35452.48186021827, 52175.9676547012, 16987.392841266734, -23925.30726496068, 11275.248083501827, 40660.63948400492, 12636.782245252401, 30978.310820855004, -0.068, 0.982, -0.018000000000000002, 192.0, 0.0, 0.0, 0.0, 0.0, 0.0, 0.0, 0.0, 0.0, 0.0, 1.700951437533066E9, 0.0, 2023-11-25 17:30:37.533
136.0, 35417.32256619007, 52213.250364452644, 16969.69025965813, -23887.555168575665, 11231.7515887918, 40432.38346962732, 12644.448893600571, 31014.028908494583, -0.068, 0.982, -0.018000000000000002, 192.0, 0.0, 0.0, 0.0, 0.0, 0.0, 0.0, 0.0, 0.0, 0.0, 1.700951437536093E9, 0.0, 2023-11-25 17:30:37.536
137.0, 35457.51100272072, 52288.35222582248, 16962.35888747679, -23865.516348542733, 11193.708919728866, 40490.319191255476, 12642.638402299692, 31013.51481837211, -0.068, 0.982, -0.018000000000000002, 192.0, 0.0, 0.0, 0.0, 0.0, 0.0, 0.0, 0.0, 0.0, 0.0, 1.700951437541186E9, 0.0, 2023-11-25 17:30:37.541
138.0, 35628.63595827055, 52319.376447126444, 17012.60560901232, -23762.363047881492, 11427.798739409298, 40932.61551053709, 12651.512044848449, 31035.732452360688, -0.068, 0.982, -0.018000000000000002, 192.0, 0.0, 0.0, 0.0, 0.0, 0.0, 0.0, 0.0, 0.0, 0.0, 1.700951437546101E9, 0.0, 2023-11-25 17:30:37.546
139.0, 35493.49731129376, 52192.28442815357, 16991.773783179975, -23904.3413286616, 11306.182897827972, 40792.73829373578, 12638.391570853182, 30990.984259961162, -0.068, 0.986, -0.018000000000000002, 192.0, 253.0, 224.0, 30.0, 208.0, 255.0, 112.0, 0.0, 0.0, 0.0, 1.700951437549156E9, 0.0, 2023-11-25 17:30:37.549
140.0, 35404.96205150629, 52195.32426539949, 16972.59598643732, -23902.173209449436, 11236.065475471672, 40386.65180047176, 12645.8347017568, 31004.90939675682, -0.068, 0.986, -0.018000000000000002, 192.0, 0.0, 0.0, 0.0, 0.0, 0.0, 0.0, 0.0, 0.0, 0.0, 1.700951437553204E9, 0.0, 2023-11-25 17:30:37.553
141.0, 35433.147601264434, 52274.82942042702, 16957.10622752979, -23872.423037579425, 11184.567056246646, 40472.61660964687, 12642.146663921674, 31007.74806830264, -0.068, 0.986, -0.018000000000000002, 192.0, 0.0, 0.0, 0.0, 0.0, 0.0, 0.0, 0.0, 0.0, 0.0, 1.700951437557197E9, 0.0, 2023-11-25 17:30:37.557
142.0, 35598.483455000336, 52325.9031565074, 17011.108042133816, -23764.46411186029, 11403.033006552818, 40812.1843114119, 12656.876463517721, 31032.133821503383, -0.068, 0.986, -0.018000000000000002, 192.0, 0.0, 0.0, 0.0, 0.0, 0.0, 0.0, 0.0, 0.0, 0.0, 1.700951437561265E9, 0.0, 2023-11-25 17:30:37.561
143.0, 35534.33394841361, 52215.53024238709, 16999.954521650616, -23863.527043286213, 11356.116694941127, 40930.872074469575, 12644.873576745222, 30997.600376319933, -0.068, 0.986, -0.018000000000000002, 192.0, 0.0, 0.0, 0.0, 0.0, 0.0, 0.0, 0.0, 0.0, 0.0, 1.700951437564416E9, 0.0, 2023-11-25 17:30:37.564
144.0, 35396.40133337991, 52179.38747160286, 16981.871960386274, -23912.58912236561, 11242.659240085988, 40380.86269865784, 12659.357507152261, 31005.535245601568, -0.068, 0.986, -0.018000000000000002, 192.0, 0.0, 0.0, 0.0, 0.0, 0.0, 0.0, 0.0, 0.0, 0.0, 1.700951437569216E9, 0.0, 2023-11-25 17:30:37.569
145.0, 35424.139848248946, 52261.55248422056, 16963.096495043814, -23871.573671290123, 11195.094727885096, 40477.39988296031, 12662.620861842735, 31022.924902787796, -0.068, 0.986, -0.018000000000000002, 192.0, 0.0, 0.0, 0.0, 0.0, 0.0, 0.0, 0.0, 0.0, 0.0, 1.700951437573211E9, 0.0, 2023-11-25 17:30:37.573
146.0, 35562.13951851601, 52316.06838894706, 17004.17900135267, -23784.46892314779, 11356.697840296965, 40701.87845252496, 12681.619844629748, 31045.61192340993, -0.068, 0.986, -0.018000000000000002, 192.0, 0.0, 0.0, 0.0, 0.0, 0.0, 0.0, 0.0, 0.0, 0.0, 1.700951437577236E9, 0.0, 2023-11-25 17:30:37.577
147.0, 35573.22598376584, 52235.15507401885, 17005.676568231174, -23828.837135891576, 11395.455765182467, 41017.46273248944, 12664.856036288267, 31017.158152718326, -0.068, 0.986, -0.018000000000000002, 192.0, 0.0, 0.0, 0.0, 0.0, 0.0, 0.0, 0.0, 0.0, 0.0, 1.700951437581259E9, 0.0, 2023-11-25 17:30:37.581
