%OpenBCI Raw EXG Data
%Number of channels = 8
%Sample Rate = 250 Hz
%Board = OpenBCI_GUI$BoardCytonSerial
Sample Index, EXG Channel 0, EXG Channel 1, EXG Channel 2, EXG Channel 3, EXG Channel 4, EXG Channel 5, EXG Channel 6, EXG Channel 7, Accel Channel 0, Accel Channel 1, Accel Channel 2, Other, Other, Other, Other, Other, Other, Other, Analog Channel 0, Analog Channel 1, Analog Channel 2, Timestamp, Other, Timestamp (Formatted)
75.0, 8776.54657084305, 13134.64500124991, -60721.643057065376, -59439.77051255352, -69916.79309806741, 4043.5870341762347, -30480.336306135217, 25145.556050009258, 0.0, 0.0, 0.0, 192.0, 0.0, 0.0, 0.0, 0.0, 0.0, 0.0, 0.0, 0.0, 0.0, 1.700950097775389E9, 0.0, 2023-11-25 17:08:17.775
76.0, 8733.854738933414, 13105.140698568905, -60701.7276527557, -59430.13691069328, -69976.22638657408, 3946.044021373275, -30498.620033099658, 25147.03126514331, -0.212, 0.9520000000000001, 0.162, 192.0, 249.0, 96.0, 29.0, 192.0, 5.0, 16.0, 0.0, 0.0, 0.0, 1.700950097775417E9, 0.0, 2023-11-25 17:08:17.775
77.0, 8794.964408274223, 13213.099624288037, -60642.80845437151, -59359.237177281044, -69964.67053469068, 3968.842800717688, -30470.434483341516, 25200.004899502386, -0.212, 0.9520000000000001, 0.162, 192.0, 0.0, 0.0, 0.0, 0.0, 0.0, 0.0, 0.0, 0.0, 0.0, 1.700950097775431E9, 0.0, 2023-11-25 17:08:17.775
0.0, 0.0, 0.0, 0.0, 0.0, 0.0, 0.0, 0.0, 0.0, -0.216, 0.9460000000000001, 0.158, 192.0, 249.0, 64.0, 29.0, 144.0, 4.0, 240.0, 0.0, 0.0, 0.0, 1.700950097851941E9, 0.0, 2023-11-25 17:08:17.851
1.0, 8907.304275906596, 13636.195795082545, -59919.90833519797, -58727.80039641862, -69394.76810631373, 3996.5366120978133, -31087.90142391937, 24989.719687666857, -0.216, 0.9460000000000001, 0.158, 192.0, 0.0, 0.0, 0.0, 0.0, 0.0, 0.0, 0.0, 0.0, 0.0, 1.700950097869016E9, 0.0, 2023-11-25 17:08:17.869
2.0, 8797.02076876411, 13501.593589972686, -59956.96752750487, -58788.70890005933, -69472.9992119073, 3865.041299467242, -31136.382357642935, 24946.759634823757, -0.216, 0.9460000000000001, 0.158, 192.0, 0.0, 0.0, 0.0, 0.0, 0.0, 0.0, 0.0, 0.0, 0.0, 1.700950097872024E9, 0.0, 2023-11-25 17:08:17.872
3.0, 8793.533896629084, 13536.641125278607, -59936.068646439155, -58759.62928052298, -69499.88836048704, 3859.3863081200493, -31129.92270349535, 24977.09095204961, -0.216, 0.9460000000000001, 0.158, 192.0, 0.0, 0.0, 0.0, 0.0, 0.0, 0.0, 0.0, 0.0, 0.0, 1.700950097874993E9, 0.0, 2023-11-25 17:08:17.874
4.0, 8870.446249299795, 13650.478559789486, -59876.50124746576, -58689.78007910014, -69478.54244453221, 3880.5981136081355, -31112.622453286942, 25009.255112320796, -0.216, 0.9460000000000001, 0.158, 192.0, 0.0, 0.0, 0.0, 0.0, 0.0, 0.0, 0.0, 0.0, 0.0, 1.700950097879253E9, 0.0, 2023-11-25 17:08:17.879
5.0, 8904.107976449488, 13652.534920279375, -59912.509907783264, -58714.72462591227, -69406.54747564167, 3988.4005771160814, -31085.4874355182, 25011.736155955336, -0.216, 0.9460000000000001, 0.158, 192.0, 0.0, 0.0, 0.0, 0.0, 0.0, 0.0, 0.0, 0.0, 0.0, 1.700950097883016E9, 0.0, 2023-11-25 17:08:17.883
6.0, 8796.953713530746, 13505.080462107715, -59974.5583503912, -58795.90616177394, -69476.53078753124, 3881.1792589639736, -31148.78757581563, 24944.36799816704, -0.216, 0.9460000000000001, 0.158, 192.0, 0.0, 0.0, 0.0, 0.0, 0.0, 0.0, 0.0, 0.0, 0.0, 1.700950097887031E9, 0.0, 2023-11-25 17:08:17.887
7.0, 8782.64859707935, 13516.993941902392, -59952.54188210272, -58766.558321304125, -69509.90194200301, 3853.016060950287, -31155.895430552417, 24974.18522527042, -0.216, 0.9460000000000001, 0.158, 192.0, 0.0, 0.0, 0.0, 0.0, 0.0, 0.0, 0.0, 0.0, 0.0, 1.700950097891058E9, 0.0, 2023-11-25 17:08:17.891
8.0, 8849.256795556164, 13625.93634437756, -59893.913256396445, -58695.7032913808, -69494.18866565093, 3879.972264763387, -31142.372625156957, 25018.687548480935, -0.212, 0.9440000000000001, 0.158, 192.0, 249.0, 96.0, 29.0, 128.0, 4.0, 240.0, 0.0, 0.0, 0.0, 1.700950097895132E9, 0.0, 2023-11-25 17:08:17.895
9.0, 8913.71922656527, 13674.260815889933, -59893.68973895189, -58684.79564008661, -69408.11209775355, 3987.2829898933164, -31104.218197371745, 25022.755565971802, -0.212, 0.9440000000000001, 0.158, 192.0, 0.0, 0.0, 0.0, 0.0, 0.0, 0.0, 0.0, 0.0, 0.0, 1.700950097899091E9, 0.0, 2023-11-25 17:08:17.899
10.0, 8815.907992828847, 13535.702352011485, -59973.887798057534, -58783.79151627917, -69457.57650823313, 3911.354113978638, -31159.69522710982, 24928.207686925853, -0.212, 0.9440000000000001, 0.158, 192.0, 0.0, 0.0, 0.0, 0.0, 0.0, 0.0, 0.0, 0.0, 0.0, 1.700950097902103E9, 0.0, 2023-11-25 17:08:17.902
11.0, 8779.429945877784, 13512.255372077869, -59952.38541989153, -58769.30758587213, -69506.4597733569, 3835.715810741879, -31173.665067394388, 24938.757710308757, -0.212, 0.9440000000000001, 0.158, 192.0, 0.0, 0.0, 0.0, 0.0, 0.0, 0.0, 0.0, 0.0, 0.0, 1.700950097906224E9, 0.0, 2023-11-25 17:08:17.906
12.0, 8845.680516443315, 13624.483480987965, -59890.02405286123, -58696.26208499219, -69487.08081091414, 3875.5466193612365, -31144.49604088021, 25001.968443628364, -0.212, 0.9440000000000001, 0.158, 192.0, 0.0, 0.0, 0.0, 0.0, 0.0, 0.0, 0.0, 0.0, 0.0, 1.700950097910102E9, 0.0, 2023-11-25 17:08:17.910
13.0, 8928.471377905773, 13698.244237690478, -59864.632471159995, -58660.7451630527, -69404.75933608525, 3976.5765042992243, -31092.26001408816, 25045.15201391602, -0.212, 0.9440000000000001, 0.158, 192.0, 0.0, 0.0, 0.0, 0.0, 0.0, 0.0, 0.0, 0.0, 0.0, 1.700950097914212E9, 0.0, 2023-11-25 17:08:17.914
14.0, 8845.278185043118, 13562.993831991414, -59958.26392868328, -58768.18999864936, -69432.40844397646, 3951.4754952759145, -31145.12188972496, 24958.918983807445, -0.212, 0.9440000000000001, 0.158, 192.0, 0.0, 0.0, 0.0, 0.0, 0.0, 0.0, 0.0, 0.0, 0.0, 1.700950097918129E9, 0.0, 2023-11-25 17:08:17.918
15.0, 8779.005262733133, 13496.698557936974, -59951.446646624405, -58775.61077780853, -69501.67650004345, 3842.7119067563904, -31176.213166262292, 24942.021064999233, -0.212, 0.9440000000000001, 0.158, 192.0, 0.0, 0.0, 0.0, 0.0, 0.0, 0.0, 0.0, 0.0, 0.0, 1.700950097923184E9, 0.0, 2023-11-25 17:08:17.923
16.0, 8826.189795278287, 13593.392204450633, -59906.67610248043, -58717.965628858285, -69497.6978895304, 3872.7079478154124, -31159.806985832096, 24977.26976600525, -0.212, 0.9440000000000001, 0.158, 192.0, 0.0, 0.0, 0.0, 0.0, 0.0, 0.0, 0.0, 0.0, 0.0, 1.700950097926178E9, 0.0, 2023-11-25 17:08:17.926
17.0, 8919.642438845925, 13694.824420788816, -59855.691773377876, -58656.61009032847, -69422.23840024929, 3954.6941464774786, -31104.95580493877, 25033.104423654608, -0.212, 0.9440000000000001, 0.158, 192.0, 0.0, 0.0, 0.0, 0.0, 0.0, 0.0, 0.0, 0.0, 0.0, 1.700950097929397E9, 0.0, 2023-11-25 17:08:17.929
18.0, 8857.303423560075, 13586.016128780382, -59958.42039089446, -58762.847931724544, -69427.42400496293, 3971.0556234187634, -31141.21033444528, 24957.13084425102, -0.212, 0.9400000000000001, 0.164, 192.0, 249.0, 96.0, 29.0, 96.0, 5.0, 32.0, 0.0, 0.0, 0.0, 1.700950097934333E9, 0.0, 2023-11-25 17:08:17.934
19.0, 8776.837143520968, 13494.306921280257, -59955.11233271508, -58780.192885421864, -69500.98359596534, 3839.694421254924, -31179.878852352962, 24932.07453871662, -0.212, 0.9400000000000001, 0.164, 192.0, 0.0, 0.0, 0.0, 0.0, 0.0, 0.0, 0.0, 0.0, 0.0, 1.700950097938272E9, 0.0, 2023-11-25 17:08:17.938
20.0, 8809.35893170344, 13573.16387571858, -59913.89571593949, -58724.98407661726, -69497.34026161913, 3877.5135728733035, -31154.12964274045, 24988.222120788352, -0.212, 0.9400000000000001, 0.164, 192.0, 0.0, 0.0, 0.0, 0.0, 0.0, 0.0, 0.0, 0.0, 0.0, 1.700950097942234E9, 0.0, 2023-11-25 17:08:17.942
21.0, 8895.56961006756, 13678.66410954763, -59857.569319912116, -58659.51581710766, -69443.38315050401, 3934.197596811962, -31103.10061014898, 25049.80117676272, -0.212, 0.9400000000000001, 0.164, 192.0, 0.0, 0.0, 0.0, 0.0, 0.0, 0.0, 0.0, 0.0, 0.0, 1.7009500979477E9, 0.0, 2023-11-25 17:08:17.947
22.0, 8866.221769597742, 13605.529201689864, -59941.36600987506, -58745.50297802722, -69414.08001352311, 3993.7873475298106, -31122.099592935992, 24983.885882364022, -0.212, 0.9400000000000001, 0.164, 192.0, 0.0, 0.0, 0.0, 0.0, 0.0, 0.0, 0.0, 0.0, 0.0, 1.700950097950314E9, 0.0, 2023-11-25 17:08:17.950
23.0, 8761.839122991458, 13478.86186586164, -59969.88683580003, -58800.80119380965, -69504.403412867, 3846.3552411026053, -31179.2083000193, 24927.51478284774, -0.212, 0.9400000000000001, 0.164, 192.0, 0.0, 0.0, 0.0, 0.0, 0.0, 0.0, 0.0, 0.0, 0.0, 1.700950097954394E9, 0.0, 2023-11-25 17:08:17.954
24.0, 8784.995530247155, 13543.905442226584, -59934.23580339382, -58756.9694229328, -69513.27705541576, 3867.8352675241554, -31159.918744554372, 24978.208539272375, -0.212, 0.9400000000000001, 0.164, 192.0, 0.0, 0.0, 0.0, 0.0, 0.0, 0.0, 0.0, 0.0, 0.0, 1.700950097958373E9, 0.0, 2023-11-25 17:08:17.958
25.0, 8877.956435436778, 13668.672879776106, -59858.396334456964, -58675.72083183776, -69464.7961216922, 3917.724361148401, -31105.738115994707, 25040.301685369217, -0.212, 0.9400000000000001, 0.164, 192.0, 0.0, 0.0, 0.0, 0.0, 0.0, 0.0, 0.0, 0.0, 0.0, 1.700950097962361E9, 0.0, 2023-11-25 17:08:17.962
26.0, 8883.030281428133, 13635.88287066017, -59918.81309971966, -58732.60602147652, -69410.86136232155, 4006.1702139580507, -31101.267767103647, 24996.46991449236, -0.212, 0.9400000000000001, 0.164, 192.0, 0.0, 0.0, 0.0, 0.0, 0.0, 0.0, 0.0, 0.0, 0.0, 1.700950097966374E9, 0.0, 2023-11-25 17:08:17.966
27.0, 8764.789553259558, 13478.280720505802, -59971.317347445176, -58811.48532765929, -69498.21197965289, 3866.985901234854, -31172.4580731938, 24928.1853351814, -0.212, 0.9400000000000001, 0.164, 192.0, 0.0, 0.0, 0.0, 0.0, 0.0, 0.0, 0.0, 0.0, 0.0, 1.700950097970394E9, 0.0, 2023-11-25 17:08:17.970
28.0, 8760.721535768693, 13502.979398128915, -59945.00934422128, -58777.175399920394, -69522.73184332036, 3861.755593032312, -31177.487215696245, 24966.295059477696, -0.218, 0.9440000000000001, 0.16, 192.0, 249.0, 48.0, 29.0, 128.0, 5.0, 0.0, 0.0, 0.0, 0.0, 1.700950097974417E9, 0.0, 2023-11-25 17:08:17.974
29.0, 8847.446304255283, 13625.668123444097, -59875.16014279844, -58696.373843714464, -69490.54533130472, 3899.887669073066, -31144.83131704704, 25021.7050339824, -0.218, 0.9440000000000001, 0.16, 192.0, 0.0, 0.0, 0.0, 0.0, 0.0, 0.0, 0.0, 0.0, 0.0, 1.70095009797744E9, 0.0, 2023-11-25 17:08:17.977
30.0, 8886.561857052071, 13640.554385251331, -59905.04442513519, -58717.630352691456, -69414.54940015667, 4008.31598142576, -31112.4436393313, 25009.32216755416, -0.218, 0.9440000000000001, 0.16, 192.0, 0.0, 0.0, 0.0, 0.0, 0.0, 0.0, 0.0, 0.0, 0.0, 1.700950097981538E9, 0.0, 2023-11-25 17:08:17.981
31.0, 8778.155896443832, 13499.179601571514, -59969.976242777855, -58804.042196755676, -69478.40833406548, 3904.3133144752164, -31172.726294127264, 24929.74995729327, -0.218, 0.9440000000000001, 0.16, 192.0, 0.0, 0.0, 0.0, 0.0, 0.0, 0.0, 0.0, 0.0, 0.0, 1.700950097986069E9, 0.0, 2023-11-25 17:08:17.986
32.0, 8749.411553074307, 13498.062014348749, -59958.62155659456, -58791.88284777199, -69525.48110788836, 3854.4018691065157, -31189.199529790825, 24943.161003966452, -0.218, 0.9440000000000001, 0.16, 192.0, 0.0, 0.0, 0.0, 0.0, 0.0, 0.0, 0.0, 0.0, 0.0, 1.700950097989516E9, 0.0, 2023-11-25 17:08:17.989
33.0, 8822.07707429851, 13616.012169839403, -59894.42734651892, -58718.83734689205, -69506.57153207916, 3885.4037386660266, -31161.72923585525, 25007.645786720015, -0.218, 0.9440000000000001, 0.16, 192.0, 0.0, 0.0, 0.0, 0.0, 0.0, 0.0, 0.0, 0.0, 0.0, 1.700950097994526E9, 0.0, 2023-11-25 17:08:17.994
34.0, 8903.057444460088, 13678.105315936247, -59875.540122454186, -58690.58474190054, -69407.15097274196, 4005.611420346668, -31112.309528864567, 25046.53782207225, -0.218, 0.9440000000000001, 0.16, 192.0, 0.0, 0.0, 0.0, 0.0, 0.0, 0.0, 0.0, 0.0, 0.0, 1.700950097998571E9, 0.0, 2023-11-25 17:08:17.998
35.0, 8796.819603064014, 13524.526479783832, -59971.026774767255, -58801.4270426544, -69462.98563039133, 3936.388067768582, -31183.633945421454, 24946.916097034944, -0.218, 0.9440000000000001, 0.16, 192.0, 0.0, 0.0, 0.0, 0.0, 0.0, 0.0, 0.0, 0.0, 0.0, 1.700950098002758E9, 0.0, 2023-11-25 17:08:18.002
36.0, 8763.470800336696, 13505.505145252366, -59942.371838375555, -58779.23176041029, -69507.57736057966, 3862.0908691991413, -31184.997401833225, 24966.026838544232, -0.218, 0.9440000000000001, 0.16, 192.0, 0.0, 0.0, 0.0, 0.0, 0.0, 0.0, 0.0, 0.0, 0.0, 1.700950098005597E9, 0.0, 2023-11-25 17:08:18.005
37.0, 8829.564908691038, 13619.767262907895, -59882.93854986889, -58707.23679151974, -69491.39469759402, 3897.7195498609008, -31156.87890730845, 25020.632150248548, -0.216, 0.9460000000000001, 0.166, 192.0, 249.0, 64.0, 29.0, 144.0, 5.0, 48.0, 0.0, 0.0, 0.0, 1.700950098009605E9, 0.0, 2023-11-25 17:08:18.009
38.0, 8912.065197475576, 13694.332682410799, -59858.64220364597, -58672.56923586956, -69416.80692634666, 3979.5939898006905, -31119.193866156802, 25039.161746402, -0.216, 0.9460000000000001, 0.166, 192.0, 0.0, 0.0, 0.0, 0.0, 0.0, 0.0, 0.0, 0.0, 0.0, 1.700950098013597E9, 0.0, 2023-11-25 17:08:18.013
39.0, 8823.373475476918, 13550.566262074264, -59967.76342007678, -58791.659330327435, -69450.22278430733, 3947.8545126741546, -31186.40556173391, 24939.048282986678, -0.216, 0.9460000000000001, 0.166, 192.0, 0.0, 0.0, 0.0, 0.0, 0.0, 0.0, 0.0, 0.0, 0.0, 1.700950098017695E9, 0.0, 2023-11-25 17:08:18.017
40.0, 8760.341556112953, 13483.756897897352, -59952.653640824996, -58793.78274605069, -69513.29940716022, 3830.9325374284435, -31212.13241960197, 24924.139669434986, -0.216, 0.9460000000000001, 0.166, 192.0, 0.0, 0.0, 0.0, 0.0, 0.0, 0.0, 0.0, 0.0, 0.0, 1.700950098022677E9, 0.0, 2023-11-25 17:08:18.022
41.0, 8805.290914212575, 13580.763468833384, -59909.17949785942, -58737.45635002331, -69508.69494780242, 3867.1870669349514, -31187.143169300936, 24971.50301593578, -0.216, 0.9460000000000001, 0.166, 192.0, 0.0, 0.0, 0.0, 0.0, 0.0, 0.0, 0.0, 0.0, 0.0, 1.70095009802772E9, 0.0, 2023-11-25 17:08:18.027
42.0, 8897.156583923887, 13681.435725860087, -59860.05036354666, -58679.67709060635, -69440.05274058017, 3939.1373323365847, -31137.410537887878, 25026.443603806925, -0.216, 0.9460000000000001, 0.166, 192.0, 0.0, 0.0, 0.0, 0.0, 0.0, 0.0, 0.0, 0.0, 0.0, 1.700950098030712E9, 0.0, 2023-11-25 17:08:18.030
43.0, 8859.024507883132, 13593.571018406275, -59940.09196044111, -58765.57484454809, -69419.71265312584, 3975.973007198931, -31154.956657285293, 24966.540928666705, -0.216, 0.9460000000000001, 0.166, 192.0, 0.0, 0.0, 0.0, 0.0, 0.0, 0.0, 0.0, 0.0, 0.0, 1.700950098034728E9, 0.0, 2023-11-25 17:08:18.034
44.0, 8766.220064904699, 13489.590703200187, -59950.66433556847, -58797.940170519374, -69502.19059016593, 3835.067610152675, -31198.74372467324, 24938.355378908564, -0.216, 0.9460000000000001, 0.166, 192.0, 0.0, 0.0, 0.0, 0.0, 0.0, 0.0, 0.0, 0.0, 0.0, 1.70095009803779E9, 0.0, 2023-11-25 17:08:18.037
45.0, 8789.756451816136, 13559.73047730094, -59924.0434079222, -58757.57292003309, -69515.48987811683, 3851.8090667497004, -31190.585337947054, 24966.295059477696, -0.216, 0.9460000000000001, 0.166, 192.0, 0.0, 0.0, 0.0, 0.0, 0.0, 0.0, 0.0, 0.0, 0.0, 1.700950098041801E9, 0.0, 2023-11-25 17:08:18.041
46.0, 8893.177973410842, 13683.693252050072, -59852.875453576504, -58675.47496264875, -69454.20139482038, 3915.6456489140573, -31141.299741423103, 25023.426118305462, -0.216, 0.9460000000000001, 0.166, 192.0, 0.0, 0.0, 0.0, 0.0, 0.0, 0.0, 0.0, 0.0, 0.0, 1.700950098045923E9, 0.0, 2023-11-25 17:08:18.045
47.0, 8875.788316224613, 13624.17055656559, -59930.19013764741, -58749.638050751455, -69415.75639435726, 3992.870926007143, -31151.536840383633, 24977.47093170535, -0.22, 0.9500000000000001, 0.162, 192.0, 249.0, 32.0, 29.0, 176.0, 5.0, 16.0, 0.0, 0.0, 0.0, 1.700950098050777E9, 0.0, 2023-11-25 17:08:18.050
48.0, 8764.25311139263, 13485.992072342882, -59961.951966518405, -58809.272504958215, -69505.63275881205, 3846.3552411026053, -31206.768000932694, 24927.715948547837, -0.22, 0.9500000000000001, 0.162, 192.0, 0.0, 0.0, 0.0, 0.0, 0.0, 0.0, 0.0, 0.0, 0.0, 1.70095009805492E9, 0.0, 2023-11-25 17:08:18.054
49.0, 8779.854629022435, 13541.603212547687, -59926.837375979114, -58767.9217777159, -69515.46752637238, 3863.4766773553706, -31190.004192591216, 24985.51755970926, -0.22, 0.9500000000000001, 0.162, 192.0, 0.0, 0.0, 0.0, 0.0, 0.0, 0.0, 0.0, 0.0, 0.0, 1.700950098060056E9, 0.0, 2023-11-25 17:08:18.060
50.0, 8870.982691166722, 13667.599996042252, -59853.925985565904, -58689.69067212233, -69473.51330202977, 3905.5650121647136, -31150.553363627598, 25047.923630228477, -0.22, 0.9500000000000001, 0.162, 192.0, 0.0, 0.0, 0.0, 0.0, 0.0, 0.0, 0.0, 0.0, 0.0, 1.700950098064235E9, 0.0, 2023-11-25 17:08:18.064
51.0, 8887.99236869721, 13652.534920279375, -59903.90448616797, -58733.88007091047, -69409.07322276512, 4007.8465947921986, -31136.360005898478, 25026.264789851284, -0.22, 0.9500000000000001, 0.162, 192.0, 0.0, 0.0, 0.0, 0.0, 0.0, 0.0, 0.0, 0.0, 0.0, 1.700950098067469E9, 0.0, 2023-11-25 17:08:18.067
52.0, 8775.093707453456, 13505.460441763455, -59952.96656524737, -58806.143260734476, -69486.23144462483, 3883.1015089871303, -31203.07996309757, 24953.621620371538, -0.22, 0.9500000000000001, 0.162, 192.0, 0.0, 0.0, 0.0, 0.0, 0.0, 0.0, 0.0, 0.0, 0.0, 1.700950098069887E9, 0.0, 2023-11-25 17:08:18.069
53.0, 8768.455239350229, 13530.449692064489, -59930.65952428097, -58773.77793476319, -69511.93595074845, 3872.1268024595743, -31203.70581194232, 24976.21923401585, -0.22, 0.9500000000000001, 0.162, 192.0, 0.0, 0.0, 0.0, 0.0, 0.0, 0.0, 0.0, 0.0, 0.0, 1.700950098074016E9, 0.0, 2023-11-25 17:08:18.074
54.0, 8848.22861531122, 13648.89158593316, -59861.88320659199, -58692.57404715706, -69482.78927597872, 3909.1636430220183, -31167.65244813591, 25037.820641734677, -0.22, 0.9500000000000001, 0.162, 192.0, 0.0, 0.0, 0.0, 0.0, 0.0, 0.0, 0.0, 0.0, 0.0, 1.700950098078075E9, 0.0, 2023-11-25 17:08:18.078
55.0, 8907.840717773524, 13682.03922296038, -59874.24372127578, -58694.31748322457, -69394.65634759144, 4032.32175497076, -31123.194828414304, 25048.214202906394, -0.22, 0.9500000000000001, 0.162, 192.0, 0.0, 0.0, 0.0, 0.0, 0.0, 0.0, 0.0, 0.0, 0.0, 1.70095009808301E9, 0.0, 2023-11-25 17:08:18.083
56.0, 8783.408556390828, 13515.183450601513, -59971.54086488973, -58811.55238289266, -69481.33641258912, 3918.327858248694, -31207.99734687774, 24948.994809269287, -0.22, 0.9500000000000001, 0.162, 192.0, 0.0, 0.0, 0.0, 0.0, 0.0, 0.0, 0.0, 0.0, 0.0, 1.700950098086996E9, 0.0, 2023-11-25 17:08:18.086
57.0, 8760.833294490969, 13513.618828489642, -59942.55065233119, -58783.970330234806, -69517.76975605128, 3863.722546544379, -31217.42978303788, 24982.835350374622, -0.222, 0.9500000000000001, 0.16, 192.0, 249.0, 16.0, 29.0, 176.0, 5.0, 0.0, 0.0, 0.0, 0.0, 1.700950098090033E9, 0.0, 2023-11-25 17:08:18.090
58.0, 8831.218937780732, 13627.724483933984, -59878.02116608872, -58708.130861297956, -69495.48506682934, 3899.038302783764, -31188.03723907915, 25038.222973134874, -0.222, 0.9500000000000001, 0.16, 192.0, 0.0, 0.0, 0.0, 0.0, 0.0, 0.0, 0.0, 0.0, 0.0, 1.70095009809408E9, 0.0, 2023-11-25 17:08:18.094
59.0, 8901.716339792769, 13684.877894506204, -59872.07560206361, -58691.23294248974, -69414.39293794548, 3999.8893737661097, -31145.703035080798, 25061.78171179077, -0.222, 0.9500000000000001, 0.16, 192.0, 0.0, 0.0, 0.0, 0.0, 0.0, 0.0, 0.0, 0.0, 0.0, 1.700950098098017E9, 0.0, 2023-11-25 17:08:18.098
60.0, 8804.709768856737, 13545.403009105088, -59967.69636484342, -58800.5776763651, -69461.86804316855, 3938.1315038360963, -31204.286957298158, 24972.195920013895, -0.222, 0.9500000000000001, 0.16, 192.0, 0.0, 0.0, 0.0, 0.0, 0.0, 0.0, 0.0, 0.0, 0.0, 1.700950098102097E9, 0.0, 2023-11-25 17:08:18.102
61.0, 8747.668117006793, 13496.184467814503, -59966.288204942735, -58806.05385375665, -69533.0136457698, 3831.513682784281, -31241.971998449804, 24949.97828602532, -0.222, 0.9500000000000001, 0.16, 192.0, 0.0, 0.0, 0.0, 0.0, 0.0, 0.0, 0.0, 0.0, 0.0, 1.70095009810807E9, 0.0, 2023-11-25 17:08:18.108
62.0, 8799.12183274291, 13595.962655062993, -59917.7402159858, -58744.94418441584, -69528.07391024518, 3856.681747040957, -31231.08669890007, 24995.55349296969, -0.222, 0.9500000000000001, 0.16, 192.0, 0.0, 0.0, 0.0, 0.0, 0.0, 0.0, 0.0, 0.0, 0.0, 1.700950098111247E9, 0.0, 2023-11-25 17:08:18.111
63.0, 8893.245028644209, 13691.426955631609, -59871.87443636351, -58687.075518021054, -69439.98568534681, 3948.458009774448, -31176.190814517835, 25044.52616507127, -0.222, 0.9500000000000001, 0.16, 192.0, 0.0, 0.0, 0.0, 0.0, 0.0, 0.0, 0.0, 0.0, 0.0, 1.700950098115195E9, 0.0, 2023-11-25 17:08:18.115
64.0, 8825.720408644725, 13576.516637386876, -59960.141475217526, -58782.651577311946, -69444.9924761048, 3952.8613034321434, -31206.678593954875, 24973.17939676993, -0.222, 0.9500000000000001, 0.16, 192.0, 0.0, 0.0, 0.0, 0.0, 0.0, 0.0, 0.0, 0.0, 0.0, 1.700950098118152E9, 0.0, 2023-11-25 17:08:18.118
65.0, 8762.442620091751, 13513.14944185608, -59950.06083846818, -58787.7254233033, -69510.72895654786, 3841.3931538335273, -31231.109050644525, 24965.8927280775, -0.222, 0.9500000000000001, 0.16, 192.0, 0.0, 0.0, 0.0, 0.0, 0.0, 0.0, 0.0, 0.0, 0.0, 1.700950098122149E9, 0.0, 2023-11-25 17:08:18.122
66.0, 8811.974085804712, 13612.324132004278, -59907.72663446983, -58731.19786157583, -69508.1585059355, 3874.1831629494627, -31207.773829433183, 25014.753641456802, -0.222, 0.9500000000000001, 0.16, 192.0, 0.0, 0.0, 0.0, 0.0, 0.0, 0.0, 0.0, 0.0, 0.0, 1.700950098126259E9, 0.0, 2023-11-25 17:08:18.126
67.0, 8901.515174092672, 13712.14702274168, -59856.04940128916, -58671.630462602436, -69445.5959732051, 3942.3559835381493, -31159.583468387544, 25069.448360138937, -0.22, 0.9580000000000001, 0.156, 192.0, 249.0, 32.0, 29.0, 240.0, 4.0, 224.0, 0.0, 0.0, 0.0, 1.700950098130238E9, 0.0, 2023-11-25 17:08:18.130
68.0, 8849.592071722993, 13609.105480802713, -59947.98212623384, -58768.54762656065, -69432.25198176528, 3981.650350290579, -31185.913823355895, 25000.739097683323, -0.22, 0.9580000000000001, 0.156, 192.0, 0.0, 0.0, 0.0, 0.0, 0.0, 0.0, 0.0, 0.0, 0.0, 1.700950098134259E9, 0.0, 2023-11-25 17:08:18.134
69.0, 8748.785704229558, 13490.820049145228, -59962.1531322185, -58807.9314002909, -69518.48501187385, 3835.693458997424, -31237.61340828102, 24946.334951679106, -0.22, 0.9580000000000001, 0.156, 192.0, 0.0, 0.0, 0.0, 0.0, 0.0, 0.0, 0.0, 0.0, 0.0, 1.70095009814328E9, 0.0, 2023-11-25 17:08:18.143
70.0, 8782.335672656975, 13569.49818962791, -59919.75187298678, -58752.81199846411, -69517.97092175137, 3862.0238139657754, -31226.862219198018, 24995.687603436425, -0.22, 0.9580000000000001, 0.156, 192.0, 0.0, 0.0, 0.0, 0.0, 0.0, 0.0, 0.0, 0.0, 0.0, 1.700950098147274E9, 0.0, 2023-11-25 17:08:18.147
71.0, 8882.42678432784, 13694.71266206654, -59848.85213957455, -58672.18925621382, -69459.90108965649, 3918.417265226515, -31176.637849406943, 25070.454188639425, -0.22, 0.9580000000000001, 0.156, 192.0, 0.0, 0.0, 0.0, 0.0, 0.0, 0.0, 0.0, 0.0, 0.0, 1.700950098150275E9, 0.0, 2023-11-25 17:08:18.150
72.0, 8862.489028273705, 13634.586469481763, -59930.03367543622, -58750.19684436284, -69423.31128398314, 3994.971989985942, -31187.299631512124, 25031.830374220655, -0.22, 0.9580000000000001, 0.156, 192.0, 0.0, 0.0, 0.0, 0.0, 0.0, 0.0, 0.0, 0.0, 0.0, 1.700950098153312E9, 0.0, 2023-11-25 17:08:18.153
73.0, 8771.338614384964, 13515.697540723986, -59944.00351572079, -58790.318225660114, -69492.10995341658, 3872.104450715119, -31228.94093143236, 25014.41836528997, -0.22, 0.9580000000000001, 0.156, 192.0, 0.0, 0.0, 0.0, 0.0, 0.0, 0.0, 0.0, 0.0, 0.0, 1.700950098157345E9, 0.0, 2023-11-25 17:08:18.157
74.0, 8779.251131922143, 13565.787800048329, -59917.00260841878, -58754.130751386976, -69508.13615419104, 3885.1578694770183, -31217.541541760154, 25047.655409295014, -0.22, 0.9580000000000001, 0.156, 192.0, 0.0, 0.0, 0.0, 0.0, 0.0, 0.0, 0.0, 0.0, 0.0, 1.700950098160414E9, 0.0, 2023-11-25 17:08:18.160
75.0, 8866.445287042296, 13685.146115439667, -59841.923098793406, -58671.60811085798, -69465.01963913675, 3923.3793524955936, -31176.839015107038, 25103.87004660011, -0.22, 0.9580000000000001, 0.156, 192.0, 0.0, 0.0, 0.0, 0.0, 0.0, 0.0, 0.0, 0.0, 0.0, 1.700950098163359E9, 0.0, 2023-11-25 17:08:18.163
76.0, 8889.33347336453, 13671.75742051094, -59884.57022721413, -58709.00257933171, -69395.34925166956, 4025.571528145257, -31151.469785150268, 25075.10335148613, -0.22, 0.9580000000000001, 0.156, 192.0, 0.0, 0.0, 0.0, 0.0, 0.0, 0.0, 0.0, 0.0, 0.0, 1.700950098166427E9, 0.0, 2023-11-25 17:08:18.166
77.0, 8772.523256841094, 13515.921058168538, -59945.05404771019, -58793.469821628314, -69479.45886605488, 3891.394006180049, -31221.162524361913, 24991.731344667834, -0.222, 0.9560000000000001, 0.156, 192.0, 249.0, 16.0, 29.0, 224.0, 4.0, 224.0, 0.0, 0.0, 0.0, 1.700950098171457E9, 0.0, 2023-11-25 17:08:18.171
78.0, 8772.836181263468, 13543.547814315298, -59911.36996881604, -58756.9694229328, -69501.900017488, 3877.491221128848, -31211.998309135237, 25036.81481323419, -0.222, 0.9560000000000001, 0.156, 192.0, 0.0, 0.0, 0.0, 0.0, 0.0, 0.0, 0.0, 0.0, 0.0, 1.700950098179433E9, 0.0, 2023-11-25 17:08:18.179
79.0, 8847.401600766374, 13659.106333149235, -59845.052343017145, -58683.14161099692, -69479.92825268845, 3909.521270933303, -31181.666991909387, 25091.665994127514, -0.222, 0.9560000000000001, 0.156, 192.0, 0.0, 0.0, 0.0, 0.0, 0.0, 0.0, 0.0, 0.0, 0.0, 1.700950098182446E9, 0.0, 2023-11-25 17:08:18.182
80.0, 8889.04290068661, 13674.149057167657, -59874.78016314271, -58701.31357923908, -69413.52121991172, 4008.360684914671, -31156.387168930432, 25085.54161614676, -0.222, 0.9560000000000001, 0.156, 192.0, 0.0, 0.0, 0.0, 0.0, 0.0, 0.0, 0.0, 0.0, 0.0, 1.700950098185479E9, 0.0, 2023-11-25 17:08:18.185
81.0, 8787.722443070703, 13528.572145530243, -59954.3523734036, -58798.856592042044, -69478.74361023231, 3915.0645035582193, -31226.66105349792, 25004.673004707456, -0.222, 0.9560000000000001, 0.156, 192.0, 0.0, 0.0, 0.0, 0.0, 0.0, 0.0, 0.0, 0.0, 0.0, 1.700950098189506E9, 0.0, 2023-11-25 17:08:18.189
82.0, 8767.002375960634, 13530.136767642114, -59925.36216084506, -58771.878036484486, -69514.97578799436, 3864.8848372560547, -31237.054614669636, 25013.47959202285, -0.222, 0.9560000000000001, 0.156, 192.0, 0.0, 0.0, 0.0, 0.0, 0.0, 0.0, 0.0, 0.0, 0.0, 1.700950098192559E9, 0.0, 2023-11-25 17:08:18.192
83.0, 8808.911896814334, 13619.141414063146, -59884.30200628067, -58718.79264340313, -69514.72991880536, 3881.7380525753565, -31231.623140767, 25040.279333624763, -0.222, 0.9560000000000001, 0.156, 192.0, 0.0, 0.0, 0.0, 0.0, 0.0, 0.0, 0.0, 0.0, 0.0, 1.700950098195576E9, 0.0, 2023-11-25 17:08:18.195
84.0, 8887.746499508203, 13684.117935194725, -59865.03480256019, -58689.35539595549, -69427.7369293853, 3978.007015944364, -31191.99349784774, 25057.95956348891, -0.222, 0.9560000000000001, 0.156, 192.0, 0.0, 0.0, 0.0, 0.0, 0.0, 0.0, 0.0, 0.0, 0.0, 1.700950098199599E9, 0.0, 2023-11-25 17:08:18.199
85.0, 8813.114024771932, 13565.608986092686, -59943.15414943149, -58783.56799883462, -69453.15086283098, 3935.2704805458166, -31240.206210637836, 24969.200786256886, -0.222, 0.9560000000000001, 0.156, 192.0, 0.0, 0.0, 0.0, 0.0, 0.0, 0.0, 0.0, 0.0, 0.0, 1.700950098204655E9, 0.0, 2023-11-25 17:08:18.204
86.0, 8766.532989327072, 13522.894802438594, -59922.501137554784, -58772.861513240525, -69506.39271812352, 3845.170598646474, -31250.599771809553, 24981.158969540476, -0.222, 0.9560000000000001, 0.156, 192.0, 0.0, 0.0, 0.0, 0.0, 0.0, 0.0, 0.0, 0.0, 0.0, 1.700950098207612E9, 0.0, 2023-11-25 17:08:18.207
87.0, 8811.50469917115, 13618.046178584837, -59879.585788200595, -58714.16583230089, -69504.38106112255, 3878.295883929239, -31230.907884944427, 25036.971275445376, -0.22, 0.9580000000000001, 0.158, 192.0, 249.0, 32.0, 29.0, 240.0, 4.0, 240.0, 0.0, 0.0, 0.0, 1.700950098211647E9, 0.0, 2023-11-25 17:08:18.211
88.0, 8896.307217634585, 13706.112051738746, -59843.46536916082, -58668.92590152335, -69435.3365225001, 3954.5376842662913, -31186.472616967276, 25078.947851532444, -0.22, 0.9580000000000001, 0.158, 192.0, 0.0, 0.0, 0.0, 0.0, 0.0, 0.0, 0.0, 0.0, 0.0, 1.700950098215634E9, 0.0, 2023-11-25 17:08:18.215
89.0, 8842.640679197393, 13601.863515599194, -59927.753797501784, -58760.25512936773, -69434.2859905107, 3965.624149516124, -31214.32289055859, 25015.89358042402, -0.22, 0.9580000000000001, 0.158, 192.0, 0.0, 0.0, 0.0, 0.0, 0.0, 0.0, 0.0, 0.0, 0.0, 1.700950098219698E9, 0.0, 2023-11-25 17:08:18.219
90.0, 8768.365832372408, 13514.468194778943, -59928.06672192416, -58778.807077265636, -69511.15363969251, 3839.3144415991837, -31250.80093750965, 24992.13367606803, -0.22, 0.9580000000000001, 0.158, 192.0, 0.0, 0.0, 0.0, 0.0, 0.0, 0.0, 0.0, 0.0, 0.0, 1.700950098223697E9, 0.0, 2023-11-25 17:08:18.223
91.0, 8799.390053676374, 13594.778012606861, -59895.65669246396, -58732.91894589889, -69516.47335487287, 3864.817782022689, -31238.32866410359, 25029.438737563938, -0.22, 0.9580000000000001, 0.158, 192.0, 0.0, 0.0, 0.0, 0.0, 0.0, 0.0, 0.0, 0.0, 0.0, 1.700950098226751E9, 0.0, 2023-11-25 17:08:18.226
92.0, 8898.989426969221, 13709.755386084962, -59830.61311609902, -58657.70532580678, -69445.93124937192, 3931.2918700327723, -31184.952698344317, 25084.75930509082, -0.22, 0.9580000000000001, 0.158, 192.0, 0.0, 0.0, 0.0, 0.0, 0.0, 0.0, 0.0, 0.0, 0.0, 1.700950098229802E9, 0.0, 2023-11-25 17:08:18.229
93.0, 8879.18578138182, 13638.006286383426, -59898.3389017986, -58729.18620457485, -69408.51442915374, 3999.799966788288, -31187.143169300936, 25032.970313187878, -0.22, 0.9580000000000001, 0.158, 192.0, 0.0, 0.0, 0.0, 0.0, 0.0, 0.0, 0.0, 0.0, 0.0, 1.700950098235802E9, 0.0, 2023-11-25 17:08:18.235
94.0, 8778.267655166108, 13519.027950647825, -59918.00843691927, -58772.61564405151, -69496.96028196339, 3852.0549359387087, -31237.3228356031, 24977.582690427625, -0.22, 0.9580000000000001, 0.158, 192.0, 0.0, 0.0, 0.0, 0.0, 0.0, 0.0, 0.0, 0.0, 0.0, 1.700950098238781E9, 0.0, 2023-11-25 17:08:18.238
95.0, 8792.706882084238, 13579.556474632798, -59893.645035462985, -58736.785797689656, -69513.43351762695, 3865.1977616784293, -31231.064347155614, 25009.366871043072, -0.22, 0.9580000000000001, 0.158, 192.0, 0.0, 0.0, 0.0, 0.0, 0.0, 0.0, 0.0, 0.0, 0.0, 1.700950098242752E9, 0.0, 2023-11-25 17:08:18.242
96.0, 8873.41903131235, 13687.56010384084, -59834.703485334336, -58668.16594221186, -69473.4462467964, 3904.4697766864037, -31186.472616967276, 25065.760322303813, -0.22, 0.9580000000000001, 0.158, 192.0, 0.0, 0.0, 0.0, 0.0, 0.0, 0.0, 0.0, 0.0, 0.0, 1.70095009824689E9, 0.0, 2023-11-25 17:08:18.246
97.0, 8878.626987770438, 13649.338620822266, -59884.65963419195, -58712.28828576664, -69407.62035937552, 4006.974876758442, -31160.946924799315, 25056.596107077137, -0.222, 0.9480000000000001, 0.162, 192.0, 249.0, 16.0, 29.0, 160.0, 5.0, 16.0, 0.0, 0.0, 0.0, 1.700950098250818E9, 0.0, 2023-11-25 17:08:18.250
98.0, 8765.884788737869, 13510.087252865704, -59924.959829444866, -58776.86247549802, -69492.62404353905, 3870.562180347703, -31221.386041806465, 25012.18319084444, -0.222, 0.9480000000000001, 0.162, 192.0, 0.0, 0.0, 0.0, 0.0, 0.0, 0.0, 0.0, 0.0, 0.0, 1.700950098253839E9, 0.0, 2023-11-25 17:08:18.253
99.0, 8782.536838357073, 13562.256224424389, -59890.38168077251, -58732.49426275424, -69502.9505494774, 3881.29101768625, -31216.4686580263, 25050.337618629652, -0.222, 0.9480000000000001, 0.162, 192.0, 0.0, 0.0, 0.0, 0.0, 0.0, 0.0, 0.0, 0.0, 0.0, 1.70095009825789E9, 0.0, 2023-11-25 17:08:18.257
100.0, 8860.879702672924, 13671.980937955492, -59825.047531729644, -58658.93467175182, -69472.03808689571, 3913.589288424169, -31188.864253623993, 25093.945872061955, -0.222, 0.9480000000000001, 0.162, 192.0, 0.0, 0.0, 0.0, 0.0, 0.0, 0.0, 0.0, 0.0, 0.0, 1.700950098261921E9, 0.0, 2023-11-25 17:08:18.261
101.0, 8893.535601322128, 13670.081039676792, -59855.93764256688, -58681.621692373956, -69392.33176616809, 4026.7338188569333, -31153.950828784804, 25095.331680218183, -0.222, 0.9480000000000001, 0.162, 192.0, 0.0, 0.0, 0.0, 0.0, 0.0, 0.0, 0.0, 0.0, 0.0, 1.700950098267687E9, 0.0, 2023-11-25 17:08:18.267
102.0, 8786.716614570214, 13527.789834474306, -59911.548782771686, -58760.65746076792, -69462.7397612023, 3913.857509357633, -31213.07119286909, 25024.253132850306, -0.222, 0.9480000000000001, 0.162, 192.0, 0.0, 0.0, 0.0, 0.0, 0.0, 0.0, 0.0, 0.0, 0.0, 1.700950098270976E9, 0.0, 2023-11-25 17:08:18.270
103.0, 8784.414384891317, 13557.361192388678, -59881.88801787949, -58725.22994580626, -69488.57837779264, 3887.10247124463, -31218.48031502728, 25048.661237795503, -0.222, 0.9480000000000001, 0.162, 192.0, 0.0, 0.0, 0.0, 0.0, 0.0, 0.0, 0.0, 0.0, 0.0, 1.700950098274991E9, 0.0, 2023-11-25 17:08:18.274
104.0, 8855.403525281374, 13671.399792599654, -59825.829842785584, -58656.56538683956, -69471.9933834068, 3909.63302965558, -31205.538654987653, 25082.993517278854, -0.222, 0.9480000000000001, 0.162, 192.0, 0.0, 0.0, 0.0, 0.0, 0.0, 0.0, 0.0, 0.0, 0.0, 1.700950098278978E9, 0.0, 2023-11-25 17:08:18.278
105.0, 8912.04284573112, 13704.279208693411, -59831.39542715495, -58650.865692003455, -69387.7273068103, 4020.8329583207324, -31155.56015438559, 25102.88656984408, -0.222, 0.9480000000000001, 0.162, 192.0, 0.0, 0.0, 0.0, 0.0, 0.0, 0.0, 0.0, 0.0, 0.0, 1.700950098281984E9, 0.0, 2023-11-25 17:08:18.281
106.0, 8813.717521872226, 13559.417552878565, -59901.71401521135, -58741.07733262508, -69433.72719689933, 3950.3132045642383, -31195.860349638508, 25046.046083694233, -0.222, 0.9480000000000001, 0.162, 192.0, 0.0, 0.0, 0.0, 0.0, 0.0, 0.0, 0.0, 0.0, 0.0, 1.70095009828602E9, 0.0, 2023-11-25 17:08:18.286
107.0, 8786.470745381206, 13547.906404484083, -59877.17179979942, -58721.58661146005, -69474.96616541936, 3885.6049043661246, -31207.08092535507, 25053.24334540884, -0.222, 0.9440000000000001, 0.168, 192.0, 249.0, 16.0, 29.0, 128.0, 5.0, 64.0, 0.0, 0.0, 0.0, 1.70095009829008E9, 0.0, 2023-11-25 17:08:18.290
108.0, 8836.717466916736, 13644.980030653482, -59832.78123531118, -58663.025040987144, -69471.72516247335, 3905.6991226314453, -31197.22380605028, 25084.312270201717, -0.222, 0.9440000000000001, 0.168, 192.0, 0.0, 0.0, 0.0, 0.0, 0.0, 0.0, 0.0, 0.0, 0.0, 1.700950098294086E9, 0.0, 2023-11-25 17:08:18.294
109.0, 8921.877613291457, 13721.62416239073, -59806.808508254115, -58622.70249398977, -69383.48047536379, 4005.723179068945, -31147.02178800366, 25115.045918827764, -0.222, 0.9440000000000001, 0.168, 192.0, 0.0, 0.0, 0.0, 0.0, 0.0, 0.0, 0.0, 0.0, 0.0, 1.700950098305154E9, 0.0, 2023-11-25 17:08:18.305
110.0, 8833.141187803887, 13590.844105582728, -59908.35248331458, -58733.05305636562, -69419.57854265912, 3962.2043326144617, -31207.349146288532, 25015.08891762363, -0.222, 0.9440000000000001, 0.168, 192.0, 0.0, 0.0, 0.0, 0.0, 0.0, 0.0, 0.0, 0.0, 0.0, 1.700950098308112E9, 0.0, 2023-11-25 17:08:18.308
111.0, 8770.444544606751, 13530.606154275674, -59904.552686757175, -58740.071504124586, -69491.21588363838, 3846.914034713988, -31243.961303706328, 24982.924757352444, -0.222, 0.9440000000000001, 0.168, 192.0, 0.0, 0.0, 0.0, 0.0, 0.0, 0.0, 0.0, 0.0, 0.0, 1.700950098311407E9, 0.0, 2023-11-25 17:08:18.311
112.0, 8815.885641084391, 13626.159861822112, -59862.665517647925, -58687.343738954514, -69491.68527027193, 3871.7021193149235, -31229.052690154636, 25011.445583277415, -0.222, 0.9440000000000001, 0.168, 192.0, 0.0, 0.0, 0.0, 0.0, 0.0, 0.0, 0.0, 0.0, 0.0, 1.700950098315183E9, 0.0, 2023-11-25 17:08:18.315
113.0, 8914.926220765856, 13726.452139193076, -59806.09325243154, -58621.11552013344, -69406.94980704186, 3961.399669814071, -31166.64661963542, 25085.496912657847, -0.222, 0.9440000000000001, 0.168, 192.0, 0.0, 0.0, 0.0, 0.0, 0.0, 0.0, 0.0, 0.0, 0.0, 1.70095009831813E9, 0.0, 2023-11-25 17:08:18.318
114.0, 8857.191664837797, 13618.873193129682, -59894.94143664139, -58716.5574689576, -69405.16166748544, 3982.7902892577995, -31194.31807927109, 25031.696263753925, -0.222, 0.9440000000000001, 0.168, 192.0, 0.0, 0.0, 0.0, 0.0, 0.0, 0.0, 0.0, 0.0, 0.0, 1.700950098321249E9, 0.0, 2023-11-25 17:08:18.321
115.0, 8777.887675510368, 13528.236869363413, -59894.44969826337, -58739.19978609083, -69483.99627017931, 3842.8013137342114, -31236.31700710261, 24997.542798226215, -0.222, 0.9440000000000001, 0.168, 192.0, 0.0, 0.0, 0.0, 0.0, 0.0, 0.0, 0.0, 0.0, 0.0, 1.700950098325252E9, 0.0, 2023-11-25 17:08:18.325
116.0, 8816.802062607057, 13611.787690137351, -59850.95320355335, -58684.482715664235, -69480.04001141072, 3870.562180347703, -31216.98274814877, 25040.793423747233, -0.222, 0.9440000000000001, 0.168, 192.0, 0.0, 0.0, 0.0, 0.0, 0.0, 0.0, 0.0, 0.0, 0.0, 1.700950098328758E9, 0.0, 2023-11-25 17:08:18.328
117.0, 8909.919430007867, 13724.95457231457, -59789.77647897917, -58613.962961907746, -69416.82927809111, 3934.5999282121575, -31166.154881257404, 25100.137305276075, -0.214, 0.9480000000000001, 0.158, 192.0, 249.0, 80.0, 29.0, 160.0, 4.0, 240.0, 0.0, 0.0, 0.0, 1.700950098331391E9, 0.0, 2023-11-25 17:08:18.331
118.0, 8871.385022566918, 13647.014039398915, -59878.73642191129, -58701.894724594924, -69392.73409756829, 3991.105138195174, -31180.6611634089, 25038.312380112697, -0.214, 0.9480000000000001, 0.158, 192.0, 0.0, 0.0, 0.0, 0.0, 0.0, 0.0, 0.0, 0.0, 0.0, 1.700950098335429E9, 0.0, 2023-11-25 17:08:18.335
119.0, 8769.103439939432, 13531.38846533161, -59901.64695997798, -58748.92279492889, -69479.3024038437, 3842.3542788451055, -31234.864143713017, 24977.22506251634, -0.214, 0.9480000000000001, 0.158, 192.0, 0.0, 0.0, 0.0, 0.0, 0.0, 0.0, 0.0, 0.0, 0.0, 1.700950098340357E9, 0.0, 2023-11-25 17:08:18.340
120.0, 8798.78655657608, 13604.858649356205, -59863.69369789287, -58698.0055210597, -69479.41416256597, 3867.656453568513, -31212.55710274662, 25031.249228864817, -0.214, 0.9480000000000001, 0.158, 192.0, 0.0, 0.0, 0.0, 0.0, 0.0, 0.0, 0.0, 0.0, 0.0, 1.700950098344347E9, 0.0, 2023-11-25 17:08:18.344
121.0, 8878.001138925689, 13713.756348342462, -59806.09325243154, -58630.48090106022, -69442.80200514817, 3905.8555848426327, -31174.179157516857, 25087.597976636647, -0.214, 0.9480000000000001, 0.158, 192.0, 0.0, 0.0, 0.0, 0.0, 0.0, 0.0, 0.0, 0.0, 0.0, 1.700950098347339E9, 0.0, 2023-11-25 17:08:18.347
122.0, 8879.208133126276, 13667.443533831065, -59865.59359617157, -58686.53907615413, -69387.97317599932, 3998.235344676417, -31158.130604997947, 25047.923630228477, -0.214, 0.9480000000000001, 0.158, 192.0, 0.0, 0.0, 0.0, 0.0, 0.0, 0.0, 0.0, 0.0, 0.0, 1.700950098351389E9, 0.0, 2023-11-25 17:08:18.351
123.0, 8770.533951584572, 13524.548831528287, -59902.00458788927, -58753.01316416421, -69467.00894439328, 3869.7128140584014, -31206.611538721507, 24992.692469679412, -0.214, 0.9480000000000001, 0.158, 192.0, 0.0, 0.0, 0.0, 0.0, 0.0, 0.0, 0.0, 0.0, 0.0, 1.700950098356414E9, 0.0, 2023-11-25 17:08:18.356
124.0, 8771.003338218134, 13562.725611057951, -59877.775296899716, -58723.39710276093, -69493.87574122855, 3862.761421532801, -31208.086753855558, 25020.945074670923, -0.214, 0.9480000000000001, 0.158, 192.0, 0.0, 0.0, 0.0, 0.0, 0.0, 0.0, 0.0, 0.0, 0.0, 1.700950098359548E9, 0.0, 2023-11-25 17:08:18.359
125.0, 8848.966222878245, 13671.511551321932, -59815.83861301406, -58655.00076472769, -69470.0934851281, 3888.0188927672975, -31188.6630879239, 25064.19570019194, -0.214, 0.9480000000000001, 0.158, 192.0, 0.0, 0.0, 0.0, 0.0, 0.0, 0.0, 0.0, 0.0, 0.0, 1.700950098363511E9, 0.0, 2023-11-25 17:08:18.363
126.0, 8899.548220580606, 13685.570798584318, -59832.89299403346, -58664.58966309902, -69382.04996371866, 4007.8018913032884, -31152.006227017195, 25074.209281707917, -0.214, 0.9480000000000001, 0.158, 192.0, 0.0, 0.0, 0.0, 0.0, 0.0, 0.0, 0.0, 0.0, 0.0, 1.700950098367498E9, 0.0, 2023-11-25 17:08:18.367
127.0, 8784.995530247155, 13531.120244398147, -59904.37387280153, -58760.411591578915, -69460.1916623344, 3889.8293840681777, -31223.80003020764, 24980.868396862556, -0.216, 0.96, 0.158, 192.0, 249.0, 64.0, 30.0, 0.0, 4.0, 240.0, 0.0, 0.0, 0.0, 1.700950098371521E9, 0.0, 2023-11-25 17:08:18.371
128.0, 8767.427059105285, 13536.618773534152, -59888.48178249381, -58740.09385586904, -69503.53169483325, 3838.4427235654266, -31244.14011766197, 24990.27848127824, -0.216, 0.96, 0.158, 192.0, 0.0, 0.0, 0.0, 0.0, 0.0, 0.0, 0.0, 0.0, 0.0, 1.70095009837749E9, 0.0, 2023-11-25 17:08:18.377
129.0, 8837.94681286178, 13650.567966767308, -59828.60145909804, -58661.12514270844, -69480.93408118893, 3866.3153489011943, -31218.390908049456, 25046.314304627696, -0.216, 0.96, 0.158, 192.0, 0.0, 0.0, 0.0, 0.0, 0.0, 0.0, 0.0, 0.0, 0.0, 1.700950098383567E9, 0.0, 2023-11-25 17:08:18.383
130.0, 8901.38106362594, 13702.692234837084, -59829.249659687244, -58643.55667156657, -69394.18696095789, 3979.616341545146, -31170.826395848562, 25083.507607401327, -0.216, 0.96, 0.158, 192.0, 0.0, 0.0, 0.0, 0.0, 0.0, 0.0, 0.0, 0.0, 0.0, 1.700950098386549E9, 0.0, 2023-11-25 17:08:18.386
131.0, 8796.50667864164, 13557.629413322142, -59921.875288710035, -58750.59917576303, -69453.06145585317, 3900.3123522177166, -31235.422937324398, 24994.055926091187, -0.216, 0.96, 0.158, 192.0, 0.0, 0.0, 0.0, 0.0, 0.0, 0.0, 0.0, 0.0, 0.0, 1.700950098390621E9, 0.0, 2023-11-25 17:08:18.390
132.0, 8758.799285745536, 13531.67903800953, -59900.30585531067, -58732.74013194325, -69501.56474132118, 3822.5506332577033, -31257.171184679413, 25001.409650016984, -0.216, 0.96, 0.158, 192.0, 0.0, 0.0, 0.0, 0.0, 0.0, 0.0, 0.0, 0.0, 0.0, 1.700950098393595E9, 0.0, 2023-11-25 17:08:18.393
133.0, 8822.881737098902, 13640.040295128858, -59839.732627836784, -58658.88996826291, -69484.06332541267, 3859.6098255646025, -31224.962320919316, 25053.19864191993, -0.216, 0.96, 0.158, 192.0, 0.0, 0.0, 0.0, 0.0, 0.0, 0.0, 0.0, 0.0, 0.0, 1.700950098398703E9, 0.0, 2023-11-25 17:08:18.398
134.0, 8900.129365936442, 13713.510479153452, -59822.76765379521, -58631.576136538526, -69414.59410364558, 3938.556186980747, -31182.762227387695, 25066.743799059845, -0.216, 0.96, 0.158, 192.0, 0.0, 0.0, 0.0, 0.0, 0.0, 0.0, 0.0, 0.0, 0.0, 1.70095009840265E9, 0.0, 2023-11-25 17:08:18.402
135.0, 8827.46384471224, 13592.766355605883, -59914.36510257305, -58732.24839356523, -69437.41523473445, 3908.1801662659846, -31230.460850055322, 24970.27366999074, -0.216, 0.96, 0.158, 192.0, 0.0, 0.0, 0.0, 0.0, 0.0, 0.0, 0.0, 0.0, 0.0, 1.700950098406096E9, 0.0, 2023-11-25 17:08:18.406
136.0, 8761.548550313539, 13526.784005973817, -59910.16297461546, -58738.79745469063, -69509.27609315826, 3794.9685805998542, -31259.51811784722, 24947.430187157417, -0.216, 0.96, 0.158, 192.0, 0.0, 0.0, 0.0, 0.0, 0.0, 0.0, 0.0, 0.0, 0.0, 1.700950098408648E9, 0.0, 2023-11-25 17:08:18.408
137.0, 8808.062530525032, 13624.930515877071, -59863.47018044832, -58675.51966613766, -69502.77173552176, 3831.2901653397284, -31231.913713444916, 24999.777972671745, -0.20600000000000002, 0.9520000000000001, 0.168, 192.0, 249.0, 144.0, 29.0, 192.0, 5.0, 64.0, 0.0, 0.0, 0.0, 1.700950098412701E9, 0.0, 2023-11-25 17:08:18.412
138.0, 8894.317912378063, 13721.870031579738, -59820.59953458304, -58619.10386313246, -69436.7893858897, 3906.1238057760966, -31182.829282621064, 25041.173403402976, -0.20600000000000002, 0.9520000000000001, 0.168, 192.0, 0.0, 0.0, 0.0, 0.0, 0.0, 0.0, 0.0, 0.0, 0.0, 1.70095009841572E9, 0.0, 2023-11-25 17:08:18.415
139.0, 8842.864196641945, 13620.661332686108, -59914.49921303979, -58713.76350090069, -69430.35208348658, 3928.5649572092248, -31213.89820741394, 24958.203727984874, -0.20600000000000002, 0.9520000000000001, 0.168, 192.0, 0.0, 0.0, 0.0, 0.0, 0.0, 0.0, 0.0, 0.0, 0.0, 1.700950098418719E9, 0.0, 2023-11-25 17:08:18.418
140.0, 8756.87703572238, 13523.833575705718, -59919.5954107756, -58738.23866107925, -69507.152677435, 3791.9063916094774, -31249.392777608966, 24927.023044469723, -0.20600000000000002, 0.9520000000000001, 0.168, 192.0, 0.0, 0.0, 0.0, 0.0, 0.0, 0.0, 0.0, 0.0, 0.0, 1.700950098421824E9, 0.0, 2023-11-25 17:08:18.421
141.0, 8787.543629115062, 13602.824640610772, -59882.84914289107, -58688.77425059966, -69509.27609315826, 3821.164825101474, -31223.308291829624, 24987.015126587765, -0.20600000000000002, 0.9520000000000001, 0.168, 192.0, 0.0, 0.0, 0.0, 0.0, 0.0, 0.0, 0.0, 0.0, 0.0, 1.700950098425791E9, 0.0, 2023-11-25 17:08:18.425
142.0, 8878.582284281527, 13714.270438464933, -59821.04656947215, -58622.36721782294, -69453.84376690909, 3877.2900554287503, -31167.07130278007, 25049.644714551534, -0.20600000000000002, 0.9520000000000001, 0.168, 192.0, 0.0, 0.0, 0.0, 0.0, 0.0, 0.0, 0.0, 0.0, 0.0, 1.70095009843083E9, 0.0, 2023-11-25 17:08:18.430
143.0, 8851.84959791298, 13640.107350362225, -59902.518678011744, -58705.8062798746, -69422.8866008385, 3940.299623048261, -31176.50373894021, 24983.774123641746, -0.20600000000000002, 0.9520000000000001, 0.168, 192.0, 0.0, 0.0, 0.0, 0.0, 0.0, 0.0, 0.0, 0.0, 0.0, 1.700950098435852E9, 0.0, 2023-11-25 17:08:18.435
144.0, 8747.556358284517, 13514.334084312211, -59924.62455327804, -58750.57682401858, -69503.41993611096, 3804.3563132710833, -31229.23150411028, 24927.760652036748, -0.20600000000000002, 0.9520000000000001, 0.168, 192.0, 0.0, 0.0, 0.0, 0.0, 0.0, 0.0, 0.0, 0.0, 0.0, 1.700950098442859E9, 0.0, 2023-11-25 17:08:18.442
145.0, 8770.601006817938, 13583.222160723468, -59883.296177780176, -58696.08327103654, -69502.9058459885, 3834.419409563471, -31207.12562884398, 24984.8470073756, -0.20600000000000002, 0.9520000000000001, 0.168, 192.0, 0.0, 0.0, 0.0, 0.0, 0.0, 0.0, 0.0, 0.0, 0.0, 1.700950098446852E9, 0.0, 2023-11-25 17:08:18.446
146.0, 8867.89815043189, 13713.421072175632, -59805.31094137561, -58608.35267404946, -69450.893336641, 3883.8614682986104, -31157.25888696419, 25049.085920940153, -0.20600000000000002, 0.9520000000000001, 0.168, 192.0, 0.0, 0.0, 0.0, 0.0, 0.0, 0.0, 0.0, 0.0, 0.0, 1.700950098454922E9, 0.0, 2023-11-25 17:08:18.454
147.0, 8875.117763890954, 13684.877894506204, -59866.442962460875, -58661.57217759755, -69394.2763679357, 3980.4880595789027, -31138.617532088465, 25032.456223065405, -0.21, 0.9420000000000001, 0.164, 192.0, 249.0, 112.0, 29.0, 112.0, 5.0, 32.0, 0.0, 0.0, 0.0, 1.70095009845793E9, 0.0, 2023-11-25 17:08:18.457
148.0, 8767.427059105285, 13542.87726198164, -59910.989989160305, -58734.394161032935, -69473.8485781966, 3851.2279213938623, -31192.84286413704, 24976.6439171605, -0.21, 0.9420000000000001, 0.164, 192.0, 0.0, 0.0, 0.0, 0.0, 0.0, 0.0, 0.0, 0.0, 0.0, 1.700950098462149E9, 0.0, 2023-11-25 17:08:18.462
149.0, 8758.843989234447, 13565.653689581597, -59891.32045403963, -58710.567201443584, -69503.39758436651, 3837.4815985538485, -31198.14022757295, 24998.436868004428, -0.21, 0.9420000000000001, 0.164, 192.0, 0.0, 0.0, 0.0, 0.0, 0.0, 0.0, 0.0, 0.0, 0.0, 1.700950098465011E9, 0.0, 2023-11-25 17:08:18.465
150.0, 8838.237385539698, 13682.598016571763, -59823.01352298421, -58633.40897958386, -69472.77569446275, 3866.00242447882, -31166.758378357696, 25049.354141873617, -0.21, 0.9420000000000001, 0.164, 192.0, 0.0, 0.0, 0.0, 0.0, 0.0, 0.0, 0.0, 0.0, 0.0, 1.700950098467971E9, 0.0, 2023-11-25 17:08:18.467
151.0, 8886.986540196722, 13702.424013903621, -59845.45467441734, -58644.294279133595, -69392.93526326839, 3980.5327630678134, -31127.06168020507, 25063.14516820254, -0.21, 0.9420000000000001, 0.164, 192.0, 0.0, 0.0, 0.0, 0.0, 0.0, 0.0, 0.0, 0.0, 0.0, 1.700950098471004E9, 0.0, 2023-11-25 17:08:18.471
152.0, 8779.83227727798, 13555.841273765716, -59918.67898925293, -58736.74109420075, -69461.8456914241, 3871.612712337102, -31198.52020722869, 24983.729420152835, -0.21, 0.9420000000000001, 0.164, 192.0, 0.0, 0.0, 0.0, 0.0, 0.0, 0.0, 0.0, 0.0, 0.0, 1.70095009847502E9, 0.0, 2023-11-25 17:08:18.475
153.0, 8759.000451445634, 13559.082276711737, -59902.18340184491, -58716.17748930187, -69503.44228785543, 3815.9568686433877, -31217.809762693618, 24987.305699265686, -0.21, 0.9420000000000001, 0.164, 192.0, 0.0, 0.0, 0.0, 0.0, 0.0, 0.0, 0.0, 0.0, 0.0, 1.700950098478396E9, 0.0, 2023-11-25 17:08:18.478
154.0, 8838.37149600643, 13682.933292738593, -59835.73166557928, -58633.69955226178, -69479.14594163251, 3838.3756683320607, -31196.41914324989, 25034.892563211033, -0.21, 0.9420000000000001, 0.164, 192.0, 0.0, 0.0, 0.0, 0.0, 0.0, 0.0, 0.0, 0.0, 0.0, 1.700950098487027E9, 0.0, 2023-11-25 17:08:18.487
155.0, 8907.058406717588, 13740.57844168883, -59835.08346499008, -58619.21562185474, -69396.31037668114, 3937.7291724359006, -31156.20835497479, 25051.67872329697, -0.21, 0.9420000000000001, 0.164, 192.0, 0.0, 0.0, 0.0, 0.0, 0.0, 0.0, 0.0, 0.0, 0.0, 1.700950098502352E9, 0.0, 2023-11-25 17:08:18.502
156.0, 8814.924516072811, 13606.982065079459, -59918.76839623075, -58717.09391082453, -69439.40453999097, 3871.7691745482894, -31218.502666771732, 24969.759579868267, -0.21, 0.9420000000000001, 0.164, 192.0, 0.0, 0.0, 0.0, 0.0, 0.0, 0.0, 0.0, 0.0, 0.0, 1.700950098505532E9, 0.0, 2023-11-25 17:08:18.505
157.0, 8774.870190008902, 13578.058907754292, -59900.55172449967, -58706.320369997076, -69493.4510580839, 3782.630417660525, -31238.462774570322, 24969.0443240457, -0.21, 0.9500000000000001, 0.166, 192.0, 249.0, 112.0, 29.0, 176.0, 5.0, 48.0, 0.0, 0.0, 0.0, 1.70095009850912E9, 0.0, 2023-11-25 17:08:18.509
158.0, 8833.163539548343, 13676.317176379822, -59844.13592149448, -58642.528491321624, -69479.39181082151, 3812.000609874798, -31211.28305331267, 25013.121964111564, -0.21, 0.9500000000000001, 0.166, 192.0, 0.0, 0.0, 0.0, 0.0, 0.0, 0.0, 0.0, 0.0, 0.0, 1.700950098512151E9, 0.0, 2023-11-25 17:08:18.512
159.0, 8908.064235218077, 13740.444331222097, -59817.090310703556, -58608.7326537052, -69404.64757736296, 3893.4056631810267, -31172.480424938254, 25042.916839470487, -0.21, 0.9500000000000001, 0.166, 192.0, 0.0, 0.0, 0.0, 0.0, 0.0, 0.0, 0.0, 0.0, 0.0, 1.7009500985152E9, 0.0, 2023-11-25 17:08:18.515
160.0, 8825.787463878092, 13614.760472149906, -59915.8403177071, -58719.016160847685, -69426.887563096, 3878.9217327739875, -31211.439515523856, 24963.836367587613, -0.21, 0.9500000000000001, 0.166, 192.0, 0.0, 0.0, 0.0, 0.0, 0.0, 0.0, 0.0, 0.0, 0.0, 1.700950098518238E9, 0.0, 2023-11-25 17:08:18.518
161.0, 8763.291986381053, 13553.717858042462, -59901.78107044472, -58722.14540507143, -69491.19353189392, 3762.402088928472, -31233.41128032342, 24952.571088382138, -0.21, 0.9500000000000001, 0.166, 192.0, 0.0, 0.0, 0.0, 0.0, 0.0, 0.0, 0.0, 0.0, 0.0, 1.700950098521309E9, 0.0, 2023-11-25 17:08:18.521
162.0, 8819.640734152881, 13655.75357148094, -59845.2758604617, -58650.68687804781, -69473.4462467964, 3809.385455773527, -31203.66110845341, 25013.121964111564, -0.21, 0.9500000000000001, 0.166, 192.0, 0.0, 0.0, 0.0, 0.0, 0.0, 0.0, 0.0, 0.0, 0.0, 1.700950098525219E9, 0.0, 2023-11-25 17:08:18.525
163.0, 8907.706607306793, 13751.396686005199, -59794.78326973716, -58591.18653430779, -69405.8322198191, 3883.8167648097, -31152.766186328674, 25078.500816643336, -0.21, 0.9500000000000001, 0.166, 192.0, 0.0, 0.0, 0.0, 0.0, 0.0, 0.0, 0.0, 0.0, 0.0, 1.700950098528283E9, 0.0, 2023-11-25 17:08:18.528
164.0, 8860.767943950646, 13658.055801159837, -59880.94924461237, -58682.02402377415, -69389.58250160009, 3919.1548727935406, -31172.234555749248, 25012.719632711367, -0.21, 0.9500000000000001, 0.166, 192.0, 0.0, 0.0, 0.0, 0.0, 0.0, 0.0, 0.0, 0.0, 0.0, 1.700950098531319E9, 0.0, 2023-11-25 17:08:18.531
165.0, 8769.572826572994, 13554.991907476415, -59889.577017972115, -58712.71296891129, -69468.23829033831, 3782.2280862603293, -31209.003175378228, 24975.36986772655, -0.21, 0.9500000000000001, 0.166, 192.0, 0.0, 0.0, 0.0, 0.0, 0.0, 0.0, 0.0, 0.0, 0.0, 1.700950098534309E9, 0.0, 2023-11-25 17:08:18.534
166.0, 8806.453204924252, 13643.750684708439, -59845.99111628427, -58660.61105258597, -69465.80195019269, 3809.9666011293652, -31187.344335001035, 25016.988815902332, -0.21, 0.9500000000000001, 0.166, 192.0, 0.0, 0.0, 0.0, 0.0, 0.0, 0.0, 0.0, 0.0, 0.0, 1.700950098538345E9, 0.0, 2023-11-25 17:08:18.538
167.0, 8900.799918270102, 13763.332517544331, -59774.95727240531, -58584.50336271565, -69404.31230119614, 3872.0820989706635, -31130.369738384456, 25089.944909804453, -0.214, 0.9460000000000001, 0.162, 192.0, 249.0, 80.0, 29.0, 144.0, 5.0, 16.0, 0.0, 0.0, 0.0, 1.700950098541315E9, 0.0, 2023-11-25 17:08:18.541
168.0, 8872.770830723148, 13688.118897452225, -59856.83171234509, -58666.35545091098, -69369.44357984586, 3944.0323643722973, -31139.91393326687, 25034.19965913292, -0.214, 0.9460000000000001, 0.162, 192.0, 0.0, 0.0, 0.0, 0.0, 0.0, 0.0, 0.0, 0.0, 0.0, 1.700950098544412E9, 0.0, 2023-11-25 17:08:18.544
169.0, 8763.291986381053, 13547.928756228537, -59887.5877127156, -58723.73237892776, -69455.76601693226, 3798.209583545874, -31197.93906187285, 24963.03170478722, -0.214, 0.9460000000000001, 0.162, 192.0, 0.0, 0.0, 0.0, 0.0, 0.0, 0.0, 0.0, 0.0, 0.0, 1.700950098548355E9, 0.0, 2023-11-25 17:08:18.548
170.0, 8782.581541845982, 13605.149222034124, -59849.34387795257, -58675.02792775964, -69462.67270596894, 3813.297011053206, -31176.637849406943, 25017.39114730253, -0.214, 0.9460000000000001, 0.162, 192.0, 0.0, 0.0, 0.0, 0.0, 0.0, 0.0, 0.0, 0.0, 0.0, 1.700950098551385E9, 0.0, 2023-11-25 17:08:18.551
171.0, 8885.198400640298, 13742.098360311791, -59759.19929256431, -58574.668595155315, -69405.20637097435, 3867.298825657228, -31116.243435888704, 25106.485200701383, -0.214, 0.9460000000000001, 0.162, 192.0, 0.0, 0.0, 0.0, 0.0, 0.0, 0.0, 0.0, 0.0, 0.0, 1.700950098554391E9, 0.0, 2023-11-25 17:08:18.554
172.0, 8896.687197290326, 13718.450214678076, -59817.38088338148, -58627.016380669644, -69348.90232669143, 3959.7009372354673, -31102.027726415126, 25071.795293306746, -0.214, 0.9460000000000001, 0.162, 192.0, 0.0, 0.0, 0.0, 0.0, 0.0, 0.0, 0.0, 0.0, 0.0, 1.70095009855736E9, 0.0, 2023-11-25 17:08:18.557
173.0, 8783.766184302114, 13564.290233169822, -59877.976462599814, -58713.629390433955, -69438.21989753484, 3821.075418123653, -31172.055741793603, 24991.597234201105, -0.214, 0.9460000000000001, 0.162, 192.0, 0.0, 0.0, 0.0, 0.0, 0.0, 0.0, 0.0, 0.0, 0.0, 1.700950098561863E9, 0.0, 2023-11-25 17:08:18.561
174.0, 8781.508658112129, 13592.095803272225, -59858.128113523504, -58686.11439300948, -69467.59008974911, 3801.2494207917957, -31179.498872697222, 25016.81000194669, -0.214, 0.9460000000000001, 0.162, 192.0, 0.0, 0.0, 0.0, 0.0, 0.0, 0.0, 0.0, 0.0, 0.0, 1.700950098564472E9, 0.0, 2023-11-25 17:08:18.564
175.0, 8859.985632894712, 13709.911848296148, -59794.1127174035, -58609.85024092797, -69441.03621733621, 3830.239633350329, -31149.659293849385, 25072.48819738486, -0.214, 0.9460000000000001, 0.162, 192.0, 0.0, 0.0, 0.0, 0.0, 0.0, 0.0, 0.0, 0.0, 0.0, 1.700950098567409E9, 0.0, 2023-11-25 17:08:18.567
176.0, 8908.533621851639, 13735.638706164207, -59820.33131364958, -58623.238935856694, -69367.65544028944, 3934.3764107676043, -31122.412517358367, 25076.265642197806, -0.214, 0.9460000000000001, 0.162, 192.0, 0.0, 0.0, 0.0, 0.0, 0.0, 0.0, 0.0, 0.0, 0.0, 1.700950098570447E9, 0.0, 2023-11-25 17:08:18.570
177.0, 8794.69618734076, 13584.742079346428, -59904.10565186807, -58727.95685862981, -69442.891412126, 3821.678915223946, -31204.331660787066, 24980.957803840378, -0.21, 0.9520000000000001, 0.17200000000000001, 192.0, 249.0, 112.0, 29.0, 192.0, 5.0, 96.0, 0.0, 0.0, 0.0, 1.700950098574503E9, 0.0, 2023-11-25 17:08:18.574
178.0, 8780.525181356095, 13591.112326516191, -59872.70145090836, -58700.62067516097, -69477.402505565, 3765.5760366411255, -31208.93612014486, 24994.592367958114, -0.21, 0.9520000000000001, 0.17200000000000001, 192.0, 0.0, 0.0, 0.0, 0.0, 0.0, 0.0, 0.0, 0.0, 0.0, 1.700950098577897E9, 0.0, 2023-11-25 17:08:18.577
179.0, 8847.312193788552, 13698.847734790772, -59815.972723480794, -58630.45854931576, -69461.95745014638, 3788.3077607521727, -31183.164558787892, 25041.978066203366, -0.21, 0.9520000000000001, 0.17200000000000001, 192.0, 0.0, 0.0, 0.0, 0.0, 0.0, 0.0, 0.0, 0.0, 0.0, 1.700950098580512E9, 0.0, 2023-11-25 17:08:18.580
180.0, 8925.140967981932, 13759.91270064267, -59798.73952850575, -58600.7307291902, -69372.5281205807, 3895.685541115468, -31134.750680297697, 25077.7185055874, -0.21, 0.9520000000000001, 0.17200000000000001, 192.0, 0.0, 0.0, 0.0, 0.0, 0.0, 0.0, 0.0, 0.0, 0.0, 1.700950098583587E9, 0.0, 2023-11-25 17:08:18.583
181.0, 8846.41812401034, 13635.614649726707, -59873.97550034231, -58689.69067212233, -69398.21027495984, 3859.4757150978703, -31172.97216331627, 25008.450449520406, -0.21, 0.9520000000000001, 0.17200000000000001, 192.0, 0.0, 0.0, 0.0, 0.0, 0.0, 0.0, 0.0, 0.0, 0.0, 1.700950098588024E9, 0.0, 2023-11-25 17:08:18.588
182.0, 8790.06937623851, 13587.916027059082, -59866.21944501632, -58693.13284076844, -69465.17610134794, 3761.3739086835276, -31200.956547374317, 24993.65359469099, -0.21, 0.9520000000000001, 0.17200000000000001, 192.0, 0.0, 0.0, 0.0, 0.0, 0.0, 0.0, 0.0, 0.0, 0.0, 1.700950098590535E9, 0.0, 2023-11-25 17:08:18.590
183.0, 8828.26850751263, 13671.377440855198, -59829.13790096497, -58644.920127978345, -69469.37822930554, 3779.344711225595, -31195.36861126049, 25024.968388672878, -0.21, 0.9520000000000001, 0.17200000000000001, 192.0, 0.0, 0.0, 0.0, 0.0, 0.0, 0.0, 0.0, 0.0, 0.0, 1.700950098594633E9, 0.0, 2023-11-25 17:08:18.594
184.0, 8915.730883566248, 13753.363639517265, -59787.92128418938, -58596.17097332132, -69387.5261411102, 3864.706023300412, -31144.07135773556, 25065.089769970153, -0.21, 0.9520000000000001, 0.17200000000000001, 192.0, 0.0, 0.0, 0.0, 0.0, 0.0, 0.0, 0.0, 0.0, 0.0, 1.700950098598684E9, 0.0, 2023-11-25 17:08:18.598
185.0, 8869.932159177322, 13660.84976921675, -59857.166988511926, -58674.33502368153, -69374.8750537485, 3887.5942096226468, -31155.001360774204, 25014.820696690167, -0.21, 0.9520000000000001, 0.17200000000000001, 192.0, 0.0, 0.0, 0.0, 0.0, 0.0, 0.0, 0.0, 0.0, 0.0, 1.700950098602847E9, 0.0, 2023-11-25 17:08:18.602
186.0, 8785.956655258735, 13573.655614096597, -59864.38660197099, -58699.033701304645, -69457.30828729967, 3759.630472616014, -31190.5629862026, 24993.22891154634, -0.20800000000000002, 0.9520000000000001, 0.168, 192.0, 249.0, 128.0, 29.0, 192.0, 5.0, 64.0, 0.0, 0.0, 0.0, 1.700950098607616E9, 0.0, 2023-11-25 17:08:18.607
187.0, 8823.954620832756, 13657.698173248551, -59825.53927010766, -58647.37881986843, -69460.10225535659, 3781.55753392667, -31182.89633785443, 25020.028653148252, -0.20800000000000002, 0.9520000000000001, 0.168, 192.0, 0.0, 0.0, 0.0, 0.0, 0.0, 0.0, 0.0, 0.0, 0.0, 1.700950098610682E9, 0.0, 2023-11-25 17:08:18.610
188.0, 8916.312028922084, 13760.87382565425, -59772.67739447086, -58584.54806620456, -69399.3278621826, 3843.7400870013344, -31132.046119218605, 25070.789464806257, -0.20800000000000002, 0.9520000000000001, 0.168, 192.0, 0.0, 0.0, 0.0, 0.0, 0.0, 0.0, 0.0, 0.0, 0.0, 1.700950098614764E9, 0.0, 2023-11-25 17:08:18.614
189.0, 8881.599769782993, 13675.75838276844, -59856.67525013391, -58670.445820146306, -69377.71372529432, 3896.7584248493226, -31141.657369334385, 25025.683644495446, -0.20800000000000002, 0.9520000000000001, 0.168, 192.0, 0.0, 0.0, 0.0, 0.0, 0.0, 0.0, 0.0, 0.0, 0.0, 1.700950098618693E9, 0.0, 2023-11-25 17:08:18.618
190.0, 8785.576675602993, 13556.556529588286, -59858.99983155726, -58698.36314897098, -69450.73687442981, 3765.3525191965723, -31182.248137265226, 24999.442696504917, -0.20800000000000002, 0.9520000000000001, 0.168, 192.0, 0.0, 0.0, 0.0, 0.0, 0.0, 0.0, 0.0, 0.0, 0.0, 1.70095009862274E9, 0.0, 2023-11-25 17:08:18.622
191.0, 8800.93232404379, 13617.710902418006, -59824.60049684054, -58652.475017604236, -69456.05658961018, 3792.3087230096726, -31170.446416192823, 25039.38526384655, -0.20800000000000002, 0.9520000000000001, 0.168, 192.0, 0.0, 0.0, 0.0, 0.0, 0.0, 0.0, 0.0, 0.0, 0.0, 1.700950098626772E9, 0.0, 2023-11-25 17:08:18.626
192.0, 8885.779545996136, 13726.832118848815, -59765.79305717863, -58583.8775138709, -69412.80596408916, 3835.849921208611, -31129.565075584065, 25089.11789525961, -0.20800000000000002, 0.9520000000000001, 0.168, 192.0, 0.0, 0.0, 0.0, 0.0, 0.0, 0.0, 0.0, 0.0, 0.0, 1.700950098630834E9, 0.0, 2023-11-25 17:08:18.630
193.0, 8879.588112782016, 13672.89735947816, -59834.25645044523, -58646.596508812494, -69363.5203675652, 3929.459026987437, -31117.11515392246, 25063.34633390264, -0.20800000000000002, 0.9520000000000001, 0.168, 192.0, 0.0, 0.0, 0.0, 0.0, 0.0, 0.0, 0.0, 0.0, 0.0, 1.700950098635792E9, 0.0, 2023-11-25 17:08:18.635
194.0, 8778.066489466011, 13541.670267781052, -59859.75979086874, -58699.19016351583, -69440.09744406909, 3798.65661843498, -31165.46197717929, 25017.32409206916, -0.20800000000000002, 0.9520000000000001, 0.168, 192.0, 0.0, 0.0, 0.0, 0.0, 0.0, 0.0, 0.0, 0.0, 0.0, 1.700950098639797E9, 0.0, 2023-11-25 17:08:18.639
195.0, 8783.922646513302, 13588.519524159376, -59836.2234039573, -58668.00948000068, -69460.66104896797, 3795.8626503780665, -31164.232631234245, 25041.01694119179, -0.20800000000000002, 0.9520000000000001, 0.168, 192.0, 0.0, 0.0, 0.0, 0.0, 0.0, 0.0, 0.0, 0.0, 0.0, 1.700950098642816E9, 0.0, 2023-11-25 17:08:18.642
196.0, 8870.915635933356, 13712.415243675143, -59768.58702523554, -58588.66078718434, -69425.99349331779, 3823.3776478025497, -31133.454279119287, 25092.15773250553, -0.20600000000000002, 0.9440000000000001, 0.164, 192.0, 249.0, 144.0, 29.0, 128.0, 5.0, 32.0, 0.0, 0.0, 0.0, 1.700950098646877E9, 0.0, 2023-11-25 17:08:18.646
197.0, 8907.460738117783, 13715.678598365617, -59805.132127419965, -58616.958095664755, -69351.36101858152, 3931.135407821585, -31109.06852591855, 25076.35504917563, -0.20600000000000002, 0.9440000000000001, 0.164, 192.0, 0.0, 0.0, 0.0, 0.0, 0.0, 0.0, 0.0, 0.0, 0.0, 1.700950098657941E9, 0.0, 2023-11-25 17:08:18.657
198.0, 8799.702978098749, 13572.180398962546, -59860.005660057745, -58697.558486170594, -69426.55228692917, 3805.6303627050356, -31169.37353245897, 24999.152123826996, -0.20600000000000002, 0.9440000000000001, 0.164, 192.0, 0.0, 0.0, 0.0, 0.0, 0.0, 0.0, 0.0, 0.0, 0.0, 1.700950098661006E9, 0.0, 2023-11-25 17:08:18.661
199.0, 8786.44839363675, 13588.653634626107, -59838.79385456966, -58673.798581814604, -69457.97883963333, 3778.65180714748, -31165.104349268004, 25036.09955741162, -0.20600000000000002, 0.9440000000000001, 0.164, 192.0, 0.0, 0.0, 0.0, 0.0, 0.0, 0.0, 0.0, 0.0, 0.0, 1.700950098664057E9, 0.0, 2023-11-25 17:08:18.664
200.0, 8853.99536538069, 13697.126650467713, -59786.58017952206, -58610.20786883925, -69447.7417406728, 3796.622609689547, -31155.06841600757, 25082.188854478463, -0.20600000000000002, 0.9440000000000001, 0.164, 192.0, 0.0, 0.0, 0.0, 0.0, 0.0, 0.0, 0.0, 0.0, 0.0, 1.700950098671024E9, 0.0, 2023-11-25 17:08:18.671
201.0, 8914.993275999223, 13737.203328276079, -59800.728833762274, -58609.00087463867, -69367.18605365587, 3906.5484889207473, -31126.413479615865, 25089.96726154891, -0.20600000000000002, 0.9440000000000001, 0.164, 192.0, 0.0, 0.0, 0.0, 0.0, 0.0, 0.0, 0.0, 0.0, 0.0, 1.700950098673993E9, 0.0, 2023-11-25 17:08:18.673
202.0, 8817.025580051612, 13601.21531500999, -59878.02116608872, -58702.14059378393, -69422.86424909404, 3825.7916362037226, -31186.517320456187, 25009.880961165545, -0.20600000000000002, 0.9440000000000001, 0.164, 192.0, 0.0, 0.0, 0.0, 0.0, 0.0, 0.0, 0.0, 0.0, 0.0, 1.700950098677024E9, 0.0, 2023-11-25 17:08:18.677
203.0, 8787.49892562615, 13591.805230594306, -59856.2282152448, -58681.28641620713, -69467.65714498248, 3763.9667110403434, -31191.88173912546, 25022.129717127053, -0.20600000000000002, 0.9440000000000001, 0.164, 192.0, 0.0, 0.0, 0.0, 0.0, 0.0, 0.0, 0.0, 0.0, 0.0, 1.7009500986801E9, 0.0, 2023-11-25 17:08:18.680
204.0, 8848.027449611121, 13697.439574890088, -59803.99218845275, -58614.96879040823, -69458.13530184452, 3789.134775297019, -31168.68062838085, 25059.85946176761, -0.20600000000000002, 0.9440000000000001, 0.164, 192.0, 0.0, 0.0, 0.0, 0.0, 0.0, 0.0, 0.0, 0.0, 0.0, 1.700950098684094E9, 0.0, 2023-11-25 17:08:18.684
205.0, 8927.57730812756, 13765.143008845213, -59784.367356820985, -58585.24097028268, -69372.68458279187, 3891.0587300132192, -31120.82554350204, 25085.228691724384, -0.20600000000000002, 0.9440000000000001, 0.164, 192.0, 0.0, 0.0, 0.0, 0.0, 0.0, 0.0, 0.0, 0.0, 0.0, 1.700950098687213E9, 0.0, 2023-11-25 17:08:18.687
206.0, 8827.441492967784, 13618.895544874138, -59881.820962646125, -58699.95012282731, -69412.11306001105, 3847.4728283253708, -31184.93034659986, 24990.010260344778, -0.216, 0.9480000000000001, 0.16, 192.0, 249.0, 64.0, 29.0, 160.0, 5.0, 0.0, 0.0, 0.0, 0.0, 1.700950098690144E9, 0.0, 2023-11-25 17:08:18.690
207.0, 8771.204503918232, 13569.699355328006, -59861.45852344734, -58695.65858789189, -69467.14305486, 3750.5333126227038, -31207.639718966453, 24995.017051102765, -0.216, 0.9480000000000001, 0.16, 192.0, 0.0, 0.0, 0.0, 0.0, 0.0, 0.0, 0.0, 0.0, 0.0, 1.700950098693395E9, 0.0, 2023-11-25 17:08:18.693
208.0, 8821.69709464277, 13664.202530885046, -59811.68118854537, -58637.83462498601, -69461.33160130163, 3777.198943757885, -31188.93130885736, 25043.43092959296, -0.216, 0.9480000000000001, 0.16, 192.0, 0.0, 0.0, 0.0, 0.0, 0.0, 0.0, 0.0, 0.0, 0.0, 1.700950098697185E9, 0.0, 2023-11-25 17:08:18.697
209.0, 8920.938840024333, 13764.293642555911, -59760.09336234252, -58579.429516724296, -69376.75260028275, 3864.7954302782337, -31130.459145362278, 25092.649470883545, -0.216, 0.9480000000000001, 0.16, 192.0, 0.0, 0.0, 0.0, 0.0, 0.0, 0.0, 0.0, 0.0, 0.0, 1.70095009871926E9, 0.0, 2023-11-25 17:08:18.719
210.0, 8852.9895368802, 13647.014039398915, -59855.91529082243, -58682.180485985344, -69381.06648696262, 3875.7030815724233, -31169.239421992235, 25010.305644310196, -0.216, 0.9480000000000001, 0.16, 192.0, 0.0, 0.0, 0.0, 0.0, 0.0, 0.0, 0.0, 0.0, 0.0, 1.700950098723985E9, 0.0, 2023-11-25 17:08:18.723
211.0, 8777.731213299181, 13563.329108158245, -59846.7734273402, -58689.98124480024, -69447.92055462845, 3752.8802457905113, -31197.424971750377, 25002.862513406577, -0.216, 0.9480000000000001, 0.16, 192.0, 0.0, 0.0, 0.0, 0.0, 0.0, 0.0, 0.0, 0.0, 0.0, 1.700950098726358E9, 0.0, 2023-11-25 17:08:18.726
212.0, 8809.202469492253, 13637.13456834967, -59813.84930775754, -58643.64607854439, -69454.40256052048, 3777.422461202438, -31180.817625620086, 25045.7108075274, -0.216, 0.9480000000000001, 0.16, 192.0, 0.0, 0.0, 0.0, 0.0, 0.0, 0.0, 0.0, 0.0, 0.0, 1.700950098729445E9, 0.0, 2023-11-25 17:08:18.729
213.0, 8904.890287505423, 13746.501653969486, -59758.97577511976, -58578.714260901725, -69396.3774319145, 3836.364011331083, -31140.472726878255, 25094.482313928882, -0.216, 0.9480000000000001, 0.16, 192.0, 0.0, 0.0, 0.0, 0.0, 0.0, 0.0, 0.0, 0.0, 0.0, 1.700950098732508E9, 0.0, 2023-11-25 17:08:18.732
214.0, 8871.496781289194, 13670.259853632433, -59844.784122083685, -58665.10375322148, -69370.49411183526, 3895.305561459728, -31150.03927350513, 25049.108272684607, -0.216, 0.9480000000000001, 0.16, 192.0, 0.0, 0.0, 0.0, 0.0, 0.0, 0.0, 0.0, 0.0, 0.0, 1.700950098736382E9, 0.0, 2023-11-25 17:08:18.736
215.0, 8768.432887605773, 13551.281517896834, -59867.292328750176, -58715.0599020791, -69461.0410286237, 3746.085315476098, -31200.308346785114, 25007.690490208923, -0.216, 0.9480000000000001, 0.16, 192.0, 0.0, 0.0, 0.0, 0.0, 0.0, 0.0, 0.0, 0.0, 0.0, 1.700950098739499E9, 0.0, 2023-11-25 17:08:18.739
216.0, 8793.131565228889, 13618.426158240576, -59834.45761614533, -58677.10663999399, -69472.50747352929, 3760.569245883137, -31188.79719839063, 25035.6078190336, -0.218, 0.9520000000000001, 0.156, 192.0, 249.0, 48.0, 29.0, 192.0, 4.0, 224.0, 0.0, 0.0, 0.0, 1.700950098742854E9, 0.0, 2023-11-25 17:08:18.742
217.0, 8889.512287320173, 13735.392836975197, -59761.50152224321, -58600.06017685654, -69422.23840024929, 3805.5856592161254, -31139.645712333408, 25086.43568592497, -0.218, 0.9520000000000001, 0.156, 192.0, 0.0, 0.0, 0.0, 0.0, 0.0, 0.0, 0.0, 0.0, 0.0, 1.700950098753722E9, 0.0, 2023-11-25 17:08:18.753
218.0, 8892.105089676987, 13694.422089388621, -59819.7725200382, -58654.576081583036, -69363.98975419876, 3903.687465630468, -31128.939226739316, 25055.322057643185, -0.218, 0.9520000000000001, 0.156, 192.0, 0.0, 0.0, 0.0, 0.0, 0.0, 0.0, 0.0, 0.0, 0.0, 1.700950098754011E9, 0.0, 2023-11-25 17:08:18.754
219.0, 8792.461012895228, 13566.681869826542, -59846.50520640674, -58704.53223044065, -69433.8389556216, 3780.596408915092, -31178.35893373, 25015.938283912932, -0.218, 0.9520000000000001, 0.156, 192.0, 0.0, 0.0, 0.0, 0.0, 0.0, 0.0, 0.0, 0.0, 0.0, 1.700950098754449E9, 0.0, 2023-11-25 17:08:18.754
220.0, 8794.807946063036, 13601.662349899096, -59825.94160150786, -58673.19508471431, -69457.77767393323, 3769.241722731796, -31177.040180807136, 25047.498947083826, -0.218, 0.9520000000000001, 0.156, 192.0, 0.0, 0.0, 0.0, 0.0, 0.0, 0.0, 0.0, 0.0, 0.0, 1.70095009875546E9, 0.0, 2023-11-25 17:08:18.755
221.0, 8884.729014006736, 13723.278191480422, -59754.371315761964, -58592.840563397476, -69423.02071130523, 3789.3806444860274, -31151.335674683534, 25092.20243599444, -0.218, 0.9520000000000001, 0.156, 192.0, 0.0, 0.0, 0.0, 0.0, 0.0, 0.0, 0.0, 0.0, 0.0, 1.700950098758411E9, 0.0, 2023-11-25 17:08:18.758
222.0, 8911.9534387533, 13720.439519934598, -59803.63456054146, -58630.68206676032, -69361.8663384755, 3882.363901420105, -31139.73511931123, 25062.80989203571, -0.218, 0.9520000000000001, 0.156, 192.0, 0.0, 0.0, 0.0, 0.0, 0.0, 0.0, 0.0, 0.0, 0.0, 1.700950098762458E9, 0.0, 2023-11-25 17:08:18.762
223.0, 8805.98381829069, 13580.271730455368, -59867.89582585047, -58715.395178245926, -69438.19754579039, 3763.6314348735136, -31210.120762600993, 24999.84502790511, -0.218, 0.9520000000000001, 0.156, 192.0, 0.0, 0.0, 0.0, 0.0, 0.0, 0.0, 0.0, 0.0, 0.0, 1.700950098765515E9, 0.0, 2023-11-25 17:08:18.765
224.0, 8800.418233921318, 13603.651655155618, -59840.13495923698, -58683.76745984167, -69466.65131648199, 3732.920137991922, -31211.2159980793, 25031.71861549838, -0.218, 0.9520000000000001, 0.156, 192.0, 0.0, 0.0, 0.0, 0.0, 0.0, 0.0, 0.0, 0.0, 0.0, 1.700950098768532E9, 0.0, 2023-11-25 17:08:18.768
225.0, 8879.521057548649, 13723.166432758146, -59771.04571712563, -58603.41293852484, -69439.65040917997, 3762.044461017187, -31178.78361687465, 25085.921595802498, -0.218, 0.9520000000000001, 0.156, 192.0, 0.0, 0.0, 0.0, 0.0, 0.0, 0.0, 0.0, 0.0, 0.0, 1.700950098772555E9, 0.0, 2023-11-25 17:08:18.772
226.0, 8936.361543698495, 13762.147875088202, -59780.098173630024, -58601.3342262905, -69358.9159082074, 3871.746822803834, -31138.349311155, 25099.35499422014, -0.222, 0.9560000000000001, 0.152, 192.0, 249.0, 16.0, 29.0, 224.0, 4.0, 192.0, 0.0, 0.0, 0.0, 1.700950098775589E9, 0.0, 2023-11-25 17:08:18.775
227.0, 8819.305457986053, 13608.323169746778, -59873.79668638667, -58711.818899133075, -69423.78067061672, 3790.073548564142, -31206.768000932694, 24995.911120880977, -0.222, 0.9560000000000001, 0.152, 192.0, 0.0, 0.0, 0.0, 0.0, 0.0, 0.0, 0.0, 0.0, 0.0, 1.70095009877861E9, 0.0, 2023-11-25 17:08:18.778
228.0, 8780.838105778468, 13590.061794526791, -59854.79770359966, -58693.49046867972, -69472.9992119073, 3719.6432017854695, -31219.150867360935, 25001.163780827974, -0.222, 0.9560000000000001, 0.152, 192.0, 0.0, 0.0, 0.0, 0.0, 0.0, 0.0, 0.0, 0.0, 0.0, 1.700950098781653E9, 0.0, 2023-11-25 17:08:18.781
229.0, 8836.739818661192, 13692.18691494309, -59807.76963326569, -58628.3351335925, -69468.03712463821, 3743.939548008388, -31207.818532922094, 25045.174365660474, -0.222, 0.9560000000000001, 0.152, 192.0, 0.0, 0.0, 0.0, 0.0, 0.0, 0.0, 0.0, 0.0, 0.0, 1.700950098784614E9, 0.0, 2023-11-25 17:08:18.784
230.0, 8927.219680216274, 13775.178942105646, -59774.75610670521, -58583.2293132817, -69374.71859153731, 3852.881950483555, -31149.88281129394, 25092.716526116914, -0.222, 0.9560000000000001, 0.152, 192.0, 0.0, 0.0, 0.0, 0.0, 0.0, 0.0, 0.0, 0.0, 0.0, 1.700950098788601E9, 0.0, 2023-11-25 17:08:18.788
231.0, 8850.486141501206, 13652.423161557099, -59858.351630968056, -58682.13578249643, -69394.2763679357, 3831.0666478951753, -31183.03044832116, 25012.518467011272, -0.222, 0.9560000000000001, 0.152, 192.0, 0.0, 0.0, 0.0, 0.0, 0.0, 0.0, 0.0, 0.0, 0.0, 1.700950098791697E9, 0.0, 2023-11-25 17:08:18.791
232.0, 8789.957617516235, 13596.566152163286, -59847.73455235178, -58687.74607035471, -69460.34812454559, 3723.9347367208884, -31204.398716020434, 25003.443658762415, -0.222, 0.9560000000000001, 0.152, 192.0, 0.0, 0.0, 0.0, 0.0, 0.0, 0.0, 0.0, 0.0, 0.0, 1.70095009879467E9, 0.0, 2023-11-25 17:08:18.794
233.0, 8824.580469677505, 13684.363804383733, -59812.28468564567, -58643.17669191083, -69467.14305486, 3742.576091596615, -31195.88270138296, 25041.128699914065, -0.222, 0.9560000000000001, 0.152, 192.0, 0.0, 0.0, 0.0, 0.0, 0.0, 0.0, 0.0, 0.0, 0.0, 1.700950098802737E9, 0.0, 2023-11-25 17:08:18.802
234.0, 8919.642438845925, 13782.264445097977, -59758.61814720847, -58581.88820861438, -69387.97317599932, 3826.66335423748, -31141.053872234093, 25101.03137505429, -0.222, 0.9560000000000001, 0.152, 192.0, 0.0, 0.0, 0.0, 0.0, 0.0, 0.0, 0.0, 0.0, 0.0, 1.700950098805701E9, 0.0, 2023-11-25 17:08:18.805
235.0, 8858.778638694124, 13675.579568812796, -59852.6295843875, -58682.09107900752, -69386.40855388744, 3857.4193546079823, -31168.36770395848, 25032.81385097669, -0.222, 0.9560000000000001, 0.152, 192.0, 0.0, 0.0, 0.0, 0.0, 0.0, 0.0, 0.0, 0.0, 0.0, 1.700950098808713E9, 0.0, 2023-11-25 17:08:18.808
236.0, 8766.532989327072, 13571.68866058453, -59862.28553799219, -58712.71296891129, -69472.03808689571, 3719.9784779522993, -31213.5182277582, 25001.18613257243, -0.222, 0.9540000000000001, 0.156, 192.0, 249.0, 16.0, 29.0, 208.0, 4.0, 224.0, 0.0, 0.0, 0.0, 1.700950098811808E9, 0.0, 2023-11-25 17:08:18.811
237.0, 8806.31909445752, 13657.742876737462, -59815.74920603624, -58654.576081583036, -69465.71254321486, 3756.501228392271, -31185.60089893352, 25063.167519946997, -0.222, 0.9540000000000001, 0.156, 192.0, 0.0, 0.0, 0.0, 0.0, 0.0, 0.0, 0.0, 0.0, 0.0, 1.700950098815991E9, 0.0, 2023-11-25 17:08:18.815
238.0, 8903.392720626918, 13780.386898563731, -59752.560824461085, -58579.92125510231, -69402.635920362, 3817.655601221991, -31131.666139562865, 25128.009930611843, -0.222, 0.9540000000000001, 0.156, 192.0, 0.0, 0.0, 0.0, 0.0, 0.0, 0.0, 0.0, 0.0, 0.0, 1.700950098818809E9, 0.0, 2023-11-25 17:08:18.818
239.0, 8878.80580172608, 13714.09162450929, -59832.28949693317, -58657.10182870649, -69366.56020481113, 3886.811898566711, -31145.859497291985, 25069.62717409458, -0.222, 0.9540000000000001, 0.156, 192.0, 0.0, 0.0, 0.0, 0.0, 0.0, 0.0, 0.0, 0.0, 0.0, 1.700950098821775E9, 0.0, 2023-11-25 17:08:18.821
240.0, 8781.463954623217, 13593.63807363964, -59844.20297672784, -58695.457422191794, -69444.50073772678, 3745.3253561646175, -31205.359841032012, 25020.721557226367, -0.222, 0.9540000000000001, 0.156, 192.0, 0.0, 0.0, 0.0, 0.0, 0.0, 0.0, 0.0, 0.0, 0.0, 1.700950098824859E9, 0.0, 2023-11-25 17:08:18.824
241.0, 8801.625228121904, 13656.04414415886, -59812.128223434476, -58653.7937705271, -69453.77671167573, 3759.1610859824523, -31190.048896080127, 25051.544612830236, -0.222, 0.9540000000000001, 0.156, 192.0, 0.0, 0.0, 0.0, 0.0, 0.0, 0.0, 0.0, 0.0, 0.0, 1.700950098829841E9, 0.0, 2023-11-25 17:08:18.829
242.0, 8887.388871596917, 13771.24503508151, -59749.073952326056, -58585.777412149604, -69417.65629263596, 3787.6819119074244, -31149.301665938103, 25098.952662819942, -0.222, 0.9540000000000001, 0.156, 192.0, 0.0, 0.0, 0.0, 0.0, 0.0, 0.0, 0.0, 0.0, 0.0, 1.700950098831866E9, 0.0, 2023-11-25 17:08:18.831
243.0, 8903.929162493845, 13749.653249937684, -59803.47809833028, -58635.13006390692, -69353.79735872714, 3884.91200028801, -31132.649616318897, 25077.673802098492, -0.222, 0.9540000000000001, 0.156, 192.0, 0.0, 0.0, 0.0, 0.0, 0.0, 0.0, 0.0, 0.0, 0.0, 1.700950098834931E9, 0.0, 2023-11-25 17:08:18.834
244.0, 8800.64175136587, 13614.760472149906, -59845.90170930645, -58704.53223044065, -69434.77772888872, 3743.7160305638354, -31199.615442706996, 25014.66423447898, -0.222, 0.9540000000000001, 0.156, 192.0, 0.0, 0.0, 0.0, 0.0, 0.0, 0.0, 0.0, 0.0, 0.0, 1.700950098838897E9, 0.0, 2023-11-25 17:08:18.838
245.0, 8810.990609048678, 13661.587376783775, -59815.8162612696, -58668.23299744523, -69455.14016808751, 3731.3555158800505, -31200.062477596104, 25040.122871413576, -0.222, 0.9540000000000001, 0.156, 192.0, 0.0, 0.0, 0.0, 0.0, 0.0, 0.0, 0.0, 0.0, 0.0, 1.700950098842907E9, 0.0, 2023-11-25 17:08:18.842
246.0, 8890.361653609474, 13781.929168931149, -59756.15945531839, -58597.89205764438, -69435.04594982219, 3745.4147631424385, -31187.299631512124, 25072.175272962486, -0.216, 0.9520000000000001, 0.158, 192.0, 249.0, 64.0, 29.0, 192.0, 4.0, 240.0, 0.0, 0.0, 0.0, 1.700950098847054E9, 0.0, 2023-11-25 17:08:18.847
247.0, 8930.371276184473, 13797.597741794318, -59783.45093529832, -58613.9853136522, -69355.60785002803, 3855.9888429628427, -31157.124776497458, 25073.896357285543, -0.216, 0.9520000000000001, 0.158, 192.0, 0.0, 0.0, 0.0, 0.0, 0.0, 0.0, 0.0, 0.0, 0.0, 1.700950098850969E9, 0.0, 2023-11-25 17:08:18.850
248.0, 8817.852594596457, 13649.293917333356, -59847.60044188505, -58698.89959083791, -69421.70195838237, 3752.0308795012093, -31214.14407660295, 25011.24441757732, -0.216, 0.9520000000000001, 0.158, 192.0, 0.0, 0.0, 0.0, 0.0, 0.0, 0.0, 0.0, 0.0, 0.0, 1.700950098856002E9, 0.0, 2023-11-25 17:08:18.856
249.0, 8802.228725222198, 13656.55823428133, -59816.88914500346, -58667.495389878204, -69451.38507501902, 3714.3234866051066, -31217.496838271243, 25038.1112144126, -0.216, 0.9520000000000001, 0.158, 192.0, 0.0, 0.0, 0.0, 0.0, 0.0, 0.0, 0.0, 0.0, 0.0, 1.700950098859019E9, 0.0, 2023-11-25 17:08:18.859
250.0, 8870.379194066429, 13762.39374427721, -59757.14293207442, -58595.16514482083, -69435.22476377783, 3742.330222407606, -31192.88756762595, 25094.951700562444, -0.216, 0.9520000000000001, 0.158, 192.0, 0.0, 0.0, 0.0, 0.0, 0.0, 0.0, 0.0, 0.0, 0.0, 1.700950098863057E9, 0.0, 2023-11-25 17:08:18.863
251.0, 8929.879537806457, 13812.282837901455, -59760.6521559539, -58584.078679571, -69356.61367852852, 3849.4844853263485, -31158.152956742404, 25106.932235590488, -0.216, 0.9520000000000001, 0.158, 192.0, 0.0, 0.0, 0.0, 0.0, 0.0, 0.0, 0.0, 0.0, 0.0, 1.700950098867059E9, 0.0, 2023-11-25 17:08:18.867
252.0, 8834.057609326555, 13673.210283900535, -59843.733590094285, -58683.2533697192, -69402.52416163971, 3788.777147385734, -31217.42978303788, 25014.53012401225, -0.216, 0.9520000000000001, 0.158, 192.0, 0.0, 0.0, 0.0, 0.0, 0.0, 0.0, 0.0, 0.0, 0.0, 1.700950098871279E9, 0.0, 2023-11-25 17:08:18.871
253.0, 8788.683568082282, 13643.057780630324, -59829.85315678754, -58676.21257021577, -69459.69992395639, 3708.467329557816, -31233.143059389957, 25018.28521708074, -0.216, 0.9520000000000001, 0.158, 192.0, 0.0, 0.0, 0.0, 0.0, 0.0, 0.0, 0.0, 0.0, 0.0, 1.700950098875099E9, 0.0, 2023-11-25 17:08:18.875
254.0, 8829.006115079656, 13734.074084052336, -59791.07288015758, -58627.016380669644, -69464.10321761409, 3726.952222222355, -31220.22375109479, 25059.077150711677, -0.216, 0.9520000000000001, 0.158, 192.0, 0.0, 0.0, 0.0, 0.0, 0.0, 0.0, 0.0, 0.0, 0.0, 1.700950098879162E9, 0.0, 2023-11-25 17:08:18.879
255.0, 8924.358656925995, 13823.92809676267, -59746.34703950251, -58571.718164887214, -69368.84008274556, 3834.084133396642, -31159.31524745408, 25120.58915145268, -0.216, 0.9520000000000001, 0.158, 192.0, 0.0, 0.0, 0.0, 0.0, 0.0, 0.0, 0.0, 0.0, 0.0, 1.700950098885199E9, 0.0, 2023-11-25 17:08:18.885
0.0, 8850.843769412491, 13704.726243582518, -59832.80358705564, -58665.75195381069, -69380.79826602916, 3839.1803311324516, -31196.59795720553, 25059.121854200584, -0.216, 0.9560000000000001, 0.162, 192.0, 249.0, 64.0, 29.0, 224.0, 5.0, 16.0, 0.0, 0.0, 0.0, 1.700950098888154E9, 0.0, 2023-11-25 17:08:18.888
1.0, 8783.855591279935, 13638.520376505898, -59824.53344160717, -58674.11150623697, -69449.52988022922, 3722.9959634537654, -31226.929274431383, 25043.967371459887, -0.216, 0.9560000000000001, 0.162, 192.0, 0.0, 0.0, 0.0, 0.0, 0.0, 0.0, 0.0, 0.0, 0.0, 1.700950098891174E9, 0.0, 2023-11-25 17:08:18.891
2.0, 8822.658219654348, 13727.077988037825, -59785.08261264356, -58624.69179924629, -69450.6921709409, 3748.745173066279, -31202.40941076391, 25083.97699403489, -0.216, 0.9560000000000001, 0.162, 192.0, 0.0, 0.0, 0.0, 0.0, 0.0, 0.0, 0.0, 0.0, 0.0, 1.700950098895204E9, 0.0, 2023-11-25 17:08:18.895
3.0, 8917.250802189208, 13831.058303243912, -59728.175071260346, -58557.72597285819, -69374.13744618147, 3828.563252516181, -31139.176325699846, 25135.40835802655, -0.216, 0.9560000000000001, 0.162, 192.0, 0.0, 0.0, 0.0, 0.0, 0.0, 0.0, 0.0, 0.0, 0.0, 1.700950098899274E9, 0.0, 2023-11-25 17:08:18.899
4.0, 8850.821417668036, 13719.701912367573, -59829.49552887625, -58659.71698280776, -69371.90227173595, 3864.616616322591, -31171.6087069045, 25065.693267070445, -0.216, 0.9560000000000001, 0.162, 192.0, 0.0, 0.0, 0.0, 0.0, 0.0, 0.0, 0.0, 0.0, 0.0, 1.700950098903383E9, 0.0, 2023-11-25 17:08:18.903
5.0, 8763.381393358874, 13615.811004139305, -59830.63546784347, -58683.40983193038, -69449.37341801803, 3726.4381320998828, -31216.22278883729, 25035.116080655585, -0.216, 0.9560000000000001, 0.162, 192.0, 0.0, 0.0, 0.0, 0.0, 0.0, 0.0, 0.0, 0.0, 0.0, 1.700950098907271E9, 0.0, 2023-11-25 17:08:18.907
6.0, 8805.022693279112, 13699.674749335618, -59788.48007780076, -58627.932802192314, -69446.91472612796, 3756.948263281377, -31194.36278276, 25077.76320907631, -0.216, 0.9560000000000001, 0.162, 192.0, 0.0, 0.0, 0.0, 0.0, 0.0, 0.0, 0.0, 0.0, 0.0, 1.700950098911269E9, 0.0, 2023-11-25 17:08:18.911
7.0, 8912.936915509334, 13823.414006640198, -59713.60173387548, -58543.0185250066, -69380.82061777361, 3815.5098337542813, -31148.474651393255, 25133.597866725668, -0.216, 0.9560000000000001, 0.162, 192.0, 0.0, 0.0, 0.0, 0.0, 0.0, 0.0, 0.0, 0.0, 0.0, 1.700950098915328E9, 0.0, 2023-11-25 17:08:18.915
8.0, 8891.546296065604, 13759.353907031287, -59795.92320870438, -58620.40026431087, -69343.11322487751, 3892.399834680538, -31159.561116643086, 25082.658241112025, -0.216, 0.9560000000000001, 0.162, 192.0, 0.0, 0.0, 0.0, 0.0, 0.0, 0.0, 0.0, 0.0, 0.0, 1.70095009892038E9, 0.0, 2023-11-25 17:08:18.920
9.0, 8774.82548651999, 13620.750739663928, -59836.78219756868, -58688.30486396609, -69441.75147315877, 3730.550853079659, -31228.94093143236, 25013.300778067205, -0.216, 0.9560000000000001, 0.162, 192.0, 0.0, 0.0, 0.0, 0.0, 0.0, 0.0, 0.0, 0.0, 0.0, 1.700950098923361E9, 0.0, 2023-11-25 17:08:18.923
10.0, 8789.331768671485, 13676.361879868733, -59810.29538038914, -58654.8443025165, -69460.45988326787, 3725.700524532858, -31232.80778322313, 25040.882830725055, -0.228, 0.9540000000000001, 0.164, 192.0, 248.0, 224.0, 29.0, 208.0, 5.0, 32.0, 0.0, 0.0, 0.0, 1.700950098927542E9, 0.0, 2023-11-25 17:08:18.927
11.0, 8898.251819402198, 13810.718215789584, -59723.905888069385, -58562.084563026976, -69404.82639131861, 3764.9054843074664, -31187.947832101327, 25106.440497212472, -0.228, 0.9540000000000001, 0.164, 192.0, 0.0, 0.0, 0.0, 0.0, 0.0, 0.0, 0.0, 0.0, 0.0, 1.700950098931499E9, 0.0, 2023-11-25 17:08:18.931
12.0, 8913.674523076359, 13790.288721357432, -59775.96310090579, -58607.05627287106, -69339.84987018703, 3869.3775378915716, -31168.278296980658, 25093.02945053929, -0.228, 0.9540000000000001, 0.164, 192.0, 0.0, 0.0, 0.0, 0.0, 0.0, 0.0, 0.0, 0.0, 0.0, 1.700950098936528E9, 0.0, 2023-11-25 17:08:18.936
13.0, 8796.50667864164, 13641.895489918648, -59829.62963934299, -58687.09786976551, -69425.72527238433, 3734.5965188260698, -31232.360748334024, 25025.77305147327, -0.228, 0.9540000000000001, 0.164, 192.0, 0.0, 0.0, 0.0, 0.0, 0.0, 0.0, 0.0, 0.0, 0.0, 1.700950098940591E9, 0.0, 2023-11-25 17:08:18.940
14.0, 8790.315245427519, 13668.628176287197, -59808.44018559936, -58662.667413075855, -69458.18000533343, 3705.427492311894, -31240.116803660014, 25038.401787090515, -0.228, 0.9540000000000001, 0.164, 192.0, 0.0, 0.0, 0.0, 0.0, 0.0, 0.0, 0.0, 0.0, 0.0, 1.700950098943488E9, 0.0, 2023-11-25 17:08:18.943
15.0, 8871.385022566918, 13787.137125389234, -59741.787283633625, -58585.68800517178, -69433.21310677685, 3727.5110158337375, -31220.51432377271, 25085.20633997993, -0.228, 0.9540000000000001, 0.164, 192.0, 0.0, 0.0, 0.0, 0.0, 0.0, 0.0, 0.0, 0.0, 0.0, 1.700950098946508E9, 0.0, 2023-11-25 17:08:18.946
16.0, 8932.427636674362, 13818.45191937112, -59752.58317620554, -58584.68217667129, -69342.64383824395, 3851.742011516334, -31179.498872697222, 25104.831171611688, -0.228, 0.9540000000000001, 0.164, 192.0, 0.0, 0.0, 0.0, 0.0, 0.0, 0.0, 0.0, 0.0, 0.0, 1.700950098950582E9, 0.0, 2023-11-25 17:08:18.950
17.0, 8813.98574280569, 13655.820626714305, -59835.03876150117, -58686.874352320956, -69417.38807170249, 3749.9298155224105, -31241.3237978606, 25017.726423469358, -0.228, 0.9540000000000001, 0.164, 192.0, 0.0, 0.0, 0.0, 0.0, 0.0, 0.0, 0.0, 0.0, 0.0, 1.700950098954751E9, 0.0, 2023-11-25 17:08:18.954
18.0, 8782.514486612617, 13643.951850408537, -59817.31382814811, -58671.78692481363, -69463.0973891136, 3688.4178147814055, -31253.483146844286, 25016.027690890754, -0.228, 0.9540000000000001, 0.164, 192.0, 0.0, 0.0, 0.0, 0.0, 0.0, 0.0, 0.0, 0.0, 0.0, 1.700950098959585E9, 0.0, 2023-11-25 17:08:18.959
19.0, 8856.65522297087, 13759.420962264654, -59745.922356357856, -58590.73949941868, -69437.8399178791, 3722.951259964855, -31220.000233650237, 25075.639793353057, -0.228, 0.9540000000000001, 0.164, 192.0, 0.0, 0.0, 0.0, 0.0, 0.0, 0.0, 0.0, 0.0, 0.0, 1.700950098963664E9, 0.0, 2023-11-25 17:08:18.963
20.0, 8923.911622036889, 13812.707521046106, -59740.66969641086, -58572.008737565135, -69354.64672501644, 3839.984993932843, -31169.12766326996, 25113.79422113827, -0.226, 0.9480000000000001, 0.162, 192.0, 248.0, 240.0, 29.0, 160.0, 5.0, 16.0, 0.0, 0.0, 0.0, 1.700950098967614E9, 0.0, 2023-11-25 17:08:18.967
21.0, 8817.226745751708, 13663.84490297376, -59841.74428483776, -58685.22032323126, -69409.60966463205, 3783.4350804609157, -31232.696024500852, 25022.688510738437, -0.226, 0.9480000000000001, 0.162, 192.0, 0.0, 0.0, 0.0, 0.0, 0.0, 0.0, 0.0, 0.0, 0.0, 1.700950098970979E9, 0.0, 2023-11-25 17:08:18.970
22.0, 8781.195733689754, 13629.289106045855, -59817.89497350395, -58670.11054397948, -69461.08573211262, 3704.153442877942, -31241.837887983074, 25035.09372891113, -0.226, 0.9480000000000001, 0.162, 192.0, 0.0, 0.0, 0.0, 0.0, 0.0, 0.0, 0.0, 0.0, 0.0, 1.700950098974669E9, 0.0, 2023-11-25 17:08:18.974
23.0, 8843.0877140865, 13734.454063708075, -59762.73086818825, -58601.73655769069, -69450.0439703517, 3737.8151700276344, -31208.757306189218, 25091.129552260587, -0.226, 0.9480000000000001, 0.162, 192.0, 0.0, 0.0, 0.0, 0.0, 0.0, 0.0, 0.0, 0.0, 0.0, 1.700950098981707E9, 0.0, 2023-11-25 17:08:18.981
24.0, 8925.699761593314, 13820.731797305561, -59733.897117840905, -58559.715278114716, -69375.0315159597, 3832.117179884575, -31155.6048578745, 25131.385044024595, -0.226, 0.9480000000000001, 0.162, 192.0, 0.0, 0.0, 0.0, 0.0, 0.0, 0.0, 0.0, 0.0, 0.0, 1.70095009898795E9, 0.0, 2023-11-25 17:08:18.987
25.0, 8834.303478515563, 13689.348243397266, -59846.92988955139, -58676.883122549436, -69405.51929539672, 3820.8966041680105, -31210.27722481218, 25040.793423747233, -0.226, 0.9480000000000001, 0.162, 192.0, 0.0, 0.0, 0.0, 0.0, 0.0, 0.0, 0.0, 0.0, 0.0, 1.700950099002839E9, 0.0, 2023-11-25 17:08:19.002
26.0, 8776.323053398497, 13628.059760100814, -59830.54606086565, -58673.21743645876, -69466.71837171535, 3705.6063062675366, -31236.585228036074, 25033.037368421243, -0.226, 0.9480000000000001, 0.162, 192.0, 0.0, 0.0, 0.0, 0.0, 0.0, 0.0, 0.0, 0.0, 0.0, 1.700950099005805E9, 0.0, 2023-11-25 17:08:19.005
27.0, 8804.173326989809, 13700.121784224724, -59805.60151405353, -58632.961944694754, -69479.19064512142, 3721.2748791307067, -31232.338396589566, 25063.882775769565, -0.226, 0.9480000000000001, 0.162, 192.0, 0.0, 0.0, 0.0, 0.0, 0.0, 0.0, 0.0, 0.0, 0.0, 1.700950099010072E9, 0.0, 2023-11-25 17:08:19.010
28.0, 8901.090490948021, 13798.022424938968, -59748.13517905893, -58566.44315319576, -69407.24037971979, 3787.659560162969, -31190.98766934725, 25103.66888090001, -0.226, 0.9480000000000001, 0.162, 192.0, 0.0, 0.0, 0.0, 0.0, 0.0, 0.0, 0.0, 0.0, 0.0, 1.700950099012925E9, 0.0, 2023-11-25 17:08:19.012
29.0, 8863.047821885088, 13706.849659305772, -59826.34393290806, -58646.864729745954, -69377.84783576106, 3838.8003514767115, -31209.696079456342, 25042.782729003757, -0.226, 0.9480000000000001, 0.162, 192.0, 0.0, 0.0, 0.0, 0.0, 0.0, 0.0, 0.0, 0.0, 0.0, 1.700950099015899E9, 0.0, 2023-11-25 17:08:19.015
30.0, 8772.299739396542, 13602.288198743845, -59834.94935452335, -58676.436087660324, -69455.9448308879, 3696.307980574129, -31257.50646084624, 25013.56899900067, -0.228, 0.9460000000000001, 0.16, 192.0, 248.0, 224.0, 29.0, 144.0, 5.0, 0.0, 0.0, 0.0, 0.0, 1.700950099020071E9, 0.0, 2023-11-25 17:08:19.020
31.0, 8806.296742713064, 13677.345356624766, -59795.92320870438, -58625.69762774678, -69456.57067973264, 3718.167986651419, -31248.118728175014, 25064.173348447486, -0.228, 0.9460000000000001, 0.16, 192.0, 0.0, 0.0, 0.0, 0.0, 0.0, 0.0, 0.0, 0.0, 0.0, 1.700950099022918E9, 0.0, 2023-11-25 17:08:19.022
32.0, 8913.965095754278, 13810.852326256316, -59715.68044610983, -58537.78821680406, -69392.08589697909, 3771.0298622882206, -31197.760247917206, 25128.635779456592, -0.228, 0.9460000000000001, 0.16, 192.0, 0.0, 0.0, 0.0, 0.0, 0.0, 0.0, 0.0, 0.0, 0.0, 1.70095009902601E9, 0.0, 2023-11-25 17:08:19.026
33.0, 8913.562764354083, 13772.384974048731, -59775.89604567242, -58596.64035995488, -69334.59721024004, 3860.459191853904, -31186.852596623015, 25090.794276093755, -0.228, 0.9460000000000001, 0.16, 192.0, 0.0, 0.0, 0.0, 0.0, 0.0, 0.0, 0.0, 0.0, 0.0, 1.700950099028972E9, 0.0, 2023-11-25 17:08:19.028
34.0, 8809.850670081458, 13640.956716651526, -59802.87460122998, -58651.96092748176, -69415.17524900142, 3713.49647206026, -31241.055576927138, 25029.72931024186, -0.228, 0.9460000000000001, 0.16, 192.0, 0.0, 0.0, 0.0, 0.0, 0.0, 0.0, 0.0, 0.0, 0.0, 1.700950099032965E9, 0.0, 2023-11-25 17:08:19.032
35.0, 8821.339466731486, 13691.583417842796, -59773.750278204716, -58614.991142152685, -69431.62613292053, 3709.137881891475, -31238.55218154814, 25051.209336663407, -0.228, 0.9460000000000001, 0.16, 192.0, 0.0, 0.0, 0.0, 0.0, 0.0, 0.0, 0.0, 0.0, 0.0, 1.700950099035946E9, 0.0, 2023-11-25 17:08:19.035
36.0, 8904.867935760967, 13804.862058742292, -59712.32768444153, -58546.125417485884, -69403.50763839575, 3731.266108902229, -31214.5687597476, 25094.929348817986, -0.228, 0.9460000000000001, 0.16, 192.0, 0.0, 0.0, 0.0, 0.0, 0.0, 0.0, 0.0, 0.0, 0.0, 1.700950099038919E9, 0.0, 2023-11-25 17:08:19.038
37.0, 8916.736712066737, 13777.190599106623, -59769.615205480484, -58594.89692388737, -69346.06365514561, 3830.9995926618094, -31191.211186791803, 25077.38322942057, -0.228, 0.9460000000000001, 0.16, 192.0, 0.0, 0.0, 0.0, 0.0, 0.0, 0.0, 0.0, 0.0, 0.0, 1.700950099042011E9, 0.0, 2023-11-25 17:08:19.042
38.0, 8811.482347426694, 13634.832338670773, -59813.02229321269, -58661.75099155319, -69414.10236526756, 3712.602402282048, -31244.453042084344, 25006.05881286369, -0.228, 0.9460000000000001, 0.16, 192.0, 0.0, 0.0, 0.0, 0.0, 0.0, 0.0, 0.0, 0.0, 0.0, 1.700950099045985E9, 0.0, 2023-11-25 17:08:19.045
39.0, 8818.858423096946, 13673.746725767462, -59777.527723017665, -58618.72388347673, -69431.26850500924, 3694.721006717802, -31246.308236874134, 25023.023786905265, -0.228, 0.9460000000000001, 0.16, 192.0, 0.0, 0.0, 0.0, 0.0, 0.0, 0.0, 0.0, 0.0, 0.0, 1.700950099049081E9, 0.0, 2023-11-25 17:08:19.049
40.0, 8905.806709028091, 13796.346044104821, -59706.40447216087, -58536.44711213674, -69400.46780114983, 3732.115475191531, -31207.438553266355, 25086.279223713784, -0.22, 0.9440000000000001, 0.162, 192.0, 249.0, 32.0, 29.0, 128.0, 5.0, 16.0, 0.0, 0.0, 0.0, 1.700950099052036E9, 0.0, 2023-11-25 17:08:19.052
41.0, 8943.134122268453, 13805.197334909122, -59732.62306840695, -58553.52384490059, -69329.54571599314, 3837.5710055316695, -31181.287012253644, 25079.461941654914, -0.22, 0.9440000000000001, 0.162, 192.0, 0.0, 0.0, 0.0, 0.0, 0.0, 0.0, 0.0, 0.0, 0.0, 1.70095009905506E9, 0.0, 2023-11-25 17:08:19.055
42.0, 8827.665010412336, 13648.399847555143, -59810.63065655597, -58649.72575303623, -69394.94692026937, 3749.795705055679, -31244.296579873157, 25002.61664421757, -0.22, 0.9440000000000001, 0.162, 192.0, 0.0, 0.0, 0.0, 0.0, 0.0, 0.0, 0.0, 0.0, 0.0, 1.70095009905831E9, 0.0, 2023-11-25 17:08:19.058
43.0, 8795.254980952142, 13630.965486880004, -59793.88919995895, -58636.046485429586, -69445.12658657152, 3690.9435619048554, -31250.04097819817, 25036.032502178256, -0.22, 0.9440000000000001, 0.162, 192.0, 0.0, 0.0, 0.0, 0.0, 0.0, 0.0, 0.0, 0.0, 0.0, 1.700950099062155E9, 0.0, 2023-11-25 17:08:19.062
44.0, 8855.828208426025, 13735.504595697475, -59743.3519057455, -58572.20990326523, -69439.67276092444, 3712.0883121595757, -31230.863181455516, 25081.585357378168, -0.22, 0.9440000000000001, 0.162, 192.0, 0.0, 0.0, 0.0, 0.0, 0.0, 0.0, 0.0, 0.0, 0.0, 1.700950099067198E9, 0.0, 2023-11-25 17:08:19.067
45.0, 8931.779436085157, 13797.374224349765, -59728.97973406074, -58543.71142908472, -69354.64672501644, 3814.6828192094354, -31183.276317510168, 25100.53963667627, -0.22, 0.9440000000000001, 0.162, 192.0, 0.0, 0.0, 0.0, 0.0, 0.0, 0.0, 0.0, 0.0, 0.0, 1.700950099071086E9, 0.0, 2023-11-25 17:08:19.071
46.0, 8834.83992038249, 13652.244347601456, -59824.17581369589, -58647.82585475753, -69393.6281673465, 3781.55753392667, -31229.432669810376, 25032.99266493233, -0.22, 0.9440000000000001, 0.162, 192.0, 0.0, 0.0, 0.0, 0.0, 0.0, 0.0, 0.0, 0.0, 0.0, 1.700950099074129E9, 0.0, 2023-11-25 17:08:19.074
47.0, 8785.956655258735, 13612.726463404473, -59806.42852859838, -58636.98525869671, -69448.74756917328, 3694.3186753176064, -31239.915637959915, 25056.976086732877, -0.22, 0.9440000000000001, 0.162, 192.0, 0.0, 0.0, 0.0, 0.0, 0.0, 0.0, 0.0, 0.0, 0.0, 1.700950099077144E9, 0.0, 2023-11-25 17:08:19.077
48.0, 8845.166426320842, 13721.62416239073, -59751.59969944951, -58569.59474916396, -69436.16353704495, 3728.852120501056, -31207.349146288532, 25112.36370949313, -0.22, 0.9440000000000001, 0.162, 192.0, 0.0, 0.0, 0.0, 0.0, 0.0, 0.0, 0.0, 0.0, 0.0, 1.700950099080434E9, 0.0, 2023-11-25 17:08:19.080
49.0, 8937.76970359918, 13811.031140211957, -59709.17608847334, -58520.82324276248, -69354.71378024982, 3815.6662959654686, -31156.49892765271, 25140.772776695823, -0.22, 0.9440000000000001, 0.162, 192.0, 0.0, 0.0, 0.0, 0.0, 0.0, 0.0, 0.0, 0.0, 0.0, 1.700950099084193E9, 0.0, 2023-11-25 17:08:19.084
50.0, 8872.27909234513, 13693.99740624397, -59800.32650236208, -58624.31181959055, -69358.40181808494, 3827.1550926154964, -31196.352088016523, 25045.66610403849, -0.226, 0.9480000000000001, 0.168, 192.0, 248.0, 240.0, 29.0, 160.0, 5.0, 64.0, 0.0, 0.0, 0.0, 1.700950099087214E9, 0.0, 2023-11-25 17:08:19.087
51.0, 8793.600951862449, 13609.485460458454, -59802.78519425216, -58649.65869780287, -69437.28112426771, 3689.200125837341, -31246.487050829775, 24994.36885051356, -0.226, 0.9480000000000001, 0.168, 192.0, 0.0, 0.0, 0.0, 0.0, 0.0, 0.0, 0.0, 0.0, 0.0, 1.700950099091599E9, 0.0, 2023-11-25 17:08:19.091
52.0, 8836.449245983273, 13699.317121424332, -59759.82514140906, -58595.96980762122, -69434.39774923299, 3713.8317482270895, -31227.33160583158, 25032.791499232233, -0.226, 0.9480000000000001, 0.168, 192.0, 0.0, 0.0, 0.0, 0.0, 0.0, 0.0, 0.0, 0.0, 0.0, 1.700950099097287E9, 0.0, 2023-11-25 17:08:19.097
53.0, 8937.032096032155, 13815.345026891831, -59696.972036000734, -58522.20905091871, -69363.90034722094, 3782.3174932381507, -31166.423102190867, 25099.73497387588, -0.226, 0.9480000000000001, 0.168, 192.0, 0.0, 0.0, 0.0, 0.0, 0.0, 0.0, 0.0, 0.0, 0.0, 1.700950099101322E9, 0.0, 2023-11-25 17:08:19.101
54.0, 8903.638589815926, 13739.81848237735, -59778.86882768498, -58605.06696761453, -69337.14530910795, 3840.7896567332336, -31178.716561641286, 25044.883792982557, -0.226, 0.9480000000000001, 0.168, 192.0, 0.0, 0.0, 0.0, 0.0, 0.0, 0.0, 0.0, 0.0, 0.0, 1.700950099104289E9, 0.0, 2023-11-25 17:08:19.104
55.0, 8810.78944334858, 13627.255097300424, -59787.49660104473, -58640.718000020745, -69417.23160949131, 3695.279800329185, -31231.511382044722, 24992.826580146146, -0.226, 0.9480000000000001, 0.168, 192.0, 0.0, 0.0, 0.0, 0.0, 0.0, 0.0, 0.0, 0.0, 0.0, 1.70095009910728E9, 0.0, 2023-11-25 17:08:19.107
56.0, 8826.212147022743, 13678.03826070288, -59755.48890298473, -58598.47320300022, -69426.77580437373, 3706.813300468123, -31231.80195472264, 25011.33382455514, -0.226, 0.9480000000000001, 0.168, 192.0, 0.0, 0.0, 0.0, 0.0, 0.0, 0.0, 0.0, 0.0, 0.0, 1.700950099111353E9, 0.0, 2023-11-25 17:08:19.111
57.0, 8926.325610438063, 13799.140012161733, -59676.8331142465, -58513.93890547025, -69369.60004205705, 3754.690737091391, -31186.584375689552, 25064.106293214118, -0.226, 0.9480000000000001, 0.168, 192.0, 0.0, 0.0, 0.0, 0.0, 0.0, 0.0, 0.0, 0.0, 0.0, 1.700950099115388E9, 0.0, 2023-11-25 17:08:19.115
58.0, 8921.38587491344, 13751.866072638759, -59748.4033999924, -58581.999967336655, -69323.37663452348, 3842.108409656097, -31178.805968619108, 25014.686586223437, -0.226, 0.9480000000000001, 0.168, 192.0, 0.0, 0.0, 0.0, 0.0, 0.0, 0.0, 0.0, 0.0, 0.0, 1.700950099119332E9, 0.0, 2023-11-25 17:08:19.119
59.0, 8808.956600303245, 13611.050082570326, -59789.620016767985, -58649.099904191484, -69413.00712978926, 3694.2292683397854, -31243.000178694747, 24946.0890824901, -0.226, 0.9480000000000001, 0.168, 192.0, 0.0, 0.0, 0.0, 0.0, 0.0, 0.0, 0.0, 0.0, 0.0, 1.700950099123485E9, 0.0, 2023-11-25 17:08:19.123
60.0, 8815.50566142865, 13655.664164503118, -59761.21094956529, -58611.77249095112, -69432.25198176528, 3686.6520269694365, -31241.860239727528, 24986.791609143213, -0.222, 0.9560000000000001, 0.158, 192.0, 249.0, 16.0, 29.0, 224.0, 4.0, 240.0, 0.0, 0.0, 0.0, 1.700950099134471E9, 0.0, 2023-11-25 17:08:19.134
61.0, 8903.213906671275, 13781.437430553131, -59691.451155120274, -58528.35578064392, -69394.70105108035, 3723.7782745097015, -31202.007079363717, 25060.753531545823, -0.222, 0.9560000000000001, 0.158, 192.0, 0.0, 0.0, 0.0, 0.0, 0.0, 0.0, 0.0, 0.0, 0.0, 1.700950099138491E9, 0.0, 2023-11-25 17:08:19.138
62.0, 8931.332401196052, 13778.218779351566, -59730.76787361716, -58555.31198445702, -69320.9626461223, 3836.5204735422703, -31174.670895894877, 25053.869194253588, -0.222, 0.9560000000000001, 0.158, 192.0, 0.0, 0.0, 0.0, 0.0, 0.0, 0.0, 0.0, 0.0, 0.0, 1.700950099145547E9, 0.0, 2023-11-25 17:08:19.145
63.0, 8811.41529219333, 13622.22595479798, -59798.09132791655, -58646.529453579125, -69405.38518493, 3708.467329557816, -31241.90494321644, 24963.389332698505, -0.222, 0.9560000000000001, 0.158, 192.0, 0.0, 0.0, 0.0, 0.0, 0.0, 0.0, 0.0, 0.0, 0.0, 1.700950099150007E9, 0.0, 2023-11-25 17:08:19.150
64.0, 8810.811795093035, 13647.014039398915, -59768.095286857526, -58613.89590667438, -69435.18006028891, 3669.5752942055815, -31247.694045030363, 24978.27559450574, -0.222, 0.9560000000000001, 0.158, 192.0, 0.0, 0.0, 0.0, 0.0, 0.0, 0.0, 0.0, 0.0, 0.0, 1.700950099152579E9, 0.0, 2023-11-25 17:08:19.152
65.0, 8889.33347336453, 13764.181883833633, -59703.275227937134, -58539.03991449356, -69415.51052516825, 3692.172907849897, -31218.83794293856, 25018.978121158856, -0.222, 0.9560000000000001, 0.158, 192.0, 0.0, 0.0, 0.0, 0.0, 0.0, 0.0, 0.0, 0.0, 0.0, 1.700950099155629E9, 0.0, 2023-11-25 17:08:19.155
66.0, 8936.160377998398, 13788.366471334277, -59725.55991715907, -58546.23717620816, -69344.18610861136, 3805.0045138602873, -31176.861366851495, 25042.738025514846, -0.222, 0.9560000000000001, 0.158, 192.0, 0.0, 0.0, 0.0, 0.0, 0.0, 0.0, 0.0, 0.0, 0.0, 1.700950099158828E9, 0.0, 2023-11-25 17:08:19.158
67.0, 8830.481330213706, 13637.827472427784, -59808.12726117698, -58643.310802377564, -69403.88761805149, 3732.0931234470754, -31231.37727157799, 24982.388315485518, -0.222, 0.9560000000000001, 0.158, 192.0, 0.0, 0.0, 0.0, 0.0, 0.0, 0.0, 0.0, 0.0, 0.0, 1.700950099162667E9, 0.0, 2023-11-25 17:08:19.162
68.0, 8807.771957847113, 13635.88287066017, -59781.61809225298, -58613.20300259627, -69442.6902464259, 3683.276913556685, -31229.656187254932, 25023.09084213863, -0.222, 0.9560000000000001, 0.158, 192.0, 0.0, 0.0, 0.0, 0.0, 0.0, 0.0, 0.0, 0.0, 0.0, 1.700950099165672E9, 0.0, 2023-11-25 17:08:19.165
69.0, 8858.286900316109, 13731.973020073536, -59741.29554525561, -58556.47427516869, -69443.40550224847, 3701.0018469097436, -31218.03328013817, 25062.564022846702, -0.222, 0.9560000000000001, 0.158, 192.0, 0.0, 0.0, 0.0, 0.0, 0.0, 0.0, 0.0, 0.0, 0.0, 1.700950099168683E9, 0.0, 2023-11-25 17:08:19.168
70.0, 8936.741523354236, 13798.961198206092, -59713.66878910885, -58516.68817003825, -69349.97521042528, 3811.955906385888, -31166.26663997968, 25097.67861338599, -0.212, 0.9400000000000001, 0.166, 192.0, 249.0, 96.0, 29.0, 96.0, 5.0, 48.0, 0.0, 0.0, 0.0, 1.70095009917167E9, 0.0, 2023-11-25 17:08:19.171
71.0, 8852.833074669014, 13673.411449600631, -59797.376072093975, -58608.97852289421, -69368.30364087864, 3795.9967608447982, -31206.879759654974, 25024.81192646169, -0.212, 0.9400000000000001, 0.166, 192.0, 0.0, 0.0, 0.0, 0.0, 0.0, 0.0, 0.0, 0.0, 0.0, 1.700950099175902E9, 0.0, 2023-11-25 17:08:19.175
72.0, 8799.948847287757, 13625.824585655284, -59788.39067082294, -58609.55966825005, -69431.24615326479, 3689.8036229376344, -31233.500687301243, 25018.084051380643, -0.212, 0.9400000000000001, 0.166, 192.0, 0.0, 0.0, 0.0, 0.0, 0.0, 0.0, 0.0, 0.0, 0.0, 1.700950099178709E9, 0.0, 2023-11-25 17:08:19.178
73.0, 8857.191664837797, 13726.899174082182, -59745.11769355747, -58553.546196645046, -69427.9380950854, 3716.0669226726204, -31215.865160926005, 25068.48723512736, -0.212, 0.9400000000000001, 0.166, 192.0, 0.0, 0.0, 0.0, 0.0, 0.0, 0.0, 0.0, 0.0, 0.0, 1.700950099182763E9, 0.0, 2023-11-25 17:08:19.182
74.0, 8934.931032053355, 13811.768747778982, -59721.71541711276, -58519.012751461596, -69369.26476589021, 3782.98804557181, -31177.68838139634, 25108.765078635824, -0.212, 0.9400000000000001, 0.166, 192.0, 0.0, 0.0, 0.0, 0.0, 0.0, 0.0, 0.0, 0.0, 0.0, 1.70095009918773E9, 0.0, 2023-11-25 17:08:19.187
75.0, 8876.257702858175, 13706.223810461022, -59806.16030766491, -58608.68795021629, -69358.53592855168, 3808.2008133173963, -31202.342355530545, 25045.308476127208, -0.212, 0.9400000000000001, 0.166, 192.0, 0.0, 0.0, 0.0, 0.0, 0.0, 0.0, 0.0, 0.0, 0.0, 1.700950099193789E9, 0.0, 2023-11-25 17:08:19.193
76.0, 8783.542666857562, 13599.561285920297, -59814.49750834674, -58636.873499974434, -69442.2432115368, 3667.273064526685, -31249.504536331242, 25008.606911731593, -0.212, 0.9400000000000001, 0.166, 192.0, 0.0, 0.0, 0.0, 0.0, 0.0, 0.0, 0.0, 0.0, 0.0, 1.700950099197276E9, 0.0, 2023-11-25 17:08:19.197
77.0, 8817.874946340913, 13683.022699716414, -59778.60060675152, -58585.19626679376, -69444.72425517133, 3687.523745003193, -31231.891361700462, 25058.943040244943, -0.212, 0.9400000000000001, 0.166, 192.0, 0.0, 0.0, 0.0, 0.0, 0.0, 0.0, 0.0, 0.0, 0.0, 1.70095009919992E9, 0.0, 2023-11-25 17:08:19.199
78.0, 8915.015627743678, 13799.162363906189, -59719.25672522268, -58512.10606242491, -69380.23947241777, 3751.628548101014, -31182.73987564324, 25127.182916066995, -0.212, 0.9400000000000001, 0.166, 192.0, 0.0, 0.0, 0.0, 0.0, 0.0, 0.0, 0.0, 0.0, 0.0, 1.700950099202918E9, 0.0, 2023-11-25 17:08:19.202
79.0, 8886.897133218901, 13723.85933683626, -59804.10394717503, -58592.57234246402, -69350.55635578113, 3819.331982056139, -31199.45898049581, 25069.358953161118, -0.212, 0.9380000000000001, 0.168, 192.0, 249.0, 96.0, 29.0, 80.0, 5.0, 64.0, 0.0, 0.0, 0.0, 1.700950099206959E9, 0.0, 2023-11-25 17:08:19.206
80.0, 8788.035367493078, 13607.160879035102, -59825.472214874295, -58638.058142430564, -69437.0352550787, 3671.3634337620065, -31258.400530624454, 25024.38724331704, -0.212, 0.9380000000000001, 0.168, 192.0, 0.0, 0.0, 0.0, 0.0, 0.0, 0.0, 0.0, 0.0, 0.0, 1.700950099209867E9, 0.0, 2023-11-25 17:08:19.209
81.0, 8815.617420150928, 13674.75255426795, -59793.44216506984, -58595.299255287566, -69444.52308947123, 3683.5227827456933, -31254.84660325606, 25067.369647904594, -0.212, 0.9380000000000001, 0.168, 192.0, 0.0, 0.0, 0.0, 0.0, 0.0, 0.0, 0.0, 0.0, 0.0, 1.700950099212921E9, 0.0, 2023-11-25 17:08:19.212
82.0, 8910.81349978608, 13791.719233002572, -59730.25378349469, -58526.701751554225, -69404.55817038515, 3711.976553437299, -31219.374384805487, 25108.988596080377, -0.212, 0.9380000000000001, 0.168, 192.0, 0.0, 0.0, 0.0, 0.0, 0.0, 0.0, 0.0, 0.0, 0.0, 1.700950099216939E9, 0.0, 2023-11-25 17:08:19.216
83.0, 8916.960229511289, 13758.795113419905, -59788.2118568673, -58581.508228958635, -69344.99077141176, 3807.5973162171026, -31202.118838085993, 25074.7680753193, -0.212, 0.9380000000000001, 0.168, 192.0, 0.0, 0.0, 0.0, 0.0, 0.0, 0.0, 0.0, 0.0, 0.0, 1.700950099219958E9, 0.0, 2023-11-25 17:08:19.219
84.0, 8792.259847195131, 13601.841163854739, -59831.19426145485, -58650.03867745861, -69426.79815611818, 3675.409099508417, -31260.546298092166, 25027.561191029694, -0.212, 0.9380000000000001, 0.168, 192.0, 0.0, 0.0, 0.0, 0.0, 0.0, 0.0, 0.0, 0.0, 0.0, 1.700950099223112E9, 0.0, 2023-11-25 17:08:19.223
85.0, 8791.477536139195, 13631.725446191484, -59808.88722048846, -58621.719017233736, -69452.65912445297, 3659.3828987339616, -31259.540469591677, 25052.90806924201, -0.212, 0.9380000000000001, 0.168, 192.0, 0.0, 0.0, 0.0, 0.0, 0.0, 0.0, 0.0, 0.0, 0.0, 1.700950099227013E9, 0.0, 2023-11-25 17:08:19.227
86.0, 8879.85633371548, 13756.001145362992, -59736.22169926426, -58540.93981277225, -69417.29866472467, 3685.8473641690452, -31222.95066391834, 25101.076078543196, -0.212, 0.9380000000000001, 0.168, 192.0, 0.0, 0.0, 0.0, 0.0, 0.0, 0.0, 0.0, 0.0, 0.0, 1.700950099231044E9, 0.0, 2023-11-25 17:08:19.231
87.0, 8909.695912563315, 13757.141084330213, -59771.53745550364, -58566.30904272903, -69342.17445161038, 3801.8976213809997, -31193.334602515057, 25085.988651035866, -0.212, 0.9380000000000001, 0.168, 192.0, 0.0, 0.0, 0.0, 0.0, 0.0, 0.0, 0.0, 0.0, 0.0, 1.700950099236087E9, 0.0, 2023-11-25 17:08:19.236
88.0, 8783.810887791025, 13595.247399240423, -59844.80647382814, -58664.7461253102, -69424.49592643928, 3677.4207565093943, -31267.676504573406, 24980.33195499563, -0.212, 0.9380000000000001, 0.168, 192.0, 0.0, 0.0, 0.0, 0.0, 0.0, 0.0, 0.0, 0.0, 0.0, 1.700950099240121E9, 0.0, 2023-11-25 17:08:19.240
89.0, 8780.9722162452, 13617.152108806624, -59809.11073793301, -58631.10674990497, -69448.7922726622, 3645.547168916127, -31265.66484757243, 25011.75850769979, -0.20600000000000002, 0.9460000000000001, 0.162, 192.0, 249.0, 144.0, 29.0, 144.0, 5.0, 16.0, 0.0, 0.0, 0.0, 1.700950099245091E9, 0.0, 2023-11-25 17:08:19.245
90.0, 8863.494856774194, 13738.075046309836, -59740.87086211096, -58554.90965305682, -69424.02653980572, 3684.9979978797437, -31226.41518430891, 25101.768982621314, -0.20600000000000002, 0.9460000000000001, 0.162, 192.0, 0.0, 0.0, 0.0, 0.0, 0.0, 0.0, 0.0, 0.0, 0.0, 1.700950099248365E9, 0.0, 2023-11-25 17:08:19.248
91.0, 8924.135139481443, 13773.591968249319, -59742.16726328937, -58549.54523438755, -69340.83334694307, 3802.746987670301, -31180.21412851979, 25126.93704687799, -0.20600000000000002, 0.9460000000000001, 0.162, 192.0, 0.0, 0.0, 0.0, 0.0, 0.0, 0.0, 0.0, 0.0, 0.0, 1.700950099252165E9, 0.0, 2023-11-25 17:08:19.252
92.0, 8814.477481183707, 13615.788652394851, -59820.107796205026, -58648.965793724754, -69389.13546671098, 3741.4585043738493, -31231.80195472264, 25040.055816180207, -0.20600000000000002, 0.9460000000000001, 0.162, 192.0, 0.0, 0.0, 0.0, 0.0, 0.0, 0.0, 0.0, 0.0, 0.0, 1.700950099255164E9, 0.0, 2023-11-25 17:08:19.255
93.0, 8781.64276857886, 13601.282370243356, -59797.04079592715, -58630.34679059348, -69434.4424527219, 3674.8056024081234, -31242.061405427627, 25058.585412333658, -0.20600000000000002, 0.9460000000000001, 0.162, 192.0, 0.0, 0.0, 0.0, 0.0, 0.0, 0.0, 0.0, 0.0, 0.0, 1.700950099259149E9, 0.0, 2023-11-25 17:08:19.259
94.0, 8840.897243129879, 13705.37444417172, -59751.5549959606, -58570.48881894217, -69431.20144977588, 3695.056282884632, -31226.258722097722, 25098.840904097666, -0.20600000000000002, 0.9460000000000001, 0.162, 192.0, 0.0, 0.0, 0.0, 0.0, 0.0, 0.0, 0.0, 0.0, 0.0, 1.700950099265261E9, 0.0, 2023-11-25 17:08:19.265
95.0, 8923.889270292435, 13785.34898583281, -59729.29265848311, -58530.92623125628, -69349.95285868083, 3793.336903254617, -31177.59897441852, 25130.22275331292, -0.20600000000000002, 0.9460000000000001, 0.162, 192.0, 0.0, 0.0, 0.0, 0.0, 0.0, 0.0, 0.0, 0.0, 0.0, 1.700950099269216E9, 0.0, 2023-11-25 17:08:19.269
96.0, 8836.024562838622, 13656.55823428133, -59831.08250273258, -58637.722866263735, -69377.64667006096, 3778.852972847578, -31226.549294775643, 25052.684551797458, -0.20600000000000002, 0.9460000000000001, 0.162, 192.0, 0.0, 0.0, 0.0, 0.0, 0.0, 0.0, 0.0, 0.0, 0.0, 1.700950099272281E9, 0.0, 2023-11-25 17:08:19.272
97.0, 8765.638919548861, 13590.821753838272, -59830.858985288025, -58651.335078637014, -69452.39090351951, 3660.8134103791012, -31270.559879608143, 25035.22783937786, -0.20600000000000002, 0.9460000000000001, 0.162, 192.0, 0.0, 0.0, 0.0, 0.0, 0.0, 0.0, 0.0, 0.0, 0.0, 1.700950099277292E9, 0.0, 2023-11-25 17:08:19.277
98.0, 8811.907030571345, 13680.89928399316, -59786.15549637741, -58594.74046167618, -69448.144072073, 3685.8026606801345, -31260.00985622524, 25082.47942715638, -0.20600000000000002, 0.9460000000000001, 0.162, 192.0, 0.0, 0.0, 0.0, 0.0, 0.0, 0.0, 0.0, 0.0, 0.0, 1.700950099281343E9, 0.0, 2023-11-25 17:08:19.281
99.0, 8919.463624890283, 13790.78045973545, -59724.3976264474, -58525.27123990909, -69361.8663384755, 3770.3146064656507, -31203.012907864206, 25131.541506235782, -0.218, 0.9480000000000001, 0.166, 192.0, 249.0, 48.0, 29.0, 160.0, 5.0, 48.0, 0.0, 0.0, 0.0, 1.700950099284662E9, 0.0, 2023-11-25 17:08:19.284
100.0, 8860.097391616988, 13684.52026659492, -59825.24869742974, -58631.8890609609, -69362.7157047648, 3797.8296038901335, -31238.55218154814, 25052.617496564093, -0.218, 0.9480000000000001, 0.166, 192.0, 0.0, 0.0, 0.0, 0.0, 0.0, 0.0, 0.0, 0.0, 0.0, 1.700950099287368E9, 0.0, 2023-11-25 17:08:19.287
101.0, 8768.723460283692, 13578.327128687755, -59835.7763690682, -58663.8967590209, -69447.89820288398, 3654.018480064688, -31291.771685096228, 25017.637016491535, -0.218, 0.9480000000000001, 0.166, 192.0, 0.0, 0.0, 0.0, 0.0, 0.0, 0.0, 0.0, 0.0, 0.0, 1.700950099291398E9, 0.0, 2023-11-25 17:08:19.291
102.0, 8803.189850233775, 13654.434818558077, -59794.582104037065, -58608.86676417194, -69446.87002263905, 3679.9688553772994, -31269.911679018936, 25073.20345320743, -0.218, 0.9480000000000001, 0.166, 192.0, 0.0, 0.0, 0.0, 0.0, 0.0, 0.0, 0.0, 0.0, 0.0, 1.70095009929651E9, 0.0, 2023-11-25 17:08:19.296
103.0, 8899.794089769613, 13766.171189090157, -59733.62889690744, -58537.9670307597, -69392.71174582384, 3729.4779693458045, -31224.492934285754, 25125.394776510573, -0.218, 0.9480000000000001, 0.166, 192.0, 0.0, 0.0, 0.0, 0.0, 0.0, 0.0, 0.0, 0.0, 0.0, 1.700950099299612E9, 0.0, 2023-11-25 17:08:19.299
104.0, 8875.967130180255, 13701.23937144749, -59808.32842687708, -58610.096110116974, -69351.9198121929, 3807.2843917947284, -31219.84377143905, 25078.18789222096, -0.218, 0.9480000000000001, 0.166, 192.0, 0.0, 0.0, 0.0, 0.0, 0.0, 0.0, 0.0, 0.0, 0.0, 1.700950099302745E9, 0.0, 2023-11-25 17:08:19.302
105.0, 8777.440640621262, 13581.389317678133, -59817.98438048177, -58645.769494267646, -69422.75249037177, 3674.3585675190175, -31254.354864878045, 25046.314304627696, -0.218, 0.9480000000000001, 0.166, 192.0, 0.0, 0.0, 0.0, 0.0, 0.0, 0.0, 0.0, 0.0, 0.0, 1.700950099307455E9, 0.0, 2023-11-25 17:08:19.307
106.0, 8796.417271663819, 13636.665181716107, -59794.40329008142, -58609.64907522787, -69439.2927812687, 3676.2808175421737, -31250.71153053183, 25082.47942715638, -0.218, 0.9480000000000001, 0.166, 192.0, 0.0, 0.0, 0.0, 0.0, 0.0, 0.0, 0.0, 0.0, 0.0, 1.700950099314967E9, 0.0, 2023-11-25 17:08:19.314
107.0, 8882.873819216946, 13754.257709295478, -59738.47922545424, -58542.95146977323, -69408.380318687, 3696.531498018682, -31227.89039944296, 25133.329645792204, -0.218, 0.9480000000000001, 0.166, 192.0, 0.0, 0.0, 0.0, 0.0, 0.0, 0.0, 0.0, 0.0, 0.0, 1.700950099317601E9, 0.0, 2023-11-25 17:08:19.317
108.0, 8889.579342553538, 13719.970133301036, -59800.50531631772, -58600.59661872347, -69353.01504767122, 3789.112423552564, -31215.261663825713, 25100.91961633201, -0.218, 0.9480000000000001, 0.166, 192.0, 0.0, 0.0, 0.0, 0.0, 0.0, 0.0, 0.0, 0.0, 0.0, 1.700950099321292E9, 0.0, 2023-11-25 17:08:19.321
109.0, 8770.533951584572, 13568.000622749403, -59842.124264493505, -58674.782058570636, -69433.81660387715, 3652.34209923054, -31272.0797982311, 25021.03448164874, -0.22, 0.9500000000000001, 0.17, 192.0, 249.0, 32.0, 29.0, 176.0, 5.0, 80.0, 0.0, 0.0, 0.0, 1.7009500993245E9, 0.0, 2023-11-25 17:08:19.324
110.0, 8773.864361508413, 13605.037463311848, -59805.35564486452, -58634.45951157326, -69448.41229300646, 3648.0282125506656, -31256.2771149012, 25065.357990903616, -0.22, 0.9500000000000001, 0.17, 192.0, 0.0, 0.0, 0.0, 0.0, 0.0, 0.0, 0.0, 0.0, 0.0, 1.700950099327524E9, 0.0, 2023-11-25 17:08:19.327
111.0, 8855.492932259194, 13723.926392069627, -59740.62499292195, -58562.218673493706, -69421.97017931583, 3669.4411837388498, -31220.290806328157, 25120.79031715278, -0.22, 0.9500000000000001, 0.17, 192.0, 0.0, 0.0, 0.0, 0.0, 0.0, 0.0, 0.0, 0.0, 0.0, 1.700950099331589E9, 0.0, 2023-11-25 17:08:19.331
112.0, 8886.315987863063, 13726.630953148719, -59777.68418522885, -58591.27594128561, -69354.04322791615, 3769.666405876447, -31195.45801823831, 25102.618348910615, -0.22, 0.9500000000000001, 0.17, 192.0, 0.0, 0.0, 0.0, 0.0, 0.0, 0.0, 0.0, 0.0, 0.0, 1.700950099335549E9, 0.0, 2023-11-25 17:08:19.335
113.0, 8777.552399343538, 13577.611872865185, -59838.43622665838, -58676.52549463815, -69416.9857403023, 3667.9659686047994, -31253.81842301112, 25028.030577663252, -0.22, 0.9500000000000001, 0.17, 192.0, 0.0, 0.0, 0.0, 0.0, 0.0, 0.0, 0.0, 0.0, 0.0, 1.700950099339568E9, 0.0, 2023-11-25 17:08:19.339
114.0, 8771.606835318427, 13597.527277174864, -59795.364415093, -58636.00178194068, -69436.65527542296, 3635.2877182111406, -31246.397643851957, 25059.635944323058, -0.22, 0.9500000000000001, 0.17, 192.0, 0.0, 0.0, 0.0, 0.0, 0.0, 0.0, 0.0, 0.0, 0.0, 1.700950099354705E9, 0.0, 2023-11-25 17:08:19.354
115.0, 8839.220862295731, 13703.988636015492, -59734.522966685654, -58566.57726366249, -69419.95852231486, 3658.8464568670342, -31222.302463329135, 25104.54059893377, -0.22, 0.9500000000000001, 0.17, 192.0, 0.0, 0.0, 0.0, 0.0, 0.0, 0.0, 0.0, 0.0, 0.0, 1.700950099358718E9, 0.0, 2023-11-25 17:08:19.358
116.0, 8905.38202588344, 13749.76500865996, -59730.43259745033, -58551.668650110805, -69335.02189338469, 3774.181458256419, -31173.955640072305, 25128.456965500947, -0.22, 0.9500000000000001, 0.17, 192.0, 0.0, 0.0, 0.0, 0.0, 0.0, 0.0, 0.0, 0.0, 0.0, 1.700950099361759E9, 0.0, 2023-11-25 17:08:19.361
117.0, 8793.489193140173, 13600.142431276136, -59829.45082538734, -58665.1484567104, -69390.76714405623, 3710.3225243476063, -31236.249951869246, 25037.083034167652, -0.22, 0.9500000000000001, 0.17, 192.0, 0.0, 0.0, 0.0, 0.0, 0.0, 0.0, 0.0, 0.0, 0.0, 1.70095009936524E9, 0.0, 2023-11-25 17:08:19.365
118.0, 8764.54368407055, 13580.428192666555, -59804.2157058973, -58644.294279133595, -69434.62126667754, 3632.3596396874955, -31252.56672532162, 25051.075226196674, -0.22, 0.9500000000000001, 0.17, 192.0, 0.0, 0.0, 0.0, 0.0, 0.0, 0.0, 0.0, 0.0, 0.0, 1.700950099367739E9, 0.0, 2023-11-25 17:08:19.367
119.0, 8815.885641084391, 13680.362842126233, -59767.46943801278, -58590.538333718585, -69437.66110392346, 3651.0009945632214, -31249.88451598698, 25084.20051147944, -0.222, 0.9520000000000001, 0.17, 192.0, 249.0, 16.0, 29.0, 192.0, 5.0, 80.0, 0.0, 0.0, 0.0, 1.700950099371784E9, 0.0, 2023-11-25 17:08:19.371
120.0, 8892.507421077184, 13754.615337206762, -59748.515158714676, -58557.23423448017, -69367.4766263338, 3734.9988502262654, -31220.156695861424, 25097.522151174802, -0.222, 0.9520000000000001, 0.17, 192.0, 0.0, 0.0, 0.0, 0.0, 0.0, 0.0, 0.0, 0.0, 0.0, 1.700950099374807E9, 0.0, 2023-11-25 17:08:19.374
121.0, 8817.740835874181, 13632.4183502696, -59838.771502825206, -58651.6927065483, -69379.03247821718, 3736.5411205936816, -31253.37138812201, 25027.337673585138, -0.222, 0.9520000000000001, 0.17, 192.0, 0.0, 0.0, 0.0, 0.0, 0.0, 0.0, 0.0, 0.0, 0.0, 1.700950099377837E9, 0.0, 2023-11-25 17:08:19.377
122.0, 8753.1666461428, 13570.705183828495, -59826.29922941914, -58648.56346232456, -69441.52795571422, 3630.638555364437, -31272.10214997556, 25040.458147580404, -0.222, 0.9520000000000001, 0.17, 192.0, 0.0, 0.0, 0.0, 0.0, 0.0, 0.0, 0.0, 0.0, 0.0, 1.700950099381565E9, 0.0, 2023-11-25 17:08:19.381
123.0, 8795.724367585703, 13663.241405873467, -59789.329444090064, -58592.907618630845, -69443.31609527065, 3651.6268434079702, -31269.28583017419, 25075.639793353057, -0.222, 0.9520000000000001, 0.17, 192.0, 0.0, 0.0, 0.0, 0.0, 0.0, 0.0, 0.0, 0.0, 0.0, 1.700950099384871E9, 0.0, 2023-11-25 17:08:19.384
124.0, 8894.966112967268, 13772.876712426749, -59737.182824275835, -58527.17113818778, -69374.33861188157, 3721.0960651750643, -31222.74949821824, 25113.816572882723, -0.222, 0.9520000000000001, 0.17, 192.0, 0.0, 0.0, 0.0, 0.0, 0.0, 0.0, 0.0, 0.0, 0.0, 1.700950099387841E9, 0.0, 2023-11-25 17:08:19.387
125.0, 8849.346202533985, 13678.239426402979, -59828.84732828705, -58619.260325343654, -69365.2191001438, 3763.720841851335, -31242.46373682782, 25053.7127320424, -0.222, 0.9520000000000001, 0.17, 192.0, 0.0, 0.0, 0.0, 0.0, 0.0, 0.0, 0.0, 0.0, 0.0, 1.700950099390898E9, 0.0, 2023-11-25 17:08:19.390
126.0, 8767.315300383008, 13580.048213010814, -59834.34585742305, -58644.7413140227, -69445.73008367182, 3622.5248721271605, -31284.105036748057, 25038.222973134874, -0.222, 0.9520000000000001, 0.17, 192.0, 0.0, 0.0, 0.0, 0.0, 0.0, 0.0, 0.0, 0.0, 0.0, 1.700950099393956E9, 0.0, 2023-11-25 17:08:19.393
127.0, 8805.98381829069, 13666.549464052852, -59792.190467380344, -58590.09129882947, -69443.71842667085, 3650.6880701408472, -31267.162414450937, 25088.29088071476, -0.222, 0.9520000000000001, 0.17, 192.0, 0.0, 0.0, 0.0, 0.0, 0.0, 0.0, 0.0, 0.0, 0.0, 1.700950099397957E9, 0.0, 2023-11-25 17:08:19.397
128.0, 8889.244066386707, 13768.853398424793, -59731.88546083993, -58524.891260253346, -69391.57180685662, 3699.1243003754976, -31224.872913941494, 25141.912715663042, -0.222, 0.9520000000000001, 0.17, 192.0, 0.0, 0.0, 0.0, 0.0, 0.0, 0.0, 0.0, 0.0, 0.0, 1.70095009940094E9, 0.0, 2023-11-25 17:08:19.400
129.0, 8855.314118303551, 13695.562028355842, -59817.78321478167, -58606.56453449304, -69358.75944599623, 3772.4827256778153, -31240.720300760306, 25082.077095756187, -0.218, 0.9540000000000001, 0.162, 192.0, 249.0, 48.0, 29.0, 208.0, 5.0, 16.0, 0.0, 0.0, 0.0, 1.700950099403914E9, 0.0, 2023-11-25 17:08:19.403
130.0, 8757.793457245047, 13571.375736162156, -59841.23019471529, -58656.40892462837, -69441.88558362551, 3626.950517529311, -31300.019478800237, 25020.207467103897, -0.218, 0.9540000000000001, 0.162, 192.0, 0.0, 0.0, 0.0, 0.0, 0.0, 0.0, 0.0, 0.0, 0.0, 1.700950099407943E9, 0.0, 2023-11-25 17:08:19.407
131.0, 8781.173381945298, 13632.775978180884, -59809.13308967747, -58616.91339217585, -69454.04493260919, 3633.119598998976, -31279.634687856997, 25054.830319265166, -0.218, 0.9540000000000001, 0.162, 192.0, 0.0, 0.0, 0.0, 0.0, 0.0, 0.0, 0.0, 0.0, 0.0, 1.700950099411091E9, 0.0, 2023-11-25 17:08:19.411
132.0, 8875.028356913133, 13755.732924429527, -59735.19351901931, -58536.983554003666, -69411.0848797661, 3668.994148849744, -31228.829172710084, 25119.29275027427, -0.218, 0.9540000000000001, 0.162, 192.0, 0.0, 0.0, 0.0, 0.0, 0.0, 0.0, 0.0, 0.0, 0.0, 1.700950099414987E9, 0.0, 2023-11-25 17:08:19.414
133.0, 8884.61725528446, 13723.814633347349, -59790.58114177956, -58588.571380206515, -69350.24343135876, 3783.8597636055665, -31205.49395149874, 25111.804915881745, -0.218, 0.9540000000000001, 0.162, 192.0, 0.0, 0.0, 0.0, 0.0, 0.0, 0.0, 0.0, 0.0, 0.0, 1.700950099431414E9, 0.0, 2023-11-25 17:08:19.431
134.0, 8762.889654980858, 13565.050192481303, -59847.04164827367, -58674.46913414826, -69435.7388539003, 3650.956291074311, -31275.05258024366, 25033.216182376884, -0.218, 0.9540000000000001, 0.162, 192.0, 0.0, 0.0, 0.0, 0.0, 0.0, 0.0, 0.0, 0.0, 0.0, 1.700950099434112E9, 0.0, 2023-11-25 17:08:19.434
