%OpenBCI Raw EXG Data
%Number of channels = 8
%Sample Rate = 250 Hz
%Board = OpenBCI_GUI$BoardCytonSerial
Sample Index, EXG Channel 0, EXG Channel 1, EXG Channel 2, EXG Channel 3, EXG Channel 4, EXG Channel 5, EXG Channel 6, EXG Channel 7, Accel Channel 0, Accel Channel 1, Accel Channel 2, Other, Other, Other, Other, Other, Other, Other, Analog Channel 0, Analog Channel 1, Analog Channel 2, Timestamp, Other, Timestamp (Formatted)
86.0, 32662.22419288447, 66053.56228990106, 7293.418919255605, -6747.902244079381, 20547.35518066349, -35067.18248929769, 15208.462203557756, 3899.462985928415, 0.0, 0.0, 0.0, 192.0, 0.0, 0.0, 0.0, 0.0, 0.0, 0.0, 0.0, 0.0, 0.0, 1.700950938229199E9, 0.0, 2023-11-25 17:22:18.229
87.0, 32668.32621912077, 66068.0462203081, 7305.39945428365, -6731.876043304926, 20445.699446880753, -35331.84949539298, 15214.765395494152, 3882.2521426978283, 0.0, 0.0, 0.0, 192.0, 0.0, 0.0, 0.0, 0.0, 0.0, 0.0, 0.0, 0.0, 0.0, 1.700950938229224E9, 0.0, 2023-11-25 17:22:18.229
88.0, 32735.046176319862, 66134.63206704045, 7335.104922664753, -6692.402862596854, 20449.253374249147, -35324.227550533724, 15236.759512038174, 3896.691369615957, -0.06, 0.976, 0.182, 192.0, 254.0, 32.0, 30.0, 128.0, 5.0, 176.0, 0.0, 0.0, 0.0, 1.700950938229236E9, 0.0, 2023-11-25 17:22:18.229
0.0, 0.0, 0.0, 0.0, 0.0, 0.0, 0.0, 0.0, 0.0, -0.058, 0.974, 0.192, 192.0, 254.0, 48.0, 30.0, 112.0, 6.0, 0.0, 0.0, 0.0, 0.0, 1.700950938299225E9, 0.0, 2023-11-25 17:22:18.299
1.0, 33584.99361097737, 66491.83529518072, 6863.1701902354, -7178.173324844042, 20512.732328502218, -34421.060612328125, 15518.682064852961, 4472.1593823622925, -0.058, 0.974, 0.192, 192.0, 0.0, 0.0, 0.0, 0.0, 0.0, 0.0, 0.0, 0.0, 0.0, 1.700950938316237E9, 0.0, 2023-11-25 17:22:18.316
2.0, 33648.89724837509, 66554.73310407795, 6898.262429030232, -7135.995583056878, 20518.3426163605, -34508.83591280412, 15540.273849996789, 4478.820202209974, -0.058, 0.974, 0.192, 192.0, 0.0, 0.0, 0.0, 0.0, 0.0, 0.0, 0.0, 0.0, 0.0, 1.700950938319557E9, 0.0, 2023-11-25 17:22:18.319
3.0, 33718.92526375357, 66620.8272124323, 6942.004792929268, -7092.186163924475, 20549.612706853477, -34599.85221622613, 15574.807295180237, 4495.606362295909, -0.058, 0.974, 0.192, 192.0, 0.0, 0.0, 0.0, 0.0, 0.0, 0.0, 0.0, 0.0, 0.0, 1.700950938322269E9, 0.0, 2023-11-25 17:22:18.322
4.0, 33654.75340542238, 66543.33371440574, 6890.46167021533, -7153.362888498651, 20647.17807140089, -34248.818069555535, 15549.527472201285, 4543.930833808284, -0.058, 0.974, 0.192, 192.0, 0.0, 0.0, 0.0, 0.0, 0.0, 0.0, 0.0, 0.0, 0.0, 1.700950938326264E9, 0.0, 2023-11-25 17:22:18.326
5.0, 33621.35989920615, 66519.41734783856, 6886.214838768821, -7159.867246135145, 20526.21043040877, -34452.5318685212, 15541.167919775, 4500.993132709638, -0.058, 0.974, 0.192, 192.0, 0.0, 0.0, 0.0, 0.0, 0.0, 0.0, 0.0, 0.0, 0.0, 1.700950938330351E9, 0.0, 2023-11-25 17:22:18.330
6.0, 33678.356847567185, 66581.82341835779, 6922.245850830776, -7112.436844400984, 20531.463090355766, -34564.156480331, 15568.817027666215, 4512.124301448382, -0.058, 0.974, 0.192, 192.0, 0.0, 0.0, 0.0, 0.0, 0.0, 0.0, 0.0, 0.0, 0.0, 1.700950938334373E9, 0.0, 2023-11-25 17:22:18.334
7.0, 33753.6151711482, 66664.05548620886, 6974.280711922731, -7057.093925129643, 20552.2502126992, -34669.8355281157, 15603.551638549763, 4513.3089439045125, -0.058, 0.974, 0.192, 192.0, 0.0, 0.0, 0.0, 0.0, 0.0, 0.0, 0.0, 0.0, 0.0, 1.70095093833834E9, 0.0, 2023-11-25 17:22:18.338
8.0, 33709.02344095986, 66610.34424428275, 6938.048534160678, -7102.624428585104, 20667.56286234413, -34340.16964914437, 15578.428277781997, 4556.313700236524, -0.056, 0.968, 0.194, 192.0, 254.0, 64.0, 30.0, 64.0, 6.0, 16.0, 0.0, 0.0, 0.0, 1.70095093834235E9, 0.0, 2023-11-25 17:22:18.342
9.0, 33652.42882399903, 66560.2092814695, 6909.728873935804, -7136.152045268064, 20562.68847735983, -34422.2229030398, 15536.965791817403, 4495.718121018186, -0.056, 0.968, 0.194, 192.0, 0.0, 0.0, 0.0, 0.0, 0.0, 0.0, 0.0, 0.0, 0.0, 1.700950938346362E9, 0.0, 2023-11-25 17:22:18.346
10.0, 33708.062315948286, 66616.44627051905, 6951.303118622675, -7088.833402256179, 20552.049046999105, -34593.34785858964, 15568.057068354736, 4508.235097913158, -0.056, 0.968, 0.194, 192.0, 0.0, 0.0, 0.0, 0.0, 0.0, 0.0, 0.0, 0.0, 0.0, 1.700950938349375E9, 0.0, 2023-11-25 17:22:18.349
11.0, 33793.60244197875, 66702.25461748298, 7002.086282025133, -7032.328192273163, 20556.184119723337, -34692.34373478219, 15605.250371128366, 4518.651010829331, -0.056, 0.968, 0.194, 192.0, 0.0, 0.0, 0.0, 0.0, 0.0, 0.0, 0.0, 0.0, 0.0, 1.700950938354382E9, 0.0, 2023-11-25 17:22:18.354
12.0, 33783.47710174049, 66671.00687873446, 6986.417709161963, -7053.4282390389735, 20680.348060172568, -34414.66801341391, 15608.312560118744, 4584.365139527934, -0.056, 0.968, 0.194, 192.0, 0.0, 0.0, 0.0, 0.0, 0.0, 0.0, 0.0, 0.0, 0.0, 1.700950938359316E9, 0.0, 2023-11-25 17:22:18.359
13.0, 33699.121618166166, 66587.79133412735, 6933.824054458625, -7113.777949068302, 20613.896323906938, -34311.42530577485, 15557.328231016189, 4545.540159409065, -0.056, 0.968, 0.194, 192.0, 0.0, 0.0, 0.0, 0.0, 0.0, 0.0, 0.0, 0.0, 0.0, 1.700950938362388E9, 0.0, 2023-11-25 17:22:18.362
14.0, 33714.231397417956, 66606.36563376972, 6945.514016808751, -7095.002483725844, 20561.21326222578, -34497.749447554284, 15562.379725263087, 4526.98821151116, -0.056, 0.968, 0.194, 192.0, 0.0, 0.0, 0.0, 0.0, 0.0, 0.0, 0.0, 0.0, 0.0, 1.700950938366366E9, 0.0, 2023-11-25 17:22:18.366
15.0, 33765.68511315407, 66658.40049486166, 6965.161200184965, -7068.672128757493, 20563.15786399339, -34520.16824724296, 15571.119257345112, 4524.194243454247, -0.056, 0.968, 0.194, 192.0, 0.0, 0.0, 0.0, 0.0, 0.0, 0.0, 0.0, 0.0, 0.0, 1.700950938370356E9, 0.0, 2023-11-25 17:22:18.370
16.0, 33753.25754323692, 66640.2285266195, 6954.164141912955, -7085.637102799071, 20672.927281013406, -34279.10468329247, 15578.137705104078, 4581.973502871216, -0.056, 0.968, 0.194, 192.0, 0.0, 0.0, 0.0, 0.0, 0.0, 0.0, 0.0, 0.0, 0.0, 1.700950938374377E9, 0.0, 2023-11-25 17:22:18.374
17.0, 33646.77383265184, 66540.51739460438, 6880.626902654994, -7168.070336350243, 20647.71451326782, -34016.11405803133, 15517.02803576327, 4554.23498800218, -0.056, 0.968, 0.194, 192.0, 0.0, 0.0, 0.0, 0.0, 0.0, 0.0, 0.0, 0.0, 0.0, 1.700950938378384E9, 0.0, 2023-11-25 17:22:18.378
18.0, 33655.8933443896, 66557.10238899021, 6899.178850552899, -7148.199635529475, 20540.53789860462, -34337.08510840954, 15520.425500920475, 4505.061150200504, -0.058, 0.972, 0.194, 192.0, 254.0, 48.0, 30.0, 96.0, 6.0, 16.0, 0.0, 0.0, 0.0, 1.700950938382414E9, 0.0, 2023-11-25 17:22:18.382
19.0, 33735.68907209505, 66634.99821841696, 6948.486798821306, -7096.365940137618, 20526.098671686494, -34519.16241874247, 15549.192196034455, 4489.616094781887, -0.058, 0.972, 0.194, 192.0, 0.0, 0.0, 0.0, 0.0, 0.0, 0.0, 0.0, 0.0, 0.0, 1.700950938386466E9, 0.0, 2023-11-25 17:22:18.386
20.0, 33791.881357655686, 66684.59673936329, 6996.408938933485, -7053.092962872143, 20605.581474969564, -34568.96210538889, 15597.740184991382, 4539.259319217124, -0.058, 0.972, 0.194, 192.0, 0.0, 0.0, 0.0, 0.0, 0.0, 0.0, 0.0, 0.0, 0.0, 1.700950938389474E9, 0.0, 2023-11-25 17:22:18.389
21.0, 33719.5064091094, 66607.8184971593, 6947.100990665078, -7111.118091478121, 20638.21502187431, -34302.05992484807, 15563.0726293412, 4554.95024382475, -0.058, 0.972, 0.194, 192.0, 0.0, 0.0, 0.0, 0.0, 0.0, 0.0, 0.0, 0.0, 0.0, 1.700950938393471E9, 0.0, 2023-11-25 17:22:18.393
22.0, 33721.92039751058, 66614.90400015164, 6960.467333849351, -7093.92959999199, 20527.618590309452, -34598.153483647526, 15571.633347467585, 4521.780255053074, -0.058, 0.972, 0.194, 192.0, 0.0, 0.0, 0.0, 0.0, 0.0, 0.0, 0.0, 0.0, 0.0, 1.700950938399446E9, 0.0, 2023-11-25 17:22:18.399
23.0, 33793.35657278974, 66687.81539056485, 6998.1970784899095, -7044.576948234671, 20547.802215552594, -34649.29427496127, 15597.360205335643, 4533.023182514094, -0.058, 0.972, 0.194, 192.0, 0.0, 0.0, 0.0, 0.0, 0.0, 0.0, 0.0, 0.0, 0.0, 1.700950938402412E9, 0.0, 2023-11-25 17:22:18.402
24.0, 33855.3379601643, 66746.62283022677, 7041.738276688848, -6996.028959277744, 20617.092623364046, -34667.62270541462, 15641.728418079427, 4575.826773146006, -0.058, 0.972, 0.194, 192.0, 0.0, 0.0, 0.0, 0.0, 0.0, 0.0, 0.0, 0.0, 0.0, 1.700950938406455E9, 0.0, 2023-11-25 17:22:18.406
25.0, 33776.68217142608, 66659.42867510661, 6981.925008526446, -7062.547750776738, 20696.95540630286, -34278.657648403365, 15606.636179284595, 4613.064779408548, -0.058, 0.972, 0.194, 192.0, 0.0, 0.0, 0.0, 0.0, 0.0, 0.0, 0.0, 0.0, 0.0, 1.700950938410443E9, 0.0, 2023-11-25 17:22:18.410
26.0, 33749.30128446833, 66644.94474469958, 6982.282636437731, -7063.106544388122, 20570.17631175236, -34533.37812821605, 15598.164868136033, 4560.940511338772, -0.058, 0.972, 0.194, 192.0, 0.0, 0.0, 0.0, 0.0, 0.0, 0.0, 0.0, 0.0, 0.0, 1.70095093841351E9, 0.0, 2023-11-25 17:22:18.413
27.0, 33794.11653210122, 66689.84939931029, 7000.678122124448, -7038.96666037639, 20567.44939892881, -34619.09706820215, 15608.759595007848, 4557.14071478137, -0.052000000000000005, 0.97, 0.194, 192.0, 254.0, 96.0, 30.0, 80.0, 6.0, 16.0, 0.0, 0.0, 0.0, 1.700950938418025E9, 0.0, 2023-11-25 17:22:18.418
28.0, 33868.592544626306, 66760.48091178905, 7053.495294272339, -6987.892924296013, 20598.048937088126, -34723.32325259725, 15648.769217582849, 4572.76458415563, -0.052000000000000005, 0.97, 0.194, 192.0, 0.0, 0.0, 0.0, 0.0, 0.0, 0.0, 0.0, 0.0, 0.0, 1.700950938421753E9, 0.0, 2023-11-25 17:22:18.421
29.0, 33803.616023494724, 66682.85330329578, 7001.549840158205, -7048.577910492171, 20702.208066249856, -34334.02291941916, 15618.683769546005, 4621.200814390279, -0.052000000000000005, 0.97, 0.194, 192.0, 0.0, 0.0, 0.0, 0.0, 0.0, 0.0, 0.0, 0.0, 0.0, 1.700950938425572E9, 0.0, 2023-11-25 17:22:18.425
30.0, 33763.04760730834, 66649.12452091271, 6987.2223719623535, -7067.219265367898, 20580.681631646352, -34511.71928783885, 15595.102679145657, 4559.6217584159085, -0.052000000000000005, 0.97, 0.194, 192.0, 0.0, 0.0, 0.0, 0.0, 0.0, 0.0, 0.0, 0.0, 0.0, 1.700950938430643E9, 0.0, 2023-11-25 17:22:18.430
31.0, 33816.53533178989, 66702.52283841644, 7014.782072875747, -7032.507006228806, 20580.324003735066, -34625.91435026102, 15611.330045620209, 4560.068793305015, -0.052000000000000005, 0.97, 0.194, 192.0, 0.0, 0.0, 0.0, 0.0, 0.0, 0.0, 0.0, 0.0, 0.0, 1.700950938435067E9, 0.0, 2023-11-25 17:22:18.435
32.0, 33881.86948083276, 66765.0630194024, 7048.332041303163, -6995.6713313664595, 20579.675803145863, -34748.178392431546, 15629.524365606829, 4551.061040289526, -0.052000000000000005, 0.97, 0.194, 192.0, 0.0, 0.0, 0.0, 0.0, 0.0, 0.0, 0.0, 0.0, 0.0, 1.700950938438531E9, 0.0, 2023-11-25 17:22:18.438
33.0, 33844.74323329249, 66715.66566415616, 7020.548822945217, -7032.395247506529, 20700.375223204523, -34407.917786588405, 15615.554525322263, 4610.069645651537, -0.052000000000000005, 0.97, 0.194, 192.0, 0.0, 0.0, 0.0, 0.0, 0.0, 0.0, 0.0, 0.0, 0.0, 1.700950938441594E9, 0.0, 2023-11-25 17:22:18.441
34.0, 33781.51014822843, 66663.42963736411, 6994.151412743499, -7069.007404924322, 20598.384213254954, -34464.31123784915, 15578.025946381802, 4556.604272914443, -0.052000000000000005, 0.97, 0.194, 192.0, 0.0, 0.0, 0.0, 0.0, 0.0, 0.0, 0.0, 0.0, 0.0, 1.700950938445606E9, 0.0, 2023-11-25 17:22:18.445
35.0, 33813.54019803288, 66698.27600696993, 7020.0570845672, -7041.604166222116, 20565.63890762793, -34661.565382667235, 15597.13668789109, 4552.826828101495, -0.052000000000000005, 0.97, 0.194, 192.0, 0.0, 0.0, 0.0, 0.0, 0.0, 0.0, 0.0, 0.0, 0.0, 1.700950938449625E9, 0.0, 2023-11-25 17:22:18.449
36.0, 33880.28250697643, 66765.21948161357, 7066.928692689979, -6993.056177265189, 20568.477579173756, -34783.5612039043, 15636.743979065894, 4557.811267115029, -0.052000000000000005, 0.97, 0.194, 192.0, 0.0, 0.0, 0.0, 0.0, 0.0, 0.0, 0.0, 0.0, 0.0, 1.700950938453617E9, 0.0, 2023-11-25 17:22:18.453
37.0, 33859.696550333094, 66731.24483004151, 7056.468076284895, -7010.1105582845885, 20683.05262125166, -34534.115735783074, 15644.81295881426, 4621.893718468395, -0.052000000000000005, 0.97, 0.188, 192.0, 254.0, 96.0, 30.0, 80.0, 5.0, 224.0, 0.0, 0.0, 0.0, 1.700950938457663E9, 0.0, 2023-11-25 17:22:18.457
38.0, 33781.55485171734, 66643.04484642087, 7010.155261773499, -7061.094887387144, 20619.663073976408, -34445.111089362035, 15605.697406017473, 4591.517697753632, -0.052000000000000005, 0.97, 0.188, 192.0, 0.0, 0.0, 0.0, 0.0, 0.0, 0.0, 0.0, 0.0, 0.0, 1.700950938463673E9, 0.0, 2023-11-25 17:22:18.463
39.0, 33812.020279409924, 66663.9884309755, 7036.105637086111, -7026.4273317369625, 20561.72735234825, -34714.762534470865, 15626.775101038827, 4580.967674370727, -0.052000000000000005, 0.97, 0.188, 192.0, 0.0, 0.0, 0.0, 0.0, 0.0, 0.0, 0.0, 0.0, 0.0, 1.700950938467634E9, 0.0, 2023-11-25 17:22:18.467
40.0, 33880.7965970989, 66736.2516207995, 7073.030718926278, -6980.7627178147695, 20556.96643077927, -34841.921608677105, 15651.227909472933, 4577.9948923581715, -0.052000000000000005, 0.97, 0.188, 192.0, 0.0, 0.0, 0.0, 0.0, 0.0, 0.0, 0.0, 0.0, 0.0, 1.70095093847168E9, 0.0, 2023-11-25 17:22:18.471
41.0, 33893.47003620506, 66744.7005802036, 7080.3173876187075, -6974.124249711544, 20651.693123780864, -34729.89466546711, 15666.516502680362, 4630.923823228339, -0.052000000000000005, 0.97, 0.188, 192.0, 0.0, 0.0, 0.0, 0.0, 0.0, 0.0, 0.0, 0.0, 0.0, 1.700950938474748E9, 0.0, 2023-11-25 17:22:18.474
42.0, 33814.30015734436, 66671.18569269011, 7030.048314338722, -7032.328192273163, 20635.80103347314, -34525.15268625649, 15618.259086401355, 4613.981200931215, -0.052000000000000005, 0.97, 0.188, 192.0, 0.0, 0.0, 0.0, 0.0, 0.0, 0.0, 0.0, 0.0, 0.0, 1.700950938477713E9, 0.0, 2023-11-25 17:22:18.477
43.0, 33830.14754416318, 66693.26921621195, 7053.91997741699, -7004.43321519294, 20544.002418995195, -34848.02363491341, 15629.434958629008, 4580.900619137361, -0.052000000000000005, 0.97, 0.188, 192.0, 0.0, 0.0, 0.0, 0.0, 0.0, 0.0, 0.0, 0.0, 0.0, 1.700950938481757E9, 0.0, 2023-11-25 17:22:18.481
44.0, 33892.33009723784, 66754.33418206385, 7082.954893464434, -6968.6704240644485, 20545.07530272905, -34927.417031218654, 15649.059790260768, 4585.281561050601, -0.052000000000000005, 0.97, 0.188, 192.0, 0.0, 0.0, 0.0, 0.0, 0.0, 0.0, 0.0, 0.0, 0.0, 1.700950938485956E9, 0.0, 2023-11-25 17:22:18.485
45.0, 33929.90337966721, 66780.68688877665, 7105.530155364294, -6945.491665064295, 20623.708739722817, -34874.10812069275, 15678.966424341968, 4632.130817428925, -0.052000000000000005, 0.97, 0.188, 192.0, 0.0, 0.0, 0.0, 0.0, 0.0, 0.0, 0.0, 0.0, 0.0, 1.700950938490734E9, 0.0, 2023-11-25 17:22:18.490
46.0, 33847.44779437158, 66695.63850112421, 7043.660526712004, -7012.39043621903, 20665.394743131965, -34494.70961030837, 15638.308601177765, 4652.694422327808, -0.052000000000000005, 0.97, 0.188, 192.0, 0.0, 0.0, 0.0, 0.0, 0.0, 0.0, 0.0, 0.0, 0.0, 1.700950938494742E9, 0.0, 2023-11-25 17:22:18.494
47.0, 33831.801573252866, 66686.98837602, 7047.683840713959, -7004.097939026111, 20554.127759233448, -34755.88974426863, 15638.375656411132, 4611.701322996774, -0.052000000000000005, 0.974, 0.188, 192.0, 254.0, 96.0, 30.0, 112.0, 5.0, 224.0, 0.0, 0.0, 0.0, 1.700950938498986E9, 0.0, 2023-11-25 17:22:18.498
48.0, 33878.226146486544, 66728.4061584957, 7065.386422322563, -6980.136868970021, 20567.382343695444, -34777.28036371236, 15652.233737973422, 4619.367971344945, -0.052000000000000005, 0.974, 0.188, 192.0, 0.0, 0.0, 0.0, 0.0, 0.0, 0.0, 0.0, 0.0, 0.0, 1.700950938501727E9, 0.0, 2023-11-25 17:22:18.501
49.0, 33911.66435619168, 66756.16702510919, 7085.838268499168, -6960.75790652727, 20609.18010582687, -34788.07625628427, 15670.517464937862, 4636.891738997905, -0.052000000000000005, 0.974, 0.188, 192.0, 0.0, 0.0, 0.0, 0.0, 0.0, 0.0, 0.0, 0.0, 0.0, 1.700950938506738E9, 0.0, 2023-11-25 17:22:18.506
50.0, 33822.8832272152, 66667.09532345478, 7019.945325844923, -7033.982221362856, 20685.84658930857, -34344.52823931316, 15624.271705659832, 4665.703137600796, -0.052000000000000005, 0.974, 0.188, 192.0, 0.0, 0.0, 0.0, 0.0, 0.0, 0.0, 0.0, 0.0, 0.0, 1.700950938510736E9, 0.0, 2023-11-25 17:22:18.510
51.0, 33775.54223245886, 66633.478299794, 6999.627590135049, -7057.764477463303, 20544.583564351033, -34574.661800224996, 15598.589551280684, 4600.033712391104, -0.052000000000000005, 0.974, 0.188, 192.0, 0.0, 0.0, 0.0, 0.0, 0.0, 0.0, 0.0, 0.0, 0.0, 1.700950938514165E9, 0.0, 2023-11-25 17:22:18.514
52.0, 33815.59655852277, 66672.57150084633, 7010.199965262409, -7040.061895854699, 20541.02963698264, -34652.401167440556, 15605.071557172723, 4597.038578634093, -0.052000000000000005, 0.974, 0.188, 192.0, 0.0, 0.0, 0.0, 0.0, 0.0, 0.0, 0.0, 0.0, 0.0, 1.700950938518811E9, 0.0, 2023-11-25 17:22:18.518
53.0, 33870.403035927186, 66725.43337648314, 7041.358297033107, -7008.657694894993, 20559.760398836184, -34747.77606103135, 15631.446615629986, 4602.090072880992, -0.052000000000000005, 0.974, 0.188, 192.0, 0.0, 0.0, 0.0, 0.0, 0.0, 0.0, 0.0, 0.0, 0.0, 1.70095093852283E9, 0.0, 2023-11-25 17:22:18.522
54.0, 33797.759866447435, 66647.8281197343, 6984.562514372172, -7072.896608459546, 20662.556071586143, -34319.94132041232, 15597.471964057919, 4646.234768180224, -0.052000000000000005, 0.974, 0.188, 192.0, 0.0, 0.0, 0.0, 0.0, 0.0, 0.0, 0.0, 0.0, 0.0, 1.700950938525877E9, 0.0, 2023-11-25 17:22:18.525
55.0, 33748.183697245564, 66609.33841578227, 6967.686947308415, -7096.3435883931625, 20542.43779688332, -34452.44246154338, 15571.70040270095, 4585.818002917529, -0.052000000000000005, 0.974, 0.188, 192.0, 0.0, 0.0, 0.0, 0.0, 0.0, 0.0, 0.0, 0.0, 0.0, 1.700950938529857E9, 0.0, 2023-11-25 17:22:18.529
56.0, 33779.789063905366, 66641.0778929088, 6983.556685871683, -7074.841210227158, 20531.038407211116, -34576.94167815944, 15579.523513260308, 4586.890886651384, -0.052000000000000005, 0.974, 0.188, 192.0, 0.0, 0.0, 0.0, 0.0, 0.0, 0.0, 0.0, 0.0, 0.0, 1.700950938533803E9, 0.0, 2023-11-25 17:22:18.533
57.0, 33835.95899772156, 66691.36931793325, 7014.111520542088, -7040.955965632912, 20528.82558451004, -34706.715906466954, 15593.873333200614, 4574.776241156607, -0.06, 0.968, 0.194, 192.0, 254.0, 32.0, 30.0, 64.0, 6.0, 16.0, 0.0, 0.0, 0.0, 1.700950938537813E9, 0.0, 2023-11-25 17:22:18.537
58.0, 33791.09904659975, 66638.1274626407, 6978.259322435775, -7081.837306241669, 20648.51917606821, -34349.13269867095, 15574.315556802221, 4625.447645836788, -0.06, 0.968, 0.194, 192.0, 0.0, 0.0, 0.0, 0.0, 0.0, 0.0, 0.0, 0.0, 0.0, 1.700950938541829E9, 0.0, 2023-11-25 17:22:18.541
59.0, 33726.0107667459, 66584.12564803669, 6949.716144766348, -7115.320219435718, 20557.100541246004, -34352.99955046172, 15545.12417854359, 4576.497325479666, -0.06, 0.968, 0.194, 192.0, 0.0, 0.0, 0.0, 0.0, 0.0, 0.0, 0.0, 0.0, 0.0, 1.700950938545881E9, 0.0, 2023-11-25 17:22:18.545
60.0, 33755.5150694269, 66614.0769856068, 6968.022223475245, -7088.654588300537, 20525.450471097287, -34539.68132015244, 15562.98322236338, 4574.753889412152, -0.06, 0.968, 0.194, 192.0, 0.0, 0.0, 0.0, 0.0, 0.0, 0.0, 0.0, 0.0, 0.0, 1.700950938549885E9, 0.0, 2023-11-25 17:22:18.549
61.0, 33815.663613756136, 66674.91843401414, 6998.420595934463, -7052.15418960502, 20518.879058227427, -34662.79472861227, 15577.51185625933, 4560.962863083228, -0.06, 0.968, 0.194, 192.0, 0.0, 0.0, 0.0, 0.0, 0.0, 0.0, 0.0, 0.0, 0.0, 1.700950938552839E9, 0.0, 2023-11-25 17:22:18.552
62.0, 33800.24091008197, 66649.16922440163, 6986.171839972954, -7065.2299601113755, 20634.66109450592, -34405.01205980922, 15584.262083084832, 4623.301878369079, -0.06, 0.968, 0.194, 192.0, 0.0, 0.0, 0.0, 0.0, 0.0, 0.0, 0.0, 0.0, 0.0, 1.70095093855804E9, 0.0, 2023-11-25 17:22:18.558
63.0, 33715.684260807546, 66572.10040951973, 6934.315792836642, -7122.584536383693, 20578.334698478546, -34255.4341859143, 15539.759759874316, 4589.461337263744, -0.06, 0.968, 0.194, 192.0, 0.0, 0.0, 0.0, 0.0, 0.0, 0.0, 0.0, 0.0, 0.0, 1.700950938561896E9, 0.0, 2023-11-25 17:22:18.561
64.0, 33741.72404309798, 66602.54348546786, 6959.729726282326, -7095.0248354703, 20520.77895650613, -34518.178941986436, 15553.997821092347, 4563.175685784303, -0.06, 0.968, 0.194, 192.0, 0.0, 0.0, 0.0, 0.0, 0.0, 0.0, 0.0, 0.0, 0.0, 1.700950938566085E9, 0.0, 2023-11-25 17:22:18.566
65.0, 33815.26128235594, 66673.17499794663, 7003.0697587811665, -7049.695497714937, 20530.50196534419, -34613.77735302178, 15583.74799296236, 4563.801534629051, -0.06, 0.968, 0.194, 192.0, 0.0, 0.0, 0.0, 0.0, 0.0, 0.0, 0.0, 0.0, 0.0, 1.700950938569871E9, 0.0, 2023-11-25 17:22:18.569
66.0, 33825.87836097221, 66673.59968109128, 7011.026979807256, -7044.018154623289, 20626.301542079633, -34475.86708973254, 15602.299940860266, 4617.445721321788, -0.06, 0.968, 0.194, 192.0, 0.0, 0.0, 0.0, 0.0, 0.0, 0.0, 0.0, 0.0, 0.0, 1.70095093857395E9, 0.0, 2023-11-25 17:22:18.573
67.0, 33741.8134500758, 66590.5182469509, 6955.438191346907, -7104.6137338416265, 20622.881725177973, -34196.60439450794, 15557.954079860936, 4611.902488696872, -0.058, 0.97, 0.192, 192.0, 254.0, 48.0, 30.0, 80.0, 6.0, 0.0, 0.0, 0.0, 0.0, 1.70095093857794E9, 0.0, 2023-11-25 17:22:18.577
68.0, 33754.77746185988, 66612.33354953928, 6982.103822482089, -7076.092907916654, 20539.55442184859, -34499.96227025536, 15573.153266090545, 4584.029863361105, -0.058, 0.97, 0.192, 192.0, 0.0, 0.0, 0.0, 0.0, 0.0, 0.0, 0.0, 0.0, 0.0, 1.700950938580996E9, 0.0, 2023-11-25 17:22:18.580
69.0, 33818.81520972434, 66676.6395183372, 7017.084302554644, -7035.7033056859145, 20549.41154115338, -34588.58693702066, 15599.014234425335, 4590.0871861084925, -0.058, 0.97, 0.192, 192.0, 0.0, 0.0, 0.0, 0.0, 0.0, 0.0, 0.0, 0.0, 0.0, 1.700950938586026E9, 0.0, 2023-11-25 17:22:18.586
70.0, 33856.70141657608, 66706.07676578483, 7039.212529565398, -7013.440968208429, 20616.64558847494, -34580.20503284992, 15623.891726004093, 4623.681858024819, -0.058, 0.97, 0.192, 192.0, 0.0, 0.0, 0.0, 0.0, 0.0, 0.0, 0.0, 0.0, 0.0, 1.700950938590077E9, 0.0, 2023-11-25 17:22:18.590
71.0, 33774.402293491636, 66624.29173282287, 6977.409956146474, -7079.602131796138, 20662.913699497425, -34202.63936551087, 15578.070649870713, 4640.311555899568, -0.058, 0.97, 0.192, 192.0, 0.0, 0.0, 0.0, 0.0, 0.0, 0.0, 0.0, 0.0, 0.0, 1.700950938594029E9, 0.0, 2023-11-25 17:22:18.594
72.0, 33765.86392710971, 66626.57161075731, 6993.547915643206, -7063.4641722994065, 20552.87606154395, -34500.610470844564, 15583.837399940181, 4598.692607723786, -0.058, 0.97, 0.192, 192.0, 0.0, 0.0, 0.0, 0.0, 0.0, 0.0, 0.0, 0.0, 0.0, 1.700950938598036E9, 0.0, 2023-11-25 17:22:18.598
73.0, 33827.80061099537, 66684.93201553011, 7026.62849743706, -7024.169805546976, 20572.567948409076, -34574.170061846984, 15608.983112452403, 4613.131834641914, -0.058, 0.97, 0.192, 192.0, 0.0, 0.0, 0.0, 0.0, 0.0, 0.0, 0.0, 0.0, 0.0, 1.700950938602035E9, 0.0, 2023-11-25 17:22:18.602
74.0, 33873.55463189538, 66726.72977766155, 7057.272739085286, -6995.850145322102, 20609.515381993697, -34661.36421696714, 15639.537947122806, 4633.091942440503, -0.058, 0.97, 0.192, 192.0, 0.0, 0.0, 0.0, 0.0, 0.0, 0.0, 0.0, 0.0, 0.0, 1.700950938605027E9, 0.0, 2023-11-25 17:22:18.605
75.0, 33801.20203509355, 66649.19157614608, 7004.43321519294, -7056.6021867516265, 20686.96417653134, -34275.59545941299, 15606.457365328952, 4660.092849742514, -0.058, 0.97, 0.192, 192.0, 0.0, 0.0, 0.0, 0.0, 0.0, 0.0, 0.0, 0.0, 0.0, 1.700950938609049E9, 0.0, 2023-11-25 17:22:18.609
76.0, 33786.15931107513, 66643.35777084324, 7016.681971154449, -7048.890834914546, 20558.084018002035, -34588.74339923184, 15609.072519430223, 4600.748968213674, -0.058, 0.97, 0.192, 192.0, 0.0, 0.0, 0.0, 0.0, 0.0, 0.0, 0.0, 0.0, 0.0, 1.70095093861407E9, 0.0, 2023-11-25 17:22:18.614
77.0, 33845.70435830407, 66702.20991399407, 7046.812122680202, -7012.904526341502, 20560.475654658756, -34758.5048983699, 15630.37373189613, 4597.19504084528, -0.056, 0.966, 0.192, 192.0, 254.0, 64.0, 30.0, 48.0, 6.0, 0.0, 0.0, 0.0, 0.0, 1.700950938618114E9, 0.0, 2023-11-25 17:22:18.618
78.0, 33924.494257509024, 66776.30594686342, 7096.365940137618, -6963.730688539826, 20583.74382063673, -34919.3927549592, 15665.801246857793, 4598.826718190518, -0.056, 0.966, 0.192, 192.0, 0.0, 0.0, 0.0, 0.0, 0.0, 0.0, 0.0, 0.0, 0.0, 1.700950938622137E9, 0.0, 2023-11-25 17:22:18.622
79.0, 33867.094977747794, 66711.97762632104, 7046.230977324364, -7018.805386877702, 20689.020537021224, -34513.976814028836, 15627.736226050405, 4637.517587842654, -0.056, 0.966, 0.192, 192.0, 0.0, 0.0, 0.0, 0.0, 0.0, 0.0, 0.0, 0.0, 0.0, 1.700950938626225E9, 0.0, 2023-11-25 17:22:18.626
80.0, 33821.40801208115, 66677.24301543749, 7027.522567215272, -7042.4535325114175, 20576.88183508895, -34631.144658463556, 15595.70617624595, 4573.926874867306, -0.056, 0.966, 0.192, 192.0, 0.0, 0.0, 0.0, 0.0, 0.0, 0.0, 0.0, 0.0, 0.0, 1.700950938630143E9, 0.0, 2023-11-25 17:22:18.630
81.0, 33856.5896578538, 66708.13312627473, 7045.001631379322, -7021.7334654013475, 20572.612651897987, -34747.619598820165, 15610.503031075363, 4583.515773238632, -0.056, 0.966, 0.192, 192.0, 0.0, 0.0, 0.0, 0.0, 0.0, 0.0, 0.0, 0.0, 0.0, 1.700950938633118E9, 0.0, 2023-11-25 17:22:18.633
82.0, 33924.38249878675, 66771.85794971681, 7090.1745069234985, -6975.219485189854, 20582.44741945832, -34875.67274280462, 15645.796435570293, 4593.1940785877805, -0.056, 0.966, 0.192, 192.0, 0.0, 0.0, 0.0, 0.0, 0.0, 0.0, 0.0, 0.0, 0.0, 1.700950938637169E9, 0.0, 2023-11-25 17:22:18.637
83.0, 33887.12214077975, 66726.70742591709, 7063.73239323287, -7004.835546593135, 20702.76685986124, -34525.35385195659, 15636.699275576982, 4653.320271172556, -0.056, 0.966, 0.192, 192.0, 0.0, 0.0, 0.0, 0.0, 0.0, 0.0, 0.0, 0.0, 0.0, 1.700950938641169E9, 0.0, 2023-11-25 17:22:18.641
84.0, 33820.84921846977, 66668.74935254447, 7031.5905847061385, -7043.414657522996, 20609.60478897152, -34520.72704085434, 15601.539981548785, 4602.738273470196, -0.056, 0.966, 0.192, 192.0, 0.0, 0.0, 0.0, 0.0, 0.0, 0.0, 0.0, 0.0, 0.0, 1.700950938645146E9, 0.0, 2023-11-25 17:22:18.645
85.0, 33854.28742817491, 66706.79202160741, 7059.083230386166, -7010.736407129337, 20578.088829289536, -34748.58072383174, 15624.294057404288, 4601.687741480797, -0.056, 0.966, 0.192, 192.0, 0.0, 0.0, 0.0, 0.0, 0.0, 0.0, 0.0, 0.0, 0.0, 1.700950938650128E9, 0.0, 2023-11-25 17:22:18.650
86.0, 33925.03069937595, 66776.2612433745, 7105.194879197465, -6962.724860039337, 20579.45228570131, -34891.765998812436, 15657.262880475866, 4607.029808405615, -0.056, 0.966, 0.192, 192.0, 0.0, 0.0, 0.0, 0.0, 0.0, 0.0, 0.0, 0.0, 0.0, 1.700950938654204E9, 0.0, 2023-11-25 17:22:18.654
87.0, 33922.10262085231, 66765.08537114685, 7102.177393695998, -6969.542142098206, 20688.014708520735, -34684.74414166738, 15661.844988089204, 4657.723564830251, -0.058, 0.968, 0.188, 192.0, 254.0, 48.0, 30.0, 64.0, 5.0, 224.0, 0.0, 0.0, 0.0, 1.700950938658205E9, 0.0, 2023-11-25 17:22:18.658
88.0, 33860.7917858114, 66705.78619310692, 7066.034622911767, -7011.295200740719, 20643.55708879913, -34550.544267957725, 15624.495223104386, 4630.029753450126, -0.058, 0.968, 0.188, 192.0, 0.0, 0.0, 0.0, 0.0, 0.0, 0.0, 0.0, 0.0, 0.0, 1.700950938661225E9, 0.0, 2023-11-25 17:22:18.661
89.0, 33891.05604780389, 66738.01740861147, 7096.947085493456, -6977.7675840577585, 20583.140323536438, -34852.60574252674, 15645.170586725544, 4616.1493201433805, -0.058, 0.968, 0.188, 192.0, 0.0, 0.0, 0.0, 0.0, 0.0, 0.0, 0.0, 0.0, 0.0, 1.700950938665209E9, 0.0, 2023-11-25 17:22:18.665
90.0, 33958.24539163654, 66804.06681347691, 7132.665173133037, -6936.640374259994, 20580.88279734645, -34977.44023530963, 15668.885787592626, 4615.925802698827, -0.058, 0.968, 0.188, 192.0, 0.0, 0.0, 0.0, 0.0, 0.0, 0.0, 0.0, 0.0, 0.0, 1.700950938669225E9, 0.0, 2023-11-25 17:22:18.669
91.0, 33976.95380174563, 66815.13092698228, 7147.663193662548, -6922.715237464337, 20668.23341467779, -34910.742629855, 15694.456183249496, 4666.284282956634, -0.058, 0.968, 0.188, 192.0, 0.0, 0.0, 0.0, 0.0, 0.0, 0.0, 0.0, 0.0, 0.0, 1.700950938674168E9, 0.0, 2023-11-25 17:22:18.674
92.0, 33900.35437349729, 66744.16413833668, 7098.534059349783, -6974.057194478178, 20669.03807747818, -34658.972580310416, 15658.715743865461, 4662.640948610419, -0.058, 0.968, 0.188, 192.0, 0.0, 0.0, 0.0, 0.0, 0.0, 0.0, 0.0, 0.0, 0.0, 1.700950938678241E9, 0.0, 2023-11-25 17:22:18.678
93.0, 33913.877178892755, 66766.98526942555, 7126.272574218819, -6940.641336517494, 20578.759381623197, -35000.753104776515, 15682.855627877192, 4638.881044254428, -0.058, 0.968, 0.188, 192.0, 0.0, 0.0, 0.0, 0.0, 0.0, 0.0, 0.0, 0.0, 0.0, 1.700950938682297E9, 0.0, 2023-11-25 17:22:18.682
94.0, 33966.89551674074, 66820.96473228511, 7144.5339494388045, -6916.233231572299, 20575.02664029916, -35103.50407403756, 15695.730232683449, 4634.902433741383, -0.058, 0.968, 0.188, 192.0, 0.0, 0.0, 0.0, 0.0, 0.0, 0.0, 0.0, 0.0, 0.0, 1.700950938686297E9, 0.0, 2023-11-25 17:22:18.686
95.0, 34009.095610272365, 66855.38641874629, 7172.071298607743, -6891.1322225489885, 20632.358864827023, -35151.560324616476, 15727.670875510083, 4664.294977700112, -0.058, 0.968, 0.188, 192.0, 0.0, 0.0, 0.0, 0.0, 0.0, 0.0, 0.0, 0.0, 0.0, 1.700950938689308E9, 0.0, 2023-11-25 17:22:18.689
96.0, 33936.27362683697, 66783.90553997822, 7121.042266016277, -6947.749191254282, 20680.99626076177, -34799.11801804519, 15695.506715238897, 4684.724472132262, -0.058, 0.968, 0.188, 192.0, 0.0, 0.0, 0.0, 0.0, 0.0, 0.0, 0.0, 0.0, 0.0, 1.70095093869327E9, 0.0, 2023-11-25 17:22:18.693
97.0, 33928.74108895553, 66785.67132779019, 7138.275460991319, -6931.298307335175, 20563.560195393587, -35125.3417283704, 15702.68162520905, 4642.189102433813, -0.052000000000000005, 0.964, 0.184, 192.0, 254.0, 96.0, 30.0, 32.0, 5.0, 192.0, 0.0, 0.0, 0.0, 1.700950938697342E9, 0.0, 2023-11-25 17:22:18.697
98.0, 33984.64280183826, 66835.31455222542, 7165.32107178224, -6896.608399940539, 20575.384268210444, -35212.35706953491, 15720.45126205102, 4652.314442672067, -0.052000000000000005, 0.964, 0.184, 192.0, 0.0, 0.0, 0.0, 0.0, 0.0, 0.0, 0.0, 0.0, 0.0, 1.700950938703304E9, 0.0, 2023-11-25 17:22:18.703
99.0, 34042.06443334394, 66887.34941331738, 7206.38122634664, -6852.888387785958, 20611.2141145723, -35326.19450404579, 15755.722314801493, 4674.710890616285, -0.052000000000000005, 0.964, 0.184, 192.0, 0.0, 0.0, 0.0, 0.0, 0.0, 0.0, 0.0, 0.0, 0.0, 1.700950938707362E9, 0.0, 2023-11-25 17:22:18.707
100.0, 33985.022781494, 66827.37968294379, 7162.862379892156, -6899.737644164282, 20699.324691215123, -34937.9447028571, 15727.715578998994, 4712.865318401494, -0.052000000000000005, 0.964, 0.184, 192.0, 0.0, 0.0, 0.0, 0.0, 0.0, 0.0, 0.0, 0.0, 0.0, 1.700950938710303E9, 0.0, 2023-11-25 17:22:18.710
101.0, 33971.32116214289, 66820.6741596072, 7176.094612609699, -6893.434452227885, 20579.65345140141, -35204.310441531, 15729.459015066508, 4661.858637554484, -0.052000000000000005, 0.964, 0.184, 192.0, 0.0, 0.0, 0.0, 0.0, 0.0, 0.0, 0.0, 0.0, 0.0, 1.70095093871436E9, 0.0, 2023-11-25 17:22:18.714
102.0, 34029.2792355155, 66876.01707887853, 7213.354970616695, -6857.783419821671, 20594.629120186462, -35316.69501265228, 15754.761189789915, 4675.381442949944, -0.052000000000000005, 0.964, 0.184, 192.0, 0.0, 0.0, 0.0, 0.0, 0.0, 0.0, 0.0, 0.0, 0.0, 1.700950938717373E9, 0.0, 2023-11-25 17:22:18.717
103.0, 34096.267413648064, 66934.64570458481, 7258.371383949684, -6819.249012380721, 20602.809858657107, -35479.840395431565, 15785.450134927052, 4676.476678428255, -0.052000000000000005, 0.964, 0.184, 192.0, 0.0, 0.0, 0.0, 0.0, 0.0, 0.0, 0.0, 0.0, 0.0, 1.700950938724091E9, 0.0, 2023-11-25 17:22:18.724
104.0, 34052.234477071106, 66887.01413715055, 7228.62121207967, -6855.056506998123, 20711.104060543068, -35129.387394116806, 15768.015774251911, 4717.626239970475, -0.052000000000000005, 0.964, 0.184, 192.0, 0.0, 0.0, 0.0, 0.0, 0.0, 0.0, 0.0, 0.0, 0.0, 1.700950938725388E9, 0.0, 2023-11-25 17:22:18.725
105.0, 34020.49499994457, 66865.75762817355, 7232.219842936975, -6859.839780311559, 20608.576608726577, -35284.70966633674, 15758.002192735934, 4670.665224869875, -0.052000000000000005, 0.964, 0.184, 192.0, 0.0, 0.0, 0.0, 0.0, 0.0, 0.0, 0.0, 0.0, 0.0, 1.700950938729369E9, 0.0, 2023-11-25 17:22:18.729
106.0, 34060.70578821967, 66901.72158500215, 7258.684308372058, -6831.654230553417, 20604.419184257888, -35434.93574082086, 15777.716431345516, 4684.635065154442, -0.052000000000000005, 0.964, 0.184, 192.0, 0.0, 0.0, 0.0, 0.0, 0.0, 0.0, 0.0, 0.0, 0.0, 1.700950938733373E9, 0.0, 2023-11-25 17:22:18.733
107.0, 34122.195437216214, 66958.96440255218, 7296.995198368454, -6795.8020324471045, 20603.368652268487, -35575.75173088929, 15803.622103169217, 4685.797355866117, -0.064, 0.968, 0.186, 192.0, 254.0, 0.0, 30.0, 64.0, 5.0, 208.0, 0.0, 0.0, 0.0, 1.700950938738372E9, 0.0, 2023-11-25 17:22:18.738
108.0, 34090.388904856314, 66925.45913761368, 7272.900017845634, -6823.965230460791, 20711.484040198808, -35284.866128547925, 15795.329605976298, 4742.123751893491, -0.064, 0.968, 0.186, 192.0, 0.0, 0.0, 0.0, 0.0, 0.0, 0.0, 0.0, 0.0, 0.0, 1.700950938742409E9, 0.0, 2023-11-25 17:22:18.742
109.0, 34034.35308150686, 66882.87906442632, 7247.396677422128, -6856.285852943165, 20627.26266709121, -35282.80976805804, 15774.117800488211, 4707.567954965586, -0.064, 0.968, 0.186, 192.0, 0.0, 0.0, 0.0, 0.0, 0.0, 0.0, 0.0, 0.0, 0.0, 1.700950938745465E9, 0.0, 2023-11-25 17:22:18.745
110.0, 34072.41810231425, 66921.77109977855, 7276.185724280564, -6822.847643238026, 20599.524152222177, -35487.395285057464, 15800.202286267555, 4715.301658547122, -0.064, 0.968, 0.186, 192.0, 0.0, 0.0, 0.0, 0.0, 0.0, 0.0, 0.0, 0.0, 0.0, 1.700950938749502E9, 0.0, 2023-11-25 17:22:18.749
111.0, 34133.77364084407, 66981.33849875194, 7305.846489172756, -6787.800107932104, 20596.08198357606, -35587.70991417288, 15820.31885627733, 4715.3463620360335, -0.064, 0.968, 0.186, 192.0, 0.0, 0.0, 0.0, 0.0, 0.0, 0.0, 0.0, 0.0, 0.0, 1.7009509387535E9, 0.0, 2023-11-25 17:22:18.753
112.0, 34128.632739619345, 66970.65436490231, 7295.5646867233145, -6794.930314413347, 20694.116734757037, -35403.24096718323, 15828.343132536786, 4761.8379905030715, -0.064, 0.968, 0.186, 192.0, 0.0, 0.0, 0.0, 0.0, 0.0, 0.0, 0.0, 0.0, 0.0, 1.700950938757458E9, 0.0, 2023-11-25 17:22:18.757
113.0, 34063.92443942123, 66912.58453280742, 7260.6959653730355, -6833.263556154198, 20658.666868050917, -35257.64170380136, 15799.084699044788, 4738.972155925293, -0.064, 0.968, 0.186, 192.0, 0.0, 0.0, 0.0, 0.0, 0.0, 0.0, 0.0, 0.0, 0.0, 1.700950938761469E9, 0.0, 2023-11-25 17:22:18.761
114.0, 34087.84080598841, 66932.27641967255, 7286.2887127743625, -6804.318047084576, 20597.93717836585, -35522.9345587414, 15816.787280653392, 4728.690353475851, -0.064, 0.968, 0.186, 192.0, 0.0, 0.0, 0.0, 0.0, 0.0, 0.0, 0.0, 0.0, 0.0, 1.700950938766615E9, 0.0, 2023-11-25 17:22:18.766
115.0, 34141.75321361461, 66981.67377491877, 7306.293524061862, -6779.440555505819, 20599.948835366828, -35566.56516391816, 15826.376179024719, 4728.399780797932, -0.064, 0.968, 0.186, 192.0, 0.0, 0.0, 0.0, 0.0, 0.0, 0.0, 0.0, 0.0, 0.0, 1.70095093876955E9, 0.0, 2023-11-25 17:22:18.769
116.0, 34156.95239984422, 66996.44827800374, 7317.581155011792, -6766.633005932928, 20681.018612506225, -35485.8753664345, 15843.922298422134, 4768.252941161745, -0.064, 0.968, 0.186, 192.0, 0.0, 0.0, 0.0, 0.0, 0.0, 0.0, 0.0, 0.0, 0.0, 1.700950938773529E9, 0.0, 2023-11-25 17:22:18.773
117.0, 34083.973954197645, 66930.30946616047, 7271.983596322965, -6816.589154790539, 20693.89321731248, -35206.836188654444, 15807.779527637904, 4765.458973104832, -0.064, 0.966, 0.19, 192.0, 254.0, 0.0, 30.0, 48.0, 5.0, 240.0, 0.0, 0.0, 0.0, 1.700950938777525E9, 0.0, 2023-11-25 17:22:18.777
118.0, 34089.67364903374, 66939.16075696477, 7292.726015177491, -6793.835078935037, 20604.977977869272, -35500.64986951946, 15820.587077210794, 4742.03434491567, -0.064, 0.966, 0.19, 192.0, 0.0, 0.0, 0.0, 0.0, 0.0, 0.0, 0.0, 0.0, 0.0, 1.700950938781579E9, 0.0, 2023-11-25 17:22:18.781
119.0, 34137.238161234636, 66981.07027781848, 7305.645323472658, -6773.405584502886, 20617.584361742065, -35498.90643345194, 15829.907754648657, 4751.3326706090775, -0.064, 0.966, 0.19, 192.0, 0.0, 0.0, 0.0, 0.0, 0.0, 0.0, 0.0, 0.0, 0.0, 1.700950938785575E9, 0.0, 2023-11-25 17:22:18.785
120.0, 34165.557821459515, 67007.98177814267, 7323.459663803538, -6755.837113361015, 20663.94187974237, -35515.290262137685, 15851.432484559118, 4776.254865676745, -0.064, 0.966, 0.19, 192.0, 0.0, 0.0, 0.0, 0.0, 0.0, 0.0, 0.0, 0.0, 0.0, 1.700950938789602E9, 0.0, 2023-11-25 17:22:18.789
121.0, 34101.296556150504, 66949.75548383659, 7284.67938717358, -6799.3783115599535, 20723.95631360487, -35166.82656607945, 15828.253725558965, 4801.132357255502, -0.064, 0.966, 0.19, 192.0, 0.0, 0.0, 0.0, 0.0, 0.0, 0.0, 0.0, 0.0, 0.0, 1.700950938794588E9, 0.0, 2023-11-25 17:22:18.794
122.0, 34095.88743399232, 66949.57666988095, 7305.310047305828, -6780.781660173137, 20614.812745429605, -35463.88124989048, 15843.922298422134, 4767.381223127988, -0.064, 0.966, 0.19, 192.0, 0.0, 0.0, 0.0, 0.0, 0.0, 0.0, 0.0, 0.0, 0.0, 1.700950938797588E9, 0.0, 2023-11-25 17:22:18.797
123.0, 34128.342166941424, 66973.67185040377, 7307.4781665179935, -6769.516380967663, 20624.80397520113, -35465.579982469084, 15843.005876899468, 4777.439508132877, -0.064, 0.966, 0.19, 192.0, 0.0, 0.0, 0.0, 0.0, 0.0, 0.0, 0.0, 0.0, 0.0, 1.700950938800624E9, 0.0, 2023-11-25 17:22:18.800
124.0, 34173.67150469679, 67009.52404851008, 7331.215719129529, -6744.638889388906, 20642.730074254283, -35559.47966092583, 15854.204100871577, 4776.768955799217, -0.064, 0.966, 0.19, 192.0, 0.0, 0.0, 0.0, 0.0, 0.0, 0.0, 0.0, 0.0, 0.0, 1.700950938805669E9, 0.0, 2023-11-25 17:22:18.805
125.0, 34110.97486149965, 66947.43090241324, 7282.377157494683, -6799.043035393123, 20720.067110069645, -35209.96543287819, 15812.383986995697, 4793.7115780963395, -0.064, 0.966, 0.19, 192.0, 0.0, 0.0, 0.0, 0.0, 0.0, 0.0, 0.0, 0.0, 0.0, 1.700950938809625E9, 0.0, 2023-11-25 17:22:18.809
126.0, 34082.07405591894, 66927.8507742704, 7282.265398772407, -6804.698026740316, 20594.092678319535, -35469.26802030421, 15800.582265923294, 4733.071295389092, -0.064, 0.966, 0.19, 192.0, 0.0, 0.0, 0.0, 0.0, 0.0, 0.0, 0.0, 0.0, 0.0, 1.700950938813789E9, 0.0, 2023-11-25 17:22:18.813
127.0, 34114.104105723396, 66955.0528472725, 7290.669654687603, -6791.242276578221, 20606.296730792135, -35495.285450850184, 15809.32179800532, 4745.118885650502, -0.06, 0.972, 0.184, 192.0, 254.0, 32.0, 30.0, 96.0, 5.0, 192.0, 0.0, 0.0, 0.0, 1.700950938817753E9, 0.0, 2023-11-25 17:22:18.817
128.0, 34168.39649300533, 67007.69120546475, 7325.6724865046135, -6759.368688984953, 20617.60671348652, -35583.61954493756, 15843.452911788574, 4757.948786967849, -0.06, 0.972, 0.184, 192.0, 0.0, 0.0, 0.0, 0.0, 0.0, 0.0, 0.0, 0.0, 0.0, 1.700950938821739E9, 0.0, 2023-11-25 17:22:18.821
129.0, 34117.54627436951, 66959.07616127445, 7286.646340685647, -6802.5522592726065, 20714.47917395582, -35248.63395078587, 15820.363559766241, 4793.979799029804, -0.06, 0.972, 0.184, 192.0, 0.0, 0.0, 0.0, 0.0, 0.0, 0.0, 0.0, 0.0, 0.0, 1.70095093882473E9, 0.0, 2023-11-25 17:22:18.824
130.0, 34071.658143002765, 66924.60977132438, 7275.850448113733, -6819.360771102998, 20608.286036048656, -35391.81922576657, 15804.091489802777, 4744.247167616745, -0.06, 0.972, 0.184, 192.0, 0.0, 0.0, 0.0, 0.0, 0.0, 0.0, 0.0, 0.0, 0.0, 1.700950938828709E9, 0.0, 2023-11-25 17:22:18.828
131.0, 34097.4967595931, 66948.52613789155, 7285.618160440703, -6802.172279616867, 20609.627140715977, -35451.23016252877, 15816.742577164481, 4761.234493402779, -0.06, 0.972, 0.184, 192.0, 0.0, 0.0, 0.0, 0.0, 0.0, 0.0, 0.0, 0.0, 0.0, 1.700950938833716E9, 0.0, 2023-11-25 17:22:18.833
132.0, 34141.66380663679, 66986.68056567677, 7302.091396104264, -6779.641721205917, 20605.3132540361, -35484.84718618956, 15827.627876714216, 4754.260749132723, -0.06, 0.972, 0.184, 192.0, 0.0, 0.0, 0.0, 0.0, 0.0, 0.0, 0.0, 0.0, 0.0, 1.700950938838177E9, 0.0, 2023-11-25 17:22:18.838
133.0, 34105.789256786025, 66946.51448089058, 7275.336357991262, -6811.314143099087, 20701.246941238278, -35222.63887198435, 15812.831021884802, 4783.295665180167, -0.06, 0.972, 0.184, 192.0, 0.0, 0.0, 0.0, 0.0, 0.0, 0.0, 0.0, 0.0, 0.0, 1.7009509388422E9, 0.0, 2023-11-25 17:22:18.842
134.0, 34046.64654095728, 66896.82655296642, 7249.587148378748, -6845.869940026992, 20622.926428666884, -35241.816668727006, 15782.0750215143, 4728.8468156870385, -0.06, 0.972, 0.184, 192.0, 0.0, 0.0, 0.0, 0.0, 0.0, 0.0, 0.0, 0.0, 0.0, 1.70095093884618E9, 0.0, 2023-11-25 17:22:18.846
135.0, 34071.7922534695, 66923.53688759053, 7268.899055588134, -6820.411303092397, 20602.22871330127, -35395.462560112785, 15797.296559488364, 4732.89248143345, -0.06, 0.972, 0.184, 192.0, 0.0, 0.0, 0.0, 0.0, 0.0, 0.0, 0.0, 0.0, 0.0, 1.700950938849773E9, 0.0, 2023-11-25 17:22:18.849
136.0, 34115.33345166844, 66961.33368746444, 7282.48891621696, -6803.513384284185, 20598.98771035525, -35401.855159027, 15800.89519034567, 4726.589289497053, -0.06, 0.972, 0.184, 192.0, 0.0, 0.0, 0.0, 0.0, 0.0, 0.0, 0.0, 0.0, 0.0, 1.700950938853855E9, 0.0, 2023-11-25 17:22:18.853
137.0, 34109.03025973204, 66947.34149543542, 7272.430631212072, -6817.237355379743, 20673.508426369244, -35290.63287861739, 15795.687233887582, 4746.057658917625, -0.056, 0.97, 0.18, 192.0, 254.0, 64.0, 30.0, 80.0, 5.0, 160.0, 0.0, 0.0, 0.0, 1.700950938856838E9, 0.0, 2023-11-25 17:22:18.856
138.0, 34051.1392415928, 66898.01119542256, 7245.742648332435, -6853.916568030902, 20629.274324092188, -35248.03045368558, 15765.758248061926, 4711.434806756354, -0.056, 0.97, 0.18, 192.0, 0.0, 0.0, 0.0, 0.0, 0.0, 0.0, 0.0, 0.0, 0.0, 1.700950938860793E9, 0.0, 2023-11-25 17:22:18.860
139.0, 34062.35981730936, 66912.60688455187, 7264.316947974796, -6832.347134631531, 20562.084980259537, -35524.163904686444, 15783.192608737065, 4703.589344452542, -0.056, 0.97, 0.18, 192.0, 0.0, 0.0, 0.0, 0.0, 0.0, 0.0, 0.0, 0.0, 0.0, 1.700950938865796E9, 0.0, 2023-11-25 17:22:18.865
140.0, 34107.666803320266, 66956.61746938438, 7277.4821254589715, -6810.800052976615, 20573.68553563184, -35475.54886049615, 15798.861181600236, 4725.024667385182, -0.056, 0.97, 0.18, 192.0, 0.0, 0.0, 0.0, 0.0, 0.0, 0.0, 0.0, 0.0, 0.0, 1.700950938869876E9, 0.0, 2023-11-25 17:22:18.869
141.0, 34116.78631505803, 66962.49597817611, 7281.483087716471, -6809.280134353654, 20631.911829937915, -35434.35459546502, 15819.871821388224, 4760.318071880111, -0.056, 0.97, 0.18, 192.0, 0.0, 0.0, 0.0, 0.0, 0.0, 0.0, 0.0, 0.0, 0.0, 1.700950938873839E9, 0.0, 2023-11-25 17:22:18.873
142.0, 34057.97887539612, 66911.33283511792, 7252.045840268832, -6846.071105727089, 20640.22667887529, -35257.664055545814, 15804.829097369802, 4764.877827748994, -0.056, 0.97, 0.18, 192.0, 0.0, 0.0, 0.0, 0.0, 0.0, 0.0, 0.0, 0.0, 0.0, 1.700950938877996E9, 0.0, 2023-11-25 17:22:18.877
143.0, 34058.090634118395, 66919.62533231084, 7269.681366644069, -6827.586213062551, 20551.043218498617, -35550.53896314371, 15818.620123698727, 4744.425981572388, -0.056, 0.97, 0.18, 192.0, 0.0, 0.0, 0.0, 0.0, 0.0, 0.0, 0.0, 0.0, 0.0, 1.700950938881875E9, 0.0, 2023-11-25 17:22:18.881
144.0, 34098.23436716013, 66958.51736766308, 7279.20320978203, -6812.342323344032, 20577.395925211422, -35443.18353452486, 15827.449062758573, 4766.308339394133, -0.056, 0.97, 0.18, 192.0, 0.0, 0.0, 0.0, 0.0, 0.0, 0.0, 0.0, 0.0, 0.0, 1.700950938884942E9, 0.0, 2023-11-25 17:22:18.884
145.0, 34122.41895466077, 66978.81275162849, 7291.653131443636, -6804.742730229227, 20602.45223074582, -35485.8753664345, 15838.624934986226, 4772.835048775083, -0.056, 0.97, 0.18, 192.0, 0.0, 0.0, 0.0, 0.0, 0.0, 0.0, 0.0, 0.0, 0.0, 1.700950938888982E9, 0.0, 2023-11-25 17:22:18.888
146.0, 34068.81947145695, 66930.6447423273, 7260.606558395214, -6842.4054196364195, 20644.831138233083, -35296.690201364785, 15811.55697245085, 4774.2208569313125, -0.056, 0.97, 0.18, 192.0, 0.0, 0.0, 0.0, 0.0, 0.0, 0.0, 0.0, 0.0, 0.0, 1.700950938893917E9, 0.0, 2023-11-25 17:22:18.893
147.0, 34067.388959811804, 66936.7020650747, 7286.869858130201, -6822.244146137732, 20532.98300897873, -35677.116891994105, 15827.1361383362, 4737.1840163688685, -0.058, 0.972, 0.188, 192.0, 254.0, 48.0, 30.0, 96.0, 5.0, 224.0, 0.0, 0.0, 0.0, 1.7009509388979E9, 0.0, 2023-11-25 17:22:18.897
148.0, 34108.09148646492, 66974.45416145971, 7300.370311781206, -6803.580439517551, 20560.609765125486, -35653.33463589366, 15837.28383031891, 4752.98669969877, -0.058, 0.972, 0.188, 192.0, 0.0, 0.0, 0.0, 0.0, 0.0, 0.0, 0.0, 0.0, 0.0, 1.70095093890192E9, 0.0, 2023-11-25 17:22:18.901
149.0, 34146.402376461316, 67007.04300487555, 7323.191442870074, -6783.732090441238, 20568.209358240292, -35794.910585273574, 15854.494673549496, 4745.722382750796, -0.058, 0.972, 0.188, 192.0, 0.0, 0.0, 0.0, 0.0, 0.0, 0.0, 0.0, 0.0, 0.0, 1.700950938905962E9, 0.0, 2023-11-25 17:22:18.905
150.0, 34096.55798632598, 66951.92360304875, 7282.175991794586, -6828.368524118487, 20667.652269321952, -35439.651958900926, 15826.689103447094, 4776.120755210013, -0.058, 0.972, 0.188, 192.0, 0.0, 0.0, 0.0, 0.0, 0.0, 0.0, 0.0, 0.0, 0.0, 1.700950938908992E9, 0.0, 2023-11-25 17:22:18.908
151.0, 34050.491041003595, 66917.83719275442, 7259.488971172449, -6851.346117418542, 20570.533939663645, -35493.184386871384, 15798.771774622415, 4731.909004677415, -0.058, 0.972, 0.188, 192.0, 0.0, 0.0, 0.0, 0.0, 0.0, 0.0, 0.0, 0.0, 0.0, 1.700950938912985E9, 0.0, 2023-11-25 17:22:18.912
152.0, 34067.321904578435, 66935.71858831866, 7249.631851867659, -6850.519102873695, 20594.02562308617, -35378.251716882194, 15789.384041951185, 4744.895368205949, -0.058, 0.972, 0.188, 192.0, 0.0, 0.0, 0.0, 0.0, 0.0, 0.0, 0.0, 0.0, 0.0, 1.700950938917295E9, 0.0, 2023-11-25 17:22:18.917
153.0, 34087.55023331049, 66955.23166122814, 7247.642546611136, -6848.596852850539, 20600.731146422764, -35321.70180341027, 15786.79123959437, 4737.675754746885, -0.058, 0.972, 0.188, 192.0, 0.0, 0.0, 0.0, 0.0, 0.0, 0.0, 0.0, 0.0, 0.0, 1.700950938921028E9, 0.0, 2023-11-25 17:22:18.921
154.0, 34025.792363380475, 66894.94900643219, 7192.098461639698, -6905.280876789198, 20702.364528461043, -34900.46082740556, 15747.988611219957, 4760.206313157834, -0.058, 0.972, 0.188, 192.0, 0.0, 0.0, 0.0, 0.0, 0.0, 0.0, 0.0, 0.0, 0.0, 1.700950938927015E9, 0.0, 2023-11-25 17:22:18.927
155.0, 33964.23565915056, 66841.81890986192, 7164.538760726305, -6937.288574849198, 20589.73408815075, -35002.20596816611, 15716.271485837877, 4694.670998414874, -0.058, 0.972, 0.188, 192.0, 0.0, 0.0, 0.0, 0.0, 0.0, 0.0, 0.0, 0.0, 0.0, 1.70095093893003E9, 0.0, 2023-11-25 17:22:18.930
156.0, 33977.37848489028, 66853.24065127858, 7169.411441017562, -6924.548080509673, 20577.73120137825, -35076.7266841801, 15722.239401607443, 4703.276420030167, -0.058, 0.972, 0.188, 192.0, 0.0, 0.0, 0.0, 0.0, 0.0, 0.0, 0.0, 0.0, 0.0, 1.700950938934025E9, 0.0, 2023-11-25 17:22:18.934
157.0, 34016.94107257618, 66888.46700054014, 7187.941037171011, -6907.113719834533, 20562.956698293292, -35155.471879896155, 15732.141224401144, 4690.848850113017, -0.056, 0.966, 0.19, 192.0, 254.0, 64.0, 30.0, 48.0, 5.0, 240.0, 0.0, 0.0, 0.0, 1.700950938937309E9, 0.0, 2023-11-25 17:22:18.937
158.0, 34001.36190669083, 66867.76928517452, 7180.743775456403, -6920.345952552075, 20642.12657715399, -35062.756843895535, 15731.291858111843, 4718.319144048589, -0.056, 0.966, 0.19, 192.0, 0.0, 0.0, 0.0, 0.0, 0.0, 0.0, 0.0, 0.0, 0.0, 1.700950938941043E9, 0.0, 2023-11-25 17:22:18.941
159.0, 33958.24539163654, 66835.64982839226, 7175.334653298218, -6939.27788010572, 20544.69532307331, -35290.07408500601, 15717.97021841648, 4663.602073621997, -0.056, 0.966, 0.19, 192.0, 0.0, 0.0, 0.0, 0.0, 0.0, 0.0, 0.0, 0.0, 0.0, 1.700950938945065E9, 0.0, 2023-11-25 17:22:18.945
160.0, 33998.59029037837, 66874.43010502221, 7213.980819461444, -6896.31782726262, 20511.01124417916, -35590.928565374445, 15754.247099667444, 4677.862486584483, -0.056, 0.966, 0.19, 192.0, 0.0, 0.0, 0.0, 0.0, 0.0, 0.0, 0.0, 0.0, 0.0, 1.700950938949143E9, 0.0, 2023-11-25 17:22:18.949
161.0, 34062.49392777609, 66931.6952743167, 7249.944776290033, -6855.123562231489, 20515.34748260349, -35639.74477526484, 15780.242178468965, 4693.240486769734, -0.056, 0.966, 0.19, 192.0, 0.0, 0.0, 0.0, 0.0, 0.0, 0.0, 0.0, 0.0, 0.0, 1.700950938954136E9, 0.0, 2023-11-25 17:22:18.954
162.0, 34083.70573326418, 66940.68067558773, 7268.452020699027, -6841.399591135931, 20600.21705630029, -35618.04123139873, 15803.89032410268, 4730.41143779891, -0.056, 0.966, 0.19, 192.0, 0.0, 0.0, 0.0, 0.0, 0.0, 0.0, 0.0, 0.0, 0.0, 1.700950938958173E9, 0.0, 2023-11-25 17:22:18.958
163.0, 34023.33367149039, 66887.01413715055, 7233.851520282212, -6882.817373611614, 20591.32106200708, -35468.865688904014, 15779.728088346494, 4724.018838884693, -0.056, 0.966, 0.19, 192.0, 0.0, 0.0, 0.0, 0.0, 0.0, 0.0, 0.0, 0.0, 0.0, 1.700950938962134E9, 0.0, 2023-11-25 17:22:18.962
164.0, 34005.742848604066, 66885.69538422769, 7222.09450269872, -6885.3207689906085, 20569.103428018505, -35388.131187931445, 15779.683384857582, 4742.324917593589, -0.056, 0.966, 0.19, 192.0, 0.0, 0.0, 0.0, 0.0, 0.0, 0.0, 0.0, 0.0, 0.0, 1.700950938965824E9, 0.0, 2023-11-25 17:22:18.965
165.0, 33995.036363009975, 66883.59432024889, 7179.782650444824, -6915.674437960915, 20612.778736684173, -34873.884603248196, 15746.044009452346, 4765.257807404734, -0.056, 0.966, 0.19, 192.0, 0.0, 0.0, 0.0, 0.0, 0.0, 0.0, 0.0, 0.0, 0.0, 1.700950938969267E9, 0.0, 2023-11-25 17:22:18.969
166.0, 33962.93925797215, 66847.56330818693, 7141.449408703972, -6956.801647758681, 20665.99824023226, -34572.493681012835, 15715.77974745986, 4767.045946961159, -0.056, 0.966, 0.19, 192.0, 0.0, 0.0, 0.0, 0.0, 0.0, 0.0, 0.0, 0.0, 0.0, 1.700950938973337E9, 0.0, 2023-11-25 17:22:18.973
167.0, 33884.61874540076, 66768.19226362613, 7090.152155179043, -7023.745122402325, 20626.770928713195, -34532.573465415655, 15665.689488135517, 4700.348341506522, -0.054, 0.976, 0.194, 192.0, 254.0, 80.0, 30.0, 128.0, 6.0, 16.0, 0.0, 0.0, 0.0, 1.700950938977192E9, 0.0, 2023-11-25 17:22:18.977
168.0, 33914.34656552631, 66793.42738311617, 7142.522292437827, -6979.71218582537, 20474.95788037275, -35309.676564893314, 15708.403671789609, 4634.388343618911, -0.054, 0.976, 0.194, 192.0, 0.0, 0.0, 0.0, 0.0, 0.0, 0.0, 0.0, 0.0, 0.0, 1.700950938982285E9, 0.0, 2023-11-25 17:22:18.982
169.0, 33982.76525530401, 66855.05114257945, 7185.035310391821, -6928.973725911824, 20472.00745010465, -35590.99562060781, 15747.675686797582, 4648.067611225559, -0.054, 0.976, 0.194, 192.0, 0.0, 0.0, 0.0, 0.0, 0.0, 0.0, 0.0, 0.0, 0.0, 1.700950938986248E9, 0.0, 2023-11-25 17:22:18.986
170.0, 34026.440563969685, 66892.98205292011, 7208.415235092072, -6895.759033651238, 20538.436834625823, -35600.495112001314, 15782.298538958854, 4693.329893747556, -0.054, 0.976, 0.194, 192.0, 0.0, 0.0, 0.0, 0.0, 0.0, 0.0, 0.0, 0.0, 0.0, 1.700950938990262E9, 0.0, 2023-11-25 17:22:18.990
171.0, 33957.977170703074, 66828.94430505566, 7146.053868061766, -6954.611176802061, 20626.569763013096, -35097.04441988998, 15743.697076284538, 4719.526138249175, -0.054, 0.976, 0.194, 192.0, 0.0, 0.0, 0.0, 0.0, 0.0, 0.0, 0.0, 0.0, 0.0, 1.700950938993245E9, 0.0, 2023-11-25 17:22:18.993
172.0, 33940.587513516846, 66822.4175956747, 7152.245301275886, -6950.632566289016, 20503.21048536426, -35400.62581308196, 15744.524090829384, 4663.445611410811, -0.054, 0.976, 0.194, 192.0, 0.0, 0.0, 0.0, 0.0, 0.0, 0.0, 0.0, 0.0, 0.0, 1.700950938997256E9, 0.0, 2023-11-25 17:22:18.997
173.0, 33982.89936577075, 66859.6332501928, 7162.236531047408, -6925.375095054519, 20528.713825787763, -35377.2011848928, 15758.583338091772, 4682.511649431187, -0.054, 0.976, 0.194, 192.0, 0.0, 0.0, 0.0, 0.0, 0.0, 0.0, 0.0, 0.0, 0.0, 1.700950939002275E9, 0.0, 2023-11-25 17:22:19.002
174.0, 34034.196619295675, 66903.75559374757, 7189.058624393777, -6891.579257438095, 20567.427047184356, -35339.22557106323, 15785.628948882693, 4703.008199096704, -0.054, 0.976, 0.194, 192.0, 0.0, 0.0, 0.0, 0.0, 0.0, 0.0, 0.0, 0.0, 0.0, 1.700950939006354E9, 0.0, 2023-11-25 17:22:19.006
175.0, 33979.85952852482, 66844.88109885229, 7142.857568604657, -6943.3682493410415, 20644.272344621702, -35080.302963292954, 15752.727181044482, 4706.338609020545, -0.054, 0.976, 0.194, 192.0, 0.0, 0.0, 0.0, 0.0, 0.0, 0.0, 0.0, 0.0, 0.0, 1.700950939010461E9, 0.0, 2023-11-25 17:22:19.010
176.0, 33943.873219951776, 66817.54491538345, 7131.279364976807, -6957.583958814616, 20526.38924436441, -35344.85821066597, 15737.617401792695, 4643.999593734693, -0.054, 0.976, 0.194, 192.0, 0.0, 0.0, 0.0, 0.0, 0.0, 0.0, 0.0, 0.0, 0.0, 1.700950939013351E9, 0.0, 2023-11-25 17:22:19.013
177.0, 33974.58451683337, 66843.13766278478, 7135.369734212129, -6940.70839175086, 20551.26673594317, -35282.85447154695, 15748.547404831339, 4665.5690271340645, -0.056, 0.976, 0.188, 192.0, 254.0, 64.0, 30.0, 128.0, 5.0, 224.0, 0.0, 0.0, 0.0, 1.700950939019422E9, 0.0, 2023-11-25 17:22:19.019
178.0, 34017.477514443104, 66879.19102659119, 7149.451333218973, -6923.095217120078, 20551.154977220893, -35301.47347467822, 15762.316079415808, 4658.282358441635, -0.056, 0.976, 0.188, 192.0, 0.0, 0.0, 0.0, 0.0, 0.0, 0.0, 0.0, 0.0, 0.0, 1.70095093902236E9, 0.0, 2023-11-25 17:22:19.022
179.0, 33988.53200537348, 66840.16488077222, 7121.310486949741, -6954.499418079784, 20644.831138233083, -35101.93945192569, 15752.481311855474, 4684.679768643352, -0.056, 0.976, 0.188, 192.0, 0.0, 0.0, 0.0, 0.0, 0.0, 0.0, 0.0, 0.0, 0.0, 1.700950939026386E9, 0.0, 2023-11-25 17:22:19.026
180.0, 33953.21624913409, 66811.88992403627, 7113.509728134839, -6965.898807751991, 20549.83622429803, -35314.39278297339, 15749.016791464901, 4639.372782632445, -0.056, 0.976, 0.188, 192.0, 0.0, 0.0, 0.0, 0.0, 0.0, 0.0, 0.0, 0.0, 0.0, 1.700950939029339E9, 0.0, 2023-11-25 17:22:19.029
181.0, 33975.63504882277, 66836.56624991492, 7117.041303758777, -6950.52080756674, 20548.40571265289, -35360.72794922924, 15753.062457211312, 4649.58752984852, -0.056, 0.976, 0.188, 192.0, 0.0, 0.0, 0.0, 0.0, 0.0, 0.0, 0.0, 0.0, 0.0, 1.700950939033354E9, 0.0, 2023-11-25 17:22:19.033
182.0, 34016.44933419816, 66872.30668929896, 7125.758484096347, -6934.427551558919, 20548.226898697245, -35316.9855853302, 15754.135340945166, 4642.390268133911, -0.056, 0.976, 0.188, 192.0, 0.0, 0.0, 0.0, 0.0, 0.0, 0.0, 0.0, 0.0, 0.0, 1.700950939039405E9, 0.0, 2023-11-25 17:22:19.039
183.0, 34007.93331956069, 66850.1784622882, 7116.191937469475, -6946.273976120231, 20644.18293764388, -35173.12975801584, 15760.796160792848, 4678.801259851606, -0.056, 0.976, 0.188, 192.0, 0.0, 0.0, 0.0, 0.0, 0.0, 0.0, 0.0, 0.0, 0.0, 1.700950939043425E9, 0.0, 2023-11-25 17:22:19.043
184.0, 33957.23956313605, 66804.44679313264, 7097.818803527213, -6972.447868877396, 20580.21224501279, -35267.45411961724, 15750.044971709845, 4648.738163559218, -0.056, 0.976, 0.188, 192.0, 0.0, 0.0, 0.0, 0.0, 0.0, 0.0, 0.0, 0.0, 0.0, 1.70095093904645E9, 0.0, 2023-11-25 17:22:19.046
185.0, 33958.424205592186, 66809.83356354637, 7096.522402348805, -6962.277825150231, 20539.241497426214, -35401.2069584378, 15752.570718833294, 4649.408715892878, -0.056, 0.976, 0.188, 192.0, 0.0, 0.0, 0.0, 0.0, 0.0, 0.0, 0.0, 0.0, 0.0, 1.70095093904949E9, 0.0, 2023-11-25 17:22:19.049
186.0, 33991.616546108315, 66842.13183428429, 7099.003445983344, -6950.878435478025, 20541.40961663838, -35284.48614889218, 15754.671782812095, 4654.460210139777, -0.06, 0.97, 0.192, 192.0, 254.0, 32.0, 30.0, 80.0, 6.0, 0.0, 0.0, 0.0, 0.0, 1.700950939053513E9, 0.0, 2023-11-25 17:22:19.053
187.0, 33985.022781494, 66824.42925267569, 7086.30765513273, -6970.212694431865, 20605.380309269465, -35208.91490088879, 15746.491044341452, 4666.910131801383, -0.06, 0.97, 0.192, 192.0, 0.0, 0.0, 0.0, 0.0, 0.0, 0.0, 0.0, 0.0, 0.0, 1.700950939057523E9, 0.0, 2023-11-25 17:22:19.057
188.0, 33920.98503362954, 66760.27974608896, 7044.934576145956, -7022.3816659905515, 20568.29876521811, -35224.02468014058, 15705.430889777052, 4620.351448100978, -0.06, 0.97, 0.192, 192.0, 0.0, 0.0, 0.0, 0.0, 0.0, 0.0, 0.0, 0.0, 0.0, 1.700950939061528E9, 0.0, 2023-11-25 17:22:19.061
189.0, 33932.49618202403, 66771.94735669463, 7061.430163553973, -6999.493479668317, 20504.57394177603, -35473.693665706356, 15720.83124170676, 4616.506948054665, -0.06, 0.97, 0.192, 192.0, 0.0, 0.0, 0.0, 0.0, 0.0, 0.0, 0.0, 0.0, 0.0, 1.700950939065543E9, 0.0, 2023-11-25 17:22:19.065
190.0, 33965.15208067323, 66800.82581053088, 7059.574968764183, -6988.854049307591, 20517.739119260208, -35320.15953304285, 15719.467785294984, 4634.120122685447, -0.06, 0.97, 0.192, 192.0, 0.0, 0.0, 0.0, 0.0, 0.0, 0.0, 0.0, 0.0, 0.0, 1.700950939069522E9, 0.0, 2023-11-25 17:22:19.069
191.0, 33987.23560419507, 66811.73346182508, 7070.192047380454, -6983.422575404951, 20565.25892797219, -35316.739716141194, 15729.25784936641, 4648.11231471447, -0.06, 0.97, 0.192, 192.0, 0.0, 0.0, 0.0, 0.0, 0.0, 0.0, 0.0, 0.0, 0.0, 1.700950939073544E9, 0.0, 2023-11-25 17:22:19.073
192.0, 33929.56810350038, 66751.13788260674, 7034.943346374434, -7031.054142839211, 20575.987765310736, -35246.24231412915, 15701.429927519552, 4633.136645929414, -0.06, 0.97, 0.192, 192.0, 0.0, 0.0, 0.0, 0.0, 0.0, 0.0, 0.0, 0.0, 0.0, 1.700950939076568E9, 0.0, 2023-11-25 17:22:19.076
193.0, 33917.49816149451, 66745.57229823737, 7041.268890055286, -7022.180500290454, 20472.76740941613, -35563.21240224986, 15703.910971154091, 4606.739235727696, -0.06, 0.97, 0.192, 192.0, 0.0, 0.0, 0.0, 0.0, 0.0, 0.0, 0.0, 0.0, 0.0, 1.700950939080678E9, 0.0, 2023-11-25 17:22:19.080
194.0, 33955.94316195764, 66785.24664464554, 7049.695497714937, -7000.991046546823, 20508.396090077887, -35383.370266362464, 15708.873058423169, 4638.232843665224, -0.06, 0.97, 0.192, 192.0, 0.0, 0.0, 0.0, 0.0, 0.0, 0.0, 0.0, 0.0, 0.0, 1.700950939085614E9, 0.0, 2023-11-25 17:22:19.085
195.0, 33987.43676989517, 66809.45358389063, 7068.090983401655, -6987.177668473443, 20541.901355016395, -35383.5490803181, 15723.535802785851, 4653.633195594931, -0.06, 0.97, 0.192, 192.0, 0.0, 0.0, 0.0, 0.0, 0.0, 0.0, 0.0, 0.0, 0.0, 1.700950939089632E9, 0.0, 2023-11-25 17:22:19.089
196.0, 33927.444687777126, 66745.63935347073, 7027.410808492996, -7041.693573199937, 20586.69425090483, -35240.58732278196, 15686.074279078757, 4649.766343804163, -0.06, 0.962, 0.194, 192.0, 254.0, 32.0, 30.0, 16.0, 6.0, 16.0, 0.0, 0.0, 0.0, 1.700950939093592E9, 0.0, 2023-11-25 17:22:19.093
197.0, 33911.351431769304, 66738.46444350058, 7036.329154530663, -7033.91516612949, 20478.780028674606, -35540.100698483075, 15687.638901190629, 4615.925802698827, -0.06, 0.962, 0.194, 192.0, 0.0, 0.0, 0.0, 0.0, 0.0, 0.0, 0.0, 0.0, 0.0, 1.700950939097606E9, 0.0, 2023-11-25 17:22:19.097
198.0, 33939.604036760815, 66770.40508632721, 7037.334983031152, -7018.581869433149, 20509.71484300075, -35342.71244319826, 15684.53200871134, 4647.911149014371, -0.06, 0.962, 0.194, 192.0, 0.0, 0.0, 0.0, 0.0, 0.0, 0.0, 0.0, 0.0, 0.0, 1.700950939103635E9, 0.0, 2023-11-25 17:22:19.103
199.0, 33974.62922032228, 66801.96574949811, 7054.746991961836, -7002.667427380971, 20520.175459405837, -35308.022535803626, 15691.550456470306, 4650.34748916, -0.06, 0.962, 0.194, 192.0, 0.0, 0.0, 0.0, 0.0, 0.0, 0.0, 0.0, 0.0, 0.0, 1.700950939106843E9, 0.0, 2023-11-25 17:22:19.106
200.0, 33937.59237975984, 66753.46246403009, 7027.969602104378, -7043.794637178736, 20598.764192910694, -35140.76443204456, 15667.879959092137, 4660.629291609442, -0.06, 0.962, 0.194, 192.0, 0.0, 0.0, 0.0, 0.0, 0.0, 0.0, 0.0, 0.0, 0.0, 1.700950939110671E9, 0.0, 2023-11-25 17:22:19.110
201.0, 33907.88691137873, 66733.61411495377, 7030.204776549909, -7048.5555587477165, 20488.681851468307, -35414.57330162207, 15667.522331180851, 4618.071570166537, -0.06, 0.962, 0.194, 192.0, 0.0, 0.0, 0.0, 0.0, 0.0, 0.0, 0.0, 0.0, 0.0, 1.700950939115729E9, 0.0, 2023-11-25 17:22:19.115
202.0, 33917.20758881659, 66750.89201341773, 7019.073607811166, -7046.007459879811, 20500.66238649635, -35303.97687005721, 15661.53206366683, 4634.321288385545, -0.06, 0.962, 0.194, 192.0, 0.0, 0.0, 0.0, 0.0, 0.0, 0.0, 0.0, 0.0, 0.0, 1.70095093911873E9, 0.0, 2023-11-25 17:22:19.118
203.0, 33956.47960382457, 66787.75004002453, 7036.284451041753, -7022.694590412926, 20507.591427277497, -35234.88762794586, 15675.256034762388, 4644.781904790629, -0.06, 0.962, 0.194, 192.0, 0.0, 0.0, 0.0, 0.0, 0.0, 0.0, 0.0, 0.0, 0.0, 1.700950939122795E9, 0.0, 2023-11-25 17:22:19.122
204.0, 33932.13855411274, 66748.34391454983, 7021.062913067689, -7050.030773881766, 20600.909960378405, -35098.92196642423, 15663.76723811236, 4662.149210232403, -0.06, 0.962, 0.194, 192.0, 0.0, 0.0, 0.0, 0.0, 0.0, 0.0, 0.0, 0.0, 0.0, 1.700950939127705E9, 0.0, 2023-11-25 17:22:19.127
205.0, 33888.485597191524, 66709.07189954184, 7011.652828652004, -7068.023928168289, 20507.032633666116, -35322.08178306601, 15649.864453061158, 4612.148357885881, -0.06, 0.962, 0.194, 192.0, 0.0, 0.0, 0.0, 0.0, 0.0, 0.0, 0.0, 0.0, 0.0, 1.700950939131011E9, 0.0, 2023-11-25 17:22:19.131
206.0, 33914.011289359485, 66740.76667317947, 7023.499253213317, -7041.090076099644, 20511.01124417916, -35289.71645709473, 15664.013107301369, 4640.803294277584, -0.058, 0.968, 0.194, 192.0, 254.0, 48.0, 30.0, 64.0, 6.0, 16.0, 0.0, 0.0, 0.0, 1.700950939133793E9, 0.0, 2023-11-25 17:22:19.133
207.0, 33949.8634874658, 66782.78795275545, 7034.049276596222, -7024.616840436082, 20522.50004082919, -35122.391298102295, 15667.321165480753, 4650.973338004749, -0.058, 0.968, 0.194, 192.0, 0.0, 0.0, 0.0, 0.0, 0.0, 0.0, 0.0, 0.0, 0.0, 1.700950939136702E9, 0.0, 2023-11-25 17:22:19.136
208.0, 33923.06374586389, 66749.43915002813, 7012.81511936368, -7057.898587930034, 20598.49597197723, -34992.75118026152, 15653.574842640739, 4660.271663698157, -0.058, 0.968, 0.194, 192.0, 0.0, 0.0, 0.0, 0.0, 0.0, 0.0, 0.0, 0.0, 0.0, 1.700950939140776E9, 0.0, 2023-11-25 17:22:19.140
209.0, 33874.716922607055, 66705.94265531811, 6997.303008711697, -7085.4806405878835, 20543.510680617175, -35094.09398962188, 15639.42618840053, 4627.235785393213, -0.058, 0.968, 0.194, 192.0, 0.0, 0.0, 0.0, 0.0, 0.0, 0.0, 0.0, 0.0, 0.0, 1.700950939144933E9, 0.0, 2023-11-25 17:22:19.144
210.0, 33882.8976610777, 66723.51112645997, 7003.270924481264, -7067.375727579085, 20514.788688992106, -35148.38637690382, 15650.155025739077, 4641.719715800252, -0.058, 0.968, 0.194, 192.0, 0.0, 0.0, 0.0, 0.0, 0.0, 0.0, 0.0, 0.0, 0.0, 1.700950939149756E9, 0.0, 2023-11-25 17:22:19.149
211.0, 33912.78194341445, 66761.59849901182, 7003.203869247898, -7053.763515205803, 20530.569020577554, -34899.164426227144, 15651.607889128672, 4658.662338097374, -0.058, 0.968, 0.194, 192.0, 0.0, 0.0, 0.0, 0.0, 0.0, 0.0, 0.0, 0.0, 0.0, 1.700950939153792E9, 0.0, 2023-11-25 17:22:19.153
212.0, 33913.18427481464, 66755.29530707542, 6999.180555245943, -7063.307710088219, 20600.060594089104, -34795.65349765462, 15657.24052873141, 4677.214285995279, -0.058, 0.968, 0.194, 192.0, 0.0, 0.0, 0.0, 0.0, 0.0, 0.0, 0.0, 0.0, 0.0, 1.700950939156986E9, 0.0, 2023-11-25 17:22:19.156
213.0, 33851.91814326264, 66697.18077149162, 6966.6140635745605, -7107.161832709531, 20579.765210123685, -34814.026631596884, 15628.786758039805, 4642.479675111732, -0.058, 0.968, 0.194, 192.0, 0.0, 0.0, 0.0, 0.0, 0.0, 0.0, 0.0, 0.0, 0.0, 1.700950939160829E9, 0.0, 2023-11-25 17:22:19.160
214.0, 33848.721843805535, 66704.53449541742, 6977.85699103558, -7088.006387711333, 20518.700244271786, -34981.93293594515, 15639.716761078449, 4637.20466342028, -0.058, 0.968, 0.194, 192.0, 0.0, 0.0, 0.0, 0.0, 0.0, 0.0, 0.0, 0.0, 0.0, 1.700950939164878E9, 0.0, 2023-11-25 17:22:19.164
215.0, 33874.0463702734, 66737.01158011098, 6975.845334034602, -7074.550637549239, 20543.600087594998, -34698.4904645074, 15629.814938284748, 4656.605977607486, -0.058, 0.968, 0.194, 192.0, 0.0, 0.0, 0.0, 0.0, 0.0, 0.0, 0.0, 0.0, 0.0, 1.700950939171104E9, 0.0, 2023-11-25 17:22:19.171
216.0, 33896.73339089553, 66749.64031572823, 6990.038691763722, -7066.034622911767, 20594.919692864383, -34637.82783005569, 15639.493243633897, 4671.82751558155, -0.056, 0.97, 0.19, 192.0, 254.0, 64.0, 30.0, 80.0, 5.0, 240.0, 0.0, 0.0, 0.0, 1.700950939174575E9, 0.0, 2023-11-25 17:22:19.174
217.0, 33837.948302978075, 66684.17205621864, 6953.895920979491, -7116.102530491654, 20610.118879093992, -34617.26422515681, 15609.363092108142, 4647.3747071474445, -0.056, 0.97, 0.19, 192.0, 0.0, 0.0, 0.0, 0.0, 0.0, 0.0, 0.0, 0.0, 0.0, 1.700950939178029E9, 0.0, 2023-11-25 17:22:19.178
218.0, 33824.246683626974, 66681.98158526201, 6957.069868692144, -7107.385350154084, 20508.35138658898, -34900.796103572386, 15609.027815941314, 4616.663410265853, -0.056, 0.97, 0.19, 192.0, 0.0, 0.0, 0.0, 0.0, 0.0, 0.0, 0.0, 0.0, 0.0, 1.700950939181997E9, 0.0, 2023-11-25 17:22:19.181
219.0, 33846.28550365991, 66711.46353619857, 6944.932871452913, -7099.964570994923, 20538.079206714538, -34632.01637649732, 15597.673129758017, 4641.876178011439, -0.056, 0.97, 0.19, 192.0, 0.0, 0.0, 0.0, 0.0, 0.0, 0.0, 0.0, 0.0, 0.0, 1.700950939184852E9, 0.0, 2023-11-25 17:22:19.184
220.0, 33876.72857960803, 66734.68699868763, 6960.310871638164, -7085.570047565705, 20565.571852394565, -34581.2108613504, 15611.106528175656, 4657.611806107975, -0.056, 0.97, 0.19, 192.0, 0.0, 0.0, 0.0, 0.0, 0.0, 0.0, 0.0, 0.0, 0.0, 1.70095093918894E9, 0.0, 2023-11-25 17:22:19.188
221.0, 33841.45752685756, 66685.98254751951, 6938.428513816419, -7123.880937562101, 20622.725262966786, -34518.02247977525, 15595.549714034763, 4660.562236376076, -0.056, 0.97, 0.19, 192.0, 0.0, 0.0, 0.0, 0.0, 0.0, 0.0, 0.0, 0.0, 0.0, 1.700950939196973E9, 0.0, 2023-11-25 17:22:19.196
222.0, 33820.44688706957, 66669.82223627833, 6941.893034206991, -7122.36101893914, 20507.881999955418, -34844.33559707828, 15591.146420377067, 4618.67506726683, -0.056, 0.97, 0.19, 192.0, 0.0, 0.0, 0.0, 0.0, 0.0, 0.0, 0.0, 0.0, 0.0, 1.70095093920095E9, 0.0, 2023-11-25 17:22:19.200
223.0, 33846.53137284891, 66701.98639654952, 6939.859025461558, -7108.100605976654, 20538.92857300384, -34629.244760184854, 15582.764516206327, 4643.4408001233105, -0.056, 0.97, 0.19, 192.0, 0.0, 0.0, 0.0, 0.0, 0.0, 0.0, 0.0, 0.0, 0.0, 1.70095093920392E9, 0.0, 2023-11-25 17:22:19.203
224.0, 33883.188233755616, 66742.39835052472, 6960.087354193611, -7086.7099865329255, 20554.798311567105, -34557.62977095005, 15591.571103521717, 4647.352355402989, -0.056, 0.97, 0.19, 192.0, 0.0, 0.0, 0.0, 0.0, 0.0, 0.0, 0.0, 0.0, 0.0, 1.700950939206917E9, 0.0, 2023-11-25 17:22:19.206
225.0, 33853.28159967442, 66701.53936166041, 6945.446961575385, -7118.717684592925, 20632.02358866019, -34487.22177591584, 15578.785905693283, 4652.2473874387015, -0.056, 0.97, 0.19, 192.0, 0.0, 0.0, 0.0, 0.0, 0.0, 0.0, 0.0, 0.0, 0.0, 1.700950939211002E9, 0.0, 2023-11-25 17:22:19.211
226.0, 33828.11353541774, 66680.59577710579, 6952.264243634253, -7119.634106115593, 20527.104500186982, -34805.89059661515, 15577.109524859134, 4611.656619507864, -0.058, 0.966, 0.188, 192.0, 254.0, 48.0, 30.0, 48.0, 5.0, 224.0, 0.0, 0.0, 0.0, 1.700950939213979E9, 0.0, 2023-11-25 17:22:19.213
227.0, 33851.18053569562, 66709.18365826413, 6953.717107023848, -7106.044245486766, 20545.611744595975, -34668.06974030373, 15577.333042303688, 4639.439837865811, -0.058, 0.966, 0.188, 192.0, 0.0, 0.0, 0.0, 0.0, 0.0, 0.0, 0.0, 0.0, 0.0, 1.700950939217004E9, 0.0, 2023-11-25 17:22:19.217
228.0, 33893.246518760505, 66754.4012372972, 6974.4818776228285, -7082.1949341529535, 20555.96060227878, -34545.69393941092, 15586.720774974916, 4645.564215846564, -0.058, 0.966, 0.188, 192.0, 0.0, 0.0, 0.0, 0.0, 0.0, 0.0, 0.0, 0.0, 0.0, 1.700950939221041E9, 0.0, 2023-11-25 17:22:19.221
229.0, 33873.75579759548, 66722.72881540404, 6965.071793207145, -7108.994675754867, 20633.767024727706, -34490.75335153977, 15582.205722594945, 4653.096753728003, -0.058, 0.966, 0.188, 192.0, 0.0, 0.0, 0.0, 0.0, 0.0, 0.0, 0.0, 0.0, 0.0, 1.700950939224989E9, 0.0, 2023-11-25 17:22:19.224
230.0, 33832.002738952964, 66683.47915214053, 6954.2311971463205, -7132.084027777199, 20530.211392666268, -34787.00337255042, 15569.755800933339, 4601.95596241426, -0.058, 0.966, 0.188, 192.0, 0.0, 0.0, 0.0, 0.0, 0.0, 0.0, 0.0, 0.0, 0.0, 1.700950939229053E9, 0.0, 2023-11-25 17:22:19.229
231.0, 33857.036692742906, 66712.96110307708, 6968.960996742368, -7105.2619344308305, 20527.484479842722, -34784.6117358937, 15584.440897040475, 4626.878157481928, -0.058, 0.966, 0.188, 192.0, 0.0, 0.0, 0.0, 0.0, 0.0, 0.0, 0.0, 0.0, 0.0, 1.700950939234831E9, 0.0, 2023-11-25 17:22:19.234
232.0, 33895.57110018386, 66755.0047343975, 6979.220447447354, -7087.224076655398, 20537.766282292163, -34610.379887864576, 15588.397155809065, 4632.53314882912, -0.058, 0.966, 0.188, 192.0, 0.0, 0.0, 0.0, 0.0, 0.0, 0.0, 0.0, 0.0, 0.0, 1.700950939238057E9, 0.0, 2023-11-25 17:22:19.238
233.0, 33900.39907698621, 66744.56646973688, 6988.317607440664, -7094.801318025747, 20622.12176586649, -34571.286686812244, 15602.165830393533, 4655.600149106997, -0.058, 0.966, 0.188, 192.0, 0.0, 0.0, 0.0, 0.0, 0.0, 0.0, 0.0, 0.0, 0.0, 1.700950939242043E9, 0.0, 2023-11-25 17:22:19.242
234.0, 33848.00658798296, 66692.55396038937, 6972.358461899575, -7128.060713775243, 20557.659334857384, -34774.821671822276, 15589.425336054008, 4614.718808498241, -0.058, 0.966, 0.188, 192.0, 0.0, 0.0, 0.0, 0.0, 0.0, 0.0, 0.0, 0.0, 0.0, 1.700950939246054E9, 0.0, 2023-11-25 17:22:19.246
235.0, 33857.99781775449, 66710.994149565, 6983.489630638317, -7104.6137338416265, 20518.5437820606, -34893.35297266876, 15609.318388619233, 4626.162901659358, -0.058, 0.966, 0.188, 192.0, 0.0, 0.0, 0.0, 0.0, 0.0, 0.0, 0.0, 0.0, 0.0, 1.700950939250074E9, 0.0, 2023-11-25 17:22:19.250
236.0, 33897.96273684058, 66755.78704545344, 6987.579999873638, -7086.866448744113, 20529.25026765469, -34700.569176741745, 15619.71194979095, 4647.598224591998, -0.054, 0.966, 0.184, 192.0, 254.0, 80.0, 30.0, 48.0, 5.0, 192.0, 0.0, 0.0, 0.0, 1.700950939255097E9, 0.0, 2023-11-25 17:22:19.255
237.0, 33913.944234126124, 66759.18451061065, 6998.845279079113, -7085.0112539543225, 20589.3094050061, -34729.358223600175, 15641.594307612695, 4666.6866143568295, -0.054, 0.966, 0.184, 192.0, 0.0, 0.0, 0.0, 0.0, 0.0, 0.0, 0.0, 0.0, 0.0, 1.700950939259077E9, 0.0, 2023-11-25 17:22:19.259
238.0, 33856.991989254, 66697.18077149162, 6973.14077295551, -7126.6302021301035, 20557.994611024216, -34924.846580606296, 15623.668208559538, 4628.286317382613, -0.054, 0.966, 0.184, 192.0, 0.0, 0.0, 0.0, 0.0, 0.0, 0.0, 0.0, 0.0, 0.0, 1.700950939263122E9, 0.0, 2023-11-25 17:22:19.263
239.0, 33867.56436438136, 66715.3974432227, 6996.677159866948, -7093.504916847339, 20489.19594159078, -35193.76041814809, 15652.032572273323, 4628.956869716271, -0.054, 0.966, 0.184, 192.0, 0.0, 0.0, 0.0, 0.0, 0.0, 0.0, 0.0, 0.0, 0.0, 1.700950939266096E9, 0.0, 2023-11-25 17:22:19.266
240.0, 33915.73237368255, 66770.60625202731, 7009.90939258449, -7061.117239131599, 20529.25026765469, -34936.26832202296, 15667.0976480362, 4664.518495144665, -0.054, 0.966, 0.184, 192.0, 0.0, 0.0, 0.0, 0.0, 0.0, 0.0, 0.0, 0.0, 0.0, 1.700950939269162E9, 0.0, 2023-11-25 17:22:19.269
241.0, 33938.17352511567, 66786.87832199078, 7023.968639846878, -7049.851959926124, 20574.51255017669, -34908.28393796491, 15685.202561045, 4681.774041864162, -0.054, 0.966, 0.184, 192.0, 0.0, 0.0, 0.0, 0.0, 0.0, 0.0, 0.0, 0.0, 0.0, 1.700950939273922E9, 0.0, 2023-11-25 17:22:19.273
242.0, 33877.33207670833, 66722.72881540404, 6990.575133630649, -7099.517536105816, 20584.481428203755, -34980.971810933566, 15662.224967744944, 4664.071460255559, -0.054, 0.966, 0.184, 192.0, 0.0, 0.0, 0.0, 0.0, 0.0, 0.0, 0.0, 0.0, 0.0, 1.700950939280152E9, 0.0, 2023-11-25 17:22:19.280
243.0, 33867.56436438136, 66723.3993677377, 7001.661598880482, -7082.396099853051, 20487.273691567625, -35290.521119895115, 15672.126790538645, 4646.771210047151, -0.054, 0.966, 0.184, 192.0, 0.0, 0.0, 0.0, 0.0, 0.0, 0.0, 0.0, 0.0, 0.0, 1.700950939283268E9, 0.0, 2023-11-25 17:22:19.283
244.0, 33904.04241133242, 66762.40316181221, 7003.136814014532, -7063.0171374103, 20525.2940088861, -35022.25548294252, 15671.322127738254, 4681.25995174169, -0.054, 0.966, 0.184, 192.0, 0.0, 0.0, 0.0, 0.0, 0.0, 0.0, 0.0, 0.0, 0.0, 1.70095093928622E9, 0.0, 2023-11-25 17:22:19.286
245.0, 33948.85765896531, 66800.2670169195, 7031.3000120282195, -7038.363163276096, 20563.58254713804, -34962.12929035775, 15689.427040747052, 4700.035417084148, -0.054, 0.966, 0.184, 192.0, 0.0, 0.0, 0.0, 0.0, 0.0, 0.0, 0.0, 0.0, 0.0, 1.700950939289281E9, 0.0, 2023-11-25 17:22:19.289
246.0, 33908.33394626784, 66744.00767612549, 7009.574116417661, -7081.636140541571, 20613.73986169575, -34966.89021192673, 15669.466932948464, 4693.933390847849, -0.06, 0.97, 0.19, 192.0, 254.0, 32.0, 30.0, 80.0, 5.0, 240.0, 0.0, 0.0, 0.0, 1.700950939295172E9, 0.0, 2023-11-25 17:22:19.295
247.0, 33886.36218146827, 66733.1000248313, 7018.358351988596, -7074.863561971612, 20501.891732441396, -35310.101248037965, 15667.567034669763, 4656.717736329762, -0.06, 0.97, 0.19, 192.0, 0.0, 0.0, 0.0, 0.0, 0.0, 0.0, 0.0, 0.0, 0.0, 1.700950939298208E9, 0.0, 2023-11-25 17:22:19.298
248.0, 33915.88883589373, 66771.79089448343, 7023.029866579755, -7053.294128572242, 20535.48640435772, -35093.579899499404, 15663.05198228979, 4686.624370410964, -0.06, 0.97, 0.19, 192.0, 0.0, 0.0, 0.0, 0.0, 0.0, 0.0, 0.0, 0.0, 0.0, 1.70095093930239E9, 0.0, 2023-11-25 17:22:19.302
249.0, 33960.56997305989, 66817.03082526098, 7048.15322734752, -7029.4224654939735, 20556.87702380145, -34991.23126163855, 15676.418325474064, 4694.425129225866, -0.06, 0.97, 0.19, 192.0, 0.0, 0.0, 0.0, 0.0, 0.0, 0.0, 0.0, 0.0, 0.0, 1.7009509393053E9, 0.0, 2023-11-25 17:22:19.305
250.0, 33924.024870875466, 66768.75105723752, 7027.924898615468, -7071.890779959057, 20621.630027488474, -34973.68514224114, 15662.515540422863, 4683.316312231578, -0.06, 0.97, 0.19, 192.0, 0.0, 0.0, 0.0, 0.0, 0.0, 0.0, 0.0, 0.0, 0.0, 1.700950939311856E9, 0.0, 2023-11-25 17:22:19.311
251.0, 33890.67606814815, 66742.30894354689, 7029.847148638624, -7074.952968949434, 20512.687625013306, -35309.09541953748, 15658.872206076647, 4632.801369762584, -0.06, 0.97, 0.19, 192.0, 0.0, 0.0, 0.0, 0.0, 0.0, 0.0, 0.0, 0.0, 0.0, 1.700950939314337E9, 0.0, 2023-11-25 17:22:19.314
252.0, 33914.65948994869, 66772.32733635037, 7029.578927705161, -7054.903454173023, 20526.992741464706, -35175.67785688375, 15660.19095899951, 4656.270701440657, -0.06, 0.97, 0.19, 192.0, 0.0, 0.0, 0.0, 0.0, 0.0, 0.0, 0.0, 0.0, 0.0, 1.700950939317337E9, 0.0, 2023-11-25 17:22:19.317
253.0, 33957.0160456915, 66814.75094732654, 7041.112427844099, -7034.697477185426, 20534.905259001884, -35009.984375236556, 15672.462066705475, 4668.899437057905, -0.06, 0.97, 0.19, 192.0, 0.0, 0.0, 0.0, 0.0, 0.0, 0.0, 0.0, 0.0, 0.0, 1.700950939321256E9, 0.0, 2023-11-25 17:22:19.321
254.0, 33935.15603961421, 66778.83169398687, 7030.3612387610965, -7064.849980455635, 20611.191762827846, -34972.56755501837, 15670.785685871326, 4684.098623287514, -0.06, 0.97, 0.19, 192.0, 0.0, 0.0, 0.0, 0.0, 0.0, 0.0, 0.0, 0.0, 0.0, 1.70095093932422E9, 0.0, 2023-11-25 17:22:19.324
255.0, 33893.537091438426, 66740.92313539067, 7022.314610757186, -7085.167716165509, 20522.522392573643, -35261.15092768084, 15659.430999688031, 4639.73041054373, -0.06, 0.97, 0.19, 192.0, 0.0, 0.0, 0.0, 0.0, 0.0, 0.0, 0.0, 0.0, 0.0, 1.700950939328224E9, 0.0, 2023-11-25 17:22:19.328
0.0, 33924.13662959774, 66778.13878990874, 7037.513796986795, -7051.640099482549, 20518.76729950515, -35243.22482862769, 15674.876055106648, 4664.965530033771, -0.06, 0.972, 0.192, 192.0, 254.0, 32.0, 30.0, 96.0, 6.0, 0.0, 0.0, 0.0, 0.0, 1.700950939333261E9, 0.0, 2023-11-25 17:22:19.333
1.0, 33956.792528246944, 66819.15424098424, 7037.066762097688, -7036.48561674185, 20528.19973566529, -35021.69668933114, 15675.72542139595, 4674.889704571928, -0.06, 0.972, 0.192, 192.0, 0.0, 0.0, 0.0, 0.0, 0.0, 0.0, 0.0, 0.0, 0.0, 1.700950939337287E9, 0.0, 2023-11-25 17:22:19.337
2.0, 33958.3124468699, 66809.43123214618, 7039.190177820943, -7047.3262128026745, 20602.809858657107, -34992.505311072506, 15679.659328420083, 4689.5748006790645, -0.06, 0.972, 0.192, 192.0, 0.0, 0.0, 0.0, 0.0, 0.0, 0.0, 0.0, 0.0, 0.0, 1.700950939341344E9, 0.0, 2023-11-25 17:22:19.341
3.0, 33907.08224857834, 66753.57422275236, 7021.174671789965, -7079.155096907031, 20541.431968382833, -35215.64277596984, 15666.740020124917, 4655.086058984525, -0.06, 0.972, 0.192, 192.0, 0.0, 0.0, 0.0, 0.0, 0.0, 0.0, 0.0, 0.0, 0.0, 1.700950939345366E9, 0.0, 2023-11-25 17:22:19.345
4.0, 33914.10069633731, 66763.94543217962, 7028.371933504574, -7059.574968764183, 20498.695432984285, -35318.86313186445, 15685.515485467373, 4667.200704479302, -0.06, 0.972, 0.192, 192.0, 0.0, 0.0, 0.0, 0.0, 0.0, 0.0, 0.0, 0.0, 0.0, 1.700950939348329E9, 0.0, 2023-11-25 17:22:19.348
5.0, 33956.68076952467, 66810.54881936894, 7033.378724262563, -7037.089113842144, 20528.043273454103, -35037.678186616686, 15690.119944825166, 4693.419300725377, -0.06, 0.972, 0.192, 192.0, 0.0, 0.0, 0.0, 0.0, 0.0, 0.0, 0.0, 0.0, 0.0, 1.700950939352296E9, 0.0, 2023-11-25 17:22:19.352
6.0, 33974.96449648911, 66821.88115380779, 7042.364125533596, -7036.418561508484, 20588.571797439075, -34994.69578202913, 15702.882790909147, 4714.8769754024715, -0.06, 0.972, 0.192, 192.0, 0.0, 0.0, 0.0, 0.0, 0.0, 0.0, 0.0, 0.0, 0.0, 1.700950939356363E9, 0.0, 2023-11-25 17:22:19.356
7.0, 33921.72264119657, 66760.99500191152, 7014.782072875747, -7080.585608552171, 20561.637945370432, -35148.45343213718, 15680.195770287011, 4681.438765697332, -0.06, 0.972, 0.192, 192.0, 0.0, 0.0, 0.0, 0.0, 0.0, 0.0, 0.0, 0.0, 0.0, 1.700950939361339E9, 0.0, 2023-11-25 17:22:19.361
8.0, 33916.33587078284, 66764.23600485755, 7021.420540978974, -7064.268835099797, 20480.00937461965, -35368.32754234404, 15686.320148267765, 4674.509724916187, -0.06, 0.972, 0.192, 192.0, 0.0, 0.0, 0.0, 0.0, 0.0, 0.0, 0.0, 0.0, 0.0, 1.700950939365372E9, 0.0, 2023-11-25 17:22:19.365
9.0, 33946.89070545325, 66803.97740649908, 7022.471072968373, -7046.074515113177, 20510.944188945796, -35075.11735857932, 15685.895465123114, 4704.326952019567, -0.06, 0.972, 0.192, 192.0, 0.0, 0.0, 0.0, 0.0, 0.0, 0.0, 0.0, 0.0, 0.0, 1.700950939369415E9, 0.0, 2023-11-25 17:22:19.369
10.0, 33979.39014189126, 66826.86559282131, 7049.3825732925625, -7028.126064315566, 20563.180215737848, -35020.69086083065, 15707.710767711493, 4727.729228464274, -0.064, 0.97, 0.194, 192.0, 254.0, 0.0, 30.0, 80.0, 6.0, 16.0, 0.0, 0.0, 0.0, 1.700950939375392E9, 0.0, 2023-11-25 17:22:19.375
11.0, 33931.53505701245, 66767.32054559237, 7031.545881217227, -7068.850942713135, 20585.241387515234, -35109.18141712921, 15694.545590227317, 4716.7545219367175, -0.064, 0.97, 0.194, 192.0, 0.0, 0.0, 0.0, 0.0, 0.0, 0.0, 0.0, 0.0, 0.0, 1.700950939378416E9, 0.0, 2023-11-25 17:22:19.378
12.0, 33919.688632451136, 66769.77923748246, 7043.749933689825, -7051.774209949281, 20483.67506071032, -35417.25551095671, 15703.016901375879, 4697.867297871983, -0.064, 0.97, 0.194, 192.0, 0.0, 0.0, 0.0, 0.0, 0.0, 0.0, 0.0, 0.0, 0.0, 1.700950939381405E9, 0.0, 2023-11-25 17:22:19.381
13.0, 33948.50003105403, 66811.39818565824, 7038.743142931837, -7039.1678260764875, 20510.474802312234, -35157.81881306396, 15695.506715238897, 4722.878899917472, -0.064, 0.97, 0.194, 192.0, 0.0, 0.0, 0.0, 0.0, 0.0, 0.0, 0.0, 0.0, 0.0, 1.700950939384413E9, 0.0, 2023-11-25 17:22:19.384
14.0, 33981.334743658874, 66845.66340990823, 7058.345622819141, -7022.783997390748, 20537.87804101444, -35089.93656515319, 15707.06256712229, 4726.343420308044, -0.064, 0.97, 0.194, 192.0, 0.0, 0.0, 0.0, 0.0, 0.0, 0.0, 0.0, 0.0, 0.0, 1.700950939388515E9, 0.0, 2023-11-25 17:22:19.388
15.0, 33945.39313857474, 66790.43224935916, 7042.25236681132, -7061.92190193199, 20591.11989630698, -35115.73047825461, 15696.378433272654, 4722.521272006187, -0.064, 0.97, 0.194, 192.0, 0.0, 0.0, 0.0, 0.0, 0.0, 0.0, 0.0, 0.0, 0.0, 1.700950939393606E9, 0.0, 2023-11-25 17:22:19.393
16.0, 33919.71098419559, 66771.61208052779, 7048.309689558708, -7061.005480409322, 20479.741153686187, -35449.643188672446, 15693.24918904891, 4679.2482947407125, -0.064, 0.97, 0.194, 192.0, 0.0, 0.0, 0.0, 0.0, 0.0, 0.0, 0.0, 0.0, 0.0, 1.70095093939751E9, 0.0, 2023-11-25 17:22:19.397
17.0, 33949.99759793253, 66812.29225543645, 7047.527378502772, -7044.465189512395, 20511.81590697955, -35229.25498834312, 15680.128715053645, 4691.765271635684, -0.064, 0.97, 0.194, 192.0, 0.0, 0.0, 0.0, 0.0, 0.0, 0.0, 0.0, 0.0, 0.0, 1.700950939401515E9, 0.0, 2023-11-25 17:22:19.401
18.0, 33997.18213047768, 66861.9801833606, 7072.851904970635, -7017.017247321278, 20540.53789860462, -35087.12024535182, 15694.143258827122, 4700.996542095726, -0.064, 0.97, 0.194, 192.0, 0.0, 0.0, 0.0, 0.0, 0.0, 0.0, 0.0, 0.0, 0.0, 1.700950939405279E9, 0.0, 2023-11-25 17:22:19.405
19.0, 33975.746807545045, 66821.41176717423, 7062.726564732381, -7048.399096536529, 20616.086794863557, -35081.80053017146, 15686.141334312122, 4702.695274674329, -0.064, 0.97, 0.194, 192.0, 0.0, 0.0, 0.0, 0.0, 0.0, 0.0, 0.0, 0.0, 0.0, 1.700950939408577E9, 0.0, 2023-11-25 17:22:19.408
20.0, 33930.08219362285, 66778.38465909775, 7051.662451227004, -7068.090983401655, 20500.77414521863, -35419.445981913326, 15670.696278893505, 4651.733297316229, -0.066, 0.972, 0.192, 192.0, 253.0, 240.0, 30.0, 96.0, 6.0, 0.0, 0.0, 0.0, 0.0, 1.700950939412529E9, 0.0, 2023-11-25 17:22:19.412
21.0, 33947.918885698185, 66801.83163903137, 7050.410753537507, -7053.227073338875, 20513.380529091424, -35295.214986230734, 15674.071392306256, 4679.315349974078, -0.066, 0.972, 0.192, 192.0, 0.0, 0.0, 0.0, 0.0, 0.0, 0.0, 0.0, 0.0, 0.0, 1.700950939417596E9, 0.0, 2023-11-25 17:22:19.417
22.0, 33991.50478738604, 66853.64298267878, 7067.487486301361, -7026.24851778132, 20535.64286656891, -35095.345687311376, 15693.360947771187, 4704.6622281863965, -0.066, 0.972, 0.192, 192.0, 0.0, 0.0, 0.0, 0.0, 0.0, 0.0, 0.0, 0.0, 0.0, 1.700950939425659E9, 0.0, 2023-11-25 17:22:19.425
23.0, 33981.31239191442, 66828.00553178854, 7064.514704288806, -7046.655660469015, 20613.292826806646, -35063.8744311183, 15698.658311207095, 4721.537795250153, -0.066, 0.972, 0.192, 192.0, 0.0, 0.0, 0.0, 0.0, 0.0, 0.0, 0.0, 0.0, 0.0, 1.700950939425743E9, 0.0, 2023-11-25 17:22:19.425
24.0, 33933.39025180224, 66778.8093422424, 7050.209587837409, -7072.360166592618, 20521.337750117513, -35356.7940422051, 15686.63307269014, 4676.11905051697, -0.066, 0.972, 0.192, 192.0, 0.0, 0.0, 0.0, 0.0, 0.0, 0.0, 0.0, 0.0, 0.0, 1.700950939430608E9, 0.0, 2023-11-25 17:22:19.430
25.0, 33946.175449630675, 66801.60812158682, 7054.501122772828, -7053.227073338875, 20503.679871997818, -35352.30134156959, 15695.05968034979, 4697.420262982877, -0.066, 0.972, 0.192, 192.0, 0.0, 0.0, 0.0, 0.0, 0.0, 0.0, 0.0, 0.0, 0.0, 1.700950939434524E9, 0.0, 2023-11-25 17:22:19.434
26.0, 33983.994601249055, 66848.7255988986, 7063.553579277227, -7030.5400527167385, 20521.896543728893, -35107.59444327289, 15698.255979806898, 4709.691370688841, -0.066, 0.972, 0.192, 192.0, 0.0, 0.0, 0.0, 0.0, 0.0, 0.0, 0.0, 0.0, 0.0, 1.70095093943754E9, 0.0, 2023-11-25 17:22:19.437
27.0, 33985.71568557211, 66836.4768429371, 7067.867465957102, -7041.425352266473, 20590.404640484412, -35081.152329582255, 15707.710767711493, 4723.3929900399435, -0.066, 0.972, 0.192, 192.0, 0.0, 0.0, 0.0, 0.0, 0.0, 0.0, 0.0, 0.0, 0.0, 1.700950939440564E9, 0.0, 2023-11-25 17:22:19.440
28.0, 33934.03845239144, 66778.33995560884, 7051.885968671557, -7077.657530028526, 20535.44170086881, -35319.13135279791, 15698.613607718184, 4690.73709139074, -0.066, 0.972, 0.192, 192.0, 0.0, 0.0, 0.0, 0.0, 0.0, 0.0, 0.0, 0.0, 0.0, 1.700950939446588E9, 0.0, 2023-11-25 17:22:19.446
29.0, 33935.58072275886, 66785.89484523474, 7057.585663507661, -7065.811105467214, 20484.502075255165, -35425.25743547171, 15703.575694987261, 4691.586457680042, -0.066, 0.972, 0.192, 192.0, 0.0, 0.0, 0.0, 0.0, 0.0, 0.0, 0.0, 0.0, 0.0, 1.70095093944959E9, 0.0, 2023-11-25 17:22:19.449
30.0, 33967.74488303004, 66821.67998810769, 7059.2396925973535, -7051.148361104532, 20509.670139511843, -35119.57497830093, 15701.429927519552, 4711.658324200907, -0.064, 0.974, 0.19, 192.0, 254.0, 0.0, 30.0, 112.0, 5.0, 240.0, 0.0, 0.0, 0.0, 1.700950939454604E9, 0.0, 2023-11-25 17:22:19.454
31.0, 33975.03155172247, 66818.88602005078, 7065.900512445035, -7053.20472159442, 20566.93530880634, -35058.19708802665, 15709.610665990194, 4733.361868067011, -0.064, 0.974, 0.19, 192.0, 0.0, 0.0, 0.0, 0.0, 0.0, 0.0, 0.0, 0.0, 0.0, 1.700950939457625E9, 0.0, 2023-11-25 17:22:19.457
32.0, 33917.453458005606, 66756.77052220947, 7039.592509221138, -7096.589457582171, 20546.93049751884, -35216.3133283035, 15684.710822666982, 4700.080120573059, -0.064, 0.974, 0.19, 192.0, 0.0, 0.0, 0.0, 0.0, 0.0, 0.0, 0.0, 0.0, 0.0, 1.700950939461627E9, 0.0, 2023-11-25 17:22:19.461
33.0, 33921.81204817439, 66774.80837998491, 7055.819875695691, -7068.001576423833, 20475.784894917597, -35428.051403528625, 15698.814773418282, 4697.062635071592, -0.064, 0.974, 0.19, 192.0, 0.0, 0.0, 0.0, 0.0, 0.0, 0.0, 0.0, 0.0, 0.0, 1.70095093946465E9, 0.0, 2023-11-25 17:22:19.464
34.0, 33963.520403327995, 66828.20669748864, 7057.20568385192, -7044.375782534574, 20520.309569872566, -35101.69358273668, 15697.674834451062, 4731.216100599301, -0.064, 0.974, 0.19, 192.0, 0.0, 0.0, 0.0, 0.0, 0.0, 0.0, 0.0, 0.0, 0.0, 1.700950939468678E9, 0.0, 2023-11-25 17:22:19.468
35.0, 33992.86824379781, 66854.20177629015, 7075.958797449923, -7029.556575960705, 20570.60099489701, -35012.75599154901, 15712.58344800275, 4750.840932231061, -0.064, 0.974, 0.19, 192.0, 0.0, 0.0, 0.0, 0.0, 0.0, 0.0, 0.0, 0.0, 0.0, 1.700950939472645E9, 0.0, 2023-11-25 17:22:19.472
36.0, 33944.230847863066, 66794.58967382785, 7054.188198350454, -7073.075422415188, 20594.539713208644, -35101.3359548254, 15695.193790816522, 4732.512501777709, -0.064, 0.974, 0.19, 192.0, 0.0, 0.0, 0.0, 0.0, 0.0, 0.0, 0.0, 0.0, 0.0, 1.700950939477823E9, 0.0, 2023-11-25 17:22:19.477
37.0, 33931.356243056805, 66788.37588886928, 7062.950082176934, -7060.178465864476, 20495.588540505, -35398.23417642524, 15694.232665804944, 4705.824518898073, -0.064, 0.974, 0.19, 192.0, 0.0, 0.0, 0.0, 0.0, 0.0, 0.0, 0.0, 0.0, 0.0, 1.700950939481708E9, 0.0, 2023-11-25 17:22:19.481
38.0, 33966.47083359609, 66826.39620618775, 7060.022003653289, -7044.10756160111, 20538.615648581464, -35108.30969909545, 15690.119944825166, 4733.048943644637, -0.064, 0.974, 0.19, 192.0, 0.0, 0.0, 0.0, 0.0, 0.0, 0.0, 0.0, 0.0, 0.0, 1.700950939485805E9, 0.0, 2023-11-25 17:22:19.485
39.0, 34003.35121194735, 66858.67212518121, 7078.082213173177, -7027.924898615468, 20575.563082166085, -34993.53349131745, 15702.860439164691, 4745.923548450894, -0.064, 0.974, 0.19, 192.0, 0.0, 0.0, 0.0, 0.0, 0.0, 0.0, 0.0, 0.0, 0.0, 1.700950939488771E9, 0.0, 2023-11-25 17:22:19.488
40.0, 33971.49997609854, 66809.90061877973, 7065.632291511571, -7065.095849644644, 20632.202402615836, -35040.31569246241, 15691.304587281298, 4738.07808614708, -0.062, 0.976, 0.188, 192.0, 254.0, 16.0, 30.0, 128.0, 5.0, 224.0, 0.0, 0.0, 0.0, 1.700950939492724E9, 0.0, 2023-11-25 17:22:19.492
41.0, 33942.53211528446, 66788.264130147, 7067.263968856808, -7066.816933967702, 20518.186154149313, -35386.85713849749, 15687.996529101913, 4693.933390847849, -0.062, 0.976, 0.188, 192.0, 0.0, 0.0, 0.0, 0.0, 0.0, 0.0, 0.0, 0.0, 0.0, 1.700950939496751E9, 0.0, 2023-11-25 17:22:19.496
42.0, 33968.99658071954, 66823.71399685311, 7064.335890333163, -7048.622613981082, 20546.841090541016, -35180.52818543055, 15684.286139522332, 4724.398818540432, -0.062, 0.976, 0.188, 192.0, 0.0, 0.0, 0.0, 0.0, 0.0, 0.0, 0.0, 0.0, 0.0, 1.70095093950075E9, 0.0, 2023-11-25 17:22:19.500
43.0, 34014.750601619555, 66873.78190443301, 7088.811050511725, -7017.710151399392, 20570.422180941365, -35031.307939446924, 15704.425061276563, 4739.039211158659, -0.062, 0.976, 0.188, 192.0, 0.0, 0.0, 0.0, 0.0, 0.0, 0.0, 0.0, 0.0, 0.0, 1.700950939504762E9, 0.0, 2023-11-25 17:22:19.504
44.0, 33983.212290193114, 66827.15616549924, 7076.651701528037, -7051.662451227004, 20635.37635032849, -35032.69374760315, 15696.981930372945, 4740.022687914692, -0.062, 0.976, 0.188, 192.0, 0.0, 0.0, 0.0, 0.0, 0.0, 0.0, 0.0, 0.0, 0.0, 1.700950939509762E9, 0.0, 2023-11-25 17:22:19.509
45.0, 33939.06759489389, 66791.88511274876, 7073.947140448945, -7064.134724633065, 20529.11615718796, -35366.584106276525, 15689.449392491508, 4697.3308560050555, -0.062, 0.976, 0.188, 192.0, 0.0, 0.0, 0.0, 0.0, 0.0, 0.0, 0.0, 0.0, 0.0, 1.70095093951284E9, 0.0, 2023-11-25 17:22:19.512
46.0, 33952.43393807816, 66816.15910722723, 7070.773192736291, -7045.985108135356, 20533.899430501395, -35247.7175292632, 15692.668043693073, 4723.415341784399, -0.062, 0.976, 0.188, 192.0, 0.0, 0.0, 0.0, 0.0, 0.0, 0.0, 0.0, 0.0, 0.0, 1.700950939515816E9, 0.0, 2023-11-25 17:22:19.515
47.0, 33993.270575198, 66861.80136940496, 7086.486469088372, -7020.392360734029, 20553.3007446886, -35033.38665168126, 15701.452279264007, 4739.307432092122, -0.062, 0.976, 0.188, 192.0, 0.0, 0.0, 0.0, 0.0, 0.0, 0.0, 0.0, 0.0, 0.0, 1.700950939520789E9, 0.0, 2023-11-25 17:22:19.520
48.0, 33986.162720461216, 66838.53320342698, 7088.743995278358, -7041.671221455482, 20633.543507283153, -35005.26815715649, 15705.989683388434, 4751.243263631256, -0.062, 0.976, 0.188, 192.0, 0.0, 0.0, 0.0, 0.0, 0.0, 0.0, 0.0, 0.0, 0.0, 1.700950939524798E9, 0.0, 2023-11-25 17:22:19.524
49.0, 33929.2104755891, 66785.17958941218, 7067.263968856808, -7079.065689929211, 20542.057817227582, -35296.399628686864, 15684.95669185599, 4698.426091483366, -0.062, 0.976, 0.188, 192.0, 0.0, 0.0, 0.0, 0.0, 0.0, 0.0, 0.0, 0.0, 0.0, 1.700950939528793E9, 0.0, 2023-11-25 17:22:19.528
50.0, 33946.309560097405, 66815.98029327158, 7076.294073616752, -7054.746991961836, 20523.3941106074, -35301.04879153357, 15695.707880938993, 4720.911946405405, -0.064, 0.976, 0.186, 192.0, 254.0, 0.0, 30.0, 128.0, 5.0, 208.0, 0.0, 0.0, 0.0, 1.700950939532863E9, 0.0, 2023-11-25 17:22:19.532
51.0, 33979.90423201373, 66856.4816542246, 7076.227018383386, -7040.173654576976, 20538.63800032592, -35036.15826799372, 15694.232665804944, 4737.876920446983, -0.064, 0.976, 0.186, 192.0, 0.0, 0.0, 0.0, 0.0, 0.0, 0.0, 0.0, 0.0, 0.0, 1.700950939537272E9, 0.0, 2023-11-25 17:22:19.537
52.0, 33983.569918104404, 66842.46711045112, 7077.92575096199, -7048.77907619227, 20605.73793718075, -34992.706476772604, 15701.854610664202, 4754.685432277373, -0.064, 0.976, 0.186, 192.0, 0.0, 0.0, 0.0, 0.0, 0.0, 0.0, 0.0, 0.0, 0.0, 1.700950939541163E9, 0.0, 2023-11-25 17:22:19.541
53.0, 33933.8596384358, 66786.18541791265, 7053.53999776125, -7086.262951643819, 20553.568965622064, -35214.52518874707, 15678.854665619692, 4712.17241432338, -0.064, 0.976, 0.186, 192.0, 0.0, 0.0, 0.0, 0.0, 0.0, 0.0, 0.0, 0.0, 0.0, 1.700950939543844E9, 0.0, 2023-11-25 17:22:19.543
54.0, 33938.44174604914, 66801.45165937563, 7052.556521005216, -7069.968529935901, 20497.39903180588, -35338.86794315195, 15677.625319674651, 4707.947934621327, -0.064, 0.976, 0.186, 192.0, 0.0, 0.0, 0.0, 0.0, 0.0, 0.0, 0.0, 0.0, 0.0, 1.700950939548854E9, 0.0, 2023-11-25 17:22:19.548
55.0, 33980.86535702531, 66853.26300302304, 7056.356317562619, -7047.035640124755, 20529.317322888055, -35034.81716332641, 15680.48634296493, 4739.352135581033, -0.064, 0.976, 0.186, 192.0, 0.0, 0.0, 0.0, 0.0, 0.0, 0.0, 0.0, 0.0, 0.0, 1.700950939552958E9, 0.0, 2023-11-25 17:22:19.552
56.0, 33999.84198806786, 66859.94617461516, 7067.643948512548, -7042.1629598334985, 20588.772963139174, -34963.068063624865, 15697.808944917793, 4762.575598070097, -0.064, 0.976, 0.186, 192.0, 0.0, 0.0, 0.0, 0.0, 0.0, 0.0, 0.0, 0.0, 0.0, 1.700950939556873E9, 0.0, 2023-11-25 17:22:19.556
57.0, 33943.89557169623, 66792.28744414895, 7044.420486023484, -7082.396099853051, 20580.234596757247, -35104.018164160036, 15684.57671220025, 4742.213158871313, -0.064, 0.976, 0.186, 192.0, 0.0, 0.0, 0.0, 0.0, 0.0, 0.0, 0.0, 0.0, 0.0, 1.700950939560909E9, 0.0, 2023-11-25 17:22:19.560
58.0, 33931.423298290174, 66790.78987727045, 7047.639137225049, -7071.823724725691, 20494.269787582136, -35339.71730944125, 15685.493133722919, 4725.583460996564, -0.064, 0.976, 0.186, 192.0, 0.0, 0.0, 0.0, 0.0, 0.0, 0.0, 0.0, 0.0, 0.0, 1.700950939564914E9, 0.0, 2023-11-25 17:22:19.564
59.0, 33957.776005002976, 66825.43508117618, 7040.039544110245, -7066.816933967702, 20522.209468151268, -35046.52947742098, 15673.914930095068, 4741.967289682304, -0.064, 0.976, 0.186, 192.0, 0.0, 0.0, 0.0, 0.0, 0.0, 0.0, 0.0, 0.0, 0.0, 1.700950939569058E9, 0.0, 2023-11-25 17:22:19.569
60.0, 33989.046095495956, 66850.73725589958, 7061.184294364964, -7054.322308817185, 20564.16369249388, -34977.23906960953, 15687.325976768254, 4747.264653118212, -0.062, 0.972, 0.188, 192.0, 254.0, 16.0, 30.0, 96.0, 5.0, 224.0, 0.0, 0.0, 0.0, 1.700950939571928E9, 0.0, 2023-11-25 17:22:19.571
61.0, 33939.738147227545, 66788.9123307362, 7038.6984394429255, -7101.7974140402575, 20586.58249218255, -35067.27189627551, 15666.471799191451, 4719.257917315712, -0.062, 0.972, 0.188, 192.0, 0.0, 0.0, 0.0, 0.0, 0.0, 0.0, 0.0, 0.0, 0.0, 1.700950939577376E9, 0.0, 2023-11-25 17:22:19.577
62.0, 33926.93059765465, 66785.760734768, 7055.506951273317, -7087.313483633218, 20488.905368912863, -35379.950449460805, 15680.575749942751, 4693.888687358938, -0.062, 0.972, 0.188, 192.0, 0.0, 0.0, 0.0, 0.0, 0.0, 0.0, 0.0, 0.0, 0.0, 1.700950939580954E9, 0.0, 2023-11-25 17:22:19.580
63.0, 33957.12780441377, 66823.6245898753, 7059.820837953191, -7067.3980793235405, 20529.473785099242, -35106.27569035002, 15687.147162812611, 4730.880824432472, -0.062, 0.972, 0.188, 192.0, 0.0, 0.0, 0.0, 0.0, 0.0, 0.0, 0.0, 0.0, 0.0, 1.700950939584957E9, 0.0, 2023-11-25 17:22:19.584
64.0, 33984.59809834935, 66855.274660024, 7073.947140448945, -7055.819875695691, 20550.618535353966, -34994.964002962595, 15693.025671604357, 4736.312298335111, -0.062, 0.972, 0.188, 192.0, 0.0, 0.0, 0.0, 0.0, 0.0, 0.0, 0.0, 0.0, 0.0, 1.700950939588979E9, 0.0, 2023-11-25 17:22:19.588
65.0, 33949.0141211765, 66807.82190654539, 7059.77613446428, -7092.789661024769, 20605.112088336, -35024.9153405327, 15680.173418542556, 4730.36673431, -0.062, 0.972, 0.188, 192.0, 0.0, 0.0, 0.0, 0.0, 0.0, 0.0, 0.0, 0.0, 0.0, 1.700950939592962E9, 0.0, 2023-11-25 17:22:19.592
66.0, 33914.368917270775, 66784.08435393385, 7061.988957165356, -7092.968474980411, 20489.642976479885, -35357.86692593896, 15677.334746996732, 4696.079158315559, -0.062, 0.972, 0.188, 192.0, 0.0, 0.0, 0.0, 0.0, 0.0, 0.0, 0.0, 0.0, 0.0, 1.70095093959694E9, 0.0, 2023-11-25 17:22:19.596
67.0, 33944.72258624108, 66816.98612177208, 7069.58855028016, -7067.152210134532, 20524.332883874522, -35153.77314731755, 15684.688470922527, 4737.541644280153, -0.062, 0.972, 0.188, 192.0, 0.0, 0.0, 0.0, 0.0, 0.0, 0.0, 0.0, 0.0, 0.0, 1.700950939599961E9, 0.0, 2023-11-25 17:22:19.599
68.0, 33988.24143269556, 66858.04627633646, 7087.760518522325, -7042.6323464670595, 20547.265773685667, -34987.63263078125, 15698.255979806898, 4752.830237487583, -0.062, 0.972, 0.188, 192.0, 0.0, 0.0, 0.0, 0.0, 0.0, 0.0, 0.0, 0.0, 0.0, 1.700950939605053E9, 0.0, 2023-11-25 17:22:19.605
69.0, 33963.229830650074, 66817.38845317227, 7078.126916662088, -7073.522457304294, 20619.216039087303, -34971.8522991958, 15693.785630915838, 4757.412345100921, -0.062, 0.972, 0.188, 192.0, 0.0, 0.0, 0.0, 0.0, 0.0, 0.0, 0.0, 0.0, 0.0, 1.700950939609009E9, 0.0, 2023-11-25 17:22:19.609
70.0, 33915.17358007116, 66778.3623073533, 7070.326157847186, -7089.548658078749, 20510.564209290053, -35291.66105886234, 15684.174380800056, 4713.692332946341, -0.068, 0.972, 0.196, 192.0, 253.0, 224.0, 30.0, 96.0, 6.0, 32.0, 0.0, 0.0, 0.0, 1.700950939614439E9, 0.0, 2023-11-25 17:22:19.614
71.0, 33934.82076344738, 66811.62170310279, 7076.942274205956, -7064.738221733359, 20524.221125152246, -35188.79833087901, 15698.054814106801, 4747.488170562765, -0.068, 0.972, 0.196, 192.0, 0.0, 0.0, 0.0, 0.0, 0.0, 0.0, 0.0, 0.0, 0.0, 1.700950939617251E9, 0.0, 2023-11-25 17:22:19.617
72.0, 33976.75263604554, 66862.56132871645, 7089.21338191192, -7037.424390008973, 20547.377532407943, -34963.693912469615, 15709.275389823366, 4765.1236969380025, -0.068, 0.972, 0.196, 192.0, 0.0, 0.0, 0.0, 0.0, 0.0, 0.0, 0.0, 0.0, 0.0, 1.700950939621143E9, 0.0, 2023-11-25 17:22:19.621
73.0, 33966.381426618274, 66835.13573826978, 7079.937407962967, -7058.099753630132, 20620.020701887694, -34914.85535083477, 15708.29191306733, 4775.8078307876385, -0.068, 0.972, 0.196, 192.0, 0.0, 0.0, 0.0, 0.0, 0.0, 0.0, 0.0, 0.0, 0.0, 1.700950939624075E9, 0.0, 2023-11-25 17:22:19.624
74.0, 33916.51468473848, 66785.38075511226, 7062.63715775456, -7083.44663184245, 20540.381436393433, -35181.601069164404, 15696.356081528198, 4731.909004677415, -0.068, 0.972, 0.196, 192.0, 0.0, 0.0, 0.0, 0.0, 0.0, 0.0, 0.0, 0.0, 0.0, 1.700950939628066E9, 0.0, 2023-11-25 17:22:19.628
75.0, 33926.79648718792, 66807.73249956757, 7061.430163553973, -7063.508875788317, 20514.945151203294, -35196.01794433808, 15701.63109321965, 4744.180112383379, -0.068, 0.972, 0.196, 192.0, 0.0, 0.0, 0.0, 0.0, 0.0, 0.0, 0.0, 0.0, 0.0, 1.700950939632113E9, 0.0, 2023-11-25 17:22:19.632
76.0, 33956.77017650249, 66845.59635467487, 7054.836398939658, -7053.070611127689, 20526.67981704233, -34934.63664467772, 15689.67290993606, 4748.717516507807, -0.068, 0.972, 0.196, 192.0, 0.0, 0.0, 0.0, 0.0, 0.0, 0.0, 0.0, 0.0, 0.0, 1.700950939637153E9, 0.0, 2023-11-25 17:22:19.637
77.0, 33965.55441207343, 66841.84126160637, 7062.63715775456, -7056.356317562619, 20601.89343713444, -34873.9293067371, 15706.369663044175, 4774.936112753882, -0.068, 0.972, 0.196, 192.0, 0.0, 0.0, 0.0, 0.0, 0.0, 0.0, 0.0, 0.0, 0.0, 1.700950939641117E9, 0.0, 2023-11-25 17:22:19.641
78.0, 33908.065725334374, 66780.01633644299, 7037.066762097688, -7097.952913993945, 20558.151073235404, -35057.21361127062, 15683.481476721941, 4738.502769291731, -0.068, 0.972, 0.196, 192.0, 0.0, 0.0, 0.0, 0.0, 0.0, 0.0, 0.0, 0.0, 0.0, 1.700950939645132E9, 0.0, 2023-11-25 17:22:19.645
79.0, 33917.27464404996, 66797.69656630715, 7051.327175060174, -7071.913131703513, 20503.52340978663, -35196.26381352709, 15688.756488413394, 4741.766123982206, -0.068, 0.972, 0.196, 192.0, 0.0, 0.0, 0.0, 0.0, 0.0, 0.0, 0.0, 0.0, 0.0, 1.700950939649163E9, 0.0, 2023-11-25 17:22:19.649
80.0, 33944.27555135197, 66836.14156677027, 7045.850997668625, -7063.374765321585, 20527.529183331633, -34899.745571582986, 15675.859531862681, 4755.065411933114, -0.058, 0.968, 0.192, 192.0, 254.0, 48.0, 30.0, 64.0, 6.0, 0.0, 0.0, 0.0, 0.0, 1.700950939652173E9, 0.0, 2023-11-25 17:22:19.652
81.0, 33963.45334809463, 66851.94425010018, 7062.905378688023, -7058.077401885677, 20587.185989282847, -34833.33853880627, 15688.376508757652, 4775.316092409622, -0.058, 0.968, 0.192, 192.0, 0.0, 0.0, 0.0, 0.0, 0.0, 0.0, 0.0, 0.0, 0.0, 1.700950939656247E9, 0.0, 2023-11-25 17:22:19.656
82.0, 33916.71585043858, 66795.72961279507, 7042.073552855677, -7100.009274483833, 20591.254006773714, -34941.58803720332, 15672.819694616759, 4761.860342247527, -0.058, 0.968, 0.192, 192.0, 0.0, 0.0, 0.0, 0.0, 0.0, 0.0, 0.0, 0.0, 0.0, 1.700950939660265E9, 0.0, 2023-11-25 17:22:19.660
83.0, 33905.562329955384, 66793.49443834955, 7043.861692412102, -7089.459251100929, 20500.550627774075, -35178.315362729474, 15678.809962130781, 4749.946862452849, -0.058, 0.968, 0.192, 192.0, 0.0, 0.0, 0.0, 0.0, 0.0, 0.0, 0.0, 0.0, 0.0, 1.700950939665213E9, 0.0, 2023-11-25 17:22:19.665
84.0, 33940.654568750215, 66837.10269178185, 7045.180445334965, -7069.096811902144, 20539.77793929314, -34886.446283632074, 15679.72638365345, 4780.725214567807, -0.058, 0.968, 0.192, 192.0, 0.0, 0.0, 0.0, 0.0, 0.0, 0.0, 0.0, 0.0, 0.0, 1.70095093966922E9, 0.0, 2023-11-25 17:22:19.669
85.0, 33976.95380174563, 66867.09873284087, 7067.800410723736, -7049.3825732925625, 20587.297748005123, -34802.761352391404, 15697.071337350768, 4797.489022909287, -0.058, 0.968, 0.192, 192.0, 0.0, 0.0, 0.0, 0.0, 0.0, 0.0, 0.0, 0.0, 0.0, 1.700950939673431E9, 0.0, 2023-11-25 17:22:19.673
86.0, 33923.041394119435, 66800.33407215287, 7036.597375464127, -7103.317332663219, 20615.662111718906, -34845.18496336758, 15666.561206169274, 4770.264598162723, -0.058, 0.968, 0.192, 192.0, 0.0, 0.0, 0.0, 0.0, 0.0, 0.0, 0.0, 0.0, 0.0, 1.70095093967738E9, 0.0, 2023-11-25 17:22:19.677
87.0, 33902.209568287086, 66790.18638017015, 7044.264023812298, -7096.723568048903, 20507.077337155028, -35154.91308628477, 15667.00824105838, 4733.7194959782955, -0.058, 0.968, 0.192, 192.0, 0.0, 0.0, 0.0, 0.0, 0.0, 0.0, 0.0, 0.0, 0.0, 1.700950939680229E9, 0.0, 2023-11-25 17:22:19.680
88.0, 33932.742051213034, 66831.6265143903, 7049.002593636822, -7075.601169538638, 20545.477634129245, -34909.42387693213, 15667.991717814413, 4763.447316103854, -0.058, 0.968, 0.192, 192.0, 0.0, 0.0, 0.0, 0.0, 0.0, 0.0, 0.0, 0.0, 0.0, 1.70095093968427E9, 0.0, 2023-11-25 17:22:19.684
89.0, 33972.93048774367, 66870.85382590936, 7072.382518337074, -7055.126971617577, 20573.529073420654, -34807.41051523811, 15685.068450578268, 4774.734947053784, -0.06, 0.968, 0.19, 192.0, 254.0, 32.0, 30.0, 64.0, 5.0, 240.0, 0.0, 0.0, 0.0, 1.700950939688793E9, 0.0, 2023-11-25 17:22:19.688
90.0, 33937.368862315285, 66819.73538634008, 7056.199855351431, -7092.812012769225, 20636.873917206995, -34791.18314876356, 15683.52618021085, 4781.999264001759, -0.06, 0.968, 0.19, 192.0, 0.0, 0.0, 0.0, 0.0, 0.0, 0.0, 0.0, 0.0, 0.0, 1.700950939692256E9, 0.0, 2023-11-25 17:22:19.692
91.0, 33891.570137926356, 66781.44684808813, 7039.905433643513, -7111.565126367227, 20510.228933123224, -35113.62941427582, 15674.831351617737, 4738.145141380446, -0.06, 0.968, 0.19, 192.0, 0.0, 0.0, 0.0, 0.0, 0.0, 0.0, 0.0, 0.0, 0.0, 1.700950939697277E9, 0.0, 2023-11-25 17:22:19.697
92.0, 33915.73237368255, 66811.35348216933, 7041.850035411124, -7091.225038912898, 20532.06658745606, -34952.00395011949, 15681.91685461007, 4764.967234726815, -0.06, 0.968, 0.19, 192.0, 0.0, 0.0, 0.0, 0.0, 0.0, 0.0, 0.0, 0.0, 0.0, 1.700950939701294E9, 0.0, 2023-11-25 17:22:19.701
93.0, 33965.733226029064, 66861.80136940496, 7068.940349690956, -7059.39615480854, 20559.201605224804, -34807.61168093821, 15703.508639753896, 4783.407423902443, -0.06, 0.968, 0.19, 192.0, 0.0, 0.0, 0.0, 0.0, 0.0, 0.0, 0.0, 0.0, 0.0, 1.700950939705338E9, 0.0, 2023-11-25 17:22:19.705
94.0, 33938.37469081577, 66813.25338044803, 7052.355355305119, -7092.677902302493, 20631.733015982274, -34768.74199733043, 15694.232665804944, 4791.007017017248, -0.06, 0.968, 0.19, 192.0, 0.0, 0.0, 0.0, 0.0, 0.0, 0.0, 0.0, 0.0, 0.0, 1.700950939708354E9, 0.0, 2023-11-25 17:22:19.708
95.0, 33897.96273684058, 66774.80837998491, 7047.370916291585, -7106.6700943315145, 20536.291067158112, -35055.93956183667, 15689.2035233025, 4755.043060188658, -0.06, 0.968, 0.19, 192.0, 0.0, 0.0, 0.0, 0.0, 0.0, 0.0, 0.0, 0.0, 0.0, 1.700950939712366E9, 0.0, 2023-11-25 17:22:19.712
96.0, 33914.95006262661, 66801.09403146435, 7049.360221548107, -7085.726509776892, 20534.16765143486, -34992.63942153924, 15695.037328605335, 4781.887505279482, -0.06, 0.968, 0.19, 192.0, 0.0, 0.0, 0.0, 0.0, 0.0, 0.0, 0.0, 0.0, 0.0, 1.700950939716335E9, 0.0, 2023-11-25 17:22:19.716
97.0, 33953.99856019003, 66850.3796279883, 7060.759611220314, -7062.5253990322835, 20544.762378306674, -34804.84006462575, 15699.820601918771, 4791.56581062863, -0.06, 0.968, 0.19, 192.0, 0.0, 0.0, 0.0, 0.0, 0.0, 0.0, 0.0, 0.0, 0.0, 1.700950939720816E9, 0.0, 2023-11-25 17:22:19.720
98.0, 33950.98107468856, 66832.0735492794, 7063.06184089921, -7075.131782905077, 20627.061501391116, -34751.21822967747, 15704.693282210028, 4807.793177103184, -0.06, 0.968, 0.19, 192.0, 0.0, 0.0, 0.0, 0.0, 0.0, 0.0, 0.0, 0.0, 0.0, 1.700950939724396E9, 0.0, 2023-11-25 17:22:19.724
99.0, 33908.66922243467, 66785.20194115663, 7045.359259290607, -7104.077291974699, 20555.670029600864, -34978.513119043484, 15684.196732544511, 4762.553246325641, -0.06, 0.968, 0.194, 192.0, 254.0, 32.0, 30.0, 64.0, 6.0, 16.0, 0.0, 0.0, 0.0, 1.700950939729343E9, 0.0, 2023-11-25 17:22:19.729
100.0, 33914.771248670964, 66796.19899942864, 7040.263061554798, -7093.6390273140705, 20512.665273268853, -35052.139765279266, 15678.877017364148, 4758.999318957248, -0.06, 0.968, 0.194, 192.0, 0.0, 0.0, 0.0, 0.0, 0.0, 0.0, 0.0, 0.0, 0.0, 1.700950939733379E9, 0.0, 2023-11-25 17:22:19.733
101.0, 33940.54281002794, 66827.60320038834, 7033.87046264058, -7086.486469088372, 20517.068566926548, -34831.66215797212, 15672.327956238743, 4766.688319049874, -0.06, 0.968, 0.194, 192.0, 0.0, 0.0, 0.0, 0.0, 0.0, 0.0, 0.0, 0.0, 0.0, 1.700950939736405E9, 0.0, 2023-11-25 17:22:19.736
102.0, 33939.91696118319, 66817.47786015009, 7037.044410353233, -7094.756614536836, 20584.97316658177, -34783.337686459745, 15683.77204939986, 4791.297589695167, -0.06, 0.968, 0.194, 192.0, 0.0, 0.0, 0.0, 0.0, 0.0, 0.0, 0.0, 0.0, 0.0, 1.700950939740412E9, 0.0, 2023-11-25 17:22:19.740
103.0, 33892.01717281547, 66764.30306009091, 7022.404017735007, -7129.9829637984, 20560.54270989212, -34925.51713293995, 15668.10347653669, 4761.770935269706, -0.06, 0.968, 0.194, 192.0, 0.0, 0.0, 0.0, 0.0, 0.0, 0.0, 0.0, 0.0, 0.0, 1.700950939744437E9, 0.0, 2023-11-25 17:22:19.744
104.0, 33906.121123566765, 66785.93954872365, 7044.264023812298, -7101.819765784713, 20503.34459583099, -35100.240719347086, 15688.600026202206, 4772.186848185879, -0.06, 0.968, 0.194, 192.0, 0.0, 0.0, 0.0, 0.0, 0.0, 0.0, 0.0, 0.0, 0.0, 1.70095093974845E9, 0.0, 2023-11-25 17:22:19.748
105.0, 33946.041339163945, 66834.42048244721, 7052.355355305119, -7079.222152140397, 20532.11129094497, -34849.52120179191, 15680.329880753743, 4788.347159427066, -0.06, 0.968, 0.194, 192.0, 0.0, 0.0, 0.0, 0.0, 0.0, 0.0, 0.0, 0.0, 0.0, 1.700950939752651E9, 0.0, 2023-11-25 17:22:19.752
106.0, 33964.39212136175, 66847.2280320201, 7065.833457211668, -7075.355300349629, 20584.36966948148, -34807.678736171576, 15683.749697655405, 4793.175136229413, -0.06, 0.968, 0.194, 192.0, 0.0, 0.0, 0.0, 0.0, 0.0, 0.0, 0.0, 0.0, 0.0, 1.700950939757429E9, 0.0, 2023-11-25 17:22:19.757
107.0, 33916.93936788313, 66793.00269997152, 7047.125047102577, -7110.536946122283, 20598.5630272106, -34864.51922232142, 15670.606871915685, 4777.640673832974, -0.06, 0.968, 0.194, 192.0, 0.0, 0.0, 0.0, 0.0, 0.0, 0.0, 0.0, 0.0, 0.0, 1.700950939760424E9, 0.0, 2023-11-25 17:22:19.760
108.0, 33905.11529506627, 66792.15333368222, 7054.746991961836, -7096.6341610710815, 20505.06568015405, -35129.70031853918, 15679.704031908994, 4756.540627067164, -0.06, 0.968, 0.194, 192.0, 0.0, 0.0, 0.0, 0.0, 0.0, 0.0, 0.0, 0.0, 0.0, 1.700950939764434E9, 0.0, 2023-11-25 17:22:19.764
109.0, 33935.267798336485, 66832.69939812415, 7052.534169260761, -7082.64196904206, 20530.613724066465, -34891.698943579075, 15676.999470829902, 4776.925418010404, -0.064, 0.97, 0.196, 192.0, 254.0, 0.0, 30.0, 80.0, 6.0, 32.0, 0.0, 0.0, 0.0, 1.700950939768514E9, 0.0, 2023-11-25 17:22:19.768
110.0, 33977.11026395682, 66869.91505264223, 7077.054032928233, -7060.558445520216, 20570.64569838592, -34844.40265231164, 15704.134488598644, 4796.885525808993, -0.064, 0.97, 0.196, 192.0, 0.0, 0.0, 0.0, 0.0, 0.0, 0.0, 0.0, 0.0, 0.0, 1.70095093977334E9, 0.0, 2023-11-25 17:22:19.773
111.0, 33930.864504678786, 66810.14648796874, 7050.522512259783, -7107.832385043191, 20616.757347197217, -34828.06352711481, 15689.494095980419, 4790.917610039426, -0.064, 0.97, 0.196, 192.0, 0.0, 0.0, 0.0, 0.0, 0.0, 0.0, 0.0, 0.0, 0.0, 1.700950939777026E9, 0.0, 2023-11-25 17:22:19.777
112.0, 33905.338812510825, 66792.95799648261, 7053.875273928079, -7107.206536198442, 20499.34363357349, -35150.018054249056, 15691.170476814566, 4751.578539798086, -0.064, 0.97, 0.196, 192.0, 0.0, 0.0, 0.0, 0.0, 0.0, 0.0, 0.0, 0.0, 0.0, 1.700950939780542E9, 0.0, 2023-11-25 17:22:19.780
113.0, 33933.2114378466, 66828.13964225526, 7052.042430882744, -7090.956817979434, 20525.897505986395, -34956.60840947729, 15693.025671604357, 4777.5065633662425, -0.064, 0.97, 0.196, 192.0, 0.0, 0.0, 0.0, 0.0, 0.0, 0.0, 0.0, 0.0, 0.0, 1.700950939785548E9, 0.0, 2023-11-25 17:22:19.785
114.0, 33973.95866798862, 66870.786770676, 7073.3883468375625, -7068.895646202046, 20546.818738796563, -34893.732952324506, 15708.940113656536, 4787.050758248658, -0.064, 0.97, 0.196, 192.0, 0.0, 0.0, 0.0, 0.0, 0.0, 0.0, 0.0, 0.0, 0.0, 1.700950939788498E9, 0.0, 2023-11-25 17:22:19.788
115.0, 33944.65553100772, 66831.20183124565, 7062.950082176934, -7098.712873305425, 20628.156736869423, -34827.79530618135, 15705.609703732694, 4800.685322366396, -0.064, 0.97, 0.196, 192.0, 0.0, 0.0, 0.0, 0.0, 0.0, 0.0, 0.0, 0.0, 0.0, 1.700950939791505E9, 0.0, 2023-11-25 17:22:19.791
116.0, 33915.687670193634, 66810.39235715776, 7070.706137502925, -7097.014140726822, 20525.673988541843, -35122.72657426913, 15718.126680627667, 4773.974987742304, -0.064, 0.97, 0.196, 192.0, 0.0, 0.0, 0.0, 0.0, 0.0, 0.0, 0.0, 0.0, 0.0, 1.70095093979754E9, 0.0, 2023-11-25 17:22:19.797
117.0, 33939.06759489389, 66839.69549413866, 7071.3319863476745, -7079.266855629308, 20542.63896258342, -34994.3605058623, 15727.380302832164, 4805.781520102206, -0.064, 0.97, 0.196, 192.0, 0.0, 0.0, 0.0, 0.0, 0.0, 0.0, 0.0, 0.0, 0.0, 1.700950939800605E9, 0.0, 2023-11-25 17:22:19.800
118.0, 33987.68263908418, 66889.71869822964, 7092.320274391208, -7047.147398847032, 20557.59227962402, -34886.06630397634, 15748.055666453323, 4815.973915573825, -0.064, 0.97, 0.196, 192.0, 0.0, 0.0, 0.0, 0.0, 0.0, 0.0, 0.0, 0.0, 0.0, 1.700950939805E9, 0.0, 2023-11-25 17:22:19.805
119.0, 33969.041284208455, 66853.88885186778, 7073.5671607932045, -7072.851904970635, 20646.529870811686, -34791.42901795256, 15749.329715887276, 4836.157540816968, -0.058, 0.976, 0.194, 192.0, 254.0, 48.0, 30.0, 128.0, 6.0, 16.0, 0.0, 0.0, 0.0, 1.700950939808708E9, 0.0, 2023-11-25 17:22:19.808
120.0, 33913.63130970375, 66803.84329603236, 7047.683840713959, -7102.065634973721, 20541.230802682734, -35037.83464882787, 15726.821509220781, 4780.412290145432, -0.058, 0.976, 0.194, 192.0, 0.0, 0.0, 0.0, 0.0, 0.0, 0.0, 0.0, 0.0, 0.0, 1.700950939812611E9, 0.0, 2023-11-25 17:22:19.812
121.0, 33930.14924885622, 66827.6702556217, 7048.130875603066, -7081.859657986124, 20530.68077929983, -35029.922131290696, 15730.822471478281, 4787.52014488222, -0.058, 0.976, 0.194, 192.0, 0.0, 0.0, 0.0, 0.0, 0.0, 0.0, 0.0, 0.0, 0.0, 1.700950939816778E9, 0.0, 2023-11-25 17:22:19.816
122.0, 33984.64280183826, 66883.14728535978, 7068.202742123931, -7048.82377968118, 20549.59035510902, -34879.65135331766, 15752.548367088839, 4795.94675254187, -0.058, 0.976, 0.194, 192.0, 0.0, 0.0, 0.0, 0.0, 0.0, 0.0, 0.0, 0.0, 0.0, 1.700950939819658E9, 0.0, 2023-11-25 17:22:19.819
123.0, 33980.30656341393, 66866.15995957375, 7064.045317655244, -7062.793619965747, 20638.84087071906, -34799.94503259004, 15760.50558811493, 4815.325714984621, -0.058, 0.976, 0.194, 192.0, 0.0, 0.0, 0.0, 0.0, 0.0, 0.0, 0.0, 0.0, 0.0, 1.700950939824674E9, 0.0, 2023-11-25 17:22:19.824
124.0, 33926.23769357654, 66812.82869730338, 7038.609032465105, -7099.159908194531, 20573.417314698378, -34973.282810840945, 15739.941983216046, 4766.867133005516, -0.058, 0.976, 0.194, 192.0, 0.0, 0.0, 0.0, 0.0, 0.0, 0.0, 0.0, 0.0, 0.0, 1.700950939828663E9, 0.0, 2023-11-25 17:22:19.828
125.0, 33941.0121966615, 66832.4758806796, 7046.745067446836, -7075.0200241828, 20532.714788045265, -35100.732457725106, 15755.632907823672, 4768.431755117387, -0.058, 0.976, 0.194, 192.0, 0.0, 0.0, 0.0, 0.0, 0.0, 0.0, 0.0, 0.0, 0.0, 1.700950939832755E9, 0.0, 2023-11-25 17:22:19.832
126.0, 33987.12384547279, 66883.19198884869, 7056.646890240538, -7050.008422137311, 20549.076264986546, -34927.32762424083, 15764.64066083916, 4779.227647689301, -0.058, 0.976, 0.194, 192.0, 0.0, 0.0, 0.0, 0.0, 0.0, 0.0, 0.0, 0.0, 0.0, 1.700950939836832E9, 0.0, 2023-11-25 17:22:19.836
127.0, 33999.7749328345, 66885.11423887184, 7061.094887387144, -7053.1376663610545, 20619.975998398782, -34887.51916736593, 15779.169294735111, 4802.562868900642, -0.058, 0.976, 0.194, 192.0, 0.0, 0.0, 0.0, 0.0, 0.0, 0.0, 0.0, 0.0, 0.0, 1.700950939841247E9, 0.0, 2023-11-25 17:22:19.841
128.0, 33938.50880128251, 66819.6683311067, 7020.951154345412, -7104.5019751193495, 20589.376460239466, -34972.74636897402, 15748.97208797599, 4761.390955613966, -0.058, 0.976, 0.194, 192.0, 0.0, 0.0, 0.0, 0.0, 0.0, 0.0, 0.0, 0.0, 0.0, 1.700950939843771E9, 0.0, 2023-11-25 17:22:19.843
129.0, 33950.66815026619, 66837.10269178185, 7034.25044229632, -7079.065689929211, 20517.806174493573, -35210.971261378676, 15763.858349783224, 4748.359888596522, -0.06, 0.972, 0.196, 192.0, 254.0, 32.0, 30.0, 96.0, 6.0, 32.0, 0.0, 0.0, 0.0, 1.700950939847718E9, 0.0, 2023-11-25 17:22:19.847
130.0, 33985.53687161647, 66872.19493057668, 7027.72373291537, -7070.840247969658, 20530.569020577554, -35017.941596262644, 15757.555157846828, 4762.553246325641, -0.06, 0.972, 0.196, 192.0, 0.0, 0.0, 0.0, 0.0, 0.0, 0.0, 0.0, 0.0, 0.0, 1.700950939852746E9, 0.0, 2023-11-25 17:22:19.852
131.0, 34020.696165644666, 66897.83238146691, 7053.718811716893, -7049.561387248205, 20590.02466082867, -34998.60733730881, 15785.584245393784, 4795.633828119496, -0.06, 0.972, 0.196, 192.0, 0.0, 0.0, 0.0, 0.0, 0.0, 0.0, 0.0, 0.0, 0.0, 1.700950939856738E9, 0.0, 2023-11-25 17:22:19.856
132.0, 33979.74776980255, 66845.48459595258, 7032.685820184448, -7083.40192835354, 20624.133422867468, -34972.56755501837, 15768.194588207554, 4788.011883260237, -0.06, 0.972, 0.196, 192.0, 0.0, 0.0, 0.0, 0.0, 0.0, 0.0, 0.0, 0.0, 0.0, 1.700950939861252E9, 0.0, 2023-11-25 17:22:19.861
133.0, 33969.935353986664, 66840.83543310588, 7040.82185516618, -7069.901474702535, 20519.750776261186, -35274.65138133185, 15766.115875973212, 4753.344327610055, -0.06, 0.972, 0.196, 192.0, 0.0, 0.0, 0.0, 0.0, 0.0, 0.0, 0.0, 0.0, 0.0, 1.700950939864863E9, 0.0, 2023-11-25 17:22:19.864
134.0, 34013.32008997442, 66887.77409646203, 7050.477808770873, -7042.6323464670595, 20557.301706946102, -35075.05030334596, 15767.769905062903, 4779.495868622765, -0.06, 0.972, 0.196, 192.0, 0.0, 0.0, 0.0, 0.0, 0.0, 0.0, 0.0, 0.0, 0.0, 1.700950939868819E9, 0.0, 2023-11-25 17:22:19.868
135.0, 34058.56002075196, 66926.1967451807, 7077.366957350607, -7014.424444964462, 20595.769059153685, -35051.53626817898, 15791.93214081909, 4798.159575242946, -0.06, 0.972, 0.196, 192.0, 0.0, 0.0, 0.0, 0.0, 0.0, 0.0, 0.0, 0.0, 0.0, 1.700950939871848E9, 0.0, 2023-11-25 17:22:19.871
136.0, 34012.49307542957, 66868.81981716392, 7047.482675013862, -7059.485561786361, 20655.761141271727, -34951.22163906356, 15769.73685857497, 4799.612438632541, -0.06, 0.972, 0.196, 192.0, 0.0, 0.0, 0.0, 0.0, 0.0, 0.0, 0.0, 0.0, 0.0, 1.700950939875894E9, 0.0, 2023-11-25 17:22:19.875
137.0, 33990.09662748535, 66856.36989550233, 7053.696459972437, -7054.769343706292, 20541.901355016395, -35266.04595971655, 15769.289823685864, 4756.652385789441, -0.06, 0.972, 0.196, 192.0, 0.0, 0.0, 0.0, 0.0, 0.0, 0.0, 0.0, 0.0, 0.0, 1.700950939879901E9, 0.0, 2023-11-25 17:22:19.879
138.0, 34022.506656945545, 66889.24931159608, 7053.070611127689, -7039.570157476683, 20565.571852394565, -35107.75090548407, 15764.953585261535, 4776.478383121298, -0.06, 0.972, 0.196, 192.0, 0.0, 0.0, 0.0, 0.0, 0.0, 0.0, 0.0, 0.0, 0.0, 1.700950939884867E9, 0.0, 2023-11-25 17:22:19.884
139.0, 34067.88069818982, 66928.65543707079, 7073.276588115285, -7019.610049678094, 20577.3065182336, -35077.307829535945, 15777.962300534524, 4782.46865063532, -0.064, 0.974, 0.194, 192.0, 254.0, 0.0, 30.0, 112.0, 6.0, 16.0, 0.0, 0.0, 0.0, 1.700950939888881E9, 0.0, 2023-11-25 17:22:19.888
140.0, 34032.49788671707, 66883.77313420453, 7049.092000614643, -7060.5360937757605, 20660.969097729816, -34944.896095382705, 15759.186835192066, 4791.722272839817, -0.064, 0.974, 0.194, 192.0, 0.0, 0.0, 0.0, 0.0, 0.0, 0.0, 0.0, 0.0, 0.0, 1.700950939892934E9, 0.0, 2023-11-25 17:22:19.892
141.0, 33990.16368271872, 66848.65854366524, 7037.960831875901, -7078.976282951389, 20537.386302636423, -35231.601921510926, 15743.1159309287, 4740.983812926271, -0.064, 0.974, 0.194, 192.0, 0.0, 0.0, 0.0, 0.0, 0.0, 0.0, 0.0, 0.0, 0.0, 1.700950939896927E9, 0.0, 2023-11-25 17:22:19.896
142.0, 34014.616491152825, 66877.29112831248, 7039.659564454504, -7061.720736231892, 20540.15791894888, -35167.92180155776, 15744.479387340474, 4760.362775369022, -0.064, 0.974, 0.194, 192.0, 0.0, 0.0, 0.0, 0.0, 0.0, 0.0, 0.0, 0.0, 0.0, 1.700950939899901E9, 0.0, 2023-11-25 17:22:19.899
143.0, 34062.985666154105, 66925.45913761368, 7062.905378688023, -7034.228090551865, 20543.06364572807, -35113.38354508681, 15762.852521282735, 4774.623188331508, -0.064, 0.974, 0.194, 192.0, 0.0, 0.0, 0.0, 0.0, 0.0, 0.0, 0.0, 0.0, 0.0, 1.700950939903939E9, 0.0, 2023-11-25 17:22:19.903
144.0, 34047.07122410193, 66901.58747453541, 7051.170712848987, -7053.025907638777, 20645.948725455848, -34966.68904622663, 15759.522111358896, 4808.866060837038, -0.064, 0.974, 0.194, 192.0, 0.0, 0.0, 0.0, 0.0, 0.0, 0.0, 0.0, 0.0, 0.0, 1.700950939908015E9, 0.0, 2023-11-25 17:22:19.908
145.0, 33998.67969735619, 66857.532186214, 7033.244613795831, -7073.522457304294, 20560.609765125486, -35139.55743784397, 15739.45024483803, 4766.5318568386865, -0.064, 0.974, 0.194, 192.0, 0.0, 0.0, 0.0, 0.0, 0.0, 0.0, 0.0, 0.0, 0.0, 1.700950939912947E9, 0.0, 2023-11-25 17:22:19.912
146.0, 34029.32393900442, 66889.11520112935, 7050.924843659979, -7040.933613888456, 20547.891622530416, -35197.94019436123, 15757.108122957723, 4786.067281492625, -0.064, 0.974, 0.194, 192.0, 0.0, 0.0, 0.0, 0.0, 0.0, 0.0, 0.0, 0.0, 0.0, 1.70095093991723E9, 0.0, 2023-11-25 17:22:19.917
147.0, 34074.876794204334, 66935.51742261856, 7069.096811902144, -7016.033770565245, 20544.4494538843, -35144.631283835326, 15766.40644865113, 4790.559982128141, -0.064, 0.974, 0.194, 192.0, 0.0, 0.0, 0.0, 0.0, 0.0, 0.0, 0.0, 0.0, 0.0, 1.700950939920973E9, 0.0, 2023-11-25 17:22:19.920
148.0, 34073.490986048106, 66920.00531196658, 7066.3475473341405, -7028.975430604867, 20632.828251460585, -35073.55273646745, 15767.613442851716, 4815.236308006801, -0.064, 0.974, 0.194, 192.0, 0.0, 0.0, 0.0, 0.0, 0.0, 0.0, 0.0, 0.0, 0.0, 1.700950939924937E9, 0.0, 2023-11-25 17:22:19.924
149.0, 34029.0333663265, 66872.12787534331, 7049.069648870189, -7056.982166407367, 20583.900282847917, -35184.7079616437, 15745.2169949075, 4778.981778500292, -0.058, 0.964, 0.194, 192.0, 254.0, 48.0, 30.0, 32.0, 6.0, 16.0, 0.0, 0.0, 0.0, 1.70095093992812E9, 0.0, 2023-11-25 17:22:19.928
150.0, 34041.28212228801, 66887.34941331738, 7059.7090792309145, -7035.792712663736, 20526.188078664312, -35393.652068811905, 15751.386076377164, 4772.253903419245, -0.058, 0.964, 0.194, 192.0, 0.0, 0.0, 0.0, 0.0, 0.0, 0.0, 0.0, 0.0, 0.0, 1.700950939932986E9, 0.0, 2023-11-25 17:22:19.932
151.0, 34093.74166652461, 66940.74773082111, 7078.618655040104, -7006.735444871837, 20540.247325926703, -35284.41909365882, 15760.684402070572, 4784.32384542511, -0.058, 0.964, 0.194, 192.0, 0.0, 0.0, 0.0, 0.0, 0.0, 0.0, 0.0, 0.0, 0.0, 1.700950939938081E9, 0.0, 2023-11-25 17:22:19.938
152.0, 34104.60461432989, 66940.63597209883, 7085.793565010258, -7006.042540793722, 20614.432765773865, -35225.991633652644, 15771.480294642484, 4809.782482359706, -0.058, 0.964, 0.194, 192.0, 0.0, 0.0, 0.0, 0.0, 0.0, 0.0, 0.0, 0.0, 0.0, 1.700950939942003E9, 0.0, 2023-11-25 17:22:19.942
153.0, 34039.87396238732, 66874.89949165577, 7050.209587837409, -7055.909282673512, 20603.815687157596, -35194.02863908156, 15746.82632050828, 4791.856383306549, -0.058, 0.964, 0.194, 192.0, 0.0, 0.0, 0.0, 0.0, 0.0, 0.0, 0.0, 0.0, 0.0, 1.700950939946057E9, 0.0, 2023-11-25 17:22:19.946
154.0, 34045.864229901345, 66887.14824761728, 7070.616730525105, -7032.328192273163, 20524.35523561898, -35447.38566248246, 15766.719373073503, 4780.479345378798, -0.058, 0.964, 0.194, 192.0, 0.0, 0.0, 0.0, 0.0, 0.0, 0.0, 0.0, 0.0, 0.0, 1.700950939967094E9, 0.0, 2023-11-25 17:22:19.967
155.0, 34093.87577699134, 66938.42314939776, 7088.45342260044, -7007.540107672228, 20554.798311567105, -35255.94297122276, 15777.224692967498, 4804.596877646074, -0.058, 0.964, 0.194, 192.0, 0.0, 0.0, 0.0, 0.0, 0.0, 0.0, 0.0, 0.0, 0.0, 1.700950939970112E9, 0.0, 2023-11-25 17:22:19.970
156.0, 34114.66289933478, 66954.13642574984, 7101.842117529169, -7003.71795937037, 20604.955626124814, -35201.561176963, 15793.429707697596, 4825.272241267234, -0.058, 0.964, 0.194, 192.0, 0.0, 0.0, 0.0, 0.0, 0.0, 0.0, 0.0, 0.0, 0.0, 1.700950939974141E9, 0.0, 2023-11-25 17:22:19.974
