%OpenBCI Raw EXG Data
%Number of channels = 8
%Sample Rate = 250 Hz
%Board = OpenBCI_GUI$BoardCytonSerial
Sample Index, EXG Channel 0, EXG Channel 1, EXG Channel 2, EXG Channel 3, EXG Channel 4, EXG Channel 5, EXG Channel 6, EXG Channel 7, Accel Channel 0, Accel Channel 1, Accel Channel 2, Other, Other, Other, Other, Other, Other, Other, Analog Channel 0, Analog Channel 1, Analog Channel 2, Timestamp, Other, Timestamp (Formatted)
45.0, 30852.179926893703, 40556.18978216527, -46183.19674529991, -40993.814586855726, -58959.25271025333, -18553.28900257218, -5966.5076096663015, -25335.501174390458, 0.0, 0.0, 0.0, 192.0, 0.0, 0.0, 0.0, 0.0, 0.0, 0.0, 0.0, 0.0, 0.0, 1.700950564305412E9, 0.0, 2023-11-25 17:16:04.305
46.0, 30898.6939071052, 40650.76001295567, -46143.7906198252, -40936.34825186113, -58932.40826516251, -18519.984903333774, -6103.166175266048, -25293.591653536758, 0.0, 0.0, 0.0, 192.0, 0.0, 0.0, 0.0, 0.0, 0.0, 0.0, 0.0, 0.0, 0.0, 1.700950564305437E9, 0.0, 2023-11-25 17:16:04.305
47.0, 30950.818175174976, 40685.069940694564, -46108.161939163445, -40899.356114787595, -58874.18197085643, -18455.03073394665, -6021.4481975374465, -25272.62571723768, -0.194, 0.92, 0.322, 192.0, 249.0, 240.0, 28.0, 192.0, 10.0, 16.0, 0.0, 0.0, 0.0, 1.70095056430545E9, 0.0, 2023-11-25 17:16:04.305
0.0, 0.0, 0.0, 0.0, 0.0, 0.0, 0.0, 0.0, 0.0, -0.196, 0.916, 0.324, 192.0, 249.0, 224.0, 28.0, 160.0, 10.0, 32.0, 0.0, 0.0, 0.0, 1.700950564396417E9, 0.0, 2023-11-25 17:16:04.396
1.0, 31100.217235114247, 40759.54595321965, -46105.81500599563, -40891.04126585022, -58865.21892132985, -18837.62554378814, -6117.7171609064535, -25283.443961554047, -0.196, 0.916, 0.324, 192.0, 0.0, 0.0, 0.0, 0.0, 0.0, 0.0, 0.0, 0.0, 0.0, 1.700950564413418E9, 0.0, 2023-11-25 17:16:04.413
2.0, 31142.707901323785, 40778.83550868458, -46078.165898104424, -40864.12976552603, -58813.36287419354, -18782.170865794524, -6020.420017292502, -25276.827845195276, -0.196, 0.916, 0.324, 192.0, 0.0, 0.0, 0.0, 0.0, 0.0, 0.0, 0.0, 0.0, 0.0, 1.700950564416398E9, 0.0, 2023-11-25 17:16:04.416
3.0, 31088.616679741943, 40678.43147259134, -46125.52924460522, -40940.70684202991, -58853.663069446455, -18834.898630964595, -5836.621622636512, -25329.980293509998, -0.196, 0.916, 0.324, 192.0, 0.0, 0.0, 0.0, 0.0, 0.0, 0.0, 0.0, 0.0, 0.0, 1.700950564420456E9, 0.0, 2023-11-25 17:16:04.420
4.0, 31054.463214214233, 40658.85134444849, -46132.65945108646, -40953.15676369152, -58885.87193320655, -18866.83927379123, -5949.229711202349, -25331.43315689959, -0.196, 0.916, 0.324, 192.0, 0.0, 0.0, 0.0, 0.0, 0.0, 0.0, 0.0, 0.0, 0.0, 1.700950564424453E9, 0.0, 2023-11-25 17:16:04.424
5.0, 31092.952918166273, 40747.40895598042, -46100.27177337072, -40899.87020491007, -58864.7942381852, -18834.138671653112, -6081.999073266873, -25296.229159382485, -0.196, 0.916, 0.324, 192.0, 0.0, 0.0, 0.0, 0.0, 0.0, 0.0, 0.0, 0.0, 0.0, 1.700950564427431E9, 0.0, 2023-11-25 17:16:04.427
6.0, 31145.770090314163, 40790.90545069044, -46060.619778707005, -40859.25708523477, -58809.04898751366, -18778.125200048114, -6046.169226905015, -25261.09221709874, -0.196, 0.916, 0.324, 192.0, 0.0, 0.0, 0.0, 0.0, 0.0, 0.0, 0.0, 0.0, 0.0, 1.700950564433584E9, 0.0, 2023-11-25 17:16:04.433
7.0, 31105.112267149958, 40699.88914726843, -46109.12306417502, -40928.435734323946, -58834.239403514795, -18811.563409753253, -5814.180471203384, -25320.97254049451, -0.196, 0.916, 0.324, 192.0, 0.0, 0.0, 0.0, 0.0, 0.0, 0.0, 0.0, 0.0, 0.0, 1.700950564436514E9, 0.0, 2023-11-25 17:16:04.436
8.0, 31053.14446129137, 40655.85621069148, -46133.33000342012, -40964.62320859709, -58885.71547099537, -18871.846064549216, -5913.869251474053, -25340.530316892902, -0.2, 0.912, 0.328, 192.0, 249.0, 192.0, 28.0, 128.0, 10.0, 64.0, 0.0, 0.0, 0.0, 1.700950564439475E9, 0.0, 2023-11-25 17:16:04.439
9.0, 31083.073447117025, 40732.94737731783, -46112.341715376584, -40917.52808302976, -58874.20432260088, -18840.93360196753, -6046.839779238675, -25304.991043208964, -0.2, 0.912, 0.328, 192.0, 0.0, 0.0, 0.0, 0.0, 0.0, 0.0, 0.0, 0.0, 0.0, 1.700950564444453E9, 0.0, 2023-11-25 17:16:04.444
10.0, 31141.523258867655, 40796.00164842625, -46063.95018863084, -40862.922771325444, -58819.64371438548, -18788.563464708743, -6088.235209969904, -25257.113606585695, -0.2, 0.912, 0.328, 192.0, 0.0, 0.0, 0.0, 0.0, 0.0, 0.0, 0.0, 0.0, 0.0, 1.700950564448589E9, 0.0, 2023-11-25 17:16:04.448
11.0, 31118.188037656313, 40721.10095275652, -46101.92580246041, -40913.907100428, -58824.806967354656, -18794.263159544847, -5844.154160517951, -25313.931740991087, -0.2, 0.912, 0.328, 192.0, 0.0, 0.0, 0.0, 0.0, 0.0, 0.0, 0.0, 0.0, 0.0, 1.700950564452561E9, 0.0, 2023-11-25 17:16:04.452
12.0, 31049.2776095006, 40646.647291975896, -46136.30278543267, -40968.53476387677, -58887.07892740714, -18877.478704151956, -5910.069454916651, -25339.770357581423, -0.2, 0.912, 0.328, 192.0, 0.0, 0.0, 0.0, 0.0, 0.0, 0.0, 0.0, 0.0, 0.0, 1.700950564455564E9, 0.0, 2023-11-25 17:16:04.455
13.0, 31075.71972319123, 40716.541196887636, -46113.749875277266, -40921.014955164785, -58873.8466946896, -18844.800453758296, -6030.455950552935, -25294.284557614872, -0.2, 0.912, 0.328, 192.0, 0.0, 0.0, 0.0, 0.0, 0.0, 0.0, 0.0, 0.0, 0.0, 1.700950564459565E9, 0.0, 2023-11-25 17:16:04.459
14.0, 31141.702072823296, 40799.91320370593, -46057.53523797217, -40858.318311967654, -58821.096577775075, -18800.47694450342, -6120.131149307626, -25247.859984381197, -0.2, 0.912, 0.328, 192.0, 0.0, 0.0, 0.0, 0.0, 0.0, 0.0, 0.0, 0.0, 0.0, 1.700950564463659E9, 0.0, 2023-11-25 17:16:04.463
15.0, 31142.551439112598, 40744.97261583479, -46081.00456965024, -40893.94699262941, -58806.63499911249, -18783.601377439663, -5877.525314989724, -25296.407973338126, -0.2, 0.912, 0.328, 192.0, 0.0, 0.0, 0.0, 0.0, 0.0, 0.0, 0.0, 0.0, 0.0, 1.700950564467576E9, 0.0, 2023-11-25 17:16:04.467
16.0, 31074.110397590448, 40660.125393882445, -46120.45539861386, -40960.26461842831, -58869.93513940992, -18872.270747693867, -5893.506812275268, -25341.424386671115, -0.2, 0.912, 0.328, 192.0, 0.0, 0.0, 0.0, 0.0, 0.0, 0.0, 0.0, 0.0, 0.0, 1.700950564473706E9, 0.0, 2023-11-25 17:16:04.473
17.0, 31084.4369035288, 40715.17774047586, -46108.74308451928, -40924.23360636635, -58866.60472948608, -18853.227061417947, -6018.922450413997, -25329.510906876436, -0.2, 0.912, 0.328, 192.0, 0.0, 0.0, 0.0, 0.0, 0.0, 0.0, 0.0, 0.0, 0.0, 1.700950564477557E9, 0.0, 2023-11-25 17:16:04.477
18.0, 31135.26477042017, 40799.01913392772, -46064.28546479767, -40862.922771325444, -58828.69617088988, -18814.15621211007, -6137.096123349205, -25272.37984804867, -0.19, 0.91, 0.326, 192.0, 250.0, 16.0, 28.0, 112.0, 10.0, 48.0, 0.0, 0.0, 0.0, 1.700950564480631E9, 0.0, 2023-11-25 17:16:04.480
19.0, 31145.770090314163, 40760.95411312034, -46074.90254341395, -40873.18222203043, -58800.041234498174, -18769.542130177277, -5926.3638766245695, -25273.7656562049, -0.19, 0.91, 0.326, 192.0, 0.0, 0.0, 0.0, 0.0, 0.0, 0.0, 0.0, 0.0, 0.0, 1.700950564484628E9, 0.0, 2023-11-25 17:16:04.484
20.0, 31068.61186845444, 40661.55590552758, -46126.31155566115, -40951.167458435, -58865.978880641334, -18859.150273698604, -5873.613759710045, -25325.845220785766, -0.19, 0.91, 0.326, 192.0, 0.0, 0.0, 0.0, 0.0, 0.0, 0.0, 0.0, 0.0, 0.0, 1.700950564487581E9, 0.0, 2023-11-25 17:16:04.487
21.0, 31063.225098040715, 40693.36243788749, -46123.964622493346, -40930.24622562483, -58875.545427268204, -18854.523462596353, -6000.772833916287, -25309.841371755767, -0.19, 0.91, 0.326, 192.0, 0.0, 0.0, 0.0, 0.0, 0.0, 0.0, 0.0, 0.0, 0.0, 1.700950564491672E9, 0.0, 2023-11-25 17:16:04.491
22.0, 31115.237607388215, 40785.74219772127, -46080.758700461236, -40870.92469584045, -58845.12470306453, -18824.370959326145, -6134.570376225755, -25265.406103778616, -0.19, 0.91, 0.326, 192.0, 0.0, 0.0, 0.0, 0.0, 0.0, 0.0, 0.0, 0.0, 0.0, 1.70095056449595E9, 0.0, 2023-11-25 17:16:04.495
23.0, 31146.35123567, 40784.95988666533, -46067.10178459904, -40860.821707346644, -58799.21421995333, -18773.990127323883, -5978.935179583452, -25269.116493358197, -0.19, 0.91, 0.326, 192.0, 0.0, 0.0, 0.0, 0.0, 0.0, 0.0, 0.0, 0.0, 0.0, 1.700950564499751E9, 0.0, 2023-11-25 17:16:04.499
24.0, 31075.5856127245, 40673.849364978, -46124.36695389354, -40946.09361244364, -58858.558101482166, -18854.098779451702, -5850.882035598998, -25335.076491245807, -0.19, 0.91, 0.326, 192.0, 0.0, 0.0, 0.0, 0.0, 0.0, 0.0, 0.0, 0.0, 0.0, 1.700950564504654E9, 0.0, 2023-11-25 17:16:04.504
25.0, 31054.686731658785, 40675.995132445714, -46134.291128431694, -40948.03821421125, -58887.45890706288, -18879.199788475013, -5983.360824985603, -25348.644000130178, -0.19, 0.91, 0.326, 192.0, 0.0, 0.0, 0.0, 0.0, 0.0, 0.0, 0.0, 0.0, 0.0, 1.700950564508693E9, 0.0, 2023-11-25 17:16:04.508
26.0, 31087.633202985908, 40760.21650555331, -46107.20081415187, -40899.44552176542, -58871.902092921984, -18852.735323039928, -6117.828919628731, -25296.05034542684, -0.19, 0.91, 0.326, 192.0, 0.0, 0.0, 0.0, 0.0, 0.0, 0.0, 0.0, 0.0, 0.0, 1.700950564511723E9, 0.0, 2023-11-25 17:16:04.511
27.0, 31131.576732585043, 40789.11731113402, -46071.21450557882, -40862.69925388089, -58811.06064451464, -18777.879330859105, -6013.33451430017, -25228.61513240518, -0.19, 0.91, 0.326, 192.0, 0.0, 0.0, 0.0, 0.0, 0.0, 0.0, 0.0, 0.0, 0.0, 1.7009505645157E9, 0.0, 2023-11-25 17:16:04.515
28.0, 31074.311563290546, 40687.461577351285, -46123.1376079485, -40940.595083307635, -58851.718467678846, -18831.098834407192, -5815.409817148426, -25293.591653536758, -0.186, 0.916, 0.324, 192.0, 250.0, 48.0, 28.0, 160.0, 10.0, 32.0, 0.0, 0.0, 0.0, 1.700950564519702E9, 0.0, 2023-11-25 17:16:04.519
29.0, 31031.351510447446, 40661.95823692778, -46136.72746857732, -40957.13537420456, -58891.3034071092, -18875.86937855117, -5937.249176174304, -25305.10280193124, -0.186, 0.916, 0.324, 192.0, 0.0, 0.0, 0.0, 0.0, 0.0, 0.0, 0.0, 0.0, 0.0, 1.700950564523746E9, 0.0, 2023-11-25 17:16:04.523
30.0, 31064.92383061932, 40742.42451696689, -46112.74404677678, -40908.319164314176, -58880.35105232609, -18847.370904370655, -6073.5724656072225, -25265.830786923267, -0.186, 0.916, 0.324, 192.0, 0.0, 0.0, 0.0, 0.0, 0.0, 0.0, 0.0, 0.0, 0.0, 1.700950564527868E9, 0.0, 2023-11-25 17:16:04.527
31.0, 31117.4951335782, 40785.2281075988, -46078.0764911266, -40869.851812106586, -58830.84193835759, -18802.175677082025, -6067.738660304387, -25249.536365215346, -0.186, 0.916, 0.324, 192.0, 0.0, 0.0, 0.0, 0.0, 0.0, 0.0, 0.0, 0.0, 0.0, 1.700950564532793E9, 0.0, 2023-11-25 17:16:04.532
32.0, 31081.39706628288, 40698.88331876795, -46125.57394809413, -40937.08585942815, -58852.16550256795, -18835.680942020528, -5840.86845408302, -25326.24755218596, -0.186, 0.916, 0.324, 192.0, 0.0, 0.0, 0.0, 0.0, 0.0, 0.0, 0.0, 0.0, 0.0, 1.700950564537606E9, 0.0, 2023-11-25 17:16:04.537
33.0, 31028.781059835084, 40653.553981012585, -46149.46796291685, -40975.3743976801, -58903.574514815155, -18907.45239346652, -5946.636908845533, -25355.126006022216, -0.186, 0.916, 0.324, 192.0, 0.0, 0.0, 0.0, 0.0, 0.0, 0.0, 0.0, 0.0, 0.0, 1.70095056453978E9, 0.0, 2023-11-25 17:16:04.539
34.0, 31062.95687710725, 40736.031918052664, -46124.1881399379, -40923.51835054378, -58886.9001134515, -18872.851893049705, -6075.025328996817, -25309.64020605567, -0.186, 0.916, 0.324, 192.0, 0.0, 0.0, 0.0, 0.0, 0.0, 0.0, 0.0, 0.0, 0.0, 1.700950564544082E9, 0.0, 2023-11-25 17:16:04.544
35.0, 31127.173438927348, 40805.21056714184, -46072.26503756822, -40865.739091126816, -58831.62424941352, -18818.760671467862, -6117.672457417543, -25259.72876068697, -0.186, 0.916, 0.324, 192.0, 0.0, 0.0, 0.0, 0.0, 0.0, 0.0, 0.0, 0.0, 0.0, 1.700950564547771E9, 0.0, 2023-11-25 17:16:04.547
36.0, 31100.172531625336, 40725.19132199184, -46112.22995665431, -40921.32787958716, -58838.776807639224, -18822.649875003084, -5858.124000802517, -25315.96574973652, -0.186, 0.916, 0.324, 192.0, 0.0, 0.0, 0.0, 0.0, 0.0, 0.0, 0.0, 0.0, 0.0, 1.7009505645538E9, 0.0, 2023-11-25 17:16:04.553
37.0, 31022.254350454135, 40645.440297775305, -46151.81489608466, -40982.92928730599, -58905.4520613494, -18910.492230712443, -5918.02667594274, -25351.59443039828, -0.194, 0.918, 0.322, 192.0, 249.0, 240.0, 28.0, 176.0, 10.0, 16.0, 0.0, 0.0, 0.0, 1.700950564556894E9, 0.0, 2023-11-25 17:16:04.556
38.0, 31049.09879554496, 40712.6072898635, -46129.351392907076, -40933.57663554867, -58892.97978794334, -18874.550625628308, -6049.320822873214, -25311.137772934173, -0.194, 0.918, 0.322, 192.0, 0.0, 0.0, 0.0, 0.0, 0.0, 0.0, 0.0, 0.0, 0.0, 1.700950564559859E9, 0.0, 2023-11-25 17:16:04.559
39.0, 31113.24830213169, 40802.12602640701, -46074.61197073603, -40869.40477721748, -58842.84482513009, -18827.00846517187, -6141.946451896007, -25253.850251895223, -0.194, 0.918, 0.322, 192.0, 0.0, 0.0, 0.0, 0.0, 0.0, 0.0, 0.0, 0.0, 0.0, 1.700950564565234E9, 0.0, 2023-11-25 17:16:04.565
40.0, 31117.15985741137, 40758.137793318965, -46089.65469475445, -40894.61754496307, -58817.877926573514, -18796.855961901663, -5897.083091388117, -25274.078580627272, -0.194, 0.918, 0.322, 192.0, 0.0, 0.0, 0.0, 0.0, 0.0, 0.0, 0.0, 0.0, 0.0, 1.700950564567904E9, 0.0, 2023-11-25 17:16:04.567
41.0, 31044.851964098452, 40661.53355378313, -46131.11718071904, -40966.52310687579, -58883.860276205574, -18887.53698915684, -5895.965504165352, -25323.051252728852, -0.194, 0.918, 0.322, 192.0, 0.0, 0.0, 0.0, 0.0, 0.0, 0.0, 0.0, 0.0, 0.0, 1.700950564572066E9, 0.0, 2023-11-25 17:16:04.572
42.0, 31053.904420602852, 40706.549967116116, -46120.8353782696, -40936.258844883305, -58885.89428495101, -18870.48260813744, -6017.134310857572, -25303.806400752834, -0.194, 0.918, 0.322, 192.0, 0.0, 0.0, 0.0, 0.0, 0.0, 0.0, 0.0, 0.0, 0.0, 1.700950564575861E9, 0.0, 2023-11-25 17:16:04.575
43.0, 31112.309528864567, 40792.33596233559, -46072.64501722396, -40875.48445170933, -58847.806912399166, -18834.96568619796, -6146.148579853604, -25261.740417687943, -0.194, 0.918, 0.322, 192.0, 0.0, 0.0, 0.0, 0.0, 0.0, 0.0, 0.0, 0.0, 0.0, 1.700950564580595E9, 0.0, 2023-11-25 17:16:04.580
44.0, 31123.664215047866, 40760.95411312034, -46082.636246995484, -40888.78373966023, -58819.196679496374, -18801.460421259453, -5950.503760636301, -25308.25439789944, -0.194, 0.918, 0.322, 192.0, 0.0, 0.0, 0.0, 0.0, 0.0, 0.0, 0.0, 0.0, 0.0, 1.700950564583949E9, 0.0, 2023-11-25 17:16:04.583
45.0, 31046.86362109943, 40655.27506533564, -46132.25711968626, -40965.271409186294, -58881.04395640421, -18886.12882925616, -5884.432004026414, -25361.675067147622, -0.194, 0.918, 0.322, 192.0, 0.0, 0.0, 0.0, 0.0, 0.0, 0.0, 0.0, 0.0, 0.0, 1.700950564587976E9, 0.0, 2023-11-25 17:16:04.587
46.0, 31036.15713550534, 40680.82310924806, -46128.65848882896, -40943.41140310901, -58889.2023431304, -18877.16577972958, -6002.695083939444, -25325.86757253022, -0.194, 0.918, 0.322, 192.0, 0.0, 0.0, 0.0, 0.0, 0.0, 0.0, 0.0, 0.0, 0.0, 1.700950564592905E9, 0.0, 2023-11-25 17:16:04.592
47.0, 31081.35236279397, 40766.810270167625, -46088.69356974287, -40885.6991989254, -58861.150903838985, -18843.235831646423, -6134.995059370406, -25258.85704265321, -0.188, 0.918, 0.328, 192.0, 250.0, 32.0, 28.0, 176.0, 10.0, 64.0, 0.0, 0.0, 0.0, 1.700950564595963E9, 0.0, 2023-11-25 17:16:04.595
48.0, 31116.981043455726, 40768.30783704613, -46071.035691623176, -40870.0976812956, -58812.66997011542, -18786.015365840838, -5982.891438352041, -25245.222478535474, -0.188, 0.918, 0.328, 192.0, 0.0, 0.0, 0.0, 0.0, 0.0, 0.0, 0.0, 0.0, 0.0, 1.700950564600049E9, 0.0, 2023-11-25 17:16:04.600
49.0, 31052.33979849098, 40660.77359447165, -46127.56325335065, -40955.63780732606, -58870.22571208784, -18865.11818946817, -5846.7022593858555, -25321.48663061698, -0.188, 0.918, 0.328, 192.0, 0.0, 0.0, 0.0, 0.0, 0.0, 0.0, 0.0, 0.0, 0.0, 1.700950564603944E9, 0.0, 2023-11-25 17:16:04.603
50.0, 31038.481716928687, 40665.17688812935, -46126.44566612788, -40949.49107760085, -58891.012834431276, -18879.333898941746, -5968.318100967182, -25304.499304830948, -0.188, 0.918, 0.328, 192.0, 0.0, 0.0, 0.0, 0.0, 0.0, 0.0, 0.0, 0.0, 0.0, 1.70095056460789E9, 0.0, 2023-11-25 17:16:04.607
51.0, 31083.855758172962, 40754.49445897275, -46087.88890694248, -40893.87993739604, -58866.805895186175, -18846.85681424818, -6099.679303131021, -25251.302153027314, -0.188, 0.918, 0.328, 192.0, 0.0, 0.0, 0.0, 0.0, 0.0, 0.0, 0.0, 0.0, 0.0, 1.700950564612307E9, 0.0, 2023-11-25 17:16:04.612
52.0, 31124.334767381522, 40778.16495635092, -46059.74806067325, -40867.50487893878, -58816.24624922827, -18792.989110110895, -6019.257726580826, -25241.914420356086, -0.188, 0.918, 0.328, 192.0, 0.0, 0.0, 0.0, 0.0, 0.0, 0.0, 0.0, 0.0, 0.0, 1.700950564615948E9, 0.0, 2023-11-25 17:16:04.615
53.0, 31066.868432386927, 40675.45869057879, -46112.78875026569, -40942.89731298653, -58855.339450280604, -18843.124072924147, -5819.813110806122, -25303.828752497287, -0.188, 0.918, 0.328, 192.0, 0.0, 0.0, 0.0, 0.0, 0.0, 0.0, 0.0, 0.0, 0.0, 1.70095056462107E9, 0.0, 2023-11-25 17:16:04.621
54.0, 31030.94917904725, 40650.80471644458, -46124.858692271555, -40954.1178887031, -58890.163468141975, -18879.892692553127, -5931.46007436038, -25297.68202277208, -0.188, 0.918, 0.328, 192.0, 0.0, 0.0, 0.0, 0.0, 0.0, 0.0, 0.0, 0.0, 0.0, 1.70095056462401E9, 0.0, 2023-11-25 17:16:04.624
55.0, 31067.76250216514, 40733.39441220694, -46101.25525012675, -40902.61946947807, -58874.60665400108, -18853.607041073687, -6064.564712591733, -25271.41872303709, -0.188, 0.918, 0.328, 192.0, 0.0, 0.0, 0.0, 0.0, 0.0, 0.0, 0.0, 0.0, 0.0, 1.700950564628042E9, 0.0, 2023-11-25 17:16:04.628
56.0, 31122.591331314008, 40780.53424126318, -46063.23493280828, -40858.9441608124, -58825.36576096604, -18803.49443000489, -6064.050622469262, -25252.263278038896, -0.188, 0.918, 0.328, 192.0, 0.0, 0.0, 0.0, 0.0, 0.0, 0.0, 0.0, 0.0, 0.0, 1.700950564632019E9, 0.0, 2023-11-25 17:16:04.632
57.0, 31086.5379675076, 40690.36730413047, -46111.24647989828, -40926.066449411686, -58847.82926414362, -18833.825747230738, -5836.621622636512, -25336.059968001842, -0.188, 0.91, 0.332, 192.0, 250.0, 32.0, 28.0, 112.0, 10.0, 96.0, 0.0, 0.0, 0.0, 1.700950564636026E9, 0.0, 2023-11-25 17:16:04.636
58.0, 31036.648873883354, 40639.69589945029, -46127.20562543936, -40959.01292073881, -58892.689215265425, -18888.945149057527, -5930.498949348802, -25317.955054993043, -0.188, 0.91, 0.332, 192.0, 0.0, 0.0, 0.0, 0.0, 0.0, 0.0, 0.0, 0.0, 0.0, 1.700950564640031E9, 0.0, 2023-11-25 17:16:04.640
59.0, 31067.24841204267, 40708.8074933061, -46103.624535039016, -40911.38135330455, -58877.646491247004, -18856.691581808518, -6051.824218252208, -25270.457598025514, -0.188, 0.91, 0.332, 192.0, 0.0, 0.0, 0.0, 0.0, 0.0, 0.0, 0.0, 0.0, 0.0, 1.700950564646072E9, 0.0, 2023-11-25 17:16:04.646
60.0, 31127.553418583087, 40770.0736248581, -46055.30006352664, -40859.05591953468, -58827.533880178205, -18815.184392355015, -6113.515032948856, -25247.27883902536, -0.188, 0.91, 0.332, 192.0, 0.0, 0.0, 0.0, 0.0, 0.0, 0.0, 0.0, 0.0, 0.0, 1.700950564649101E9, 0.0, 2023-11-25 17:16:04.649
61.0, 31112.77891549813, 40697.0057722337, -46086.74896797526, -40905.27932706825, -58823.51056617625, -18813.373901054132, -5866.349442762071, -25304.879284486688, -0.188, 0.91, 0.332, 192.0, 0.0, 0.0, 0.0, 0.0, 0.0, 0.0, 0.0, 0.0, 0.0, 1.700950564652045E9, 0.0, 2023-11-25 17:16:04.652
62.0, 31046.66245539933, 40620.339288751995, -46118.17552067942, -40959.16938295, -58880.306348837184, -18895.65067239412, -5919.166614909961, -25330.15910746564, -0.188, 0.91, 0.332, 192.0, 0.0, 0.0, 0.0, 0.0, 0.0, 0.0, 0.0, 0.0, 0.0, 1.700950564656142E9, 0.0, 2023-11-25 17:16:04.656
63.0, 31061.526365462112, 40679.59376330302, -46107.71490427433, -40923.67481275497, -58876.32773832414, -18873.16481747208, -6038.033191923284, -25301.48181932948, -0.188, 0.91, 0.332, 192.0, 0.0, 0.0, 0.0, 0.0, 0.0, 0.0, 0.0, 0.0, 0.0, 1.700950564660093E9, 0.0, 2023-11-25 17:16:04.660
64.0, 31123.328938881034, 40765.625627711495, -46051.321453013596, -40858.0947945231, -58827.08684528909, -18831.791738485306, -6143.131094352138, -25249.558716959804, -0.188, 0.91, 0.332, 192.0, 0.0, 0.0, 0.0, 0.0, 0.0, 0.0, 0.0, 0.0, 0.0, 1.70095056466415E9, 0.0, 2023-11-25 17:16:04.664
65.0, 31130.86147676247, 40725.124266758474, -46057.4234792499, -40872.26580050776, -58794.11802221752, -18793.123220577625, -5898.603010011078, -25269.787045691854, -0.188, 0.91, 0.332, 192.0, 0.0, 0.0, 0.0, 0.0, 0.0, 0.0, 0.0, 0.0, 0.0, 1.700950564668201E9, 0.0, 2023-11-25 17:16:04.668
66.0, 31057.033664826595, 40630.95636736827, -46098.21541288083, -40946.741813032844, -58859.69804044939, -18884.78772458884, -5886.1530883494725, -25320.816078283322, -0.188, 0.91, 0.332, 192.0, 0.0, 0.0, 0.0, 0.0, 0.0, 0.0, 0.0, 0.0, 0.0, 1.700950564672127E9, 0.0, 2023-11-25 17:16:04.672
67.0, 31059.090025316484, 40673.6481992779, -46089.72174998782, -40921.0596586537, -58863.47548526234, -18869.0520964923, -6004.706740940421, -25292.295252358348, -0.194, 0.91, 0.334, 192.0, 249.0, 240.0, 28.0, 112.0, 10.0, 112.0, 0.0, 0.0, 0.0, 1.700950564675133E9, 0.0, 2023-11-25 17:16:04.675
68.0, 31115.036441688117, 40764.46333699982, -46040.32439474158, -40862.56514341416, -58825.96925806633, -18838.83253798873, -6133.028105858339, -25239.053397065807, -0.194, 0.91, 0.334, 192.0, 0.0, 0.0, 0.0, 0.0, 0.0, 0.0, 0.0, 0.0, 0.0, 1.700950564679171E9, 0.0, 2023-11-25 17:16:04.679
69.0, 31134.39305238641, 40743.20682802282, -46040.05617380812, -40865.381463215526, -58787.23368492528, -18789.412830998044, -5926.3638766245695, -25245.982437846953, -0.194, 0.91, 0.334, 192.0, 0.0, 0.0, 0.0, 0.0, 0.0, 0.0, 0.0, 0.0, 0.0, 1.700950564683189E9, 0.0, 2023-11-25 17:16:04.683
70.0, 31050.99869382366, 40634.77851567013, -46101.97050594932, -40954.90019975903, -58857.105238092576, -18885.145352500123, -5850.144428031973, -25316.949226492554, -0.194, 0.91, 0.334, 192.0, 0.0, 0.0, 0.0, 0.0, 0.0, 0.0, 0.0, 0.0, 0.0, 1.70095056468785E9, 0.0, 2023-11-25 17:16:04.687
71.0, 31041.946237319262, 40658.024329903645, -46098.39422683647, -40936.14708616103, -58866.58237774162, -18887.3581752012, -5977.884647594053, -25297.68202277208, -0.194, 0.91, 0.334, 192.0, 0.0, 0.0, 0.0, 0.0, 0.0, 0.0, 0.0, 0.0, 0.0, 1.70095056469223E9, 0.0, 2023-11-25 17:16:04.692
72.0, 31092.528235021622, 40753.08629907206, -46052.48374372527, -40871.70700689638, -58831.11015929105, -18849.58372707173, -6108.999980568884, -25227.251675993404, -0.194, 0.91, 0.334, 192.0, 0.0, 0.0, 0.0, 0.0, 0.0, 0.0, 0.0, 0.0, 0.0, 1.700950564696414E9, 0.0, 2023-11-25 17:16:04.696
73.0, 31135.01890123116, 40765.08918584457, -46029.863778336505, -40847.88004730702, -58774.15791441893, -18788.407002497555, -5971.424993446469, -25210.5996263742, -0.194, 0.91, 0.334, 192.0, 0.0, 0.0, 0.0, 0.0, 0.0, 0.0, 0.0, 0.0, 0.0, 1.700950564700347E9, 0.0, 2023-11-25 17:16:04.700
74.0, 31060.945220106274, 40655.25271359119, -46095.868479713026, -40937.801115250724, -58835.66991515993, -18870.393201159623, -5824.1046457415405, -25291.803513980332, -0.194, 0.91, 0.334, 192.0, 0.0, 0.0, 0.0, 0.0, 0.0, 0.0, 0.0, 0.0, 0.0, 1.700950564704087E9, 0.0, 2023-11-25 17:16:04.704
75.0, 31037.967626806218, 40659.43248980433, -46103.51277631674, -40938.58342630666, -58866.94000565291, -18897.908198584104, -5952.850693804109, -25290.596519779745, -0.194, 0.91, 0.334, 192.0, 0.0, 0.0, 0.0, 0.0, 0.0, 0.0, 0.0, 0.0, 0.0, 1.700950564707299E9, 0.0, 2023-11-25 17:16:04.707
76.0, 31073.551603979067, 40741.284577999664, -46078.45647078234, -40890.415417005475, -58856.50174099228, -18872.78483781634, -6092.079710016216, -25245.736568657943, -0.194, 0.91, 0.334, 192.0, 0.0, 0.0, 0.0, 0.0, 0.0, 0.0, 0.0, 0.0, 0.0, 1.700950564711304E9, 0.0, 2023-11-25 17:16:04.711
77.0, 31117.4951335782, 40772.73348244828, -46049.421554734894, -40856.86544857806, -58805.96444677883, -18811.47400277543, -6023.14693011605, -25210.286701951827, -0.194, 0.918, 0.332, 192.0, 249.0, 240.0, 28.0, 176.0, 10.0, 96.0, 0.0, 0.0, 0.0, 1.700950564717355E9, 0.0, 2023-11-25 17:16:04.717
78.0, 31062.845118384972, 40674.944600456314, -46105.59148855108, -40930.98383319186, -58843.962412352856, -18856.244546919414, -5814.158119458928, -25274.078580627272, -0.194, 0.918, 0.332, 192.0, 0.0, 0.0, 0.0, 0.0, 0.0, 0.0, 0.0, 0.0, 0.0, 1.700950564720397E9, 0.0, 2023-11-25 17:16:04.720
79.0, 31025.60711212243, 40644.814448930556, -46122.2882416592, -40949.11109794511, -58885.827229717645, -18901.439774208044, -5928.129664436539, -25292.56347329181, -0.194, 0.918, 0.332, 192.0, 0.0, 0.0, 0.0, 0.0, 0.0, 0.0, 0.0, 0.0, 0.0, 1.700950564724361E9, 0.0, 2023-11-25 17:16:04.724
80.0, 31059.246487527667, 40723.29142371314, -46100.62940128201, -40899.53492874324, -58871.96914815535, -18871.041401748826, -6059.62497706711, -25255.057246095806, -0.194, 0.918, 0.332, 192.0, 0.0, 0.0, 0.0, 0.0, 0.0, 0.0, 0.0, 0.0, 0.0, 1.70095056472843E9, 0.0, 2023-11-25 17:16:04.728
81.0, 31118.79153475661, 40785.29516283216, -46050.695604168846, -40839.27462569173, -58808.244324713276, -18803.91911314954, -6068.900951016063, -25203.35766117068, -0.194, 0.918, 0.332, 192.0, 0.0, 0.0, 0.0, 0.0, 0.0, 0.0, 0.0, 0.0, 0.0, 1.700950564731383E9, 0.0, 2023-11-25 17:16:04.731
82.0, 31085.710952962752, 40704.381847903955, -46096.29316285768, -40897.36680953107, -58822.97412430932, -18814.782060954818, -5822.718837585311, -25267.10483635722, -0.194, 0.918, 0.332, 192.0, 0.0, 0.0, 0.0, 0.0, 0.0, 0.0, 0.0, 0.0, 0.0, 1.700950564735462E9, 0.0, 2023-11-25 17:16:04.735
83.0, 31025.29418770006, 40642.311053551566, -46130.245462685285, -40947.39001362205, -58886.85540996259, -18895.53891367184, -5917.490234075813, -25315.697528803055, -0.194, 0.918, 0.332, 192.0, 0.0, 0.0, 0.0, 0.0, 0.0, 0.0, 0.0, 0.0, 0.0, 1.700950564739372E9, 0.0, 2023-11-25 17:16:04.739
84.0, 31050.35049323446, 40713.30019394162, -46111.40294210946, -40903.67000146747, -58876.528904024235, -18868.62741334765, -6049.991375206873, -25297.123229160694, -0.194, 0.918, 0.332, 192.0, 0.0, 0.0, 0.0, 0.0, 0.0, 0.0, 0.0, 0.0, 0.0, 1.700950564743369E9, 0.0, 2023-11-25 17:16:04.743
85.0, 31108.2415113737, 40786.45745354384, -46061.513848485214, -40848.528247896225, -58824.69520863238, -18821.599343013688, -6113.872660860141, -25247.100025069718, -0.194, 0.918, 0.332, 192.0, 0.0, 0.0, 0.0, 0.0, 0.0, 0.0, 0.0, 0.0, 0.0, 1.70095056474742E9, 0.0, 2023-11-25 17:16:04.747
86.0, 31087.655554730365, 40714.28367069765, -46099.66827627042, -40896.42803626395, -58823.331752220605, -18811.76457545335, -5856.425268223914, -25285.477970299482, -0.194, 0.918, 0.332, 192.0, 0.0, 0.0, 0.0, 0.0, 0.0, 0.0, 0.0, 0.0, 0.0, 1.700950564752475E9, 0.0, 2023-11-25 17:16:04.752
87.0, 31025.450649911243, 40640.00882387267, -46134.24642494279, -40957.60476083813, -58883.726165738844, -18898.44464045103, -5903.5203937912465, -25326.359310908236, -0.19, 0.908, 0.338, 192.0, 250.0, 16.0, 28.0, 96.0, 10.0, 144.0, 0.0, 0.0, 0.0, 1.700950564757647E9, 0.0, 2023-11-25 17:16:04.757
88.0, 31041.23098149669, 40699.37505714596, -46124.99280273829, -40924.74769648883, -58882.60857851608, -18878.864512308184, -6030.4335988084795, -25302.53235131888, -0.19, 0.908, 0.338, 192.0, 0.0, 0.0, 0.0, 0.0, 0.0, 0.0, 0.0, 0.0, 0.0, 1.700950564759469E9, 0.0, 2023-11-25 17:16:04.759
89.0, 31102.608871770964, 40788.98320066729, -46076.04248238116, -40863.43686144792, -58839.35795299506, -18840.3971601006, -6143.376963541146, -25250.18456580455, -0.19, 0.908, 0.338, 192.0, 0.0, 0.0, 0.0, 0.0, 0.0, 0.0, 0.0, 0.0, 0.0, 1.700950564763457E9, 0.0, 2023-11-25 17:16:04.763
90.0, 31116.981043455726, 40755.54499096215, -46084.40203480745, -40877.63021917704, -58808.512545646736, -18800.81222067025, -5898.982989666819, -25279.979441163476, -0.19, 0.908, 0.338, 192.0, 0.0, 0.0, 0.0, 0.0, 0.0, 0.0, 0.0, 0.0, 0.0, 1.700950564767546E9, 0.0, 2023-11-25 17:16:04.767
91.0, 31042.750900119652, 40655.56563801356, -46136.10161973257, -40956.44247012645, -58877.60178775809, -18897.97525381747, -5877.525314989724, -25347.235840229492, -0.19, 0.908, 0.338, 192.0, 0.0, 0.0, 0.0, 0.0, 0.0, 0.0, 0.0, 0.0, 0.0, 1.700950564771436E9, 0.0, 2023-11-25 17:16:04.771
92.0, 31044.494336187166, 40693.02716172065, -46133.97820400932, -40932.36964134809, -58883.92733143894, -18887.671099623574, -5999.699950182432, -25325.01820624092, -0.19, 0.908, 0.338, 192.0, 0.0, 0.0, 0.0, 0.0, 0.0, 0.0, 0.0, 0.0, 0.0, 1.700950564775422E9, 0.0, 2023-11-25 17:16:04.775
93.0, 31100.2395868587, 40785.29516283216, -46088.40299706495, -40871.08115805163, -58848.25394728827, -18856.98215448644, -6137.07377160475, -25275.33027831677, -0.19, 0.908, 0.338, 192.0, 0.0, 0.0, 0.0, 0.0, 0.0, 0.0, 0.0, 0.0, 0.0, 1.700950564779469E9, 0.0, 2023-11-25 17:16:04.779
94.0, 31129.810944773075, 40778.94726740685, -46080.22225859431, -40860.195858501895, -58800.10828973154, -18797.437107257498, -5944.602900100101, -25273.497435271434, -0.19, 0.908, 0.338, 192.0, 0.0, 0.0, 0.0, 0.0, 0.0, 0.0, 0.0, 0.0, 0.0, 1.700950564784476E9, 0.0, 2023-11-25 17:16:04.784
95.0, 31060.38642649489, 40678.85615573599, -46134.157017964964, -40938.650481540026, -58859.16159858246, -18877.74692508542, -5841.404895949948, -25320.704319561046, -0.19, 0.908, 0.338, 192.0, 0.0, 0.0, 0.0, 0.0, 0.0, 0.0, 0.0, 0.0, 0.0, 1.700950564787453E9, 0.0, 2023-11-25 17:16:04.787
96.0, 31049.881106600897, 40701.25260368021, -46137.55448312217, -40921.506693542804, -58876.55125576869, -18883.536026899343, -5971.3802899575585, -25312.34476713476, -0.19, 0.908, 0.338, 192.0, 0.0, 0.0, 0.0, 0.0, 0.0, 0.0, 0.0, 0.0, 0.0, 1.700950564791518E9, 0.0, 2023-11-25 17:16:04.791
97.0, 31094.383429811412, 40789.20671811184, -46105.993819951276, -40866.72256788285, -58856.43468575891, -18859.21732893197, -6118.365361495657, -25280.582938263768, -0.192, 0.908, 0.336, 192.0, 250.0, 0.0, 28.0, 96.0, 10.0, 128.0, 0.0, 0.0, 0.0, 1.700950564795508E9, 0.0, 2023-11-25 17:16:04.795
98.0, 31133.431927374833, 40802.036619429186, -46088.55945927614, -40842.515628637746, -58807.35025493506, -18801.773345681828, -5996.23542979186, -25273.028048637876, -0.192, 0.908, 0.336, 192.0, 0.0, 0.0, 0.0, 0.0, 0.0, 0.0, 0.0, 0.0, 0.0, 1.700950564799499E9, 0.0, 2023-11-25 17:16:04.799
99.0, 31069.81886265503, 40696.558737344596, -46146.115201248555, -40917.97511791887, -58856.43468575891, -18857.876224264648, -5826.809206820632, -25317.552723592846, -0.192, 0.908, 0.336, 192.0, 0.0, 0.0, 0.0, 0.0, 0.0, 0.0, 0.0, 0.0, 0.0, 1.700950564803538E9, 0.0, 2023-11-25 17:16:04.803
100.0, 31033.4749261707, 40684.309981383085, -46163.884838090526, -40928.41338257949, -58896.64547403401, -18888.945149057527, -5950.816685058676, -25316.502191603446, -0.192, 0.908, 0.336, 192.0, 0.0, 0.0, 0.0, 0.0, 0.0, 0.0, 0.0, 0.0, 0.0, 1.70095056480749E9, 0.0, 2023-11-25 17:16:04.807
101.0, 31077.798435425575, 40772.86759291501, -46128.47967487331, -40872.95870458588, -58875.970110412854, -18860.82665453275, -6096.371244951635, -25276.80549345082, -0.192, 0.908, 0.336, 192.0, 0.0, 0.0, 0.0, 0.0, 0.0, 0.0, 0.0, 0.0, 0.0, 1.700950564812535E9, 0.0, 2023-11-25 17:16:04.812
102.0, 31132.604912829986, 40813.6818782904, -46089.431177309896, -40831.250349432274, -58817.11796726203, -18796.52068573483, -6039.5754622907, -25252.9114786281, -0.192, 0.908, 0.336, 192.0, 0.0, 0.0, 0.0, 0.0, 0.0, 0.0, 0.0, 0.0, 0.0, 1.700950564815504E9, 0.0, 2023-11-25 17:16:04.815
103.0, 31083.364019794946, 40718.776371333166, -46142.98595702481, -40905.39108579053, -58850.55617696717, -18839.145462411103, -5825.91513704242, -25317.999758481954, -0.192, 0.908, 0.336, 192.0, 0.0, 0.0, 0.0, 0.0, 0.0, 0.0, 0.0, 0.0, 0.0, 1.700950564819548E9, 0.0, 2023-11-25 17:16:04.819
104.0, 31041.834478596986, 40689.58499307454, -46155.72645136434, -40926.9605191899, -58889.537619297225, -18887.805210090304, -5940.065495975673, -25314.95992123603, -0.192, 0.908, 0.336, 192.0, 0.0, 0.0, 0.0, 0.0, 0.0, 0.0, 0.0, 0.0, 0.0, 1.700950564823543E9, 0.0, 2023-11-25 17:16:04.823
105.0, 31072.366961522934, 40768.486651001775, -46132.838265042104, -40881.63118143454, -58876.953587168886, -18863.642974334118, -6071.314939417236, -25285.18739762156, -0.192, 0.908, 0.336, 192.0, 0.0, 0.0, 0.0, 0.0, 0.0, 0.0, 0.0, 0.0, 0.0, 1.700950564827559E9, 0.0, 2023-11-25 17:16:04.827
106.0, 31138.706939066287, 40835.83245704561, -46082.61389525102, -40828.90341626447, -58817.4308916844, -18812.993921398393, -6093.0631867722495, -25259.639353709146, -0.192, 0.908, 0.336, 192.0, 0.0, 0.0, 0.0, 0.0, 0.0, 0.0, 0.0, 0.0, 0.0, 1.700950564831542E9, 0.0, 2023-11-25 17:16:04.831
107.0, 31116.10932542197, 40760.06004334212, -46122.5341108482, -40883.93341111343, -58826.79627261118, -18827.746072738897, -5846.478741941302, -25318.44679337106, -0.196, 0.912, 0.324, 192.0, 249.0, 224.0, 28.0, 128.0, 10.0, 32.0, 0.0, 0.0, 0.0, 1.700950564835673E9, 0.0, 2023-11-25 17:16:04.835
108.0, 31058.128900304902, 40700.045609479625, -46149.62442512804, -40930.58150179166, -58885.51430529527, -18903.674948653574, -5927.637926058523, -25341.379683182204, -0.196, 0.912, 0.324, 192.0, 0.0, 0.0, 0.0, 0.0, 0.0, 0.0, 0.0, 0.0, 0.0, 1.700950564839585E9, 0.0, 2023-11-25 17:16:04.839
109.0, 31077.261993558648, 40770.40890102493, -46133.28529993121, -40890.415417005475, -58881.46863954886, -18882.172570487568, -6062.038965468284, -25319.05029047135, -0.196, 0.912, 0.324, 192.0, 0.0, 0.0, 0.0, 0.0, 0.0, 0.0, 0.0, 0.0, 0.0, 1.700950564842661E9, 0.0, 2023-11-25 17:16:04.842
110.0, 31133.990720986218, 40847.85769556257, -46081.98804640628, -40831.406811643465, -58831.154862779964, -18836.619715287652, -6135.710315192976, -25258.633525208657, -0.196, 0.912, 0.324, 192.0, 0.0, 0.0, 0.0, 0.0, 0.0, 0.0, 0.0, 0.0, 0.0, 1.700950564847738E9, 0.0, 2023-11-25 17:16:04.847
111.0, 31122.613683058466, 40789.29612508966, -46106.10557867355, -40869.58359117313, -58816.603877139554, -18816.972531911437, -5874.910160888453, -25287.28846160036, -0.196, 0.912, 0.324, 192.0, 0.0, 0.0, 0.0, 0.0, 0.0, 0.0, 0.0, 0.0, 0.0, 1.700950564851645E9, 0.0, 2023-11-25 17:16:04.851
112.0, 31048.495298444668, 40701.14084495793, -46143.097715747084, -40938.94105421795, -58883.05561340519, -18910.000492334424, -5908.661295015967, -25332.550744122356, -0.196, 0.912, 0.324, 192.0, 0.0, 0.0, 0.0, 0.0, 0.0, 0.0, 0.0, 0.0, 0.0, 1.700950564855655E9, 0.0, 2023-11-25 17:16:04.855
113.0, 31071.517595233632, 40764.776261422194, -46118.53314859071, -40894.63989670752, -58869.21988358735, -18880.384430931143, -6027.9078516850295, -25291.37883083568, -0.196, 0.912, 0.324, 192.0, 0.0, 0.0, 0.0, 0.0, 0.0, 0.0, 0.0, 0.0, 0.0, 1.700950564859737E9, 0.0, 2023-11-25 17:16:04.859
114.0, 31127.709880794275, 40846.27072170624, -46070.99098813427, -40838.69348033589, -58830.327848235116, -18851.39421837261, -6142.572300740755, -25254.364342017692, -0.196, 0.912, 0.324, 192.0, 0.0, 0.0, 0.0, 0.0, 0.0, 0.0, 0.0, 0.0, 0.0, 1.70095056486377E9, 0.0, 2023-11-25 17:16:04.863
115.0, 31136.672930320852, 40811.960793967344, -46086.54780227516, -40860.59818990209, -58807.14908923496, -18824.616828515154, -5926.565042324668, -25317.418613126116, -0.196, 0.912, 0.324, 192.0, 0.0, 0.0, 0.0, 0.0, 0.0, 0.0, 0.0, 0.0, 0.0, 1.700950564867801E9, 0.0, 2023-11-25 17:16:04.867
116.0, 31054.686731658785, 40705.700600826814, -46142.31540469115, -40945.73598453236, -58880.105183137086, -18921.109309328713, -5886.130736605017, -25380.942270868098, -0.196, 0.912, 0.324, 192.0, 0.0, 0.0, 0.0, 0.0, 0.0, 0.0, 0.0, 0.0, 0.0, 1.700950564870759E9, 0.0, 2023-11-25 17:16:04.870
117.0, 31053.457385713744, 40738.423554709385, -46138.04622150019, -40920.83614120915, -58887.21303787387, -18908.681739411564, -6008.372427031091, -25332.729558078, -0.192, 0.914, 0.326, 192.0, 250.0, 0.0, 28.0, 144.0, 10.0, 48.0, 0.0, 0.0, 0.0, 1.700950564876773E9, 0.0, 2023-11-25 17:16:04.876
118.0, 31110.25316837468, 40837.911169279956, -46086.74896797526, -40856.32900671113, -58848.87979613302, -18869.70029708151, -6147.623794987655, -25268.177720091073, -0.192, 0.914, 0.326, 192.0, 0.0, 0.0, 0.0, 0.0, 0.0, 0.0, 0.0, 0.0, 0.0, 1.700950564880811E9, 0.0, 2023-11-25 17:16:04.880
119.0, 31139.06456697757, 40828.76930579774, -46075.863668425525, -40844.527285638724, -58796.688472829876, -18801.996863126384, -5957.008118272796, -25255.884260640654, -0.192, 0.914, 0.326, 192.0, 0.0, 0.0, 0.0, 0.0, 0.0, 0.0, 0.0, 0.0, 0.0, 1.700950564884817E9, 0.0, 2023-11-25 17:16:04.884
120.0, 31056.206650281747, 40708.53927237264, -46141.4883901463, -40938.918702473486, -58865.755363196775, -18890.845047336228, -5843.997698306764, -25326.001682996954, -0.192, 0.914, 0.326, 192.0, 0.0, 0.0, 0.0, 0.0, 0.0, 0.0, 0.0, 0.0, 0.0, 1.700950564889824E9, 0.0, 2023-11-25 17:16:04.889
121.0, 31037.252370983646, 40719.37986843346, -46145.60111112608, -40933.0625454262, -58886.76600298477, -18901.015091063393, -5977.616426660589, -25322.715976562024, -0.192, 0.914, 0.326, 192.0, 0.0, 0.0, 0.0, 0.0, 0.0, 0.0, 0.0, 0.0, 0.0, 1.700950564892833E9, 0.0, 2023-11-25 17:16:04.892
122.0, 31084.2357378287, 40805.70230551986, -46105.72559901782, -40873.53984994171, -58863.05080211769, -18866.526349368854, -6112.889184104108, -25276.492569028447, -0.192, 0.914, 0.326, 192.0, 0.0, 0.0, 0.0, 0.0, 0.0, 0.0, 0.0, 0.0, 0.0, 1.700950564896447E9, 0.0, 2023-11-25 17:16:04.896
123.0, 31125.385299370922, 40816.788770769694, -46085.989008663775, -40848.1929717294, -58815.46393817234, -18806.176639339523, -5994.491993724346, -25271.932813159565, -0.192, 0.914, 0.326, 192.0, 0.0, 0.0, 0.0, 0.0, 0.0, 0.0, 0.0, 0.0, 0.0, 1.700950564898806E9, 0.0, 2023-11-25 17:16:04.898
124.0, 31067.315467276036, 40714.84246430903, -46144.70704134787, -40924.77004823328, -58864.54836899619, -18859.284384165334, -5816.460349137825, -25323.274770173404, -0.192, 0.914, 0.326, 192.0, 0.0, 0.0, 0.0, 0.0, 0.0, 0.0, 0.0, 0.0, 0.0, 1.70095056490284E9, 0.0, 2023-11-25 17:16:04.902
125.0, 31042.035644297084, 40705.141807215434, -46151.41256468446, -40925.373545333576, -58894.18678214393, -18881.323204198266, -5939.104370964095, -25305.43807809807, -0.192, 0.914, 0.326, 192.0, 0.0, 0.0, 0.0, 0.0, 0.0, 0.0, 0.0, 0.0, 0.0, 1.700950564906804E9, 0.0, 2023-11-25 17:16:04.906
126.0, 31084.705124462263, 40790.97250592381, -46121.50593060326, -40870.38825397352, -58875.634834246026, -18848.220270659956, -6078.400442409568, -25260.444016509537, -0.192, 0.914, 0.326, 192.0, 0.0, 0.0, 0.0, 0.0, 0.0, 0.0, 0.0, 0.0, 0.0, 1.700950564911905E9, 0.0, 2023-11-25 17:16:04.911
127.0, 31139.221029188757, 40832.859675033054, -46090.16878487692, -40831.69738432138, -58824.89637433248, -18793.48084848891, -6046.593910049666, -25248.731702414956, -0.198, 0.912, 0.33, 192.0, 249.0, 208.0, 28.0, 128.0, 10.0, 80.0, 0.0, 0.0, 0.0, 1.700950564915941E9, 0.0, 2023-11-25 17:16:04.915
128.0, 31100.641918258898, 40743.29623500064, -46141.55544537967, -40899.646687465516, -58853.57366246863, -18830.80826172927, -5836.956898803342, -25312.322415390303, -0.198, 0.912, 0.33, 192.0, 0.0, 0.0, 0.0, 0.0, 0.0, 0.0, 0.0, 0.0, 0.0, 1.700950564920038E9, 0.0, 2023-11-25 17:16:04.920
129.0, 31061.280496273102, 40706.281746182656, -46156.1958379979, -40924.77004823328, -58895.818459489165, -18884.944186800025, -5949.7214495803655, -25316.01045322543, -0.198, 0.912, 0.33, 192.0, 0.0, 0.0, 0.0, 0.0, 0.0, 0.0, 0.0, 0.0, 0.0, 1.700950564922883E9, 0.0, 2023-11-25 17:16:04.922
130.0, 31094.763409467152, 40785.74219772127, -46134.00055575378, -40881.6982366679, -58884.68729075042, -18864.849968534705, -6086.87175355813, -25288.80838022332, -0.198, 0.912, 0.33, 192.0, 0.0, 0.0, 0.0, 0.0, 0.0, 0.0, 0.0, 0.0, 0.0, 1.700950564926893E9, 0.0, 2023-11-25 17:16:04.926
131.0, 31163.204450989302, 40856.03843403321, -46081.943342917366, -40827.204683685864, -58826.08101678861, -18817.978360411926, -6122.612192942166, -25262.925060144076, -0.198, 0.912, 0.33, 192.0, 0.0, 0.0, 0.0, 0.0, 0.0, 0.0, 0.0, 0.0, 0.0, 1.700950564930894E9, 0.0, 2023-11-25 17:16:04.930
132.0, 31139.623360588954, 40774.09693886006, -46120.70126780287, -40881.36296050107, -58830.84193835759, -18826.472023304945, -5865.5447799616795, -25324.727633563, -0.198, 0.912, 0.33, 192.0, 0.0, 0.0, 0.0, 0.0, 0.0, 0.0, 0.0, 0.0, 0.0, 1.700950564935037E9, 0.0, 2023-11-25 17:16:04.935
133.0, 31077.82078717003, 40701.61023159149, -46143.947082036386, -40928.927472701966, -58883.70381399439, -18901.30566374131, -5939.46199887538, -25339.368026181226, -0.198, 0.912, 0.33, 192.0, 0.0, 0.0, 0.0, 0.0, 0.0, 0.0, 0.0, 0.0, 0.0, 1.700950564939946E9, 0.0, 2023-11-25 17:16:04.939
134.0, 31102.631223515422, 40773.35933129303, -46122.13177944801, -40887.152062315, -58875.0983923791, -18877.188131474035, -6062.7765730353085, -25314.222313669005, -0.198, 0.912, 0.33, 192.0, 0.0, 0.0, 0.0, 0.0, 0.0, 0.0, 0.0, 0.0, 0.0, 1.700950564943966E9, 0.0, 2023-11-25 17:16:04.943
135.0, 31164.009113789692, 40857.78187010073, -46068.19702007735, -40827.18233194141, -58824.874022588025, -18833.043436174805, -6142.237024573926, -25253.425568750572, -0.198, 0.912, 0.33, 192.0, 0.0, 0.0, 0.0, 0.0, 0.0, 0.0, 0.0, 0.0, 0.0, 1.700950564948417E9, 0.0, 2023-11-25 17:16:04.948
136.0, 31161.773939344162, 40802.2824886182, -46087.35246507555, -40856.41841368895, -58803.99749326676, -18807.80831668476, -5884.946094148886, -25282.751057475933, -0.198, 0.912, 0.33, 192.0, 0.0, 0.0, 0.0, 0.0, 0.0, 0.0, 0.0, 0.0, 0.0, 1.700950564950971E9, 0.0, 2023-11-25 17:16:04.950
137.0, 31086.24739482968, 40706.63937409394, -46132.12300921953, -40930.71561225839, -58875.12074412355, -18905.977178332472, -5901.419329812447, -25336.797575568864, -0.196, 0.916, 0.336, 192.0, 249.0, 224.0, 28.0, 160.0, 10.0, 128.0, 0.0, 0.0, 0.0, 1.70095056495497E9, 0.0, 2023-11-25 17:16:04.954
138.0, 31099.34551708049, 40765.4244620114, -46118.66725905744, -40898.66321070948, -58874.87487493455, -18892.230855492457, -6023.169281860505, -25322.87243877321, -0.196, 0.916, 0.336, 192.0, 0.0, 0.0, 0.0, 0.0, 0.0, 0.0, 0.0, 0.0, 0.0, 1.700950564961039E9, 0.0, 2023-11-25 17:16:04.961
139.0, 31162.019808533172, 40857.066614278156, -46063.83842990857, -40835.65364308997, -58829.99257206829, -18853.718799795963, -6143.220501329959, -25269.027086380374, -0.196, 0.916, 0.336, 192.0, 0.0, 0.0, 0.0, 0.0, 0.0, 0.0, 0.0, 0.0, 0.0, 1.70095056496425E9, 0.0, 2023-11-25 17:16:04.964
140.0, 31174.670895894877, 40825.64006157399, -46072.04152012367, -40848.1929717294, -58796.08497572959, -18805.260217816856, -5910.181213638927, -25277.029010895374, -0.196, 0.916, 0.336, 192.0, 0.0, 0.0, 0.0, 0.0, 0.0, 0.0, 0.0, 0.0, 0.0, 1.700950564967947E9, 0.0, 2023-11-25 17:16:04.967
141.0, 31097.646784501885, 40723.9619760468, -46124.36695389354, -40928.25692036831, -58863.877816662534, -18894.466029937987, -5861.834390382099, -25329.086223731785, -0.196, 0.916, 0.336, 192.0, 0.0, 0.0, 0.0, 0.0, 0.0, 0.0, 0.0, 0.0, 0.0, 1.700950564972121E9, 0.0, 2023-11-25 17:16:04.972
142.0, 31094.942223422793, 40757.847220641044, -46119.11429394654, -40901.166606088475, -58869.89043592101, -18879.088029752736, -5978.08581329415, -25292.094086658253, -0.196, 0.916, 0.336, 192.0, 0.0, 0.0, 0.0, 0.0, 0.0, 0.0, 0.0, 0.0, 0.0, 1.700950564975993E9, 0.0, 2023-11-25 17:16:04.975
143.0, 31143.490212379722, 40844.08025074962, -46079.30583707164, -40845.0413757612, -58841.45901697386, -18850.16487242757, -6115.124358549638, -25246.56358320279, -0.196, 0.916, 0.336, 192.0, 0.0, 0.0, 0.0, 0.0, 0.0, 0.0, 0.0, 0.0, 0.0, 1.700950564979097E9, 0.0, 2023-11-25 17:16:04.979
144.0, 31174.06739879458, 40839.94517802539, -46070.320435800604, -40838.2911489357, -58796.53201061869, -18793.771421166828, -5938.031487230241, -25242.316751756283, -0.196, 0.916, 0.336, 192.0, 0.0, 0.0, 0.0, 0.0, 0.0, 0.0, 0.0, 0.0, 0.0, 1.7009505649831E9, 0.0, 2023-11-25 17:16:04.983
145.0, 31100.798380470085, 40731.5168656727, -46128.99376499579, -40924.63593776655, -58858.781618926725, -18873.611852361188, -5817.175604960395, -25300.319528617805, -0.196, 0.916, 0.336, 192.0, 0.0, 0.0, 0.0, 0.0, 0.0, 0.0, 0.0, 0.0, 0.0, 1.70095056498717E9, 0.0, 2023-11-25 17:16:04.987
146.0, 31078.647801714877, 40734.82492385208, -46135.900454032475, -40922.3113563432, -58885.93898843992, -18892.29791072582, -5952.269548448271, -25312.501229345948, -0.196, 0.916, 0.336, 192.0, 0.0, 0.0, 0.0, 0.0, 0.0, 0.0, 0.0, 0.0, 0.0, 1.700950564991052E9, 0.0, 2023-11-25 17:16:04.991
147.0, 31120.22204640175, 40817.36991612553, -46103.199851894366, -40872.019931318755, -58869.17518009844, -18873.857721550194, -6097.622942641133, -25292.407011080624, -0.194, 0.912, 0.328, 192.0, 249.0, 240.0, 28.0, 128.0, 10.0, 64.0, 0.0, 0.0, 0.0, 1.700950564995067E9, 0.0, 2023-11-25 17:16:04.995
148.0, 31162.645657377918, 40835.40777390096, -46078.70233997135, -40845.443707161394, -58818.146147506974, -18816.72666272243, -5999.096453082139, -25286.550854033336, -0.194, 0.912, 0.328, 192.0, 0.0, 0.0, 0.0, 0.0, 0.0, 0.0, 0.0, 0.0, 0.0, 1.700950565000099E9, 0.0, 2023-11-25 17:16:05.000
149.0, 31111.080182919526, 40738.691775642845, -46127.16092195045, -40913.57182426117, -58851.62906070102, -18853.718799795963, -5812.146462457951, -25302.085316429773, -0.194, 0.912, 0.328, 192.0, 0.0, 0.0, 0.0, 0.0, 0.0, 0.0, 0.0, 0.0, 0.0, 1.700950565004109E9, 0.0, 2023-11-25 17:16:05.004
150.0, 31079.67598195982, 40720.05042076712, -46140.14728547899, -40922.89250169903, -58884.284959350225, -18885.659442622597, -5935.84101627362, -25292.988156436462, -0.194, 0.912, 0.328, 192.0, 0.0, 0.0, 0.0, 0.0, 0.0, 0.0, 0.0, 0.0, 0.0, 1.700950565007267E9, 0.0, 2023-11-25 17:16:05.007
151.0, 31119.14916266789, 40806.439913086884, -46113.258136899254, -40873.137518541516, -58869.59986324309, -18860.983116743937, -6081.999073266873, -25259.505243242413, -0.194, 0.912, 0.328, 192.0, 0.0, 0.0, 0.0, 0.0, 0.0, 0.0, 0.0, 0.0, 0.0, 1.700950565011114E9, 0.0, 2023-11-25 17:16:05.011
152.0, 31180.772922131175, 40860.50878292427, -46068.867572411014, -40825.08126796261, -58809.96540903633, -18800.901627648072, -6059.915549745029, -25234.113661541185, -0.194, 0.912, 0.328, 192.0, 0.0, 0.0, 0.0, 0.0, 0.0, 0.0, 0.0, 0.0, 0.0, 1.700950565015194E9, 0.0, 2023-11-25 17:16:05.015
153.0, 31142.484383879233, 40772.57702023709, -46116.14151193399, -40892.44942575091, -58832.74183663629, -18830.607096029176, -5827.368000432015, -25299.648976284145, -0.194, 0.912, 0.328, 192.0, 0.0, 0.0, 0.0, 0.0, 0.0, 0.0, 0.0, 0.0, 0.0, 1.700950565019948E9, 0.0, 2023-11-25 17:16:05.019
154.0, 31095.255147845168, 40729.79578134963, -46132.771209808736, -40922.5125220433, -58878.11587788056, -18888.386355446142, -5931.482426104835, -25303.761697263923, -0.194, 0.912, 0.328, 192.0, 0.0, 0.0, 0.0, 0.0, 0.0, 0.0, 0.0, 0.0, 0.0, 1.700950565023156E9, 0.0, 2023-11-25 17:16:05.023
155.0, 31125.675872048843, 40810.10559917756, -46113.50400608826, -40878.90426861099, -58867.65526147548, -18863.084180722737, -6060.273177656314, -25267.417760779594, -0.194, 0.912, 0.328, 192.0, 0.0, 0.0, 0.0, 0.0, 0.0, 0.0, 0.0, 0.0, 0.0, 1.700950565028297E9, 0.0, 2023-11-25 17:16:05.028
156.0, 31189.333640257555, 40887.77791115975, -46061.98323511878, -40822.309651650154, -58810.27833345871, -18815.832592944218, -6106.965971823451, -25231.90083884011, -0.194, 0.912, 0.328, 192.0, 0.0, 0.0, 0.0, 0.0, 0.0, 0.0, 0.0, 0.0, 0.0, 1.700950565032279E9, 0.0, 2023-11-25 17:16:05.032
157.0, 31177.21899476278, 40820.633270816004, -46090.63817151048, -40864.62150390405, -58803.908086288946, -18811.809278942263, -5848.825675109109, -25287.80255172283, -0.196, 0.916, 0.328, 192.0, 249.0, 224.0, 28.0, 160.0, 10.0, 64.0, 0.0, 0.0, 0.0, 1.70095056503528E9, 0.0, 2023-11-25 17:16:05.035
158.0, 31111.72838350873, 40744.05619431212, -46120.388343380495, -40917.393972563026, -58861.48618000581, -18897.327053228266, -5910.270620616749, -25320.279636416395, -0.196, 0.916, 0.328, 192.0, 0.0, 0.0, 0.0, 0.0, 0.0, 0.0, 0.0, 0.0, 0.0, 1.700950565039261E9, 0.0, 2023-11-25 17:16:05.039
159.0, 31135.555343098087, 40812.29607013417, -46097.097825658064, -40869.40477721748, -58847.40458099897, -18866.861625535683, -6030.031267408284, -25283.75688597642, -0.196, 0.916, 0.328, 192.0, 0.0, 0.0, 0.0, 0.0, 0.0, 0.0, 0.0, 0.0, 0.0, 1.700950565043221E9, 0.0, 2023-11-25 17:16:05.043
160.0, 31189.3112885131, 40883.061693079675, -46053.57897920358, -40814.88887249099, -58808.244324713276, -18833.937505953018, -6123.103931320183, -25257.962972874997, -0.196, 0.916, 0.328, 192.0, 0.0, 0.0, 0.0, 0.0, 0.0, 0.0, 0.0, 0.0, 0.0, 1.700950565047314E9, 0.0, 2023-11-25 17:16:05.047
161.0, 31182.87398610997, 40821.70615454986, -46081.89863942846, -40850.40579443047, -58794.92268501791, -18815.542020266297, -5877.3465010340815, -25301.884150729675, -0.196, 0.916, 0.328, 192.0, 0.0, 0.0, 0.0, 0.0, 0.0, 0.0, 0.0, 0.0, 0.0, 1.700950565052248E9, 0.0, 2023-11-25 17:16:05.052
162.0, 31109.046174174095, 40729.058173782614, -46120.72361954732, -40916.63401325155, -58857.93225263742, -18900.523352685377, -5886.7342337053105, -25330.00264525445, -0.196, 0.916, 0.328, 192.0, 0.0, 0.0, 0.0, 0.0, 0.0, 0.0, 0.0, 0.0, 0.0, 1.700950565055258E9, 0.0, 2023-11-25 17:16:05.055
163.0, 31114.05296493208, 40779.34959880705, -46110.79944500917, -40886.23564079233, -58860.48035150533, -18879.445657664022, -6007.299543297237, -25305.236912397973, -0.196, 0.916, 0.328, 192.0, 0.0, 0.0, 0.0, 0.0, 0.0, 0.0, 0.0, 0.0, 0.0, 1.700950565059308E9, 0.0, 2023-11-25 17:16:05.059
164.0, 31157.907087553394, 40856.66428287796, -46070.94628464535, -40835.65364308997, -58832.36185698055, -18848.756712526883, -6123.618021442655, -25253.47027223948, -0.196, 0.916, 0.328, 192.0, 0.0, 0.0, 0.0, 0.0, 0.0, 0.0, 0.0, 0.0, 0.0, 1.700950565063286E9, 0.0, 2023-11-25 17:16:05.063
165.0, 31178.02365756317, 40832.07736397712, -46072.01916837921, -40842.247407704286, -58794.676815828905, -18796.90066539057, -5907.6331147710225, -25260.15344383162, -0.196, 0.916, 0.328, 192.0, 0.0, 0.0, 0.0, 0.0, 0.0, 0.0, 0.0, 0.0, 0.0, 1.700950565067296E9, 0.0, 2023-11-25 17:16:05.067
166.0, 31100.77602872563, 40728.141752259944, -46123.56229109315, -40925.842931967134, -58859.11689509355, -18883.69248911053, -5844.020050051218, -25315.406956125138, -0.196, 0.916, 0.328, 192.0, 0.0, 0.0, 0.0, 0.0, 0.0, 0.0, 0.0, 0.0, 0.0, 1.700950565072661E9, 0.0, 2023-11-25 17:16:05.072
167.0, 31090.985964654206, 40749.621778681496, -46120.96948873634, -40910.04024863723, -58872.46088653337, -18882.060811765292, -5967.915769566986, -25305.080450186786, -0.198, 0.914, 0.322, 192.0, 249.0, 208.0, 28.0, 144.0, 10.0, 16.0, 0.0, 0.0, 0.0, 1.700950565075267E9, 0.0, 2023-11-25 17:16:05.075
168.0, 31137.63405533243, 40837.37472741303, -46082.725653973306, -40859.19003000141, -58848.94685136639, -18856.333953897232, -6106.049550300783, -25267.797740435333, -0.198, 0.914, 0.322, 192.0, 0.0, 0.0, 0.0, 0.0, 0.0, 0.0, 0.0, 0.0, 0.0, 1.70095056507931E9, 0.0, 2023-11-25 17:16:05.079
169.0, 31180.03531456415, 40845.376651928025, -46057.98227286128, -40834.536055867204, -58790.69820531586, -18786.127124563114, -5945.362859411581, -25242.47321396747, -0.198, 0.914, 0.322, 192.0, 0.0, 0.0, 0.0, 0.0, 0.0, 0.0, 0.0, 0.0, 0.0, 1.700950565083312E9, 0.0, 2023-11-25 17:16:05.083
170.0, 31109.58261604102, 40737.39537446444, -46114.91216598894, -40919.38327781955, -58847.806912399166, -18858.926756254048, -5805.619753077001, -25299.067830928307, -0.198, 0.914, 0.322, 192.0, 0.0, 0.0, 0.0, 0.0, 0.0, 0.0, 0.0, 0.0, 0.0, 1.700950565087429E9, 0.0, 2023-11-25 17:16:05.087
171.0, 31091.45535128777, 40746.29136875765, -46114.711000288844, -40913.10243762761, -58868.32581380914, -18873.96948027247, -5935.595147084612, -25290.685926757567, -0.198, 0.914, 0.322, 192.0, 0.0, 0.0, 0.0, 0.0, 0.0, 0.0, 0.0, 0.0, 0.0, 1.700950565091669E9, 0.0, 2023-11-25 17:16:05.091
172.0, 31137.20937218778, 40836.81593380165, -46083.26209584023, -40861.872239336044, -58848.008078099265, -18848.242622404414, -6082.043776755783, -25260.801644420822, -0.198, 0.914, 0.322, 192.0, 0.0, 0.0, 0.0, 0.0, 0.0, 0.0, 0.0, 0.0, 0.0, 1.700950565095366E9, 0.0, 2023-11-25 17:16:05.095
173.0, 31191.188835047345, 40868.77892837273, -46051.679080924885, -40826.84705577458, -58789.96059774883, -18786.507104218854, -5998.738825170854, -25241.109757555696, -0.198, 0.914, 0.322, 192.0, 0.0, 0.0, 0.0, 0.0, 0.0, 0.0, 0.0, 0.0, 0.0, 1.700950565100371E9, 0.0, 2023-11-25 17:16:05.100
174.0, 31135.77886054264, 40767.48082250128, -46107.871366485524, -40905.94987940191, -58833.814720370145, -18842.900555479595, -5801.775253030688, -25303.180551908084, -0.198, 0.914, 0.322, 192.0, 0.0, 0.0, 0.0, 0.0, 0.0, 0.0, 0.0, 0.0, 0.0, 1.700950565103371E9, 0.0, 2023-11-25 17:16:05.103
175.0, 31103.212368871256, 40748.39243273645, -46115.761532278244, -40918.28804234124, -58868.03524113122, -18888.252244979412, -5928.129664436539, -25302.44294434106, -0.198, 0.914, 0.322, 192.0, 0.0, 0.0, 0.0, 0.0, 0.0, 0.0, 0.0, 0.0, 0.0, 1.700950565106377E9, 0.0, 2023-11-25 17:16:05.106
176.0, 31138.63988383292, 40832.882026777515, -46087.59833426456, -40866.5437539272, -58851.96433686785, -18865.453465635, -6070.689090572488, -25261.293382798838, -0.198, 0.914, 0.322, 192.0, 0.0, 0.0, 0.0, 0.0, 0.0, 0.0, 0.0, 0.0, 0.0, 1.700950565112571E9, 0.0, 2023-11-25 17:16:05.112
177.0, 31197.3132130281, 40885.14040531402, -46046.359365744516, -40818.822779515125, -58797.40372865245, -18813.15038360958, -6063.000090479862, -25233.57721967426, -0.2, 0.914, 0.324, 192.0, 249.0, 192.0, 28.0, 144.0, 10.0, 32.0, 0.0, 0.0, 0.0, 1.700950565115547E9, 0.0, 2023-11-25 17:16:05.115
178.0, 31158.801157331607, 40797.141587393475, -46094.90735470145, -40884.78277740273, -58818.883755074, -18841.73826476792, -5826.831558565087, -25299.96190070652, -0.2, 0.914, 0.324, 192.0, 0.0, 0.0, 0.0, 0.0, 0.0, 0.0, 0.0, 0.0, 0.0, 1.700950565119421E9, 0.0, 2023-11-25 17:16:05.119
179.0, 31098.02676415763, 40743.00566232272, -46124.47871261582, -40926.759353489804, -58874.2490260898, -18916.035463337357, -5930.007210970785, -25318.44679337106, -0.2, 0.914, 0.324, 192.0, 0.0, 0.0, 0.0, 0.0, 0.0, 0.0, 0.0, 0.0, 0.0, 1.700950565123452E9, 0.0, 2023-11-25 17:16:05.123
180.0, 31131.30851165158, 40825.90828250746, -46101.25525012675, -40877.29494301021, -58859.407467771474, -18891.11326826969, -6060.094363700672, -25281.92404293109, -0.2, 0.914, 0.324, 192.0, 0.0, 0.0, 0.0, 0.0, 0.0, 0.0, 0.0, 0.0, 0.0, 1.700950565129476E9, 0.0, 2023-11-25 17:16:05.129
181.0, 31190.764151902695, 40895.33280078564, -46053.37781350349, -40819.1357039375, -58806.07620550111, -18840.01718044486, -6100.483965931412, -25222.71427186898, -0.2, 0.914, 0.324, 192.0, 0.0, 0.0, 0.0, 0.0, 0.0, 0.0, 0.0, 0.0, 0.0, 1.700950565132549E9, 0.0, 2023-11-25 17:16:05.132
182.0, 31169.194718503324, 40822.62257607253, -46093.052159911655, -40869.024797561746, -58808.9819322803, -18841.53709906782, -5842.6789453839, -25287.80255172283, -0.2, 0.914, 0.324, 192.0, 0.0, 0.0, 0.0, 0.0, 0.0, 0.0, 0.0, 0.0, 0.0, 1.70095056513652E9, 0.0, 2023-11-25 17:16:05.136
183.0, 31093.131732121914, 40739.38467972096, -46131.96654700834, -40931.8108477367, -58877.646491247004, -18932.329885045277, -5904.593277525101, -25333.44481390057, -0.2, 0.914, 0.324, 192.0, 0.0, 0.0, 0.0, 0.0, 0.0, 0.0, 0.0, 0.0, 0.0, 1.700950565139465E9, 0.0, 2023-11-25 17:16:05.139
184.0, 31111.706031764275, 40801.83545372909, -46114.9345177334, -40889.81191990518, -58872.70675572238, -18906.915951599593, -6039.419000079513, -25302.889979230164, -0.2, 0.914, 0.324, 192.0, 0.0, 0.0, 0.0, 0.0, 0.0, 0.0, 0.0, 0.0, 0.0, 1.700950565143551E9, 0.0, 2023-11-25 17:16:05.143
185.0, 31167.25011673571, 40882.52525121275, -46069.09108985557, -40832.882026777515, -58830.327848235116, -18867.30866042479, -6137.297289049303, -25253.313810028292, -0.2, 0.914, 0.324, 192.0, 0.0, 0.0, 0.0, 0.0, 0.0, 0.0, 0.0, 0.0, 0.0, 1.700950565147479E9, 0.0, 2023-11-25 17:16:05.147
186.0, 31166.557212657597, 40834.200779700375, -46089.72174998782, -40859.81587884616, -58810.09951950306, -18832.708160007973, -5883.3367685481035, -25282.23696735346, -0.198, 0.918, 0.318, 192.0, 249.0, 208.0, 28.0, 176.0, 9.0, 240.0, 0.0, 0.0, 0.0, 1.70095056515151E9, 0.0, 2023-11-25 17:16:05.151
187.0, 31084.369848295435, 40736.188380263855, -46139.85671280107, -40939.79042050725, -58883.167372127464, -18928.485384998963, -5878.933474890408, -25326.6275318417, -0.198, 0.918, 0.318, 192.0, 0.0, 0.0, 0.0, 0.0, 0.0, 0.0, 0.0, 0.0, 0.0, 1.70095056515554E9, 0.0, 2023-11-25 17:16:05.155
188.0, 31086.448560529778, 40777.136776105974, -46130.96071850786, -40910.15200735951, -58885.31313959517, -18907.31828299979, -5997.464775736902, -25288.875435456688, -0.198, 0.918, 0.318, 192.0, 0.0, 0.0, 0.0, 0.0, 0.0, 0.0, 0.0, 0.0, 0.0, 1.700950565159567E9, 0.0, 2023-11-25 17:16:05.159
189.0, 31133.96836924176, 40854.42910843243, -46084.737310974284, -40852.48450666482, -58848.83509264411, -18871.868416293673, -6121.986344097418, -25236.61705692018, -0.198, 0.918, 0.318, 192.0, 0.0, 0.0, 0.0, 0.0, 0.0, 0.0, 0.0, 0.0, 0.0, 1.700950565162573E9, 0.0, 2023-11-25 17:16:05.162
190.0, 31150.44160490532, 40825.662413318445, -46084.871421441014, -40856.641931133505, -58809.563077636136, -18818.33598832321, -5911.365856095059, -25247.725873914467, -0.198, 0.918, 0.318, 192.0, 0.0, 0.0, 0.0, 0.0, 0.0, 0.0, 0.0, 0.0, 0.0, 1.700950565166963E9, 0.0, 2023-11-25 17:16:05.166
191.0, 31069.885917888394, 40712.92021428588, -46140.95194827938, -40945.57952232117, -58879.881665692534, -18904.03257656486, -5836.1969394918615, -25294.955109948532, -0.198, 0.918, 0.318, 192.0, 0.0, 0.0, 0.0, 0.0, 0.0, 0.0, 0.0, 0.0, 0.0, 1.700950565171598E9, 0.0, 2023-11-25 17:16:05.171
192.0, 31062.95687710725, 40734.511999429706, -46139.5884918676, -40932.660214026, -58895.59494204461, -18903.876114353672, -5965.971167799374, -25280.22531035248, -0.198, 0.918, 0.318, 192.0, 0.0, 0.0, 0.0, 0.0, 0.0, 0.0, 0.0, 0.0, 0.0, 1.700950565175592E9, 0.0, 2023-11-25 17:16:05.175
193.0, 31118.232741145224, 40825.14832319598, -46093.186270378385, -40873.2492772638, -58863.117857351055, -18872.471913393965, -6110.452843958479, -25237.9581615875, -0.198, 0.918, 0.318, 192.0, 0.0, 0.0, 0.0, 0.0, 0.0, 0.0, 0.0, 0.0, 0.0, 1.700950565180369E9, 0.0, 2023-11-25 17:16:05.180
194.0, 31166.110177768493, 40840.07928849212, -46066.207714820834, -40848.50589615177, -58803.37164442202, -18807.853020173672, -5961.903150308508, -25230.51503068388, -0.198, 0.918, 0.318, 192.0, 0.0, 0.0, 0.0, 0.0, 0.0, 0.0, 0.0, 0.0, 0.0, 1.700950565183644E9, 0.0, 2023-11-25 17:16:05.183
195.0, 31103.860569460463, 40742.335109989064, -46119.337811391095, -40929.486266313346, -58855.18298806942, -18881.233797220444, -5816.192128204361, -25299.179589650583, -0.198, 0.918, 0.318, 192.0, 0.0, 0.0, 0.0, 0.0, 0.0, 0.0, 0.0, 0.0, 0.0, 1.700950565188655E9, 0.0, 2023-11-25 17:16:05.188
196.0, 31078.156063336857, 40740.368156476994, -46129.66431732945, -40933.66604252649, -58884.910808194974, -18912.369777246688, -5943.865292533075, -25306.10863043173, -0.196, 0.914, 0.324, 192.0, 249.0, 224.0, 28.0, 144.0, 10.0, 32.0, 0.0, 0.0, 0.0, 1.700950565191651E9, 0.0, 2023-11-25 17:16:05.191
197.0, 31118.232741145224, 40822.13083769451, -46098.50598555875, -40883.77694890225, -58868.81755218715, -18893.951939815517, -6094.247829228381, -25279.24183359645, -0.196, 0.914, 0.324, 192.0, 0.0, 0.0, 0.0, 0.0, 0.0, 0.0, 0.0, 0.0, 0.0, 1.700950565194768E9, 0.0, 2023-11-25 17:16:05.194
198.0, 31168.971201058772, 40854.473811921336, -46064.84425840906, -40846.56129438416, -58811.664141614936, -18835.435072831522, -6028.8466249521525, -25249.938696615543, -0.196, 0.914, 0.324, 192.0, 0.0, 0.0, 0.0, 0.0, 0.0, 0.0, 0.0, 0.0, 0.0, 1.700950565199638E9, 0.0, 2023-11-25 17:16:05.199
199.0, 31116.53400856662, 40753.958017105826, -46121.70709630336, -40921.596100520626, -58849.192720555395, -18886.195884489523, -5831.815997578621, -25312.501229345948, -0.196, 0.914, 0.324, 192.0, 0.0, 0.0, 0.0, 0.0, 0.0, 0.0, 0.0, 0.0, 0.0, 1.700950565203706E9, 0.0, 2023-11-25 17:16:05.203
200.0, 31075.42915051331, 40724.788990591645, -46139.968471523345, -40942.60674030861, -58889.49291580831, -18940.242402582455, -5961.3443566971255, -25336.57405812431, -0.196, 0.914, 0.324, 192.0, 0.0, 0.0, 0.0, 0.0, 0.0, 0.0, 0.0, 0.0, 0.0, 1.700950565207639E9, 0.0, 2023-11-25 17:16:05.207
201.0, 31107.23568287321, 40806.68578227589, -46114.01809621073, -40892.158853072986, -58874.003156900784, -18911.810983635307, -6099.142861264094, -25293.21167388102, -0.196, 0.914, 0.324, 192.0, 0.0, 0.0, 0.0, 0.0, 0.0, 0.0, 0.0, 0.0, 0.0, 1.700950565210709E9, 0.0, 2023-11-25 17:16:05.210
202.0, 31177.73308488525, 40872.10933829658, -46057.98227286128, -40829.50691336476, -58806.746757834764, -18842.92290722405, -6096.751224607376, -25230.738548128433, -0.196, 0.914, 0.324, 192.0, 0.0, 0.0, 0.0, 0.0, 0.0, 0.0, 0.0, 0.0, 0.0, 1.700950565214804E9, 0.0, 2023-11-25 17:16:05.214
203.0, 31140.673892578354, 40784.08816863158, -46105.6808955289, -40891.600059461605, -58825.1869470104, -18862.54773885581, -5842.589538406079, -25287.534330789367, -0.196, 0.914, 0.324, 192.0, 0.0, 0.0, 0.0, 0.0, 0.0, 0.0, 0.0, 0.0, 0.0, 1.700950565218847E9, 0.0, 2023-11-25 17:16:05.218
204.0, 31086.649726229876, 40732.969729062286, -46129.50785511826, -40928.81571397969, -58877.13240112453, -18933.89450715715, -5941.5630628541785, -25317.73153754849, -0.196, 0.914, 0.324, 192.0, 0.0, 0.0, 0.0, 0.0, 0.0, 0.0, 0.0, 0.0, 0.0, 1.70095056522272E9, 0.0, 2023-11-25 17:16:05.222
205.0, 31109.35909859647, 40801.85780547355, -46118.55550033516, -40892.87410889556, -58874.96428191236, -18914.426137736576, -6072.991320251384, -25308.58967406627, -0.196, 0.914, 0.324, 192.0, 0.0, 0.0, 0.0, 0.0, 0.0, 0.0, 0.0, 0.0, 0.0, 1.700950565226724E9, 0.0, 2023-11-25 17:16:05.226
206.0, 31172.949811571816, 40872.578724930136, -46068.867572411014, -40836.88298903501, -58822.21416499784, -18870.147331970613, -6141.789989684819, -25278.43717079606, -0.194, 0.912, 0.326, 192.0, 249.0, 240.0, 28.0, 128.0, 10.0, 48.0, 0.0, 0.0, 0.0, 1.700950565231708E9, 0.0, 2023-11-25 17:16:05.231
207.0, 31159.49406140972, 40806.708134020344, -46096.44962506886, -40873.15987028598, -58810.43479566989, -18847.192090415014, -5873.077317843118, -25295.402144837637, -0.194, 0.912, 0.326, 192.0, 0.0, 0.0, 0.0, 0.0, 0.0, 0.0, 0.0, 0.0, 0.0, 1.70095056523575E9, 0.0, 2023-11-25 17:16:05.235
208.0, 31091.522406521133, 40730.98042380577, -46129.4407998849, -40927.318147101185, -58870.22571208784, -18920.595219206243, -5910.963524694864, -25300.20776989553, -0.194, 0.912, 0.326, 192.0, 0.0, 0.0, 0.0, 0.0, 0.0, 0.0, 0.0, 0.0, 0.0, 1.700950565238783E9, 0.0, 2023-11-25 17:16:05.238
209.0, 31104.15114213838, 40785.74219772127, -46117.92965149041, -40892.89646064001, -58870.717450465854, -18897.729384628463, -6032.266441853815, -25273.340973060247, -0.194, 0.912, 0.326, 192.0, 0.0, 0.0, 0.0, 0.0, 0.0, 0.0, 0.0, 0.0, 0.0, 1.700950565242768E9, 0.0, 2023-11-25 17:16:05.242
210.0, 31163.495023667223, 40869.74005338431, -46065.06777585361, -40830.624500587524, -58826.86332784454, -18856.53511959733, -6135.978536126439, -25218.75801310039, -0.194, 0.912, 0.326, 192.0, 0.0, 0.0, 0.0, 0.0, 0.0, 0.0, 0.0, 0.0, 0.0, 1.700950565246794E9, 0.0, 2023-11-25 17:16:05.246
211.0, 31166.69132312433, 40823.09196270609, -46082.90446792894, -40852.48450666482, -58802.566981621625, -18818.96183716796, -5889.170573850939, -25252.307981527803, -0.194, 0.912, 0.326, 192.0, 0.0, 0.0, 0.0, 0.0, 0.0, 0.0, 0.0, 0.0, 0.0, 1.700950565250784E9, 0.0, 2023-11-25 17:16:05.250
212.0, 31086.71678146324, 40727.85117958202, -46130.49133187429, -40930.55915004721, -58871.38800279952, -18908.637035922653, -5869.679852685911, -25304.43224959758, -0.194, 0.912, 0.326, 192.0, 0.0, 0.0, 0.0, 0.0, 0.0, 0.0, 0.0, 0.0, 0.0, 1.700950565254844E9, 0.0, 2023-11-25 17:16:05.254
213.0, 31087.990830897194, 40768.71016844633, -46123.36112539305, -40903.46883576737, -58876.819476702156, -18893.21433224849, -5992.592095445645, -25277.699563229035, -0.194, 0.912, 0.326, 192.0, 0.0, 0.0, 0.0, 0.0, 0.0, 0.0, 0.0, 0.0, 0.0, 1.700950565259848E9, 0.0, 2023-11-25 17:16:05.259
214.0, 31140.517430367167, 40850.7410705973, -46076.64597948146, -40846.13661123951, -58842.46484547435, -18863.441808634023, -6121.516957463856, -25233.599571418712, -0.194, 0.912, 0.326, 192.0, 0.0, 0.0, 0.0, 0.0, 0.0, 0.0, 0.0, 0.0, 0.0, 1.700950565263857E9, 0.0, 2023-11-25 17:16:05.263
215.0, 31164.769073101175, 40835.72069832333, -46067.86174391052, -40843.81202981616, -58795.861458285035, -18808.1882963405, -5916.819681742154, -25232.638446407134, -0.194, 0.912, 0.326, 192.0, 0.0, 0.0, 0.0, 0.0, 0.0, 0.0, 0.0, 0.0, 0.0, 1.700950565267824E9, 0.0, 2023-11-25 17:16:05.267
216.0, 31087.744961708184, 40729.03582203815, -46121.95296549237, -40929.061583168696, -58859.31806079365, -18894.868361338184, -5831.637183622978, -25283.488665042958, -0.194, 0.916, 0.326, 192.0, 249.0, 240.0, 28.0, 160.0, 10.0, 48.0, 0.0, 0.0, 0.0, 1.700950565270853E9, 0.0, 2023-11-25 17:16:05.270
217.0, 31072.05403710056, 40737.998871564734, -46125.618651583034, -40920.56792027568, -58879.948720925895, -18905.798364376828, -5966.239388732838, -25278.168949862596, -0.194, 0.916, 0.326, 192.0, 0.0, 0.0, 0.0, 0.0, 0.0, 0.0, 0.0, 0.0, 0.0, 1.70095056527484E9, 0.0, 2023-11-25 17:16:05.274
218.0, 31125.765279026662, 40830.60214884307, -46079.93168591639, -40859.54765791269, -58851.427895000925, -18881.88199780965, -6120.600535941188, -25250.743359415934, -0.194, 0.916, 0.326, 192.0, 0.0, 0.0, 0.0, 0.0, 0.0, 0.0, 0.0, 0.0, 0.0, 1.700950565278862E9, 0.0, 2023-11-25 17:16:05.278
219.0, 31168.814738847585, 40847.09773625109, -46058.31754902811, -40835.20660820086, -58797.58254260809, -18821.845212202694, -5986.154793042516, -25252.9114786281, -0.194, 0.916, 0.326, 192.0, 0.0, 0.0, 0.0, 0.0, 0.0, 0.0, 0.0, 0.0, 0.0, 1.700950565282946E9, 0.0, 2023-11-25 17:16:05.282
220.0, 31097.266804846146, 40737.88711284246, -46119.494273602286, -40920.590272020134, -58853.528958979725, -18897.349404972723, -5834.654669124445, -25324.749985307455, -0.194, 0.916, 0.326, 192.0, 0.0, 0.0, 0.0, 0.0, 0.0, 0.0, 0.0, 0.0, 0.0, 1.700950565286937E9, 0.0, 2023-11-25 17:16:05.286
221.0, 31072.76929292313, 40736.90363608643, -46119.24840441327, -40917.37162081857, -58874.07021213415, -18913.152088302624, -5961.143190997028, -25292.675232014088, -0.194, 0.916, 0.326, 192.0, 0.0, 0.0, 0.0, 0.0, 0.0, 0.0, 0.0, 0.0, 0.0, 1.700950565291928E9, 0.0, 2023-11-25 17:16:05.291
222.0, 31111.929549208828, 40820.34269813808, -46086.9277819309, -40866.72256788285, -58855.11593283605, -18887.3581752012, -6103.479099688423, -25245.04366457983, -0.194, 0.916, 0.326, 192.0, 0.0, 0.0, 0.0, 0.0, 0.0, 0.0, 0.0, 0.0, 0.0, 1.700950565295957E9, 0.0, 2023-11-25 17:16:05.295
223.0, 31169.79821560362, 40864.08506203712, -46045.59940643304, -40823.82957027311, -58793.15689720594, -18822.605171514177, -6049.544340317767, -25221.08259452374, -0.194, 0.916, 0.326, 192.0, 0.0, 0.0, 0.0, 0.0, 0.0, 0.0, 0.0, 0.0, 0.0, 1.700950565298934E9, 0.0, 2023-11-25 17:16:05.298
224.0, 31116.623415544444, 40762.9210666324, -46104.1833286504, -40902.5524142447, -58832.9877058253, -18866.928680769048, -5832.352439445548, -25286.57320577779, -0.194, 0.916, 0.326, 192.0, 0.0, 0.0, 0.0, 0.0, 0.0, 0.0, 0.0, 0.0, 0.0, 1.700950565302976E9, 0.0, 2023-11-25 17:16:05.302
225.0, 31079.09483660398, 40728.857008082516, -46117.50496834576, -40923.45129531041, -58875.12074412355, -18922.13748957366, -5958.013946773284, -25307.673252543602, -0.194, 0.916, 0.326, 192.0, 0.0, 0.0, 0.0, 0.0, 0.0, 0.0, 0.0, 0.0, 0.0, 1.700950565306957E9, 0.0, 2023-11-25 17:16:05.306
226.0, 31111.97425269774, 40808.27275613222, -46093.2309738673, -40875.573858687145, -58862.894339906496, -18897.63997765064, -6096.795928096286, -25289.076601156787, -0.194, 0.916, 0.328, 192.0, 249.0, 240.0, 28.0, 160.0, 10.0, 64.0, 0.0, 0.0, 0.0, 1.700950565311021E9, 0.0, 2023-11-25 17:16:05.311
227.0, 31172.97216331627, 40870.343550484606, -46045.33118549958, -40821.52734059421, -58804.1316037335, -18837.53613681032, -6102.294457232292, -25246.407120991604, -0.194, 0.916, 0.328, 192.0, 0.0, 0.0, 0.0, 0.0, 0.0, 0.0, 0.0, 0.0, 0.0, 1.700950565315018E9, 0.0, 2023-11-25 17:16:05.315
228.0, 31138.438718132824, 40782.188270352875, -46092.02397966671, -40879.23954477782, -58816.469766672824, -18841.380636856633, -5844.176512262406, -25272.446903282038, -0.194, 0.916, 0.328, 192.0, 0.0, 0.0, 0.0, 0.0, 0.0, 0.0, 0.0, 0.0, 0.0, 1.700950565320036E9, 0.0, 2023-11-25 17:16:05.320
229.0, 31071.71876093373, 40711.3108886851, -46124.56811959364, -40927.98869943484, -58877.89236043601, -18914.761413903405, -5923.234632400827, -25292.76463899191, -0.194, 0.916, 0.328, 192.0, 0.0, 0.0, 0.0, 0.0, 0.0, 0.0, 0.0, 0.0, 0.0, 1.700950565323038E9, 0.0, 2023-11-25 17:16:05.323
230.0, 31088.639031486397, 40771.30297080314, -46111.17942466491, -40891.33183852814, -58877.22180810235, -18896.857666594704, -6056.115753187627, -25284.650955754634, -0.194, 0.916, 0.328, 192.0, 0.0, 0.0, 0.0, 0.0, 0.0, 0.0, 0.0, 0.0, 0.0, 1.700950565327092E9, 0.0, 2023-11-25 17:16:05.327
231.0, 31143.44550889081, 40833.440820388896, -46065.42540376489, -40841.15217222598, -58833.92647909242, -18861.318392910765, -6138.660745461077, -25265.09317935624, -0.194, 0.916, 0.328, 192.0, 0.0, 0.0, 0.0, 0.0, 0.0, 0.0, 0.0, 0.0, 0.0, 1.70095056533103E9, 0.0, 2023-11-25 17:16:05.331
232.0, 31133.387223885922, 40774.23104932679, -46089.78880522118, -40875.75267264279, -58817.6320573845, -18836.373846098646, -5869.881018386009, -25295.782124493377, -0.194, 0.916, 0.328, 192.0, 0.0, 0.0, 0.0, 0.0, 0.0, 0.0, 0.0, 0.0, 0.0, 1.700950565335073E9, 0.0, 2023-11-25 17:16:05.335
233.0, 31057.2795340156, 40689.02619946316, -46130.71484931885, -40941.28798738575, -58882.407412815985, -18915.767242403894, -5893.506812275268, -25301.01243269592, -0.194, 0.916, 0.328, 192.0, 0.0, 0.0, 0.0, 0.0, 0.0, 0.0, 0.0, 0.0, 0.0, 1.700950565339073E9, 0.0, 2023-11-25 17:16:05.339
234.0, 31071.62935395591, 40746.42547922438, -46116.87911950101, -40905.078161368154, -58878.85348544759, -18891.82852409226, -6014.988543389863, -25261.315734543292, -0.194, 0.916, 0.328, 192.0, 0.0, 0.0, 0.0, 0.0, 0.0, 0.0, 0.0, 0.0, 0.0, 1.700950565343089E9, 0.0, 2023-11-25 17:16:05.343
235.0, 31136.292950665113, 40840.52632338123, -46060.84329615156, -40839.47579139183, -58831.154862779964, -18850.366038127668, -6129.429475001035, -25209.236169962427, -0.194, 0.916, 0.328, 192.0, 0.0, 0.0, 0.0, 0.0, 0.0, 0.0, 0.0, 0.0, 0.0, 1.700950565348238E9, 0.0, 2023-11-25 17:16:05.348
236.0, 31150.419253160868, 40805.70230551986, -46070.20867707833, -40853.60209388758, -58799.21421995333, -18809.86467717465, -5888.3212075616375, -25238.13697554314, -0.19, 0.918, 0.328, 192.0, 250.0, 16.0, 28.0, 176.0, 10.0, 64.0, 0.0, 0.0, 0.0, 1.700950565351168E9, 0.0, 2023-11-25 17:16:05.351
237.0, 31069.90826963285, 40701.990211247234, -46122.0870759591, -40935.72240301638, -58869.86808417655, -18910.291065012345, -5860.15800954795, -25307.71795603251, -0.19, 0.918, 0.328, 192.0, 0.0, 0.0, 0.0, 0.0, 0.0, 0.0, 0.0, 0.0, 0.0, 1.70095056535421E9, 0.0, 2023-11-25 17:16:05.354
238.0, 31067.650743442864, 40734.62375815198, -46119.5836805801, -40916.14227487353, -58881.40158431549, -18910.15695454561, -5993.597923946134, -25297.078525671786, -0.19, 0.918, 0.328, 192.0, 0.0, 0.0, 0.0, 0.0, 0.0, 0.0, 0.0, 0.0, 0.0, 1.700950565359171E9, 0.0, 2023-11-25 17:16:05.359
239.0, 31123.820677259053, 40822.35435513906, -46070.611008478525, -40853.222114231845, -58843.91770886394, -18873.16481747208, -6130.837634901719, -25223.98832130293, -0.19, 0.918, 0.328, 192.0, 0.0, 0.0, 0.0, 0.0, 0.0, 0.0, 0.0, 0.0, 0.0, 1.700950565363121E9, 0.0, 2023-11-25 17:16:05.363
240.0, 31161.393959688423, 40813.0336777012, -46057.624644949996, -40841.15217222598, -58793.11219371703, -18815.966703410948, -5942.255966932294, -25227.832821349242, -0.19, 0.918, 0.328, 192.0, 0.0, 0.0, 0.0, 0.0, 0.0, 0.0, 0.0, 0.0, 0.0, 1.700950565369613E9, 0.0, 2023-11-25 17:16:05.369
241.0, 31094.96457516725, 40710.97561251827, -46108.31840137463, -40920.56792027568, -58849.21507229985, -18899.159896273602, -5844.020050051218, -25294.597482037247, -0.19, 0.918, 0.328, 192.0, 0.0, 0.0, 0.0, 0.0, 0.0, 0.0, 0.0, 0.0, 0.0, 1.700950565372206E9, 0.0, 2023-11-25 17:16:05.372
242.0, 31078.5360429926, 40724.923101058375, -46110.30770663115, -40911.71662947138, -58866.87295041954, -18911.319245257288, -5979.359862728103, -25286.841426711253, -0.19, 0.918, 0.328, 192.0, 0.0, 0.0, 0.0, 0.0, 0.0, 0.0, 0.0, 0.0, 0.0, 1.7009505653773E9, 0.0, 2023-11-25 17:16:05.377
243.0, 31125.74292728221, 40818.50985509275, -46069.560476489125, -40855.591399144105, -58839.42500822843, -18887.268768223377, -6127.529576722333, -25249.402254748617, -0.19, 0.918, 0.328, 192.0, 0.0, 0.0, 0.0, 0.0, 0.0, 0.0, 0.0, 0.0, 0.0, 1.700950565380302E9, 0.0, 2023-11-25 17:16:05.380
244.0, 31176.347276729022, 40842.62738736003, -46040.838484864056, -40825.75182029627, -58781.26576915572, -18828.751901239386, -6017.447235279946, -25252.263278038896, -0.19, 0.918, 0.328, 192.0, 0.0, 0.0, 0.0, 0.0, 0.0, 0.0, 0.0, 0.0, 0.0, 1.700950565384314E9, 0.0, 2023-11-25 17:16:05.384
245.0, 31119.17151441235, 40742.11159254451, -46095.48850005728, -40904.184091589945, -58827.735045878304, -18892.16380025909, -5850.435000709892, -25312.05419445684, -0.19, 0.918, 0.328, 192.0, 0.0, 0.0, 0.0, 0.0, 0.0, 0.0, 0.0, 0.0, 0.0, 1.700950565387279E9, 0.0, 2023-11-25 17:16:05.387
246.0, 31099.25611010267, 40745.82198212409, -46094.32620934561, -40901.032495621745, -58848.924499621935, -18916.102518570726, -5981.5950371736335, -25297.27969137188, -0.19, 0.914, 0.326, 192.0, 250.0, 16.0, 28.0, 144.0, 10.0, 48.0, 0.0, 0.0, 0.0, 1.700950565391287E9, 0.0, 2023-11-25 17:16:05.391
247.0, 31138.93045651084, 40829.66337557595, -46063.23493280828, -40848.08121300712, -58829.79140636819, -18884.228930977457, -6110.944582336496, -25245.93773435804, -0.19, 0.914, 0.326, 192.0, 0.0, 0.0, 0.0, 0.0, 0.0, 0.0, 0.0, 0.0, 0.0, 1.700950565395249E9, 0.0, 2023-11-25 17:16:05.395
248.0, 31189.60186119102, 40862.98982655881, -46027.405086446415, -40810.75379976676, -58775.096687686055, -18825.197973870992, -6056.518084587823, -25208.9008937956, -0.19, 0.914, 0.326, 192.0, 0.0, 0.0, 0.0, 0.0, 0.0, 0.0, 0.0, 0.0, 0.0, 1.700950565401462E9, 0.0, 2023-11-25 17:16:05.401
249.0, 31147.290008937125, 40767.95020913485, -46073.002645135246, -40877.29494301021, -58800.26475194273, -18861.184282444035, -5835.235814480283, -25282.974574920485, -0.19, 0.914, 0.326, 192.0, 0.0, 0.0, 0.0, 0.0, 0.0, 0.0, 0.0, 0.0, 0.0, 1.700950565404331E9, 0.0, 2023-11-25 17:16:05.404
250.0, 31085.375676795924, 40715.7588858317, -46105.16680540643, -40916.29873708472, -58858.84867416009, -18927.613666965208, -5948.268586190771, -25319.63143582719, -0.19, 0.914, 0.326, 192.0, 0.0, 0.0, 0.0, 0.0, 0.0, 0.0, 0.0, 0.0, 0.0, 1.700950565407336E9, 0.0, 2023-11-25 17:16:05.407
251.0, 31120.06558419056, 40795.64402051497, -46074.947246902855, -40860.352320713086, -58840.386133240005, -18890.3086054693, -6086.15649773556, -25266.09900785673, -0.19, 0.914, 0.326, 192.0, 0.0, 0.0, 0.0, 0.0, 0.0, 0.0, 0.0, 0.0, 0.0, 1.700950565411304E9, 0.0, 2023-11-25 17:16:05.411
252.0, 31179.476520952765, 40856.641931133505, -46025.326374212076, -40801.4331223289, -58780.03642321067, -18823.163965125557, -6095.790099595797, -25199.17788495754, -0.19, 0.914, 0.326, 192.0, 0.0, 0.0, 0.0, 0.0, 0.0, 0.0, 0.0, 0.0, 0.0, 1.700950565414394E9, 0.0, 2023-11-25 17:16:05.414
253.0, 31141.322093167557, 40763.9715986218, -46076.71303471483, -40866.2978847382, -58798.0295774972, -18839.30192462229, -5840.6002331495565, -25264.646144467133, -0.19, 0.914, 0.326, 192.0, 0.0, 0.0, 0.0, 0.0, 0.0, 0.0, 0.0, 0.0, 0.0, 1.700950565419327E9, 0.0, 2023-11-25 17:16:05.419
254.0, 31079.206595326257, 40702.079618225056, -46104.31743911713, -40914.309431828195, -58855.65237470298, -18913.88969586965, -5919.948925965897, -25285.612080766212, -0.19, 0.914, 0.326, 192.0, 0.0, 0.0, 0.0, 0.0, 0.0, 0.0, 0.0, 0.0, 0.0, 1.700950565423347E9, 0.0, 2023-11-25 17:16:05.423
255.0, 31100.53015953662, 40774.566325493615, -46088.380645320496, -40875.08212030913, -58851.27143278974, -18891.49324792543, -6049.4549333399455, -25275.263223083406, -0.19, 0.914, 0.326, 192.0, 0.0, 0.0, 0.0, 0.0, 0.0, 0.0, 0.0, 0.0, 0.0, 1.700950565427335E9, 0.0, 2023-11-25 17:16:05.427
0.0, 31160.03050327665, 40852.48450666482, -46042.023127320186, -40820.25329116026, -58808.26667645773, -18854.63522131863, -6137.319640793758, -25249.24579253743, -0.184, 0.918, 0.328, 192.0, 250.0, 64.0, 28.0, 176.0, 10.0, 64.0, 0.0, 0.0, 0.0, 1.70095056543138E9, 0.0, 2023-11-25 17:16:05.431
1.0, 31160.522241654664, 40802.30484036265, -46061.379738018484, -40845.82368681714, -58786.45137386935, -18818.023063900837, -5868.718727674333, -25240.57331568877, -0.184, 0.918, 0.328, 192.0, 0.0, 0.0, 0.0, 0.0, 0.0, 0.0, 0.0, 0.0, 0.0, 1.700950565435445E9, 0.0, 2023-11-25 17:16:05.435
2.0, 31084.883938417905, 40711.3108886851, -46104.518604817225, -40915.73994347334, -58855.16063632496, -18909.396995234132, -5889.103518617573, -25276.29140332835, -0.184, 0.918, 0.328, 192.0, 0.0, 0.0, 0.0, 0.0, 0.0, 0.0, 0.0, 0.0, 0.0, 1.700950565438425E9, 0.0, 2023-11-25 17:16:05.438
3.0, 31096.618604256942, 40764.03865385517, -46094.97440993481, -40881.00533258979, -58854.75830492477, -18888.699279868517, -6014.161528845016, -25246.876507625166, -0.184, 0.918, 0.328, 192.0, 0.0, 0.0, 0.0, 0.0, 0.0, 0.0, 0.0, 0.0, 0.0, 1.700950565442474E9, 0.0, 2023-11-25 17:16:05.442
4.0, 31150.531011883144, 40845.734279839315, -46050.270921024196, -40822.868445261534, -58816.626228884015, -18850.58955557222, -6126.210823799471, -25192.405306387584, -0.184, 0.918, 0.328, 192.0, 0.0, 0.0, 0.0, 0.0, 0.0, 0.0, 0.0, 0.0, 0.0, 1.700950565447496E9, 0.0, 2023-11-25 17:16:05.447
5.0, 31159.672875365362, 40807.04341018718, -46063.63726420847, -40839.34168092509, -58787.14427794746, -18816.25727608887, -5900.815832712154, -25227.162269015585, -0.184, 0.918, 0.328, 192.0, 0.0, 0.0, 0.0, 0.0, 0.0, 0.0, 0.0, 0.0, 0.0, 1.70095056545148E9, 0.0, 2023-11-25 17:16:05.451
6.0, 31084.548662251076, 40705.58884210454, -46109.972430464324, -40916.36579231809, -58848.83509264411, -18908.614684178196, -5866.930588117908, -25281.81228420881, -0.184, 0.918, 0.328, 192.0, 0.0, 0.0, 0.0, 0.0, 0.0, 0.0, 0.0, 0.0, 0.0, 1.700950565455507E9, 0.0, 2023-11-25 17:16:05.455
7.0, 31089.510749520156, 40743.89973210094, -46099.17653789241, -40887.73320767083, -58850.33265952262, -18895.293044482834, -5996.6824646809655, -25257.18066181906, -0.184, 0.918, 0.328, 192.0, 0.0, 0.0, 0.0, 0.0, 0.0, 0.0, 0.0, 0.0, 0.0, 1.700950565458517E9, 0.0, 2023-11-25 17:16:05.458
8.0, 31143.154936212894, 40829.79748604268, -46053.51192397022, -40830.289224420696, -58819.86723183003, -18865.609927846184, -6136.470274504456, -25209.839667062723, -0.184, 0.918, 0.328, 192.0, 0.0, 0.0, 0.0, 0.0, 0.0, 0.0, 0.0, 0.0, 0.0, 1.700950565462552E9, 0.0, 2023-11-25 17:16:05.462
9.0, 31171.6087069045, 40818.64396555948, -46047.99104308976, -40829.79748604268, -58781.19871392235, -18819.140651123602, -5963.043089275729, -25227.676359138055, -0.184, 0.918, 0.328, 192.0, 0.0, 0.0, 0.0, 0.0, 0.0, 0.0, 0.0, 0.0, 0.0, 1.700950565466513E9, 0.0, 2023-11-25 17:16:05.466
10.0, 31098.339688580003, 40709.79097006214, -46102.97633444981, -40917.461027796395, -58843.44832223038, -18905.530143443364, -5856.648785668467, -25301.727688518487, -0.184, 0.918, 0.33, 192.0, 250.0, 64.0, 28.0, 176.0, 10.0, 80.0, 0.0, 0.0, 0.0, 1.700950565470587E9, 0.0, 2023-11-25 17:16:05.470
11.0, 31084.213386084248, 40720.58686263405, -46101.724636760315, -40908.60973699209, -58861.8438079171, -18915.186097048056, -5992.256819278815, -25288.67426975659, -0.184, 0.918, 0.33, 192.0, 0.0, 0.0, 0.0, 0.0, 0.0, 0.0, 0.0, 0.0, 0.0, 1.700950565474547E9, 0.0, 2023-11-25 17:16:05.474
12.0, 31133.92366575285, 40812.13960792299, -46060.329206029084, -40849.087041507606, -58833.4347407144, -18880.429134420054, -6132.581070969233, -25224.591818403223, -0.184, 0.918, 0.33, 192.0, 0.0, 0.0, 0.0, 0.0, 0.0, 0.0, 0.0, 0.0, 0.0, 1.700950565479544E9, 0.0, 2023-11-25 17:16:05.479
13.0, 31176.593145918032, 40824.52247435123, -46041.12905754198, -40827.15998019696, -58786.09374595806, -18824.23684885941, -6017.4025317910355, -25205.481076893935, -0.184, 0.918, 0.33, 192.0, 0.0, 0.0, 0.0, 0.0, 0.0, 0.0, 0.0, 0.0, 0.0, 1.700950565483626E9, 0.0, 2023-11-25 17:16:05.483
14.0, 31115.48347657722, 40716.183568976354, -46102.17167164942, -40913.840045194636, -58839.55911869516, -18895.3600997162, -5842.611890150534, -25282.214615609006, -0.184, 0.918, 0.33, 192.0, 0.0, 0.0, 0.0, 0.0, 0.0, 0.0, 0.0, 0.0, 0.0, 1.700950565486815E9, 0.0, 2023-11-25 17:16:05.486
15.0, 31083.29696456158, 40699.82209203507, -46111.80527350966, -40924.926510444464, -58872.01385164427, -18931.905201900627, -5968.251045733816, -25288.115476145205, -0.184, 0.918, 0.33, 192.0, 0.0, 0.0, 0.0, 0.0, 0.0, 0.0, 0.0, 0.0, 0.0, 1.700950565490594E9, 0.0, 2023-11-25 17:16:05.490
16.0, 31120.467915590754, 40785.29516283216, -46080.51283127223, -40872.154041785485, -58853.238386301804, -18906.379509732666, -6114.565564938255, -25260.421664765083, -0.184, 0.918, 0.33, 192.0, 0.0, 0.0, 0.0, 0.0, 0.0, 0.0, 0.0, 0.0, 0.0, 1.700950565494649E9, 0.0, 2023-11-25 17:16:05.494
17.0, 31178.068361052083, 40830.51274186525, -46038.55860692962, -40828.34462265309, -58795.235609440286, -18847.50501483739, -6085.8435733131855, -25242.406158734102, -0.184, 0.918, 0.33, 192.0, 0.0, 0.0, 0.0, 0.0, 0.0, 0.0, 0.0, 0.0, 0.0, 1.700950565498665E9, 0.0, 2023-11-25 17:16:05.498
18.0, 31135.73415705373, 40737.68594714236, -46086.65956099744, -40895.66807695247, -58819.37549345202, -18874.148294228115, -5847.417515208425, -25293.61400528121, -0.184, 0.918, 0.33, 192.0, 0.0, 0.0, 0.0, 0.0, 0.0, 0.0, 0.0, 0.0, 0.0, 1.70095056550351E9, 0.0, 2023-11-25 17:16:05.503
19.0, 31087.432037285813, 40692.44601636482, -46103.02103793872, -40921.95372843191, -58862.42495327294, -18919.723501172484, -5947.106295479095, -25274.123284116184, -0.184, 0.918, 0.33, 192.0, 0.0, 0.0, 0.0, 0.0, 0.0, 0.0, 0.0, 0.0, 0.0, 1.700950565507654E9, 0.0, 2023-11-25 17:16:05.507
20.0, 31108.01799392915, 40758.40601425243, -46087.196002864366, -40881.76529190127, -58858.6922119489, -18890.420364191577, -6075.517067374834, -25231.967894073474, -0.186, 0.912, 0.328, 192.0, 250.0, 48.0, 28.0, 128.0, 10.0, 64.0, 0.0, 0.0, 0.0, 1.7009505655117E9, 0.0, 2023-11-25 17:16:05.511
21.0, 31167.428930691356, 40820.99089872729, -46035.652880150425, -40829.864541276045, -58804.958618278346, -18839.368979855655, -6112.956239337474, -25194.662832577567, -0.186, 0.912, 0.328, 192.0, 0.0, 0.0, 0.0, 0.0, 0.0, 0.0, 0.0, 0.0, 0.0, 1.700950565514677E9, 0.0, 2023-11-25 17:16:05.514
22.0, 31148.698168837807, 40747.096031558045, -46071.952113145846, -40880.73711165632, -58808.378435180006, -18841.33593336772, -5854.5700734341235, -25263.37209503318, -0.186, 0.912, 0.328, 192.0, 0.0, 0.0, 0.0, 0.0, 0.0, 0.0, 0.0, 0.0, 0.0, 1.700950565518801E9, 0.0, 2023-11-25 17:16:05.518
23.0, 31080.570051738032, 40671.77065274366, -46108.094883930076, -40937.13056291707, -58871.499761521794, -18925.579658219776, -5922.653487044989, -25289.925967446088, -0.186, 0.912, 0.328, 192.0, 0.0, 0.0, 0.0, 0.0, 0.0, 0.0, 0.0, 0.0, 0.0, 1.70095056552274E9, 0.0, 2023-11-25 17:16:05.522
24.0, 31107.950938695783, 40744.10089780103, -46085.63138075249, -40888.314353026675, -58855.920595636446, -18892.94611131503, -6042.5258925588005, -25248.217612292483, -0.186, 0.912, 0.328, 192.0, 0.0, 0.0, 0.0, 0.0, 0.0, 0.0, 0.0, 0.0, 0.0, 1.700950565528972E9, 0.0, 2023-11-25 17:16:05.528
25.0, 31172.88275633845, 40828.45638137536, -46033.574167916086, -40826.33296565211, -58803.84103105558, -18849.36020962718, -6124.512091220867, -25201.837742547723, -0.186, 0.912, 0.328, 192.0, 0.0, 0.0, 0.0, 0.0, 0.0, 0.0, 0.0, 0.0, 0.0, 1.700950565531714E9, 0.0, 2023-11-25 17:16:05.531
26.0, 31167.093654524524, 40770.654770213936, -46060.44096475136, -40859.70412012388, -58787.814830281124, -18825.846174460195, -5862.013204337741, -25227.519896926868, -0.186, 0.912, 0.328, 192.0, 0.0, 0.0, 0.0, 0.0, 0.0, 0.0, 0.0, 0.0, 0.0, 1.700950565534865E9, 0.0, 2023-11-25 17:16:05.534
27.0, 31095.05398214507, 40679.37024585846, -46105.12210191752, -40931.69908901442, -58855.25004330278, -18922.182193062567, -5876.027748111218, -25277.81132195131, -0.186, 0.912, 0.328, 192.0, 0.0, 0.0, 0.0, 0.0, 0.0, 0.0, 0.0, 0.0, 0.0, 1.700950565539898E9, 0.0, 2023-11-25 17:16:05.539
28.0, 31105.805171228072, 40723.91727255789, -46097.16488089143, -40901.323068299665, -58854.423028757934, -18907.45239346652, -6006.696046196944, -25262.500376999425, -0.186, 0.912, 0.328, 192.0, 0.0, 0.0, 0.0, 0.0, 0.0, 0.0, 0.0, 0.0, 0.0, 1.700950565542761E9, 0.0, 2023-11-25 17:16:05.542
29.0, 31174.64854415042, 40818.062820203646, -46037.28455749567, -40831.406811643465, -58804.243362455774, -18865.252299934902, -6135.307983792781, -25211.672510108056, -0.186, 0.912, 0.328, 192.0, 0.0, 0.0, 0.0, 0.0, 0.0, 0.0, 0.0, 0.0, 0.0, 1.700950565546802E9, 0.0, 2023-11-25 17:16:05.546
30.0, 31190.98766934725, 40783.46231978683, -46043.565397687606, -40842.739146082306, -58769.53110331668, -18820.10177613518, -5908.594239782601, -25228.27985623835, -0.184, 0.906, 0.328, 192.0, 250.0, 64.0, 28.0, 80.0, 10.0, 64.0, 0.0, 0.0, 0.0, 1.700950565551031E9, 0.0, 2023-11-25 17:16:05.551
31.0, 31114.142371909904, 40675.83867023452, -46092.850994211556, -40921.909024943, -58836.206357026866, -18912.4144807356, -5861.163838048439, -25278.19130160705, -0.184, 0.906, 0.328, 192.0, 0.0, 0.0, 0.0, 0.0, 0.0, 0.0, 0.0, 0.0, 0.0, 1.700950565554806E9, 0.0, 2023-11-25 17:16:05.554
32.0, 31109.180284640825, 40701.72199031377, -46088.224183109305, -40902.06067586669, -58846.48815947631, -18916.12487031518, -6001.264572294303, -25281.789932464355, -0.184, 0.906, 0.328, 192.0, 0.0, 0.0, 0.0, 0.0, 0.0, 0.0, 0.0, 0.0, 0.0, 1.70095056555883E9, 0.0, 2023-11-25 17:16:05.558
33.0, 31165.484328923743, 40793.63236351399, -46039.67619415238, -40837.687651835404, -58811.70884510384, -18887.626396134663, -6145.5003792644, -25227.072862037763, -0.184, 0.906, 0.328, 192.0, 0.0, 0.0, 0.0, 0.0, 0.0, 0.0, 0.0, 0.0, 0.0, 1.700950565562865E9, 0.0, 2023-11-25 17:16:05.562
34.0, 31201.291823541145, 40793.54295653617, -46022.75592359971, -40822.91314875044, -58759.87514971199, -18826.2932093493, -5970.106240523606, -25205.436373405028, -0.184, 0.906, 0.328, 192.0, 0.0, 0.0, 0.0, 0.0, 0.0, 0.0, 0.0, 0.0, 0.0, 1.700950565567855E9, 0.0, 2023-11-25 17:16:05.567
35.0, 31127.128735438437, 40684.28762963863, -46080.44577603886, -40912.25307133831, -58822.10240627556, -18911.721576657485, -5843.438904695381, -25271.038743381352, -0.184, 0.906, 0.328, 192.0, 0.0, 0.0, 0.0, 0.0, 0.0, 0.0, 0.0, 0.0, 0.0, 1.700950565570807E9, 0.0, 2023-11-25 17:16:05.570
36.0, 31099.189054869305, 40686.902783739904, -46090.30289534365, -40914.19767310592, -58851.47259848984, -18934.386245535166, -5976.096508037628, -25261.651010710124, -0.184, 0.906, 0.328, 192.0, 0.0, 0.0, 0.0, 0.0, 0.0, 0.0, 0.0, 0.0, 0.0, 1.700950565573829E9, 0.0, 2023-11-25 17:16:05.573
37.0, 31138.93045651084, 40777.360293550526, -46056.19413330485, -40861.38050095803, -58830.14903427947, -18913.30855051381, -6127.21665229996, -25221.21670499047, -0.184, 0.906, 0.328, 192.0, 0.0, 0.0, 0.0, 0.0, 0.0, 0.0, 0.0, 0.0, 0.0, 1.700950565578877E9, 0.0, 2023-11-25 17:16:05.578
38.0, 31190.920614113882, 40812.02784920071, -46025.19226374534, -40827.58466334161, -58772.839161496064, -18854.72462829645, -6035.015706421817, -25216.7016526105, -0.184, 0.906, 0.328, 192.0, 0.0, 0.0, 0.0, 0.0, 0.0, 0.0, 0.0, 0.0, 0.0, 1.700950565582938E9, 0.0, 2023-11-25 17:16:05.582
39.0, 31129.341558139513, 40706.52761537166, -46089.11825288752, -40913.683582983445, -58827.31036273365, -18923.433890752065, -5853.832465867098, -25305.460429842526, -0.184, 0.906, 0.328, 192.0, 0.0, 0.0, 0.0, 0.0, 0.0, 0.0, 0.0, 0.0, 0.0, 1.70095056558697E9, 0.0, 2023-11-25 17:16:05.586
40.0, 31090.62833674292, 40688.46740585177, -46104.451549583864, -40927.27344361227, -58867.69996496439, -18960.224862125502, -5978.5999034166225, -25296.407973338126, -0.188, 0.922, 0.332, 192.0, 250.0, 32.0, 28.0, 208.0, 10.0, 96.0, 0.0, 0.0, 0.0, 1.700950565590868E9, 0.0, 2023-11-25 17:16:05.590
41.0, 31123.30658713658, 40771.86176441453, -46078.18824984888, -40877.60786743258, -58854.847711902585, -18930.541745488852, -6115.683152161021, -25242.830841878756, -0.188, 0.922, 0.332, 192.0, 0.0, 0.0, 0.0, 0.0, 0.0, 0.0, 0.0, 0.0, 0.0, 1.700950565594987E9, 0.0, 2023-11-25 17:16:05.594
42.0, 31180.996439575727, 40819.716849293334, -46036.65870865092, -40833.574930855626, -58800.041234498174, -18869.521483125864, -6095.007788539861, -25207.04569900581, -0.188, 0.922, 0.332, 192.0, 0.0, 0.0, 0.0, 0.0, 0.0, 0.0, 0.0, 0.0, 0.0, 1.700950565599981E9, 0.0, 2023-11-25 17:16:05.599
43.0, 31132.35904364098, 40718.53050214416, -46095.577907035105, -40910.28611782624, -58832.96535408084, -18901.283311996856, -5854.726535645311, -25267.61892647969, -0.188, 0.922, 0.332, 192.0, 0.0, 0.0, 0.0, 0.0, 0.0, 0.0, 0.0, 0.0, 0.0, 1.700950565603957E9, 0.0, 2023-11-25 17:16:05.603
44.0, 31080.212423826746, 40667.92615269734, -46117.594375323584, -40942.78555426426, -58882.78739247172, -18957.632059768686, -5952.94010078193, -25264.04264736684, -0.188, 0.922, 0.332, 192.0, 0.0, 0.0, 0.0, 0.0, 0.0, 0.0, 0.0, 0.0, 0.0, 1.700950565606916E9, 0.0, 2023-11-25 17:16:05.606
45.0, 31101.357174081466, 40735.47312444128, -46099.80238673716, -40902.57476598916, -58876.73006972433, -18927.904239643125, -6080.277988943814, -25228.749242871912, -0.188, 0.922, 0.332, 192.0, 0.0, 0.0, 0.0, 0.0, 0.0, 0.0, 0.0, 0.0, 0.0, 1.700950565610941E9, 0.0, 2023-11-25 17:16:05.610
46.0, 31162.757416100198, 40804.629421786005, -46047.85693262302, -40845.51076239476, -58820.15780450795, -18874.505922139397, -6128.088370333716, -25199.423754146548, -0.188, 0.922, 0.332, 192.0, 0.0, 0.0, 0.0, 0.0, 0.0, 0.0, 0.0, 0.0, 0.0, 1.700950565615024E9, 0.0, 2023-11-25 17:16:05.615
47.0, 31150.374549671957, 40737.32831923108, -46077.58475274858, -40887.129710570545, -58814.27929571621, -18863.195939445013, -5858.772201391721, -25252.687961183547, -0.188, 0.922, 0.332, 192.0, 0.0, 0.0, 0.0, 0.0, 0.0, 0.0, 0.0, 0.0, 0.0, 1.700950565618947E9, 0.0, 2023-11-25 17:16:05.618
48.0, 31084.749827951175, 40664.95337068479, -46109.57009906413, -40937.19761815043, -58872.684403977924, -18934.743873446452, -5908.92951594943, -25269.541176502848, -0.188, 0.922, 0.332, 192.0, 0.0, 0.0, 0.0, 0.0, 0.0, 0.0, 0.0, 0.0, 0.0, 1.700950565624991E9, 0.0, 2023-11-25 17:16:05.624
49.0, 31107.101572406482, 40734.13201977396, -46091.06285465513, -40890.34836177211, -58861.24031081681, -18897.438811950542, -6027.9078516850295, -25231.476155695458, -0.188, 0.922, 0.332, 192.0, 0.0, 0.0, 0.0, 0.0, 0.0, 0.0, 0.0, 0.0, 0.0, 1.700950565628054E9, 0.0, 2023-11-25 17:16:05.628
50.0, 31166.40075044641, 40812.47488408982, -46041.30787149762, -40829.4845616203, -58812.848784071066, -18854.836387018728, -6115.97372483894, -25198.619091346158, -0.194, 0.912, 0.336, 192.0, 249.0, 240.0, 28.0, 128.0, 10.0, 128.0, 0.0, 0.0, 0.0, 1.700950565631097E9, 0.0, 2023-11-25 17:16:05.631
51.0, 31163.718541111775, 40752.63926418296, -46073.09205211307, -40866.81197486067, -58801.53880137668, -18837.044398432303, -5865.678890428411, -25255.839557151743, -0.194, 0.912, 0.336, 192.0, 0.0, 0.0, 0.0, 0.0, 0.0, 0.0, 0.0, 0.0, 0.0, 1.700950565635026E9, 0.0, 2023-11-25 17:16:05.635
52.0, 31095.903348434374, 40663.209934617276, -46117.46026485685, -40935.96827220539, -58867.78937194221, -18925.17732681958, -5877.547666734179, -25294.038688425862, -0.194, 0.912, 0.336, 192.0, 0.0, 0.0, 0.0, 0.0, 0.0, 0.0, 0.0, 0.0, 0.0, 1.70095056563906E9, 0.0, 2023-11-25 17:16:05.639
53.0, 31110.230816630225, 40716.92117654338, -46108.60897405255, -40904.27349856776, -58866.78354344172, -18907.02771032187, -6007.053674108229, -25279.80062720783, -0.194, 0.912, 0.336, 192.0, 0.0, 0.0, 0.0, 0.0, 0.0, 0.0, 0.0, 0.0, 0.0, 1.700950565643076E9, 0.0, 2023-11-25 17:16:05.643
54.0, 31171.943983071327, 40809.993840455274, -46065.31364504262, -40847.52241939574, -58833.188871525395, -18878.953919286003, -6136.805550671286, -25251.10098732722, -0.194, 0.912, 0.336, 192.0, 0.0, 0.0, 0.0, 0.0, 0.0, 0.0, 0.0, 0.0, 0.0, 1.700950565647415E9, 0.0, 2023-11-25 17:16:05.647
55.0, 31192.038201336647, 40788.200889611355, -46074.947246902855, -40858.720643367844, -58802.49992638826, -18837.759654254874, -5920.954754466386, -25271.61988873719, -0.194, 0.912, 0.336, 192.0, 0.0, 0.0, 0.0, 0.0, 0.0, 0.0, 0.0, 0.0, 0.0, 1.700950565650061E9, 0.0, 2023-11-25 17:16:05.650
56.0, 31127.26284590517, 40694.39061813243, -46123.405828881965, -40932.57080704818, -58863.00609862877, -18923.053911096325, -5861.990852593285, -25324.39235739617, -0.194, 0.912, 0.336, 192.0, 0.0, 0.0, 0.0, 0.0, 0.0, 0.0, 0.0, 0.0, 0.0, 1.700950565654135E9, 0.0, 2023-11-25 17:16:05.654
57.0, 31122.188999913815, 40721.16800798989, -46124.45636087136, -40912.29777482722, -58874.53959876771, -18920.438756995056, -5991.18393554496, -25309.7743165224, -0.194, 0.912, 0.336, 192.0, 0.0, 0.0, 0.0, 0.0, 0.0, 0.0, 0.0, 0.0, 0.0, 1.700950565658171E9, 0.0, 2023-11-25 17:16:05.658
58.0, 31173.21803250528, 40814.84416900208, -46082.569191762115, -40854.116184010054, -58844.25298503077, -18897.2599979949, -6141.186492584526, -25283.063981898307, -0.194, 0.912, 0.336, 192.0, 0.0, 0.0, 0.0, 0.0, 0.0, 0.0, 0.0, 0.0, 0.0, 1.70095056566417E9, 0.0, 2023-11-25 17:16:05.664
59.0, 31206.3656695325, 40820.499160349274, -46067.52646774369, -40836.34654716808, -58791.97225474981, -18836.418549587554, -5975.940045826441, -25269.451769525025, -0.194, 0.912, 0.336, 192.0, 0.0, 0.0, 0.0, 0.0, 0.0, 0.0, 0.0, 0.0, 0.0, 1.700950565667283E9, 0.0, 2023-11-25 17:16:05.667
60.0, 31135.421232631357, 40714.88716779795, -46125.75276204977, -40920.254995853305, -58849.86327288905, -18912.526239457875, -5837.247471481261, -25326.91810451962, -0.198, 0.906, 0.34, 192.0, 249.0, 208.0, 28.0, 80.0, 10.0, 160.0, 0.0, 0.0, 0.0, 1.700950565671196E9, 0.0, 2023-11-25 17:16:05.671
61.0, 31116.399898099888, 40719.826903322566, -46132.480637130815, -40919.38327781955, -58877.19945635789, -18937.94017290356, -5973.079022536162, -25329.86853478772, -0.198, 0.906, 0.34, 192.0, 0.0, 0.0, 0.0, 0.0, 0.0, 0.0, 0.0, 0.0, 0.0, 1.700950565675302E9, 0.0, 2023-11-25 17:16:05.675
62.0, 31159.69522710982, 40814.01715445723, -46097.74602624727, -40863.347454470095, -58857.35110728158, -18907.27357951088, -6115.772559138842, -25281.7675807199, -0.198, 0.906, 0.34, 192.0, 0.0, 0.0, 0.0, 0.0, 0.0, 0.0, 0.0, 0.0, 0.0, 1.700950565678653E9, 0.0, 2023-11-25 17:16:05.678
63.0, 31214.41229753641, 40852.77507934273, -46062.94436013036, -40825.50595110726, -58798.74483331977, -18843.191128157512, -6032.177034875994, -25249.871641382175, -0.198, 0.906, 0.34, 192.0, 0.0, 0.0, 0.0, 0.0, 0.0, 0.0, 0.0, 0.0, 0.0, 1.700950565682243E9, 0.0, 2023-11-25 17:16:05.682
64.0, 31156.945962541817, 40749.6664821704, -46125.216320182844, -40908.98971664783, -58846.08582807611, -18902.669120153085, -5835.124055758007, -25327.700415575557, -0.198, 0.906, 0.34, 192.0, 0.0, 0.0, 0.0, 0.0, 0.0, 0.0, 0.0, 0.0, 0.0, 1.700950565687308E9, 0.0, 2023-11-25 17:16:05.687
65.0, 31117.271616133647, 40725.79481909214, -46141.39898316848, -40924.63593776655, -58888.487087307825, -18943.528109017385, -5956.516379894779, -25322.850087028753, -0.198, 0.906, 0.34, 192.0, 0.0, 0.0, 0.0, 0.0, 0.0, 0.0, 0.0, 0.0, 0.0, 1.700950565692351E9, 0.0, 2023-11-25 17:16:05.692
66.0, 31150.486308394233, 40808.473921832316, -46114.97922122231, -40873.60690517508, -58873.89139817851, -18914.35908250321, -6093.197297238982, -25283.57807202078, -0.198, 0.906, 0.34, 192.0, 0.0, 0.0, 0.0, 0.0, 0.0, 0.0, 0.0, 0.0, 0.0, 1.700950565695322E9, 0.0, 2023-11-25 17:16:05.695
67.0, 31204.912806142904, 40860.86641083556, -46072.01916837921, -40824.12014295103, -58816.31330446164, -18856.423360875055, -6077.752241820364, -25254.8113769068, -0.198, 0.906, 0.34, 192.0, 0.0, 0.0, 0.0, 0.0, 0.0, 0.0, 0.0, 0.0, 0.0, 1.70095056569928E9, 0.0, 2023-11-25 17:16:05.699
68.0, 31167.92066906937, 40770.00656962473, -46122.757628292755, -40888.38140826004, -58836.51928144923, -18882.619605376676, -5835.504035413746, -25325.085261474283, -0.198, 0.906, 0.34, 192.0, 0.0, 0.0, 0.0, 0.0, 0.0, 0.0, 0.0, 0.0, 0.0, 1.700950565703276E9, 0.0, 2023-11-25 17:16:05.703
69.0, 31117.897464978396, 40720.43040042286, -46139.76730582325, -40922.04313540973, -58882.72033723836, -18944.578641006785, -5932.823530772153, -25335.25530520145, -0.198, 0.906, 0.34, 192.0, 0.0, 0.0, 0.0, 0.0, 0.0, 0.0, 0.0, 0.0, 0.0, 1.700950565706292E9, 0.0, 2023-11-25 17:16:05.706
70.0, 31146.954732770293, 40800.427293828405, -46116.14151193399, -40872.73518714133, -58867.65526147548, -18913.152088302624, -6058.596796822167, -25293.949281448044, -0.192, 0.912, 0.33, 192.0, 250.0, 0.0, 28.0, 128.0, 10.0, 80.0, 0.0, 0.0, 0.0, 1.700950565710284E9, 0.0, 2023-11-25 17:16:05.710
71.0, 31205.69511719884, 40871.21526851836, -46071.70624395684, -40820.36504988254, -58818.77199635172, -18870.437904648534, -6112.531556192823, -25264.04264736684, -0.192, 0.912, 0.33, 192.0, 0.0, 0.0, 0.0, 0.0, 0.0, 0.0, 0.0, 0.0, 0.0, 1.700950565714407E9, 0.0, 2023-11-25 17:16:05.714
72.0, 31192.41818099239, 40803.3330206076, -46107.379628107505, -40865.67203589345, -58817.252077728765, -18868.359192414187, -5849.943262331875, -25321.285464916884, -0.192, 0.912, 0.33, 192.0, 0.0, 0.0, 0.0, 0.0, 0.0, 0.0, 0.0, 0.0, 0.0, 1.700950565718758E9, 0.0, 2023-11-25 17:16:05.718
73.0, 31121.227874902237, 40721.27976671216, -46148.909169305465, -40928.12280990158, -58885.46960180636, -18958.615536524718, -5904.012132169263, -25354.723674622022, -0.192, 0.912, 0.33, 192.0, 0.0, 0.0, 0.0, 0.0, 0.0, 0.0, 0.0, 0.0, 0.0, 1.700950565722484E9, 0.0, 2023-11-25 17:16:05.722
74.0, 31137.4999448657, 40782.50119477525, -46137.55448312217, -40888.29200128222, -58882.27330234925, -18934.47565251299, -6031.618241264611, -25307.516790332415, -0.192, 0.912, 0.33, 192.0, 0.0, 0.0, 0.0, 0.0, 0.0, 0.0, 0.0, 0.0, 0.0, 1.700950565727395E9, 0.0, 2023-11-25 17:16:05.727
75.0, 31202.565872975098, 40871.23762026282, -46084.35733131854, -40823.49429410628, -58834.865252359545, -18886.151181000612, -6129.697695934498, -25238.71812089898, -0.192, 0.912, 0.33, 192.0, 0.0, 0.0, 0.0, 0.0, 0.0, 0.0, 0.0, 0.0, 0.0, 1.700950565731468E9, 0.0, 2023-11-25 17:16:05.731
76.0, 31212.288881813158, 40831.473866876826, -46101.90345071596, -40847.969454284845, -58812.73702534879, -18857.183320186534, -5887.985931394807, -25278.683039985066, -0.192, 0.912, 0.33, 192.0, 0.0, 0.0, 0.0, 0.0, 0.0, 0.0, 0.0, 0.0, 0.0, 1.700950565734468E9, 0.0, 2023-11-25 17:16:05.734
77.0, 31136.78468904313, 40736.747173875236, -46147.61276812706, -40921.57374877617, -58880.21694185936, -18945.718579974007, -5883.4485272703805, -25317.977406737496, -0.192, 0.912, 0.33, 192.0, 0.0, 0.0, 0.0, 0.0, 0.0, 0.0, 0.0, 0.0, 0.0, 1.700950565738375E9, 0.0, 2023-11-25 17:16:05.738
78.0, 31146.35123567, 40786.591564010574, -46136.8392272996, -40888.22494604885, -58879.814610459165, -18930.74291118895, -6011.747540443843, -25296.273862871392, -0.192, 0.912, 0.33, 192.0, 0.0, 0.0, 0.0, 0.0, 0.0, 0.0, 0.0, 0.0, 0.0, 1.700950565742624E9, 0.0, 2023-11-25 17:16:05.742
79.0, 31211.88655041296, 40880.78181514524, -46081.20573535034, -40818.75572428176, -58835.133473293004, -18892.342614214733, -6144.2486815749035, -25240.729777899956, -0.192, 0.912, 0.33, 192.0, 0.0, 0.0, 0.0, 0.0, 0.0, 0.0, 0.0, 0.0, 0.0, 1.700950565747151E9, 0.0, 2023-11-25 17:16:05.747
80.0, 31238.97686469279, 40858.9441608124, -46081.00456965024, -40822.533169094706, -58795.77205130721, -18846.63329680363, -5935.393981384514, -25268.691810213546, -0.184, 0.916, 0.324, 192.0, 250.0, 64.0, 28.0, 160.0, 10.0, 32.0, 0.0, 0.0, 0.0, 1.700950565750499E9, 0.0, 2023-11-25 17:16:05.750
81.0, 31160.656352121398, 40745.2184850238, -46143.522398891735, -40915.89640568452, -58870.8962644215, -18949.630135253687, -5861.096782815073, -25351.14739550917, -0.184, 0.916, 0.324, 192.0, 0.0, 0.0, 0.0, 0.0, 0.0, 0.0, 0.0, 0.0, 0.0, 1.700950565754459E9, 0.0, 2023-11-25 17:16:05.754
82.0, 31150.44160490532, 40764.50804048873, -46142.695384346895, -40901.85951016659, -58888.151811141, -18952.848786455248, -5996.23542979186, -25331.142584221674, -0.184, 0.916, 0.324, 192.0, 0.0, 0.0, 0.0, 0.0, 0.0, 0.0, 0.0, 0.0, 0.0, 1.700950565759447E9, 0.0, 2023-11-25 17:16:05.759
83.0, 31202.83409390856, 40857.267779978254, -46097.43310182489, -40841.57685537063, -58858.356935782074, -18919.589390705754, -6143.287556563325, -25267.440112524047, -0.184, 0.916, 0.324, 192.0, 0.0, 0.0, 0.0, 0.0, 0.0, 0.0, 0.0, 0.0, 0.0, 1.700950565763487E9, 0.0, 2023-11-25 17:16:05.763
84.0, 31249.124556675502, 40876.222059276355, -46071.30391255664, -40818.91218649295, -58800.756490320746, -18857.473892864455, -6003.365636273103, -25258.05237985282, -0.184, 0.916, 0.324, 192.0, 0.0, 0.0, 0.0, 0.0, 0.0, 0.0, 0.0, 0.0, 0.0, 1.700950565766485E9, 0.0, 2023-11-25 17:16:05.766
85.0, 31182.002268076216, 40770.163031835924, -46129.79842779618, -40908.18505384744, -58859.11689509355, -18936.196736836046, -5854.055983311651, -25332.148412722163, -0.184, 0.916, 0.324, 192.0, 0.0, 0.0, 0.0, 0.0, 0.0, 0.0, 0.0, 0.0, 0.0, 1.700950565770529E9, 0.0, 2023-11-25 17:16:05.770
86.0, 31159.963448043283, 40766.76556667871, -46134.91697727644, -40909.772027703766, -58886.944816940406, -18961.968298193016, -5988.725243654877, -25331.366101666226, -0.184, 0.916, 0.324, 192.0, 0.0, 0.0, 0.0, 0.0, 0.0, 0.0, 0.0, 0.0, 0.0, 1.700950565774643E9, 0.0, 2023-11-25 17:16:05.774
87.0, 31196.240329294247, 40849.310558952166, -46105.74795076227, -40859.12297476804, -58869.4434010319, -18933.35806529022, -6130.301193034791, -25280.9182144306, -0.184, 0.916, 0.324, 192.0, 0.0, 0.0, 0.0, 0.0, 0.0, 0.0, 0.0, 0.0, 0.0, 1.700950565778685E9, 0.0, 2023-11-25 17:16:05.778
88.0, 31244.542449062166, 40883.93341111343, -46076.98125564829, -40827.003517985766, -58816.5815253951, -18874.17064597257, -6057.233340410393, -25265.696676456533, -0.184, 0.916, 0.324, 192.0, 0.0, 0.0, 0.0, 0.0, 0.0, 0.0, 0.0, 0.0, 0.0, 1.700950565783011E9, 0.0, 2023-11-25 17:16:05.783
89.0, 31194.98863160475, 40785.40692155444, -46136.61570985505, -40905.2569753238, -58857.28405204821, -18920.103480828224, -5847.037535552685, -25328.05804348684, -0.188, 0.916, 0.324, 192.0, 250.0, 32.0, 28.0, 160.0, 10.0, 32.0, 0.0, 0.0, 0.0, 1.700950565787561E9, 0.0, 2023-11-25 17:16:05.787
90.0, 31154.5543258851, 40754.62856943948, -46152.91013156297, -40925.015917422286, -58896.75723275629, -18960.850710970248, -5969.547446912223, -25327.58865685328, -0.188, 0.916, 0.324, 192.0, 0.0, 0.0, 0.0, 0.0, 0.0, 0.0, 0.0, 0.0, 0.0, 1.700950565790594E9, 0.0, 2023-11-25 17:16:05.790
91.0, 31186.69613441183, 40829.39515464249, -46131.69832607488, -40880.80416688969, -58887.07892740714, -18936.08497811377, -6115.169062038549, -25308.992005466465, -0.188, 0.916, 0.324, 192.0, 0.0, 0.0, 0.0, 0.0, 0.0, 0.0, 0.0, 0.0, 0.0, 1.700950565794563E9, 0.0, 2023-11-25 17:16:05.794
92.0, 31253.61725731102, 40891.98003911734, -46079.95403766084, -40824.45541911786, -58824.89637433248, -18870.616718604175, -6107.390654968101, -25268.892975913644, -0.188, 0.916, 0.324, 192.0, 0.0, 0.0, 0.0, 0.0, 0.0, 0.0, 0.0, 0.0, 0.0, 1.700950565798576E9, 0.0, 2023-11-25 17:16:05.798
93.0, 31224.582341263576, 40802.34954385156, -46125.55159634967, -40887.3532280151, -58839.760284395255, -18886.64291937863, -5847.8198466086205, -25326.359310908236, -0.188, 0.916, 0.324, 192.0, 0.0, 0.0, 0.0, 0.0, 0.0, 0.0, 0.0, 0.0, 0.0, 1.700950565802607E9, 0.0, 2023-11-25 17:16:05.802
94.0, 31169.59704990352, 40740.39050822145, -46148.12685824953, -40928.435734323946, -58893.27036062126, -18958.056742913337, -5941.473655876357, -25353.62843914371, -0.188, 0.916, 0.324, 192.0, 0.0, 0.0, 0.0, 0.0, 0.0, 0.0, 0.0, 0.0, 0.0, 1.7009505658067E9, 0.0, 2023-11-25 17:16:05.806
95.0, 31201.895320641437, 40816.587605069595, -46119.069590457635, -40876.847908121104, -58873.93610166742, -18923.188021563055, -6068.811544038242, -25306.846237998754, -0.188, 0.916, 0.324, 192.0, 0.0, 0.0, 0.0, 0.0, 0.0, 0.0, 0.0, 0.0, 0.0, 1.7009505658107E9, 0.0, 2023-11-25 17:16:05.810
96.0, 31276.751312822264, 40901.5018822553, -46060.060985095624, -40809.12212242152, -58811.48532765929, -18864.514692367877, -6118.365361495657, -25240.975647088962, -0.188, 0.916, 0.324, 192.0, 0.0, 0.0, 0.0, 0.0, 0.0, 0.0, 0.0, 0.0, 0.0, 1.700950565815659E9, 0.0, 2023-11-25 17:16:05.815
97.0, 31263.787301038185, 40833.79844830018, -46098.237764625286, -40856.12784101103, -58809.96540903633, -18861.139578955124, -5849.809151865144, -25298.464333828015, -0.188, 0.916, 0.324, 192.0, 0.0, 0.0, 0.0, 0.0, 0.0, 0.0, 0.0, 0.0, 0.0, 1.700950565818685E9, 0.0, 2023-11-25 17:16:05.818
98.0, 31190.89826236943, 40752.84042988306, -46138.58266336712, -40921.57374877617, -58875.50072377929, -18955.441588812064, -5896.725463476832, -25344.15129949466, -0.188, 0.916, 0.324, 192.0, 0.0, 0.0, 0.0, 0.0, 0.0, 0.0, 0.0, 0.0, 0.0, 1.7009505658217E9, 0.0, 2023-11-25 17:16:05.821
99.0, 31204.175198575882, 40810.19500615537, -46127.07151497263, -40890.415417005475, -58875.411316801474, -18936.55436474733, -6027.4384650514685, -25318.469145115512, -0.196, 0.916, 0.326, 192.0, 249.0, 224.0, 28.0, 160.0, 10.0, 48.0, 0.0, 0.0, 0.0, 1.70095056582668E9, 0.0, 2023-11-25 17:16:05.826
100.0, 31275.38785641049, 40900.22783282135, -46063.614912464014, -40819.47098010433, -58820.381321952504, -18889.50394266891, -6138.817207672264, -25267.28365031286, -0.196, 0.916, 0.326, 192.0, 0.0, 0.0, 0.0, 0.0, 0.0, 0.0, 0.0, 0.0, 0.0, 1.700950565830688E9, 0.0, 2023-11-25 17:16:05.830
101.0, 31287.256632716257, 40862.69925388089, -46073.74025270227, -40834.64781458948, -58790.38528089348, -18844.3981223581, -5884.186134837406, -25273.117455615695, -0.196, 0.916, 0.326, 192.0, 0.0, 0.0, 0.0, 0.0, 0.0, 0.0, 0.0, 0.0, 0.0, 1.700950565834699E9, 0.0, 2023-11-25 17:16:05.834
102.0, 31215.775753948186, 40770.11832834701, -46116.87911950101, -40908.47562652536, -58854.13245608002, -18932.285181556366, -5869.433983496903, -25306.91329323212, -0.196, 0.916, 0.326, 192.0, 0.0, 0.0, 0.0, 0.0, 0.0, 0.0, 0.0, 0.0, 0.0, 1.700950565839096E9, 0.0, 2023-11-25 17:16:05.839
103.0, 31221.36369006201, 40809.79267475518, -46109.86067174205, -40882.23467853483, -58857.75343868178, -18924.238553552455, -6001.801014161231, -25299.067830928307, -0.196, 0.916, 0.326, 192.0, 0.0, 0.0, 0.0, 0.0, 0.0, 0.0, 0.0, 0.0, 0.0, 1.700950565843764E9, 0.0, 2023-11-25 17:16:05.843
104.0, 31273.555013365152, 40895.37750427455, -46068.55464798864, -40828.74695405328, -58828.60676391206, -18903.74200388694, -6147.020297887361, -25273.497435271434, -0.196, 0.916, 0.326, 192.0, 0.0, 0.0, 0.0, 0.0, 0.0, 0.0, 0.0, 0.0, 0.0, 1.700950565846776E9, 0.0, 2023-11-25 17:16:05.846
105.0, 31300.511217178253, 40885.96741985887, -46061.44679325185, -40824.99186098479, -58784.126792446, -18847.192090415014, -5947.307461179193, -25273.028048637876, -0.196, 0.916, 0.326, 192.0, 0.0, 0.0, 0.0, 0.0, 0.0, 0.0, 0.0, 0.0, 0.0, 1.700950565849715E9, 0.0, 2023-11-25 17:16:05.849
106.0, 31217.675652226884, 40773.91812490441, -46125.75276204977, -40915.918757428975, -58856.7923136702, -18942.07524562779, -5859.867436870031, -25340.418558170626, -0.196, 0.916, 0.326, 192.0, 0.0, 0.0, 0.0, 0.0, 0.0, 0.0, 0.0, 0.0, 0.0, 1.700950565854787E9, 0.0, 2023-11-25 17:16:05.854
107.0, 31205.5163032432, 40793.0288664137, -46130.536035363206, -40905.61460323508, -58877.087697635616, -18954.636926011673, -6006.114900841106, -25346.319418706826, -0.196, 0.916, 0.326, 192.0, 0.0, 0.0, 0.0, 0.0, 0.0, 0.0, 0.0, 0.0, 0.0, 1.700950565858806E9, 0.0, 2023-11-25 17:16:05.858
108.0, 31247.872858986004, 40879.23954477782, -46095.712017501835, -40850.964588041854, -58855.339450280604, -18930.295876299846, -6160.498399793912, -25303.649938541646, -0.196, 0.916, 0.326, 192.0, 0.0, 0.0, 0.0, 0.0, 0.0, 0.0, 0.0, 0.0, 0.0, 1.700950565863766E9, 0.0, 2023-11-25 17:16:05.863
109.0, 31290.43058042891, 40891.57770771715, -46076.8247934371, -40828.970471497836, -58804.08690024458, -18871.801361060305, -6030.210081363926, -25292.20584538053, -0.198, 0.918, 0.322, 192.0, 249.0, 208.0, 28.0, 176.0, 10.0, 16.0, 0.0, 0.0, 0.0, 1.700950565867792E9, 0.0, 2023-11-25 17:16:05.867
110.0, 31224.448230796843, 40786.0774738881, -46135.922805776936, -40911.20253934891, -58857.731086937325, -18939.460091526522, -5865.388317750492, -25346.07354951782, -0.198, 0.918, 0.322, 192.0, 0.0, 0.0, 0.0, 0.0, 0.0, 0.0, 0.0, 0.0, 0.0, 1.700950565870872E9, 0.0, 2023-11-25 17:16:05.870
111.0, 31200.55421597412, 40782.34473256406, -46137.889759289, -40907.78272244725, -58879.61344475907, -18956.447417312553, -5987.4064907320135, -25323.8782672737, -0.198, 0.918, 0.322, 192.0, 0.0, 0.0, 0.0, 0.0, 0.0, 0.0, 0.0, 0.0, 0.0, 1.700950565875813E9, 0.0, 2023-11-25 17:16:05.875
112.0, 31244.117765917515, 40878.032550577234, -46095.82377622411, -40846.293073450695, -58851.092618834096, -18921.69045468455, -6123.416855742557, -25273.609193993714, -0.198, 0.918, 0.322, 192.0, 0.0, 0.0, 0.0, 0.0, 0.0, 0.0, 0.0, 0.0, 0.0, 1.700950565880516E9, 0.0, 2023-11-25 17:16:05.880
113.0, 31298.76778111074, 40917.5057312853, -46059.05515659513, -40808.965660210335, -58794.676815828905, -18862.07835222225, -6049.186712406482, -25248.061150081296, -0.198, 0.918, 0.322, 192.0, 0.0, 0.0, 0.0, 0.0, 0.0, 0.0, 0.0, 0.0, 0.0, 1.700950565882845E9, 0.0, 2023-11-25 17:16:05.882
114.0, 31246.889382229972, 40812.45253234536, -46116.14151193399, -40887.71085592638, -58835.24523201528, -18907.87707661117, -5832.710067356833, -25312.702395046046, -0.198, 0.918, 0.322, 192.0, 0.0, 0.0, 0.0, 0.0, 0.0, 0.0, 0.0, 0.0, 0.0, 1.700950565886894E9, 0.0, 2023-11-25 17:16:05.886
115.0, 31205.181027076367, 40778.969619151314, -46131.05012548568, -40915.76229521779, -58880.97690117084, -18966.483350572988, -5953.498894393313, -25344.285409961394, -0.198, 0.918, 0.322, 192.0, 0.0, 0.0, 0.0, 0.0, 0.0, 0.0, 0.0, 0.0, 0.0, 1.700950565890944E9, 0.0, 2023-11-25 17:16:05.890
116.0, 31241.48026007179, 40862.63219864752, -46103.758645505746, -40866.72256788285, -58863.386078284515, -18940.93530666057, -6092.4149861830465, -25309.126115933195, -0.198, 0.918, 0.322, 192.0, 0.0, 0.0, 0.0, 0.0, 0.0, 0.0, 0.0, 0.0, 0.0, 1.70095056589495E9, 0.0, 2023-11-25 17:16:05.894
117.0, 31304.780400369218, 40925.23943486684, -46054.24953153724, -40809.32328812162, -58801.69526358787, -18873.79066631683, -6094.069015272738, -25236.52764994236, -0.198, 0.918, 0.322, 192.0, 0.0, 0.0, 0.0, 0.0, 0.0, 0.0, 0.0, 0.0, 0.0, 1.700950565897834E9, 0.0, 2023-11-25 17:16:05.897
118.0, 31271.833929042095, 40839.40873615846, -46104.585660050594, -40875.149175542494, -58821.27539173072, -18894.086050282247, -5840.332012216093, -25309.371985122205, -0.198, 0.918, 0.322, 192.0, 0.0, 0.0, 0.0, 0.0, 0.0, 0.0, 0.0, 0.0, 0.0, 1.700950565901948E9, 0.0, 2023-11-25 17:16:05.901
119.0, 31213.831152180574, 40778.25436332874, -46129.21728244034, -40918.66802199698, -58876.75242146879, -18966.840978484273, -5921.98293471133, -25329.421499898614, -0.196, 0.914, 0.33, 192.0, 249.0, 224.0, 28.0, 144.0, 10.0, 80.0, 0.0, 0.0, 0.0, 1.70095056590593E9, 0.0, 2023-11-25 17:16:05.905
120.0, 31245.99531245176, 40855.65845437747, -46101.098787915565, -40868.175431272444, -58858.6922119489, -18928.865364654706, -6042.257671625337, -25279.308888829815, -0.196, 0.914, 0.33, 192.0, 0.0, 0.0, 0.0, 0.0, 0.0, 0.0, 0.0, 0.0, 0.0, 1.700950565909857E9, 0.0, 2023-11-25 17:16:05.909
121.0, 31304.355717224567, 40924.74769648883, -46055.5682844601, -40817.99576497028, -58814.8827928165, -18889.07925952426, -6118.6559341735765, -25243.367283745683, -0.196, 0.914, 0.33, 192.0, 0.0, 0.0, 0.0, 0.0, 0.0, 0.0, 0.0, 0.0, 0.0, 1.700950565914911E9, 0.0, 2023-11-25 17:16:05.914
122.0, 31294.453894430866, 40858.586532901114, -46088.67121799842, -40864.107413781574, -58812.848784071066, -18882.59725363222, -5867.6011404515675, -25306.265092642916, -0.196, 0.914, 0.33, 192.0, 0.0, 0.0, 0.0, 0.0, 0.0, 0.0, 0.0, 0.0, 0.0, 1.700950565918914E9, 0.0, 2023-11-25 17:16:05.918
123.0, 31222.235408095767, 40771.05710161413, -46129.686669073904, -40931.69908901442, -58881.96037792687, -18974.909958232638, -5913.7351410073215, -25355.4836339335, -0.196, 0.914, 0.33, 192.0, 0.0, 0.0, 0.0, 0.0, 0.0, 0.0, 0.0, 0.0, 0.0, 1.700950565922893E9, 0.0, 2023-11-25 17:16:05.922
124.0, 31239.66976877091, 40828.948119753375, -46116.677953800914, -40894.30462054069, -58878.11587788056, -18950.144225376156, -6047.867959483619, -25327.141621964172, -0.196, 0.914, 0.33, 192.0, 0.0, 0.0, 0.0, 0.0, 0.0, 0.0, 0.0, 0.0, 0.0, 1.700950565926913E9, 0.0, 2023-11-25 17:16:05.926
125.0, 31298.879539833015, 40913.92945217246, -46067.481764254786, -40830.24452093179, -58834.97701108182, -18912.727405157973, -6162.688870750531, -25276.76078996191, -0.196, 0.914, 0.33, 192.0, 0.0, 0.0, 0.0, 0.0, 0.0, 0.0, 0.0, 0.0, 0.0, 1.700950565930103E9, 0.0, 2023-11-25 17:16:05.930
126.0, 31303.439295701897, 40868.77892837273, -46083.485613284785, -40846.851867062076, -58805.852688056555, -18873.276576194356, -5919.010152698774, -25295.178627393085, -0.196, 0.914, 0.33, 192.0, 0.0, 0.0, 0.0, 0.0, 0.0, 0.0, 0.0, 0.0, 0.0, 1.700950565933943E9, 0.0, 2023-11-25 17:16:05.933
127.0, 31221.006062150725, 40766.20677306733, -46134.82757029862, -40924.50182729981, -58874.11491562306, -18964.382286594187, -5891.137527363006, -25345.5818111398, -0.196, 0.914, 0.33, 192.0, 0.0, 0.0, 0.0, 0.0, 0.0, 0.0, 0.0, 0.0, 0.0, 1.70095056593797E9, 0.0, 2023-11-25 17:16:05.937
128.0, 31214.18878009186, 40801.276660117706, -46130.78190455221, -40901.591289233125, -58882.63093026054, -18954.1228358892, -6021.135273115072, -25323.721805062512, -0.196, 0.914, 0.33, 192.0, 0.0, 0.0, 0.0, 0.0, 0.0, 0.0, 0.0, 0.0, 0.0, 1.700950565941954E9, 0.0, 2023-11-25 17:16:05.941
129.0, 31272.258612186746, 40894.103454840595, -46079.708168471836, -40838.20174195788, -58843.35891525256, -18916.661312182106, -6154.977518913451, -25267.685981713057, -0.194, 0.914, 0.328, 192.0, 249.0, 240.0, 28.0, 144.0, 10.0, 64.0, 0.0, 0.0, 0.0, 1.700950565947001E9, 0.0, 2023-11-25 17:16:05.947
130.0, 31301.67350788993, 40882.5476029572, -46072.153278845944, -40833.17259945543, -58796.84493504107, -18862.435980133534, -5966.239388732838, -25279.42064755209, -0.194, 0.914, 0.328, 192.0, 0.0, 0.0, 0.0, 0.0, 0.0, 0.0, 0.0, 0.0, 0.0, 1.700950565950998E9, 0.0, 2023-11-25 17:16:05.950
131.0, 31221.497800528745, 40769.78305218018, -46135.7886953102, -40925.46295231139, -58867.31998530865, -18950.591260265264, -5860.985024092797, -25347.526412907413, -0.194, 0.914, 0.328, 192.0, 0.0, 0.0, 0.0, 0.0, 0.0, 0.0, 0.0, 0.0, 0.0, 1.700950565954021E9, 0.0, 2023-11-25 17:16:05.954
132.0, 31214.054669625126, 40790.54782277916, -46130.111352218555, -40907.91683291398, -58879.36757557006, -18954.860443456226, -5998.47060423739, -25331.947247022064, -0.194, 0.914, 0.328, 192.0, 0.0, 0.0, 0.0, 0.0, 0.0, 0.0, 0.0, 0.0, 0.0, 1.700950565958049E9, 0.0, 2023-11-25 17:16:05.958
133.0, 31263.742597549273, 40887.91202162648, -46086.70426448635, -40843.81202981616, -58850.33265952262, -18921.55634421782, -6137.476103004945, -25284.874473199186, -0.194, 0.914, 0.328, 192.0, 0.0, 0.0, 0.0, 0.0, 0.0, 0.0, 0.0, 0.0, 0.0, 1.700950565964027E9, 0.0, 2023-11-25 17:16:05.964
134.0, 31307.641423659497, 40909.414399792484, -46061.44679325185, -40818.71102079285, -58795.90616177394, -18863.68767782303, -6014.206232333927, -25278.01248765141, -0.194, 0.914, 0.328, 192.0, 0.0, 0.0, 0.0, 0.0, 0.0, 0.0, 0.0, 0.0, 0.0, 1.700950565966986E9, 0.0, 2023-11-25 17:16:05.966
135.0, 31247.24701014126, 40810.32911662211, -46114.42042761093, -40897.456216508894, -58842.0401623297, -18924.97616111948, -5841.874282583509, -25334.003607511953, -0.194, 0.914, 0.328, 192.0, 0.0, 0.0, 0.0, 0.0, 0.0, 0.0, 0.0, 0.0, 0.0, 1.700950565970006E9, 0.0, 2023-11-25 17:16:05.970
136.0, 31217.452134782332, 40797.34275309357, -46123.539939348695, -40905.0558096237, -58874.80781970118, -18956.000382423448, -5968.765135856287, -25321.464278872525, -0.194, 0.914, 0.328, 192.0, 0.0, 0.0, 0.0, 0.0, 0.0, 0.0, 0.0, 0.0, 0.0, 1.700950565975037E9, 0.0, 2023-11-25 17:16:05.975
137.0, 31255.695969545362, 40880.17831804494, -46093.45449131185, -40854.85379157708, -58856.054706103176, -18931.905201900627, -6109.6705329025435, -25290.32829884628, -0.194, 0.914, 0.328, 192.0, 0.0, 0.0, 0.0, 0.0, 0.0, 0.0, 0.0, 0.0, 0.0, 1.700950565979871E9, 0.0, 2023-11-25 17:16:05.979
138.0, 31301.025307300726, 40916.52225452927, -46064.08429909758, -40825.41654412944, -58807.48436540179, -18885.190055989035, -6063.514180602334, -25280.7170487305, -0.194, 0.914, 0.328, 192.0, 0.0, 0.0, 0.0, 0.0, 0.0, 0.0, 0.0, 0.0, 0.0, 1.700950565982143E9, 0.0, 2023-11-25 17:16:05.982
139.0, 31252.924353232906, 40819.69449754888, -46118.84607301308, -40902.708876455894, -58841.77194139623, -18930.1170623442, -5844.3553262180485, -25349.225145486016, -0.196, 0.918, 0.328, 192.0, 249.0, 224.0, 28.0, 176.0, 10.0, 64.0, 0.0, 0.0, 0.0, 1.700950565986107E9, 0.0, 2023-11-25 17:16:05.986
140.0, 31207.147980588437, 40780.847165685555, -46131.87714003053, -40923.92068194398, -58882.27330234925, -18973.635908798686, -5948.670917590966, -25329.35444466525, -0.196, 0.918, 0.328, 192.0, 0.0, 0.0, 0.0, 0.0, 0.0, 0.0, 0.0, 0.0, 0.0, 1.700950565990126E9, 0.0, 2023-11-25 17:16:05.990
141.0, 31240.65324552694, 40859.39119570151, -46106.060875184645, -40874.813899375666, -58867.297633564194, -18944.019847395404, -6073.550113862767, -25286.52850228888, -0.196, 0.918, 0.328, 192.0, 0.0, 0.0, 0.0, 0.0, 0.0, 0.0, 0.0, 0.0, 0.0, 1.70095056599419E9, 0.0, 2023-11-25 17:16:05.994
142.0, 31302.992260812793, 40923.898330199525, -46059.36808101751, -40819.7839045267, -58809.74189159178, -18892.74494561493, -6100.953352564973, -25258.767635675387, -0.196, 0.918, 0.328, 192.0, 0.0, 0.0, 0.0, 0.0, 0.0, 0.0, 0.0, 0.0, 0.0, 1.700950565998103E9, 0.0, 2023-11-25 17:16:05.998
143.0, 31269.86697553003, 40837.195913457384, -46109.16776766393, -40880.11126281157, -58825.16459526594, -18908.346463244732, -5848.2892332421825, -25336.5293546354, -0.196, 0.918, 0.328, 192.0, 0.0, 0.0, 0.0, 0.0, 0.0, 0.0, 0.0, 0.0, 0.0, 1.70095056600339E9, 0.0, 2023-11-25 17:16:06.003
144.0, 31207.617367221996, 40771.615895225514, -46138.51560813375, -40924.948862188925, -58883.390889572016, -18982.263682158435, -5930.543652837712, -25352.264982731936, -0.196, 0.918, 0.328, 192.0, 0.0, 0.0, 0.0, 0.0, 0.0, 0.0, 0.0, 0.0, 0.0, 1.700950566007186E9, 0.0, 2023-11-25 17:16:06.007
145.0, 31236.205248380335, 40850.9422362974, -46112.341715376584, -40870.58941967361, -58865.6436044745, -18943.03637063937, -6053.031212452795, -25295.603310537736, -0.196, 0.918, 0.328, 192.0, 0.0, 0.0, 0.0, 0.0, 0.0, 0.0, 0.0, 0.0, 0.0, 1.700950566010209E9, 0.0, 2023-11-25 17:16:06.010
146.0, 31296.018516542736, 40929.19569363543, -46054.9200838709, -40808.049238687665, -58812.15587999295, -18893.21433224849, -6128.8706813896515, -25240.57331568877, -0.196, 0.918, 0.328, 192.0, 0.0, 0.0, 0.0, 0.0, 0.0, 0.0, 0.0, 0.0, 0.0, 1.700950566018054E9, 0.0, 2023-11-25 17:16:06.018
147.0, 31287.033115271704, 40869.6953498954, -46080.02109289421, -40844.28141644972, -58798.63307459749, -18870.616718604175, -5863.06373632714, -25271.44107478155, -0.196, 0.918, 0.328, 192.0, 0.0, 0.0, 0.0, 0.0, 0.0, 0.0, 0.0, 0.0, 0.0, 1.700950566018132E9, 0.0, 2023-11-25 17:16:06.018
148.0, 31213.719393458297, 40779.05902612913, -46121.26006141425, -40915.11409462859, -58865.12951435203, -18963.532920304886, -5889.125870362029, -25313.618816568713, -0.196, 0.918, 0.328, 192.0, 0.0, 0.0, 0.0, 0.0, 0.0, 0.0, 0.0, 0.0, 0.0, 1.700950566022218E9, 0.0, 2023-11-25 17:16:06.022
149.0, 31226.817515709106, 40832.524398866226, -46110.9335554759, -40881.83234713464, -58863.251967817785, -18949.071341642302, -6021.850528937642, -25306.846237998754, -0.196, 0.922, 0.322, 192.0, 249.0, 224.0, 28.0, 208.0, 10.0, 16.0, 0.0, 0.0, 0.0, 1.700950566026492E9, 0.0, 2023-11-25 17:16:06.026
150.0, 31275.097283732568, 40909.30264107021, -46069.64988346695, -40826.82470403012, -58826.77392086672, -18919.947018617037, -6146.640318231621, -25273.47508352698, -0.196, 0.922, 0.322, 192.0, 0.0, 0.0, 0.0, 0.0, 0.0, 0.0, 0.0, 0.0, 0.0, 1.700950566030316E9, 0.0, 2023-11-25 17:16:06.030
