%OpenBCI Raw EXG Data
%Number of channels = 8
%Sample Rate = 250 Hz
%Board = OpenBCI_GUI$BoardCytonSerial
Sample Index, EXG Channel 0, EXG Channel 1, EXG Channel 2, EXG Channel 3, EXG Channel 4, EXG Channel 5, EXG Channel 6, EXG Channel 7, Accel Channel 0, Accel Channel 1, Accel Channel 2, Other, Other, Other, Other, Other, Other, Other, Analog Channel 0, Analog Channel 1, Analog Channel 2, Timestamp, Other, Timestamp (Formatted)
227.0, 72484.09211445953, 82784.42416005423, -17452.26442244821, -16499.431908062925, -9990.626274421964, -5770.594569515535, -19480.506417811685, 187500.0, 0.0, 0.0, 0.0, 192.0, 0.0, 0.0, 0.0, 0.0, 0.0, 0.0, 0.0, 0.0, 0.0, 1.700944922066356E9, 0.0, 2023-11-25 15:42:02.066
228.0, 72476.42546611137, 82758.13850857479, -17206.998730540126, -16134.182051918753, -9393.789993976354, -5483.598170709392, -19494.878589496446, 187500.0, 0.0, 0.0, 0.0, 192.0, 0.0, 0.0, 0.0, 0.0, 0.0, 0.0, 0.0, 0.0, 0.0, 1.70094492206638E9, 0.0, 2023-11-25 15:42:02.066
229.0, 72461.36039034849, 82746.51560145803, -17467.977698800292, -16535.619382336066, -9737.381009743334, -5735.1223510649625, -19513.788165305636, 187500.0, 0.0, 0.0, 0.0, 192.0, 0.0, 0.0, 0.0, 0.0, 0.0, 0.0, 0.0, 0.0, 0.0, 1.700944922066393E9, 0.0, 2023-11-25 15:42:02.066
0.0, 0.0, 0.0, 0.0, 0.0, 0.0, 0.0, 0.0, 0.0, 0.0, 0.0, 0.0, 192.0, 0.0, 0.0, 0.0, 0.0, 0.0, 0.0, 0.0, 0.0, 0.0, 1.700944922166112E9, 0.0, 2023-11-25 15:42:02.166
1.0, 72229.17046894676, 82910.71151622671, -16969.511445702487, -15810.148812550166, -9287.194524668996, -5509.682656488736, -19414.45701294625, 187500.0, -0.078, 0.986, 0.048, 192.0, 253.0, 144.0, 30.0, 208.0, 1.0, 128.0, 0.0, 0.0, 0.0, 1.700944922182199E9, 0.0, 2023-11-25 15:42:02.182
2.0, 72213.63600655032, 82922.42383032129, -17264.308603323534, -16057.202644014675, -9752.602547717399, -5601.950657600243, -19412.870039089925, 187500.0, -0.078, 0.986, 0.048, 192.0, 0.0, 0.0, 0.0, 0.0, 0.0, 0.0, 0.0, 0.0, 0.0, 1.70094492218621E9, 0.0, 2023-11-25 15:42:02.186
3.0, 72244.302599943, 82959.95240926176, -17238.4699867332, -16059.75074288258, -9904.080319891014, -5672.962149734753, -19395.189809225776, 187500.0, -0.078, 0.986, 0.048, 192.0, 0.0, 0.0, 0.0, 0.0, 0.0, 0.0, 0.0, 0.0, 0.0, 1.700944922189184E9, 0.0, 2023-11-25 15:42:02.189
4.0, 72249.24233546763, 82949.51414460113, -16763.160140891094, -15455.136055366524, -9115.130795852041, -5255.073935398333, -19356.856567484923, 187500.0, -0.078, 0.986, 0.048, 192.0, 0.0, 0.0, 0.0, 0.0, 0.0, 0.0, 0.0, 0.0, 0.0, 1.700944922194219E9, 0.0, 2023-11-25 15:42:02.194
5.0, 72241.82155630847, 82931.09630716995, -16900.19868614658, -15719.579544017262, -9210.550392931747, -5449.064725525943, -19381.242320685666, 187500.0, -0.078, 0.986, 0.048, 192.0, 0.0, 0.0, 0.0, 0.0, 0.0, 0.0, 0.0, 0.0, 0.0, 1.700944922197276E9, 0.0, 2023-11-25 15:42:02.197
6.0, 72231.00331199208, 82937.89123748436, -17187.955044264203, -15987.152276891742, -9646.76703772152, -5549.5134651080925, -19381.48818987467, 187500.0, -0.078, 0.986, 0.048, 192.0, 0.0, 0.0, 0.0, 0.0, 0.0, 0.0, 0.0, 0.0, 0.0, 1.700944922201204E9, 0.0, 2023-11-25 15:42:02.201
7.0, 72250.09170175693, 82967.44024365429, -17290.795420503073, -16124.257877380596, -9983.563123174086, -5706.847394328999, -19385.98089051019, 187500.0, -0.078, 0.986, 0.048, 192.0, 0.0, 0.0, 0.0, 0.0, 0.0, 0.0, 0.0, 0.0, 0.0, 1.700944922205217E9, 0.0, 2023-11-25 15:42:02.205
8.0, 72249.64466686781, 82959.63948483938, -16786.22714116897, -15522.079530010169, -9221.68156167049, -5300.76090106498, -19331.040302639045, 187500.0, -0.09, 0.984, 0.064, 192.0, 253.0, 48.0, 30.0, 192.0, 2.0, 0.0, 0.0, 0.0, 0.0, 1.700944922210254E9, 0.0, 2023-11-25 15:42:02.210
9.0, 72236.43478589473, 82937.06422293953, -16836.719731893507, -15634.642915087095, -9146.356182856105, -5388.156221885231, -19371.20638742523, 187500.0, -0.09, 0.984, 0.064, 192.0, 0.0, 0.0, 0.0, 0.0, 0.0, 0.0, 0.0, 0.0, 0.0, 1.700944922213379E9, 0.0, 2023-11-25 15:42:02.213
10.0, 72232.05384398148, 82950.72113880172, -17106.05825257996, -15936.8608518673, -9551.928585997652, -5516.008200169587, -19361.103398931435, 187500.0, -0.09, 0.984, 0.064, 192.0, 0.0, 0.0, 0.0, 0.0, 0.0, 0.0, 0.0, 0.0, 0.0, 1.700944922216311E9, 0.0, 2023-11-25 15:42:02.216
11.0, 72258.58536464995, 82989.14378752038, -17300.831353763504, -16150.632935837859, -10001.623332693975, -5701.617086126457, -19381.175265452297, 187500.0, -0.09, 0.984, 0.064, 192.0, 0.0, 0.0, 0.0, 0.0, 0.0, 0.0, 0.0, 0.0, 0.0, 1.700944922221253E9, 0.0, 2023-11-25 15:42:02.221
12.0, 72253.48916691414, 82977.29736295907, -16831.37766496869, -15602.881086216103, -9345.152598041606, -5343.944471352634, -19330.280343327566, 187500.0, -0.09, 0.984, 0.064, 192.0, 0.0, 0.0, 0.0, 0.0, 0.0, 0.0, 0.0, 0.0, 0.0, 1.700944922225218E9, 0.0, 2023-11-25 15:42:02.225
13.0, 72247.96828603368, 82954.27506617011, -16777.286443386845, -15546.085303555168, -9080.865571602055, -5313.166119237676, -19370.111151946923, 187500.0, -0.09, 0.984, 0.064, 192.0, 0.0, 0.0, 0.0, 0.0, 0.0, 0.0, 0.0, 0.0, 0.0, 1.700944922229236E9, 0.0, 2023-11-25 15:42:02.229
14.0, 72239.40756790728, 82957.91840051633, -17037.88543199127, -15902.997959017512, -9466.790791367388, -5499.713778461669, -19352.989715694155, 187500.0, -0.09, 0.984, 0.064, 192.0, 0.0, 0.0, 0.0, 0.0, 0.0, 0.0, 0.0, 0.0, 0.0, 1.700944922233536E9, 0.0, 2023-11-25 15:42:02.233
15.0, 72241.93331503074, 82986.79685435258, -17295.399879860866, -16146.922546258278, -9970.442649178822, -5675.26437941365, -19370.200558924742, 187500.0, -0.09, 0.984, 0.064, 192.0, 0.0, 0.0, 0.0, 0.0, 0.0, 0.0, 0.0, 0.0, 0.0, 1.700944922236309E9, 0.0, 2023-11-25 15:42:02.236
16.0, 72239.2511056961, 82969.69776984428, -16921.25402942348, -15742.758303017416, -9511.382521555724, -5446.941309802689, -19327.084043870454, 187500.0, -0.09, 0.984, 0.064, 192.0, 0.0, 0.0, 0.0, 0.0, 0.0, 0.0, 0.0, 0.0, 0.0, 1.700944922240237E9, 0.0, 2023-11-25 15:42:02.240
17.0, 72238.80407080699, 82938.53943807357, -16749.32441107326, -15500.219523932878, -9057.642109112992, -5286.053453213389, -19365.01495421111, 187500.0, -0.09, 0.984, 0.064, 192.0, 0.0, 0.0, 0.0, 0.0, 0.0, 0.0, 0.0, 0.0, 0.0, 1.700944922244321E9, 0.0, 2023-11-25 15:42:02.244
18.0, 72234.49018412712, 82943.50152534265, -17002.32380656288, -15881.406173873685, -9411.850203496242, -5509.816766955468, -19362.802131510038, 187500.0, -0.10200000000000001, 0.974, 0.07200000000000001, 192.0, 252.0, 208.0, 30.0, 112.0, 2.0, 64.0, 0.0, 0.0, 0.0, 1.70094492224935E9, 0.0, 2023-11-25 15:42:02.249
19.0, 72248.7505970896, 82982.17004325033, -17287.442658834774, -16133.198575162718, -9927.639058546909, -5661.4510013402705, -19378.157779950834, 187500.0, -0.10200000000000001, 0.974, 0.07200000000000001, 192.0, 0.0, 0.0, 0.0, 0.0, 0.0, 0.0, 0.0, 0.0, 0.0, 1.700944922253308E9, 0.0, 2023-11-25 15:42:02.253
20.0, 72255.61258263739, 82992.36243872195, -17019.311132348914, -15882.255540162987, -9680.853448015863, -5559.415287901794, -19333.074311384476, 187500.0, -0.10200000000000001, 0.974, 0.07200000000000001, 192.0, 0.0, 0.0, 0.0, 0.0, 0.0, 0.0, 0.0, 0.0, 0.0, 1.700944922258388E9, 0.0, 2023-11-25 15:42:02.258
21.0, 72245.26372495458, 82962.4781563852, -16710.92411409904, -15449.838691930616, -9038.844292026079, -5258.180827877621, -19342.752616733625, 187500.0, -0.10200000000000001, 0.974, 0.07200000000000001, 192.0, 0.0, 0.0, 0.0, 0.0, 0.0, 0.0, 0.0, 0.0, 0.0, 1.700944922262438E9, 0.0, 2023-11-25 15:42:02.262
22.0, 72236.72535857264, 82949.42473762331, -16955.943936818116, -15831.673542460627, -9340.682249150545, -5503.08889187442, -19359.87405298639, 187500.0, -0.10200000000000001, 0.974, 0.07200000000000001, 192.0, 0.0, 0.0, 0.0, 0.0, 0.0, 0.0, 0.0, 0.0, 0.0, 1.700944922265325E9, 0.0, 2023-11-25 15:42:02.265
23.0, 72240.83807955243, 82978.01261878165, -17266.141446368867, -16107.80699346149, -9857.320470490513, -5641.066210397031, -19375.654384571837, 187500.0, -0.10200000000000001, 0.974, 0.07200000000000001, 192.0, 0.0, 0.0, 0.0, 0.0, 0.0, 0.0, 0.0, 0.0, 0.0, 1.700944922268319E9, 0.0, 2023-11-25 15:42:02.268
24.0, 72245.48724239913, 82984.56167990706, -17123.269095810545, -15994.93068396219, -9825.17866196378, -5636.9758411617095, -19347.73705574716, 187500.0, -0.10200000000000001, 0.974, 0.07200000000000001, 192.0, 0.0, 0.0, 0.0, 0.0, 0.0, 0.0, 0.0, 0.0, 0.0, 1.700944922272557E9, 0.0, 2023-11-25 15:42:02.272
25.0, 72229.39398639131, 82950.38586263488, -16724.60338170569, -15440.629773215029, -9072.684833131414, -5246.312051571853, -19346.15008189083, 187500.0, -0.10200000000000001, 0.974, 0.07200000000000001, 192.0, 0.0, 0.0, 0.0, 0.0, 0.0, 0.0, 0.0, 0.0, 0.0, 1.700944922276366E9, 0.0, 2023-11-25 15:42:02.276
26.0, 72230.06453872497, 82942.13806893087, -16928.943029516107, -15793.385004208685, -9286.635731057613, -5486.906228888778, -19370.60289032494, 187500.0, -0.10200000000000001, 0.974, 0.07200000000000001, 192.0, 0.0, 0.0, 0.0, 0.0, 0.0, 0.0, 0.0, 0.0, 0.0, 1.700944922281643E9, 0.0, 2023-11-25 15:42:02.281
27.0, 72233.81963179346, 82969.25073495516, -17225.30480924902, -16063.774056884535, -9758.861036164884, -5601.771843644601, -19372.726306048193, 187500.0, -0.10200000000000001, 0.974, 0.07200000000000001, 192.0, 0.0, 0.0, 0.0, 0.0, 0.0, 0.0, 0.0, 0.0, 0.0, 1.700944922285751E9, 0.0, 2023-11-25 15:42:02.285
28.0, 72252.39393143581, 82991.71423813274, -17215.69355913324, -16086.528132740037, -9932.087055693515, -5692.8552022999775, -19365.64080305586, 187500.0, -0.1, 0.974, 0.08, 192.0, 252.0, 224.0, 30.0, 112.0, 2.0, 128.0, 0.0, 0.0, 0.0, 1.700944922289438E9, 0.0, 2023-11-25 15:42:02.289
29.0, 72246.02368426605, 82971.9329442898, -16743.69177147052, -15469.754096240295, -9134.04037166123, -5265.869827970246, -19343.847852211937, 187500.0, -0.1, 0.974, 0.08, 192.0, 0.0, 0.0, 0.0, 0.0, 0.0, 0.0, 0.0, 0.0, 0.0, 1.700944922292395E9, 0.0, 2023-11-25 15:42:02.292
30.0, 72250.4046261793, 82959.59478135048, -16880.81972370383, -15722.082939396256, -9214.260782511328, -5447.723620858625, -19377.487227617174, 187500.0, -0.1, 0.974, 0.08, 192.0, 0.0, 0.0, 0.0, 0.0, 0.0, 0.0, 0.0, 0.0, 0.0, 1.700944922296507E9, 0.0, 2023-11-25 15:42:02.296
31.0, 72247.78947207803, 82978.14672924837, -17162.38464860733, -16001.59150380987, -9645.00124990955, -5555.123752966375, -19366.825445511993, 187500.0, -0.1, 0.974, 0.08, 192.0, 0.0, 0.0, 0.0, 0.0, 0.0, 0.0, 0.0, 0.0, 0.0, 1.700944922300872E9, 0.0, 2023-11-25 15:42:02.300
32.0, 72254.83027158145, 83008.70156391879, -17277.853760463448, -16148.621278836881, -9991.609751177997, -5717.710342134278, -19378.69422181776, 187500.0, -0.1, 0.974, 0.08, 192.0, 0.0, 0.0, 0.0, 0.0, 0.0, 0.0, 0.0, 0.0, 0.0, 1.700944922304434E9, 0.0, 2023-11-25 15:42:02.304
33.0, 72256.86428032689, 82998.39740972489, -16778.64989979862, -15543.224280264889, -9232.097474586662, -5308.807529068891, -19329.20745959371, 187500.0, -0.1, 0.974, 0.08, 192.0, 0.0, 0.0, 0.0, 0.0, 0.0, 0.0, 0.0, 0.0, 0.0, 1.700944922309474E9, 0.0, 2023-11-25 15:42:02.309
34.0, 72257.557184405, 82978.6831711153, -16832.294086491358, -15666.494150935907, -9155.140418427041, -5409.524489584504, -19375.54262584956, 187500.0, -0.1, 0.974, 0.08, 192.0, 0.0, 0.0, 0.0, 0.0, 0.0, 0.0, 0.0, 0.0, 0.0, 1.700944922313496E9, 0.0, 2023-11-25 15:42:02.313
35.0, 72242.29094294203, 82983.80172059557, -17098.391604231787, -15966.923948159689, -9549.13461794074, -5541.131560937352, -19360.79047450906, 187500.0, -0.1, 0.974, 0.08, 192.0, 0.0, 0.0, 0.0, 0.0, 0.0, 0.0, 0.0, 0.0, 0.0, 1.70094492231754E9, 0.0, 2023-11-25 15:42:02.317
36.0, 72247.43184416674, 83004.16415979435, -17303.938246242793, -16149.537700359548, -9987.854658109505, -5697.280847702128, -19385.153875965345, 187500.0, -0.1, 0.974, 0.08, 192.0, 0.0, 0.0, 0.0, 0.0, 0.0, 0.0, 0.0, 0.0, 0.0, 1.700944922320504E9, 0.0, 2023-11-25 15:42:02.320
37.0, 72258.94299256122, 83001.10197080398, -16857.037467603383, -15622.818842270237, -9362.341089527737, -5360.574169227382, -19342.618506266896, 187500.0, -0.1, 0.974, 0.08, 192.0, 0.0, 0.0, 0.0, 0.0, 0.0, 0.0, 0.0, 0.0, 0.0, 1.700944922324545E9, 0.0, 2023-11-25 15:42:02.324
38.0, 72254.89732681481, 82973.22934546821, -16799.70524307552, -15552.589661191663, -9087.7946123832, -5322.710314120092, -19389.914797534322, 187500.0, -0.106, 0.968, 0.082, 192.0, 252.0, 176.0, 30.0, 64.0, 2.0, 144.0, 0.0, 0.0, 0.0, 1.700944922328774E9, 0.0, 2023-11-25 15:42:02.328
39.0, 72242.82738480894, 82971.50826114515, -17065.71335383813, -15917.615999891283, -9476.558503694356, -5519.740941493624, -19377.084896216977, 187500.0, -0.106, 0.968, 0.082, 192.0, 0.0, 0.0, 0.0, 0.0, 0.0, 0.0, 0.0, 0.0, 0.0, 1.700944922332618E9, 0.0, 2023-11-25 15:42:02.332
40.0, 72254.56205064799, 83001.593709182, -17327.072301754037, -16167.597909879436, -9985.105393541502, -5696.945571535298, -19393.245207458163, 187500.0, -0.106, 0.968, 0.082, 192.0, 0.0, 0.0, 0.0, 0.0, 0.0, 0.0, 0.0, 0.0, 0.0, 1.700944922337532E9, 0.0, 2023-11-25 15:42:02.337
41.0, 72257.62423963836, 83000.45377021478, -16957.73207637454, -15776.531788889384, -9545.334821383336, -5479.999539852088, -19346.239488868654, 187500.0, -0.106, 0.968, 0.082, 192.0, 0.0, 0.0, 0.0, 0.0, 0.0, 0.0, 0.0, 0.0, 0.0, 1.700944922341542E9, 0.0, 2023-11-25 15:42:02.341
42.0, 72248.52707964505, 82970.77065357813, -16760.768504234376, -15492.59757907362, -9053.55173987767, -5288.288627658919, -19371.988698481167, 187500.0, -0.106, 0.968, 0.082, 192.0, 0.0, 0.0, 0.0, 0.0, 0.0, 0.0, 0.0, 0.0, 0.0, 1.700944922345531E9, 0.0, 2023-11-25 15:42:02.345
43.0, 72229.63985558032, 82962.81343255204, -17025.055530673926, -15870.118542923754, -9401.680159769077, -5511.269630345062, -19378.336593906475, 187500.0, -0.106, 0.968, 0.082, 192.0, 0.0, 0.0, 0.0, 0.0, 0.0, 0.0, 0.0, 0.0, 0.0, 1.700944922348542E9, 0.0, 2023-11-25 15:42:02.348
44.0, 72237.1500417173, 82994.66466840084, -17323.719540085738, -16135.210232163696, -9926.63323004642, -5665.183742664307, -19398.07318426051, 187500.0, -0.106, 0.968, 0.082, 192.0, 0.0, 0.0, 0.0, 0.0, 0.0, 0.0, 0.0, 0.0, 0.0, 1.700944922352586E9, 0.0, 2023-11-25 15:42:02.352
45.0, 72247.6553616113, 83006.35463075098, -17069.110818995337, -15889.206932688587, -9702.556991881966, -5561.002261758121, -19362.377448365387, 187500.0, -0.106, 0.968, 0.082, 192.0, 0.0, 0.0, 0.0, 0.0, 0.0, 0.0, 0.0, 0.0, 0.0, 1.700944922356607E9, 0.0, 2023-11-25 15:42:02.356
46.0, 72246.62718136635, 82979.53253740461, -16755.47114079847, -15449.212843085867, -9051.987117765799, -5252.7940574638915, -19380.169436951808, 187500.0, -0.106, 0.968, 0.082, 192.0, 0.0, 0.0, 0.0, 0.0, 0.0, 0.0, 0.0, 0.0, 0.0, 1.700944922360614E9, 0.0, 2023-11-25 15:42:02.360
47.0, 72246.4036639218, 82967.50729888765, -16990.142105834737, -15849.107903135766, -9348.527711454357, -5513.66126700178, -19391.859399301935, 187500.0, -0.11, 0.972, 0.084, 192.0, 252.0, 144.0, 30.0, 96.0, 2.0, 160.0, 0.0, 0.0, 0.0, 1.700944922364657E9, 0.0, 2023-11-25 15:42:02.364
48.0, 72249.73407384564, 82999.82792137003, -17286.54858905656, -16106.309426582984, -9841.830711582985, -5632.930175415298, -19397.246169715665, 187500.0, -0.11, 0.972, 0.084, 192.0, 0.0, 0.0, 0.0, 0.0, 0.0, 0.0, 0.0, 0.0, 0.0, 1.700944922369671E9, 0.0, 2023-11-25 15:42:02.369
49.0, 72261.37933270686, 83017.01641285616, -17162.049372440502, -16005.570114322916, -9838.343839447956, -5638.652221995857, -19370.64759381385, 187500.0, -0.11, 0.972, 0.084, 192.0, 0.0, 0.0, 0.0, 0.0, 0.0, 0.0, 0.0, 0.0, 0.0, 1.700944922373629E9, 0.0, 2023-11-25 15:42:02.373
50.0, 72261.06640828447, 82996.69867714628, -16749.12324537316, -15444.273107561245, -9077.825734356134, -5243.249862581475, -19360.54460532005, 187500.0, -0.11, 0.972, 0.084, 192.0, 0.0, 0.0, 0.0, 0.0, 0.0, 0.0, 0.0, 0.0, 0.0, 1.700944922376635E9, 0.0, 2023-11-25 15:42:02.376
51.0, 72255.16554774829, 82974.61515362444, -16946.287983213424, -15793.005024552946, -9279.863152487655, -5484.51459223206, -19390.11596323442, 187500.0, -0.11, 0.972, 0.084, 192.0, 0.0, 0.0, 0.0, 0.0, 0.0, 0.0, 0.0, 0.0, 0.0, 1.700944922380771E9, 0.0, 2023-11-25 15:42:02.380
52.0, 72250.27051571256, 82988.76380786466, -17241.621582701395, -16058.431989959718, -9743.393629001812, -5592.451166206738, -19399.54839939456, 187500.0, -0.11, 0.972, 0.084, 192.0, 0.0, 0.0, 0.0, 0.0, 0.0, 0.0, 0.0, 0.0, 0.0, 1.700944922384712E9, 0.0, 2023-11-25 15:42:02.384
53.0, 72273.09164680143, 83010.17677905284, -17248.88589964937, -16107.04703415001, -9942.100637209493, -5701.348865192994, -19397.26852146012, 187500.0, -0.11, 0.972, 0.084, 192.0, 0.0, 0.0, 0.0, 0.0, 0.0, 0.0, 0.0, 0.0, 0.0, 1.700944922388727E9, 0.0, 2023-11-25 15:42:02.388
54.0, 72275.12565554687, 82992.38479046641, -16758.913309444586, -15469.418820073464, -9130.307630337194, -5260.863037212257, -19361.617489053904, 187500.0, -0.11, 0.972, 0.084, 192.0, 0.0, 0.0, 0.0, 0.0, 0.0, 0.0, 0.0, 0.0, 0.0, 1.700944922392695E9, 0.0, 2023-11-25 15:42:02.392
55.0, 72273.87395785737, 82981.49949091667, -16888.464020307543, -15714.304532325808, -9202.436709694472, -5442.806237078457, -19398.56492263853, 187500.0, -0.11, 0.972, 0.084, 192.0, 0.0, 0.0, 0.0, 0.0, 0.0, 0.0, 0.0, 0.0, 0.0, 1.700944922397738E9, 0.0, 2023-11-25 15:42:02.397
56.0, 72270.14121653333, 83005.30409876158, -17165.96092772018, -15987.73342224758, -9623.230650810081, -5549.289947663539, -19387.053774244043, 187500.0, -0.11, 0.972, 0.084, 192.0, 0.0, 0.0, 0.0, 0.0, 0.0, 0.0, 0.0, 0.0, 0.0, 1.700944922401762E9, 0.0, 2023-11-25 15:42:02.401
57.0, 72285.00512659611, 83033.98138689774, -17290.90717922535, -16127.543583815526, -9975.672957381363, -5702.622914626946, -19398.006129027144, 187500.0, -0.11, 0.978, 0.08600000000000001, 192.0, 252.0, 144.0, 30.0, 144.0, 2.0, 176.0, 0.0, 0.0, 0.0, 1.700944922404762E9, 0.0, 2023-11-25 15:42:02.404
58.0, 72271.99641132313, 83011.71904942025, -16807.751871079432, -15525.968733545393, -9233.751503676356, -5298.369264408263, -19359.337611119463, 187500.0, -0.11, 0.978, 0.08600000000000001, 192.0, 0.0, 0.0, 0.0, 0.0, 0.0, 0.0, 0.0, 0.0, 0.0, 1.700944922408734E9, 0.0, 2023-11-25 15:42:02.408
59.0, 72269.76123687759, 82982.8852990729, -16849.348467510757, -15627.602115583673, -9134.062723405686, -5383.328245082885, -19397.93907379378, 187500.0, -0.11, 0.978, 0.08600000000000001, 192.0, 0.0, 0.0, 0.0, 0.0, 0.0, 0.0, 0.0, 0.0, 0.0, 1.700944922412834E9, 0.0, 2023-11-25 15:42:02.412
60.0, 72257.06544602697, 82983.60055489547, -17131.896869170294, -15956.843311410346, -9548.799341773909, -5535.767142268079, -19394.251035958652, 187500.0, -0.11, 0.978, 0.08600000000000001, 192.0, 0.0, 0.0, 0.0, 0.0, 0.0, 0.0, 0.0, 0.0, 0.0, 1.700944922417071E9, 0.0, 2023-11-25 15:42:02.417
61.0, 72267.52606243207, 83017.97753786773, -17343.836110095515, -16173.67758437128, -10012.441577010344, -5715.028132799642, -19408.734966365693, 187500.0, -0.11, 0.978, 0.08600000000000001, 192.0, 0.0, 0.0, 0.0, 0.0, 0.0, 0.0, 0.0, 0.0, 0.0, 1.700944922420797E9, 0.0, 2023-11-25 15:42:02.420
62.0, 72263.54745191902, 83007.65103192939, -16900.377500102222, -15663.342554967709, -9406.888116227165, -5394.481765566083, -19356.990677951657, 187500.0, -0.11, 0.978, 0.08600000000000001, 192.0, 0.0, 0.0, 0.0, 0.0, 0.0, 0.0, 0.0, 0.0, 0.0, 1.700944922425797E9, 0.0, 2023-11-25 15:42:02.425
63.0, 72266.34141997593, 82987.64622064188, -16822.973409053495, -15569.219359066412, -9104.334903280129, -5339.876453861768, -19393.200503969252, 187500.0, -0.11, 0.978, 0.08600000000000001, 192.0, 0.0, 0.0, 0.0, 0.0, 0.0, 0.0, 0.0, 0.0, 0.0, 1.700944922429821E9, 0.0, 2023-11-25 15:42:02.429
64.0, 72265.29088798653, 82993.68119164482, -17084.265301736035, -15918.443014436129, -9475.172695538127, -5521.596136283414, -19383.231625942186, 187500.0, -0.11, 0.978, 0.08600000000000001, 192.0, 0.0, 0.0, 0.0, 0.0, 0.0, 0.0, 0.0, 0.0, 0.0, 1.700944922432845E9, 0.0, 2023-11-25 15:42:02.432
65.0, 72275.12565554687, 83023.11843909246, -17349.28993574261, -16165.653308111825, -9984.144268529924, -5687.960170264265, -19399.906027305846, 187500.0, -0.11, 0.978, 0.08600000000000001, 192.0, 0.0, 0.0, 0.0, 0.0, 0.0, 0.0, 0.0, 0.0, 0.0, 1.700944922436794E9, 0.0, 2023-11-25 15:42:02.436
66.0, 72268.08485604344, 83011.92021512035, -16987.2587308, -15783.729050603994, -9563.998528003518, -5475.216266538652, -19352.408570338317, 187500.0, -0.11, 0.978, 0.08600000000000001, 192.0, 0.0, 0.0, 0.0, 0.0, 0.0, 0.0, 0.0, 0.0, 0.0, 1.700944922440954E9, 0.0, 2023-11-25 15:42:02.440
67.0, 72260.12763501736, 82987.51211017516, -16783.254359156414, -15492.999910473814, -9064.638205127503, -5280.398461866196, -19382.806942797535, 187500.0, -0.114, 0.974, 0.088, 192.0, 252.0, 112.0, 30.0, 112.0, 2.0, 192.0, 0.0, 0.0, 0.0, 1.700944922444837E9, 0.0, 2023-11-25 15:42:02.444
68.0, 72255.83610008194, 82986.46157818576, -17037.66191454672, -15883.641348319215, -9409.995008706452, -5515.09177864692, -19379.20831194023, 187500.0, -0.114, 0.974, 0.088, 192.0, 0.0, 0.0, 0.0, 0.0, 0.0, 0.0, 0.0, 0.0, 0.0, 1.700944922448863E9, 0.0, 2023-11-25 15:42:02.448
69.0, 72261.02170479557, 83015.2953285331, -17335.387150691407, -16148.755389303613, -9929.449549847788, -5662.635643796402, -19392.574655124507, 187500.0, -0.114, 0.974, 0.088, 192.0, 0.0, 0.0, 0.0, 0.0, 0.0, 0.0, 0.0, 0.0, 0.0, 1.700944922453072E9, 0.0, 2023-11-25 15:42:02.453
70.0, 72266.05084729801, 83018.0445931011, -17090.389679716787, -15901.18746771663, -9720.63955314631, -5556.174284955774, -19354.666096528304, 187500.0, -0.114, 0.974, 0.088, 192.0, 0.0, 0.0, 0.0, 0.0, 0.0, 0.0, 0.0, 0.0, 0.0, 1.700944922458013E9, 0.0, 2023-11-25 15:42:02.458
71.0, 72268.308373488, 83000.5431771926, -16755.672306498564, -15430.549136465686, -9047.628527597015, -5226.709571684548, -19361.885709987368, 187500.0, -0.114, 0.974, 0.088, 192.0, 0.0, 0.0, 0.0, 0.0, 0.0, 0.0, 0.0, 0.0, 0.0, 1.700944922460925E9, 0.0, 2023-11-25 15:42:02.460
72.0, 72263.61450715238, 82985.32163921853, -16991.147934335226, -15823.559859223351, -9336.949507826508, -5484.268723043051, -19384.863303287424, 187500.0, -0.114, 0.974, 0.088, 192.0, 0.0, 0.0, 0.0, 0.0, 0.0, 0.0, 0.0, 0.0, 0.0, 1.700944922464954E9, 0.0, 2023-11-25 15:42:02.464
73.0, 72271.63878341184, 83007.338107507, -17281.139466898378, -16069.920786609744, -9817.713179315708, -5586.326788225983, -19390.004204512144, 187500.0, -0.114, 0.974, 0.088, 192.0, 0.0, 0.0, 0.0, 0.0, 0.0, 0.0, 0.0, 0.0, 0.0, 1.700944922468971E9, 0.0, 2023-11-25 15:42:02.468
74.0, 72290.48130398766, 83034.51782876466, -17175.16984643577, -16007.313550390429, -9848.558586664032, -5620.770826431612, -19370.84875951395, 187500.0, -0.114, 0.974, 0.088, 192.0, 0.0, 0.0, 0.0, 0.0, 0.0, 0.0, 0.0, 0.0, 0.0, 1.700944922473044E9, 0.0, 2023-11-25 15:42:02.473
75.0, 72281.22768178317, 83018.02224135665, -16741.523652258355, -15432.225517299834, -9073.444792442893, -5223.289754782886, -19361.684544287273, 187500.0, -0.114, 0.974, 0.088, 192.0, 0.0, 0.0, 0.0, 0.0, 0.0, 0.0, 0.0, 0.0, 0.0, 1.700944922477049E9, 0.0, 2023-11-25 15:42:02.477
76.0, 72269.87299559987, 83002.8454068715, -16928.272477182447, -15761.26554742641, -9254.248053341873, -5454.272681984029, -19393.155800480345, 187500.0, -0.114, 0.974, 0.088, 192.0, 0.0, 0.0, 0.0, 0.0, 0.0, 0.0, 0.0, 0.0, 0.0, 1.700944922481044E9, 0.0, 2023-11-25 15:42:02.481
77.0, 72261.51344317358, 83020.36917452446, -17226.13182379387, -16027.474823889117, -9714.82809958793, -5563.170380970286, -19395.83800981498, 187500.0, -0.112, 0.978, 0.084, 192.0, 252.0, 128.0, 30.0, 144.0, 2.0, 160.0, 0.0, 0.0, 0.0, 1.700944922485067E9, 0.0, 2023-11-25 15:42:02.485
78.0, 72281.25003352763, 83046.855991704, -17254.809111930026, -16089.769135686058, -9943.195872687802, -5685.322664418539, -19391.16649522382, 187500.0, -0.112, 0.978, 0.084, 192.0, 0.0, 0.0, 0.0, 0.0, 0.0, 0.0, 0.0, 0.0, 0.0, 1.700944922489029E9, 0.0, 2023-11-25 15:42:02.489
79.0, 72279.35013524893, 83023.23019781473, -16766.579957792754, -15448.698752963395, -9137.706057751902, -5244.479208526517, -19361.662192542815, 187500.0, -0.112, 0.978, 0.084, 192.0, 0.0, 0.0, 0.0, 0.0, 0.0, 0.0, 0.0, 0.0, 0.0, 1.700944922492009E9, 0.0, 2023-11-25 15:42:02.492
80.0, 72282.92641436178, 83004.07475281654, -16893.15788664316, -15679.614624931173, -9192.333721200672, -5417.057027465943, -19405.426908186306, 187500.0, -0.112, 0.978, 0.084, 192.0, 0.0, 0.0, 0.0, 0.0, 0.0, 0.0, 0.0, 0.0, 0.0, 1.700944922497041E9, 0.0, 2023-11-25 15:42:02.497
81.0, 72281.83117888345, 83019.05042160158, -17179.461381371188, -15981.318471588907, -9630.830243924886, -5544.506674350104, -19401.113021506433, 187500.0, -0.112, 0.978, 0.084, 192.0, 0.0, 0.0, 0.0, 0.0, 0.0, 0.0, 0.0, 0.0, 0.0, 1.700944922501453E9, 0.0, 2023-11-25 15:42:02.501
82.0, 72297.47740000217, 83048.19709637131, -17315.158821959358, -16152.24226143864, -10010.206402564812, -5718.962039823776, -19408.712614621236, 187500.0, -0.112, 0.978, 0.084, 192.0, 0.0, 0.0, 0.0, 0.0, 0.0, 0.0, 0.0, 0.0, 0.0, 1.700944922505274E9, 0.0, 2023-11-25 15:42:02.505
83.0, 72282.88171087285, 83026.98529088323, -16824.202754998536, -15547.761684389316, -9271.034213427809, -5316.0047907835, -19358.0188581966, 187500.0, -0.112, 0.978, 0.084, 192.0, 0.0, 0.0, 0.0, 0.0, 0.0, 0.0, 0.0, 0.0, 0.0, 1.700944922509117E9, 0.0, 2023-11-25 15:42:02.509
84.0, 72275.72915264717, 83007.092238318, -16855.09286583577, -15614.705159032961, -9142.981069443354, -5374.387547300762, -19401.560056395538, 187500.0, -0.112, 0.978, 0.084, 192.0, 0.0, 0.0, 0.0, 0.0, 0.0, 0.0, 0.0, 0.0, 0.0, 1.700944922512116E9, 0.0, 2023-11-25 15:42:02.512
85.0, 72271.52702468957, 83019.31864253506, -17123.872592910837, -15940.705351913615, -9542.473798093057, -5525.306525862995, -19387.433753899786, 187500.0, -0.112, 0.978, 0.084, 192.0, 0.0, 0.0, 0.0, 0.0, 0.0, 0.0, 0.0, 0.0, 0.0, 1.700944922516085E9, 0.0, 2023-11-25 15:42:02.516
86.0, 72292.1129813329, 83055.37200634147, -17345.15486301838, -16163.529892388571, -10014.252068311223, -5706.266248973161, -19406.812716342534, 187500.0, -0.112, 0.978, 0.084, 192.0, 0.0, 0.0, 0.0, 0.0, 0.0, 0.0, 0.0, 0.0, 0.0, 1.700944922520164E9, 0.0, 2023-11-25 15:42:02.520
87.0, 72289.65428944281, 83042.63151200194, -16912.20157291908, -15674.898406851104, -9429.999819993953, -5404.629457548793, -19356.923622718292, 187500.0, -0.112, 0.974, 0.076, 192.0, 252.0, 128.0, 30.0, 112.0, 2.0, 96.0, 0.0, 0.0, 0.0, 1.700944922524196E9, 0.0, 2023-11-25 15:42:02.524
88.0, 72294.97400462317, 83024.19132282631, -16807.37189142369, -15545.88413785507, -9088.46516471686, -5321.033933285944, -19383.701012575748, 187500.0, -0.112, 0.974, 0.076, 192.0, 0.0, 0.0, 0.0, 0.0, 0.0, 0.0, 0.0, 0.0, 0.0, 1.700944922529133E9, 0.0, 2023-11-25 15:42:02.529
89.0, 72274.99154508013, 83015.67530818885, -17079.034993533493, -15913.480927167051, -9466.768439622932, -5520.590307782925, -19383.812771298024, 187500.0, -0.112, 0.974, 0.076, 192.0, 0.0, 0.0, 0.0, 0.0, 0.0, 0.0, 0.0, 0.0, 0.0, 1.700944922533353E9, 0.0, 2023-11-25 15:42:02.533
90.0, 72267.83898685443, 83033.6461107309, -17363.68445917183, -16169.788380836057, -9985.97711157526, -5691.000007510186, -19407.41621344283, 187500.0, -0.112, 0.974, 0.076, 192.0, 0.0, 0.0, 0.0, 0.0, 0.0, 0.0, 0.0, 0.0, 0.0, 1.700944922537179E9, 0.0, 2023-11-25 15:42:02.537
91.0, 72276.08678055844, 83039.099936378, -17015.578391024876, -15802.213943268533, -9586.953769559119, -5491.510688246571, -19352.632087782873, 187500.0, -0.112, 0.974, 0.076, 192.0, 0.0, 0.0, 0.0, 0.0, 0.0, 0.0, 0.0, 0.0, 0.0, 1.700944922540195E9, 0.0, 2023-11-25 15:42:02.540
92.0, 72276.77968463657, 83017.86577914546, -16794.296120917337, -15490.809439517194, -9063.23004522682, -5281.314883388864, -19384.63978584287, 187500.0, -0.112, 0.974, 0.076, 192.0, 0.0, 0.0, 0.0, 0.0, 0.0, 0.0, 0.0, 0.0, 0.0, 1.70094492254415E9, 0.0, 2023-11-25 15:42:02.544
93.0, 72277.38318173685, 83017.01641285616, -17048.211937929624, -15899.734604327037, -9413.81715700831, -5536.57180506847, -19391.211198712732, 187500.0, -0.112, 0.974, 0.076, 192.0, 0.0, 0.0, 0.0, 0.0, 0.0, 0.0, 0.0, 0.0, 0.0, 1.700944922548163E9, 0.0, 2023-11-25 15:42:02.548
94.0, 72280.04303932704, 83034.36136655348, -17336.169461747344, -16145.447331124227, -9917.446663075289, -5665.988405464698, -19405.248094230665, 187500.0, -0.112, 0.974, 0.076, 192.0, 0.0, 0.0, 0.0, 0.0, 0.0, 0.0, 0.0, 0.0, 0.0, 1.700944922552187E9, 0.0, 2023-11-25 15:42:02.552
95.0, 72289.14019932035, 83040.46339278978, -17106.885267124806, -15916.364302201786, -9732.68714340772, -5575.128564253875, -19372.771009537104, 187500.0, -0.112, 0.974, 0.076, 192.0, 0.0, 0.0, 0.0, 0.0, 0.0, 0.0, 0.0, 0.0, 0.0, 1.70094492255714E9, 0.0, 2023-11-25 15:42:02.557
96.0, 72297.65621395782, 83023.61017747047, -16759.8073792228, -15428.872755631539, -9041.884129272, -5237.773685189925, -19386.763201566126, 187500.0, -0.112, 0.974, 0.076, 192.0, 0.0, 0.0, 0.0, 0.0, 0.0, 0.0, 0.0, 0.0, 0.0, 1.700944922561161E9, 0.0, 2023-11-25 15:42:02.561
97.0, 72294.12463833387, 83016.43526750032, -16991.147934335226, -15827.069083102833, -9327.785292599832, -5505.704045975691, -19407.729137865204, 187500.0, -0.112, 0.974, 0.076, 192.0, 252.0, 128.0, 30.0, 112.0, 2.0, 96.0, 0.0, 0.0, 0.0, 1.700944922566548E9, 0.0, 2023-11-25 15:42:02.566
98.0, 72294.03523135606, 83046.76658472617, -17285.52040881162, -16082.169542571253, -9808.638371066854, -5615.674628695801, -19412.870039089925, 187500.0, -0.112, 0.974, 0.076, 192.0, 0.0, 0.0, 0.0, 0.0, 0.0, 0.0, 0.0, 0.0, 0.0, 1.700944922570158E9, 0.0, 2023-11-25 15:42:02.570
99.0, 72302.90887390482, 83063.7539105122, -17190.704308832206, -16016.678931317203, -9847.932737819283, -5645.871835454922, -19385.533855621085, 187500.0, -0.112, 0.974, 0.076, 192.0, 0.0, 0.0, 0.0, 0.0, 0.0, 0.0, 0.0, 0.0, 0.0, 1.700944922573194E9, 0.0, 2023-11-25 15:42:02.573
100.0, 72296.13629533486, 83053.80738422959, -16749.972611662462, -15418.166270037445, -9061.97834753732, -5225.636687950693, -19369.373544379898, 187500.0, -0.112, 0.974, 0.076, 192.0, 0.0, 0.0, 0.0, 0.0, 0.0, 0.0, 0.0, 0.0, 0.0, 1.70094492257618E9, 0.0, 2023-11-25 15:42:02.576
101.0, 72287.24030104165, 83036.44007878783, -16942.68935235612, -15753.330678144775, -9247.855454427654, -5463.392193721795, -19411.75245186716, 187500.0, -0.112, 0.974, 0.076, 192.0, 0.0, 0.0, 0.0, 0.0, 0.0, 0.0, 0.0, 0.0, 0.0, 1.700944922580186E9, 0.0, 2023-11-25 15:42:02.580
102.0, 72276.77968463657, 83042.16212536838, -17234.93841110926, -16018.869402273824, -9701.841736059396, -5567.551322883525, -19411.50658267815, 187500.0, -0.112, 0.974, 0.076, 192.0, 0.0, 0.0, 0.0, 0.0, 0.0, 0.0, 0.0, 0.0, 0.0, 1.700944922585232E9, 0.0, 2023-11-25 15:42:02.585
103.0, 72287.9108533753, 83057.71893950927, -17278.256091863645, -16092.361938042874, -9947.085076223026, -5689.681254587324, -19410.858382088947, 187500.0, -0.112, 0.974, 0.076, 192.0, 0.0, 0.0, 0.0, 0.0, 0.0, 0.0, 0.0, 0.0, 0.0, 1.700944922589955E9, 0.0, 2023-11-25 15:42:02.589
104.0, 72285.92154811879, 83044.33024458055, -16790.831600526762, -15477.979538199848, -9159.253139406817, -5269.222589638543, -19364.903195488834, 187500.0, -0.112, 0.974, 0.076, 192.0, 0.0, 0.0, 0.0, 0.0, 0.0, 0.0, 0.0, 0.0, 0.0, 1.700944922593236E9, 0.0, 2023-11-25 15:42:02.593
105.0, 72287.6649841863, 83028.01347112817, -16903.26087513696, -15697.116040839677, -9191.707872355923, -5433.060876495943, -19403.057623274046, 187500.0, -0.112, 0.974, 0.076, 192.0, 0.0, 0.0, 0.0, 0.0, 0.0, 0.0, 0.0, 0.0, 0.0, 1.700944922596259E9, 0.0, 2023-11-25 15:42:02.596
106.0, 72275.86326311389, 83032.81909618605, -17186.63629134134, -15983.553646034437, -9611.719502415599, -5546.38422088435, -19398.16259123833, 187500.0, -0.112, 0.974, 0.076, 192.0, 0.0, 0.0, 0.0, 0.0, 0.0, 0.0, 0.0, 0.0, 0.0, 1.700944922600317E9, 0.0, 2023-11-25 15:42:02.600
107.0, 72288.42494349777, 83062.68102677834, -17332.593182634497, -16149.090665470441, -9996.16950704688, -5710.356618208482, -19405.1810389973, 187500.0, -0.11800000000000001, 0.976, 0.08, 192.0, 252.0, 80.0, 30.0, 128.0, 2.0, 128.0, 0.0, 0.0, 0.0, 1.700944922604282E9, 0.0, 2023-11-25 15:42:02.604
108.0, 72276.33264974745, 83041.55862826809, -16849.102598321748, -15563.36320201912, -9278.767917009345, -5324.677267632159, -19359.047038441546, 187500.0, -0.11800000000000001, 0.976, 0.08, 192.0, 0.0, 0.0, 0.0, 0.0, 0.0, 0.0, 0.0, 0.0, 0.0, 1.700944922608256E9, 0.0, 2023-11-25 15:42:02.608
109.0, 72268.93422233274, 83013.9989273547, -16860.52433973841, -15598.522496047319, -9120.338752310128, -5363.34578553984, -19401.940036051277, 187500.0, -0.11800000000000001, 0.976, 0.08, 192.0, 0.0, 0.0, 0.0, 0.0, 0.0, 0.0, 0.0, 0.0, 0.0, 1.700944922612273E9, 0.0, 2023-11-25 15:42:02.612
110.0, 72265.40264670881, 83026.82882867203, -17141.552822774986, -15933.128110543264, -9526.984039185529, -5526.04413343002, -19396.64267261537, 187500.0, -0.11800000000000001, 0.976, 0.08, 192.0, 0.0, 0.0, 0.0, 0.0, 0.0, 0.0, 0.0, 0.0, 0.0, 1.700944922617343E9, 0.0, 2023-11-25 15:42:02.617
111.0, 72278.52312070408, 83057.49542206472, -17369.33945051902, -16158.67956384177, -10004.84198389554, -5704.388702438915, -19416.915704836334, 187500.0, -0.11800000000000001, 0.976, 0.08, 192.0, 0.0, 0.0, 0.0, 0.0, 0.0, 0.0, 0.0, 0.0, 0.0, 1.700944922621321E9, 0.0, 2023-11-25 15:42:02.621
112.0, 72273.00223982362, 83046.43130855935, -16946.44444542461, -15680.128715053645, -9441.421561410614, -5410.127986684798, -19369.485303102174, 187500.0, -0.11800000000000001, 0.976, 0.08, 192.0, 0.0, 0.0, 0.0, 0.0, 0.0, 0.0, 0.0, 0.0, 0.0, 1.700944922624336E9, 0.0, 2023-11-25 15:42:02.624
113.0, 72275.10330380242, 83029.46633451777, -16837.300877249345, -15555.182463548479, -9096.869420632056, -5337.954203838612, -19405.203390741754, 187500.0, -0.11800000000000001, 0.976, 0.08, 192.0, 0.0, 0.0, 0.0, 0.0, 0.0, 0.0, 0.0, 0.0, 0.0, 1.700944922628328E9, 0.0, 2023-11-25 15:42:02.628
114.0, 72261.58049840695, 83024.48189550423, -17093.295406495978, -15908.228267220053, -9455.190235995084, -5529.531005565048, -19400.17424823931, 187500.0, -0.11800000000000001, 0.976, 0.08, 192.0, 0.0, 0.0, 0.0, 0.0, 0.0, 0.0, 0.0, 0.0, 0.0, 1.700944922632407E9, 0.0, 2023-11-25 15:42:02.632
115.0, 72280.1547980493, 83061.22816338876, -17374.837979655025, -16155.036229495554, -9969.570931145065, -5685.859106285466, -19422.078957805512, 187500.0, -0.11800000000000001, 0.976, 0.08, 192.0, 0.0, 0.0, 0.0, 0.0, 0.0, 0.0, 0.0, 0.0, 0.0, 1.700944922636349E9, 0.0, 2023-11-25 15:42:02.636
116.0, 72288.1120190754, 83057.54012555363, -17035.449091845643, -15804.002082824956, -9595.581542918866, -5499.333798805928, -19374.73796304917, 187500.0, -0.11800000000000001, 0.976, 0.08, 192.0, 0.0, 0.0, 0.0, 0.0, 0.0, 0.0, 0.0, 0.0, 0.0, 1.700944922640401E9, 0.0, 2023-11-25 15:42:02.640
117.0, 72283.55226320651, 83030.29334906262, -16797.00068199643, -15458.645279246008, -9041.973536249821, -5259.387822078207, -19405.56101865304, 187500.0, -0.122, 0.976, 0.078, 192.0, 252.0, 48.0, 30.0, 128.0, 2.0, 112.0, 0.0, 0.0, 0.0, 1.70094492264542E9, 0.0, 2023-11-25 15:42:02.645
118.0, 72268.66600139928, 83027.65584321688, -17052.257603676033, -15848.593813013294, -9374.343976300237, -5495.936333648722, -19417.250981003166, 187500.0, -0.122, 0.976, 0.078, 192.0, 0.0, 0.0, 0.0, 0.0, 0.0, 0.0, 0.0, 0.0, 0.0, 1.700944922649556E9, 0.0, 2023-11-25 15:42:02.649
119.0, 72271.83994911193, 83050.34286383902, -17356.777770135137, -16116.367711587873, -9894.312607564045, -5639.993326663176, -19440.47444349223, 187500.0, -0.122, 0.976, 0.078, 192.0, 0.0, 0.0, 0.0, 0.0, 0.0, 0.0, 0.0, 0.0, 0.0, 1.700944922652476E9, 0.0, 2023-11-25 15:42:02.652
120.0, 72288.7155161757, 83060.37879709946, -17148.191290878214, -15942.091160069844, -9758.235187320137, -5595.669817408302, -19404.622245385915, 187500.0, -0.122, 0.976, 0.078, 192.0, 0.0, 0.0, 0.0, 0.0, 0.0, 0.0, 0.0, 0.0, 0.0, 1.700944922656424E9, 0.0, 2023-11-25 15:42:02.656
121.0, 72293.00705111111, 83047.83946846002, -16780.08041144376, -15450.330430308633, -9053.12705673302, -5252.7940574638915, -19399.79426858357, 187500.0, -0.122, 0.976, 0.078, 192.0, 0.0, 0.0, 0.0, 0.0, 0.0, 0.0, 0.0, 0.0, 0.0, 1.700944922660483E9, 0.0, 2023-11-25 15:42:02.660
122.0, 72284.44633298473, 83037.91529392186, -17007.799983954428, -15833.305219805863, -9319.425740173549, -5512.2978105900065, -19421.922495594325, 187500.0, -0.122, 0.976, 0.078, 192.0, 0.0, 0.0, 0.0, 0.0, 0.0, 0.0, 0.0, 0.0, 0.0, 1.700944922664649E9, 0.0, 2023-11-25 15:42:02.664
123.0, 72276.28794625854, 83057.89775346492, -17309.32501665652, -16088.584493229926, -9799.138879673348, -5622.49191075467, -19432.204298043765, 187500.0, -0.122, 0.976, 0.078, 192.0, 0.0, 0.0, 0.0, 0.0, 0.0, 0.0, 0.0, 0.0, 0.0, 1.700944922668428E9, 0.0, 2023-11-25 15:42:02.668
124.0, 72307.9156646628, 83087.91614626838, -17237.68767567726, -16056.018001558543, -9876.990005611182, -5680.271170171639, -19410.50075417766, 187500.0, -0.122, 0.976, 0.078, 192.0, 0.0, 0.0, 0.0, 0.0, 0.0, 0.0, 0.0, 0.0, 0.0, 1.700944922673441E9, 0.0, 2023-11-25 15:42:02.673
125.0, 72306.73102220667, 83063.3068756231, -16786.160085935604, -15458.48881703482, -9087.839315872112, -5270.13901116121, -19393.02169001361, 187500.0, -0.122, 0.976, 0.078, 192.0, 0.0, 0.0, 0.0, 0.0, 0.0, 0.0, 0.0, 0.0, 0.0, 1.700944922677466E9, 0.0, 2023-11-25 15:42:02.677
126.0, 72288.24612954214, 83030.76273569617, -16965.868111356274, -15755.78937003486, -9240.121750846118, -5480.223057296641, -19432.964257355245, 187500.0, -0.122, 0.976, 0.078, 192.0, 0.0, 0.0, 0.0, 0.0, 0.0, 0.0, 0.0, 0.0, 0.0, 1.700944922680551E9, 0.0, 2023-11-25 15:42:02.680
127.0, 72283.1052283174, 83050.43227081685, -17265.135617868378, -16034.783844326003, -9700.232410458615, -5591.2441720061515, -19431.086710821, 187500.0, -0.114, 0.978, 0.082, 192.0, 252.0, 112.0, 30.0, 144.0, 2.0, 144.0, 0.0, 0.0, 0.0, 1.700944922684472E9, 0.0, 2023-11-25 15:42:02.684
128.0, 72303.75824019412, 83081.38943688745, -17315.315284170545, -16118.558182544493, -9962.016041519171, -5717.620935156458, -19421.341350238486, 187500.0, -0.114, 0.978, 0.082, 192.0, 0.0, 0.0, 0.0, 0.0, 0.0, 0.0, 0.0, 0.0, 0.0, 1.700944922688632E9, 0.0, 2023-11-25 15:42:02.688
129.0, 72295.84572265694, 83057.47307032027, -16828.4719381895, -15499.526619854763, -9180.286130939261, -5296.961104507578, -19386.763201566126, 187500.0, -0.114, 0.978, 0.082, 192.0, 0.0, 0.0, 0.0, 0.0, 0.0, 0.0, 0.0, 0.0, 0.0, 1.700944922692543E9, 0.0, 2023-11-25 15:42:02.692
130.0, 72287.41911499729, 83031.27682581864, -16931.312314428367, -15687.594197701717, -9186.186991475462, -5437.441818409183, -19425.02938807361, 187500.0, -0.114, 0.978, 0.082, 192.0, 0.0, 0.0, 0.0, 0.0, 0.0, 0.0, 0.0, 0.0, 0.0, 1.700944922696498E9, 0.0, 2023-11-25 15:42:02.696
131.0, 72278.03138232605, 83042.22918060175, -17214.531268421564, -15997.747003763558, -9614.75933966152, -5571.8205060744895, -19411.283065233598, 187500.0, -0.114, 0.978, 0.082, 192.0, 0.0, 0.0, 0.0, 0.0, 0.0, 0.0, 0.0, 0.0, 0.0, 1.700944922700518E9, 0.0, 2023-11-25 15:42:02.700
132.0, 72290.05662084301, 83066.79374775813, -17369.4512092413, -16176.091572772453, -10010.765196176195, -5743.973641869265, -19417.005111814156, 187500.0, -0.114, 0.978, 0.082, 192.0, 0.0, 0.0, 0.0, 0.0, 0.0, 0.0, 0.0, 0.0, 0.0, 1.70094492270554E9, 0.0, 2023-11-25 15:42:02.705
133.0, 72285.65332718531, 83060.57996279954, -16885.5359417839, -15592.822801211216, -9301.45493763148, -5360.3283000383735, -19367.943032734758, 187500.0, -0.114, 0.978, 0.082, 192.0, 0.0, 0.0, 0.0, 0.0, 0.0, 0.0, 0.0, 0.0, 0.0, 1.700944922708543E9, 0.0, 2023-11-25 15:42:02.708
134.0, 72277.98667883714, 83033.46729677526, -16883.323119082823, -15608.021987440825, -9120.428159287949, -5384.535239283471, -19415.79811761357, 187500.0, -0.114, 0.978, 0.082, 192.0, 0.0, 0.0, 0.0, 0.0, 0.0, 0.0, 0.0, 0.0, 0.0, 1.700944922712556E9, 0.0, 2023-11-25 15:42:02.712
135.0, 72267.63782115433, 83023.90075014839, -17164.73158177514, -15939.543061201939, -9518.736245481521, -5544.9984127281205, -19416.669835647328, 187500.0, -0.114, 0.978, 0.082, 192.0, 0.0, 0.0, 0.0, 0.0, 0.0, 0.0, 0.0, 0.0, 0.0, 1.700944922716572E9, 0.0, 2023-11-25 15:42:02.716
136.0, 72286.27917603006, 83056.71311100878, -17399.559009022596, -16174.661061127314, -10004.663169939897, -5723.007705570186, -19428.046873575076, 187500.0, -0.114, 0.978, 0.082, 192.0, 0.0, 0.0, 0.0, 0.0, 0.0, 0.0, 0.0, 0.0, 0.0, 1.700944922720604E9, 0.0, 2023-11-25 15:42:02.720
137.0, 72278.09843755943, 83046.2524946037, -16970.763143391985, -15686.789534901327, -9450.809294081842, -5420.476844367605, -19376.883730516878, 187500.0, -0.114, 0.98, 0.082, 192.0, 252.0, 112.0, 30.0, 160.0, 2.0, 144.0, 0.0, 0.0, 0.0, 1.70094492272463E9, 0.0, 2023-11-25 15:42:02.724
138.0, 72290.48130398766, 83035.7024712208, -16837.792615627364, -15519.285561953255, -9071.924873819933, -5311.579145381349, -19402.610588384938, 187500.0, -0.114, 0.98, 0.082, 192.0, 0.0, 0.0, 0.0, 0.0, 0.0, 0.0, 0.0, 0.0, 0.0, 1.7009449227286E9, 0.0, 2023-11-25 15:42:02.728
139.0, 72276.69027765874, 83030.58392174053, -17101.274979266524, -15886.43531637613, -9434.045485740362, -5515.248240858107, -19397.402631926852, 187500.0, -0.114, 0.98, 0.082, 192.0, 0.0, 0.0, 0.0, 0.0, 0.0, 0.0, 0.0, 0.0, 0.0, 1.700944922733598E9, 0.0, 2023-11-25 15:42:02.733
140.0, 72284.33457426245, 83065.36323611299, -17395.423936298364, -16153.985697506154, -9961.278433952146, -5684.428594640326, -19425.45407121826, 187500.0, -0.114, 0.98, 0.082, 192.0, 0.0, 0.0, 0.0, 0.0, 0.0, 0.0, 0.0, 0.0, 0.0, 1.700944922736608E9, 0.0, 2023-11-25 15:42:02.736
141.0, 72289.43077199826, 83073.90160249491, -17066.47331314961, -15832.388798283197, -9617.329790273881, -5520.366790338372, -19379.901216018345, 187500.0, -0.114, 0.98, 0.082, 192.0, 0.0, 0.0, 0.0, 0.0, 0.0, 0.0, 0.0, 0.0, 0.0, 1.700944922739583E9, 0.0, 2023-11-25 15:42:02.739
142.0, 72281.71942016119, 83042.6985672353, -16805.98608326746, -15454.934889666427, -9033.613983823536, -5258.918435444646, -19410.344291966474, 187500.0, -0.114, 0.98, 0.082, 192.0, 0.0, 0.0, 0.0, 0.0, 0.0, 0.0, 0.0, 0.0, 0.0, 1.700944922744769E9, 0.0, 2023-11-25 15:42:02.744
143.0, 72283.97694635116, 83041.4021660569, -17060.214824702125, -15856.37222008374, -9367.079659352263, -5515.069426902464, -19420.35787348245, 187500.0, -0.114, 0.98, 0.082, 192.0, 0.0, 0.0, 0.0, 0.0, 0.0, 0.0, 0.0, 0.0, 0.0, 1.700944922749002E9, 0.0, 2023-11-25 15:42:02.749
144.0, 72289.25195804262, 83068.62659080345, -17355.503720701185, -16110.958589429689, -9873.90546487635, -5646.810608722045, -19435.31119052305, 187500.0, -0.114, 0.98, 0.082, 192.0, 0.0, 0.0, 0.0, 0.0, 0.0, 0.0, 0.0, 0.0, 0.0, 1.700944922752658E9, 0.0, 2023-11-25 15:42:02.752
145.0, 72296.35981277941, 83076.49440485174, -17162.652869540798, -15935.855023366812, -9752.267271550569, -5598.374378487394, -19403.50465816315, 187500.0, -0.114, 0.98, 0.082, 192.0, 0.0, 0.0, 0.0, 0.0, 0.0, 0.0, 0.0, 0.0, 0.0, 1.70094492275668E9, 0.0, 2023-11-25 15:42:02.756
146.0, 72292.64942319982, 83057.45071857581, -16788.12703944767, -15425.698807918885, -9032.161120433942, -5243.339269559297, -19401.44829767326, 187500.0, -0.114, 0.98, 0.082, 192.0, 0.0, 0.0, 0.0, 0.0, 0.0, 0.0, 0.0, 0.0, 0.0, 1.700944922761717E9, 0.0, 2023-11-25 15:42:02.761
147.0, 72289.92251037629, 83045.4478318033, -17010.54924852243, -15805.387890981185, -9290.189658426007, -5504.631162241836, -19419.419100215327, 187500.0, -0.112, 0.986, 0.082, 192.0, 252.0, 128.0, 30.0, 208.0, 2.0, 144.0, 0.0, 0.0, 0.0, 1.700944922764727E9, 0.0, 2023-11-25 15:42:02.764
148.0, 72293.90112088932, 83067.1066721805, -17312.1860399468, -16067.41739123075, -9770.685108981743, -5619.295611297562, -19424.202373528766, 187500.0, -0.112, 0.986, 0.082, 192.0, 0.0, 0.0, 0.0, 0.0, 0.0, 0.0, 0.0, 0.0, 0.0, 1.700944922768854E9, 0.0, 2023-11-25 15:42:02.768
149.0, 72302.26067331561, 83081.30002990962, -17252.551585740042, -16034.381512925806, -9863.601310682454, -5670.88343750041, -19403.571713396515, 187500.0, -0.112, 0.986, 0.082, 192.0, 0.0, 0.0, 0.0, 0.0, 0.0, 0.0, 0.0, 0.0, 0.0, 1.700944922772737E9, 0.0, 2023-11-25 15:42:02.772
150.0, 72288.69316443124, 83053.18153538485, -16800.398147153635, -15431.107930077069, -9076.328167477628, -5250.894159185191, -19385.869131787913, 187500.0, -0.112, 0.986, 0.082, 192.0, 0.0, 0.0, 0.0, 0.0, 0.0, 0.0, 0.0, 0.0, 0.0, 1.700944922776739E9, 0.0, 2023-11-25 15:42:02.776
151.0, 72293.1635133223, 83043.01149165769, -16974.004146338004, -15738.556175059817, -9224.430826238493, -5473.092850815398, -19420.670797904826, 187500.0, -0.112, 0.986, 0.082, 192.0, 0.0, 0.0, 0.0, 0.0, 0.0, 0.0, 0.0, 0.0, 0.0, 1.700944922781182E9, 0.0, 2023-11-25 15:42:02.781
152.0, 72292.15768482181, 83058.16597439838, -17267.974289414204, -16017.908277262244, -9676.472506102624, -5585.991512059154, -19426.102271807467, 187500.0, -0.112, 0.986, 0.082, 192.0, 0.0, 0.0, 0.0, 0.0, 0.0, 0.0, 0.0, 0.0, 0.0, 1.700944922784811E9, 0.0, 2023-11-25 15:42:02.784
153.0, 72316.58814151146, 83081.68000956536, -17336.77295884764, -16117.753519744101, -9960.406715918389, -5723.700609648301, -19426.638713674394, 187500.0, -0.112, 0.986, 0.082, 192.0, 0.0, 0.0, 0.0, 0.0, 0.0, 0.0, 0.0, 0.0, 0.0, 1.700944922787952E9, 0.0, 2023-11-25 15:42:02.787
154.0, 72310.08378387497, 83058.38949184293, -16842.82175812981, -15494.430422118954, -9176.329872170672, -5299.956238264589, -19386.942015521767, 187500.0, -0.112, 0.986, 0.082, 192.0, 0.0, 0.0, 0.0, 0.0, 0.0, 0.0, 0.0, 0.0, 0.0, 1.700944922791766E9, 0.0, 2023-11-25 15:42:02.791
155.0, 72301.72423144868, 83046.36425332597, -16930.21707895006, -15675.703069651494, -9167.09860171063, -5440.280489955007, -19418.167402525833, 187500.0, -0.112, 0.986, 0.082, 192.0, 0.0, 0.0, 0.0, 0.0, 0.0, 0.0, 0.0, 0.0, 0.0, 1.700944922795762E9, 0.0, 2023-11-25 15:42:02.795
156.0, 72287.9108533753, 83062.85984073399, -17205.45646017271, -15972.422477295695, -9577.923664799175, -5562.946863525733, -19402.45412617375, 187500.0, -0.112, 0.986, 0.082, 192.0, 0.0, 0.0, 0.0, 0.0, 0.0, 0.0, 0.0, 0.0, 0.0, 1.700944922799781E9, 0.0, 2023-11-25 15:42:02.799
157.0, 72295.24222555665, 83083.3116869106, -17379.10716284599, -16145.939069502243, -9985.731242386251, -5724.7287898932445, -19417.94388508128, 187500.0, -0.11, 0.984, 0.084, 192.0, 252.0, 144.0, 30.0, 192.0, 2.0, 160.0, 0.0, 0.0, 0.0, 1.700944922804778E9, 0.0, 2023-11-25 15:42:02.804
158.0, 72288.98373710916, 83063.50804132319, -16920.941105001104, -15590.498219787863, -9314.620115115657, -5365.402146029728, -19383.611605597926, 187500.0, -0.11, 0.984, 0.084, 192.0, 0.0, 0.0, 0.0, 0.0, 0.0, 0.0, 0.0, 0.0, 0.0, 1.700944922808838E9, 0.0, 2023-11-25 15:42:02.808
159.0, 72297.07506860197, 83045.06785214756, -16892.241465120493, -15591.615807010628, -9111.75568243929, -5376.980349657578, -19416.871001347423, 187500.0, -0.11, 0.984, 0.084, 192.0, 0.0, 0.0, 0.0, 0.0, 0.0, 0.0, 0.0, 0.0, 0.0, 1.700944922812811E9, 0.0, 2023-11-25 15:42:02.812
160.0, 72285.00512659611, 83042.8550294465, -17159.63538403933, -15922.399273204717, -9496.965646382052, -5534.962479467688, -19408.60085589896, 187500.0, -0.11, 0.984, 0.084, 192.0, 0.0, 0.0, 0.0, 0.0, 0.0, 0.0, 0.0, 0.0, 0.0, 1.700944922815868E9, 0.0, 2023-11-25 15:42:02.815
161.0, 72299.48905700316, 83073.34280888354, -17407.62798877096, -16174.39284019385, -9998.874068125971, -5728.081551561541, -19431.980780599213, 187500.0, -0.11, 0.984, 0.084, 192.0, 0.0, 0.0, 0.0, 0.0, 0.0, 0.0, 0.0, 0.0, 0.0, 1.700944922819855E9, 0.0, 2023-11-25 15:42:02.819
162.0, 72293.05175460002, 83063.88802097893, -16989.80682966791, -15717.880811438657, -9472.468134459035, -5458.921844830733, -19384.684489331783, 187500.0, -0.11, 0.984, 0.084, 192.0, 0.0, 0.0, 0.0, 0.0, 0.0, 0.0, 0.0, 0.0, 0.0, 1.700944922823885E9, 0.0, 2023-11-25 15:42:02.823
163.0, 72295.4657430012, 83051.54985803961, -16843.80523488584, -15528.896812069037, -9068.996795296287, -5338.8482736168235, -19417.183925769797, 187500.0, -0.11, 0.984, 0.084, 192.0, 0.0, 0.0, 0.0, 0.0, 0.0, 0.0, 0.0, 0.0, 0.0, 1.700944922827893E9, 0.0, 2023-11-25 15:42:02.827
164.0, 72293.38703076685, 83062.39045410043, -17095.307063496955, -15897.588836859328, -9421.729674545488, -5547.121828451375, -19405.35985295294, 187500.0, -0.11, 0.984, 0.084, 192.0, 0.0, 0.0, 0.0, 0.0, 0.0, 0.0, 0.0, 0.0, 0.0, 1.700944922832872E9, 0.0, 2023-11-25 15:42:02.832
165.0, 72304.04881287203, 83092.90058528192, -17384.0021948817, -16146.810787536, -9935.171596428347, -5700.633609370424, -19431.913725365845, 187500.0, -0.11, 0.984, 0.084, 192.0, 0.0, 0.0, 0.0, 0.0, 0.0, 0.0, 0.0, 0.0, 0.0, 1.700944922837218E9, 0.0, 2023-11-25 15:42:02.837
166.0, 72313.45889728772, 83090.01721024718, -17081.448981934667, -15838.043789630388, -9621.822490909397, -5549.535816852548, -19396.55326563755, 187500.0, -0.11, 0.984, 0.084, 192.0, 0.0, 0.0, 0.0, 0.0, 0.0, 0.0, 0.0, 0.0, 0.0, 1.700944922841077E9, 0.0, 2023-11-25 15:42:02.841
167.0, 72310.64257748635, 83060.11057616599, -16812.959827537517, -15455.404276299987, -9033.83750126809, -5285.360549135274, -19421.40840547185, 187500.0, -0.11, 0.98, 0.08, 192.0, 252.0, 144.0, 30.0, 160.0, 2.0, 128.0, 0.0, 0.0, 0.0, 1.700944922844176E9, 0.0, 2023-11-25 15:42:02.844
168.0, 72302.2159698267, 83049.33703533853, -17060.974784013604, -15840.256612331465, -9350.047630077319, -5525.015953185076, -19427.041045074588, 187500.0, -0.11, 0.98, 0.08, 192.0, 0.0, 0.0, 0.0, 0.0, 0.0, 0.0, 0.0, 0.0, 0.0, 1.700944922847936E9, 0.0, 2023-11-25 15:42:02.847
169.0, 72297.3656412799, 83077.38847462994, -17363.326831260543, -16102.777850959046, -9859.667403658319, -5653.426725080815, -19436.205260301263, 187500.0, -0.11, 0.98, 0.08, 192.0, 0.0, 0.0, 0.0, 0.0, 0.0, 0.0, 0.0, 0.0, 0.0, 1.700944922852022E9, 0.0, 2023-11-25 15:42:02.852
170.0, 72309.48028677468, 83090.77716955867, -17186.68099483025, -15954.854006153824, -9773.16615261628, -5623.743608444168, -19403.75052735216, 187500.0, -0.11, 0.98, 0.08, 192.0, 0.0, 0.0, 0.0, 0.0, 0.0, 0.0, 0.0, 0.0, 0.0, 1.700944922856063E9, 0.0, 2023-11-25 15:42:02.856
171.0, 72313.90593217683, 83073.58867807254, -16798.833525041762, -15432.2925725332, -9045.661574084947, -5259.968967434045, -19402.0294430291, 187500.0, -0.11, 0.98, 0.08, 192.0, 0.0, 0.0, 0.0, 0.0, 0.0, 0.0, 0.0, 0.0, 0.0, 1.700944922860997E9, 0.0, 2023-11-25 15:42:02.860
172.0, 72309.03325188557, 83071.93464898285, -17010.57160026689, -15797.922408333114, -9286.099289190684, -5509.794415211012, -19419.30734149305, 187500.0, -0.11, 0.98, 0.08, 192.0, 0.0, 0.0, 0.0, 0.0, 0.0, 0.0, 0.0, 0.0, 0.0, 1.700944922865247E9, 0.0, 2023-11-25 15:42:02.865
173.0, 72306.26163557312, 83097.95207952883, -17302.731252042206, -16051.771170112035, -9754.591852973921, -5613.014771105621, -19415.55224842456, 187500.0, -0.11, 0.98, 0.08, 192.0, 0.0, 0.0, 0.0, 0.0, 0.0, 0.0, 0.0, 0.0, 0.0, 1.700944922869035E9, 0.0, 2023-11-25 15:42:02.869
174.0, 72314.35296706593, 83106.13281799946, -17264.55447251254, -16039.880042061812, -9874.151334065358, -5683.64628358439, -19409.338463465985, 187500.0, -0.11, 0.98, 0.08, 192.0, 0.0, 0.0, 0.0, 0.0, 0.0, 0.0, 0.0, 0.0, 0.0, 1.700944922872019E9, 0.0, 2023-11-25 15:42:02.872
175.0, 72316.83401070048, 83087.53616661266, -16807.126022234683, -15439.489834247808, -9087.03465307172, -5272.8659239847575, -19395.189809225776, 187500.0, -0.11, 0.98, 0.08, 192.0, 0.0, 0.0, 0.0, 0.0, 0.0, 0.0, 0.0, 0.0, 0.0, 1.700944922876009E9, 0.0, 2023-11-25 15:42:02.876
176.0, 72323.15955438132, 83073.611029817, -16962.336535732335, -15731.984762189957, -9212.91967784401, -5484.916923632255, -19422.771861883626, 187500.0, -0.11, 0.98, 0.08, 192.0, 0.0, 0.0, 0.0, 0.0, 0.0, 0.0, 0.0, 0.0, 0.0, 1.700944922880099E9, 0.0, 2023-11-25 15:42:02.880
177.0, 72320.27617934659, 83089.16784395788, -17244.41555075831, -15986.839352469367, -9642.6766684862, -5572.893389808344, -19412.17713501181, 187500.0, -0.112, 0.976, 0.088, 192.0, 252.0, 128.0, 30.0, 128.0, 2.0, 192.0, 0.0, 0.0, 0.0, 1.700944922884225E9, 0.0, 2023-11-25 15:42:02.884
178.0, 72324.16538288181, 83100.1649022299, -17344.663124640363, -16112.120880141365, -9961.569006630065, -5727.522757950158, -19428.73977765319, 187500.0, -0.112, 0.976, 0.088, 192.0, 0.0, 0.0, 0.0, 0.0, 0.0, 0.0, 0.0, 0.0, 0.0, 1.700944922888156E9, 0.0, 2023-11-25 15:42:02.888
179.0, 72315.58231301098, 83075.28741065114, -16851.181310556094, -15502.052366978214, -9191.685520611469, -5315.513052405483, -19391.16649522382, 187500.0, -0.112, 0.976, 0.088, 192.0, 0.0, 0.0, 0.0, 0.0, 0.0, 0.0, 0.0, 0.0, 0.0, 1.700944922893162E9, 0.0, 2023-11-25 15:42:02.893
180.0, 72312.00603389813, 83054.83556447453, -16925.098529469793, -15664.795418357304, -9156.749744027824, -5440.056972510454, -19424.85057411797, 187500.0, -0.112, 0.976, 0.088, 192.0, 0.0, 0.0, 0.0, 0.0, 0.0, 0.0, 0.0, 0.0, 0.0, 1.700944922897292E9, 0.0, 2023-11-25 15:42:02.897
181.0, 72292.9176441333, 83053.02507317366, -17202.50602990461, -15960.30783180092, -9561.94216751363, -5563.706822837213, -19411.17130651132, 187500.0, -0.112, 0.976, 0.088, 192.0, 0.0, 0.0, 0.0, 0.0, 0.0, 0.0, 0.0, 0.0, 0.0, 1.700944922901221E9, 0.0, 2023-11-25 15:42:02.901
182.0, 72313.50360077663, 83088.34082941303, -17391.422974040863, -16155.036229495554, -9992.369710489478, -5740.084438334041, -19429.835013131502, 187500.0, -0.112, 0.976, 0.088, 192.0, 0.0, 0.0, 0.0, 0.0, 0.0, 0.0, 0.0, 0.0, 0.0, 1.700944922904139E9, 0.0, 2023-11-25 15:42:02.904
183.0, 72323.29366484805, 83089.72663756927, -16911.48631709651, -15602.769327493826, -9320.543327396314, -5381.54010552646, -19374.536797349072, 187500.0, -0.112, 0.976, 0.088, 192.0, 0.0, 0.0, 0.0, 0.0, 0.0, 0.0, 0.0, 0.0, 0.0, 1.700944922908164E9, 0.0, 2023-11-25 15:42:02.908
184.0, 72317.54926652304, 83069.34184662603, -16874.963566656537, -15579.545865004762, -9092.13085080753, -5374.320492067396, -19416.580428669506, 187500.0, -0.112, 0.976, 0.088, 192.0, 0.0, 0.0, 0.0, 0.0, 0.0, 0.0, 0.0, 0.0, 0.0, 1.700944922912238E9, 0.0, 2023-11-25 15:42:02.912
185.0, 72304.16057159432, 83071.39820711593, -17141.48576754162, -15909.278799209453, -9470.21060826905, -5532.436732344238, -19405.762184353138, 187500.0, -0.112, 0.976, 0.088, 192.0, 0.0, 0.0, 0.0, 0.0, 0.0, 0.0, 0.0, 0.0, 0.0, 1.700944922916927E9, 0.0, 2023-11-25 15:42:02.916
186.0, 72322.6678160033, 83107.83155057806, -17399.02256715567, -16154.388028906349, -9973.236617235734, -5715.497519433203, -19431.064359076543, 187500.0, -0.112, 0.976, 0.088, 192.0, 0.0, 0.0, 0.0, 0.0, 0.0, 0.0, 0.0, 0.0, 0.0, 1.700944922920221E9, 0.0, 2023-11-25 15:42:02.920
187.0, 72321.70669099173, 83099.04731500713, -16993.94190239214, -15711.06352937979, -9465.382631466702, -5451.970452305133, -19382.56107360853, 187500.0, -0.114, 0.98, 0.08600000000000001, 192.0, 252.0, 112.0, 30.0, 160.0, 2.0, 176.0, 0.0, 0.0, 0.0, 1.700944922925235E9, 0.0, 2023-11-25 15:42:02.925
188.0, 72313.48124903218, 83068.5595355701, -16841.81592962932, -15497.40320413151, -9042.778199050212, -5309.47808140255, -19424.314132251042, 187500.0, -0.114, 0.98, 0.08600000000000001, 192.0, 0.0, 0.0, 0.0, 0.0, 0.0, 0.0, 0.0, 0.0, 0.0, 1.700944922928236E9, 0.0, 2023-11-25 15:42:02.928
189.0, 72305.43462102827, 83062.9045442229, -17092.691909395686, -15865.469380077051, -9394.90758119912, -5514.644743757814, -19414.83699260199, 187500.0, -0.114, 0.98, 0.08600000000000001, 192.0, 0.0, 0.0, 0.0, 0.0, 0.0, 0.0, 0.0, 0.0, 0.0, 1.700944922932895E9, 0.0, 2023-11-25 15:42:02.932
190.0, 72315.33644382196, 83084.31751541108, -17389.947758906812, -16116.323008098962, -9917.714884008752, -5663.015623452142, -19441.36851327044, 187500.0, -0.114, 0.98, 0.08600000000000001, 192.0, 0.0, 0.0, 0.0, 0.0, 0.0, 0.0, 0.0, 0.0, 0.0, 1.700944922936302E9, 0.0, 2023-11-25 15:42:02.936
191.0, 72332.10025216345, 83096.00747776122, -17096.447002464178, -15832.32174304983, -9634.51828176001, -5530.559185809992, -19390.294777190065, 187500.0, -0.114, 0.98, 0.08600000000000001, 192.0, 0.0, 0.0, 0.0, 0.0, 0.0, 0.0, 0.0, 0.0, 0.0, 1.700944922940477E9, 0.0, 2023-11-25 15:42:02.940
192.0, 72312.29660657604, 83073.18634667234, -16805.583751867267, -15432.940773122404, -9024.114492430032, -5253.509313286461, -19404.845762830468, 187500.0, -0.114, 0.98, 0.08600000000000001, 192.0, 0.0, 0.0, 0.0, 0.0, 0.0, 0.0, 0.0, 0.0, 0.0, 1.700944922944546E9, 0.0, 2023-11-25 15:42:02.944
193.0, 72298.28206280257, 83066.16789891338, -17060.438342146677, -15838.557879752861, -9349.555891699301, -5515.09177864692, -19420.17905952681, 187500.0, -0.114, 0.98, 0.08600000000000001, 192.0, 0.0, 0.0, 0.0, 0.0, 0.0, 0.0, 0.0, 0.0, 0.0, 1.700944922948328E9, 0.0, 2023-11-25 15:42:02.948
194.0, 72300.5172372481, 83084.47397762227, -17366.47842722874, -16094.41829853276, -9854.95118557825, -5638.808684207044, -19436.495832979184, 187500.0, -0.114, 0.98, 0.08600000000000001, 192.0, 0.0, 0.0, 0.0, 0.0, 0.0, 0.0, 0.0, 0.0, 0.0, 1.700944922953477E9, 0.0, 2023-11-25 15:42:02.953
195.0, 72315.44820254424, 83096.72273358378, -17203.713024105196, -15957.670325955192, -9790.578161546966, -5617.082788596486, -19409.338463465985, 187500.0, -0.114, 0.98, 0.08600000000000001, 192.0, 0.0, 0.0, 0.0, 0.0, 0.0, 0.0, 0.0, 0.0, 0.0, 1.700944922956336E9, 0.0, 2023-11-25 15:42:02.956
196.0, 72314.50942927712, 83076.1591286849, -16803.013301254905, -15426.145842807991, -9052.8364840551, -5248.0331358949115, -19398.140239493878, 187500.0, -0.112, 0.976, 0.088, 192.0, 252.0, 128.0, 30.0, 128.0, 2.0, 192.0, 0.0, 0.0, 0.0, 1.700944922960384E9, 0.0, 2023-11-25 15:42:02.960
197.0, 72306.52985650658, 83054.99202668572, -17015.28781834696, -15792.535637919384, -9288.200353169485, -5503.245354085607, -19421.386053727398, 187500.0, -0.112, 0.976, 0.088, 192.0, 0.0, 0.0, 0.0, 0.0, 0.0, 0.0, 0.0, 0.0, 0.0, 1.700944922964347E9, 0.0, 2023-11-25 15:42:02.964
198.0, 72304.22762682768, 83071.7111315383, -17321.90904878486, -16060.063667304954, -9763.532550756045, -5617.149843829852, -19428.784481142102, 187500.0, -0.112, 0.976, 0.088, 192.0, 0.0, 0.0, 0.0, 0.0, 0.0, 0.0, 0.0, 0.0, 0.0, 1.700944922968381E9, 0.0, 2023-11-25 15:42:02.968
199.0, 72314.6658914883, 83087.91614626838, -17294.706975782752, -16066.813894130457, -9902.694511734786, -5698.823118069544, -19418.45797520375, 187500.0, -0.112, 0.976, 0.088, 192.0, 0.0, 0.0, 0.0, 0.0, 0.0, 0.0, 0.0, 0.0, 0.0, 1.700944922972379E9, 0.0, 2023-11-25 15:42:02.972
200.0, 72311.20137109773, 83071.57702107156, -16815.84320257225, -15445.547156995197, -9096.176516553942, -5264.0593366693665, -19386.45027714375, 187500.0, -0.112, 0.976, 0.088, 192.0, 0.0, 0.0, 0.0, 0.0, 0.0, 0.0, 0.0, 0.0, 0.0, 1.700944922976499E9, 0.0, 2023-11-25 15:42:02.976
201.0, 72314.82235369949, 83054.83556447453, -16965.801056122906, -15725.614515020194, -9206.169451018506, -5465.202685022675, -19414.36760596843, 187500.0, -0.112, 0.976, 0.088, 192.0, 0.0, 0.0, 0.0, 0.0, 0.0, 0.0, 0.0, 0.0, 0.0, 1.700944922980356E9, 0.0, 2023-11-25 15:42:02.980
202.0, 72309.74850770814, 83070.88411699345, -17250.159949083325, -15997.59054155237, -9638.653354484244, -5567.394860672339, -19402.856457573947, 187500.0, -0.112, 0.976, 0.088, 192.0, 0.0, 0.0, 0.0, 0.0, 0.0, 0.0, 0.0, 0.0, 0.0, 1.70094492298437E9, 0.0, 2023-11-25 15:42:02.984
203.0, 72321.1702491248, 83093.30291668212, -17353.71558114476, -16120.994522690122, -9958.3503554285, -5714.581097910535, -19418.234457759198, 187500.0, -0.112, 0.976, 0.088, 192.0, 0.0, 0.0, 0.0, 0.0, 0.0, 0.0, 0.0, 0.0, 0.0, 1.700944922987427E9, 0.0, 2023-11-25 15:42:02.987
204.0, 72324.59006602646, 83083.62461133297, -16862.468941506024, -15522.68302711046, -9199.888610826565, -5313.210822726586, -19381.376431152396, 187500.0, -0.112, 0.976, 0.088, 192.0, 0.0, 0.0, 0.0, 0.0, 0.0, 0.0, 0.0, 0.0, 0.0, 1.700944922992421E9, 0.0, 2023-11-25 15:42:02.992
205.0, 72323.62894101489, 83067.71016928079, -16918.549468344387, -15647.986906526914, -9133.794502472223, -5413.54780358646, -19417.51920193663, 187500.0, -0.112, 0.976, 0.088, 192.0, 0.0, 0.0, 0.0, 0.0, 0.0, 0.0, 0.0, 0.0, 0.0, 1.700944922996444E9, 0.0, 2023-11-25 15:42:02.996
206.0, 72312.9671589097, 83080.27184966467, -17195.35347167891, -15947.857910139313, -9539.545719569413, -5543.612604571892, -19413.205315256753, 187500.0, -0.112, 0.978, 0.08600000000000001, 192.0, 252.0, 128.0, 30.0, 144.0, 2.0, 176.0, 0.0, 0.0, 0.0, 1.700944923000372E9, 0.0, 2023-11-25 15:42:03.000
207.0, 72323.98656892616, 83105.6634313659, -17384.270415815165, -16148.800092792522, -9973.16956200237, -5723.812368370577, -19428.829184631013, 187500.0, -0.112, 0.978, 0.08600000000000001, 192.0, 0.0, 0.0, 0.0, 0.0, 0.0, 0.0, 0.0, 0.0, 0.0, 1.700944923004464E9, 0.0, 2023-11-25 15:42:03.004
208.0, 72316.20816185573, 83089.95015501382, -16917.45423286608, -15601.092946659679, -9315.067150004763, -5373.605236244826, -19385.198579454252, 187500.0, -0.112, 0.978, 0.08600000000000001, 192.0, 0.0, 0.0, 0.0, 0.0, 0.0, 0.0, 0.0, 0.0, 0.0, 1.700944923008442E9, 0.0, 2023-11-25 15:42:03.008
209.0, 72319.65033050184, 83069.99004721524, -16870.023831131915, -15566.380687520586, -9072.394260453495, -5363.211675073108, -19424.828222373515, 187500.0, -0.112, 0.978, 0.08600000000000001, 192.0, 0.0, 0.0, 0.0, 0.0, 0.0, 0.0, 0.0, 0.0, 0.0, 1.700944923012456E9, 0.0, 2023-11-25 15:42:03.012
210.0, 72305.83695242846, 83067.5537070696, -17141.038732652516, -15909.81524107638, -9454.027945283407, -5536.236528901641, -19415.485193191194, 187500.0, -0.112, 0.978, 0.08600000000000001, 192.0, 0.0, 0.0, 0.0, 0.0, 0.0, 0.0, 0.0, 0.0, 0.0, 1.700944923016504E9, 0.0, 2023-11-25 15:42:03.016
211.0, 72327.20522012774, 83107.74214360025, -17402.48708754624, -16166.256805212119, -9963.78182933114, -5723.812368370577, -19436.093501578987, 187500.0, -0.112, 0.978, 0.08600000000000001, 192.0, 0.0, 0.0, 0.0, 0.0, 0.0, 0.0, 0.0, 0.0, 0.0, 1.700944923020462E9, 0.0, 2023-11-25 15:42:03.020
212.0, 72330.8709062184, 83106.19987323284, -17006.45887928711, -15739.964334960501, -9483.331082264314, -5476.9597026061665, -19380.236492185177, 187500.0, -0.112, 0.978, 0.08600000000000001, 192.0, 0.0, 0.0, 0.0, 0.0, 0.0, 0.0, 0.0, 0.0, 0.0, 1.700944923024525E9, 0.0, 2023-11-25 15:42:03.024
213.0, 72319.60562701293, 83079.9589252423, -16829.947153323552, -15503.885210023549, -9036.340896647083, -5317.636468128738, -19410.567809411026, 187500.0, -0.112, 0.978, 0.08600000000000001, 192.0, 0.0, 0.0, 0.0, 0.0, 0.0, 0.0, 0.0, 0.0, 0.0, 1.700944923028515E9, 0.0, 2023-11-25 15:42:03.028
214.0, 72305.41226928381, 83069.56536407059, -17081.940720312683, -15878.969833728057, -9380.937740914553, -5531.877938732856, -19401.068318017522, 187500.0, -0.112, 0.978, 0.08600000000000001, 192.0, 0.0, 0.0, 0.0, 0.0, 0.0, 0.0, 0.0, 0.0, 0.0, 1.700944923032507E9, 0.0, 2023-11-25 15:42:03.032
215.0, 72310.95550190873, 83086.64209683443, -17383.041069870123, -16128.817633249479, -9898.782956455107, -5677.656016070368, -19433.612457944448, 187500.0, -0.112, 0.978, 0.08600000000000001, 192.0, 0.0, 0.0, 0.0, 0.0, 0.0, 0.0, 0.0, 0.0, 0.0, 1.700944923036484E9, 0.0, 2023-11-25 15:42:03.036
216.0, 72325.93117069377, 83097.77326557318, -17110.841525893393, -15855.321688094342, -9638.04985738395, -5549.915796508289, -19398.721384849716, 187500.0, -0.116, 0.982, 0.082, 192.0, 252.0, 96.0, 30.0, 176.0, 2.0, 144.0, 0.0, 0.0, 0.0, 1.700944923040522E9, 0.0, 2023-11-25 15:42:03.040
217.0, 72336.48119407668, 83085.09982646702, -16804.957903022518, -15446.53063375123, -9020.337047617084, -5263.813467480358, -19407.79619309857, 187500.0, -0.116, 0.982, 0.082, 192.0, 0.0, 0.0, 0.0, 0.0, 0.0, 0.0, 0.0, 0.0, 0.0, 1.700944923043555E9, 0.0, 2023-11-25 15:42:03.043
218.0, 72332.83785973047, 83072.4040356164, -17038.71244653612, -15849.845510702791, -9328.545251911313, -5527.653459030803, -19410.36664371093, 187500.0, -0.116, 0.982, 0.082, 192.0, 0.0, 0.0, 0.0, 0.0, 0.0, 0.0, 0.0, 0.0, 0.0, 1.700944923048972E9, 0.0, 2023-11-25 15:42:03.048
219.0, 72326.80288872754, 83091.35831491451, -17346.04893279659, -16115.04895866501, -9831.638316111364, -5657.651204782868, -19434.059492833556, 187500.0, -0.116, 0.982, 0.082, 192.0, 0.0, 0.0, 0.0, 0.0, 0.0, 0.0, 0.0, 0.0, 0.0, 1.700944923052586E9, 0.0, 2023-11-25 15:42:03.052
220.0, 72318.6668537458, 83089.14549221343, -17199.84617231443, -15990.035651926477, -9786.308978356003, -5649.515169801137, -19410.165478010833, 187500.0, -0.116, 0.982, 0.082, 192.0, 0.0, 0.0, 0.0, 0.0, 0.0, 0.0, 0.0, 0.0, 0.0, 1.700944923056564E9, 0.0, 2023-11-25 15:42:03.056
221.0, 72308.72032746319, 83064.06683493458, -16785.64599581313, -15413.226534512823, -9022.438111595882, -5240.008859635456, -19398.006129027144, 187500.0, -0.116, 0.982, 0.082, 192.0, 0.0, 0.0, 0.0, 0.0, 0.0, 0.0, 0.0, 0.0, 0.0, 1.700944923060553E9, 0.0, 2023-11-25 15:42:03.060
222.0, 72317.0128246561, 83060.1552796549, -16984.241245298534, -15768.351050418742, -9246.112018360142, -5480.670092185747, -19410.0313675441, 187500.0, -0.116, 0.982, 0.082, 192.0, 0.0, 0.0, 0.0, 0.0, 0.0, 0.0, 0.0, 0.0, 0.0, 1.700944923064631E9, 0.0, 2023-11-25 15:42:03.064
223.0, 72319.33740607946, 83089.72663756927, -17275.32801334, -16030.514661135037, -9718.136157767316, -5584.784517858568, -19407.058585531544, 187500.0, -0.116, 0.982, 0.082, 192.0, 0.0, 0.0, 0.0, 0.0, 0.0, 0.0, 0.0, 0.0, 0.0, 1.700944923067589E9, 0.0, 2023-11-25 15:42:03.067
224.0, 72327.36168233892, 83106.87042556649, -17261.916966666813, -16052.151149767775, -9888.188229583291, -5674.660882313357, -19399.347233694465, 187500.0, -0.116, 0.982, 0.082, 192.0, 0.0, 0.0, 0.0, 0.0, 0.0, 0.0, 0.0, 0.0, 0.0, 1.70094492307163E9, 0.0, 2023-11-25 15:42:03.071
225.0, 72321.572580525, 83088.38553290196, -16783.209655667502, -15428.559831209164, -9092.622589185547, -5240.411191035651, -19375.83319852748, 187500.0, -0.116, 0.982, 0.082, 192.0, 0.0, 0.0, 0.0, 0.0, 0.0, 0.0, 0.0, 0.0, 0.0, 1.700944923075681E9, 0.0, 2023-11-25 15:42:03.075
226.0, 72322.39959506984, 83076.9637914853, -16927.53486961542, -15708.738947956437, -9202.235543994373, -5446.181350491208, -19407.863248331934, 187500.0, -0.11, 0.984, 0.084, 192.0, 252.0, 144.0, 30.0, 192.0, 2.0, 160.0, 0.0, 0.0, 0.0, 1.700944923080659E9, 0.0, 2023-11-25 15:42:03.080
227.0, 72314.37531881039, 83086.82091079008, -17200.44966941472, -15975.350555819341, -9628.304496801436, -5546.0489447175205, -19388.372527166906, 187500.0, -0.11, 0.984, 0.084, 192.0, 0.0, 0.0, 0.0, 0.0, 0.0, 0.0, 0.0, 0.0, 0.0, 1.700944923084669E9, 0.0, 2023-11-25 15:42:03.084
228.0, 72328.7698422396, 83103.45060866483, -17308.14037420039, -16106.24237134962, -9967.291053210623, -5700.119519247952, -19400.107193005944, 187500.0, -0.11, 0.984, 0.084, 192.0, 0.0, 0.0, 0.0, 0.0, 0.0, 0.0, 0.0, 0.0, 0.0, 1.70094492308869E9, 0.0, 2023-11-25 15:42:03.088
229.0, 72322.98074042569, 83090.73246606976, -16808.2659612019, -15502.63351233405, -9214.685465655979, -5294.9941509955115, -19354.286116872565, 187500.0, -0.11, 0.984, 0.084, 192.0, 0.0, 0.0, 0.0, 0.0, 0.0, 0.0, 0.0, 0.0, 0.0, 1.70094492309169E9, 0.0, 2023-11-25 15:42:03.091
230.0, 72324.00892067062, 83080.7635880427, -16859.071476348814, -15634.531156364817, -9147.496121823326, -5400.516736569016, -19391.188846968278, 187500.0, -0.11, 0.984, 0.084, 192.0, 0.0, 0.0, 0.0, 0.0, 0.0, 0.0, 0.0, 0.0, 0.0, 1.700944923095684E9, 0.0, 2023-11-25 15:42:03.095
231.0, 72310.19554259724, 83083.9598874998, -17124.81136617796, -15935.229174522065, -9543.278460893449, -5527.988735197632, -19376.54845435005, 187500.0, -0.11, 0.984, 0.084, 192.0, 0.0, 0.0, 0.0, 0.0, 0.0, 0.0, 0.0, 0.0, 0.0, 1.700944923099696E9, 0.0, 2023-11-25 15:42:03.099
232.0, 72326.98170268317, 83114.17944600337, -17322.400787162875, -16138.898269998823, -9987.653492409408, -5702.3099902045715, -19387.053774244043, 187500.0, -0.11, 0.984, 0.084, 192.0, 0.0, 0.0, 0.0, 0.0, 0.0, 0.0, 0.0, 0.0, 0.0, 1.700944923103718E9, 0.0, 2023-11-25 15:42:03.103
233.0, 72327.2275718722, 83099.5614051296, -16860.636098460687, -15607.977283951914, -9352.372211500671, -5361.423535516684, -19337.611715508905, 187500.0, -0.11, 0.984, 0.084, 192.0, 0.0, 0.0, 0.0, 0.0, 0.0, 0.0, 0.0, 0.0, 0.0, 1.700944923108715E9, 0.0, 2023-11-25 15:42:03.108
234.0, 72338.60460979994, 83082.48467236575, -16801.918065776594, -15547.98520183387, -9089.716862406358, -5325.52663392146, -19380.147085207354, 187500.0, -0.11, 0.984, 0.084, 192.0, 0.0, 0.0, 0.0, 0.0, 0.0, 0.0, 0.0, 0.0, 0.0, 1.700944923112782E9, 0.0, 2023-11-25 15:42:03.112
235.0, 72326.28879860506, 83085.18923344485, -17070.273109707014, -15900.807488060891, -9475.97735833852, -5503.535926763526, -19373.530968848583, 187500.0, -0.11, 0.984, 0.084, 192.0, 0.0, 0.0, 0.0, 0.0, 0.0, 0.0, 0.0, 0.0, 0.0, 1.700944923116799E9, 0.0, 2023-11-25 15:42:03.116
236.0, 72334.29072312007, 83119.9238443284, -17326.357045931465, -16146.073179968977, -9980.322120228067, -5672.269245656639, -19385.690317832272, 187500.0, -0.114, 0.98, 0.082, 192.0, 252.0, 112.0, 30.0, 160.0, 2.0, 144.0, 0.0, 0.0, 0.0, 1.70094492312077E9, 0.0, 2023-11-25 15:42:03.120
237.0, 72327.8757724614, 83108.4126959339, -16942.667000611666, -15740.009038449412, -9525.21825137356, -5442.292146955985, -19331.39793055033, 187500.0, -0.114, 0.98, 0.082, 192.0, 0.0, 0.0, 0.0, 0.0, 0.0, 0.0, 0.0, 0.0, 0.0, 1.700944923123818E9, 0.0, 2023-11-25 15:42:03.123
238.0, 72321.14789738035, 83076.94143974084, -16757.818073966275, -15495.548009341719, -9064.817019083146, -5282.588932822816, -19360.902233231336, 187500.0, -0.114, 0.98, 0.082, 192.0, 0.0, 0.0, 0.0, 0.0, 0.0, 0.0, 0.0, 0.0, 0.0, 1.700944923127762E9, 0.0, 2023-11-25 15:42:03.127
239.0, 72310.30730131952, 83076.71792229629, -17007.71057697661, -15871.884330735724, -9407.536316816368, -5502.932429663233, -19359.337611119463, 187500.0, -0.114, 0.98, 0.082, 192.0, 0.0, 0.0, 0.0, 0.0, 0.0, 0.0, 0.0, 0.0, 0.0, 1.700944923131832E9, 0.0, 2023-11-25 15:42:03.131
240.0, 72315.13527812187, 83112.3689547025, -17305.65933056585, -16126.04601693702, -9927.594355057998, -5650.11866690143, -19383.36573640892, 187500.0, -0.114, 0.98, 0.082, 192.0, 0.0, 0.0, 0.0, 0.0, 0.0, 0.0, 0.0, 0.0, 0.0, 1.700944923136818E9, 0.0, 2023-11-25 15:42:03.136
241.0, 72314.6211879994, 83115.49819892625, -17041.349952381846, -15886.994109987512, -9698.198401713182, -5557.135409967353, -19341.724436488683, 187500.0, -0.114, 0.98, 0.082, 192.0, 0.0, 0.0, 0.0, 0.0, 0.0, 0.0, 0.0, 0.0, 0.0, 1.700944923140827E9, 0.0, 2023-11-25 15:42:03.140
242.0, 72306.61926348439, 83082.68583806585, -16720.51301247037, -15443.066113360657, -9045.326297918118, -5245.708554471559, -19350.709837759714, 187500.0, -0.114, 0.98, 0.082, 192.0, 0.0, 0.0, 0.0, 0.0, 0.0, 0.0, 0.0, 0.0, 0.0, 1.700944923144784E9, 0.0, 2023-11-25 15:42:03.144
243.0, 72307.62509198488, 83076.06972170708, -16962.515349687976, -15831.762949438447, -9344.504397452403, -5497.702121460691, -19367.138369934364, 187500.0, -0.114, 0.98, 0.082, 192.0, 0.0, 0.0, 0.0, 0.0, 0.0, 0.0, 0.0, 0.0, 0.0, 1.700944923147865E9, 0.0, 2023-11-25 15:42:03.147
244.0, 72320.7232142357, 83114.82764659257, -17264.085085878978, -16103.627217248348, -9850.167912264815, -5628.035143379587, -19373.285099659577, 187500.0, -0.114, 0.98, 0.082, 192.0, 0.0, 0.0, 0.0, 0.0, 0.0, 0.0, 0.0, 0.0, 0.0, 1.700944923152477E9, 0.0, 2023-11-25 15:42:03.152
245.0, 72323.36072008141, 83119.0744780391, -17129.684046469218, -15988.426326325694, -9824.351647418935, -5622.536614243581, -19350.173395892787, 187500.0, -0.114, 0.98, 0.082, 192.0, 0.0, 0.0, 0.0, 0.0, 0.0, 0.0, 0.0, 0.0, 0.0, 1.700944923155867E9, 0.0, 2023-11-25 15:42:03.155
246.0, 72321.95256018074, 83091.60418410352, -16725.743320672907, -15422.524860206231, -9065.17464699443, -5225.301411783864, -19349.21227088121, 187500.0, -0.114, 0.976, 0.098, 192.0, 252.0, 112.0, 30.0, 128.0, 3.0, 16.0, 0.0, 0.0, 0.0, 1.700944923159846E9, 0.0, 2023-11-25 15:42:03.159
247.0, 72324.67947300429, 83084.116349711, -16933.771006318453, -15791.999196052457, -9289.720271792445, -5488.090871344909, -19373.01687872611, 187500.0, -0.114, 0.976, 0.098, 192.0, 0.0, 0.0, 0.0, 0.0, 0.0, 0.0, 0.0, 0.0, 0.0, 1.700944923163966E9, 0.0, 2023-11-25 15:42:03.163
248.0, 72305.00993788362, 83093.68289633786, -17223.226097014678, -16039.8353385729, -9744.287698780025, -5584.292779480551, -19369.64176531336, 187500.0, -0.114, 0.976, 0.098, 192.0, 0.0, 0.0, 0.0, 0.0, 0.0, 0.0, 0.0, 0.0, 0.0, 1.700944923169135E9, 0.0, 2023-11-25 15:42:03.169
249.0, 72313.50360077663, 83107.5633296446, -17228.45640521722, -16061.13655103881, -9926.610878301964, -5672.179838678818, -19371.005221725132, 187500.0, -0.114, 0.976, 0.098, 192.0, 0.0, 0.0, 0.0, 0.0, 0.0, 0.0, 0.0, 0.0, 0.0, 1.700944923172936E9, 0.0, 2023-11-25 15:42:03.172
250.0, 72313.92828392128, 83090.88892828094, -16752.96774541947, -15444.116645350057, -9129.324153581161, -5245.194464349087, -19344.74192199015, 187500.0, -0.114, 0.976, 0.098, 192.0, 0.0, 0.0, 0.0, 0.0, 0.0, 0.0, 0.0, 0.0, 0.0, 1.700944923175872E9, 0.0, 2023-11-25 15:42:03.175
251.0, 72321.19260086925, 83080.94240199834, -16887.167619129137, -15707.956636900502, -9210.438634209471, -5441.018097522032, -19379.431829384786, 187500.0, -0.114, 0.976, 0.098, 192.0, 0.0, 0.0, 0.0, 0.0, 0.0, 0.0, 0.0, 0.0, 0.0, 1.700944923179906E9, 0.0, 2023-11-25 15:42:03.179
252.0, 72313.34713856544, 83093.32526842658, -17171.86178825638, -15997.389375852274, -9645.135360376282, -5563.282139692562, -19377.084896216977, 187500.0, -0.114, 0.976, 0.098, 192.0, 0.0, 0.0, 0.0, 0.0, 0.0, 0.0, 0.0, 0.0, 0.0, 1.700944923184152E9, 0.0, 2023-11-25 15:42:03.184
253.0, 72333.01667368611, 83120.28147223967, -17293.902312982358, -16152.085799227454, -10001.042187338137, -5734.384743497938, -19390.11596323442, 187500.0, -0.114, 0.976, 0.098, 192.0, 0.0, 0.0, 0.0, 0.0, 0.0, 0.0, 0.0, 0.0, 0.0, 1.700944923187981E9, 0.0, 2023-11-25 15:42:03.187
254.0, 72328.14399339486, 83101.10367549703, -16795.07843197327, -15527.801576590728, -9239.205329323451, -5311.266220958975, -19343.333762089464, 187500.0, -0.114, 0.976, 0.098, 192.0, 0.0, 0.0, 0.0, 0.0, 0.0, 0.0, 0.0, 0.0, 0.0, 1.700944923192031E9, 0.0, 2023-11-25 15:42:03.192
255.0, 72331.69792076325, 83084.20575668881, -16849.281412277393, -15636.989848254902, -9153.844017248633, -5398.415672590217, -19386.092649232465, 187500.0, -0.114, 0.976, 0.098, 192.0, 0.0, 0.0, 0.0, 0.0, 0.0, 0.0, 0.0, 0.0, 0.0, 1.700944923196002E9, 0.0, 2023-11-25 15:42:03.196
0.0, 72323.33836833696, 83086.97737300127, -17118.552877730475, -15966.521616759494, -9563.08210648085, -5556.129581466864, -19368.814750768513, 187500.0, -0.116, 0.97, 0.092, 192.0, 252.0, 96.0, 30.0, 80.0, 2.0, 224.0, 0.0, 0.0, 0.0, 1.700944923201039E9, 0.0, 2023-11-25 15:42:03.201
1.0, 72334.60364754243, 83114.31355647011, -17325.2394587087, -16175.48807567216, -10016.531946245665, -5736.262290032183, -19390.518294634618, 187500.0, -0.116, 0.97, 0.092, 192.0, 0.0, 0.0, 0.0, 0.0, 0.0, 0.0, 0.0, 0.0, 0.0, 1.700944923203993E9, 0.0, 2023-11-25 15:42:03.203
2.0, 72327.13816489436, 83104.52349239869, -16873.465999778033, -15661.219139244455, -9397.656845767122, -5414.419521620217, -19338.706950987216, 187500.0, -0.116, 0.97, 0.092, 192.0, 0.0, 0.0, 0.0, 0.0, 0.0, 0.0, 0.0, 0.0, 0.0, 1.700944923208004E9, 0.0, 2023-11-25 15:42:03.208
3.0, 72320.27617934659, 83073.70043679481, -16800.733423320464, -15574.717888202416, -9101.22801080084, -5366.095050107843, -19379.83416078498, 187500.0, -0.116, 0.97, 0.092, 192.0, 0.0, 0.0, 0.0, 0.0, 0.0, 0.0, 0.0, 0.0, 0.0, 1.700944923212039E9, 0.0, 2023-11-25 15:42:03.212
4.0, 72315.24703684414, 83070.4594338488, -17067.65795560574, -15913.950313800611, -9473.87629435972, -5537.555281824503, -19381.376431152396, 187500.0, -0.116, 0.97, 0.092, 192.0, 0.0, 0.0, 0.0, 0.0, 0.0, 0.0, 0.0, 0.0, 0.0, 1.70094492321617E9, 0.0, 2023-11-25 15:42:03.216
5.0, 72326.28879860506, 83101.8636348085, -17337.689380370306, -16147.637802080848, -9980.009195805693, -5694.799804067588, -19409.427870443807, 187500.0, -0.116, 0.97, 0.092, 192.0, 0.0, 0.0, 0.0, 0.0, 0.0, 0.0, 0.0, 0.0, 0.0, 1.700944923220061E9, 0.0, 2023-11-25 15:42:03.220
6.0, 72327.85342071694, 83098.75674232922, -16976.55224520591, -15763.098390471745, -9555.258995921493, -5480.580685207926, -19363.20446291023, 187500.0, -0.116, 0.97, 0.092, 192.0, 0.0, 0.0, 0.0, 0.0, 0.0, 0.0, 0.0, 0.0, 0.0, 1.700944923224058E9, 0.0, 2023-11-25 15:42:03.224
7.0, 72325.30532184904, 83071.91229723839, -16772.056135184306, -15488.708375538396, -9064.057059771665, -5295.150613206699, -19384.863303287424, 187500.0, -0.116, 0.97, 0.092, 192.0, 0.0, 0.0, 0.0, 0.0, 0.0, 0.0, 0.0, 0.0, 0.0, 1.700944923229097E9, 0.0, 2023-11-25 15:42:03.229
8.0, 72323.04779565905, 83078.81898627509, -17016.517164292, -15869.38093535673, -9399.444985323547, -5518.668057759769, -19373.73213454868, 187500.0, -0.116, 0.97, 0.092, 192.0, 0.0, 0.0, 0.0, 0.0, 0.0, 0.0, 0.0, 0.0, 0.0, 1.7009449232321E9, 0.0, 2023-11-25 15:42:03.232
9.0, 72326.24409511616, 83107.18334998886, -17311.627246335418, -16127.81180474899, -9914.071549662536, -5662.8368094965, -19393.938111536278, 187500.0, -0.116, 0.97, 0.092, 192.0, 0.0, 0.0, 0.0, 0.0, 0.0, 0.0, 0.0, 0.0, 0.0, 1.70094492323511E9, 0.0, 2023-11-25 15:42:03.235
10.0, 72339.05164468904, 83117.93453907187, -17067.769714328017, -15898.572313615361, -9707.16145123976, -5572.625168874881, -19359.9187564753, 187500.0, -0.108, 0.976, 0.094, 192.0, 252.0, 160.0, 30.0, 128.0, 2.0, 240.0, 0.0, 0.0, 0.0, 1.700944923241104E9, 0.0, 2023-11-25 15:42:03.241
11.0, 72338.89518247786, 83099.89668129644, -16742.21655633647, -15449.145787852502, -9048.299079930674, -5260.617168023249, -19373.396858381853, 187500.0, -0.108, 0.976, 0.094, 192.0, 0.0, 0.0, 0.0, 0.0, 0.0, 0.0, 0.0, 0.0, 0.0, 1.700944923244208E9, 0.0, 2023-11-25 15:42:03.244
12.0, 72328.30045560605, 83084.7645503002, -16984.107134831804, -15836.143891351689, -9337.240080504427, -5513.974191424155, -19391.702937090748, 187500.0, -0.108, 0.976, 0.094, 192.0, 0.0, 0.0, 0.0, 0.0, 0.0, 0.0, 0.0, 0.0, 0.0, 1.700944923248339E9, 0.0, 2023-11-25 15:42:03.248
13.0, 72332.56963879701, 83101.8636348085, -17285.81098148954, -16097.771060201057, -9829.89488004385, -5634.226576593706, -19394.586312125484, 187500.0, -0.108, 0.976, 0.094, 192.0, 0.0, 0.0, 0.0, 0.0, 0.0, 0.0, 0.0, 0.0, 0.0, 1.700944923252229E9, 0.0, 2023-11-25 15:42:03.252
14.0, 72341.04094994557, 83112.45836168031, -17169.425448110753, -16015.78486153899, -9838.589708636966, -5653.06909716953, -19370.44642811375, 187500.0, -0.108, 0.976, 0.094, 192.0, 0.0, 0.0, 0.0, 0.0, 0.0, 0.0, 0.0, 0.0, 0.0, 1.700944923256154E9, 0.0, 2023-11-25 15:42:03.256
15.0, 72338.38109235538, 83093.48173063777, -16745.278745326847, -15452.811473943171, -9074.9423593214, -5264.863999469758, -19357.705933774225, 187500.0, -0.108, 0.976, 0.094, 192.0, 0.0, 0.0, 0.0, 0.0, 0.0, 0.0, 0.0, 0.0, 0.0, 1.70094492326018E9, 0.0, 2023-11-25 15:42:03.260
16.0, 72333.93309520878, 83077.94726824132, -16935.53679413042, -15786.590073894273, -9268.731983748912, -5501.814842440467, -19386.159704465834, 187500.0, -0.108, 0.976, 0.094, 192.0, 0.0, 0.0, 0.0, 0.0, 0.0, 0.0, 0.0, 0.0, 0.0, 1.700944923263263E9, 0.0, 2023-11-25 15:42:03.263
17.0, 72325.6182462714, 83094.9122422829, -17232.099739563437, -16043.433969430205, -9727.792111372008, -5601.816547133511, -19394.519256892116, 187500.0, -0.108, 0.976, 0.094, 192.0, 0.0, 0.0, 0.0, 0.0, 0.0, 0.0, 0.0, 0.0, 0.0, 1.700944923268198E9, 0.0, 2023-11-25 15:42:03.268
18.0, 72337.08469117698, 83109.70909711231, -17252.238661317668, -16076.13457156832, -9931.908241737872, -5691.4470423992925, -19397.760259838138, 187500.0, -0.108, 0.976, 0.094, 192.0, 0.0, 0.0, 0.0, 0.0, 0.0, 0.0, 0.0, 0.0, 0.0, 1.70094492327226E9, 0.0, 2023-11-25 15:42:03.272
19.0, 72337.79994699956, 83093.74995157123, -16774.85010324122, -15462.042744403214, -9146.602052045113, -5266.1156971592545, -19365.618451311406, 187500.0, -0.108, 0.976, 0.094, 192.0, 0.0, 0.0, 0.0, 0.0, 0.0, 0.0, 0.0, 0.0, 0.0, 1.700944923276183E9, 0.0, 2023-11-25 15:42:03.276
20.0, 72340.23628714518, 83079.46718686429, -16898.90228496817, -15704.983854887947, -9206.884706841076, -5445.957833046656, -19399.21312322773, 187500.0, -0.106, 0.976, 0.08600000000000001, 192.0, 252.0, 176.0, 30.0, 128.0, 2.0, 176.0, 0.0, 0.0, 0.0, 1.700944923280247E9, 0.0, 2023-11-25 15:42:03.280
21.0, 72332.65904577482, 83092.02886724817, -17184.490523873632, -15981.050250655444, -9627.321020045403, -5552.19567444273, -19399.727213350205, 187500.0, -0.106, 0.976, 0.08600000000000001, 192.0, 0.0, 0.0, 0.0, 0.0, 0.0, 0.0, 0.0, 0.0, 0.0, 1.700944923284302E9, 0.0, 2023-11-25 15:42:03.284
22.0, 72350.92042099481, 83126.20468452033, -17319.964447017246, -16136.081950197453, -9994.291960512634, -5713.5752694100465, -19408.26557973213, 187500.0, -0.106, 0.976, 0.08600000000000001, 192.0, 0.0, 0.0, 0.0, 0.0, 0.0, 0.0, 0.0, 0.0, 0.0, 1.700944923288289E9, 0.0, 2023-11-25 15:42:03.288
23.0, 72345.98068547019, 83113.03950703616, -16828.449586445044, -15530.707303369916, -9248.794227694778, -5305.834747056335, -19357.191843651755, 187500.0, -0.106, 0.976, 0.08600000000000001, 192.0, 0.0, 0.0, 0.0, 0.0, 0.0, 0.0, 0.0, 0.0, 0.0, 1.700944923291254E9, 0.0, 2023-11-25 15:42:03.291
24.0, 72339.63279004488, 83087.08913172355, -16867.4310287751, -15611.71002527595, -9134.465054805882, -5373.940512411656, -19401.068318017522, 187500.0, -0.106, 0.976, 0.08600000000000001, 192.0, 0.0, 0.0, 0.0, 0.0, 0.0, 0.0, 0.0, 0.0, 0.0, 1.700944923296249E9, 0.0, 2023-11-25 15:42:03.296
25.0, 72334.00015044215, 83091.1124457255, -17141.776340219538, -15948.416703750696, -9541.84794924831, -5531.8555869884, -19386.092649232465, 187500.0, -0.106, 0.976, 0.08600000000000001, 192.0, 0.0, 0.0, 0.0, 0.0, 0.0, 0.0, 0.0, 0.0, 0.0, 1.700944923300818E9, 0.0, 2023-11-25 15:42:03.300
26.0, 72346.51712733712, 83113.6653558809, -17361.605746937483, -16187.468610700203, -10016.286077056657, -5730.741409151722, -19409.003187299157, 187500.0, -0.106, 0.976, 0.08600000000000001, 192.0, 0.0, 0.0, 0.0, 0.0, 0.0, 0.0, 0.0, 0.0, 0.0, 1.700944923304277E9, 0.0, 2023-11-25 15:42:03.304
27.0, 72346.09244419247, 83108.88208256746, -16920.96345674556, -15682.922683110559, -9420.232107666983, -5417.280544910496, -19365.797265267047, 187500.0, -0.106, 0.976, 0.08600000000000001, 192.0, 0.0, 0.0, 0.0, 0.0, 0.0, 0.0, 0.0, 0.0, 0.0, 1.700944923308335E9, 0.0, 2023-11-25 15:42:03.308
28.0, 72346.80770001504, 83086.30682066761, -16823.778071853885, -15562.625594452096, -9093.360196752572, -5343.29627076343, -19398.54257089407, 187500.0, -0.106, 0.976, 0.08600000000000001, 192.0, 0.0, 0.0, 0.0, 0.0, 0.0, 0.0, 0.0, 0.0, 0.0, 1.700944923312346E9, 0.0, 2023-11-25 15:42:03.312
29.0, 72329.88742946237, 83075.19800367331, -17086.232255248102, -15910.754014343504, -9459.191198252583, -5527.653459030803, -19392.41819291332, 187500.0, -0.106, 0.976, 0.08600000000000001, 192.0, 0.0, 0.0, 0.0, 0.0, 0.0, 0.0, 0.0, 0.0, 0.0, 1.700944923316956E9, 0.0, 2023-11-25 15:42:03.316
30.0, 72342.73968252417, 83104.03175402067, -17356.28603175712, -16159.39481966434, -9969.861503822984, -5698.085510502518, -19416.781594369604, 187500.0, -0.11, 0.98, 0.08, 192.0, 252.0, 144.0, 30.0, 160.0, 2.0, 128.0, 0.0, 0.0, 0.0, 1.700944923319407E9, 0.0, 2023-11-25 15:42:03.319
31.0, 72358.4753106207, 83112.14543725795, -16999.50748676151, -15779.035184268378, -9559.550530856912, -5487.308560288973, -19368.077143201488, 187500.0, -0.11, 0.98, 0.08, 192.0, 0.0, 0.0, 0.0, 0.0, 0.0, 0.0, 0.0, 0.0, 0.0, 1.70094492332339E9, 0.0, 2023-11-25 15:42:03.323
32.0, 72363.99619150117, 83095.20281496082, -16783.70139404552, -15480.281767878745, -9047.852045041567, -5284.578238079338, -19397.73790809368, 187500.0, -0.11, 0.98, 0.08, 192.0, 0.0, 0.0, 0.0, 0.0, 0.0, 0.0, 0.0, 0.0, 0.0, 1.700944923328378E9, 0.0, 2023-11-25 15:42:03.328
33.0, 72355.77074954161, 83094.37580041598, -17033.638600544764, -15874.633595303727, -9390.683101497067, -5525.775912496557, -19399.16841973882, 187500.0, -0.11, 0.98, 0.08, 192.0, 0.0, 0.0, 0.0, 0.0, 0.0, 0.0, 0.0, 0.0, 0.0, 1.700944923332434E9, 0.0, 2023-11-25 15:42:03.332
34.0, 72344.23724940268, 83116.9734140603, -17328.636923865906, -16124.43669133624, -9902.806270457062, -5660.109896672952, -19415.46284144674, 187500.0, -0.11, 0.98, 0.08, 192.0, 0.0, 0.0, 0.0, 0.0, 0.0, 0.0, 0.0, 0.0, 0.0, 1.700944923336493E9, 0.0, 2023-11-25 15:42:03.336
35.0, 72343.2761243911, 83121.0190798067, -17096.24583676408, -15904.272008451464, -9719.991352557106, -5575.173267742785, -19374.156817693332, 187500.0, -0.11, 0.98, 0.08, 192.0, 0.0, 0.0, 0.0, 0.0, 0.0, 0.0, 0.0, 0.0, 0.0, 1.700944923340489E9, 0.0, 2023-11-25 15:42:03.340
36.0, 72339.94571446726, 83094.44285564934, -16755.247623353913, -15428.2916102757, -9040.252451926763, -5241.260557324953, -19377.26371017262, 187500.0, -0.11, 0.98, 0.08, 192.0, 0.0, 0.0, 0.0, 0.0, 0.0, 0.0, 0.0, 0.0, 0.0, 1.700944923343425E9, 0.0, 2023-11-25 15:42:03.343
37.0, 72342.89614473536, 83082.08234096556, -16987.92928313366, -15817.524888220418, -9323.739626853423, -5498.395025538805, -19393.915759791824, 187500.0, -0.11, 0.98, 0.08, 192.0, 0.0, 0.0, 0.0, 0.0, 0.0, 0.0, 0.0, 0.0, 0.0, 1.700944923347959E9, 0.0, 2023-11-25 15:42:03.347
38.0, 72346.36066512593, 83103.115332498, -17285.341594855978, -16073.184141300218, -9812.080539712972, -5610.041989093064, -19399.347233694465, 187500.0, -0.11, 0.98, 0.08, 192.0, 0.0, 0.0, 0.0, 0.0, 0.0, 0.0, 0.0, 0.0, 0.0, 1.700944923351564E9, 0.0, 2023-11-25 15:42:03.351
39.0, 72361.11281646644, 83129.35628048853, -17190.056108243003, -16020.07639647441, -9857.543987935065, -5654.566664048036, -19374.469742115707, 187500.0, -0.11, 0.98, 0.08, 192.0, 0.0, 0.0, 0.0, 0.0, 0.0, 0.0, 0.0, 0.0, 0.0, 1.700944923355472E9, 0.0, 2023-11-25 15:42:03.355
40.0, 72361.76101705564, 83109.2620622232, -16752.006620407894, -15422.010770083758, -9073.198923253885, -5235.22558632202, -19356.610698295917, 187500.0, -0.11, 0.97, 0.082, 192.0, 252.0, 144.0, 30.0, 80.0, 2.0, 144.0, 0.0, 0.0, 0.0, 1.700944923360487E9, 0.0, 2023-11-25 15:42:03.360
41.0, 72361.67161007781, 83091.13479746996, -16942.376427933745, -15741.618364050195, -9252.035230640797, -5455.546731417982, -19394.8768848034, 187500.0, -0.11, 0.97, 0.082, 192.0, 0.0, 0.0, 0.0, 0.0, 0.0, 0.0, 0.0, 0.0, 0.0, 1.700944923365626E9, 0.0, 2023-11-25 15:42:03.365
42.0, 72339.99041795617, 83096.29805043913, -17235.78777739856, -16024.83731804339, -9718.180861256225, -5574.346253197939, -19394.094573747465, 187500.0, -0.11, 0.97, 0.082, 192.0, 0.0, 0.0, 0.0, 0.0, 0.0, 0.0, 0.0, 0.0, 0.0, 1.700944923367544E9, 0.0, 2023-11-25 15:42:03.367
43.0, 72337.86700223292, 83103.09298075354, -17273.673984250305, -16098.821592190456, -9957.25511995019, -5697.41495816886, -19399.54839939456, 187500.0, -0.11, 0.97, 0.082, 192.0, 0.0, 0.0, 0.0, 0.0, 0.0, 0.0, 0.0, 0.0, 0.0, 1.700944923371523E9, 0.0, 2023-11-25 15:42:03.371
44.0, 72339.43162434478, 83090.86657653649, -16792.955016250016, -15480.68409927894, -9168.596168589136, -5272.351833862285, -19367.31718389001, 187500.0, -0.11, 0.97, 0.082, 192.0, 0.0, 0.0, 0.0, 0.0, 0.0, 0.0, 0.0, 0.0, 0.0, 1.700944923375522E9, 0.0, 2023-11-25 15:42:03.375
45.0, 72345.93598198128, 83072.02405596066, -16908.804107761873, -15701.944017642025, -9208.91871558651, -5438.492350398583, -19410.478402433208, 187500.0, -0.11, 0.97, 0.082, 192.0, 0.0, 0.0, 0.0, 0.0, 0.0, 0.0, 0.0, 0.0, 0.0, 1.700944923379531E9, 0.0, 2023-11-25 15:42:03.379
46.0, 72341.66679879032, 83083.9598874998, -17191.486619888143, -15991.108535660333, -9635.166482349216, -5559.169418712785, -19404.644597130373, 187500.0, -0.11, 0.97, 0.082, 192.0, 0.0, 0.0, 0.0, 0.0, 0.0, 0.0, 0.0, 0.0, 0.0, 1.700944923383506E9, 0.0, 2023-11-25 15:42:03.383
47.0, 72352.5744500845, 83112.92774831389, -17336.99647629219, -16154.745656817635, -10018.565954991098, -5728.908566106387, -19413.875867590414, 187500.0, -0.11, 0.97, 0.082, 192.0, 0.0, 0.0, 0.0, 0.0, 0.0, 0.0, 0.0, 0.0, 0.0, 1.700944923388534E9, 0.0, 2023-11-25 15:42:03.388
48.0, 72348.86406050493, 83103.47296040929, -16858.177406570605, -15567.40886776553, -9301.83491728722, -5341.463427718095, -19368.9712129797, 187500.0, -0.11, 0.97, 0.082, 192.0, 0.0, 0.0, 0.0, 0.0, 0.0, 0.0, 0.0, 0.0, 0.0, 1.700944923392523E9, 0.0, 2023-11-25 15:42:03.392
49.0, 72341.73385402368, 83078.84133801954, -16878.428087047112, -15635.849909287681, -9165.981014487865, -5405.188251160175, -19416.22280075822, 187500.0, -0.11, 0.97, 0.082, 192.0, 0.0, 0.0, 0.0, 0.0, 0.0, 0.0, 0.0, 0.0, 0.0, 1.700944923395553E9, 0.0, 2023-11-25 15:42:03.395
50.0, 72333.86603997542, 83082.08234096556, -17142.223375108646, -15963.124151602287, -9556.465990122078, -5560.823447802478, -19400.576579639506, 187500.0, -0.112, 0.97, 0.08, 192.0, 252.0, 128.0, 30.0, 80.0, 2.0, 128.0, 0.0, 0.0, 0.0, 1.70094492339964E9, 0.0, 2023-11-25 15:42:03.399
51.0, 72349.26639190513, 83109.79850409014, -17363.148017304902, -16186.954520577732, -10027.886632428961, -5742.923109879865, -19416.379262969407, 187500.0, -0.112, 0.97, 0.08, 192.0, 0.0, 0.0, 0.0, 0.0, 0.0, 0.0, 0.0, 0.0, 0.0, 1.700944923403562E9, 0.0, 2023-11-25 15:42:03.403
52.0, 72355.14490069686, 83113.79946634764, -16929.434767894123, -15693.495058237919, -9445.958965535041, -5436.078361997409, -19362.31039313202, 187500.0, -0.112, 0.97, 0.08, 192.0, 0.0, 0.0, 0.0, 0.0, 0.0, 0.0, 0.0, 0.0, 0.0, 1.700944923408057E9, 0.0, 2023-11-25 15:42:03.408
53.0, 72359.57054609901, 83090.75481781422, -16819.218315985003, -15556.925899615992, -9099.104595077586, -5349.711221422103, -19394.8768848034, 187500.0, -0.112, 0.97, 0.08, 192.0, 0.0, 0.0, 0.0, 0.0, 0.0, 0.0, 0.0, 0.0, 0.0, 1.700944923411612E9, 0.0, 2023-11-25 15:42:03.411
54.0, 72348.21585991573, 83077.90256475241, -17078.587958644388, -15909.547020142916, -9464.82383785532, -5537.085895190942, -19391.45706790174, 187500.0, -0.112, 0.97, 0.08, 192.0, 0.0, 0.0, 0.0, 0.0, 0.0, 0.0, 0.0, 0.0, 0.0, 1.700944923416633E9, 0.0, 2023-11-25 15:42:03.416
55.0, 72364.86790953492, 83106.0657627661, -17354.475540456242, -16166.323860445484, -9981.462059195288, -5709.283734474628, -19414.077033290512, 187500.0, -0.112, 0.97, 0.08, 192.0, 0.0, 0.0, 0.0, 0.0, 0.0, 0.0, 0.0, 0.0, 0.0, 1.700944923421085E9, 0.0, 2023-11-25 15:42:03.421
56.0, 72361.60455484445, 83102.57889063108, -17021.769824238996, -15817.994274853978, -9605.192793034648, -5528.391066597827, -19369.865282757914, 187500.0, -0.112, 0.97, 0.08, 192.0, 0.0, 0.0, 0.0, 0.0, 0.0, 0.0, 0.0, 0.0, 0.0, 1.700944923423823E9, 0.0, 2023-11-25 15:42:03.423
57.0, 72354.65316231885, 83078.7072275528, -16789.646958070633, -15494.385718630043, -9069.466181929849, -5306.997037768011, -19394.74277433667, 187500.0, -0.112, 0.97, 0.08, 192.0, 0.0, 0.0, 0.0, 0.0, 0.0, 0.0, 0.0, 0.0, 0.0, 1.700944923427678E9, 0.0, 2023-11-25 15:42:03.427
58.0, 72334.93892370927, 83065.36323611299, -17037.058417446427, -15878.56750232786, -9400.204944635028, -5541.310374892995, -19401.89533256237, 187500.0, -0.112, 0.97, 0.08, 192.0, 0.0, 0.0, 0.0, 0.0, 0.0, 0.0, 0.0, 0.0, 0.0, 1.700944923431662E9, 0.0, 2023-11-25 15:42:03.431
59.0, 72344.5725255695, 83099.53905338515, -17331.363836689456, -16133.511499585093, -9907.500136792676, -5674.750289291178, -19413.80881235705, 187500.0, -0.112, 0.97, 0.08, 192.0, 0.0, 0.0, 0.0, 0.0, 0.0, 0.0, 0.0, 0.0, 0.0, 1.700944923435666E9, 0.0, 2023-11-25 15:42:03.435
60.0, 72358.14003445389, 83107.87625406698, -17116.071834095936, -15925.193241261632, -9742.477207479145, -5598.374378487394, -19377.26371017262, 187500.0, -0.114, 0.978, 0.084, 192.0, 252.0, 112.0, 30.0, 144.0, 2.0, 160.0, 0.0, 0.0, 0.0, 1.700944923439936E9, 0.0, 2023-11-25 15:42:03.439
61.0, 72351.88154600639, 83076.360294385, -16766.423495581566, -15426.279953274723, -9047.40501015246, -5250.022441151434, -19385.757373065637, 187500.0, -0.114, 0.978, 0.084, 192.0, 0.0, 0.0, 0.0, 0.0, 0.0, 0.0, 0.0, 0.0, 0.0, 1.700944923444682E9, 0.0, 2023-11-25 15:42:03.444
62.0, 72344.3266563805, 83064.91620122388, -16992.04200411344, -15803.778565380404, -9317.145862239107, -5500.920772662255, -19404.063451774535, 187500.0, -0.114, 0.978, 0.084, 192.0, 0.0, 0.0, 0.0, 0.0, 0.0, 0.0, 0.0, 0.0, 0.0, 1.700944923448755E9, 0.0, 2023-11-25 15:42:03.448
63.0, 72345.01956045862, 83092.11827422598, -17291.175400158812, -16080.649623948291, -9812.03583622406, -5626.738742201179, -19406.16451575333, 187500.0, -0.114, 0.978, 0.084, 192.0, 0.0, 0.0, 0.0, 0.0, 0.0, 0.0, 0.0, 0.0, 0.0, 1.700944923452764E9, 0.0, 2023-11-25 15:42:03.452
64.0, 72356.64246757537, 83108.43504767836, -17208.518649163085, -16028.41359715624, -9872.318491020023, -5666.055460698064, -19385.578559109996, 187500.0, -0.114, 0.978, 0.084, 192.0, 0.0, 0.0, 0.0, 0.0, 0.0, 0.0, 0.0, 0.0, 0.0, 1.700944923455738E9, 0.0, 2023-11-25 15:42:03.455
65.0, 72350.16046168334, 83087.24559393473, -16778.672251543077, -15439.33337203662, -9100.557458467181, -5255.1409906316985, -19371.854588014437, 187500.0, -0.114, 0.978, 0.084, 192.0, 0.0, 0.0, 0.0, 0.0, 0.0, 0.0, 0.0, 0.0, 0.0, 1.700944923459714E9, 0.0, 2023-11-25 15:42:03.459
66.0, 72353.13324369589, 83069.74417802623, -16959.40845720869, -15775.570663877807, -9276.8903704751, -5495.42224352625, -19399.21312322773, 187500.0, -0.114, 0.978, 0.084, 192.0, 0.0, 0.0, 0.0, 0.0, 0.0, 0.0, 0.0, 0.0, 0.0, 1.700944923463728E9, 0.0, 2023-11-25 15:42:03.463
67.0, 72344.1254906804, 83077.12025369648, -17247.813015915515, -16050.027734044521, -9727.345076482901, -5604.677570423791, -19398.18494298279, 187500.0, -0.114, 0.978, 0.084, 192.0, 0.0, 0.0, 0.0, 0.0, 0.0, 0.0, 0.0, 0.0, 0.0, 1.700944923467757E9, 0.0, 2023-11-25 15:42:03.467
68.0, 72361.06811297752, 83101.79657957514, -17296.249246150168, -16128.504708827104, -9977.706966126796, -5728.215662028273, -19400.688338361782, 187500.0, -0.114, 0.978, 0.084, 192.0, 0.0, 0.0, 0.0, 0.0, 0.0, 0.0, 0.0, 0.0, 0.0, 1.700944923472057E9, 0.0, 2023-11-25 15:42:03.472
69.0, 72355.97191524171, 83085.8150822896, -16814.144469993647, -15499.839544277138, -9188.645683365547, -5297.676360330148, -19369.105323446434, 187500.0, -0.114, 0.978, 0.084, 192.0, 0.0, 0.0, 0.0, 0.0, 0.0, 0.0, 0.0, 0.0, 0.0, 1.700944923476744E9, 0.0, 2023-11-25 15:42:03.476
70.0, 72354.2284791742, 83063.50804132319, -16921.58930559031, -15699.842953663225, -9209.857488853633, -5450.942272060189, -19412.31124547854, 187500.0, -0.11800000000000001, 0.982, 0.08, 192.0, 252.0, 80.0, 30.0, 176.0, 2.0, 128.0, 0.0, 0.0, 0.0, 1.700944923479732E9, 0.0, 2023-11-25 15:42:03.479
71.0, 72344.52782208059, 83071.77818677165, -17195.91226529029, -15977.183398864676, -9618.827357152386, -5559.415287901794, -19403.772879096614, 187500.0, -0.11800000000000001, 0.982, 0.08, 192.0, 0.0, 0.0, 0.0, 0.0, 0.0, 0.0, 0.0, 0.0, 0.0, 1.700944923483773E9, 0.0, 2023-11-25 15:42:03.483
72.0, 72372.89218579438, 83115.81112334861, -17344.70782812927, -16144.66502006829, -10006.585419963052, -5721.756007880689, -19408.734966365693, 187500.0, -0.11800000000000001, 0.982, 0.08, 192.0, 0.0, 0.0, 0.0, 0.0, 0.0, 0.0, 0.0, 0.0, 0.0, 1.700944923487785E9, 0.0, 2023-11-25 15:42:03.487
73.0, 72369.76294157063, 83107.40686743341, -16870.023831131915, -15561.239786295866, -9296.470498617948, -5336.680154404659, -19366.69133504526, 187500.0, -0.11800000000000001, 0.982, 0.08, 192.0, 0.0, 0.0, 0.0, 0.0, 0.0, 0.0, 0.0, 0.0, 0.0, 1.700944923491819E9, 0.0, 2023-11-25 15:42:03.491
74.0, 72375.57439512902, 83084.13870145545, -16880.260930092445, -15614.258124143855, -9145.819740989178, -5391.799556231446, -19414.97110306872, 187500.0, -0.11800000000000001, 0.982, 0.08, 192.0, 0.0, 0.0, 0.0, 0.0, 0.0, 0.0, 0.0, 0.0, 0.0, 1.700944923497848E9, 0.0, 2023-11-25 15:42:03.497
75.0, 72366.70075258026, 83075.86855600699, -17147.25251761109, -15940.459482724606, -9534.829501489343, -5545.579558083959, -19407.55032390956, 187500.0, -0.11800000000000001, 0.982, 0.08, 192.0, 0.0, 0.0, 0.0, 0.0, 0.0, 0.0, 0.0, 0.0, 0.0, 1.700944923500863E9, 0.0, 2023-11-25 15:42:03.500
76.0, 72380.3800201869, 83108.65856512291, -17371.596976709006, -16161.518235387593, -10006.004274607216, -5716.503347933692, -19422.16836478333, 187500.0, -0.11800000000000001, 0.982, 0.08, 192.0, 0.0, 0.0, 0.0, 0.0, 0.0, 0.0, 0.0, 0.0, 0.0, 1.700944923504837E9, 0.0, 2023-11-25 15:42:03.504
77.0, 72366.72310432472, 83098.77909407367, -16952.993506550018, -15681.179247043045, -9450.630480126201, -5424.522510114016, -19375.609681082926, 187500.0, -0.11800000000000001, 0.982, 0.08, 192.0, 0.0, 0.0, 0.0, 0.0, 0.0, 0.0, 0.0, 0.0, 0.0, 1.700944923507824E9, 0.0, 2023-11-25 15:42:03.507
78.0, 72351.85919426194, 83071.28644839364, -16837.05500806034, -15519.240858464344, -9083.972464081344, -5319.983401296545, -19422.16836478333, 187500.0, -0.11800000000000001, 0.982, 0.08, 192.0, 0.0, 0.0, 0.0, 0.0, 0.0, 0.0, 0.0, 0.0, 0.0, 1.700944923511873E9, 0.0, 2023-11-25 15:42:03.511
79.0, 72344.72898778069, 83071.84524200503, -17099.688005410197, -15890.212761189076, -9452.351564449258, -5524.479511318149, -19424.135318295397, 187500.0, -0.11800000000000001, 0.982, 0.08, 192.0, 0.0, 0.0, 0.0, 0.0, 0.0, 0.0, 0.0, 0.0, 0.0, 1.700944923515892E9, 0.0, 2023-11-25 15:42:03.515
80.0, 72366.90191828036, 83108.45739942281, -17379.844770413016, -16153.62806959487, -9969.436820678333, -5696.587943624013, -19445.45888250576, 187500.0, -0.12, 0.986, 0.076, 192.0, 252.0, 64.0, 30.0, 208.0, 2.0, 96.0, 0.0, 0.0, 0.0, 1.700944923519901E9, 0.0, 2023-11-25 15:42:03.519
81.0, 72371.99811601617, 83108.45739942281, -17056.437379889176, -15823.805728412359, -9616.703941429132, -5526.737037508135, -19395.525085392605, 187500.0, -0.12, 0.986, 0.076, 192.0, 0.0, 0.0, 0.0, 0.0, 0.0, 0.0, 0.0, 0.0, 0.0, 1.700944923523887E9, 0.0, 2023-11-25 15:42:03.523
82.0, 72368.64535434787, 83080.69653280932, -16803.393280910645, -15484.126267925058, -9059.22908296932, -5292.915438761168, -19404.421079685817, 187500.0, -0.12, 0.986, 0.076, 192.0, 0.0, 0.0, 0.0, 0.0, 0.0, 0.0, 0.0, 0.0, 0.0, 1.700944923527914E9, 0.0, 2023-11-25 15:42:03.527
83.0, 72352.23917391768, 83063.59744830102, -17042.37813262679, -15851.834815959313, -9368.867798908686, -5514.532985035537, -19407.818544843023, 187500.0, -0.12, 0.986, 0.076, 192.0, 0.0, 0.0, 0.0, 0.0, 0.0, 0.0, 0.0, 0.0, 0.0, 1.700944923532956E9, 0.0, 2023-11-25 15:42:03.532
84.0, 72368.71240958123, 83103.00357377573, -17346.741836874706, -16108.723414984157, -9881.505057991155, -5648.554044789558, -19428.002170086165, 187500.0, -0.12, 0.986, 0.076, 192.0, 0.0, 0.0, 0.0, 0.0, 0.0, 0.0, 0.0, 0.0, 0.0, 1.700944923536042E9, 0.0, 2023-11-25 15:42:03.536
85.0, 72389.1866075023, 83124.10362054153, -17147.20781412218, -15932.412854720695, -9755.798847174508, -5599.044930821054, -19385.712669576726, 187500.0, -0.12, 0.986, 0.076, 192.0, 0.0, 0.0, 0.0, 0.0, 0.0, 0.0, 0.0, 0.0, 0.0, 1.700944923539013E9, 0.0, 2023-11-25 15:42:03.539
86.0, 72383.82218883303, 83100.90250979693, -16781.108591688706, -15430.459729487864, -9051.003641009765, -5247.831970194813, -19384.751544565148, 187500.0, -0.12, 0.986, 0.076, 192.0, 0.0, 0.0, 0.0, 0.0, 0.0, 0.0, 0.0, 0.0, 0.0, 1.700944923544055E9, 0.0, 2023-11-25 15:42:03.544
87.0, 72376.04378176258, 83084.67514332237, -16999.41807978369, -15805.678463659104, -9310.239173202417, -5498.75265345009, -19405.60572214195, 187500.0, -0.12, 0.986, 0.076, 192.0, 0.0, 0.0, 0.0, 0.0, 0.0, 0.0, 0.0, 0.0, 0.0, 1.700944923548022E9, 0.0, 2023-11-25 15:42:03.548
88.0, 72371.72989508271, 83101.72952434178, -17299.1326211849, -16063.46113246216, -9789.12529815737, -5610.086692581975, -19414.926399579814, 187500.0, -0.12, 0.986, 0.076, 192.0, 0.0, 0.0, 0.0, 0.0, 0.0, 0.0, 0.0, 0.0, 0.0, 1.700944923552003E9, 0.0, 2023-11-25 15:42:03.552
89.0, 72384.69390686679, 83111.81016109111, -17240.638105945363, -16037.130777493809, -9876.207694555247, -5668.469449099237, -19401.47064941772, 187500.0, -0.116, 0.982, 0.08, 192.0, 252.0, 96.0, 30.0, 176.0, 2.0, 128.0, 0.0, 0.0, 0.0, 1.700944923555984E9, 0.0, 2023-11-25 15:42:03.555
90.0, 72376.1331887404, 83090.39718990293, -16794.586693595254, -15439.601592970086, -9093.293141519207, -5251.89998768568, -19382.650480586348, 187500.0, -0.116, 0.982, 0.08, 192.0, 0.0, 0.0, 0.0, 0.0, 0.0, 0.0, 0.0, 0.0, 0.0, 1.700944923560005E9, 0.0, 2023-11-25 15:42:03.560
91.0, 72373.47333115022, 83080.6071258315, -16968.03623056844, -15756.728143301982, -9250.738829462389, -5479.776022407535, -19416.22280075822, 187500.0, -0.116, 0.982, 0.08, 192.0, 0.0, 0.0, 0.0, 0.0, 0.0, 0.0, 0.0, 0.0, 0.0, 1.700944923563995E9, 0.0, 2023-11-25 15:42:03.563
92.0, 72359.19056644327, 83094.93459402736, -17252.730399695683, -16025.440815143684, -9692.476355132623, -5582.281122479573, -19411.68539663379, 187500.0, -0.116, 0.982, 0.08, 192.0, 0.0, 0.0, 0.0, 0.0, 0.0, 0.0, 0.0, 0.0, 0.0, 1.700944923567108E9, 0.0, 2023-11-25 15:42:03.567
93.0, 72370.12056948192, 83113.53124541417, -17314.018882992135, -16108.388138817329, -9958.909149039882, -5704.70162686129, -19417.496850192172, 187500.0, -0.116, 0.982, 0.08, 192.0, 0.0, 0.0, 0.0, 0.0, 0.0, 0.0, 0.0, 0.0, 0.0, 1.7009449235721E9, 0.0, 2023-11-25 15:42:03.572
94.0, 72370.99228751568, 83097.28152719517, -16829.835394601276, -15485.042689447724, -9180.464944894904, -5277.2692176424525, -19383.388088153373, 187500.0, -0.116, 0.982, 0.08, 192.0, 0.0, 0.0, 0.0, 0.0, 0.0, 0.0, 0.0, 0.0, 0.0, 1.700944923576093E9, 0.0, 2023-11-25 15:42:03.576
95.0, 72380.335316698, 83079.73540779775, -16920.53877360091, -15671.925624838546, -9182.297787940239, -5422.8461292798675, -19418.52503043712, 187500.0, -0.116, 0.982, 0.08, 192.0, 0.0, 0.0, 0.0, 0.0, 0.0, 0.0, 0.0, 0.0, 0.0, 1.700944923580173E9, 0.0, 2023-11-25 15:42:03.580
96.0, 72373.11570323893, 83086.03859973415, -17195.845210056927, -15966.856892926324, -9592.541705672946, -5543.590252827436, -19407.259751231642, 187500.0, -0.116, 0.982, 0.08, 192.0, 0.0, 0.0, 0.0, 0.0, 0.0, 0.0, 0.0, 0.0, 0.0, 1.700944923584063E9, 0.0, 2023-11-25 15:42:03.584
97.0, 72387.17495050133, 83114.09003902556, -17359.839959125515, -16144.597964834926, -9992.369710489478, -5709.373141452449, -19421.922495594325, 187500.0, -0.116, 0.982, 0.08, 192.0, 0.0, 0.0, 0.0, 0.0, 0.0, 0.0, 0.0, 0.0, 0.0, 1.700944923588082E9, 0.0, 2023-11-25 15:42:03.588
98.0, 72383.91159581085, 83105.97635578828, -16888.128744140715, -15575.567254491718, -9302.259600431873, -5339.8988056062235, -19375.274404916097, 187500.0, -0.116, 0.982, 0.08, 192.0, 0.0, 0.0, 0.0, 0.0, 0.0, 0.0, 0.0, 0.0, 0.0, 1.700944923592077E9, 0.0, 2023-11-25 15:42:03.592
99.0, 72388.56075865755, 83090.10661722501, -16879.523322525423, -15596.019100668324, -9118.774130198257, -5371.258303077019, -19411.730100122702, 187500.0, -0.114, 0.976, 0.078, 192.0, 252.0, 112.0, 30.0, 128.0, 2.0, 112.0, 0.0, 0.0, 0.0, 1.700944923595076E9, 0.0, 2023-11-25 15:42:03.595
100.0, 72374.03212476161, 83084.5633846001, -17150.627631023843, -15928.322485485374, -9506.912172664664, -5532.660249788792, -19402.632940129395, 187500.0, -0.114, 0.976, 0.078, 192.0, 0.0, 0.0, 0.0, 0.0, 0.0, 0.0, 0.0, 0.0, 0.0, 1.700944923601374E9, 0.0, 2023-11-25 15:42:03.601
101.0, 72394.95335757177, 83119.58856816156, -17384.113953603977, -16159.238357453152, -9987.742899387229, -5707.048560029097, -19417.809774614547, 187500.0, -0.114, 0.976, 0.078, 192.0, 0.0, 0.0, 0.0, 0.0, 0.0, 0.0, 0.0, 0.0, 0.0, 1.700944923604091E9, 0.0, 2023-11-25 15:42:03.604
102.0, 72391.62294764793, 83117.80042860514, -16972.88655911524, -15697.2054478175, -9454.944366806074, -5429.484597383094, -19372.391029881364, 187500.0, -0.114, 0.976, 0.078, 192.0, 0.0, 0.0, 0.0, 0.0, 0.0, 0.0, 0.0, 0.0, 0.0, 1.700944923608101E9, 0.0, 2023-11-25 15:42:03.608
103.0, 72389.61129064695, 83093.92876552687, -16839.021961572405, -15506.612122847097, -9060.234911469808, -5308.516956390972, -19408.42204194332, 187500.0, -0.114, 0.976, 0.078, 192.0, 0.0, 0.0, 0.0, 0.0, 0.0, 0.0, 0.0, 0.0, 0.0, 1.700944923612128E9, 0.0, 2023-11-25 15:42:03.612
104.0, 72381.69877310978, 83093.01234400421, -17102.079642066914, -15881.517932595962, -9424.613049580223, -5521.797301983512, -19407.662082631836, 187500.0, -0.114, 0.976, 0.078, 192.0, 0.0, 0.0, 0.0, 0.0, 0.0, 0.0, 0.0, 0.0, 0.0, 1.70094492361622E9, 0.0, 2023-11-25 15:42:03.616
105.0, 72390.8853400809, 83128.37280373249, -17386.05855537159, -16147.8613195254, -9939.910166252872, -5688.809536553566, -19427.286914263597, 187500.0, -0.114, 0.976, 0.078, 192.0, 0.0, 0.0, 0.0, 0.0, 0.0, 0.0, 0.0, 0.0, 0.0, 1.700944923620176E9, 0.0, 2023-11-25 15:42:03.620
106.0, 72407.78325888912, 83134.7206991578, -17075.078734764902, -15830.734769193503, -9612.591220449356, -5530.603889298903, -19381.152913707843, 187500.0, -0.114, 0.976, 0.078, 192.0, 0.0, 0.0, 0.0, 0.0, 0.0, 0.0, 0.0, 0.0, 0.0, 1.700944923623193E9, 0.0, 2023-11-25 15:42:03.623
107.0, 72409.21377053426, 83113.71005936981, -16813.38451068217, -15463.316793837166, -9041.258280427252, -5278.409156609673, -19402.610588384938, 187500.0, -0.114, 0.976, 0.078, 192.0, 0.0, 0.0, 0.0, 0.0, 0.0, 0.0, 0.0, 0.0, 0.0, 1.700944923627178E9, 0.0, 2023-11-25 15:42:03.627
108.0, 72397.09912503947, 83104.47878890978, -17048.636621074274, -15853.33238283782, -9357.021374347374, -5522.356095594895, -19398.900198805357, 187500.0, -0.114, 0.976, 0.078, 192.0, 0.0, 0.0, 0.0, 0.0, 0.0, 0.0, 0.0, 0.0, 0.0, 1.700944923632185E9, 0.0, 2023-11-25 15:42:03.632
109.0, 72387.10789526795, 83115.09586752605, -17353.40265672239, -16109.595133017914, -9862.684889159786, -5650.4762948127145, -19418.65914090385, 187500.0, -0.106, 0.98, 0.074, 192.0, 252.0, 176.0, 30.0, 160.0, 2.0, 80.0, 0.0, 0.0, 0.0, 1.700944923636204E9, 0.0, 2023-11-25 15:42:03.636
110.0, 72398.30611924006, 83128.35045198804, -17172.375878378854, -15953.982288120067, -9765.343042056924, -5618.222727563707, -19383.656309086837, 187500.0, -0.106, 0.98, 0.074, 192.0, 0.0, 0.0, 0.0, 0.0, 0.0, 0.0, 0.0, 0.0, 0.0, 1.700944923640656E9, 0.0, 2023-11-25 15:42:03.640
111.0, 72391.22061624774, 83109.55263490113, -16796.017205240394, -15441.30032554869, -9052.389449165994, -5261.466534312551, -19382.516370119618, 187500.0, -0.106, 0.98, 0.074, 192.0, 0.0, 0.0, 0.0, 0.0, 0.0, 0.0, 0.0, 0.0, 0.0, 1.700944923643579E9, 0.0, 2023-11-25 15:42:03.643
112.0, 72379.37419168642, 83088.94432651333, -17008.403481054724, -15794.904922831647, -9291.195486926496, -5500.2055168396855, -19412.51241117864, 187500.0, -0.106, 0.98, 0.074, 192.0, 0.0, 0.0, 0.0, 0.0, 0.0, 0.0, 0.0, 0.0, 0.0, 1.700944923647266E9, 0.0, 2023-11-25 15:42:03.647
113.0, 72384.5374446556, 83108.32328895609, -17310.107327712456, -16052.732295123613, -9767.466457780178, -5604.655218679335, -19418.12269903692, 187500.0, -0.106, 0.98, 0.074, 192.0, 0.0, 0.0, 0.0, 0.0, 0.0, 0.0, 0.0, 0.0, 0.0, 1.700944923651472E9, 0.0, 2023-11-25 15:42:03.651
114.0, 72397.70262213977, 83126.33879498707, -17261.06760037751, -16032.436911158195, -9875.023052099115, -5663.574417063524, -19399.861323816935, 187500.0, -0.106, 0.98, 0.074, 192.0, 0.0, 0.0, 0.0, 0.0, 0.0, 0.0, 0.0, 0.0, 0.0, 1.700944923655291E9, 0.0, 2023-11-25 15:42:03.655
115.0, 72402.41884021983, 83118.51568442771, -16806.79074606785, -15437.76874992475, -9091.907333362977, -5253.643423753193, -19376.257881672132, 187500.0, -0.106, 0.98, 0.074, 192.0, 0.0, 0.0, 0.0, 0.0, 0.0, 0.0, 0.0, 0.0, 0.0, 1.70094492365927E9, 0.0, 2023-11-25 15:42:03.659
116.0, 72407.31387225556, 83099.69551559634, -16963.677640399652, -15728.050855165822, -9220.362808747626, -5463.481600699616, -19407.03623378709, 187500.0, -0.106, 0.98, 0.074, 192.0, 0.0, 0.0, 0.0, 0.0, 0.0, 0.0, 0.0, 0.0, 0.0, 1.700944923664335E9, 0.0, 2023-11-25 15:42:03.664
117.0, 72406.17393328833, 83114.11239077001, -17255.010277630125, -16000.40686135374, -9662.279148373504, -5569.071241506486, -19410.724271622214, 187500.0, -0.106, 0.98, 0.074, 192.0, 0.0, 0.0, 0.0, 0.0, 0.0, 0.0, 0.0, 0.0, 0.0, 1.700944923668334E9, 0.0, 2023-11-25 15:42:03.668
118.0, 72427.40809052087, 83143.99667310675, -17331.408540178363, -16111.182106874241, -9955.936367027327, -5711.496557175703, -19409.85255358846, 187500.0, -0.106, 0.98, 0.074, 192.0, 0.0, 0.0, 0.0, 0.0, 0.0, 0.0, 0.0, 0.0, 0.0, 1.700944923671341E9, 0.0, 2023-11-25 15:42:03.671
119.0, 72416.70160492678, 83119.23094025027, -16837.27852550489, -15481.332299868143, -9177.514514626804, -5281.8513252557905, -19368.479474601685, 187500.0, -0.108, 0.978, 0.07200000000000001, 192.0, 252.0, 160.0, 30.0, 144.0, 2.0, 64.0, 0.0, 0.0, 0.0, 1.700944923675361E9, 0.0, 2023-11-25 15:42:03.675
120.0, 72413.59471244749, 83092.58766085956, -16920.024683478438, -15640.834348301214, -9155.073363193675, -5404.271829637508, -19413.54059142358, 187500.0, -0.108, 0.978, 0.07200000000000001, 192.0, 0.0, 0.0, 0.0, 0.0, 0.0, 0.0, 0.0, 0.0, 0.0, 1.700944923679417E9, 0.0, 2023-11-25 15:42:03.679
121.0, 72408.69968041178, 83101.03662026365, -17199.60030312542, -15947.612040950304, -9570.681699595654, -5535.320107378973, -19406.32097796452, 187500.0, -0.108, 0.978, 0.07200000000000001, 192.0, 0.0, 0.0, 0.0, 0.0, 0.0, 0.0, 0.0, 0.0, 0.0, 1.700944923683392E9, 0.0, 2023-11-25 15:42:03.683
122.0, 72426.15639283138, 83137.6711294259, -17379.10716284599, -16147.883671269856, -9994.180201790357, -5720.37019972446, -19419.910838593347, 187500.0, -0.108, 0.978, 0.07200000000000001, 192.0, 0.0, 0.0, 0.0, 0.0, 0.0, 0.0, 0.0, 0.0, 0.0, 1.700944923687645E9, 0.0, 2023-11-25 15:42:03.687
123.0, 72417.99800610519, 83125.66824265341, -16904.66903503764, -15575.388440536075, -9309.814490057766, -5347.073715576376, -19372.25691941463, 187500.0, -0.108, 0.978, 0.07200000000000001, 192.0, 0.0, 0.0, 0.0, 0.0, 0.0, 0.0, 0.0, 0.0, 0.0, 1.700944923691378E9, 0.0, 2023-11-25 15:42:03.691
124.0, 72421.66369219586, 83102.64594586444, -16882.47375279352, -15563.139684574568, -9098.635208444024, -5353.555721468416, -19423.978856084213, 187500.0, -0.108, 0.978, 0.07200000000000001, 192.0, 0.0, 0.0, 0.0, 0.0, 0.0, 0.0, 0.0, 0.0, 0.0, 1.70094492369642E9, 0.0, 2023-11-25 15:42:03.696
125.0, 72404.89988385438, 83102.80240807563, -17152.81810198046, -15908.80941257589, -9490.081309089817, -5526.848796230412, -19418.45797520375, 187500.0, -0.108, 0.978, 0.07200000000000001, 192.0, 0.0, 0.0, 0.0, 0.0, 0.0, 0.0, 0.0, 0.0, 0.0, 1.700944923699428E9, 0.0, 2023-11-25 15:42:03.699
126.0, 72407.35857574447, 83128.61867292151, -17400.29661658962, -16150.118845715386, -9982.512591184688, -5703.695798360801, -19437.881641135413, 187500.0, -0.108, 0.978, 0.07200000000000001, 192.0, 0.0, 0.0, 0.0, 0.0, 0.0, 0.0, 0.0, 0.0, 0.0, 1.700944923703507E9, 0.0, 2023-11-25 15:42:03.703
127.0, 72409.59375018999, 83121.08613504007, -17000.44626002863, -15708.604837489705, -9476.69261416109, -5444.102638256864, -19388.484285889183, 187500.0, -0.108, 0.978, 0.07200000000000001, 192.0, 0.0, 0.0, 0.0, 0.0, 0.0, 0.0, 0.0, 0.0, 0.0, 1.700944923707429E9, 0.0, 2023-11-25 15:42:03.707
128.0, 72417.14863981589, 83102.37772493098, -16835.892717348663, -15495.59271283063, -9051.920062532434, -5306.684113345637, -19408.667911132325, 187500.0, -0.108, 0.978, 0.07200000000000001, 192.0, 0.0, 0.0, 0.0, 0.0, 0.0, 0.0, 0.0, 0.0, 0.0, 1.700944923711487E9, 0.0, 2023-11-25 15:42:03.711
129.0, 72400.58599717451, 83092.83353004856, -17098.57041818743, -15864.798827743392, -9404.921162715098, -5517.461063559183, -19407.37150995392, 187500.0, -0.108, 0.986, 0.07200000000000001, 192.0, 252.0, 160.0, 30.0, 208.0, 2.0, 64.0, 0.0, 0.0, 0.0, 1.700944923715511E9, 0.0, 2023-11-25 15:42:03.715
130.0, 72410.95720660177, 83124.21537926381, -17392.160581607888, -16121.9556477017, -9922.274639877634, -5672.626873567924, -19429.27621952012, 187500.0, -0.108, 0.986, 0.07200000000000001, 192.0, 0.0, 0.0, 0.0, 0.0, 0.0, 0.0, 0.0, 0.0, 0.0, 1.700944923719468E9, 0.0, 2023-11-25 15:42:03.719
131.0, 72418.91442762785, 83124.79652461965, -17100.783240888508, -15832.634667472204, -9627.365723534313, -5534.515444578582, -19384.908006776335, 187500.0, -0.108, 0.986, 0.07200000000000001, 192.0, 0.0, 0.0, 0.0, 0.0, 0.0, 0.0, 0.0, 0.0, 0.0, 1.700944923724516E9, 0.0, 2023-11-25 15:42:03.724
132.0, 72416.61219794895, 83101.0142685192, -16819.844164829752, -15450.218671586355, -9034.195129179374, -5273.581179807327, -19399.011957527633, 187500.0, -0.108, 0.986, 0.07200000000000001, 192.0, 0.0, 0.0, 0.0, 0.0, 0.0, 0.0, 0.0, 0.0, 0.0, 1.700944923727492E9, 0.0, 2023-11-25 15:42:03.727
133.0, 72413.72882291423, 83098.13089348447, -17061.488874136077, -15834.46751051754, -9342.202167773507, -5516.94697343671, -19407.55032390956, 187500.0, -0.108, 0.986, 0.07200000000000001, 192.0, 0.0, 0.0, 0.0, 0.0, 0.0, 0.0, 0.0, 0.0, 0.0, 1.700944923730505E9, 0.0, 2023-11-25 15:42:03.730
134.0, 72425.48584049771, 83129.62450142199, -17368.95947086328, -16109.729243484646, -9854.973537322705, -5654.857236725955, -19424.02355957312, 187500.0, -0.108, 0.986, 0.07200000000000001, 192.0, 0.0, 0.0, 0.0, 0.0, 0.0, 0.0, 0.0, 0.0, 0.0, 1.70094492373552E9, 0.0, 2023-11-25 15:42:03.735
135.0, 72427.63160796542, 83133.4690014683, -17200.986111281647, -15962.744171946548, -9776.228341606658, -5628.1692538463185, -19398.207294727243, 187500.0, -0.108, 0.986, 0.07200000000000001, 192.0, 0.0, 0.0, 0.0, 0.0, 0.0, 0.0, 0.0, 0.0, 0.0, 1.700944923739526E9, 0.0, 2023-11-25 15:42:03.739
136.0, 72419.78614566161, 83113.620652392, -16808.08714724626, -15422.658970672963, -9044.588690351093, -5253.9116446866565, -19396.93324529329, 187500.0, -0.108, 0.986, 0.07200000000000001, 192.0, 0.0, 0.0, 0.0, 0.0, 0.0, 0.0, 0.0, 0.0, 0.0, 1.700944923743543E9, 0.0, 2023-11-25 15:42:03.743
137.0, 72405.57043618803, 83094.35344867152, -17019.60170502683, -15780.420992424608, -9279.617283298647, -5499.691426717213, -19422.123661294423, 187500.0, -0.108, 0.986, 0.07200000000000001, 192.0, 0.0, 0.0, 0.0, 0.0, 0.0, 0.0, 0.0, 0.0, 0.0, 1.700944923747593E9, 0.0, 2023-11-25 15:42:03.747
138.0, 72398.17200877333, 83110.35729770151, -17313.840069036494, -16032.45926290265, -9744.555919713488, -5595.736872641668, -19426.28108576311, 187500.0, -0.108, 0.986, 0.07200000000000001, 192.0, 0.0, 0.0, 0.0, 0.0, 0.0, 0.0, 0.0, 0.0, 0.0, 1.700944923752601E9, 0.0, 2023-11-25 15:42:03.752
139.0, 72413.03591883612, 83130.58562643357, -17283.95578669975, -16022.199812197665, -9876.542970722077, -5659.841675739489, -19424.69411190678, 187500.0, -0.112, 0.98, 0.068, 192.0, 252.0, 128.0, 30.0, 160.0, 2.0, 32.0, 0.0, 0.0, 0.0, 1.700944923755583E9, 0.0, 2023-11-25 15:42:03.755
140.0, 72418.9367793723, 83120.92967282888, -16819.263019473914, -15420.781424138717, -9092.913161863466, -5246.267348082942, -19400.241303472674, 187500.0, -0.112, 0.98, 0.068, 192.0, 0.0, 0.0, 0.0, 0.0, 0.0, 0.0, 0.0, 0.0, 0.0, 1.700944923758557E9, 0.0, 2023-11-25 15:42:03.758
141.0, 72417.93095087183, 83101.14837898593, -16972.819503881874, -15704.000378131912, -9211.690331898968, -5454.473847684128, -19435.713521923248, 187500.0, -0.112, 0.98, 0.068, 192.0, 0.0, 0.0, 0.0, 0.0, 0.0, 0.0, 0.0, 0.0, 0.0, 1.70094492376359E9, 0.0, 2023-11-25 15:42:03.763
142.0, 72410.28665426811, 83114.69353612585, -17261.738152711172, -15988.06869841441, -9657.898206460262, -5568.512447895104, -19436.071149834534, 187500.0, -0.112, 0.98, 0.068, 192.0, 0.0, 0.0, 0.0, 0.0, 0.0, 0.0, 0.0, 0.0, 0.0, 1.700944923767711E9, 0.0, 2023-11-25 15:42:03.767
143.0, 72434.02420687965, 83152.66914995541, -17344.551365918083, -16110.33274058494, -9964.944120042815, -5713.910545576876, -19435.780577156613, 187500.0, -0.112, 0.98, 0.068, 192.0, 0.0, 0.0, 0.0, 0.0, 0.0, 0.0, 0.0, 0.0, 0.0, 1.700944923771617E9, 0.0, 2023-11-25 15:42:03.771
144.0, 72440.08152962703, 83141.4709259833, -16850.28724077788, -15498.766660543282, -9195.597075891146, -5300.537383620427, -19393.625187113907, 187500.0, -0.112, 0.98, 0.068, 192.0, 0.0, 0.0, 0.0, 0.0, 0.0, 0.0, 0.0, 0.0, 0.0, 1.700944923775597E9, 0.0, 2023-11-25 15:42:03.775
145.0, 72438.94159065982, 83112.70423086932, -16914.5932095758, -15644.589441369706, -9144.769208999778, -5417.079379210399, -19433.634809688905, 187500.0, -0.112, 0.98, 0.068, 192.0, 0.0, 0.0, 0.0, 0.0, 0.0, 0.0, 0.0, 0.0, 0.0, 1.700944923779618E9, 0.0, 2023-11-25 15:42:03.779
146.0, 72414.2429130367, 83112.70423086932, -17196.49341064613, -15943.432264737163, -9549.872225507765, -5540.349249881417, -19432.807795144057, 187500.0, -0.112, 0.98, 0.068, 192.0, 0.0, 0.0, 0.0, 0.0, 0.0, 0.0, 0.0, 0.0, 0.0, 1.700944923783655E9, 0.0, 2023-11-25 15:42:03.783
147.0, 72431.40905277837, 83143.3261207731, -17392.652319985908, -16161.62999410987, -9993.21907677878, -5733.982412097742, -19443.80485341607, 187500.0, -0.112, 0.98, 0.068, 192.0, 0.0, 0.0, 0.0, 0.0, 0.0, 0.0, 0.0, 0.0, 0.0, 1.700944923786734E9, 0.0, 2023-11-25 15:42:03.786
148.0, 72421.06019509556, 83118.00159430523, -16922.863355024263, -15605.89857171757, -9328.791121100321, -5375.415727545706, -19390.473591145706, 187500.0, -0.112, 0.98, 0.068, 192.0, 0.0, 0.0, 0.0, 0.0, 0.0, 0.0, 0.0, 0.0, 0.0, 1.700944923791689E9, 0.0, 2023-11-25 15:42:03.791
149.0, 72415.40520374838, 83090.50894862521, -16884.97714817252, -15567.498274743353, -9091.303836262685, -5362.697584950636, -19433.88067887791, 187500.0, -0.112, 0.982, 0.07, 192.0, 252.0, 128.0, 30.0, 176.0, 2.0, 48.0, 0.0, 0.0, 0.0, 1.700944923795657E9, 0.0, 2023-11-25 15:42:03.795
150.0, 72412.52182871364, 83096.61097486151, -17150.761741490573, -15921.684017382147, -9478.592512439789, -5547.725325551668, -19415.306379235553, 187500.0, -0.112, 0.982, 0.07, 192.0, 0.0, 0.0, 0.0, 0.0, 0.0, 0.0, 0.0, 0.0, 0.0, 1.700944923799717E9, 0.0, 2023-11-25 15:42:03.799
151.0, 72429.68796845531, 83130.85384736703, -17401.63772125694, -16154.633898095359, -9965.748782843208, -5714.089359532519, -19427.286914263597, 187500.0, -0.112, 0.982, 0.07, 192.0, 0.0, 0.0, 0.0, 0.0, 0.0, 0.0, 0.0, 0.0, 0.0, 1.700944923803709E9, 0.0, 2023-11-25 15:42:03.803
152.0, 72438.11457611497, 83133.53605670168, -17005.475402531076, -15724.094596397234, -9474.613901926745, -5458.519513430538, -19371.943994992256, 187500.0, -0.112, 0.982, 0.07, 192.0, 0.0, 0.0, 0.0, 0.0, 0.0, 0.0, 0.0, 0.0, 0.0, 1.700944923807791E9, 0.0, 2023-11-25 15:42:03.807
153.0, 72425.41878526435, 83100.65664060792, -16834.976295825996, -15481.309948123688, -9025.880280242, -5294.368302150763, -19411.03719604459, 187500.0, -0.112, 0.982, 0.07, 192.0, 0.0, 0.0, 0.0, 0.0, 0.0, 0.0, 0.0, 0.0, 0.0, 1.700944923811691E9, 0.0, 2023-11-25 15:42:03.811
154.0, 72404.31873849854, 83090.21837594728, -17100.3362059994, -15862.429542831129, -9384.201095605027, -5514.555336779993, -19417.720367636724, 187500.0, -0.112, 0.982, 0.07, 192.0, 0.0, 0.0, 0.0, 0.0, 0.0, 0.0, 0.0, 0.0, 0.0, 1.700944923814755E9, 0.0, 2023-11-25 15:42:03.814
155.0, 72414.15350605888, 83123.3213094856, -17400.520134034174, -16134.964362974688, -9917.446663075289, -5679.801783538078, -19442.307286537565, 187500.0, -0.112, 0.982, 0.07, 192.0, 0.0, 0.0, 0.0, 0.0, 0.0, 0.0, 0.0, 0.0, 0.0, 1.700944923819057E9, 0.0, 2023-11-25 15:42:03.819
156.0, 72420.90373288438, 83128.17163803239, -17124.654903966773, -15873.538359825418, -9660.558064050445, -5568.870075806389, -19402.677643618303, 187500.0, -0.112, 0.982, 0.07, 192.0, 0.0, 0.0, 0.0, 0.0, 0.0, 0.0, 0.0, 0.0, 0.0, 1.700944923824107E9, 0.0, 2023-11-25 15:42:03.824
157.0, 72417.595674705, 83103.71882959829, -16817.743100850952, -15444.921308150448, -9029.143634932476, -5271.770688506447, -19410.053719288557, 187500.0, -0.112, 0.982, 0.07, 192.0, 0.0, 0.0, 0.0, 0.0, 0.0, 0.0, 0.0, 0.0, 0.0, 1.700944923827735E9, 0.0, 2023-11-25 15:42:03.827
158.0, 72399.82603786302, 83087.44675963483, -17059.65603109074, -15817.860164387246, -9324.410179187082, -5507.000447154099, -19422.74951013917, 187500.0, -0.112, 0.982, 0.07, 192.0, 0.0, 0.0, 0.0, 0.0, 0.0, 0.0, 0.0, 0.0, 0.0, 1.700944923831765E9, 0.0, 2023-11-25 15:42:03.831
159.0, 72408.38675598941, 83113.0171552917, -17367.886587129426, -16082.907150138279, -9832.75590333413, -5633.645431237868, -19438.574545213527, 187500.0, -0.11, 0.984, 0.07, 192.0, 252.0, 144.0, 30.0, 192.0, 2.0, 48.0, 0.0, 0.0, 0.0, 1.700944923837828E9, 0.0, 2023-11-25 15:42:03.837
160.0, 72434.76181444667, 83133.98309159078, -17218.755748123618, -15978.122172131798, -9796.07669068297, -5637.534634773092, -19410.388995455385, 187500.0, -0.11, 0.984, 0.07, 192.0, 0.0, 0.0, 0.0, 0.0, 0.0, 0.0, 0.0, 0.0, 0.0, 1.700944923840828E9, 0.0, 2023-11-25 15:42:03.840
161.0, 72423.92121838585, 83106.84807382204, -16803.348577421737, -15426.615229441551, -9043.225233939318, -5254.939824931601, -19398.900198805357, 187500.0, -0.11, 0.984, 0.07, 192.0, 0.0, 0.0, 0.0, 0.0, 0.0, 0.0, 0.0, 0.0, 0.0, 1.700944923843924E9, 0.0, 2023-11-25 15:42:03.843
162.0, 72417.3945090049, 83083.89283226643, -17011.264504345003, -15788.55702740634, -9266.385050581104, -5507.000447154099, -19423.867097361934, 187500.0, -0.11, 0.984, 0.07, 192.0, 0.0, 0.0, 0.0, 0.0, 0.0, 0.0, 0.0, 0.0, 0.0, 1.700944923847858E9, 0.0, 2023-11-25 15:42:03.847
