%OpenBCI Raw EXG Data
%Number of channels = 8
%Sample Rate = 250 Hz
%Board = OpenBCI_GUI$BoardCytonSerial
Sample Index, EXG Channel 0, EXG Channel 1, EXG Channel 2, EXG Channel 3, EXG Channel 4, EXG Channel 5, EXG Channel 6, EXG Channel 7, Accel Channel 0, Accel Channel 1, Accel Channel 2, Other, Other, Other, Other, Other, Other, Other, Analog Channel 0, Analog Channel 1, Analog Channel 2, Timestamp, Other, Timestamp (Formatted)
4.0, 76506.17677046976, 83343.53069585928, -11895.486640392142, -9964.653547364896, -4359.350128096357, -3016.6808386660623, -15869.984432457022, 187500.0, -0.164, 0.9540000000000001, 0.186, 192.0, 250.0, 224.0, 29.0, 208.0, 5.0, 208.0, 0.0, 0.0, 0.0, 1.700945584572288E9, 0.0, 2023-11-25 15:53:04.572
5.0, 76523.6111311449, 83393.21862378342, -12501.196563386507, -10621.0572267839, -5122.706904734005, -3758.8034580711674, -15935.832671622358, 187500.0, -0.164, 0.9540000000000001, 0.186, 192.0, 0.0, 0.0, 0.0, 0.0, 0.0, 0.0, 0.0, 0.0, 0.0, 1.700945584572339E9, 0.0, 2023-11-25 15:53:04.572
6.0, 76549.65091343534, 83360.89800130106, -11475.810286499296, -9807.029045466072, -4078.0757758707737, -3168.6950527066056, -15730.353084844719, 187500.0, -0.164, 0.9540000000000001, 0.186, 192.0, 0.0, 0.0, 0.0, 0.0, 0.0, 0.0, 0.0, 0.0, 0.0, 1.700945584572355E9, 0.0, 2023-11-25 15:53:04.572
0.0, 0.0, 0.0, 0.0, 0.0, 0.0, 0.0, 0.0, 0.0, -0.164, 0.9540000000000001, 0.186, 192.0, 0.0, 0.0, 0.0, 0.0, 0.0, 0.0, 0.0, 0.0, 0.0, 1.700945584657575E9, 0.0, 2023-11-25 15:53:04.657
1.0, 76347.34527437035, 82585.67244835764, -11173.301777041172, -9442.24857595546, -3973.715481008945, -2951.4360966010213, -15780.018661024413, 187500.0, -0.15, 0.9520000000000001, 0.168, 192.0, 251.0, 80.0, 29.0, 192.0, 5.0, 64.0, 0.0, 0.0, 0.0, 1.700945584673584E9, 0.0, 2023-11-25 15:53:04.673
2.0, 76347.38997785926, 82639.18252458365, -11860.103828919391, -10002.427995494365, -4698.895478116927, -3393.3300844824416, -15867.95042371159, 187500.0, -0.15, 0.9520000000000001, 0.168, 192.0, 0.0, 0.0, 0.0, 0.0, 0.0, 0.0, 0.0, 0.0, 0.0, 1.700945584676689E9, 0.0, 2023-11-25 15:53:04.676
3.0, 76359.86225126532, 82663.50122255101, -12156.97969877478, -10583.61805482126, -5192.1537747566435, -4094.034921411863, -15853.51119679346, 187500.0, -0.15, 0.9520000000000001, 0.168, 192.0, 0.0, 0.0, 0.0, 0.0, 0.0, 0.0, 0.0, 0.0, 0.0, 1.700945584680628E9, 0.0, 2023-11-25 15:53:04.680
4.0, 76377.78835031849, 82615.42262022765, -10891.982721326676, -9346.359592242194, -3792.398129987494, -3070.883818970182, -15650.177377483533, 187500.0, -0.15, 0.9520000000000001, 0.168, 192.0, 0.0, 0.0, 0.0, 0.0, 0.0, 0.0, 0.0, 0.0, 0.0, 1.700945584684607E9, 0.0, 2023-11-25 15:53:04.684
5.0, 76357.89529775326, 82590.9474600491, -11064.471133288282, -9334.915499081077, -3852.8372469946444, -2899.9153256315385, -15763.724239316492, 187500.0, -0.15, 0.9520000000000001, 0.168, 192.0, 0.0, 0.0, 0.0, 0.0, 0.0, 0.0, 0.0, 0.0, 0.0, 1.700945584688679E9, 0.0, 2023-11-25 15:53:04.688
6.0, 76355.10132969634, 82635.91916989317, -11707.150841611725, -9867.512865962133, -4528.731647578675, -3278.3750627487975, -15834.020475628433, 187500.0, -0.15, 0.9520000000000001, 0.168, 192.0, 0.0, 0.0, 0.0, 0.0, 0.0, 0.0, 0.0, 0.0, 0.0, 1.70094558469167E9, 0.0, 2023-11-25 15:53:04.691
7.0, 76361.53863209947, 82668.48566156455, -12242.720990505337, -10583.841572265814, -5249.463647540051, -4064.351804775215, -15880.601511073293, 187500.0, -0.15, 0.9520000000000001, 0.168, 192.0, 0.0, 0.0, 0.0, 0.0, 0.0, 0.0, 0.0, 0.0, 0.0, 1.700945584695701E9, 0.0, 2023-11-25 15:53:04.695
8.0, 76390.84176908038, 82631.42646925765, -11061.94538616483, -9578.303644454914, -4012.1381297276175, -3277.257475526032, -15662.515540422863, 187500.0, -0.148, 0.964, 0.162, 192.0, 251.0, 96.0, 30.0, 32.0, 5.0, 16.0, 0.0, 0.0, 0.0, 1.700945584700712E9, 0.0, 2023-11-25 15:53:04.700
9.0, 76365.04785597895, 82591.32743970484, -10951.952451700265, -9238.691239200978, -3741.1008764625644, -2840.213816191413, -15751.78840777736, 187500.0, -0.148, 0.964, 0.162, 192.0, 0.0, 0.0, 0.0, 0.0, 0.0, 0.0, 0.0, 0.0, 0.0, 1.700945584704791E9, 0.0, 2023-11-25 15:53:04.704
10.0, 76347.9711232151, 82616.71902140607, -11577.510723770944, -9766.17005660177, -4384.093509208383, -3188.5210500384633, -15825.951495880068, 187500.0, -0.148, 0.964, 0.162, 192.0, 0.0, 0.0, 0.0, 0.0, 0.0, 0.0, 0.0, 0.0, 0.0, 1.700945584708754E9, 0.0, 2023-11-25 15:53:04.708
11.0, 76356.55419308593, 82668.12803365327, -12267.889054762014, -10532.723132696527, -5230.4870164974955, -3990.412234117059, -15905.367243929773, 187500.0, -0.148, 0.964, 0.162, 192.0, 0.0, 0.0, 0.0, 0.0, 0.0, 0.0, 0.0, 0.0, 0.0, 1.700945584712934E9, 0.0, 2023-11-25 15:53:04.712
12.0, 76373.36270491633, 82628.14076282273, -11290.246104031337, -9828.531423632077, -4276.8721910562745, -3507.793367838069, -15693.897389638114, 187500.0, -0.148, 0.964, 0.162, 192.0, 0.0, 0.0, 0.0, 0.0, 0.0, 0.0, 0.0, 0.0, 0.0, 1.700945584715749E9, 0.0, 2023-11-25 15:53:04.715
13.0, 76363.34912340034, 82597.76474210796, -10862.076087245476, -9131.693438493425, -3640.406267691406, -2787.866030677084, -15735.02459943588, 187500.0, -0.148, 0.964, 0.162, 192.0, 0.0, 0.0, 0.0, 0.0, 0.0, 0.0, 0.0, 0.0, 0.0, 1.700945584719742E9, 0.0, 2023-11-25 15:53:04.719
14.0, 76346.9205912257, 82615.44497197212, -11468.098934662215, -9668.805857754453, -4265.316339172881, -3106.691313587584, -15813.993312596478, 187500.0, -0.148, 0.964, 0.162, 192.0, 0.0, 0.0, 0.0, 0.0, 0.0, 0.0, 0.0, 0.0, 0.0, 1.700945584723741E9, 0.0, 2023-11-25 15:53:04.723
15.0, 76354.65429480723, 82664.43999581815, -12225.666609485937, -10422.998419165424, -5153.798181271337, -3847.405773092005, -15906.417775919173, 187500.0, -0.148, 0.964, 0.162, 192.0, 0.0, 0.0, 0.0, 0.0, 0.0, 0.0, 0.0, 0.0, 0.0, 1.700945584727773E9, 0.0, 2023-11-25 15:53:04.727
16.0, 76378.1236264853, 82646.04451013143, -11541.390304731167, -10090.382109925999, -4566.99783408616, -3730.237928657285, -15720.853593451215, 187500.0, -0.148, 0.964, 0.162, 192.0, 0.0, 0.0, 0.0, 0.0, 0.0, 0.0, 0.0, 0.0, 0.0, 1.700945584732795E9, 0.0, 2023-11-25 15:53:04.732
17.0, 76378.01186776304, 82603.93382357762, -10795.065557368465, -9105.18426956943, -3594.2499153911967, -2799.198365115925, -15704.872096165669, 187500.0, -0.148, 0.964, 0.162, 192.0, 0.0, 0.0, 0.0, 0.0, 0.0, 0.0, 0.0, 0.0, 0.0, 1.700945584736783E9, 0.0, 2023-11-25 15:53:04.736
18.0, 76357.53766984197, 82601.56453866536, -11365.43737237899, -9622.180118820683, -4173.003634572463, -3089.5475255903634, -15796.760117621438, 187500.0, -0.14200000000000002, 0.9580000000000001, 0.16, 192.0, 251.0, 144.0, 29.0, 240.0, 5.0, 0.0, 0.0, 0.0, 0.0, 1.700945584740878E9, 0.0, 2023-11-25 15:53:04.740
19.0, 76358.02940821998, 82658.1591556262, -12132.079855451568, -10314.592458557185, -5028.181377432511, -3723.9123849764333, -15906.842459063824, 187500.0, -0.14200000000000002, 0.9580000000000001, 0.16, 192.0, 0.0, 0.0, 0.0, 0.0, 0.0, 0.0, 0.0, 0.0, 0.0, 1.700945584743849E9, 0.0, 2023-11-25 15:53:04.743
20.0, 76382.95160328766, 82667.05514991941, -11793.160354275746, -10348.388296173609, -4837.4986454842865, -3938.6679457030236, -15767.88166378518, 187500.0, -0.14200000000000002, 0.9580000000000001, 0.16, 192.0, 0.0, 0.0, 0.0, 0.0, 0.0, 0.0, 0.0, 0.0, 0.0, 1.7009455847478E9, 0.0, 2023-11-25 15:53:04.747
21.0, 76383.1304172433, 82608.85120735779, -10765.829475620923, -9125.9043366795, -3589.1313659109314, -2846.9193395280054, -15677.20063653, 187500.0, -0.14200000000000002, 0.9580000000000001, 0.16, 192.0, 0.0, 0.0, 0.0, 0.0, 0.0, 0.0, 0.0, 0.0, 0.0, 1.700945584751795E9, 0.0, 2023-11-25 15:53:04.751
22.0, 76349.44633834915, 82588.8463960703, -11268.654318887511, -9527.922812452653, -4065.1341158311507, -3031.723562684484, -15786.858294827736, 187500.0, -0.14200000000000002, 0.9580000000000001, 0.16, 192.0, 0.0, 0.0, 0.0, 0.0, 0.0, 0.0, 0.0, 0.0, 0.0, 1.700945584755861E9, 0.0, 2023-11-25 15:53:04.755
23.0, 76336.12469865379, 82631.29235879092, -12001.858592254948, -10127.933040610915, -4855.715317215361, -3545.947795623278, -15887.932883254634, 187500.0, -0.14200000000000002, 0.9580000000000001, 0.16, 192.0, 0.0, 0.0, 0.0, 0.0, 0.0, 0.0, 0.0, 0.0, 0.0, 1.700945584760851E9, 0.0, 2023-11-25 15:53:04.760
24.0, 76357.18004193068, 82647.13974560973, -12013.749720305172, -10474.340376179263, -5052.075392255234, -4044.3469934877153, -15811.668731173128, 187500.0, -0.14200000000000002, 0.9580000000000001, 0.16, 192.0, 0.0, 0.0, 0.0, 0.0, 0.0, 0.0, 0.0, 0.0, 0.0, 1.700945584764857E9, 0.0, 2023-11-25 15:53:04.764
25.0, 76378.03421950749, 82605.87842534523, -10816.61263902338, -9215.11014880063, -3675.9455413753444, -2952.933663479527, -15662.515540422863, 187500.0, -0.14200000000000002, 0.9580000000000001, 0.16, 192.0, 0.0, 0.0, 0.0, 0.0, 0.0, 0.0, 0.0, 0.0, 0.0, 1.700945584768903E9, 0.0, 2023-11-25 15:53:04.768
26.0, 76360.39869313224, 82590.63453562673, -11166.909178126953, -9438.649945098156, -3960.483248291403, -2976.4924021354204, -15775.771829577903, 187500.0, -0.14200000000000002, 0.9580000000000001, 0.16, 192.0, 0.0, 0.0, 0.0, 0.0, 0.0, 0.0, 0.0, 0.0, 0.0, 1.700945584771902E9, 0.0, 2023-11-25 15:53:04.771
27.0, 76353.8719837513, 82634.01927161447, -11850.246709614601, -9987.407623220399, -4679.337701718534, -3406.607020688894, -15859.27794686293, 187500.0, -0.14200000000000002, 0.9580000000000001, 0.16, 192.0, 0.0, 0.0, 0.0, 0.0, 0.0, 0.0, 0.0, 0.0, 0.0, 1.700945584775916E9, 0.0, 2023-11-25 15:53:04.775
28.0, 76359.43756812067, 82656.59453351433, -12174.704632127838, -10586.054394966888, -5197.831117848292, -4114.665581544111, -15849.398475813685, 187500.0, -0.134, 0.964, 0.158, 192.0, 251.0, 208.0, 30.0, 32.0, 4.0, 240.0, 0.0, 0.0, 0.0, 1.700945584779881E9, 0.0, 2023-11-25 15:53:04.779
29.0, 76376.3801904178, 82611.68987890362, -10913.395692514861, -9374.634548978156, -3812.291182552717, -3115.117921247235, -15648.322182693742, 187500.0, -0.134, 0.964, 0.158, 192.0, 0.0, 0.0, 0.0, 0.0, 0.0, 0.0, 0.0, 0.0, 0.0, 1.70094558478391E9, 0.0, 2023-11-25 15:53:04.783
30.0, 76358.90112625374, 82589.67341061514, -11061.14072336444, -9331.495682179413, -3842.0860579116415, -2915.3603810501554, -15760.617346837205, 187500.0, -0.134, 0.964, 0.158, 192.0, 0.0, 0.0, 0.0, 0.0, 0.0, 0.0, 0.0, 0.0, 0.0, 1.700945584788918E9, 0.0, 2023-11-25 15:53:04.788
31.0, 76352.77674827298, 82628.4536872451, -11702.434623531655, -9865.300043261057, -4514.60534508292, -3286.9134291307246, -15834.959248895557, 187500.0, -0.134, 0.964, 0.158, 192.0, 0.0, 0.0, 0.0, 0.0, 0.0, 0.0, 0.0, 0.0, 0.0, 1.700945584792956E9, 0.0, 2023-11-25 15:53:04.792
32.0, 76364.2208414341, 82673.20187964462, -12245.872586473535, -10571.011670948466, -5234.84560666628, -4058.093316327729, -15872.890159236213, 187500.0, -0.134, 0.964, 0.158, 192.0, 0.0, 0.0, 0.0, 0.0, 0.0, 0.0, 0.0, 0.0, 0.0, 1.70094558479699E9, 0.0, 2023-11-25 15:53:04.796
33.0, 76384.80679807745, 82632.29818729141, -11076.786944483156, -9566.568978615878, -4011.266411693861, -3281.549010461451, -15654.178339741033, 187500.0, -0.134, 0.964, 0.158, 192.0, 0.0, 0.0, 0.0, 0.0, 0.0, 0.0, 0.0, 0.0, 0.0, 1.700945584800016E9, 0.0, 2023-11-25 15:53:04.800
34.0, 76362.94679200015, 82591.50625366048, -10945.69396325278, -9185.315273441705, -3711.1495388924527, -2811.871804222084, -15743.87589024018, 187500.0, -0.134, 0.964, 0.158, 192.0, 0.0, 0.0, 0.0, 0.0, 0.0, 0.0, 0.0, 0.0, 0.0, 1.700945584804048E9, 0.0, 2023-11-25 15:53:04.804
35.0, 76349.20046916015, 82613.54507369341, -11578.538904015888, -9740.979640600639, -4372.560009069444, -3170.2820265629325, -15823.492803989984, 187500.0, -0.134, 0.964, 0.158, 192.0, 0.0, 0.0, 0.0, 0.0, 0.0, 0.0, 0.0, 0.0, 0.0, 1.700945584808053E9, 0.0, 2023-11-25 15:53:04.808
36.0, 76351.48034709458, 82655.54400152493, -12284.38464217003, -10521.189632557587, -5235.60556597776, -3970.005091429364, -15914.464403923084, 187500.0, -0.134, 0.964, 0.158, 192.0, 0.0, 0.0, 0.0, 0.0, 0.0, 0.0, 0.0, 0.0, 0.0, 1.700945584811999E9, 0.0, 2023-11-25 15:53:04.811
37.0, 76383.35393468785, 82635.18156232615, -11329.6745812505, -9871.133848563892, -4317.731179920576, -3538.5270164641165, -15702.01107287539, 187500.0, -0.134, 0.964, 0.158, 192.0, 0.0, 0.0, 0.0, 0.0, 0.0, 0.0, 0.0, 0.0, 0.0, 1.700945584816023E9, 0.0, 2023-11-25 15:53:04.816
38.0, 76372.6250973493, 82601.00574505398, -10862.970157023688, -9149.194854401929, -3643.915491570889, -2800.1371383830474, -15733.817605235292, 187500.0, -0.13, 0.962, 0.16, 192.0, 251.0, 240.0, 30.0, 16.0, 5.0, 0.0, 0.0, 0.0, 0.0, 1.700945584821124E9, 0.0, 2023-11-25 15:53:04.821
39.0, 76346.09357668085, 82607.91243409067, -11463.338013093235, -9670.839866499886, -4258.253187925004, -3115.3861421806982, -15819.424786499118, 187500.0, -0.13, 0.962, 0.16, 192.0, 0.0, 0.0, 0.0, 0.0, 0.0, 0.0, 0.0, 0.0, 0.0, 1.700945584825092E9, 0.0, 2023-11-25 15:53:04.825
40.0, 76346.54061156996, 82656.77334746998, -12223.65495248496, -10399.39497702062, -5137.146131652133, -3833.9723746743653, -15920.186450503643, 187500.0, -0.13, 0.962, 0.16, 192.0, 0.0, 0.0, 0.0, 0.0, 0.0, 0.0, 0.0, 0.0, 0.0, 1.700945584828017E9, 0.0, 2023-11-25 15:53:04.828
41.0, 76381.52109164251, 82646.02215838697, -11568.033584121893, -10103.301418221166, -4587.919066896327, -3743.492513119282, -15729.97310518898, 187500.0, -0.13, 0.962, 0.16, 192.0, 0.0, 0.0, 0.0, 0.0, 0.0, 0.0, 0.0, 0.0, 0.0, 1.700945584832067E9, 0.0, 2023-11-25 15:53:04.832
42.0, 76377.4754258961, 82594.7472566065, -10789.097641598897, -9099.886906133523, -3589.7125112667695, -2794.348036569123, -15705.2073723325, 187500.0, -0.13, 0.962, 0.16, 192.0, 0.0, 0.0, 0.0, 0.0, 0.0, 0.0, 0.0, 0.0, 0.0, 1.700945584836968E9, 0.0, 2023-11-25 15:53:04.836
43.0, 76339.03042543298, 82579.21279421006, -11361.704631054954, -9585.456202680612, -4156.999785542463, -3053.6506239951404, -15813.389815496186, 187500.0, -0.13, 0.962, 0.16, 192.0, 0.0, 0.0, 0.0, 0.0, 0.0, 0.0, 0.0, 0.0, 0.0, 1.700945584840141E9, 0.0, 2023-11-25 15:53:04.840
44.0, 76340.23741963356, 82638.9590071391, -12130.425826361874, -10269.821914413204, -5012.646915036073, -3677.44310825385, -15915.20201149011, 187500.0, -0.13, 0.962, 0.16, 192.0, 0.0, 0.0, 0.0, 0.0, 0.0, 0.0, 0.0, 0.0, 0.0, 1.700945584844112E9, 0.0, 2023-11-25 15:53:04.844
45.0, 76359.16934718721, 82640.41187052868, -11827.514985503554, -10343.247394948889, -4865.863009198071, -3923.4464077289595, -15785.114858760222, 187500.0, -0.13, 0.962, 0.16, 192.0, 0.0, 0.0, 0.0, 0.0, 0.0, 0.0, 0.0, 0.0, 0.0, 1.700945584848115E9, 0.0, 2023-11-25 15:53:04.848
46.0, 76378.83888230787, 82605.67725964515, -10774.814876891956, -9122.126891866552, -3596.5968485590042, -2837.8445312791505, -15679.43581097553, 187500.0, -0.13, 0.962, 0.16, 192.0, 0.0, 0.0, 0.0, 0.0, 0.0, 0.0, 0.0, 0.0, 0.0, 1.700945584853138E9, 0.0, 2023-11-25 15:53:04.853
47.0, 76351.50269883903, 82595.26134672896, -11256.696135603921, -9503.201783085082, -4048.8396941232318, -3002.7780536148616, -15783.170256992611, 187500.0, -0.134, 0.968, 0.154, 192.0, 251.0, 208.0, 30.0, 64.0, 4.0, 208.0, 0.0, 0.0, 0.0, 1.700945584856143E9, 0.0, 2023-11-25 15:53:04.856
48.0, 76342.0702626789, 82638.84724841682, -11986.592350791974, -10112.175060769923, -4840.739648430306, -3521.5620424225385, -15886.14474369821, 187500.0, -0.134, 0.968, 0.154, 192.0, 0.0, 0.0, 0.0, 0.0, 0.0, 0.0, 0.0, 0.0, 0.0, 1.700945584860173E9, 0.0, 2023-11-25 15:53:04.860
49.0, 76364.26554492302, 82656.68394049215, -12033.106331003468, -10504.358768982742, -5077.444622212008, -4054.3605750036927, -15826.46558600254, 187500.0, -0.134, 0.968, 0.154, 192.0, 0.0, 0.0, 0.0, 0.0, 0.0, 0.0, 0.0, 0.0, 0.0, 1.700945584864257E9, 0.0, 2023-11-25 15:53:04.864
50.0, 76375.88845203978, 82610.50523644748, -10818.624296024358, -9232.58921296468, -3684.7744804351905, -2958.3651373821663, -15674.563130684273, 187500.0, -0.134, 0.968, 0.154, 192.0, 0.0, 0.0, 0.0, 0.0, 0.0, 0.0, 0.0, 0.0, 0.0, 1.700945584868173E9, 0.0, 2023-11-25 15:53:04.868
51.0, 76346.58531505887, 82592.02034378295, -11161.768276902232, -9426.892927514664, -3950.626128986613, -2961.315567650267, -15794.368480964718, 187500.0, -0.134, 0.968, 0.154, 192.0, 0.0, 0.0, 0.0, 0.0, 0.0, 0.0, 0.0, 0.0, 0.0, 1.700945584872207E9, 0.0, 2023-11-25 15:53:04.872
52.0, 76341.4667655786, 82632.9016843917, -11838.400285053289, -9977.081117282047, -4665.2784544561455, -3385.261104734076, -15870.18559815712, 187500.0, -0.134, 0.968, 0.154, 192.0, 0.0, 0.0, 0.0, 0.0, 0.0, 0.0, 0.0, 0.0, 0.0, 1.70094558487721E9, 0.0, 2023-11-25 15:53:04.877
53.0, 76354.09550119586, 82659.43320506015, -12173.609396649528, -10574.006804705477, -5194.45600443554, -4080.512116016402, -15856.975717184034, 187500.0, -0.134, 0.968, 0.154, 192.0, 0.0, 0.0, 0.0, 0.0, 0.0, 0.0, 0.0, 0.0, 0.0, 1.700945584880162E9, 0.0, 2023-11-25 15:53:04.880
54.0, 76368.73589381408, 82612.13691379272, -10929.310134567038, -9378.926083913575, -3829.0326391497424, -3096.18599369359, -15672.19384577201, 187500.0, -0.134, 0.968, 0.154, 192.0, 0.0, 0.0, 0.0, 0.0, 0.0, 0.0, 0.0, 0.0, 0.0, 1.700945584883237E9, 0.0, 2023-11-25 15:53:04.883
55.0, 76360.04106522097, 82593.98729729501, -11054.23403432775, -9317.03410351683, -3837.101618898108, -2885.207877779946, -15778.521094145906, 187500.0, -0.134, 0.968, 0.154, 192.0, 0.0, 0.0, 0.0, 0.0, 0.0, 0.0, 0.0, 0.0, 0.0, 1.700945584888284E9, 0.0, 2023-11-25 15:53:04.888
56.0, 76345.13245166927, 82622.70928892009, -11698.433661274155, -9845.228176740191, -4510.067940958494, -3259.0855072838676, -15849.599641513783, 187500.0, -0.134, 0.968, 0.154, 192.0, 0.0, 0.0, 0.0, 0.0, 0.0, 0.0, 0.0, 0.0, 0.0, 1.700945584892237E9, 0.0, 2023-11-25 15:53:04.892
57.0, 76356.19656517466, 82669.9161732097, -12266.838522772614, -10574.967929717057, -5254.045755153389, -4051.61131043569, -15893.118487968266, 187500.0, -0.132, 0.962, 0.154, 192.0, 251.0, 224.0, 30.0, 16.0, 4.0, 208.0, 0.0, 0.0, 0.0, 1.700945584896264E9, 0.0, 2023-11-25 15:53:04.896
58.0, 76380.47055965311, 82632.32053903586, -11110.448671632848, -9616.927458873684, -4058.89797912812, -3324.173787137722, -15673.95963358398, 187500.0, -0.132, 0.962, 0.154, 192.0, 0.0, 0.0, 0.0, 0.0, 0.0, 0.0, 0.0, 0.0, 0.0, 1.700945584900306E9, 0.0, 2023-11-25 15:53:04.900
59.0, 76365.4725391236, 82598.88232933072, -10938.966088171732, -9199.285113726273, -3716.692771517369, -2830.4014003755333, -15752.548367088839, 187500.0, -0.132, 0.962, 0.154, 192.0, 0.0, 0.0, 0.0, 0.0, 0.0, 0.0, 0.0, 0.0, 0.0, 1.700945584905281E9, 0.0, 2023-11-25 15:53:04.905
60.0, 76353.71552154011, 82630.33123377935, -11558.891720639673, -9731.25663176258, -4358.634872273788, -3168.0468521174016, -15823.626914456716, 187500.0, -0.132, 0.962, 0.154, 192.0, 0.0, 0.0, 0.0, 0.0, 0.0, 0.0, 0.0, 0.0, 0.0, 1.700945584908297E9, 0.0, 2023-11-25 15:53:04.908
61.0, 76347.65819879272, 82669.93852495415, -12275.756868810282, -10515.93697261059, -5229.995278119478, -3970.7203472519336, -15911.223400977064, 187500.0, -0.132, 0.962, 0.154, 192.0, 0.0, 0.0, 0.0, 0.0, 0.0, 0.0, 0.0, 0.0, 0.0, 1.700945584912329E9, 0.0, 2023-11-25 15:53:04.912
62.0, 76375.64258285076, 82646.87152467627, -11350.305241382748, -9894.692587219786, -4341.982822654584, -3572.568723269549, -15697.451317006507, 187500.0, -0.132, 0.962, 0.154, 192.0, 0.0, 0.0, 0.0, 0.0, 0.0, 0.0, 0.0, 0.0, 0.0, 1.70094558491628E9, 0.0, 2023-11-25 15:53:04.916
63.0, 76375.1284927283, 82614.12621904924, -10845.155816692808, -9120.674028476957, -3621.474340137761, -2802.0817401506592, -15717.34436957173, 187500.0, -0.132, 0.962, 0.154, 192.0, 0.0, 0.0, 0.0, 0.0, 0.0, 0.0, 0.0, 0.0, 0.0, 1.700945584920324E9, 0.0, 2023-11-25 15:53:04.920
64.0, 76347.81466100391, 82620.09413481882, -11455.783123467341, -9644.800084209453, -4241.511731327979, -3116.7048951035613, -15816.452004486562, 187500.0, -0.132, 0.962, 0.154, 192.0, 0.0, 0.0, 0.0, 0.0, 0.0, 0.0, 0.0, 0.0, 0.0, 1.700945584924373E9, 0.0, 2023-11-25 15:53:04.924
65.0, 76347.27821913699, 82673.53715581146, -12228.885260687503, -10402.2560003109, -5136.475579318474, -3852.032584194253, -15921.460499937595, 187500.0, -0.132, 0.962, 0.154, 192.0, 0.0, 0.0, 0.0, 0.0, 0.0, 0.0, 0.0, 0.0, 0.0, 1.700945584927314E9, 0.0, 2023-11-25 15:53:04.927
66.0, 76366.36660890182, 82654.49346953553, -11600.06363392635, -10131.308154023667, -4611.813081719051, -3789.402996230483, -15735.53868955835, 187500.0, -0.132, 0.962, 0.154, 192.0, 0.0, 0.0, 0.0, 0.0, 0.0, 0.0, 0.0, 0.0, 0.0, 1.7009455849324E9, 0.0, 2023-11-25 15:53:04.932
67.0, 76367.23832693558, 82604.60437591128, -10787.912999142767, -9086.587618182613, -3577.2625896051636, -2815.872766479584, -15710.124756112667, 187500.0, -0.138, 0.964, 0.154, 192.0, 251.0, 176.0, 30.0, 32.0, 4.0, 208.0, 0.0, 0.0, 0.0, 1.700945584936423E9, 0.0, 2023-11-25 15:53:04.936
68.0, 76344.01486444651, 82602.19038751011, -11358.195407175472, -9579.84591482233, -4146.136837737184, -3086.6417988111734, -15822.263458044943, 187500.0, -0.138, 0.964, 0.154, 192.0, 0.0, 0.0, 0.0, 0.0, 0.0, 0.0, 0.0, 0.0, 0.0, 1.70094558494041E9, 0.0, 2023-11-25 15:53:04.940
69.0, 76354.74370178506, 82671.14551915473, -12119.026436689668, -10259.115428819112, -4993.983208415891, -3708.310867346629, -15917.10190976881, 187500.0, -0.138, 0.964, 0.154, 192.0, 0.0, 0.0, 0.0, 0.0, 0.0, 0.0, 0.0, 0.0, 0.0, 1.70094558494467E9, 0.0, 2023-11-25 15:53:04.944
70.0, 76362.05272222194, 82656.84040270334, -11852.213663126668, -10363.319261469755, -4885.10786117409, -3984.913704981054, -15789.898132073658, 187500.0, -0.138, 0.964, 0.154, 192.0, 0.0, 0.0, 0.0, 0.0, 0.0, 0.0, 0.0, 0.0, 0.0, 1.700945584948451E9, 0.0, 2023-11-25 15:53:04.948
71.0, 76361.11394895482, 82603.12916077723, -10783.979092118632, -9129.078284392153, -3603.9058689958897, -2879.955217832949, -15697.451317006507, 187500.0, -0.138, 0.964, 0.154, 192.0, 0.0, 0.0, 0.0, 0.0, 0.0, 0.0, 0.0, 0.0, 0.0, 1.700945584952419E9, 0.0, 2023-11-25 15:53:04.952
72.0, 76342.24907663454, 82602.59271891031, -11254.975051280862, -9502.821803429342, -4041.3071562417936, -3028.8625393942048, -15801.945722335067, 187500.0, -0.138, 0.964, 0.154, 192.0, 0.0, 0.0, 0.0, 0.0, 0.0, 0.0, 0.0, 0.0, 0.0, 1.700945584955506E9, 0.0, 2023-11-25 15:53:04.955
73.0, 76339.61157078881, 82654.8063939579, -11980.22210362221, -10100.2839327197, -4818.454959208365, -3532.581452439005, -15891.397403645207, 187500.0, -0.138, 0.964, 0.154, 192.0, 0.0, 0.0, 0.0, 0.0, 0.0, 0.0, 0.0, 0.0, 0.0, 1.700945584959546E9, 0.0, 2023-11-25 15:53:04.959
74.0, 76355.10132969634, 82671.4137400882, -12058.833188871526, -10515.534641210395, -5086.407671738586, -4086.2118108525056, -15829.058388359355, 187500.0, -0.138, 0.964, 0.154, 192.0, 0.0, 0.0, 0.0, 0.0, 0.0, 0.0, 0.0, 0.0, 0.0, 1.700945584964444E9, 0.0, 2023-11-25 15:53:04.964
75.0, 76367.28303042449, 82617.36722199527, -10832.348267119916, -9241.775779935811, -3688.507221759227, -2985.9918935289256, -15663.230796245432, 187500.0, -0.138, 0.964, 0.154, 192.0, 0.0, 0.0, 0.0, 0.0, 0.0, 0.0, 0.0, 0.0, 0.0, 1.700945584968459E9, 0.0, 2023-11-25 15:53:04.968
76.0, 76346.76412901451, 82595.41780894015, -11153.162855286939, -9404.205906892528, -3929.0343438427863, -2961.3602711391773, -15781.31506220282, 187500.0, -0.138, 0.964, 0.154, 192.0, 0.0, 0.0, 0.0, 0.0, 0.0, 0.0, 0.0, 0.0, 0.0, 1.700945584972483E9, 0.0, 2023-11-25 15:53:04.972
77.0, 76348.59697205985, 82643.09407986332, -11826.218584325146, -9941.675954064842, -4639.3951343768995, -3378.890857564313, -15860.395534085696, 187500.0, -0.14, 0.976, 0.156, 192.0, 251.0, 160.0, 30.0, 128.0, 4.0, 224.0, 0.0, 0.0, 0.0, 1.700945584976597E9, 0.0, 2023-11-25 15:53:04.976
78.0, 76359.54932684294, 82677.85104249133, -12202.42079525242, -10574.923226228146, -5210.906888354646, -4112.318648376304, -15864.351792854286, 187500.0, -0.14, 0.976, 0.156, 192.0, 0.0, 0.0, 0.0, 0.0, 0.0, 0.0, 0.0, 0.0, 0.0, 1.700945584979567E9, 0.0, 2023-11-25 15:53:04.979
79.0, 76379.1741584747, 82638.89195190572, -10946.655088264357, -9403.423595836592, -3847.2269591363624, -3154.7699159109493, -15660.570938655252, 187500.0, -0.14, 0.976, 0.156, 192.0, 0.0, 0.0, 0.0, 0.0, 0.0, 0.0, 0.0, 0.0, 0.0, 1.700945584983522E9, 0.0, 2023-11-25 15:53:04.983
80.0, 76351.27918139448, 82602.01157355447, -11036.41969399687, -9290.212010170462, -3811.75474068579, -2896.7413779188846, -15767.725201573992, 187500.0, -0.14, 0.976, 0.156, 192.0, 0.0, 0.0, 0.0, 0.0, 0.0, 0.0, 0.0, 0.0, 0.0, 1.700945584989555E9, 0.0, 2023-11-25 15:53:04.989
81.0, 76347.45703309262, 82643.13878335223, -11670.762201638485, -9814.539231603054, -4472.539362018033, -3256.336242715865, -15837.060312874355, 187500.0, -0.14, 0.976, 0.156, 192.0, 0.0, 0.0, 0.0, 0.0, 0.0, 0.0, 0.0, 0.0, 0.0, 1.700945584992605E9, 0.0, 2023-11-25 15:53:04.992
82.0, 76358.36468438682, 82684.10953093882, -12258.054287201678, -10558.002955675478, -5240.500598013473, -4060.5743599622683, -15893.923150768656, 187500.0, -0.14, 0.976, 0.156, 192.0, 0.0, 0.0, 0.0, 0.0, 0.0, 0.0, 0.0, 0.0, 0.0, 1.700945584996568E9, 0.0, 2023-11-25 15:53:04.996
83.0, 76387.06432426743, 82648.72671946607, -11117.288305436172, -9623.074188598894, -4068.777450177366, -3345.877331003825, -15672.283252749832, 187500.0, -0.14, 0.976, 0.156, 192.0, 0.0, 0.0, 0.0, 0.0, 0.0, 0.0, 0.0, 0.0, 0.0, 1.700945585000593E9, 0.0, 2023-11-25 15:53:05.000
84.0, 76370.2781641815, 82614.64030917172, -10917.530765239093, -9202.459061438925, -3701.538288776671, -2846.740525572363, -15747.362762375209, 187500.0, -0.14, 0.976, 0.156, 192.0, 0.0, 0.0, 0.0, 0.0, 0.0, 0.0, 0.0, 0.0, 0.0, 1.700945585004615E9, 0.0, 2023-11-25 15:53:05.004
85.0, 76345.95946621412, 82622.10579181979, -11537.23288026248, -9725.981620071128, -4341.356973809836, -3181.077919134846, -15835.473339018028, 187500.0, -0.14, 0.976, 0.156, 192.0, 0.0, 0.0, 0.0, 0.0, 0.0, 0.0, 0.0, 0.0, 0.0, 1.700945585007622E9, 0.0, 2023-11-25 15:53:05.007
86.0, 76350.56392557191, 82674.05124593392, -12260.736496536316, -10499.441385202574, -5212.404455233152, -3969.2451321178837, -15925.304999983908, 187500.0, -0.14, 0.976, 0.156, 192.0, 0.0, 0.0, 0.0, 0.0, 0.0, 0.0, 0.0, 0.0, 0.0, 1.700945585011579E9, 0.0, 2023-11-25 15:53:05.011
87.0, 76378.57066137441, 82651.29717007843, -11348.025363448307, -9909.668256004841, -4352.376383826302, -3588.3937583439065, -15706.77199444437, 187500.0, -0.128, 0.97, 0.158, 192.0, 252.0, 0.0, 30.0, 80.0, 4.0, 240.0, 0.0, 0.0, 0.0, 1.700945585015627E9, 0.0, 2023-11-25 15:53:05.015
88.0, 76381.38698117579, 82617.27781501744, -10812.9022494438, -9118.774130198257, -3610.2314126767415, -2802.148795384025, -15723.245230107932, 187500.0, -0.128, 0.97, 0.158, 192.0, 0.0, 0.0, 0.0, 0.0, 0.0, 0.0, 0.0, 0.0, 0.0, 1.700945585019653E9, 0.0, 2023-11-25 15:53:05.019
89.0, 76358.34233264237, 82624.78800115443, -11405.44699495399, -9642.073171385906, -4219.271745594949, -3109.887613044693, -15796.26837924342, 187500.0, -0.128, 0.97, 0.158, 192.0, 0.0, 0.0, 0.0, 0.0, 0.0, 0.0, 0.0, 0.0, 0.0, 1.700945585024691E9, 0.0, 2023-11-25 15:53:05.024
90.0, 76344.84187899136, 82659.12028063778, -12173.698803627349, -10368.035479549824, -5103.6408667136275, -3812.1794238304406, -15899.600493860306, 187500.0, -0.128, 0.97, 0.158, 192.0, 0.0, 0.0, 0.0, 0.0, 0.0, 0.0, 0.0, 0.0, 0.0, 1.700945585028692E9, 0.0, 2023-11-25 15:53:05.028
91.0, 76377.05074275145, 82652.37005381228, -11584.417412807634, -10158.733744470328, -4643.1502274453915, -3809.586621473625, -15717.187907360543, 187500.0, -0.128, 0.97, 0.158, 192.0, 0.0, 0.0, 0.0, 0.0, 0.0, 0.0, 0.0, 0.0, 0.0, 1.700945585031752E9, 0.0, 2023-11-25 15:53:05.031
92.0, 76377.20720496264, 82604.6490794002, -10738.202719474164, -9079.390356468006, -3573.4180895588506, -2812.31883911119, -15676.463028962975, 187500.0, -0.128, 0.97, 0.158, 192.0, 0.0, 0.0, 0.0, 0.0, 0.0, 0.0, 0.0, 0.0, 0.0, 1.700945585035732E9, 0.0, 2023-11-25 15:53:05.035
93.0, 76357.42591111969, 82605.45374220058, -11292.23540928786, -9550.676888308155, -4123.203947926038, -3049.403792548632, -15773.111971987722, 187500.0, -0.128, 0.97, 0.158, 192.0, 0.0, 0.0, 0.0, 0.0, 0.0, 0.0, 0.0, 0.0, 0.0, 1.700945585039731E9, 0.0, 2023-11-25 15:53:05.039
94.0, 76358.45409136463, 82656.28160909195, -12038.470749672742, -10212.601448607618, -4959.785039399271, -3643.8707880819784, -15859.054429418378, 187500.0, -0.128, 0.97, 0.158, 192.0, 0.0, 0.0, 0.0, 0.0, 0.0, 0.0, 0.0, 0.0, 0.0, 1.700945585043743E9, 0.0, 2023-11-25 15:53:05.043
95.0, 76381.56579513142, 82654.98520791355, -11803.308046258457, -10349.461179907463, -4897.468375857875, -3950.693184219979, -15734.443454080041, 187500.0, -0.128, 0.97, 0.158, 192.0, 0.0, 0.0, 0.0, 0.0, 0.0, 0.0, 0.0, 0.0, 0.0, 1.70094558504774E9, 0.0, 2023-11-25 15:53:05.047
96.0, 76394.39569644877, 82606.50427418998, -10714.465166862628, -9119.399979043004, -3602.0953776950096, -2853.08842099767, -15625.14342369359, 187500.0, -0.128, 0.97, 0.158, 192.0, 0.0, 0.0, 0.0, 0.0, 0.0, 0.0, 0.0, 0.0, 0.0, 1.700945585052751E9, 0.0, 2023-11-25 15:53:05.052
97.0, 76362.41035013323, 82585.51598614645, -11179.604968977568, -9486.6391404437, -4033.059362537785, -2996.83248958975, -15740.59018380525, 187500.0, -0.136, 0.9580000000000001, 0.156, 192.0, 251.0, 192.0, 29.0, 240.0, 4.0, 224.0, 0.0, 0.0, 0.0, 1.700945585056759E9, 0.0, 2023-11-25 15:53:05.056
98.0, 76354.00609421803, 82628.47603898955, -11892.916189779782, -10072.679528317396, -4804.306304968155, -3485.7768995495917, -15836.903850663168, 187500.0, -0.136, 0.9580000000000001, 0.156, 192.0, 0.0, 0.0, 0.0, 0.0, 0.0, 0.0, 0.0, 0.0, 0.0, 1.700945585059772E9, 0.0, 2023-11-25 15:53:05.059
99.0, 76374.23442295009, 82649.79960319992, -11997.947036975269, -10513.567687698327, -5111.978067395457, -4055.0758308262625, -15787.84177158377, 187500.0, -0.136, 0.9580000000000001, 0.156, 192.0, 0.0, 0.0, 0.0, 0.0, 0.0, 0.0, 0.0, 0.0, 0.0, 1.700945585063814E9, 0.0, 2023-11-25 15:53:05.063
100.0, 76388.07015276792, 82604.13498927772, -10766.075344809931, -9251.632899240602, -3711.9989051817547, -2965.6518060745966, -15622.125938192123, 187500.0, -0.136, 0.9580000000000001, 0.156, 192.0, 0.0, 0.0, 0.0, 0.0, 0.0, 0.0, 0.0, 0.0, 0.0, 1.700945585067846E9, 0.0, 2023-11-25 15:53:05.067
101.0, 76349.33457962687, 82569.4450818831, -11075.311729349105, -9390.48193579697, -3933.772913667311, -2924.4798927879206, -15747.921555986592, 187500.0, -0.136, 0.9580000000000001, 0.156, 192.0, 0.0, 0.0, 0.0, 0.0, 0.0, 0.0, 0.0, 0.0, 0.0, 1.700945585071887E9, 0.0, 2023-11-25 15:53:05.071
102.0, 76341.98085570108, 82603.62089915526, -11747.674554309197, -9935.842148762005, -4648.425239136844, -3338.411848355752, -15828.65605695916, 187500.0, -0.136, 0.9580000000000001, 0.156, 192.0, 0.0, 0.0, 0.0, 0.0, 0.0, 0.0, 0.0, 0.0, 0.0, 1.700945585075893E9, 0.0, 2023-11-25 15:53:05.075
103.0, 76363.52793735599, 82646.44684153162, -12141.892271267447, -10595.822107293858, -5248.815446950847, -4094.705473745522, -15835.406283784663, 187500.0, -0.136, 0.9580000000000001, 0.156, 192.0, 0.0, 0.0, 0.0, 0.0, 0.0, 0.0, 0.0, 0.0, 0.0, 1.700945585081818E9, 0.0, 2023-11-25 15:53:05.081
104.0, 76395.08860052688, 82610.43818121412, -10893.748509138646, -9438.806407309343, -3890.231715468373, -3156.334538022821, -15620.203688168967, 187500.0, -0.136, 0.9580000000000001, 0.156, 192.0, 0.0, 0.0, 0.0, 0.0, 0.0, 0.0, 0.0, 0.0, 0.0, 1.700945585084854E9, 0.0, 2023-11-25 15:53:05.084
105.0, 76368.26650718052, 82567.03109348191, -10976.762888045656, -9314.240135459917, -3835.3805345750493, -2901.6811134435075, -15735.292820369343, 187500.0, -0.136, 0.9580000000000001, 0.156, 192.0, 0.0, 0.0, 0.0, 0.0, 0.0, 0.0, 0.0, 0.0, 0.0, 1.700945585087854E9, 0.0, 2023-11-25 15:53:05.087
106.0, 76359.37051288731, 82600.0446200424, -11613.318218388345, -9849.162083764326, -4503.340065877445, -3278.8891528712697, -15810.0817573168, 187500.0, -0.136, 0.9580000000000001, 0.156, 192.0, 0.0, 0.0, 0.0, 0.0, 0.0, 0.0, 0.0, 0.0, 0.0, 1.700945585091928E9, 0.0, 2023-11-25 15:53:05.091
107.0, 76356.66595180822, 82629.21364655659, -12213.32844654661, -10588.602493834793, -5284.734700290525, -4075.8406014252428, -15870.342060368308, 187500.0, -0.136, 0.9580000000000001, 0.152, 192.0, 251.0, 192.0, 29.0, 240.0, 4.0, 192.0, 0.0, 0.0, 0.0, 1.700945585095891E9, 0.0, 2023-11-25 15:53:05.095
108.0, 76383.75626608805, 82598.52470141945, -11099.116337194007, -9686.396680640779, -4140.325384178804, -3391.251372248098, -15648.970383282947, 187500.0, -0.136, 0.9580000000000001, 0.152, 192.0, 0.0, 0.0, 0.0, 0.0, 0.0, 0.0, 0.0, 0.0, 0.0, 1.700945585099868E9, 0.0, 2023-11-25 15:53:05.099
109.0, 76375.66493459523, 82573.96013426306, -10869.630976871369, -9202.34730271665, -3722.1689489089194, -2845.779400560785, -15718.841936450237, 187500.0, -0.136, 0.9580000000000001, 0.152, 192.0, 0.0, 0.0, 0.0, 0.0, 0.0, 0.0, 0.0, 0.0, 0.0, 1.700945585104072E9, 0.0, 2023-11-25 15:53:05.104
110.0, 76365.2713734235, 82599.3517159643, -11481.577036568766, -9737.06808532096, -4357.785505984486, -3184.6989017366054, -15787.193570994565, 187500.0, -0.136, 0.9580000000000001, 0.152, 192.0, 0.0, 0.0, 0.0, 0.0, 0.0, 0.0, 0.0, 0.0, 0.0, 1.700945585108367E9, 0.0, 2023-11-25 15:53:05.108
111.0, 76364.93609725668, 82644.63635023074, -12206.041777854178, -10505.543411438872, -5232.65513570966, -3968.4181175730373, -15882.970795985557, 187500.0, -0.136, 0.9580000000000001, 0.152, 192.0, 0.0, 0.0, 0.0, 0.0, 0.0, 0.0, 0.0, 0.0, 0.0, 1.700945585112912E9, 0.0, 2023-11-25 15:53:05.112
112.0, 76389.67947836871, 82619.82591388535, -11330.09926439515, -9938.278488907634, -4414.268364223047, -3619.0603517365876, -15676.217159773965, 187500.0, -0.136, 0.9580000000000001, 0.152, 192.0, 0.0, 0.0, 0.0, 0.0, 0.0, 0.0, 0.0, 0.0, 0.0, 1.700945585115927E9, 0.0, 2023-11-25 15:53:05.115
113.0, 76377.274260196, 82572.68608482911, -10780.000481605588, -9115.801348185701, -3641.3897444474396, -2801.2770773502684, -15695.305549538798, 187500.0, -0.136, 0.9580000000000001, 0.152, 192.0, 0.0, 0.0, 0.0, 0.0, 0.0, 0.0, 0.0, 0.0, 0.0, 1.70094558512002E9, 0.0, 2023-11-25 15:53:05.120
114.0, 76356.59889657485, 82576.70939883107, -11379.049584752272, -9646.074133643406, -4249.334841887337, -3105.1490432201676, -15779.638681368671, 187500.0, -0.136, 0.9580000000000001, 0.152, 192.0, 0.0, 0.0, 0.0, 0.0, 0.0, 0.0, 0.0, 0.0, 0.0, 1.700945585124026E9, 0.0, 2023-11-25 15:53:05.124
115.0, 76358.43173962018, 82628.54309422291, -12148.418980648397, -10388.688491426527, -5131.804064727315, -3807.820833661656, -15876.24292090451, 187500.0, -0.136, 0.9580000000000001, 0.152, 192.0, 0.0, 0.0, 0.0, 0.0, 0.0, 0.0, 0.0, 0.0, 0.0, 1.700945585128E9, 0.0, 2023-11-25 15:53:05.128
116.0, 76384.69503935517, 82616.16022779468, -11584.618578507732, -10197.066986211179, -4689.7536146347065, -3814.459301764882, -15698.43479376254, 187500.0, -0.136, 0.9580000000000001, 0.152, 192.0, 0.0, 0.0, 0.0, 0.0, 0.0, 0.0, 0.0, 0.0, 0.0, 1.700945585132032E9, 0.0, 2023-11-25 15:53:05.132
117.0, 76393.43457143719, 82576.37412266423, -10717.437948875184, -9093.360196752572, -3589.8466217335013, -2795.59973425862, -15655.139464752612, 187500.0, -0.138, 0.966, 0.152, 192.0, 251.0, 176.0, 30.0, 48.0, 4.0, 192.0, 0.0, 0.0, 0.0, 1.700945585136119E9, 0.0, 2023-11-25 15:53:05.136
118.0, 76363.90791701173, 82566.91933475964, -11272.074135789173, -9573.453315908113, -4136.592642854767, -3042.497103511942, -15765.713544573015, 187500.0, -0.138, 0.966, 0.152, 192.0, 0.0, 0.0, 0.0, 0.0, 0.0, 0.0, 0.0, 0.0, 0.0, 1.700945585141198E9, 0.0, 2023-11-25 15:53:05.141
119.0, 76358.76701578702, 82621.23407378604, -12032.659296114361, -10240.094094287646, -4976.4370890184755, -3645.9047968274117, -15878.589854072316, 187500.0, -0.138, 0.966, 0.152, 192.0, 0.0, 0.0, 0.0, 0.0, 0.0, 0.0, 0.0, 0.0, 0.0, 1.700945585144146E9, 0.0, 2023-11-25 15:53:05.144
120.0, 76383.35393468785, 82633.41577451417, -11819.289543544, -10402.367759033175, -4932.337097208154, -3979.5716380562353, -15751.184910677066, 187500.0, -0.138, 0.966, 0.152, 192.0, 0.0, 0.0, 0.0, 0.0, 0.0, 0.0, 0.0, 0.0, 0.0, 1.700945585147233E9, 0.0, 2023-11-25 15:53:05.147
121.0, 76393.36751620383, 82586.5441663914, -10715.605105829849, -9136.566118784682, -3610.2090609322863, -2865.09130777017, -15635.827557543225, 187500.0, -0.138, 0.966, 0.152, 192.0, 0.0, 0.0, 0.0, 0.0, 0.0, 0.0, 0.0, 0.0, 0.0, 1.700945585152092E9, 0.0, 2023-11-25 15:53:05.152
122.0, 76366.14309145727, 82571.5908493508, -11177.794477676687, -9491.869448646243, -4032.9252520710534, -3004.9014693381155, -15756.1693496906, 187500.0, -0.138, 0.966, 0.152, 192.0, 0.0, 0.0, 0.0, 0.0, 0.0, 0.0, 0.0, 0.0, 0.0, 1.700945585156108E9, 0.0, 2023-11-25 15:53:05.156
123.0, 76364.04202747847, 82624.09509707631, -11886.635349587841, -10074.110039962536, -4793.7115780963395, -3487.4309286392845, -15845.844548445291, 187500.0, -0.138, 0.966, 0.152, 192.0, 0.0, 0.0, 0.0, 0.0, 0.0, 0.0, 0.0, 0.0, 0.0, 1.700945585160136E9, 0.0, 2023-11-25 15:53:05.160
124.0, 76378.16832997421, 82640.99301588452, -12024.880889043914, -10531.896118151679, -5125.277355346365, -4073.4042612796143, -15803.197420024566, 187500.0, -0.138, 0.966, 0.152, 192.0, 0.0, 0.0, 0.0, 0.0, 0.0, 0.0, 0.0, 0.0, 0.0, 1.700945585166102E9, 0.0, 2023-11-25 15:53:05.166
125.0, 76388.00309753456, 82588.26525071445, -10789.723490443646, -9250.381201551105, -3717.475082573305, -2986.796556329317, -15638.643877344595, 187500.0, -0.138, 0.966, 0.152, 192.0, 0.0, 0.0, 0.0, 0.0, 0.0, 0.0, 0.0, 0.0, 0.0, 1.700945585169162E9, 0.0, 2023-11-25 15:53:05.169
126.0, 76354.65429480723, 82558.60448582226, -11075.267025860194, -9365.04565060683, -3913.611640168624, -2919.115474118647, -15755.722314801493, 187500.0, -0.138, 0.966, 0.152, 192.0, 0.0, 0.0, 0.0, 0.0, 0.0, 0.0, 0.0, 0.0, 0.0, 1.700945585172229E9, 0.0, 2023-11-25 15:53:05.172
127.0, 76346.98764645906, 82598.85997758627, -11746.46756010861, -9916.753758997174, -4625.805273748073, -3330.655793029761, -15838.267307074942, 187500.0, -0.13, 0.964, 0.148, 192.0, 251.0, 240.0, 30.0, 32.0, 4.0, 160.0, 0.0, 0.0, 0.0, 1.700945585175101E9, 0.0, 2023-11-25 15:53:05.175
128.0, 76360.53280359898, 82627.0008238555, -12172.916492571414, -10589.071880468355, -5251.810580707858, -4090.0116074099074, -15861.714287008559, 187500.0, -0.13, 0.964, 0.148, 192.0, 0.0, 0.0, 0.0, 0.0, 0.0, 0.0, 0.0, 0.0, 0.0, 1.70094558517916E9, 0.0, 2023-11-25 15:53:05.179
129.0, 76386.81845507842, 82586.1418349912, -10940.061323650041, -9459.526474419412, -3920.1830530384846, -3179.289779578421, -15656.145293253101, 187500.0, -0.13, 0.964, 0.148, 192.0, 0.0, 0.0, 0.0, 0.0, 0.0, 0.0, 0.0, 0.0, 0.0, 1.700945585184107E9, 0.0, 2023-11-25 15:53:05.184
130.0, 76361.44922512164, 82552.6812735416, -10985.100088727486, -9298.683321319024, -3826.305726326195, -2884.894953357572, -15750.961393232512, 187500.0, -0.13, 0.964, 0.148, 192.0, 0.0, 0.0, 0.0, 0.0, 0.0, 0.0, 0.0, 0.0, 0.0, 1.700945585187704E9, 0.0, 2023-11-25 15:53:05.187
131.0, 76345.266562136, 82586.32064894684, -11614.167584677647, -9833.918194045806, -4487.716196503186, -3243.5510448874293, -15815.60263819726, 187500.0, -0.13, 0.964, 0.148, 192.0, 0.0, 0.0, 0.0, 0.0, 0.0, 0.0, 0.0, 0.0, 0.0, 1.700945585192162E9, 0.0, 2023-11-25 15:53:05.192
132.0, 76353.89433549576, 82634.08632684784, -12229.265240343242, -10579.32651988584, -5273.782345507425, -4042.782371375844, -15875.95234822659, 187500.0, -0.13, 0.964, 0.148, 192.0, 0.0, 0.0, 0.0, 0.0, 0.0, 0.0, 0.0, 0.0, 0.0, 1.700945585196165E9, 0.0, 2023-11-25 15:53:05.196
133.0, 76378.63771660779, 82595.35075370679, -11130.520538153713, -9691.470526632134, -4148.796695327365, -3386.6245611458494, -15658.693392121006, 187500.0, -0.13, 0.964, 0.148, 192.0, 0.0, 0.0, 0.0, 0.0, 0.0, 0.0, 0.0, 0.0, 0.0, 1.700945585199167E9, 0.0, 2023-11-25 15:53:05.199
134.0, 76364.10908271183, 82560.01264572295, -10872.24613097264, -9174.854657036622, -3701.0912538875646, -2810.9777344438717, -15723.133471385656, 187500.0, -0.13, 0.964, 0.148, 192.0, 0.0, 0.0, 0.0, 0.0, 0.0, 0.0, 0.0, 0.0, 0.0, 1.700945585203318E9, 0.0, 2023-11-25 15:53:05.203
135.0, 76344.08191967987, 82576.48588138651, -11488.528429094367, -9711.631800130821, -4339.121799364305, -3140.174226781634, -15803.040957813379, 187500.0, -0.13, 0.964, 0.148, 192.0, 0.0, 0.0, 0.0, 0.0, 0.0, 0.0, 0.0, 0.0, 0.0, 1.70094558520728E9, 0.0, 2023-11-25 15:53:05.207
136.0, 76345.8700592363, 82627.4478587446, -12221.285667572698, -10481.895265805158, -5216.494824468473, -3911.5999831676468, -15896.091269980821, 187500.0, -0.13, 0.964, 0.148, 192.0, 0.0, 0.0, 0.0, 0.0, 0.0, 0.0, 0.0, 0.0, 0.0, 1.70094558521219E9, 0.0, 2023-11-25 15:53:05.212
137.0, 76382.3257544429, 82611.53341669243, -11375.383898661603, -9967.603977632998, -4434.720210399653, -3617.0710464800654, -15691.416346003574, 187500.0, -0.128, 0.964, 0.148, 192.0, 252.0, 0.0, 30.0, 32.0, 4.0, 160.0, 0.0, 0.0, 0.0, 1.700945585216195E9, 0.0, 2023-11-25 15:53:05.216
138.0, 76377.72129508511, 82564.61710508075, -10786.929522386734, -9109.609914971581, -3619.7756075591574, -2779.7523474398076, -15700.625264719161, 187500.0, -0.128, 0.964, 0.148, 192.0, 0.0, 0.0, 0.0, 0.0, 0.0, 0.0, 0.0, 0.0, 0.0, 1.700945585220323E9, 0.0, 2023-11-25 15:53:05.220
139.0, 76356.53184134148, 82577.69287558709, -11381.798849320276, -9638.988630651073, -4224.278536352937, -3087.982903478492, -15788.624082639704, 187500.0, -0.128, 0.964, 0.148, 192.0, 0.0, 0.0, 0.0, 0.0, 0.0, 0.0, 0.0, 0.0, 0.0, 1.700945585224264E9, 0.0, 2023-11-25 15:53:05.224
140.0, 76352.75439652853, 82629.19129481212, -12146.519082369696, -10355.339688699209, -5099.014055611379, -3777.3107024801616, -15894.86192403578, 187500.0, -0.128, 0.964, 0.148, 192.0, 0.0, 0.0, 0.0, 0.0, 0.0, 0.0, 0.0, 0.0, 0.0, 1.700945585227469E9, 0.0, 2023-11-25 15:53:05.227
141.0, 76370.43462639269, 82614.88617836073, -11625.298753416391, -10197.670483311473, -4703.231716541257, -3819.711961711879, -15730.73306450046, 187500.0, -0.128, 0.964, 0.148, 192.0, 0.0, 0.0, 0.0, 0.0, 0.0, 0.0, 0.0, 0.0, 0.0, 1.700945585231298E9, 0.0, 2023-11-25 15:53:05.231
142.0, 76373.20624270514, 82566.02526498142, -10744.215338732642, -9103.776109668745, -3593.512307824172, -2804.115748896092, -15676.373621985153, 187500.0, -0.128, 0.964, 0.148, 192.0, 0.0, 0.0, 0.0, 0.0, 0.0, 0.0, 0.0, 0.0, 0.0, 1.700945585235286E9, 0.0, 2023-11-25 15:53:05.235
143.0, 76357.94000124217, 82570.0932824723, -11281.75244113832, -9583.578656146366, -4126.802578783343, -3053.337699572766, -15773.201378965543, 187500.0, -0.128, 0.964, 0.148, 192.0, 0.0, 0.0, 0.0, 0.0, 0.0, 0.0, 0.0, 0.0, 0.0, 1.700945585240313E9, 0.0, 2023-11-25 15:53:05.240
144.0, 76349.0216552045, 82613.85799811578, -12020.321133175032, -10207.080567727156, -4936.762742610305, -3615.4170173903726, -15875.684127293127, 187500.0, -0.128, 0.964, 0.148, 192.0, 0.0, 0.0, 0.0, 0.0, 0.0, 0.0, 0.0, 0.0, 0.0, 1.700945585245339E9, 0.0, 2023-11-25 15:53:05.245
145.0, 76375.5308241285, 82626.57614071085, -11861.981375453637, -10406.592238735228, -4950.397306728042, -3982.4326613465146, -15779.884550557681, 187500.0, -0.128, 0.964, 0.148, 192.0, 0.0, 0.0, 0.0, 0.0, 0.0, 0.0, 0.0, 0.0, 0.0, 1.700945585248304E9, 0.0, 2023-11-25 15:53:05.248
146.0, 76385.36559168882, 82583.25845995647, -10741.756646842558, -9144.031601432753, -3619.8426627925237, -2870.835706095184, -15667.38822071412, 187500.0, -0.128, 0.964, 0.148, 192.0, 0.0, 0.0, 0.0, 0.0, 0.0, 0.0, 0.0, 0.0, 0.0, 1.700945585252341E9, 0.0, 2023-11-25 15:53:05.252
147.0, 76363.3714751448, 82572.28375342891, -11188.389204548503, -9482.92875086412, -4023.805740333288, -2997.815966345783, -15792.334472219287, 187500.0, -0.136, 0.964, 0.148, 192.0, 251.0, 192.0, 30.0, 32.0, 4.0, 160.0, 0.0, 0.0, 0.0, 1.700945585256513E9, 0.0, 2023-11-25 15:53:05.256
148.0, 76352.53087908398, 82611.66752715917, -11890.032814745047, -10053.41232459692, -4778.870019778016, -3459.6924137702485, -15877.360508127274, 187500.0, -0.136, 0.964, 0.148, 192.0, 0.0, 0.0, 0.0, 0.0, 0.0, 0.0, 0.0, 0.0, 0.0, 1.700945585259351E9, 0.0, 2023-11-25 15:53:05.259
149.0, 76368.75824555854, 82634.66747220367, -12057.760305137672, -10542.446141534585, -5146.645623045638, -4072.5548949903127, -15829.550126737373, 187500.0, -0.136, 0.964, 0.148, 192.0, 0.0, 0.0, 0.0, 0.0, 0.0, 0.0, 0.0, 0.0, 0.0, 1.700945585263335E9, 0.0, 2023-11-25 15:53:05.263
150.0, 76390.64060338028, 82593.42850368364, -10813.014008166076, -9286.412213613059, -3741.369097396028, -3010.3329432407554, -15653.418380429554, 187500.0, -0.136, 0.964, 0.148, 192.0, 0.0, 0.0, 0.0, 0.0, 0.0, 0.0, 0.0, 0.0, 0.0, 1.700945585270056E9, 0.0, 2023-11-25 15:53:05.270
151.0, 76365.69605656815, 82569.75800630546, -11071.511932791702, -9384.357557816214, -3906.7943581097556, -2928.9502416789824, -15762.763114304915, 187500.0, -0.136, 0.964, 0.148, 192.0, 0.0, 0.0, 0.0, 0.0, 0.0, 0.0, 0.0, 0.0, 0.0, 1.700945585272395E9, 0.0, 2023-11-25 15:53:05.272
152.0, 76351.45799535012, 82600.8492828428, -11737.057475692925, -9919.279506120623, -4607.409788061355, -3319.7704934800263, -15849.264365346953, 187500.0, -0.136, 0.964, 0.148, 192.0, 0.0, 0.0, 0.0, 0.0, 0.0, 0.0, 0.0, 0.0, 0.0, 1.700945585276363E9, 0.0, 2023-11-25 15:53:05.276
153.0, 76363.86321352283, 82631.44882100211, -12191.759013147237, -10619.91728781668, -5262.740583746503, -4096.00187492393, -15873.85128424779, 187500.0, -0.136, 0.964, 0.148, 192.0, 0.0, 0.0, 0.0, 0.0, 0.0, 0.0, 0.0, 0.0, 0.0, 1.700945585280363E9, 0.0, 2023-11-25 15:53:05.280
154.0, 76392.13817025878, 82597.92120431915, -10957.987422703198, -9501.12307085074, -3936.1198468351186, -3204.167271157178, -15656.659383375572, 187500.0, -0.136, 0.964, 0.148, 192.0, 0.0, 0.0, 0.0, 0.0, 0.0, 0.0, 0.0, 0.0, 0.0, 1.700945585283357E9, 0.0, 2023-11-25 15:53:05.283
155.0, 76368.26650718052, 82563.05248296887, -10968.537446086102, -9281.517181577346, -3796.7343684118237, -2868.1311450160915, -15752.883643255669, 187500.0, -0.136, 0.964, 0.148, 192.0, 0.0, 0.0, 0.0, 0.0, 0.0, 0.0, 0.0, 0.0, 0.0, 1.700945585287471E9, 0.0, 2023-11-25 15:53:05.287
156.0, 76353.55905932892, 82591.41684668265, -11603.841078739295, -9815.500356614633, -4461.676414212753, -3225.2449661785326, -15830.690065704594, 187500.0, -0.136, 0.964, 0.148, 192.0, 0.0, 0.0, 0.0, 0.0, 0.0, 0.0, 0.0, 0.0, 0.0, 1.700945585291407E9, 0.0, 2023-11-25 15:53:05.291
157.0, 76365.20431819014, 82643.18348684115, -12228.661743242948, -10570.698746526092, -5267.166229148654, -4024.945679300509, -15886.345909398307, 187500.0, -0.132, 0.964, 0.148, 192.0, 251.0, 224.0, 30.0, 32.0, 4.0, 160.0, 0.0, 0.0, 0.0, 1.700945585295506E9, 0.0, 2023-11-25 15:53:05.295
158.0, 76391.28880396948, 82607.10777129028, -11150.145369785472, -9728.26149800557, -4176.803431129865, -3407.501090467106, -15663.00727880088, 187500.0, -0.132, 0.964, 0.148, 192.0, 0.0, 0.0, 0.0, 0.0, 0.0, 0.0, 0.0, 0.0, 0.0, 1.700945585300465E9, 0.0, 2023-11-25 15:53:05.300
159.0, 76377.09544624036, 82569.64624758318, -10852.375430151873, -9158.560235328703, -3681.332311789073, -2796.538507525743, -15723.356988830208, 187500.0, -0.132, 0.964, 0.148, 192.0, 0.0, 0.0, 0.0, 0.0, 0.0, 0.0, 0.0, 0.0, 0.0, 1.700945585304448E9, 0.0, 2023-11-25 15:53:05.304
160.0, 76359.23640242057, 82589.56165189286, -11472.345766108725, -9693.973922011128, -4322.693267189654, -3129.400685954176, -15804.024434569412, 187500.0, -0.132, 0.964, 0.148, 192.0, 0.0, 0.0, 0.0, 0.0, 0.0, 0.0, 0.0, 0.0, 0.0, 1.700945585308532E9, 0.0, 2023-11-25 15:53:05.308
161.0, 76368.89235602527, 82639.54015249493, -12207.025254610213, -10462.605710340227, -5201.072120794311, -3898.1218812610964, -15890.413926889174, 187500.0, -0.132, 0.964, 0.148, 192.0, 0.0, 0.0, 0.0, 0.0, 0.0, 0.0, 0.0, 0.0, 0.0, 1.700945585311488E9, 0.0, 2023-11-25 15:53:05.311
162.0, 76395.66974588273, 82611.19814052561, -11386.626826122621, -9978.668091138374, -4451.215797807669, -3625.654116350903, -15682.67681392155, 187500.0, -0.132, 0.964, 0.148, 192.0, 0.0, 0.0, 0.0, 0.0, 0.0, 0.0, 0.0, 0.0, 0.0, 1.70094558531656E9, 0.0, 2023-11-25 15:53:05.316
163.0, 76382.57162363191, 82561.62197132374, -10779.106411827375, -9110.906316149989, -3623.9553837723, -2783.6191992305758, -15700.133526341144, 187500.0, -0.132, 0.964, 0.148, 192.0, 0.0, 0.0, 0.0, 0.0, 0.0, 0.0, 0.0, 0.0, 0.0, 1.700945585319656E9, 0.0, 2023-11-25 15:53:05.319
164.0, 76363.01384723352, 82570.3391516613, -11372.031136993306, -9640.62030799631, -4231.229928878538, -3094.5766680928077, -15793.832039097791, 187500.0, -0.132, 0.964, 0.148, 192.0, 0.0, 0.0, 0.0, 0.0, 0.0, 0.0, 0.0, 0.0, 0.0, 1.700945585323592E9, 0.0, 2023-11-25 15:53:05.323
165.0, 76363.28206816698, 82627.26904478896, -12134.046808963634, -10357.708973611472, -5099.595200967217, -3777.757737369268, -15893.252598434998, 187500.0, -0.132, 0.964, 0.148, 192.0, 0.0, 0.0, 0.0, 0.0, 0.0, 0.0, 0.0, 0.0, 0.0, 1.700945585327563E9, 0.0, 2023-11-25 15:53:05.327
166.0, 76394.61921389333, 82629.34775702331, -11638.910965789672, -10238.864748342605, -4737.027554157681, -3852.1219911720746, -15723.424044063575, 187500.0, -0.132, 0.964, 0.148, 192.0, 0.0, 0.0, 0.0, 0.0, 0.0, 0.0, 0.0, 0.0, 0.0, 1.700945585332591E9, 0.0, 2023-11-25 15:53:05.332
167.0, 76394.03806853748, 82580.28567794392, -10720.723655310114, -9096.288275276218, -3584.9739414422443, -2805.03217041876, -15662.76140961187, 187500.0, -0.13, 0.972, 0.152, 192.0, 251.0, 240.0, 30.0, 96.0, 4.0, 192.0, 0.0, 0.0, 0.0, 1.700945585337624E9, 0.0, 2023-11-25 15:53:05.337
168.0, 76360.33163789888, 82565.73469230351, -11263.625176385067, -9550.922757497163, -4112.743331520955, -3029.175463816579, -15775.794181322359, 187500.0, -0.13, 0.972, 0.152, 192.0, 0.0, 0.0, 0.0, 0.0, 0.0, 0.0, 0.0, 0.0, 0.0, 1.700945585341674E9, 0.0, 2023-11-25 15:53:05.341
169.0, 76357.89529775326, 82612.40513472618, -12014.129699960911, -10200.106823457101, -4939.154379267023, -3598.675560793348, -15878.56750232786, 187500.0, -0.13, 0.972, 0.152, 192.0, 0.0, 0.0, 0.0, 0.0, 0.0, 0.0, 0.0, 0.0, 0.0, 1.700945585344633E9, 0.0, 2023-11-25 15:53:05.344
170.0, 76380.91759454222, 82617.0990010618, -11884.891913520327, -10443.047933941834, -4987.948237412958, -3996.4025016310816, -15782.544408147862, 187500.0, -0.13, 0.972, 0.152, 192.0, 0.0, 0.0, 0.0, 0.0, 0.0, 0.0, 0.0, 0.0, 0.0, 1.700945585347638E9, 0.0, 2023-11-25 15:53:05.347
171.0, 76388.13720800128, 82564.77356729192, -10753.468960937138, -9181.850753051132, -3645.0554305381097, -2890.2146685379353, -15667.05294454729, 187500.0, -0.13, 0.972, 0.152, 192.0, 0.0, 0.0, 0.0, 0.0, 0.0, 0.0, 0.0, 0.0, 0.0, 1.700945585351683E9, 0.0, 2023-11-25 15:53:05.351
172.0, 76362.16448094422, 82556.59282882129, -11176.967463131841, -9490.684806190111, -4020.676496109545, -2988.2047162300014, -15784.153733748644, 187500.0, -0.13, 0.972, 0.152, 192.0, 0.0, 0.0, 0.0, 0.0, 0.0, 0.0, 0.0, 0.0, 0.0, 1.700945585355714E9, 0.0, 2023-11-25 15:53:05.355
173.0, 76359.88460300978, 82606.45957070107, -11868.686898790229, -10049.880748972982, -4762.732060281284, -3445.2084833632093, -15866.47520857754, 187500.0, -0.13, 0.972, 0.152, 192.0, 0.0, 0.0, 0.0, 0.0, 0.0, 0.0, 0.0, 0.0, 0.0, 1.700945585360705E9, 0.0, 2023-11-25 15:53:05.360
174.0, 76378.8835857968, 82633.63929195872, -12066.43278198633, -10551.498598038985, -5158.02266097339, -4069.515057744391, -15830.019513370933, 187500.0, -0.13, 0.972, 0.152, 192.0, 0.0, 0.0, 0.0, 0.0, 0.0, 0.0, 0.0, 0.0, 0.0, 1.700945585363684E9, 0.0, 2023-11-25 15:53:05.363
175.0, 76401.74942037457, 82590.9474600491, -10826.827386239456, -9303.399539399094, -3764.681966862913, -3017.6419636776404, -15656.48056941993, 187500.0, -0.13, 0.972, 0.152, 192.0, 0.0, 0.0, 0.0, 0.0, 0.0, 0.0, 0.0, 0.0, 0.0, 1.70094558536668E9, 0.0, 2023-11-25 15:53:05.366
176.0, 76361.51628035502, 82548.83677349529, -11077.323386350083, -9380.513057769902, -3916.226794269895, -2921.305945075267, -15778.141114490167, 187500.0, -0.13, 0.972, 0.152, 192.0, 0.0, 0.0, 0.0, 0.0, 0.0, 0.0, 0.0, 0.0, 0.0, 1.700945585371747E9, 0.0, 2023-11-25 15:53:05.371
177.0, 76350.85449824983, 82593.47320717254, -11743.919461240705, -9931.461206848766, -4620.8431864789945, -3327.2806796170094, -15864.083571920823, 187500.0, -0.134, 0.962, 0.162, 192.0, 251.0, 208.0, 30.0, 16.0, 5.0, 16.0, 0.0, 0.0, 0.0, 1.700945585375721E9, 0.0, 2023-11-25 15:53:05.375
178.0, 76372.64744909375, 82642.13295485175, -12195.536457960185, -10609.501374900507, -5261.310072101363, -4084.3789678071703, -15867.413981844662, 187500.0, -0.134, 0.962, 0.162, 192.0, 0.0, 0.0, 0.0, 0.0, 0.0, 0.0, 0.0, 0.0, 0.0, 1.700945585379717E9, 0.0, 2023-11-25 15:53:05.379
179.0, 76398.15078951727, 82604.69378288911, -10971.957262987766, -9498.485565005012, -3947.0274981293082, -3195.785366986438, -15650.222080972444, 187500.0, -0.134, 0.962, 0.162, 192.0, 0.0, 0.0, 0.0, 0.0, 0.0, 0.0, 0.0, 0.0, 0.0, 1.700945585383759E9, 0.0, 2023-11-25 15:53:05.383
180.0, 76372.4239316492, 82560.97377073453, -10966.905768740866, -9259.433658055505, -3790.6323421755246, -2847.031098250282, -15755.319983401298, 187500.0, -0.134, 0.962, 0.162, 192.0, 0.0, 0.0, 0.0, 0.0, 0.0, 0.0, 0.0, 0.0, 0.0, 1.7009455853879E9, 0.0, 2023-11-25 15:53:05.387
181.0, 76360.73396929908, 82596.06600952936, -11597.739052502997, -9793.863867981896, -4449.4500099957, -3201.753282756005, -15826.554992980362, 187500.0, -0.134, 0.962, 0.162, 192.0, 0.0, 0.0, 0.0, 0.0, 0.0, 0.0, 0.0, 0.0, 0.0, 1.700945585391768E9, 0.0, 2023-11-25 15:53:05.391
182.0, 76374.279126439, 82652.34770206783, -12244.33031610612, -10570.229359892532, -5269.222589638543, -4012.2722401943497, -15894.481944380039, 187500.0, -0.134, 0.962, 0.162, 192.0, 0.0, 0.0, 0.0, 0.0, 0.0, 0.0, 0.0, 0.0, 0.0, 1.700945585396838E9, 0.0, 2023-11-25 15:53:05.396
183.0, 76401.8835308413, 82619.87061737425, -11179.292044555194, -9746.925204625752, -4199.289286051904, -3421.225061562665, -15676.977119085446, 187500.0, -0.134, 0.962, 0.162, 192.0, 0.0, 0.0, 0.0, 0.0, 0.0, 0.0, 0.0, 0.0, 0.0, 1.700945585399817E9, 0.0, 2023-11-25 15:53:05.399
184.0, 76381.11876024232, 82567.32166615983, -10864.62418611338, -9156.973261472376, -3685.400329279939, -2789.4083010445, -15745.373457118685, 187500.0, -0.134, 0.962, 0.162, 192.0, 0.0, 0.0, 0.0, 0.0, 0.0, 0.0, 0.0, 0.0, 0.0, 1.700945585403784E9, 0.0, 2023-11-25 15:53:05.403
185.0, 76359.90695475423, 82579.21279421006, -11481.107649935204, -9700.835907558907, -4325.0625521019165, -3119.565918393841, -15826.17501332462, 187500.0, -0.134, 0.962, 0.162, 192.0, 0.0, 0.0, 0.0, 0.0, 0.0, 0.0, 0.0, 0.0, 0.0, 1.700945585408077E9, 0.0, 2023-11-25 15:53:05.408
186.0, 76369.38409440329, 82636.0532803599, -12223.207917595855, -10469.154771465634, -5204.804862118347, -3882.1180322310965, -15913.01154053349, 187500.0, -0.134, 0.962, 0.162, 192.0, 0.0, 0.0, 0.0, 0.0, 0.0, 0.0, 0.0, 0.0, 0.0, 1.700945585411894E9, 0.0, 2023-11-25 15:53:05.411
187.0, 76404.65514715375, 82624.02804184295, -11436.717085446964, -10030.479434785777, -4497.595667552432, -3664.702613914325, -15716.606762004705, 187500.0, -0.136, 0.96, 0.164, 192.0, 251.0, 192.0, 30.0, 0.0, 5.0, 32.0, 0.0, 0.0, 0.0, 1.700945585415826E9, 0.0, 2023-11-25 15:53:05.415
188.0, 76396.31794647193, 82574.22835519652, -10785.029624108032, -9109.766377182768, -3614.8805755234453, -2786.3908155430336, -15718.618419005683, 187500.0, -0.136, 0.96, 0.164, 192.0, 0.0, 0.0, 0.0, 0.0, 0.0, 0.0, 0.0, 0.0, 0.0, 1.700945585419844E9, 0.0, 2023-11-25 15:53:05.419
189.0, 76371.35104791535, 82580.82211981084, -11379.988358019395, -9624.459996755124, -4208.297039067393, -3080.785641763883, -15819.871821388224, 187500.0, -0.136, 0.96, 0.164, 192.0, 0.0, 0.0, 0.0, 0.0, 0.0, 0.0, 0.0, 0.0, 0.0, 1.700945585422889E9, 0.0, 2023-11-25 15:53:05.422
190.0, 76363.66204782273, 82629.86184714579, -12146.362620158508, -10325.790682529294, -5071.320244231253, -3748.9016352774665, -15917.034854535445, 187500.0, -0.136, 0.96, 0.164, 192.0, 0.0, 0.0, 0.0, 0.0, 0.0, 0.0, 0.0, 0.0, 0.0, 1.700945585427876E9, 0.0, 2023-11-25 15:53:05.427
191.0, 76386.14790274476, 82632.36524252477, -11692.488097249043, -10243.066876300201, -4751.556188053631, -3857.173485418974, -15757.510454357918, 187500.0, -0.136, 0.96, 0.164, 192.0, 0.0, 0.0, 0.0, 0.0, 0.0, 0.0, 0.0, 0.0, 0.0, 1.700945585431885E9, 0.0, 2023-11-25 15:53:05.431
192.0, 76388.09250451237, 82588.60052688129, -10760.286242996008, -9110.168708582964, -3593.467604335261, -2824.344077628145, -15701.094651352723, 187500.0, -0.136, 0.96, 0.164, 192.0, 0.0, 0.0, 0.0, 0.0, 0.0, 0.0, 0.0, 0.0, 0.0, 1.700945585435934E9, 0.0, 2023-11-25 15:53:05.435
193.0, 76365.49489086807, 82582.72201808954, -11291.654263932021, -9571.016975762484, -4112.296296631849, -3062.4572113105314, -15811.89224861768, 187500.0, -0.136, 0.96, 0.164, 192.0, 0.0, 0.0, 0.0, 0.0, 0.0, 0.0, 0.0, 0.0, 0.0, 1.70094558543994E9, 0.0, 2023-11-25 15:53:05.439
194.0, 76360.77867278799, 82626.06205058839, -12030.938211791303, -10191.411994863987, -4917.7414080788385, -3613.114787711476, -15905.590761374327, 187500.0, -0.136, 0.96, 0.164, 192.0, 0.0, 0.0, 0.0, 0.0, 0.0, 0.0, 0.0, 0.0, 0.0, 1.700945585443936E9, 0.0, 2023-11-25 15:53:05.443
195.0, 76370.1217019703, 82625.03387034344, -11939.74309441365, -10452.905053246624, -5004.577935287707, -4034.020487549363, -15816.809632397848, 187500.0, -0.136, 0.96, 0.164, 192.0, 0.0, 0.0, 0.0, 0.0, 0.0, 0.0, 0.0, 0.0, 0.0, 1.700945585447978E9, 0.0, 2023-11-25 15:53:05.447
196.0, 76384.13624574378, 82575.97179126403, -10780.872199639345, -9170.965453501398, -3644.921320071378, -2910.95708739246, -15679.01112783088, 187500.0, -0.136, 0.96, 0.164, 192.0, 0.0, 0.0, 0.0, 0.0, 0.0, 0.0, 0.0, 0.0, 0.0, 1.700945585450953E9, 0.0, 2023-11-25 15:53:05.450
197.0, 76364.08673096738, 82559.02916896691, -11193.395995306491, -9465.427334955613, -4007.7795395588328, -2997.793614601328, -15795.240198998476, 187500.0, -0.13, 0.964, 0.158, 192.0, 251.0, 240.0, 30.0, 32.0, 4.0, 240.0, 0.0, 0.0, 0.0, 1.700945585455054E9, 0.0, 2023-11-25 15:53:05.455
198.0, 76353.35789362882, 82598.21177699706, -11895.330178180955, -10038.481359300777, -4756.831199745083, -3454.506809056617, -15891.57621760085, 187500.0, -0.13, 0.964, 0.158, 192.0, 0.0, 0.0, 0.0, 0.0, 0.0, 0.0, 0.0, 0.0, 0.0, 1.700945585460021E9, 0.0, 2023-11-25 15:53:05.460
199.0, 76364.6231728343, 82622.06108833088, -12121.507480324208, -10550.55982477186, -5175.5464286263505, -4089.8104417098098, -15873.068973191856, 187500.0, -0.13, 0.964, 0.158, 192.0, 0.0, 0.0, 0.0, 0.0, 0.0, 0.0, 0.0, 0.0, 0.0, 1.700945585464064E9, 0.0, 2023-11-25 15:53:05.464
200.0, 76396.45205693867, 82597.96590780806, -10873.162552495307, -9311.669684847557, -3775.455507690371, -3054.522342028897, -15686.968348856968, 187500.0, -0.13, 0.964, 0.158, 192.0, 0.0, 0.0, 0.0, 0.0, 0.0, 0.0, 0.0, 0.0, 0.0, 1.700945585468028E9, 0.0, 2023-11-25 15:53:05.468
201.0, 76376.87192879581, 82580.57625062183, -11086.465249832303, -9361.13409532715, -3886.856602055622, -2926.558605022264, -15782.812629081325, 187500.0, -0.13, 0.964, 0.158, 192.0, 0.0, 0.0, 0.0, 0.0, 0.0, 0.0, 0.0, 0.0, 0.0, 1.700945585472263E9, 0.0, 2023-11-25 15:53:05.472
202.0, 76360.66691406572, 82608.78415212443, -11740.812568761417, -9884.56724698153, -4569.925912609806, -3299.944496148169, -15851.27602234793, 187500.0, -0.13, 0.964, 0.158, 192.0, 0.0, 0.0, 0.0, 0.0, 0.0, 0.0, 0.0, 0.0, 0.0, 1.700945585476023E9, 0.0, 2023-11-25 15:53:05.476
203.0, 76374.279126439, 82649.19610609963, -12226.985362408801, -10576.689014040116, -5249.776571962425, -4074.6559589691115, -15875.371202870752, 187500.0, -0.13, 0.964, 0.158, 192.0, 0.0, 0.0, 0.0, 0.0, 0.0, 0.0, 0.0, 0.0, 0.0, 1.70094558547905E9, 0.0, 2023-11-25 15:53:05.479
204.0, 76396.51911217203, 82607.71126839057, -11022.785129879134, -9505.235791830515, -3973.1790391420177, -3230.452922636619, -15673.602005672696, 187500.0, -0.13, 0.964, 0.158, 192.0, 0.0, 0.0, 0.0, 0.0, 0.0, 0.0, 0.0, 0.0, 0.0, 1.70094558548309E9, 0.0, 2023-11-25 15:53:05.483
205.0, 76374.36853341681, 82572.82019529583, -10985.345957916494, -9250.06827712873, -3785.580847928625, -2866.857095582139, -15768.93219577458, 187500.0, -0.13, 0.964, 0.158, 192.0, 0.0, 0.0, 0.0, 0.0, 0.0, 0.0, 0.0, 0.0, 0.0, 1.700945585487124E9, 0.0, 2023-11-25 15:53:05.487
206.0, 76362.03037047749, 82600.22343399805, -11610.43484335361, -9788.745318501631, -4435.614280177865, -3220.0146579759908, -15839.183728597609, 187500.0, -0.13, 0.964, 0.158, 192.0, 251.0, 240.0, 30.0, 32.0, 4.0, 240.0, 0.0, 0.0, 0.0, 1.700945585492059E9, 0.0, 2023-11-25 15:53:05.492
207.0, 76369.65231533675, 82648.65966423269, -12276.203903699388, -10581.00290071999, -5268.753203004981, -4040.569548674768, -15911.24575272152, 187500.0, -0.13, 0.964, 0.158, 192.0, 0.0, 0.0, 0.0, 0.0, 0.0, 0.0, 0.0, 0.0, 0.0, 1.700945585496116E9, 0.0, 2023-11-25 15:53:05.496
208.0, 76394.82037959342, 82617.14370455072, -11239.351181906603, -9799.60826630691, -4232.995716690507, -3492.8847542863796, -15697.496020495419, 187500.0, -0.13, 0.964, 0.158, 192.0, 0.0, 0.0, 0.0, 0.0, 0.0, 0.0, 0.0, 0.0, 0.0, 1.700945585500154E9, 0.0, 2023-11-25 15:53:05.500
209.0, 76388.85246382386, 82584.57721287933, -10879.957482809721, -9186.365805431105, -3680.5723524775926, -2838.090400468159, -15750.581413576772, 187500.0, -0.13, 0.964, 0.158, 192.0, 0.0, 0.0, 0.0, 0.0, 0.0, 0.0, 0.0, 0.0, 0.0, 1.700945585503235E9, 0.0, 2023-11-25 15:53:05.503
210.0, 76364.06437922292, 82589.15932049268, -11489.5119058504, -9704.479241905123, -4301.369702979291, -3151.461857731564, -15829.416016270641, 187500.0, -0.13, 0.964, 0.158, 192.0, 0.0, 0.0, 0.0, 0.0, 0.0, 0.0, 0.0, 0.0, 0.0, 1.700945585507173E9, 0.0, 2023-11-25 15:53:05.507
211.0, 76363.55028910044, 82639.13782109473, -12245.000868439778, -10454.223806169488, -5185.269437464409, -3902.0334365407753, -15930.065921552889, 187500.0, -0.13, 0.964, 0.158, 192.0, 0.0, 0.0, 0.0, 0.0, 0.0, 0.0, 0.0, 0.0, 0.0, 1.700945585511154E9, 0.0, 2023-11-25 15:53:05.511
212.0, 76397.8825685838, 82627.87254188926, -11491.054176217816, -10049.165493150413, -4516.326429405979, -3712.8706232155114, -15735.203413391522, 187500.0, -0.13, 0.964, 0.158, 192.0, 0.0, 0.0, 0.0, 0.0, 0.0, 0.0, 0.0, 0.0, 0.0, 1.700945585515146E9, 0.0, 2023-11-25 15:53:05.515
213.0, 76386.9302138007, 82577.49170988699, -10813.483394799638, -9121.56809825517, -3618.9485930143114, -2824.2323189058684, -15737.729160514971, 187500.0, -0.13, 0.964, 0.158, 192.0, 0.0, 0.0, 0.0, 0.0, 0.0, 0.0, 0.0, 0.0, 0.0, 1.700945585520168E9, 0.0, 2023-11-25 15:53:05.520
214.0, 76367.99828624705, 82586.27594545794, -11400.641369896099, -9650.05274415645, -4215.9413356711075, -3119.632973627207, -15831.539431993895, 187500.0, -0.13, 0.964, 0.158, 192.0, 0.0, 0.0, 0.0, 0.0, 0.0, 0.0, 0.0, 0.0, 0.0, 1.700945585524202E9, 0.0, 2023-11-25 15:53:05.524
215.0, 76361.89626001076, 82633.54988498091, -12160.399515676441, -10324.986019728902, -5067.386337207119, -3758.6693476044356, -15932.077578553866, 187500.0, -0.13, 0.964, 0.158, 192.0, 0.0, 0.0, 0.0, 0.0, 0.0, 0.0, 0.0, 0.0, 0.0, 1.70094558552829E9, 0.0, 2023-11-25 15:53:05.528
216.0, 76376.1790247177, 82628.07370758936, -11747.94277524266, -10279.32140580671, -4793.219839718323, -3902.7039888744343, -15786.947701805557, 187500.0, -0.128, 0.968, 0.158, 192.0, 252.0, 0.0, 30.0, 64.0, 4.0, 240.0, 0.0, 0.0, 0.0, 1.700945585531236E9, 0.0, 2023-11-25 15:53:05.531
217.0, 76379.1741584747, 82583.3925704232, -10778.32410077144, -9111.018074872265, -3600.888383494423, -2842.851322037139, -15716.159727115599, 187500.0, -0.128, 0.968, 0.158, 192.0, 0.0, 0.0, 0.0, 0.0, 0.0, 0.0, 0.0, 0.0, 0.0, 1.700945585535237E9, 0.0, 2023-11-25 15:53:05.535
218.0, 76360.01871347651, 82579.77158782144, -11296.683406434466, -9548.41936211817, -4099.824023225788, -3058.344490330755, -15824.632742957205, 187500.0, -0.128, 0.968, 0.158, 192.0, 0.0, 0.0, 0.0, 0.0, 0.0, 0.0, 0.0, 0.0, 0.0, 1.70094558553921E9, 0.0, 2023-11-25 15:53:05.539
219.0, 76355.54836458545, 82628.09605933381, -12041.2423659852, -10175.832828978639, -4907.370198651576, -3608.2644591646745, -15923.338046471841, 187500.0, -0.128, 0.968, 0.158, 192.0, 0.0, 0.0, 0.0, 0.0, 0.0, 0.0, 0.0, 0.0, 0.0, 1.700945585543193E9, 0.0, 2023-11-25 15:53:05.543
220.0, 76371.06047523743, 82629.39246051222, -11982.077298412001, -10483.50459140594, -5032.830540279215, -4062.9212931300754, -15834.333400050808, 187500.0, -0.128, 0.968, 0.158, 192.0, 0.0, 0.0, 0.0, 0.0, 0.0, 0.0, 0.0, 0.0, 0.0, 1.700945585548219E9, 0.0, 2023-11-25 15:53:05.548
221.0, 76372.15571071574, 82573.73661681851, -10810.778833720546, -9197.161698003018, -3666.177829048375, -2945.8928639761048, -15710.415328790586, 187500.0, -0.128, 0.968, 0.158, 192.0, 0.0, 0.0, 0.0, 0.0, 0.0, 0.0, 0.0, 0.0, 0.0, 1.700945585552314E9, 0.0, 2023-11-25 15:53:05.552
222.0, 76349.0216552045, 82566.5393551039, -11220.620420053056, -9483.554599708868, -4018.441321664014, -3026.2250335484787, -15830.824176171325, 187500.0, -0.128, 0.968, 0.158, 192.0, 0.0, 0.0, 0.0, 0.0, 0.0, 0.0, 0.0, 0.0, 0.0, 1.70094558555628E9, 0.0, 2023-11-25 15:53:05.556
223.0, 76345.33361736937, 82615.4002684832, -11914.507974923608, -10055.334574620078, -4759.245188146257, -3474.288102899564, -15910.508145154494, 187500.0, -0.128, 0.968, 0.158, 192.0, 0.0, 0.0, 0.0, 0.0, 0.0, 0.0, 0.0, 0.0, 0.0, 1.700945585559488E9, 0.0, 2023-11-25 15:53:05.559
224.0, 76366.56777460192, 82638.93665539463, -12160.332460443076, -10591.23999968052, -5196.422957947607, -4120.499386846946, -15872.309013880375, 187500.0, -0.128, 0.968, 0.158, 192.0, 0.0, 0.0, 0.0, 0.0, 0.0, 0.0, 0.0, 0.0, 0.0, 1.700945585563389E9, 0.0, 2023-11-25 15:53:05.563
225.0, 76379.50943464154, 82581.91735528914, -10903.002131343143, -9341.710429395489, -3796.354388756083, -3083.0655196983244, -15698.166572829077, 187500.0, -0.128, 0.968, 0.158, 192.0, 0.0, 0.0, 0.0, 0.0, 0.0, 0.0, 0.0, 0.0, 0.0, 1.700945585567294E9, 0.0, 2023-11-25 15:53:05.567
226.0, 76359.43756812067, 82556.86104975475, -11104.81603203011, -9359.94945287102, -3892.8245178251887, -2943.143599408102, -15822.330513278308, 187500.0, -0.128, 0.968, 0.16, 192.0, 252.0, 0.0, 30.0, 64.0, 5.0, 0.0, 0.0, 0.0, 0.0, 1.700945585571508E9, 0.0, 2023-11-25 15:53:05.571
227.0, 76362.70092281114, 82606.12429453425, -11754.067153223414, -9912.417520572844, -4580.230066803702, -3337.0260401995233, -15876.868769749257, 187500.0, -0.128, 0.968, 0.16, 192.0, 0.0, 0.0, 0.0, 0.0, 0.0, 0.0, 0.0, 0.0, 0.0, 1.700945585576339E9, 0.0, 2023-11-25 15:53:05.576
228.0, 76370.94871651515, 82639.89778040622, -12261.608214570071, -10645.44297998464, -5282.7900985229135, -4133.888081775675, -15895.644235091715, 187500.0, -0.128, 0.968, 0.16, 192.0, 0.0, 0.0, 0.0, 0.0, 0.0, 0.0, 0.0, 0.0, 0.0, 1.700945585580494E9, 0.0, 2023-11-25 15:53:05.580
229.0, 76399.91657732923, 82611.04167831442, -11053.85405467201, -9592.407595206214, -4005.41025464657, -3299.966847892624, -15678.742906897416, 187500.0, -0.128, 0.968, 0.16, 192.0, 0.0, 0.0, 0.0, 0.0, 0.0, 0.0, 0.0, 0.0, 0.0, 1.70094558558535E9, 0.0, 2023-11-25 15:53:05.585
230.0, 76383.84567306587, 82586.1418349912, -10974.46065836676, -9271.235379127906, -3766.26894071924, -2889.2758952708123, -15768.418105652108, 187500.0, -0.128, 0.968, 0.16, 192.0, 0.0, 0.0, 0.0, 0.0, 0.0, 0.0, 0.0, 0.0, 0.0, 1.70094558558957E9, 0.0, 2023-11-25 15:53:05.589
231.0, 76364.08673096738, 82609.32059399136, -11596.375596091224, -9786.286626611547, -4412.033189777517, -3224.2167859335887, -15838.580231497317, 187500.0, -0.128, 0.968, 0.16, 192.0, 0.0, 0.0, 0.0, 0.0, 0.0, 0.0, 0.0, 0.0, 0.0, 1.700945585592422E9, 0.0, 2023-11-25 15:53:05.592
232.0, 76361.69509431066, 82645.19514384212, -12287.647996860505, -10568.374165102741, -5266.1156971592545, -4035.5627579167794, -15923.29334298293, 187500.0, -0.128, 0.968, 0.16, 192.0, 0.0, 0.0, 0.0, 0.0, 0.0, 0.0, 0.0, 0.0, 0.0, 1.700945585595493E9, 0.0, 2023-11-25 15:53:05.595
233.0, 76389.63477487979, 82612.13691379272, -11261.971147295375, -9812.393464135344, -4254.721612301065, -3500.9760857792007, -15698.34538678472, 187500.0, -0.128, 0.968, 0.16, 192.0, 0.0, 0.0, 0.0, 0.0, 0.0, 0.0, 0.0, 0.0, 0.0, 1.70094558559938E9, 0.0, 2023-11-25 15:53:05.599
234.0, 76389.97005104662, 82589.58400363733, -10873.05079377303, -9162.114162697097, -3664.859076125512, -2823.829987505673, -15750.179082176577, 187500.0, -0.128, 0.968, 0.16, 192.0, 0.0, 0.0, 0.0, 0.0, 0.0, 0.0, 0.0, 0.0, 0.0, 1.700945585603388E9, 0.0, 2023-11-25 15:53:05.603
235.0, 76372.51333862703, 82607.35364047928, -11485.756812781909, -9706.222677972637, -4296.0052843100175, -3157.5862357123183, -15840.413074542652, 187500.0, -0.128, 0.968, 0.16, 192.0, 0.0, 0.0, 0.0, 0.0, 0.0, 0.0, 0.0, 0.0, 0.0, 1.700945585608368E9, 0.0, 2023-11-25 15:53:05.608
236.0, 76361.8739082663, 82647.87735317677, -12251.862853987557, -10468.484219131973, -5188.666902621616, -3901.742863862856, -15949.48958748455, 187500.0, -0.132, 0.966, 0.15, 192.0, 251.0, 224.0, 30.0, 48.0, 4.0, 176.0, 0.0, 0.0, 0.0, 1.700945585612353E9, 0.0, 2023-11-25 15:53:05.612
237.0, 76390.86412082483, 82633.72869893655, -11528.068665035804, -10090.739737837284, -4554.972595569205, -3733.434228114394, -15765.445323639551, 187500.0, -0.132, 0.966, 0.15, 192.0, 0.0, 0.0, 0.0, 0.0, 0.0, 0.0, 0.0, 0.0, 0.0, 1.700945585615366E9, 0.0, 2023-11-25 15:53:05.615
238.0, 76397.01085055004, 82596.98243105202, -10806.66611274077, -9124.004438400798, -3610.4549301212946, -2823.002972960827, -15748.636811809161, 187500.0, -0.132, 0.966, 0.15, 192.0, 0.0, 0.0, 0.0, 0.0, 0.0, 0.0, 0.0, 0.0, 0.0, 1.700945585619419E9, 0.0, 2023-11-25 15:53:05.619
239.0, 76373.74268457206, 82601.11750377626, -11384.995148777385, -9631.344334047359, -4192.203783059572, -3107.0489414988688, -15841.888289676703, 187500.0, -0.132, 0.966, 0.15, 192.0, 0.0, 0.0, 0.0, 0.0, 0.0, 0.0, 0.0, 0.0, 0.0, 1.700945585623481E9, 0.0, 2023-11-25 15:53:05.623
240.0, 76367.52889961349, 82656.34866432533, -12159.997184276246, -10329.523423853328, -5056.881017313125, -3756.1212487365306, -15949.243718295542, 187500.0, -0.132, 0.966, 0.15, 192.0, 0.0, 0.0, 0.0, 0.0, 0.0, 0.0, 0.0, 0.0, 0.0, 1.70094558562746E9, 0.0, 2023-11-25 15:53:05.627
241.0, 76392.85342608136, 82656.01338815849, -11777.804705834951, -10305.85292647516, -4813.738741128295, -3921.8370821281774, -15803.242123513475, 187500.0, -0.132, 0.966, 0.15, 192.0, 0.0, 0.0, 0.0, 0.0, 0.0, 0.0, 0.0, 0.0, 0.0, 1.700945585631483E9, 0.0, 2023-11-25 15:53:05.631
242.0, 76388.60659463485, 82598.68116363062, -10784.962568874666, -9117.969467397865, -3602.765930028669, -2853.311938442223, -15726.665047009594, 187500.0, -0.132, 0.966, 0.15, 192.0, 0.0, 0.0, 0.0, 0.0, 0.0, 0.0, 0.0, 0.0, 0.0, 1.700945585635473E9, 0.0, 2023-11-25 15:53:05.635
243.0, 76350.45216684965, 82583.50432914548, -11307.099319350638, -9555.393106388225, -4105.389607595159, -3061.719603743506, -15841.262440831953, 187500.0, -0.132, 0.966, 0.15, 192.0, 0.0, 0.0, 0.0, 0.0, 0.0, 0.0, 0.0, 0.0, 0.0, 1.700945585640474E9, 0.0, 2023-11-25 15:53:05.640
244.0, 76343.50077432404, 82635.3603762818, -12043.566947408552, -10174.91640745597, -4903.011608482791, -3591.634761289926, -15931.183508775654, 187500.0, -0.132, 0.966, 0.15, 192.0, 0.0, 0.0, 0.0, 0.0, 0.0, 0.0, 0.0, 0.0, 0.0, 1.700945585643501E9, 0.0, 2023-11-25 15:53:05.643
245.0, 76370.34521941486, 82650.69367297813, -12015.671970328329, -10500.894248592169, -5060.1443720036, -4070.0067961224076, -15845.777493211925, 187500.0, -0.132, 0.966, 0.15, 192.0, 0.0, 0.0, 0.0, 0.0, 0.0, 0.0, 0.0, 0.0, 0.0, 1.700945585647466E9, 0.0, 2023-11-25 15:53:05.647
246.0, 76387.91369055673, 82606.83955035682, -10818.534889046538, -9214.439596466971, -3676.504334986727, -2961.092050205714, -15695.417308261074, 187500.0, -0.13, 0.966, 0.152, 192.0, 251.0, 240.0, 30.0, 48.0, 4.0, 192.0, 0.0, 0.0, 0.0, 1.700945585651674E9, 0.0, 2023-11-25 15:53:05.651
247.0, 76350.18394591617, 82578.31872443184, -11204.705978000877, -9469.942387335586, -4000.5375743553136, -3018.3572195002102, -15818.37425450972, 187500.0, -0.13, 0.966, 0.152, 192.0, 0.0, 0.0, 0.0, 0.0, 0.0, 0.0, 0.0, 0.0, 0.0, 1.700945585655607E9, 0.0, 2023-11-25 15:53:05.655
248.0, 76345.35596911382, 82620.94350110812, -11889.384614155844, -10022.097530615036, -4727.215138341801, -3453.2104078782095, -15897.946464770612, 187500.0, -0.13, 0.966, 0.152, 192.0, 0.0, 0.0, 0.0, 0.0, 0.0, 0.0, 0.0, 0.0, 0.0, 1.700945585659634E9, 0.0, 2023-11-25 15:53:05.659
249.0, 76371.1275304708, 82656.95216142562, -12178.705594385337, -10592.558752603383, -5212.359751744241, -4133.709267820032, -15888.223455932553, 187500.0, -0.13, 0.966, 0.152, 192.0, 0.0, 0.0, 0.0, 0.0, 0.0, 0.0, 0.0, 0.0, 0.0, 1.700945585663607E9, 0.0, 2023-11-25 15:53:05.663
250.0, 76398.12843777282, 82619.17771329614, -10924.325695553505, -9377.070889123785, -3825.7469327148124, -3130.5406249213966, -15698.233628062444, 187500.0, -0.13, 0.966, 0.152, 192.0, 0.0, 0.0, 0.0, 0.0, 0.0, 0.0, 0.0, 0.0, 0.0, 1.700945585668643E9, 0.0, 2023-11-25 15:53:05.668
251.0, 76365.2713734235, 82594.3449252063, -11101.686787806368, -9372.019394876885, -3892.489241658359, -2966.4564688749874, -15806.058443314845, 187500.0, -0.13, 0.966, 0.152, 192.0, 0.0, 0.0, 0.0, 0.0, 0.0, 0.0, 0.0, 0.0, 0.0, 1.700945585671743E9, 0.0, 2023-11-25 15:53:05.671
252.0, 76346.98764645906, 82633.751050681, -11742.712467040119, -9891.004549384661, -4559.577054926998, -3323.6820487597047, -15872.219606902554, 187500.0, -0.13, 0.966, 0.152, 192.0, 0.0, 0.0, 0.0, 0.0, 0.0, 0.0, 0.0, 0.0, 0.0, 1.70094558567562E9, 0.0, 2023-11-25 15:53:05.675
253.0, 76360.48810011007, 82674.99001920105, -12272.314700164165, -10607.824994066357, -5275.257560641475, -4105.434311084069, -15913.682092867148, 187500.0, -0.13, 0.966, 0.152, 192.0, 0.0, 0.0, 0.0, 0.0, 0.0, 0.0, 0.0, 0.0, 0.0, 1.700945585679651E9, 0.0, 2023-11-25 15:53:05.679
254.0, 76388.62894637931, 82634.62276871476, -11084.542999809146, -9595.268618496493, -4034.936909072031, -3320.262231858043, -15699.641787963128, 187500.0, -0.13, 0.966, 0.152, 192.0, 0.0, 0.0, 0.0, 0.0, 0.0, 0.0, 0.0, 0.0, 0.0, 1.700945585683632E9, 0.0, 2023-11-25 15:53:05.683
255.0, 76365.56194610143, 82589.71811410405, -10982.104954970475, -9259.813637711244, -3768.4147081869496, -2891.5557732052534, -15789.294634973365, 187500.0, -0.13, 0.966, 0.152, 192.0, 0.0, 0.0, 0.0, 0.0, 0.0, 0.0, 0.0, 0.0, 0.0, 1.700945585687672E9, 0.0, 2023-11-25 15:53:05.687
0.0, 76345.53478306947, 82606.45957070107, -11612.58061082132, -9786.353681844912, -4418.895175325296, -3231.995193004035, -15868.531569067429, 187500.0, -0.132, 0.968, 0.148, 192.0, 251.0, 224.0, 30.0, 64.0, 4.0, 160.0, 0.0, 0.0, 0.0, 1.700945585691656E9, 0.0, 2023-11-25 15:53:05.691
1.0, 76352.06149245042, 82656.7062922366, -12304.881191835546, -10568.75414475848, -5271.9271507176345, -4035.316888727771, -15948.550814217428, 187500.0, -0.132, 0.968, 0.148, 192.0, 0.0, 0.0, 0.0, 0.0, 0.0, 0.0, 0.0, 0.0, 0.0, 1.70094558569569E9, 0.0, 2023-11-25 15:53:05.695
2.0, 76370.68049558169, 82623.15632380919, -11317.582287500178, -9860.85204611445, -4310.064531572406, -3544.2937665335858, -15733.191756390544, 187500.0, -0.132, 0.968, 0.148, 192.0, 0.0, 0.0, 0.0, 0.0, 0.0, 0.0, 0.0, 0.0, 0.0, 1.700945585698837E9, 0.0, 2023-11-25 15:53:05.698
3.0, 76363.41617863372, 82593.27204147245, -10902.041006331565, -9188.511572898815, -3690.7423962047574, -2851.121467485603, -15776.576492378295, 187500.0, -0.132, 0.968, 0.148, 192.0, 0.0, 0.0, 0.0, 0.0, 0.0, 0.0, 0.0, 0.0, 0.0, 1.700945585703659E9, 0.0, 2023-11-25 15:53:05.703
4.0, 76353.96139072912, 82611.28754750342, -11496.418594887089, -9710.849489074884, -4295.446490698635, -3166.526933494441, -15847.029190901423, 187500.0, -0.132, 0.968, 0.148, 192.0, 0.0, 0.0, 0.0, 0.0, 0.0, 0.0, 0.0, 0.0, 0.0, 1.700945585707662E9, 0.0, 2023-11-25 15:53:05.707
5.0, 76355.50366109653, 82663.05418766191, -12262.167008181455, -10468.528922620884, -5185.962341542523, -3914.5057099468363, -15955.099875342832, 187500.0, -0.132, 0.968, 0.148, 192.0, 0.0, 0.0, 0.0, 0.0, 0.0, 0.0, 0.0, 0.0, 0.0, 1.700945585711719E9, 0.0, 2023-11-25 15:53:05.711
6.0, 76376.40254216225, 82653.84526894633, -11584.685633741097, -10145.657973963973, -4605.91222118285, -3798.7013219238906, -15785.226617482498, 187500.0, -0.132, 0.968, 0.148, 192.0, 0.0, 0.0, 0.0, 0.0, 0.0, 0.0, 0.0, 0.0, 0.0, 1.700945585715706E9, 0.0, 2023-11-25 15:53:05.715
7.0, 76375.3296584284, 82609.90173934719, -10828.347304862416, -9143.025772932264, -3620.446159892817, -2848.1039819841367, -15761.35495440423, 187500.0, -0.132, 0.968, 0.148, 192.0, 0.0, 0.0, 0.0, 0.0, 0.0, 0.0, 0.0, 0.0, 0.0, 1.700945585719788E9, 0.0, 2023-11-25 15:53:05.719
8.0, 76357.47061460861, 82617.83660862883, -11399.993169306896, -9623.94590663265, -4183.73247191101, -3111.496938645475, -15857.892138706702, 187500.0, -0.132, 0.968, 0.148, 192.0, 0.0, 0.0, 0.0, 0.0, 0.0, 0.0, 0.0, 0.0, 0.0, 1.700945585724125E9, 0.0, 2023-11-25 15:53:05.724
9.0, 76361.27041116601, 82681.15910067072, -12163.484056411275, -10303.237772373888, -5038.016144992846, -3741.1008764625644, -15949.601346206826, 187500.0, -0.132, 0.968, 0.148, 192.0, 0.0, 0.0, 0.0, 0.0, 0.0, 0.0, 0.0, 0.0, 0.0, 1.700945585726746E9, 0.0, 2023-11-25 15:53:05.726
10.0, 76386.59493763387, 82680.71206578161, -11817.411997009754, -10346.019011261345, -4853.189570091912, -3958.9856814128975, -15801.0293008124, 187500.0, -0.134, 0.966, 0.152, 192.0, 251.0, 208.0, 30.0, 48.0, 4.0, 192.0, 0.0, 0.0, 0.0, 1.700945585730751E9, 0.0, 2023-11-25 15:53:05.730
11.0, 76384.96326028863, 82624.0056900985, -10783.12972582933, -9128.38538031404, -3605.3587323854845, -2865.1136595146254, -15707.420195033576, 187500.0, -0.134, 0.966, 0.152, 192.0, 0.0, 0.0, 0.0, 0.0, 0.0, 0.0, 0.0, 0.0, 0.0, 1.700945585734801E9, 0.0, 2023-11-25 15:53:05.734
12.0, 76350.0721871939, 82603.91147183317, -11291.766022654298, -9530.448559576102, -4081.1379648611505, -3055.3270048292884, -15821.056463844356, 187500.0, -0.134, 0.966, 0.152, 192.0, 0.0, 0.0, 0.0, 0.0, 0.0, 0.0, 0.0, 0.0, 0.0, 1.700945585739806E9, 0.0, 2023-11-25 15:53:05.739
13.0, 76340.013902189, 82644.97162639757, -12032.14520599189, -10151.983517644825, -4879.676387271451, -3581.062386162566, -15917.86186908029, 187500.0, -0.134, 0.966, 0.152, 192.0, 0.0, 0.0, 0.0, 0.0, 0.0, 0.0, 0.0, 0.0, 0.0, 1.700945585743802E9, 0.0, 2023-11-25 15:53:05.743
14.0, 76369.69701882565, 82670.3185046099, -12038.224880483733, -10514.238240031988, -5074.225971010444, -4082.926104417575, -15840.144853609188, 187500.0, -0.134, 0.966, 0.152, 192.0, 0.0, 0.0, 0.0, 0.0, 0.0, 0.0, 0.0, 0.0, 0.0, 1.70094558574783E9, 0.0, 2023-11-25 15:53:05.747
15.0, 76393.76984760402, 82630.9570826241, -10823.541679804526, -9224.20730879394, -3679.410061765917, -2977.7440998249176, -15688.91295062458, 187500.0, -0.134, 0.966, 0.152, 192.0, 0.0, 0.0, 0.0, 0.0, 0.0, 0.0, 0.0, 0.0, 0.0, 1.700945585750797E9, 0.0, 2023-11-25 15:53:05.750
16.0, 76367.1265682133, 82609.34294573581, -11186.198733591884, -9432.637325839678, -3967.3452338391826, -2995.3796262001547, -15811.467565473029, 187500.0, -0.134, 0.966, 0.152, 192.0, 0.0, 0.0, 0.0, 0.0, 0.0, 0.0, 0.0, 0.0, 0.0, 1.700945585754868E9, 0.0, 2023-11-25 15:53:05.754
17.0, 76359.01288497602, 82657.24273410354, -11870.20681741319, -9991.654454666908, -4692.413472224888, -3424.376657530863, -15887.441144876617, 187500.0, -0.134, 0.966, 0.152, 192.0, 0.0, 0.0, 0.0, 0.0, 0.0, 0.0, 0.0, 0.0, 0.0, 1.700945585758792E9, 0.0, 2023-11-25 15:53:05.758
18.0, 76358.96818148711, 82674.90061222322, -12189.345024746064, -10579.706499541582, -5205.274248751909, -4119.046523457351, -15886.323557653852, 187500.0, -0.134, 0.966, 0.152, 192.0, 0.0, 0.0, 0.0, 0.0, 0.0, 0.0, 0.0, 0.0, 0.0, 1.700945585762859E9, 0.0, 2023-11-25 15:53:05.762
19.0, 76377.65423985175, 82623.42454474265, -10950.298422610573, -9389.587866018757, -3844.3659358460827, -3139.6824884036173, -15710.34827355722, 187500.0, -0.134, 0.966, 0.152, 192.0, 0.0, 0.0, 0.0, 0.0, 0.0, 0.0, 0.0, 0.0, 0.0, 1.700945585767935E9, 0.0, 2023-11-25 15:53:05.767
20.0, 76361.29276291047, 82602.16803576566, -11097.57406682659, -9358.51894122588, -3877.982959506865, -2956.375832125644, -15815.08854807479, 187500.0, -0.134, 0.97, 0.14200000000000002, 192.0, 251.0, 208.0, 30.0, 80.0, 4.0, 112.0, 0.0, 0.0, 0.0, 1.700945585772846E9, 0.0, 2023-11-25 15:53:05.772
21.0, 76349.20046916015, 82638.73548969455, -11739.829092005384, -9891.540991251588, -4550.94928156725, -3329.2476331290763, -15880.914435495668, 187500.0, -0.134, 0.97, 0.14200000000000002, 192.0, 0.0, 0.0, 0.0, 0.0, 0.0, 0.0, 0.0, 0.0, 0.0, 1.700945585776855E9, 0.0, 2023-11-25 15:53:05.776
22.0, 76349.6251523048, 82676.33112386837, -12292.811249829681, -10618.620886638271, -5282.410118867174, -4121.7287327919885, -15925.126186028265, 187500.0, -0.134, 0.97, 0.14200000000000002, 192.0, 0.0, 0.0, 0.0, 0.0, 0.0, 0.0, 0.0, 0.0, 0.0, 1.70094558577985E9, 0.0, 2023-11-25 15:53:05.779
23.0, 76376.89428054026, 82646.46919327608, -11116.349532169048, -9619.877889141786, -4054.740554659433, -3354.3039386634755, -15704.514468254385, 187500.0, -0.134, 0.97, 0.14200000000000002, 192.0, 0.0, 0.0, 0.0, 0.0, 0.0, 0.0, 0.0, 0.0, 0.0, 1.700945585782876E9, 0.0, 2023-11-25 15:53:05.782
24.0, 76364.91374551223, 82617.79190513992, -10977.008757234664, -9245.799093937767, -3751.6061963565585, -2896.830784896706, -15783.259663970432, 187500.0, -0.134, 0.97, 0.14200000000000002, 192.0, 0.0, 0.0, 0.0, 0.0, 0.0, 0.0, 0.0, 0.0, 0.0, 1.700945585787363E9, 0.0, 2023-11-25 15:53:05.787
25.0, 76341.24324813405, 82633.97456812556, -11602.656436283165, -9774.104925883405, -4398.890364037796, -3237.5384256289517, -15867.749258011492, 187500.0, -0.134, 0.97, 0.14200000000000002, 192.0, 0.0, 0.0, 0.0, 0.0, 0.0, 0.0, 0.0, 0.0, 0.0, 1.700945585790933E9, 0.0, 2023-11-25 15:53:05.790
26.0, 76343.81369874641, 82677.15813841322, -12310.111500038089, -10549.017554404445, -5259.410173822663, -4028.1196270131622, -15956.217462565597, 187500.0, -0.134, 0.97, 0.14200000000000002, 192.0, 0.0, 0.0, 0.0, 0.0, 0.0, 0.0, 0.0, 0.0, 0.0, 1.700945585795905E9, 0.0, 2023-11-25 15:53:05.795
27.0, 76374.88262353929, 82648.21262934359, -11346.840720992175, -9877.705261433752, -4331.678668460688, -3577.3296448385295, -15745.2169949075, 187500.0, -0.134, 0.97, 0.14200000000000002, 192.0, 0.0, 0.0, 0.0, 0.0, 0.0, 0.0, 0.0, 0.0, 0.0, 1.70094558579996E9, 0.0, 2023-11-25 15:53:05.799
28.0, 76367.64065833577, 82610.90756784768, -10882.237360744162, -9162.896473753033, -3665.887256370456, -2847.8134093062176, -15782.432649425586, 187500.0, -0.134, 0.97, 0.14200000000000002, 192.0, 0.0, 0.0, 0.0, 0.0, 0.0, 0.0, 0.0, 0.0, 0.0, 1.700945585803918E9, 0.0, 2023-11-25 15:53:05.803
29.0, 76346.74177727006, 82620.22824528554, -11480.861780746196, -9683.714471306143, -4279.062662012895, -3153.808790899371, -15861.669583519648, 187500.0, -0.134, 0.97, 0.14200000000000002, 192.0, 0.0, 0.0, 0.0, 0.0, 0.0, 0.0, 0.0, 0.0, 0.0, 1.700945585806922E9, 0.0, 2023-11-25 15:53:05.806
30.0, 76356.37537913029, 82675.48175757907, -12245.000868439778, -10449.462884600507, -5172.148963469143, -3888.3318171896717, -15944.102817070821, 187500.0, -0.126, 0.978, 0.14400000000000002, 192.0, 252.0, 16.0, 30.0, 144.0, 4.0, 128.0, 0.0, 0.0, 0.0, 1.700945585810947E9, 0.0, 2023-11-25 15:53:05.810
31.0, 76381.34227768687, 82657.68976899264, -11579.298863327369, -10155.448038035398, -4616.506948054665, -3797.628438190036, -15751.654297310628, 187500.0, -0.126, 0.978, 0.14400000000000002, 192.0, 0.0, 0.0, 0.0, 0.0, 0.0, 0.0, 0.0, 0.0, 0.0, 1.70094558581496E9, 0.0, 2023-11-25 15:53:05.814
32.0, 76377.4307224072, 82612.60630042628, -10791.779850933535, -9115.175499340952, -3602.85533700649, -2827.182749173969, -15724.54163128634, 187500.0, -0.126, 0.978, 0.14400000000000002, 192.0, 0.0, 0.0, 0.0, 0.0, 0.0, 0.0, 0.0, 0.0, 0.0, 1.70094558581936E9, 0.0, 2023-11-25 15:53:05.819
33.0, 76358.49879485354, 82613.76859113797, -11348.807674504242, -9596.386205719258, -4163.504143178957, -3087.08883370028, -15809.992350338978, 187500.0, -0.126, 0.978, 0.14400000000000002, 192.0, 0.0, 0.0, 0.0, 0.0, 0.0, 0.0, 0.0, 0.0, 0.0, 1.700945585823036E9, 0.0, 2023-11-25 15:53:05.823
34.0, 76358.65525706473, 82666.09402490784, -12112.25385811971, -10278.896722662059, -5020.492377339885, -3705.472195800805, -15905.52370614096, 187500.0, -0.126, 0.978, 0.14400000000000002, 192.0, 0.0, 0.0, 0.0, 0.0, 0.0, 0.0, 0.0, 0.0, 0.0, 1.700945585828017E9, 0.0, 2023-11-25 15:53:05.828
35.0, 76380.33644918639, 82660.84136496084, -11813.612200452353, -10375.76918313136, -4889.6229135540625, -3972.0614519192522, -15776.800009822848, 187500.0, -0.126, 0.978, 0.14400000000000002, 192.0, 0.0, 0.0, 0.0, 0.0, 0.0, 0.0, 0.0, 0.0, 0.0, 1.700945585832043E9, 0.0, 2023-11-25 15:53:05.832
36.0, 76384.96326028863, 82609.83468411383, -10754.854769093368, -9132.229880360352, -3612.4889388667275, -2861.693842612963, -15682.63211043264, 187500.0, -0.126, 0.978, 0.14400000000000002, 192.0, 0.0, 0.0, 0.0, 0.0, 0.0, 0.0, 0.0, 0.0, 0.0, 1.700945585835237E9, 0.0, 2023-11-25 15:53:05.835
37.0, 76356.59889657485, 82598.39059095271, -11243.575661608656, -9518.244507103504, -4074.387738035648, -3026.4485509930314, -15794.480239686996, 187500.0, -0.126, 0.978, 0.14400000000000002, 192.0, 0.0, 0.0, 0.0, 0.0, 0.0, 0.0, 0.0, 0.0, 0.0, 1.700945585839053E9, 0.0, 2023-11-25 15:53:05.839
38.0, 76352.12854768378, 82642.87056241877, -11968.733306972183, -10125.67551442093, -4866.086526642624, -3538.929347864312, -15890.749203056002, 187500.0, -0.126, 0.978, 0.14400000000000002, 192.0, 0.0, 0.0, 0.0, 0.0, 0.0, 0.0, 0.0, 0.0, 0.0, 1.700945585843043E9, 0.0, 2023-11-25 15:53:05.843
39.0, 76379.21886196361, 82660.9084201942, -12004.272580656121, -10518.641533689683, -5102.545631235317, -4068.9562641330085, -15817.279019031408, 187500.0, -0.126, 0.978, 0.14400000000000002, 192.0, 0.0, 0.0, 0.0, 0.0, 0.0, 0.0, 0.0, 0.0, 0.0, 1.700945585847071E9, 0.0, 2023-11-25 15:53:05.847
40.0, 76396.42970519421, 82612.80746612638, -10781.855676395378, -9242.088704358186, -3707.9755911797993, -2976.7382713244288, -15661.934395067025, 187500.0, -0.128, 0.962, 0.14400000000000002, 192.0, 252.0, 0.0, 30.0, 16.0, 4.0, 128.0, 0.0, 0.0, 0.0, 1.700945585851261E9, 0.0, 2023-11-25 15:53:05.851
41.0, 76368.71354206963, 82584.2419367125, -11113.779081556688, -9427.027037981396, -3969.6921670069896, -2971.530314866342, -15775.235387710976, 187500.0, -0.128, 0.962, 0.14400000000000002, 192.0, 0.0, 0.0, 0.0, 0.0, 0.0, 0.0, 0.0, 0.0, 0.0, 1.700945585856206E9, 0.0, 2023-11-25 15:53:05.856
42.0, 76363.75145480054, 82626.1514575662, -11791.260455997046, -9971.247311979212, -4693.307542003101, -3388.1221280243553, -15856.528682294927, 187500.0, -0.128, 0.962, 0.14400000000000002, 192.0, 0.0, 0.0, 0.0, 0.0, 0.0, 0.0, 0.0, 0.0, 0.0, 1.700945585860131E9, 0.0, 2023-11-25 15:53:05.860
43.0, 76377.6765915962, 82658.94146668214, -12134.292678152642, -10592.29053166992, -5240.679411969115, -4109.122348919195, -15850.896042692191, 187500.0, -0.128, 0.962, 0.14400000000000002, 192.0, 0.0, 0.0, 0.0, 0.0, 0.0, 0.0, 0.0, 0.0, 0.0, 1.700945585863156E9, 0.0, 2023-11-25 15:53:05.863
44.0, 76399.08956278439, 82617.59073943982, -10883.936093322765, -9408.273924383393, -3868.8634477690994, -3139.90600584817, -15653.373676940642, 187500.0, -0.128, 0.962, 0.14400000000000002, 192.0, 0.0, 0.0, 0.0, 0.0, 0.0, 0.0, 0.0, 0.0, 0.0, 1.700945585867174E9, 0.0, 2023-11-25 15:53:05.867
45.0, 76374.63675435029, 82588.19819548109, -11012.838603596521, -9350.159388799595, -3875.47956412787, -2942.562454052264, -15766.384096906675, 187500.0, -0.128, 0.962, 0.14400000000000002, 192.0, 0.0, 0.0, 0.0, 0.0, 0.0, 0.0, 0.0, 0.0, 0.0, 1.700945585871136E9, 0.0, 2023-11-25 15:53:05.871
46.0, 76356.12950994128, 82612.62865217074, -11647.270518215957, -9870.016261341127, -4539.259319217124, -3302.1573188492443, -15834.84749017328, 187500.0, -0.128, 0.962, 0.14400000000000002, 192.0, 0.0, 0.0, 0.0, 0.0, 0.0, 0.0, 0.0, 0.0, 0.0, 1.700945585875153E9, 0.0, 2023-11-25 15:53:05.875
47.0, 76369.36174265883, 82655.18637361364, -12209.461594755841, -10593.788098548424, -5286.455784613584, -4084.870706185187, -15879.61803431726, 187500.0, -0.128, 0.962, 0.14400000000000002, 192.0, 0.0, 0.0, 0.0, 0.0, 0.0, 0.0, 0.0, 0.0, 0.0, 1.700945585879153E9, 0.0, 2023-11-25 15:53:05.879
48.0, 76396.27324298302, 82611.51106494798, -11063.778229210166, -9628.684476457176, -4094.258438856416, -3346.324365892931, -15665.823598602248, 187500.0, -0.128, 0.962, 0.14400000000000002, 192.0, 0.0, 0.0, 0.0, 0.0, 0.0, 0.0, 0.0, 0.0, 0.0, 1.70094558588422E9, 0.0, 2023-11-25 15:53:05.884
49.0, 76381.96812653162, 82575.36829416374, -10897.794174885055, -9220.362808747626, -3752.9249492794215, -2859.8833513120835, -15741.327791372276, 187500.0, -0.128, 0.962, 0.14400000000000002, 192.0, 0.0, 0.0, 0.0, 0.0, 0.0, 0.0, 0.0, 0.0, 0.0, 1.700945585888655E9, 0.0, 2023-11-25 15:53:05.888
50.0, 76359.63873382077, 82590.43336992663, -11515.529336396377, -9752.043754106016, -4395.224677947125, -3203.027332189957, -15811.08758581729, 187500.0, -0.13, 0.96, 0.146, 192.0, 251.0, 240.0, 30.0, 0.0, 4.0, 144.0, 0.0, 0.0, 0.0, 1.700945585891239E9, 0.0, 2023-11-25 15:53:05.891
51.0, 76362.9244402557, 82638.37786178326, -12236.70837124686, -10551.297432338886, -5277.80565950938, -4014.9991530178972, -15900.181639216144, 187500.0, -0.13, 0.96, 0.146, 192.0, 0.0, 0.0, 0.0, 0.0, 0.0, 0.0, 0.0, 0.0, 0.0, 1.70094558589521E9, 0.0, 2023-11-25 15:53:05.895
52.0, 76397.97197556162, 82619.24476852952, -11297.152793068028, -9918.966581698249, -4378.684387050198, -3604.9116974963786, -15683.861456377681, 187500.0, -0.13, 0.96, 0.146, 192.0, 0.0, 0.0, 0.0, 0.0, 0.0, 0.0, 0.0, 0.0, 0.0, 1.700945585899271E9, 0.0, 2023-11-25 15:53:05.899
53.0, 76385.65616436675, 82574.69774183008, -10802.75455746109, -9142.779903743256, -3662.9144743579004, -2831.183711431469, -15717.299666082821, 187500.0, -0.13, 0.96, 0.146, 192.0, 0.0, 0.0, 0.0, 0.0, 0.0, 0.0, 0.0, 0.0, 0.0, 1.700945585903815E9, 0.0, 2023-11-25 15:53:05.903
54.0, 76360.01871347651, 82585.5383378909, -11404.329407731226, -9671.175142666716, -4279.5096969020005, -3143.683450661117, -15803.51034444694, 187500.0, -0.13, 0.96, 0.146, 192.0, 0.0, 0.0, 0.0, 0.0, 0.0, 0.0, 0.0, 0.0, 0.0, 1.70094558590729E9, 0.0, 2023-11-25 15:53:05.907
55.0, 76355.52601284099, 82637.88612340525, -12169.206102991833, -10416.829337695759, -5166.561027355317, -3860.9285784874655, -15903.713214840081, 187500.0, -0.13, 0.96, 0.146, 192.0, 0.0, 0.0, 0.0, 0.0, 0.0, 0.0, 0.0, 0.0, 0.0, 1.700945585911297E9, 0.0, 2023-11-25 15:53:05.911
56.0, 76391.80289409196, 82641.03771937343, -11546.419447233611, -10166.10982014058, -4653.499085128198, -3804.2445545488067, -15715.332712570753, 187500.0, -0.13, 0.96, 0.146, 192.0, 0.0, 0.0, 0.0, 0.0, 0.0, 0.0, 0.0, 0.0, 0.0, 1.7009455859166E9, 0.0, 2023-11-25 15:53:05.916
57.0, 76404.09635354238, 82605.76666662296, -10728.993800758577, -9105.966580625365, -3599.055540449088, -2820.4995775818325, -15670.517464937862, 187500.0, -0.13, 0.96, 0.146, 192.0, 0.0, 0.0, 0.0, 0.0, 0.0, 0.0, 0.0, 0.0, 0.0, 1.700945585919357E9, 0.0, 2023-11-25 15:53:05.919
58.0, 76368.95941125863, 82592.95911705006, -11305.601752472134, -9615.631057695276, -4175.551733440368, -3103.986752508492, -15786.768887849914, 187500.0, -0.13, 0.96, 0.146, 192.0, 0.0, 0.0, 0.0, 0.0, 0.0, 0.0, 0.0, 0.0, 0.0, 1.700945585923355E9, 0.0, 2023-11-25 15:53:05.923
59.0, 76372.66980083821, 82645.44101303113, -12056.218034770256, -10280.37193779611, -5012.959839458446, -3702.7005794883466, -15882.836685518825, 187500.0, -0.13, 0.96, 0.146, 192.0, 0.0, 0.0, 0.0, 0.0, 0.0, 0.0, 0.0, 0.0, 0.0, 1.700945585927354E9, 0.0, 2023-11-25 15:53:05.927
60.0, 76388.85246382386, 82642.02119612947, -11796.557819432954, -10387.325035014754, -4914.254535943811, -3983.0585101912634, -15768.172236463099, 187500.0, -0.132, 0.962, 0.14400000000000002, 192.0, 251.0, 224.0, 30.0, 16.0, 4.0, 128.0, 0.0, 0.0, 0.0, 1.700945585931547E9, 0.0, 2023-11-25 15:53:05.931
61.0, 76395.71444937163, 82596.17776825164, -10730.156091470253, -9138.980107185855, -3622.8154448050796, -2883.9114766015387, -15670.428057960042, 187500.0, -0.132, 0.962, 0.14400000000000002, 192.0, 0.0, 0.0, 0.0, 0.0, 0.0, 0.0, 0.0, 0.0, 0.0, 1.700945585935481E9, 0.0, 2023-11-25 15:53:05.935
62.0, 76372.35687641584, 82584.26428845695, -11213.400806593992, -9520.278515848937, -4070.6549967116116, -3042.8994349121376, -15787.394736694663, 187500.0, -0.132, 0.962, 0.14400000000000002, 192.0, 0.0, 0.0, 0.0, 0.0, 0.0, 0.0, 0.0, 0.0, 0.0, 1.700945585942753E9, 0.0, 2023-11-25 15:53:05.942
63.0, 76363.72910305609, 82630.44299250162, -11926.019123318092, -10102.653217631963, -4840.203206563378, -3528.692248903781, -15885.653005320193, 187500.0, -0.132, 0.962, 0.14400000000000002, 192.0, 0.0, 0.0, 0.0, 0.0, 0.0, 0.0, 0.0, 0.0, 0.0, 1.700945585944389E9, 0.0, 2023-11-25 15:53:05.944
64.0, 76380.67172535321, 82646.87152467627, -12012.028635982113, -10520.183804057098, -5123.153939623111, -4077.382871792659, -15828.633705214705, 187500.0, -0.132, 0.962, 0.14400000000000002, 192.0, 0.0, 0.0, 0.0, 0.0, 0.0, 0.0, 0.0, 0.0, 0.0, 1.700945585947435E9, 0.0, 2023-11-25 15:53:05.947
65.0, 76400.00598430705, 82605.0961142893, -10793.635045723326, -9249.97887015091, -3729.634431556992, -2997.6818558790515, -15662.515540422863, 187500.0, -0.132, 0.962, 0.14400000000000002, 192.0, 0.0, 0.0, 0.0, 0.0, 0.0, 0.0, 0.0, 0.0, 0.0, 1.700945585950427E9, 0.0, 2023-11-25 15:53:05.950
66.0, 76376.33548692889, 82581.80559656688, -11118.6741135924, -9442.717962589022, -3979.8845624786095, -2996.9666000564816, -15780.420992424608, 187500.0, -0.132, 0.962, 0.14400000000000002, 192.0, 0.0, 0.0, 0.0, 0.0, 0.0, 0.0, 0.0, 0.0, 0.0, 1.700945585955667E9, 0.0, 2023-11-25 15:53:05.955
67.0, 76370.34521941486, 82622.10579181979, -11779.637548880286, -9982.803163862607, -4680.030605796648, -3398.8286136184474, -15856.103999150277, 187500.0, -0.132, 0.962, 0.14400000000000002, 192.0, 0.0, 0.0, 0.0, 0.0, 0.0, 0.0, 0.0, 0.0, 0.0, 1.700945585959463E9, 0.0, 2023-11-25 15:53:05.959
68.0, 76383.82332132141, 82646.40213804271, -12149.223643448788, -10607.601476621805, -5247.451990539073, -4121.460511858525, -15859.389705585207, 187500.0, -0.132, 0.962, 0.14400000000000002, 192.0, 0.0, 0.0, 0.0, 0.0, 0.0, 0.0, 0.0, 0.0, 0.0, 1.700945585963531E9, 0.0, 2023-11-25 15:53:05.963
69.0, 76401.2353302521, 82597.76474210796, -10911.182869813785, -9441.600375366257, -3892.757462591823, -3166.504581749986, -15663.677831134539, 187500.0, -0.132, 0.962, 0.14400000000000002, 192.0, 0.0, 0.0, 0.0, 0.0, 0.0, 0.0, 0.0, 0.0, 0.0, 1.700945585967491E9, 0.0, 2023-11-25 15:53:05.967
70.0, 76389.74653360207, 82586.81238732486, -11006.624818637947, -9340.011696816886, -3854.8042005067114, -2921.3282968197223, -15768.015774251911, 187500.0, -0.138, 0.964, 0.14200000000000002, 192.0, 251.0, 176.0, 30.0, 32.0, 4.0, 112.0, 0.0, 0.0, 0.0, 1.700945585971456E9, 0.0, 2023-11-25 15:53:05.971
71.0, 76373.72033282761, 82613.94740509361, -11637.011067510972, -9857.991022824172, -4514.717103805197, -3275.3799289917865, -15841.396551298685, 187500.0, -0.138, 0.964, 0.14200000000000002, 192.0, 0.0, 0.0, 0.0, 0.0, 0.0, 0.0, 0.0, 0.0, 0.0, 1.700945585975519E9, 0.0, 2023-11-25 15:53:05.975
72.0, 76380.44820790866, 82652.97355091257, -12237.334220091609, -10616.452767426106, -5298.995113253011, -4083.9766364069746, -15902.43916540613, 187500.0, -0.138, 0.964, 0.14200000000000002, 192.0, 0.0, 0.0, 0.0, 0.0, 0.0, 0.0, 0.0, 0.0, 0.0, 1.700945585978496E9, 0.0, 2023-11-25 15:53:05.978
73.0, 76404.47633319811, 82615.71319290558, -11107.498241364747, -9689.034186486506, -4131.183520696583, -3381.349549454397, -15683.593235444217, 187500.0, -0.138, 0.964, 0.14200000000000002, 192.0, 0.0, 0.0, 0.0, 0.0, 0.0, 0.0, 0.0, 0.0, 0.0, 1.700945585983495E9, 0.0, 2023-11-25 15:53:05.983
74.0, 76390.19356849117, 82582.49850064499, -10904.29853252155, -9227.917698373521, -3743.1572369524524, -2859.0786885116922, -15762.472541626996, 187500.0, -0.138, 0.964, 0.14200000000000002, 192.0, 0.0, 0.0, 0.0, 0.0, 0.0, 0.0, 0.0, 0.0, 0.0, 1.70094558598762E9, 0.0, 2023-11-25 15:53:05.987
75.0, 76372.8262630494, 82600.22343399805, -11511.863650305708, -9749.02626860455, -4374.325796881413, -3187.336407582332, -15829.304257548363, 187500.0, -0.138, 0.964, 0.14200000000000002, 192.0, 0.0, 0.0, 0.0, 0.0, 0.0, 0.0, 0.0, 0.0, 0.0, 1.700945585992611E9, 0.0, 2023-11-25 15:53:05.992
76.0, 76372.64744909375, 82639.6072077283, -12235.456673557363, -10524.251821547965, -5250.357717318263, -3970.876809463121, -15915.358473701297, 187500.0, -0.138, 0.964, 0.14200000000000002, 192.0, 0.0, 0.0, 0.0, 0.0, 0.0, 0.0, 0.0, 0.0, 0.0, 1.700945585996598E9, 0.0, 2023-11-25 15:53:05.996
77.0, 76408.14201928879, 82626.03969884393, -11339.91168021103, -9953.343564670511, -4408.032227520016, -3615.662886579381, -15701.318168797276, 187500.0, -0.138, 0.964, 0.14200000000000002, 192.0, 0.0, 0.0, 0.0, 0.0, 0.0, 0.0, 0.0, 0.0, 0.0, 1.700945585999609E9, 0.0, 2023-11-25 15:53:05.999
78.0, 76402.9340628307, 82588.37700943674, -10803.022778394554, -9142.511682809793, -3649.726945129269, -2816.252746135324, -15723.088767896745, 187500.0, -0.138, 0.964, 0.14200000000000002, 192.0, 0.0, 0.0, 0.0, 0.0, 0.0, 0.0, 0.0, 0.0, 0.0, 1.700945586003043E9, 0.0, 2023-11-25 15:53:06.003
79.0, 76381.69990559816, 82599.73169562002, -11402.45186119698, -9671.286901388992, -4261.896522271219, -3131.1217702772346, -15807.757175893448, 187500.0, -0.138, 0.964, 0.14200000000000002, 192.0, 0.0, 0.0, 0.0, 0.0, 0.0, 0.0, 0.0, 0.0, 0.0, 1.700945586006634E9, 0.0, 2023-11-25 15:53:06.006
80.0, 76371.529861871, 82645.10573686431, -12168.870826825003, -10403.86532591168, -5142.219977643487, -3829.1220461275634, -15909.43526142064, 187500.0, -0.13, 0.968, 0.146, 192.0, 251.0, 240.0, 30.0, 64.0, 4.0, 144.0, 0.0, 0.0, 0.0, 1.700945586010613E9, 0.0, 2023-11-25 15:53:06.010
81.0, 76386.95256554516, 82624.83270464334, -11594.274532112424, -10200.442099623931, -4690.871201857472, -3816.6497727215024, -15741.819529750292, 187500.0, -0.13, 0.968, 0.146, 192.0, 0.0, 0.0, 0.0, 0.0, 0.0, 0.0, 0.0, 0.0, 0.0, 1.700945586015592E9, 0.0, 2023-11-25 15:53:06.015
82.0, 76392.13817025878, 82585.2924687019, -10751.591414402892, -9125.367894812573, -3617.7192470692694, -2821.5277578267765, -15706.2579043219, 187500.0, -0.13, 0.968, 0.146, 192.0, 0.0, 0.0, 0.0, 0.0, 0.0, 0.0, 0.0, 0.0, 0.0, 1.700945586019604E9, 0.0, 2023-11-25 15:53:06.019
83.0, 76378.2800886965, 82591.9979920385, -11301.690197192454, -9608.254982025026, -4155.34575645277, -3074.437746338576, -15794.323777475809, 187500.0, -0.13, 0.968, 0.146, 192.0, 0.0, 0.0, 0.0, 0.0, 0.0, 0.0, 0.0, 0.0, 0.0, 1.700945586023619E9, 0.0, 2023-11-25 15:53:06.023
84.0, 76368.1771002027, 82635.65094895971, -12051.81474111256, -10258.2213590409, -4982.472060021408, -3660.0310993231656, -15891.24094143402, 187500.0, -0.13, 0.968, 0.146, 192.0, 0.0, 0.0, 0.0, 0.0, 0.0, 0.0, 0.0, 0.0, 0.0, 1.70094558602663E9, 0.0, 2023-11-25 15:53:06.026
85.0, 76390.88647256928, 82647.05033863192, -11833.728770462129, -10403.306532300297, -4933.253518730822, -3979.102251422674, -15783.729050603994, 187500.0, -0.13, 0.968, 0.146, 192.0, 0.0, 0.0, 0.0, 0.0, 0.0, 0.0, 0.0, 0.0, 0.0, 1.700945586030657E9, 0.0, 2023-11-25 15:53:06.030
86.0, 76410.17602803421, 82612.24867251501, -10743.053048020965, -9152.167636414486, -3627.24109020723, -2878.614113165631, -15676.53008419634, 187500.0, -0.13, 0.968, 0.146, 192.0, 0.0, 0.0, 0.0, 0.0, 0.0, 0.0, 0.0, 0.0, 0.0, 1.700945586034787E9, 0.0, 2023-11-25 15:53:06.034
87.0, 76388.76305684603, 82599.97756480904, -11201.93436168842, -9514.489414035013, -4048.191493534028, -3023.6992864250287, -15784.60076863775, 187500.0, -0.13, 0.968, 0.146, 192.0, 0.0, 0.0, 0.0, 0.0, 0.0, 0.0, 0.0, 0.0, 0.0, 1.700945586038757E9, 0.0, 2023-11-25 15:53:06.038
88.0, 76373.25094619405, 82634.82393441486, -11913.077463278469, -10102.47440367632, -4814.342238228588, -3509.402693438851, -15873.806580758881, 187500.0, -0.13, 0.968, 0.146, 192.0, 0.0, 0.0, 0.0, 0.0, 0.0, 0.0, 0.0, 0.0, 0.0, 1.700945586043798E9, 0.0, 2023-11-25 15:53:06.043
89.0, 76378.7271235856, 82637.52849549396, -12035.654429871372, -10541.730885712015, -5130.753532737915, -4081.026206138874, -15827.94080113659, 187500.0, -0.13, 0.968, 0.146, 192.0, 0.0, 0.0, 0.0, 0.0, 0.0, 0.0, 0.0, 0.0, 0.0, 1.700945586047717E9, 0.0, 2023-11-25 15:53:06.047
90.0, 76391.19939699167, 82590.36631469325, -10810.912944187277, -9257.891387688087, -3733.9706699813214, -3001.124024525169, -15679.882845864637, 187500.0, -0.124, 0.974, 0.14400000000000002, 192.0, 252.0, 32.0, 30.0, 112.0, 4.0, 128.0, 0.0, 0.0, 0.0, 1.700945586051736E9, 0.0, 2023-11-25 15:53:06.051
91.0, 76374.43558865019, 82579.03398025442, -11115.790738557665, -9399.19911613454, -3953.040117387786, -2957.9628059819706, -15805.119670047721, 187500.0, -0.124, 0.974, 0.14400000000000002, 192.0, 0.0, 0.0, 0.0, 0.0, 0.0, 0.0, 0.0, 0.0, 0.0, 1.700945586054713E9, 0.0, 2023-11-25 15:53:06.054
92.0, 76373.16153921623, 82625.21268429908, -11782.252702981557, -9944.380515143934, -4657.365936918966, -3360.4953718775955, -15875.23709240402, 187500.0, -0.124, 0.974, 0.14400000000000002, 192.0, 0.0, 0.0, 0.0, 0.0, 0.0, 0.0, 0.0, 0.0, 0.0, 1.7009455860587E9, 0.0, 2023-11-25 15:53:06.058
93.0, 76385.99144053357, 82660.506088794, -12183.131239787488, -10595.66564508267, -5255.342156331797, -4099.1311191476725, -15874.90181623719, 187500.0, -0.124, 0.974, 0.14400000000000002, 192.0, 0.0, 0.0, 0.0, 0.0, 0.0, 0.0, 0.0, 0.0, 0.0, 1.700945586062689E9, 0.0, 2023-11-25 15:53:06.062
94.0, 76403.35874597535, 82610.10290504729, -10940.821282961522, -9447.970622536019, -3911.4211692120043, -3173.880657420237, -15665.53302592433, 187500.0, -0.124, 0.974, 0.14400000000000002, 192.0, 0.0, 0.0, 0.0, 0.0, 0.0, 0.0, 0.0, 0.0, 0.0, 1.700945586066725E9, 0.0, 2023-11-25 15:53:06.066
95.0, 76378.8835857968, 82573.78132030742, -11004.300237214595, -9299.912667264065, -3842.4213340784713, -2896.540212218787, -15775.458905155529, 187500.0, -0.124, 0.974, 0.14400000000000002, 192.0, 0.0, 0.0, 0.0, 0.0, 0.0, 0.0, 0.0, 0.0, 0.0, 1.700945586071726E9, 0.0, 2023-11-25 15:53:06.071
96.0, 76371.3286961709, 82609.67822190264, -11636.496977388499, -9828.821996309996, -4506.357551378912, -3249.943643801647, -15841.70947572106, 187500.0, -0.124, 0.974, 0.14400000000000002, 192.0, 0.0, 0.0, 0.0, 0.0, 0.0, 0.0, 0.0, 0.0, 0.0, 1.700945586075707E9, 0.0, 2023-11-25 15:53:06.075
97.0, 76379.42002766371, 82650.58191425585, -12252.37694411003, -10592.134069458732, -5298.972761508556, -4060.2167320509834, -15903.780270073446, 187500.0, -0.124, 0.974, 0.14400000000000002, 192.0, 0.0, 0.0, 0.0, 0.0, 0.0, 0.0, 0.0, 0.0, 0.0, 1.700945586079735E9, 0.0, 2023-11-25 15:53:06.079
98.0, 76405.37040297633, 82613.54507369341, -11140.936451069887, -9703.071082004439, -4164.912303079642, -3395.6993693947043, -15679.502866208895, 187500.0, -0.124, 0.974, 0.14400000000000002, 192.0, 0.0, 0.0, 0.0, 0.0, 0.0, 0.0, 0.0, 0.0, 0.0, 1.70094558608277E9, 0.0, 2023-11-25 15:53:06.082
99.0, 76383.71156259913, 82573.37898890722, -10899.828183630489, -9203.8225178507, -3738.373963639017, -2834.1788451884804, -15754.135340945166, 187500.0, -0.132, 0.966, 0.14, 192.0, 251.0, 224.0, 30.0, 48.0, 4.0, 96.0, 0.0, 0.0, 0.0, 1.70094558608676E9, 0.0, 2023-11-25 15:53:06.086
100.0, 76366.94775425765, 82594.76960835095, -11514.434100918068, -9742.678373179242, -4375.108107937349, -3164.649386960195, -15827.985504625502, 187500.0, -0.132, 0.966, 0.14, 192.0, 0.0, 0.0, 0.0, 0.0, 0.0, 0.0, 0.0, 0.0, 0.0, 1.700945586090949E9, 0.0, 2023-11-25 15:53:06.090
101.0, 76371.39575140426, 82641.19418158462, -12241.581051538116, -10512.047769075367, -5251.363545818752, -3941.104285848652, -15908.742357342526, 187500.0, -0.132, 0.966, 0.14, 192.0, 0.0, 0.0, 0.0, 0.0, 0.0, 0.0, 0.0, 0.0, 0.0, 1.700945586094876E9, 0.0, 2023-11-25 15:53:06.094
102.0, 76393.72514411512, 82617.9483673511, -11382.312939442747, -9976.723489370763, -4452.512198986077, -3627.285793696141, -15702.569866486772, 187500.0, -0.132, 0.966, 0.14, 192.0, 0.0, 0.0, 0.0, 0.0, 0.0, 0.0, 0.0, 0.0, 0.0, 1.700945586098886E9, 0.0, 2023-11-25 15:53:06.098
103.0, 76381.25287070905, 82565.39941613667, -10809.683598242236, -9137.102560651609, -3662.0427563241433, -2814.196385645436, -15725.16748013109, 187500.0, -0.132, 0.966, 0.14, 192.0, 0.0, 0.0, 0.0, 0.0, 0.0, 0.0, 0.0, 0.0, 0.0, 1.700945586103826E9, 0.0, 2023-11-25 15:53:06.103
104.0, 76364.95844900113, 82581.38091342222, -11407.123375788138, -9672.62800605631, -4271.530124131456, -3124.8632818297488, -15809.187687538588, 187500.0, -0.132, 0.966, 0.14, 192.0, 0.0, 0.0, 0.0, 0.0, 0.0, 0.0, 0.0, 0.0, 0.0, 1.70094558610806E9, 0.0, 2023-11-25 15:53:06.108
105.0, 76370.9710682596, 82645.03868163093, -12163.372297688997, -10394.522296729363, -5138.688402019549, -3806.144452827508, -15903.042662506423, 187500.0, -0.132, 0.966, 0.14, 192.0, 0.0, 0.0, 0.0, 0.0, 0.0, 0.0, 0.0, 0.0, 0.0, 1.700945586110787E9, 0.0, 2023-11-25 15:53:06.110
106.0, 76396.00502204956, 82632.36524252477, -11622.281267914925, -10216.468300398386, -4719.973173138282, -3825.4787117813485, -15739.204375649022, 187500.0, -0.132, 0.966, 0.14, 192.0, 0.0, 0.0, 0.0, 0.0, 0.0, 0.0, 0.0, 0.0, 0.0, 1.700945586114824E9, 0.0, 2023-11-25 15:53:06.114
107.0, 76403.85048435337, 82599.41877119766, -10746.986955045099, -9113.454415017894, -3614.634706334437, -2821.1924816599467, -15701.988721130934, 187500.0, -0.132, 0.966, 0.14, 192.0, 0.0, 0.0, 0.0, 0.0, 0.0, 0.0, 0.0, 0.0, 0.0, 1.700945586118839E9, 0.0, 2023-11-25 15:53:06.118
108.0, 76374.10031248335, 82590.65688737118, -11289.888476120053, -9575.241455464537, -4147.0309075153955, -3058.8809321976823, -15808.181859038099, 187500.0, -0.132, 0.966, 0.14, 192.0, 0.0, 0.0, 0.0, 0.0, 0.0, 0.0, 0.0, 0.0, 0.0, 1.700945586123004E9, 0.0, 2023-11-25 15:53:06.123
109.0, 76370.54638511495, 82629.5489227234, -12037.710790361261, -10228.582945893162, -4976.660606463028, -3642.9096630704003, -15902.729738084048, 187500.0, -0.14, 0.97, 0.14, 192.0, 251.0, 160.0, 30.0, 80.0, 4.0, 96.0, 0.0, 0.0, 0.0, 1.700945586126912E9, 0.0, 2023-11-25 15:53:06.126
110.0, 76392.07111502542, 82634.22043731457, -11853.666526516263, -10410.548497503818, -4966.8705423916035, -3986.1206991816402, -15797.855353099747, 187500.0, -0.14, 0.97, 0.14, 192.0, 0.0, 0.0, 0.0, 0.0, 0.0, 0.0, 0.0, 0.0, 0.0, 1.700945586130871E9, 0.0, 2023-11-25 15:53:06.130
111.0, 76413.4840862136, 82598.43529444162, -10742.114274753843, -9154.872197493578, -3649.794000362635, -2887.890087114583, -15691.483401236941, 187500.0, -0.14, 0.97, 0.14, 192.0, 0.0, 0.0, 0.0, 0.0, 0.0, 0.0, 0.0, 0.0, 0.0, 1.700945586135888E9, 0.0, 2023-11-25 15:53:06.135
112.0, 76381.36462943132, 82572.88725052921, -11188.97034990434, -9489.567218967346, -4052.7288976584555, -3007.896603095127, -15808.27126601592, 187500.0, -0.14, 0.97, 0.14, 192.0, 0.0, 0.0, 0.0, 0.0, 0.0, 0.0, 0.0, 0.0, 0.0, 1.700945586138872E9, 0.0, 2023-11-25 15:53:06.138
113.0, 76373.60857410534, 82619.11065806278, -11899.577009627463, -10076.747545808263, -4814.163424272946, -3479.540762846561, -15895.130144969244, 187500.0, -0.14, 0.97, 0.14, 192.0, 0.0, 0.0, 0.0, 0.0, 0.0, 0.0, 0.0, 0.0, 0.0, 1.700945586142894E9, 0.0, 2023-11-25 15:53:06.142
114.0, 76387.01962077852, 82648.10087062132, -12060.666031916862, -10565.736659257014, -5169.489105878962, -4092.2467818554383, -15853.980583427023, 187500.0, -0.14, 0.97, 0.14, 192.0, 0.0, 0.0, 0.0, 0.0, 0.0, 0.0, 0.0, 0.0, 0.0, 1.700945586146906E9, 0.0, 2023-11-25 15:53:06.146
115.0, 76408.76786813354, 82606.37016372326, -10812.030531410042, -9287.46274560246, -3756.5459318811813, -3017.7760741443726, -15676.507732451884, 187500.0, -0.14, 0.97, 0.14, 192.0, 0.0, 0.0, 0.0, 0.0, 0.0, 0.0, 0.0, 0.0, 0.0, 1.700945586150898E9, 0.0, 2023-11-25 15:53:06.150
116.0, 76389.41125743523, 82583.1914047231, -11088.007520199719, -9405.658770282123, -3944.613509728135, -2959.3933176271103, -15792.379175708196, 187500.0, -0.14, 0.97, 0.14, 192.0, 0.0, 0.0, 0.0, 0.0, 0.0, 0.0, 0.0, 0.0, 0.0, 1.70094558615493E9, 0.0, 2023-11-25 15:53:06.154
117.0, 76372.33452467139, 82606.52662593445, -11753.195435189657, -9936.222128417747, -4642.703192556285, -3354.2368834301096, -15866.072877177345, 187500.0, -0.14, 0.97, 0.14, 192.0, 0.0, 0.0, 0.0, 0.0, 0.0, 0.0, 0.0, 0.0, 0.0, 1.700945586158994E9, 0.0, 2023-11-25 15:53:06.158
118.0, 76375.1284927283, 82634.1533820812, -12190.84259162457, -10599.197220706608, -5274.587008307816, -4099.332284847771, -15886.994109987512, 187500.0, -0.14, 0.97, 0.14, 192.0, 0.0, 0.0, 0.0, 0.0, 0.0, 0.0, 0.0, 0.0, 0.0, 1.700945586164116E9, 0.0, 2023-11-25 15:53:06.164
119.0, 76399.06721103993, 82595.52956766244, -10962.234254149706, -9473.83159087081, -3950.290852819783, -3197.2158786315777, -15675.926587096046, 187500.0, -0.132, 0.962, 0.14400000000000002, 192.0, 251.0, 224.0, 30.0, 16.0, 4.0, 128.0, 0.0, 0.0, 0.0, 1.700945586166951E9, 0.0, 2023-11-25 15:53:06.166
120.0, 76374.10031248335, 82556.21284916555, -10991.068004497052, -9287.865077002654, -3839.5156072992813, -2889.6111714376416, -15772.866102798715, 187500.0, -0.132, 0.962, 0.14400000000000002, 192.0, 0.0, 0.0, 0.0, 0.0, 0.0, 0.0, 0.0, 0.0, 0.0, 1.700945586171182E9, 0.0, 2023-11-25 15:53:06.171
121.0, 76359.37051288731, 82583.86195705677, -11630.998448252494, -9821.021237495093, -4510.269106658591, -3247.4178966781974, -15851.857167703769, 187500.0, -0.132, 0.962, 0.14400000000000002, 192.0, 0.0, 0.0, 0.0, 0.0, 0.0, 0.0, 0.0, 0.0, 0.0, 1.700945586174991E9, 0.0, 2023-11-25 15:53:06.174
122.0, 76372.46863513811, 82635.2039140706, -12273.991080998312, -10618.822052338368, -5333.260337502997, -4086.256514341416, -15921.549906915416, 187500.0, -0.132, 0.962, 0.14400000000000002, 192.0, 0.0, 0.0, 0.0, 0.0, 0.0, 0.0, 0.0, 0.0, 0.0, 1.700945586178951E9, 0.0, 2023-11-25 15:53:06.178
123.0, 76391.53467315849, 82598.70351537509, -11176.855704409565, -9759.017498376072, -4217.0589228938725, -3446.549588030528, -15689.382337258141, 187500.0, -0.132, 0.962, 0.14400000000000002, 192.0, 0.0, 0.0, 0.0, 0.0, 0.0, 0.0, 0.0, 0.0, 0.0, 1.700945586182991E9, 0.0, 2023-11-25 15:53:06.182
124.0, 76382.035181765, 82577.13408197572, -10892.742680638157, -9209.164584775519, -3737.703411305358, -2849.981528518382, -15751.54253858835, 187500.0, -0.132, 0.962, 0.14400000000000002, 192.0, 0.0, 0.0, 0.0, 0.0, 0.0, 0.0, 0.0, 0.0, 0.0, 1.700945586187555E9, 0.0, 2023-11-25 15:53:06.187
125.0, 76362.76797804452, 82590.29925945989, -11503.347635668235, -9723.813500858963, -4360.065383918927, -3166.549285238896, -15831.382969782708, 187500.0, -0.132, 0.962, 0.14400000000000002, 192.0, 0.0, 0.0, 0.0, 0.0, 0.0, 0.0, 0.0, 0.0, 0.0, 1.700945586192113E9, 0.0, 2023-11-25 15:53:06.192
126.0, 76367.10421646884, 82640.18835308413, -12245.157330650965, -10491.484164176485, -5246.289699827397, -3930.487207232381, -15929.797700619425, 187500.0, -0.132, 0.962, 0.14400000000000002, 192.0, 0.0, 0.0, 0.0, 0.0, 0.0, 0.0, 0.0, 0.0, 0.0, 1.700945586195229E9, 0.0, 2023-11-25 15:53:06.195
127.0, 76399.96128081814, 82621.27877727494, -11421.83082363973, -10017.60482997952, -4496.701597774219, -3668.055375582621, -15732.700018012527, 187500.0, -0.132, 0.962, 0.14400000000000002, 192.0, 0.0, 0.0, 0.0, 0.0, 0.0, 0.0, 0.0, 0.0, 0.0, 1.700945586198053E9, 0.0, 2023-11-25 15:53:06.198
128.0, 76392.40639119226, 82575.83768079731, -10812.9022494438, -9148.18902590144, -3661.662776668403, -2827.518025340799, -15739.718465771493, 187500.0, -0.132, 0.962, 0.14400000000000002, 192.0, 0.0, 0.0, 0.0, 0.0, 0.0, 0.0, 0.0, 0.0, 0.0, 1.700945586203395E9, 0.0, 2023-11-25 15:53:06.203
129.0, 76367.84182403587, 82577.33524767582, -11400.194335006992, -9668.716450776632, -4257.359118146792, -3127.1878632531007, -15826.309123791352, 187500.0, -0.13, 0.968, 0.14200000000000002, 192.0, 251.0, 240.0, 30.0, 64.0, 4.0, 112.0, 0.0, 0.0, 0.0, 1.700945586207066E9, 0.0, 2023-11-25 15:53:06.207
130.0, 76364.19848968965, 82625.41384999918, -12177.945635073858, -10402.747738688915, -5142.108218921211, -3818.7061332113904, -15938.91721235719, 187500.0, -0.13, 0.968, 0.14200000000000002, 192.0, 0.0, 0.0, 0.0, 0.0, 0.0, 0.0, 0.0, 0.0, 0.0, 1.700945586211055E9, 0.0, 2023-11-25 15:53:06.211
131.0, 76391.95935630314, 82623.02221334245, -11675.79134414093, -10265.195103310956, -4766.308339394133, -3875.43486063896, -15776.062402255822, 187500.0, -0.13, 0.968, 0.14200000000000002, 192.0, 0.0, 0.0, 0.0, 0.0, 0.0, 0.0, 0.0, 0.0, 0.0, 1.700945586215189E9, 0.0, 2023-11-25 15:53:06.215
132.0, 76393.30046097047, 82579.32455293233, -10769.584568689415, -9133.101598394109, -3628.0681047520766, -2846.9863947613712, -15719.534840528351, 187500.0, -0.13, 0.968, 0.14200000000000002, 192.0, 0.0, 0.0, 0.0, 0.0, 0.0, 0.0, 0.0, 0.0, 0.0, 1.700945586219093E9, 0.0, 2023-11-25 15:53:06.219
133.0, 76374.18971946118, 82587.86291931426, -11308.775700184788, -9592.407595206214, -4151.590663384279, -3080.0256824524026, -15820.22944929951, 187500.0, -0.13, 0.968, 0.14200000000000002, 192.0, 0.0, 0.0, 0.0, 0.0, 0.0, 0.0, 0.0, 0.0, 0.0, 1.700945586223319E9, 0.0, 2023-11-25 15:53:06.223
134.0, 76360.48810011007, 82627.04552734441, -12059.52609294964, -10240.429370454476, -4974.827763417693, -3648.2293782507636, -15917.14661325772, 187500.0, -0.13, 0.968, 0.14200000000000002, 192.0, 0.0, 0.0, 0.0, 0.0, 0.0, 0.0, 0.0, 0.0, 0.0, 1.70094558622711E9, 0.0, 2023-11-25 15:53:06.227
135.0, 76376.96133577364, 82627.49256223351, -11922.2640302496, -10459.677631816583, -5009.942353956981, -4030.3771532031483, -15819.737710921492, 187500.0, -0.13, 0.968, 0.14200000000000002, 192.0, 0.0, 0.0, 0.0, 0.0, 0.0, 0.0, 0.0, 0.0, 0.0, 1.700945586231097E9, 0.0, 2023-11-25 15:53:06.231
136.0, 76397.36847846133, 82591.70741936058, -10787.264798553562, -9180.241427450352, -3662.7133086578024, -2924.3904858100996, -15702.279293808853, 187500.0, -0.13, 0.968, 0.14200000000000002, 192.0, 0.0, 0.0, 0.0, 0.0, 0.0, 0.0, 0.0, 0.0, 0.0, 1.700945586235588E9, 0.0, 2023-11-25 15:53:06.235
137.0, 76373.40740840524, 82577.31289593136, -11210.338617603615, -9478.25723627296, -4033.685211382534, -3018.670143922585, -15814.619161441227, 187500.0, -0.13, 0.968, 0.14200000000000002, 192.0, 0.0, 0.0, 0.0, 0.0, 0.0, 0.0, 0.0, 0.0, 0.0, 1.70094558623913E9, 0.0, 2023-11-25 15:53:06.239
138.0, 76359.34816114286, 82611.17578878114, -11918.419530203288, -10049.165493150413, -4793.264543207234, -3475.562152333516, -15907.423604419662, 187500.0, -0.13, 0.968, 0.14200000000000002, 192.0, 0.0, 0.0, 0.0, 0.0, 0.0, 0.0, 0.0, 0.0, 0.0, 1.700945586243136E9, 0.0, 2023-11-25 15:53:06.243
139.0, 76379.84471080836, 82632.56640822487, -12120.322837868076, -10586.367319389263, -5202.636742906183, -4113.145662921151, -15866.13993241071, 187500.0, -0.128, 0.968, 0.148, 192.0, 252.0, 0.0, 30.0, 64.0, 4.0, 160.0, 0.0, 0.0, 0.0, 1.700945586248154E9, 0.0, 2023-11-25 15:53:06.248
140.0, 76397.10025752787, 82585.31482044635, -10866.009994269609, -9321.03506577433, -3795.4826707223265, -3055.1928943625567, -15690.29875878081, 187500.0, -0.128, 0.968, 0.148, 192.0, 0.0, 0.0, 0.0, 0.0, 0.0, 0.0, 0.0, 0.0, 0.0, 1.700945586251185E9, 0.0, 2023-11-25 15:53:06.251
141.0, 76369.13822521428, 82559.72207304504, -11119.29996243715, -9391.890095697654, -3948.3462510521713, -2961.963768239471, -15817.41312949814, 187500.0, -0.128, 0.968, 0.148, 192.0, 0.0, 0.0, 0.0, 0.0, 0.0, 0.0, 0.0, 0.0, 0.0, 1.700945586254298E9, 0.0, 2023-11-25 15:53:06.254
142.0, 76356.93417274168, 82597.60827989677, -11785.42665069421, -9926.00738120167, -4643.932538501327, -3347.1066769488666, -15893.297301923909, 187500.0, -0.128, 0.968, 0.148, 192.0, 0.0, 0.0, 0.0, 0.0, 0.0, 0.0, 0.0, 0.0, 0.0, 1.700945586259158E9, 0.0, 2023-11-25 15:53:06.259
143.0, 76373.11683572731, 82640.97066414007, -12248.286574874708, -10624.76761636348, -5301.47615688755, -4119.33709613527, -15907.110679997288, 187500.0, -0.128, 0.968, 0.148, 192.0, 0.0, 0.0, 0.0, 0.0, 0.0, 0.0, 0.0, 0.0, 0.0, 1.700945586263329E9, 0.0, 2023-11-25 15:53:06.263
144.0, 76399.29072848448, 82606.48192244553, -11020.684065900334, -9521.329047838337, -3989.227591660928, -3243.9310245431693, -15692.466877992974, 187500.0, -0.128, 0.968, 0.148, 192.0, 0.0, 0.0, 0.0, 0.0, 0.0, 0.0, 0.0, 0.0, 0.0, 1.700945586267388E9, 0.0, 2023-11-25 15:53:06.267
145.0, 76391.60172839186, 82588.30995420337, -11013.978542563742, -9296.31403640676, -3836.051086908709, -2911.2923635592897, -15793.720280375515, 187500.0, -0.128, 0.968, 0.148, 192.0, 0.0, 0.0, 0.0, 0.0, 0.0, 0.0, 0.0, 0.0, 0.0, 1.700945586271202E9, 0.0, 2023-11-25 15:53:06.271
146.0, 76383.71156259913, 82622.21755054207, -11640.028553012438, -9826.60917360892, -4484.564600534988, -3259.8231148508926, -15861.066086419356, 187500.0, -0.128, 0.968, 0.148, 192.0, 0.0, 0.0, 0.0, 0.0, 0.0, 0.0, 0.0, 0.0, 0.0, 1.700945586274212E9, 0.0, 2023-11-25 15:53:06.274
147.0, 76381.11876024232, 82658.11445213729, -12295.180534741943, -10595.978569505045, -5307.95816277959, -4070.1185548446842, -15937.173776289676, 187500.0, -0.128, 0.968, 0.148, 192.0, 0.0, 0.0, 0.0, 0.0, 0.0, 0.0, 0.0, 0.0, 0.0, 1.700945586278238E9, 0.0, 2023-11-25 15:53:06.278
148.0, 76400.14009477379, 82624.72094592106, -11231.595126580612, -9771.422716548768, -4240.930585972141, -3475.4280418667845, -15727.49206155444, 187500.0, -0.128, 0.968, 0.148, 192.0, 0.0, 0.0, 0.0, 0.0, 0.0, 0.0, 0.0, 0.0, 0.0, 1.700945586282325E9, 0.0, 2023-11-25 15:53:06.282
149.0, 76386.21495797813, 82588.39936118119, -10912.30045703655, -9189.450346165937, -3729.1873966678854, -2851.99318551936, -15785.025451782401, 187500.0, -0.134, 0.962, 0.14400000000000002, 192.0, 251.0, 208.0, 30.0, 16.0, 4.0, 128.0, 0.0, 0.0, 0.0, 1.700945586288172E9, 0.0, 2023-11-25 15:53:06.288
150.0, 76378.50360614105, 82611.13108529223, -11520.781996343374, -9739.3479632554, -4363.172276398215, -3188.4539948050974, -15848.839682202302, 187500.0, -0.134, 0.962, 0.14400000000000002, 192.0, 0.0, 0.0, 0.0, 0.0, 0.0, 0.0, 0.0, 0.0, 0.0, 1.70094558629128E9, 0.0, 2023-11-25 15:53:06.291
151.0, 76374.10031248335, 82650.8054317004, -12265.653880316482, -10504.64934166066, -5241.394667791685, -3945.261710317339, -15943.208747292609, 187500.0, -0.134, 0.962, 0.14400000000000002, 192.0, 0.0, 0.0, 0.0, 0.0, 0.0, 0.0, 0.0, 0.0, 0.0, 1.700945586295255E9, 0.0, 2023-11-25 15:53:06.295
152.0, 76396.36264996084, 82629.77244016796, -11478.380737111656, -10043.912833203416, -4522.1155312199035, -3701.918268432411, -15749.910861243114, 187500.0, -0.134, 0.962, 0.14400000000000002, 192.0, 0.0, 0.0, 0.0, 0.0, 0.0, 0.0, 0.0, 0.0, 0.0, 1.700945586299275E9, 0.0, 2023-11-25 15:53:06.299
153.0, 76394.23923423758, 82593.60731763928, -10837.153892177808, -9149.597185802126, -3659.62876792297, -2843.834798793173, -15760.393829392653, 187500.0, -0.134, 0.962, 0.14400000000000002, 192.0, 0.0, 0.0, 0.0, 0.0, 0.0, 0.0, 0.0, 0.0, 0.0, 1.700945586302294E9, 0.0, 2023-11-25 15:53:06.302
154.0, 76376.96133577364, 82607.86773060176, -11414.007713080373, -9660.558064050445, -4243.389277862225, -3134.7874563679047, -15847.208004857064, 187500.0, -0.134, 0.962, 0.14400000000000002, 192.0, 0.0, 0.0, 0.0, 0.0, 0.0, 0.0, 0.0, 0.0, 0.0, 1.700945586306322E9, 0.0, 2023-11-25 15:53:06.306
155.0, 76377.54248112947, 82657.89093469274, -12179.21968450781, -10359.161837001067, -5109.139395849633, -3790.766452642257, -15945.667439182693, 187500.0, -0.134, 0.962, 0.14400000000000002, 192.0, 0.0, 0.0, 0.0, 0.0, 0.0, 0.0, 0.0, 0.0, 0.0, 1.700945586310337E9, 0.0, 2023-11-25 15:53:06.310
156.0, 76408.29848149998, 82658.1591556262, -11714.191641115147, -10269.665452202016, -4782.46865063532, -3889.8293840681777, -15776.755306333936, 187500.0, -0.134, 0.962, 0.14400000000000002, 192.0, 0.0, 0.0, 0.0, 0.0, 0.0, 0.0, 0.0, 0.0, 0.0, 1.700945586314338E9, 0.0, 2023-11-25 15:53:06.314
157.0, 76412.05357456846, 82614.86382661627, -10774.211379791663, -9102.144432323508, -3611.5501655996045, -2841.6443278365527, -15718.439605050042, 187500.0, -0.134, 0.962, 0.14400000000000002, 192.0, 0.0, 0.0, 0.0, 0.0, 0.0, 0.0, 0.0, 0.0, 0.0, 1.700945586319368E9, 0.0, 2023-11-25 15:53:06.319
158.0, 76383.30923119895, 82605.67725964515, -11307.635761217567, -9552.755600542498, -4127.115503205718, -3069.475659069498, -15832.165280838643, 187500.0, -0.134, 0.962, 0.14400000000000002, 192.0, 0.0, 0.0, 0.0, 0.0, 0.0, 0.0, 0.0, 0.0, 0.0, 1.700945586323524E9, 0.0, 2023-11-25 15:53:06.323
159.0, 76371.84278629336, 82643.78698394143, -12050.294822489599, -10180.906674969992, -4940.204911256423, -3613.8523952785013, -15929.77534887497, 187500.0, -0.132, 0.962, 0.138, 192.0, 251.0, 224.0, 30.0, 16.0, 4.0, 80.0, 0.0, 0.0, 0.0, 1.700945586327387E9, 0.0, 2023-11-25 15:53:06.327
