%OpenBCI Raw EXG Data
%Number of channels = 8
%Sample Rate = 250 Hz
%Board = OpenBCI_GUI$BoardCytonSerial
Sample Index, EXG Channel 0, EXG Channel 1, EXG Channel 2, EXG Channel 3, EXG Channel 4, EXG Channel 5, EXG Channel 6, EXG Channel 7, Accel Channel 0, Accel Channel 1, Accel Channel 2, Other, Other, Other, Other, Other, Other, Other, Analog Channel 0, Analog Channel 1, Analog Channel 2, Timestamp, Other, Timestamp (Formatted)
32.0, 76687.02473485765, 81406.99790799593, -11427.485814986923, -9787.426565578768, -2015.9932394019652, -2531.826797941542, -15532.048408037235, 187500.0, 0.0, 0.0, 0.0, 192.0, 0.0, 0.0, 0.0, 0.0, 0.0, 0.0, 0.0, 0.0, 0.0, 1.700945403005486E9, 0.0, 2023-11-25 15:50:03.005
33.0, 76684.9460226233, 81392.73749503345, -11679.814658142885, -10033.340458076056, -2152.6741567461677, -2586.0744817345717, -15628.540888850795, 187500.0, 0.0, 0.0, 0.0, 192.0, 0.0, 0.0, 0.0, 0.0, 0.0, 0.0, 0.0, 0.0, 0.0, 1.700945403005514E9, 0.0, 2023-11-25 15:50:03.005
34.0, 76650.50198441769, 81413.09993423223, -12313.285447750743, -10617.793872093425, -2898.9989041088706, -2999.5146989243867, -15654.088932763212, 187500.0, 0.0, 0.0, 0.0, 192.0, 0.0, 0.0, 0.0, 0.0, 0.0, 0.0, 0.0, 0.0, 0.0, 1.700945403005527E9, 0.0, 2023-11-25 15:50:03.005
0.0, 0.0, 0.0, 0.0, 0.0, 0.0, 0.0, 0.0, 0.0, 0.0, 0.0, 0.0, 192.0, 0.0, 0.0, 0.0, 0.0, 0.0, 0.0, 0.0, 0.0, 0.0, 1.700945403085734E9, 0.0, 2023-11-25 15:50:03.085
1.0, 77048.98888456689, 81756.51213604357, -11968.621548249906, -10163.338203828122, -2712.518300118244, -2748.63871915802, -15624.294057404288, 187500.0, -0.08, 0.976, 0.11, 192.0, 253.0, 128.0, 30.0, 128.0, 3.0, 112.0, 0.0, 0.0, 0.0, 1.700945403102798E9, 0.0, 2023-11-25 15:50:03.102
2.0, 77038.684730373, 81806.24476745664, -12690.404080200682, -10886.797116613045, -3683.7686519347017, -3461.3017393710306, -15699.798250174315, 187500.0, -0.08, 0.976, 0.11, 192.0, 0.0, 0.0, 0.0, 0.0, 0.0, 0.0, 0.0, 0.0, 0.0, 1.700945403105855E9, 0.0, 2023-11-25 15:50:03.105
3.0, 77071.16181506656, 81780.18263342175, -11792.3333397309, -10265.284510288777, -2829.3732201305893, -3065.5194003009083, -15499.034881476748, 187500.0, -0.08, 0.976, 0.11, 192.0, 0.0, 0.0, 0.0, 0.0, 0.0, 0.0, 0.0, 0.0, 0.0, 1.700945403109841E9, 0.0, 2023-11-25 15:50:03.109
4.0, 77075.14042557961, 81734.9874061331, -11257.053763515207, -9502.084195862317, -1953.4083549271054, -2334.8408740569203, -15534.50709992732, 187500.0, -0.08, 0.976, 0.11, 192.0, 0.0, 0.0, 0.0, 0.0, 0.0, 0.0, 0.0, 0.0, 0.0, 1.700945403113814E9, 0.0, 2023-11-25 15:50:03.113
5.0, 77047.22309675493, 81742.45288878118, -11852.303070104488, -10079.005071998248, -2581.782946799153, -2682.4775555703113, -15611.397100853575, 187500.0, -0.08, 0.976, 0.11, 192.0, 0.0, 0.0, 0.0, 0.0, 0.0, 0.0, 0.0, 0.0, 0.0, 1.700945403116823E9, 0.0, 2023-11-25 15:50:03.116
6.0, 77031.62157912512, 81792.99018299463, -12619.951381677554, -10756.821722605435, -3542.2597577881525, -3314.6072405108503, -15705.54264849933, 187500.0, -0.08, 0.976, 0.11, 192.0, 0.0, 0.0, 0.0, 0.0, 0.0, 0.0, 0.0, 0.0, 0.0, 1.700945403120829E9, 0.0, 2023-11-25 15:50:03.120
7.0, 77071.81001565576, 81795.89590977383, -12056.66506965936, -10505.901039350158, -3129.8253690988267, -3266.238065509566, -15557.641155438561, 187500.0, -0.08, 0.976, 0.11, 192.0, 0.0, 0.0, 0.0, 0.0, 0.0, 0.0, 0.0, 0.0, 0.0, 1.700945403124833E9, 0.0, 2023-11-25 15:50:03.124
8.0, 77084.32699255073, 81739.83773467991, -11203.700149500388, -9464.130933777205, -1922.741761534424, -2337.858359558387, -15525.320532956188, 187500.0, -0.084, 0.972, 0.106, 192.0, 253.0, 96.0, 30.0, 96.0, 3.0, 80.0, 0.0, 0.0, 0.0, 1.700945403128898E9, 0.0, 2023-11-25 15:50:03.128
9.0, 77057.79547188229, 81733.98157763261, -11747.674554309197, -9992.101489556015, -2459.7424220731764, -2628.6992584108425, -15618.594362568185, 187500.0, -0.084, 0.972, 0.106, 192.0, 0.0, 0.0, 0.0, 0.0, 0.0, 0.0, 0.0, 0.0, 0.0, 1.700945403132869E9, 0.0, 2023-11-25 15:50:03.132
10.0, 77036.02487278281, 81775.22054615266, -12507.790328000823, -10635.407046724207, -3376.2086482296763, -3184.788308714427, -15711.06352937979, 187500.0, -0.084, 0.972, 0.106, 192.0, 0.0, 0.0, 0.0, 0.0, 0.0, 0.0, 0.0, 0.0, 0.0, 1.700945403137914E9, 0.0, 2023-11-25 15:50:03.137
11.0, 77060.29886726128, 81791.87259577187, -12298.265075476775, -10723.74114081158, -3393.1065670378885, -3437.385372803852, -15607.865525229638, 187500.0, -0.084, 0.972, 0.106, 192.0, 0.0, 0.0, 0.0, 0.0, 0.0, 0.0, 0.0, 0.0, 0.0, 1.700945403141937E9, 0.0, 2023-11-25 15:50:03.141
12.0, 77087.16566409655, 81747.28086558353, -11196.636998252512, -9493.501125991479, -1954.81651482779, -2387.926267138275, -15500.979483244359, 187500.0, -0.084, 0.972, 0.106, 192.0, 0.0, 0.0, 0.0, 0.0, 0.0, 0.0, 0.0, 0.0, 0.0, 1.700945403144985E9, 0.0, 2023-11-25 15:50:03.144
13.0, 77055.96262883695, 81725.6890804397, -11647.494035660511, -9900.995779156183, -2341.6134526268784, -2577.5808188415554, -15607.530249062807, 187500.0, -0.084, 0.972, 0.106, 192.0, 0.0, 0.0, 0.0, 0.0, 0.0, 0.0, 0.0, 0.0, 0.0, 1.700945403148928E9, 0.0, 2023-11-25 15:50:03.148
14.0, 77039.13176526211, 81773.8570897409, -12364.515646042306, -10500.760138125437, -3184.0283494029463, -3054.9023216846376, -15687.01305234588, 187500.0, -0.084, 0.972, 0.106, 192.0, 0.0, 0.0, 0.0, 0.0, 0.0, 0.0, 0.0, 0.0, 0.0, 1.700945403152958E9, 0.0, 2023-11-25 15:50:03.152
15.0, 77046.61959965463, 81795.96296500719, -12497.955560440489, -10877.38703219736, -3590.494822322705, -3550.507551492161, -15646.42228441504, 187500.0, -0.084, 0.972, 0.106, 192.0, 0.0, 0.0, 0.0, 0.0, 0.0, 0.0, 0.0, 0.0, 0.0, 1.700945403156933E9, 0.0, 2023-11-25 15:50:03.156
16.0, 77083.65644021708, 81750.29835108499, -11261.121781006072, -9605.416310479202, -2080.9697605335427, -2503.6412481833995, -15486.607311559595, 187500.0, -0.084, 0.972, 0.106, 192.0, 0.0, 0.0, 0.0, 0.0, 0.0, 0.0, 0.0, 0.0, 0.0, 1.700945403160975E9, 0.0, 2023-11-25 15:50:03.160
17.0, 77057.21432652645, 81717.06130707996, -11544.81012163283, -9799.854135495918, -2232.6486984072567, -2517.4099227678685, -15603.618693783128, 187500.0, -0.084, 0.972, 0.106, 192.0, 0.0, 0.0, 0.0, 0.0, 0.0, 0.0, 0.0, 0.0, 0.0, 1.700945403165008E9, 0.0, 2023-11-25 15:50:03.165
18.0, 77038.2823989728, 81757.02622616604, -12216.07771111461, -10360.882921324126, -3001.146376269624, -2925.1951486104904, -15673.043212061313, 187500.0, -0.092, 0.978, 0.098, 192.0, 253.0, 32.0, 30.0, 144.0, 3.0, 16.0, 0.0, 0.0, 0.0, 1.700945403170006E9, 0.0, 2023-11-25 15:50:03.170
19.0, 77043.35624496416, 81799.24867144212, -12632.110730661241, -10939.033143405099, -3702.9911521662657, -3576.3685198269513, -15674.473723706453, 187500.0, -0.092, 0.978, 0.098, 192.0, 0.0, 0.0, 0.0, 0.0, 0.0, 0.0, 0.0, 0.0, 0.0, 1.700945403173121E9, 0.0, 2023-11-25 15:50:03.173
20.0, 77078.00144886988, 81753.69581624221, -11394.49464017089, -9786.800716734018, -2289.980922935119, -2670.0499856531605, -15478.2030556444, 187500.0, -0.092, 0.978, 0.098, 192.0, 0.0, 0.0, 0.0, 0.0, 0.0, 0.0, 0.0, 0.0, 0.0, 1.700945403177058E9, 0.0, 2023-11-25 15:50:03.177
21.0, 77067.943163865, 81722.64924319378, -11433.051399356294, -9679.288825903992, -2114.5644324498694, -2444.789105032576, -15585.245559840867, 187500.0, -0.092, 0.978, 0.098, 192.0, 0.0, 0.0, 0.0, 0.0, 0.0, 0.0, 0.0, 0.0, 0.0, 1.700945403181079E9, 0.0, 2023-11-25 15:50:03.181
22.0, 77043.62446589762, 81755.28279009853, -12063.683517418327, -10239.088265787157, -2820.387818859556, -2812.7882257447513, -15640.47672038993, 187500.0, -0.092, 0.978, 0.098, 192.0, 0.0, 0.0, 0.0, 0.0, 0.0, 0.0, 0.0, 0.0, 0.0, 1.700945403185077E9, 0.0, 2023-11-25 15:50:03.185
23.0, 77034.66141637105, 81792.34198240543, -12689.755879611479, -10923.49868100866, -3713.719989504813, -3520.735027877692, -15700.759375185893, 187500.0, -0.092, 0.978, 0.098, 192.0, 0.0, 0.0, 0.0, 0.0, 0.0, 0.0, 0.0, 0.0, 0.0, 1.700945403189093E9, 0.0, 2023-11-25 15:50:03.189
24.0, 77074.0451901013, 81757.11563314387, -11602.656436283165, -10026.344362061544, -2570.4953158492226, -2868.511124671832, -15504.131079212557, 187500.0, -0.092, 0.978, 0.098, 192.0, 0.0, 0.0, 0.0, 0.0, 0.0, 0.0, 0.0, 0.0, 0.0, 1.700945403193095E9, 0.0, 2023-11-25 15:50:03.193
25.0, 77071.40768425557, 81722.58218796042, -11341.543357556267, -9570.748754829021, -2022.6317075051913, -2375.0740140764733, -15580.574045249707, 187500.0, -0.092, 0.978, 0.098, 192.0, 0.0, 0.0, 0.0, 0.0, 0.0, 0.0, 0.0, 0.0, 0.0, 1.700945403198159E9, 0.0, 2023-11-25 15:50:03.198
26.0, 77042.73039611941, 81739.3906997908, -11952.394181775355, -10149.144846099001, -2688.4678230843333, -2736.4346666854226, -15643.315391935754, 187500.0, -0.092, 0.978, 0.098, 192.0, 0.0, 0.0, 0.0, 0.0, 0.0, 0.0, 0.0, 0.0, 0.0, 1.700945403201129E9, 0.0, 2023-11-25 15:50:03.201
27.0, 77035.82370708272, 81796.47705512965, -12687.230132488028, -10873.698994362236, -3660.3663754899953, -3438.704125726715, -15723.1111196412, 187500.0, -0.092, 0.978, 0.098, 192.0, 0.0, 0.0, 0.0, 0.0, 0.0, 0.0, 0.0, 0.0, 0.0, 1.70094540320516E9, 0.0, 2023-11-25 15:50:03.205
28.0, 77060.45532947246, 81764.33524660293, -11848.838549713917, -10309.473909076918, -2882.95035158996, -3101.9303920186035, -15536.183480761467, 187500.0, -0.096, 0.976, 0.10200000000000001, 192.0, 253.0, 0.0, 30.0, 128.0, 3.0, 48.0, 0.0, 0.0, 0.0, 1.700945403209149E9, 0.0, 2023-11-25 15:50:03.209
29.0, 77067.31731502025, 81721.19637980418, -11251.219958212372, -9484.426317742626, -1938.9244245200664, -2328.627089098345, -15558.915204872514, 187500.0, -0.096, 0.976, 0.10200000000000001, 192.0, 0.0, 0.0, 0.0, 0.0, 0.0, 0.0, 0.0, 0.0, 0.0, 1.70094540321315E9, 0.0, 2023-11-25 15:50:03.213
30.0, 77044.76440486484, 81735.7473654446, -11836.947421663694, -10054.976946708794, -2553.5526935521, -2666.8983896849622, -15633.391217397597, 187500.0, -0.096, 0.976, 0.10200000000000001, 192.0, 0.0, 0.0, 0.0, 0.0, 0.0, 0.0, 0.0, 0.0, 0.0, 1.700945403217127E9, 0.0, 2023-11-25 15:50:03.217
31.0, 77029.56521863524, 81792.27492717207, -12609.267247827918, -10742.74012359859, -3517.6951906317704, -3296.9270106467025, -15717.813756205293, 187500.0, -0.096, 0.976, 0.10200000000000001, 192.0, 0.0, 0.0, 0.0, 0.0, 0.0, 0.0, 0.0, 0.0, 0.0, 1.700945403221171E9, 0.0, 2023-11-25 15:50:03.221
32.0, 77052.47575670193, 81782.44015961172, -12109.526945296162, -10555.074877151834, -3185.2576953479884, -3302.358484549342, -15568.392344521564, 187500.0, -0.096, 0.976, 0.10200000000000001, 192.0, 0.0, 0.0, 0.0, 0.0, 0.0, 0.0, 0.0, 0.0, 0.0, 1.700945403226246E9, 0.0, 2023-11-25 15:50:03.226
33.0, 77070.46891098845, 81735.25562706657, -11201.375568077037, -9455.056125528352, -1918.2714126433627, -2333.7679903230655, -15522.25834396581, 187500.0, -0.096, 0.976, 0.10200000000000001, 192.0, 0.0, 0.0, 0.0, 0.0, 0.0, 0.0, 0.0, 0.0, 0.0, 1.700945403229244E9, 0.0, 2023-11-25 15:50:03.229
34.0, 77036.89659081657, 81722.15750481577, -11741.304307139435, -9970.979091045749, -2444.7444015436654, -2616.808130360619, -15627.400949883575, 187500.0, -0.096, 0.976, 0.10200000000000001, 192.0, 0.0, 0.0, 0.0, 0.0, 0.0, 0.0, 0.0, 0.0, 0.0, 1.70094540323221E9, 0.0, 2023-11-25 15:50:03.232
35.0, 77019.66339584153, 81771.44310133971, -12494.491040049916, -10613.234116224541, -3350.3476798948864, -3161.72130843655, -15711.15293635761, 187500.0, -0.096, 0.976, 0.10200000000000001, 192.0, 0.0, 0.0, 0.0, 0.0, 0.0, 0.0, 0.0, 0.0, 0.0, 1.700945403237237E9, 0.0, 2023-11-25 15:50:03.237
36.0, 77047.46896594393, 81790.10680795989, -12349.58468074616, -10753.31249872595, -3441.8557216949134, -3459.312434114508, -15620.650723058072, 187500.0, -0.096, 0.976, 0.10200000000000001, 192.0, 0.0, 0.0, 0.0, 0.0, 0.0, 0.0, 0.0, 0.0, 0.0, 1.700945403241369E9, 0.0, 2023-11-25 15:50:03.241
37.0, 77082.36003903867, 81752.80174646399, -11212.953771704886, -9492.160021324162, -1975.4024714711277, -2391.0555113620176, -15510.702492082417, 187500.0, -0.096, 0.976, 0.10200000000000001, 192.0, 0.0, 0.0, 0.0, 0.0, 0.0, 0.0, 0.0, 0.0, 0.0, 1.700945403245283E9, 0.0, 2023-11-25 15:50:03.245
38.0, 77048.05011129977, 81729.6900426972, -11641.146140235203, -9880.074546346015, -2331.3540019218926, -2559.7217750217646, -15620.918943991537, 187500.0, -0.092, 0.974, 0.098, 192.0, 253.0, 32.0, 30.0, 112.0, 3.0, 16.0, 0.0, 0.0, 0.0, 1.700945403249229E9, 0.0, 2023-11-25 15:50:03.249
39.0, 77031.30865470275, 81777.9027554873, -12345.382552788562, -10464.907940019124, -3150.008994341969, -3016.1667485435905, -15690.410517503085, 187500.0, -0.092, 0.974, 0.098, 192.0, 0.0, 0.0, 0.0, 0.0, 0.0, 0.0, 0.0, 0.0, 0.0, 1.700945403253278E9, 0.0, 2023-11-25 15:50:03.253
40.0, 77035.75665184935, 81799.58394760895, -12542.882566795655, -10886.90887533532, -3625.8329303065457, -3553.7485544381807, -15661.509711922374, 187500.0, -0.092, 0.974, 0.098, 192.0, 0.0, 0.0, 0.0, 0.0, 0.0, 0.0, 0.0, 0.0, 0.0, 1.700945403257329E9, 0.0, 2023-11-25 15:50:03.257
41.0, 77070.0442278438, 81758.50144130009, -11297.510420979312, -9618.894412385753, -2120.3758860082494, -2522.729637948232, -15506.388605402542, 187500.0, -0.092, 0.974, 0.098, 192.0, 0.0, 0.0, 0.0, 0.0, 0.0, 0.0, 0.0, 0.0, 0.0, 1.70094540326031E9, 0.0, 2023-11-25 15:50:03.260
42.0, 77048.43009095552, 81732.3946037763, -11542.463188465023, -9769.321652569968, -2217.4048086887374, -2505.0494080840836, -15619.644894557583, 187500.0, -0.092, 0.974, 0.098, 192.0, 0.0, 0.0, 0.0, 0.0, 0.0, 0.0, 0.0, 0.0, 0.0, 1.700945403265315E9, 0.0, 2023-11-25 15:50:03.265
43.0, 77020.04337549728, 81760.71426400117, -12208.433414510897, -10340.051095491779, -2977.0958992357137, -2911.3594187926556, -15678.541741197318, 187500.0, -0.092, 0.974, 0.098, 192.0, 0.0, 0.0, 0.0, 0.0, 0.0, 0.0, 0.0, 0.0, 0.0, 1.700945403269351E9, 0.0, 2023-11-25 15:50:03.269
44.0, 77018.36699466313, 81795.0018399956, -12678.736469595013, -10949.270242365628, -3733.456579858849, -3578.760156483669, -15697.071337350768, 187500.0, -0.092, 0.974, 0.098, 192.0, 0.0, 0.0, 0.0, 0.0, 0.0, 0.0, 0.0, 0.0, 0.0, 1.700945403273486E9, 0.0, 2023-11-25 15:50:03.273
45.0, 77053.8839166026, 81751.25947609657, -11454.531425777845, -9837.42741792529, -2360.9924150696297, -2715.222861197336, -15496.151506442013, 187500.0, -0.092, 0.974, 0.098, 192.0, 0.0, 0.0, 0.0, 0.0, 0.0, 0.0, 0.0, 0.0, 0.0, 1.700945403277482E9, 0.0, 2023-11-25 15:50:03.277
46.0, 77044.02679729782, 81717.91067336926, -11431.263259799869, -9649.24808135606, -2100.281667742928, -2423.420837333302, -15591.101716888157, 187500.0, -0.092, 0.974, 0.098, 192.0, 0.0, 0.0, 0.0, 0.0, 0.0, 0.0, 0.0, 0.0, 0.0, 1.700945403281438E9, 0.0, 2023-11-25 15:50:03.281
47.0, 77022.7255848319, 81743.57047600395, -12070.031412843635, -10216.557707376207, -2806.5967925306313, -2796.6949697369305, -15656.413514186564, 187500.0, -0.08600000000000001, 0.976, 0.092, 192.0, 253.0, 80.0, 30.0, 128.0, 2.0, 224.0, 0.0, 0.0, 0.0, 1.700945403284419E9, 0.0, 2023-11-25 15:50:03.284
48.0, 77025.09486974418, 81798.19813945272, -12742.103665125807, -10968.425687363826, -3755.8306760586115, -3561.214037086253, -15714.081014881256, 187500.0, -0.08600000000000001, 0.976, 0.092, 192.0, 0.0, 0.0, 0.0, 0.0, 0.0, 0.0, 0.0, 0.0, 0.0, 1.700945403288431E9, 0.0, 2023-11-25 15:50:03.288
49.0, 77063.24929752939, 81770.37021760586, -11664.481361446544, -10116.220726516334, -2648.0558691091383, -2953.268939646356, -15497.850239020616, 187500.0, -0.08600000000000001, 0.976, 0.092, 192.0, 0.0, 0.0, 0.0, 0.0, 0.0, 0.0, 0.0, 0.0, 0.0, 1.700945403292405E9, 0.0, 2023-11-25 15:50:03.292
50.0, 77064.29982951879, 81737.82607767894, -11319.973924156897, -9543.837254504831, -1991.518079223404, -2366.401537227814, -15562.55853921873, 187500.0, -0.08600000000000001, 0.976, 0.092, 192.0, 0.0, 0.0, 0.0, 0.0, 0.0, 0.0, 0.0, 0.0, 0.0, 1.700945403297578E9, 0.0, 2023-11-25 15:50:03.297
51.0, 77038.55061990627, 81749.91837142926, -11934.535137955563, -10123.90972660896, -2658.874113425507, -2726.7340095918194, -15627.982095239413, 187500.0, -0.08600000000000001, 0.976, 0.092, 192.0, 0.0, 0.0, 0.0, 0.0, 0.0, 0.0, 0.0, 0.0, 0.0, 1.700945403301795E9, 0.0, 2023-11-25 15:50:03.301
52.0, 77028.22411396791, 81802.3555639214, -12698.450708204593, -10857.113999976398, -3651.760953874702, -3433.2726518240756, -15718.193735861032, 187500.0, -0.08600000000000001, 0.976, 0.092, 192.0, 0.0, 0.0, 0.0, 0.0, 0.0, 0.0, 0.0, 0.0, 0.0, 1.700945403305503E9, 0.0, 2023-11-25 15:50:03.305
53.0, 77056.27555325933, 81779.6014880659, -11915.402044701821, -10355.205578232477, -2951.72666927894, -3157.429773501131, -15537.88221334007, 187500.0, -0.08600000000000001, 0.976, 0.092, 192.0, 0.0, 0.0, 0.0, 0.0, 0.0, 0.0, 0.0, 0.0, 0.0, 1.700945403308492E9, 0.0, 2023-11-25 15:50:03.308
54.0, 77062.0870068177, 81730.91938864224, -11248.336583177637, -9460.174675008617, -1932.487122116938, -2328.4482751427026, -15553.528434458785, 187500.0, -0.08600000000000001, 0.976, 0.092, 192.0, 0.0, 0.0, 0.0, 0.0, 0.0, 0.0, 0.0, 0.0, 0.0, 1.700945403312491E9, 0.0, 2023-11-25 15:50:03.312
55.0, 77033.49912565936, 81733.57924623243, -11840.389590309811, -10046.3715250935, -2547.942405693818, -2674.4085758219453, -15641.259031445865, 187500.0, -0.08600000000000001, 0.976, 0.092, 192.0, 0.0, 0.0, 0.0, 0.0, 0.0, 0.0, 0.0, 0.0, 0.0, 1.70094540331649E9, 0.0, 2023-11-25 15:50:03.316
56.0, 77025.184276722, 81792.56549984998, -12622.499480545459, -10744.818835832935, -3515.705885375248, -3304.236031083588, -15731.247154622932, 187500.0, -0.08600000000000001, 0.976, 0.092, 192.0, 0.0, 0.0, 0.0, 0.0, 0.0, 0.0, 0.0, 0.0, 0.0, 1.700945403320512E9, 0.0, 2023-11-25 15:50:03.320
57.0, 77043.31154147525, 81779.84735725491, -12184.584103177083, -10633.77536937897, -3266.103955042834, -3379.4049476867854, -15588.643024998073, 187500.0, -0.092, 0.972, 0.09, 192.0, 253.0, 32.0, 30.0, 96.0, 2.0, 208.0, 0.0, 0.0, 0.0, 1.700945403325521E9, 0.0, 2023-11-25 15:50:03.325
58.0, 77062.98107659591, 81730.1370775863, -11212.17146064895, -9471.954044336564, -1934.9011105181112, -2363.7416796376324, -15541.100864541635, 187500.0, -0.092, 0.972, 0.09, 192.0, 0.0, 0.0, 0.0, 0.0, 0.0, 0.0, 0.0, 0.0, 0.0, 1.700945403329548E9, 0.0, 2023-11-25 15:50:03.329
59.0, 77040.24935248487, 81731.85816190936, -11740.343182127855, -9977.371689959966, -2438.6200235629112, -2639.316337027113, -15645.259993703366, 187500.0, -0.092, 0.972, 0.09, 192.0, 0.0, 0.0, 0.0, 0.0, 0.0, 0.0, 0.0, 0.0, 0.0, 1.700945403333895E9, 0.0, 2023-11-25 15:50:03.333
60.0, 77016.93648301798, 81779.7579502771, -12487.830220202235, -10601.678264341148, -3328.1523976507665, -3163.174171826145, -15721.792366718337, 187500.0, -0.092, 0.972, 0.09, 192.0, 0.0, 0.0, 0.0, 0.0, 0.0, 0.0, 0.0, 0.0, 0.0, 1.700945403336554E9, 0.0, 2023-11-25 15:50:03.336
61.0, 77028.60409362365, 81785.65881081329, -12417.154004234553, -10821.708836759191, -3513.2024899962535, -3529.5863186819934, -15633.90530752007, 187500.0, -0.092, 0.972, 0.09, 192.0, 0.0, 0.0, 0.0, 0.0, 0.0, 0.0, 0.0, 0.0, 0.0, 1.700945403340553E9, 0.0, 2023-11-25 15:50:03.340
62.0, 77063.58457369621, 81743.52577251504, -11227.41535036747, -9531.052056676395, -2005.0855881077753, -2443.1797794317936, -15497.514962853786, 187500.0, -0.092, 0.972, 0.09, 192.0, 0.0, 0.0, 0.0, 0.0, 0.0, 0.0, 0.0, 0.0, 0.0, 1.700945403344617E9, 0.0, 2023-11-25 15:50:03.344
63.0, 77042.79745135277, 81728.28188279652, -11616.469814356544, -9848.871511086407, -2300.1509666622837, -2552.949196451807, -15603.685749016495, 187500.0, -0.092, 0.972, 0.09, 192.0, 0.0, 0.0, 0.0, 0.0, 0.0, 0.0, 0.0, 0.0, 0.0, 1.700945403348582E9, 0.0, 2023-11-25 15:50:03.348
64.0, 77016.86942778462, 81763.73174950264, -12328.618744447083, -10433.615497781695, -3124.3268399628214, -3000.8334518472498, -15683.280311021843, 187500.0, -0.092, 0.972, 0.09, 192.0, 0.0, 0.0, 0.0, 0.0, 0.0, 0.0, 0.0, 0.0, 0.0, 1.700945403354604E9, 0.0, 2023-11-25 15:50:03.354
65.0, 77021.11625923113, 81785.41294162428, -12600.214791323519, -10942.54236728458, -3689.7812711931792, -3604.889345751923, -15668.014069558869, 187500.0, -0.092, 0.972, 0.09, 192.0, 0.0, 0.0, 0.0, 0.0, 0.0, 0.0, 0.0, 0.0, 0.0, 1.700945403357593E9, 0.0, 2023-11-25 15:50:03.357
66.0, 77059.36009399415, 81745.47037428265, -11320.800938701743, -9688.385985897301, -2172.0754709333746, -2589.0472637471275, -15489.445983105421, 187500.0, -0.092, 0.972, 0.09, 192.0, 0.0, 0.0, 0.0, 0.0, 0.0, 0.0, 0.0, 0.0, 0.0, 1.700945403361701E9, 0.0, 2023-11-25 15:50:03.361
67.0, 77033.85675357065, 81713.48502796711, -11510.008455515917, -9741.337268511925, -2177.551648324925, -2484.2175822517374, -15602.054071671257, 187500.0, -0.088, 0.978, 0.092, 192.0, 253.0, 64.0, 30.0, 144.0, 2.0, 224.0, 0.0, 0.0, 0.0, 1.700945403364672E9, 0.0, 2023-11-25 15:50:03.364
68.0, 77017.71879407392, 81754.05344415348, -12177.543303673661, -10308.669246276528, -2934.337012092711, -2876.9153805870274, -15664.706011379483, 187500.0, -0.088, 0.978, 0.092, 192.0, 0.0, 0.0, 0.0, 0.0, 0.0, 0.0, 0.0, 0.0, 0.0, 1.700945403368689E9, 0.0, 2023-11-25 15:50:03.368
69.0, 77014.18721844998, 81787.13402594734, -12699.389481471717, -10968.537446086102, -3750.6003678560696, -3586.918543209856, -15693.137430326633, 187500.0, -0.088, 0.978, 0.092, 192.0, 0.0, 0.0, 0.0, 0.0, 0.0, 0.0, 0.0, 0.0, 0.0, 1.700945403372804E9, 0.0, 2023-11-25 15:50:03.372
70.0, 77056.52142244834, 81748.46550803966, -11487.74611803843, -9901.800441956573, -2414.8601192069195, -2767.3024257782017, -15493.849276763116, 187500.0, -0.088, 0.978, 0.092, 192.0, 0.0, 0.0, 0.0, 0.0, 0.0, 0.0, 0.0, 0.0, 0.0, 1.700945403376783E9, 0.0, 2023-11-25 15:50:03.376
71.0, 77051.82755611272, 81717.01660359104, -11393.198238992481, -9634.250060826547, -2073.034891251909, -2414.1225116398946, -15583.680937728996, 187500.0, -0.088, 0.978, 0.092, 192.0, 0.0, 0.0, 0.0, 0.0, 0.0, 0.0, 0.0, 0.0, 0.0, 1.700945403380761E9, 0.0, 2023-11-25 15:50:03.380
72.0, 77032.67211111452, 81755.12632788734, -12022.645714598384, -10208.511079372296, -2773.4938589923217, -2787.9777893993605, -15642.555432624273, 187500.0, -0.088, 0.978, 0.092, 192.0, 0.0, 0.0, 0.0, 0.0, 0.0, 0.0, 0.0, 0.0, 0.0, 1.700945403384753E9, 0.0, 2023-11-25 15:50:03.384
73.0, 77026.21245696694, 81801.37208716538, -12712.979342100543, -10959.708507026256, -3737.8822252610003, -3545.0760775895214, -15705.117965354679, 187500.0, -0.088, 0.978, 0.092, 192.0, 0.0, 0.0, 0.0, 0.0, 0.0, 0.0, 0.0, 0.0, 0.0, 1.700945403389782E9, 0.0, 2023-11-25 15:50:03.389
74.0, 77054.59917242518, 81765.16226114778, -11686.49782973502, -10178.58209354664, -2708.718503560842, -3010.7352746409506, -15502.789974545238, 187500.0, -0.088, 0.978, 0.092, 192.0, 0.0, 0.0, 0.0, 0.0, 0.0, 0.0, 0.0, 0.0, 0.0, 1.700945403392747E9, 0.0, 2023-11-25 15:50:03.392
75.0, 77045.54671592078, 81720.72699317063, -11271.381231711059, -9520.926716438142, -1966.908808578111, -2356.343252222926, -15560.278661284288, 187500.0, -0.088, 0.978, 0.092, 192.0, 0.0, 0.0, 0.0, 0.0, 0.0, 0.0, 0.0, 0.0, 0.0, 1.700945403396773E9, 0.0, 2023-11-25 15:50:03.396
76.0, 77017.91995977402, 81736.99906313409, -11885.54011410953, -10088.258694202745, -2625.324144998091, -2694.4357388539006, -15629.747883051383, 187500.0, -0.088, 0.978, 0.092, 192.0, 0.0, 0.0, 0.0, 0.0, 0.0, 0.0, 0.0, 0.0, 0.0, 1.700945403400838E9, 0.0, 2023-11-25 15:50:03.400
77.0, 77007.0793637132, 81788.29631665902, -12664.07372523233, -10835.835139254945, -3638.7745903461687, -3404.640067176827, -15715.444471293029, 187500.0, -0.082, 0.98, 0.096, 192.0, 253.0, 112.0, 30.0, 160.0, 3.0, 0.0, 0.0, 0.0, 0.0, 1.700945403404825E9, 0.0, 2023-11-25 15:50:03.404
78.0, 77039.04235828428, 81770.19140365021, -11935.74213215615, -10416.1587853621, -3026.828530648772, -3202.200317645111, -15528.673294624485, 187500.0, -0.082, 0.98, 0.096, 192.0, 0.0, 0.0, 0.0, 0.0, 0.0, 0.0, 0.0, 0.0, 0.0, 1.700945403408836E9, 0.0, 2023-11-25 15:50:03.408
79.0, 77053.54864043578, 81729.10889734136, -11188.702128970877, -9443.701439345055, -1920.5959940667146, -2315.5066151030796, -15516.893925296537, 187500.0, -0.082, 0.98, 0.096, 192.0, 0.0, 0.0, 0.0, 0.0, 0.0, 0.0, 0.0, 0.0, 0.0, 1.700945403412849E9, 0.0, 2023-11-25 15:50:03.412
80.0, 77023.01615750983, 81722.40337400477, -11764.639528350775, -9998.404681492411, -2513.006629110173, -2633.3484212575463, -15606.971455451425, 187500.0, -0.082, 0.98, 0.096, 192.0, 0.0, 0.0, 0.0, 0.0, 0.0, 0.0, 0.0, 0.0, 0.0, 1.700945403417836E9, 0.0, 2023-11-25 15:50:03.417
81.0, 77007.99578523586, 81771.84543273991, -12551.890319811144, -10697.679006776692, -3489.3308269179856, -3251.26239672451, -15705.363834543687, 187500.0, -0.082, 0.98, 0.096, 192.0, 0.0, 0.0, 0.0, 0.0, 0.0, 0.0, 0.0, 0.0, 0.0, 1.700945403420811E9, 0.0, 2023-11-25 15:50:03.420
82.0, 77036.04722452727, 81775.89109848632, -12181.633672908983, -10663.503189504527, -3334.61205179835, -3391.229020503643, -15565.956004375936, 187500.0, -0.082, 0.98, 0.096, 192.0, 0.0, 0.0, 0.0, 0.0, 0.0, 0.0, 0.0, 0.0, 0.0, 1.700945403424835E9, 0.0, 2023-11-25 15:50:03.424
83.0, 77059.00246608288, 81729.51122874155, -11149.027782562707, -9456.06195402884, -1943.6629943445917, -2341.2558247155935, -15487.948416226915, 187500.0, -0.082, 0.98, 0.096, 192.0, 0.0, 0.0, 0.0, 0.0, 0.0, 0.0, 0.0, 0.0, 0.0, 1.700945403428908E9, 0.0, 2023-11-25 15:50:03.428
84.0, 77033.47677391491, 81723.18568506071, -11644.364791436767, -9913.15512813987, -2402.4549010342243, -2571.590551327533, -15587.883065686592, 187500.0, -0.082, 0.98, 0.096, 192.0, 0.0, 0.0, 0.0, 0.0, 0.0, 0.0, 0.0, 0.0, 0.0, 1.700945403432867E9, 0.0, 2023-11-25 15:50:03.432
85.0, 77012.46613412692, 81765.54224080351, -12391.516553344316, -10542.356734556763, -3298.089301358378, -3088.5416970898746, -15664.750714868393, 187500.0, -0.082, 0.98, 0.096, 192.0, 0.0, 0.0, 0.0, 0.0, 0.0, 0.0, 0.0, 0.0, 0.0, 1.700945403436933E9, 0.0, 2023-11-25 15:50:03.436
86.0, 77019.35047141915, 81770.59373505041, -12391.628312066594, -10846.541624849036, -3578.380176827929, -3525.0712663020217, -15590.542923276775, 187500.0, -0.082, 0.98, 0.096, 192.0, 0.0, 0.0, 0.0, 0.0, 0.0, 0.0, 0.0, 0.0, 0.0, 1.700945403441013E9, 0.0, 2023-11-25 15:50:03.441
87.0, 77052.25223925737, 81726.02435660653, -11176.341614287092, -9542.920832982163, -2048.35856537325, -2435.468427594713, -15453.01263964327, 187500.0, -0.088, 0.97, 0.096, 192.0, 253.0, 64.0, 30.0, 80.0, 3.0, 0.0, 0.0, 0.0, 0.0, 1.700945403445888E9, 0.0, 2023-11-25 15:50:03.445
88.0, 77031.7333378474, 81706.6900976527, -11542.820816376307, -9843.976479050694, -2311.1703766787505, -2536.1853881103266, -15565.799542164748, 187500.0, -0.088, 0.97, 0.096, 192.0, 0.0, 0.0, 0.0, 0.0, 0.0, 0.0, 0.0, 0.0, 0.0, 1.700945403448901E9, 0.0, 2023-11-25 15:50:03.448
89.0, 76993.84713099565, 81725.13028682832, -12243.637412028005, -10438.465826328496, -3126.8972905751816, -2984.0696435057694, -15635.872261032137, 187500.0, -0.088, 0.97, 0.096, 192.0, 0.0, 0.0, 0.0, 0.0, 0.0, 0.0, 0.0, 0.0, 0.0, 1.70094540345193E9, 0.0, 2023-11-25 15:50:03.451
90.0, 77010.83445678168, 81765.6987030147, -12551.935023300055, -10967.129286185418, -3734.5741670816146, -3602.85533700649, -15615.465118344442, 187500.0, -0.088, 0.97, 0.096, 192.0, 0.0, 0.0, 0.0, 0.0, 0.0, 0.0, 0.0, 0.0, 0.0, 1.700945403456986E9, 0.0, 2023-11-25 15:50:03.456
91.0, 77058.10839630465, 81736.32851080043, -11280.120763793084, -9725.378122970835, -2233.475712952103, -2603.9558772988175, -15430.549136465686, 187500.0, -0.088, 0.97, 0.096, 192.0, 0.0, 0.0, 0.0, 0.0, 0.0, 0.0, 0.0, 0.0, 0.0, 1.700945403460971E9, 0.0, 2023-11-25 15:50:03.460
92.0, 77042.39511995258, 81708.90292035376, -11424.35657076318, -9724.931088081728, -2183.676026305679, -2458.177799961305, -15541.88317559757, 187500.0, -0.088, 0.97, 0.096, 192.0, 0.0, 0.0, 0.0, 0.0, 0.0, 0.0, 0.0, 0.0, 0.0, 1.700945403464965E9, 0.0, 2023-11-25 15:50:03.464
93.0, 77022.97145402092, 81739.72597595764, -12076.513418735674, -10286.205743098944, -2922.892918931594, -2844.6171098491086, -15603.395176338576, 187500.0, -0.088, 0.97, 0.096, 192.0, 0.0, 0.0, 0.0, 0.0, 0.0, 0.0, 0.0, 0.0, 0.0, 1.700945403469049E9, 0.0, 2023-11-25 15:50:03.469
94.0, 77016.71296557343, 81769.81142399448, -12637.07281793032, -10970.25853040916, -3778.137717025008, -3570.042976146099, -15644.120054736146, 187500.0, -0.088, 0.97, 0.096, 192.0, 0.0, 0.0, 0.0, 0.0, 0.0, 0.0, 0.0, 0.0, 0.0, 1.700945403473028E9, 0.0, 2023-11-25 15:50:03.473
95.0, 77054.97915208092, 81733.62394972134, -11459.940547936028, -9944.335811655023, -2488.620875909433, -2794.1692226134805, -15443.602555227586, 187500.0, -0.088, 0.97, 0.096, 192.0, 0.0, 0.0, 0.0, 0.0, 0.0, 0.0, 0.0, 0.0, 0.0, 1.700945403477037E9, 0.0, 2023-11-25 15:50:03.477
96.0, 77049.01123631134, 81704.54433018499, -11322.56672651371, -9605.75158664603, -2073.325463929828, -2387.859211904909, -15531.042579536746, 187500.0, -0.088, 0.97, 0.096, 192.0, 0.0, 0.0, 0.0, 0.0, 0.0, 0.0, 0.0, 0.0, 0.0, 1.700945403480019E9, 0.0, 2023-11-25 15:50:03.480
97.0, 77024.73724183289, 81727.20899906267, -11948.817902662506, -10180.705509269896, -2765.0448995882157, -2755.9477395949057, -15593.471001800419, 187500.0, -0.092, 0.972, 0.10200000000000001, 192.0, 253.0, 32.0, 30.0, 96.0, 3.0, 48.0, 0.0, 0.0, 0.0, 1.700945403485028E9, 0.0, 2023-11-25 15:50:03.485
98.0, 77014.4777911279, 81770.1467001613, -12659.22339668553, -10920.369436784917, -3741.7937805406787, -3488.0791292284885, -15668.997546314902, 187500.0, -0.092, 0.972, 0.10200000000000001, 192.0, 0.0, 0.0, 0.0, 0.0, 0.0, 0.0, 0.0, 0.0, 0.0, 1.70094540348916E9, 0.0, 2023-11-25 15:50:03.489
99.0, 77056.14144279259, 81747.70554872818, -11694.857382161306, -10222.860899312604, -2797.8125569596955, -3023.0063823469145, -15469.68704100693, 187500.0, -0.092, 0.972, 0.10200000000000001, 192.0, 0.0, 0.0, 0.0, 0.0, 0.0, 0.0, 0.0, 0.0, 0.0, 1.700945403493368E9, 0.0, 2023-11-25 15:50:03.493
100.0, 77064.5904021967, 81709.81934187643, -11225.962486977875, -9527.229908374538, -1988.5676489553034, -2342.4628189161804, -15515.038730506747, 187500.0, -0.092, 0.972, 0.10200000000000001, 192.0, 0.0, 0.0, 0.0, 0.0, 0.0, 0.0, 0.0, 0.0, 0.0, 1.700945403497069E9, 0.0, 2023-11-25 15:50:03.497
101.0, 77028.31352094574, 81713.95441460067, -11836.72390421914, -10114.276124748721, -2639.4057440049346, -2701.7000558018754, -15595.683824501495, 187500.0, -0.092, 0.972, 0.10200000000000001, 192.0, 0.0, 0.0, 0.0, 0.0, 0.0, 0.0, 0.0, 0.0, 0.0, 1.700945403502126E9, 0.0, 2023-11-25 15:50:03.502
102.0, 77013.56136960523, 81766.36925534836, -12611.390663551172, -10843.591194580937, -3636.2711949671743, -3389.709101880682, -15683.414421488575, 187500.0, -0.092, 0.972, 0.10200000000000001, 192.0, 0.0, 0.0, 0.0, 0.0, 0.0, 0.0, 0.0, 0.0, 0.0, 1.700945403505107E9, 0.0, 2023-11-25 15:50:03.505
103.0, 77035.82370708272, 81746.4985545276, -11958.406801033832, -10492.802917099347, -3111.7651595789384, -3249.809533334915, -15520.626666620574, 187500.0, -0.092, 0.972, 0.10200000000000001, 192.0, 0.0, 0.0, 0.0, 0.0, 0.0, 0.0, 0.0, 0.0, 0.0, 1.700945403508196E9, 0.0, 2023-11-25 15:50:03.508
104.0, 77056.70023640398, 81710.35578374336, -11160.762448401743, -9463.035698298896, -1940.2208256984743, -2319.574632593946, -15501.538276855741, 187500.0, -0.092, 0.972, 0.10200000000000001, 192.0, 0.0, 0.0, 0.0, 0.0, 0.0, 0.0, 0.0, 0.0, 0.0, 1.700945403513108E9, 0.0, 2023-11-25 15:50:03.513
105.0, 77037.03070128331, 81720.88345538182, -11723.355856341823, -10006.384254262955, -2506.8598993849637, -2627.5369676991663, -15586.385498808088, 187500.0, -0.092, 0.972, 0.10200000000000001, 192.0, 0.0, 0.0, 0.0, 0.0, 0.0, 0.0, 0.0, 0.0, 0.0, 1.70094540351707E9, 0.0, 2023-11-25 15:50:03.517
106.0, 77013.85194228315, 81768.0456361825, -12495.742737739414, -10678.232989100576, -3458.0830881694665, -3218.5170910974853, -15674.898406851104, 187500.0, -0.092, 0.972, 0.10200000000000001, 192.0, 0.0, 0.0, 0.0, 0.0, 0.0, 0.0, 0.0, 0.0, 0.0, 1.700945403521189E9, 0.0, 2023-11-25 15:50:03.521
107.0, 77029.16288723504, 81760.98248493463, -12209.573353478117, -10727.451530391161, -3400.5720496859612, -3433.6526314798157, -15559.764571161817, 187500.0, -0.096, 0.978, 0.10200000000000001, 192.0, 253.0, 0.0, 30.0, 144.0, 3.0, 48.0, 0.0, 0.0, 0.0, 1.700945403525173E9, 0.0, 2023-11-25 15:50:03.525
108.0, 77050.86643110114, 81708.07590580892, -11144.177454015906, -9488.047300344384, -1969.9262940795772, -2364.814563371487, -15486.83082900415, 187500.0, -0.096, 0.978, 0.10200000000000001, 192.0, 0.0, 0.0, 0.0, 0.0, 0.0, 0.0, 0.0, 0.0, 0.0, 1.700945403529202E9, 0.0, 2023-11-25 15:50:03.529
109.0, 77030.54869539126, 81704.6337371628, -11628.807977295874, -9927.05791319107, -2401.270258578093, -2576.84321127453, -15591.727565732905, 187500.0, -0.096, 0.978, 0.10200000000000001, 192.0, 0.0, 0.0, 0.0, 0.0, 0.0, 0.0, 0.0, 0.0, 0.0, 1.700945403533211E9, 0.0, 2023-11-25 15:50:03.533
110.0, 77006.92290150201, 81747.83965919491, -12359.106523884122, -10537.215833332042, -3270.7978213784486, -3066.569932290308, -15660.392124699609, 187500.0, -0.096, 0.978, 0.10200000000000001, 192.0, 0.0, 0.0, 0.0, 0.0, 0.0, 0.0, 0.0, 0.0, 0.0, 1.700945403536587E9, 0.0, 2023-11-25 15:50:03.536
111.0, 77018.32229117422, 81763.73174950264, -12422.049036270266, -10878.504619420126, -3613.8747470229564, -3533.0508390725663, -15597.628426269106, 187500.0, -0.096, 0.978, 0.10200000000000001, 192.0, 0.0, 0.0, 0.0, 0.0, 0.0, 0.0, 0.0, 0.0, 0.0, 1.700945403540221E9, 0.0, 2023-11-25 15:50:03.540
112.0, 77059.69537016099, 81723.31979552744, -11190.669082482944, -9579.868266566786, -2078.6675308546464, -2458.1554482168494, -15456.141883867012, 187500.0, -0.096, 0.978, 0.10200000000000001, 192.0, 0.0, 0.0, 0.0, 0.0, 0.0, 0.0, 0.0, 0.0, 0.0, 1.700945403545244E9, 0.0, 2023-11-25 15:50:03.545
113.0, 77040.15994550705, 81702.286803995, -11519.016208531406, -9808.928943744773, -2276.21224835065, -2497.271001013637, -15573.220321323912, 187500.0, -0.096, 0.978, 0.10200000000000001, 192.0, 0.0, 0.0, 0.0, 0.0, 0.0, 0.0, 0.0, 0.0, 0.0, 1.700945403549205E9, 0.0, 2023-11-25 15:50:03.549
114.0, 77010.72269805941, 81733.26632181005, -12211.294437801176, -10387.794421648316, -3073.9683597050143, -2927.787950967306, -15642.510729135363, 187500.0, -0.096, 0.978, 0.10200000000000001, 192.0, 0.0, 0.0, 0.0, 0.0, 0.0, 0.0, 0.0, 0.0, 0.0, 1.700945403553307E9, 0.0, 2023-11-25 15:50:03.553
115.0, 77011.39325039307, 81760.17782213424, -12587.183724306075, -10970.660861809358, -3755.338937680595, -3589.0643106775656, -15640.275554689832, 187500.0, -0.096, 0.978, 0.10200000000000001, 192.0, 0.0, 0.0, 0.0, 0.0, 0.0, 0.0, 0.0, 0.0, 0.0, 1.700945403557834E9, 0.0, 2023-11-25 15:50:03.557
116.0, 77062.2881725178, 81731.94756888719, -11315.235354332372, -9768.98637640314, -2284.281228099016, -2634.6895259248645, -15439.355723781076, 187500.0, -0.096, 0.978, 0.10200000000000001, 192.0, 0.0, 0.0, 0.0, 0.0, 0.0, 0.0, 0.0, 0.0, 0.0, 1.700945403560301E9, 0.0, 2023-11-25 15:50:03.560
117.0, 77048.49714618888, 81708.05355406446, -11403.614151908654, -9703.20519247117, -2160.2066946276063, -2440.1622939303275, -15546.286469255267, 187500.0, -0.092, 0.978, 0.10200000000000001, 192.0, 253.0, 32.0, 30.0, 144.0, 3.0, 48.0, 0.0, 0.0, 0.0, 1.700945403564338E9, 0.0, 2023-11-25 15:50:03.564
118.0, 77024.9831110219, 81741.15648760277, -12051.188892267812, -10266.17858006699, -2888.3371220036893, -2817.862071736106, -15609.430147341509, 187500.0, -0.092, 0.978, 0.10200000000000001, 192.0, 0.0, 0.0, 0.0, 0.0, 0.0, 0.0, 0.0, 0.0, 0.0, 1.700945403568549E9, 0.0, 2023-11-25 15:50:03.568
119.0, 77019.5292853748, 81782.23899391163, -12648.271041902428, -10973.41012637736, -3775.6343216460136, -3555.1120108499545, -15654.714781607961, 187500.0, -0.092, 0.978, 0.10200000000000001, 192.0, 0.0, 0.0, 0.0, 0.0, 0.0, 0.0, 0.0, 0.0, 0.0, 1.700945403572428E9, 0.0, 2023-11-25 15:50:03.572
120.0, 77064.81391964125, 81757.92029594425, -11499.99487399994, -9998.73995765924, -2539.135818378427, -2830.9601939869162, -15448.028200629737, 187500.0, -0.092, 0.978, 0.10200000000000001, 192.0, 0.0, 0.0, 0.0, 0.0, 0.0, 0.0, 0.0, 0.0, 0.0, 1.70094540357735E9, 0.0, 2023-11-25 15:50:03.577
121.0, 77054.24154451389, 81718.60357744737, -11296.325778523182, -9578.884789810752, -2041.6530420366578, -2362.5793889259567, -15531.02022779229, 187500.0, -0.092, 0.978, 0.10200000000000001, 192.0, 0.0, 0.0, 0.0, 0.0, 0.0, 0.0, 0.0, 0.0, 0.0, 1.700945403581358E9, 0.0, 2023-11-25 15:50:03.581
122.0, 77021.00450050885, 81729.041842108, -11914.64208539034, -10148.094314109601, -2721.4589979003667, -2723.0459717566937, -15592.286359344287, 187500.0, -0.092, 0.978, 0.10200000000000001, 192.0, 0.0, 0.0, 0.0, 0.0, 0.0, 0.0, 0.0, 0.0, 0.0, 1.700945403584541E9, 0.0, 2023-11-25 15:50:03.584
123.0, 77013.89664577207, 81779.3556188769, -12649.45568435856, -10896.49777370665, -3715.172852894408, -3457.680756769271, -15670.897444593604, 187500.0, -0.092, 0.978, 0.10200000000000001, 192.0, 0.0, 0.0, 0.0, 0.0, 0.0, 0.0, 0.0, 0.0, 0.0, 1.700945403588507E9, 0.0, 2023-11-25 15:50:03.588
124.0, 77042.08219553021, 81744.68806322671, -11752.27901366699, -10258.377821252087, -2854.474229153899, -3054.5446937733527, -15491.524695339764, 187500.0, -0.092, 0.978, 0.10200000000000001, 192.0, 0.0, 0.0, 0.0, 0.0, 0.0, 0.0, 0.0, 0.0, 0.0, 1.70094540359243E9, 0.0, 2023-11-25 15:50:03.592
125.0, 77046.50784093236, 81699.783408616, -11221.849765998099, -9480.179486296116, -1971.0215295578873, -2314.724304047144, -15535.55763191672, 187500.0, -0.092, 0.978, 0.10200000000000001, 192.0, 0.0, 0.0, 0.0, 0.0, 0.0, 0.0, 0.0, 0.0, 0.0, 1.700945403596433E9, 0.0, 2023-11-25 15:50:03.596
126.0, 77025.4748493999, 81712.50155121107, -11825.033941869015, -10070.3772986385, -2615.131749526471, -2671.2122763648363, -15606.524420562318, 187500.0, -0.092, 0.978, 0.10200000000000001, 192.0, 0.0, 0.0, 0.0, 0.0, 0.0, 0.0, 0.0, 0.0, 0.0, 1.700945403600519E9, 0.0, 2023-11-25 15:50:03.600
127.0, 77007.3252329022, 81757.11563314387, -12602.628779724691, -10798.66418822577, -3611.57251734406, -3340.4682088456407, -15687.594197701717, 187500.0, -0.088, 0.976, 0.106, 192.0, 253.0, 64.0, 30.0, 128.0, 3.0, 80.0, 0.0, 0.0, 0.0, 1.70094540360551E9, 0.0, 2023-11-25 15:50:03.605
128.0, 77038.59532339517, 81749.78426096252, -12022.086920987002, -10537.439350776596, -3180.3179598233655, -3277.4809929705852, -15525.745216100839, 187500.0, -0.088, 0.976, 0.106, 192.0, 0.0, 0.0, 0.0, 0.0, 0.0, 0.0, 0.0, 0.0, 0.0, 1.700945403609473E9, 0.0, 2023-11-25 15:50:03.609
129.0, 77054.91209684755, 81706.22071101912, -11165.121038570529, -9462.745125620977, -1949.295633947329, -2322.9273942622417, -15500.554800099708, 187500.0, -0.088, 0.976, 0.106, 192.0, 0.0, 0.0, 0.0, 0.0, 0.0, 0.0, 0.0, 0.0, 0.0, 1.70094540361242E9, 0.0, 2023-11-25 15:50:03.612
130.0, 77025.8324773112, 81700.94569932768, -11716.784443471963, -9999.254047781713, -2498.276829514126, -2624.094799053049, -15593.314539589232, 187500.0, -0.088, 0.976, 0.106, 192.0, 0.0, 0.0, 0.0, 0.0, 0.0, 0.0, 0.0, 0.0, 0.0, 1.700945403616458E9, 0.0, 2023-11-25 15:50:03.616
131.0, 77006.92290150201, 81756.48978429912, -12488.791345213813, -10660.597462725338, -3433.4738175241732, -3190.8679832062703, -15683.704994166494, 187500.0, -0.088, 0.976, 0.106, 192.0, 0.0, 0.0, 0.0, 0.0, 0.0, 0.0, 0.0, 0.0, 0.0, 1.700945403620503E9, 0.0, 2023-11-25 15:50:03.620
132.0, 77035.30961696025, 81774.57234556346, -12271.688851319415, -10762.9908040751, -3453.8809602118686, -3451.869303210891, -15576.03664112528, 187500.0, -0.088, 0.976, 0.106, 192.0, 0.0, 0.0, 0.0, 0.0, 0.0, 0.0, 0.0, 0.0, 0.0, 1.700945403624543E9, 0.0, 2023-11-25 15:50:03.624
133.0, 77057.92958234902, 81718.93885361419, -11152.671116908923, -9480.984149096508, -1977.1682592830969, -2358.980758068652, -15475.431439331942, 187500.0, -0.088, 0.976, 0.106, 192.0, 0.0, 0.0, 0.0, 0.0, 0.0, 0.0, 0.0, 0.0, 0.0, 1.700945403628526E9, 0.0, 2023-11-25 15:50:03.628
134.0, 77040.04818678477, 81707.56181568645, -11608.467889841544, -9886.422441771323, -2370.693072163233, -2544.611995769977, -15582.831571439692, 187500.0, -0.088, 0.976, 0.106, 192.0, 0.0, 0.0, 0.0, 0.0, 0.0, 0.0, 0.0, 0.0, 0.0, 1.700945403632606E9, 0.0, 2023-11-25 15:50:03.632
135.0, 77022.01032900934, 81754.32166508694, -12336.799482917724, -10496.200382256555, -3229.6035563473174, -3025.5768329592747, -15656.234700230922, 187500.0, -0.088, 0.976, 0.106, 192.0, 0.0, 0.0, 0.0, 0.0, 0.0, 0.0, 0.0, 0.0, 0.0, 1.700945403637578E9, 0.0, 2023-11-25 15:50:03.637
136.0, 77027.55356163425, 81772.96301996267, -12483.918664922556, -10915.139128582374, -3665.5072767147158, -3557.8836271624123, -15618.57201082373, 187500.0, -0.088, 0.976, 0.106, 192.0, 0.0, 0.0, 0.0, 0.0, 0.0, 0.0, 0.0, 0.0, 0.0, 1.700945403640581E9, 0.0, 2023-11-25 15:50:03.640
137.0, 77065.3950649971, 81735.3450340444, -11222.565021820668, -9615.18402280617, -2117.0678278288638, -2491.750120133176, -15450.621002986552, 187500.0, -0.08600000000000001, 0.976, 0.10200000000000001, 192.0, 253.0, 80.0, 30.0, 128.0, 3.0, 48.0, 0.0, 0.0, 0.0, 1.700945403644515E9, 0.0, 2023-11-25 15:50:03.644
138.0, 77038.79648909527, 81705.08077205191, -11506.298065936335, -9772.517952027078, -2246.886759625287, -2472.1476402458716, -15567.61003346563, 187500.0, -0.08600000000000001, 0.976, 0.10200000000000001, 192.0, 0.0, 0.0, 0.0, 0.0, 0.0, 0.0, 0.0, 0.0, 0.0, 1.700945403648763E9, 0.0, 2023-11-25 15:50:03.648
139.0, 77014.70130857245, 81742.65405448127, -12189.255617768244, -10346.913081039558, -3032.058838851314, -2887.085424314192, -15634.888784276103, 187500.0, -0.08600000000000001, 0.976, 0.10200000000000001, 192.0, 0.0, 0.0, 0.0, 0.0, 0.0, 0.0, 0.0, 0.0, 0.0, 1.700945403652586E9, 0.0, 2023-11-25 15:50:03.652
140.0, 77023.75376507685, 81785.32353464646, -12615.25751534194, -10971.800800776578, -3761.0386325166983, -3578.2237146167417, -15640.275554689832, 187500.0, -0.08600000000000001, 0.976, 0.10200000000000001, 192.0, 0.0, 0.0, 0.0, 0.0, 0.0, 0.0, 0.0, 0.0, 0.0, 1.700945403656557E9, 0.0, 2023-11-25 15:50:03.656
141.0, 77065.439768486, 81744.06221438196, -11356.273157152315, -9790.46640282469, -2312.5561848349794, -2648.033517364683, -15444.697790705895, 187500.0, -0.08600000000000001, 0.976, 0.10200000000000001, 192.0, 0.0, 0.0, 0.0, 0.0, 0.0, 0.0, 0.0, 0.0, 0.0, 1.700945403661082E9, 0.0, 2023-11-25 15:50:03.661
142.0, 77055.64970441458, 81710.33343199891, -11399.25556173987, -9664.179046652203, -2130.7247436910566, -2405.919421424797, -15552.835530380671, 187500.0, -0.08600000000000001, 0.976, 0.10200000000000001, 192.0, 0.0, 0.0, 0.0, 0.0, 0.0, 0.0, 0.0, 0.0, 0.0, 1.700945403665584E9, 0.0, 2023-11-25 15:50:03.665
143.0, 77038.66237862855, 81745.17980160473, -12039.677743873328, -10236.07078028569, -2857.245845466357, -2784.3791585420563, -15609.698368274972, 187500.0, -0.08600000000000001, 0.976, 0.10200000000000001, 192.0, 0.0, 0.0, 0.0, 0.0, 0.0, 0.0, 0.0, 0.0, 0.0, 1.700945403668614E9, 0.0, 2023-11-25 15:50:03.668
144.0, 77032.7838698368, 81788.40807538129, -12680.099926006786, -10966.54814082958, -3786.0725863066423, -3533.2296530282088, -15674.250206261899, 187500.0, -0.08600000000000001, 0.976, 0.10200000000000001, 192.0, 0.0, 0.0, 0.0, 0.0, 0.0, 0.0, 0.0, 0.0, 0.0, 1.700945403672646E9, 0.0, 2023-11-25 15:50:03.672
145.0, 77065.6409341861, 81750.76773771856, -11575.208494092047, -10067.583330581587, -2623.6030606750323, -2879.888162599583, -15479.812381245183, 187500.0, -0.08600000000000001, 0.976, 0.10200000000000001, 192.0, 0.0, 0.0, 0.0, 0.0, 0.0, 0.0, 0.0, 0.0, 0.0, 1.700945403676615E9, 0.0, 2023-11-25 15:50:03.676
146.0, 77054.64387591409, 81704.85725460736, -11294.984673855863, -9567.12777222726, -2035.774533244912, -2348.855417830398, -15545.41475122151, 187500.0, -0.08600000000000001, 0.976, 0.10200000000000001, 192.0, 0.0, 0.0, 0.0, 0.0, 0.0, 0.0, 0.0, 0.0, 0.0, 1.700945403680668E9, 0.0, 2023-11-25 15:50:03.680
147.0, 77033.52147740382, 81728.6842141967, -11914.172698756778, -10150.48595076632, -2714.8875850305067, -2714.1052739745705, -15607.105565918157, 187500.0, -0.088, 0.978, 0.1, 192.0, 253.0, 64.0, 30.0, 144.0, 3.0, 32.0, 0.0, 0.0, 0.0, 1.700945403684682E9, 0.0, 2023-11-25 15:50:03.684
148.0, 77024.35726217715, 81783.53539509003, -12672.098001491786, -10920.078864106998, -3729.947355979366, -3461.3687946043965, -15694.612645460684, 187500.0, -0.088, 0.978, 0.1, 192.0, 0.0, 0.0, 0.0, 0.0, 0.0, 0.0, 0.0, 0.0, 0.0, 1.700945403688693E9, 0.0, 2023-11-25 15:50:03.688
149.0, 77049.88295434511, 81750.9465516742, -11820.608296466864, -10358.156008500579, -2944.10472441968, -3128.7971888538827, -15506.500364124819, 187500.0, -0.088, 0.978, 0.1, 192.0, 0.0, 0.0, 0.0, 0.0, 0.0, 0.0, 0.0, 0.0, 0.0, 1.700945403692729E9, 0.0, 2023-11-25 15:50:03.692
150.0, 77058.84600387169, 81709.66287966525, -11205.264771612261, -9494.708120192066, -1964.2042474990187, -2320.491054116613, -15517.07273925218, 187500.0, -0.088, 0.978, 0.1, 192.0, 0.0, 0.0, 0.0, 0.0, 0.0, 0.0, 0.0, 0.0, 0.0, 1.700945403696663E9, 0.0, 2023-11-25 15:50:03.696
151.0, 77033.72264310392, 81719.49764722558, -11798.547124689476, -10070.71257480533, -2585.515688123189, -2662.3162820716243, -15591.280530843798, 187500.0, -0.088, 0.978, 0.1, 192.0, 0.0, 0.0, 0.0, 0.0, 0.0, 0.0, 0.0, 0.0, 0.0, 1.70094540370068E9, 0.0, 2023-11-25 15:50:03.700
152.0, 77011.86263702663, 81765.34107510341, -12585.06030858282, -10779.620501949848, -3575.5862087710157, -3308.125234618811, -15689.471744235963, 187500.0, -0.088, 0.978, 0.1, 192.0, 0.0, 0.0, 0.0, 0.0, 0.0, 0.0, 0.0, 0.0, 0.0, 1.70094540370469E9, 0.0, 2023-11-25 15:50:03.704
153.0, 77040.1375937626, 81757.92029594425, -12076.558122224586, -10598.325502672853, -3243.8192658208927, -3319.4575690576517, -15536.630515650573, 187500.0, -0.088, 0.978, 0.1, 192.0, 0.0, 0.0, 0.0, 0.0, 0.0, 0.0, 0.0, 0.0, 0.0, 1.700945403709728E9, 0.0, 2023-11-25 15:50:03.709
154.0, 77058.86835561614, 81711.49572271058, -11161.410648990948, -9470.568236180334, -1955.4647154169936, -2328.0906472314177, -15496.73265179785, 187500.0, -0.088, 0.978, 0.1, 192.0, 0.0, 0.0, 0.0, 0.0, 0.0, 0.0, 0.0, 0.0, 0.0, 1.700945403712729E9, 0.0, 2023-11-25 15:50:03.712
155.0, 77039.10941351765, 81715.72020241263, -11696.578466484365, -9984.390137718932, -2477.556762404056, -2605.788720344153, -15592.688690744484, 187500.0, -0.088, 0.978, 0.1, 192.0, 0.0, 0.0, 0.0, 0.0, 0.0, 0.0, 0.0, 0.0, 0.0, 1.700945403716694E9, 0.0, 2023-11-25 15:50:03.716
156.0, 77016.71296557343, 81764.06702566946, -12459.935243122012, -10636.34581999133, -3401.1755467862545, -3154.3452327662985, -15678.765258641872, 187500.0, -0.088, 0.978, 0.1, 192.0, 0.0, 0.0, 0.0, 0.0, 0.0, 0.0, 0.0, 0.0, 0.0, 1.700945403720708E9, 0.0, 2023-11-25 15:50:03.720
157.0, 77020.6245208531, 81759.1943453782, -12316.861726863592, -10783.599112462893, -3500.1043677454436, -3455.713803257204, -15587.65954824204, 187500.0, -0.088, 0.98, 0.088, 192.0, 253.0, 64.0, 30.0, 160.0, 2.0, 192.0, 0.0, 0.0, 0.0, 1.700945403724827E9, 0.0, 2023-11-25 15:50:03.724
158.0, 77060.3882742391, 81720.95051061518, -11167.155047315962, -9482.414660741648, -2000.6375909611693, -2355.024499300063, -15478.337166111132, 187500.0, -0.088, 0.98, 0.088, 192.0, 0.0, 0.0, 0.0, 0.0, 0.0, 0.0, 0.0, 0.0, 0.0, 1.700945403728823E9, 0.0, 2023-11-25 15:50:03.728
159.0, 77042.12689901912, 81709.72993489861, -11593.559276289854, -9864.361269993935, -2355.5609411669902, -2518.0357716126173, -15581.915149917026, 187500.0, -0.088, 0.98, 0.088, 192.0, 0.0, 0.0, 0.0, 0.0, 0.0, 0.0, 0.0, 0.0, 0.0, 1.700945403732769E9, 0.0, 2023-11-25 15:50:03.732
160.0, 77017.11529697363, 81747.83965919491, -12308.368063970574, -10466.293748175352, -3196.232401875544, -2985.3436929397217, -15653.932470552025, 187500.0, -0.088, 0.98, 0.088, 192.0, 0.0, 0.0, 0.0, 0.0, 0.0, 0.0, 0.0, 0.0, 0.0, 1.700945403737007E9, 0.0, 2023-11-25 15:50:03.737
161.0, 77027.75472733435, 81771.08547342844, -12509.198487901509, -10926.672628721313, -3690.630637482481, -3550.216978814242, -15620.918943991537, 187500.0, -0.088, 0.98, 0.088, 192.0, 0.0, 0.0, 0.0, 0.0, 0.0, 0.0, 0.0, 0.0, 0.0, 1.700945403739796E9, 0.0, 2023-11-25 15:50:03.739
162.0, 77064.16571905205, 81731.85816190936, -11244.760304064788, -9645.582395265388, -2156.6527672592124, -2511.1737860648377, -15456.38775305602, 187500.0, -0.088, 0.98, 0.088, 192.0, 0.0, 0.0, 0.0, 0.0, 0.0, 0.0, 0.0, 0.0, 0.0, 1.700945403743818E9, 0.0, 2023-11-25 15:50:03.743
163.0, 77049.10064328917, 81707.80768487546, -11475.653824288109, -9750.322669782958, -2221.562233157424, -2450.8017242910537, -15561.709172929428, 187500.0, -0.088, 0.98, 0.088, 192.0, 0.0, 0.0, 0.0, 0.0, 0.0, 0.0, 0.0, 0.0, 0.0, 1.700945403748991E9, 0.0, 2023-11-25 15:50:03.748
164.0, 77030.8839715581, 81747.41497605026, -12151.190596960854, -10319.889821993092, -2990.976332542459, -2851.255577952335, -15628.272667917332, 187500.0, -0.088, 0.98, 0.088, 192.0, 0.0, 0.0, 0.0, 0.0, 0.0, 0.0, 0.0, 0.0, 0.0, 1.700945403752818E9, 0.0, 2023-11-25 15:50:03.752
165.0, 77017.76349756283, 81771.37604610635, -12640.179710409608, -10972.001966476675, -3780.9093333374663, -3560.61053998596, -15666.248281746899, 187500.0, -0.088, 0.98, 0.088, 192.0, 0.0, 0.0, 0.0, 0.0, 0.0, 0.0, 0.0, 0.0, 0.0, 1.700945403756842E9, 0.0, 2023-11-25 15:50:03.756
166.0, 77048.51949793333, 81726.00200486208, -11410.431433967524, -9840.511958660121, -2388.261543305104, -2684.9809509493057, -15471.989270685825, 187500.0, -0.088, 0.98, 0.088, 192.0, 0.0, 0.0, 0.0, 0.0, 0.0, 0.0, 0.0, 0.0, 0.0, 1.700945403760848E9, 0.0, 2023-11-25 15:50:03.760
167.0, 77045.70317813197, 81701.41508596124, -11382.11177374265, -9632.618383481311, -2114.5867841943245, -2382.5618484690012, -15569.062896855225, 187500.0, -0.088, 0.98, 0.098, 192.0, 253.0, 64.0, 30.0, 160.0, 3.0, 16.0, 0.0, 0.0, 0.0, 1.700945403764861E9, 0.0, 2023-11-25 15:50:03.764
168.0, 77029.58757037969, 81738.27311256804, -12029.485348401708, -10218.412902165997, -2835.5870050891644, -2770.4316700019444, -15639.67205758954, 187500.0, -0.088, 0.98, 0.098, 192.0, 0.0, 0.0, 0.0, 0.0, 0.0, 0.0, 0.0, 0.0, 0.0, 1.700945403768521E9, 0.0, 2023-11-25 15:50:03.768
169.0, 77025.78777382229, 81785.68116255774, -12688.504181921982, -10956.26633838014, -3774.6508448899804, -3515.348257463963, -15693.025671604357, 187500.0, -0.088, 0.98, 0.098, 192.0, 0.0, 0.0, 0.0, 0.0, 0.0, 0.0, 0.0, 0.0, 0.0, 1.700945403771949E9, 0.0, 2023-11-25 15:50:03.771
170.0, 77068.5913644542, 81755.34984533189, -11616.91684924565, -10120.109930051558, -2674.140354888482, -2924.1222648766357, -15481.220541145867, 187500.0, -0.088, 0.98, 0.098, 192.0, 0.0, 0.0, 0.0, 0.0, 0.0, 0.0, 0.0, 0.0, 0.0, 1.70094540377693E9, 0.0, 2023-11-25 15:50:03.776
171.0, 77070.37950401062, 81718.11183906936, -11271.962377066897, -9548.017030717972, -2012.640477733669, -2345.010917784085, -15545.034771565768, 187500.0, -0.088, 0.98, 0.098, 192.0, 0.0, 0.0, 0.0, 0.0, 0.0, 0.0, 0.0, 0.0, 0.0, 1.700945403780897E9, 0.0, 2023-11-25 15:50:03.780
172.0, 77030.90632330255, 81724.70560368367, -11896.626579359363, -10122.568621941642, -2684.846840482574, -2701.4318348684114, -15626.931563250015, 187500.0, -0.088, 0.98, 0.098, 192.0, 0.0, 0.0, 0.0, 0.0, 0.0, 0.0, 0.0, 0.0, 0.0, 1.700945403784985E9, 0.0, 2023-11-25 15:50:03.784
173.0, 77007.12406720211, 81763.1953076357, -12666.107733977764, -10874.48130541817, -3695.2574485847294, -3415.5924219599274, -15714.706863726005, 187500.0, -0.088, 0.98, 0.098, 192.0, 0.0, 0.0, 0.0, 0.0, 0.0, 0.0, 0.0, 0.0, 0.0, 1.700945403788944E9, 0.0, 2023-11-25 15:50:03.788
174.0, 77041.6351606411, 81745.55978126047, -11884.958968753692, -10387.794421648316, -2998.3077047238, -3146.7679913959496, -15531.556669659218, 187500.0, -0.088, 0.98, 0.098, 192.0, 0.0, 0.0, 0.0, 0.0, 0.0, 0.0, 0.0, 0.0, 0.0, 1.700945403791953E9, 0.0, 2023-11-25 15:50:03.791
175.0, 77059.82948062771, 81713.26151052256, -11210.27156237025, -9481.654701430167, -1959.3092154633066, -2315.1713389362503, -15539.335076729665, 187500.0, -0.088, 0.98, 0.098, 192.0, 0.0, 0.0, 0.0, 0.0, 0.0, 0.0, 0.0, 0.0, 0.0, 1.700945403795953E9, 0.0, 2023-11-25 15:50:03.795
176.0, 77036.69542511647, 81724.6385484503, -11793.00389206456, -10040.001277923737, -2559.9229407218627, -2639.8974823829512, -15613.85579274366, 187500.0, -0.088, 0.98, 0.098, 192.0, 0.0, 0.0, 0.0, 0.0, 0.0, 0.0, 0.0, 0.0, 0.0, 1.700945403799942E9, 0.0, 2023-11-25 15:50:03.799
177.0, 77020.60216910865, 81779.31091538798, -12582.48985797046, -10751.79258010299, -3544.539635722594, -3278.8220976379034, -15706.324959555264, 187500.0, -0.088, 0.98, 0.096, 192.0, 253.0, 64.0, 30.0, 160.0, 3.0, 0.0, 0.0, 0.0, 0.0, 1.700945403805007E9, 0.0, 2023-11-25 15:50:03.805
178.0, 77044.87616358712, 81775.89109848632, -12143.792169546148, -10645.375924751273, -3297.3069903024425, -3363.5352091235172, -15560.882158384582, 187500.0, -0.088, 0.98, 0.096, 192.0, 0.0, 0.0, 0.0, 0.0, 0.0, 0.0, 0.0, 0.0, 0.0, 1.700945403809105E9, 0.0, 2023-11-25 15:50:03.809
179.0, 77066.19972779749, 81726.44903975118, -11163.377602503015, -9454.273814472415, -1942.903035033111, -2324.112036718373, -15497.380852387054, 187500.0, -0.088, 0.98, 0.096, 192.0, 0.0, 0.0, 0.0, 0.0, 0.0, 0.0, 0.0, 0.0, 0.0, 1.700945403813016E9, 0.0, 2023-11-25 15:50:03.813
180.0, 77043.13272751961, 81718.60357744737, -11680.619320943275, -9930.857709748472, -2430.0816571809837, -2568.8859902484405, -15592.018138410824, 187500.0, -0.088, 0.98, 0.096, 192.0, 0.0, 0.0, 0.0, 0.0, 0.0, 0.0, 0.0, 0.0, 0.0, 1.700945403817225E9, 0.0, 2023-11-25 15:50:03.817
181.0, 77024.5807796217, 81767.46449082666, -12449.318164505741, -10591.262351424975, -3353.5663310964505, -3119.8341393273045, -15677.088877807722, 187500.0, -0.088, 0.98, 0.096, 192.0, 0.0, 0.0, 0.0, 0.0, 0.0, 0.0, 0.0, 0.0, 0.0, 1.700945403820103E9, 0.0, 2023-11-25 15:50:03.820
182.0, 77034.72847160441, 81774.48293858564, -12382.844076495658, -10831.297735130518, -3548.562949724549, -3503.0547980135443, -15601.808202482249, 187500.0, -0.088, 0.98, 0.096, 192.0, 0.0, 0.0, 0.0, 0.0, 0.0, 0.0, 0.0, 0.0, 0.0, 1.700945403824062E9, 0.0, 2023-11-25 15:50:03.824
183.0, 77061.75173065088, 81722.04574609348, -11199.162745375961, -9523.273649605948, -2028.644326763669, -2405.4500347912353, -15487.277863893256, 187500.0, -0.088, 0.98, 0.096, 192.0, 0.0, 0.0, 0.0, 0.0, 0.0, 0.0, 0.0, 0.0, 0.0, 1.700945403828064E9, 0.0, 2023-11-25 15:50:03.828
184.0, 77040.22700074041, 81705.32664124091, -11596.844982724784, -9854.325336733502, -2332.918624033764, -2528.1164083619606, -15597.069632657724, 187500.0, -0.088, 0.98, 0.096, 192.0, 0.0, 0.0, 0.0, 0.0, 0.0, 0.0, 0.0, 0.0, 0.0, 1.700945403832095E9, 0.0, 2023-11-25 15:50:03.832
185.0, 77019.10460223015, 81747.88436268382, -12306.445813947417, -10445.439570598552, -3157.1615525676675, -2978.6828730920406, -15668.505807936885, 187500.0, -0.088, 0.98, 0.096, 192.0, 0.0, 0.0, 0.0, 0.0, 0.0, 0.0, 0.0, 0.0, 0.0, 1.700945403837096E9, 0.0, 2023-11-25 15:50:03.837
186.0, 77032.40389018106, 81780.62966831085, -12568.989404319454, -10952.98063194521, -3716.849233728556, -3579.475412306239, -15644.410627414063, 187500.0, -0.088, 0.98, 0.096, 192.0, 0.0, 0.0, 0.0, 0.0, 0.0, 0.0, 0.0, 0.0, 0.0, 1.700945403841064E9, 0.0, 2023-11-25 15:50:03.841
187.0, 77066.4455969865, 81732.41695552075, -11289.061461575206, -9672.650357800765, -2187.2299536740725, -2544.9919754257176, -15470.692869507417, 187500.0, -0.094, 0.976, 0.092, 192.0, 253.0, 16.0, 30.0, 128.0, 2.0, 224.0, 0.0, 0.0, 0.0, 1.700945403845112E9, 0.0, 2023-11-25 15:50:03.845
188.0, 77041.27753272981, 81698.57641441541, -11480.392394112634, -9712.25764897557, -2196.5953346008464, -2435.0884479389724, -15588.866542442625, 187500.0, -0.094, 0.976, 0.092, 192.0, 0.0, 0.0, 0.0, 0.0, 0.0, 0.0, 0.0, 0.0, 0.0, 1.70094540384811E9, 0.0, 2023-11-25 15:50:03.848
189.0, 77017.91995977402, 81729.19830431919, -12153.470474895297, -10291.614865257128, -2963.8636665181716, -2839.6550225800306, -15659.967441554958, 187500.0, -0.094, 0.976, 0.092, 192.0, 0.0, 0.0, 0.0, 0.0, 0.0, 0.0, 0.0, 0.0, 0.0, 1.700945403852204E9, 0.0, 2023-11-25 15:50:03.852
190.0, 77017.13764871808, 81763.5976390359, -12685.598455142792, -10987.536428873114, -3801.517641725259, -3578.6483977613925, -15696.266674550376, 187500.0, -0.094, 0.976, 0.092, 192.0, 0.0, 0.0, 0.0, 0.0, 0.0, 0.0, 0.0, 0.0, 0.0, 1.700945403857185E9, 0.0, 2023-11-25 15:50:03.857
191.0, 77055.96262883695, 81727.94660662969, -11469.5070945629, -9897.128927365415, -2444.856160265942, -2744.771867367252, -15497.961997742892, 187500.0, -0.094, 0.976, 0.092, 192.0, 0.0, 0.0, 0.0, 0.0, 0.0, 0.0, 0.0, 0.0, 0.0, 1.700945403860183E9, 0.0, 2023-11-25 15:50:03.860
192.0, 77052.85573635767, 81699.783408616, -11390.337215702202, -9630.539671246966, -2107.3671707352605, -2400.398540544336, -15599.394214081076, 187500.0, -0.094, 0.976, 0.092, 192.0, 0.0, 0.0, 0.0, 0.0, 0.0, 0.0, 0.0, 0.0, 0.0, 1.700945403865156E9, 0.0, 2023-11-25 15:50:03.865
193.0, 77025.13957323309, 81720.52582747053, -12024.94794427728, -10208.756948561306, -2812.542356555743, -2778.098318350115, -15657.173473498044, 187500.0, -0.094, 0.976, 0.092, 192.0, 0.0, 0.0, 0.0, 0.0, 0.0, 0.0, 0.0, 0.0, 0.0, 1.700945403869151E9, 0.0, 2023-11-25 15:50:03.869
194.0, 77007.10171545765, 81760.73661574563, -12729.609039975292, -10954.522902312625, -3787.0560630626755, -3526.322963991519, -15732.498852312428, 187500.0, -0.094, 0.976, 0.092, 192.0, 0.0, 0.0, 0.0, 0.0, 0.0, 0.0, 0.0, 0.0, 0.0, 1.700945403873251E9, 0.0, 2023-11-25 15:50:03.873
195.0, 77044.80910835376, 81731.76875493155, -11711.12945212477, -10173.016509177269, -2756.5959401841096, -2985.5225068953646, -15528.181556246467, 187500.0, -0.094, 0.976, 0.092, 192.0, 0.0, 0.0, 0.0, 0.0, 0.0, 0.0, 0.0, 0.0, 0.0, 1.700945403876168E9, 0.0, 2023-11-25 15:50:03.876
196.0, 77049.2347537559, 81698.50935918205, -11302.718377437399, -9531.320277609859, -2015.546204512859, -2350.755316109099, -15578.763553948827, 187500.0, -0.092, 0.976, 0.088, 192.0, 253.0, 32.0, 30.0, 128.0, 2.0, 192.0, 0.0, 0.0, 0.0, 1.700945403880212E9, 0.0, 2023-11-25 15:50:03.880
197.0, 77017.67409058502, 81708.32177499792, -11919.917097081792, -10121.115758552047, -2682.1199276590264, -2716.161634464459, -15650.400894928087, 187500.0, -0.092, 0.976, 0.088, 192.0, 0.0, 0.0, 0.0, 0.0, 0.0, 0.0, 0.0, 0.0, 0.0, 1.700945403884184E9, 0.0, 2023-11-25 15:50:03.884
198.0, 77005.93942474597, 81762.92708670224, -12694.27093199145, -10861.517293634093, -3688.239000825763, -3416.8217679049694, -15735.270468624887, 187500.0, -0.092, 0.976, 0.088, 192.0, 0.0, 0.0, 0.0, 0.0, 0.0, 0.0, 0.0, 0.0, 0.0, 1.700945403888368E9, 0.0, 2023-11-25 15:50:03.888
199.0, 77033.96851229292, 81745.22450509365, -11967.816885449516, -10450.803989267826, -3077.6116940512293, -3222.0933702103343, -15552.924937358492, 187500.0, -0.092, 0.976, 0.088, 192.0, 0.0, 0.0, 0.0, 0.0, 0.0, 0.0, 0.0, 0.0, 0.0, 1.700945403892261E9, 0.0, 2023-11-25 15:50:03.892
200.0, 77047.33485547721, 81698.55406267096, -11224.666085799467, -9480.917093863141, -1968.4510789455271, -2339.758257837088, -15544.900661099036, 187500.0, -0.092, 0.976, 0.088, 192.0, 0.0, 0.0, 0.0, 0.0, 0.0, 0.0, 0.0, 0.0, 0.0, 1.700945403897249E9, 0.0, 2023-11-25 15:50:03.897
201.0, 77016.02006149532, 81695.9836120586, -11810.997046351082, -10040.89534770195, -2563.879199490452, -2664.976139661806, -15638.152138966578, 187500.0, -0.092, 0.976, 0.088, 192.0, 0.0, 0.0, 0.0, 0.0, 0.0, 0.0, 0.0, 0.0, 0.0, 1.700945403901883E9, 0.0, 2023-11-25 15:50:03.901
202.0, 76987.16395940352, 81736.95435964518, -12604.551029747849, -10733.486501394094, -3539.4657897312395, -3281.0796238278895, -15735.49398606944, 187500.0, -0.092, 0.976, 0.088, 192.0, 0.0, 0.0, 0.0, 0.0, 0.0, 0.0, 0.0, 0.0, 0.0, 1.700945403904251E9, 0.0, 2023-11-25 15:50:03.904
203.0, 77000.1726746765, 81723.54331297199, -12232.059208400156, -10687.35250083834, -3371.6935958497047, -3410.67503817976, -15590.922902932514, 187500.0, -0.092, 0.976, 0.088, 192.0, 0.0, 0.0, 0.0, 0.0, 0.0, 0.0, 0.0, 0.0, 0.0, 1.700945403908249E9, 0.0, 2023-11-25 15:50:03.908
204.0, 77039.89172457358, 81694.24017599109, -11202.381396577526, -9472.266968758937, -1975.5365819378594, -2357.527894679057, -15515.955152029414, 187500.0, -0.092, 0.976, 0.088, 192.0, 0.0, 0.0, 0.0, 0.0, 0.0, 0.0, 0.0, 0.0, 0.0, 1.700945403912344E9, 0.0, 2023-11-25 15:50:03.912
205.0, 77022.16679122053, 81694.1284172688, -11707.329655567368, -9955.288166438124, -2447.4042591338466, -2611.622525646988, -15622.572973081229, 187500.0, -0.092, 0.976, 0.088, 192.0, 0.0, 0.0, 0.0, 0.0, 0.0, 0.0, 0.0, 0.0, 0.0, 1.700945403916281E9, 0.0, 2023-11-25 15:50:03.916
206.0, 76996.5740438192, 81733.15456308778, -12449.18405403901, -10573.246845393998, -3324.866691215836, -3118.5824416378073, -15701.005244374901, 187500.0, -0.092, 0.976, 0.088, 192.0, 253.0, 32.0, 30.0, 128.0, 2.0, 192.0, 0.0, 0.0, 0.0, 1.700945403921196E9, 0.0, 2023-11-25 15:50:03.921
207.0, 77014.90247427255, 81747.95141791718, -12449.027591827822, -10863.931282035266, -3592.461775834772, -3538.214092041742, -15629.792586540294, 187500.0, -0.092, 0.976, 0.088, 192.0, 0.0, 0.0, 0.0, 0.0, 0.0, 0.0, 0.0, 0.0, 0.0, 1.700945403925347E9, 0.0, 2023-11-25 15:50:03.925
208.0, 77058.51072770485, 81716.03312683501, -11226.923611989452, -9555.840141277331, -2059.8920655121883, -2447.4042591338466, -15493.78222152975, 187500.0, -0.092, 0.976, 0.088, 192.0, 0.0, 0.0, 0.0, 0.0, 0.0, 0.0, 0.0, 0.0, 0.0, 1.700945403929372E9, 0.0, 2023-11-25 15:50:03.929
209.0, 77033.14149774809, 81697.74939987056, -11588.708947743053, -9834.700505101742, -2311.5503563344905, -2529.88219617393, -15610.614789797639, 187500.0, -0.092, 0.976, 0.088, 192.0, 0.0, 0.0, 0.0, 0.0, 0.0, 0.0, 0.0, 0.0, 0.0, 1.7009454039324E9, 0.0, 2023-11-25 15:50:03.932
210.0, 77003.16780843351, 81729.66769095275, -12296.85691557609, -10431.916765203092, -3131.389991210698, -2980.471012648465, -15690.030537847346, 187500.0, -0.092, 0.976, 0.088, 192.0, 0.0, 0.0, 0.0, 0.0, 0.0, 0.0, 0.0, 0.0, 0.0, 1.700945403936409E9, 0.0, 2023-11-25 15:50:03.936
211.0, 77011.86263702663, 81760.82602272344, -12618.386759565683, -10971.51022809866, -3748.879283533011, -3605.515194596672, -15681.000433087402, 187500.0, -0.092, 0.976, 0.088, 192.0, 0.0, 0.0, 0.0, 0.0, 0.0, 0.0, 0.0, 0.0, 0.0, 1.700945403940473E9, 0.0, 2023-11-25 15:50:03.940
212.0, 77048.49714618888, 81717.62010069133, -11344.136159913083, -9722.695913636198, -2248.250216037061, -2606.906307566918, -15504.086375723646, 187500.0, -0.092, 0.976, 0.088, 192.0, 0.0, 0.0, 0.0, 0.0, 0.0, 0.0, 0.0, 0.0, 0.0, 1.700945403944444E9, 0.0, 2023-11-25 15:50:03.944
213.0, 77025.6313116111, 81684.24894621957, -11493.356405896713, -9725.445178204202, -2206.988895772564, -2471.074756512017, -15620.382502124608, 187500.0, -0.092, 0.976, 0.088, 192.0, 0.0, 0.0, 0.0, 0.0, 0.0, 0.0, 0.0, 0.0, 0.0, 1.700945403950468E9, 0.0, 2023-11-25 15:50:03.950
214.0, 77006.76643929082, 81722.20220830468, -12155.906815040924, -10303.193068884977, -2957.3146053927667, -2868.958159560938, -15678.877017364148, 187500.0, -0.092, 0.976, 0.088, 192.0, 0.0, 0.0, 0.0, 0.0, 0.0, 0.0, 0.0, 0.0, 0.0, 1.700945403953418E9, 0.0, 2023-11-25 15:50:03.953
215.0, 77004.95594798993, 81760.69191225672, -12726.368037029271, -11000.232219723728, -3818.147339600008, -3602.2294881617413, -15718.998398661424, 187500.0, -0.092, 0.976, 0.088, 192.0, 0.0, 0.0, 0.0, 0.0, 0.0, 0.0, 0.0, 0.0, 0.0, 1.700945403957417E9, 0.0, 2023-11-25 15:50:03.957
216.0, 77044.18325950901, 81724.77265891703, -11528.04631329135, -9962.30661419709, -2513.274850043637, -2818.711438025408, -15506.276846680266, 187500.0, -0.08600000000000001, 0.98, 0.092, 192.0, 253.0, 80.0, 30.0, 160.0, 2.0, 224.0, 0.0, 0.0, 0.0, 1.700945403960509E9, 0.0, 2023-11-25 15:50:03.960
217.0, 77039.51174491785, 81687.93698405469, -11381.083593497706, -9608.94788610314, -2090.93863856061, -2403.863060934909, -15594.007443667346, 187500.0, -0.08600000000000001, 0.98, 0.092, 192.0, 0.0, 0.0, 0.0, 0.0, 0.0, 0.0, 0.0, 0.0, 0.0, 1.700945403964445E9, 0.0, 2023-11-25 15:50:03.964
218.0, 77018.74697431887, 81715.22846403462, -12014.286162172099, -10180.861971481083, -2786.770795198774, -2770.878704891051, -15662.739057867415, 187500.0, -0.08600000000000001, 0.98, 0.092, 192.0, 0.0, 0.0, 0.0, 0.0, 0.0, 0.0, 0.0, 0.0, 0.0, 1.700945403968485E9, 0.0, 2023-11-25 15:50:03.968
219.0, 77007.68286081348, 81765.13990940333, -12732.157138843197, -10934.383980558394, -3770.4487169323825, -3518.7457226211695, -15732.700018012527, 187500.0, -0.08600000000000001, 0.98, 0.092, 192.0, 0.0, 0.0, 0.0, 0.0, 0.0, 0.0, 0.0, 0.0, 0.0, 1.700945403972755E9, 0.0, 2023-11-25 15:50:03.972
220.0, 77043.08802403069, 81740.3965282913, -11756.816417791417, -10224.336114446654, -2817.3032781247234, -3051.281339082878, -15523.822966077681, 187500.0, -0.08600000000000001, 0.98, 0.092, 192.0, 0.0, 0.0, 0.0, 0.0, 0.0, 0.0, 0.0, 0.0, 0.0, 1.700945403976912E9, 0.0, 2023-11-25 15:50:03.976
221.0, 77050.17352702303, 81704.74549588507, -11279.070231803684, -9513.058902389874, -2002.2469165619514, -2363.6075691709007, -15567.31946078771, 187500.0, -0.08600000000000001, 0.98, 0.092, 192.0, 0.0, 0.0, 0.0, 0.0, 0.0, 0.0, 0.0, 0.0, 0.0, 1.70094540398049E9, 0.0, 2023-11-25 15:50:03.980
222.0, 77021.18331446449, 81713.95441460067, -11893.474983391165, -10100.775671097717, -2652.5038662557445, -2721.391942667001, -15642.443673901997, 187500.0, -0.08600000000000001, 0.98, 0.092, 192.0, 0.0, 0.0, 0.0, 0.0, 0.0, 0.0, 0.0, 0.0, 0.0, 1.700945403984575E9, 0.0, 2023-11-25 15:50:03.984
223.0, 77006.31940440171, 81760.42369132325, -12678.132972494719, -10836.975078222165, -3651.5597881746044, -3404.930639854746, -15728.341427843741, 187500.0, -0.08600000000000001, 0.98, 0.092, 192.0, 0.0, 0.0, 0.0, 0.0, 0.0, 0.0, 0.0, 0.0, 0.0, 1.70094540398751E9, 0.0, 2023-11-25 15:50:03.987
224.0, 77038.21534373943, 81748.37610106183, -12015.828432539516, -10499.664902647126, -3122.136369006201, -3274.93289410268, -15546.64409716655, 187500.0, -0.08600000000000001, 0.98, 0.092, 192.0, 0.0, 0.0, 0.0, 0.0, 0.0, 0.0, 0.0, 0.0, 0.0, 1.700945403992545E9, 0.0, 2023-11-25 15:50:03.992
225.0, 77052.40870146855, 81701.75036212806, -11209.288085614215, -9459.749991863966, -1943.5288838778597, -2342.954557294197, -15527.801576590728, 187500.0, -0.08600000000000001, 0.98, 0.092, 192.0, 0.0, 0.0, 0.0, 0.0, 0.0, 0.0, 0.0, 0.0, 0.0, 1.700945403996595E9, 0.0, 2023-11-25 15:50:03.996
226.0, 77023.9772825214, 81697.72704812611, -11783.750269860062, -10015.526117745176, -2525.031867627128, -2658.0694506251157, -15619.041397457291, 187500.0, -0.084, 0.98, 0.092, 192.0, 253.0, 96.0, 30.0, 160.0, 2.0, 224.0, 0.0, 0.0, 0.0, 1.700945404000588E9, 0.0, 2023-11-25 15:50:04.000
227.0, 76999.94915723195, 81742.4975922701, -12573.504456699427, -10703.445756846162, -3489.4202338958066, -3258.012623550013, -15718.506660283407, 187500.0, -0.084, 0.98, 0.092, 192.0, 0.0, 0.0, 0.0, 0.0, 0.0, 0.0, 0.0, 0.0, 0.0, 1.700945404004722E9, 0.0, 2023-11-25 15:50:04.004
228.0, 77014.36603240563, 81736.4402695227, -12285.23400845933, -10740.728466597613, -3424.1084365973998, -3460.631187037371, -15603.842211227682, 187500.0, -0.084, 0.98, 0.092, 192.0, 0.0, 0.0, 0.0, 0.0, 0.0, 0.0, 0.0, 0.0, 0.0, 1.700945404008556E9, 0.0, 2023-11-25 15:50:04.008
229.0, 77049.21240201144, 81702.24210050609, -11203.677797755934, -9493.21055331356, -1986.0419018318537, -2382.1818688132607, -15519.531431142263, 187500.0, -0.084, 0.98, 0.092, 192.0, 0.0, 0.0, 0.0, 0.0, 0.0, 0.0, 0.0, 0.0, 0.0, 1.700945404012572E9, 0.0, 2023-11-25 15:50:04.012
230.0, 77033.72264310392, 81707.3830017308, -11679.479381976054, -9917.15609039737, -2407.1934708587496, -2585.493336378734, -15626.752749294372, 187500.0, -0.084, 0.98, 0.092, 192.0, 0.0, 0.0, 0.0, 0.0, 0.0, 0.0, 0.0, 0.0, 0.0, 1.700945404015573E9, 0.0, 2023-11-25 15:50:04.015
231.0, 77017.85290454065, 81758.81436572247, -12416.416396667528, -10530.063275106344, -3276.7433854035603, -3083.5796098207966, -15701.29581705282, 187500.0, -0.084, 0.98, 0.092, 192.0, 0.0, 0.0, 0.0, 0.0, 0.0, 0.0, 0.0, 0.0, 0.0, 1.700945404019607E9, 0.0, 2023-11-25 15:50:04.019
232.0, 77014.99188125037, 81755.57336277644, -12488.165496369063, -10882.371471210894, -3626.727000084758, -3557.8165719290464, -15650.490301905907, 187500.0, -0.084, 0.98, 0.092, 192.0, 0.0, 0.0, 0.0, 0.0, 0.0, 0.0, 0.0, 0.0, 0.0, 1.700945404024642E9, 0.0, 2023-11-25 15:50:04.024
233.0, 77046.97722756592, 81708.34412674238, -11250.996440767818, -9573.520371141478, -2089.642237382202, -2471.968826290229, -15513.764681072795, 187500.0, -0.084, 0.98, 0.092, 192.0, 0.0, 0.0, 0.0, 0.0, 0.0, 0.0, 0.0, 0.0, 0.0, 1.700945404028624E9, 0.0, 2023-11-25 15:50:04.028
234.0, 77025.4748493999, 81687.44524567667, -11576.549598759366, -9797.574257561477, -2285.1752978772283, -2510.592640709, -15633.391217397597, 187500.0, -0.084, 0.98, 0.092, 192.0, 0.0, 0.0, 0.0, 0.0, 0.0, 0.0, 0.0, 0.0, 0.0, 1.700945404032652E9, 0.0, 2023-11-25 15:50:04.032
235.0, 77005.24652066786, 81731.8358101649, -12279.422554900952, -10387.168572803566, -3089.2122494235336, -2946.2057883984794, -15703.642750220628, 187500.0, -0.084, 0.98, 0.092, 192.0, 0.0, 0.0, 0.0, 0.0, 0.0, 0.0, 0.0, 0.0, 0.0, 1.700945404036727E9, 0.0, 2023-11-25 15:50:04.036
236.0, 77007.66050906903, 81762.48005181314, -12651.020306470431, -10975.622949078435, -3763.206751728863, -3605.0011044741996, -15694.992625116423, 187500.0, -0.088, 0.976, 0.094, 192.0, 253.0, 64.0, 30.0, 128.0, 2.0, 240.0, 0.0, 0.0, 0.0, 1.700945404039672E9, 0.0, 2023-11-25 15:50:04.039
237.0, 77036.24839022737, 81709.28290000951, -11381.329462686714, -9748.355716270891, -2284.8847251993093, -2633.035496835172, -15513.317646183688, 187500.0, -0.088, 0.976, 0.094, 192.0, 0.0, 0.0, 0.0, 0.0, 0.0, 0.0, 0.0, 0.0, 0.0, 1.700945404043675E9, 0.0, 2023-11-25 15:50:04.043
238.0, 77032.40389018106, 81693.2343474906, -11484.12513543667, -9697.39373891279, -2182.424328616182, -2454.4674103817238, -15620.717778291439, 187500.0, -0.088, 0.976, 0.094, 192.0, 0.0, 0.0, 0.0, 0.0, 0.0, 0.0, 0.0, 0.0, 0.0, 1.7009454040477E9, 0.0, 2023-11-25 15:50:04.047
239.0, 77007.30288115775, 81723.14098157179, -12134.851471764026, -10268.36905102361, -2916.8355961842058, -2841.6219760920976, -15679.167590042067, 187500.0, -0.088, 0.976, 0.094, 192.0, 0.0, 0.0, 0.0, 0.0, 0.0, 0.0, 0.0, 0.0, 0.0, 1.700945404051653E9, 0.0, 2023-11-25 15:50:04.051
240.0, 76998.83157000919, 81763.1953076357, -12740.717856969579, -10985.189495705306, -3810.2571738072843, -3585.1527553978867, -15727.179137132067, 187500.0, -0.088, 0.976, 0.094, 192.0, 0.0, 0.0, 0.0, 0.0, 0.0, 0.0, 0.0, 0.0, 0.0, 1.700945404057749E9, 0.0, 2023-11-25 15:50:04.057
241.0, 77033.47677391491, 81725.26439729505, -11579.857656938751, -10001.757443160706, -2563.476868090256, -2854.876560554095, -15516.938628785449, 187500.0, -0.088, 0.976, 0.094, 192.0, 0.0, 0.0, 0.0, 0.0, 0.0, 0.0, 0.0, 0.0, 0.0, 1.700945404060728E9, 0.0, 2023-11-25 15:50:04.060
242.0, 77025.85482905565, 81689.72512361112, -11371.315881170736, -9570.257016451003, -2064.7200423145346, -2376.3927669993363, -15597.94135069148, 187500.0, -0.088, 0.976, 0.094, 192.0, 0.0, 0.0, 0.0, 0.0, 0.0, 0.0, 0.0, 0.0, 0.0, 1.700945404064716E9, 0.0, 2023-11-25 15:50:04.064
243.0, 77007.97343349141, 81716.63662393531, -11993.65550203985, -10160.63364274903, -2753.600806427098, -2751.745611637308, -15651.116150750657, 187500.0, -0.088, 0.976, 0.094, 192.0, 0.0, 0.0, 0.0, 0.0, 0.0, 0.0, 0.0, 0.0, 0.0, 1.700945404067933E9, 0.0, 2023-11-25 15:50:04.067
244.0, 76993.06481993971, 81757.56266803297, -12736.448673778616, -10921.73289319669, -3750.108629478053, -3495.11992873191, -15730.77776798937, 187500.0, -0.088, 0.976, 0.094, 192.0, 0.0, 0.0, 0.0, 0.0, 0.0, 0.0, 0.0, 0.0, 0.0, 1.700945404071713E9, 0.0, 2023-11-25 15:50:04.071
245.0, 77028.24646571236, 81737.60256023439, -11819.535412733008, -10269.330176035188, -2869.47224968341, -3076.359996361732, -15538.418655206999, 187500.0, -0.088, 0.976, 0.094, 192.0, 0.0, 0.0, 0.0, 0.0, 0.0, 0.0, 0.0, 0.0, 0.0, 1.700945404075741E9, 0.0, 2023-11-25 15:50:04.075
246.0, 77034.37084369312, 81698.15173127076, -11271.872970089074, -9477.184352539105, -1973.9719598259878, -2324.0673332294623, -15567.721792187906, 187500.0, -0.088, 0.976, 0.098, 192.0, 253.0, 64.0, 30.0, 128.0, 3.0, 16.0, 0.0, 0.0, 0.0, 1.700945404079844E9, 0.0, 2023-11-25 15:50:04.079
247.0, 77012.06380272673, 81706.91361509725, -11877.739355294629, -10066.264577658723, -2617.61279316101, -2680.9129334584395, -15645.259993703366, 187500.0, -0.088, 0.976, 0.098, 192.0, 0.0, 0.0, 0.0, 0.0, 0.0, 0.0, 0.0, 0.0, 0.0, 1.700945404084743E9, 0.0, 2023-11-25 15:50:04.084
248.0, 77001.93846248847, 81759.97665643414, -12669.572254368337, -10812.790490721523, -3624.178901216853, -3372.0959272499, -15737.393884348141, 187500.0, -0.088, 0.976, 0.098, 192.0, 0.0, 0.0, 0.0, 0.0, 0.0, 0.0, 0.0, 0.0, 0.0, 1.700945404088793E9, 0.0, 2023-11-25 15:50:04.088
249.0, 77035.95781754945, 81751.66180749677, -12083.889494405925, -10558.539397542405, -3193.0361024184353, -3320.1057696468556, -15574.27085331331, 187500.0, -0.088, 0.976, 0.098, 192.0, 0.0, 0.0, 0.0, 0.0, 0.0, 0.0, 0.0, 0.0, 0.0, 1.700945404098712E9, 0.0, 2023-11-25 15:50:04.098
250.0, 77050.97818982342, 81705.97484183012, -11213.758434505276, -9472.043451314385, -1953.2518927159183, -2356.4550109452025, -15541.234975008367, 187500.0, -0.088, 0.976, 0.098, 192.0, 0.0, 0.0, 0.0, 0.0, 0.0, 0.0, 0.0, 0.0, 0.0, 1.700945404098778E9, 0.0, 2023-11-25 15:50:04.098
251.0, 77016.98118650689, 81697.79410335948, -11767.23233070759, -9988.2569895097, -2491.504250944168, -2638.3105085266243, -15636.252240687876, 187500.0, -0.088, 0.976, 0.098, 192.0, 0.0, 0.0, 0.0, 0.0, 0.0, 0.0, 0.0, 0.0, 0.0, 1.700945404099756E9, 0.0, 2023-11-25 15:50:04.099
252.0, 76987.67804952599, 81737.26728406755, -12546.458845908504, -10649.10866607531, -3432.311526812497, -3210.179890415656, -15735.471634324986, 187500.0, -0.088, 0.976, 0.098, 192.0, 0.0, 0.0, 0.0, 0.0, 0.0, 0.0, 0.0, 0.0, 0.0, 1.700945404103789E9, 0.0, 2023-11-25 15:50:04.103
253.0, 77005.15711369003, 81736.48497301161, -12331.859747393102, -10749.803274846468, -3454.1938846342427, -3470.2647888976085, -15628.09385396169, 187500.0, -0.088, 0.976, 0.098, 192.0, 0.0, 0.0, 0.0, 0.0, 0.0, 0.0, 0.0, 0.0, 0.0, 1.700945404107824E9, 0.0, 2023-11-25 15:50:04.107
254.0, 77038.26004722835, 81695.91655682524, -11221.939172975919, -9497.703253949077, -2001.8445851617557, -2405.8076627025202, -15532.07075978169, 187500.0, -0.088, 0.976, 0.098, 192.0, 0.0, 0.0, 0.0, 0.0, 0.0, 0.0, 0.0, 0.0, 0.0, 1.70094540411288E9, 0.0, 2023-11-25 15:50:04.112
255.0, 77020.75863131984, 81694.82132134693, -11669.622262671264, -9899.632322744408, -2389.4238340167803, -2590.2766096921696, -15636.654572088073, 187500.0, -0.088, 0.976, 0.098, 192.0, 0.0, 0.0, 0.0, 0.0, 0.0, 0.0, 0.0, 0.0, 0.0, 1.700945404116827E9, 0.0, 2023-11-25 15:50:04.116
0.0, 76990.38261060508, 81734.65212996629, -12405.620504095616, -10505.632818416694, -3247.0602687669125, -3070.123859658702, -15722.954657430013, 187500.0, -0.092, 0.98, 0.098, 192.0, 253.0, 32.0, 30.0, 160.0, 3.0, 16.0, 0.0, 0.0, 0.0, 1.700945404120865E9, 0.0, 2023-11-25 15:50:04.120
1.0, 76996.84226475266, 81749.65015049579, -12546.458845908504, -10921.26350656313, -3670.1340878169644, -3593.3558456129845, -15674.808999873281, 187500.0, -0.092, 0.98, 0.098, 192.0, 0.0, 0.0, 0.0, 0.0, 0.0, 0.0, 0.0, 0.0, 0.0, 1.700945404123836E9, 0.0, 2023-11-25 15:50:04.123
2.0, 77034.70611985995, 81708.1876645312, -11282.691214405444, -9621.844842653853, -2125.13680757723, -2525.590661238511, -15512.244762449833, 187500.0, -0.092, 0.98, 0.098, 192.0, 0.0, 0.0, 0.0, 0.0, 0.0, 0.0, 0.0, 0.0, 0.0, 1.700945404127881E9, 0.0, 2023-11-25 15:50:04.127
3.0, 77007.66050906903, 81678.90687929475, -11573.643871980175, -9802.446937852734, -2270.35609130336, -2528.0493531285947, -15637.749807566383, 187500.0, -0.092, 0.98, 0.098, 192.0, 0.0, 0.0, 0.0, 0.0, 0.0, 0.0, 0.0, 0.0, 0.0, 1.700945404131907E9, 0.0, 2023-11-25 15:50:04.131
4.0, 76992.46132283943, 81728.59480721889, -12258.836598257614, -10386.72153791446, -3053.4494582950424, -2949.7820675113285, -15705.274427565864, 187500.0, -0.092, 0.98, 0.098, 192.0, 0.0, 0.0, 0.0, 0.0, 0.0, 0.0, 0.0, 0.0, 0.0, 1.700945404135894E9, 0.0, 2023-11-25 15:50:04.135
5.0, 76995.94819497445, 81761.34011284592, -12679.384670184216, -10997.326492944538, -3775.880190835022, -3631.532625142649, -15703.978026387458, 187500.0, -0.092, 0.98, 0.098, 192.0, 0.0, 0.0, 0.0, 0.0, 0.0, 0.0, 0.0, 0.0, 0.0, 1.700945404140923E9, 0.0, 2023-11-25 15:50:04.140
6.0, 77040.18229725151, 81726.15846707327, -11421.182623050527, -9814.963914747705, -2337.2325107136385, -2704.3152099031463, -15514.88226829556, 187500.0, -0.092, 0.98, 0.098, 192.0, 0.0, 0.0, 0.0, 0.0, 0.0, 0.0, 0.0, 0.0, 0.0, 1.70094540414492E9, 0.0, 2023-11-25 15:50:04.144
7.0, 77029.16288723504, 81698.03997254849, -11457.303042090303, -9686.173163196227, -2152.450639301615, -2460.6141401069335, -15615.487470088896, 187500.0, -0.092, 0.98, 0.098, 192.0, 0.0, 0.0, 0.0, 0.0, 0.0, 0.0, 0.0, 0.0, 0.0, 1.700945404148909E9, 0.0, 2023-11-25 15:50:04.148
8.0, 76993.44479959545, 81711.85335062187, -12107.001198172713, -10259.651870686039, -2881.8774678561053, -2845.2876621827677, -15677.334746996732, 187500.0, -0.092, 0.98, 0.098, 192.0, 0.0, 0.0, 0.0, 0.0, 0.0, 0.0, 0.0, 0.0, 0.0, 1.700945404151946E9, 0.0, 2023-11-25 15:50:04.151
9.0, 76990.04733443825, 81759.52962154504, -12747.244566350528, -10988.206981206773, -3804.266906293262, -3590.494822322705, -15736.1645384031, 187500.0, -0.092, 0.98, 0.098, 192.0, 0.0, 0.0, 0.0, 0.0, 0.0, 0.0, 0.0, 0.0, 0.0, 1.700945404155942E9, 0.0, 2023-11-25 15:50:04.155
10.0, 77030.70515760245, 81731.25466480908, -11632.764236064462, -10068.812676526628, -2627.2463950212473, -2919.406046796566, -15533.724788871383, 187500.0, -0.09, 0.98, 0.094, 192.0, 253.0, 48.0, 30.0, 160.0, 2.0, 240.0, 0.0, 0.0, 0.0, 1.700945404159966E9, 0.0, 2023-11-25 15:50:04.159
11.0, 77032.67211111452, 81698.55406267096, -11358.396572875568, -9572.89452229673, -2051.26429215244, -2391.94958114023, -15592.621635511117, 187500.0, -0.09, 0.98, 0.094, 192.0, 0.0, 0.0, 0.0, 0.0, 0.0, 0.0, 0.0, 0.0, 0.0, 1.700945404163966E9, 0.0, 2023-11-25 15:50:04.163
12.0, 76998.58570082017, 81705.30428949646, -11977.204618120744, -10141.187625072913, -2723.314192690157, -2742.871969088551, -15646.511691392863, 187500.0, -0.09, 0.98, 0.094, 192.0, 0.0, 0.0, 0.0, 0.0, 0.0, 0.0, 0.0, 0.0, 0.0, 1.700945404169978E9, 0.0, 2023-11-25 15:50:04.169
13.0, 76981.2183953784, 81746.36444406086, -12739.62262149127, -10892.876791104889, -3725.4546553438495, -3469.5048295861284, -15732.700018012527, 187500.0, -0.09, 0.98, 0.094, 192.0, 0.0, 0.0, 0.0, 0.0, 0.0, 0.0, 0.0, 0.0, 0.0, 1.700945404172974E9, 0.0, 2023-11-25 15:50:04.172
14.0, 77024.73724183289, 81738.36251954586, -11884.176657697757, -10324.986019728902, -2933.1747213810354, -3133.4687034450417, -15542.866652353605, 187500.0, -0.09, 0.98, 0.094, 192.0, 0.0, 0.0, 0.0, 0.0, 0.0, 0.0, 0.0, 0.0, 0.0, 1.700945404176976E9, 0.0, 2023-11-25 15:50:04.176
15.0, 77037.29892221677, 81700.36455397184, -11275.113973035095, -9473.853942615264, -1972.6979103920355, -2340.026478770552, -15565.21839680891, 187500.0, -0.09, 0.98, 0.094, 192.0, 0.0, 0.0, 0.0, 0.0, 0.0, 0.0, 0.0, 0.0, 0.0, 1.700945404179978E9, 0.0, 2023-11-25 15:50:04.179
16.0, 77005.78296253478, 81704.1867022737, -11874.96773898217, -10057.413286854422, -2602.614772631499, -2691.753529519264, -15644.835310558716, 187500.0, -0.09, 0.98, 0.094, 192.0, 0.0, 0.0, 0.0, 0.0, 0.0, 0.0, 0.0, 0.0, 0.0, 1.700945404184002E9, 0.0, 2023-11-25 15:50:04.184
17.0, 76989.19796814895, 81752.86880169736, -12664.185483954607, -10782.459173495672, -3592.8417554905127, -3352.1134677068553, -15731.001285433924, 187500.0, -0.09, 0.98, 0.094, 192.0, 0.0, 0.0, 0.0, 0.0, 0.0, 0.0, 0.0, 0.0, 0.0, 1.70094540418802E9, 0.0, 2023-11-25 15:50:04.188
18.0, 77018.0764219852, 81750.79008946301, -12149.089532982056, -10596.090328227321, -3249.3401467013537, -3361.165924211255, -15579.881141171592, 187500.0, -0.09, 0.98, 0.094, 192.0, 0.0, 0.0, 0.0, 0.0, 0.0, 0.0, 0.0, 0.0, 0.0, 1.700945404192555E9, 0.0, 2023-11-25 15:50:04.192
19.0, 77038.26004722835, 81704.70079239616, -11227.035370711728, -9465.53909367789, -1963.2431224874406, -2369.441374473736, -15537.12225402859, 187500.0, -0.09, 0.98, 0.094, 192.0, 0.0, 0.0, 0.0, 0.0, 0.0, 0.0, 0.0, 0.0, 0.0, 1.700945404196055E9, 0.0, 2023-11-25 15:50:04.196
20.0, 77008.3757648916, 81690.23921373358, -11770.115705742324, -9970.532056156642, -2485.3798729634136, -2644.0549068516384, -15642.689543091004, 187500.0, -0.08, 0.97, 0.092, 192.0, 253.0, 128.0, 30.0, 80.0, 2.0, 224.0, 0.0, 0.0, 0.0, 1.70094540420022E9, 0.0, 2023-11-25 15:50:04.200
21.0, 76999.43506710947, 81747.81730745046, -12541.04972375032, -10643.453674728116, -3417.4923202386285, -3216.1701579296778, -15736.119834914189, 187500.0, -0.08, 0.97, 0.092, 192.0, 0.0, 0.0, 0.0, 0.0, 0.0, 0.0, 0.0, 0.0, 0.0, 1.700945404205063E9, 0.0, 2023-11-25 15:50:04.205
22.0, 77031.06278551374, 81770.52667981705, -12381.100640428143, -10808.364845319373, -3503.9488677917566, -3529.273394259619, -15627.311542905754, 187500.0, -0.08, 0.97, 0.092, 192.0, 0.0, 0.0, 0.0, 0.0, 0.0, 0.0, 0.0, 0.0, 0.0, 1.700945404208206E9, 0.0, 2023-11-25 15:50:04.208
23.0, 77053.48158520242, 81720.12349607033, -11224.710789288378, -9514.623524501745, -2006.5384514973703, -2432.875625237897, -15525.83462307866, 187500.0, -0.08, 0.97, 0.092, 192.0, 0.0, 0.0, 0.0, 0.0, 0.0, 0.0, 0.0, 0.0, 0.0, 1.700945404212077E9, 0.0, 2023-11-25 15:50:04.212
24.0, 77024.06668949923, 81701.81741736144, -11653.998393297004, -9880.834505657496, -2356.0973830339176, -2582.7664235551865, -15641.929583779525, 187500.0, -0.08, 0.97, 0.092, 192.0, 0.0, 0.0, 0.0, 0.0, 0.0, 0.0, 0.0, 0.0, 0.0, 1.700945404216112E9, 0.0, 2023-11-25 15:50:04.216
25.0, 76995.90349148554, 81739.97184514665, -12386.129782930588, -10491.059481031834, -3208.6376200482396, -3056.779868218883, -15725.234535364454, 187500.0, -0.08, 0.97, 0.092, 192.0, 0.0, 0.0, 0.0, 0.0, 0.0, 0.0, 0.0, 0.0, 0.0, 1.700945404220119E9, 0.0, 2023-11-25 15:50:04.220
26.0, 76999.2786048983, 81756.89211569932, -12585.753212660935, -10943.101160895963, -3697.336160819073, -3613.8523952785013, -15692.131601826144, 187500.0, -0.08, 0.97, 0.092, 192.0, 0.0, 0.0, 0.0, 0.0, 0.0, 0.0, 0.0, 0.0, 0.0, 1.700945404224129E9, 0.0, 2023-11-25 15:50:04.224
27.0, 77043.55741066426, 81719.60940594786, -11313.693083964954, -9654.43368606969, -2162.9112557066987, -2562.2475221452146, -15526.393416690044, 187500.0, -0.08, 0.97, 0.092, 192.0, 0.0, 0.0, 0.0, 0.0, 0.0, 0.0, 0.0, 0.0, 0.0, 1.700945404229181E9, 0.0, 2023-11-25 15:50:04.229
28.0, 77028.24646571236, 81698.82228360443, -11554.153150815147, -9777.211818362692, -2248.4513817371585, -2520.762684436165, -15640.05203724528, 187500.0, -0.08, 0.97, 0.092, 192.0, 0.0, 0.0, 0.0, 0.0, 0.0, 0.0, 0.0, 0.0, 0.0, 1.700945404232127E9, 0.0, 2023-11-25 15:50:04.232
29.0, 76990.2708518828, 81721.93398737122, -12231.545118277683, -10339.84992979168, -3016.099693310224, -2919.473102029932, -15707.375491544664, 187500.0, -0.08, 0.97, 0.092, 192.0, 0.0, 0.0, 0.0, 0.0, 0.0, 0.0, 0.0, 0.0, 0.0, 1.700945404235166E9, 0.0, 2023-11-25 15:50:04.235
30.0, 76986.64986928104, 81755.70747324318, -12717.069711335864, -10998.712301100768, -3800.6682754359576, -3627.8222355630683, -15727.514413298895, 187500.0, -0.09, 0.988, 0.092, 192.0, 253.0, 48.0, 30.0, 224.0, 2.0, 224.0, 0.0, 0.0, 0.0, 1.700945404240363E9, 0.0, 2023-11-25 15:50:04.240
31.0, 77039.06471002873, 81734.83094392192, -11463.382716582146, -9871.133848563892, -2397.8057381875205, -2753.5337511937323, -15516.245724707333, 187500.0, -0.09, 0.988, 0.092, 192.0, 0.0, 0.0, 0.0, 0.0, 0.0, 0.0, 0.0, 0.0, 0.0, 1.700945404244122E9, 0.0, 2023-11-25 15:50:04.244
32.0, 77020.26689294183, 81702.19739701717, -11434.817187168264, -9647.348183077358, -2122.834577898333, -2440.4528666082465, -15615.465118344442, 187500.0, -0.09, 0.988, 0.092, 192.0, 0.0, 0.0, 0.0, 0.0, 0.0, 0.0, 0.0, 0.0, 0.0, 1.700945404248172E9, 0.0, 2023-11-25 15:50:04.248
33.0, 76991.65666003904, 81724.10210658338, -12080.357918781987, -10211.170936962479, -2837.8221795346954, -2812.274135622279, -15676.843008618715, 187500.0, -0.09, 0.988, 0.092, 192.0, 0.0, 0.0, 0.0, 0.0, 0.0, 0.0, 0.0, 0.0, 0.0, 1.700945404252182E9, 0.0, 2023-11-25 15:50:04.252
34.0, 76988.66152628203, 81771.91248797327, -12753.972441431575, -10962.88245473891, -3790.364121242061, -3575.2285808597308, -15743.87589024018, 187500.0, -0.09, 0.988, 0.092, 192.0, 0.0, 0.0, 0.0, 0.0, 0.0, 0.0, 0.0, 0.0, 0.0, 1.700945404256192E9, 0.0, 2023-11-25 15:50:04.256
35.0, 77027.37474767861, 81741.20119109169, -11675.478419718555, -10116.220726516334, -2681.6952445143756, -2970.4574311324873, -15536.27288773929, 187500.0, -0.09, 0.988, 0.092, 192.0, 0.0, 0.0, 0.0, 0.0, 0.0, 0.0, 0.0, 0.0, 0.0, 1.700945404260237E9, 0.0, 2023-11-25 15:50:04.260
36.0, 77029.16288723504, 81705.66191740775, -11324.936011425974, -9542.719667282065, -2021.6258790047025, -2381.399557757325, -15585.022042396313, 187500.0, -0.09, 0.988, 0.092, 192.0, 0.0, 0.0, 0.0, 0.0, 0.0, 0.0, 0.0, 0.0, 0.0, 1.700945404263221E9, 0.0, 2023-11-25 15:50:04.263
37.0, 77006.98995673537, 81720.36936525934, -11943.855815393426, -10127.061322577158, -2695.910953987951, -2741.933195821428, -15653.060752518268, 187500.0, -0.09, 0.988, 0.092, 192.0, 0.0, 0.0, 0.0, 0.0, 0.0, 0.0, 0.0, 0.0, 0.0, 1.700945404267274E9, 0.0, 2023-11-25 15:50:04.267
38.0, 76997.93750023097, 81770.45962458369, -12707.32435075335, -10867.976947781677, -3697.1349951189754, -3450.2599776101088, -15736.790387247847, 187500.0, -0.09, 0.988, 0.092, 192.0, 0.0, 0.0, 0.0, 0.0, 0.0, 0.0, 0.0, 0.0, 0.0, 1.700945404272334E9, 0.0, 2023-11-25 15:50:04.272
39.0, 77036.67307337202, 81756.51213604357, -11912.272800478078, -10378.898427355103, -2994.0385215328365, -3182.10609937979, -15551.092094313157, 187500.0, -0.09, 0.988, 0.092, 192.0, 0.0, 0.0, 0.0, 0.0, 0.0, 0.0, 0.0, 0.0, 0.0, 1.700945404276249E9, 0.0, 2023-11-25 15:50:04.276
40.0, 77050.57585842322, 81715.9884233461, -11229.337600390625, -9471.261140258448, -1958.839828829745, -2344.1391997503283, -15561.93269037398, 187500.0, -0.08600000000000001, 0.984, 0.09, 192.0, 253.0, 80.0, 30.0, 192.0, 2.0, 208.0, 0.0, 0.0, 0.0, 1.700945404280527E9, 0.0, 2023-11-25 15:50:04.280
41.0, 77024.4243174105, 81724.28092053902, -11818.753101677074, -10050.953632706838, -2573.512801350689, -2682.8798869705065, -15648.210423971466, 187500.0, -0.08600000000000001, 0.984, 0.09, 192.0, 0.0, 0.0, 0.0, 0.0, 0.0, 0.0, 0.0, 0.0, 0.0, 1.70094540428445E9, 0.0, 2023-11-25 15:50:04.284
42.0, 76992.6177850506, 81758.63555176683, -12602.49466925796, -10758.073420294932, -3553.994423627189, -3317.423560312219, -15733.102349412722, 187500.0, -0.08600000000000001, 0.984, 0.09, 192.0, 0.0, 0.0, 0.0, 0.0, 0.0, 0.0, 0.0, 0.0, 0.0, 1.700945404288296E9, 0.0, 2023-11-25 15:50:04.288
43.0, 77013.02492773831, 81748.62197025085, -12151.324707427586, -10619.358494205297, -3290.713225688127, -3366.195066713699, -15586.430202296997, 187500.0, -0.08600000000000001, 0.984, 0.09, 192.0, 0.0, 0.0, 0.0, 0.0, 0.0, 0.0, 0.0, 0.0, 0.0, 1.700945404291361E9, 0.0, 2023-11-25 15:50:04.291
44.0, 77041.56810540773, 81710.4898942101, -11178.420326521436, -9446.33894519078, -1955.9117503060997, -2340.7417345931217, -15528.338018457654, 187500.0, -0.08600000000000001, 0.984, 0.09, 192.0, 0.0, 0.0, 0.0, 0.0, 0.0, 0.0, 0.0, 0.0, 0.0, 1.700945404295353E9, 0.0, 2023-11-25 15:50:04.295
45.0, 77022.25619819835, 81708.16531278675, -11698.880696163262, -9945.11812271096, -2459.0495179950617, -2603.2406214762477, -15621.365978880642, 187500.0, -0.08600000000000001, 0.984, 0.09, 192.0, 0.0, 0.0, 0.0, 0.0, 0.0, 0.0, 0.0, 0.0, 0.0, 1.700945404300353E9, 0.0, 2023-11-25 15:50:04.300
46.0, 76999.70328804295, 81752.37706331933, -12457.230682042918, -10594.413947393174, -3373.8170115729586, -3142.074125060335, -15701.988721130934, 187500.0, -0.08600000000000001, 0.984, 0.09, 192.0, 0.0, 0.0, 0.0, 0.0, 0.0, 0.0, 0.0, 0.0, 0.0, 1.700945404305378E9, 0.0, 2023-11-25 15:50:04.305
47.0, 77019.43987839698, 81765.11755765886, -12376.362070603618, -10823.206403637696, -3558.3977172848845, -3516.6223068979157, -15610.413624097542, 187500.0, -0.08600000000000001, 0.984, 0.09, 192.0, 0.0, 0.0, 0.0, 0.0, 0.0, 0.0, 0.0, 0.0, 0.0, 1.700945404308419E9, 0.0, 2023-11-25 15:50:04.308
48.0, 77043.62446589762, 81715.40727799026, -11194.245361595793, -9525.061789162373, -2050.5043328409593, -2426.5724333015005, -15490.965901728381, 187500.0, -0.08600000000000001, 0.984, 0.09, 192.0, 0.0, 0.0, 0.0, 0.0, 0.0, 0.0, 0.0, 0.0, 0.0, 1.700945404312413E9, 0.0, 2023-11-25 15:50:04.312
49.0, 77020.51276213083, 81697.99526905958, -11588.172505876126, -9862.014336826127, -2356.365603967381, -2554.3126528635803, -15593.60511226715, 187500.0, -0.08600000000000001, 0.984, 0.09, 192.0, 0.0, 0.0, 0.0, 0.0, 0.0, 0.0, 0.0, 0.0, 0.0, 1.700945404315414E9, 0.0, 2023-11-25 15:50:04.315
50.0, 77000.93263398799, 81738.11665035685, -12296.029901031245, -10453.575605580283, -3182.240209846522, -3010.0647223072915, -15663.275499734344, 187500.0, -0.08, 0.974, 0.092, 192.0, 253.0, 128.0, 30.0, 112.0, 2.0, 224.0, 0.0, 0.0, 0.0, 1.700945404319412E9, 0.0, 2023-11-25 15:50:04.319
51.0, 77010.20860793693, 81767.26332512658, -12547.688191853547, -10947.817378976033, -3734.5965188260698, -3604.576421329549, -15643.807130313771, 187500.0, -0.08, 0.974, 0.092, 192.0, 0.0, 0.0, 0.0, 0.0, 0.0, 0.0, 0.0, 0.0, 0.0, 1.700945404323405E9, 0.0, 2023-11-25 15:50:04.323
52.0, 77047.49131768839, 81724.88441763932, -11278.578493425668, -9676.025471213517, -2217.538919155469, -2575.1221269514713, -15475.990232943324, 187500.0, -0.08, 0.974, 0.092, 192.0, 0.0, 0.0, 0.0, 0.0, 0.0, 0.0, 0.0, 0.0, 0.0, 1.700945404327528E9, 0.0, 2023-11-25 15:50:04.327
53.0, 77034.37084369312, 81705.77367613002, -11469.015356184884, -9734.095303308404, -2235.0403350639745, -2476.9979687926734, -15581.378708050099, 187500.0, -0.08, 0.974, 0.092, 192.0, 0.0, 0.0, 0.0, 0.0, 0.0, 0.0, 0.0, 0.0, 0.0, 1.700945404332526E9, 0.0, 2023-11-25 15:50:04.332
54.0, 77011.12502945961, 81737.02141487855, -12130.939916484347, -10309.89859222157, -2993.010341287892, -2876.066014297726, -15641.348438423687, 187500.0, -0.08, 0.974, 0.092, 192.0, 0.0, 0.0, 0.0, 0.0, 0.0, 0.0, 0.0, 0.0, 0.0, 1.700945404336453E9, 0.0, 2023-11-25 15:50:04.336
55.0, 76998.98803222037, 81759.17199363375, -12648.807483769357, -10987.335263173016, -3814.0346186202314, -3598.8096712600795, -15676.373621985153, 187500.0, -0.08, 0.974, 0.092, 192.0, 0.0, 0.0, 0.0, 0.0, 0.0, 0.0, 0.0, 0.0, 0.0, 1.700945404340426E9, 0.0, 2023-11-25 15:50:04.340
56.0, 77047.93835257749, 81733.0875078544, -11437.655858714088, -9905.53318328061, -2465.1962477202715, -2773.7844316702403, -15476.392564343521, 187500.0, -0.08, 0.974, 0.092, 192.0, 0.0, 0.0, 0.0, 0.0, 0.0, 0.0, 0.0, 0.0, 0.0, 1.700945404343513E9, 0.0, 2023-11-25 15:50:04.343
57.0, 77039.7352623624, 81703.40439121776, -11360.140008943083, -9634.875909671297, -2125.6285459552464, -2420.537462298568, -15565.03958285327, 187500.0, -0.08, 0.974, 0.092, 192.0, 0.0, 0.0, 0.0, 0.0, 0.0, 0.0, 0.0, 0.0, 0.0, 1.700945404347499E9, 0.0, 2023-11-25 15:50:04.347
58.0, 77006.14059044607, 81722.42572574923, -11985.27359786911, -10199.34686414562, -2821.013667704304, -2779.8417544176286, -15616.80622301176, 187500.0, -0.08, 0.974, 0.092, 192.0, 0.0, 0.0, 0.0, 0.0, 0.0, 0.0, 0.0, 0.0, 0.0, 1.700945404351512E9, 0.0, 2023-11-25 15:50:04.351
59.0, 76996.5740438192, 81764.42465358075, -12672.120353236241, -10942.20709111775, -3782.6751211494357, -3526.8817576029014, -15679.838142375726, 187500.0, -0.08, 0.974, 0.092, 192.0, 0.0, 0.0, 0.0, 0.0, 0.0, 0.0, 0.0, 0.0, 0.0, 1.700945404355508E9, 0.0, 2023-11-25 15:50:04.355
60.0, 77044.98792230939, 81745.6938917272, -11643.493073403011, -10158.77844795924, -2743.5648731666656, -2986.416576673577, -15467.20599737239, 187500.0, -0.08600000000000001, 0.98, 0.09, 192.0, 253.0, 80.0, 30.0, 160.0, 2.0, 208.0, 0.0, 0.0, 0.0, 1.700945404360612E9, 0.0, 2023-11-25 15:50:04.360
61.0, 77036.94129430548, 81697.4811789371, -11250.996440767818, -9517.126919880739, -2016.8873091801775, -2348.0954585189174, -15527.93568705746, 187500.0, -0.08600000000000001, 0.98, 0.09, 192.0, 0.0, 0.0, 0.0, 0.0, 0.0, 0.0, 0.0, 0.0, 0.0, 1.700945404364558E9, 0.0, 2023-11-25 15:50:04.364
62.0, 76993.13187517309, 81692.36262945684, -11875.079497704446, -10106.385958956, -2692.4687853418336, -2709.1878901944033, -15609.005464196858, 187500.0, -0.08600000000000001, 0.98, 0.09, 192.0, 0.0, 0.0, 0.0, 0.0, 0.0, 0.0, 0.0, 0.0, 0.0, 1.700945404368525E9, 0.0, 2023-11-25 15:50:04.368
63.0, 76980.32432560019, 81737.35669104537, -12648.561614580347, -10855.459970886704, -3704.3769603224946, -3417.514671983084, -15697.428965262052, 187500.0, -0.08600000000000001, 0.98, 0.09, 192.0, 0.0, 0.0, 0.0, 0.0, 0.0, 0.0, 0.0, 0.0, 0.0, 1.700945404371475E9, 0.0, 2023-11-25 15:50:04.371
64.0, 77031.30865470275, 81735.30033055549, -11913.144518511835, -10433.861366970703, -3080.2268481525, -3213.711466039594, -15515.731634584861, 187500.0, -0.08600000000000001, 0.98, 0.09, 192.0, 0.0, 0.0, 0.0, 0.0, 0.0, 0.0, 0.0, 0.0, 0.0, 1.700945404375553E9, 0.0, 2023-11-25 15:50:04.375
65.0, 77051.35816947915, 81698.71052488215, -11186.355195803071, -9468.757744879455, -1981.39273898515, -2334.572653123457, -15516.156317729512, 187500.0, -0.08600000000000001, 0.98, 0.09, 192.0, 0.0, 0.0, 0.0, 0.0, 0.0, 0.0, 0.0, 0.0, 0.0, 1.700945404379545E9, 0.0, 2023-11-25 15:50:04.379
66.0, 77017.31646267373, 81694.530748669, -11768.215807463625, -10034.614507510008, -2577.044376974628, -2666.4960582847666, -15607.552600807263, 187500.0, -0.08600000000000001, 0.98, 0.09, 192.0, 0.0, 0.0, 0.0, 0.0, 0.0, 0.0, 0.0, 0.0, 0.0, 1.700945404383613E9, 0.0, 2023-11-25 15:50:04.383
67.0, 76991.03081119429, 81735.61325497786, -12554.349011701228, -10724.769321056525, -3548.250025302175, -3284.2535715405434, -15706.481421766452, 187500.0, -0.08600000000000001, 0.98, 0.09, 192.0, 0.0, 0.0, 0.0, 0.0, 0.0, 0.0, 0.0, 0.0, 0.0, 1.700945404388589E9, 0.0, 2023-11-25 15:50:04.388
68.0, 77016.64591034007, 81737.82607767894, -12192.340158503075, -10691.934608451678, -3392.9724565711567, -3428.064695365989, -15585.379670307599, 187500.0, -0.08600000000000001, 0.98, 0.09, 192.0, 0.0, 0.0, 0.0, 0.0, 0.0, 0.0, 0.0, 0.0, 0.0, 1.700945404392586E9, 0.0, 2023-11-25 15:50:04.392
69.0, 77049.95000957848, 81705.08077205191, -11173.25707355226, -9492.11531783525, -2008.9524398985434, -2388.3956537718364, -15507.103861225112, 187500.0, -0.08600000000000001, 0.98, 0.09, 192.0, 0.0, 0.0, 0.0, 0.0, 0.0, 0.0, 0.0, 0.0, 0.0, 1.700945404396653E9, 0.0, 2023-11-25 15:50:04.396
70.0, 77015.57302660622, 81685.09831250887, -11679.07705057586, -9970.979091045749, -2480.373082205425, -2634.845988136052, -15613.609923554652, 187500.0, -0.082, 0.976, 0.1, 192.0, 253.0, 112.0, 30.0, 128.0, 3.0, 32.0, 0.0, 0.0, 0.0, 1.700945404399547E9, 0.0, 2023-11-25 15:50:04.399
71.0, 76983.00653493483, 81716.05547857947, -12427.301696217262, -10594.883334026736, -3370.1066219933778, -3148.28791001891, -15704.983854887947, 187500.0, -0.082, 0.976, 0.1, 192.0, 0.0, 0.0, 0.0, 0.0, 0.0, 0.0, 0.0, 0.0, 0.0, 1.700945404403549E9, 0.0, 2023-11-25 15:50:04.403
72.0, 77003.03369796678, 81736.77554568954, -12419.590344380182, -10878.079936275475, -3632.8737298099677, -3568.27718833413, -15640.074388989735, 187500.0, -0.082, 0.976, 0.1, 192.0, 0.0, 0.0, 0.0, 0.0, 0.0, 0.0, 0.0, 0.0, 0.0, 1.700945404407571E9, 0.0, 2023-11-25 15:50:04.407
73.0, 77039.22117223992, 81699.80576036045, -11210.36096934807, -9580.672929367176, -2105.020237567453, -2484.306989229559, -15496.509134353297, 187500.0, -0.082, 0.976, 0.1, 192.0, 0.0, 0.0, 0.0, 0.0, 0.0, 0.0, 0.0, 0.0, 0.0, 1.700945404411591E9, 0.0, 2023-11-25 15:50:04.411
74.0, 77015.08128822819, 81682.01377177403, -11571.028717878904, -9864.249511271657, -2357.1032115344065, -2564.326234379558, -15597.673129758017, 187500.0, -0.082, 0.976, 0.1, 192.0, 0.0, 0.0, 0.0, 0.0, 0.0, 0.0, 0.0, 0.0, 0.0, 1.700945404415653E9, 0.0, 2023-11-25 15:50:04.415
75.0, 76987.9686222039, 81717.17306580223, -12267.486723361817, -10439.851634484725, -3160.4472590025975, -2995.223163988968, -15673.24437776141, 187500.0, -0.082, 0.976, 0.1, 192.0, 0.0, 0.0, 0.0, 0.0, 0.0, 0.0, 0.0, 0.0, 0.0, 1.700945404420632E9, 0.0, 2023-11-25 15:50:04.420
76.0, 77000.28443339877, 81750.79008946301, -12581.372270747695, -10978.59573109099, -3772.169801255441, -3622.48016863825, -15658.559281654274, 187500.0, -0.082, 0.976, 0.1, 192.0, 0.0, 0.0, 0.0, 0.0, 0.0, 0.0, 0.0, 0.0, 0.0, 1.70094540442467E9, 0.0, 2023-11-25 15:50:04.424
77.0, 77039.71291061795, 81713.39562098928, -11308.038092617762, -9727.680352649732, -2266.0422046234853, -2621.9043280964293, -15469.977613684847, 187500.0, -0.082, 0.976, 0.1, 192.0, 0.0, 0.0, 0.0, 0.0, 0.0, 0.0, 0.0, 0.0, 0.0, 1.700945404427962E9, 0.0, 2023-11-25 15:50:04.427
78.0, 77015.05893648374, 81675.46471064862, -11462.5557020373, -9728.172091027749, -2225.697305881656, -2478.786108349098, -15582.831571439692, 187500.0, -0.082, 0.976, 0.1, 192.0, 0.0, 0.0, 0.0, 0.0, 0.0, 0.0, 0.0, 0.0, 0.0, 1.700945404431656E9, 0.0, 2023-11-25 15:50:04.431
79.0, 76987.3651251036, 81701.6386034058, -12129.710570539304, -10320.493319093386, -2989.948152297515, -2892.2710290278233, -15650.33383969472, 187500.0, -0.082, 0.976, 0.1, 192.0, 0.0, 0.0, 0.0, 0.0, 0.0, 0.0, 0.0, 0.0, 0.0, 1.700945404435705E9, 0.0, 2023-11-25 15:50:04.435
80.0, 76988.19213964845, 81744.97863590463, -12675.339004437805, -11001.32745520204, -3831.5807380176475, -3614.7911685456243, -15677.357098741186, 187500.0, -0.082, 0.976, 0.094, 192.0, 253.0, 112.0, 30.0, 128.0, 2.0, 240.0, 0.0, 0.0, 0.0, 1.700945404441715E9, 0.0, 2023-11-25 15:50:04.441
81.0, 77031.50982040285, 81712.30038551097, -11480.191228412537, -9941.810064531574, -2517.2534605566816, -2806.5520890417206, -15467.541273539218, 187500.0, -0.082, 0.976, 0.094, 192.0, 0.0, 0.0, 0.0, 0.0, 0.0, 0.0, 0.0, 0.0, 0.0, 1.700945404444743E9, 0.0, 2023-11-25 15:50:04.444
82.0, 77023.3737854211, 81678.23632696108, -11351.601642561156, -9600.498926699034, -2110.4964149590037, -2396.084653864462, -15558.64698393905, 187500.0, -0.082, 0.976, 0.094, 192.0, 0.0, 0.0, 0.0, 0.0, 0.0, 0.0, 0.0, 0.0, 0.0, 1.700945404448706E9, 0.0, 2023-11-25 15:50:04.448
83.0, 77000.88793049907, 81702.06328655044, -11974.544760530564, -10171.809514976683, -2803.422844817978, -2759.836943130129, -15616.739167778394, 187500.0, -0.082, 0.976, 0.094, 192.0, 0.0, 0.0, 0.0, 0.0, 0.0, 0.0, 0.0, 0.0, 0.0, 1.700945404452814E9, 0.0, 2023-11-25 15:50:04.452
84.0, 76993.57891006219, 81749.18076386223, -12691.409908701171, -10939.860157949945, -3794.2533247772844, -3519.6621441438374, -15695.327901283254, 187500.0, -0.082, 0.976, 0.094, 192.0, 0.0, 0.0, 0.0, 0.0, 0.0, 0.0, 0.0, 0.0, 0.0, 1.700945404455734E9, 0.0, 2023-11-25 15:50:04.455
85.0, 77035.24256172687, 81726.9854816181, -11712.582315514364, -10218.122329488078, -2829.887310253061, -3039.501969754931, -15495.816230275183, 187500.0, -0.082, 0.976, 0.094, 192.0, 0.0, 0.0, 0.0, 0.0, 0.0, 0.0, 0.0, 0.0, 0.0, 1.700945404459742E9, 0.0, 2023-11-25 15:50:04.459
86.0, 77030.83926806919, 81680.85148106236, -11251.46582740138, -9508.163870354161, -2024.6880679950796, -2346.866112573876, -15548.454588467432, 187500.0, -0.082, 0.976, 0.094, 192.0, 0.0, 0.0, 0.0, 0.0, 0.0, 0.0, 0.0, 0.0, 0.0, 1.700945404463776E9, 0.0, 2023-11-25 15:50:04.463
87.0, 77002.25138691085, 81687.19937648767, -11863.098962676402, -10102.3849966985, -2684.936247460395, -2707.042122726694, -15622.505917847862, 187500.0, -0.082, 0.976, 0.094, 192.0, 0.0, 0.0, 0.0, 0.0, 0.0, 0.0, 0.0, 0.0, 0.0, 1.700945404467741E9, 0.0, 2023-11-25 15:50:04.467
88.0, 76988.7732850043, 81735.27797881103, -12644.180672667108, -10846.876901015867, -3692.4858322722716, -3402.6284101758492, -15717.34436957173, 187500.0, -0.082, 0.976, 0.094, 192.0, 0.0, 0.0, 0.0, 0.0, 0.0, 0.0, 0.0, 0.0, 0.0, 1.700945404471991E9, 0.0, 2023-11-25 15:50:04.471
89.0, 77017.24940744037, 81716.59192044639, -11983.79838273506, -10501.296579992364, -3159.106154335279, -3266.2827689984765, -15549.907451857025, 187500.0, -0.08600000000000001, 0.972, 0.098, 192.0, 253.0, 80.0, 30.0, 96.0, 3.0, 16.0, 0.0, 0.0, 0.0, 1.7009454044768E9, 0.0, 2023-11-25 15:50:04.476
90.0, 77038.50591641736, 81680.13622523978, -11187.45043128138, -9470.769401880432, -1989.0593873333203, -2338.46185665868, -15526.572230645685, 187500.0, -0.08600000000000001, 0.972, 0.098, 192.0, 0.0, 0.0, 0.0, 0.0, 0.0, 0.0, 0.0, 0.0, 0.0, 1.700945404480775E9, 0.0, 2023-11-25 15:50:04.480
91.0, 77012.17556144901, 81680.04681826197, -11760.057420737437, -10011.949838632327, -2565.980263469251, -2644.5689969741106, -15621.544792836285, 187500.0, -0.08600000000000001, 0.972, 0.098, 192.0, 0.0, 0.0, 0.0, 0.0, 0.0, 0.0, 0.0, 0.0, 0.0, 1.700945404483828E9, 0.0, 2023-11-25 15:50:04.483
92.0, 76990.13674141608, 81725.71143218415, -12545.29655519683, -10704.049253946454, -3534.3919437398845, -3255.330414215376, -15719.1101573837, 187500.0, -0.08600000000000001, 0.972, 0.098, 192.0, 0.0, 0.0, 0.0, 0.0, 0.0, 0.0, 0.0, 0.0, 0.0, 1.700945404487843E9, 0.0, 2023-11-25 15:50:04.487
93.0, 77002.49725609986, 81724.59384496139, -12250.700563275883, -10731.430140904205, -3457.5019428136284, -3453.8139049785027, -15606.904400218058, 187500.0, -0.08600000000000001, 0.972, 0.098, 192.0, 0.0, 0.0, 0.0, 0.0, 0.0, 0.0, 0.0, 0.0, 0.0, 1.700945404491857E9, 0.0, 2023-11-25 15:50:04.491
94.0, 77035.5331344048, 81688.67459162172, -11185.639939980501, -9495.848059159287, -2029.44898956406, -2389.0438543610403, -15517.475070652376, 187500.0, -0.08600000000000001, 0.972, 0.098, 192.0, 0.0, 0.0, 0.0, 0.0, 0.0, 0.0, 0.0, 0.0, 0.0, 1.70094540449585E9, 0.0, 2023-11-25 15:50:04.495
95.0, 77014.00840449434, 81682.88548980778, -11668.817599870874, -9934.925727239339, -2459.3177389285256, -2601.22896447527, -15623.444691114986, 187500.0, -0.08600000000000001, 0.972, 0.098, 192.0, 0.0, 0.0, 0.0, 0.0, 0.0, 0.0, 0.0, 0.0, 0.0, 1.700945404499853E9, 0.0, 2023-11-25 15:50:04.499
96.0, 76986.35929660313, 81720.19055130369, -12411.007274509344, -10562.18273188862, -3338.8588832448586, -3110.848738056271, -15705.54264849933, 187500.0, -0.08600000000000001, 0.972, 0.098, 192.0, 0.0, 0.0, 0.0, 0.0, 0.0, 0.0, 0.0, 0.0, 0.0, 1.700945404503886E9, 0.0, 2023-11-25 15:50:04.503
97.0, 76994.51768332931, 81727.27605429603, -12469.635900215615, -10912.054587847542, -3677.7113291873134, -3584.28103736413, -15641.236679701411, 187500.0, -0.08600000000000001, 0.972, 0.098, 192.0, 0.0, 0.0, 0.0, 0.0, 0.0, 0.0, 0.0, 0.0, 0.0, 1.70094540450798E9, 0.0, 2023-11-25 15:50:04.507
98.0, 77031.0851372582, 81688.71929511063, -11238.390056895025, -9610.825432637386, -2137.765543194478, -2504.3341522615137, -15494.430422118954, 187500.0, -0.08600000000000001, 0.972, 0.098, 192.0, 0.0, 0.0, 0.0, 0.0, 0.0, 0.0, 0.0, 0.0, 0.0, 1.700945404512318E9, 0.0, 2023-11-25 15:50:04.512
99.0, 77010.49918061486, 81670.34616116836, -11567.00540387695, -9839.886109815372, -2337.6348421138337, -2545.818989970564, -15605.473888572918, 187500.0, -0.082, 0.976, 0.098, 192.0, 253.0, 112.0, 30.0, 128.0, 3.0, 16.0, 0.0, 0.0, 0.0, 1.700945404515971E9, 0.0, 2023-11-25 15:50:04.515
100.0, 76980.74900874484, 81699.22461500461, -12256.154388922978, -10407.508660257896, -3128.148988264679, -2962.701375806496, -15675.077220806745, 187500.0, -0.082, 0.976, 0.098, 192.0, 0.0, 0.0, 0.0, 0.0, 0.0, 0.0, 0.0, 0.0, 0.0, 1.700945404519963E9, 0.0, 2023-11-25 15:50:04.519
101.0, 76985.10759891363, 81725.86789439534, -12630.009666682443, -11002.020359280154, -3808.4466825064046, -3631.9573082873, -15674.205502772988, 187500.0, -0.082, 0.976, 0.098, 192.0, 0.0, 0.0, 0.0, 0.0, 0.0, 0.0, 0.0, 0.0, 0.0, 1.700945404523971E9, 0.0, 2023-11-25 15:50:04.523
102.0, 77019.931616775, 81686.17119624272, -11360.274119409814, -9788.186524890247, -2330.9963740106077, -2670.0723373976157, -15485.668538292473, 187500.0, -0.082, 0.976, 0.098, 192.0, 0.0, 0.0, 0.0, 0.0, 0.0, 0.0, 0.0, 0.0, 0.0, 1.700945404528008E9, 0.0, 2023-11-25 15:50:04.528
103.0, 76994.83060775169, 81645.13339342277, -11467.65189977311, -9730.429617217735, -2226.278451237494, -2483.032939795606, -15598.120164647124, 187500.0, -0.082, 0.976, 0.098, 192.0, 0.0, 0.0, 0.0, 0.0, 0.0, 0.0, 0.0, 0.0, 0.0, 1.700945404532214E9, 0.0, 2023-11-25 15:50:04.532
104.0, 76979.85493896663, 81684.8300915754, -12115.047826176624, -10295.906400192547, -2957.9404542375155, -2860.5986071346533, -15654.424208930042, 187500.0, -0.082, 0.976, 0.098, 192.0, 0.0, 0.0, 0.0, 0.0, 0.0, 0.0, 0.0, 0.0, 0.0, 1.700945404534974E9, 0.0, 2023-11-25 15:50:04.534
105.0, 76988.86269198213, 81741.46941202515, -12704.709196652078, -10999.002873778687, -3838.4427235654266, -3594.3169706245626, -15696.49019199493, 187500.0, -0.082, 0.976, 0.098, 192.0, 0.0, 0.0, 0.0, 0.0, 0.0, 0.0, 0.0, 0.0, 0.0, 1.70094540453908E9, 0.0, 2023-11-25 15:50:04.539
106.0, 77017.98701500738, 81697.65999289275, -11550.867444380217, -10017.381312534966, -2593.6293713604655, -2862.677319368997, -15490.697680794918, 187500.0, -0.082, 0.976, 0.098, 192.0, 0.0, 0.0, 0.0, 0.0, 0.0, 0.0, 0.0, 0.0, 0.0, 1.700945404543028E9, 0.0, 2023-11-25 15:50:04.543
107.0, 77003.7266020449, 81655.68341680568, -11358.86595950913, -9605.28220001247, -2111.122263803752, -2397.6492759763332, -15578.964719648924, 187500.0, -0.082, 0.976, 0.098, 192.0, 0.0, 0.0, 0.0, 0.0, 0.0, 0.0, 0.0, 0.0, 0.0, 1.700945404548053E9, 0.0, 2023-11-25 15:50:04.548
108.0, 76976.21160462042, 81671.55315536895, -11986.257074625144, -10193.20013442041, -2807.93789719795, -2766.944797866917, -15643.069522746746, 187500.0, -0.082, 0.976, 0.098, 192.0, 0.0, 0.0, 0.0, 0.0, 0.0, 0.0, 0.0, 0.0, 0.0, 1.700945404552041E9, 0.0, 2023-11-25 15:50:04.552
109.0, 76967.65088649403, 81716.88249312431, -12721.875336393756, -10951.505416811158, -3804.758644671279, -3506.809891082036, -15725.68157025356, 187500.0, -0.084, 0.982, 0.09, 192.0, 253.0, 96.0, 30.0, 176.0, 2.0, 208.0, 0.0, 0.0, 0.0, 1.700945404556098E9, 0.0, 2023-11-25 15:50:04.556
110.0, 77014.23192193889, 81705.05842030745, -11795.61904616583, -10308.892763721082, -2921.685924731007, -3098.9576100060476, -15521.341922443144, 187500.0, -0.084, 0.982, 0.09, 192.0, 0.0, 0.0, 0.0, 0.0, 0.0, 0.0, 0.0, 0.0, 0.0, 1.700945404560569E9, 0.0, 2023-11-25 15:50:04.560
111.0, 77005.78296253478, 81648.77672776899, -11259.84773157212, -9525.620582773756, -2032.935861699088, -2355.2927202335263, -15554.601318192641, 187500.0, -0.084, 0.982, 0.09, 192.0, 0.0, 0.0, 0.0, 0.0, 0.0, 0.0, 0.0, 0.0, 0.0, 1.700945404563127E9, 0.0, 2023-11-25 15:50:04.563
112.0, 76974.80344471973, 81649.11200393582, -11862.115485920369, -10105.268371733233, -2671.2793315982026, -2700.4036546234674, -15630.530194107318, 187500.0, -0.084, 0.982, 0.09, 192.0, 0.0, 0.0, 0.0, 0.0, 0.0, 0.0, 0.0, 0.0, 0.0, 1.70094540456707E9, 0.0, 2023-11-25 15:50:04.567
113.0, 76966.53329927126, 81708.25471976456, -12649.187463425096, -10843.635898069848, -3676.1020035865313, -3381.751880854593, -15724.563983030795, 187500.0, -0.084, 0.982, 0.09, 192.0, 0.0, 0.0, 0.0, 0.0, 0.0, 0.0, 0.0, 0.0, 0.0, 1.700945404571221E9, 0.0, 2023-11-25 15:50:04.571
114.0, 77006.94525324646, 81710.6910599102, -12048.081999788523, -10569.84938023679, -3229.1788732026666, -3311.969734665124, -15553.371972247598, 187500.0, -0.084, 0.982, 0.09, 192.0, 0.0, 0.0, 0.0, 0.0, 0.0, 0.0, 0.0, 0.0, 0.0, 1.70094540457622E9, 0.0, 2023-11-25 15:50:04.576
115.0, 77019.10460223015, 81659.8184895299, -11195.519411029747, -9483.196971797583, -1998.7153409380128, -2347.201388740705, -15531.713131870405, 187500.0, -0.084, 0.982, 0.09, 192.0, 0.0, 0.0, 0.0, 0.0, 0.0, 0.0, 0.0, 0.0, 0.0, 1.700945404580161E9, 0.0, 2023-11-25 15:50:04.580
116.0, 76989.55559606024, 81655.01286447202, -11761.644394593763, -10032.669905742396, -2562.158115167393, -2658.7623547032304, -15631.0889877187, 187500.0, -0.084, 0.982, 0.09, 192.0, 0.0, 0.0, 0.0, 0.0, 0.0, 0.0, 0.0, 0.0, 0.0, 1.700945404584148E9, 0.0, 2023-11-25 15:50:04.584
117.0, 76968.88023243907, 81700.72218188313, -12532.265488179386, -10707.849050503857, -3505.245268970164, -3239.3265651853762, -15718.104328883212, 187500.0, -0.084, 0.982, 0.09, 192.0, 0.0, 0.0, 0.0, 0.0, 0.0, 0.0, 0.0, 0.0, 0.0, 1.700945404588463E9, 0.0, 2023-11-25 15:50:04.588
118.0, 76993.24363389536, 81709.12643779832, -12305.48468893584, -10808.677769741747, -3519.3045162325525, -3499.634981111882, -15607.597304296174, 187500.0, -0.084, 0.982, 0.09, 192.0, 0.0, 0.0, 0.0, 0.0, 0.0, 0.0, 0.0, 0.0, 0.0, 1.700945404591224E9, 0.0, 2023-11-25 15:50:04.591
119.0, 77031.26395121384, 81672.20135595815, -11195.765280218755, -9553.783780787442, -2059.8473620232776, -2431.601575803945, -15508.333207170155, 187500.0, -0.08, 0.982, 0.09, 192.0, 253.0, 128.0, 30.0, 176.0, 2.0, 208.0, 0.0, 0.0, 0.0, 1.700945404595238E9, 0.0, 2023-11-25 15:50:04.595
120.0, 76998.51864558681, 81653.09061444887, -11646.242337971013, -9941.139512197913, -2439.3799828743918, -2604.0229325321834, -15622.37180738113, 187500.0, -0.08, 0.982, 0.09, 192.0, 0.0, 0.0, 0.0, 0.0, 0.0, 0.0, 0.0, 0.0, 0.0, 1.700945404599192E9, 0.0, 2023-11-25 15:50:04.599
121.0, 76977.97739243238, 81698.26348999304, -12378.887817727067, -10543.675487479626, -3297.396397280264, -3084.138403432179, -15701.988721130934, 187500.0, -0.08, 0.982, 0.09, 192.0, 0.0, 0.0, 0.0, 0.0, 0.0, 0.0, 0.0, 0.0, 0.0, 1.700945404604242E9, 0.0, 2023-11-25 15:50:04.604
122.0, 76990.85199723864, 81717.93302511371, -12509.980798957444, -10953.226501134217, -3716.469254072816, -3606.699837052803, -15656.368810697653, 187500.0, -0.08, 0.982, 0.09, 192.0, 0.0, 0.0, 0.0, 0.0, 0.0, 0.0, 0.0, 0.0, 0.0, 1.700945404608205E9, 0.0, 2023-11-25 15:50:04.608
123.0, 77019.17165746352, 81668.93800126767, -11256.830246070653, -9646.968203421618, -2176.188191913151, -2531.3127078190696, -15499.705433810406, 187500.0, -0.08, 0.982, 0.09, 192.0, 0.0, 0.0, 0.0, 0.0, 0.0, 0.0, 0.0, 0.0, 0.0, 1.700945404612255E9, 0.0, 2023-11-25 15:50:04.612
124.0, 77001.2232066659, 81646.34038762336, -11550.934499613584, -9836.421589424801, -2331.309298432982, -2542.354469579991, -15608.200801396466, 187500.0, -0.08, 0.982, 0.09, 192.0, 0.0, 0.0, 0.0, 0.0, 0.0, 0.0, 0.0, 0.0, 0.0, 1.700945404616316E9, 0.0, 2023-11-25 15:50:04.616
125.0, 76978.04444766574, 81680.06917000642, -12230.449882799374, -10410.593200992727, -3111.0499037563686, -2958.208675170979, -15665.287156735321, 187500.0, -0.08, 0.982, 0.09, 192.0, 0.0, 0.0, 0.0, 0.0, 0.0, 0.0, 0.0, 0.0, 0.0, 1.700945404619358E9, 0.0, 2023-11-25 15:50:04.619
126.0, 76981.19604363394, 81713.26151052256, -12650.461512859049, -11015.230240253239, -3830.4407990504264, -3628.0904564965317, -15669.735153881928, 187500.0, -0.08, 0.982, 0.09, 192.0, 0.0, 0.0, 0.0, 0.0, 0.0, 0.0, 0.0, 0.0, 0.0, 1.700945404623619E9, 0.0, 2023-11-25 15:50:04.623
127.0, 77017.45057314045, 81667.19456520016, -11397.512125672356, -9839.439074926267, -2393.0001131296294, -2701.185965679403, -15478.001889944302, 187500.0, -0.08, 0.982, 0.09, 192.0, 0.0, 0.0, 0.0, 0.0, 0.0, 0.0, 0.0, 0.0, 0.0, 1.700945404627386E9, 0.0, 2023-11-25 15:50:04.627
128.0, 77002.78782877777, 81636.05858517392, -11443.668477972566, -9716.817404844453, -2211.6827621081784, -2461.396451162869, -15588.017176153324, 187500.0, -0.08, 0.982, 0.09, 192.0, 0.0, 0.0, 0.0, 0.0, 0.0, 0.0, 0.0, 0.0, 0.0, 1.700945404631323E9, 0.0, 2023-11-25 15:50:04.631
129.0, 76984.41469483552, 81672.96131526963, -12087.175200840855, -10293.805336213749, -2938.0697534167475, -2845.9135110275165, -15645.304697192276, 187500.0, -0.084, 0.982, 0.092, 192.0, 253.0, 96.0, 30.0, 176.0, 2.0, 224.0, 0.0, 0.0, 0.0, 1.700945404635377E9, 0.0, 2023-11-25 15:50:04.635
130.0, 76976.52452904278, 81711.62983317731, -12714.834536890334, -11021.064045556075, -3852.367860361083, -3593.8699357354567, -15699.105346096201, 187500.0, -0.084, 0.982, 0.092, 192.0, 0.0, 0.0, 0.0, 0.0, 0.0, 0.0, 0.0, 0.0, 0.0, 1.700945404640389E9, 0.0, 2023-11-25 15:50:04.640
131.0, 77010.99091899287, 81668.11098672284, -11597.515535058445, -10093.734871594295, -2668.977101919306, -2919.115474118647, -15498.051404720713, 187500.0, -0.084, 0.982, 0.092, 192.0, 0.0, 0.0, 0.0, 0.0, 0.0, 0.0, 0.0, 0.0, 0.0, 1.700945404644494E9, 0.0, 2023-11-25 15:50:04.644
132.0, 77015.14834346157, 81639.7689747535, -11336.447159820456, -9621.66602869821, -2110.764635892467, -2409.42864530428, -15574.628481224596, 187500.0, -0.084, 0.982, 0.092, 192.0, 0.0, 0.0, 0.0, 0.0, 0.0, 0.0, 0.0, 0.0, 0.0, 1.700945404647439E9, 0.0, 2023-11-25 15:50:04.647
133.0, 76993.60126180665, 81663.23830643158, -11958.563263245018, -10206.052387482214, -2789.2071353444026, -2779.7970509287184, -15644.008296013868, 187500.0, -0.084, 0.982, 0.092, 192.0, 0.0, 0.0, 0.0, 0.0, 0.0, 0.0, 0.0, 0.0, 0.0, 1.700945404651563E9, 0.0, 2023-11-25 15:50:04.651
134.0, 76984.90643321353, 81714.69202216768, -12706.832612375334, -10946.006887675154, -3782.5186589382483, -3503.5241846471054, -15729.816642977792, 187500.0, -0.084, 0.982, 0.092, 192.0, 0.0, 0.0, 0.0, 0.0, 0.0, 0.0, 0.0, 0.0, 0.0, 1.700945404655459E9, 0.0, 2023-11-25 15:50:04.655
135.0, 77007.01230847983, 81683.35487644136, -11845.888119445815, -10351.338726441709, -2976.626512602152, -3141.9400145936033, -15543.850129109638, 187500.0, -0.084, 0.982, 0.092, 192.0, 0.0, 0.0, 0.0, 0.0, 0.0, 0.0, 0.0, 0.0, 0.0, 1.70094540465943E9, 0.0, 2023-11-25 15:50:04.659
136.0, 77013.13668646058, 81639.14312590875, -11249.118894233572, -9514.422358801647, -2024.866881950722, -2355.8962173338195, -15564.145513075056, 187500.0, -0.084, 0.982, 0.092, 192.0, 0.0, 0.0, 0.0, 0.0, 0.0, 0.0, 0.0, 0.0, 0.0, 1.700945404663512E9, 0.0, 2023-11-25 15:50:04.663
137.0, 76991.99193620586, 81649.44728010266, -11844.457607800676, -10091.387938426487, -2649.1511045874486, -2697.4755760998223, -15639.828519800725, 187500.0, -0.084, 0.982, 0.092, 192.0, 0.0, 0.0, 0.0, 0.0, 0.0, 0.0, 0.0, 0.0, 0.0, 1.700945404668449E9, 0.0, 2023-11-25 15:50:04.668
138.0, 76990.5167210718, 81719.45294373667, -12632.35659985025, -10813.461043055182, -3640.4509711803166, -3358.036679987512, -15733.102349412722, 187500.0, -0.084, 0.982, 0.092, 192.0, 0.0, 0.0, 0.0, 0.0, 0.0, 0.0, 0.0, 0.0, 0.0, 1.700945404672442E9, 0.0, 2023-11-25 15:50:04.672
139.0, 77013.60607309414, 81706.7348011416, -12108.319951095576, -10624.387636707741, -3291.160260577233, -3363.848133545892, -15576.103696358645, 187500.0, -0.088, 0.976, 0.09, 192.0, 253.0, 64.0, 30.0, 128.0, 2.0, 208.0, 0.0, 0.0, 0.0, 1.70094540467548E9, 0.0, 2023-11-25 15:50:04.675
140.0, 77024.46902089943, 81654.45407086064, -11189.93147491592, -9486.415622999148, -1996.68133219258, -2362.3335197369483, -15528.874460324581, 187500.0, -0.088, 0.976, 0.09, 192.0, 0.0, 0.0, 0.0, 0.0, 0.0, 0.0, 0.0, 0.0, 0.0, 1.700945404679517E9, 0.0, 2023-11-25 15:50:04.679
141.0, 76998.71981128691, 81652.95650398213, -11739.404408860733, -10001.377463504967, -2525.389495538413, -2640.322165527602, -15632.385388897108, 187500.0, -0.088, 0.976, 0.09, 192.0, 0.0, 0.0, 0.0, 0.0, 0.0, 0.0, 0.0, 0.0, 0.0, 1.70094540468351E9, 0.0, 2023-11-25 15:50:04.683
142.0, 76986.6722210255, 81710.7357633991, -12511.701883280502, -10671.326300063885, -3459.0442131810446, -3212.772692772471, -15716.986741660447, 187500.0, -0.088, 0.976, 0.09, 192.0, 0.0, 0.0, 0.0, 0.0, 0.0, 0.0, 0.0, 0.0, 0.0, 1.70094540468755E9, 0.0, 2023-11-25 15:50:04.687
143.0, 77000.26208165432, 81715.11670531234, -12354.72558197088, -10833.19763340922, -3549.3676125249403, -3527.5076064476502, -15613.252295643366, 187500.0, -0.088, 0.976, 0.09, 192.0, 0.0, 0.0, 0.0, 0.0, 0.0, 0.0, 0.0, 0.0, 0.0, 1.700945404691542E9, 0.0, 2023-11-25 15:50:04.691
144.0, 77021.6303493536, 81662.0760157199, -11203.409576822469, -9536.729399768043, -2050.7054985410573, -2425.2536803786375, -15502.231180933855, 187500.0, -0.088, 0.976, 0.09, 192.0, 0.0, 0.0, 0.0, 0.0, 0.0, 0.0, 0.0, 0.0, 0.0, 1.700945404696528E9, 0.0, 2023-11-25 15:50:04.696
145.0, 76999.3233083872, 81653.35883538233, -11640.833215812829, -9905.220258858235, -2407.7075609812214, -2580.3077316651024, -15621.298923647277, 187500.0, -0.088, 0.976, 0.09, 192.0, 0.0, 0.0, 0.0, 0.0, 0.0, 0.0, 0.0, 0.0, 0.0, 1.700945404700527E9, 0.0, 2023-11-25 15:50:04.700
146.0, 76975.78692147577, 81698.30819348195, -12375.847980481147, -10522.284868035898, -3265.545161431451, -3064.5135718004194, -15710.951770657513, 187500.0, -0.088, 0.976, 0.09, 192.0, 0.0, 0.0, 0.0, 0.0, 0.0, 0.0, 0.0, 0.0, 0.0, 1.700945404703539E9, 0.0, 2023-11-25 15:50:04.703
147.0, 76988.03567743728, 81725.46556299514, -12565.502532184426, -10973.276015910627, -3747.426420143416, -3618.3674476584733, -15672.86439810567, 187500.0, -0.088, 0.976, 0.09, 192.0, 0.0, 0.0, 0.0, 0.0, 0.0, 0.0, 0.0, 0.0, 0.0, 1.700945404707542E9, 0.0, 2023-11-25 15:50:04.707
148.0, 77017.8752562851, 81672.24605944706, -11295.722281422888, -9683.15567769476, -2213.0015150310414, -2562.3816326119463, -15504.108727468101, 187500.0, -0.088, 0.976, 0.09, 192.0, 0.0, 0.0, 0.0, 0.0, 0.0, 0.0, 0.0, 0.0, 0.0, 1.70094540471162E9, 0.0, 2023-11-25 15:50:04.711
149.0, 76998.29512814226, 81647.25680914603, -11537.121121540204, -9797.529554072566, -2295.5912107934014, -2509.050370341584, -15617.879106745615, 187500.0, -0.096, 0.972, 0.094, 192.0, 253.0, 0.0, 30.0, 96.0, 2.0, 240.0, 0.0, 0.0, 0.0, 1.700945404715597E9, 0.0, 2023-11-25 15:50:04.715
150.0, 76976.52452904278, 81684.09248400838, -12217.709388459849, -10363.922758570046, -3068.3133683578217, -2913.86281417165, -15689.225875046955, 187500.0, -0.096, 0.972, 0.094, 192.0, 0.0, 0.0, 0.0, 0.0, 0.0, 0.0, 0.0, 0.0, 0.0, 1.700945404719599E9, 0.0, 2023-11-25 15:50:04.719
151.0, 76980.65960176702, 81717.55304545797, -12686.760745854468, -11008.010626794176, -3836.386363075538, -3615.9758110017556, -15700.781726930349, 187500.0, -0.096, 0.972, 0.094, 192.0, 0.0, 0.0, 0.0, 0.0, 0.0, 0.0, 0.0, 0.0, 0.0, 1.700945404723613E9, 0.0, 2023-11-25 15:50:04.723
152.0, 77017.13764871808, 81667.01575124451, -11444.607251239688, -9885.506020248655, -2440.944604986263, -2743.0731347886485, -15492.843448262627, 187500.0, -0.096, 0.972, 0.094, 192.0, 0.0, 0.0, 0.0, 0.0, 0.0, 0.0, 0.0, 0.0, 0.0, 1.700945404728626E9, 0.0, 2023-11-25 15:50:04.728
153.0, 77002.56431133322, 81634.04692817295, -11432.134977833626, -9704.322779693935, -2192.3261514098826, -2458.4460208947685, -15597.13668789109, 187500.0, -0.096, 0.972, 0.094, 192.0, 0.0, 0.0, 0.0, 0.0, 0.0, 0.0, 0.0, 0.0, 0.0, 1.700945404731588E9, 0.0, 2023-11-25 15:50:04.731
154.0, 76987.14160765905, 81670.12264372381, -12071.551331466597, -10275.02987087129, -2903.5139564888427, -2831.8766155095836, -15661.822636344748, 187500.0, -0.096, 0.972, 0.094, 192.0, 0.0, 0.0, 0.0, 0.0, 0.0, 0.0, 0.0, 0.0, 0.0, 1.700945404735622E9, 0.0, 2023-11-25 15:50:04.735
155.0, 76985.88990996957, 81721.41989724874, -12737.543909256925, -11010.603429150991, -3843.874197468066, -3580.570647784549, -15727.335599343252, 187500.0, -0.096, 0.972, 0.094, 192.0, 0.0, 0.0, 0.0, 0.0, 0.0, 0.0, 0.0, 0.0, 0.0, 1.700945404739631E9, 0.0, 2023-11-25 15:50:04.739
156.0, 77020.33394817519, 81686.79704508747, -11649.416285683667, -10141.902880895483, -2718.0168292542494, -2960.533256594331, -15516.201021218423, 187500.0, -0.096, 0.972, 0.094, 192.0, 0.0, 0.0, 0.0, 0.0, 0.0, 0.0, 0.0, 0.0, 0.0, 1.700945404743694E9, 0.0, 2023-11-25 15:50:04.743
157.0, 77014.23192193889, 81644.68635853367, -11320.935049168475, -9577.923664799175, -2072.4984493849815, -2382.9641798691964, -15586.296091830265, 187500.0, -0.096, 0.972, 0.094, 192.0, 0.0, 0.0, 0.0, 0.0, 0.0, 0.0, 0.0, 0.0, 0.0, 1.700945404747669E9, 0.0, 2023-11-25 15:50:04.747
158.0, 76987.58864254817, 81664.71352156563, -11948.437923006764, -10163.047631150203, -2750.4715622033555, -2746.537655179221, -15661.129732266634, 187500.0, -0.096, 0.972, 0.094, 192.0, 0.0, 0.0, 0.0, 0.0, 0.0, 0.0, 0.0, 0.0, 0.0, 1.700945404751748E9, 0.0, 2023-11-25 15:50:04.751
159.0, 76966.68976148246, 81706.64539416377, -12722.098853838308, -10917.307247794539, -3760.435135416405, -3470.0412714530557, -15754.336506645264, 187500.0, -0.098, 0.974, 0.1, 192.0, 252.0, 240.0, 30.0, 112.0, 3.0, 32.0, 0.0, 0.0, 0.0, 1.700945404756704E9, 0.0, 2023-11-25 15:50:04.756
160.0, 76990.78494200528, 81676.22466996011, -11924.901536095327, -10410.861421926193, -3047.07921112528, -3185.0565296478903, -15569.711097444428, 187500.0, -0.098, 0.974, 0.1, 192.0, 0.0, 0.0, 0.0, 0.0, 0.0, 0.0, 0.0, 0.0, 0.0, 1.700945404759728E9, 0.0, 2023-11-25 15:50:04.759
