%OpenBCI Raw EXG Data
%Number of channels = 8
%Sample Rate = 250 Hz
%Board = OpenBCI_GUI$BoardCytonSerial
Sample Index, EXG Channel 0, EXG Channel 1, EXG Channel 2, EXG Channel 3, EXG Channel 4, EXG Channel 5, EXG Channel 6, EXG Channel 7, Accel Channel 0, Accel Channel 1, Accel Channel 2, Other, Other, Other, Other, Other, Other, Other, Analog Channel 0, Analog Channel 1, Analog Channel 2, Timestamp, Other, Timestamp (Formatted)
246.0, 8303.40484421311, 15006.290674959502, -54474.419888784876, -57503.438890390265, -47627.23119583502, -58458.886558876824, -33764.63458116467, -15290.806030131107, 0.0, 0.0, 0.0, 192.0, 0.0, 0.0, 0.0, 0.0, 0.0, 0.0, 0.0, 0.0, 0.0, 1.700946895556398E9, 0.0, 2023-11-25 16:14:55.556
247.0, 8134.984449742371, 14925.734987942576, -54475.02338588517, -57507.10457648094, -47577.453860933056, -58676.592549871515, -33759.33721772876, -15280.613634659487, -0.122, 0.9480000000000001, 0.252, 192.0, 252.0, 48.0, 29.0, 160.0, 7.0, 224.0, 0.0, 0.0, 0.0, 1.70094689555641E9, 0.0, 2023-11-25 16:14:55.556
248.0, 8028.5901461351095, 14988.386927650801, -54446.793132638115, -57447.78304669655, -48147.80332419912, -58714.255239278704, -33709.42577236006, -15225.15895666587, -0.122, 0.9480000000000001, 0.252, 192.0, 0.0, 0.0, 0.0, 0.0, 0.0, 0.0, 0.0, 0.0, 0.0, 1.700946895556418E9, 0.0, 2023-11-25 16:14:55.556
249.0, 8163.348813456156, 15037.06902707446, -54486.7580517242, -57476.32622436598, -48043.35362235947, -58530.3674376449, -33759.225459006484, -15276.053878790604, -0.122, 0.9480000000000001, 0.252, 192.0, 0.0, 0.0, 0.0, 0.0, 0.0, 0.0, 0.0, 0.0, 0.0, 1.700946895556424E9, 0.0, 2023-11-25 16:14:55.556
0.0, 0.0, 0.0, 0.0, 0.0, 0.0, 0.0, 0.0, 0.0, -0.116, 0.9440000000000001, 0.256, 192.0, 252.0, 96.0, 29.0, 128.0, 8.0, 0.0, 0.0, 0.0, 0.0, 1.700946895637525E9, 0.0, 2023-11-25 16:14:55.637
1.0, 8416.90700255716, 15344.2714028682, -54208.70235070019, -57332.85037670736, -47423.562100358264, -58218.98528563801, -33683.251879602896, -15090.646158533831, -0.116, 0.9440000000000001, 0.256, 192.0, 0.0, 0.0, 0.0, 0.0, 0.0, 0.0, 0.0, 0.0, 0.0, 1.700946895654588E9, 0.0, 2023-11-25 16:14:55.654
2.0, 8264.423401883054, 15254.529148880143, -54216.39135079281, -57344.56269080195, -47289.51868885979, -58408.30456117446, -33689.3539058392, -15085.639367775842, -0.116, 0.9440000000000001, 0.256, 192.0, 0.0, 0.0, 0.0, 0.0, 0.0, 0.0, 0.0, 0.0, 0.0, 1.700946895658591E9, 0.0, 2023-11-25 16:14:55.658
3.0, 8127.004876971827, 15309.55914372911, -54192.76555690355, -57282.69306214966, -47870.19465806421, -58470.151838082296, -33638.302521503276, -15019.075872787938, -0.116, 0.9440000000000001, 0.256, 192.0, 0.0, 0.0, 0.0, 0.0, 0.0, 0.0, 0.0, 0.0, 0.0, 1.700946895661667E9, 0.0, 2023-11-25 16:14:55.661
4.0, 8277.879152045149, 15377.642557339974, -54219.028856638535, -57290.985559342575, -47793.99756121606, -58269.76844904047, -33672.90302192009, -15045.562689967477, -0.116, 0.9440000000000001, 0.256, 192.0, 0.0, 0.0, 0.0, 0.0, 0.0, 0.0, 0.0, 0.0, 0.0, 1.700946895664623E9, 0.0, 2023-11-25 16:14:55.664
5.0, 8422.09260727079, 15382.470534142321, -54217.77715894904, -57312.42088227521, -47508.431674055064, -58207.67530294363, -33710.096324693724, -15079.805562473008, -0.116, 0.9440000000000001, 0.256, 192.0, 0.0, 0.0, 0.0, 0.0, 0.0, 0.0, 0.0, 0.0, 0.0, 1.700946895668644E9, 0.0, 2023-11-25 16:14:55.668
6.0, 8342.900376665637, 15290.224884775269, -54211.18339433472, -57338.84064422139, -47218.21662404736, -58360.40477280674, -33731.66575809309, -15100.436222605256, -0.116, 0.9440000000000001, 0.256, 192.0, 0.0, 0.0, 0.0, 0.0, 0.0, 0.0, 0.0, 0.0, 0.0, 1.700946895673617E9, 0.0, 2023-11-25 16:14:55.673
7.0, 8143.858092291128, 15329.318085827601, -54177.43226020721, -57272.746535867045, -47817.13161672731, -58501.08665240844, -33655.93804787851, -15030.74348339361, -0.116, 0.9440000000000001, 0.256, 192.0, 0.0, 0.0, 0.0, 0.0, 0.0, 0.0, 0.0, 0.0, 0.0, 1.700946895677598E9, 0.0, 2023-11-25 16:14:55.677
8.0, 8270.704242074997, 15388.080822000602, -54198.66641743975, -57284.905884850734, -47819.679715595215, -58312.68379839466, -33688.61629827217, -15070.84251294643, -0.12, 0.9480000000000001, 0.262, 192.0, 252.0, 64.0, 29.0, 160.0, 8.0, 48.0, 0.0, 0.0, 0.0, 1.700946895681604E9, 0.0, 2023-11-25 16:14:55.681
9.0, 8413.263668210944, 15407.459784443354, -54200.074577340434, -57302.4743559926, -47589.814375616836, -58233.58097476733, -33716.28775790784, -15104.168963929293, -0.12, 0.9480000000000001, 0.262, 192.0, 0.0, 0.0, 0.0, 0.0, 0.0, 0.0, 0.0, 0.0, 0.0, 1.700946895684619E9, 0.0, 2023-11-25 16:14:55.684
10.0, 8392.051862722858, 15292.97414934327, -54209.43995826721, -57360.745353787584, -47188.55585915517, -58352.2240343361, -33760.74537762945, -15160.316546001024, -0.12, 0.9480000000000001, 0.262, 192.0, 0.0, 0.0, 0.0, 0.0, 0.0, 0.0, 0.0, 0.0, 0.0, 1.700946895688643E9, 0.0, 2023-11-25 16:14:55.688
11.0, 8152.508217395332, 15310.542620485143, -54180.04741430848, -57294.539486710964, -47732.97729885308, -58551.06515301051, -33681.083760390735, -15084.03004217506, -0.12, 0.9480000000000001, 0.262, 192.0, 0.0, 0.0, 0.0, 0.0, 0.0, 0.0, 0.0, 0.0, 0.0, 1.700946895692944E9, 0.0, 2023-11-25 16:14:55.692
12.0, 8243.770390006352, 15369.350060147055, -54195.62658019383, -57295.14298381126, -47847.86526535336, -58374.240502624576, -33695.970022197966, -15098.670434793286, -0.12, 0.9480000000000001, 0.262, 192.0, 0.0, 0.0, 0.0, 0.0, 0.0, 0.0, 0.0, 0.0, 0.0, 1.700946895698744E9, 0.0, 2023-11-25 16:14:55.698
13.0, 8381.211266662034, 15406.85628734306, -54206.176603576736, -57301.35676876984, -47664.826830008846, -58258.190245412625, -33716.7571445414, -15117.691769324752, -0.12, 0.9480000000000001, 0.262, 192.0, 0.0, 0.0, 0.0, 0.0, 0.0, 0.0, 0.0, 0.0, 0.0, 1.700946895701832E9, 0.0, 2023-11-25 16:14:55.701
14.0, 8405.99935126297, 15298.852658135016, -54208.99292337811, -57356.20794966316, -47208.8959466095, -58313.264943750495, -33755.89504908265, -15158.841330866973, -0.12, 0.9480000000000001, 0.262, 192.0, 0.0, 0.0, 0.0, 0.0, 0.0, 0.0, 0.0, 0.0, 0.0, 1.70094689570572E9, 0.0, 2023-11-25 16:14:55.705
15.0, 8158.006746531338, 15295.321082511078, -54179.287454997, -57292.930161110184, -47616.435303263104, -58526.25471666512, -33674.04296088731, -15070.104905379405, -0.12, 0.9480000000000001, 0.262, 192.0, 0.0, 0.0, 0.0, 0.0, 0.0, 0.0, 0.0, 0.0, 0.0, 1.700946895709693E9, 0.0, 2023-11-25 16:14:55.709
16.0, 8201.436186007999, 15347.825330236594, -54192.43028073672, -57289.666806419715, -47856.38127999083, -58393.01596796703, -33676.412245799576, -15073.636481003343, -0.12, 0.9480000000000001, 0.262, 192.0, 0.0, 0.0, 0.0, 0.0, 0.0, 0.0, 0.0, 0.0, 0.0, 1.700946895712693E9, 0.0, 2023-11-25 16:14:55.712
17.0, 8356.356126827732, 15409.76201412225, -54196.61005694987, -57281.128440037784, -47701.461339171095, -58243.39339058321, -33678.40155105609, -15075.066992648482, -0.12, 0.9480000000000001, 0.262, 192.0, 0.0, 0.0, 0.0, 0.0, 0.0, 0.0, 0.0, 0.0, 0.0, 1.700946895716754E9, 0.0, 2023-11-25 16:14:55.716
18.0, 8439.281098756921, 15336.761216731218, -54189.85983012436, -57323.708513225145, -47251.61013026359, -58247.483759818526, -33709.33636538224, -15106.851173263929, -0.122, 0.9480000000000001, 0.26, 192.0, 252.0, 48.0, 29.0, 160.0, 8.0, 32.0, 0.0, 0.0, 0.0, 1.700946895720756E9, 0.0, 2023-11-25 16:14:55.720
19.0, 8213.774348947329, 15308.620370461986, -54172.403117704765, -57283.63183541678, -47479.709682429995, -58466.55320722499, -33648.80784139727, -15038.968925353161, -0.122, 0.9480000000000001, 0.26, 192.0, 0.0, 0.0, 0.0, 0.0, 0.0, 0.0, 0.0, 0.0, 0.0, 1.700946895724811E9, 0.0, 2023-11-25 16:14:55.724
20.0, 8184.851191622161, 15346.32776335809, -54187.87052486784, -57278.84856210334, -47868.406518507785, -58398.782718036506, -33647.8914198746, -15036.063198573971, -0.122, 0.9480000000000001, 0.26, 192.0, 0.0, 0.0, 0.0, 0.0, 0.0, 0.0, 0.0, 0.0, 0.0, 1.700946895728842E9, 0.0, 2023-11-25 16:14:55.728
21.0, 8317.821719386784, 15401.871848329527, -54212.72566470214, -57287.208114529625, -47733.44668548664, -58238.14073063621, -33674.28883007632, -15054.995126127616, -0.122, 0.9480000000000001, 0.26, 192.0, 0.0, 0.0, 0.0, 0.0, 0.0, 0.0, 0.0, 0.0, 0.0, 1.700946895732881E9, 0.0, 2023-11-25 16:14:55.732
22.0, 8439.079933056824, 15362.868054255016, -54190.84330688039, -57313.33730379788, -47325.32618347719, -58209.68695994461, -33695.411228586585, -15072.65300424731, -0.122, 0.9480000000000001, 0.26, 192.0, 0.0, 0.0, 0.0, 0.0, 0.0, 0.0, 0.0, 0.0, 0.0, 1.700946895737854E9, 0.0, 2023-11-25 16:14:55.737
23.0, 8242.473988827944, 15285.3075009951, -54193.12318481484, -57314.544297998465, -47346.33682326518, -58420.28509620251, -33672.72420796445, -15045.652096945298, -0.122, 0.9480000000000001, 0.26, 192.0, 0.0, 0.0, 0.0, 0.0, 0.0, 0.0, 0.0, 0.0, 0.0, 1.700946895740872E9, 0.0, 2023-11-25 16:14:55.740
24.0, 8145.020383002804, 15338.348190587545, -54176.42643170672, -57271.137210266264, -47868.33946327442, -58421.67090435874, -33617.3365852042, -14986.889360772297, -0.122, 0.9480000000000001, 0.26, 192.0, 0.0, 0.0, 0.0, 0.0, 0.0, 0.0, 0.0, 0.0, 0.0, 1.700946895744785E9, 0.0, 2023-11-25 16:14:55.744
25.0, 8291.06668127378, 15402.43064194091, -54192.452632481174, -57273.73001262308, -47761.69929047815, -58223.992076396, -33632.51341968935, -14994.041918997995, -0.122, 0.9480000000000001, 0.26, 192.0, 0.0, 0.0, 0.0, 0.0, 0.0, 0.0, 0.0, 0.0, 0.0, 1.700946895748796E9, 0.0, 2023-11-25 16:14:55.748
26.0, 8415.901174056671, 15368.053658968647, -54195.04543483799, -57311.258591563535, -47423.2938794248, -58181.926093331116, -33676.52400452185, -15034.520928206555, -0.122, 0.9480000000000001, 0.26, 192.0, 0.0, 0.0, 0.0, 0.0, 0.0, 0.0, 0.0, 0.0, 0.0, 1.700946895752953E9, 0.0, 2023-11-25 16:14:55.752
27.0, 8284.651730615107, 15283.966396327782, -54195.291304027, -57326.32366732642, -47264.70825251439, -58369.770153733516, -33680.927298179544, -15034.319762506459, -0.122, 0.9480000000000001, 0.26, 192.0, 0.0, 0.0, 0.0, 0.0, 0.0, 0.0, 0.0, 0.0, 0.0, 1.700946895756823E9, 0.0, 2023-11-25 16:14:55.756
28.0, 8140.438275389466, 15335.598926019542, -54169.20681824766, -57266.89037881976, -47859.868152125855, -58455.24322453061, -33625.159695763556, -14979.848561268875, -0.124, 0.9460000000000001, 0.26, 192.0, 252.0, 32.0, 29.0, 144.0, 8.0, 32.0, 0.0, 0.0, 0.0, 1.700946895760837E9, 0.0, 2023-11-25 16:14:55.760
29.0, 8283.176515481056, 15403.369415208033, -54193.27964702602, -57276.07694579088, -47800.591325830384, -58266.41568737217, -33662.218888070456, -15024.708512390676, -0.124, 0.9460000000000001, 0.26, 192.0, 0.0, 0.0, 0.0, 0.0, 0.0, 0.0, 0.0, 0.0, 0.0, 1.700946895764859E9, 0.0, 2023-11-25 16:14:55.764
30.0, 8425.691238128094, 15410.700787389373, -54192.67614992573, -57298.316931523914, -47519.40638058262, -58207.56354422135, -33702.116751923175, -15077.637443260843, -0.124, 0.9460000000000001, 0.26, 192.0, 0.0, 0.0, 0.0, 0.0, 0.0, 0.0, 0.0, 0.0, 0.0, 1.700946895769014E9, 0.0, 2023-11-25 16:14:55.769
31.0, 8361.586435030275, 15314.521230998187, -54190.10569931337, -57331.41986506223, -47202.43629246191, -58358.50487452804, -33724.982586500955, -15111.589743088454, -0.124, 0.9460000000000001, 0.26, 192.0, 0.0, 0.0, 0.0, 0.0, 0.0, 0.0, 0.0, 0.0, 0.0, 1.700946895772918E9, 0.0, 2023-11-25 16:14:55.772
32.0, 8150.876540050094, 15340.359847588523, -54169.16211475875, -57275.83107660188, -47802.80414853146, -58522.14199568534, -33667.96328639547, -15055.799788928009, -0.124, 0.9460000000000001, 0.26, 192.0, 0.0, 0.0, 0.0, 0.0, 0.0, 0.0, 0.0, 0.0, 0.0, 1.700946895776877E9, 0.0, 2023-11-25 16:14:55.776
33.0, 8260.511846603376, 15388.214932467334, -54198.95699011767, -57296.12646056729, -47827.52517789903, -58338.47771149608, -33707.212949658984, -15098.84924874893, -0.124, 0.9460000000000001, 0.26, 192.0, 0.0, 0.0, 0.0, 0.0, 0.0, 0.0, 0.0, 0.0, 0.0, 1.700946895780942E9, 0.0, 2023-11-25 16:14:55.780
34.0, 8398.846793037272, 15414.522935691231, -54194.75486216007, -57302.98844611507, -47604.99121010199, -58247.059076673875, -33725.07199347878, -15121.13393797087, -0.124, 0.9460000000000001, 0.26, 192.0, 0.0, 0.0, 0.0, 0.0, 0.0, 0.0, 0.0, 0.0, 0.0, 1.700946895785063E9, 0.0, 2023-11-25 16:14:55.785
35.0, 8383.3793858742, 15297.399794745423, -54204.79079542051, -57361.08062995442, -47186.298332965176, -58345.63026972178, -33768.255563766426, -15167.737325160186, -0.124, 0.9460000000000001, 0.26, 192.0, 0.0, 0.0, 0.0, 0.0, 0.0, 0.0, 0.0, 0.0, 0.0, 1.700946895788954E9, 0.0, 2023-11-25 16:14:55.788
36.0, 8141.399400401045, 15313.515402497698, -54174.30301598347, -57290.80674538693, -47714.9617928221, -58549.20995822072, -33686.15760638209, -15080.476114806666, -0.124, 0.9460000000000001, 0.26, 192.0, 0.0, 0.0, 0.0, 0.0, 0.0, 0.0, 0.0, 0.0, 0.0, 1.700946895792983E9, 0.0, 2023-11-25 16:14:55.792
37.0, 8239.702372515485, 15388.304339445156, -54173.07367003843, -57274.44526844565, -47849.42988746523, -58362.17056061871, -33686.179958126544, -15081.727812496163, -0.124, 0.9460000000000001, 0.26, 192.0, 0.0, 0.0, 0.0, 0.0, 0.0, 0.0, 0.0, 0.0, 0.0, 1.700946895795992E9, 0.0, 2023-11-25 16:14:55.795
38.0, 8388.453231865553, 15438.01461911376, -54180.82972536442, -57272.254797489026, -47664.46920209756, -58232.1951666111, -33702.29556587882, -15091.98726320115, -0.124, 0.9500000000000001, 0.256, 192.0, 252.0, 32.0, 29.0, 176.0, 8.0, 0.0, 0.0, 0.0, 0.0, 1.700946895801238E9, 0.0, 2023-11-25 16:14:55.801
39.0, 8443.952613348081, 15352.921527972405, -54173.56540841644, -57310.632742718786, -47209.67825766543, -58267.71208855058, -33732.38101391566, -15119.368150158902, -0.124, 0.9500000000000001, 0.256, 192.0, 0.0, 0.0, 0.0, 0.0, 0.0, 0.0, 0.0, 0.0, 0.0, 1.700946895805005E9, 0.0, 2023-11-25 16:14:55.805
40.0, 8187.779270145807, 15327.440539293355, -54162.747164100074, -57265.817495085896, -47587.713311638036, -58493.285893593544, -33667.516251506364, -15047.328477779447, -0.124, 0.9500000000000001, 0.256, 192.0, 0.0, 0.0, 0.0, 0.0, 0.0, 0.0, 0.0, 0.0, 0.0, 1.700946895808954E9, 0.0, 2023-11-25 16:14:55.808
41.0, 8218.870546683138, 15379.542455618675, -54171.10671652636, -57255.9156722922, -47862.9973963496, -58366.260929854034, -33659.64843745809, -15041.74054166562, -0.124, 0.9500000000000001, 0.256, 192.0, 0.0, 0.0, 0.0, 0.0, 0.0, 0.0, 0.0, 0.0, 0.0, 1.700946895813004E9, 0.0, 2023-11-25 16:14:55.813
42.0, 8359.865350707216, 15430.280915532223, -54196.29713252749, -57263.22469272908, -47704.97056305058, -58219.47702401603, -33679.58619351223, -15056.805617428497, -0.124, 0.9500000000000001, 0.256, 192.0, 0.0, 0.0, 0.0, 0.0, 0.0, 0.0, 0.0, 0.0, 0.0, 1.700946895816981E9, 0.0, 2023-11-25 16:14:55.816
43.0, 8442.119770302746, 15351.46866458281, -54196.72181567214, -57310.6774462077, -47260.57317979016, -58226.00373339698, -33715.0584119628, -15098.245751648636, -0.124, 0.9500000000000001, 0.256, 192.0, 0.0, 0.0, 0.0, 0.0, 0.0, 0.0, 0.0, 0.0, 0.0, 1.700946895821044E9, 0.0, 2023-11-25 16:14:55.821
44.0, 8203.090215097693, 15297.422146489876, -54198.264086039555, -57290.33735875337, -47450.11597277117, -58461.345250766906, -33677.865109189166, -15052.804655170996, -0.124, 0.9500000000000001, 0.256, 192.0, 0.0, 0.0, 0.0, 0.0, 0.0, 0.0, 0.0, 0.0, 0.0, 1.700946895824004E9, 0.0, 2023-11-25 16:14:55.824
45.0, 8177.631578163097, 15364.052696711147, -54185.903571355775, -57253.12170423529, -47869.18882956372, -58393.2841889005, -33640.247123270885, -15011.006893039572, -0.124, 0.9500000000000001, 0.256, 192.0, 0.0, 0.0, 0.0, 0.0, 0.0, 0.0, 0.0, 0.0, 0.0, 1.700946895827991E9, 0.0, 2023-11-25 16:14:55.827
46.0, 8316.994704841936, 15415.90874384746, -54219.72176071665, -57272.85829458932, -47731.63619418576, -58223.18741359561, -33668.365617795665, -15036.443178229712, -0.124, 0.9500000000000001, 0.256, 192.0, 0.0, 0.0, 0.0, 0.0, 0.0, 0.0, 0.0, 0.0, 0.0, 1.70094689583304E9, 0.0, 2023-11-25 16:14:55.833
47.0, 8435.414246966153, 15370.04296422517, -54212.23392632412, -57310.141004340774, -47335.764448137816, -58207.47413724353, -33700.7532955114, -15069.970794912673, -0.12, 0.9500000000000001, 0.254, 192.0, 252.0, 64.0, 29.0, 176.0, 7.0, 240.0, 0.0, 0.0, 0.0, 1.700946895838088E9, 0.0, 2023-11-25 16:14:55.838
48.0, 8258.947224491505, 15301.423108747376, -54204.25435355358, -57304.754233927044, -47315.37965719458, -58416.261782200556, -33676.255783588385, -15039.617125942366, -0.12, 0.9500000000000001, 0.254, 192.0, 0.0, 0.0, 0.0, 0.0, 0.0, 0.0, 0.0, 0.0, 0.0, 1.70094689584102E9, 0.0, 2023-11-25 16:14:55.841
49.0, 8150.787133072274, 15346.171301146902, -54188.25050452358, -57264.766963096496, -47844.624262407335, -58439.8428726009, -33636.44732671348, -14998.556971377966, -0.12, 0.9500000000000001, 0.254, 192.0, 0.0, 0.0, 0.0, 0.0, 0.0, 0.0, 0.0, 0.0, 0.0, 1.700946895845083E9, 0.0, 2023-11-25 16:14:55.845
50.0, 8297.280466232356, 15405.872810587027, -54212.815071679965, -57278.28976849196, -47730.63036568527, -58248.48958831902, -33660.318989791755, -15024.529698435033, -0.12, 0.9500000000000001, 0.254, 192.0, 0.0, 0.0, 0.0, 0.0, 0.0, 0.0, 0.0, 0.0, 0.0, 1.700946895849078E9, 0.0, 2023-11-25 16:14:55.849
51.0, 8427.725246873528, 15385.175095221413, -54207.92003964425, -57309.515155496025, -47400.495100080385, -58202.06501508535, -33691.09734190671, -15060.985393641638, -0.12, 0.9500000000000001, 0.254, 192.0, 0.0, 0.0, 0.0, 0.0, 0.0, 0.0, 0.0, 0.0, 0.0, 1.700946895852058E9, 0.0, 2023-11-25 16:14:55.852
52.0, 8304.008341313403, 15294.248198777224, -54203.40498726428, -57327.91064118274, -47211.66756292195, -58383.807049251445, -33697.8028652433, -15069.590815256932, -0.12, 0.9500000000000001, 0.254, 192.0, 0.0, 0.0, 0.0, 0.0, 0.0, 0.0, 0.0, 0.0, 0.0, 1.700946895856159E9, 0.0, 2023-11-25 16:14:55.856
53.0, 8131.4305223739775, 15333.900193440939, -54178.8851235968, -57267.24800673104, -47808.59325034538, -58481.86415217688, -33644.22573378393, -15012.705625618175, -0.12, 0.9500000000000001, 0.254, 192.0, 0.0, 0.0, 0.0, 0.0, 0.0, 0.0, 0.0, 0.0, 0.0, 1.700946895861125E9, 0.0, 2023-11-25 16:14:55.861
54.0, 8274.682852588041, 15409.538496677698, -54185.1883155332, -57259.33548919386, -47743.52732223598, -58270.260187418484, -33661.213059569964, -15030.944649093706, -0.12, 0.9500000000000001, 0.254, 192.0, 0.0, 0.0, 0.0, 0.0, 0.0, 0.0, 0.0, 0.0, 0.0, 1.700946895865115E9, 0.0, 2023-11-25 16:14:55.865
55.0, 8429.580441663318, 15426.995209097293, -54170.41381244824, -57266.55510265292, -47465.96335958998, -58183.5354189319, -33684.45887380349, -15059.241957574126, -0.12, 0.9500000000000001, 0.254, 192.0, 0.0, 0.0, 0.0, 0.0, 0.0, 0.0, 0.0, 0.0, 0.0, 1.700946895869164E9, 0.0, 2023-11-25 16:14:55.869
56.0, 8372.114106668723, 15316.197611832335, -54178.92982708572, -57316.53360325499, -47129.01081192623, -58326.85480437933, -33721.45101087702, -15104.213667418202, -0.12, 0.9500000000000001, 0.254, 192.0, 0.0, 0.0, 0.0, 0.0, 0.0, 0.0, 0.0, 0.0, 0.0, 1.700946895873186E9, 0.0, 2023-11-25 16:14:55.873
57.0, 8143.276946935291, 15337.565879531609, -54159.50616115405, -57259.447247916134, -47727.21054878361, -58503.25477162061, -33658.508498490875, -15037.381951496835, -0.122, 0.9460000000000001, 0.256, 192.0, 252.0, 48.0, 29.0, 144.0, 8.0, 0.0, 0.0, 0.0, 0.0, 1.700946895876125E9, 0.0, 2023-11-25 16:14:55.876
58.0, 8249.91711973156, 15390.360699935043, -54185.09890855538, -57273.68530913417, -47758.435935787675, -58309.4651471931, -33686.179958126544, -15066.975661155662, -0.122, 0.9460000000000001, 0.256, 192.0, 0.0, 0.0, 0.0, 0.0, 0.0, 0.0, 0.0, 0.0, 0.0, 1.700946895880114E9, 0.0, 2023-11-25 16:14:55.880
59.0, 8399.539697115386, 15430.52678472123, -54182.10377479837, -57274.691137634654, -47541.40049712664, -58207.205916310064, -33700.82035074477, -15080.207893873203, -0.122, 0.9460000000000001, 0.256, 192.0, 0.0, 0.0, 0.0, 0.0, 0.0, 0.0, 0.0, 0.0, 0.0, 1.70094689588413E9, 0.0, 2023-11-25 16:14:55.884
60.0, 8413.040150766392, 15338.437597565366, -54176.85111485137, -57313.58317298689, -47126.440361313864, -58289.61679811678, -33726.0107667459, -15106.22532441918, -0.122, 0.9460000000000001, 0.256, 192.0, 0.0, 0.0, 0.0, 0.0, 0.0, 0.0, 0.0, 0.0, 0.0, 1.700946895888177E9, 0.0, 2023-11-25 16:14:55.888
61.0, 8161.046583777259, 15342.147987144946, -54160.26612046554, -57256.78739032595, -47635.52369302794, -58498.113870395886, -33654.77575716683, -15028.932992092728, -0.122, 0.9460000000000001, 0.256, 192.0, 0.0, 0.0, 0.0, 0.0, 0.0, 0.0, 0.0, 0.0, 0.0, 1.700946895893153E9, 0.0, 2023-11-25 16:14:55.893
62.0, 8232.05807591177, 15392.841743569583, -54182.93078934322, -57262.531788650966, -47789.86248849183, -58328.03944683546, -33673.77473995385, -15046.724980679153, -0.122, 0.9460000000000001, 0.256, 192.0, 0.0, 0.0, 0.0, 0.0, 0.0, 0.0, 0.0, 0.0, 0.0, 1.700946895897222E9, 0.0, 2023-11-25 16:14:55.897
63.0, 8376.383289859688, 15445.345991295098, -54190.95506560267, -57257.94968103763, -47605.41589324664, -58194.30895975936, -33687.789283727325, -15051.530605737044, -0.122, 0.9460000000000001, 0.256, 192.0, 0.0, 0.0, 0.0, 0.0, 0.0, 0.0, 0.0, 0.0, 0.0, 1.700946895901199E9, 0.0, 2023-11-25 16:14:55.901
64.0, 8432.57557542033, 15352.362734361022, -54189.68101616872, -57307.905829895244, -47154.44709711637, -58233.13393987822, -33725.31786266778, -15090.422641089279, -0.122, 0.9460000000000001, 0.256, 192.0, 0.0, 0.0, 0.0, 0.0, 0.0, 0.0, 0.0, 0.0, 0.0, 1.700946895904234E9, 0.0, 2023-11-25 16:14:55.904
65.0, 8178.011557818838, 15324.087777625058, -54173.185428760706, -57265.415163685706, -47507.98463916596, -58468.00607061459, -33661.34717003669, -15018.293561732002, -0.122, 0.9460000000000001, 0.256, 192.0, 0.0, 0.0, 0.0, 0.0, 0.0, 0.0, 0.0, 0.0, 0.0, 1.700946895908243E9, 0.0, 2023-11-25 16:14:55.908
66.0, 8203.738415686896, 15384.124563232013, -54171.95608281566, -57249.79129431144, -47809.44261663468, -58344.73619994357, -33650.55127746478, -15004.368424936347, -0.122, 0.9460000000000001, 0.256, 192.0, 0.0, 0.0, 0.0, 0.0, 0.0, 0.0, 0.0, 0.0, 0.0, 1.70094689591222E9, 0.0, 2023-11-25 16:14:55.912
67.0, 8342.587452243264, 15436.114720835058, -54197.52647847253, -57265.03518402996, -47642.162161131164, -58193.70546265906, -33671.919545164055, -15026.340189735913, -0.126, 0.9460000000000001, 0.26, 192.0, 252.0, 16.0, 29.0, 144.0, 8.0, 32.0, 0.0, 0.0, 0.0, 1.7009468959162E9, 0.0, 2023-11-25 16:14:55.916
68.0, 8437.649421411685, 15365.907891500938, -54193.63727493731, -57315.97480964361, -47210.43821697691, -58202.13207031871, -33707.078839192254, -15066.372164055369, -0.126, 0.9460000000000001, 0.26, 192.0, 0.0, 0.0, 0.0, 0.0, 0.0, 0.0, 0.0, 0.0, 0.0, 1.700946895921216E9, 0.0, 2023-11-25 16:14:55.921
69.0, 8214.467253025443, 15317.426957777378, -54185.85886786686, -57294.2265622886, -47383.61953301663, -58445.34140173691, -33666.24220207241, -15020.327570477435, -0.126, 0.9460000000000001, 0.26, 192.0, 0.0, 0.0, 0.0, 0.0, 0.0, 0.0, 0.0, 0.0, 0.0, 1.700946895925246E9, 0.0, 2023-11-25 16:14:55.925
70.0, 8174.122354283614, 15374.669775327418, -54179.26510325255, -57263.42585842918, -47835.392991947294, -58394.9829214791, -33636.11205054665, -14992.365538163845, -0.126, 0.9460000000000001, 0.26, 192.0, 0.0, 0.0, 0.0, 0.0, 0.0, 0.0, 0.0, 0.0, 0.0, 1.700946895929308E9, 0.0, 2023-11-25 16:14:55.929
71.0, 8314.02192282938, 15421.38492123901, -54220.12409211685, -57285.889361606765, -47694.19702222312, -58220.1922798386, -33673.171242853554, -15033.582154939433, -0.126, 0.9460000000000001, 0.26, 192.0, 0.0, 0.0, 0.0, 0.0, 0.0, 0.0, 0.0, 0.0, 0.0, 1.700946895932266E9, 0.0, 2023-11-25 16:14:55.932
72.0, 8440.666906913151, 15387.85730455605, -54208.32237104444, -57313.53846949798, -47315.96080255041, -58197.10292781627, -33704.62014730217, -15066.998012900116, -0.126, 0.9460000000000001, 0.26, 192.0, 0.0, 0.0, 0.0, 0.0, 0.0, 0.0, 0.0, 0.0, 0.0, 1.700946895936321E9, 0.0, 2023-11-25 16:14:55.936
73.0, 8281.611893369185, 15320.64560897894, -54195.291304027, -57306.45296650565, -47277.940485231935, -58400.101470959366, -33681.642554002116, -15041.06998933196, -0.126, 0.9460000000000001, 0.26, 192.0, 0.0, 0.0, 0.0, 0.0, 0.0, 0.0, 0.0, 0.0, 0.0, 1.700946895940272E9, 0.0, 2023-11-25 16:14:55.940
74.0, 8158.587891887176, 15360.007030964736, -54186.931751600714, -57268.65616663172, -47839.28219548252, -58439.21702375615, -33646.393852996094, -15001.082718501417, -0.126, 0.9460000000000001, 0.26, 192.0, 0.0, 0.0, 0.0, 0.0, 0.0, 0.0, 0.0, 0.0, 0.0, 1.700946895944257E9, 0.0, 2023-11-25 16:14:55.944
75.0, 8314.066626318292, 15428.135148064513, -54199.85105989588, -57268.834980587366, -47724.461284215606, -58228.06009388687, -33669.03617012932, -15021.422805955746, -0.126, 0.9460000000000001, 0.26, 192.0, 0.0, 0.0, 0.0, 0.0, 0.0, 0.0, 0.0, 0.0, 0.0, 1.700946895949418E9, 0.0, 2023-11-25 16:14:55.949
76.0, 8449.160569806167, 15409.694958888884, -54191.11152781386, -57296.931123367685, -47392.7837482433, -58173.36537520473, -33699.255728632896, -15059.443123274223, -0.126, 0.9460000000000001, 0.26, 192.0, 0.0, 0.0, 0.0, 0.0, 0.0, 0.0, 0.0, 0.0, 0.0, 1.700946895953311E9, 0.0, 2023-11-25 16:14:55.953
77.0, 8328.617611958696, 15310.564972229598, -54183.06489980995, -57324.53552776999, -47171.16620196894, -58349.69828721265, -33703.34609786822, -15073.435315303244, -0.126, 0.9400000000000001, 0.262, 192.0, 252.0, 16.0, 29.0, 96.0, 8.0, 48.0, 0.0, 0.0, 0.0, 1.700946895957318E9, 0.0, 2023-11-25 16:14:55.957
78.0, 8134.000972986338, 15339.957516188326, -54158.075649508915, -57274.422916701194, -47778.574857541906, -58468.14018108132, -33646.88559137411, -15016.326608219935, -0.126, 0.9400000000000001, 0.262, 192.0, 0.0, 0.0, 0.0, 0.0, 0.0, 0.0, 0.0, 0.0, 0.0, 1.700946895960365E9, 0.0, 2023-11-25 16:14:55.960
79.0, 8260.400087881098, 15387.074993500113, -54186.70823415616, -57294.561838455425, -47731.099752318834, -58264.58284432684, -33681.86607144667, -15050.703591192198, -0.126, 0.9400000000000001, 0.262, 192.0, 0.0, 0.0, 0.0, 0.0, 0.0, 0.0, 0.0, 0.0, 0.0, 1.700946895964345E9, 0.0, 2023-11-25 16:14:55.964
80.0, 8396.544563358375, 15392.685281358396, -54187.356434745365, -57309.448100262656, -47468.89143811363, -58184.31772998783, -33707.97290897046, -15082.353661340912, -0.126, 0.9400000000000001, 0.262, 192.0, 0.0, 0.0, 0.0, 0.0, 0.0, 0.0, 0.0, 0.0, 0.0, 1.700946895968314E9, 0.0, 2023-11-25 16:14:55.968
81.0, 8364.045126920359, 15304.55235297112, -54168.31274846945, -57323.552051013954, -47122.48410254528, -58298.9598272991, -33719.5064091094, -15097.306978381514, -0.126, 0.9400000000000001, 0.262, 192.0, 0.0, 0.0, 0.0, 0.0, 0.0, 0.0, 0.0, 0.0, 0.0, 1.700946895972384E9, 0.0, 2023-11-25 16:14:55.972
82.0, 8129.240051417358, 15316.242315321246, -54152.063030250436, -57267.56093115341, -47706.691647373635, -58475.91858815177, -33655.222792055945, -15032.151643294294, -0.126, 0.9400000000000001, 0.262, 192.0, 0.0, 0.0, 0.0, 0.0, 0.0, 0.0, 0.0, 0.0, 0.0, 1.700946895976368E9, 0.0, 2023-11-25 16:14:55.976
83.0, 8242.004602194382, 15383.744583576274, -54162.72481235562, -57264.65520437422, -47760.4252410442, -58274.01528048698, -33659.693140947005, -15049.697762691709, -0.126, 0.9400000000000001, 0.262, 192.0, 0.0, 0.0, 0.0, 0.0, 0.0, 0.0, 0.0, 0.0, 0.0, 1.700946895981359E9, 0.0, 2023-11-25 16:14:55.981
84.0, 8384.385214374688, 15414.232363013312, -54175.4876584396, -57278.557989425426, -47536.59487206875, -58159.64140410917, -33680.033228401335, -15078.576216527967, -0.126, 0.9400000000000001, 0.262, 192.0, 0.0, 0.0, 0.0, 0.0, 0.0, 0.0, 0.0, 0.0, 0.0, 1.70094689598444E9, 0.0, 2023-11-25 16:14:55.984
85.0, 8382.530019584898, 15297.578608701064, -54192.76555690355, -57341.76872274503, -47114.437474541366, -58253.09404767681, -33730.97285401498, -15127.124205484894, -0.126, 0.9400000000000001, 0.262, 192.0, 0.0, 0.0, 0.0, 0.0, 0.0, 0.0, 0.0, 0.0, 0.0, 1.700946895988469E9, 0.0, 2023-11-25 16:14:55.988
86.0, 8119.002952456827, 15290.224884775269, -54176.09115553989, -57288.03512907447, -47616.68117245212, -58485.84276268992, -33662.80003342629, -15051.642364459321, -0.126, 0.9400000000000001, 0.262, 192.0, 0.0, 0.0, 0.0, 0.0, 0.0, 0.0, 0.0, 0.0, 0.0, 1.700946895992454E9, 0.0, 2023-11-25 16:14:55.992
87.0, 8208.097005855681, 15368.724211302306, -54165.47407692362, -57265.59397764134, -47796.90328799526, -58308.45931869261, -33647.22086754094, -15037.672524174754, -0.114, 0.936, 0.264, 192.0, 252.0, 112.0, 29.0, 64.0, 8.0, 64.0, 0.0, 0.0, 0.0, 1.700946895996489E9, 0.0, 2023-11-25 16:14:55.996
88.0, 8349.628251746684, 15408.264447243744, -54187.57995218992, -57284.30238775044, -47603.91832636813, -58171.95721530405, -33665.81751892776, -15057.900852906807, -0.114, 0.936, 0.264, 192.0, 0.0, 0.0, 0.0, 0.0, 0.0, 0.0, 0.0, 0.0, 0.0, 1.700946896000425E9, 0.0, 2023-11-25 16:14:56.000
89.0, 8409.910906542647, 15320.22092583429, -54187.24467602309, -57337.56659478744, -47164.77360305472, -58223.76855895145, -33702.42967634555, -15100.503277838621, -0.114, 0.936, 0.264, 192.0, 0.0, 0.0, 0.0, 0.0, 0.0, 0.0, 0.0, 0.0, 0.0, 1.700946896004444E9, 0.0, 2023-11-25 16:14:56.004
90.0, 8169.182618758991, 15301.736033169751, -54169.5867979034, -57293.377195999296, -47500.58621175125, -58464.65330894629, -33637.20728602496, -15027.569535680956, -0.114, 0.936, 0.264, 192.0, 0.0, 0.0, 0.0, 0.0, 0.0, 0.0, 0.0, 0.0, 0.0, 1.700946896009705E9, 0.0, 2023-11-25 16:14:56.009
91.0, 8190.908514369549, 15359.202368164346, -54176.09115553989, -57280.793163870956, -47828.57570988843, -58352.53695875847, -33625.67378588603, -15017.220677998148, -0.114, 0.936, 0.264, 192.0, 0.0, 0.0, 0.0, 0.0, 0.0, 0.0, 0.0, 0.0, 0.0, 1.700946896012474E9, 0.0, 2023-11-25 16:14:56.012
92.0, 8323.253193289424, 15403.704691374862, -54211.4963187571, -57298.24987629055, -47658.613045050275, -58196.67824467162, -33654.731053677926, -15046.613221956877, -0.114, 0.936, 0.264, 192.0, 0.0, 0.0, 0.0, 0.0, 0.0, 0.0, 0.0, 0.0, 0.0, 1.700946896016443E9, 0.0, 2023-11-25 16:14:56.016
93.0, 8411.587287376797, 15331.106225384025, -54212.41274027977, -57342.8863099678, -47238.042621379216, -58203.584933708305, -33697.46758907647, -15090.869675978385, -0.114, 0.936, 0.264, 192.0, 0.0, 0.0, 0.0, 0.0, 0.0, 0.0, 0.0, 0.0, 0.0, 1.700946896020676E9, 0.0, 2023-11-25 16:14:56.020
94.0, 8198.418700506532, 15271.136495010436, -54211.0939873569, -57326.05544639295, -47373.941227667485, -58447.62127967135, -33671.47251027495, -15057.610280228888, -0.114, 0.936, 0.264, 192.0, 0.0, 0.0, 0.0, 0.0, 0.0, 0.0, 0.0, 0.0, 0.0, 1.700946896025487E9, 0.0, 2023-11-25 16:14:56.025
95.0, 8147.032040003782, 15339.286963854667, -54197.66058893927, -57283.81064937242, -47847.082954297424, -58417.22290721213, -33641.1411930491, -15022.249820500592, -0.114, 0.936, 0.264, 192.0, 0.0, 0.0, 0.0, 0.0, 0.0, 0.0, 0.0, 0.0, 0.0, 1.70094689602951E9, 0.0, 2023-11-25 16:14:56.029
96.0, 8307.696379148529, 15411.10311878957, -54218.82769093844, -57286.71637615161, -47692.56534487788, -58222.53921300641, -33668.52208000685, -15046.322649278958, -0.114, 0.936, 0.264, 192.0, 0.0, 0.0, 0.0, 0.0, 0.0, 0.0, 0.0, 0.0, 0.0, 1.700946896032595E9, 0.0, 2023-11-25 16:14:56.032
97.0, 8430.474511441531, 15372.054621226147, -54215.87726067034, -57322.34505681337, -47319.38061945208, -58198.77930865042, -33711.16920842758, -15091.048489934026, -0.10400000000000001, 0.9480000000000001, 0.264, 192.0, 252.0, 192.0, 29.0, 160.0, 8.0, 64.0, 0.0, 0.0, 0.0, 1.700946896037588E9, 0.0, 2023-11-25 16:14:56.037
98.0, 8268.804343796295, 15297.623312189975, -54209.05997861147, -57321.09335912387, -47251.72188898586, -58404.16948845023, -33703.457856590496, -15078.866789205884, -0.10400000000000001, 0.9480000000000001, 0.264, 192.0, 0.0, 0.0, 0.0, 0.0, 0.0, 0.0, 0.0, 0.0, 0.0, 1.70094689604059E9, 0.0, 2023-11-25 16:14:56.040
99.0, 8141.868787034606, 15346.171301146902, -54190.373920246835, -57270.62312014379, -47821.75842782956, -58449.78939888351, -33655.625123456135, -15027.100149047394, -0.10400000000000001, 0.9480000000000001, 0.264, 192.0, 0.0, 0.0, 0.0, 0.0, 0.0, 0.0, 0.0, 0.0, 0.0, 1.700946896044143E9, 0.0, 2023-11-25 16:14:56.044
100.0, 8281.567189880276, 15408.689130388395, -54215.40787403678, -57280.94962608214, -47708.6138973968, -58241.29232660441, -33685.21883311497, -15054.056352860494, -0.10400000000000001, 0.9480000000000001, 0.264, 192.0, 0.0, 0.0, 0.0, 0.0, 0.0, 0.0, 0.0, 0.0, 0.0, 1.700946896048517E9, 0.0, 2023-11-25 16:14:56.048
101.0, 8413.487185655498, 15397.580313394108, -54206.69069369921, -57302.608466459336, -47395.62241978913, -58178.17100026262, -33713.73965903994, -15084.410021830801, -0.10400000000000001, 0.9480000000000001, 0.264, 192.0, 0.0, 0.0, 0.0, 0.0, 0.0, 0.0, 0.0, 0.0, 0.0, 1.700946896052566E9, 0.0, 2023-11-25 16:14:56.052
102.0, 8312.904335606616, 15303.099489581526, -54194.26312378206, -57318.56761200042, -47159.00685298525, -58345.138531343764, -33709.604586315705, -15083.091268907938, -0.10400000000000001, 0.9480000000000001, 0.264, 192.0, 0.0, 0.0, 0.0, 0.0, 0.0, 0.0, 0.0, 0.0, 0.0, 1.700946896056572E9, 0.0, 2023-11-25 16:14:56.056
103.0, 8131.564632840709, 15353.94970821735, -54148.486751137585, -57237.87781451677, -47771.60111327185, -58452.113980306865, -33625.293806230286, -14994.913637031752, -0.10400000000000001, 0.9480000000000001, 0.264, 192.0, 0.0, 0.0, 0.0, 0.0, 0.0, 0.0, 0.0, 0.0, 0.0, 1.700946896060582E9, 0.0, 2023-11-25 16:14:56.060
104.0, 8260.511846603376, 15404.397595452976, -54183.62369342133, -57259.00021302703, -47724.595394682336, -58239.034800414425, -33671.159585852576, -15038.03015208604, -0.10400000000000001, 0.9480000000000001, 0.264, 192.0, 0.0, 0.0, 0.0, 0.0, 0.0, 0.0, 0.0, 0.0, 0.0, 1.700946896065621E9, 0.0, 2023-11-25 16:14:56.065
105.0, 8407.407511163654, 15427.598706197585, -54178.0357573075, -57266.599806141836, -47467.37151949066, -58150.16426446012, -33688.25867036088, -15056.716210450675, -0.10400000000000001, 0.9480000000000001, 0.264, 192.0, 0.0, 0.0, 0.0, 0.0, 0.0, 0.0, 0.0, 0.0, 0.0, 1.700946896068609E9, 0.0, 2023-11-25 16:14:56.068
106.0, 8372.18116190209, 15326.099434626036, -54168.04452753598, -57298.898076879756, -47109.810663439115, -58267.622681572764, -33703.63667054614, -15078.330347338957, -0.10400000000000001, 0.9480000000000001, 0.264, 192.0, 0.0, 0.0, 0.0, 0.0, 0.0, 0.0, 0.0, 0.0, 0.0, 1.700946896071607E9, 0.0, 2023-11-25 16:14:56.071
107.0, 8124.814406015206, 15333.050827151637, -54144.61989934682, -57240.291802917935, -47682.1047284728, -58451.57753843994, -33631.52994293332, -14999.294578944991, -0.106, 0.9480000000000001, 0.264, 192.0, 252.0, 176.0, 29.0, 160.0, 8.0, 64.0, 0.0, 0.0, 0.0, 1.700946896076621E9, 0.0, 2023-11-25 16:14:56.076
108.0, 8237.936584703515, 15398.899066316972, -54149.73844882708, -57237.94486975013, -47738.47582798908, -58244.33216385033, -33645.29861751779, -15011.051596528483, -0.106, 0.9480000000000001, 0.264, 192.0, 0.0, 0.0, 0.0, 0.0, 0.0, 0.0, 0.0, 0.0, 0.0, 1.700946896080648E9, 0.0, 2023-11-25 16:14:56.080
109.0, 8382.105336440247, 15433.968953367348, -54158.79090533149, -57253.50168389102, -47513.57257527979, -58125.53264207037, -33668.835004429224, -15032.732788650132, -0.106, 0.9480000000000001, 0.264, 192.0, 0.0, 0.0, 0.0, 0.0, 0.0, 0.0, 0.0, 0.0, 0.0, 1.70094689608462E9, 0.0, 2023-11-25 16:14:56.084
110.0, 8404.010046006448, 15344.204347634835, -54149.470227893624, -57302.85433564834, -47087.66008468391, -58208.65877969966, -33689.42096107256, -15060.627765730354, -0.106, 0.9480000000000001, 0.264, 192.0, 0.0, 0.0, 0.0, 0.0, 0.0, 0.0, 0.0, 0.0, 0.0, 1.700946896088894E9, 0.0, 2023-11-25 16:14:56.088
111.0, 8154.609281374131, 15336.492995797755, -54127.029076460494, -57261.86123631731, -47555.616206600214, -58435.57368940994, -33611.12280024562, -14983.067212470438, -0.106, 0.9480000000000001, 0.264, 192.0, 0.0, 0.0, 0.0, 0.0, 0.0, 0.0, 0.0, 0.0, 0.0, 1.700946896092655E9, 0.0, 2023-11-25 16:14:56.092
112.0, 8211.159194846057, 15388.393746422977, -54144.642251091274, -57273.52884692298, -47764.35914806833, -58288.14158298273, -33622.99157655139, -14996.522962632533, -0.106, 0.9480000000000001, 0.264, 192.0, 0.0, 0.0, 0.0, 0.0, 0.0, 0.0, 0.0, 0.0, 0.0, 1.700946896096664E9, 0.0, 2023-11-25 16:14:56.096
113.0, 8351.483446536475, 15438.618116214051, -54166.21168449065, -57286.783431384974, -47573.944637053566, -58155.975718018504, -33650.30540827577, -15018.941762321207, -0.106, 0.9480000000000001, 0.264, 192.0, 0.0, 0.0, 0.0, 0.0, 0.0, 0.0, 0.0, 0.0, 0.0, 1.700946896099664E9, 0.0, 2023-11-25 16:14:56.099
114.0, 8417.935182802103, 15358.84474025306, -54164.7364693566, -57336.04667616447, -47133.861140473025, -58201.75209066297, -33689.01862967237, -15065.36633555488, -0.106, 0.9480000000000001, 0.264, 192.0, 0.0, 0.0, 0.0, 0.0, 0.0, 0.0, 0.0, 0.0, 0.0, 1.700946896103634E9, 0.0, 2023-11-25 16:14:56.103
115.0, 8174.1670577725245, 15326.948800915337, -54158.74620184257, -57302.586114714875, -47432.77101907385, -58453.70095416319, -33641.81174538276, -15012.772680851542, -0.106, 0.9480000000000001, 0.264, 192.0, 0.0, 0.0, 0.0, 0.0, 0.0, 0.0, 0.0, 0.0, 0.0, 1.700946896108677E9, 0.0, 2023-11-25 16:14:56.108
116.0, 8178.23507526339, 15384.99628126577, -54166.34579495738, -57286.38109998478, -47790.06365419193, -58363.37755481929, -33637.3413964917, -15003.362596435858, -0.106, 0.9480000000000001, 0.264, 192.0, 0.0, 0.0, 0.0, 0.0, 0.0, 0.0, 0.0, 0.0, 0.0, 1.700946896112695E9, 0.0, 2023-11-25 16:14:56.112
117.0, 8324.88487063466, 15439.400427269988, -54195.53717321601, -57298.29457977946, -47622.91730915515, -58202.91438137465, -33669.17028059605, -15038.007800341584, -0.114, 0.9480000000000001, 0.266, 192.0, 252.0, 112.0, 29.0, 160.0, 8.0, 80.0, 0.0, 0.0, 0.0, 1.700946896116706E9, 0.0, 2023-11-25 16:14:56.116
118.0, 8439.035229567913, 15389.310167945645, -54180.67326315323, -57327.79888246046, -47218.596603703096, -58206.4906604875, -33700.373315855664, -15080.185542128747, -0.114, 0.9480000000000001, 0.266, 192.0, 0.0, 0.0, 0.0, 0.0, 0.0, 0.0, 0.0, 0.0, 0.0, 1.70094689612095E9, 0.0, 2023-11-25 16:14:56.120
119.0, 8231.521634044842, 15326.390007303955, -54180.9861875756, -57317.53943175548, -47322.129884020076, -58444.80495986998, -33683.453045302995, -15060.918338408273, -0.114, 0.9480000000000001, 0.266, 192.0, 0.0, 0.0, 0.0, 0.0, 0.0, 0.0, 0.0, 0.0, 0.0, 1.70094689612476E9, 0.0, 2023-11-25 16:14:56.124
120.0, 8162.387688444578, 15383.074031242613, -54171.777268860016, -57276.94866382464, -47824.485340653104, -58433.60673589787, -33659.536678735814, -15029.514137448567, -0.114, 0.9480000000000001, 0.266, 192.0, 0.0, 0.0, 0.0, 0.0, 0.0, 0.0, 0.0, 0.0, 0.0, 1.700946896127729E9, 0.0, 2023-11-25 16:14:56.127
121.0, 8311.205603028013, 15449.704581463884, -54195.961856360664, -57280.30142549294, -47671.17472543415, -58234.0950648898, -33688.32572559425, -15059.309012807491, -0.114, 0.9480000000000001, 0.266, 192.0, 0.0, 0.0, 0.0, 0.0, 0.0, 0.0, 0.0, 0.0, 0.0, 1.700946896131739E9, 0.0, 2023-11-25 16:14:56.131
122.0, 8428.57461316283, 15410.76784262274, -54193.525516215035, -57308.9787136291, -47304.851985556124, -58196.65589292716, -33728.64827259163, -15103.878391251374, -0.114, 0.9480000000000001, 0.266, 192.0, 0.0, 0.0, 0.0, 0.0, 0.0, 0.0, 0.0, 0.0, 0.0, 1.700946896136784E9, 0.0, 2023-11-25 16:14:56.136
123.0, 8276.940378778027, 15323.819556691595, -54188.74224290159, -57314.43253927619, -47212.96396410036, -58404.6835785727, -33724.89317952313, -15095.854114991918, -0.114, 0.9480000000000001, 0.266, 192.0, 0.0, 0.0, 0.0, 0.0, 0.0, 0.0, 0.0, 0.0, 0.0, 1.700946896140798E9, 0.0, 2023-11-25 16:14:56.140
124.0, 8138.583080599676, 15373.105153215547, -54159.52851289851, -57254.57456762488, -47809.91200326825, -58462.01580310056, -33666.33160905023, -15031.92812584974, -0.114, 0.9480000000000001, 0.266, 192.0, 0.0, 0.0, 0.0, 0.0, 0.0, 0.0, 0.0, 0.0, 0.0, 1.700946896144772E9, 0.0, 2023-11-25 16:14:56.144
125.0, 8285.992835282426, 15436.628810957529, -54178.706309641166, -57259.96133803861, -47707.13868226275, -58236.777274224434, -33690.918527951064, -15052.156454581793, -0.114, 0.9480000000000001, 0.266, 192.0, 0.0, 0.0, 0.0, 0.0, 0.0, 0.0, 0.0, 0.0, 0.0, 1.700946896148793E9, 0.0, 2023-11-25 16:14:56.148
126.0, 8411.922563543625, 15420.982589838815, -54184.83068762192, -57290.29265526446, -47396.56119305625, -58170.571407147814, -33721.94274925503, -15087.539266054544, -0.114, 0.9480000000000001, 0.266, 192.0, 0.0, 0.0, 0.0, 0.0, 0.0, 0.0, 0.0, 0.0, 0.0, 1.70094689615187E9, 0.0, 2023-11-25 16:14:56.151
127.0, 8337.60301322973, 15335.107187641524, -54168.29039672499, -57302.56376297042, -47137.86210273053, -58324.77609214498, -33712.55501658381, -15083.203027630214, -0.124, 0.9420000000000001, 0.264, 192.0, 252.0, 32.0, 29.0, 112.0, 8.0, 64.0, 0.0, 0.0, 0.0, 1.700946896155839E9, 0.0, 2023-11-25 16:14:56.155
128.0, 8137.510196865821, 15374.580368349598, -54135.18746318668, -57232.245174914024, -47759.35235731034, -58452.91864310726, -33629.831210354714, -14998.892247544796, -0.124, 0.9420000000000001, 0.264, 192.0, 0.0, 0.0, 0.0, 0.0, 0.0, 0.0, 0.0, 0.0, 0.0, 1.700946896159829E9, 0.0, 2023-11-25 16:14:56.159
129.0, 8255.885035501127, 15419.82029912714, -54166.2340362351, -57253.99342226904, -47730.27273777399, -58237.358419580276, -33663.78351018232, -15036.286716018525, -0.124, 0.9420000000000001, 0.264, 192.0, 0.0, 0.0, 0.0, 0.0, 0.0, 0.0, 0.0, 0.0, 0.0, 1.700946896164891E9, 0.0, 2023-11-25 16:14:56.164
130.0, 8385.502801597453, 15431.95729636637, -54175.01827180604, -57274.71348937911, -47476.87101088417, -58152.51119762793, -33686.22466161545, -15062.751181453608, -0.124, 0.9420000000000001, 0.264, 192.0, 0.0, 0.0, 0.0, 0.0, 0.0, 0.0, 0.0, 0.0, 0.0, 1.700946896168891E9, 0.0, 2023-11-25 16:14:56.168
131.0, 8372.98582470248, 15339.13050164348, -54160.62374837682, -57307.3246845394, -47102.38988427995, -58268.89673100672, -33697.06525767628, -15076.721021738174, -0.124, 0.9420000000000001, 0.264, 192.0, 0.0, 0.0, 0.0, 0.0, 0.0, 0.0, 0.0, 0.0, 0.0, 1.700946896173027E9, 0.0, 2023-11-25 16:14:56.173
132.0, 8146.89792953705, 15363.315089144122, -54124.3245153814, -57237.8107592834, -47663.709242786084, -58458.61833794336, -33609.89345430058, -14982.754288048065, -0.124, 0.9420000000000001, 0.264, 192.0, 0.0, 0.0, 0.0, 0.0, 0.0, 0.0, 0.0, 0.0, 0.0, 1.700946896176936E9, 0.0, 2023-11-25 16:14:56.176
133.0, 8240.149407404591, 15406.990397809792, -54150.25253894956, -57261.280090961474, -47750.45636301713, -58273.12121070876, -33638.168411036546, -15011.520983162045, -0.124, 0.9420000000000001, 0.264, 192.0, 0.0, 0.0, 0.0, 0.0, 0.0, 0.0, 0.0, 0.0, 0.0, 1.700946896180006E9, 0.0, 2023-11-25 16:14:56.180
134.0, 8382.261798651434, 15444.362514539065, -54161.94250129968, -57274.62408240129, -47543.99329948346, -58157.80856106384, -33654.66399844456, -15028.128329292338, -0.124, 0.9420000000000001, 0.264, 192.0, 0.0, 0.0, 0.0, 0.0, 0.0, 0.0, 0.0, 0.0, 0.0, 1.700946896183894E9, 0.0, 2023-11-25 16:14:56.183
135.0, 8420.751502603473, 15353.793246006162, -54157.82978031991, -57321.2274695906, -47119.64543099945, -58229.28943983191, -33686.8505104602, -15066.640384988832, -0.124, 0.9420000000000001, 0.264, 192.0, 0.0, 0.0, 0.0, 0.0, 0.0, 0.0, 0.0, 0.0, 0.0, 1.700946896187896E9, 0.0, 2023-11-25 16:14:56.187
136.0, 8162.544150655765, 15338.638763265464, -54147.235053448094, -57277.03807080246, -47559.125430479704, -58473.437544517226, -33624.15386726306, -15003.653169113777, -0.124, 0.9420000000000001, 0.264, 192.0, 0.0, 0.0, 0.0, 0.0, 0.0, 0.0, 0.0, 0.0, 0.0, 1.700946896191917E9, 0.0, 2023-11-25 16:14:56.191
137.0, 8204.34191278719, 15389.71249934584, -54167.53043741351, -57279.07207954789, -47790.82361350342, -58334.74497017205, -33636.71554764695, -15019.411148954769, -0.114, 0.9420000000000001, 0.266, 192.0, 252.0, 112.0, 29.0, 112.0, 8.0, 80.0, 0.0, 0.0, 0.0, 1.700946896196908E9, 0.0, 2023-11-25 16:14:56.196
138.0, 8342.386286543166, 15445.569508739653, -54190.217458035644, -57284.59296042836, -47603.60540194576, -58191.58204693581, -33667.695065462, -15046.83673940143, -0.114, 0.9420000000000001, 0.266, 192.0, 0.0, 0.0, 0.0, 0.0, 0.0, 0.0, 0.0, 0.0, 0.0, 1.700946896201034E9, 0.0, 2023-11-25 16:14:56.201
139.0, 8418.359865946753, 15367.584272335085, -54196.7441674166, -57337.00780117605, -47177.29057994969, -58236.71021899107, -33725.25080743442, -15111.545039599543, -0.114, 0.9420000000000001, 0.266, 192.0, 0.0, 0.0, 0.0, 0.0, 0.0, 0.0, 0.0, 0.0, 0.0, 1.700946896203985E9, 0.0, 2023-11-25 16:14:56.203
140.0, 8194.887124882594, 15347.13242615848, -54174.973568317124, -57288.884495363774, -47441.309385455774, -58481.57357949896, -33674.26647833186, -15055.93389939474, -0.114, 0.9420000000000001, 0.266, 192.0, 0.0, 0.0, 0.0, 0.0, 0.0, 0.0, 0.0, 0.0, 0.0, 1.70094689620789E9, 0.0, 2023-11-25 16:14:56.207
141.0, 8192.04845333677, 15402.676511129917, -54182.327292242924, -57268.87968407627, -47824.79826507548, -58399.02858722551, -33673.70768472048, -15048.155492324293, -0.114, 0.9420000000000001, 0.266, 192.0, 0.0, 0.0, 0.0, 0.0, 0.0, 0.0, 0.0, 0.0, 0.0, 1.700946896211894E9, 0.0, 2023-11-25 16:14:56.211
142.0, 8336.060742862313, 15459.516997279765, -54214.133824602824, -57277.641567902756, -47659.84239099531, -58224.93084966313, -33702.608490301194, -15071.155437368803, -0.114, 0.9420000000000001, 0.266, 192.0, 0.0, 0.0, 0.0, 0.0, 0.0, 0.0, 0.0, 0.0, 0.0, 1.700946896216042E9, 0.0, 2023-11-25 16:14:56.216
143.0, 8439.974002835037, 15413.226534512823, -54202.28740004151, -57307.9281816397, -47269.58093280565, -58213.71027394656, -33730.25759819241, -15105.4653651077, -0.114, 0.9420000000000001, 0.266, 192.0, 0.0, 0.0, 0.0, 0.0, 0.0, 0.0, 0.0, 0.0, 0.0, 1.700946896219908E9, 0.0, 2023-11-25 16:14:56.219
144.0, 8237.489549814409, 15335.12953938598, -54204.65668495378, -57306.76589092802, -47329.684773645975, -58444.0450005585, -33714.90194975161, -15085.996995687128, -0.114, 0.9420000000000001, 0.266, 192.0, 0.0, 0.0, 0.0, 0.0, 0.0, 0.0, 0.0, 0.0, 0.0, 1.700946896224943E9, 0.0, 2023-11-25 16:14:56.224
145.0, 8152.396458673055, 15384.929226032404, -54187.512896956556, -57261.72712585058, -47850.145143287795, -58442.52508193554, -33674.95938240998, -15042.992239355117, -0.114, 0.9420000000000001, 0.266, 192.0, 0.0, 0.0, 0.0, 0.0, 0.0, 0.0, 0.0, 0.0, 0.0, 1.700946896228942E9, 0.0, 2023-11-25 16:14:56.228
146.0, 8302.980161068459, 15445.703619206384, -54205.818975665454, -57266.08571601936, -47711.09494103133, -58232.597498011295, -33699.43454258854, -15065.008707643594, -0.114, 0.9420000000000001, 0.266, 192.0, 0.0, 0.0, 0.0, 0.0, 0.0, 0.0, 0.0, 0.0, 0.0, 1.700946896232076E9, 0.0, 2023-11-25 16:14:56.232
147.0, 8417.845775824282, 15412.220706012335, -54205.17077507624, -57302.29554203696, -47366.878076419605, -58191.827916124814, -33735.62201686168, -15102.492583095145, -0.106, 0.9520000000000001, 0.264, 192.0, 252.0, 176.0, 29.0, 192.0, 8.0, 64.0, 0.0, 0.0, 0.0, 1.700946896236018E9, 0.0, 2023-11-25 16:14:56.236
148.0, 8273.92289327656, 15317.136385099458, -54204.90255414278, -57320.691027723675, -47230.755952686784, -58392.25600865555, -33734.19150521654, -15103.252542406624, -0.106, 0.9520000000000001, 0.264, 192.0, 0.0, 0.0, 0.0, 0.0, 0.0, 0.0, 0.0, 0.0, 0.0, 1.700946896239966E9, 0.0, 2023-11-25 16:14:56.239
149.0, 8121.03696120226, 15373.261615426734, -54166.032870535004, -57249.36661116679, -47827.435770921205, -58463.4016112568, -33661.48128050343, -15027.457776958678, -0.106, 0.9520000000000001, 0.264, 192.0, 0.0, 0.0, 0.0, 0.0, 0.0, 0.0, 0.0, 0.0, 0.0, 1.700946896243978E9, 0.0, 2023-11-25 16:14:56.243
150.0, 8260.578901836741, 15429.029217842724, -54192.452632481174, -57263.42585842918, -47740.24161580105, -58247.32729760734, -33693.37721984115, -15059.465475018678, -0.106, 0.9520000000000001, 0.264, 192.0, 0.0, 0.0, 0.0, 0.0, 0.0, 0.0, 0.0, 0.0, 0.0, 1.700946896248028E9, 0.0, 2023-11-25 16:14:56.248
151.0, 8396.499859869464, 15423.91066836246, -54187.378786489826, -57282.178972027184, -47452.90994082808, -58173.18656124909, -33711.88446425014, -15075.670489748776, -0.106, 0.9520000000000001, 0.264, 192.0, 0.0, 0.0, 0.0, 0.0, 0.0, 0.0, 0.0, 0.0, 0.0, 1.700946896253075E9, 0.0, 2023-11-25 16:14:56.253
152.0, 8330.65162070413, 15331.285039339667, -54169.117411269835, -57300.52975422499, -47156.97284423982, -58318.53995544195, -33707.0564874478, -15076.721021738174, -0.106, 0.9520000000000001, 0.264, 192.0, 0.0, 0.0, 0.0, 0.0, 0.0, 0.0, 0.0, 0.0, 0.0, 1.700946896257044E9, 0.0, 2023-11-25 16:14:56.257
153.0, 8132.2575369188235, 15375.60854859454, -54124.21275665912, -57222.343352120326, -47757.69832822065, -58452.06927681796, -33610.29578570077, -14985.458849127157, -0.106, 0.9520000000000001, 0.264, 192.0, 0.0, 0.0, 0.0, 0.0, 0.0, 0.0, 0.0, 0.0, 0.0, 1.700946896260012E9, 0.0, 2023-11-25 16:14:56.260
154.0, 8249.15716042008, 15425.3411800076, -54149.71609708263, -57240.67178257368, -47748.221188571595, -58237.4478265581, -33644.27043727284, -15019.388797210313, -0.106, 0.9520000000000001, 0.264, 192.0, 0.0, 0.0, 0.0, 0.0, 0.0, 0.0, 0.0, 0.0, 0.0, 1.700946896264035E9, 0.0, 2023-11-25 16:14:56.264
155.0, 8378.529057327398, 15449.972802397348, -54155.63930936329, -57254.68632634715, -47504.654229242115, -58142.22939517849, -33668.67854221804, -15043.483977733134, -0.106, 0.9520000000000001, 0.264, 192.0, 0.0, 0.0, 0.0, 0.0, 0.0, 0.0, 0.0, 0.0, 0.0, 1.700946896268109E9, 0.0, 2023-11-25 16:14:56.268
156.0, 8387.760327787439, 15367.18194093489, -54134.33809689738, -57283.76594588351, -47105.206204081325, -58240.219442870555, -33673.95355390949, -15054.279870305047, -0.106, 0.9520000000000001, 0.264, 192.0, 0.0, 0.0, 0.0, 0.0, 0.0, 0.0, 0.0, 0.0, 0.0, 1.700946896272039E9, 0.0, 2023-11-25 16:14:56.272
157.0, 8161.538322155277, 15390.360699935043, -54094.12730862228, -57211.88273571524, -47637.200073862085, -58433.89730857579, -33581.953773731446, -14958.346183102869, -0.116, 0.9480000000000001, 0.264, 192.0, 252.0, 96.0, 29.0, 160.0, 8.0, 64.0, 0.0, 0.0, 0.0, 1.700946896276069E9, 0.0, 2023-11-25 16:14:56.276
158.0, 8238.182453892525, 15434.773616167739, -54122.4246171027, -57229.808834768395, -47757.184238098176, -58259.68781229113, -33616.7330881039, -14992.343186419392, -0.116, 0.9480000000000001, 0.264, 192.0, 0.0, 0.0, 0.0, 0.0, 0.0, 0.0, 0.0, 0.0, 0.0, 1.700946896280088E9, 0.0, 2023-11-25 16:14:56.280
159.0, 8368.47077232251, 15469.664689262474, -54144.798713302465, -57250.52890187847, -47559.01367175742, -58145.760970802425, -33651.82532689873, -15026.139024035816, -0.116, 0.9480000000000001, 0.264, 192.0, 0.0, 0.0, 0.0, 0.0, 0.0, 0.0, 0.0, 0.0, 0.0, 1.700946896285715E9, 0.0, 2023-11-25 16:14:56.285
160.0, 8425.221851494534, 15391.970025535826, -54127.76668402752, -57289.666806419715, -47120.76301822222, -58208.56937272184, -33674.71351322097, -15054.97277438316, -0.116, 0.9480000000000001, 0.264, 192.0, 0.0, 0.0, 0.0, 0.0, 0.0, 0.0, 0.0, 0.0, 0.0, 1.700946896288131E9, 0.0, 2023-11-25 16:14:56.288
161.0, 8180.470249708921, 15373.351022404555, -54109.907640207726, -57247.06438148789, -47511.60562176772, -58440.98281156812, -33611.07809675671, -14985.972939249628, -0.116, 0.9480000000000001, 0.264, 192.0, 0.0, 0.0, 0.0, 0.0, 0.0, 0.0, 0.0, 0.0, 0.0, 1.700946896292119E9, 0.0, 2023-11-25 16:14:56.292
162.0, 8202.91140114205, 15415.864040358549, -54134.092227708374, -57254.216939713595, -47785.414491345226, -58326.74304565705, -33630.390003966095, -15005.77658483703, -0.116, 0.9480000000000001, 0.264, 192.0, 0.0, 0.0, 0.0, 0.0, 0.0, 0.0, 0.0, 0.0, 0.0, 1.700946896296125E9, 0.0, 2023-11-25 16:14:56.296
163.0, 8349.56119651332, 15470.044668918214, -54158.85796056485, -57259.42489617168, -47615.697695696086, -58181.702575886564, -33661.86126015917, -15032.933954350228, -0.116, 0.9480000000000001, 0.264, 192.0, 0.0, 0.0, 0.0, 0.0, 0.0, 0.0, 0.0, 0.0, 0.0, 1.700946896300131E9, 0.0, 2023-11-25 16:14:56.300
164.0, 8443.796151136894, 15406.029272798214, -54146.743315070074, -57291.969036098606, -47187.259457976754, -58196.05239582687, -33701.37914435615, -15073.591777514432, -0.116, 0.9480000000000001, 0.264, 192.0, 0.0, 0.0, 0.0, 0.0, 0.0, 0.0, 0.0, 0.0, 0.0, 1.700946896304118E9, 0.0, 2023-11-25 16:14:56.304
165.0, 8224.704351985974, 15367.316051401622, -54133.24286141907, -57258.2179019711, -47388.76043424135, -58430.63395388531, -33660.83307991423, -15028.955343837184, -0.116, 0.9480000000000001, 0.264, 192.0, 0.0, 0.0, 0.0, 0.0, 0.0, 0.0, 0.0, 0.0, 0.0, 1.700946896308105E9, 0.0, 2023-11-25 16:14:56.308
166.0, 8187.913380612538, 15419.060339815658, -54137.95907949914, -57236.00026798252, -47803.34059039839, -58372.51941830152, -33655.0439781003, -15022.138061778316, -0.116, 0.9480000000000001, 0.264, 192.0, 0.0, 0.0, 0.0, 0.0, 0.0, 0.0, 0.0, 0.0, 0.0, 1.700946896313313E9, 0.0, 2023-11-25 16:14:56.313
167.0, 8326.158920068612, 15479.030070189247, -54168.491562425086, -57245.8126837984, -47653.62860603674, -58196.14180280469, -33687.74458023842, -15054.346925538413, -0.126, 0.9480000000000001, 0.26, 192.0, 252.0, 16.0, 29.0, 160.0, 8.0, 32.0, 0.0, 0.0, 0.0, 1.70094689631614E9, 0.0, 2023-11-25 16:14:56.316
168.0, 8449.808770395372, 15435.287706290212, -54159.886140809795, -57282.49189644956, -47265.75878450379, -58184.630654410204, -33722.881522522155, -15095.630597547364, -0.126, 0.9480000000000001, 0.26, 192.0, 0.0, 0.0, 0.0, 0.0, 0.0, 0.0, 0.0, 0.0, 0.0, 1.700946896320141E9, 0.0, 2023-11-25 16:14:56.320
169.0, 8275.77808806635, 15362.152798432446, -54158.768553587026, -57284.25768426152, -47272.17373516247, -58413.95955252166, -33703.34609786822, -15076.452800804711, -0.126, 0.9480000000000001, 0.26, 192.0, 0.0, 0.0, 0.0, 0.0, 0.0, 0.0, 0.0, 0.0, 0.0, 1.700946896324222E9, 0.0, 2023-11-25 16:14:56.324
170.0, 8164.600511145653, 15406.945694320882, -54146.72096332562, -57242.974012252576, -47814.38235215931, -58430.54454690749, -33658.41909151305, -15031.615201427365, -0.126, 0.9480000000000001, 0.26, 192.0, 0.0, 0.0, 0.0, 0.0, 0.0, 0.0, 0.0, 0.0, 0.0, 1.700946896328173E9, 0.0, 2023-11-25 16:14:56.328
171.0, 8306.22116401448, 15466.647203761007, -54175.95704507316, -57250.774771067474, -47693.61587686728, -58222.0921781173, -33683.67656274755, -15048.513120235577, -0.126, 0.9480000000000001, 0.26, 192.0, 0.0, 0.0, 0.0, 0.0, 0.0, 0.0, 0.0, 0.0, 0.0, 1.700946896332199E9, 0.0, 2023-11-25 16:14:56.332
172.0, 8435.034267310413, 15443.893127905505, -54175.08532703941, -57280.18966677066, -47371.57194275522, -58174.05827928284, -33711.32567063876, -15076.296338593524, -0.126, 0.9480000000000001, 0.26, 192.0, 0.0, 0.0, 0.0, 0.0, 0.0, 0.0, 0.0, 0.0, 0.0, 1.700946896336249E9, 0.0, 2023-11-25 16:14:56.336
173.0, 8321.420350244087, 15354.12852217299, -54170.99495780408, -57295.96999835611, -47192.33330396811, -58356.6720314827, -33705.402458358105, -15069.4567047902, -0.126, 0.9480000000000001, 0.26, 192.0, 0.0, 0.0, 0.0, 0.0, 0.0, 0.0, 0.0, 0.0, 0.0, 1.700946896341227E9, 0.0, 2023-11-25 16:14:56.341
174.0, 8140.415923645011, 15387.253807455756, -54156.756896586056, -57248.00315475502, -47801.97713398661, -58454.88559661932, -33646.59501869619, -15006.894172059796, -0.126, 0.9480000000000001, 0.26, 192.0, 0.0, 0.0, 0.0, 0.0, 0.0, 0.0, 0.0, 0.0, 0.0, 1.700946896344221E9, 0.0, 2023-11-25 16:14:56.344
175.0, 8259.953052991994, 15441.836767415616, -54184.27189401053, -57259.89428280524, -47743.25910130252, -58243.48279756103, -33662.93414389302, -15026.228431013637, -0.126, 0.9480000000000001, 0.26, 192.0, 0.0, 0.0, 0.0, 0.0, 0.0, 0.0, 0.0, 0.0, 0.0, 1.700946896348219E9, 0.0, 2023-11-25 16:14:56.348
176.0, 8388.252066165456, 15439.825110414638, -54189.54690570199, -57285.330567995385, -47473.29473177132, -58170.102020514256, -33684.72709473695, -15050.189501069726, -0.126, 0.9480000000000001, 0.26, 192.0, 0.0, 0.0, 0.0, 0.0, 0.0, 0.0, 0.0, 0.0, 0.0, 1.700946896352405E9, 0.0, 2023-11-25 16:14:56.352
177.0, 8339.011173130415, 15340.426902821888, -54183.55663818796, -57320.62397249031, -47150.71435579233, -58311.61091466081, -33695.99237394242, -15062.818236686975, -0.12, 0.9440000000000001, 0.264, 192.0, 252.0, 64.0, 29.0, 128.0, 8.0, 64.0, 0.0, 0.0, 0.0, 1.700946896356235E9, 0.0, 2023-11-25 16:14:56.356
178.0, 8114.13027216557, 15362.242205410268, -54161.227245477116, -57263.26939621799, -47750.85869441732, -58480.076012620455, -33624.82441959673, -14983.96128224865, -0.12, 0.9440000000000001, 0.264, 192.0, 0.0, 0.0, 0.0, 0.0, 0.0, 0.0, 0.0, 0.0, 0.0, 1.700946896360269E9, 0.0, 2023-11-25 16:14:56.360
179.0, 8219.25052633888, 15411.840726356593, -54193.14553655929, -57281.620178415804, -47782.26289537703, -58282.017205001976, -33650.37246350914, -15007.832945326918, -0.12, 0.9440000000000001, 0.264, 192.0, 0.0, 0.0, 0.0, 0.0, 0.0, 0.0, 0.0, 0.0, 0.0, 1.700946896364316E9, 0.0, 2023-11-25 16:14:56.364
180.0, 8358.881873951183, 15442.10498834908, -54194.75486216007, -57286.42580347369, -47564.10986949324, -58176.60637815075, -33660.07312060274, -15018.673541387743, -0.12, 0.9440000000000001, 0.264, 192.0, 0.0, 0.0, 0.0, 0.0, 0.0, 0.0, 0.0, 0.0, 0.0, 1.700946896369686E9, 0.0, 2023-11-25 16:14:56.369
181.0, 8375.444516592564, 15349.814635493118, -54179.309806741454, -57319.998123645564, -47143.2265213998, -58264.38167862674, -33683.56480402527, -15044.422751000257, -0.12, 0.9440000000000001, 0.264, 192.0, 0.0, 0.0, 0.0, 0.0, 0.0, 0.0, 0.0, 0.0, 0.0, 1.700946896372294E9, 0.0, 2023-11-25 16:14:56.372
182.0, 8138.784246299773, 15360.208196664835, -54154.074687251414, -57255.75921008101, -47639.994041919, -58472.07408810545, -33614.8331898252, -14964.24704363907, -0.12, 0.9440000000000001, 0.264, 192.0, 0.0, 0.0, 0.0, 0.0, 0.0, 0.0, 0.0, 0.0, 0.0, 1.700946896375332E9, 0.0, 2023-11-25 16:14:56.375
183.0, 8215.808357692762, 15418.725063648828, -54179.756841630566, -57262.19651248414, -47791.22594490361, -58307.83346984786, -33649.076062330736, -14996.478259143623, -0.12, 0.9440000000000001, 0.264, 192.0, 0.0, 0.0, 0.0, 0.0, 0.0, 0.0, 0.0, 0.0, 0.0, 1.70094689638035E9, 0.0, 2023-11-25 16:14:56.380
184.0, 8365.788562987873, 15477.934834710937, -54188.92105685724, -57258.53082639347, -47605.6394106912, -58178.17100026262, -33669.751425951894, -15019.63466639932, -0.12, 0.9440000000000001, 0.264, 192.0, 0.0, 0.0, 0.0, 0.0, 0.0, 0.0, 0.0, 0.0, 0.0, 1.700946896384334E9, 0.0, 2023-11-25 16:14:56.384
185.0, 8430.04982829688, 15387.94671153387, -54191.15623130277, -57309.73867294058, -47160.4820681193, -58237.246660858, -33725.58608360125, -15082.286606107547, -0.12, 0.9440000000000001, 0.264, 192.0, 0.0, 0.0, 0.0, 0.0, 0.0, 0.0, 0.0, 0.0, 0.0, 1.700946896388381E9, 0.0, 2023-11-25 16:14:56.388
186.0, 8195.445918493977, 15373.3286706601, -54166.81518159094, -57259.15667523822, -47514.73486599146, -58479.785439942534, -33665.638704972116, -15020.97577106664, -0.12, 0.9440000000000001, 0.264, 192.0, 0.0, 0.0, 0.0, 0.0, 0.0, 0.0, 0.0, 0.0, 0.0, 1.700946896392334E9, 0.0, 2023-11-25 16:14:56.392
187.0, 8219.272878083335, 15428.783348653717, -54173.878332838816, -57247.086733232354, -47809.688485823695, -58364.33867983087, -33675.696989977005, -15031.816367127463, -0.114, 0.9460000000000001, 0.258, 192.0, 252.0, 112.0, 29.0, 144.0, 8.0, 16.0, 0.0, 0.0, 0.0, 1.70094689639734E9, 0.0, 2023-11-25 16:14:56.397
188.0, 8355.79733321635, 15493.335186640643, -54187.87052486784, -57241.27527967397, -47643.436210565116, -58205.61894245374, -33701.20033040051, -15054.12340809386, -0.114, 0.9460000000000001, 0.258, 192.0, 0.0, 0.0, 0.0, 0.0, 0.0, 0.0, 0.0, 0.0, 0.0, 1.700946896400369E9, 0.0, 2023-11-25 16:14:56.400
189.0, 8450.09934307329, 15422.90483986197, -54176.739356129096, -57281.73193713808, -47209.074760565134, -58213.8890879022, -33745.92617105558, -15105.599475574432, -0.114, 0.9460000000000001, 0.258, 192.0, 0.0, 0.0, 0.0, 0.0, 0.0, 0.0, 0.0, 0.0, 0.0, 1.700946896403419E9, 0.0, 2023-11-25 16:14:56.403
190.0, 8225.441959553, 15361.214025165324, -54166.07757402391, -57261.74947759503, -47359.881980405095, -58451.73400065112, -33710.69982179401, -15071.088382135438, -0.114, 0.9460000000000001, 0.258, 192.0, 0.0, 0.0, 0.0, 0.0, 0.0, 0.0, 0.0, 0.0, 0.0, 1.700946896407455E9, 0.0, 2023-11-25 16:14:56.407
191.0, 8182.504258454354, 15422.614267184052, -54145.51396912503, -57221.94102072013, -47800.256049663556, -58397.374558135816, -33673.21594634246, -15038.052503830493, -0.114, 0.9460000000000001, 0.258, 192.0, 0.0, 0.0, 0.0, 0.0, 0.0, 0.0, 0.0, 0.0, 0.0, 1.700946896412429E9, 0.0, 2023-11-25 16:14:56.412
192.0, 8325.577774712774, 15486.652015048507, -54162.903626311265, -57230.21116616859, -47658.0989549278, -58206.602419209776, -33696.12648440916, -15058.437294773734, -0.114, 0.9460000000000001, 0.258, 192.0, 0.0, 0.0, 0.0, 0.0, 0.0, 0.0, 0.0, 0.0, 0.0, 1.700946896416404E9, 0.0, 2023-11-25 16:14:56.416
193.0, 8446.500712215986, 15444.183700583424, -54153.78411457349, -57268.45500093162, -47284.71306380189, -58180.8308578528, -33728.80473480281, -15094.289492880047, -0.114, 0.9460000000000001, 0.258, 192.0, 0.0, 0.0, 0.0, 0.0, 0.0, 0.0, 0.0, 0.0, 0.0, 1.700946896420445E9, 0.0, 2023-11-25 16:14:56.420
194.0, 8284.875248059661, 15368.813618280128, -54148.486751137585, -57274.64643414575, -47239.65194698, -58389.059709198445, -33706.76591476988, -15073.03298390305, -0.114, 0.9460000000000001, 0.258, 192.0, 0.0, 0.0, 0.0, 0.0, 0.0, 0.0, 0.0, 0.0, 0.0, 1.700946896424394E9, 0.0, 2023-11-25 16:14:56.424
195.0, 8165.695746623964, 15426.078787574625, -54121.46349209112, -57219.59408755232, -47793.036436204486, -58414.428939155216, -33647.71260591896, -15012.660922129266, -0.114, 0.9460000000000001, 0.258, 192.0, 0.0, 0.0, 0.0, 0.0, 0.0, 0.0, 0.0, 0.0, 0.0, 1.700946896428533E9, 0.0, 2023-11-25 16:14:56.428
196.0, 8306.511736692397, 15485.377965614554, -54144.84341679137, -57227.97599172306, -47690.1066529878, -58209.01640761094, -33672.478338775436, -15037.381951496835, -0.114, 0.9460000000000001, 0.258, 192.0, 0.0, 0.0, 0.0, 0.0, 0.0, 0.0, 0.0, 0.0, 0.0, 1.70094689643142E9, 0.0, 2023-11-25 16:14:56.431
197.0, 8448.378258750232, 15479.2535876338, -54126.55968982693, -57242.07994247436, -47370.56611425473, -58141.40238063364, -33683.34128658072, -15049.161320824782, -0.112, 0.9480000000000001, 0.264, 192.0, 252.0, 128.0, 29.0, 160.0, 8.0, 64.0, 0.0, 0.0, 0.0, 1.700946896436461E9, 0.0, 2023-11-25 16:14:56.436
198.0, 8344.88968192216, 15383.386955664988, -54126.6267450603, -57267.53857940896, -47143.941777222375, -58313.466109450594, -33687.00697267139, -15052.156454581793, -0.112, 0.9480000000000001, 0.264, 192.0, 0.0, 0.0, 0.0, 0.0, 0.0, 0.0, 0.0, 0.0, 0.0, 1.700946896440447E9, 0.0, 2023-11-25 16:14:56.440
199.0, 8156.397420930555, 15419.663836915952, -54108.67829426269, -57211.435700826136, -47749.87521766129, -58427.03532302801, -33619.57175964973, -14981.636700825298, -0.112, 0.9480000000000001, 0.264, 192.0, 0.0, 0.0, 0.0, 0.0, 0.0, 0.0, 0.0, 0.0, 0.0, 1.700946896445042E9, 0.0, 2023-11-25 16:14:56.445
200.0, 8281.231913713445, 15472.458657319386, -54140.41777138922, -57226.389017866735, -47703.830624083355, -58217.510070503966, -33640.35888199316, -15003.831983069418, -0.112, 0.9480000000000001, 0.264, 192.0, 0.0, 0.0, 0.0, 0.0, 0.0, 0.0, 0.0, 0.0, 0.0, 1.700946896448469E9, 0.0, 2023-11-25 16:14:56.448
201.0, 8403.831232050805, 15468.3012328507, -54152.93474828419, -57254.68632634715, -47448.77486810385, -58140.664773066615, -33664.431710771525, -15031.704608405187, -0.112, 0.9480000000000001, 0.264, 192.0, 0.0, 0.0, 0.0, 0.0, 0.0, 0.0, 0.0, 0.0, 0.0, 1.700946896451479E9, 0.0, 2023-11-25 16:14:56.451
202.0, 8368.627234533697, 15370.46764736982, -54143.30114642395, -57289.376233741794, -47101.40640752392, -58272.160085697185, -33679.250917345395, -15046.680277190242, -0.112, 0.9480000000000001, 0.264, 192.0, 0.0, 0.0, 0.0, 0.0, 0.0, 0.0, 0.0, 0.0, 0.0, 1.700946896455541E9, 0.0, 2023-11-25 16:14:56.455
203.0, 8148.954290026938, 15400.70955761785, -54111.584021041876, -57222.16453816468, -47679.62368483826, -58442.90506159128, -33597.91291927254, -14961.453075582156, -0.112, 0.9480000000000001, 0.264, 192.0, 0.0, 0.0, 0.0, 0.0, 0.0, 0.0, 0.0, 0.0, 0.0, 1.70094689645949E9, 0.0, 2023-11-25 16:14:56.459
204.0, 8259.975404736448, 15459.2487763463, -54133.84635851936, -57228.981820223555, -47737.20177855513, -58244.71214350607, -33616.822495081724, -14983.581302592911, -0.112, 0.9480000000000001, 0.264, 192.0, 0.0, 0.0, 0.0, 0.0, 0.0, 0.0, 0.0, 0.0, 0.0, 1.700946896463515E9, 0.0, 2023-11-25 16:14:56.463
205.0, 8394.71172031304, 15489.155410427502, -54144.68695458019, -57236.33554414935, -47532.30333713333, -58140.70947655553, -33642.482297716415, -15005.687177859209, -0.112, 0.9480000000000001, 0.264, 192.0, 0.0, 0.0, 0.0, 0.0, 0.0, 0.0, 0.0, 0.0, 0.0, 1.700946896468756E9, 0.0, 2023-11-25 16:14:56.468
206.0, 8416.459967668054, 15384.795115565672, -54147.659736592745, -57289.77856514199, -47103.88745115846, -58229.244736343, -33692.08081866274, -15057.386762784334, -0.112, 0.9480000000000001, 0.264, 192.0, 0.0, 0.0, 0.0, 0.0, 0.0, 0.0, 0.0, 0.0, 0.0, 1.700946896472492E9, 0.0, 2023-11-25 16:14:56.472
207.0, 8165.963967557427, 15382.671699842418, -54126.962021227126, -57236.603765082815, -47581.61128540174, -58458.77480015455, -33627.77484986482, -14988.230465439614, -0.11800000000000001, 0.9460000000000001, 0.266, 192.0, 252.0, 80.0, 29.0, 144.0, 8.0, 80.0, 0.0, 0.0, 0.0, 1.700946896476524E9, 0.0, 2023-11-25 16:14:56.476
208.0, 8236.304907358279, 15446.53063375123, -54134.27104166401, -57232.66985805868, -47770.61763651582, -58297.79753658742, -33640.4929924599, -14995.092450987393, -0.11800000000000001, 0.9460000000000001, 0.266, 192.0, 0.0, 0.0, 0.0, 0.0, 0.0, 0.0, 0.0, 0.0, 0.0, 1.700946896479537E9, 0.0, 2023-11-25 16:14:56.479
209.0, 8377.523228826909, 15498.16316344299, -54145.46926563612, -57237.587241838846, -47601.92902111162, -58164.13410474469, -33656.07215834525, -15006.424785426234, -0.11800000000000001, 0.9460000000000001, 0.266, 192.0, 0.0, 0.0, 0.0, 0.0, 0.0, 0.0, 0.0, 0.0, 0.0, 1.70094689648357E9, 0.0, 2023-11-25 16:14:56.483
210.0, 8463.86801765776, 15420.647313671985, -54130.38183812879, -57280.502591193035, -47153.24010291578, -58197.214686538544, -33688.7504087389, -15041.874652132352, -0.11800000000000001, 0.9460000000000001, 0.266, 192.0, 0.0, 0.0, 0.0, 0.0, 0.0, 0.0, 0.0, 0.0, 0.0, 1.700946896487765E9, 0.0, 2023-11-25 16:14:56.487
211.0, 8221.731569973417, 15395.054566270659, -54106.01843667251, -57235.53088134896, -47462.722356643964, -58427.147081750285, -33629.11595453214, -14978.06042171245, -0.11800000000000001, 0.9460000000000001, 0.266, 192.0, 0.0, 0.0, 0.0, 0.0, 0.0, 0.0, 0.0, 0.0, 0.0, 1.70094689649172E9, 0.0, 2023-11-25 16:14:56.491
212.0, 8221.10572112867, 15439.735703436818, -54116.99314320006, -57228.60184056781, -47794.75752052755, -58324.8654991228, -33636.9390650915, -14985.30238691597, -0.11800000000000001, 0.9460000000000001, 0.266, 192.0, 0.0, 0.0, 0.0, 0.0, 0.0, 0.0, 0.0, 0.0, 0.0, 1.700946896495566E9, 0.0, 2023-11-25 16:14:56.495
213.0, 8348.55536801283, 15486.92023598197, -54151.213663961134, -57248.15961696621, -47650.47701006854, -58171.57723564831, -33671.76308295287, -15025.602582168887, -0.11800000000000001, 0.9460000000000001, 0.266, 192.0, 0.0, 0.0, 0.0, 0.0, 0.0, 0.0, 0.0, 0.0, 0.0, 1.700946896500579E9, 0.0, 2023-11-25 16:14:56.500
214.0, 8453.273290785944, 15425.363531752055, -54137.579099843395, -57286.11287905132, -47237.08149636764, -58171.39842169266, -33704.68720253553, -15072.764762969586, -0.11800000000000001, 0.9460000000000001, 0.266, 192.0, 0.0, 0.0, 0.0, 0.0, 0.0, 0.0, 0.0, 0.0, 0.0, 1.700946896504962E9, 0.0, 2023-11-25 16:14:56.504
215.0, 8251.571148821253, 15370.71351655883, -54121.73171302459, -57264.208169485115, -47341.84412262966, -58396.07815695741, -33664.76698693836, -15038.074855574949, -0.11800000000000001, 0.9460000000000001, 0.266, 192.0, 0.0, 0.0, 0.0, 0.0, 0.0, 0.0, 0.0, 0.0, 0.0, 1.700946896507624E9, 0.0, 2023-11-25 16:14:56.507
216.0, 8183.107755554647, 15418.300380504177, -54118.021323445006, -57234.301535403916, -47810.537852113, -58369.81485722242, -33636.4920302024, -15013.35382620738, -0.11800000000000001, 0.9460000000000001, 0.266, 192.0, 0.0, 0.0, 0.0, 0.0, 0.0, 0.0, 0.0, 0.0, 0.0, 1.700946896511601E9, 0.0, 2023-11-25 16:14:56.511
217.0, 8317.352332753222, 15478.247759133312, -54143.61407084633, -57239.15186395072, -47688.43027215365, -58184.09421254328, -33660.587210725214, -15035.124425306849, -0.116, 0.9380000000000001, 0.274, 192.0, 252.0, 96.0, 29.0, 80.0, 8.0, 144.0, 0.0, 0.0, 0.0, 1.700946896515642E9, 0.0, 2023-11-25 16:14:56.515
218.0, 8444.779627892927, 15441.81441567116, -54136.34975389836, -57272.85829458932, -47331.89759634705, -58149.337249915276, -33686.78345522683, -15070.93191992425, -0.116, 0.9380000000000001, 0.274, 192.0, 0.0, 0.0, 0.0, 0.0, 0.0, 0.0, 0.0, 0.0, 0.0, 1.700946896519725E9, 0.0, 2023-11-25 16:14:56.519
219.0, 8283.020053269871, 15342.706780756329, -54155.75106808556, -57297.80284140144, -47247.87738893955, -58366.1268193873, -33691.074990162255, -15076.005765915605, -0.116, 0.9380000000000001, 0.274, 192.0, 0.0, 0.0, 0.0, 0.0, 0.0, 0.0, 0.0, 0.0, 0.0, 1.700946896523705E9, 0.0, 2023-11-25 16:14:56.523
220.0, 8155.078668007693, 15407.124508276524, -54129.130140439294, -57229.58531732384, -47834.342459957894, -58414.65245659977, -33626.43374519751, -15006.044805770494, -0.116, 0.9380000000000001, 0.274, 192.0, 0.0, 0.0, 0.0, 0.0, 0.0, 0.0, 0.0, 0.0, 0.0, 1.700946896528693E9, 0.0, 2023-11-25 16:14:56.528
221.0, 8299.001550555415, 15471.788104985728, -54158.09800125337, -57236.98374473855, -47749.09290660536, -58207.87646864373, -33654.95457112248, -15034.4985764621, -0.116, 0.9380000000000001, 0.274, 192.0, 0.0, 0.0, 0.0, 0.0, 0.0, 0.0, 0.0, 0.0, 0.0, 1.700946896532845E9, 0.0, 2023-11-25 16:14:56.532
222.0, 8433.827273109826, 15459.829921702138, -54161.51781815503, -57262.95647179562, -47448.64075763712, -58151.37125866071, -33690.8514727177, -15069.948443168218, -0.116, 0.9380000000000001, 0.274, 192.0, 0.0, 0.0, 0.0, 0.0, 0.0, 0.0, 0.0, 0.0, 0.0, 1.700946896535697E9, 0.0, 2023-11-25 16:14:56.535
223.0, 8347.907167423626, 15361.482246098787, -54160.22141697662, -57292.43842273217, -47185.7842428427, -58314.047254806435, -33703.18963565703, -15081.392536329335, -0.116, 0.9380000000000001, 0.274, 192.0, 0.0, 0.0, 0.0, 0.0, 0.0, 0.0, 0.0, 0.0, 0.0, 1.700946896539725E9, 0.0, 2023-11-25 16:14:56.539
224.0, 8146.696763836952, 15390.584217379597, -54137.64615507676, -57235.9108610047, -47788.96841871362, -58443.46385520266, -33638.07900405872, -15010.895134317296, -0.116, 0.9380000000000001, 0.274, 192.0, 0.0, 0.0, 0.0, 0.0, 0.0, 0.0, 0.0, 0.0, 0.0, 1.700946896543737E9, 0.0, 2023-11-25 16:14:56.543
225.0, 8267.910274018082, 15447.67057271845, -54159.70732685415, -57244.359820408805, -47770.75174698255, -58234.832672456825, -33662.37535028164, -15030.698779904698, -0.116, 0.9380000000000001, 0.274, 192.0, 0.0, 0.0, 0.0, 0.0, 0.0, 0.0, 0.0, 0.0, 0.0, 1.700946896547745E9, 0.0, 2023-11-25 16:14:56.547
226.0, 8402.825403550316, 15464.523788037754, -54156.533379141496, -57252.674669346176, -47533.59973831174, -58141.69295331156, -33662.71062644847, -15035.906736362784, -0.108, 0.9420000000000001, 0.27, 192.0, 252.0, 160.0, 29.0, 112.0, 8.0, 112.0, 0.0, 0.0, 0.0, 1.700946896551982E9, 0.0, 2023-11-25 16:14:56.551
227.0, 8386.553333586853, 15365.147932189457, -54149.5819866159, -57290.40441398673, -47144.74644002276, -58245.38269583973, -33672.0983591197, -15050.971812125661, -0.108, 0.9420000000000001, 0.27, 192.0, 0.0, 0.0, 0.0, 0.0, 0.0, 0.0, 0.0, 0.0, 0.0, 1.700946896555797E9, 0.0, 2023-11-25 16:14:56.555
228.0, 8145.512121380821, 15378.849551540561, -54131.83470151838, -57236.46965461608, -47703.85297582782, -58434.143177764796, -33601.243329196375, -14973.746535032575, -0.108, 0.9420000000000001, 0.27, 192.0, 0.0, 0.0, 0.0, 0.0, 0.0, 0.0, 0.0, 0.0, 0.0, 1.700946896560845E9, 0.0, 2023-11-25 16:14:56.560
229.0, 8238.294212614801, 15432.180813810923, -54160.35552744335, -57248.561948366405, -47795.11514843883, -58253.205806399084, -33629.51828593234, -14995.830058554418, -0.108, 0.9420000000000001, 0.27, 192.0, 0.0, 0.0, 0.0, 0.0, 0.0, 0.0, 0.0, 0.0, 0.0, 1.700946896563998E9, 0.0, 2023-11-25 16:14:56.563
230.0, 8378.260836393933, 15471.028145674247, -54173.05131829397, -57256.47446590358, -47609.55096597087, -58144.375162646196, -33656.07215834525, -15016.326608219935, -0.108, 0.9420000000000001, 0.27, 192.0, 0.0, 0.0, 0.0, 0.0, 0.0, 0.0, 0.0, 0.0, 0.0, 1.700946896567824E9, 0.0, 2023-11-25 16:14:56.567
231.0, 8428.015819551447, 15374.155685204947, -54165.63053913481, -57300.350940269345, -47164.81830654363, -58212.57033497934, -33697.31112686529, -15058.07966686245, -0.108, 0.9420000000000001, 0.27, 192.0, 0.0, 0.0, 0.0, 0.0, 0.0, 0.0, 0.0, 0.0, 0.0, 1.700946896571818E9, 0.0, 2023-11-25 16:14:56.571
232.0, 8174.435278705988, 15367.740734546273, -54142.541187112474, -57243.42104714168, -47603.04660833438, -58438.01002955557, -33637.67667265853, -14986.53173286101, -0.108, 0.9420000000000001, 0.27, 192.0, 0.0, 0.0, 0.0, 0.0, 0.0, 0.0, 0.0, 0.0, 0.0, 1.700946896577821E9, 0.0, 2023-11-25 16:14:56.577
233.0, 8227.207747364968, 15428.559831209164, -54145.201044702655, -57235.37441913777, -47819.389142917295, -58290.421460917176, -33651.713568176456, -14998.735785333609, -0.108, 0.9420000000000001, 0.27, 192.0, 0.0, 0.0, 0.0, 0.0, 0.0, 0.0, 0.0, 0.0, 0.0, 1.70094689658084E9, 0.0, 2023-11-25 16:14:56.580
234.0, 8358.345432084256, 15475.990232943324, -54159.14853324277, -57247.95845126611, -47663.61983580826, -58162.971814033015, -33676.99339115541, -15027.189556025214, -0.108, 0.9420000000000001, 0.27, 192.0, 0.0, 0.0, 0.0, 0.0, 0.0, 0.0, 0.0, 0.0, 0.0, 1.700946896583854E9, 0.0, 2023-11-25 16:14:56.583
235.0, 8433.603755665274, 15392.081784258102, -54149.559634871446, -57301.692044936666, -47216.361429257566, -58200.34393076229, -33713.180865428556, -15076.452800804711, -0.108, 0.9420000000000001, 0.27, 192.0, 0.0, 0.0, 0.0, 0.0, 0.0, 0.0, 0.0, 0.0, 0.0, 1.700946896588887E9, 0.0, 2023-11-25 16:14:56.588
236.0, 8198.843383651183, 15357.347173374555, -54129.08543695038, -57265.66103287471, -47480.73786267494, -58437.25007024409, -33660.318989791755, -15022.205117011681, -0.112, 0.9480000000000001, 0.27, 192.0, 252.0, 128.0, 29.0, 160.0, 8.0, 112.0, 0.0, 0.0, 0.0, 1.700946896591849E9, 0.0, 2023-11-25 16:14:56.591
237.0, 8193.568371959731, 15416.646351414485, -54127.54316658297, -57245.410352398205, -47843.05964029547, -58352.71577271412, -33649.18782105301, -15015.387834952813, -0.112, 0.9480000000000001, 0.27, 192.0, 0.0, 0.0, 0.0, 0.0, 0.0, 0.0, 0.0, 0.0, 0.0, 1.700946896595805E9, 0.0, 2023-11-25 16:14:56.595
238.0, 8339.45820801952, 15483.031032446746, -54142.72000106812, -57245.18683495365, -47708.502138674514, -58186.15057303317, -33665.12461484964, -15029.849413615397, -0.112, 0.9480000000000001, 0.27, 192.0, 0.0, 0.0, 0.0, 0.0, 0.0, 0.0, 0.0, 0.0, 0.0, 1.700946896599815E9, 0.0, 2023-11-25 16:14:56.599
239.0, 8454.994375109003, 15427.397540497488, -54127.76668402752, -57281.19549527115, -47294.860755784604, -58173.99122404948, -33699.389839099626, -15068.294414078524, -0.112, 0.9480000000000001, 0.27, 192.0, 0.0, 0.0, 0.0, 0.0, 0.0, 0.0, 0.0, 0.0, 0.0, 1.700946896603848E9, 0.0, 2023-11-25 16:14:56.603
240.0, 8259.997756480903, 15358.934147230882, -54124.3245153814, -57274.04293704545, -47347.11913432111, -58399.07329071442, -33675.272306832354, -15044.26628878907, -0.112, 0.9480000000000001, 0.27, 192.0, 0.0, 0.0, 0.0, 0.0, 0.0, 0.0, 0.0, 0.0, 0.0, 1.700946896607844E9, 0.0, 2023-11-25 16:14:56.607
241.0, 8180.179677031002, 15420.401444482977, -54107.51600355101, -57227.439549856135, -47843.238454251106, -58383.29295912897, -33632.58047492272, -14999.629855111822, -0.112, 0.9480000000000001, 0.27, 192.0, 0.0, 0.0, 0.0, 0.0, 0.0, 0.0, 0.0, 0.0, 0.0, 1.700946896611873E9, 0.0, 2023-11-25 16:14:56.611
242.0, 8306.556440181308, 15473.531541053242, -54142.76470455703, -57240.515320362494, -47737.42529599969, -58197.929942361116, -33664.47641426044, -15028.776529881541, -0.112, 0.9480000000000001, 0.27, 192.0, 0.0, 0.0, 0.0, 0.0, 0.0, 0.0, 0.0, 0.0, 0.0, 1.700946896616881E9, 0.0, 2023-11-25 16:14:56.616
243.0, 8434.944860332593, 15443.379037783032, -54136.394457387265, -57269.28201547647, -47386.27939060681, -58152.80177030585, -33690.69501050651, -15059.577233740954, -0.112, 0.9480000000000001, 0.27, 192.0, 0.0, 0.0, 0.0, 0.0, 0.0, 0.0, 0.0, 0.0, 0.0, 1.700946896620166E9, 0.0, 2023-11-25 16:14:56.620
244.0, 8297.21341099899, 15359.045905953159, -54133.75695154154, -57279.943797581655, -47245.10577262709, -58342.61278422031, -33677.57453651125, -15045.853262645396, -0.112, 0.9480000000000001, 0.27, 192.0, 0.0, 0.0, 0.0, 0.0, 0.0, 0.0, 0.0, 0.0, 0.0, 1.700946896622867E9, 0.0, 2023-11-25 16:14:56.622
245.0, 8143.254595190835, 15400.307226217656, -54121.53054732449, -57228.557137078904, -47824.82061681993, -58403.56599134994, -33624.71266087445, -14990.01860499604, -0.112, 0.9480000000000001, 0.27, 192.0, 0.0, 0.0, 0.0, 0.0, 0.0, 0.0, 0.0, 0.0, 0.0, 1.700946896627864E9, 0.0, 2023-11-25 16:14:56.627
246.0, 8263.954015249494, 15451.470369275854, -54162.09896351087, -57249.120741977786, -47767.26487484752, -58211.56450647885, -33666.8456991727, -15025.289657746514, -0.12, 0.9460000000000001, 0.266, 192.0, 252.0, 64.0, 29.0, 144.0, 8.0, 80.0, 0.0, 0.0, 0.0, 1.700946896631865E9, 0.0, 2023-11-25 16:14:56.631
247.0, 8405.976999518514, 15458.310003079177, -54149.80550406045, -57261.95064329513, -47490.84085116874, -58141.96117424502, -33686.55993778228, -15043.081646332937, -0.12, 0.9460000000000001, 0.266, 192.0, 0.0, 0.0, 0.0, 0.0, 0.0, 0.0, 0.0, 0.0, 0.0, 1.700946896635916E9, 0.0, 2023-11-25 16:14:56.635
248.0, 8338.74295219695, 15357.436580352376, -54149.91726278273, -57298.07106233491, -47185.22544923132, -58287.49338239353, -33702.31791762327, -15057.856149417896, -0.12, 0.9460000000000001, 0.266, 192.0, 0.0, 0.0, 0.0, 0.0, 0.0, 0.0, 0.0, 0.0, 0.0, 1.700946896639914E9, 0.0, 2023-11-25 16:14:56.639
249.0, 8125.887289749061, 15382.202313208856, -54133.265213163526, -57243.95748900861, -47780.519459309515, -58432.75736960857, -33640.06830931525, -14984.743593304587, -0.12, 0.9460000000000001, 0.266, 192.0, 0.0, 0.0, 0.0, 0.0, 0.0, 0.0, 0.0, 0.0, 0.0, 1.700946896644984E9, 0.0, 2023-11-25 16:14:56.644
250.0, 8248.128980175135, 15453.77259895475, -54146.51979762552, -57240.314154662396, -47791.65062804826, -58230.89876543269, -33648.33845476371, -14992.231427697114, -0.12, 0.9460000000000001, 0.266, 192.0, 0.0, 0.0, 0.0, 0.0, 0.0, 0.0, 0.0, 0.0, 0.0, 1.700946896647909E9, 0.0, 2023-11-25 16:14:56.647
251.0, 8391.51542085593, 15480.68409927894, -54144.66460283573, -57248.986631511056, -47568.22259047301, -58134.96507823051, -33654.06050134427, -15003.027320269028, -0.12, 0.9460000000000001, 0.266, 192.0, 0.0, 0.0, 0.0, 0.0, 0.0, 0.0, 0.0, 0.0, 0.0, 1.700946896651997E9, 0.0, 2023-11-25 16:14:56.651
252.0, 8385.525153341909, 15374.08862997158, -54148.7326203266, -57300.90973388073, -47156.81638202863, -58239.19126262561, -33690.873824462156, -15040.399436998301, -0.12, 0.9460000000000001, 0.266, 192.0, 0.0, 0.0, 0.0, 0.0, 0.0, 0.0, 0.0, 0.0, 0.0, 1.700946896655997E9, 0.0, 2023-11-25 16:14:56.655
253.0, 8142.204063201436, 15388.371394678521, -54127.56551832742, -57242.974012252576, -47688.22910645355, -58444.223814514145, -33618.74474510488, -14964.314098872435, -0.12, 0.9460000000000001, 0.266, 192.0, 0.0, 0.0, 0.0, 0.0, 0.0, 0.0, 0.0, 0.0, 0.0, 1.700946896659982E9, 0.0, 2023-11-25 16:14:56.659
254.0, 8227.140692131603, 15447.827034929638, -54146.542149369976, -57248.38313441076, -47805.26284042154, -58276.093992721326, -33636.62614066913, -14982.061383969949, -0.12, 0.9460000000000001, 0.266, 192.0, 0.0, 0.0, 0.0, 0.0, 0.0, 0.0, 0.0, 0.0, 0.0, 1.700946896664095E9, 0.0, 2023-11-25 16:14:56.664
255.0, 8370.258911878933, 15495.503305852808, -54151.30307093896, -57250.28303268946, -47637.73651572902, -58165.631671623196, -33657.01093161236, -15000.3898144233, -0.12, 0.9460000000000001, 0.266, 192.0, 0.0, 0.0, 0.0, 0.0, 0.0, 0.0, 0.0, 0.0, 0.0, 1.700946896668041E9, 0.0, 2023-11-25 16:14:56.668
0.0, 8429.446331196586, 15411.326636234122, -54139.76957080002, -57292.594884943355, -47182.3867776855, -58221.198108339086, -33697.020554187366, -15045.11565507837, -0.124, 0.9480000000000001, 0.266, 192.0, 252.0, 32.0, 29.0, 160.0, 8.0, 80.0, 0.0, 0.0, 0.0, 1.700946896673017E9, 0.0, 2023-11-25 16:14:56.673
1.0, 8180.2690840088235, 15401.804793096162, -54120.41296010172, -57241.52114886298, -47579.689035378586, -58448.22477677164, -33643.42107098354, -14984.29655841548, -0.124, 0.9480000000000001, 0.266, 192.0, 0.0, 0.0, 0.0, 0.0, 0.0, 0.0, 0.0, 0.0, 0.0, 1.700946896676019E9, 0.0, 2023-11-25 16:14:56.676
2.0, 8212.455596024465, 15451.15744485348, -54134.651021319754, -57241.141169207236, -47827.793398832495, -58319.97046708709, -33663.98467588242, -15003.764927836053, -0.124, 0.9480000000000001, 0.266, 192.0, 0.0, 0.0, 0.0, 0.0, 0.0, 0.0, 0.0, 0.0, 0.0, 1.700946896679125E9, 0.0, 2023-11-25 16:14:56.679
3.0, 8341.805141187328, 15497.425555875965, -54156.600434374865, -57250.88652978975, -47686.083338985845, -58190.732680646506, -33691.0526384178, -15033.626858428343, -0.124, 0.9480000000000001, 0.266, 192.0, 0.0, 0.0, 0.0, 0.0, 0.0, 0.0, 0.0, 0.0, 0.0, 1.700946896684098E9, 0.0, 2023-11-25 16:14:56.684
4.0, 8433.33553473181, 15419.507374704765, -54143.77053305752, -57295.54531521146, -47234.533397499734, -58200.96977960703, -33723.12739171117, -15077.771553727574, -0.124, 0.9480000000000001, 0.266, 192.0, 0.0, 0.0, 0.0, 0.0, 0.0, 0.0, 0.0, 0.0, 0.0, 1.700946896688104E9, 0.0, 2023-11-25 16:14:56.688
5.0, 8209.438110522999, 15378.447220140366, -54128.61605031682, -57264.11876250729, -47445.019775035355, -58431.37156145234, -33674.71351322097, -15032.241050272114, -0.124, 0.9480000000000001, 0.266, 192.0, 0.0, 0.0, 0.0, 0.0, 0.0, 0.0, 0.0, 0.0, 0.0, 1.700946896692304E9, 0.0, 2023-11-25 16:14:56.692
6.0, 8188.293360268279, 15434.125415578535, -54126.51498633802, -57240.7611895515, -47838.38812570431, -58364.74101123107, -33663.314123548764, -15021.579268166932, -0.124, 0.9480000000000001, 0.266, 192.0, 0.0, 0.0, 0.0, 0.0, 0.0, 0.0, 0.0, 0.0, 0.0, 1.700946896696145E9, 0.0, 2023-11-25 16:14:56.696
7.0, 8325.421312501587, 15499.280750665755, -54146.96683251463, -57241.11881746278, -47715.90056608922, -58196.745299904986, -33685.04001915932, -15040.6006026984, -0.124, 0.9480000000000001, 0.266, 192.0, 0.0, 0.0, 0.0, 0.0, 0.0, 0.0, 0.0, 0.0, 0.0, 1.70094689670005E9, 0.0, 2023-11-25 16:14:56.700
8.0, 8440.421037724142, 15442.373209282543, -54144.508140624544, -57284.704719150635, -47310.70814260342, -58176.96400606204, -33724.692013823034, -15086.55578929851, -0.124, 0.9480000000000001, 0.266, 192.0, 0.0, 0.0, 0.0, 0.0, 0.0, 0.0, 0.0, 0.0, 0.0, 1.700946896703115E9, 0.0, 2023-11-25 16:14:56.703
9.0, 8252.711087788473, 15368.925377002404, -54149.1796552157, -57283.76594588351, -47323.7168578764, -58400.01206398154, -33710.05162120481, -15069.769629212575, -0.124, 0.9480000000000001, 0.266, 192.0, 0.0, 0.0, 0.0, 0.0, 0.0, 0.0, 0.0, 0.0, 0.0, 1.700946896707048E9, 0.0, 2023-11-25 16:14:56.707
10.0, 8158.4314296759885, 15421.206107283368, -54141.781227800995, -57242.057590729906, -47838.36577395985, -58406.65053208477, -33669.46085327397, -15026.429596713735, -0.122, 0.9460000000000001, 0.26, 192.0, 252.0, 48.0, 29.0, 144.0, 8.0, 32.0, 0.0, 0.0, 0.0, 1.700946896711096E9, 0.0, 2023-11-25 16:14:56.711
11.0, 8284.584675381742, 15472.749229997306, -54171.73256537111, -57251.64648910124, -47742.9685286246, -58220.795776938896, -33675.78639695483, -15034.4985764621, -0.122, 0.9460000000000001, 0.26, 192.0, 0.0, 0.0, 0.0, 0.0, 0.0, 0.0, 0.0, 0.0, 0.0, 1.700946896716094E9, 0.0, 2023-11-25 16:14:56.716
12.0, 8431.81561610885, 15467.720087494861, -54141.80357954545, -57255.49098914755, -47405.83716700521, -58154.791075562374, -33673.01478064236, -15035.035018329028, -0.122, 0.9460000000000001, 0.26, 192.0, 0.0, 0.0, 0.0, 0.0, 0.0, 0.0, 0.0, 0.0, 0.0, 1.700946896720084E9, 0.0, 2023-11-25 16:14:56.720
13.0, 8318.73814090945, 15375.18386544989, -54146.07276273642, -57277.10512603583, -47217.79194090271, -58326.1171968123, -33674.355885309684, -15033.537451450522, -0.122, 0.9460000000000001, 0.26, 192.0, 0.0, 0.0, 0.0, 0.0, 0.0, 0.0, 0.0, 0.0, 0.0, 1.70094689672417E9, 0.0, 2023-11-25 16:14:56.724
14.0, 8151.301223194746, 15406.47630768732, -54142.04944873446, -57238.70482906161, -47805.26284042154, -58417.9381630347, -33629.67474814352, -14981.591997336389, -0.122, 0.9460000000000001, 0.26, 192.0, 0.0, 0.0, 0.0, 0.0, 0.0, 0.0, 0.0, 0.0, 0.0, 1.700946896727123E9, 0.0, 2023-11-25 16:14:56.727
15.0, 8274.034651998836, 15462.646241503508, -54173.185428760706, -57253.25581470202, -47767.33193008089, -58229.35649506527, -33657.25680080138, -15008.21292498266, -0.122, 0.9460000000000001, 0.26, 192.0, 0.0, 0.0, 0.0, 0.0, 0.0, 0.0, 0.0, 0.0, 0.0, 1.70094689673122E9, 0.0, 2023-11-25 16:14:56.731
16.0, 8405.70877858505, 15458.175892612446, -54175.35354797287, -57278.78150686998, -47505.2130228535, -58163.9776425335, -33684.12359763665, -15039.393608497812, -0.122, 0.9460000000000001, 0.26, 192.0, 0.0, 0.0, 0.0, 0.0, 0.0, 0.0, 0.0, 0.0, 0.0, 1.700946896735158E9, 0.0, 2023-11-25 16:14:56.735
17.0, 8350.969356414003, 15353.23445239478, -54176.29232123999, -57319.41697828972, -47170.361539168545, -58304.8606878353, -33699.27808037735, -15065.500446021611, -0.122, 0.9460000000000001, 0.26, 192.0, 0.0, 0.0, 0.0, 0.0, 0.0, 0.0, 0.0, 0.0, 0.0, 1.700946896740126E9, 0.0, 2023-11-25 16:14:56.740
18.0, 8131.452874118433, 15380.95061551936, -54155.57225412992, -57261.52596015048, -47760.022909644, -58465.54737872451, -33624.98088180791, -14993.505477131068, -0.122, 0.9460000000000001, 0.26, 192.0, 0.0, 0.0, 0.0, 0.0, 0.0, 0.0, 0.0, 0.0, 0.0, 1.700946896744152E9, 0.0, 2023-11-25 16:14:56.744
19.0, 8238.875357970639, 15439.780406925727, -54176.40407996227, -57269.326718965385, -47798.1326339403, -58273.6576525757, -33646.70677741847, -15015.633704141821, -0.122, 0.9460000000000001, 0.26, 192.0, 0.0, 0.0, 0.0, 0.0, 0.0, 0.0, 0.0, 0.0, 0.0, 1.700946896748193E9, 0.0, 2023-11-25 16:14:56.748
20.0, 8374.215170647523, 15468.63650901753, -54170.458515937156, -57271.04780328844, -47599.5820879438, -58176.49461942847, -33663.22471657094, -15028.664771159265, -0.116, 0.9560000000000001, 0.254, 192.0, 252.0, 96.0, 29.0, 224.0, 7.0, 240.0, 0.0, 0.0, 0.0, 1.700946896752206E9, 0.0, 2023-11-25 16:14:56.752
21.0, 8384.429917863597, 15368.008955479736, -54164.40119318977, -57313.225545075606, -47162.06904197563, -58260.24660590251, -33699.85922573319, -15063.086457620439, -0.116, 0.9560000000000001, 0.254, 192.0, 0.0, 0.0, 0.0, 0.0, 0.0, 0.0, 0.0, 0.0, 0.0, 1.700946896755205E9, 0.0, 2023-11-25 16:14:56.755
22.0, 8150.608319116631, 15384.705708587851, -54135.90271900925, -57243.443398886135, -47655.752021759996, -58457.210178042675, -33631.373480722126, -14986.10704971636, -0.116, 0.9560000000000001, 0.254, 192.0, 0.0, 0.0, 0.0, 0.0, 0.0, 0.0, 0.0, 0.0, 0.0, 1.700946896759272E9, 0.0, 2023-11-25 16:14:56.759
23.0, 8239.769427748852, 15452.699715220895, -54147.4809226371, -57236.20143368262, -47800.90425025276, -58283.850048047316, -33653.47935598843, -15001.663863857255, -0.116, 0.9560000000000001, 0.254, 192.0, 0.0, 0.0, 0.0, 0.0, 0.0, 0.0, 0.0, 0.0, 0.0, 1.700946896763203E9, 0.0, 2023-11-25 16:14:56.763
24.0, 8367.75551649994, 15484.506247580797, -54172.51487642704, -57250.95358502312, -47645.62668152174, -58172.91834031563, -33695.72415300896, -15034.051541572993, -0.116, 0.9560000000000001, 0.254, 192.0, 0.0, 0.0, 0.0, 0.0, 0.0, 0.0, 0.0, 0.0, 0.0, 1.700946896767199E9, 0.0, 2023-11-25 16:14:56.767
25.0, 8423.321953215833, 15395.032214526203, -54164.58000714541, -57297.6240274458, -47181.35859744056, -58221.131053105724, -33745.00974953291, -15085.013518931095, -0.116, 0.9560000000000001, 0.254, 192.0, 0.0, 0.0, 0.0, 0.0, 0.0, 0.0, 0.0, 0.0, 0.0, 1.700946896772179E9, 0.0, 2023-11-25 16:14:56.772
26.0, 8178.816220619228, 15378.80484805165, -54147.19034995918, -57251.66884084569, -47531.45397084403, -58447.26365176006, -33682.44721680251, -15020.34992222189, -0.116, 0.9560000000000001, 0.254, 192.0, 0.0, 0.0, 0.0, 0.0, 0.0, 0.0, 0.0, 0.0, 0.0, 1.700946896776196E9, 0.0, 2023-11-25 16:14:56.776
27.0, 8207.158232588557, 15437.72404643584, -54150.99014651658, -57236.737875549545, -47809.50967186805, -58326.38541774576, -33673.595925998205, -15015.58900065291, -0.116, 0.9560000000000001, 0.254, 192.0, 0.0, 0.0, 0.0, 0.0, 0.0, 0.0, 0.0, 0.0, 0.0, 1.700946896780233E9, 0.0, 2023-11-25 16:14:56.780
28.0, 8341.358106298221, 15492.284654651245, -54166.166981001734, -57238.50366336152, -47680.11542321628, -58182.61899740923, -33683.67656274755, -15032.129291549838, -0.116, 0.9560000000000001, 0.254, 192.0, 0.0, 0.0, 0.0, 0.0, 0.0, 0.0, 0.0, 0.0, 0.0, 1.70094689678324E9, 0.0, 2023-11-25 16:14:56.783
29.0, 8436.397723722188, 15412.444223456887, -54159.14853324277, -57285.93406509567, -47232.566443987664, -58183.311901487345, -33718.94761549802, -15074.17292287027, -0.116, 0.9560000000000001, 0.254, 192.0, 0.0, 0.0, 0.0, 0.0, 0.0, 0.0, 0.0, 0.0, 0.0, 1.700946896787261E9, 0.0, 2023-11-25 16:14:56.787
30.0, 8215.517785014843, 15362.599833321552, -54147.726791826106, -57261.03422177246, -47388.64867551907, -58411.32204667593, -33676.14402486611, -15029.715303148665, -0.11800000000000001, 0.9480000000000001, 0.258, 192.0, 252.0, 80.0, 29.0, 160.0, 8.0, 16.0, 0.0, 0.0, 0.0, 1.700946896791324E9, 0.0, 2023-11-25 16:14:56.791
31.0, 8185.6111509336415, 15425.877621874526, -54136.28269866499, -57228.80300626791, -47803.31823865393, -58353.11810411431, -33647.578495452224, -15002.468526657645, -0.11800000000000001, 0.9480000000000001, 0.258, 192.0, 0.0, 0.0, 0.0, 0.0, 0.0, 0.0, 0.0, 0.0, 0.0, 1.700946896795269E9, 0.0, 2023-11-25 16:14:56.795
32.0, 8313.150204795624, 15480.147657412012, -54173.185428760706, -57248.78546581096, -47692.163013477686, -58192.85609636976, -33682.93895518052, -15032.151643294294, -0.11800000000000001, 0.9480000000000001, 0.258, 192.0, 0.0, 0.0, 0.0, 0.0, 0.0, 0.0, 0.0, 0.0, 0.0, 1.700946896800242E9, 0.0, 2023-11-25 16:14:56.800
33.0, 8433.916680087648, 15434.930078378926, -54157.98624253109, -57281.843695860356, -47308.65178211353, -58166.99512803497, -33710.8562840052, -15064.271100076568, -0.11800000000000001, 0.9480000000000001, 0.258, 192.0, 0.0, 0.0, 0.0, 0.0, 0.0, 0.0, 0.0, 0.0, 0.0, 1.70094689680428E9, 0.0, 2023-11-25 16:14:56.804
34.0, 8274.906370032593, 15371.719345059319, -54140.663640578234, -57270.84663758834, -47267.949255460415, -58364.42808680869, -33674.66880973206, -15033.537451450522, -0.11800000000000001, 0.9480000000000001, 0.258, 192.0, 0.0, 0.0, 0.0, 0.0, 0.0, 0.0, 0.0, 0.0, 0.0, 1.700946896808265E9, 0.0, 2023-11-25 16:14:56.808
35.0, 8163.99701404536, 15417.85334561507, -54134.56161434193, -57233.586279581345, -47799.02670371851, -58387.6291975533, -33632.84869585618, -14984.564779348944, -0.11800000000000001, 0.9480000000000001, 0.258, 192.0, 0.0, 0.0, 0.0, 0.0, 0.0, 0.0, 0.0, 0.0, 0.0, 1.700946896811299E9, 0.0, 2023-11-25 16:14:56.811
36.0, 8296.989893554437, 15483.075735935658, -54160.9813762881, -57239.509491862, -47725.712981905104, -58202.75791916346, -33654.865164144656, -14996.813535310452, -0.11800000000000001, 0.9480000000000001, 0.258, 192.0, 0.0, 0.0, 0.0, 0.0, 0.0, 0.0, 0.0, 0.0, 0.0, 1.700946896815321E9, 0.0, 2023-11-25 16:14:56.815
37.0, 8440.465741213053, 15477.420744588466, -54144.7316580691, -57256.72033509259, -47408.29585889529, -58142.25174692294, -33669.10322536269, -15012.63857038481, -0.11800000000000001, 0.9480000000000001, 0.258, 192.0, 0.0, 0.0, 0.0, 0.0, 0.0, 0.0, 0.0, 0.0, 0.0, 1.700946896819442E9, 0.0, 2023-11-25 16:14:56.819
38.0, 8328.662315447607, 15378.603682351553, -54153.3817831733, -57288.99625408605, -47182.54323989669, -58309.37574021528, -33676.61341149967, -15022.629800156332, -0.11800000000000001, 0.9480000000000001, 0.258, 192.0, 0.0, 0.0, 0.0, 0.0, 0.0, 0.0, 0.0, 0.0, 0.0, 1.700946896823353E9, 0.0, 2023-11-25 16:14:56.823
39.0, 8147.479074892888, 15414.165307779946, -54140.21660568912, -57238.905994761706, -47778.95483719765, -58417.714645590146, -33622.36572770664, -14962.905938971751, -0.11800000000000001, 0.9480000000000001, 0.258, 192.0, 0.0, 0.0, 0.0, 0.0, 0.0, 0.0, 0.0, 0.0, 0.0, 1.700946896828362E9, 0.0, 2023-11-25 16:14:56.828
40.0, 8284.02588177036, 15488.373099371565, -54158.05329776446, -57242.4599221301, -47750.948101395144, -58220.86283217226, -33643.890457617104, -14987.425802639224, -0.122, 0.9420000000000001, 0.26, 192.0, 252.0, 48.0, 29.0, 112.0, 8.0, 32.0, 0.0, 0.0, 0.0, 1.700946896832361E9, 0.0, 2023-11-25 16:14:56.832
41.0, 8416.817595579338, 15486.696718537418, -54161.204893732654, -57267.56093115341, -47491.243182568935, -58149.51606387092, -33678.53566152283, -15024.864974601864, -0.122, 0.9420000000000001, 0.26, 192.0, 0.0, 0.0, 0.0, 0.0, 0.0, 0.0, 0.0, 0.0, 0.0, 1.700946896836402E9, 0.0, 2023-11-25 16:14:56.836
42.0, 8380.250141650456, 15389.265464456734, -54149.24671044907, -57296.26057103403, -47120.96418392232, -58274.77523979846, -33697.95932745449, -15046.188538812226, -0.122, 0.9420000000000001, 0.26, 192.0, 0.0, 0.0, 0.0, 0.0, 0.0, 0.0, 0.0, 0.0, 0.0, 1.700946896839408E9, 0.0, 2023-11-25 16:14:56.839
43.0, 8166.254540235346, 15422.211935783856, -54113.394512342755, -57223.34918062082, -47694.19702222312, -58431.86329983036, -33619.57175964973, -14965.811665750942, -0.122, 0.9420000000000001, 0.26, 192.0, 0.0, 0.0, 0.0, 0.0, 0.0, 0.0, 0.0, 0.0, 0.0, 1.700946896843446E9, 0.0, 2023-11-25 16:14:56.843
44.0, 8266.479762372943, 15474.045631175713, -54143.43525689069, -57239.62125058428, -47756.35722355333, -58250.85887323128, -33652.0935478322, -15000.278055701025, -0.122, 0.9420000000000001, 0.26, 192.0, 0.0, 0.0, 0.0, 0.0, 0.0, 0.0, 0.0, 0.0, 0.0, 1.700946896847457E9, 0.0, 2023-11-25 16:14:56.847
45.0, 8400.880801782705, 15514.457585150909, -54144.88812028028, -57244.292765175436, -47574.54813415386, -58157.98737501948, -33672.701856219996, -15020.193460010703, -0.122, 0.9420000000000001, 0.26, 192.0, 0.0, 0.0, 0.0, 0.0, 0.0, 0.0, 0.0, 0.0, 0.0, 1.700946896851415E9, 0.0, 2023-11-25 16:14:56.851
46.0, 8425.110092772256, 15416.691054903396, -54139.277832422005, -57292.661940176724, -47126.95445143634, -58230.69759973259, -33714.074935206765, -15064.002879143105, -0.122, 0.9420000000000001, 0.26, 192.0, 0.0, 0.0, 0.0, 0.0, 0.0, 0.0, 0.0, 0.0, 0.0, 1.70094689685546E9, 0.0, 2023-11-25 16:14:56.855
47.0, 8175.754031628851, 15412.377168223522, -54123.81042525893, -57240.716486062585, -47607.89693688118, -58448.62710817184, -33656.966228123456, -14999.87572430083, -0.122, 0.9420000000000001, 0.26, 192.0, 0.0, 0.0, 0.0, 0.0, 0.0, 0.0, 0.0, 0.0, 0.0, 1.700946896860477E9, 0.0, 2023-11-25 16:14:56.860
48.0, 8249.2465673979, 15478.53833181123, -54128.90662299474, -57230.68055280216, -47778.99954068656, -58289.16976322768, -33664.90109740509, -15010.291637217002, -0.122, 0.9420000000000001, 0.26, 192.0, 0.0, 0.0, 0.0, 0.0, 0.0, 0.0, 0.0, 0.0, 0.0, 1.700946896864424E9, 0.0, 2023-11-25 16:14:56.864
49.0, 8381.94887422906, 15530.148509758534, -54138.987259744084, -57234.301535403916, -47625.37600104523, -58174.34885196076, -33687.61046977168, -15032.375160738846, -0.122, 0.9420000000000001, 0.26, 192.0, 0.0, 0.0, 0.0, 0.0, 0.0, 0.0, 0.0, 0.0, 0.0, 1.700946896867627E9, 0.0, 2023-11-25 16:14:56.867
50.0, 8446.277194771434, 15434.214822556356, -54136.752085298554, -57288.3704052413, -47154.24593141627, -58212.1903553236, -33735.08557499475, -15090.646158533831, -0.11800000000000001, 0.9420000000000001, 0.262, 192.0, 252.0, 80.0, 29.0, 112.0, 8.0, 48.0, 0.0, 0.0, 0.0, 1.700946896871465E9, 0.0, 2023-11-25 16:14:56.871
51.0, 8212.165023346546, 15419.663836915952, -54110.6228960303, -57233.63098307026, -47475.82047889477, -58434.500805676085, -33661.570687481246, -15011.811555839964, -0.11800000000000001, 0.9420000000000001, 0.262, 192.0, 0.0, 0.0, 0.0, 0.0, 0.0, 0.0, 0.0, 0.0, 0.0, 1.700946896875451E9, 0.0, 2023-11-25 16:14:56.875
52.0, 8229.666439255052, 15470.938738696426, -54119.87651823479, -57225.494948088526, -47783.35813085534, -58323.3679322443, -33652.361768765666, -15003.429651669223, -0.11800000000000001, 0.9420000000000001, 0.262, 192.0, 0.0, 0.0, 0.0, 0.0, 0.0, 0.0, 0.0, 0.0, 0.0, 1.700946896879503E9, 0.0, 2023-11-25 16:14:56.879
53.0, 8344.196777844045, 15507.439137391942, -54157.85213206436, -57247.645526843735, -47662.43519335213, -58188.09517480078, -33682.268402846865, -15030.944649093706, -0.11800000000000001, 0.9420000000000001, 0.262, 192.0, 0.0, 0.0, 0.0, 0.0, 0.0, 0.0, 0.0, 0.0, 0.0, 1.700946896883467E9, 0.0, 2023-11-25 16:14:56.883
54.0, 8442.253880769478, 15433.566621967153, -54149.31376568243, -57294.204210544136, -47229.146627086004, -58186.03881431089, -33713.49378985093, -15066.908605922295, -0.11800000000000001, 0.9420000000000001, 0.262, 192.0, 0.0, 0.0, 0.0, 0.0, 0.0, 0.0, 0.0, 0.0, 0.0, 1.700946896888502E9, 0.0, 2023-11-25 16:14:56.888
55.0, 8224.078503141225, 15373.775705549206, -54145.89394878077, -57280.23437025957, -47355.411631514035, -58409.89153503079, -33671.94189690851, -15020.528736177534, -0.11800000000000001, 0.9420000000000001, 0.262, 192.0, 0.0, 0.0, 0.0, 0.0, 0.0, 0.0, 0.0, 0.0, 0.0, 1.700946896892509E9, 0.0, 2023-11-25 16:14:56.892
56.0, 8167.796810602762, 15426.078787574625, -54148.643213348776, -57253.68049784667, -47807.1850904447, -58372.38530783478, -33646.79618439629, -14991.270302685536, -0.11800000000000001, 0.9420000000000001, 0.262, 192.0, 0.0, 0.0, 0.0, 0.0, 0.0, 0.0, 0.0, 0.0, 0.0, 1.700946896895538E9, 0.0, 2023-11-25 16:14:56.895
57.0, 8305.617666914186, 15493.469297107375, -54173.878332838816, -57253.6134426133, -47716.45935970061, -58203.27200928593, -33662.352998537186, -15006.760061593064, -0.11800000000000001, 0.9420000000000001, 0.262, 192.0, 0.0, 0.0, 0.0, 0.0, 0.0, 0.0, 0.0, 0.0, 0.0, 1.700946896899659E9, 0.0, 2023-11-25 16:14:56.899
58.0, 8442.05271506938, 15455.694848977906, -54165.71994611263, -57283.5200766945, -47337.32907024969, -58163.396497177666, -33693.55603379679, -15038.857166630885, -0.11800000000000001, 0.9420000000000001, 0.262, 192.0, 0.0, 0.0, 0.0, 0.0, 0.0, 0.0, 0.0, 0.0, 0.0, 1.700946896903526E9, 0.0, 2023-11-25 16:14:56.903
59.0, 8270.3019106748, 15361.146969931957, -54183.10960329886, -57302.586114714875, -47252.16892387497, -58365.59037752037, -33693.734847752436, -15029.178861281736, -0.11800000000000001, 0.9420000000000001, 0.262, 192.0, 0.0, 0.0, 0.0, 0.0, 0.0, 0.0, 0.0, 0.0, 0.0, 1.700946896906592E9, 0.0, 2023-11-25 16:14:56.906
60.0, 8144.3721824136, 15420.468499716342, -54165.5858356459, -57247.220843699084, -47810.06846547943, -58405.42118613973, -33630.881742344114, -14964.53761631699, -0.116, 0.9520000000000001, 0.262, 192.0, 252.0, 96.0, 29.0, 192.0, 8.0, 48.0, 0.0, 0.0, 0.0, 1.700946896911542E9, 0.0, 2023-11-25 16:14:56.911
61.0, 8285.2552277154, 15488.864837749583, -54193.72668191513, -57250.23832920055, -47748.154133338234, -58209.68695994461, -33650.864201887154, -14979.736802546598, -0.116, 0.9520000000000001, 0.262, 192.0, 0.0, 0.0, 0.0, 0.0, 0.0, 0.0, 0.0, 0.0, 0.0, 1.700946896915611E9, 0.0, 2023-11-25 16:14:56.915
62.0, 8422.226717737522, 15473.844465475615, -54191.849135380886, -57276.63573940227, -47445.35505120219, -58153.248805194955, -33685.554109281795, -15016.460718686667, -0.116, 0.9520000000000001, 0.262, 192.0, 0.0, 0.0, 0.0, 0.0, 0.0, 0.0, 0.0, 0.0, 0.0, 1.700946896919648E9, 0.0, 2023-11-25 16:14:56.919
63.0, 8332.529167238376, 15389.08665050109, -54183.35547248787, -57293.153678554736, -47184.95722829786, -58314.181365273165, -33692.393743085115, -15028.843585114908, -0.116, 0.9520000000000001, 0.262, 192.0, 0.0, 0.0, 0.0, 0.0, 0.0, 0.0, 0.0, 0.0, 0.0, 1.700946896923632E9, 0.0, 2023-11-25 16:14:56.923
64.0, 8160.800714588251, 15441.121511593046, -54145.826893547404, -57220.28699163044, -47764.98499691308, -58418.698122346184, -33622.008099795356, -14959.419066836725, -0.116, 0.9520000000000001, 0.262, 192.0, 0.0, 0.0, 0.0, 0.0, 0.0, 0.0, 0.0, 0.0, 0.0, 1.700946896927693E9, 0.0, 2023-11-25 16:14:56.927
65.0, 8301.415538956588, 15515.21754446239, -54152.64417560628, -57215.838994483835, -47749.0705548609, -58220.41579728315, -33641.11884130464, -14979.848561268875, -0.116, 0.9520000000000001, 0.262, 192.0, 0.0, 0.0, 0.0, 0.0, 0.0, 0.0, 0.0, 0.0, 0.0, 1.700946896932636E9, 0.0, 2023-11-25 16:14:56.932
66.0, 8447.350078505287, 15532.182518503967, -54145.93865226968, -57231.41816036918, -47502.35199956322, -58145.58215684679, -33673.394760298106, -15022.093358289405, -0.116, 0.9520000000000001, 0.262, 192.0, 0.0, 0.0, 0.0, 0.0, 0.0, 0.0, 0.0, 0.0, 0.0, 1.700946896935609E9, 0.0, 2023-11-25 16:14:56.935
67.0, 8415.342380445289, 15430.258563787767, -54139.85897777784, -57274.15469576773, -47101.987552879764, -58265.27574840495, -33709.045792704324, -15064.047582632016, -0.116, 0.9520000000000001, 0.262, 192.0, 0.0, 0.0, 0.0, 0.0, 0.0, 0.0, 0.0, 0.0, 0.0, 1.70094689693959E9, 0.0, 2023-11-25 16:14:56.939
68.0, 8190.506182969354, 15456.767732711762, -54108.47712856259, -57207.233572868536, -47657.070774682856, -58442.65919240227, -33644.53865820631, -14990.599750351877, -0.116, 0.9520000000000001, 0.262, 192.0, 0.0, 0.0, 0.0, 0.0, 0.0, 0.0, 0.0, 0.0, 0.0, 1.700946896943644E9, 0.0, 2023-11-25 16:14:56.943
69.0, 8283.802364325806, 15502.566457100686, -54139.4789981221, -57225.338485877335, -47740.91216813471, -58272.003623486, -33668.72324570695, -15023.30035248999, -0.116, 0.9520000000000001, 0.262, 192.0, 0.0, 0.0, 0.0, 0.0, 0.0, 0.0, 0.0, 0.0, 0.0, 1.700946896947707E9, 0.0, 2023-11-25 16:14:56.947
70.0, 8422.00320029297, 15545.705323899429, -54133.93576549718, -57218.94588696312, -47565.09334624927, -58161.07191575431, -33674.780568454335, -15026.07196880245, -0.11, 0.9500000000000001, 0.258, 192.0, 252.0, 144.0, 29.0, 176.0, 8.0, 16.0, 0.0, 0.0, 0.0, 1.700946896951693E9, 0.0, 2023-11-25 16:14:56.951
71.0, 8445.114904059757, 15444.541328494708, -54133.06404746343, -57268.5667596539, -47102.412236024415, -58223.47798627353, -33718.23235967545, -15071.825989702464, -0.11, 0.9500000000000001, 0.258, 192.0, 0.0, 0.0, 0.0, 0.0, 0.0, 0.0, 0.0, 0.0, 0.0, 1.700946896955675E9, 0.0, 2023-11-25 16:14:56.955
72.0, 8196.071767338726, 15446.48593026232, -54107.85127971784, -57205.8030612234, -47553.738660065974, -58430.74571260759, -33639.57657093723, -14989.30334917347, -0.11, 0.9500000000000001, 0.258, 192.0, 0.0, 0.0, 0.0, 0.0, 0.0, 0.0, 0.0, 0.0, 0.0, 1.700946896960714E9, 0.0, 2023-11-25 16:14:56.960
73.0, 8256.756753534884, 15497.045576220224, -54127.029076460494, -57210.04989266991, -47749.74110719456, -58278.01624274448, -33656.69800718999, -15004.21196272516, -0.11, 0.9500000000000001, 0.258, 192.0, 0.0, 0.0, 0.0, 0.0, 0.0, 0.0, 0.0, 0.0, 0.0, 1.700946896963661E9, 0.0, 2023-11-25 16:14:56.963
74.0, 8385.61456031973, 15548.186367533966, -54143.122332468316, -57215.36960785027, -47613.95425962857, -58159.46259015353, -33679.58619351223, -15023.278000745537, -0.11, 0.9500000000000001, 0.258, 192.0, 0.0, 0.0, 0.0, 0.0, 0.0, 0.0, 0.0, 0.0, 0.0, 1.700946896966662E9, 0.0, 2023-11-25 16:14:56.966
75.0, 8468.025442126447, 15470.15642764049, -54126.33617238238, -57257.1673699817, -47144.29940513366, -58176.60637815075, -33712.93499623954, -15060.247786074613, -0.11, 0.9500000000000001, 0.258, 192.0, 0.0, 0.0, 0.0, 0.0, 0.0, 0.0, 0.0, 0.0, 0.0, 1.700946896971679E9, 0.0, 2023-11-25 16:14:56.971
76.0, 8221.686866484508, 15429.073921331636, -54116.79197749996, -57226.43372135565, -47421.59514684619, -58406.94110476269, -33657.793242668304, -15002.15560223527, -0.11, 0.9500000000000001, 0.258, 192.0, 0.0, 0.0, 0.0, 0.0, 0.0, 0.0, 0.0, 0.0, 0.0, 1.70094689697578E9, 0.0, 2023-11-25 16:14:56.975
77.0, 8224.458482796965, 15487.881360993548, -54110.64524777475, -57202.629113510746, -47762.68276723418, -58307.78876635895, -33631.95462607797, -14979.557988590956, -0.11, 0.9500000000000001, 0.258, 192.0, 0.0, 0.0, 0.0, 0.0, 0.0, 0.0, 0.0, 0.0, 0.0, 1.700946896979839E9, 0.0, 2023-11-25 16:14:56.979
78.0, 8343.258004576923, 15529.45560568042, -54146.58685285889, -57221.85161374231, -47652.935701958624, -58161.51895064342, -33664.31995204925, -15007.140041248804, -0.11, 0.9500000000000001, 0.258, 192.0, 0.0, 0.0, 0.0, 0.0, 0.0, 0.0, 0.0, 0.0, 0.0, 1.700946896983727E9, 0.0, 2023-11-25 16:14:56.983
79.0, 8445.293718015399, 15460.992212413814, -54141.66946907872, -57266.935082308664, -47227.69376369641, -58156.467456396516, -33701.04386818932, -15044.087474833426, -0.11, 0.9500000000000001, 0.258, 192.0, 0.0, 0.0, 0.0, 0.0, 0.0, 0.0, 0.0, 0.0, 0.0, 1.700946896987806E9, 0.0, 2023-11-25 16:14:56.987
80.0, 8250.565320320764, 15412.734796134806, -54126.93966948267, -57244.89626227573, -47306.10368324562, -58368.36199383283, -33659.2461060579, -14993.796049808985, -0.112, 0.9560000000000001, 0.254, 192.0, 252.0, 128.0, 29.0, 224.0, 7.0, 240.0, 0.0, 0.0, 0.0, 1.700946896991869E9, 0.0, 2023-11-25 16:14:56.991
81.0, 8176.961025829438, 15452.520901265252, -54134.47220736411, -57225.89727948872, -47772.11520339432, -58344.512682499015, -33640.2918267598, -14971.62311930932, -0.112, 0.9560000000000001, 0.254, 192.0, 0.0, 0.0, 0.0, 0.0, 0.0, 0.0, 0.0, 0.0, 0.0, 1.700946896994737E9, 0.0, 2023-11-25 16:14:56.994
82.0, 8309.2610012604, 15524.180593988967, -54153.29237619548, -57220.64461954172, -47686.3068564304, -58168.202122235554, -33654.149908322084, -14978.842732768386, -0.112, 0.9560000000000001, 0.254, 192.0, 0.0, 0.0, 0.0, 0.0, 0.0, 0.0, 0.0, 0.0, 0.0, 1.700946896998826E9, 0.0, 2023-11-25 16:14:56.998
83.0, 8448.937052361614, 15501.873553022571, -54134.293393408465, -57242.52697736347, -47322.0181252978, -58119.49767106744, -33679.00504815639, -15003.384948180314, -0.112, 0.9560000000000001, 0.254, 192.0, 0.0, 0.0, 0.0, 0.0, 0.0, 0.0, 0.0, 0.0, 0.0, 1.70094689700383E9, 0.0, 2023-11-25 16:14:57.003
84.0, 8308.433986715554, 15422.301342761677, -54131.365314884824, -57252.3617449238, -47198.90471683797, -58312.54968792793, -33672.701856219996, -14997.215866710649, -0.112, 0.9560000000000001, 0.254, 192.0, 0.0, 0.0, 0.0, 0.0, 0.0, 0.0, 0.0, 0.0, 0.0, 1.700946897007845E9, 0.0, 2023-11-25 16:14:57.007
85.0, 8179.710290397441, 15472.97274744186, -54109.19238438516, -57200.99743616551, -47756.53603750897, -58368.47375255511, -33626.59020740869, -14950.925403943707, -0.112, 0.9560000000000001, 0.254, 192.0, 0.0, 0.0, 0.0, 0.0, 0.0, 0.0, 0.0, 0.0, 0.0, 1.700946897011798E9, 0.0, 2023-11-25 16:14:57.011
86.0, 8316.391207741644, 15537.45753019542, -54130.15832068423, -57206.02657866795, -47706.423426440175, -58184.56359917684, -33650.68538793152, -14977.255758912059, -0.112, 0.9560000000000001, 0.254, 192.0, 0.0, 0.0, 0.0, 0.0, 0.0, 0.0, 0.0, 0.0, 0.0, 1.700946897015826E9, 0.0, 2023-11-25 16:14:57.015
87.0, 8455.284947786922, 15524.64998062253, -54125.39739911526, -57231.30640164691, -47415.51547235435, -58121.59873504624, -33674.11001612068, -15010.44809942819, -0.112, 0.9560000000000001, 0.254, 192.0, 0.0, 0.0, 0.0, 0.0, 0.0, 0.0, 0.0, 0.0, 0.0, 1.700946897019835E9, 0.0, 2023-11-25 16:14:57.019
88.0, 8369.811876989826, 15417.76393863725, -54130.96298348463, -57268.49970442054, -47120.24892809975, -58275.57990259885, -33691.0526384178, -15036.331419507434, -0.112, 0.9560000000000001, 0.254, 192.0, 0.0, 0.0, 0.0, 0.0, 0.0, 0.0, 0.0, 0.0, 0.0, 1.700946897022864E9, 0.0, 2023-11-25 16:14:57.022
89.0, 8175.485810695388, 15459.49464553531, -54103.269172104505, -57203.79140422242, -47712.14547302073, -58403.454232627664, -33616.01783228133, -14965.476389584112, -0.112, 0.9560000000000001, 0.254, 192.0, 0.0, 0.0, 0.0, 0.0, 0.0, 0.0, 0.0, 0.0, 0.0, 1.700946897026879E9, 0.0, 2023-11-25 16:14:57.026
90.0, 8288.250361472412, 15516.603352618618, -54131.164149184726, -57216.241325884024, -47722.82960687037, -58215.252544313975, -33644.60571343967, -14998.691081844698, -0.124, 0.9480000000000001, 0.262, 192.0, 252.0, 32.0, 29.0, 160.0, 8.0, 48.0, 0.0, 0.0, 0.0, 1.700946897031833E9, 0.0, 2023-11-25 16:14:57.031
91.0, 8427.009991050958, 15545.258289010322, -54120.83764324637, -57221.96337246458, -47502.37435130768, -58128.66188629412, -33659.29080954681, -15020.774605366541, -0.124, 0.9480000000000001, 0.262, 192.0, 0.0, 0.0, 0.0, 0.0, 0.0, 0.0, 0.0, 0.0, 0.0, 1.700946897035867E9, 0.0, 2023-11-25 16:14:57.035
92.0, 8419.253935724966, 15445.81537792866, -54115.09324492136, -57266.6668613752, -47093.27037254219, -58228.752997964984, -33686.0011441709, -15058.481998262645, -0.124, 0.9480000000000001, 0.262, 192.0, 0.0, 0.0, 0.0, 0.0, 0.0, 0.0, 0.0, 0.0, 0.0, 1.700946897039973E9, 0.0, 2023-11-25 16:14:57.039
93.0, 8172.423621705011, 15445.033066872726, -54108.030093673486, -57225.42789285516, -47638.20590236258, -58426.27536371653, -33639.46481221495, -15010.850430828385, -0.124, 0.9480000000000001, 0.262, 192.0, 0.0, 0.0, 0.0, 0.0, 0.0, 0.0, 0.0, 0.0, 0.0, 1.700946897043904E9, 0.0, 2023-11-25 16:14:57.043
94.0, 8266.97150075096, 15507.707358325406, -54122.44696884716, -57223.79621550992, -47750.79163918396, -58257.34087912332, -33659.98371362492, -15031.302277004992, -0.124, 0.9480000000000001, 0.262, 192.0, 0.0, 0.0, 0.0, 0.0, 0.0, 0.0, 0.0, 0.0, 0.0, 1.700946897047867E9, 0.0, 2023-11-25 16:14:57.047
95.0, 8412.928392044114, 15556.635326938072, -54118.6248205453, -57217.582430551345, -47587.84742210477, -58139.43542712158, -33667.35978929517, -15036.733750907631, -0.124, 0.9480000000000001, 0.262, 192.0, 0.0, 0.0, 0.0, 0.0, 0.0, 0.0, 0.0, 0.0, 0.0, 1.700946897050924E9, 0.0, 2023-11-25 16:14:57.050
96.0, 8458.078915843835, 15457.505340278787, -54114.601506543346, -57269.19260849865, -47120.718314733305, -58187.156401533655, -33704.843664746724, -15075.715193237686, -0.124, 0.9480000000000001, 0.262, 192.0, 0.0, 0.0, 0.0, 0.0, 0.0, 0.0, 0.0, 0.0, 0.0, 1.700946897054974E9, 0.0, 2023-11-25 16:14:57.054
97.0, 8204.14074708709, 15444.764845939262, -54100.542259280955, -57223.75151202101, -47543.188636683066, -58403.90126751677, -33644.449251228485, -15009.241105227604, -0.124, 0.9480000000000001, 0.262, 192.0, 0.0, 0.0, 0.0, 0.0, 0.0, 0.0, 0.0, 0.0, 0.0, 1.700946897059947E9, 0.0, 2023-11-25 16:14:57.059
98.0, 8247.81605575276, 15496.35267214211, -54119.85416649034, -57224.69028528813, -47778.21722963062, -58269.74609729602, -33653.03232109932, -15016.281904731024, -0.124, 0.9480000000000001, 0.262, 192.0, 0.0, 0.0, 0.0, 0.0, 0.0, 0.0, 0.0, 0.0, 0.0, 1.70094689706416E9, 0.0, 2023-11-25 16:14:57.064
99.0, 8372.80701074684, 15537.010495306313, -54144.70930632464, -57235.57558483787, -47647.995966434, -58145.53745335787, -33679.09445513421, -15037.583117196933, -0.124, 0.9480000000000001, 0.262, 192.0, 0.0, 0.0, 0.0, 0.0, 0.0, 0.0, 0.0, 0.0, 0.0, 1.700946897067952E9, 0.0, 2023-11-25 16:14:57.067
100.0, 8457.073087343346, 15453.01263964327, -54139.88132952229, -57283.58713192787, -47187.2371062323, -58164.51408440043, -33720.5569410988, -15083.158324141305, -0.124, 0.9420000000000001, 0.264, 192.0, 252.0, 32.0, 29.0, 112.0, 8.0, 64.0, 0.0, 0.0, 0.0, 1.700946897071989E9, 0.0, 2023-11-25 16:14:57.071
101.0, 8217.305924571267, 15411.326636234122, -54138.27200392151, -57258.2179019711, -47427.63011784913, -58396.43578486869, -33675.0487893878, -15034.096245061904, -0.124, 0.9420000000000001, 0.264, 192.0, 0.0, 0.0, 0.0, 0.0, 0.0, 0.0, 0.0, 0.0, 0.0, 1.700946897075995E9, 0.0, 2023-11-25 16:14:57.075
102.0, 8211.092139612692, 15469.619985773563, -54141.647117334265, -57235.687343560145, -47792.92467748221, -58317.176499030174, -33659.17905082453, -15011.230410484126, -0.124, 0.9420000000000001, 0.264, 192.0, 0.0, 0.0, 0.0, 0.0, 0.0, 0.0, 0.0, 0.0, 0.0, 1.700946897079017E9, 0.0, 2023-11-25 16:14:57.079
103.0, 8335.144321339647, 15517.765643330295, -54179.175696274724, -57250.439494900646, -47696.78982457994, -58170.88433157019, -33691.94670819601, -15033.06806481696, -0.124, 0.9420000000000001, 0.264, 192.0, 0.0, 0.0, 0.0, 0.0, 0.0, 0.0, 0.0, 0.0, 0.0, 1.700946897082974E9, 0.0, 2023-11-25 16:14:57.082
104.0, 8442.566805191851, 15453.72789546584, -54176.38172821781, -57294.0253965885, -47291.731511560865, -58156.98154651899, -33724.02146148938, -15066.573329755465, -0.124, 0.9420000000000001, 0.264, 192.0, 0.0, 0.0, 0.0, 0.0, 0.0, 0.0, 0.0, 0.0, 0.0, 1.700946897087111E9, 0.0, 2023-11-25 16:14:57.087
105.0, 8253.403991866588, 15400.888371573494, -54158.343870442375, -57267.00213754203, -47329.751828879336, -58361.097676884856, -33673.84179518721, -15014.851393085884, -0.124, 0.9420000000000001, 0.264, 192.0, 0.0, 0.0, 0.0, 0.0, 0.0, 0.0, 0.0, 0.0, 0.0, 1.700946897092009E9, 0.0, 2023-11-25 16:14:57.092
106.0, 8181.654892165053, 15460.992212413814, -54136.90854750974, -57218.923535218666, -47811.5883841024, -58342.65748770923, -33624.06446028524, -14968.896206485773, -0.124, 0.9420000000000001, 0.264, 192.0, 0.0, 0.0, 0.0, 0.0, 0.0, 0.0, 0.0, 0.0, 0.0, 1.700946897096005E9, 0.0, 2023-11-25 16:14:57.096
107.0, 8331.277469548879, 15532.98718130436, -54153.247672706566, -57219.884660230244, -47727.478769717076, -58164.648194867164, -33652.42882399903, -14993.416070153246, -0.124, 0.9420000000000001, 0.264, 192.0, 0.0, 0.0, 0.0, 0.0, 0.0, 0.0, 0.0, 0.0, 0.0, 1.700946897099026E9, 0.0, 2023-11-25 16:14:57.099
108.0, 8463.599796724297, 15507.30502692521, -54138.987259744084, -57253.32286993538, -47373.024806144815, -58124.97384845899, -33690.784417484334, -15037.31489626347, -0.124, 0.9420000000000001, 0.264, 192.0, 0.0, 0.0, 0.0, 0.0, 0.0, 0.0, 0.0, 0.0, 0.0, 1.700946897103046E9, 0.0, 2023-11-25 16:14:57.103
109.0, 8323.208489800512, 15409.382034466511, -54143.4799603796, -57283.5200766945, -47205.92316459694, -58320.886888609755, -33702.876711234654, -15052.290565048525, -0.124, 0.9420000000000001, 0.264, 192.0, 0.0, 0.0, 0.0, 0.0, 0.0, 0.0, 0.0, 0.0, 0.0, 1.700946897107204E9, 0.0, 2023-11-25 16:14:57.107
110.0, 8173.876485094605, 15454.934889666427, -54124.23510840358, -57235.93321274915, -47775.44561331816, -58402.80603203846, -33655.58041996723, -15002.759099335564, -0.11800000000000001, 0.9460000000000001, 0.262, 192.0, 252.0, 80.0, 29.0, 144.0, 8.0, 48.0, 0.0, 0.0, 0.0, 1.700946897111154E9, 0.0, 2023-11-25 16:14:57.111
111.0, 8320.973315354982, 15534.037713293757, -54134.27104166401, -57231.79814002492, -47736.620633199294, -58215.31959954734, -33671.025475385846, -15023.367407723357, -0.11800000000000001, 0.9460000000000001, 0.262, 192.0, 0.0, 0.0, 0.0, 0.0, 0.0, 0.0, 0.0, 0.0, 0.0, 1.700946897115051E9, 0.0, 2023-11-25 16:14:57.115
112.0, 8463.86801765776, 15533.814195849205, -54124.34686712586, -57247.220843699084, -47460.01779556487, -58145.336287657774, -33689.28685060583, -15054.5033877496, -0.11800000000000001, 0.9460000000000001, 0.262, 192.0, 0.0, 0.0, 0.0, 0.0, 0.0, 0.0, 0.0, 0.0, 0.0, 1.700946897120144E9, 0.0, 2023-11-25 16:14:57.120
113.0, 8396.56691510283, 15432.069055088647, -54120.21179440163, -57278.49093419206, -47130.10604740454, -58276.29515842142, -33701.53560656734, -15072.071858891471, -0.11800000000000001, 0.9460000000000001, 0.262, 192.0, 0.0, 0.0, 0.0, 0.0, 0.0, 0.0, 0.0, 0.0, 0.0, 1.700946897124154E9, 0.0, 2023-11-25 16:14:57.124
114.0, 8174.23411300589, 15446.351819795587, -54113.953305954135, -57236.38024763826, -47713.73244687706, -58428.53288990651, -33646.28209427382, -15017.77947160953, -0.11800000000000001, 0.9460000000000001, 0.262, 192.0, 0.0, 0.0, 0.0, 0.0, 0.0, 0.0, 0.0, 0.0, 0.0, 1.700946897127135E9, 0.0, 2023-11-25 16:14:57.127
115.0, 8285.97048353797, 15510.143698471034, -54135.03100097549, -57239.107160461805, -47747.193008326656, -58244.10864640578, -33664.99050438291, -15040.622954442855, -0.11800000000000001, 0.9460000000000001, 0.262, 192.0, 0.0, 0.0, 0.0, 0.0, 0.0, 0.0, 0.0, 0.0, 0.0, 1.7009468971311E9, 0.0, 2023-11-25 16:14:57.131
116.0, 8433.804921365372, 15541.12321628609, -54122.26815489151, -57232.7592650365, -47537.84656975825, -58142.40820913413, -33675.16054811008, -15051.083570847937, -0.11800000000000001, 0.9460000000000001, 0.262, 192.0, 0.0, 0.0, 0.0, 0.0, 0.0, 0.0, 0.0, 0.0, 0.0, 1.700946897135133E9, 0.0, 2023-11-25 16:14:57.135
117.0, 8429.133406774212, 15433.141938822502, -54115.33911411037, -57271.964224811105, -47105.56383199261, -58225.64610548569, -33708.129371181654, -15088.99212944414, -0.11800000000000001, 0.9460000000000001, 0.262, 192.0, 0.0, 0.0, 0.0, 0.0, 0.0, 0.0, 0.0, 0.0, 0.0, 1.700946897139142E9, 0.0, 2023-11-25 16:14:57.139
118.0, 8177.922150841016, 15440.003924370281, -54101.32457033689, -57214.6543520277, -47621.95618414357, -58419.01104676856, -33644.56100995076, -15019.522907677045, -0.11800000000000001, 0.9460000000000001, 0.262, 192.0, 0.0, 0.0, 0.0, 0.0, 0.0, 0.0, 0.0, 0.0, 0.0, 1.700946897143184E9, 0.0, 2023-11-25 16:14:57.143
119.0, 8267.485590873432, 15508.892000781538, -54115.69674202165, -57206.29479960142, -47751.90922640672, -58243.90748070568, -33659.201402568986, -15026.586058924922, -0.11800000000000001, 0.9460000000000001, 0.262, 192.0, 0.0, 0.0, 0.0, 0.0, 0.0, 0.0, 0.0, 0.0, 0.0, 1.700946897148157E9, 0.0, 2023-11-25 16:14:57.148
120.0, 8409.821499564827, 15556.948251360447, -54120.524718824, -57200.61745650977, -47596.385788486696, -58122.53750831336, -33673.3500568092, -15032.621029927854, -0.11800000000000001, 0.9500000000000001, 0.26, 192.0, 252.0, 80.0, 29.0, 176.0, 8.0, 32.0, 0.0, 0.0, 0.0, 1.700946897152153E9, 0.0, 2023-11-25 16:14:57.152
121.0, 8463.91272114667, 15457.862968190071, -54114.40034084325, -57248.00315475502, -47119.868948444004, -58162.0777442548, -33707.30235663681, -15069.255539090103, -0.11800000000000001, 0.9500000000000001, 0.26, 192.0, 0.0, 0.0, 0.0, 0.0, 0.0, 0.0, 0.0, 0.0, 0.0, 1.700946897155259E9, 0.0, 2023-11-25 16:14:57.155
122.0, 8202.889049397594, 15428.604534698074, -54113.953305954135, -57217.291857873424, -47504.386008308655, -58391.54075283298, -33654.8428124002, -15009.01758778305, -0.11800000000000001, 0.9500000000000001, 0.26, 192.0, 0.0, 0.0, 0.0, 0.0, 0.0, 0.0, 0.0, 0.0, 0.0, 1.700946897159196E9, 0.0, 2023-11-25 16:14:57.159
123.0, 8245.312660373767, 15500.577151844163, -54116.836680988876, -57202.495003044016, -47769.79062197097, -58266.86272226128, -33647.176164052034, -14997.595846366388, -0.11800000000000001, 0.9500000000000001, 0.26, 192.0, 0.0, 0.0, 0.0, 0.0, 0.0, 0.0, 0.0, 0.0, 0.0, 1.700946897163212E9, 0.0, 2023-11-25 16:14:57.163
124.0, 8379.199609661056, 15561.530358973785, -54132.77347478551, -57207.65825601319, -47647.705393756085, -58128.32661012729, -33660.85543165868, -15006.469488915145, -0.11800000000000001, 0.9500000000000001, 0.26, 192.0, 0.0, 0.0, 0.0, 0.0, 0.0, 0.0, 0.0, 0.0, 0.0, 1.700946897167184E9, 0.0, 2023-11-25 16:14:57.167
125.0, 8467.310186303877, 15480.01354694528, -54127.721980538605, -57261.548311894934, -47184.979580042316, -58136.88732825367, -33696.171187898064, -15041.517024221066, -0.11800000000000001, 0.9500000000000001, 0.26, 192.0, 0.0, 0.0, 0.0, 0.0, 0.0, 0.0, 0.0, 0.0, 0.0, 1.700946897171184E9, 0.0, 2023-11-25 16:14:57.171
126.0, 8235.075561413236, 15431.778482410728, -54124.81625375942, -57244.69509657563, -47387.41932957403, -58365.34450833136, -33652.40647225457, -14989.973901507128, -0.11800000000000001, 0.9500000000000001, 0.26, 192.0, 0.0, 0.0, 0.0, 0.0, 0.0, 0.0, 0.0, 0.0, 0.0, 1.700946897175231E9, 0.0, 2023-11-25 16:14:57.175
127.0, 8207.359398288656, 15486.093221437124, -54124.50332933704, -57225.18202366615, -47782.59817154386, -58300.30093196642, -33631.06055629975, -14965.744610517575, -0.11800000000000001, 0.9500000000000001, 0.26, 192.0, 0.0, 0.0, 0.0, 0.0, 0.0, 0.0, 0.0, 0.0, 0.0, 1.700946897180596E9, 0.0, 2023-11-25 16:14:57.180
128.0, 8344.330888310777, 15552.164978047012, -54141.781227800995, -57224.779692265955, -47682.663522084185, -58136.59675557575, -33647.6902541745, -14971.86898849833, -0.11800000000000001, 0.9500000000000001, 0.26, 192.0, 0.0, 0.0, 0.0, 0.0, 0.0, 0.0, 0.0, 0.0, 0.0, 1.700946897183212E9, 0.0, 2023-11-25 16:14:57.183
129.0, 8449.942880862103, 15474.87264572056, -54149.09024823788, -57286.55991394042, -47268.15042116051, -58123.56568855831, -33707.57057757027, -15030.698779904698, -0.11800000000000001, 0.9500000000000001, 0.26, 192.0, 0.0, 0.0, 0.0, 0.0, 0.0, 0.0, 0.0, 0.0, 0.0, 1.700946897187674E9, 0.0, 2023-11-25 16:14:57.187
130.0, 8261.674137315053, 15410.47726994482, -54137.82496903241, -57278.71445163661, -47273.40308110751, -58343.1715778317, -33683.47539704745, -15000.30040744548, -0.11800000000000001, 0.9520000000000001, 0.26, 192.0, 252.0, 80.0, 29.0, 192.0, 8.0, 32.0, 0.0, 0.0, 0.0, 1.700946897191295E9, 0.0, 2023-11-25 16:14:57.191
