%OpenBCI Raw EXG Data
%Number of channels = 8
%Sample Rate = 250 Hz
%Board = OpenBCI_GUI$BoardCytonSerial
Sample Index, EXG Channel 0, EXG Channel 1, EXG Channel 2, EXG Channel 3, EXG Channel 4, EXG Channel 5, EXG Channel 6, EXG Channel 7, Accel Channel 0, Accel Channel 1, Accel Channel 2, Other, Other, Other, Other, Other, Other, Other, Analog Channel 0, Analog Channel 1, Analog Channel 2, Timestamp, Other, Timestamp (Formatted)
187.0, 72591.67106052293, 78956.39734940497, -13653.786617968872, -10421.746721475927, -1549.4452773863409, -3121.8010928393714, -15679.39110748662, 187500.0, 0.0, 0.0, 0.0, 192.0, 0.0, 0.0, 0.0, 0.0, 0.0, 0.0, 0.0, 0.0, 0.0, 1.700945364562961E9, 0.0, 2023-11-25 15:49:24.562
188.0, 72534.16002203942, 78966.23211696532, -14518.106224311141, -11242.569833108168, -2575.9714932407733, -3671.2293232952743, -15751.631945566172, 187500.0, 0.0, 0.0, 0.0, 192.0, 0.0, 0.0, 0.0, 0.0, 0.0, 0.0, 0.0, 0.0, 0.0, 1.700945364562988E9, 0.0, 2023-11-25 15:49:24.562
189.0, 72478.61593706798, 78984.31467822965, -15480.862913234581, -12730.748978942513, -4177.071652063329, -4919.216623212889, -15810.260571272442, 187500.0, 0.0, 0.0, 0.0, 192.0, 0.0, 0.0, 0.0, 0.0, 0.0, 0.0, 0.0, 0.0, 0.0, 1.700945364563001E9, 0.0, 2023-11-25 15:49:24.563
190.0, 72542.05018783214, 78964.53338438671, -14020.332875291453, -11505.381644413668, -2608.13565351196, -4031.5617956592796, -15558.199949049944, 187500.0, 0.0, 0.0, 0.0, 192.0, 0.0, 0.0, 0.0, 0.0, 0.0, 0.0, 0.0, 0.0, 0.0, 1.700945364563013E9, 0.0, 2023-11-25 15:49:24.563
0.0, 0.0, 0.0, 0.0, 0.0, 0.0, 0.0, 0.0, 0.0, -0.032, 0.974, 0.078, 192.0, 255.0, 0.0, 30.0, 112.0, 2.0, 112.0, 0.0, 0.0, 0.0, 1.700945364640107E9, 0.0, 2023-11-25 15:49:24.640
1.0, 76360.55515534343, 81040.58576114009, -12505.063415177276, -10652.237910299053, -2279.475603041125, -2848.2604441953235, -15609.22898164141, 187500.0, -0.032, 0.974, 0.078, 192.0, 0.0, 0.0, 0.0, 0.0, 0.0, 0.0, 0.0, 0.0, 0.0, 1.700945364656554E9, 0.0, 2023-11-25 15:49:24.656
2.0, 76350.85449824983, 81067.22904053082, -12983.457801754214, -11245.497911631814, -3077.589342306774, -3523.998382568167, -15631.401912141075, 187500.0, -0.032, 0.974, 0.078, 192.0, 0.0, 0.0, 0.0, 0.0, 0.0, 0.0, 0.0, 0.0, 0.0, 1.700945364660144E9, 0.0, 2023-11-25 15:49:24.660
3.0, 76393.16635050373, 81033.65672035894, -11783.102069270859, -10115.125491038025, -1669.5859038336164, -2645.2395493077697, -15445.524805250741, 187500.0, -0.032, 0.974, 0.078, 192.0, 0.0, 0.0, 0.0, 0.0, 0.0, 0.0, 0.0, 0.0, 0.0, 1.700945364663129E9, 0.0, 2023-11-25 15:49:24.663
4.0, 76393.59103364838, 81010.45560961434, -11758.157522458736, -9969.705041611796, -1393.5865632994849, -2376.6833396772554, -15535.177652260978, 187500.0, -0.032, 0.974, 0.078, 192.0, 0.0, 0.0, 0.0, 0.0, 0.0, 0.0, 0.0, 0.0, 0.0, 1.700945364667185E9, 0.0, 2023-11-25 15:49:24.667
5.0, 76364.73493155658, 81033.43320291438, -12359.039468650755, -10556.103057396776, -2106.808377123878, -2763.256760031791, -15578.629443482096, 187500.0, -0.032, 0.974, 0.078, 192.0, 0.0, 0.0, 0.0, 0.0, 0.0, 0.0, 0.0, 0.0, 0.0, 1.70094536467119E9, 0.0, 2023-11-25 15:49:24.671
6.0, 76356.15186168574, 81079.96953487034, -13005.787194465065, -11230.455187613392, -3059.819705464805, -3472.5670185765052, -15635.04524648729, 187500.0, -0.032, 0.974, 0.078, 192.0, 0.0, 0.0, 0.0, 0.0, 0.0, 0.0, 0.0, 0.0, 0.0, 1.70094536467421E9, 0.0, 2023-11-25 15:49:24.674
7.0, 76393.34516445937, 81055.42731945841, -11974.70122274175, -10375.612720920173, -1961.6337968866585, -2869.4275461944994, -15460.947508924904, 187500.0, -0.032, 0.974, 0.078, 192.0, 0.0, 0.0, 0.0, 0.0, 0.0, 0.0, 0.0, 0.0, 0.0, 1.700945364679215E9, 0.0, 2023-11-25 15:49:24.679
8.0, 76394.66391738223, 81012.91430150441, -11650.623279884254, -9861.4778949592, -1293.9871900066364, -2313.8749377578424, -15538.105730784624, 187500.0, -0.068, 0.974, 0.11, 192.0, 253.0, 224.0, 30.0, 112.0, 3.0, 112.0, 0.0, 0.0, 0.0, 1.700945364683199E9, 0.0, 2023-11-25 15:49:24.683
9.0, 76363.86321352283, 81015.08242071659, -12244.687944017405, -10479.92831229309, -1980.9680558404991, -2702.3482563910793, -15578.875312671104, 187500.0, -0.068, 0.974, 0.11, 192.0, 0.0, 0.0, 0.0, 0.0, 0.0, 0.0, 0.0, 0.0, 0.0, 1.700945364687301E9, 0.0, 2023-11-25 15:49:24.687
10.0, 76346.4735563366, 81067.45255797537, -12984.933016888264, -11157.476741966813, -2981.92387603806, -3372.453555161185, -15655.117113008157, 187500.0, -0.068, 0.974, 0.11, 192.0, 0.0, 0.0, 0.0, 0.0, 0.0, 0.0, 0.0, 0.0, 0.0, 1.700945364691289E9, 0.0, 2023-11-25 15:49:24.691
11.0, 76372.71450432713, 81053.43801420189, -12226.963010664345, -10629.10385478781, -2286.1587746332616, -3077.5446388178634, -15484.796820258716, 187500.0, -0.068, 0.974, 0.11, 192.0, 0.0, 0.0, 0.0, 0.0, 0.0, 0.0, 0.0, 0.0, 0.0, 1.700945364696222E9, 0.0, 2023-11-25 15:49:24.696
12.0, 76382.8845480543, 81016.57998759509, -11564.949043387061, -9741.046695834006, -1214.5714419569306, -2242.1258380563067, -15496.531486097752, 187500.0, -0.068, 0.974, 0.11, 192.0, 0.0, 0.0, 0.0, 0.0, 0.0, 0.0, 0.0, 0.0, 0.0, 1.700945364699502E9, 0.0, 2023-11-25 15:49:24.699
13.0, 76361.00219023254, 81022.30203417565, -12141.713457311806, -10384.396956491108, -1857.139391558098, -2628.9898310887615, -15568.258234054832, 187500.0, -0.068, 0.974, 0.11, 192.0, 0.0, 0.0, 0.0, 0.0, 0.0, 0.0, 0.0, 0.0, 0.0, 1.700945364702317E9, 0.0, 2023-11-25 15:49:24.702
14.0, 76337.51050681001, 81060.56822068313, -12888.775812241533, -11036.442045741325, -2824.254670650324, -3227.748361557527, -15647.271650704342, 187500.0, -0.068, 0.974, 0.11, 192.0, 0.0, 0.0, 0.0, 0.0, 0.0, 0.0, 0.0, 0.0, 0.0, 1.700945364707287E9, 0.0, 2023-11-25 15:49:24.707
15.0, 76361.02454197699, 81058.40010147096, -12473.770972939847, -10869.809790827012, -2588.3543596690133, -3267.0427283099566, -15524.627628878074, 187500.0, -0.068, 0.974, 0.11, 192.0, 0.0, 0.0, 0.0, 0.0, 0.0, 0.0, 0.0, 0.0, 0.0, 1.700945364711629E9, 0.0, 2023-11-25 15:49:24.711
16.0, 76390.52884465801, 81021.56442660862, -11522.413673688612, -9720.997181057595, -1216.4489884911764, -2250.887721882787, -15479.231235889345, 187500.0, -0.068, 0.974, 0.11, 192.0, 0.0, 0.0, 0.0, 0.0, 0.0, 0.0, 0.0, 0.0, 0.0, 1.700945364715873E9, 0.0, 2023-11-25 15:49:24.715
17.0, 76366.38896064628, 81009.18156018038, -12039.85655782897, -10286.898647177059, -1740.5526924792164, -2559.520609321667, -15570.806332922737, 187500.0, -0.068, 0.974, 0.11, 192.0, 0.0, 0.0, 0.0, 0.0, 0.0, 0.0, 0.0, 0.0, 0.0, 1.700945364719364E9, 0.0, 2023-11-25 15:49:24.719
18.0, 76335.92353295369, 81047.85007808806, -12766.489418326548, -10894.10613704993, -2643.965499873817, -3074.303635871844, -15648.746865838393, 187500.0, -0.088, 0.97, 0.112, 192.0, 253.0, 64.0, 30.0, 80.0, 3.0, 128.0, 0.0, 0.0, 0.0, 1.700945364723334E9, 0.0, 2023-11-25 15:49:24.723
19.0, 76346.74177727006, 81064.30096200717, -12711.571182199858, -11075.7140607493, -2854.7424500873626, -3416.8888231383353, -15567.475922998898, 187500.0, -0.088, 0.97, 0.112, 192.0, 0.0, 0.0, 0.0, 0.0, 0.0, 0.0, 0.0, 0.0, 0.0, 1.700945364727401E9, 0.0, 2023-11-25 15:49:24.727
20.0, 76377.49777764056, 81022.10086847555, -11560.031659606893, -9801.50816458561, -1317.7694461070832, -2337.813656069476, -15460.455770546887, 187500.0, -0.088, 0.97, 0.112, 192.0, 0.0, 0.0, 0.0, 0.0, 0.0, 0.0, 0.0, 0.0, 0.0, 1.700945364730503E9, 0.0, 2023-11-25 15:49:24.730
21.0, 76356.62124831931, 80999.39149610896, -11957.624489977896, -10201.313817657689, -1638.8075517186585, -2510.3467715199913, -15571.745106189861, 187500.0, -0.088, 0.97, 0.112, 192.0, 0.0, 0.0, 0.0, 0.0, 0.0, 0.0, 0.0, 0.0, 0.0, 1.700945364734703E9, 0.0, 2023-11-25 15:49:24.734
22.0, 76331.94492244064, 81034.3272726926, -12632.781282994902, -10768.332870999917, -2458.4013174058578, -2946.7422302654068, -15637.168662210544, 187500.0, -0.088, 0.97, 0.112, 192.0, 0.0, 0.0, 0.0, 0.0, 0.0, 0.0, 0.0, 0.0, 0.0, 1.700945364739408E9, 0.0, 2023-11-25 15:49:24.739
23.0, 76338.87396322179, 81059.71885439382, -12893.492030321602, -11202.135527388516, -3032.148245829135, -3499.2102979672313, -15605.496240317374, 187500.0, -0.088, 0.97, 0.112, 192.0, 0.0, 0.0, 0.0, 0.0, 0.0, 0.0, 0.0, 0.0, 0.0, 1.70094536474346E9, 0.0, 2023-11-25 15:49:24.743
24.0, 76382.45986490964, 81028.00172901175, -11652.411419440677, -9935.842148762005, -1487.4638900117743, -2470.8735908119193, -15443.759017438773, 187500.0, -0.088, 0.97, 0.112, 192.0, 0.0, 0.0, 0.0, 0.0, 0.0, 0.0, 0.0, 0.0, 0.0, 1.700945364746398E9, 0.0, 2023-11-25 15:49:24.746
25.0, 76368.91470776973, 81004.8676735005, -11856.236977128623, -10083.453069144854, -1521.282079372654, -2438.6200235629112, -15559.60810895063, 187500.0, -0.088, 0.97, 0.112, 192.0, 0.0, 0.0, 0.0, 0.0, 0.0, 0.0, 0.0, 0.0, 0.0, 1.700945364751402E9, 0.0, 2023-11-25 15:49:24.751
26.0, 76347.9711232151, 81043.02210128571, -12478.621301486648, -10652.416724254696, -2268.2326755801055, -2839.8114847912175, -15602.836382727193, 187500.0, -0.088, 0.97, 0.112, 192.0, 0.0, 0.0, 0.0, 0.0, 0.0, 0.0, 0.0, 0.0, 0.0, 1.700945364755474E9, 0.0, 2023-11-25 15:49:24.755
27.0, 76343.99251270205, 81080.75184592628, -12990.81152568001, -11255.355030936604, -3096.7000838160616, -3518.186929009787, -15637.10160697718, 187500.0, -0.088, 0.97, 0.112, 192.0, 0.0, 0.0, 0.0, 0.0, 0.0, 0.0, 0.0, 0.0, 0.0, 1.700945364759623E9, 0.0, 2023-11-25 15:49:24.759
28.0, 76378.01186776304, 81044.31850246413, -11809.566534705942, -10159.449000292898, -1733.8248173981688, -2679.907104957951, -15458.287651334722, 187500.0, -0.096, 0.976, 0.116, 192.0, 253.0, 0.0, 30.0, 128.0, 3.0, 160.0, 0.0, 0.0, 0.0, 1.700945364763474E9, 0.0, 2023-11-25 15:49:24.763
29.0, 76369.4287978922, 81008.08632470208, -11738.242118149057, -9934.00930571667, -1383.4612230612306, -2350.509446920091, -15558.244652538855, 187500.0, -0.096, 0.976, 0.116, 192.0, 0.0, 0.0, 0.0, 0.0, 0.0, 0.0, 0.0, 0.0, 0.0, 1.700945364767433E9, 0.0, 2023-11-25 15:49:24.767
30.0, 76346.76412901451, 81036.71890934932, -12344.488483010351, -10540.412132789152, -2098.359417719772, -2748.2363877578246, -15598.410737325043, 187500.0, -0.096, 0.976, 0.116, 192.0, 0.0, 0.0, 0.0, 0.0, 0.0, 0.0, 0.0, 0.0, 0.0, 1.700945364771465E9, 0.0, 2023-11-25 15:49:24.771
31.0, 76331.81081197392, 81081.86943314904, -13017.7230260042, -11224.643734055011, -3065.3852898341765, -3458.284253869564, -15661.397953200098, 187500.0, -0.096, 0.976, 0.116, 192.0, 0.0, 0.0, 0.0, 0.0, 0.0, 0.0, 0.0, 0.0, 0.0, 1.700945364774509E9, 0.0, 2023-11-25 15:49:24.774
32.0, 76358.83407102038, 81042.15038325195, -12031.541708891596, -10423.333695332252, -2033.740524499479, -2908.7666164358398, -15476.481971321342, 187500.0, -0.096, 0.976, 0.116, 192.0, 0.0, 0.0, 0.0, 0.0, 0.0, 0.0, 0.0, 0.0, 0.0, 1.700945364778535E9, 0.0, 2023-11-25 15:49:24.778
33.0, 76354.4754808516, 80990.09317041555, -11644.722419348052, -9833.404103923334, -1285.4041201357986, -2297.6922747722, -15537.59164066215, 187500.0, -0.096, 0.976, 0.116, 192.0, 0.0, 0.0, 0.0, 0.0, 0.0, 0.0, 0.0, 0.0, 0.0, 1.70094536478347E9, 0.0, 2023-11-25 15:49:24.783
34.0, 76337.37639634329, 81010.1650369364, -12236.998943924778, -10458.962375994013, -1963.287825976351, -2685.2715236272247, -15590.051184898757, 187500.0, -0.096, 0.976, 0.116, 192.0, 0.0, 0.0, 0.0, 0.0, 0.0, 0.0, 0.0, 0.0, 0.0, 1.700945364787545E9, 0.0, 2023-11-25 15:49:24.787
35.0, 76324.01005315901, 81062.87045036202, -12986.318825044493, -11142.970459815318, -2969.630416587641, -3353.454572374174, -15672.059735305278, 187500.0, -0.096, 0.976, 0.116, 192.0, 0.0, 0.0, 0.0, 0.0, 0.0, 0.0, 0.0, 0.0, 0.0, 1.700945364791568E9, 0.0, 2023-11-25 15:49:24.791
36.0, 76349.08871043786, 81047.06776703213, -12290.57607538415, -10689.49826830605, -2361.9311883367527, -3129.758313865461, -15503.572285601174, 187500.0, -0.096, 0.976, 0.116, 192.0, 0.0, 0.0, 0.0, 0.0, 0.0, 0.0, 0.0, 0.0, 0.0, 1.700945364794536E9, 0.0, 2023-11-25 15:49:24.794
37.0, 76359.05758846493, 81001.58196706558, -11579.455325538556, -9754.323632040458, -1234.2856805665112, -2263.851733666865, -15511.887134538549, 187500.0, -0.1, 0.98, 0.122, 192.0, 252.0, 224.0, 30.0, 160.0, 3.0, 208.0, 0.0, 0.0, 0.0, 1.70094536479854E9, 0.0, 2023-11-25 15:49:24.798
38.0, 76336.66114052071, 81006.09701944554, -12142.652230578928, -10385.983930347435, -1854.881865368112, -2636.2541480367363, -15582.876274928603, 187500.0, -0.1, 0.98, 0.122, 192.0, 0.0, 0.0, 0.0, 0.0, 0.0, 0.0, 0.0, 0.0, 0.0, 1.700945364802572E9, 0.0, 2023-11-25 15:49:24.802
39.0, 76311.7165937086, 81052.2310200013, -12887.859390718866, -11022.941592090321, -2809.971905943383, -3215.097274195823, -15666.136523024623, 187500.0, -0.1, 0.98, 0.122, 192.0, 0.0, 0.0, 0.0, 0.0, 0.0, 0.0, 0.0, 0.0, 0.0, 1.700945364806547E9, 0.0, 2023-11-25 15:49:24.806
40.0, 76331.45318406263, 81054.3320839801, -12539.52980512736, -10934.316925325027, -2662.0257093937053, -3320.9551359361576, -15543.64896340954, 187500.0, -0.1, 0.98, 0.122, 192.0, 0.0, 0.0, 0.0, 0.0, 0.0, 0.0, 0.0, 0.0, 0.0, 1.70094536481155E9, 0.0, 2023-11-25 15:49:24.811
41.0, 76359.25875416503, 81004.19712116684, -11539.959793086027, -9733.78237888603, -1234.4644945221537, -2269.014986636041, -15486.652015048507, 187500.0, -0.1, 0.98, 0.122, 192.0, 0.0, 0.0, 0.0, 0.0, 0.0, 0.0, 0.0, 0.0, 0.0, 1.700945364815576E9, 0.0, 2023-11-25 15:49:24.815
42.0, 76341.33265511187, 80997.31278387461, -12038.850729328482, -10264.1222195771, -1719.9890875803337, -2545.88604520393, -15580.663452227529, 187500.0, -0.1, 0.98, 0.122, 192.0, 0.0, 0.0, 0.0, 0.0, 0.0, 0.0, 0.0, 0.0, 0.0, 1.700945364819617E9, 0.0, 2023-11-25 15:49:24.819
43.0, 76310.19667508564, 81040.31754020663, -12756.900519955221, -10866.05469775852, -2610.549641913133, -3042.497103511942, -15651.786703084315, 187500.0, -0.1, 0.98, 0.122, 192.0, 0.0, 0.0, 0.0, 0.0, 0.0, 0.0, 0.0, 0.0, 0.0, 1.700945364822646E9, 0.0, 2023-11-25 15:49:24.822
44.0, 76322.11015488031, 81054.7791188692, -12767.607005549313, -11105.061901219118, -2900.2282500539127, -3433.227948335165, -15584.999690651857, 187500.0, -0.1, 0.98, 0.122, 192.0, 0.0, 0.0, 0.0, 0.0, 0.0, 0.0, 0.0, 0.0, 0.0, 1.700945364826635E9, 0.0, 2023-11-25 15:49:24.826
45.0, 76354.65429480723, 81011.28262415918, -11582.696328484575, -9806.514955343599, -1343.0492690860356, -2347.4472579297135, -15470.245834618312, 187500.0, -0.1, 0.98, 0.122, 192.0, 0.0, 0.0, 0.0, 0.0, 0.0, 0.0, 0.0, 0.0, 0.0, 1.700945364830632E9, 0.0, 2023-11-25 15:49:24.830
46.0, 76337.73402425456, 80994.92114721789, -11945.733361927672, -10146.48498850882, -1606.4422257473739, -2467.073794254517, -15583.166847606522, 187500.0, -0.1, 0.98, 0.122, 192.0, 0.0, 0.0, 0.0, 0.0, 0.0, 0.0, 0.0, 0.0, 0.0, 1.700945364834606E9, 0.0, 2023-11-25 15:49:24.834
47.0, 76326.84872470483, 81046.03958678718, -12612.68706472958, -10719.583716342893, -2411.2838400940705, -2899.2894767867897, -15641.013162256857, 187500.0, -0.10200000000000001, 0.978, 0.122, 192.0, 252.0, 208.0, 30.0, 144.0, 3.0, 208.0, 0.0, 0.0, 0.0, 1.700945364838701E9, 0.0, 2023-11-25 15:49:24.838
48.0, 76338.58339054386, 81081.57886047111, -12929.008952261085, -11209.55630654768, -3044.9557954020256, -3499.5902776229714, -15627.624467328129, 187500.0, -0.10200000000000001, 0.978, 0.122, 192.0, 0.0, 0.0, 0.0, 0.0, 0.0, 0.0, 0.0, 0.0, 0.0, 1.700945364843675E9, 0.0, 2023-11-25 15:49:24.843
49.0, 76369.31703916992, 81036.8753715605, -11681.848666888318, -9951.354259413989, -1511.5143670456848, -2491.9512858332737, -15461.863930447571, 187500.0, -0.10200000000000001, 0.978, 0.122, 192.0, 0.0, 0.0, 0.0, 0.0, 0.0, 0.0, 0.0, 0.0, 0.0, 1.700945364847757E9, 0.0, 2023-11-25 15:49:24.847
50.0, 76353.022617462, 81002.7666095217, -11840.657811243274, -10020.376446291977, -1473.4716979827522, -2397.2245928316825, -15577.355394048143, 187500.0, -0.10200000000000001, 0.978, 0.122, 192.0, 0.0, 0.0, 0.0, 0.0, 0.0, 0.0, 0.0, 0.0, 0.0, 1.700945364850672E9, 0.0, 2023-11-25 15:49:24.850
51.0, 76335.49884980904, 81036.85301981604, -12473.972138639945, -10617.905630815701, -2230.7488001285556, -2814.9116414680057, -15630.37373189613, 187500.0, -0.10200000000000001, 0.978, 0.122, 192.0, 0.0, 0.0, 0.0, 0.0, 0.0, 0.0, 0.0, 0.0, 0.0, 1.700945364854696E9, 0.0, 2023-11-25 15:49:24.854
52.0, 76330.55911428442, 81075.74505516829, -13027.893069731364, -11256.696135603921, -3099.6058105952516, -3517.7622458651363, -15669.645746904105, 187500.0, -0.10200000000000001, 0.978, 0.122, 192.0, 0.0, 0.0, 0.0, 0.0, 0.0, 0.0, 0.0, 0.0, 0.0, 1.700945364858693E9, 0.0, 2023-11-25 15:49:24.858
53.0, 76363.88556526728, 81037.18829598288, -11875.39242212682, -10206.655884582506, -1789.7935855142578, -2727.516320647755, -15485.310910381188, 187500.0, -0.10200000000000001, 0.978, 0.122, 192.0, 0.0, 0.0, 0.0, 0.0, 0.0, 0.0, 0.0, 0.0, 0.0, 1.700945364862753E9, 0.0, 2023-11-25 15:49:24.862
54.0, 76364.69022806767, 81011.34967939254, -11745.327621141389, -9922.699323022285, -1369.5584380100297, -2351.2694062315713, -15567.185350320979, 187500.0, -0.10200000000000001, 0.978, 0.122, 192.0, 0.0, 0.0, 0.0, 0.0, 0.0, 0.0, 0.0, 0.0, 0.0, 1.700945364866923E9, 0.0, 2023-11-25 15:49:24.866
55.0, 76330.20148637313, 81023.1290487205, -12350.478750524373, -10531.51613849594, -2076.5217633869365, -2744.3918877115116, -15613.051129943267, 187500.0, -0.10200000000000001, 0.978, 0.122, 192.0, 0.0, 0.0, 0.0, 0.0, 0.0, 0.0, 0.0, 0.0, 0.0, 1.700945364871736E9, 0.0, 2023-11-25 15:49:24.871
56.0, 76309.12379135177, 81058.44480495987, -13050.222462442216, -11209.6457135255, -3056.981033918981, -3441.8780734393686, -15689.225875046955, 187500.0, -0.10200000000000001, 0.978, 0.122, 192.0, 0.0, 0.0, 0.0, 0.0, 0.0, 0.0, 0.0, 0.0, 0.0, 1.700945364875734E9, 0.0, 2023-11-25 15:49:24.875
57.0, 76351.05566394993, 81036.36128143803, -12113.438500575841, -10470.853504044237, -2103.388560222216, -2951.212579156468, -15503.929913512458, 187500.0, -0.108, 0.98, 0.11800000000000001, 192.0, 252.0, 160.0, 30.0, 160.0, 3.0, 176.0, 0.0, 0.0, 0.0, 1.700945364878765E9, 0.0, 2023-11-25 15:49:24.878
58.0, 76357.15769018623, 80997.62570829698, -11655.11598051977, -9804.03391170906, -1269.5567333169859, -2282.5824955204125, -15550.712114657417, 187500.0, -0.108, 0.98, 0.11800000000000001, 192.0, 0.0, 0.0, 0.0, 0.0, 0.0, 0.0, 0.0, 0.0, 0.0, 1.700945364882809E9, 0.0, 2023-11-25 15:49:24.882
59.0, 76321.61841650229, 80998.09509493054, -12253.025144699233, -10438.82345423978, -1945.071154245276, -2672.419270565423, -15616.202725911466, 187500.0, -0.108, 0.98, 0.11800000000000001, 192.0, 0.0, 0.0, 0.0, 0.0, 0.0, 0.0, 0.0, 0.0, 0.0, 1.700945364886871E9, 0.0, 2023-11-25 15:49:24.886
60.0, 76311.82835243086, 81053.50506943525, -13004.803717709032, -11127.324238696605, -2947.636300043619, -3330.901662218769, -15690.522276225362, 187500.0, -0.108, 0.98, 0.11800000000000001, 192.0, 0.0, 0.0, 0.0, 0.0, 0.0, 0.0, 0.0, 0.0, 0.0, 1.70094536489131E9, 0.0, 2023-11-25 15:49:24.891
61.0, 76343.03138769047, 81043.55854315264, -12367.935462943968, -10742.449550920672, -2424.1807966447827, -3168.3150730508655, -15528.829756835672, 187500.0, -0.108, 0.98, 0.11800000000000001, 192.0, 0.0, 0.0, 0.0, 0.0, 0.0, 0.0, 0.0, 0.0, 0.0, 1.700945364896846E9, 0.0, 2023-11-25 15:49:24.896
62.0, 76371.3733996598, 81010.94734799235, -11581.355223817256, -9739.59383244441, -1221.9028141382712, -2250.463038738136, -15517.16214623, 187500.0, -0.108, 0.98, 0.11800000000000001, 192.0, 0.0, 0.0, 0.0, 0.0, 0.0, 0.0, 0.0, 0.0, 0.0, 1.700945364899789E9, 0.0, 2023-11-25 15:49:24.899
63.0, 76339.768033, 81007.8181037686, -12143.479245123774, -10358.75950560087, -1824.0364580197881, -2611.04138029115, -15604.937446705992, 187500.0, -0.108, 0.98, 0.11800000000000001, 192.0, 0.0, 0.0, 0.0, 0.0, 0.0, 0.0, 0.0, 0.0, 0.0, 1.700945364904004E9, 0.0, 2023-11-25 15:49:24.904
64.0, 76323.25009384753, 81062.49047070628, -12891.346262853893, -11002.17682149134, -2775.997254371316, -3187.2246488600554, -15684.934340111537, 187500.0, -0.108, 0.98, 0.11800000000000001, 192.0, 0.0, 0.0, 0.0, 0.0, 0.0, 0.0, 0.0, 0.0, 0.0, 1.700945364906937E9, 0.0, 2023-11-25 15:49:24.906
65.0, 76338.56103879941, 81060.41175847195, -12616.039826397877, -10974.88534151141, -2716.9439455203947, -3353.2757584185315, -15582.585702250684, 187500.0, -0.108, 0.98, 0.11800000000000001, 192.0, 0.0, 0.0, 0.0, 0.0, 0.0, 0.0, 0.0, 0.0, 0.0, 1.700945364910893E9, 0.0, 2023-11-25 15:49:24.910
66.0, 76366.18779494618, 81015.90943526142, -11567.452438766055, -9753.228396562148, -1256.5480180439972, -2294.2724578705383, -15513.317646183688, 187500.0, -0.108, 0.98, 0.11800000000000001, 192.0, 0.0, 0.0, 0.0, 0.0, 0.0, 0.0, 0.0, 0.0, 0.0, 1.700945364914956E9, 0.0, 2023-11-25 15:49:24.914
67.0, 76345.020692947, 81003.41481011092, -12043.544595664096, -10258.869559630104, -1707.494462429817, -2554.580873797044, -15616.605057311663, 187500.0, -0.108, 0.972, 0.122, 192.0, 252.0, 160.0, 30.0, 96.0, 3.0, 208.0, 0.0, 0.0, 0.0, 1.700945364918933E9, 0.0, 2023-11-25 15:49:24.918
68.0, 76327.07224214938, 81056.12022353652, -12747.915118684188, -10859.460933144204, -2578.8548682755077, -3048.308557070322, -15671.43388646053, 187500.0, -0.108, 0.972, 0.122, 192.0, 0.0, 0.0, 0.0, 0.0, 0.0, 0.0, 0.0, 0.0, 0.0, 1.700945364924924E9, 0.0, 2023-11-25 15:49:24.924
69.0, 76330.96144568462, 81071.98996209979, -12818.658389885235, -11142.881052837498, -2932.4818173029207, -3479.5631145910165, -15603.66339727204, 187500.0, -0.108, 0.972, 0.122, 192.0, 0.0, 0.0, 0.0, 0.0, 0.0, 0.0, 0.0, 0.0, 0.0, 1.700945364927902E9, 0.0, 2023-11-25 15:49:24.927
70.0, 76360.24223092107, 81022.54790336466, -11616.894497501195, -9845.42934244029, -1372.3300543224877, -2401.493776022646, -15488.216637160378, 187500.0, -0.108, 0.972, 0.122, 192.0, 0.0, 0.0, 0.0, 0.0, 0.0, 0.0, 0.0, 0.0, 0.0, 1.700945364931928E9, 0.0, 2023-11-25 15:49:24.931
71.0, 76347.68055053717, 81003.34775487754, -11947.588556717463, -10151.536482755719, -1593.0758825631003, -2490.0066840656623, -15600.623560026117, 187500.0, -0.108, 0.972, 0.122, 192.0, 0.0, 0.0, 0.0, 0.0, 0.0, 0.0, 0.0, 0.0, 0.0, 1.70094536493492E9, 0.0, 2023-11-25 15:49:24.934
72.0, 76333.55424804143, 81044.8772960755, -12599.186611078574, -10719.091977964876, -2380.505487979113, -2908.274878057823, -15644.343572180698, 187500.0, -0.108, 0.972, 0.122, 192.0, 0.0, 0.0, 0.0, 0.0, 0.0, 0.0, 0.0, 0.0, 0.0, 1.700945364937949E9, 0.0, 2023-11-25 15:49:24.937
73.0, 76336.57173354289, 81079.88012789251, -12968.392725991336, -11234.970239993363, -3063.664205511118, -3526.6582401583482, -15635.134653465111, 187500.0, -0.108, 0.972, 0.122, 192.0, 0.0, 0.0, 0.0, 0.0, 0.0, 0.0, 0.0, 0.0, 0.0, 1.700945364942887E9, 0.0, 2023-11-25 15:49:24.942
74.0, 76371.61926884881, 81041.59158964058, -11729.077902922381, -10016.599001479031, -1567.1702107393994, -2558.5371325656333, -15464.63554676003, 187500.0, -0.108, 0.972, 0.122, 192.0, 0.0, 0.0, 0.0, 0.0, 0.0, 0.0, 0.0, 0.0, 0.0, 1.700945364946907E9, 0.0, 2023-11-25 15:49:24.946
75.0, 76354.54253608496, 81006.3205368901, -11833.840529184405, -10021.248164325734, -1461.7817356326266, -2409.8309767044757, -15577.198931836956, 187500.0, -0.108, 0.972, 0.122, 192.0, 0.0, 0.0, 0.0, 0.0, 0.0, 0.0, 0.0, 0.0, 0.0, 1.700945364950981E9, 0.0, 2023-11-25 15:49:24.950
76.0, 76319.38324205676, 81030.01338601272, -12465.165551324553, -10620.230212239054, -2210.431064418681, -2821.8853857380614, -15630.32902840722, 187500.0, -0.108, 0.972, 0.122, 192.0, 0.0, 0.0, 0.0, 0.0, 0.0, 0.0, 0.0, 0.0, 0.0, 1.70094536495602E9, 0.0, 2023-11-25 15:49:24.956
77.0, 76307.69327970664, 81064.56918294063, -13054.871625288919, -11251.823455312664, -3103.5173658749304, -3516.1752720088093, -15677.804133630292, 187500.0, -0.108, 0.964, 0.124, 192.0, 252.0, 160.0, 30.0, 32.0, 3.0, 224.0, 0.0, 0.0, 0.0, 1.700945364959994E9, 0.0, 2023-11-25 15:49:24.959
78.0, 76344.55130631344, 81031.75682208023, -11935.920946111793, -10265.12804807759, -1862.6602724385586, -2789.2965423222236, -15492.798744773716, 187500.0, -0.108, 0.964, 0.124, 192.0, 0.0, 0.0, 0.0, 0.0, 0.0, 0.0, 0.0, 0.0, 0.0, 1.700945364962969E9, 0.0, 2023-11-25 15:49:24.962
79.0, 76339.29864636644, 80991.99306869425, -11738.398580360245, -9894.469069775232, -1354.9627488807141, -2346.6425951293227, -15574.740239946872, 187500.0, -0.108, 0.964, 0.124, 192.0, 0.0, 0.0, 0.0, 0.0, 0.0, 0.0, 0.0, 0.0, 0.0, 1.70094536496596E9, 0.0, 2023-11-25 15:49:24.965
80.0, 76318.73504146756, 81010.83558927008, -12343.326192298675, -10511.55603069735, -2058.282739911406, -2742.849617344096, -15625.702217304972, 187500.0, -0.108, 0.964, 0.124, 192.0, 0.0, 0.0, 0.0, 0.0, 0.0, 0.0, 0.0, 0.0, 0.0, 1.700945364971558E9, 0.0, 2023-11-25 15:49:24.971
81.0, 76293.34345976633, 81049.63821764449, -13057.509131134646, -11192.367815061549, -3047.8391704367605, -3433.809093691003, -15699.999415874412, 187500.0, -0.108, 0.964, 0.124, 192.0, 0.0, 0.0, 0.0, 0.0, 0.0, 0.0, 0.0, 0.0, 0.0, 1.700945364975019E9, 0.0, 2023-11-25 15:49:24.975
82.0, 76327.20635261612, 81030.37101392401, -12173.095306527055, -10521.167280813132, -2176.568171568891, -3004.789710615839, -15517.631532863563, 187500.0, -0.108, 0.964, 0.124, 192.0, 0.0, 0.0, 0.0, 0.0, 0.0, 0.0, 0.0, 0.0, 0.0, 1.700945364979055E9, 0.0, 2023-11-25 15:49:24.979
83.0, 76342.60670454582, 80989.10969365951, -11650.936204306628, -9800.927019229774, -1277.49160259862, -2299.927449217731, -15555.070704826201, 187500.0, -0.108, 0.964, 0.124, 192.0, 0.0, 0.0, 0.0, 0.0, 0.0, 0.0, 0.0, 0.0, 0.0, 1.700945364983036E9, 0.0, 2023-11-25 15:49:24.983
84.0, 76323.49596303653, 80997.49159783026, -12235.94841193538, -10432.475558814474, -1931.101313960709, -2679.6612357689423, -15613.162888665545, 187500.0, -0.108, 0.964, 0.124, 192.0, 0.0, 0.0, 0.0, 0.0, 0.0, 0.0, 0.0, 0.0, 0.0, 1.700945364987126E9, 0.0, 2023-11-25 15:49:24.987
85.0, 76320.43377404616, 81065.46325271884, -12991.437374524758, -11117.333008925081, -2923.183491609513, -3325.358429593853, -15686.789534901327, 187500.0, -0.108, 0.964, 0.124, 192.0, 0.0, 0.0, 0.0, 0.0, 0.0, 0.0, 0.0, 0.0, 0.0, 1.700945364991124E9, 0.0, 2023-11-25 15:49:24.991
86.0, 76344.90893422472, 81059.40592997146, -12417.690446101482, -10811.628200009847, -2486.4080532083576, -3238.2536814515215, -15529.45560568042, 187500.0, -0.108, 0.964, 0.124, 192.0, 0.0, 0.0, 0.0, 0.0, 0.0, 0.0, 0.0, 0.0, 0.0, 1.700945364995081E9, 0.0, 2023-11-25 15:49:24.995
87.0, 76353.49200409556, 81004.59945256704, -11569.441744022579, -9740.152626055793, -1210.52577621052, -2274.1111843718513, -15510.523678126774, 187500.0, -0.106, 0.972, 0.122, 192.0, 252.0, 176.0, 30.0, 96.0, 3.0, 208.0, 0.0, 0.0, 0.0, 1.700945364999093E9, 0.0, 2023-11-25 15:49:24.999
88.0, 76324.09946013683, 80995.21171989581, -12127.698913538326, -10337.637107090606, -1791.5817250706823, -2615.645839648943, -15603.618693783128, 187500.0, -0.106, 0.972, 0.122, 192.0, 0.0, 0.0, 0.0, 0.0, 0.0, 0.0, 0.0, 0.0, 0.0, 1.700945365003118E9, 0.0, 2023-11-25 15:49:25.003
89.0, 76307.64857621773, 81051.73928162329, -12872.302576577971, -10966.45873385176, -2730.3549921935787, -3169.2985498068992, -15684.464953477975, 187500.0, -0.106, 0.972, 0.122, 192.0, 0.0, 0.0, 0.0, 0.0, 0.0, 0.0, 0.0, 0.0, 0.0, 1.700945365007123E9, 0.0, 2023-11-25 15:49:25.007
90.0, 76326.75931772702, 81056.25433400326, -12671.718021836046, -11014.626743152947, -2762.027414086749, -3397.5992676734054, -15585.89376043007, 187500.0, -0.106, 0.972, 0.122, 192.0, 0.0, 0.0, 0.0, 0.0, 0.0, 0.0, 0.0, 0.0, 0.0, 1.700945365011111E9, 0.0, 2023-11-25 15:49:25.011
91.0, 76362.16448094422, 81010.88029275899, -11575.00732839195, -9751.88729189483, -1259.878427967838, -2312.98086797963, -15497.984349487348, 187500.0, -0.106, 0.972, 0.122, 192.0, 0.0, 0.0, 0.0, 0.0, 0.0, 0.0, 0.0, 0.0, 0.0, 1.700945365017171E9, 0.0, 2023-11-25 15:49:25.017
92.0, 76334.47066956409, 80995.79286525166, -12032.748703092182, -10226.280716214265, -1674.8832672695241, -2545.327251592547, -15603.328121105209, 187500.0, -0.106, 0.972, 0.122, 192.0, 0.0, 0.0, 0.0, 0.0, 0.0, 0.0, 0.0, 0.0, 0.0, 1.700945365020196E9, 0.0, 2023-11-25 15:49:25.020
93.0, 76311.44837277512, 81046.3301594651, -12724.825766661856, -10805.637932495825, -2522.5508239925894, -3010.891736852138, -15670.495113193407, 187500.0, -0.106, 0.972, 0.122, 192.0, 0.0, 0.0, 0.0, 0.0, 0.0, 0.0, 0.0, 0.0, 0.0, 1.70094536502321E9, 0.0, 2023-11-25 15:49:25.023
94.0, 76322.35602406932, 81073.37577025603, -12865.798218941478, -11150.748866885766, -2956.9122739925715, -3494.963466520723, -15619.555487579762, 187500.0, -0.106, 0.972, 0.122, 192.0, 0.0, 0.0, 0.0, 0.0, 0.0, 0.0, 0.0, 0.0, 0.0, 1.700945365027204E9, 0.0, 2023-11-25 15:49:25.027
95.0, 76365.98662924608, 81039.49052566178, -11635.11116923227, -9875.604197454953, -1399.5097755801412, -2440.5422735860675, -15474.604424787096, 187500.0, -0.106, 0.972, 0.122, 192.0, 0.0, 0.0, 0.0, 0.0, 0.0, 0.0, 0.0, 0.0, 0.0, 1.70094536503123E9, 0.0, 2023-11-25 15:49:25.031
96.0, 76338.7175010106, 81001.53726357667, -11924.633315161862, -10131.665781934951, -1559.1682862243995, -2489.626704409922, -15595.527362290308, 187500.0, -0.106, 0.972, 0.122, 192.0, 0.0, 0.0, 0.0, 0.0, 0.0, 0.0, 0.0, 0.0, 0.0, 1.700945365035283E9, 0.0, 2023-11-25 15:49:25.035
97.0, 76312.9682913981, 81031.80152556914, -12571.87277935419, -10691.26405611802, -2331.6445745998117, -2897.85896514165, -15650.266784461355, 187500.0, -0.106, 0.976, 0.128, 192.0, 252.0, 176.0, 30.0, 128.0, 4.0, 0.0, 0.0, 0.0, 0.0, 1.700945365039214E9, 0.0, 2023-11-25 15:49:25.039
98.0, 76310.73311695256, 81062.80339512866, -12995.594798993445, -11226.744798033811, -3063.619502022207, -3526.1441500358765, -15653.686601363017, 187500.0, -0.106, 0.976, 0.128, 192.0, 0.0, 0.0, 0.0, 0.0, 0.0, 0.0, 0.0, 0.0, 0.0, 1.700945365042224E9, 0.0, 2023-11-25 15:49:25.042
99.0, 76354.25196340703, 81027.5770458671, -11770.272167953512, -10048.874920472494, -1615.2264613183095, -2598.3679411849907, -15466.758962483284, 187500.0, -0.106, 0.976, 0.128, 192.0, 0.0, 0.0, 0.0, 0.0, 0.0, 0.0, 0.0, 0.0, 0.0, 1.700945365046235E9, 0.0, 2023-11-25 15:49:25.046
100.0, 76348.9769517156, 81006.74522003475, -11809.611238194853, -9977.394041704421, -1427.4941596381855, -2387.4568805047134, -15563.340850274666, 187500.0, -0.106, 0.976, 0.128, 192.0, 0.0, 0.0, 0.0, 0.0, 0.0, 0.0, 0.0, 0.0, 0.0, 1.700945365050246E9, 0.0, 2023-11-25 15:49:25.050
101.0, 76318.01978564498, 81030.59453136857, -12424.463024671439, -10562.115676655254, -2152.897674190721, -2779.4841265063437, -15612.1347084206, 187500.0, -0.106, 0.976, 0.128, 192.0, 0.0, 0.0, 0.0, 0.0, 0.0, 0.0, 0.0, 0.0, 0.0, 1.700945365054265E9, 0.0, 2023-11-25 15:49:25.054
102.0, 76314.53291350996, 81079.76836917024, -13052.77056131012, -11223.727312532345, -3082.3949673646653, -3486.73802456117, -15669.466932948464, 187500.0, -0.106, 0.976, 0.128, 192.0, 0.0, 0.0, 0.0, 0.0, 0.0, 0.0, 0.0, 0.0, 0.0, 1.700945365059464E9, 0.0, 2023-11-25 15:49:25.059
103.0, 76354.69899829615, 81049.6829211334, -11966.609891248929, -10301.807260728749, -1905.1509386480975, -2818.1749961584806, -15483.29925338021, 187500.0, -0.106, 0.976, 0.128, 192.0, 0.0, 0.0, 0.0, 0.0, 0.0, 0.0, 0.0, 0.0, 0.0, 1.700945365063271E9, 0.0, 2023-11-25 15:49:25.063
104.0, 76362.03037047749, 81015.21653118331, -11702.859306676306, -9868.295177018068, -1321.032800797558, -2325.922528019253, -15561.418600251509, 187500.0, -0.106, 0.976, 0.128, 192.0, 0.0, 0.0, 0.0, 0.0, 0.0, 0.0, 0.0, 0.0, 0.0, 1.700945365067901E9, 0.0, 2023-11-25 15:49:25.067
105.0, 76334.56007654192, 81026.88414178898, -12297.05808127619, -10479.704794848538, -2005.8455474192558, -2716.385151909012, -15610.435975841998, 187500.0, -0.106, 0.976, 0.128, 192.0, 0.0, 0.0, 0.0, 0.0, 0.0, 0.0, 0.0, 0.0, 0.0, 1.700945365070259E9, 0.0, 2023-11-25 15:49:25.070
106.0, 76313.90706466521, 81069.03953183169, -13033.168081422817, -11152.626413420012, -2998.017132045881, -3392.7936426155143, -15692.57863671525, 187500.0, -0.106, 0.976, 0.128, 192.0, 0.0, 0.0, 0.0, 0.0, 0.0, 0.0, 0.0, 0.0, 0.0, 1.700945365074336E9, 0.0, 2023-11-25 15:49:25.074
107.0, 76346.8758877368, 81050.84521184507, -12217.552926248662, -10563.881464467224, -2220.3999424457484, -3040.463094766509, -15520.64901836503, 187500.0, -0.108, 0.966, 0.11800000000000001, 192.0, 252.0, 160.0, 30.0, 48.0, 3.0, 176.0, 0.0, 0.0, 0.0, 1.700945365078347E9, 0.0, 2023-11-25 15:49:25.078
108.0, 76358.34233264237, 81010.50031310324, -11624.494090615999, -9757.341117541924, -1236.5655585009526, -2269.2608558250495, -15546.755855888827, 187500.0, -0.108, 0.966, 0.11800000000000001, 192.0, 0.0, 0.0, 0.0, 0.0, 0.0, 0.0, 0.0, 0.0, 0.0, 1.700945365082404E9, 0.0, 2023-11-25 15:49:25.082
109.0, 76322.80305895842, 81008.10867644653, -12206.667626698927, -10387.459145481485, -1881.5027930143826, -2651.609796477532, -15609.988940952891, 187500.0, -0.108, 0.966, 0.11800000000000001, 192.0, 0.0, 0.0, 0.0, 0.0, 0.0, 0.0, 0.0, 0.0, 0.0, 1.700945365087425E9, 0.0, 2023-11-25 15:49:25.087
110.0, 76293.25405278851, 81043.7820605972, -12970.918473114787, -11047.461455757792, -2864.9124938145274, -3268.0485568104455, -15694.187962316033, 187500.0, -0.108, 0.966, 0.11800000000000001, 192.0, 0.0, 0.0, 0.0, 0.0, 0.0, 0.0, 0.0, 0.0, 0.0, 1.700945365091373E9, 0.0, 2023-11-25 15:49:25.091
111.0, 76338.9186667107, 81058.62361891552, -12474.955615395978, -10820.121862902864, -2533.9949171537064, -3249.586015890362, -15543.492501198352, 187500.0, -0.108, 0.966, 0.11800000000000001, 192.0, 0.0, 0.0, 0.0, 0.0, 0.0, 0.0, 0.0, 0.0, 0.0, 1.700945365095397E9, 0.0, 2023-11-25 15:49:25.095
112.0, 76355.88364075228, 81009.85211251404, -11571.654566723653, -9718.11380602286, -1217.879500136316, -2271.361919803848, -15510.367215915587, 187500.0, -0.108, 0.966, 0.11800000000000001, 192.0, 0.0, 0.0, 0.0, 0.0, 0.0, 0.0, 0.0, 0.0, 0.0, 1.7009453650984E9, 0.0, 2023-11-25 15:49:25.098
113.0, 76325.10528863732, 81005.02413571169, -12107.582343528551, -10299.437975816487, -1765.1172596355987, -2598.4796999072673, -15598.768365236327, 187500.0, -0.108, 0.966, 0.11800000000000001, 192.0, 0.0, 0.0, 0.0, 0.0, 0.0, 0.0, 0.0, 0.0, 0.0, 1.700945365102359E9, 0.0, 2023-11-25 15:49:25.102
114.0, 76312.27538731997, 81058.91419159343, -12842.530052963502, -10924.526861253604, -2682.097575914571, -3139.4813227035193, -15665.197749757499, 187500.0, -0.108, 0.966, 0.11800000000000001, 192.0, 0.0, 0.0, 0.0, 0.0, 0.0, 0.0, 0.0, 0.0, 0.0, 1.700945365106403E9, 0.0, 2023-11-25 15:49:25.106
115.0, 76334.1130416528, 81068.01135158674, -12711.973513600055, -11029.244784026718, -2796.292638336735, -3420.3086400399975, -15575.276681813799, 187500.0, -0.108, 0.966, 0.11800000000000001, 192.0, 0.0, 0.0, 0.0, 0.0, 0.0, 0.0, 0.0, 0.0, 0.0, 1.700945365110399E9, 0.0, 2023-11-25 15:49:25.110
116.0, 76355.30249539643, 81016.26706317271, -11591.592322777788, -9761.498542010611, -1285.8958585138153, -2340.7417345931217, -15494.899808752514, 187500.0, -0.108, 0.966, 0.11800000000000001, 192.0, 0.0, 0.0, 0.0, 0.0, 0.0, 0.0, 0.0, 0.0, 0.0, 1.70094536511444E9, 0.0, 2023-11-25 15:49:25.114
117.0, 76325.77584097098, 80993.75885650622, -12029.127720490424, -10214.948381775426, -1672.2681131682532, -2556.7936964981195, -15612.604095054163, 187500.0, -0.11, 0.974, 0.12, 192.0, 252.0, 144.0, 30.0, 112.0, 3.0, 192.0, 0.0, 0.0, 0.0, 1.700945365119439E9, 0.0, 2023-11-25 15:49:25.119
118.0, 76298.97609936907, 81033.14263023647, -12714.789833401423, -10793.389176534316, -2503.4177307388463, -3010.601164174219, -15677.893540608115, 187500.0, -0.11, 0.974, 0.12, 192.0, 0.0, 0.0, 0.0, 0.0, 0.0, 0.0, 0.0, 0.0, 0.0, 1.700945365123527E9, 0.0, 2023-11-25 15:49:25.123
119.0, 76313.30356756492, 81060.99290382778, -12923.689237080722, -11197.575771519634, -3009.8412048627383, -3538.2587955306526, -15650.33383969472, 187500.0, -0.11, 0.974, 0.12, 192.0, 0.0, 0.0, 0.0, 0.0, 0.0, 0.0, 0.0, 0.0, 0.0, 1.700945365126561E9, 0.0, 2023-11-25 15:49:25.126
120.0, 76350.89920173875, 81011.70730730383, -11675.031384829448, -9911.679913005819, -1447.968357559247, -2481.065986283539, -15497.514962853786, 187500.0, -0.11, 0.974, 0.12, 192.0, 0.0, 0.0, 0.0, 0.0, 0.0, 0.0, 0.0, 0.0, 0.0, 1.700945365130473E9, 0.0, 2023-11-25 15:49:25.130
121.0, 76338.98572194406, 80991.97071694979, -11925.482681451163, -10101.222705986824, -1546.4277918848745, -2479.501364171668, -15607.910228718547, 187500.0, -0.11, 0.974, 0.12, 192.0, 0.0, 0.0, 0.0, 0.0, 0.0, 0.0, 0.0, 0.0, 0.0, 1.700945365134553E9, 0.0, 2023-11-25 15:49:25.134
122.0, 76312.9682913981, 81024.71602257682, -12567.268319996396, -10668.599387240338, -2311.2150801676607, -2886.437223724988, -15657.307583964775, 187500.0, -0.11, 0.974, 0.12, 192.0, 0.0, 0.0, 0.0, 0.0, 0.0, 0.0, 0.0, 0.0, 0.0, 1.700945365138727E9, 0.0, 2023-11-25 15:49:25.138
123.0, 76306.93332039515, 81054.5332496802, -13041.05824721554, -11248.001307010807, -3098.197650694567, -3545.925443878823, -15683.05679357729, 187500.0, -0.11, 0.974, 0.12, 192.0, 0.0, 0.0, 0.0, 0.0, 0.0, 0.0, 0.0, 0.0, 0.0, 1.700945365142891E9, 0.0, 2023-11-25 15:49:25.142
124.0, 76343.99251270205, 81015.03771722766, -11824.206927324169, -10103.99432229928, -1681.0076452502783, -2650.782781932686, -15497.000872731314, 187500.0, -0.11, 0.974, 0.12, 192.0, 0.0, 0.0, 0.0, 0.0, 0.0, 0.0, 0.0, 0.0, 0.0, 1.700945365147528E9, 0.0, 2023-11-25 15:49:25.147
125.0, 76335.54355329795, 80987.63447852546, -11808.136023060802, -9956.897492038905, -1416.385342643898, -2382.405386257814, -15589.157115120544, 187500.0, -0.11, 0.974, 0.12, 192.0, 0.0, 0.0, 0.0, 0.0, 0.0, 0.0, 0.0, 0.0, 0.0, 1.700945365151567E9, 0.0, 2023-11-25 15:49:25.151
126.0, 76316.90219842222, 81018.56929285161, -12419.590344380182, -10551.632708505716, -2136.08916236033, -2774.83496365964, -15623.847022515181, 187500.0, -0.11, 0.974, 0.12, 192.0, 0.0, 0.0, 0.0, 0.0, 0.0, 0.0, 0.0, 0.0, 0.0, 1.700945365154564E9, 0.0, 2023-11-25 15:49:25.154
127.0, 76319.98673915706, 81072.74992141128, -13069.891997562885, -11231.349257391603, -3085.524211588408, -3489.286123429075, -15673.289081250321, 187500.0, -0.10400000000000001, 0.96, 0.12, 192.0, 252.0, 192.0, 30.0, 0.0, 3.0, 192.0, 0.0, 0.0, 0.0, 1.700945365158564E9, 0.0, 2023-11-25 15:49:25.158
128.0, 76362.47740536659, 81043.4244326859, -12017.661275584851, -10354.780895087826, -1967.7581748674127, -2867.214723493424, -15483.478067335853, 187500.0, -0.10400000000000001, 0.96, 0.12, 192.0, 0.0, 0.0, 0.0, 0.0, 0.0, 0.0, 0.0, 0.0, 0.0, 1.700945365163593E9, 0.0, 2023-11-25 15:49:25.163
129.0, 76353.06732095091, 80995.77051350719, -11698.83599267435, -9849.206787253235, -1311.846233826427, -2321.8098070394763, -15560.144550817557, 187500.0, -0.10400000000000001, 0.96, 0.12, 192.0, 0.0, 0.0, 0.0, 0.0, 0.0, 0.0, 0.0, 0.0, 0.0, 1.700945365167556E9, 0.0, 2023-11-25 15:49:25.167
130.0, 76317.2151228446, 81004.68885954487, -12305.238819746832, -10483.102260005744, -2003.96800088501, -2721.1460734779926, -15618.102624190167, 187500.0, -0.10400000000000001, 0.96, 0.12, 192.0, 0.0, 0.0, 0.0, 0.0, 0.0, 0.0, 0.0, 0.0, 0.0, 1.700945365170533E9, 0.0, 2023-11-25 15:49:25.170
131.0, 76300.04898310293, 81054.80147061366, -13054.223424699716, -11179.269692810738, -3010.601164174219, -3410.116244568377, -15696.736061183938, 187500.0, -0.10400000000000001, 0.96, 0.12, 192.0, 0.0, 0.0, 0.0, 0.0, 0.0, 0.0, 0.0, 0.0, 0.0, 1.7009453651746E9, 0.0, 2023-11-25 15:49:25.174
132.0, 76329.016843917, 81037.56827563862, -12277.500304877794, -10632.657782156204, -2293.6689607702447, -3102.176261207612, -15515.59752411813, 187500.0, -0.10400000000000001, 0.96, 0.12, 192.0, 0.0, 0.0, 0.0, 0.0, 0.0, 0.0, 0.0, 0.0, 0.0, 1.700945365179601E9, 0.0, 2023-11-25 15:49:25.179
133.0, 76338.22576263259, 80996.66458328541, -11619.86727951375, -9759.106905353894, -1237.3702213013437, -2278.2909605849936, -15537.636344151062, 187500.0, -0.10400000000000001, 0.96, 0.12, 192.0, 0.0, 0.0, 0.0, 0.0, 0.0, 0.0, 0.0, 0.0, 0.0, 1.700945365182642E9, 0.0, 2023-11-25 15:49:25.182
134.0, 76316.74573621103, 81007.92986249088, -12200.409138251442, -10395.505773485396, -1873.9926068773993, -2658.605892492043, -15613.252295643366, 187500.0, -0.10400000000000001, 0.96, 0.12, 192.0, 0.0, 0.0, 0.0, 0.0, 0.0, 0.0, 0.0, 0.0, 0.0, 1.700945365186641E9, 0.0, 2023-11-25 15:49:25.186
135.0, 76297.8585121463, 81051.87339209001, -12952.522987428069, -11034.98918235173, -2836.7716475452958, -3252.3799839472754, -15690.544627969817, 187500.0, -0.10400000000000001, 0.96, 0.12, 192.0, 0.0, 0.0, 0.0, 0.0, 0.0, 0.0, 0.0, 0.0, 0.0, 1.700945365190698E9, 0.0, 2023-11-25 15:49:25.190
136.0, 76314.9128931657, 81039.11054600604, -12541.027372005865, -10873.698994362236, -2601.4301301753676, -3294.8930019012696, -15565.285452042277, 187500.0, -0.10400000000000001, 0.96, 0.12, 192.0, 0.0, 0.0, 0.0, 0.0, 0.0, 0.0, 0.0, 0.0, 0.0, 1.700945365194677E9, 0.0, 2023-11-25 15:49:25.194
137.0, 76339.83508823336, 80996.59752805204, -11584.126840129715, -9731.59190792941, -1235.4703230226426, -2286.5611060334572, -15521.766605587794, 187500.0, -0.10400000000000001, 0.962, 0.126, 192.0, 252.0, 192.0, 30.0, 16.0, 3.0, 240.0, 0.0, 0.0, 0.0, 1.700945365198622E9, 0.0, 2023-11-25 15:49:25.198
138.0, 76315.73990771055, 80987.50036805873, -12098.01579690168, -10292.08425189069, -1754.1872565969536, -2594.8363655610524, -15615.509821833351, 187500.0, -0.10400000000000001, 0.962, 0.126, 192.0, 0.0, 0.0, 0.0, 0.0, 0.0, 0.0, 0.0, 0.0, 0.0, 1.700945365202794E9, 0.0, 2023-11-25 15:49:25.202
139.0, 76299.89252089174, 81036.89772330497, -12822.055855042441, -10890.976892826187, -2646.2453778082586, -3101.393950151676, -15684.800229644803, 187500.0, -0.10400000000000001, 0.962, 0.126, 192.0, 0.0, 0.0, 0.0, 0.0, 0.0, 0.0, 0.0, 0.0, 0.0, 1.700945365207697E9, 0.0, 2023-11-25 15:49:25.207
140.0, 76310.55430299691, 81040.31754020663, -12767.785819504956, -11069.634386257458, -2851.65790935253, -3446.0802013969665, -15613.185240410001, 187500.0, -0.10400000000000001, 0.962, 0.126, 192.0, 0.0, 0.0, 0.0, 0.0, 0.0, 0.0, 0.0, 0.0, 0.0, 1.700945365210661E9, 0.0, 2023-11-25 15:49:25.210
141.0, 76345.98181795857, 80998.27390888619, -11602.835250238806, -9793.282722626058, -1318.328239718466, -2368.368490739881, -15502.320587911678, 187500.0, -0.10400000000000001, 0.962, 0.126, 192.0, 0.0, 0.0, 0.0, 0.0, 0.0, 0.0, 0.0, 0.0, 0.0, 1.700945365214666E9, 0.0, 2023-11-25 15:49:25.214
142.0, 76333.42013757469, 80990.16022564891, -11999.735176531694, -10205.404186893009, -1647.591787289594, -2551.5410365511225, -15603.685749016495, 187500.0, -0.10400000000000001, 0.962, 0.126, 192.0, 0.0, 0.0, 0.0, 0.0, 0.0, 0.0, 0.0, 0.0, 0.0, 1.700945365218694E9, 0.0, 2023-11-25 15:49:25.218
143.0, 76308.3638320403, 81027.15236272245, -12680.301091706884, -10791.869257911356, -2469.7783553336094, -3007.8295478617606, -15662.917871823058, 187500.0, -0.10400000000000001, 0.962, 0.126, 192.0, 0.0, 0.0, 0.0, 0.0, 0.0, 0.0, 0.0, 0.0, 0.0, 1.700945365222684E9, 0.0, 2023-11-25 15:49:25.222
144.0, 76313.54943675392, 81054.84617410257, -12940.743618100121, -11224.956658477386, -3030.8294929062718, -3558.643586473893, -15641.393141912598, 187500.0, -0.10400000000000001, 0.962, 0.126, 192.0, 0.0, 0.0, 0.0, 0.0, 0.0, 0.0, 0.0, 0.0, 0.0, 1.700945365226744E9, 0.0, 2023-11-25 15:49:25.226
145.0, 76349.6698557937, 81014.23305442728, -11692.286931548946, -9963.535960142131, -1490.77194819116, -2535.716001476765, -15489.133058683046, 187500.0, -0.10400000000000001, 0.962, 0.126, 192.0, 0.0, 0.0, 0.0, 0.0, 0.0, 0.0, 0.0, 0.0, 0.0, 1.700945365230683E9, 0.0, 2023-11-25 15:49:25.230
146.0, 76332.011977674, 80989.15439714842, -11881.516800107574, -10088.66102560294, -1510.4638350562855, -2482.8317740955085, -15588.195990108967, 187500.0, -0.10400000000000001, 0.962, 0.126, 192.0, 0.0, 0.0, 0.0, 0.0, 0.0, 0.0, 0.0, 0.0, 0.0, 1.700945365235698E9, 0.0, 2023-11-25 15:49:25.235
147.0, 76308.09561110684, 81025.58774061057, -12515.658142049091, -10652.506131232516, -2260.92365514322, -2881.5198399448204, -15638.822691300236, 187500.0, -0.108, 0.976, 0.13, 192.0, 252.0, 160.0, 30.0, 128.0, 4.0, 16.0, 0.0, 0.0, 0.0, 1.700945365239765E9, 0.0, 2023-11-25 15:49:25.239
148.0, 76312.02951813096, 81071.92290686643, -13021.500470817145, -11246.727257576855, -3079.891571985671, -3547.6912316907924, -15664.86247359067, 187500.0, -0.108, 0.976, 0.13, 192.0, 0.0, 0.0, 0.0, 0.0, 0.0, 0.0, 0.0, 0.0, 0.0, 1.700945365243988E9, 0.0, 2023-11-25 15:49:25.243
149.0, 76350.38511161627, 81030.63923485747, -11839.20494785368, -10157.81732294766, -1723.140683548532, -2709.009076238761, -15490.563570328186, 187500.0, -0.108, 0.976, 0.13, 192.0, 0.0, 0.0, 0.0, 0.0, 0.0, 0.0, 0.0, 0.0, 0.0, 1.700945365246773E9, 0.0, 2023-11-25 15:49:25.246
150.0, 76353.08967269537, 80998.09509493054, -11764.416010906221, -9952.091866981014, -1390.5243743091078, -2397.984552143163, -15582.473943528408, 187500.0, -0.108, 0.976, 0.13, 192.0, 0.0, 0.0, 0.0, 0.0, 0.0, 0.0, 0.0, 0.0, 0.0, 1.700945365250805E9, 0.0, 2023-11-25 15:49:25.250
151.0, 76327.85455320532, 81019.88804577447, -12367.197855376942, -10546.380048558718, -2101.2427927545064, -2786.189649842936, -15614.682807288506, 187500.0, -0.108, 0.976, 0.13, 192.0, 0.0, 0.0, 0.0, 0.0, 0.0, 0.0, 0.0, 0.0, 0.0, 1.700945365254754E9, 0.0, 2023-11-25 15:49:25.254
152.0, 76315.02465188797, 81071.43116848842, -13032.676343044799, -11209.26573386976, -3061.8313624657826, -3474.3998616218405, -15664.594252657207, 187500.0, -0.108, 0.976, 0.13, 192.0, 0.0, 0.0, 0.0, 0.0, 0.0, 0.0, 0.0, 0.0, 0.0, 1.700945365258801E9, 0.0, 2023-11-25 15:49:25.258
153.0, 76352.41912036171, 81047.3806914545, -12030.71469434675, -10397.092747341723, -2027.7949604743674, -2909.5489274917754, -15465.753133982795, 187500.0, -0.108, 0.976, 0.13, 192.0, 0.0, 0.0, 0.0, 0.0, 0.0, 0.0, 0.0, 0.0, 0.0, 1.700945365262754E9, 0.0, 2023-11-25 15:49:25.262
154.0, 76350.04983544945, 80994.80938849562, -11638.642744856208, -9812.460519368711, -1292.355512661399, -2301.536774818513, -15520.470204409386, 187500.0, -0.108, 0.976, 0.13, 192.0, 0.0, 0.0, 0.0, 0.0, 0.0, 0.0, 0.0, 0.0, 0.0, 1.700945365266767E9, 0.0, 2023-11-25 15:49:25.266
155.0, 76320.85845719081, 81004.93472873388, -12224.303153074165, -10429.770997735382, -1965.8359248442562, -2676.152011889459, -15563.497312485852, 187500.0, -0.108, 0.976, 0.13, 192.0, 0.0, 0.0, 0.0, 0.0, 0.0, 0.0, 0.0, 0.0, 0.0, 1.700945365269885E9, 0.0, 2023-11-25 15:49:25.269
156.0, 76308.92262565168, 81063.92098235142, -12972.930130115765, -11114.762558312721, -2970.9268177660488, -3338.8812349893137, -15641.728418079427, 187500.0, -0.108, 0.976, 0.13, 192.0, 0.0, 0.0, 0.0, 0.0, 0.0, 0.0, 0.0, 0.0, 0.0, 1.700945365276037E9, 0.0, 2023-11-25 15:49:25.276
157.0, 76334.20244863063, 81043.379729197, -12276.583883355128, -10661.357422036817, -2368.7708221400767, -3114.6485346136733, -15484.662709791985, 187500.0, -0.106, 0.964, 0.13, 192.0, 252.0, 176.0, 30.0, 32.0, 4.0, 16.0, 0.0, 0.0, 0.0, 1.700945365279807E9, 0.0, 2023-11-25 15:49:25.279
158.0, 76357.62707681979, 81012.57902533759, -11550.532168213389, -9724.461701448166, -1241.9970324035924, -2243.4669427236254, -15480.907616723493, 187500.0, -0.106, 0.964, 0.13, 192.0, 0.0, 0.0, 0.0, 0.0, 0.0, 0.0, 0.0, 0.0, 0.0, 1.700945365282842E9, 0.0, 2023-11-25 15:49:25.282
159.0, 76333.12956489678, 81013.62955732699, -12118.489994822741, -10353.462142164963, -1864.9177986285447, -2614.9529355708287, -15555.048353081746, 187500.0, -0.106, 0.964, 0.13, 192.0, 0.0, 0.0, 0.0, 0.0, 0.0, 0.0, 0.0, 0.0, 0.0, 1.700945365286828E9, 0.0, 2023-11-25 15:49:25.286
160.0, 76299.3113755359, 81045.883124576, -12870.268567832538, -11009.619952394958, -2835.251728922335, -3210.0234282044685, -15638.174490711033, 187500.0, -0.106, 0.964, 0.13, 192.0, 0.0, 0.0, 0.0, 0.0, 0.0, 0.0, 0.0, 0.0, 0.0, 1.700945365290961E9, 0.0, 2023-11-25 15:49:25.290
161.0, 76319.78557345696, 81046.59838039856, -12514.115871681675, -10915.11677683792, -2679.772994491219, -3308.8851939302917, -15515.999855518325, 187500.0, -0.106, 0.964, 0.13, 192.0, 0.0, 0.0, 0.0, 0.0, 0.0, 0.0, 0.0, 0.0, 0.0, 1.700945365294903E9, 0.0, 2023-11-25 15:49:25.294
162.0, 76346.94294297016, 81000.28556588717, -11518.323304453292, -9742.320745267958, -1270.6072653063852, -2278.156850118262, -15465.484913049331, 187500.0, -0.106, 0.964, 0.13, 192.0, 0.0, 0.0, 0.0, 0.0, 0.0, 0.0, 0.0, 0.0, 0.0, 1.700945365297852E9, 0.0, 2023-11-25 15:49:25.297
163.0, 76321.95369266912, 80988.84147272605, -12018.510641874152, -10285.490487276375, -1763.038547401255, -2568.4613071037897, -15562.402077007542, 187500.0, -0.106, 0.964, 0.13, 192.0, 0.0, 0.0, 0.0, 0.0, 0.0, 0.0, 0.0, 0.0, 0.0, 1.700945365302866E9, 0.0, 2023-11-25 15:49:25.302
164.0, 76302.73119243755, 81040.0269675287, -12729.340819041827, -10876.895293819343, -2646.1112673415264, -3065.586455534274, -15631.156042952067, 187500.0, -0.106, 0.964, 0.13, 192.0, 0.0, 0.0, 0.0, 0.0, 0.0, 0.0, 0.0, 0.0, 0.0, 1.700945365307171E9, 0.0, 2023-11-25 15:49:25.307
165.0, 76322.35602406932, 81060.67997940541, -12731.643048720724, -11121.356322927037, -2931.0066021688704, -3469.9518644752343, -15564.83841715317, 187500.0, -0.106, 0.964, 0.13, 192.0, 0.0, 0.0, 0.0, 0.0, 0.0, 0.0, 0.0, 0.0, 0.0, 1.700945365311144E9, 0.0, 2023-11-25 15:49:25.311
166.0, 76355.23544016307, 81015.19417943885, -11545.458322222034, -9832.71119984522, -1373.6488072453508, -2386.4734037486796, -15447.357648296076, 187500.0, -0.106, 0.964, 0.13, 192.0, 0.0, 0.0, 0.0, 0.0, 0.0, 0.0, 0.0, 0.0, 0.0, 1.700945365314943E9, 0.0, 2023-11-25 15:49:25.314
167.0, 76333.82246897489, 80993.75885650622, -11903.801489329517, -10183.410070348988, -1637.7570197292591, -2509.8997366308854, -15547.426408222487, 187500.0, -0.10200000000000001, 0.966, 0.136, 192.0, 252.0, 208.0, 30.0, 48.0, 4.0, 64.0, 0.0, 0.0, 0.0, 1.700945365319E9, 0.0, 2023-11-25 15:49:25.319
168.0, 76319.45029729012, 81043.26797047473, -12571.626910165181, -10754.497141182082, -2447.270148667115, -2947.435134343521, -15597.360205335643, 187500.0, -0.10200000000000001, 0.966, 0.136, 192.0, 0.0, 0.0, 0.0, 0.0, 0.0, 0.0, 0.0, 0.0, 0.0, 1.700945365322964E9, 0.0, 2023-11-25 15:49:25.322
169.0, 76325.26175084851, 81075.11920632354, -12883.366690083349, -11222.07328344265, -3072.850772482249, -3533.2296530282088, -15585.871408685614, 187500.0, -0.10200000000000001, 0.966, 0.136, 192.0, 0.0, 0.0, 0.0, 0.0, 0.0, 0.0, 0.0, 0.0, 0.0, 1.700945365325984E9, 0.0, 2023-11-25 15:49:25.325
170.0, 76354.60959131832, 81027.39823191146, -11644.834178070329, -9970.040317778627, -1549.5570361086175, -2526.663544972366, -15425.631752685518, 187500.0, -0.10200000000000001, 0.966, 0.136, 192.0, 0.0, 0.0, 0.0, 0.0, 0.0, 0.0, 0.0, 0.0, 0.0, 1.700945365331943E9, 0.0, 2023-11-25 15:49:25.331
171.0, 76342.36083535681, 80996.44106584086, -11802.548086946976, -10042.102341902535, -1513.704838002305, -2427.7347240131767, -15535.177652260978, 187500.0, -0.10200000000000001, 0.966, 0.136, 192.0, 0.0, 0.0, 0.0, 0.0, 0.0, 0.0, 0.0, 0.0, 0.0, 1.700945365334993E9, 0.0, 2023-11-25 15:49:25.334
172.0, 76309.99550938554, 81022.59260685356, -12438.522271933827, -10633.216575767587, -2270.9148849147423, -2843.901854026539, -15593.85098145616, 187500.0, -0.10200000000000001, 0.966, 0.136, 192.0, 0.0, 0.0, 0.0, 0.0, 0.0, 0.0, 0.0, 0.0, 0.0, 1.700945365339015E9, 0.0, 2023-11-25 15:49:25.339
173.0, 76311.85070417532, 81072.14642431098, -12983.502505243125, -11253.32102219117, -3131.345287721788, -3530.994478582678, -15629.502013862375, 187500.0, -0.10200000000000001, 0.966, 0.136, 192.0, 0.0, 0.0, 0.0, 0.0, 0.0, 0.0, 0.0, 0.0, 0.0, 1.700945365343039E9, 0.0, 2023-11-25 15:49:25.343
174.0, 76357.73883554207, 81042.46330767433, -11825.391569780299, -10203.414881636487, -1815.9004230380565, -2736.613480641065, -15437.09819759109, 187500.0, -0.10200000000000001, 0.966, 0.136, 192.0, 0.0, 0.0, 0.0, 0.0, 0.0, 0.0, 0.0, 0.0, 0.0, 1.700945365346027E9, 0.0, 2023-11-25 15:49:25.346
175.0, 76357.76118728652, 81006.25348165673, -11701.004111886516, -9928.734294025218, -1398.5262988241077, -2364.3228249934705, -15526.192250989945, 187500.0, -0.10200000000000001, 0.966, 0.136, 192.0, 0.0, 0.0, 0.0, 0.0, 0.0, 0.0, 0.0, 0.0, 0.0, 1.700945365350037E9, 0.0, 2023-11-25 15:49:25.350
176.0, 76326.46874504909, 81016.15530445044, -12316.861726863592, -10553.75612422897, -2116.1961097951066, -2774.6561497039975, -15589.693556987473, 187500.0, -0.10200000000000001, 0.966, 0.136, 192.0, 0.0, 0.0, 0.0, 0.0, 0.0, 0.0, 0.0, 0.0, 0.0, 1.700945365354103E9, 0.0, 2023-11-25 15:49:25.354
177.0, 76311.22485533057, 81060.05413056066, -13003.663778741811, -11225.873080000054, -3090.888630257682, -3468.096669685444, -15655.564147897263, 187500.0, -0.10400000000000001, 0.966, 0.134, 192.0, 252.0, 192.0, 30.0, 48.0, 4.0, 48.0, 0.0, 0.0, 0.0, 1.700945365358049E9, 0.0, 2023-11-25 15:49:25.358
178.0, 76339.94684695565, 81037.23299947179, -12059.012002827169, -10458.537692849362, -2120.889976130721, -2950.944358223004, -15465.149636882501, 187500.0, -0.10400000000000001, 0.966, 0.134, 192.0, 0.0, 0.0, 0.0, 0.0, 0.0, 0.0, 0.0, 0.0, 0.0, 1.700945365363048E9, 0.0, 2023-11-25 15:49:25.363
179.0, 76345.57948655839, 81001.00082170973, -11617.810919023863, -9825.201013708236, -1314.8190158389828, -2307.6164493103565, -15512.580038616663, 187500.0, -0.10400000000000001, 0.966, 0.134, 192.0, 0.0, 0.0, 0.0, 0.0, 0.0, 0.0, 0.0, 0.0, 0.0, 1.700945365367052E9, 0.0, 2023-11-25 15:49:25.367
180.0, 76328.48040205007, 81015.55180735014, -12204.834783653592, -10476.508495391428, -1988.4335384885717, -2711.7136373178528, -15569.88991140007, 187500.0, -0.10400000000000001, 0.966, 0.134, 192.0, 0.0, 0.0, 0.0, 0.0, 0.0, 0.0, 0.0, 0.0, 0.0, 1.700945365371263E9, 0.0, 2023-11-25 15:49:25.371
181.0, 76313.25886407601, 81066.20086028587, -12948.030286792551, -11140.556471414146, -2974.279579434345, -3352.9628339961573, -15645.863490803658, 187500.0, -0.10400000000000001, 0.966, 0.134, 192.0, 0.0, 0.0, 0.0, 0.0, 0.0, 0.0, 0.0, 0.0, 0.0, 1.700945365374356E9, 0.0, 2023-11-25 15:49:25.374
182.0, 76323.9653496701, 81039.49052566178, -12314.358331484596, -10730.93840252619, -2444.6996980547547, -3171.779593441438, -15501.91825651148, 187500.0, -0.10400000000000001, 0.966, 0.134, 192.0, 0.0, 0.0, 0.0, 0.0, 0.0, 0.0, 0.0, 0.0, 0.0, 1.700945365378143E9, 0.0, 2023-11-25 15:49:25.378
183.0, 76344.48425108007, 81000.75495252073, -11546.374743744702, -9742.276041779047, -1259.878427967838, -2265.5504662454687, -15496.755003542306, 187500.0, -0.10400000000000001, 0.966, 0.134, 192.0, 0.0, 0.0, 0.0, 0.0, 0.0, 0.0, 0.0, 0.0, 0.0, 1.700945365382242E9, 0.0, 2023-11-25 15:49:25.382
184.0, 76330.7155764956, 81012.31080440411, -12103.603733015507, -10374.450430208497, -1866.3483102736843, -2637.3046800261354, -15569.46522825542, 187500.0, -0.10400000000000001, 0.966, 0.134, 192.0, 0.0, 0.0, 0.0, 0.0, 0.0, 0.0, 0.0, 0.0, 0.0, 1.700945365386146E9, 0.0, 2023-11-25 15:49:25.386
185.0, 76310.73311695256, 81062.80339512866, -12844.787579153488, -11023.053350812597, -2816.5880223021536, -3213.331486383854, -15650.155025739077, 187500.0, -0.10400000000000001, 0.966, 0.134, 192.0, 0.0, 0.0, 0.0, 0.0, 0.0, 0.0, 0.0, 0.0, 0.0, 1.700945365390146E9, 0.0, 2023-11-25 15:49:25.390
186.0, 76325.21704735959, 81060.6352759165, -12570.419915964594, -11002.668559869357, -2759.1440390520143, -3383.9423518112126, -15547.851091367138, 187500.0, -0.10400000000000001, 0.966, 0.134, 192.0, 0.0, 0.0, 0.0, 0.0, 0.0, 0.0, 0.0, 0.0, 0.0, 1.700945365395137E9, 0.0, 2023-11-25 15:49:25.395
187.0, 76360.01871347651, 81025.0289469992, -11525.274696978891, -9778.441164307735, -1296.0435504965246, -2321.474530872647, -15475.140866654023, 187500.0, -0.106, 0.968, 0.13, 192.0, 252.0, 176.0, 30.0, 64.0, 4.0, 16.0, 0.0, 0.0, 0.0, 1.700945365399201E9, 0.0, 2023-11-25 15:49:25.399
188.0, 76342.271428379, 81015.64121432796, -12002.752662033161, -10274.336966793177, -1742.5643494801939, -2571.165868182882, -15576.506027758842, 187500.0, -0.106, 0.968, 0.13, 192.0, 0.0, 0.0, 0.0, 0.0, 0.0, 0.0, 0.0, 0.0, 0.0, 1.700945365402154E9, 0.0, 2023-11-25 15:49:25.402
189.0, 76321.84193394684, 81060.79173812768, -12710.453594977093, -10879.979834554177, -2618.484511194767, -3071.2637986259224, -15644.880014047625, 187500.0, -0.106, 0.968, 0.13, 192.0, 0.0, 0.0, 0.0, 0.0, 0.0, 0.0, 0.0, 0.0, 0.0, 1.700945365406163E9, 0.0, 2023-11-25 15:49:25.406
190.0, 76332.45901256312, 81078.136691825, -12772.725555029578, -11152.49230295328, -2959.6391868161186, -3491.83422229698, -15589.60415000965, 187500.0, -0.106, 0.968, 0.13, 192.0, 0.0, 0.0, 0.0, 0.0, 0.0, 0.0, 0.0, 0.0, 0.0, 1.700945365410226E9, 0.0, 2023-11-25 15:49:25.410
191.0, 76377.16250147374, 81042.79858384116, -11569.19587483357, -9851.888996587873, -1394.2794673775993, -2406.455863291724, -15458.108837379079, 187500.0, -0.106, 0.968, 0.13, 192.0, 0.0, 0.0, 0.0, 0.0, 0.0, 0.0, 0.0, 0.0, 0.0, 1.700945365414193E9, 0.0, 2023-11-25 15:49:25.414
192.0, 76348.55226857094, 81014.61303408301, -11903.68973060724, -10168.121477141558, -1617.0593043636447, -2506.1222918179383, -15567.78884742127, 187500.0, -0.106, 0.968, 0.13, 192.0, 0.0, 0.0, 0.0, 0.0, 0.0, 0.0, 0.0, 0.0, 0.0, 1.700945365418215E9, 0.0, 2023-11-25 15:49:25.418
193.0, 76315.00230014352, 81044.76553735323, -12562.462694938506, -10732.12304498232, -2407.7075609812214, -2925.4857212884094, -15625.389292882597, 187500.0, -0.106, 0.968, 0.13, 192.0, 0.0, 0.0, 0.0, 0.0, 0.0, 0.0, 0.0, 0.0, 0.0, 1.700945365423259E9, 0.0, 2023-11-25 15:49:25.423
194.0, 76316.72338446658, 81077.77906391371, -12932.69699009621, -11243.50860637529, -3097.1247669607123, -3538.705830419759, -15624.204650426467, 187500.0, -0.106, 0.968, 0.13, 192.0, 0.0, 0.0, 0.0, 0.0, 0.0, 0.0, 0.0, 0.0, 0.0, 1.700945365427297E9, 0.0, 2023-11-25 15:49:25.427
195.0, 76363.03619897798, 81048.632389144, -11691.951655382116, -10030.948821419337, -1602.821243145614, -2571.6352548164436, -15437.992267369304, 187500.0, -0.106, 0.968, 0.13, 192.0, 0.0, 0.0, 0.0, 0.0, 0.0, 0.0, 0.0, 0.0, 0.0, 1.700945365430213E9, 0.0, 2023-11-25 15:49:25.430
196.0, 76336.6164370318, 81002.18546416587, -11800.849354368373, -10034.256879598723, -1493.4541575257967, -2418.503453553135, -15548.722809400895, 187500.0, -0.1, 0.972, 0.13, 192.0, 252.0, 224.0, 30.0, 96.0, 4.0, 16.0, 0.0, 0.0, 0.0, 1.700945365434192E9, 0.0, 2023-11-25 15:49:25.434
197.0, 76303.60291047131, 81023.68784233187, -12427.45815842845, -10628.947392576623, -2239.1977595326616, -2825.573423573187, -15600.020062925823, 187500.0, -0.1, 0.972, 0.13, 192.0, 0.0, 0.0, 0.0, 0.0, 0.0, 0.0, 0.0, 0.0, 0.0, 1.700945365438281E9, 0.0, 2023-11-25 15:49:25.438
198.0, 76297.76910516848, 81070.02300858773, -13014.169098635806, -11263.84869382962, -3133.938090078603, -3520.3103447330413, -15647.584575126717, 187500.0, -0.1, 0.972, 0.13, 192.0, 0.0, 0.0, 0.0, 0.0, 0.0, 0.0, 0.0, 0.0, 0.0, 1.700945365442297E9, 0.0, 2023-11-25 15:49:25.442
199.0, 76343.03138769047, 81046.5313251652, -11888.490544377632, -10260.50123697534, -1878.977045890933, -2777.2489520608133, -15452.945584409903, 187500.0, -0.1, 0.972, 0.13, 192.0, 0.0, 0.0, 0.0, 0.0, 0.0, 0.0, 0.0, 0.0, 0.0, 1.700945365446302E9, 0.0, 2023-11-25 15:49:25.446
200.0, 76336.0129399315, 81005.3147083896, -11702.524030509476, -9897.95594191026, -1379.259095103633, -2346.664946873778, -15541.83847210866, 187500.0, -0.1, 0.972, 0.13, 192.0, 0.0, 0.0, 0.0, 0.0, 0.0, 0.0, 0.0, 0.0, 0.0, 1.700945365450293E9, 0.0, 2023-11-25 15:49:25.450
201.0, 76310.75546869701, 81023.01728999821, -12310.759700627292, -10519.826176145814, -2087.608228636769, -2750.6280244145423, -15601.450574570963, 187500.0, -0.1, 0.972, 0.13, 192.0, 0.0, 0.0, 0.0, 0.0, 0.0, 0.0, 0.0, 0.0, 0.0, 1.700945365455498E9, 0.0, 2023-11-25 15:49:25.455
202.0, 76287.42024748567, 81065.53030795221, -13021.276953372593, -11200.928533187931, -3076.628217295196, -3441.363983316897, -15683.05679357729, 187500.0, -0.1, 0.972, 0.13, 192.0, 0.0, 0.0, 0.0, 0.0, 0.0, 0.0, 0.0, 0.0, 0.0, 1.700945365458455E9, 0.0, 2023-11-25 15:49:25.458
203.0, 76328.94978868363, 81050.48758393379, -12137.757198543215, -10540.412132789152, -2209.5816981293797, -3020.1900625455455, -15500.68891056644, 187500.0, -0.1, 0.972, 0.13, 192.0, 0.0, 0.0, 0.0, 0.0, 0.0, 0.0, 0.0, 0.0, 0.0, 1.700945365462352E9, 0.0, 2023-11-25 15:49:25.462
204.0, 76349.80396626043, 81012.17669393739, -11609.138442175203, -9803.944504731238, -1296.4905853856308, -2300.5309463180242, -15524.538221900253, 187500.0, -0.1, 0.972, 0.13, 192.0, 0.0, 0.0, 0.0, 0.0, 0.0, 0.0, 0.0, 0.0, 0.0, 1.700945365466346E9, 0.0, 2023-11-25 15:49:25.466
205.0, 76328.14512588324, 81025.45363014385, -12194.821202137615, -10439.44930308453, -1954.4365351720496, -2687.3278841171127, -15586.296091830265, 187500.0, -0.1, 0.972, 0.13, 192.0, 0.0, 0.0, 0.0, 0.0, 0.0, 0.0, 0.0, 0.0, 0.0, 1.700945365470373E9, 0.0, 2023-11-25 15:49:25.470
206.0, 76306.64274771724, 81079.52249998123, -12944.811635590988, -11109.576953599091, -2941.15429415158, -3323.9949731820793, -15664.348383468197, 187500.0, -0.10200000000000001, 0.978, 0.124, 192.0, 252.0, 208.0, 30.0, 144.0, 3.0, 224.0, 0.0, 0.0, 0.0, 1.70094536547443E9, 0.0, 2023-11-25 15:49:25.474
207.0, 76319.94203566815, 81059.85296486056, -12376.026794436788, -10784.426127007739, -2503.328323761025, -3220.7746172874713, -15519.93376254246, 187500.0, -0.10200000000000001, 0.978, 0.124, 192.0, 0.0, 0.0, 0.0, 0.0, 0.0, 0.0, 0.0, 0.0, 0.0, 1.700945365478404E9, 0.0, 2023-11-25 15:49:25.478
208.0, 76335.99058818705, 81012.95900499333, -11543.737237898975, -9721.712436880165, -1246.19916036119, -2260.2307510651053, -15504.421651890476, 187500.0, -0.10200000000000001, 0.978, 0.124, 192.0, 0.0, 0.0, 0.0, 0.0, 0.0, 0.0, 0.0, 0.0, 0.0, 1.700945365483436E9, 0.0, 2023-11-25 15:49:25.483
209.0, 76317.34923331132, 81013.65190907144, -12092.494916021218, -10325.47775810692, -1827.0539435212545, -2607.4427494338456, -15585.625539496607, 187500.0, -0.10200000000000001, 0.978, 0.124, 192.0, 0.0, 0.0, 0.0, 0.0, 0.0, 0.0, 0.0, 0.0, 0.0, 1.700945365486429E9, 0.0, 2023-11-25 15:49:25.486
210.0, 76297.32207027938, 81057.17075552592, -12838.30557326145, -10955.394620346382, -2766.944797866917, -3161.2519218029884, -15667.142351525112, 187500.0, -0.10200000000000001, 0.978, 0.124, 192.0, 0.0, 0.0, 0.0, 0.0, 0.0, 0.0, 0.0, 0.0, 0.0, 1.700945365490413E9, 0.0, 2023-11-25 15:49:25.490
211.0, 76320.05379439042, 81070.53709871019, -12636.066989429832, -11018.024208310153, -2804.4957285518326, -3396.124052539355, -15568.168827077012, 187500.0, -0.10200000000000001, 0.978, 0.124, 192.0, 0.0, 0.0, 0.0, 0.0, 0.0, 0.0, 0.0, 0.0, 0.0, 1.700945365494391E9, 0.0, 2023-11-25 15:49:25.494
212.0, 76346.25003889205, 81029.38753716798, -11551.493293224967, -9772.003861904604, -1313.9249460607705, -2328.1353507203285, -15485.199151658911, 187500.0, -0.10200000000000001, 0.978, 0.124, 192.0, 0.0, 0.0, 0.0, 0.0, 0.0, 0.0, 0.0, 0.0, 0.0, 1.700945365498423E9, 0.0, 2023-11-25 15:49:25.498
213.0, 76321.46195429111, 81009.36037413603, -12003.311455644543, -10255.449742728442, -1728.8627301290908, -2567.7013477923097, -15579.188237093478, 187500.0, -0.10200000000000001, 0.978, 0.124, 192.0, 0.0, 0.0, 0.0, 0.0, 0.0, 0.0, 0.0, 0.0, 0.0, 1.700945365502448E9, 0.0, 2023-11-25 15:49:25.502
214.0, 76292.38233475474, 81045.90547632045, -12691.901647079188, -10818.087854157431, -2569.1318594374493, -3018.5807369447634, -15645.751732081382, 187500.0, -0.10200000000000001, 0.978, 0.124, 192.0, 0.0, 0.0, 0.0, 0.0, 0.0, 0.0, 0.0, 0.0, 0.0, 1.700945365506498E9, 0.0, 2023-11-25 15:49:25.506
215.0, 76312.00716638651, 81081.19888081538, -12832.784692380988, -11166.283329282205, -3011.0034955744145, -3499.0761875004996, -15605.786812995293, 187500.0, -0.10200000000000001, 0.978, 0.124, 192.0, 0.0, 0.0, 0.0, 0.0, 0.0, 0.0, 0.0, 0.0, 0.0, 1.700945365511481E9, 0.0, 2023-11-25 15:49:25.511
216.0, 76353.96139072912, 81040.4740024178, -11597.58259029181, -9870.217427041225, -1442.0674970230457, -2425.8795292233863, -15454.689020477417, 187500.0, -0.10400000000000001, 0.972, 0.12, 192.0, 252.0, 192.0, 30.0, 96.0, 3.0, 192.0, 0.0, 0.0, 0.0, 1.700945365514491E9, 0.0, 2023-11-25 15:49:25.514
217.0, 76340.28212312248, 81017.04937422865, -11885.674224576262, -10123.574450442131, -1599.759054155237, -2475.656864125355, -15557.708210671928, 187500.0, -0.10400000000000001, 0.972, 0.12, 192.0, 0.0, 0.0, 0.0, 0.0, 0.0, 0.0, 0.0, 0.0, 0.0, 1.700945365518507E9, 0.0, 2023-11-25 15:49:25.518
218.0, 76314.57761699887, 81050.5322874227, -12538.56868011578, -10711.000646472055, -2385.556982226012, -2903.5586599777535, -15606.122089162123, 187500.0, -0.10400000000000001, 0.972, 0.12, 192.0, 0.0, 0.0, 0.0, 0.0, 0.0, 0.0, 0.0, 0.0, 0.0, 1.700945365522557E9, 0.0, 2023-11-25 15:49:25.522
219.0, 76307.22389307307, 81080.57303197063, -12957.440371208237, -11249.498873889313, -3116.7048951035613, -3532.4920454611834, -15623.981132981913, 187500.0, -0.10400000000000001, 0.972, 0.12, 192.0, 0.0, 0.0, 0.0, 0.0, 0.0, 0.0, 0.0, 0.0, 0.0, 1.700945365526807E9, 0.0, 2023-11-25 15:49:25.526
220.0, 76346.36179761431, 81047.29128447668, -11733.816472746907, -10072.56776959512, -1663.0368427082115, -2607.062769778105, -15449.458712274876, 187500.0, -0.10400000000000001, 0.972, 0.12, 192.0, 0.0, 0.0, 0.0, 0.0, 0.0, 0.0, 0.0, 0.0, 0.0, 1.700945365530504E9, 0.0, 2023-11-25 15:49:25.530
221.0, 76332.34725384084, 81008.51100784673, -11781.090412269881, -10010.988713620749, -1484.6252184659504, -2411.0603226495177, -15549.527472201285, 187500.0, -0.10400000000000001, 0.972, 0.12, 192.0, 0.0, 0.0, 0.0, 0.0, 0.0, 0.0, 0.0, 0.0, 0.0, 1.700945365534508E9, 0.0, 2023-11-25 15:49:25.534
222.0, 76305.10047734981, 81029.38753716798, -12399.719643559414, -10593.743395059515, -2213.605012131335, -2804.3392663406453, -15602.814030982738, 187500.0, -0.10400000000000001, 0.972, 0.12, 192.0, 0.0, 0.0, 0.0, 0.0, 0.0, 0.0, 0.0, 0.0, 0.0, 1.700945365538493E9, 0.0, 2023-11-25 15:49:25.538
223.0, 76297.74675342403, 81071.81114814414, -13019.019427182608, -11253.678650102454, -3138.9672325810475, -3508.6427341273707, -15661.397953200098, 187500.0, -0.10400000000000001, 0.972, 0.12, 192.0, 0.0, 0.0, 0.0, 0.0, 0.0, 0.0, 0.0, 0.0, 0.0, 1.700945365542546E9, 0.0, 2023-11-25 15:49:25.542
224.0, 76338.04694867694, 81041.65864487394, -11929.103664052924, -10309.22803988791, -1946.1887414680411, -2821.281888637768, -15472.324546852655, 187500.0, -0.10400000000000001, 0.972, 0.12, 192.0, 0.0, 0.0, 0.0, 0.0, 0.0, 0.0, 0.0, 0.0, 0.0, 1.700945365545527E9, 0.0, 2023-11-25 15:49:25.545
225.0, 76338.33752135486, 81011.01440322571, -11667.051812058904, -9857.923967590807, -1358.9190076493035, -2319.909908760775, -15541.659658153018, 187500.0, -0.10400000000000001, 0.972, 0.12, 192.0, 0.0, 0.0, 0.0, 0.0, 0.0, 0.0, 0.0, 0.0, 0.0, 1.700945365550587E9, 0.0, 2023-11-25 15:49:25.550
226.0, 76313.05769837591, 81031.39919416896, -12272.895845520003, -10493.562876410828, -2064.161248703152, -2727.6951346033975, -15596.17556287951, 187500.0, -0.10200000000000001, 0.98, 0.124, 192.0, 252.0, 208.0, 30.0, 160.0, 3.0, 224.0, 0.0, 0.0, 0.0, 1.700945365554585E9, 0.0, 2023-11-25 15:49:25.554
227.0, 76296.89738713473, 81073.35341851157, -12991.169153591294, -11183.762393446255, -3056.5116472854197, -3412.798453903014, -15666.315336980266, 187500.0, -0.10200000000000001, 0.98, 0.124, 192.0, 0.0, 0.0, 0.0, 0.0, 0.0, 0.0, 0.0, 0.0, 0.0, 1.70094536555896E9, 0.0, 2023-11-25 15:49:25.558
228.0, 76325.19469561514, 81047.6265606435, -12161.472399410297, -10570.698746526092, -2261.9071318992537, -3041.9606616450146, -15496.039747719735, 187500.0, -0.10200000000000001, 0.98, 0.124, 192.0, 0.0, 0.0, 0.0, 0.0, 0.0, 0.0, 0.0, 0.0, 0.0, 1.700945365562582E9, 0.0, 2023-11-25 15:49:25.562
229.0, 76339.99155044455, 81009.65094681394, -11580.684671483597, -9773.233207849647, -1288.555716103997, -2281.2190391086388, -15525.387588189555, 187500.0, -0.10200000000000001, 0.98, 0.124, 192.0, 0.0, 0.0, 0.0, 0.0, 0.0, 0.0, 0.0, 0.0, 0.0, 1.700945365566588E9, 0.0, 2023-11-25 15:49:25.566
230.0, 76319.1150211233, 81023.26315918722, -12154.275137695688, -10399.752604931904, -1927.8603110146894, -2658.1141541140264, -15575.209626580434, 187500.0, -0.10200000000000001, 0.98, 0.124, 192.0, 0.0, 0.0, 0.0, 0.0, 0.0, 0.0, 0.0, 0.0, 0.0, 1.70094536557065E9, 0.0, 2023-11-25 15:49:25.570
231.0, 76299.758410425, 81071.31940976613, -12909.898210751799, -11062.034793142653, -2908.0960641021807, -3274.2399900245655, -15654.155987996577, 187500.0, -0.10200000000000001, 0.98, 0.124, 192.0, 0.0, 0.0, 0.0, 0.0, 0.0, 0.0, 0.0, 0.0, 0.0, 1.700945365573812E9, 0.0, 2023-11-25 15:49:25.573
232.0, 76319.49500077903, 81060.25529626076, -12414.74001583338, -10820.345380347417, -2570.2494466602143, -3242.5899198758507, -15520.246686964832, 187500.0, -0.10200000000000001, 0.98, 0.124, 192.0, 0.0, 0.0, 0.0, 0.0, 0.0, 0.0, 0.0, 0.0, 0.0, 1.700945365577638E9, 0.0, 2023-11-25 15:49:25.577
233.0, 76342.18202140117, 81022.01146149772, -11528.403941202634, -9731.21192827367, -1266.360433859877, -2272.92654191572, -15488.730727282851, 187500.0, -0.10200000000000001, 0.98, 0.124, 192.0, 0.0, 0.0, 0.0, 0.0, 0.0, 0.0, 0.0, 0.0, 0.0, 1.700945365582669E9, 0.0, 2023-11-25 15:49:25.582
234.0, 76316.85749493331, 81013.42839162689, -12070.43374424383, -10323.689618550494, -1823.5223678973161, -2612.226022747281, -15581.199894094456, 187500.0, -0.10200000000000001, 0.98, 0.124, 192.0, 0.0, 0.0, 0.0, 0.0, 0.0, 0.0, 0.0, 0.0, 0.0, 1.700945365586722E9, 0.0, 2023-11-25 15:49:25.586
235.0, 76296.36094526779, 81057.21545901483, -12806.454337412637, -10952.220672633728, -2746.8505796015957, -3154.166418810656, -15659.76627585486, 187500.0, -0.10200000000000001, 0.98, 0.124, 192.0, 0.0, 0.0, 0.0, 0.0, 0.0, 0.0, 0.0, 0.0, 0.0, 1.700945365590683E9, 0.0, 2023-11-25 15:49:25.590
236.0, 76318.0644891339, 81074.26984003423, -12664.7889810549, -11058.503217518713, -2850.316804685212, -3427.997640132623, -15562.670297941006, 187500.0, -0.10200000000000001, 0.972, 0.11800000000000001, 192.0, 252.0, 208.0, 30.0, 96.0, 3.0, 176.0, 0.0, 0.0, 0.0, 1.700945365594721E9, 0.0, 2023-11-25 15:49:25.594
237.0, 76339.99155044455, 81021.51972311971, -11537.970487829505, -9764.203103089703, -1314.7966640945274, -2322.3238971619485, -15469.508227051287, 187500.0, -0.10200000000000001, 0.972, 0.11800000000000001, 192.0, 0.0, 0.0, 0.0, 0.0, 0.0, 0.0, 0.0, 0.0, 0.0, 1.700945365598754E9, 0.0, 2023-11-25 15:49:25.598
238.0, 76317.97508215607, 81001.51491183222, -11976.735231487184, -10206.745291560328, -1693.9940087788116, -2524.07074261555, -15579.23294058239, 187500.0, -0.10200000000000001, 0.972, 0.11800000000000001, 192.0, 0.0, 0.0, 0.0, 0.0, 0.0, 0.0, 0.0, 0.0, 0.0, 1.700945365601718E9, 0.0, 2023-11-25 15:49:25.601
239.0, 76299.1102098358, 81051.73928162329, -12658.530492607415, -10786.124859586342, -2531.6479839858994, -2976.2912364353224, -15629.300848162276, 187500.0, -0.10200000000000001, 0.972, 0.11800000000000001, 192.0, 0.0, 0.0, 0.0, 0.0, 0.0, 0.0, 0.0, 0.0, 0.0, 1.700945365605884E9, 0.0, 2023-11-25 15:49:25.605
240.0, 76297.52323597948, 81070.06771207663, -12856.96927988163, -11180.968425389341, -3035.0316208638696, -3492.9965130086557, -15591.973434921914, 187500.0, -0.10200000000000001, 0.972, 0.11800000000000001, 192.0, 0.0, 0.0, 0.0, 0.0, 0.0, 0.0, 0.0, 0.0, 0.0, 1.700945365609792E9, 0.0, 2023-11-25 15:49:25.609
241.0, 76335.54355329795, 81032.56148488063, -11624.069407471348, -9897.24068608769, -1479.730186430238, -2447.3148521560256, -15450.82216868665, 187500.0, -0.10200000000000001, 0.972, 0.11800000000000001, 192.0, 0.0, 0.0, 0.0, 0.0, 0.0, 0.0, 0.0, 0.0, 0.0, 1.70094536561477E9, 0.0, 2023-11-25 15:49:25.614
242.0, 76320.99256765754, 81010.74618229225, -11874.610111070886, -10088.19163896938, -1577.6308271444832, -2452.00871849164, -15563.340850274666, 187500.0, -0.10200000000000001, 0.972, 0.11800000000000001, 192.0, 0.0, 0.0, 0.0, 0.0, 0.0, 0.0, 0.0, 0.0, 0.0, 1.700945365618844E9, 0.0, 2023-11-25 15:49:25.618
243.0, 76286.36971549627, 81037.81414482763, -12521.827223518756, -10661.223311570086, -2349.458914930691, -2863.124354258103, -15619.399025368575, 187500.0, -0.10200000000000001, 0.972, 0.11800000000000001, 192.0, 0.0, 0.0, 0.0, 0.0, 0.0, 0.0, 0.0, 0.0, 0.0, 1.700945365621803E9, 0.0, 2023-11-25 15:49:25.621
244.0, 76285.27448001796, 81073.75574991175, -12990.05156636853, -11244.782655809244, -3136.463837202053, -3522.500815689661, -15634.866432531648, 187500.0, -0.10200000000000001, 0.972, 0.11800000000000001, 192.0, 0.0, 0.0, 0.0, 0.0, 0.0, 0.0, 0.0, 0.0, 0.0, 1.700945365625861E9, 0.0, 2023-11-25 15:49:25.625
245.0, 76324.61355025931, 81030.34866217956, -11778.18468549069, -10086.694072090873, -1713.7976543662137, -2623.1560257859264, -15454.599613499597, 187500.0, -0.10200000000000001, 0.972, 0.11800000000000001, 192.0, 0.0, 0.0, 0.0, 0.0, 0.0, 0.0, 0.0, 0.0, 0.0, 1.700945365629783E9, 0.0, 2023-11-25 15:49:25.629
246.0, 76324.16651537019, 81000.33026937608, -11778.38585119079, -9962.06074500808, -1464.2627792671656, -2381.332502523959, -15564.592547964163, 187500.0, -0.10200000000000001, 0.976, 0.122, 192.0, 252.0, 208.0, 30.0, 128.0, 3.0, 208.0, 0.0, 0.0, 0.0, 1.700945365633799E9, 0.0, 2023-11-25 15:49:25.633
247.0, 76303.44644826013, 81028.82874355659, -12395.472812112906, -10573.336252371819, -2193.2649246770056, -2791.8893446790394, -15617.029740456313, 187500.0, -0.10200000000000001, 0.976, 0.122, 192.0, 0.0, 0.0, 0.0, 0.0, 0.0, 0.0, 0.0, 0.0, 0.0, 1.700945365638843E9, 0.0, 2023-11-25 15:49:25.638
248.0, 76284.08983756183, 81064.88210736301, -13037.683133802788, -11238.658277828488, -3131.948784822081, -3489.152012962343, -15677.111229552178, 187500.0, -0.10200000000000001, 0.976, 0.122, 192.0, 0.0, 0.0, 0.0, 0.0, 0.0, 0.0, 0.0, 0.0, 0.0, 1.700945365642933E9, 0.0, 2023-11-25 15:49:25.642
249.0, 76318.75739321201, 81035.73543259328, -11990.906237471849, -10352.456313664474, -2008.393646287161, -2858.9222263005054, -15490.742384283827, 187500.0, -0.10200000000000001, 0.976, 0.122, 192.0, 0.0, 0.0, 0.0, 0.0, 0.0, 0.0, 0.0, 0.0, 0.0, 1.700945365646871E9, 0.0, 2023-11-25 15:49:25.646
250.0, 76316.09753562183, 80991.12135066048, -11687.190733813135, -9866.439982228278, -1369.4243275432977, -2335.913757790775, -15569.487579999875, 187500.0, -0.10200000000000001, 0.976, 0.122, 192.0, 0.0, 0.0, 0.0, 0.0, 0.0, 0.0, 0.0, 0.0, 0.0, 1.700945365649911E9, 0.0, 2023-11-25 15:49:25.649
251.0, 76295.98096561205, 81010.00857472523, -12280.495438634807, -10495.507478178439, -2052.4712863530262, -2728.320983448146, -15609.988940952891, 187500.0, -0.10200000000000001, 0.976, 0.122, 192.0, 0.0, 0.0, 0.0, 0.0, 0.0, 0.0, 0.0, 0.0, 0.0, 1.700945365653929E9, 0.0, 2023-11-25 15:49:25.653
252.0, 76288.44842773062, 81064.83740387409, -13004.28962758656, -11156.5826721886, -3030.69538243954, -3382.4000814437964, -15675.188979529023, 187500.0, -0.10200000000000001, 0.976, 0.122, 192.0, 0.0, 0.0, 0.0, 0.0, 0.0, 0.0, 0.0, 0.0, 0.0, 1.700945365657894E9, 0.0, 2023-11-25 15:49:25.657
253.0, 76309.74964019652, 81037.0765372606, -12252.198130154387, -10621.683075628647, -2334.7738188235544, -3084.3172173878215, -15528.583887646662, 187500.0, -0.10200000000000001, 0.976, 0.122, 192.0, 0.0, 0.0, 0.0, 0.0, 0.0, 0.0, 0.0, 0.0, 0.0, 1.700945365661921E9, 0.0, 2023-11-25 15:49:25.661
254.0, 76338.22576263259, 81012.10963870403, -11605.696273529085, -9772.428545049257, -1295.6635708407846, -2288.572763034435, -15543.000762820337, 187500.0, -0.10200000000000001, 0.976, 0.122, 192.0, 0.0, 0.0, 0.0, 0.0, 0.0, 0.0, 0.0, 0.0, 0.0, 1.700945365665932E9, 0.0, 2023-11-25 15:49:25.665
255.0, 76317.2151228446, 81024.98424351028, -12176.023385050701, -10407.240439324432, -1925.0886947022314, -2671.6369595094875, -15603.864562972138, 187500.0, -0.10200000000000001, 0.976, 0.122, 192.0, 0.0, 0.0, 0.0, 0.0, 0.0, 0.0, 0.0, 0.0, 0.0, 1.70094536567199E9, 0.0, 2023-11-25 15:49:25.671
0.0, 76281.72055264957, 81062.132842795, -12932.98756277413, -11065.544017022135, -2899.2000698089687, -3276.7880888924706, -15681.514523209873, 187500.0, -0.096, 0.974, 0.122, 192.0, 253.0, 0.0, 30.0, 112.0, 3.0, 208.0, 0.0, 0.0, 0.0, 1.700945365675653E9, 0.0, 2023-11-25 15:49:25.675
1.0, 76302.77589592648, 81054.86852584702, -12508.796156501312, -10899.984645841676, -2651.006299377239, -3311.1427201202778, -15547.962850089414, 187500.0, -0.096, 0.974, 0.122, 192.0, 0.0, 0.0, 0.0, 0.0, 0.0, 0.0, 0.0, 0.0, 0.0, 1.700945365679003E9, 0.0, 2023-11-25 15:49:25.679
2.0, 76329.73209973957, 81012.89194975996, -11561.216302063025, -9745.762913914075, -1281.6266753228517, -2295.054768926474, -15503.482878623354, 187500.0, -0.096, 0.974, 0.122, 192.0, 0.0, 0.0, 0.0, 0.0, 0.0, 0.0, 0.0, 0.0, 0.0, 1.700945365682028E9, 0.0, 2023-11-25 15:49:25.682
3.0, 76314.15293385422, 81009.62859506949, -12076.379308268943, -10312.04435968928, -1805.2162891884195, -2607.5545081561218, -15587.771306964316, 187500.0, -0.096, 0.974, 0.122, 192.0, 0.0, 0.0, 0.0, 0.0, 0.0, 0.0, 0.0, 0.0, 0.0, 1.70094536568605E9, 0.0, 2023-11-25 15:49:25.686
4.0, 76288.60488994181, 81055.5390781807, -12794.67496808469, -10909.193564557263, -2697.944962733384, -3111.0946072452793, -15659.252185732388, 187500.0, -0.096, 0.974, 0.122, 192.0, 0.0, 0.0, 0.0, 0.0, 0.0, 0.0, 0.0, 0.0, 0.0, 1.700945365690223E9, 0.0, 2023-11-25 15:49:25.690
5.0, 76307.64857621773, 81074.04632258968, -12727.887955652233, -11070.95313918032, -2887.5548109477536, -3431.8197884344804, -15585.55848426324, 187500.0, -0.096, 0.974, 0.122, 192.0, 0.0, 0.0, 0.0, 0.0, 0.0, 0.0, 0.0, 0.0, 0.0, 1.700945365694042E9, 0.0, 2023-11-25 15:49:25.694
6.0, 76348.8204895044, 81036.76361283823, -11571.878084168207, -9791.002844691617, -1353.7557546801277, -2355.1809615112497, -15479.410049844988, 187500.0, -0.096, 0.974, 0.122, 192.0, 0.0, 0.0, 0.0, 0.0, 0.0, 0.0, 0.0, 0.0, 0.0, 1.700945365699092E9, 0.0, 2023-11-25 15:49:25.699
7.0, 76328.43569856117, 81020.8268190416, -11970.901426184348, -10193.82598326516, -1681.2311626948313, -2531.0444868856057, -15584.664414485029, 187500.0, -0.096, 0.974, 0.122, 192.0, 0.0, 0.0, 0.0, 0.0, 0.0, 0.0, 0.0, 0.0, 0.0, 1.700945365703085E9, 0.0, 2023-11-25 15:49:25.703
8.0, 76302.93235813765, 81061.64110441698, -12649.433332614104, -10760.666222651747, -2499.908506859363, -2966.2329514304342, -15644.231813458422, 187500.0, -0.096, 0.974, 0.122, 192.0, 0.0, 0.0, 0.0, 0.0, 0.0, 0.0, 0.0, 0.0, 0.0, 1.700945365706103E9, 0.0, 2023-11-25 15:49:25.706
9.0, 76301.4571430036, 81080.90830813746, -12910.7475770411, -11187.11515511455, -3065.3182346008107, -3511.794330095569, -15625.456348115964, 187500.0, -0.096, 0.974, 0.122, 192.0, 0.0, 0.0, 0.0, 0.0, 0.0, 0.0, 0.0, 0.0, 0.0, 1.700945365710122E9, 0.0, 2023-11-25 15:49:25.710
10.0, 76331.05085266243, 81027.5770458671, -11666.828294614352, -9910.450567060778, -1522.5784805510618, -2478.7414048601872, -15469.731744495839, 187500.0, -0.098, 0.97, 0.122, 192.0, 252.0, 240.0, 30.0, 80.0, 3.0, 208.0, 0.0, 0.0, 0.0, 1.700945365714139E9, 0.0, 2023-11-25 15:49:25.714
11.0, 76319.56205601241, 81006.11937119, -11878.96870123967, -10062.978871223793, -1570.2547514742319, -2448.790067290076, -15585.938463918981, 187500.0, -0.098, 0.97, 0.122, 192.0, 0.0, 0.0, 0.0, 0.0, 0.0, 0.0, 0.0, 0.0, 0.0, 1.700945365718154E9, 0.0, 2023-11-25 15:49:25.718
12.0, 76305.50280875001, 81050.06290078914, -12512.752415269902, -10652.752000421526, -2329.051772242996, -2864.979549047893, -15631.71483656345, 187500.0, -0.098, 0.97, 0.122, 192.0, 0.0, 0.0, 0.0, 0.0, 0.0, 0.0, 0.0, 0.0, 0.0, 1.700945365722194E9, 0.0, 2023-11-25 15:49:25.722
13.0, 76302.4629715041, 81080.4836249928, -13022.260430128626, -11258.171350737972, -3148.4443722300975, -3540.9857083542, -15664.035459045823, 187500.0, -0.098, 0.97, 0.122, 192.0, 0.0, 0.0, 0.0, 0.0, 0.0, 0.0, 0.0, 0.0, 0.0, 1.700945365726163E9, 0.0, 2023-11-25 15:49:25.726
14.0, 76328.27923634998, 81031.06391800212, -11833.86288092886, -10148.898976909994, -1777.4330708304728, -2688.512526573244, -15484.72976502535, 187500.0, -0.098, 0.97, 0.122, 192.0, 0.0, 0.0, 0.0, 0.0, 0.0, 0.0, 0.0, 0.0, 0.0, 1.700945365731173E9, 0.0, 2023-11-25 15:49:25.731
15.0, 76325.10528863732, 81003.03483045517, -11774.541351144475, -9944.514625610665, -1449.28711048211, -2380.8631158903977, -15583.099792373157, 187500.0, -0.098, 0.97, 0.122, 192.0, 0.0, 0.0, 0.0, 0.0, 0.0, 0.0, 0.0, 0.0, 0.0, 1.700945365734188E9, 0.0, 2023-11-25 15:49:25.734
16.0, 76313.16945709819, 81038.50704890574, -12383.06759394021, -10555.924243441135, -2164.6993952631233, -2787.1731265989697, -15633.324162164232, 187500.0, -0.098, 0.97, 0.122, 192.0, 0.0, 0.0, 0.0, 0.0, 0.0, 0.0, 0.0, 0.0, 0.0, 1.700945365737175E9, 0.0, 2023-11-25 15:49:25.737
17.0, 76297.54558772393, 81087.07738960712, -13052.815264799032, -11220.642771797511, -3118.4930346599863, -3479.2278384241868, -15698.792421673827, 187500.0, -0.098, 0.97, 0.122, 192.0, 0.0, 0.0, 0.0, 0.0, 0.0, 0.0, 0.0, 0.0, 0.0, 1.700945365743041E9, 0.0, 2023-11-25 15:49:25.743
18.0, 76326.49109679354, 81052.70040663486, -12050.875967845437, -10397.942113631025, -2071.514972628948, -2906.978476879415, -15506.992102502836, 187500.0, -0.098, 0.97, 0.122, 192.0, 0.0, 0.0, 0.0, 0.0, 0.0, 0.0, 0.0, 0.0, 0.0, 1.700945365746224E9, 0.0, 2023-11-25 15:49:25.746
19.0, 76323.80888745892, 81005.02413571169, -11670.046945815915, -9833.113531245415, -1343.4739522306863, -2324.536719863024, -15563.653774697039, 187500.0, -0.098, 0.97, 0.122, 192.0, 0.0, 0.0, 0.0, 0.0, 0.0, 0.0, 0.0, 0.0, 0.0, 1.700945365750242E9, 0.0, 2023-11-25 15:49:25.750
20.0, 76301.09951509233, 81030.30395869064, -12264.312775649165, -10478.810725070325, -2023.8163499613227, -2731.7184486053525, -15617.85675500116, 187500.0, -0.1, 0.978, 0.124, 192.0, 252.0, 224.0, 30.0, 144.0, 3.0, 224.0, 0.0, 0.0, 0.0, 1.700945365754222E9, 0.0, 2023-11-25 15:49:25.754
21.0, 76290.54949170942, 81094.22994783282, -13012.112738145917, -11163.601119947567, -3018.178405544568, -3394.872354849858, -15692.645691948617, 187500.0, -0.1, 0.978, 0.124, 192.0, 0.0, 0.0, 0.0, 0.0, 0.0, 0.0, 0.0, 0.0, 0.0, 1.700945365758345E9, 0.0, 2023-11-25 15:49:25.758
22.0, 76316.99160540005, 81068.57014519813, -12300.38849120003, -10694.102727663843, -2389.468537505691, -3154.7699159109493, -15525.678160867474, 187500.0, -0.1, 0.978, 0.124, 192.0, 0.0, 0.0, 0.0, 0.0, 0.0, 0.0, 0.0, 0.0, 0.0, 1.700945365762542E9, 0.0, 2023-11-25 15:49:25.762
23.0, 76325.59702701533, 81012.64608057095, -11589.91594194364, -9766.348870557413, -1273.6247508078518, -2297.5134608165577, -15535.401169705532, 187500.0, -0.1, 0.978, 0.124, 192.0, 0.0, 0.0, 0.0, 0.0, 0.0, 0.0, 0.0, 0.0, 0.0, 1.70094536576524E9, 0.0, 2023-11-25 15:49:25.765
24.0, 76300.63012845875, 81012.55667359314, -12162.858207566525, -10380.038366322324, -1889.0576826402764, -2660.3269768151017, -15609.541906063785, 187500.0, -0.1, 0.978, 0.124, 192.0, 0.0, 0.0, 0.0, 0.0, 0.0, 0.0, 0.0, 0.0, 0.0, 1.700945365770245E9, 0.0, 2023-11-25 15:49:25.770
25.0, 76289.99069809803, 81071.16294755494, -12913.720359053656, -11018.672408899356, -2845.891159283061, -3242.813437320404, -15684.979043600446, 187500.0, -0.1, 0.978, 0.124, 192.0, 0.0, 0.0, 0.0, 0.0, 0.0, 0.0, 0.0, 0.0, 0.0, 1.700945365774375E9, 0.0, 2023-11-25 15:49:25.774
26.0, 76319.15972461221, 81075.45448249037, -12556.204206491018, -10922.559907741537, -2687.9537329618615, -3344.4468193586854, -15561.105675829134, 187500.0, -0.1, 0.978, 0.124, 192.0, 0.0, 0.0, 0.0, 0.0, 0.0, 0.0, 0.0, 0.0, 0.0, 1.700945365778388E9, 0.0, 2023-11-25 15:49:25.778
27.0, 76344.23838189106, 81032.69559534737, -11563.496179997466, -9769.098135125416, -1294.8589080403935, -2338.08187700294, -15500.912428010992, 187500.0, -0.1, 0.978, 0.124, 192.0, 0.0, 0.0, 0.0, 0.0, 0.0, 0.0, 0.0, 0.0, 0.0, 1.700945365782373E9, 0.0, 2023-11-25 15:49:25.782
28.0, 76311.3142623084, 81015.03771722766, -12060.353107494488, -10294.073557147212, -1778.2153818864087, -2617.0539995496274, -15598.522496047319, 187500.0, -0.1, 0.978, 0.124, 192.0, 0.0, 0.0, 0.0, 0.0, 0.0, 0.0, 0.0, 0.0, 0.0, 1.700945365786413E9, 0.0, 2023-11-25 15:49:25.786
29.0, 76294.97513711157, 81063.94333409588, -12779.00639522152, -10878.929302564777, -2655.677813968398, -3096.498918115964, -15666.494150935907, 187500.0, -0.1, 0.978, 0.124, 192.0, 0.0, 0.0, 0.0, 0.0, 0.0, 0.0, 0.0, 0.0, 0.0, 1.70094536579037E9, 0.0, 2023-11-25 15:49:25.790
30.0, 76297.0538493459, 81074.29219177869, -12783.946130746142, -11107.989979742764, -2931.8783202026275, -3470.287140642064, -15603.238714127388, 187500.0, -0.094, 0.978, 0.116, 192.0, 253.0, 16.0, 30.0, 144.0, 3.0, 160.0, 0.0, 0.0, 0.0, 1.700945365793341E9, 0.0, 2023-11-25 15:49:25.793
31.0, 76330.26854160649, 81036.83066807159, -11599.594247292787, -9812.639333324354, -1380.577848026496, -2374.1575925538054, -15486.696718537418, 187500.0, -0.094, 0.978, 0.116, 192.0, 0.0, 0.0, 0.0, 0.0, 0.0, 0.0, 0.0, 0.0, 0.0, 1.70094536579781E9, 0.0, 2023-11-25 15:49:25.797
32.0, 76322.40072755823, 81023.19610395386, -11965.335841814976, -10170.311948098177, -1659.795839762192, -2513.8559953994745, -15589.961777920937, 187500.0, -0.094, 0.978, 0.116, 192.0, 0.0, 0.0, 0.0, 0.0, 0.0, 0.0, 0.0, 0.0, 0.0, 1.700945365802378E9, 0.0, 2023-11-25 15:49:25.802
33.0, 76296.45035224562, 81058.82478461562, -12633.340076606284, -10748.328059712418, -2468.593712877478, -2956.2640734033675, -15648.165720482555, 187500.0, -0.094, 0.978, 0.116, 192.0, 0.0, 0.0, 0.0, 0.0, 0.0, 0.0, 0.0, 0.0, 0.0, 1.700945365806456E9, 0.0, 2023-11-25 15:49:25.806
34.0, 76289.36484925328, 81077.57789821363, -12950.354868215903, -11218.474652585346, -3090.307484901844, -3534.3919437398845, -15643.829482058227, 187500.0, -0.094, 0.978, 0.116, 192.0, 0.0, 0.0, 0.0, 0.0, 0.0, 0.0, 0.0, 0.0, 0.0, 1.700945365810379E9, 0.0, 2023-11-25 15:49:25.810
35.0, 76327.02753866048, 81037.68003436089, -11713.364626570301, -9981.886742339939, -1580.31303647912, -2541.8180277130637, -15486.339090626132, 187500.0, -0.094, 0.978, 0.116, 192.0, 0.0, 0.0, 0.0, 0.0, 0.0, 0.0, 0.0, 0.0, 0.0, 1.700945365814426E9, 0.0, 2023-11-25 15:49:25.814
36.0, 76324.01005315901, 81012.69078405986, -11863.814218498972, -10047.936147205372, -1543.2091406833101, -2450.175875446305, -15587.234865097389, 187500.0, -0.094, 0.978, 0.116, 192.0, 0.0, 0.0, 0.0, 0.0, 0.0, 0.0, 0.0, 0.0, 0.0, 1.700945365818665E9, 0.0, 2023-11-25 15:49:25.818
37.0, 76289.65542193121, 81030.3263104351, -12492.009996415378, -10615.603401136805, -2285.9352571887084, -2842.89602552605, -15635.246412187387, 187500.0, -0.094, 0.978, 0.116, 192.0, 0.0, 0.0, 0.0, 0.0, 0.0, 0.0, 0.0, 0.0, 0.0, 1.700945365821453E9, 0.0, 2023-11-25 15:49:25.821
38.0, 76281.87701486076, 81079.25427904776, -13051.563567109533, -11246.436684898936, -3149.584311197318, -3525.451245957762, -15677.804133630292, 187500.0, -0.094, 0.978, 0.116, 192.0, 0.0, 0.0, 0.0, 0.0, 0.0, 0.0, 0.0, 0.0, 0.0, 1.700945365826472E9, 0.0, 2023-11-25 15:49:25.826
39.0, 76323.07127989188, 81050.75580486725, -11895.084308991947, -10209.87453578407, -1841.850798350668, -2735.8982248184952, -15494.050442463213, 187500.0, -0.094, 0.978, 0.116, 192.0, 0.0, 0.0, 0.0, 0.0, 0.0, 0.0, 0.0, 0.0, 0.0, 1.700945365830502E9, 0.0, 2023-11-25 15:49:25.830
40.0, 76317.48334377806, 81009.69565030285, -11769.176932475202, -9937.965564485261, -1437.3736306874314, -2379.164383311794, -15587.011347652835, 187500.0, -0.092, 0.974, 0.112, 192.0, 253.0, 32.0, 30.0, 112.0, 3.0, 128.0, 0.0, 0.0, 0.0, 1.700945365834592E9, 0.0, 2023-11-25 15:49:25.834
41.0, 76294.97513711157, 81028.82874355659, -12364.359183831119, -10526.79992041587, -2128.8248454123554, -2761.9827105978384, -15630.28432491831, 187500.0, -0.092, 0.974, 0.112, 192.0, 0.0, 0.0, 0.0, 0.0, 0.0, 0.0, 0.0, 0.0, 0.0, 1.700945365838487E9, 0.0, 2023-11-25 15:49:25.838
42.0, 76279.28421250395, 81075.85681389055, -13067.701526606266, -11218.27348688525, -3109.5746886223187, -3458.373660847385, -15698.63595946264, 187500.0, -0.092, 0.974, 0.112, 192.0, 0.0, 0.0, 0.0, 0.0, 0.0, 0.0, 0.0, 0.0, 0.0, 1.700945365841592E9, 0.0, 2023-11-25 15:49:25.841
43.0, 76322.04309964694, 81058.78008112671, -12110.599829030018, -10472.887512789668, -2139.9783658955535, -2955.3253001362446, -15500.264227421789, 187500.0, -0.092, 0.974, 0.112, 192.0, 0.0, 0.0, 0.0, 0.0, 0.0, 0.0, 0.0, 0.0, 0.0, 1.700945365845514E9, 0.0, 2023-11-25 15:49:25.845
44.0, 76339.18688764416, 81034.64019711498, -11647.650497871697, -9792.120431914382, -1307.5994023799185, -2290.3609025908595, -15542.978411075881, 187500.0, -0.092, 0.974, 0.112, 192.0, 0.0, 0.0, 0.0, 0.0, 0.0, 0.0, 0.0, 0.0, 0.0, 1.700945365849518E9, 0.0, 2023-11-25 15:49:25.849
45.0, 76313.99647164303, 81038.90938030594, -12244.173853894932, -10430.82152972478, -1981.5268494518816, -2691.9770469638165, -15601.271760615322, 187500.0, -0.092, 0.974, 0.112, 192.0, 0.0, 0.0, 0.0, 0.0, 0.0, 0.0, 0.0, 0.0, 0.0, 1.700945365853608E9, 0.0, 2023-11-25 15:49:25.853
46.0, 76273.47275894556, 81063.89863060697, -13016.359569592425, -11144.82565460511, -3001.4816524364537, -3365.032776002023, -15700.558209485795, 187500.0, -0.092, 0.974, 0.112, 192.0, 0.0, 0.0, 0.0, 0.0, 0.0, 0.0, 0.0, 0.0, 0.0, 1.700945365858514E9, 0.0, 2023-11-25 15:49:25.858
47.0, 76313.10240186482, 81072.2358312888, -12357.83247445017, -10746.808141089457, -2456.1661429603273, -3186.8223174598597, -15528.963867302404, 187500.0, -0.092, 0.974, 0.112, 192.0, 0.0, 0.0, 0.0, 0.0, 0.0, 0.0, 0.0, 0.0, 0.0, 1.700945365862504E9, 0.0, 2023-11-25 15:49:25.862
48.0, 76325.30645433742, 81017.65287132894, -11579.522380771921, -9736.68810566522, -1265.7569367595836, -2272.2559895820605, -15524.202945733423, 187500.0, -0.092, 0.974, 0.112, 192.0, 0.0, 0.0, 0.0, 0.0, 0.0, 0.0, 0.0, 0.0, 0.0, 1.700945365866696E9, 0.0, 2023-11-25 15:49:25.866
49.0, 76309.77199194099, 81023.3749179095, -12148.843663793048, -10365.308566726277, -1876.004263878377, -2649.441677265367, -15606.591475795685, 187500.0, -0.092, 0.974, 0.112, 192.0, 0.0, 0.0, 0.0, 0.0, 0.0, 0.0, 0.0, 0.0, 0.0, 1.700945365869565E9, 0.0, 2023-11-25 15:49:25.869
50.0, 76293.16464581068, 81070.58180219911, -12893.067347176951, -11006.356597704482, -2817.2809263802683, -3214.6278875622615, -15680.352232498199, 187500.0, -0.098, 0.98, 0.116, 192.0, 252.0, 240.0, 30.0, 160.0, 3.0, 160.0, 0.0, 0.0, 0.0, 1.700945365875367E9, 0.0, 2023-11-25 15:49:25.875
51.0, 76305.74867793903, 81064.34566549608, -12599.477183756493, -10954.053515679065, -2729.505625904277, -3347.218435671143, -15562.670297941006, 187500.0, -0.098, 0.98, 0.116, 192.0, 0.0, 0.0, 0.0, 0.0, 0.0, 0.0, 0.0, 0.0, 0.0, 1.700945365877541E9, 0.0, 2023-11-25 15:49:25.877
52.0, 76326.08876539336, 81016.870560273, -11561.104543340749, -9728.216794516658, -1288.868640526371, -2296.0382456825073, -15499.59367508813, 187500.0, -0.098, 0.98, 0.116, 192.0, 0.0, 0.0, 0.0, 0.0, 0.0, 0.0, 0.0, 0.0, 0.0, 1.700945365881575E9, 0.0, 2023-11-25 15:49:25.881
53.0, 76296.31624177888, 80990.89783321593, -12053.491121946709, -10250.26413801481, -1761.5186287782942, -2576.7314525522534, -15606.189144395488, 187500.0, -0.098, 0.98, 0.116, 192.0, 0.0, 0.0, 0.0, 0.0, 0.0, 0.0, 0.0, 0.0, 0.0, 1.700945365885681E9, 0.0, 2023-11-25 15:49:25.885
54.0, 76269.11416877678, 81029.09696449006, -12767.584653804857, -10864.557130880015, -2640.880959138985, -3066.36876659021, -15667.343517225208, 187500.0, -0.098, 0.98, 0.116, 192.0, 0.0, 0.0, 0.0, 0.0, 0.0, 0.0, 0.0, 0.0, 0.0, 1.70094536589066E9, 0.0, 2023-11-25 15:49:25.890
55.0, 76296.85268364582, 81077.7343604248, -12816.91495381772, -11121.825709560599, -2962.4778583619427, -3459.2006753922315, -15596.287321601789, 187500.0, -0.098, 0.98, 0.116, 192.0, 0.0, 0.0, 0.0, 0.0, 0.0, 0.0, 0.0, 0.0, 0.0, 1.700945365894678E9, 0.0, 2023-11-25 15:49:25.894
56.0, 76323.9653496701, 81015.59651083905, -11613.340570132801, -9827.011505009115, -1411.80323503056, -2386.7416246821435, -15477.599558544107, 187500.0, -0.098, 0.98, 0.116, 192.0, 0.0, 0.0, 0.0, 0.0, 0.0, 0.0, 0.0, 0.0, 0.0, 1.70094536589765E9, 0.0, 2023-11-25 15:49:25.897
57.0, 76312.43184953116, 81015.08242071659, -11946.113341583412, -10156.543273513707, -1643.3896593319964, -2497.650980669377, -15589.872370943114, 187500.0, -0.098, 0.98, 0.116, 192.0, 0.0, 0.0, 0.0, 0.0, 0.0, 0.0, 0.0, 0.0, 0.0, 1.700945365902045E9, 0.0, 2023-11-25 15:49:25.902
58.0, 76302.86530290429, 81067.43020623091, -12584.993253349454, -10685.966692682112, -2401.3820173003696, -2890.706406915952, -15628.47383361743, 187500.0, -0.098, 0.98, 0.116, 192.0, 0.0, 0.0, 0.0, 0.0, 0.0, 0.0, 0.0, 0.0, 0.0, 1.700945365905693E9, 0.0, 2023-11-25 15:49:25.905
59.0, 76295.42217200068, 81088.08321810761, -12979.18861856325, -11232.84682427011, -3108.4794531440084, -3524.4901209461837, -15651.697296106495, 187500.0, -0.098, 0.98, 0.116, 192.0, 0.0, 0.0, 0.0, 0.0, 0.0, 0.0, 0.0, 0.0, 0.0, 1.700945365909693E9, 0.0, 2023-11-25 15:49:25.909
60.0, 76328.32393983888, 81024.2242841988, -11745.819359519406, -10038.190786622858, -1629.6880399808933, -2574.786850784642, -15495.033919219248, 187500.0, -0.10400000000000001, 0.984, 0.116, 192.0, 252.0, 192.0, 30.0, 192.0, 3.0, 160.0, 0.0, 0.0, 0.0, 1.700945365913859E9, 0.0, 2023-11-25 15:49:25.913
61.0, 76321.93134092467, 81012.35550789304, -11845.128160134336, -10032.669905742396, -1521.6844107728496, -2437.7036020402434, -15605.540943806285, 187500.0, -0.10400000000000001, 0.984, 0.116, 192.0, 0.0, 0.0, 0.0, 0.0, 0.0, 0.0, 0.0, 0.0, 0.0, 1.700945365918724E9, 0.0, 2023-11-25 15:49:25.918
62.0, 76286.66028817419, 81030.05808950163, -12471.871074661145, -10606.103909743299, -2256.699175441167, -2827.2051009184243, -15652.054924017779, 187500.0, -0.10400000000000001, 0.984, 0.116, 192.0, 0.0, 0.0, 0.0, 0.0, 0.0, 0.0, 0.0, 0.0, 0.0, 1.700945365922867E9, 0.0, 2023-11-25 15:49:25.922
63.0, 76282.43580847215, 81074.1804330564, -13067.478009161712, -11264.385135696548, -3157.3180147788544, -3529.765132637636, -15695.372604772165, 187500.0, -0.10400000000000001, 0.984, 0.116, 192.0, 0.0, 0.0, 0.0, 0.0, 0.0, 0.0, 0.0, 0.0, 0.0, 1.700945365926333E9, 0.0, 2023-11-25 15:49:25.926
64.0, 76324.47943979257, 81047.73831936579, -11923.918059339292, -10233.656791884518, -1879.1558598465754, -2776.444289260422, -15494.251608163311, 187500.0, -0.10400000000000001, 0.984, 0.116, 192.0, 0.0, 0.0, 0.0, 0.0, 0.0, 0.0, 0.0, 0.0, 0.0, 1.700945365929695E9, 0.0, 2023-11-25 15:49:25.929
65.0, 76311.42602103067, 81005.3147083896, -11735.358743114322, -9870.798572397063, -1391.351388853954, -2350.241225986627, -15572.594472479163, 187500.0, -0.10400000000000001, 0.984, 0.116, 192.0, 0.0, 0.0, 0.0, 0.0, 0.0, 0.0, 0.0, 0.0, 0.0, 1.700945365933729E9, 0.0, 2023-11-25 15:49:25.933
66.0, 76280.8041311269, 81012.8695980155, -12343.0132678763, -10480.97884428249, -2093.88906882871, -2737.9098818194725, -15620.382502124608, 187500.0, -0.10400000000000001, 0.984, 0.116, 192.0, 0.0, 0.0, 0.0, 0.0, 0.0, 0.0, 0.0, 0.0, 0.0, 1.700945365937775E9, 0.0, 2023-11-25 15:49:25.937
67.0, 76279.86535785977, 81089.46902626385, -13060.839541058487, -11172.385355518503, -3084.6971970435616, -3433.8537971799133, -15689.315282024776, 187500.0, -0.10400000000000001, 0.984, 0.116, 192.0, 0.0, 0.0, 0.0, 0.0, 0.0, 0.0, 0.0, 0.0, 0.0, 1.700945365942319E9, 0.0, 2023-11-25 15:49:25.942
68.0, 76303.58055872686, 81052.58864791259, -12166.188617490367, -10511.734844652992, -2206.8771370502877, -3004.9014693381155, -15500.443041377432, 187500.0, -0.10400000000000001, 0.984, 0.116, 192.0, 0.0, 0.0, 0.0, 0.0, 0.0, 0.0, 0.0, 0.0, 0.0, 1.700945365945763E9, 0.0, 2023-11-25 15:49:25.945
69.0, 76324.92647468168, 81026.10183073305, -11633.948878520594, -9795.450841838223, -1305.028951767558, -2292.730187503122, -15529.410902191508, 187500.0, -0.10400000000000001, 0.984, 0.116, 192.0, 0.0, 0.0, 0.0, 0.0, 0.0, 0.0, 0.0, 0.0, 0.0, 1.700945365950813E9, 0.0, 2023-11-25 15:49:25.950
70.0, 76290.14716030922, 81013.83072302709, -12219.1846035939, -10429.34631459073, -1955.3082532058065, -2674.0509479106604, -15587.011347652835, 187500.0, -0.096, 0.976, 0.114, 192.0, 253.0, 0.0, 30.0, 128.0, 3.0, 144.0, 0.0, 0.0, 0.0, 1.700945365953824E9, 0.0, 2023-11-25 15:49:25.953
71.0, 76288.11315156378, 81093.62645073252, -12977.199313306728, -11077.323386350083, -2932.5935760251973, -3293.6413042117724, -15670.651575404594, 187500.0, -0.096, 0.976, 0.114, 192.0, 0.0, 0.0, 0.0, 0.0, 0.0, 0.0, 0.0, 0.0, 0.0, 1.700945365957835E9, 0.0, 2023-11-25 15:49:25.957
72.0, 76317.75156471152, 81081.62356396003, -12416.125823989609, -10758.833379606413, -2504.535317961612, -3210.7386840270383, -15530.461434180908, 187500.0, -0.096, 0.976, 0.114, 192.0, 0.0, 0.0, 0.0, 0.0, 0.0, 0.0, 0.0, 0.0, 0.0, 1.700945365961762E9, 0.0, 2023-11-25 15:49:25.961
73.0, 76338.04694867694, 81040.58576114009, -11580.595264505777, -9740.35379175589, -1273.3118263854774, -2294.7194927596443, -15516.893925296537, 187500.0, -0.096, 0.976, 0.114, 192.0, 0.0, 0.0, 0.0, 0.0, 0.0, 0.0, 0.0, 0.0, 0.0, 1.700945365965791E9, 0.0, 2023-11-25 15:49:25.965
74.0, 76305.59221572784, 81029.05226100115, -12113.036169175646, -10307.0822724202, -1826.137521998587, -2609.4767581792785, -15583.725641217905, 187500.0, -0.096, 0.976, 0.114, 192.0, 0.0, 0.0, 0.0, 0.0, 0.0, 0.0, 0.0, 0.0, 0.0, 1.700945365969789E9, 0.0, 2023-11-25 15:49:25.969
75.0, 76272.28811648944, 81057.32721773711, -12864.88179741881, -10926.471463021215, -2758.965225096372, -3158.748526423994, -15667.81290385877, 187500.0, -0.096, 0.976, 0.114, 192.0, 0.0, 0.0, 0.0, 0.0, 0.0, 0.0, 0.0, 0.0, 0.0, 1.70094536597401E9, 0.0, 2023-11-25 15:49:25.974
76.0, 76290.21421554258, 81078.00258135828, -12664.02902174342, -10989.257513196173, -2792.9175249239834, -3392.81599435997, -15576.528379503296, 187500.0, -0.096, 0.976, 0.114, 192.0, 0.0, 0.0, 0.0, 0.0, 0.0, 0.0, 0.0, 0.0, 0.0, 1.700945365979077E9, 0.0, 2023-11-25 15:49:25.979
77.0, 76339.20923938861, 81064.90445910746, -11561.395116018668, -9738.230376032636, -1301.5197278880748, -2316.1324639478285, -15486.92023598197, 187500.0, -0.096, 0.976, 0.114, 192.0, 0.0, 0.0, 0.0, 0.0, 0.0, 0.0, 0.0, 0.0, 0.0, 1.700945365981896E9, 0.0, 2023-11-25 15:49:25.981
78.0, 76321.81958220238, 81035.28839770418, -12016.633095339907, -10218.077625999169, -1721.7995788812136, -2553.619748785466, -15591.727565732905, 187500.0, -0.096, 0.976, 0.114, 192.0, 0.0, 0.0, 0.0, 0.0, 0.0, 0.0, 0.0, 0.0, 0.0, 1.70094536598586E9, 0.0, 2023-11-25 15:49:25.985
79.0, 76287.44259923013, 81065.10562480756, -12728.916135897176, -10818.333723346439, -2585.649798589921, -3029.4213330055873, -15664.52719742384, 187500.0, -0.096, 0.976, 0.114, 192.0, 0.0, 0.0, 0.0, 0.0, 0.0, 0.0, 0.0, 0.0, 0.0, 1.700945365989869E9, 0.0, 2023-11-25 15:49:25.989
80.0, 76283.86632011727, 81084.2387180613, -12871.45321028867, -11172.45241075187, -3019.720675911984, -3509.2685829721195, -15628.831461528714, 187500.0, -0.10400000000000001, 0.966, 0.114, 192.0, 252.0, 192.0, 30.0, 48.0, 3.0, 144.0, 0.0, 0.0, 0.0, 1.700945365993862E9, 0.0, 2023-11-25 15:49:25.993
81.0, 76333.62130327479, 81056.94723808137, -11624.404683638179, -9868.161066551336, -1444.3697267019425, -2433.6802880382884, -15486.562608070686, 187500.0, -0.10400000000000001, 0.966, 0.114, 192.0, 0.0, 0.0, 0.0, 0.0, 0.0, 0.0, 0.0, 0.0, 0.0, 1.700945365997859E9, 0.0, 2023-11-25 15:49:25.997
82.0, 76324.92647468168, 81036.89772330497, -11913.748015612127, -10082.33548192209, -1590.8630598620248, -2471.566494890034, -15601.450574570963, 187500.0, -0.10400000000000001, 0.966, 0.114, 192.0, 0.0, 0.0, 0.0, 0.0, 0.0, 0.0, 0.0, 0.0, 0.0, 1.700945366001876E9, 0.0, 2023-11-25 15:49:26.001
83.0, 76296.42800050117, 81057.39427297047, -12588.837753395766, -10665.894826161246, -2391.0108078731073, -2906.732607690407, -15664.080162534734, 187500.0, -0.10400000000000001, 0.966, 0.114, 192.0, 0.0, 0.0, 0.0, 0.0, 0.0, 0.0, 0.0, 0.0, 0.0, 1.700945366006968E9, 0.0, 2023-11-25 15:49:26.006
84.0, 76298.52906447995, 81112.60308177509, -13006.323636331992, -11212.752606004788, -3115.8555288142597, -3541.052763587566, -15661.912043322569, 187500.0, -0.10400000000000001, 0.966, 0.114, 192.0, 0.0, 0.0, 0.0, 0.0, 0.0, 0.0, 0.0, 0.0, 0.0, 1.700945366009927E9, 0.0, 2023-11-25 15:49:26.009
85.0, 76326.7146142381, 81064.47977596281, -11777.201208734657, -10037.117902889002, -1664.310892142164, -2621.5243484406888, -15489.82596276116, 187500.0, -0.10400000000000001, 0.966, 0.114, 192.0, 0.0, 0.0, 0.0, 0.0, 0.0, 0.0, 0.0, 0.0, 0.0, 1.700945366012986E9, 0.0, 2023-11-25 15:49:26.012
86.0, 76330.08972765085, 81049.9287903224, -11831.001857638581, -10004.953742617816, -1502.7301314747492, -2443.1797794317936, -15596.80141172426, 187500.0, -0.10400000000000001, 0.966, 0.114, 192.0, 0.0, 0.0, 0.0, 0.0, 0.0, 0.0, 0.0, 0.0, 0.0, 1.700945366018045E9, 0.0, 2023-11-25 15:49:26.018
87.0, 76303.91583489369, 81066.93846785289, -12445.36190573715, -10570.430525592628, -2214.6555441207342, -2822.5335863272653, -15635.76050230986, 187500.0, -0.10400000000000001, 0.966, 0.114, 192.0, 0.0, 0.0, 0.0, 0.0, 0.0, 0.0, 0.0, 0.0, 0.0, 1.700945366021998E9, 0.0, 2023-11-25 15:49:26.021
88.0, 76293.58932895534, 81125.61179704807, -13062.11359049244, -11187.159858603462, -3113.843871813282, -3490.090786229466, -15688.823543646758, 187500.0, -0.10400000000000001, 0.966, 0.114, 192.0, 0.0, 0.0, 0.0, 0.0, 0.0, 0.0, 0.0, 0.0, 0.0, 1.700945366025981E9, 0.0, 2023-11-25 15:49:26.025
89.0, 76320.09849787933, 81085.62452621754, -11981.853780967449, -10261.484713731375, -1943.1265524776643, -2818.2644031363016, -15522.034826521258, 187500.0, -0.1, 0.968, 0.11800000000000001, 192.0, 252.0, 224.0, 30.0, 64.0, 3.0, 176.0, 0.0, 0.0, 0.0, 1.700945366030041E9, 0.0, 2023-11-25 15:49:26.030
90.0, 76316.96925365558, 81037.76944133872, -11735.381094858778, -9883.650825458864, -1400.0462174470686, -2367.1838482837497, -15596.622597768617, 187500.0, -0.1, 0.968, 0.11800000000000001, 192.0, 0.0, 0.0, 0.0, 0.0, 0.0, 0.0, 0.0, 0.0, 0.0, 1.700945366035232E9, 0.0, 2023-11-25 15:49:26.035
91.0, 76296.22683480107, 81063.67511316242, -12324.237802533842, -10494.814574100325, -2075.7618040754564, -2746.0459168012044, -15625.389292882597, 187500.0, -0.1, 0.968, 0.11800000000000001, 192.0, 0.0, 0.0, 0.0, 0.0, 0.0, 0.0, 0.0, 0.0, 0.0, 1.700945366038261E9, 0.0, 2023-11-25 15:49:26.038
92.0, 76277.78664562544, 81114.7935527317, -13044.902747261853, -11151.262957008239, -3050.1637518601124, -3406.0482270775115, -15681.738040654427, 187500.0, -0.1, 0.968, 0.11800000000000001, 192.0, 0.0, 0.0, 0.0, 0.0, 0.0, 0.0, 0.0, 0.0, 0.0, 1.700945366041091E9, 0.0, 2023-11-25 15:49:26.041
93.0, 76310.509599508, 81088.86552916355, -12206.444109254375, -10527.582231471806, -2250.150114315762, -3027.141455071146, -15502.186477444946, 187500.0, -0.1, 0.968, 0.11800000000000001, 192.0, 0.0, 0.0, 0.0, 0.0, 0.0, 0.0, 0.0, 0.0, 0.0, 1.700945366046051E9, 0.0, 2023-11-25 15:49:26.046
94.0, 76326.31228283791, 81052.70040663486, -11629.098549973793, -9767.64527173582, -1307.934678546748, -2296.440577082703, -15539.402131963032, 187500.0, -0.1, 0.968, 0.11800000000000001, 192.0, 0.0, 0.0, 0.0, 0.0, 0.0, 0.0, 0.0, 0.0, 0.0, 1.700945366050556E9, 0.0, 2023-11-25 15:49:26.050
95.0, 76297.83616040184, 81057.50603169276, -12204.074824342111, -10386.00628209189, -1942.4783518884603, -2669.8264682086074, -15600.668263515028, 187500.0, -0.1, 0.968, 0.11800000000000001, 192.0, 0.0, 0.0, 0.0, 0.0, 0.0, 0.0, 0.0, 0.0, 0.0, 1.700945366054051E9, 0.0, 2023-11-25 15:49:26.054
96.0, 76287.59906144132, 81124.36009935857, -12958.893234597832, -11016.593696665013, -2901.7481686768733, -3259.3760799617867, -15679.502866208895, 187500.0, -0.1, 0.968, 0.11800000000000001, 192.0, 0.0, 0.0, 0.0, 0.0, 0.0, 0.0, 0.0, 0.0, 0.0, 1.700945366058139E9, 0.0, 2023-11-25 15:49:26.058
97.0, 76323.9653496701, 81117.4981138108, -12453.475588974428, -10768.13170529982, -2553.4409348298236, -3228.7318383135607, -15540.139739530057, 187500.0, -0.1, 0.968, 0.11800000000000001, 192.0, 0.0, 0.0, 0.0, 0.0, 0.0, 0.0, 0.0, 0.0, 0.0, 1.700945366062164E9, 0.0, 2023-11-25 15:49:26.062
98.0, 76338.09165216585, 81058.89183984898, -11572.794505690874, -9707.764948340053, -1275.7034630421954, -2279.855582696865, -15522.995951532836, 187500.0, -0.1, 0.968, 0.11800000000000001, 192.0, 0.0, 0.0, 0.0, 0.0, 0.0, 0.0, 0.0, 0.0, 0.0, 1.700945366066104E9, 0.0, 2023-11-25 15:49:26.066
99.0, 76302.88765464874, 81039.73639485078, -12116.076006421568, -10324.181356928511, -1842.5660541732377, -2640.5009794832445, -15614.526345077318, 187500.0, -0.1, 0.978, 0.11800000000000001, 192.0, 252.0, 224.0, 30.0, 144.0, 3.0, 176.0, 0.0, 0.0, 0.0, 1.700945366069499E9, 0.0, 2023-11-25 15:49:26.069
100.0, 76285.14036955123, 81109.76441022925, -12833.25407901455, -10908.500660479149, -2727.605727625576, -3138.944880836592, -15679.167590042067, 187500.0, -0.1, 0.978, 0.11800000000000001, 192.0, 0.0, 0.0, 0.0, 0.0, 0.0, 0.0, 0.0, 0.0, 0.0, 1.70094536607315E9, 0.0, 2023-11-25 15:49:26.073
101.0, 76302.0606401039, 81122.70607026889, -12691.856943590277, -10990.397452163394, -2821.3936473600447, -3386.937485568224, -15594.901513445559, 187500.0, -0.1, 0.978, 0.11800000000000001, 192.0, 0.0, 0.0, 0.0, 0.0, 0.0, 0.0, 0.0, 0.0, 0.0, 1.700945366078139E9, 0.0, 2023-11-25 15:49:26.078
102.0, 76341.91380046771, 81076.66147669095, -11573.643871980175, -9748.556881970988, -1331.2922515025439, -2338.79713282551, -15506.96975075838, 187500.0, -0.1, 0.978, 0.11800000000000001, 192.0, 0.0, 0.0, 0.0, 0.0, 0.0, 0.0, 0.0, 0.0, 0.0, 1.70094536608316E9, 0.0, 2023-11-25 15:49:26.083
103.0, 76321.68547173566, 81067.49726146428, -12000.383377120897, -10197.782242033749, -1705.52750891775, -2547.6518330158992, -15611.844135742682, 187500.0, -0.1, 0.978, 0.11800000000000001, 192.0, 0.0, 0.0, 0.0, 0.0, 0.0, 0.0, 0.0, 0.0, 0.0, 1.700945366086205E9, 0.0, 2023-11-25 15:49:26.086
104.0, 76307.13448609525, 81124.13658191402, -12679.965815540054, -10783.442650251705, -2538.0852863890277, -3002.9121640815933, -15661.040325288812, 187500.0, -0.1, 0.978, 0.11800000000000001, 192.0, 0.0, 0.0, 0.0, 0.0, 0.0, 0.0, 0.0, 0.0, 0.0, 1.700945366090179E9, 0.0, 2023-11-25 15:49:26.090
105.0, 76304.22875931606, 81130.57388431716, -12866.558178252957, -11171.580692718113, -3027.476731237976, -3512.084902773488, -15624.76344403785, 187500.0, -0.1, 0.978, 0.11800000000000001, 192.0, 0.0, 0.0, 0.0, 0.0, 0.0, 0.0, 0.0, 0.0, 0.0, 1.700945366094208E9, 0.0, 2023-11-25 15:49:26.094
106.0, 76342.24907663454, 81097.04626763418, -11622.504785359477, -9873.704299176252, -1467.6602444243724, -2452.679270825299, -15480.997023701315, 187500.0, -0.1, 0.978, 0.11800000000000001, 192.0, 0.0, 0.0, 0.0, 0.0, 0.0, 0.0, 0.0, 0.0, 0.0, 1.700945366097184E9, 0.0, 2023-11-25 15:49:26.097
107.0, 76337.64461727675, 81088.75377044127, -11875.817105271472, -10069.952615493848, -1575.1274317654886, -2468.5490093885674, -15594.476830300908, 187500.0, -0.1, 0.978, 0.11800000000000001, 192.0, 0.0, 0.0, 0.0, 0.0, 0.0, 0.0, 0.0, 0.0, 0.0, 1.700945366101183E9, 0.0, 2023-11-25 15:49:26.101
108.0, 76298.35025052432, 81101.04722989169, -12521.849575263212, -10635.898785102223, -2347.760182352088, -2873.495563685365, -15647.785740826816, 187500.0, -0.1, 0.978, 0.11800000000000001, 192.0, 0.0, 0.0, 0.0, 0.0, 0.0, 0.0, 0.0, 0.0, 0.0, 1.700945366106245E9, 0.0, 2023-11-25 15:49:26.106
109.0, 76281.6087939273, 81113.05011666419, -12998.09819437244, -11224.308457888183, -3142.208235527067, -3528.8487111149684, -15672.998508572402, 187500.0, -0.10200000000000001, 0.976, 0.12, 192.0, 252.0, 208.0, 30.0, 128.0, 3.0, 192.0, 0.0, 0.0, 0.0, 1.700945366110276E9, 0.0, 2023-11-25 15:49:26.110
110.0, 76328.54745728344, 81076.92969762441, -11767.858179552339, -10057.145065920957, -1709.5508229197053, -2612.1813192583704, -15471.29636660771, 187500.0, -0.10200000000000001, 0.976, 0.12, 192.0, 0.0, 0.0, 0.0, 0.0, 0.0, 0.0, 0.0, 0.0, 0.0, 1.700945366114299E9, 0.0, 2023-11-25 15:49:26.114
111.0, 76316.92455016667, 81036.33892969358, -11769.869836553316, -9959.758515329184, -1480.0654625970678, -2373.7776128980654, -15559.78692290627, 187500.0, -0.10200000000000001, 0.976, 0.12, 192.0, 0.0, 0.0, 0.0, 0.0, 0.0, 0.0, 0.0, 0.0, 0.0, 1.700945366117288E9, 0.0, 2023-11-25 15:49:26.117
112.0, 76300.78659066994, 81091.54773849818, -12371.534093801272, -10557.198292875088, -2196.5953346008464, -2765.2684170327684, -15592.08519364419, 187500.0, -0.10200000000000001, 0.976, 0.12, 192.0, 0.0, 0.0, 0.0, 0.0, 0.0, 0.0, 0.0, 0.0, 0.0, 1.700945366121286E9, 0.0, 2023-11-25 15:49:26.121
113.0, 76292.76231441049, 81132.76435527377, -13011.33042708998, -11210.092748414607, -3130.1606452656565, -3469.8624574974133, -15647.294002448798, 187500.0, -0.10200000000000001, 0.976, 0.12, 192.0, 0.0, 0.0, 0.0, 0.0, 0.0, 0.0, 0.0, 0.0, 0.0, 1.700945366125392E9, 0.0, 2023-11-25 15:49:26.125
114.0, 76337.53285855448, 81124.4048028475, -11953.087085853469, -10314.99478995738, -2006.2031753305407, -2845.6229383495975, -15449.39165704151, 187500.0, -0.10200000000000001, 0.976, 0.12, 192.0, 0.0, 0.0, 0.0, 0.0, 0.0, 0.0, 0.0, 0.0, 0.0, 1.700945366129306E9, 0.0, 2023-11-25 15:49:26.129
115.0, 76342.18202140117, 81087.07738960712, -11638.195709967102, -9834.23111846818, -1369.2455135876553, -2319.4181703827585, -15511.194230460434, 187500.0, -0.10200000000000001, 0.976, 0.12, 192.0, 0.0, 0.0, 0.0, 0.0, 0.0, 0.0, 0.0, 0.0, 0.0, 1.700945366133373E9, 0.0, 2023-11-25 15:49:26.133
116.0, 76306.97802388406, 81076.50501447976, -12225.621905997028, -10438.242308883942, -2040.446047836071, -2688.7583957622523, -15549.952155345936, 187500.0, -0.10200000000000001, 0.976, 0.12, 192.0, 0.0, 0.0, 0.0, 0.0, 0.0, 0.0, 0.0, 0.0, 0.0, 1.700945366138406E9, 0.0, 2023-11-25 15:49:26.138
117.0, 76281.16175903818, 81114.52533179824, -12972.639557437846, -11135.39321844497, -3051.4825047829754, -3366.150363224788, -15635.71579882095, 187500.0, -0.10200000000000001, 0.976, 0.12, 192.0, 0.0, 0.0, 0.0, 0.0, 0.0, 0.0, 0.0, 0.0, 0.0, 1.700945366142418E9, 0.0, 2023-11-25 15:49:26.142
118.0, 76316.63397748876, 81108.35625032858, -12196.229362038299, -10603.935790531134, -2343.2227782276605, -3065.6982142565507, -15464.993174671314, 187500.0, -0.10200000000000001, 0.976, 0.12, 192.0, 0.0, 0.0, 0.0, 0.0, 0.0, 0.0, 0.0, 0.0, 0.0, 1.70094536614541E9, 0.0, 2023-11-25 15:49:26.145
119.0, 76335.94588469814, 81082.20470931586, -11552.521473469911, -9756.514102997078, -1309.7898733365387, -2274.5582192609572, -15486.607311559595, 187500.0, -0.096, 0.968, 0.122, 192.0, 253.0, 0.0, 30.0, 64.0, 3.0, 208.0, 0.0, 0.0, 0.0, 1.700945366149405E9, 0.0, 2023-11-25 15:49:26.149
120.0, 76309.32495705187, 81077.2873255357, -12125.977829215268, -10368.43781095002, -1933.00121223941, -2648.033517364683, -15558.691687427961, 187500.0, -0.096, 0.968, 0.122, 192.0, 0.0, 0.0, 0.0, 0.0, 0.0, 0.0, 0.0, 0.0, 0.0, 1.700945366153447E9, 0.0, 2023-11-25 15:49:26.153
121.0, 76287.21908178557, 81115.91113995446, -12884.976015684131, -11032.642249183924, -2913.0805031157142, -3259.5772456618843, -15639.247374444889, 187500.0, -0.096, 0.968, 0.122, 192.0, 0.0, 0.0, 0.0, 0.0, 0.0, 0.0, 0.0, 0.0, 0.0, 1.700945366157356E9, 0.0, 2023-11-25 15:49:26.157
122.0, 76287.62141318577, 81076.81793890214, -12461.298699533785, -10878.370508953394, -2672.5980845210656, -3303.453720027652, -15524.784091089261, 187500.0, -0.096, 0.968, 0.122, 192.0, 0.0, 0.0, 0.0, 0.0, 0.0, 0.0, 0.0, 0.0, 0.0, 1.700945366161458E9, 0.0, 2023-11-25 15:49:26.161
123.0, 76326.9157799382, 81063.25043001777, -11518.435063175568, -9742.4995592236, -1316.093065272935, -2293.154870647773, -15480.170009156467, 187500.0, -0.096, 0.968, 0.122, 192.0, 0.0, 0.0, 0.0, 0.0, 0.0, 0.0, 0.0, 0.0, 0.0, 1.700945366166418E9, 0.0, 2023-11-25 15:49:26.166
124.0, 76306.01689887249, 81062.35636023956, -12040.594165395996, -10313.251353889866, -1844.4883041963942, -2613.0753890365827, -15578.048298126258, 187500.0, -0.096, 0.968, 0.122, 192.0, 0.0, 0.0, 0.0, 0.0, 0.0, 0.0, 0.0, 0.0, 0.0, 1.700945366170429E9, 0.0, 2023-11-25 15:49:26.170
125.0, 76284.44746547312, 81104.95878517137, -12749.412685562693, -10871.709689105714, -2714.5970123525876, -3089.636932568185, -15641.370790168143, 187500.0, -0.096, 0.968, 0.122, 192.0, 0.0, 0.0, 0.0, 0.0, 0.0, 0.0, 0.0, 0.0, 0.0, 1.700945366173971E9, 0.0, 2023-11-25 15:49:26.173
126.0, 76296.62916620125, 81105.7410962273, -12681.686899863113, -11035.056237585097, -2909.1018926026695, -3419.4145702617852, -15564.614899708618, 187500.0, -0.096, 0.968, 0.122, 192.0, 0.0, 0.0, 0.0, 0.0, 0.0, 0.0, 0.0, 0.0, 0.0, 1.700945366177464E9, 0.0, 2023-11-25 15:49:26.177
127.0, 76337.37639634329, 81075.54388946819, -11539.915089597118, -9794.981455204661, -1399.8227000025154, -2375.3198832654816, -15468.68121250644, 187500.0, -0.096, 0.968, 0.122, 192.0, 0.0, 0.0, 0.0, 0.0, 0.0, 0.0, 0.0, 0.0, 0.0, 1.700945366181503E9, 0.0, 2023-11-25 15:49:26.181
128.0, 76318.9138554232, 81084.10460759456, -11928.164890785802, -10182.761869759783, -1710.6684101424707, -2526.395324038902, -15564.1231613306, 187500.0, -0.096, 0.968, 0.122, 192.0, 0.0, 0.0, 0.0, 0.0, 0.0, 0.0, 0.0, 0.0, 0.0, 1.700945366185467E9, 0.0, 2023-11-25 15:49:26.185
129.0, 76283.32987825036, 81116.6934510104, -12611.748291462458, -10745.712905611146, -2530.6421554854105, -2958.074564704247, -15627.244487672388, 187500.0, -0.094, 0.966, 0.122, 192.0, 253.0, 16.0, 30.0, 48.0, 3.0, 208.0, 0.0, 0.0, 0.0, 1.700945366189462E9, 0.0, 2023-11-25 15:49:26.189
130.0, 76276.17732002465, 81103.14829387049, -12871.16263761075, -11176.140448586995, -3097.214173938534, -3508.128644004899, -15619.220211412932, 187500.0, -0.094, 0.966, 0.122, 192.0, 0.0, 0.0, 0.0, 0.0, 0.0, 0.0, 0.0, 0.0, 0.0, 1.700945366194458E9, 0.0, 2023-11-25 15:49:26.194
131.0, 76317.2151228446, 81067.81018588664, -11641.771989079953, -9928.220203902747, -1571.4170421859078, -2500.2214312817373, -15486.093221437124, 187500.0, -0.094, 0.966, 0.122, 192.0, 0.0, 0.0, 0.0, 0.0, 0.0, 0.0, 0.0, 0.0, 0.0, 1.700945366198504E9, 0.0, 2023-11-25 15:49:26.198
132.0, 76315.44933503262, 81060.74703463877, -11852.995974182604, -10094.673644861417, -1619.8979759094686, -2485.1116520299497, -15590.811144210238, 187500.0, -0.094, 0.966, 0.122, 192.0, 0.0, 0.0, 0.0, 0.0, 0.0, 0.0, 0.0, 0.0, 0.0, 1.700945366201502E9, 0.0, 2023-11-25 15:49:26.201
133.0, 76294.43869524464, 81087.61383147405, -12468.004222870377, -10647.34287826334, -2350.732964364644, -2872.5791421626977, -15607.396138596076, 187500.0, -0.094, 0.966, 0.122, 192.0, 0.0, 0.0, 0.0, 0.0, 0.0, 0.0, 0.0, 0.0, 0.0, 1.70094536620555E9, 0.0, 2023-11-25 15:49:26.205
134.0, 76286.63793642973, 81120.11326791206, -12974.405345249814, -11259.199530982916, -3172.2936835639102, -3557.660109717859, -15629.054978973269, 187500.0, -0.094, 0.966, 0.122, 192.0, 0.0, 0.0, 0.0, 0.0, 0.0, 0.0, 0.0, 0.0, 0.0, 1.70094536620976E9, 0.0, 2023-11-25 15:49:26.209
135.0, 76322.51248628051, 81086.49624425129, -11781.068060525426, -10148.742514698806, -1794.330989638685, -2702.77293953573, -15439.378075525532, 187500.0, -0.094, 0.966, 0.122, 192.0, 0.0, 0.0, 0.0, 0.0, 0.0, 0.0, 0.0, 0.0, 0.0, 1.700945366213946E9, 0.0, 2023-11-25 15:49:26.213
136.0, 76321.95369266912, 81059.16006078245, -11733.74941751354, -9974.376556202955, -1485.2063638217885, -2411.596764516445, -15545.772379132794, 187500.0, -0.094, 0.966, 0.122, 192.0, 0.0, 0.0, 0.0, 0.0, 0.0, 0.0, 0.0, 0.0, 0.0, 1.700945366219555E9, 0.0, 2023-11-25 15:49:26.219
137.0, 76297.70204993512, 81086.22802331782, -12331.166843314988, -10548.190539859599, -2174.981197712564, -2781.0711003626707, -15586.631367997095, 187500.0, -0.094, 0.966, 0.122, 192.0, 0.0, 0.0, 0.0, 0.0, 0.0, 0.0, 0.0, 0.0, 0.0, 1.700945366222584E9, 0.0, 2023-11-25 15:49:26.222
138.0, 76281.45233171611, 81117.18518938842, -13001.026272896084, -11213.400806593992, -3130.8982528326815, -3474.8468965109464, -15646.824615815238, 187500.0, -0.094, 0.966, 0.122, 192.0, 0.0, 0.0, 0.0, 0.0, 0.0, 0.0, 0.0, 0.0, 0.0, 1.700945366226523E9, 0.0, 2023-11-25 15:49:26.226
139.0, 76314.77878269897, 81091.72655245382, -12003.803194022561, -10396.712767685982, -2089.619885637747, -2915.025104883326, -15465.931947938438, 187500.0, -0.094, 0.968, 0.11800000000000001, 192.0, 253.0, 16.0, 30.0, 64.0, 3.0, 176.0, 0.0, 0.0, 0.0, 1.700945366229506E9, 0.0, 2023-11-25 15:49:26.229
140.0, 76321.50665778002, 81054.5332496802, -11631.82546279734, -9827.32442943149, -1368.6196647429067, -2330.638746099323, -15528.293314968743, 187500.0, -0.094, 0.968, 0.11800000000000001, 192.0, 0.0, 0.0, 0.0, 0.0, 0.0, 0.0, 0.0, 0.0, 0.0, 1.700945366233518E9, 0.0, 2023-11-25 15:49:26.233
141.0, 76293.63403244424, 81067.78783414219, -12234.361438079053, -10479.481277403984, -2063.4236411361267, -2736.322907963146, -15592.487525044386, 187500.0, -0.094, 0.968, 0.11800000000000001, 192.0, 0.0, 0.0, 0.0, 0.0, 0.0, 0.0, 0.0, 0.0, 0.0, 1.700945366237584E9, 0.0, 2023-11-25 15:49:26.237
142.0, 76280.87118636027, 81116.11230565456, -12975.053545839019, -11159.68956466789, -3057.3833653191764, -3386.7586716125816, -15669.198712014999, 187500.0, -0.094, 0.968, 0.11800000000000001, 192.0, 0.0, 0.0, 0.0, 0.0, 0.0, 0.0, 0.0, 0.0, 0.0, 1.700945366242109E9, 0.0, 2023-11-25 15:49:26.242
143.0, 76306.2627680615, 81087.36796228505, -12266.056211716677, -10684.312663592418, -2427.8464827354533, -3145.695107662095, -15513.384701417053, 187500.0, -0.094, 0.968, 0.11800000000000001, 192.0, 0.0, 0.0, 0.0, 0.0, 0.0, 0.0, 0.0, 0.0, 0.0, 1.700945366245667E9, 0.0, 2023-11-25 15:49:26.245
144.0, 76325.17234387068, 81060.27764800521, -11565.418430020623, -9769.4557630367, -1318.8870333298485, -2304.867184742354, -15526.460471923408, 187500.0, -0.094, 0.968, 0.11800000000000001, 192.0, 0.0, 0.0, 0.0, 0.0, 0.0, 0.0, 0.0, 0.0, 0.0, 1.700945366249594E9, 0.0, 2023-11-25 15:49:26.249
145.0, 76295.7574481675, 81057.72954913731, -12125.240221648244, -10369.376584217141, -1919.9254417330555, -2660.170514603915, -15597.85194371366, 187500.0, -0.094, 0.968, 0.11800000000000001, 192.0, 0.0, 0.0, 0.0, 0.0, 0.0, 0.0, 0.0, 0.0, 0.0, 1.700945366254653E9, 0.0, 2023-11-25 15:49:26.254
146.0, 76279.7088956486, 81111.8431224636, -12883.523152294536, -11032.66460092838, -2893.008636594848, -3252.849370580837, -15678.988776086424, 187500.0, -0.094, 0.968, 0.11800000000000001, 192.0, 0.0, 0.0, 0.0, 0.0, 0.0, 0.0, 0.0, 0.0, 0.0, 1.700945366257683E9, 0.0, 2023-11-25 15:49:26.257
147.0, 76298.32789877987, 81114.50298005379, -12524.084749708743, -10946.409219075349, -2733.439532928411, -3361.277682933531, -15569.018193366313, 187500.0, -0.094, 0.968, 0.11800000000000001, 192.0, 0.0, 0.0, 0.0, 0.0, 0.0, 0.0, 0.0, 0.0, 0.0, 1.700945366261665E9, 0.0, 2023-11-25 15:49:26.261
148.0, 76323.74183222554, 81061.37288348352, -11527.666333635609, -9743.393629001812, -1311.3991989373208, -2311.438597612214, -15507.148564714023, 187500.0, -0.094, 0.968, 0.11800000000000001, 192.0, 0.0, 0.0, 0.0, 0.0, 0.0, 0.0, 0.0, 0.0, 0.0, 1.700945366265684E9, 0.0, 2023-11-25 15:49:26.265
149.0, 76300.71953543658, 81052.70040663486, -12037.509624661163, -10297.94040893798, -1813.039399747777, -2614.7294181262755, -15607.194972895977, 187500.0, -0.098, 0.972, 0.11800000000000001, 192.0, 252.0, 240.0, 30.0, 96.0, 3.0, 176.0, 0.0, 0.0, 0.0, 1.700945366269674E9, 0.0, 2023-11-25 15:49:26.269
150.0, 76285.69916316262, 81118.70510801139, -12739.264993579984, -10872.62611062838, -2676.040253167183, -3091.5368308468856, -15669.802209115292, 187500.0, -0.098, 0.972, 0.11800000000000001, 192.0, 0.0, 0.0, 0.0, 0.0, 0.0, 0.0, 0.0, 0.0, 0.0, 1.700945366273723E9, 0.0, 2023-11-25 15:49:26.273
151.0, 76289.23073878656, 81121.96846270186, -12737.342743556828, -11077.546903794635, -2939.0755819172364, -3456.049079424033, -15614.861621244148, 187500.0, -0.098, 0.972, 0.11800000000000001, 192.0, 0.0, 0.0, 0.0, 0.0, 0.0, 0.0, 0.0, 0.0, 0.0, 1.700945366277834E9, 0.0, 2023-11-25 15:49:26.277
152.0, 76318.19859960063, 81069.79949114317, -11571.47575276801, -9801.172888418781, -1410.059798963046, -2386.249886304127, -15514.703454339917, 187500.0, -0.098, 0.972, 0.11800000000000001, 192.0, 0.0, 0.0, 0.0, 0.0, 0.0, 0.0, 0.0, 0.0, 0.0, 1.700945366282771E9, 0.0, 2023-11-25 15:49:26.282
153.0, 76305.8604366613, 81050.24171474478, -11943.677001437783, -10173.105916155091, -1697.2573634692865, -2535.760704965676, -15613.878144488115, 187500.0, -0.098, 0.972, 0.11800000000000001, 192.0, 0.0, 0.0, 0.0, 0.0, 0.0, 0.0, 0.0, 0.0, 0.0, 1.700945366286174E9, 0.0, 2023-11-25 15:49:26.286
154.0, 76280.93824159363, 81089.42432277492, -12601.377082035195, -10731.228975204109, -2492.5100794446566, -2956.82286701475, -15648.121016993646, 187500.0, -0.098, 0.972, 0.11800000000000001, 192.0, 0.0, 0.0, 0.0, 0.0, 0.0, 0.0, 0.0, 0.0, 0.0, 1.700945366288682E9, 0.0, 2023-11-25 15:49:26.288
