%OpenBCI Raw EXG Data
%Number of channels = 8
%Sample Rate = 250 Hz
%Board = OpenBCI_GUI$BoardCytonSerial
Sample Index, EXG Channel 0, EXG Channel 1, EXG Channel 2, EXG Channel 3, EXG Channel 4, EXG Channel 5, EXG Channel 6, EXG Channel 7, Accel Channel 0, Accel Channel 1, Accel Channel 2, Other, Other, Other, Other, Other, Other, Other, Analog Channel 0, Analog Channel 1, Analog Channel 2, Timestamp, Other, Timestamp (Formatted)
70.0, 28423.327615657763, 37717.361774130084, -46925.16290249382, -42225.820389487795, -60170.04670739731, -17392.87583743046, -6716.810967542049, -26164.236803559877, 0.0, 0.0, 0.0, 192.0, 0.0, 0.0, 0.0, 0.0, 0.0, 0.0, 0.0, 0.0, 0.0, 1.700950517006782E9, 0.0, 2023-11-25 17:15:17.006
71.0, 28437.72213908698, 37681.88955567951, -46940.25033000116, -42240.08080245028, -60141.70469542798, -17347.300630486086, -6471.299406444956, -26180.08419037869, 0.0, 0.0, 0.0, 192.0, 0.0, 0.0, 0.0, 0.0, 0.0, 0.0, 0.0, 0.0, 0.0, 1.700950517006809E9, 0.0, 2023-11-25 17:15:17.006
72.0, 28366.442426019006, 37585.33001963258, -46981.4892985212, -42306.0855038268, -60202.18851592404, -17434.807710028614, -6455.966109748615, -26226.12878395662, 0.0, 0.0, 0.0, 192.0, 0.0, 0.0, 0.0, 0.0, 0.0, 0.0, 0.0, 0.0, 0.0, 1.700950517006823E9, 0.0, 2023-11-25 17:15:17.006
73.0, 28368.074103364244, 37626.546636408166, -46974.336740295505, -42277.74349185747, -60206.547106092825, -17419.83204124356, -6574.2738931505555, -26208.783830259305, 0.0, 0.0, 0.0, 192.0, 0.0, 0.0, 0.0, 0.0, 0.0, 0.0, 0.0, 0.0, 0.0, 1.70095051700685E9, 0.0, 2023-11-25 17:15:17.006
0.0, 0.0, 0.0, 0.0, 0.0, 0.0, 0.0, 0.0, 0.0, 0.0, 0.0, 0.0, 192.0, 0.0, 0.0, 0.0, 0.0, 0.0, 0.0, 0.0, 0.0, 0.0, 1.700950517068355E9, 0.0, 2023-11-25 17:15:17.068
1.0, 28661.28428712896, 38040.76916465392, -46756.40723185626, -42022.710087622414, -59876.791820143684, -17417.35099760902, -6660.641033725862, -26111.665500600997, -0.19, 0.936, 0.27, 192.0, 250.0, 16.0, 29.0, 64.0, 8.0, 112.0, 0.0, 0.0, 0.0, 1.700950517085379E9, 0.0, 2023-11-25 17:15:17.085
2.0, 28670.24733665554, 38001.34068743476, -46771.047624474486, -42038.244550018855, -59849.9250233084, -17372.91572963187, -6415.665914495697, -26132.74319562235, -0.19, 0.936, 0.27, 192.0, 0.0, 0.0, 0.0, 0.0, 0.0, 0.0, 0.0, 0.0, 0.0, 1.700950517088328E9, 0.0, 2023-11-25 17:15:17.088
3.0, 28595.1007717968, 37901.093113552706, -46816.17579652975, -42109.85953925366, -59912.46520429435, -17462.814445831114, -6387.815640904384, -26184.487484036385, -0.19, 0.936, 0.27, 192.0, 0.0, 0.0, 0.0, 0.0, 0.0, 0.0, 0.0, 0.0, 0.0, 1.700950517092358E9, 0.0, 2023-11-25 17:15:17.092
4.0, 28596.240710764017, 37941.79564020582, -46807.21274700317, -42079.215297605435, -59913.11340488356, -17437.73578855226, -6501.384854481799, -26133.41374795601, -0.19, 0.936, 0.27, 192.0, 0.0, 0.0, 0.0, 0.0, 0.0, 0.0, 0.0, 0.0, 0.0, 1.700950517096384E9, 0.0, 2023-11-25 17:15:17.096
5.0, 28648.789661978444, 38028.36394648122, -46759.089441190896, -42020.85489283263, -59877.59648294407, -17404.319930591577, -6633.841292123949, -26072.617003037572, -0.19, 0.936, 0.27, 192.0, 0.0, 0.0, 0.0, 0.0, 0.0, 0.0, 0.0, 0.0, 0.0, 1.700950517099415E9, 0.0, 2023-11-25 17:15:17.099
6.0, 28679.925642004688, 38020.8761120887, -46753.412098099245, -42019.17851199848, -59837.430398157885, -17355.704886401283, -6453.75328704754, -26086.02804971076, -0.19, 0.936, 0.27, 192.0, 0.0, 0.0, 0.0, 0.0, 0.0, 0.0, 0.0, 0.0, 0.0, 1.700950517104455E9, 0.0, 2023-11-25 17:15:17.104
7.0, 28613.339795272328, 37917.92397712755, -46803.30119172349, -42099.26481238184, -59897.131907598014, -17448.97871601328, -6372.303530252401, -26168.438931517474, -0.19, 0.936, 0.27, 192.0, 0.0, 0.0, 0.0, 0.0, 0.0, 0.0, 0.0, 0.0, 0.0, 1.700950517108489E9, 0.0, 2023-11-25 17:15:17.108
8.0, 28598.073553809354, 37933.234922079435, -46807.100988280894, -42090.14530064408, -59917.65080900798, -17465.78722784367, -6513.544203465486, -26183.213434602432, -0.184, 0.928, 0.276, 192.0, 250.0, 64.0, 29.0, 0.0, 8.0, 160.0, 0.0, 0.0, 0.0, 1.700950517112774E9, 0.0, 2023-11-25 17:15:17.112
9.0, 28639.804260707413, 38020.58553941078, -46771.20408668567, -42036.79168662926, -59896.148430841975, -17442.295544421144, -6665.536065761575, -26124.69656761844, -0.184, 0.928, 0.276, 192.0, 0.0, 0.0, 0.0, 0.0, 0.0, 0.0, 0.0, 0.0, 0.0, 1.700950517115469E9, 0.0, 2023-11-25 17:15:17.115
10.0, 28689.82746479839, 38041.01503384293, -46748.07003117443, -42014.26112821831, -59843.42066567191, -17382.303462303098, -6545.686011992218, -26096.600424838118, -0.184, 0.928, 0.276, 192.0, 0.0, 0.0, 0.0, 0.0, 0.0, 0.0, 0.0, 0.0, 0.0, 1.700950517119437E9, 0.0, 2023-11-25 17:15:17.119
11.0, 28625.834420422845, 37936.07359362526, -46810.319639482455, -42104.62923105112, -59901.0881663666, -17466.994222044257, -6392.710672940097, -26184.442780547477, -0.184, 0.928, 0.276, 192.0, 0.0, 0.0, 0.0, 0.0, 0.0, 0.0, 0.0, 0.0, 0.0, 1.700950517123622E9, 0.0, 2023-11-25 17:15:17.123
12.0, 28600.66635616617, 37928.921035399566, -46814.857043606884, -42109.16663517555, -59929.9442684584, -17500.79005966068, -6523.110750092358, -26201.76538250034, -0.184, 0.928, 0.276, 192.0, 0.0, 0.0, 0.0, 0.0, 0.0, 0.0, 0.0, 0.0, 0.0, 1.700950517127426E9, 0.0, 2023-11-25 17:15:17.127
13.0, 28624.694481455623, 37999.84312055625, -46795.276915464034, -42067.23476257739, -59923.059931166164, -17476.426658204397, -6654.717821445206, -26157.598335456652, -0.184, 0.928, 0.276, 192.0, 0.0, 0.0, 0.0, 0.0, 0.0, 0.0, 0.0, 0.0, 0.0, 1.700950517132482E9, 0.0, 2023-11-25 17:15:17.132
14.0, 28680.10445596033, 38042.579655954796, -46753.81442949944, -42019.849064332135, -59859.402162957456, -17405.72809049226, -6607.9132685557925, -26103.238892941346, -0.184, 0.928, 0.276, 192.0, 0.0, 0.0, 0.0, 0.0, 0.0, 0.0, 0.0, 0.0, 0.0, 1.700950517136577E9, 0.0, 2023-11-25 17:15:17.136
15.0, 28643.58170552036, 37958.89472471413, -46792.72881659613, -42082.05396915126, -59878.64701493347, -17438.518099608194, -6384.664044936186, -26168.394228028566, -0.184, 0.928, 0.276, 192.0, 0.0, 0.0, 0.0, 0.0, 0.0, 0.0, 0.0, 0.0, 0.0, 1.700950517139633E9, 0.0, 2023-11-25 17:15:17.139
16.0, 28600.554597443894, 37922.50608474089, -46799.546098655, -42100.06947518224, -59912.19698336089, -17481.433448962387, -6483.034072283992, -26172.976335641903, -0.184, 0.928, 0.276, 192.0, 0.0, 0.0, 0.0, 0.0, 0.0, 0.0, 0.0, 0.0, 0.0, 1.700950517143541E9, 0.0, 2023-11-25 17:15:17.143
17.0, 28633.27755132646, 37999.70901008952, -46769.03596747351, -42048.63811119057, -59893.39916627398, -17443.055503732623, -6610.953105801715, -26116.426422169978, -0.184, 0.928, 0.276, 192.0, 0.0, 0.0, 0.0, 0.0, 0.0, 0.0, 0.0, 0.0, 0.0, 1.700950517147595E9, 0.0, 2023-11-25 17:15:17.147
18.0, 28695.63891835677, 38058.449394518066, -46722.656097728744, -41995.2621454313, -59836.26810744621, -17386.416183282876, -6634.422437479787, -26078.45080834041, -0.188, 0.924, 0.276, 192.0, 250.0, 32.0, 28.0, 224.0, 8.0, 160.0, 0.0, 0.0, 0.0, 1.700950517151508E9, 0.0, 2023-11-25 17:15:17.151
19.0, 28670.940240733653, 37981.3135244028, -46767.67251106173, -42051.2756170363, -59847.51103490723, -17397.793221210628, -6384.932265869649, -26140.968637581904, -0.188, 0.924, 0.276, 192.0, 0.0, 0.0, 0.0, 0.0, 0.0, 0.0, 0.0, 0.0, 0.0, 1.700950517155721E9, 0.0, 2023-11-25 17:15:17.155
20.0, 28610.367013259773, 37922.41667776307, -46795.61219163087, -42092.87221346763, -59900.26115182175, -17469.385858700974, -6459.609444094831, -26165.868480905116, -0.188, 0.924, 0.276, 192.0, 0.0, 0.0, 0.0, 0.0, 0.0, 0.0, 0.0, 0.0, 0.0, 1.700950517159617E9, 0.0, 2023-11-25 17:15:17.159
21.0, 28618.927731386153, 37982.386408136656, -46787.610267115866, -42057.64586420606, -59900.14939309948, -17443.54724211064, -6580.711195553684, -26134.285465989768, -0.188, 0.924, 0.276, 192.0, 0.0, 0.0, 0.0, 0.0, 0.0, 0.0, 0.0, 0.0, 0.0, 1.700950517164567E9, 0.0, 2023-11-25 17:15:17.164
22.0, 28675.142368691253, 38056.81771717283, -46738.883464203296, -41999.75484606682, -59850.84144483107, -17391.087697874034, -6663.524408760597, -26077.40027635101, -0.188, 0.924, 0.276, 192.0, 0.0, 0.0, 0.0, 0.0, 0.0, 0.0, 0.0, 0.0, 0.0, 1.700950517168664E9, 0.0, 2023-11-25 17:15:17.168
23.0, 28671.208461667116, 37999.66430660061, -46768.56658083994, -42037.752811640836, -59842.92892729389, -17370.144113319413, -6397.896277653727, -26122.014358283803, -0.188, 0.924, 0.276, 192.0, 0.0, 0.0, 0.0, 0.0, 0.0, 0.0, 0.0, 0.0, 0.0, 1.700950517171818E9, 0.0, 2023-11-25 17:15:17.171
24.0, 28594.94430958561, 37909.83264563473, -46806.4974911806, -42099.71184727095, -59908.173669358934, -17454.812521316115, -6416.202356362624, -26152.680951676484, -0.188, 0.924, 0.276, 192.0, 0.0, 0.0, 0.0, 0.0, 0.0, 0.0, 0.0, 0.0, 0.0, 1.700950517175663E9, 0.0, 2023-11-25 17:15:17.175
25.0, 28604.197931790106, 37962.18043114906, -46787.5432118825, -42059.67987295149, -59900.082337866115, -17425.844660502036, -6536.924128165738, -26120.91912280549, -0.188, 0.924, 0.276, 192.0, 0.0, 0.0, 0.0, 0.0, 0.0, 0.0, 0.0, 0.0, 0.0, 1.700950517180623E9, 0.0, 2023-11-25 17:15:17.180
26.0, 28649.10258640082, 38033.9295308506, -46741.8338944714, -42008.22615721538, -59865.2806717492, -17392.853485686002, -6652.437943510765, -26075.74624726132, -0.188, 0.924, 0.276, 192.0, 0.0, 0.0, 0.0, 0.0, 0.0, 0.0, 0.0, 0.0, 0.0, 1.700950517184569E9, 0.0, 2023-11-25 17:15:17.184
27.0, 28658.80324349442, 38004.24641421395, -46754.41792659974, -42030.37673597059, -59840.20201447034, -17360.77873239264, -6422.79612097694, -26112.291349445743, -0.188, 0.924, 0.276, 192.0, 0.0, 0.0, 0.0, 0.0, 0.0, 0.0, 0.0, 0.0, 0.0, 1.700950517187626E9, 0.0, 2023-11-25 17:15:17.187
28.0, 28584.483693180526, 37905.83168337723, -46801.28953472251, -42108.80900726426, -59907.43606179191, -17458.433503917873, -6386.943922870627, -26159.006495357335, -0.194, 0.934, 0.28, 192.0, 249.0, 240.0, 29.0, 48.0, 8.0, 192.0, 0.0, 0.0, 0.0, 1.700950517191653E9, 0.0, 2023-11-25 17:15:17.191
29.0, 28590.965699072567, 37949.41758506508, -46790.605400872875, -42078.18711736049, -59909.40301530398, -17445.625954344985, -6516.00289535557, -26137.526468935786, -0.194, 0.934, 0.28, 192.0, 0.0, 0.0, 0.0, 0.0, 0.0, 0.0, 0.0, 0.0, 0.0, 1.700950517195671E9, 0.0, 2023-11-25 17:15:17.195
30.0, 28646.86741195529, 38039.27159777541, -46746.25953987355, -42018.06092477572, -59876.456543976856, -17421.508422077706, -6664.105554116435, -26098.030936483257, -0.194, 0.934, 0.28, 192.0, 0.0, 0.0, 0.0, 0.0, 0.0, 0.0, 0.0, 0.0, 0.0, 1.700950517200713E9, 0.0, 2023-11-25 17:15:17.200
31.0, 28677.757522792523, 38034.93535935108, -46741.69978400467, -42010.640145616555, -59833.40708415593, -17367.48425572923, -6489.873706087316, -26101.562512107197, -0.194, 0.934, 0.28, 192.0, 0.0, 0.0, 0.0, 0.0, 0.0, 0.0, 0.0, 0.0, 0.0, 1.700950517203666E9, 0.0, 2023-11-25 17:15:17.203
32.0, 28612.982167361042, 37935.13482035814, -46792.281781707024, -42088.84889946567, -59890.24757030578, -17448.576384613083, -6383.9711408580715, -26153.440910987963, -0.194, 0.934, 0.28, 192.0, 0.0, 0.0, 0.0, 0.0, 0.0, 0.0, 0.0, 0.0, 0.0, 1.700950517207694E9, 0.0, 2023-11-25 17:15:17.207
33.0, 28602.812123633877, 37953.865582211685, -46790.672456106244, -42077.874192938114, -59906.11730886905, -17457.852358562035, -6511.599601697874, -26139.761643381316, -0.194, 0.934, 0.28, 192.0, 0.0, 0.0, 0.0, 0.0, 0.0, 0.0, 0.0, 0.0, 0.0, 1.7009505172117E9, 0.0, 2023-11-25 17:15:17.211
34.0, 28642.866449697787, 38035.69531866256, -46756.74250802309, -42029.97440457039, -59888.19120981589, -17437.959305996814, -6657.891769157859, -26104.624701097575, -0.194, 0.934, 0.28, 192.0, 0.0, 0.0, 0.0, 0.0, 0.0, 0.0, 0.0, 0.0, 0.0, 1.700950517215801E9, 0.0, 2023-11-25 17:15:17.215
35.0, 28696.600043368348, 38057.84589741778, -46724.3771820518, -41999.19605245544, -59829.741398065264, -17374.14507557691, -6555.4313725747315, -26089.045535212226, -0.194, 0.934, 0.28, 192.0, 0.0, 0.0, 0.0, 0.0, 0.0, 0.0, 0.0, 0.0, 0.0, 1.70095051721974E9, 0.0, 2023-11-25 17:15:17.219
36.0, 28638.127879873264, 37951.71981474398, -46780.94944726818, -42079.75173947236, -59878.132924811, -17441.15560545392, -6384.284065280445, -26171.568175741217, -0.194, 0.934, 0.28, 192.0, 0.0, 0.0, 0.0, 0.0, 0.0, 0.0, 0.0, 0.0, 0.0, 1.700950517223768E9, 0.0, 2023-11-25 17:15:17.223
37.0, 28610.031737092944, 37936.36416630318, -46785.844479303894, -42082.59041101819, -59905.15618385746, -17473.006841302737, -6509.073854574425, -26168.148358839557, -0.194, 0.934, 0.28, 192.0, 0.0, 0.0, 0.0, 0.0, 0.0, 0.0, 0.0, 0.0, 0.0, 1.700950517226741E9, 0.0, 2023-11-25 17:15:17.226
38.0, 28643.38053982026, 38007.37565843769, -46761.391670869794, -42036.74698314035, -59891.87924765101, -17446.810596801115, -6647.051173097036, -26110.100878489124, -0.188, 0.92, 0.28400000000000003, 192.0, 250.0, 32.0, 28.0, 192.0, 8.0, 224.0, 0.0, 0.0, 0.0, 1.700950517231764E9, 0.0, 2023-11-25 17:15:17.231
39.0, 28707.328880706893, 38056.52714449491, -46719.862129671834, -41991.70821806291, -59827.997961997746, -17383.82338092606, -6616.518690171086, -26083.189378164934, -0.188, 0.92, 0.28400000000000003, 192.0, 0.0, 0.0, 0.0, 0.0, 0.0, 0.0, 0.0, 0.0, 0.0, 1.700950517235771E9, 0.0, 2023-11-25 17:15:17.235
40.0, 28668.883880243768, 37968.99771320793, -46771.315845407946, -42061.33390204119, -59855.64706988896, -17421.575477311075, -6386.541591470432, -26160.347600024656, -0.188, 0.92, 0.28400000000000003, 192.0, 0.0, 0.0, 0.0, 0.0, 0.0, 0.0, 0.0, 0.0, 0.0, 1.70095051723983E9, 0.0, 2023-11-25 17:15:17.239
41.0, 28623.37572853276, 37926.17177083156, -46790.4936421506, -42088.75949248785, -59900.12704135502, -17479.242978005765, -6488.420842697721, -26164.214451815424, -0.188, 0.92, 0.28400000000000003, 192.0, 0.0, 0.0, 0.0, 0.0, 0.0, 0.0, 0.0, 0.0, 0.0, 1.700950517243799E9, 0.0, 2023-11-25 17:15:17.243
42.0, 28651.471871313082, 37996.512710632414, -46773.95335125367, -42047.49817222335, -59894.76262268575, -17452.912623037413, -6615.7140273706955, -26121.589675139152, -0.188, 0.92, 0.28400000000000003, 192.0, 0.0, 0.0, 0.0, 0.0, 0.0, 0.0, 0.0, 0.0, 0.0, 1.700950517247775E9, 0.0, 2023-11-25 17:15:17.247
43.0, 28716.11311627783, 38065.26667657694, -46726.41119079723, -41995.664476831495, -59839.956145281336, -17403.11293639099, -6658.763487191616, -26088.86672125658, -0.188, 0.92, 0.28400000000000003, 192.0, 0.0, 0.0, 0.0, 0.0, 0.0, 0.0, 0.0, 0.0, 0.0, 1.700950517251798E9, 0.0, 2023-11-25 17:15:17.251
44.0, 28699.952805036643, 37996.445655399046, -46762.6880720482, -42046.46999197841, -59844.24768021676, -17407.136250392945, -6405.473519024077, -26146.780091140285, -0.188, 0.92, 0.28400000000000003, 192.0, 0.0, 0.0, 0.0, 0.0, 0.0, 0.0, 0.0, 0.0, 0.0, 1.700950517254807E9, 0.0, 2023-11-25 17:15:17.254
45.0, 28631.86939142578, 37918.907453883585, -46796.30509570898, -42100.58356530471, -59908.173669358934, -17486.79786763166, -6470.47239190011, -26176.485559521385, -0.188, 0.92, 0.28400000000000003, 192.0, 0.0, 0.0, 0.0, 0.0, 0.0, 0.0, 0.0, 0.0, 0.0, 1.700950517258829E9, 0.0, 2023-11-25 17:15:17.258
46.0, 28646.755653233013, 37980.17358543558, -46781.865868790854, -42061.378605530095, -59904.843259435096, -17455.59483237205, -6595.753919572106, -26129.681006631974, -0.188, 0.92, 0.28400000000000003, 192.0, 0.0, 0.0, 0.0, 0.0, 0.0, 0.0, 0.0, 0.0, 0.0, 1.700950517263897E9, 0.0, 2023-11-25 17:15:17.263
47.0, 28710.59223539737, 38058.315284051336, -46728.86988268732, -42000.06777048919, -59854.39537219946, -17404.230523613754, -6674.141487376868, -26068.526633802252, -0.194, 0.928, 0.276, 192.0, 249.0, 240.0, 29.0, 0.0, 8.0, 160.0, 0.0, 0.0, 0.0, 1.70095051726884E9, 0.0, 2023-11-25 17:15:17.268
48.0, 28710.413421441728, 38006.12396074819, -46753.61326379934, -42031.60608191563, -59836.804549313136, -17375.597938966508, -6407.2169550915905, -26100.53433186225, -0.194, 0.928, 0.276, 192.0, 0.0, 0.0, 0.0, 0.0, 0.0, 0.0, 0.0, 0.0, 0.0, 1.700950517271916E9, 0.0, 2023-11-25 17:15:17.271
49.0, 28641.882972941756, 37918.639232950125, -46787.27499094904, -42091.03937042229, -59894.87438140802, -17457.539434139664, -6412.514318527498, -26119.779183838273, -0.194, 0.928, 0.276, 192.0, 0.0, 0.0, 0.0, 0.0, 0.0, 0.0, 0.0, 0.0, 0.0, 1.700950517275897E9, 0.0, 2023-11-25 17:15:17.275
50.0, 28650.689560257146, 37971.27759114237, -46773.46161287566, -42057.198829316956, -59893.04153836269, -17437.802843785626, -6533.526663008531, -26091.414820124486, -0.194, 0.928, 0.276, 192.0, 0.0, 0.0, 0.0, 0.0, 0.0, 0.0, 0.0, 0.0, 0.0, 1.700950517278893E9, 0.0, 2023-11-25 17:15:17.278
51.0, 28705.026651027998, 38051.40859501465, -46725.53947276348, -42002.92879377947, -59855.71412512233, -17409.12555564947, -6656.2153883237115, -26051.762825460773, -0.194, 0.928, 0.276, 192.0, 0.0, 0.0, 0.0, 0.0, 0.0, 0.0, 0.0, 0.0, 0.0, 1.700950517282919E9, 0.0, 2023-11-25 17:15:17.282
52.0, 28720.359947724337, 38019.49030393247, -46738.6822985032, -42023.38063995608, -59829.65199108744, -17379.24127331272, -6438.889376984761, -26098.142695205534, -0.194, 0.928, 0.276, 192.0, 0.0, 0.0, 0.0, 0.0, 0.0, 0.0, 0.0, 0.0, 0.0, 1.700950517286946E9, 0.0, 2023-11-25 17:15:17.286
53.0, 28651.449519568625, 37920.18150331754, -46786.31386593746, -42101.43293159401, -59896.21548607534, -17480.293509995165, -6402.567792244887, -26157.777149412294, -0.194, 0.928, 0.276, 192.0, 0.0, 0.0, 0.0, 0.0, 0.0, 0.0, 0.0, 0.0, 0.0, 1.700950517292163E9, 0.0, 2023-11-25 17:15:17.292
54.0, 28657.640952782745, 37957.352454346714, -46779.004845500574, -42074.27556208081, -59903.05511987867, -17469.94465231236, -6533.526663008531, -26129.636303143063, -0.194, 0.928, 0.276, 192.0, 0.0, 0.0, 0.0, 0.0, 0.0, 0.0, 0.0, 0.0, 0.0, 1.700950517295965E9, 0.0, 2023-11-25 17:15:17.295
55.0, 28709.29583421896, 38045.373624011714, -46743.420868327725, -42020.98900329936, -59879.317567267135, -17443.994276999747, -6678.656539756839, -26088.129113689556, -0.194, 0.928, 0.276, 192.0, 0.0, 0.0, 0.0, 0.0, 0.0, 0.0, 0.0, 0.0, 0.0, 1.700950517299974E9, 0.0, 2023-11-25 17:15:17.299
56.0, 28753.35112254037, 38050.33571128079, -46732.82614145591, -42007.86852930409, -59830.90368877694, -17384.315119304076, -6511.979581353615, -26096.622776582575, -0.194, 0.928, 0.276, 192.0, 0.0, 0.0, 0.0, 0.0, 0.0, 0.0, 0.0, 0.0, 0.0, 1.700950517303937E9, 0.0, 2023-11-25 17:15:17.303
57.0, 28683.23370018407, 37941.25919833889, -46789.86779330585, -42090.547632044276, -59892.594503473585, -17464.2226057318, -6387.7932891599285, -26161.912222136525, -0.194, 0.928, 0.278, 192.0, 249.0, 240.0, 29.0, 0.0, 8.0, 176.0, 0.0, 0.0, 0.0, 1.700950517306977E9, 0.0, 2023-11-25 17:15:17.306
58.0, 28663.00537145202, 37946.958893175, -46795.03104627503, -42080.75756797285, -59914.72273048434, -17471.822198846603, -6506.726921406618, -26139.940457336957, -0.194, 0.928, 0.278, 192.0, 0.0, 0.0, 0.0, 0.0, 0.0, 0.0, 0.0, 0.0, 0.0, 1.700950517310993E9, 0.0, 2023-11-25 17:15:17.310
59.0, 28705.764258595023, 38031.739059893975, -46764.1409354378, -42030.71201213742, -59897.80245993167, -17449.872785791493, -6656.662423212818, -26107.441020898943, -0.194, 0.928, 0.278, 192.0, 0.0, 0.0, 0.0, 0.0, 0.0, 0.0, 0.0, 0.0, 0.0, 1.700950517314984E9, 0.0, 2023-11-25 17:15:17.314
60.0, 28759.274334821028, 38059.92460965212, -46739.10698164785, -42004.22519495788, -59842.90657554944, -17391.266511829675, -6565.735526768628, -26117.812230326206, -0.194, 0.928, 0.278, 192.0, 0.0, 0.0, 0.0, 0.0, 0.0, 0.0, 0.0, 0.0, 0.0, 1.700950517319978E9, 0.0, 2023-11-25 17:15:17.319
61.0, 28706.770087095512, 37961.84515498223, -46793.71229335217, -42082.501004040365, -59886.134849326, -17452.286774192664, -6386.183963559147, -26199.597263288175, -0.194, 0.928, 0.278, 192.0, 0.0, 0.0, 0.0, 0.0, 0.0, 0.0, 0.0, 0.0, 0.0, 1.700950517323976E9, 0.0, 2023-11-25 17:15:17.323
62.0, 28674.00242972403, 37940.52159077187, -46806.765712114066, -42093.18513789, -59918.7907479752, -17490.41885023342, -6509.453834230165, -26210.19199015999, -0.194, 0.928, 0.278, 192.0, 0.0, 0.0, 0.0, 0.0, 0.0, 0.0, 0.0, 0.0, 0.0, 1.700950517328038E9, 0.0, 2023-11-25 17:15:17.328
63.0, 28707.798267340455, 38020.563187666325, -46781.48588913511, -42044.883018122084, -59903.010416389756, -17462.568576642105, -6652.4602952552195, -26169.80238792925, -0.194, 0.928, 0.278, 192.0, 0.0, 0.0, 0.0, 0.0, 0.0, 0.0, 0.0, 0.0, 0.0, 1.700950517332113E9, 0.0, 2023-11-25 17:15:17.332
64.0, 28761.621267988834, 38066.764243455444, -46741.76683923803, -41995.373904153574, -59840.33612493708, -17388.003157139203, -6619.379713461365, -26112.3137011902, -0.194, 0.928, 0.278, 192.0, 0.0, 0.0, 0.0, 0.0, 0.0, 0.0, 0.0, 0.0, 0.0, 1.700950517335041E9, 0.0, 2023-11-25 17:15:17.335
65.0, 28721.92456983621, 37982.90049825913, -46792.080616006926, -42056.349463027655, -59859.737439124285, -17401.570666023574, -6363.7204603815635, -26144.477861461386, -0.194, 0.928, 0.278, 192.0, 0.0, 0.0, 0.0, 0.0, 0.0, 0.0, 0.0, 0.0, 0.0, 1.700950517339046E9, 0.0, 2023-11-25 17:15:17.339
66.0, 28669.554432577424, 37936.23005583645, -46817.04751456351, -42091.39699833358, -59909.358311815064, -17464.915509809915, -6459.788258050473, -26171.23289957439, -0.194, 0.928, 0.278, 192.0, 0.0, 0.0, 0.0, 0.0, 0.0, 0.0, 0.0, 0.0, 0.0, 1.700950517343097E9, 0.0, 2023-11-25 17:15:17.343
67.0, 28695.527159634494, 38011.77895209539, -46799.0990637659, -42050.31449202472, -59903.25628557877, -17443.279021177175, -6601.073634752469, -26164.639134960074, -0.188, 0.924, 0.278, 192.0, 250.0, 32.0, 28.0, 224.0, 8.0, 176.0, 0.0, 0.0, 0.0, 1.700950517347097E9, 0.0, 2023-11-25 17:15:17.347
68.0, 28756.905049908764, 38079.974124428525, -46750.99810969807, -41993.27284017478, -59846.728723851294, -17378.05663085659, -6639.764504404606, -26099.036764983746, -0.188, 0.924, 0.278, 192.0, 0.0, 0.0, 0.0, 0.0, 0.0, 0.0, 0.0, 0.0, 0.0, 1.700950517352084E9, 0.0, 2023-11-25 17:15:17.352
69.0, 28739.06835783343, 38015.19876899705, -46786.000941515085, -42038.57982618568, -59844.38179068349, -17367.52895921814, -6369.621320917764, -26142.868535860605, -0.188, 0.924, 0.278, 192.0, 0.0, 0.0, 0.0, 0.0, 0.0, 0.0, 0.0, 0.0, 0.0, 1.700950517356108E9, 0.0, 2023-11-25 17:15:17.356
70.0, 28676.394066380748, 37945.08134664075, -46813.4488837062, -42085.47378605292, -59898.69652970989, -17446.900003778937, -6428.384057090767, -26184.59924275866, -0.188, 0.924, 0.278, 192.0, 0.0, 0.0, 0.0, 0.0, 0.0, 0.0, 0.0, 0.0, 0.0, 1.700950517359087E9, 0.0, 2023-11-25 17:15:17.359
71.0, 28693.6719648447, 38007.37565843769, -46797.98147654313, -42045.97825360039, -59893.66738720744, -17417.12748016447, -6543.964927669159, -26147.674160918494, -0.188, 0.924, 0.278, 192.0, 0.0, 0.0, 0.0, 0.0, 0.0, 0.0, 0.0, 0.0, 0.0, 1.700950517363153E9, 0.0, 2023-11-25 17:15:17.363
72.0, 28749.618381216336, 38081.650505262674, -46752.45097308767, -41992.19995644092, -59853.21072974333, -17378.347203534508, -6634.9141758578035, -26097.852122527616, -0.188, 0.924, 0.278, 192.0, 0.0, 0.0, 0.0, 0.0, 0.0, 0.0, 0.0, 0.0, 0.0, 1.700950517367177E9, 0.0, 2023-11-25 17:15:17.367
73.0, 28753.149956840272, 38037.66227217463, -46775.89795302129, -42019.64789863204, -59832.6247731, -17348.708790386772, -6377.600893688309, -26131.2679804883, -0.188, 0.924, 0.278, 192.0, 0.0, 0.0, 0.0, 0.0, 0.0, 0.0, 0.0, 0.0, 0.0, 1.700950517371144E9, 0.0, 2023-11-25 17:15:17.371
74.0, 28671.119054689298, 37940.25336983841, -46826.301136768, -42094.459187323955, -59906.94432341389, -17448.151701468432, -6376.148030298714, -26180.620632245616, -0.188, 0.924, 0.278, 192.0, 0.0, 0.0, 0.0, 0.0, 0.0, 0.0, 0.0, 0.0, 0.0, 1.700950517375192E9, 0.0, 2023-11-25 17:15:17.375
75.0, 28686.564110107913, 37999.68665834507, -46808.62090690385, -42058.00349211735, -59902.83160243412, -17430.851451260027, -6511.353732508866, -26158.291239534767, -0.188, 0.924, 0.278, 192.0, 0.0, 0.0, 0.0, 0.0, 0.0, 0.0, 0.0, 0.0, 0.0, 1.700950517379162E9, 0.0, 2023-11-25 17:15:17.379
76.0, 28742.845802646378, 38090.3900373447, -46758.105964434864, -41996.78206405426, -59863.090200792576, -17400.2072096118, -6645.59830970744, -26118.25926521531, -0.188, 0.924, 0.278, 192.0, 0.0, 0.0, 0.0, 0.0, 0.0, 0.0, 0.0, 0.0, 0.0, 1.700950517384191E9, 0.0, 2023-11-25 17:15:17.384
77.0, 28758.424968531726, 38064.84199343229, -46768.27600816203, -42008.36026768211, -59832.58006961108, -17360.57756669254, -6423.8913564552495, -26144.947248094948, -0.186, 0.936, 0.28400000000000003, 192.0, 250.0, 48.0, 29.0, 64.0, 8.0, 224.0, 0.0, 0.0, 0.0, 1.700950517388171E9, 0.0, 2023-11-25 17:15:17.388
78.0, 28689.179264209186, 37963.49918407192, -46815.92992734074, -42082.90333544056, -59895.81315467515, -17449.693971835848, -6367.028518560948, -26188.734315482896, -0.186, 0.936, 0.28400000000000003, 192.0, 0.0, 0.0, 0.0, 0.0, 0.0, 0.0, 0.0, 0.0, 0.0, 1.700950517391227E9, 0.0, 2023-11-25 17:15:17.391
79.0, 28683.367810650805, 37991.550623363335, -46818.142750041814, -42066.698320710464, -59910.92293392694, -17453.69493409335, -6494.768738123029, -26178.13958861108, -0.186, 0.936, 0.28400000000000003, 192.0, 0.0, 0.0, 0.0, 0.0, 0.0, 0.0, 0.0, 0.0, 0.0, 1.700950517395243E9, 0.0, 2023-11-25 17:15:17.395
80.0, 28734.68741592019, 38082.1869471296, -46777.037891988504, -42010.39427642754, -59882.603273702065, -17430.225602415278, -6650.202769065234, -26119.823887327184, -0.186, 0.936, 0.28400000000000003, 192.0, 0.0, 0.0, 0.0, 0.0, 0.0, 0.0, 0.0, 0.0, 0.0, 1.700950517399203E9, 0.0, 2023-11-25 17:15:17.399
81.0, 28785.939965956208, 38103.66697355115, -46754.90966497775, -41984.26508715929, -59821.73947355026, -17363.81856963856, -6495.7969183679725, -26117.968692537394, -0.186, 0.936, 0.28400000000000003, 192.0, 0.0, 0.0, 0.0, 0.0, 0.0, 0.0, 0.0, 0.0, 0.0, 1.700950517403781E9, 0.0, 2023-11-25 17:15:17.403
82.0, 28728.20541002815, 38009.61083288322, -46803.815281845964, -42059.99279737387, -59871.11447705203, -17440.887384520458, -6364.480419693044, -26196.55742604225, -0.186, 0.936, 0.28400000000000003, 192.0, 0.0, 0.0, 0.0, 0.0, 0.0, 0.0, 0.0, 0.0, 0.0, 1.700950517407261E9, 0.0, 2023-11-25 17:15:17.407
83.0, 28715.710784877636, 38018.596234154254, -46800.90955506678, -42047.52052396781, -59885.397241758976, -17451.906794536924, -6494.634627656296, -26190.701268994962, -0.186, 0.936, 0.28400000000000003, 192.0, 0.0, 0.0, 0.0, 0.0, 0.0, 0.0, 0.0, 0.0, 0.0, 1.700950517412275E9, 0.0, 2023-11-25 17:15:17.412
84.0, 28750.69126495019, 38100.87300549424, -46772.05345297497, -41998.4137413995, -59870.46627646283, -17428.571573325586, -6641.9549753612255, -26144.41080622802, -0.186, 0.936, 0.28400000000000003, 192.0, 0.0, 0.0, 0.0, 0.0, 0.0, 0.0, 0.0, 0.0, 0.0, 1.700950517415335E9, 0.0, 2023-11-25 17:15:17.415
85.0, 28795.46180909417, 38130.01968026396, -46744.7843247395, -41966.383691595045, -59814.229287413276, -17360.689325414816, -6551.452762061687, -26110.614968611597, -0.186, 0.936, 0.28400000000000003, 192.0, 0.0, 0.0, 0.0, 0.0, 0.0, 0.0, 0.0, 0.0, 0.0, 1.70095051741926E9, 0.0, 2023-11-25 17:15:17.419
86.0, 28733.368662997327, 38023.29010048987, -46804.75405511309, -42048.593407701665, -59858.84336934607, -17416.993369697735, -6347.761314840474, -26177.200815343956, -0.186, 0.936, 0.28400000000000003, 192.0, 0.0, 0.0, 0.0, 0.0, 0.0, 0.0, 0.0, 0.0, 0.0, 1.700950517424285E9, 0.0, 2023-11-25 17:15:17.424
87.0, 28702.836180071376, 38005.587518881264, -46808.866776092866, -42054.047233348756, -59887.00656735976, -17454.991335271756, -6471.299406444956, -26184.062800891734, -0.182, 0.934, 0.28800000000000003, 192.0, 250.0, 80.0, 29.0, 48.0, 9.0, 0.0, 0.0, 0.0, 0.0, 1.700950517427295E9, 0.0, 2023-11-25 17:15:17.427
88.0, 28736.788479898987, 38082.67868550762, -46782.67053159124, -42004.35930542461, -59874.40018348696, -17425.643494801938, -6614.59644014793, -26140.298085248243, -0.182, 0.934, 0.28800000000000003, 192.0, 0.0, 0.0, 0.0, 0.0, 0.0, 0.0, 0.0, 0.0, 0.0, 1.700950517431459E9, 0.0, 2023-11-25 17:15:17.431
89.0, 28793.83013174893, 38133.97593903255, -46744.270234617026, -41960.102851403106, -59819.72781654928, -17366.746648162203, -6601.118338241379, -26109.519733133286, -0.182, 0.934, 0.28800000000000003, 192.0, 0.0, 0.0, 0.0, 0.0, 0.0, 0.0, 0.0, 0.0, 0.0, 1.700950517437349E9, 0.0, 2023-11-25 17:15:17.437
90.0, 28754.088730107396, 38048.12288857972, -46798.0485317765, -42029.303852236735, -59844.89588080596, -17393.166410108377, -6351.225835231046, -26167.94719313946, -0.182, 0.934, 0.28800000000000003, 192.0, 0.0, 0.0, 0.0, 0.0, 0.0, 0.0, 0.0, 0.0, 0.0, 1.700950517440346E9, 0.0, 2023-11-25 17:15:17.440
91.0, 28709.429944685693, 38005.85573981473, -46809.917308082266, -42054.829544404696, -59885.4866487368, -17447.414093901407, -6443.13620843127, -26159.65469594654, -0.182, 0.934, 0.28800000000000003, 192.0, 0.0, 0.0, 0.0, 0.0, 0.0, 0.0, 0.0, 0.0, 0.0, 1.700950517443513E9, 0.0, 2023-11-25 17:15:17.443
92.0, 28732.6310554303, 38075.74964472648, -46788.660799105266, -42014.30583170722, -59877.03768933269, -17422.514250578195, -6572.172829171757, -26132.78789911126, -0.182, 0.934, 0.28800000000000003, 192.0, 0.0, 0.0, 0.0, 0.0, 0.0, 0.0, 0.0, 0.0, 0.0, 1.700950517447394E9, 0.0, 2023-11-25 17:15:17.447
93.0, 28788.823340990944, 38140.07796526885, -46739.30814734795, -41961.3545490926, -59823.08057821758, -17374.81562791057, -6629.996792077636, -26103.194189452435, -0.182, 0.934, 0.28800000000000003, 192.0, 0.0, 0.0, 0.0, 0.0, 0.0, 0.0, 0.0, 0.0, 0.0, 1.700950517452529E9, 0.0, 2023-11-25 17:15:17.452
94.0, 28768.438550047704, 38067.50185102247, -46777.68609257771, -42009.05317176023, -59822.03004622818, -17367.77482840715, -6356.254977733491, -26151.809233642725, -0.182, 0.934, 0.28800000000000003, 192.0, 0.0, 0.0, 0.0, 0.0, 0.0, 0.0, 0.0, 0.0, 0.0, 1.700950517455482E9, 0.0, 2023-11-25 17:15:17.455
95.0, 28701.182150981684, 37988.62254483969, -46805.04462779101, -42061.42330901901, -59877.30591026616, -17450.20806195832, -6407.731045214063, -26177.111408366134, -0.182, 0.934, 0.28800000000000003, 192.0, 0.0, 0.0, 0.0, 0.0, 0.0, 0.0, 0.0, 0.0, 0.0, 1.70095051745945E9, 0.0, 2023-11-25 17:15:17.459
96.0, 28712.40272669825, 38048.41346125764, -46790.73951133961, -42027.09102953566, -59877.0823928216, -17430.426768115376, -6534.688953720207, -26153.84324238816, -0.182, 0.934, 0.28800000000000003, 192.0, 0.0, 0.0, 0.0, 0.0, 0.0, 0.0, 0.0, 0.0, 0.0, 1.700950517463636E9, 0.0, 2023-11-25 17:15:17.463
97.0, 28769.26556459255, 38131.293729697914, -46738.21291186964, -41968.01536894028, -59833.36238066702, -17390.998290896212, -6637.395219492343, -26102.121305718578, -0.19, 0.9420000000000001, 0.28200000000000003, 192.0, 250.0, 16.0, 29.0, 112.0, 8.0, 208.0, 0.0, 0.0, 0.0, 1.700950517467457E9, 0.0, 2023-11-25 17:15:17.467
98.0, 28770.69607623769, 38086.65729602067, -46761.68224354771, -41998.681962332965, -59817.13501419247, -17361.62809868194, -6375.790402387429, -26135.60421891263, -0.19, 0.9420000000000001, 0.28200000000000003, 192.0, 0.0, 0.0, 0.0, 0.0, 0.0, 0.0, 0.0, 0.0, 0.0, 1.700950517471487E9, 0.0, 2023-11-25 17:15:17.471
99.0, 28686.698220574646, 37982.63227732567, -46814.0523808065, -42081.316361584235, -59895.27671280822, -17464.624937131994, -6371.4541639631, -26190.18717887249, -0.19, 0.9420000000000001, 0.28200000000000003, 192.0, 0.0, 0.0, 0.0, 0.0, 0.0, 0.0, 0.0, 0.0, 0.0, 1.700950517474461E9, 0.0, 2023-11-25 17:15:17.474
100.0, 28690.319203176405, 38026.62051041371, -46806.38573245832, -42058.249361306356, -59902.76454720075, -17454.07491374909, -6507.397473740277, -26178.51956826682, -0.19, 0.9420000000000001, 0.28200000000000003, 192.0, 0.0, 0.0, 0.0, 0.0, 0.0, 0.0, 0.0, 0.0, 0.0, 1.700950517479473E9, 0.0, 2023-11-25 17:15:17.479
101.0, 28750.132471338806, 38114.28405216742, -46753.05447018796, -41995.396255898035, -59863.716049637325, -17418.98267495426, -6649.1745888202895, -26126.015320541304, -0.19, 0.9420000000000001, 0.28200000000000003, 192.0, 0.0, 0.0, 0.0, 0.0, 0.0, 0.0, 0.0, 0.0, 0.0, 1.700950517483513E9, 0.0, 2023-11-25 17:15:17.483
102.0, 28775.814625717954, 38094.100426924284, -46755.13318242231, -41997.65378208802, -59825.494566618756, -17367.48425572923, -6433.636717037763, -26148.65763767453, -0.19, 0.9420000000000001, 0.28200000000000003, 192.0, 0.0, 0.0, 0.0, 0.0, 0.0, 0.0, 0.0, 0.0, 0.0, 1.70095051748751E9, 0.0, 2023-11-25 17:15:17.487
103.0, 28705.138409750274, 37990.96947800749, -46804.64229639081, -42071.36983530162, -59886.76069817075, -17450.811559058617, -6355.472666677555, -26181.872329935115, -0.19, 0.9420000000000001, 0.28200000000000003, 192.0, 0.0, 0.0, 0.0, 0.0, 0.0, 0.0, 0.0, 0.0, 0.0, 1.700950517492355E9, 0.0, 2023-11-25 17:15:17.492
104.0, 28701.226854470595, 38019.73617312148, -46802.138901011815, -42050.538009469274, -59896.46135526435, -17444.68718107786, -6486.498592674565, -26164.66148670453, -0.19, 0.9420000000000001, 0.28200000000000003, 192.0, 0.0, 0.0, 0.0, 0.0, 0.0, 0.0, 0.0, 0.0, 0.0, 1.700950517495501E9, 0.0, 2023-11-25 17:15:17.495
105.0, 28749.283105049504, 38109.12079919825, -46762.6880720482, -41993.138729708044, -59868.85695086205, -17419.764986010192, -6646.31356553001, -26124.093070518145, -0.19, 0.9420000000000001, 0.28200000000000003, 192.0, 0.0, 0.0, 0.0, 0.0, 0.0, 0.0, 0.0, 0.0, 0.0, 1.700950517499556E9, 0.0, 2023-11-25 17:15:17.499
106.0, 28792.310213125973, 38123.045935993905, -46746.34894685137, -41969.669398029975, -59812.687017045864, -17354.699057900794, -6496.579229423908, -26133.614913656107, -0.19, 0.9420000000000001, 0.28200000000000003, 192.0, 0.0, 0.0, 0.0, 0.0, 0.0, 0.0, 0.0, 0.0, 0.0, 1.700950517502586E9, 0.0, 2023-11-25 17:15:17.502
107.0, 28724.070337303918, 38012.76242885142, -46810.543156927015, -42056.5282769833, -59873.95314859786, -17439.412169386407, -6358.311338223379, -26227.76046130186, -0.182, 0.934, 0.28, 192.0, 250.0, 80.0, 29.0, 48.0, 8.0, 192.0, 0.0, 0.0, 0.0, 1.700950517508576E9, 0.0, 2023-11-25 17:15:17.508
108.0, 28712.603892398347, 38018.23860624297, -46806.36338071387, -42042.82665763219, -59887.40889875995, -17445.40243690043, -6483.145831006269, -26176.887890921582, -0.182, 0.934, 0.28, 192.0, 0.0, 0.0, 0.0, 0.0, 0.0, 0.0, 0.0, 0.0, 0.0, 1.700950517511645E9, 0.0, 2023-11-25 17:15:17.511
109.0, 28758.559078998456, 38106.17036893015, -46769.23713317361, -41987.55079359422, -59863.313718237136, -17413.84177372954, -6630.399123477831, -26103.484762130352, -0.182, 0.934, 0.28, 192.0, 0.0, 0.0, 0.0, 0.0, 0.0, 0.0, 0.0, 0.0, 0.0, 1.700950517515618E9, 0.0, 2023-11-25 17:15:17.515
110.0, 28809.565759845467, 38141.46377342508, -46740.64925201527, -41957.26417985728, -59806.69674953184, -17354.140264289414, -6548.39057307131, -26099.886131273048, -0.182, 0.934, 0.28, 192.0, 0.0, 0.0, 0.0, 0.0, 0.0, 0.0, 0.0, 0.0, 0.0, 1.700950517520655E9, 0.0, 2023-11-25 17:15:17.520
111.0, 28754.692227207688, 38047.09470833477, -46793.8464038189, -42031.42726795999, -59843.308906949635, -17404.029357913656, -6343.849759560795, -26170.0259053738, -0.182, 0.934, 0.28, 192.0, 0.0, 0.0, 0.0, 0.0, 0.0, 0.0, 0.0, 0.0, 0.0, 1.70095051752591E9, 0.0, 2023-11-25 17:15:17.525
112.0, 28710.30166271945, 38017.63510914268, -46807.324505725446, -42048.36989025711, -59881.66450043494, -17446.184747956366, -6457.821304538406, -26164.817948915716, -0.182, 0.934, 0.28, 192.0, 0.0, 0.0, 0.0, 0.0, 0.0, 0.0, 0.0, 0.0, 0.0, 1.700950517528916E9, 0.0, 2023-11-25 17:15:17.528
113.0, 28742.26465729054, 38096.17913915862, -46775.160345454264, -41997.60907859911, -59864.58776767109, -17420.949628466326, -6602.392387675332, -26122.953131550927, -0.182, 0.934, 0.28, 192.0, 0.0, 0.0, 0.0, 0.0, 0.0, 0.0, 0.0, 0.0, 0.0, 1.700950517531701E9, 0.0, 2023-11-25 17:15:17.531
114.0, 28796.489989339116, 38144.25774148199, -46735.530702535, -41954.02317691126, -59810.67536004489, -17369.29474703011, -6598.033797506547, -26104.803515053216, -0.182, 0.934, 0.28, 192.0, 0.0, 0.0, 0.0, 0.0, 0.0, 0.0, 0.0, 0.0, 0.0, 1.700950517535725E9, 0.0, 2023-11-25 17:15:17.535
115.0, 28757.46384352015, 38055.96835088353, -46785.95623802617, -42021.324279466186, -59832.75888356673, -17390.417145540374, -6343.805056071885, -26168.438931517474, -0.182, 0.934, 0.28, 192.0, 0.0, 0.0, 0.0, 0.0, 0.0, 0.0, 0.0, 0.0, 0.0, 1.700950517539719E9, 0.0, 2023-11-25 17:15:17.539
116.0, 28705.227816728097, 38002.79355082435, -46799.88137482183, -42053.823715904204, -59876.63535793249, -17457.695896350848, -6438.777618262484, -26186.342678826175, -0.182, 0.934, 0.28, 192.0, 0.0, 0.0, 0.0, 0.0, 0.0, 0.0, 0.0, 0.0, 0.0, 1.700950517543792E9, 0.0, 2023-11-25 17:15:17.543
117.0, 28732.02755833001, 38080.197641873085, -46771.58406634141, -42004.7169333359, -59860.11741878002, -17427.40928261391, -6567.255445391589, -26143.024998071793, -0.186, 0.934, 0.276, 192.0, 250.0, 48.0, 29.0, 48.0, 8.0, 160.0, 0.0, 0.0, 0.0, 1.70095051754774E9, 0.0, 2023-11-25 17:15:17.547
118.0, 28795.059477693976, 38156.93118058815, -46715.34707729186, -41942.53438026123, -59800.952351206826, -17374.77092442166, -6626.8675478538935, -26099.37204115058, -0.186, 0.934, 0.276, 192.0, 0.0, 0.0, 0.0, 0.0, 0.0, 0.0, 0.0, 0.0, 0.0, 1.700950517551714E9, 0.0, 2023-11-25 17:15:17.551
119.0, 28778.385076330316, 38100.44832234959, -46746.281891618004, -41980.68880804644, -59792.346929591535, -17357.96241259127, -6349.169474741158, -26142.08622480467, -0.186, 0.934, 0.276, 192.0, 0.0, 0.0, 0.0, 0.0, 0.0, 0.0, 0.0, 0.0, 0.0, 1.700950517554825E9, 0.0, 2023-11-25 17:15:17.554
120.0, 28700.8245230704, 38015.735210863975, -46782.73758682461, -42039.429192474985, -59857.502264678755, -17442.45200663233, -6386.720405426074, -26163.767416926315, -0.186, 0.934, 0.276, 192.0, 0.0, 0.0, 0.0, 0.0, 0.0, 0.0, 0.0, 0.0, 0.0, 1.700950517558794E9, 0.0, 2023-11-25 17:15:17.558
121.0, 28714.414383699226, 38073.894449936684, -46767.49369710609, -42002.0123722568, -59854.127151266, -17417.10512842001, -6512.471319731631, -26130.396262454542, -0.186, 0.934, 0.276, 192.0, 0.0, 0.0, 0.0, 0.0, 0.0, 0.0, 0.0, 0.0, 0.0, 1.70095051756293E9, 0.0, 2023-11-25 17:15:17.562
122.0, 28759.07316912093, 38140.592055391324, -46726.63470824179, -41955.63250251204, -59823.1699851954, -17392.02647114116, -6628.990963577147, -26107.17279996548, -0.186, 0.934, 0.276, 192.0, 0.0, 0.0, 0.0, 0.0, 0.0, 0.0, 0.0, 0.0, 0.0, 1.700950517566804E9, 0.0, 2023-11-25 17:15:17.566
123.0, 28760.34721855488, 38095.24036589151, -46743.46557181663, -41981.53817433574, -59800.43826108435, -17355.43666546782, -6374.538704697932, -26128.831640342672, -0.186, 0.934, 0.276, 192.0, 0.0, 0.0, 0.0, 0.0, 0.0, 0.0, 0.0, 0.0, 0.0, 1.700950517571843E9, 0.0, 2023-11-25 17:15:17.571
124.0, 28687.257014186027, 38002.07829500178, -46777.97666525563, -42049.80040190225, -59861.9279100809, -17444.664829333404, -6359.898312079706, -26165.600259971652, -0.186, 0.934, 0.276, 192.0, 0.0, 0.0, 0.0, 0.0, 0.0, 0.0, 0.0, 0.0, 0.0, 1.700950517575795E9, 0.0, 2023-11-25 17:15:17.575
125.0, 28692.576729366392, 38043.54078096638, -46766.420813372235, -42022.28540447776, -59866.152389782954, -17430.985561726757, -6490.365444465333, -26154.55849821073, -0.186, 0.934, 0.276, 192.0, 0.0, 0.0, 0.0, 0.0, 0.0, 0.0, 0.0, 0.0, 0.0, 1.700950517579792E9, 0.0, 2023-11-25 17:15:17.579
126.0, 28739.716558422635, 38126.3986976622, -46728.35579256485, -41972.3069038757, -59839.687924347876, -17410.958398694802, -6636.031763080569, -26122.819021084193, -0.186, 0.934, 0.276, 192.0, 0.0, 0.0, 0.0, 0.0, 0.0, 0.0, 0.0, 0.0, 0.0, 1.700950517583816E9, 0.0, 2023-11-25 17:15:17.583
127.0, 28764.41523604575, 38113.83701727832, -46733.74256297858, -41974.98911321034, -59801.0641099291, -17357.87300561345, -6427.266469868001, -26125.814154841206, -0.192, 0.936, 0.276, 192.0, 250.0, 0.0, 29.0, 64.0, 8.0, 160.0, 0.0, 0.0, 0.0, 1.700950517586804E9, 0.0, 2023-11-25 17:15:17.586
128.0, 28699.371659680804, 38021.56901616681, -46779.02719724503, -42049.08514607968, -59854.641241388475, -17440.440349631353, -6345.682602606131, -26173.021039130814, -0.192, 0.936, 0.276, 192.0, 0.0, 0.0, 0.0, 0.0, 0.0, 0.0, 0.0, 0.0, 0.0, 1.700950517590828E9, 0.0, 2023-11-25 17:15:17.590
129.0, 28688.419304897703, 38044.70307167805, -46780.54711586799, -42036.85874186263, -59868.678136906405, -17447.838777046058, -6486.789165352484, -26171.568175741217, -0.192, 0.936, 0.276, 192.0, 0.0, 0.0, 0.0, 0.0, 0.0, 0.0, 0.0, 0.0, 0.0, 1.700950517594843E9, 0.0, 2023-11-25 17:15:17.594
130.0, 28736.386148498794, 38132.277206453946, -46740.828065970905, -41980.55469757971, -59841.74428483776, -17423.25185814522, -6647.319394030499, -26124.36129145161, -0.192, 0.936, 0.276, 192.0, 0.0, 0.0, 0.0, 0.0, 0.0, 0.0, 0.0, 0.0, 0.0, 1.700950517600868E9, 0.0, 2023-11-25 17:15:17.600
131.0, 28772.50656753857, 38140.0556135244, -46732.62497575581, -41967.903610218, -59795.65498777092, -17367.77482840715, -6507.352770251367, -26135.17953576798, -0.192, 0.936, 0.276, 192.0, 0.0, 0.0, 0.0, 0.0, 0.0, 0.0, 0.0, 0.0, 0.0, 1.700950517603927E9, 0.0, 2023-11-25 17:15:17.603
132.0, 28709.049965029953, 38040.05390883135, -46788.88431654982, -42048.660462935026, -59848.047476774154, -17443.904870021925, -6358.02076554546, -26204.55935055725, -0.192, 0.936, 0.276, 192.0, 0.0, 0.0, 0.0, 0.0, 0.0, 0.0, 0.0, 0.0, 0.0, 1.700950517606878E9, 0.0, 2023-11-25 17:15:17.606
133.0, 28679.478607115583, 38036.567036696324, -46798.67438062124, -42049.68864317997, -59877.641186432986, -17466.681297621883, -6485.3810054518, -26190.2318823614, -0.192, 0.936, 0.276, 192.0, 0.0, 0.0, 0.0, 0.0, 0.0, 0.0, 0.0, 0.0, 0.0, 1.700950517610892E9, 0.0, 2023-11-25 17:15:17.610
134.0, 28716.224875000105, 38123.49297088301, -46765.03500521601, -41996.245622187336, -59859.46921819082, -17441.267364176198, -6638.803379393027, -26146.087187062167, -0.192, 0.936, 0.276, 192.0, 0.0, 0.0, 0.0, 0.0, 0.0, 0.0, 0.0, 0.0, 0.0, 1.700950517614908E9, 0.0, 2023-11-25 17:15:17.614
135.0, 28758.536727254002, 38157.40056722171, -46741.8338944714, -41966.98718869534, -59810.585953067064, -17379.420087268365, -6566.540189569019, -26116.58288438116, -0.192, 0.936, 0.276, 192.0, 0.0, 0.0, 0.0, 0.0, 0.0, 0.0, 0.0, 0.0, 0.0, 1.700950517618981E9, 0.0, 2023-11-25 17:15:17.618
136.0, 28699.617528869814, 38054.20256307156, -46805.6481248913, -42051.253265291845, -59855.84823558906, -17438.182823441366, -6356.456143433588, -26198.926710954514, -0.192, 0.936, 0.276, 192.0, 0.0, 0.0, 0.0, 0.0, 0.0, 0.0, 0.0, 0.0, 0.0, 1.700950517622929E9, 0.0, 2023-11-25 17:15:17.622
137.0, 28656.72453126008, 38023.983004567985, -46814.20884301768, -42067.14535559957, -59891.36515752854, -17484.13801004148, -6472.752269834551, -26204.671109279527, -0.19, 0.934, 0.28200000000000003, 192.0, 250.0, 16.0, 29.0, 48.0, 8.0, 208.0, 0.0, 0.0, 0.0, 1.700950517627956E9, 0.0, 2023-11-25 17:15:17.627
138.0, 28680.372676893792, 38094.815682746856, -46786.53738338201, -42021.12311376609, -59876.74711665477, -17453.82904456008, -6610.282553468055, -26155.161995311024, -0.19, 0.934, 0.28200000000000003, 192.0, 0.0, 0.0, 0.0, 0.0, 0.0, 0.0, 0.0, 0.0, 0.0, 1.700950517631942E9, 0.0, 2023-11-25 17:15:17.631
139.0, 28743.87398289132, 38152.46083169709, -46734.81544671243, -41966.29428461722, -59815.70450254733, -17387.91375016138, -6618.284477983056, -26108.536256377254, -0.19, 0.934, 0.28200000000000003, 192.0, 0.0, 0.0, 0.0, 0.0, 0.0, 0.0, 0.0, 0.0, 0.0, 1.700950517634962E9, 0.0, 2023-11-25 17:15:17.634
140.0, 28714.794363354966, 38070.742853968484, -46778.15547921127, -42026.33107022418, -59829.78610155417, -17401.324796834564, -6352.343422453812, -26162.202794814446, -0.19, 0.934, 0.28200000000000003, 192.0, 0.0, 0.0, 0.0, 0.0, 0.0, 0.0, 0.0, 0.0, 0.0, 1.700950517639039E9, 0.0, 2023-11-25 17:15:17.639
141.0, 28651.695388757635, 38000.58072812328, -46803.03297079003, -42072.934457413496, -59884.65963419195, -17475.242015748267, -6433.189682148658, -26184.66629799203, -0.19, 0.934, 0.28200000000000003, 192.0, 0.0, 0.0, 0.0, 0.0, 0.0, 0.0, 0.0, 0.0, 0.0, 1.700950517642976E9, 0.0, 2023-11-25 17:15:17.642
142.0, 28667.319258131894, 38065.42313878812, -46785.12922348133, -42032.790724371764, -59878.959939355846, -17448.59873635754, -6564.595587801407, -26148.054140574237, -0.19, 0.934, 0.28200000000000003, 192.0, 0.0, 0.0, 0.0, 0.0, 0.0, 0.0, 0.0, 0.0, 0.0, 1.700950517646973E9, 0.0, 2023-11-25 17:15:17.646
143.0, 28730.440584473683, 38140.525000157955, -46730.546263521464, -41969.84821198562, -59822.79000553966, -17396.005081654203, -6637.484626470164, -26100.15435220651, -0.19, 0.934, 0.28200000000000003, 192.0, 0.0, 0.0, 0.0, 0.0, 0.0, 0.0, 0.0, 0.0, 0.0, 1.700950517650973E9, 0.0, 2023-11-25 17:15:17.650
144.0, 28722.639825658778, 38084.176252386125, -46762.59866507038, -42011.042477016745, -59817.40323512593, -17384.784505937638, -6365.977986571549, -26162.314553536722, -0.19, 0.934, 0.28200000000000003, 192.0, 0.0, 0.0, 0.0, 0.0, 0.0, 0.0, 0.0, 0.0, 0.0, 1.700950517654992E9, 0.0, 2023-11-25 17:15:17.654
145.0, 28651.449519568625, 38005.587518881264, -46798.33910445441, -42074.744948714375, -59885.888980136995, -17479.55590242814, -6402.254867822513, -26206.347490113676, -0.19, 0.934, 0.28200000000000003, 192.0, 0.0, 0.0, 0.0, 0.0, 0.0, 0.0, 0.0, 0.0, 0.0, 1.700950517660071E9, 0.0, 2023-11-25 17:15:17.660
146.0, 28653.148252147228, 38053.46495550453, -46794.40519743028, -42051.7226519254, -59896.46135526435, -17466.16720749941, -6530.57623274043, -26174.719771709417, -0.19, 0.934, 0.28200000000000003, 192.0, 0.0, 0.0, 0.0, 0.0, 0.0, 0.0, 0.0, 0.0, 0.0, 1.700950517664161E9, 0.0, 2023-11-25 17:15:17.664
147.0, 28710.502828419547, 38133.88653205473, -46742.12446714932, -41992.35641865211, -59852.540177409675, -17428.929201236868, -6655.254263312133, -26126.775279852784, -0.184, 0.932, 0.276, 192.0, 250.0, 64.0, 29.0, 32.0, 8.0, 160.0, 0.0, 0.0, 0.0, 1.700950517668196E9, 0.0, 2023-11-25 17:15:17.668
148.0, 28708.312357462928, 38085.49500530899, -46768.27600816203, -42022.64303238905, -59835.28463069018, -17402.978825924256, -6411.664952238197, -26189.80719921675, -0.184, 0.932, 0.276, 192.0, 0.0, 0.0, 0.0, 0.0, 0.0, 0.0, 0.0, 0.0, 0.0, 1.700950517672098E9, 0.0, 2023-11-25 17:15:17.672
149.0, 28626.34851054532, 37980.575916835776, -46821.31669775447, -42100.80708274926, -59905.96084665786, -17502.22057130582, -6393.113004340292, -26235.315350927754, -0.184, 0.932, 0.276, 192.0, 0.0, 0.0, 0.0, 0.0, 0.0, 0.0, 0.0, 0.0, 0.0, 1.700950517676172E9, 0.0, 2023-11-25 17:15:17.676
150.0, 28628.58368499085, 38024.18417026808, -46814.2982499955, -42069.93932365648, -59907.90544842547, -17477.857169849536, -6522.998991370081, -26174.540957753776, -0.184, 0.932, 0.276, 192.0, 0.0, 0.0, 0.0, 0.0, 0.0, 0.0, 0.0, 0.0, 0.0, 1.700950517680107E9, 0.0, 2023-11-25 17:15:17.680
151.0, 28682.853720528332, 38114.105238211785, -46765.862019760854, -42009.299040949234, -59872.83556137509, -17447.011762501214, -6668.9558826632365, -26121.41086118351, -0.184, 0.932, 0.276, 192.0, 0.0, 0.0, 0.0, 0.0, 0.0, 0.0, 0.0, 0.0, 0.0, 1.700950517685143E9, 0.0, 2023-11-25 17:15:17.685
152.0, 28714.570845910413, 38104.941022985106, -46764.453859860165, -42006.19214846995, -59829.22730794279, -17391.62413974096, -6470.718261089118, -26140.722768392894, -0.184, 0.932, 0.276, 192.0, 0.0, 0.0, 0.0, 0.0, 0.0, 0.0, 0.0, 0.0, 0.0, 1.700950517689148E9, 0.0, 2023-11-25 17:15:17.689
153.0, 28638.261990339994, 37993.07054198629, -46825.295308267516, -42092.00049543387, -59895.50023025277, -17487.021385076212, -6387.212143804091, -26221.52432459883, -0.184, 0.932, 0.276, 192.0, 0.0, 0.0, 0.0, 0.0, 0.0, 0.0, 0.0, 0.0, 0.0, 1.700950517692123E9, 0.0, 2023-11-25 17:15:17.692
154.0, 28627.57785649036, 38011.91306256212, -46824.8035698895, -42074.49907952536, -59907.30195132518, -17485.769687386713, -6519.534470979509, -26183.928690425004, -0.184, 0.932, 0.276, 192.0, 0.0, 0.0, 0.0, 0.0, 0.0, 0.0, 0.0, 0.0, 0.0, 1.70095051769513E9, 0.0, 2023-11-25 17:15:17.695
155.0, 28675.29883090244, 38099.10721768227, -46786.80560431547, -42018.19503524245, -59882.02212834622, -17458.07587600659, -6670.900484430848, -26127.199962997434, -0.184, 0.932, 0.276, 192.0, 0.0, 0.0, 0.0, 0.0, 0.0, 0.0, 0.0, 0.0, 0.0, 1.700950517699148E9, 0.0, 2023-11-25 17:15:17.699
156.0, 28728.8312588729, 38125.61638660626, -46759.17884816872, -41986.56731683818, -59822.45472937283, -17390.01481414018, -6544.344907324899, -26131.469146188396, -0.184, 0.932, 0.276, 192.0, 0.0, 0.0, 0.0, 0.0, 0.0, 0.0, 0.0, 0.0, 0.0, 1.700950517703137E9, 0.0, 2023-11-25 17:15:17.703
157.0, 28649.370807334282, 38007.196844482045, -46830.83854089243, -42079.95290517246, -59887.94534062688, -17464.26730922071, -6366.849704605306, -26198.94906269897, -0.182, 0.932, 0.276, 192.0, 250.0, 80.0, 29.0, 32.0, 8.0, 160.0, 0.0, 0.0, 0.0, 1.700950517707193E9, 0.0, 2023-11-25 17:15:17.707
158.0, 28616.08905984033, 37995.03749549836, -46839.756886930096, -42086.45726280895, -59918.61193401956, -17498.063146837136, -6504.670560916729, -26195.0822109082, -0.182, 0.932, 0.276, 192.0, 0.0, 0.0, 0.0, 0.0, 0.0, 0.0, 0.0, 0.0, 0.0, 1.700950517711317E9, 0.0, 2023-11-25 17:15:17.711
159.0, 28664.122958674787, 38087.8419384768, -46792.75116834059, -42024.609985901116, -59887.632416204506, -17466.480131921784, -6655.544835990052, -26145.21546902841, -0.182, 0.932, 0.276, 192.0, 0.0, 0.0, 0.0, 0.0, 0.0, 0.0, 0.0, 0.0, 0.0, 1.70095051771522E9, 0.0, 2023-11-25 17:15:17.715
160.0, 28723.35508148135, 38132.21015122058, -46749.72406026412, -41981.94050573594, -59824.13111020698, -17398.888456688936, -6598.078500995458, -26126.015320541304, -0.182, 0.932, 0.276, 192.0, 0.0, 0.0, 0.0, 0.0, 0.0, 0.0, 0.0, 0.0, 0.0, 1.700950517719494E9, 0.0, 2023-11-25 17:15:17.719
161.0, 28664.033551696964, 38025.927606335594, -46811.571337171954, -42065.781899187794, -59866.66647990543, -17449.425750902385, -6370.090707551326, -26204.76051625735, -0.182, 0.932, 0.276, 192.0, 0.0, 0.0, 0.0, 0.0, 0.0, 0.0, 0.0, 0.0, 0.0, 1.700950517722246E9, 0.0, 2023-11-25 17:15:17.722
162.0, 28615.217341806572, 37988.01904773939, -46820.33322099844, -42085.20556511945, -59903.8374309346, -17491.201161289355, -6471.925255289705, -26172.1269693526, -0.182, 0.932, 0.276, 192.0, 0.0, 0.0, 0.0, 0.0, 0.0, 0.0, 0.0, 0.0, 0.0, 1.700950517727292E9, 0.0, 2023-11-25 17:15:17.727
163.0, 28648.074406155876, 38069.24528708998, -46785.48685139261, -42032.70131739394, -59881.70920392385, -17458.925242295893, -6611.400140690821, -26120.181515238466, -0.182, 0.932, 0.276, 192.0, 0.0, 0.0, 0.0, 0.0, 0.0, 0.0, 0.0, 0.0, 0.0, 1.700950517731203E9, 0.0, 2023-11-25 17:15:17.731
164.0, 28714.68260463269, 38136.14405824472, -46728.5793100094, -41973.98328470985, -59815.43628161387, -17395.379232809453, -6623.917117585793, -26083.323488631668, -0.182, 0.932, 0.276, 192.0, 0.0, 0.0, 0.0, 0.0, 0.0, 0.0, 0.0, 0.0, 0.0, 1.700950517737528E9, 0.0, 2023-11-25 17:15:17.737
165.0, 28686.96644150811, 38059.05289161836, -46771.15938319676, -42032.50015169384, -59827.26035443072, -17407.69504400433, -6354.533893410432, -26159.967620368912, -0.182, 0.932, 0.276, 192.0, 0.0, 0.0, 0.0, 0.0, 0.0, 0.0, 0.0, 0.0, 0.0, 1.700950517739938E9, 0.0, 2023-11-25 17:15:17.739
166.0, 28624.605074477804, 37986.32031516079, -46796.774482342546, -42076.93541967099, -59882.96090161335, -17481.724021640304, -6431.580356547875, -26181.782922957293, -0.182, 0.932, 0.276, 192.0, 0.0, 0.0, 0.0, 0.0, 0.0, 0.0, 0.0, 0.0, 0.0, 1.700950517743237E9, 0.0, 2023-11-25 17:15:17.743
167.0, 28647.29209509994, 38053.24143805998, -46774.19922044268, -42031.98606157137, -59872.097953808065, -17453.337306182064, -6562.91920696726, -26151.69747492045, -0.184, 0.926, 0.276, 192.0, 250.0, 64.0, 28.0, 240.0, 8.0, 160.0, 0.0, 0.0, 0.0, 1.700950517748275E9, 0.0, 2023-11-25 17:15:17.748
168.0, 28701.83035157089, 38125.99636626201, -46721.06912387242, -41973.42449109846, -59820.95716249433, -17404.565799780583, -6634.400085735332, -26089.44786661242, -0.184, 0.926, 0.276, 192.0, 0.0, 0.0, 0.0, 0.0, 0.0, 0.0, 0.0, 0.0, 0.0, 1.700950517752264E9, 0.0, 2023-11-25 17:15:17.752
169.0, 28690.542720620957, 38071.68162723561, -46752.00393819856, -42011.15423573902, -59812.59761006804, -17385.119782104466, -6365.68741389363, -26131.69266363295, -0.184, 0.926, 0.276, 192.0, 0.0, 0.0, 0.0, 0.0, 0.0, 0.0, 0.0, 0.0, 0.0, 1.700950517756288E9, 0.0, 2023-11-25 17:15:17.756
170.0, 28611.66341443818, 37979.36892263519, -46797.109758509374, -42080.66816099503, -59886.134849326, -17485.03207981969, -6395.571696230376, -26188.667260249527, -0.184, 0.926, 0.276, 192.0, 0.0, 0.0, 0.0, 0.0, 0.0, 0.0, 0.0, 0.0, 0.0, 1.700950517760314E9, 0.0, 2023-11-25 17:15:17.760
171.0, 28619.218304064074, 38030.86734186022, -46789.10783399437, -42052.169686814515, -59891.14164008399, -17473.051544791644, -6533.43725603071, -26180.017135145325, -0.184, 0.926, 0.276, 192.0, 0.0, 0.0, 0.0, 0.0, 0.0, 0.0, 0.0, 0.0, 0.0, 1.700950517764627E9, 0.0, 2023-11-25 17:15:17.764
172.0, 28678.182205937173, 38119.58141560333, -46735.75421997956, -41989.093063961634, -59846.95224129585, -17432.371369882985, -6657.712955202217, -26108.78212556626, -0.184, 0.926, 0.276, 192.0, 0.0, 0.0, 0.0, 0.0, 0.0, 0.0, 0.0, 0.0, 0.0, 1.700950517768332E9, 0.0, 2023-11-25 17:15:17.768
173.0, 28690.7215345766, 38089.428912333125, -46751.86982773183, -42007.93558453746, -59819.370188638, -17394.798087453615, -6412.246097594035, -26147.182422540478, -0.184, 0.926, 0.276, 192.0, 0.0, 0.0, 0.0, 0.0, 0.0, 0.0, 0.0, 0.0, 0.0, 1.700950517773311E9, 0.0, 2023-11-25 17:15:17.773
174.0, 28621.47583025406, 37990.58949835176, -46799.903726566285, -42085.69730349747, -59885.03961384769, -17496.27500728071, -6391.637789206242, -26216.04814720728, -0.184, 0.926, 0.276, 192.0, 0.0, 0.0, 0.0, 0.0, 0.0, 0.0, 0.0, 0.0, 0.0, 1.700950517776328E9, 0.0, 2023-11-25 17:15:17.776
175.0, 28626.19204833413, 38024.832370857286, -46794.82988057493, -42060.10455609614, -59891.58867497309, -17476.203140759844, -6515.444101744188, -26161.50989073633, -0.184, 0.926, 0.276, 192.0, 0.0, 0.0, 0.0, 0.0, 0.0, 0.0, 0.0, 0.0, 0.0, 1.700950517779324E9, 0.0, 2023-11-25 17:15:17.779
176.0, 28678.53983384846, 38109.07609570934, -46750.08168817541, -42002.6158693571, -59860.47504669131, -17446.229451445277, -6660.708088959228, -26103.171837707978, -0.184, 0.926, 0.276, 192.0, 0.0, 0.0, 0.0, 0.0, 0.0, 0.0, 0.0, 0.0, 0.0, 1.700950517782358E9, 0.0, 2023-11-25 17:15:17.782
177.0, 28717.901255834255, 38109.81370327636, -46737.967042680626, -41989.11541570609, -59807.76963326569, -17382.549331492108, -6476.909694303238, -26109.944416277936, -0.19, 0.936, 0.278, 192.0, 250.0, 16.0, 29.0, 64.0, 8.0, 176.0, 0.0, 0.0, 0.0, 1.700950517787346E9, 0.0, 2023-11-25 17:15:17.787
178.0, 28652.321237602384, 38006.86156831522, -46787.72202583814, -42064.686663709486, -59864.341898482075, -17461.428637674886, -6369.151934284203, -26170.137664096077, -0.19, 0.936, 0.278, 192.0, 0.0, 0.0, 0.0, 0.0, 0.0, 0.0, 0.0, 0.0, 0.0, 1.700950517791381E9, 0.0, 2023-11-25 17:15:17.791
179.0, 28639.04430139593, 38023.96065282353, -46788.079653749424, -42052.39320425907, -59881.70920392385, -17467.418905188908, -6498.635589913797, -26152.36802725411, -0.19, 0.936, 0.278, 192.0, 0.0, 0.0, 0.0, 0.0, 0.0, 0.0, 0.0, 0.0, 0.0, 1.700950517795511E9, 0.0, 2023-11-25 17:15:17.795
180.0, 28676.841101269856, 38106.28212765243, -46758.6871097907, -42007.08621824816, -59867.44879096137, -17452.487939892762, -6651.879149899381, -26124.987140296358, -0.19, 0.936, 0.278, 192.0, 0.0, 0.0, 0.0, 0.0, 0.0, 0.0, 0.0, 0.0, 0.0, 1.700950517799489E9, 0.0, 2023-11-25 17:15:17.799
181.0, 28725.34438673787, 38129.17031397466, -46735.329536834906, -41983.16985168098, -59812.79877576814, -17392.093526374523, -6539.360468311366, -26120.44973617193, -0.19, 0.936, 0.278, 192.0, 0.0, 0.0, 0.0, 0.0, 0.0, 0.0, 0.0, 0.0, 0.0, 1.700950517803441E9, 0.0, 2023-11-25 17:15:17.803
182.0, 28666.82751975388, 38026.642862158165, -46789.01842701655, -42060.484535751886, -59856.161160011434, -17447.347038668042, -6353.8633410767725, -26163.007457614836, -0.19, 0.936, 0.278, 192.0, 0.0, 0.0, 0.0, 0.0, 0.0, 0.0, 0.0, 0.0, 0.0, 1.700950517806409E9, 0.0, 2023-11-25 17:15:17.806
183.0, 28632.629350737257, 38008.13561774917, -46799.546098655, -42068.64292247807, -59886.60423595956, -17483.042774563168, -6480.642435627275, -26167.65662046154, -0.19, 0.936, 0.278, 192.0, 0.0, 0.0, 0.0, 0.0, 0.0, 0.0, 0.0, 0.0, 0.0, 1.700950517810422E9, 0.0, 2023-11-25 17:15:17.810
184.0, 28678.651592570735, 38097.3414298703, -46754.08265043291, -42004.761636824805, -59856.63054664499, -17451.705628836826, -6638.579861948474, -26126.440003685955, -0.19, 0.936, 0.278, 192.0, 0.0, 0.0, 0.0, 0.0, 0.0, 0.0, 0.0, 0.0, 0.0, 1.700950517815584E9, 0.0, 2023-11-25 17:15:17.815
185.0, 28732.385186241292, 38132.478372154044, -46715.81646392542, -41961.555714792696, -59797.532534305166, -17385.20918908229, -6588.981341002148, -26098.58973009464, -0.19, 0.936, 0.278, 192.0, 0.0, 0.0, 0.0, 0.0, 0.0, 0.0, 0.0, 0.0, 0.0, 1.70095051781945E9, 0.0, 2023-11-25 17:15:17.819
186.0, 28688.553415364437, 38039.293949519866, -46765.30322614947, -42032.47779994939, -59825.00282824074, -17419.429709843364, -6348.320108451857, -26163.342733781665, -0.19, 0.936, 0.278, 192.0, 0.0, 0.0, 0.0, 0.0, 0.0, 0.0, 0.0, 0.0, 0.0, 1.700950517823478E9, 0.0, 2023-11-25 17:15:17.823
187.0, 28641.81591770839, 37998.1667397221, -46779.5412873675, -42057.91408513953, -59865.90652059395, -17472.671565135905, -6449.528807345487, -26170.674105963008, -0.186, 0.93, 0.278, 192.0, 250.0, 48.0, 29.0, 16.0, 8.0, 176.0, 0.0, 0.0, 0.0, 1.700950517828556E9, 0.0, 2023-11-25 17:15:17.828
188.0, 28661.396045851237, 38064.97610389902, -46761.794002269984, -42019.156160254024, -59861.10089553606, -17454.589003871562, -6593.742262571128, -26147.31653300721, -0.186, 0.93, 0.278, 192.0, 0.0, 0.0, 0.0, 0.0, 0.0, 0.0, 0.0, 0.0, 0.0, 1.700950517831605E9, 0.0, 2023-11-25 17:15:17.831
189.0, 28719.599988412858, 38126.26458719547, -46714.00597262454, -41967.434223584445, -59805.98149370927, -17404.431689313853, -6630.935565344759, -26111.59844536763, -0.186, 0.93, 0.278, 192.0, 0.0, 0.0, 0.0, 0.0, 0.0, 0.0, 0.0, 0.0, 0.0, 1.700950517835688E9, 0.0, 2023-11-25 17:15:17.835
190.0, 28700.35513643684, 38060.99749338597, -46749.8358189864, -42015.02108752979, -59808.19431641034, -17401.816535212583, -6359.540684168421, -26144.61197192812, -0.186, 0.93, 0.278, 192.0, 0.0, 0.0, 0.0, 0.0, 0.0, 0.0, 0.0, 0.0, 0.0, 1.700950517840561E9, 0.0, 2023-11-25 17:15:17.840
191.0, 28636.20562985011, 37995.395123409646, -46775.11564196535, -42060.93157064099, -59864.0289740597, -17477.186617515876, -6424.159577388714, -26152.636248187573, -0.186, 0.93, 0.278, 192.0, 0.0, 0.0, 0.0, 0.0, 0.0, 0.0, 0.0, 0.0, 0.0, 1.700950517844634E9, 0.0, 2023-11-25 17:15:17.844
192.0, 28654.735226003555, 38057.82354567332, -46758.173019668226, -42025.101724279135, -59859.33510772409, -17456.80182657264, -6558.448858076198, -26126.484707174863, -0.186, 0.93, 0.278, 192.0, 0.0, 0.0, 0.0, 0.0, 0.0, 0.0, 0.0, 0.0, 0.0, 1.700950517849221E9, 0.0, 2023-11-25 17:15:17.849
193.0, 28714.25792148804, 38128.76798257446, -46706.786359165475, -41967.76949975127, -59812.195278667845, -17414.26645687419, -6649.956899876225, -26088.88907300104, -0.186, 0.93, 0.278, 192.0, 0.0, 0.0, 0.0, 0.0, 0.0, 0.0, 0.0, 0.0, 0.0, 1.70095051785265E9, 0.0, 2023-11-25 17:15:17.852
194.0, 28712.648595887258, 38077.02369416043, -46737.140028135786, -42002.63822110155, -59801.17586865138, -17391.557084507596, -6382.540629212932, -26136.721806135396, -0.186, 0.93, 0.278, 192.0, 0.0, 0.0, 0.0, 0.0, 0.0, 0.0, 0.0, 0.0, 0.0, 1.700950517855684E9, 0.0, 2023-11-25 17:15:17.855
195.0, 28646.84506021083, 37996.08802748776, -46772.724005308635, -42060.66334970753, -59860.47504669131, -17478.37125997201, -6399.282085809957, -26166.31551579422, -0.186, 0.93, 0.278, 192.0, 0.0, 0.0, 0.0, 0.0, 0.0, 0.0, 0.0, 0.0, 0.0, 1.700950517861703E9, 0.0, 2023-11-25 17:15:17.861
196.0, 28668.39214186575, 38057.48826950649, -46752.652138787766, -42015.93750905246, -59850.79674134216, -17449.716323580305, -6529.168072839746, -26136.49828869084, -0.192, 0.928, 0.274, 192.0, 250.0, 0.0, 29.0, 0.0, 8.0, 144.0, 0.0, 0.0, 0.0, 1.700950517864655E9, 0.0, 2023-11-25 17:15:17.864
197.0, 28720.516409935524, 38136.747555345006, -46707.43455975468, -41958.15824963549, -59813.089348446054, -17414.44527082983, -6659.344632547454, -26090.54310209073, -0.192, 0.928, 0.274, 192.0, 0.0, 0.0, 0.0, 0.0, 0.0, 0.0, 0.0, 0.0, 0.0, 1.700950517867759E9, 0.0, 2023-11-25 17:15:17.867
198.0, 28733.45806997515, 38101.096522938795, -46726.925280919706, -41977.96189522289, -59787.228380111264, -17372.468694742765, -6426.372400089789, -26123.98131179587, -0.192, 0.928, 0.274, 192.0, 0.0, 0.0, 0.0, 0.0, 0.0, 0.0, 0.0, 0.0, 0.0, 1.700950517870716E9, 0.0, 2023-11-25 17:15:17.870
199.0, 28659.987885950555, 37995.28336468737, -46778.13312746682, -42058.96461712893, -59856.00469780025, -17468.402381944943, -6389.64848394972, -26183.548710769264, -0.192, 0.928, 0.274, 192.0, 0.0, 0.0, 0.0, 0.0, 0.0, 0.0, 0.0, 0.0, 0.0, 1.700950517874709E9, 0.0, 2023-11-25 17:15:17.874
200.0, 28651.38246433526, 38024.698260390556, -46778.60251410038, -42043.765430899315, -59872.097953808065, -17465.809579588127, -6521.9708111251375, -26171.568175741217, -0.192, 0.928, 0.274, 192.0, 0.0, 0.0, 0.0, 0.0, 0.0, 0.0, 0.0, 0.0, 0.0, 1.700950517881671E9, 0.0, 2023-11-25 17:15:17.881
201.0, 28699.997508525554, 38103.71167704006, -46735.798923468465, -41990.47887211786, -59845.16410173942, -17437.758140296715, -6669.8946559303595, -26106.479895887365, -0.192, 0.928, 0.274, 192.0, 0.0, 0.0, 0.0, 0.0, 0.0, 0.0, 0.0, 0.0, 0.0, 1.700950517885718E9, 0.0, 2023-11-25 17:15:17.885
202.0, 28742.64463694628, 38104.71750554055, -46721.471455272615, -41978.341874878635, -59793.48686855875, -17376.290843044622, -6493.941723578182, -26113.610102368606, -0.192, 0.928, 0.274, 192.0, 0.0, 0.0, 0.0, 0.0, 0.0, 0.0, 0.0, 0.0, 0.0, 1.70095051788873E9, 0.0, 2023-11-25 17:15:17.888
203.0, 28668.079217443374, 37995.35041992074, -46779.3401216674, -42064.77607068731, -59856.094104778065, -17461.003954530235, -6370.761259884985, -26179.681858978496, -0.192, 0.928, 0.274, 192.0, 0.0, 0.0, 0.0, 0.0, 0.0, 0.0, 0.0, 0.0, 0.0, 1.700950517891743E9, 0.0, 2023-11-25 17:15:17.891
204.0, 28645.8615834548, 38002.167701979604, -46781.731758324124, -42057.86938165061, -59875.65188117646, -17474.750277370247, -6503.508270205053, -26166.31551579422, -0.192, 0.928, 0.274, 192.0, 0.0, 0.0, 0.0, 0.0, 0.0, 0.0, 0.0, 0.0, 0.0, 1.700950517895749E9, 0.0, 2023-11-25 17:15:17.895
205.0, 28682.272575172494, 38083.86332796375, -46748.382955596804, -42008.42732291548, -59854.976517555304, -17454.901928293937, -6656.684774957273, -26125.389471696555, -0.192, 0.928, 0.274, 192.0, 0.0, 0.0, 0.0, 0.0, 0.0, 0.0, 0.0, 0.0, 0.0, 1.700950517898707E9, 0.0, 2023-11-25 17:15:17.898
206.0, 28734.68741592019, 38109.67959280963, -46715.660001714234, -41977.38074986706, -59792.36928133599, -17388.78546819514, -6549.195235871701, -26112.35840467911, -0.196, 0.934, 0.272, 192.0, 249.0, 224.0, 29.0, 48.0, 8.0, 128.0, 0.0, 0.0, 0.0, 1.700950517903761E9, 0.0, 2023-11-25 17:15:17.903
207.0, 28685.73709556307, 38011.15310325064, -46759.67058654673, -42047.31935826771, -59825.98630499677, -17437.936954252356, -6353.30454746539, -26156.65956218953, -0.196, 0.934, 0.272, 192.0, 0.0, 0.0, 0.0, 0.0, 0.0, 0.0, 0.0, 0.0, 0.0, 1.70095051790778E9, 0.0, 2023-11-25 17:15:17.907
208.0, 28661.44074934015, 37998.27849844438, -46755.98254871161, -42044.16776229951, -59846.08052326209, -17457.98646902877, -6465.197380208658, -26129.278675231777, -0.196, 0.934, 0.272, 192.0, 0.0, 0.0, 0.0, 0.0, 0.0, 0.0, 0.0, 0.0, 0.0, 1.700950517911749E9, 0.0, 2023-11-25 17:15:17.911
209.0, 28694.521331134005, 38074.83322320381, -46728.69106873168, -41999.97836351137, -59833.027104500194, -17441.222660687286, -6614.7752541035725, -26114.2135994689, -0.196, 0.934, 0.272, 192.0, 0.0, 0.0, 0.0, 0.0, 0.0, 0.0, 0.0, 0.0, 0.0, 1.700950517915777E9, 0.0, 2023-11-25 17:15:17.915
210.0, 28747.517317237536, 38117.748572558, -46694.71641715961, -41962.36037759309, -59780.2099323523, -17389.746593206717, -6591.462384636687, -26108.111573232603, -0.196, 0.934, 0.272, 192.0, 0.0, 0.0, 0.0, 0.0, 0.0, 0.0, 0.0, 0.0, 0.0, 1.700950517920409E9, 0.0, 2023-11-25 17:15:17.920
211.0, 28703.59613938286, 38024.09476329026, -46744.00201368356, -42030.68966039296, -59806.942618720845, -17418.870916231983, -6350.152951497192, -26159.386475013078, -0.196, 0.934, 0.272, 192.0, 0.0, 0.0, 0.0, 0.0, 0.0, 0.0, 0.0, 0.0, 0.0, 1.700950517923829E9, 0.0, 2023-11-25 17:15:17.923
212.0, 28653.215307380597, 37977.491376100945, -46758.01655745704, -42055.96948337191, -59850.61792738652, -17472.805675602638, -6452.166313191213, -26157.95596336794, -0.196, 0.934, 0.272, 192.0, 0.0, 0.0, 0.0, 0.0, 0.0, 0.0, 0.0, 0.0, 0.0, 1.700950517928788E9, 0.0, 2023-11-25 17:15:17.928
213.0, 28678.003391981532, 38051.72151943702, -46730.65802224374, -42006.438017658955, -59835.195223712355, -17440.97679149828, -6587.617884590374, -26113.29717794623, -0.196, 0.934, 0.272, 192.0, 0.0, 0.0, 0.0, 0.0, 0.0, 0.0, 0.0, 0.0, 0.0, 1.700950517932378E9, 0.0, 2023-11-25 17:15:17.932
214.0, 28729.457107717648, 38105.41040961867, -46692.01185608052, -41959.454650813896, -59787.60835976701, -17395.558046765094, -6622.9336408297595, -26087.21269216689, -0.196, 0.934, 0.272, 192.0, 0.0, 0.0, 0.0, 0.0, 0.0, 0.0, 0.0, 0.0, 0.0, 1.700950517937134E9, 0.0, 2023-11-25 17:15:17.937
215.0, 28705.741906850566, 38031.51554244942, -46740.09045840389, -42017.85975907562, -59801.73466226276, -17406.957436437304, -6366.939111583128, -26166.784902427782, -0.196, 0.934, 0.272, 192.0, 0.0, 0.0, 0.0, 0.0, 0.0, 0.0, 0.0, 0.0, 0.0, 1.700950517939874E9, 0.0, 2023-11-25 17:15:17.939
216.0, 28638.84313569583, 37962.42630033807, -46770.84645877439, -42064.48549800939, -59861.056192047145, -17479.757068128238, -6430.351010602833, -26158.492405234865, -0.196, 0.9380000000000001, 0.278, 192.0, 249.0, 224.0, 29.0, 80.0, 8.0, 176.0, 0.0, 0.0, 0.0, 1.700950517942898E9, 0.0, 2023-11-25 17:15:17.942
217.0, 28662.804205751923, 38033.75071689495, -46748.69588001918, -42016.69746836394, -59850.729686108796, -17444.2177944443, -6561.82397148895, -26106.97163426538, -0.196, 0.9380000000000001, 0.278, 192.0, 0.0, 0.0, 0.0, 0.0, 0.0, 0.0, 0.0, 0.0, 0.0, 1.700950517946844E9, 0.0, 2023-11-25 17:15:17.946
218.0, 28721.410479713737, 38110.41720037666, -46702.09249282986, -41959.23113336934, -59806.607342554016, -17400.87776194546, -6654.583710978474, -26053.662723739475, -0.196, 0.9380000000000001, 0.278, 192.0, 0.0, 0.0, 0.0, 0.0, 0.0, 0.0, 0.0, 0.0, 0.0, 1.70095051795095E9, 0.0, 2023-11-25 17:15:17.950
219.0, 28721.6787006472, 38065.1325661102, -46730.032173399, -41990.143595951035, -59792.30222610262, -17376.492008744717, -6394.208239818602, -26103.864741786092, -0.196, 0.9380000000000001, 0.278, 192.0, 0.0, 0.0, 0.0, 0.0, 0.0, 0.0, 0.0, 0.0, 0.0, 1.700950517954945E9, 0.0, 2023-11-25 17:15:17.954
220.0, 28641.95002817512, 37971.16583242009, -46780.50241237908, -42064.954884642946, -59866.42061071642, -17474.01266980322, -6403.50656551201, -26156.860727889627, -0.196, 0.9380000000000001, 0.278, 192.0, 0.0, 0.0, 0.0, 0.0, 0.0, 0.0, 0.0, 0.0, 0.0, 1.700950517959247E9, 0.0, 2023-11-25 17:15:17.959
221.0, 28646.24156311054, 38015.39993469715, -46774.35568265387, -42037.08225930718, -59871.78502938569, -17455.79599807215, -6533.213738586157, -26126.2164862414, -0.196, 0.9380000000000001, 0.278, 192.0, 0.0, 0.0, 0.0, 0.0, 0.0, 0.0, 0.0, 0.0, 0.0, 1.700950517962947E9, 0.0, 2023-11-25 17:15:17.962
222.0, 28697.941148035665, 38095.53093856942, -46727.908757675745, -41978.38657836754, -59834.85994754553, -17417.68627377585, -6663.636167482873, -26064.056284911192, -0.196, 0.9380000000000001, 0.278, 192.0, 0.0, 0.0, 0.0, 0.0, 0.0, 0.0, 0.0, 0.0, 0.0, 1.700950517967391E9, 0.0, 2023-11-25 17:15:17.967
223.0, 28711.910988320233, 38066.49602252198, -46740.47043805962, -41992.3117151632, -59805.757976264715, -17373.54157847662, -6439.626984551786, -26097.583901594153, -0.196, 0.9380000000000001, 0.278, 192.0, 0.0, 0.0, 0.0, 0.0, 0.0, 0.0, 0.0, 0.0, 0.0, 1.700950517969963E9, 0.0, 2023-11-25 17:15:17.969
224.0, 28630.304769313905, 37960.52640205937, -46797.98147654313, -42078.07535863821, -59879.33991901159, -17476.56076867113, -6385.871039136772, -26167.120178594614, -0.196, 0.9380000000000001, 0.278, 192.0, 0.0, 0.0, 0.0, 0.0, 0.0, 0.0, 0.0, 0.0, 0.0, 1.70095051797497E9, 0.0, 2023-11-25 17:15:17.974
225.0, 28629.924789658166, 37993.67403908659, -46790.65010436179, -42057.04236710577, -59889.24174180529, -17472.26923373571, -6516.9863721116035, -26139.158146281025, -0.196, 0.9380000000000001, 0.278, 192.0, 0.0, 0.0, 0.0, 0.0, 0.0, 0.0, 0.0, 0.0, 0.0, 1.700950517978906E9, 0.0, 2023-11-25 17:15:17.978
226.0, 28678.67394431519, 38080.82349071783, -46747.35477535186, -42003.711104835405, -59864.207788015345, -17446.02828574518, -6661.199827337245, -26081.40123860851, -0.192, 0.936, 0.28200000000000003, 192.0, 250.0, 0.0, 29.0, 64.0, 8.0, 208.0, 0.0, 0.0, 0.0, 1.700950517982964E9, 0.0, 2023-11-25 17:15:17.982
227.0, 28712.313319720426, 38080.331752339815, -46740.47043805962, -41997.25145068782, -59819.7725200382, -17392.29469207462, -6489.873706087316, -26094.924044003972, -0.192, 0.936, 0.28200000000000003, 192.0, 0.0, 0.0, 0.0, 0.0, 0.0, 0.0, 0.0, 0.0, 0.0, 1.700950517986937E9, 0.0, 2023-11-25 17:15:17.986
228.0, 28641.435938052648, 37973.11043418771, -46797.26622072056, -42082.67981799601, -59877.86470387754, -17478.75123962775, -6363.921626081661, -26166.56138498323, -0.192, 0.936, 0.28200000000000003, 192.0, 0.0, 0.0, 0.0, 0.0, 0.0, 0.0, 0.0, 0.0, 0.0, 1.700950517990971E9, 0.0, 2023-11-25 17:15:17.990
229.0, 28628.04724312392, 37984.062788970805, -46790.02425551704, -42070.4310620345, -59890.29227379469, -17487.46841996532, -6496.3333602349, -26147.428291729488, -0.192, 0.936, 0.28200000000000003, 192.0, 0.0, 0.0, 0.0, 0.0, 0.0, 0.0, 0.0, 0.0, 0.0, 1.700950517995995E9, 0.0, 2023-11-25 17:15:17.995
230.0, 28667.833348254368, 38068.2841620784, -46756.02725220052, -42022.97830855588, -59869.393392728976, -17473.83385584758, -6653.689641200262, -26129.569247909698, -0.192, 0.936, 0.28200000000000003, 192.0, 0.0, 0.0, 0.0, 0.0, 0.0, 0.0, 0.0, 0.0, 0.0, 1.700950518000013E9, 0.0, 2023-11-25 17:15:18.000
231.0, 28722.12573553631, 38102.48233109502, -46722.030248883995, -41984.153328437016, -59802.60638029652, -17402.196514868323, -6558.381802842832, -26089.224349167867, -0.192, 0.936, 0.28200000000000003, 192.0, 0.0, 0.0, 0.0, 0.0, 0.0, 0.0, 0.0, 0.0, 0.0, 1.700950518004022E9, 0.0, 2023-11-25 17:15:18.004
232.0, 28661.68661852916, 38001.675963601585, -46781.240019946104, -42061.71388169693, -59845.49937790625, -17451.437407903362, -6348.722439852052, -26135.872439846094, -0.192, 0.936, 0.28200000000000003, 192.0, 0.0, 0.0, 0.0, 0.0, 0.0, 0.0, 0.0, 0.0, 0.0, 1.700950518008054E9, 0.0, 2023-11-25 17:15:18.008
233.0, 28626.75084194551, 37983.503995359424, -46788.61609561636, -42074.65554173655, -59879.76460215624, -17499.56071371564, -6483.61521763983, -26154.133815066078, -0.192, 0.936, 0.28200000000000003, 192.0, 0.0, 0.0, 0.0, 0.0, 0.0, 0.0, 0.0, 0.0, 0.0, 1.700950518011997E9, 0.0, 2023-11-25 17:15:18.011
234.0, 28664.614697052803, 38069.491156278986, -46755.803734755966, -42019.849064332135, -59860.07271529111, -17470.16816975691, -6628.208652521212, -26112.671329101486, -0.192, 0.936, 0.28200000000000003, 192.0, 0.0, 0.0, 0.0, 0.0, 0.0, 0.0, 0.0, 0.0, 0.0, 1.700950518017156E9, 0.0, 2023-11-25 17:15:18.017
235.0, 28718.102421534353, 38115.73691555702, -46717.068161614916, -41975.77142426627, -59804.863906486506, -17411.427785328364, -6605.476928410164, -26091.459523613397, -0.192, 0.936, 0.28200000000000003, 192.0, 0.0, 0.0, 0.0, 0.0, 0.0, 0.0, 0.0, 0.0, 0.0, 1.700950518020069E9, 0.0, 2023-11-25 17:15:18.020
236.0, 28673.39893262374, 38024.407687712635, -46768.655987817765, -42043.54191345476, -59829.2720114317, -17437.73578855226, -6358.0878207788255, -26153.955001110437, -0.188, 0.9380000000000001, 0.28600000000000003, 192.0, 250.0, 32.0, 29.0, 80.0, 8.0, 240.0, 0.0, 0.0, 0.0, 1.700950518023072E9, 0.0, 2023-11-25 17:15:18.023
237.0, 28620.20178082011, 37975.747940033434, -46784.793947314494, -42070.2298963344, -59873.03672707519, -17492.31874851212, -6453.641528325264, -26151.11632956461, -0.188, 0.9380000000000001, 0.28600000000000003, 192.0, 0.0, 0.0, 0.0, 0.0, 0.0, 0.0, 0.0, 0.0, 0.0, 1.700950518026129E9, 0.0, 2023-11-25 17:15:18.026
238.0, 28646.465080555092, 38045.70890017854, -46760.31878713593, -42021.99483179985, -59859.402162957456, -17464.691992365362, -6594.278704438056, -26127.51288741981, -0.188, 0.9380000000000001, 0.28600000000000003, 192.0, 0.0, 0.0, 0.0, 0.0, 0.0, 0.0, 0.0, 0.0, 0.0, 1.700950518031138E9, 0.0, 2023-11-25 17:15:18.031
239.0, 28707.55239815145, 38108.226729420036, -46711.65903945673, -41966.56250555068, -59804.148650663934, -17412.813593484592, -6645.486550985164, -26089.224349167867, -0.188, 0.9380000000000001, 0.28600000000000003, 192.0, 0.0, 0.0, 0.0, 0.0, 0.0, 0.0, 0.0, 0.0, 0.0, 1.700950518035097E9, 0.0, 2023-11-25 17:15:18.035
240.0, 28688.39695315325, 38035.98589134048, -46754.50733357756, -42019.62554688758, -59808.19431641034, -17409.773756238672, -6382.5629809573875, -26148.389416741065, -0.188, 0.9380000000000001, 0.28600000000000003, 192.0, 0.0, 0.0, 0.0, 0.0, 0.0, 0.0, 0.0, 0.0, 0.0, 1.700950518039134E9, 0.0, 2023-11-25 17:15:18.039
241.0, 28620.849981409312, 37963.11920441618, -46784.63748510331, -42067.257114321845, -59866.26414850523, -17480.673489650904, -6436.7436095170515, -26150.89281212006, -0.188, 0.9380000000000001, 0.28600000000000003, 192.0, 0.0, 0.0, 0.0, 0.0, 0.0, 0.0, 0.0, 0.0, 0.0, 1.700950518043126E9, 0.0, 2023-11-25 17:15:18.043
242.0, 28634.9092286717, 38021.16668476661, -46772.3887291418, -42032.097820293646, -59867.493494450275, -17456.55595738363, -6561.779268000039, -26130.239800243355, -0.188, 0.9380000000000001, 0.28600000000000003, 192.0, 0.0, 0.0, 0.0, 0.0, 0.0, 0.0, 0.0, 0.0, 0.0, 1.700950518046119E9, 0.0, 2023-11-25 17:15:18.046
243.0, 28696.309470690427, 38102.68349679512, -46719.25863257154, -41971.345778864124, -59820.95716249433, -17411.450137072818, -6671.682795486784, -26080.373058363566, -0.188, 0.9380000000000001, 0.28600000000000003, 192.0, 0.0, 0.0, 0.0, 0.0, 0.0, 0.0, 0.0, 0.0, 0.0, 1.700950518050217E9, 0.0, 2023-11-25 17:15:18.050
244.0, 28703.68554636068, 38061.57863874181, -46737.09532464687, -41994.278668675266, -59797.666644771896, -17370.792313908616, -6403.50656551201, -26098.07563997217, -0.188, 0.9380000000000001, 0.28600000000000003, 192.0, 0.0, 0.0, 0.0, 0.0, 0.0, 0.0, 0.0, 0.0, 0.0, 1.700950518054188E9, 0.0, 2023-11-25 17:15:18.054
245.0, 28630.774155947467, 37971.27759114237, -46777.21670594415, -42061.75858518584, -59862.44200020337, -17458.724076595794, -6399.393844532233, -26125.992968796847, -0.188, 0.9380000000000001, 0.28600000000000003, 192.0, 0.0, 0.0, 0.0, 0.0, 0.0, 0.0, 0.0, 0.0, 0.0, 1.700950518058672E9, 0.0, 2023-11-25 17:15:18.058
246.0, 28630.260065824994, 38012.583614895775, -46776.836726288406, -42042.55843669873, -59874.24372127578, -17453.89609979345, -6528.519872250542, -26121.612026883606, -0.198, 0.932, 0.28200000000000003, 192.0, 249.0, 208.0, 29.0, 32.0, 8.0, 208.0, 0.0, 0.0, 0.0, 1.700950518063161E9, 0.0, 2023-11-25 17:15:18.063
247.0, 28682.67490657269, 38094.07807517983, -46731.753257722055, -41991.41764538499, -59843.733590094285, -17435.858242018014, -6673.269769343111, -26088.486741600842, -0.198, 0.932, 0.28200000000000003, 192.0, 0.0, 0.0, 0.0, 0.0, 0.0, 0.0, 0.0, 0.0, 0.0, 1.700950518067203E9, 0.0, 2023-11-25 17:15:18.067
248.0, 28708.245302229563, 38074.49794703698, -46733.6308042563, -41997.40791289901, -59803.85807798601, -17384.650395470904, -6452.032202724481, -26094.49936085932, -0.198, 0.932, 0.28200000000000003, 192.0, 0.0, 0.0, 0.0, 0.0, 0.0, 0.0, 0.0, 0.0, 0.0, 1.700950518071217E9, 0.0, 2023-11-25 17:15:18.071
249.0, 28640.586571763346, 37977.53607958985, -46780.904743779276, -42074.18615510299, -59863.73840138179, -17476.784286115682, -6388.5532484714095, -26152.211565042922, -0.198, 0.932, 0.28200000000000003, 192.0, 0.0, 0.0, 0.0, 0.0, 0.0, 0.0, 0.0, 0.0, 0.0, 1.700950518074402E9, 0.0, 2023-11-25 17:15:18.074
250.0, 28628.20370533511, 37998.83729205577, -46783.69871183619, -42063.23380031989, -59882.312701024144, -17487.133143798488, -6523.937764637204, -26153.709131921427, -0.198, 0.932, 0.28200000000000003, 192.0, 0.0, 0.0, 0.0, 0.0, 0.0, 0.0, 0.0, 0.0, 0.0, 1.700950518078243E9, 0.0, 2023-11-25 17:15:18.078
251.0, 28673.980077979577, 38083.77392098593, -46740.22456887062, -42007.17562522598, -59854.3283169661, -17461.719210352803, -6677.091917644968, -26104.557645864206, -0.198, 0.932, 0.28200000000000003, 192.0, 0.0, 0.0, 0.0, 0.0, 0.0, 0.0, 0.0, 0.0, 0.0, 1.700950518083767E9, 0.0, 2023-11-25 17:15:18.083
252.0, 28714.63790114378, 38089.31715361085, -46722.6784494732, -41989.60715408411, -59800.61707504, -17399.983692167247, -6521.255555302568, -26114.615930869095, -0.198, 0.932, 0.28200000000000003, 192.0, 0.0, 0.0, 0.0, 0.0, 0.0, 0.0, 0.0, 0.0, 0.0, 1.700950518088538E9, 0.0, 2023-11-25 17:15:18.088
253.0, 28636.920885672676, 37977.75959703441, -46784.190450214206, -42076.57779175971, -59861.547930425164, -17478.058335549635, -6380.372510000767, -26171.925803652503, -0.198, 0.932, 0.28200000000000003, 192.0, 0.0, 0.0, 0.0, 0.0, 0.0, 0.0, 0.0, 0.0, 0.0, 1.700950518092269E9, 0.0, 2023-11-25 17:15:18.092
254.0, 28607.84126613632, 37977.80430052332, -46787.051473504485, -42069.80521318975, -59882.245645790776, -17492.050527578656, -6509.900869119271, -26143.717902149907, -0.198, 0.932, 0.28200000000000003, 192.0, 0.0, 0.0, 0.0, 0.0, 0.0, 0.0, 0.0, 0.0, 0.0, 1.700950518096319E9, 0.0, 2023-11-25 17:15:18.096
255.0, 28653.550583547425, 38069.66997023463, -46742.61620552733, -42007.2650322038, -59852.07079077611, -17459.372277184997, -6665.2007895947445, -26088.576148578664, -0.198, 0.932, 0.28200000000000003, 192.0, 0.0, 0.0, 0.0, 0.0, 0.0, 0.0, 0.0, 0.0, 0.0, 1.700950518100242E9, 0.0, 2023-11-25 17:15:18.100
0.0, 28714.794363354966, 38105.79038927441, -46705.2217370536, -41966.11547066158, -59787.362490578, -17385.81268618258, -6570.652910548796, -26066.470273312363, -0.194, 0.932, 0.28600000000000003, 192.0, 249.0, 240.0, 29.0, 32.0, 8.0, 240.0, 0.0, 0.0, 0.0, 1.700950518104312E9, 0.0, 2023-11-25 17:15:18.104
1.0, 28663.631220296767, 38004.80520782533, -46759.46942084663, -42043.58661694368, -59826.27687767469, -17439.54627985314, -6357.931358567639, -26148.590582441164, -0.194, 0.932, 0.28600000000000003, 192.0, 0.0, 0.0, 0.0, 0.0, 0.0, 0.0, 0.0, 0.0, 0.0, 1.700950518107273E9, 0.0, 2023-11-25 17:15:18.107
2.0, 28631.66822572568, 37984.465120371, -46759.38001386882, -42046.40293674504, -59850.148540752954, -17474.973794814803, -6477.2449704700675, -26152.479785976386, -0.194, 0.932, 0.28600000000000003, 192.0, 0.0, 0.0, 0.0, 0.0, 0.0, 0.0, 0.0, 0.0, 0.0, 1.700950518110223E9, 0.0, 2023-11-25 17:15:18.110
3.0, 28659.540851061447, 38057.28710380639, -46731.84266469988, -41995.77623555377, -59833.20591845583, -17440.641515331452, -6603.733492342651, -26089.894901501528, -0.194, 0.932, 0.28600000000000003, 192.0, 0.0, 0.0, 0.0, 0.0, 0.0, 0.0, 0.0, 0.0, 0.0, 1.700950518114304E9, 0.0, 2023-11-25 17:15:18.114
4.0, 28724.651482659756, 38114.105238211785, -46677.75144311803, -41937.214665080865, -59762.127371087954, -17369.361802263476, -6600.06780625198, -26040.58695323312, -0.194, 0.932, 0.28600000000000003, 192.0, 0.0, 0.0, 0.0, 0.0, 0.0, 0.0, 0.0, 0.0, 0.0, 1.700950518118258E9, 0.0, 2023-11-25 17:15:18.118
5.0, 28685.53592986297, 38028.85568485924, -46728.936937920684, -42003.2640699463, -59784.233246354255, -17391.802953696606, -6349.437695674622, -26116.35936693661, -0.194, 0.932, 0.28600000000000003, 192.0, 0.0, 0.0, 0.0, 0.0, 0.0, 0.0, 0.0, 0.0, 0.0, 1.700950518123313E9, 0.0, 2023-11-25 17:15:18.123
6.0, 28630.86356292529, 37976.91023074511, -46751.57925505391, -42040.74794539785, -59836.35751442403, -17457.002992272734, -6444.119685187303, -26129.524544420787, -0.194, 0.932, 0.28600000000000003, 192.0, 0.0, 0.0, 0.0, 0.0, 0.0, 0.0, 0.0, 0.0, 0.0, 1.700950518127334E9, 0.0, 2023-11-25 17:15:18.127
7.0, 28657.059807426907, 38042.53495246589, -46733.29552808947, -42000.20188095592, -59830.65781958793, -17426.515212835697, -6571.167000671268, -26093.471180614375, -0.194, 0.932, 0.28600000000000003, 192.0, 0.0, 0.0, 0.0, 0.0, 0.0, 0.0, 0.0, 0.0, 0.0, 1.700950518130293E9, 0.0, 2023-11-25 17:15:18.130
8.0, 28722.013976814033, 38111.06540096586, -46679.62898965228, -41942.400269794496, -59775.73958346124, -17370.63585169743, -6627.672210654285, -26048.745339959307, -0.194, 0.932, 0.28600000000000003, 192.0, 0.0, 0.0, 0.0, 0.0, 0.0, 0.0, 0.0, 0.0, 0.0, 1.700950518134318E9, 0.0, 2023-11-25 17:15:18.134
9.0, 28703.931415549687, 38041.84204838777, -46717.895176159764, -41992.937564007945, -59776.94657766182, -17367.886587129426, -6358.333689967834, -26117.722823348384, -0.194, 0.932, 0.28600000000000003, 192.0, 0.0, 0.0, 0.0, 0.0, 0.0, 0.0, 0.0, 0.0, 0.0, 1.70095051813834E9, 0.0, 2023-11-25 17:15:18.138
10.0, 28632.182315848153, 37957.97830319146, -46753.34504286588, -42054.606026960144, -59843.04068601617, -17462.30035570864, -6413.073112138881, -26157.777149412294, -0.19, 0.928, 0.28600000000000003, 192.0, 250.0, 16.0, 29.0, 0.0, 8.0, 240.0, 0.0, 0.0, 0.0, 1.700950518142383E9, 0.0, 2023-11-25 17:15:18.142
11.0, 28644.98986542104, 38014.192940496556, -46741.118638648826, -42022.33010796668, -59844.24768021676, -17441.267364176198, -6540.835683445416, -26111.30787268971, -0.19, 0.928, 0.28600000000000003, 192.0, 0.0, 0.0, 0.0, 0.0, 0.0, 0.0, 0.0, 0.0, 0.0, 1.700950518146331E9, 0.0, 2023-11-25 17:15:18.146
12.0, 28709.988738297077, 38101.76707527245, -46684.680483899174, -41960.3040171032, -59796.526705804674, -17402.621198012974, -6657.400030779842, -26049.661761481973, -0.19, 0.928, 0.28600000000000003, 192.0, 0.0, 0.0, 0.0, 0.0, 0.0, 0.0, 0.0, 0.0, 0.0, 1.700950518150386E9, 0.0, 2023-11-25 17:15:18.150
13.0, 28718.996491312566, 38064.30555156536, -46705.26644054252, -41987.93077324996, -59776.119563116976, -17375.620290710962, -6398.1197950982805, -26090.16312243499, -0.19, 0.928, 0.28600000000000003, 192.0, 0.0, 0.0, 0.0, 0.0, 0.0, 0.0, 0.0, 0.0, 0.0, 1.700950518155379E9, 0.0, 2023-11-25 17:15:18.155
14.0, 28635.669187983178, 37963.007445693904, -46758.41888885724, -42069.3805300451, -59851.28847972018, -17479.511198939228, -6388.620303704775, -26138.107614291624, -0.19, 0.928, 0.28600000000000003, 192.0, 0.0, 0.0, 0.0, 0.0, 0.0, 0.0, 0.0, 0.0, 0.0, 1.700950518159445E9, 0.0, 2023-11-25 17:15:18.159
15.0, 28640.228943852064, 38004.58169038078, -46752.719194021134, -42041.88788436507, -59857.99400305677, -17468.536492411673, -6525.077703604425, -26108.200980210422, -0.19, 0.928, 0.28600000000000003, 192.0, 0.0, 0.0, 0.0, 0.0, 0.0, 0.0, 0.0, 0.0, 0.0, 1.70095051816343E9, 0.0, 2023-11-25 17:15:18.163
16.0, 28693.627261355792, 38085.986743687004, -46708.99918186655, -41984.5109563483, -59826.61215384152, -17444.39660839994, -6672.263940842622, -26066.470273312363, -0.19, 0.928, 0.28600000000000003, 192.0, 0.0, 0.0, 0.0, 0.0, 0.0, 0.0, 0.0, 0.0, 0.0, 1.700950518167583E9, 0.0, 2023-11-25 17:15:18.167
17.0, 28729.837087373387, 38077.49308079399, -46705.53466147598, -41979.63827605704, -59781.014595152694, -17391.221808340768, -6470.003005266548, -26089.559625334696, -0.19, 0.928, 0.28600000000000003, 192.0, 0.0, 0.0, 0.0, 0.0, 0.0, 0.0, 0.0, 0.0, 0.0, 1.700950518171452E9, 0.0, 2023-11-25 17:15:18.171
18.0, 28655.785757992955, 37974.47389059948, -46763.22451391513, -42062.07150960821, -59848.628622129996, -17487.066088565123, -6395.482289252554, -26177.960774655436, -0.19, 0.928, 0.28600000000000003, 192.0, 0.0, 0.0, 0.0, 0.0, 0.0, 0.0, 0.0, 0.0, 0.0, 1.700950518176553E9, 0.0, 2023-11-25 17:15:18.176
19.0, 28646.174507877175, 37992.243527441446, -46765.8396680164, -42046.17941930049, -59863.023145559215, -17484.65210016395, -6524.116578592847, -26156.3242860227, -0.19, 0.928, 0.28600000000000003, 192.0, 0.0, 0.0, 0.0, 0.0, 0.0, 0.0, 0.0, 0.0, 0.0, 1.700950518180484E9, 0.0, 2023-11-25 17:15:18.180
20.0, 28699.036383513976, 38084.8915082087, -46715.99527788106, -41978.65479930101, -59826.70156081934, -17441.60264034303, -6671.191057108767, -26068.884261713538, -0.186, 0.92, 0.28200000000000003, 192.0, 250.0, 48.0, 28.0, 192.0, 8.0, 208.0, 0.0, 0.0, 0.0, 1.700950518184624E9, 0.0, 2023-11-25 17:15:18.184
21.0, 28740.431814245203, 38093.49692982399, -46699.320876517406, -41957.80062172421, -59773.77262994917, -17373.876854643448, -6520.160319824257, -26061.418779065465, -0.186, 0.92, 0.28200000000000003, 192.0, 0.0, 0.0, 0.0, 0.0, 0.0, 0.0, 0.0, 0.0, 0.0, 1.700950518187665E9, 0.0, 2023-11-25 17:15:18.187
22.0, 28668.570955821393, 37978.18428017906, -46761.4363743587, -42045.75473615584, -59834.54702312315, -17455.237204460765, -6373.018786074971, -26146.64598067355, -0.186, 0.92, 0.28200000000000003, 192.0, 0.0, 0.0, 0.0, 0.0, 0.0, 0.0, 0.0, 0.0, 0.0, 1.700950518190512E9, 0.0, 2023-11-25 17:15:18.190
23.0, 28645.503955543514, 37978.13957669015, -46760.9893394696, -42040.36796574211, -59855.49060767778, -17475.01849830371, -6503.396511482777, -26136.69945439094, -0.186, 0.92, 0.28200000000000003, 192.0, 0.0, 0.0, 0.0, 0.0, 0.0, 0.0, 0.0, 0.0, 0.0, 1.700950518194618E9, 0.0, 2023-11-25 17:15:18.194
24.0, 28680.730304805078, 38056.974179384015, -46727.81935069792, -41987.617848827584, -59836.245755701755, -17442.653172332426, -6645.665364940806, -26072.05820942619, -0.186, 0.92, 0.28200000000000003, 192.0, 0.0, 0.0, 0.0, 0.0, 0.0, 0.0, 0.0, 0.0, 0.0, 1.700950518198597E9, 0.0, 2023-11-25 17:15:18.198
25.0, 28732.92162810822, 38091.01588618945, -46694.35878924833, -41953.59849376661, -59779.31586257409, -17382.482276258743, -6577.447840863209, -26059.0494941532, -0.186, 0.92, 0.28200000000000003, 192.0, 0.0, 0.0, 0.0, 0.0, 0.0, 0.0, 0.0, 0.0, 0.0, 1.700950518202583E9, 0.0, 2023-11-25 17:15:18.202
26.0, 28693.448447400147, 37999.70901008952, -46738.034097913995, -42024.00648880083, -59807.50141233223, -17428.03513145866, -6369.733079640041, -26134.30781773422, -0.186, 0.92, 0.28200000000000003, 192.0, 0.0, 0.0, 0.0, 0.0, 0.0, 0.0, 0.0, 0.0, 0.0, 1.700950518206591E9, 0.0, 2023-11-25 17:15:18.206
27.0, 28652.43299632466, 37964.72853001697, -46750.551074808965, -42044.83831463317, -59847.488683162774, -17476.56076867113, -6481.804726338951, -26144.16493703901, -0.186, 0.92, 0.28200000000000003, 192.0, 0.0, 0.0, 0.0, 0.0, 0.0, 0.0, 0.0, 0.0, 0.0, 1.700950518210604E9, 0.0, 2023-11-25 17:15:18.210
28.0, 28681.110284460818, 38040.702109420556, -46726.8805774308, -42002.2135379569, -59839.79968307015, -17456.466550405807, -6627.0463618095355, -26104.959977264403, -0.186, 0.92, 0.28200000000000003, 192.0, 0.0, 0.0, 0.0, 0.0, 0.0, 0.0, 0.0, 0.0, 0.0, 1.700950518214615E9, 0.0, 2023-11-25 17:15:18.214
29.0, 28739.96242761164, 38096.134435669715, -46678.60080940733, -41954.78313622274, -59779.65113874092, -17396.474468287764, -6626.442864709243, -26057.171947618957, -0.186, 0.92, 0.28200000000000003, 192.0, 0.0, 0.0, 0.0, 0.0, 0.0, 0.0, 0.0, 0.0, 0.0, 1.700950518217622E9, 0.0, 2023-11-25 17:15:18.217
30.0, 28705.317223705915, 38014.5729201523, -46726.76881870852, -42020.74313411035, -59798.158383149916, -17414.288808618643, -6365.888579593728, -26109.87736104457, -0.186, 0.92, 0.28200000000000003, 192.0, 250.0, 48.0, 28.0, 192.0, 8.0, 208.0, 0.0, 0.0, 0.0, 1.700950518222758E9, 0.0, 2023-11-25 17:15:18.222
31.0, 28644.274609598473, 37952.61388452219, -46753.25563588806, -42068.151184100054, -59854.127151266, -17492.49756246776, -6455.049688225948, -26137.302951491234, -0.186, 0.92, 0.28200000000000003, 192.0, 0.0, 0.0, 0.0, 0.0, 0.0, 0.0, 0.0, 0.0, 0.0, 1.700950518226713E9, 0.0, 2023-11-25 17:15:18.226
32.0, 28671.119054689298, 38024.34063247927, -46728.467551287125, -42023.0677155337, -59840.55964238163, -17465.966041799315, -6591.305922425499, -26110.12323023358, -0.186, 0.92, 0.28200000000000003, 192.0, 0.0, 0.0, 0.0, 0.0, 0.0, 0.0, 0.0, 0.0, 0.0, 1.700950518230785E9, 0.0, 2023-11-25 17:15:18.230
33.0, 28742.085843334895, 38103.264642150956, -46667.022605779486, -41959.47700255836, -59776.29837707262, -17409.30436960511, -6653.577882477985, -26056.032008651735, -0.186, 0.92, 0.28200000000000003, 192.0, 0.0, 0.0, 0.0, 0.0, 0.0, 0.0, 0.0, 0.0, 0.0, 1.700950518234696E9, 0.0, 2023-11-25 17:15:18.234
34.0, 28725.702014649156, 38036.58938844078, -46704.32766727539, -42006.303907192225, -59774.73375496075, -17395.625101998463, -6372.750565141508, -26091.638337569042, -0.186, 0.92, 0.28200000000000003, 192.0, 0.0, 0.0, 0.0, 0.0, 0.0, 0.0, 0.0, 0.0, 0.0, 1.700950518238703E9, 0.0, 2023-11-25 17:15:18.238
35.0, 28649.90724920121, 37952.36801533318, -46741.945653193674, -42066.966541643924, -59841.833691815584, -17489.122449055012, -6422.282030854468, -26134.956018323424, -0.186, 0.92, 0.28200000000000003, 192.0, 0.0, 0.0, 0.0, 0.0, 0.0, 0.0, 0.0, 0.0, 0.0, 1.700950518243775E9, 0.0, 2023-11-25 17:15:18.243
36.0, 28665.82169125339, 38012.89653931815, -46726.54530126397, -42027.2698434913, -59837.25158420225, -17464.960213298826, -6551.273948106044, -26103.864741786092, -0.186, 0.92, 0.28200000000000003, 192.0, 0.0, 0.0, 0.0, 0.0, 0.0, 0.0, 0.0, 0.0, 0.0, 1.700950518247808E9, 0.0, 2023-11-25 17:15:18.247
37.0, 28725.54555243797, 38096.96145021456, -46679.9195623302, -41969.69174977443, -59795.38676683745, -17429.130366936966, -6665.334900061477, -26055.495566784808, -0.186, 0.92, 0.28200000000000003, 192.0, 0.0, 0.0, 0.0, 0.0, 0.0, 0.0, 0.0, 0.0, 0.0, 1.700950518251708E9, 0.0, 2023-11-25 17:15:18.251
38.0, 28734.799174642467, 38061.19865908607, -46704.39472250876, -41994.88216577556, -59775.51606601669, -17398.888456688936, -6421.253850609523, -26098.32150916118, -0.186, 0.92, 0.28200000000000003, 192.0, 0.0, 0.0, 0.0, 0.0, 0.0, 0.0, 0.0, 0.0, 0.0, 1.700950518255699E9, 0.0, 2023-11-25 17:15:18.255
39.0, 28658.847946983333, 37961.80045149332, -46753.50150507707, -42068.575867244705, -59844.985287783784, -17493.16811480142, -6402.679550967164, -26137.057082302224, -0.186, 0.92, 0.28200000000000003, 192.0, 0.0, 0.0, 0.0, 0.0, 0.0, 0.0, 0.0, 0.0, 0.0, 1.700950518259775E9, 0.0, 2023-11-25 17:15:18.259
40.0, 28654.846984725835, 37999.53019613388, -46754.23911264409, -42048.14637281256, -59858.30692747914, -17488.340137999076, -6533.884290919816, -26136.051253801736, -0.188, 0.936, 0.28200000000000003, 192.0, 250.0, 32.0, 29.0, 64.0, 8.0, 208.0, 0.0, 0.0, 0.0, 1.7009505182651E9, 0.0, 2023-11-25 17:15:18.265
41.0, 28706.077183017398, 38085.38324658671, -46708.84271965537, -41991.70821806291, -59826.254525930235, -17460.825140574594, -6679.438850812776, -26086.475084599864, -0.188, 0.936, 0.28200000000000003, 192.0, 0.0, 0.0, 0.0, 0.0, 0.0, 0.0, 0.0, 0.0, 0.0, 1.700950518267803E9, 0.0, 2023-11-25 17:15:18.267
42.0, 28738.55426771096, 38080.398807573176, -46703.90298413074, -41986.366151138085, -59780.29933933012, -17395.06630838708, -6472.260531456534, -26081.64710779752, -0.188, 0.936, 0.28200000000000003, 192.0, 0.0, 0.0, 0.0, 0.0, 0.0, 0.0, 0.0, 0.0, 0.0, 1.700950518270894E9, 0.0, 2023-11-25 17:15:18.270
43.0, 28671.54373783395, 37983.74986454843, -46751.69101377619, -42060.14925958506, -59836.44692140185, -17472.246881991254, -6375.633940176242, -26132.45262294443, -0.188, 0.936, 0.28200000000000003, 192.0, 0.0, 0.0, 0.0, 0.0, 0.0, 0.0, 0.0, 0.0, 0.0, 1.70095051827376E9, 0.0, 2023-11-25 17:15:18.273
44.0, 28665.37465636428, 38003.79937932484, -46747.51123756305, -42042.11140180963, -59849.723857608304, -17471.889254079968, -6503.731787649606, -26122.72961410637, -0.188, 0.936, 0.28200000000000003, 192.0, 0.0, 0.0, 0.0, 0.0, 0.0, 0.0, 0.0, 0.0, 0.0, 1.700950518278782E9, 0.0, 2023-11-25 17:15:18.278
45.0, 28706.904197562242, 38084.15390064167, -46711.43552201218, -41992.088197718644, -59829.58493585407, -17449.31399218011, -6657.690603457761, -26094.991099237337, -0.188, 0.936, 0.28200000000000003, 192.0, 0.0, 0.0, 0.0, 0.0, 0.0, 0.0, 0.0, 0.0, 0.0, 1.700950518282846E9, 0.0, 2023-11-25 17:15:18.282
46.0, 28746.913820137244, 38096.08973218081, -46695.319914259904, -41974.765595765784, -59780.43344979685, -17388.24902632821, -6524.317744292945, -26102.50128537432, -0.188, 0.936, 0.28200000000000003, 192.0, 0.0, 0.0, 0.0, 0.0, 0.0, 0.0, 0.0, 0.0, 0.0, 1.700950518286856E9, 0.0, 2023-11-25 17:15:18.286
47.0, 28681.57967109438, 37987.348495405735, -46756.87661848982, -42059.52341074031, -59837.788026069175, -17454.387838171464, -6357.26080623398, -26156.816024400716, -0.188, 0.936, 0.28200000000000003, 192.0, 0.0, 0.0, 0.0, 0.0, 0.0, 0.0, 0.0, 0.0, 0.0, 1.700950518290946E9, 0.0, 2023-11-25 17:15:18.290
48.0, 28659.138519661254, 37983.74986454843, -46757.457763845654, -42057.534105483785, -59861.905558336446, -17471.665736635416, -6479.524848404509, -26133.592561911653, -0.188, 0.936, 0.28200000000000003, 192.0, 0.0, 0.0, 0.0, 0.0, 0.0, 0.0, 0.0, 0.0, 0.0, 1.700950518293899E9, 0.0, 2023-11-25 17:15:18.293
49.0, 28693.046115999954, 38064.61847598773, -46728.55695826495, -42012.3165264507, -59847.89101456297, -17453.180843970877, -6625.437036208754, -26114.12419249108, -0.188, 0.936, 0.28200000000000003, 192.0, 0.0, 0.0, 0.0, 0.0, 0.0, 0.0, 0.0, 0.0, 0.0, 1.700950518297957E9, 0.0, 2023-11-25 17:15:18.297
50.0, 28747.45026200417, 38107.13149394173, -46695.34226600436, -41974.96676146588, -59790.58114177956, -17391.82530544106, -6565.422602346254, -26103.797686552727, -0.192, 0.93, 0.28800000000000003, 192.0, 250.0, 0.0, 29.0, 16.0, 9.0, 0.0, 0.0, 0.0, 0.0, 1.700950518301871E9, 0.0, 2023-11-25 17:15:18.301
51.0, 28700.556302136934, 38019.89263533266, -46748.89704571928, -42045.441811733464, -59821.85123227254, -17431.030265215668, -6337.971250769049, -26174.85388217615, -0.192, 0.93, 0.28800000000000003, 192.0, 0.0, 0.0, 0.0, 0.0, 0.0, 0.0, 0.0, 0.0, 0.0, 1.700950518305865E9, 0.0, 2023-11-25 17:15:18.305
52.0, 28652.902382958222, 37984.33100990427, -46767.605455828365, -42066.631265477095, -59862.75492462575, -17477.276024493698, -6451.674574813196, -26169.355353040144, -0.192, 0.93, 0.28800000000000003, 192.0, 0.0, 0.0, 0.0, 0.0, 0.0, 0.0, 0.0, 0.0, 0.0, 1.700950518310863E9, 0.0, 2023-11-25 17:15:18.310
53.0, 28671.9684209786, 38053.420252015625, -46752.987414954594, -42026.018145801805, -59856.94347106737, -17453.426713159886, -6586.813221789983, -26128.876343831584, -0.192, 0.93, 0.28800000000000003, 192.0, 0.0, 0.0, 0.0, 0.0, 0.0, 0.0, 0.0, 0.0, 0.0, 1.700950518315075E9, 0.0, 2023-11-25 17:15:18.315
54.0, 28725.858476860343, 38108.427895120134, -46715.97292613661, -41979.70533129041, -59805.80267975363, -17397.525000277165, -6598.100852739913, -26088.374982878566, -0.192, 0.93, 0.28800000000000003, 192.0, 0.0, 0.0, 0.0, 0.0, 0.0, 0.0, 0.0, 0.0, 0.0, 1.700950518318947E9, 0.0, 2023-11-25 17:15:18.318
55.0, 28698.410534669227, 38035.04711807336, -46768.387766884305, -42038.870398863604, -59821.89593576145, -17412.813593484592, -6344.341497938812, -26157.71009417893, -0.192, 0.93, 0.28800000000000003, 192.0, 0.0, 0.0, 0.0, 0.0, 0.0, 0.0, 0.0, 0.0, 0.0, 1.700950518322941E9, 0.0, 2023-11-25 17:15:18.322
56.0, 28646.889763699743, 37989.20369019553, -46790.895973550796, -42071.12396611261, -59870.287462507185, -17483.959196085834, -6435.581318805375, -26183.61576600263, -0.192, 0.93, 0.28800000000000003, 192.0, 0.0, 0.0, 0.0, 0.0, 0.0, 0.0, 0.0, 0.0, 0.0, 1.700950518326998E9, 0.0, 2023-11-25 17:15:18.326
57.0, 28672.72838029008, 38064.953752154564, -46770.64529307429, -42020.7207823659, -59859.111590279535, -17448.509329379718, -6560.415811588266, -26137.07943404668, -0.192, 0.93, 0.28800000000000003, 192.0, 0.0, 0.0, 0.0, 0.0, 0.0, 0.0, 0.0, 0.0, 0.0, 1.700950518331996E9, 0.0, 2023-11-25 17:15:18.331
58.0, 28736.54261070998, 38141.88845656973, -46718.40926628224, -41955.96777867887, -59803.83572624156, -17395.78156420965, -6632.142559545346, -26085.223386910366, -0.192, 0.93, 0.28800000000000003, 192.0, 0.0, 0.0, 0.0, 0.0, 0.0, 0.0, 0.0, 0.0, 0.0, 1.70095051833594E9, 0.0, 2023-11-25 17:15:18.335
59.0, 28726.77489838301, 38083.237479119, -46756.51899057854, -41997.74318906584, -59798.58306629457, -17388.561950750583, -6365.016861559971, -26156.480748233887, -0.192, 0.93, 0.28800000000000003, 192.0, 0.0, 0.0, 0.0, 0.0, 0.0, 0.0, 0.0, 0.0, 0.0, 1.700950518339984E9, 0.0, 2023-11-25 17:15:18.339
60.0, 28656.232792882063, 38000.71483859001, -46796.9979997871, -42057.93643688398, -59861.59263391407, -17477.0748587936, -6402.232516078057, -26184.308670080743, -0.184, 0.932, 0.28400000000000003, 192.0, 250.0, 64.0, 29.0, 32.0, 8.0, 224.0, 0.0, 0.0, 0.0, 1.700950518343969E9, 0.0, 2023-11-25 17:15:18.343
61.0, 28680.596194338348, 38072.30747608036, -46772.500487864076, -42005.54394788074, -59845.0746947616, -17437.288753663153, -6529.05631411747, -26138.107614291624, -0.184, 0.932, 0.28400000000000003, 192.0, 0.0, 0.0, 0.0, 0.0, 0.0, 0.0, 0.0, 0.0, 0.0, 1.700950518348019E9, 0.0, 2023-11-25 17:15:18.348
62.0, 28730.619398429324, 38149.756270617996, -46726.14296986377, -41946.42358379645, -59806.40617685392, -17401.43655555684, -6643.899577128837, -26096.533369604753, -0.184, 0.932, 0.28400000000000003, 192.0, 0.0, 0.0, 0.0, 0.0, 0.0, 0.0, 0.0, 0.0, 0.0, 1.700950518350974E9, 0.0, 2023-11-25 17:15:18.350
63.0, 28743.91868638023, 38113.054706222385, -46737.22943511361, -41960.68399675894, -59777.035984639646, -17361.449284726295, -6402.277219566968, -26139.78399512577, -0.184, 0.932, 0.28400000000000003, 192.0, 0.0, 0.0, 0.0, 0.0, 0.0, 0.0, 0.0, 0.0, 0.0, 1.700950518355022E9, 0.0, 2023-11-25 17:15:18.355
64.0, 28665.8663947423, 38013.25416722944, -46783.29638043599, -42034.534160439274, -59842.92892729389, -17455.79599807215, -6369.174286028659, -26197.94323419848, -0.184, 0.932, 0.28400000000000003, 192.0, 0.0, 0.0, 0.0, 0.0, 0.0, 0.0, 0.0, 0.0, 0.0, 1.700950518358256E9, 0.0, 2023-11-25 17:15:18.358
65.0, 28665.888746486755, 38052.6826444486, -46774.57920009842, -42007.64501185954, -59847.93571805188, -17443.614297344007, -6498.6132381693415, -26171.255251318846, -0.184, 0.932, 0.28400000000000003, 192.0, 0.0, 0.0, 0.0, 0.0, 0.0, 0.0, 0.0, 0.0, 0.0, 1.700950518362125E9, 0.0, 2023-11-25 17:15:18.362
66.0, 28718.84002910138, 38140.793221091415, -46727.19350185317, -41950.49160128732, -59814.65397055793, -17413.864125473992, -6641.686754427762, -26111.710204089904, -0.184, 0.932, 0.28400000000000003, 192.0, 0.0, 0.0, 0.0, 0.0, 0.0, 0.0, 0.0, 0.0, 0.0, 1.700950518366183E9, 0.0, 2023-11-25 17:15:18.366
67.0, 28759.229631332117, 38138.53569490143, -46716.576423236904, -41943.361394806074, -59766.105981601, -17350.809854365572, -6442.353897375334, -26098.16504694999, -0.184, 0.932, 0.28400000000000003, 192.0, 0.0, 0.0, 0.0, 0.0, 0.0, 0.0, 0.0, 0.0, 0.0, 1.700950518370075E9, 0.0, 2023-11-25 17:15:18.370
68.0, 28683.747790306545, 38023.491266189965, -46780.45770889017, -42034.98119532838, -59839.397351669955, -17443.703704321826, -6338.552396124887, -26170.830568174195, -0.184, 0.932, 0.28400000000000003, 192.0, 0.0, 0.0, 0.0, 0.0, 0.0, 0.0, 0.0, 0.0, 0.0, 1.700950518375156E9, 0.0, 2023-11-25 17:15:18.375
69.0, 28670.58261282237, 38032.923702350105, -46788.14670898279, -42032.298985993744, -59864.54306418217, -17463.239128975765, -6482.274112972512, -26184.867463692128, -0.184, 0.932, 0.28400000000000003, 192.0, 0.0, 0.0, 0.0, 0.0, 0.0, 0.0, 0.0, 0.0, 0.0, 1.700950518378098E9, 0.0, 2023-11-25 17:15:18.378
70.0, 28720.06937504642, 38125.45992439508, -46744.337289850395, -41973.67036028748, -59834.5246713787, -17428.236297158754, -6631.427303722776, -26113.811268068705, -0.178, 0.932, 0.28, 192.0, 250.0, 112.0, 29.0, 32.0, 8.0, 192.0, 0.0, 0.0, 0.0, 1.700950518382382E9, 0.0, 2023-11-25 17:15:18.382
71.0, 28766.158672113263, 38144.07892752635, -46720.7785511945, -41951.18450536543, -59778.35473756251, -17365.450246983797, -6504.3352847499, -26106.234026698356, -0.178, 0.932, 0.28, 192.0, 0.0, 0.0, 0.0, 0.0, 0.0, 0.0, 0.0, 0.0, 0.0, 1.700950518386292E9, 0.0, 2023-11-25 17:15:18.386
72.0, 28705.987776039576, 38042.71376642153, -46777.08259547742, -42033.41657321651, -59828.71321782032, -17436.305276907122, -6335.356096667779, -26189.56133002774, -0.178, 0.932, 0.28, 192.0, 0.0, 0.0, 0.0, 0.0, 0.0, 0.0, 0.0, 0.0, 0.0, 1.700950518390187E9, 0.0, 2023-11-25 17:15:18.390
73.0, 28684.194825195653, 38040.52329546491, -46774.91447626525, -42029.90734933702, -59847.95806979634, -17456.913585294915, -6461.464638884621, -26164.169748326512, -0.178, 0.932, 0.28, 192.0, 0.0, 0.0, 0.0, 0.0, 0.0, 0.0, 0.0, 0.0, 0.0, 1.700950518394301E9, 0.0, 2023-11-25 17:15:18.394
74.0, 28726.104346049353, 38123.76119181648, -46736.06714440193, -41970.228191641356, -59820.107796205026, -17422.26838138919, -6596.200954461212, -26104.624701097575, -0.178, 0.932, 0.28, 192.0, 0.0, 0.0, 0.0, 0.0, 0.0, 0.0, 0.0, 0.0, 0.0, 1.700950518398143E9, 0.0, 2023-11-25 17:15:18.398
75.0, 28776.015791418053, 38158.339340488834, -46705.48995798707, -41932.00670862278, -59764.4072490224, -17365.67376442835, -6544.72488698064, -26089.559625334696, -0.178, 0.932, 0.28, 192.0, 0.0, 0.0, 0.0, 0.0, 0.0, 0.0, 0.0, 0.0, 0.0, 1.700950518403209E9, 0.0, 2023-11-25 17:15:18.403
76.0, 28727.89248560578, 38064.886696921196, -46761.458726103156, -42000.80537805622, -59797.04079592715, -17403.627026513463, -6312.7137795345525, -26157.061893589726, -0.178, 0.932, 0.28, 192.0, 0.0, 0.0, 0.0, 0.0, 0.0, 0.0, 0.0, 0.0, 0.0, 1.700950518407194E9, 0.0, 2023-11-25 17:15:18.407
77.0, 28683.077237972884, 38029.83916161527, -46777.70844432217, -42021.88307307757, -59838.68209584738, -17457.494730650753, -6426.7076762566185, -26176.440856032474, -0.178, 0.932, 0.28, 192.0, 0.0, 0.0, 0.0, 0.0, 0.0, 0.0, 0.0, 0.0, 0.0, 1.700950518411185E9, 0.0, 2023-11-25 17:15:18.411
78.0, 28722.90804659224, 38120.40843014818, -46744.180827639204, -41962.62859852655, -59816.50916534772, -17420.994331955237, -6569.132991925835, -26140.722768392894, -0.178, 0.932, 0.28, 192.0, 0.0, 0.0, 0.0, 0.0, 0.0, 0.0, 0.0, 0.0, 0.0, 1.700950518415221E9, 0.0, 2023-11-25 17:15:18.415
79.0, 28782.92248045474, 38185.809634424404, -46697.01864683851, -41908.492673455796, -59758.97577511976, -17360.62227018145, -6588.735471813139, -26094.924044003972, -0.178, 0.932, 0.28, 192.0, 0.0, 0.0, 0.0, 0.0, 0.0, 0.0, 0.0, 0.0, 0.0, 1.700950518419188E9, 0.0, 2023-11-25 17:15:18.419
80.0, 28759.475500521126, 38111.17715968814, -46742.236225871595, -41967.143650906524, -59771.44804852582, -17368.065401085067, -6324.403741884678, -26147.808271385227, -0.182, 0.932, 0.278, 192.0, 250.0, 80.0, 29.0, 32.0, 8.0, 176.0, 0.0, 0.0, 0.0, 1.700950518424253E9, 0.0, 2023-11-25 17:15:18.424
81.0, 28709.698165619156, 38055.96835088353, -46760.05056620247, -42003.10760773511, -59820.577182838584, -17432.147852438433, -6396.21989681958, -26144.343750994656, -0.182, 0.932, 0.278, 192.0, 0.0, 0.0, 0.0, 0.0, 0.0, 0.0, 0.0, 0.0, 0.0, 1.700950518428346E9, 0.0, 2023-11-25 17:15:18.428
82.0, 28722.9303983367, 38113.72525855604, -46751.735717265095, -41972.955104464905, -59825.69573231885, -17416.54633480863, -6526.307049549467, -26121.232047227866, -0.182, 0.932, 0.278, 192.0, 0.0, 0.0, 0.0, 0.0, 0.0, 0.0, 0.0, 0.0, 0.0, 1.700950518432248E9, 0.0, 2023-11-25 17:15:18.432
83.0, 28783.771846744043, 38190.97288739358, -46702.4724724856, -41916.807522393174, -59779.87465618547, -17376.62611921145, -6622.4642541961975, -26083.524654331763, -0.182, 0.932, 0.278, 192.0, 0.0, 0.0, 0.0, 0.0, 0.0, 0.0, 0.0, 0.0, 0.0, 1.700950518435353E9, 0.0, 2023-11-25 17:15:18.435
84.0, 28777.289840852005, 38136.9040175562, -46735.55305427946, -41959.85698221409, -59777.103039873014, -17363.751514405194, -6360.725326624552, -26137.54882068024, -0.182, 0.932, 0.278, 192.0, 0.0, 0.0, 0.0, 0.0, 0.0, 0.0, 0.0, 0.0, 0.0, 1.700950518438226E9, 0.0, 2023-11-25 17:15:18.438
85.0, 28703.39497368276, 38048.54757172437, -46778.669569333746, -42032.83542786067, -59849.0756570191, -17465.36254469902, -6394.521164240977, -26189.449571305464, -0.182, 0.932, 0.278, 192.0, 0.0, 0.0, 0.0, 0.0, 0.0, 0.0, 0.0, 0.0, 0.0, 1.700950518442512E9, 0.0, 2023-11-25 17:15:18.442
86.0, 28716.046061044464, 38100.180101416125, -46766.19729592768, -42003.8675670466, -59849.32152620811, -17452.175015470388, -6532.38672404131, -26179.52539676731, -0.182, 0.932, 0.278, 192.0, 0.0, 0.0, 0.0, 0.0, 0.0, 0.0, 0.0, 0.0, 0.0, 1.700950518446506E9, 0.0, 2023-11-25 17:15:18.446
87.0, 28774.652335006278, 38182.16630007819, -46715.034152869484, -41944.702499473395, -59807.54611582114, -17413.953532451815, -6658.629376724884, -26117.432250670463, -0.182, 0.932, 0.278, 192.0, 0.0, 0.0, 0.0, 0.0, 0.0, 0.0, 0.0, 0.0, 0.0, 1.700950518450302E9, 0.0, 2023-11-25 17:15:18.450
88.0, 28793.517207326557, 38152.326721230354, -46725.047734385465, -41959.34289209162, -59776.45483928381, -17373.496874987708, -6418.8398622083505, -26147.115367307113, -0.182, 0.932, 0.278, 192.0, 0.0, 0.0, 0.0, 0.0, 0.0, 0.0, 0.0, 0.0, 0.0, 1.700950518454336E9, 0.0, 2023-11-25 17:15:18.454
89.0, 28725.8808286048, 38050.268656047425, -46766.30905464996, -42029.97440457039, -59836.4245696574, -17460.89219580796, -6374.114021553281, -26188.1308183826, -0.182, 0.932, 0.278, 192.0, 0.0, 0.0, 0.0, 0.0, 0.0, 0.0, 0.0, 0.0, 0.0, 1.700950518457358E9, 0.0, 2023-11-25 17:15:18.457
90.0, 28729.233590273096, 38084.95856344206, -46756.1837144117, -41998.056113488215, -59838.72679933629, -17441.870861276493, -6497.205078268657, -26157.93361162348, -0.186, 0.928, 0.28200000000000003, 192.0, 250.0, 48.0, 29.0, 0.0, 8.0, 208.0, 0.0, 0.0, 0.0, 1.700950518461505E9, 0.0, 2023-11-25 17:15:18.461
91.0, 28779.748532742087, 38170.78926215044, -46711.50257724555, -41937.32642380315, -59807.523764076686, -17416.747500508725, -6649.263995798111, -26131.089166532656, -0.186, 0.928, 0.28200000000000003, 192.0, 0.0, 0.0, 0.0, 0.0, 0.0, 0.0, 0.0, 0.0, 0.0, 1.700950518466408E9, 0.0, 2023-11-25 17:15:18.466
92.0, 28811.778582546543, 38164.73193940305, -46707.47926324359, -41928.34102253211, -59762.46264725479, -17361.091656815013, -6468.9077697882385, -26147.160070796024, -0.186, 0.928, 0.28200000000000003, 192.0, 0.0, 0.0, 0.0, 0.0, 0.0, 0.0, 0.0, 0.0, 0.0, 1.700950518470425E9, 0.0, 2023-11-25 17:15:18.470
93.0, 28743.806927657955, 38062.02567363092, -46758.55299932397, -42000.425398400475, -59813.64814205744, -17432.59488732754, -6346.576672384343, -26185.560367770242, -0.186, 0.928, 0.28200000000000003, 192.0, 0.0, 0.0, 0.0, 0.0, 0.0, 0.0, 0.0, 0.0, 0.0, 1.700950518474364E9, 0.0, 2023-11-25 17:15:18.474
94.0, 28724.02563381501, 38073.11213888075, -46762.8892377483, -41987.95312499441, -59831.12720622149, -17440.93208800937, -6476.7755838365065, -26166.337867538678, -0.186, 0.928, 0.28200000000000003, 192.0, 0.0, 0.0, 0.0, 0.0, 0.0, 0.0, 0.0, 0.0, 0.0, 1.700950518478417E9, 0.0, 2023-11-25 17:15:18.478
95.0, 28767.812701202954, 38165.38013999226, -46723.19253959567, -41930.48678999982, -59805.84738324254, -17413.059462673602, -6636.210577036211, -26118.281616959768, -0.186, 0.928, 0.28200000000000003, 192.0, 0.0, 0.0, 0.0, 0.0, 0.0, 0.0, 0.0, 0.0, 0.0, 1.700950518482454E9, 0.0, 2023-11-25 17:15:18.482
96.0, 28814.19257094772, 38183.596811723335, -46703.70181843064, -41910.303164756675, -59754.01368785068, -17352.463883455264, -6520.227375057623, -26117.342843692644, -0.186, 0.928, 0.28200000000000003, 192.0, 0.0, 0.0, 0.0, 0.0, 0.0, 0.0, 0.0, 0.0, 0.0, 1.700950518486467E9, 0.0, 2023-11-25 17:15:18.486
97.0, 28750.244230061082, 38076.487252293504, -46762.576313325924, -41998.346686166136, -59803.58985705255, -17416.836907486548, -6333.791474555907, -26185.42625730351, -0.186, 0.928, 0.28200000000000003, 192.0, 0.0, 0.0, 0.0, 0.0, 0.0, 0.0, 0.0, 0.0, 0.0, 1.700950518491465E9, 0.0, 2023-11-25 17:15:18.491
98.0, 28717.722441878614, 38062.070377119824, -46765.81731627194, -42008.06969500419, -59831.95422076634, -17447.324686923588, -6452.568644591409, -26169.914146651525, -0.186, 0.928, 0.28200000000000003, 192.0, 0.0, 0.0, 0.0, 0.0, 0.0, 0.0, 0.0, 0.0, 0.0, 1.700950518495484E9, 0.0, 2023-11-25 17:15:18.495
99.0, 28758.156747598263, 38151.2538374965, -46729.24986234306, -41955.92307518996, -59808.88722048846, -17416.30046561962, -6599.821937062971, -26115.711166347406, -0.182, 0.922, 0.28600000000000003, 192.0, 250.0, 80.0, 28.0, 208.0, 8.0, 240.0, 0.0, 0.0, 0.0, 1.700950518499543E9, 0.0, 2023-11-25 17:15:18.499
100.0, 28806.83884702192, 38186.659000713706, -46697.86801312781, -41921.94842361789, -59757.522911730164, -17359.39292423641, -6566.741355269117, -26094.678174814962, -0.182, 0.922, 0.28600000000000003, 192.0, 0.0, 0.0, 0.0, 0.0, 0.0, 0.0, 0.0, 0.0, 0.0, 1.70095051850348E9, 0.0, 2023-11-25 17:15:18.503
101.0, 28761.59891624438, 38093.78750250191, -46752.31686262094, -41995.30684892021, -59789.77647897917, -17399.87193344497, -6337.211291457569, -26169.958850140436, -0.182, 0.922, 0.28600000000000003, 192.0, 0.0, 0.0, 0.0, 0.0, 0.0, 0.0, 0.0, 0.0, 0.0, 1.700950518507469E9, 0.0, 2023-11-25 17:15:18.507
102.0, 28706.88184581779, 38045.19481005607, -46776.03206348802, -42029.862645848116, -59841.40900867093, -17465.02726853219, -6443.18091192018, -26181.648812490563, -0.182, 0.922, 0.28600000000000003, 192.0, 0.0, 0.0, 0.0, 0.0, 0.0, 0.0, 0.0, 0.0, 0.0, 1.700950518512438E9, 0.0, 2023-11-25 17:15:18.512
103.0, 28732.184020541197, 38119.58141560333, -46754.596740555375, -41987.21551742739, -59834.3235056786, -17442.675524076883, -6582.521686854564, -26147.60710568513, -0.182, 0.922, 0.28600000000000003, 192.0, 0.0, 0.0, 0.0, 0.0, 0.0, 0.0, 0.0, 0.0, 0.0, 1.700950518515481E9, 0.0, 2023-11-25 17:15:18.515
104.0, 28796.713506783668, 38187.03898036945, -46706.29462078746, -41931.17969407794, -59778.555903262604, -17389.500724017707, -6619.670286139284, -26105.764640064794, -0.182, 0.922, 0.28600000000000003, 192.0, 0.0, 0.0, 0.0, 0.0, 0.0, 0.0, 0.0, 0.0, 0.0, 1.700950518518501E9, 0.0, 2023-11-25 17:15:18.518
105.0, 28772.238346605107, 38111.221863177045, -46754.23911264409, -41987.0590552162, -59789.21768536779, -17397.614407254983, -6355.383259699734, -26159.65469594654, -0.182, 0.922, 0.28600000000000003, 192.0, 0.0, 0.0, 0.0, 0.0, 0.0, 0.0, 0.0, 0.0, 0.0, 1.700950518521505E9, 0.0, 2023-11-25 17:15:18.521
106.0, 28700.28808120347, 38038.42223148611, -46790.31482819496, -42040.25620701983, -59854.30596522165, -17483.959196085834, -6429.479292569076, -26184.04044914728, -0.182, 0.922, 0.28600000000000003, 192.0, 0.0, 0.0, 0.0, 0.0, 0.0, 0.0, 0.0, 0.0, 0.0, 1.700950518525555E9, 0.0, 2023-11-25 17:15:18.525
107.0, 28709.72051736361, 38092.80402574588, -46780.97179901264, -42006.48272114786, -59855.200034999856, -17467.84358833356, -6565.690823279718, -26164.84030066017, -0.182, 0.922, 0.28600000000000003, 192.0, 0.0, 0.0, 0.0, 0.0, 0.0, 0.0, 0.0, 0.0, 0.0, 1.70095051853054E9, 0.0, 2023-11-25 17:15:18.530
108.0, 28765.46576803515, 38168.79995689392, -46730.121580376814, -41947.362357063575, -59807.94844722134, -17428.97390472578, -6666.720708217706, -26128.1163845201, -0.182, 0.922, 0.28600000000000003, 192.0, 0.0, 0.0, 0.0, 0.0, 0.0, 0.0, 0.0, 0.0, 0.0, 1.700950518534569E9, 0.0, 2023-11-25 17:15:18.534
109.0, 28770.338448326405, 38127.89626454071, -46750.66283353124, -41971.32342711966, -59788.05539465611, -17399.760174722695, -6407.2169550915905, -26168.438931517474, -0.182, 0.93, 0.28800000000000003, 192.0, 250.0, 80.0, 29.0, 16.0, 9.0, 0.0, 0.0, 0.0, 0.0, 1.700950518538546E9, 0.0, 2023-11-25 17:15:18.538
110.0, 28698.63405211378, 38039.80803964234, -46788.45963340517, -42035.40587847303, -59852.09314252057, -17489.144800799466, -6416.895260440739, -26203.888798223594, -0.182, 0.93, 0.28800000000000003, 192.0, 0.0, 0.0, 0.0, 0.0, 0.0, 0.0, 0.0, 0.0, 0.0, 1.700950518541586E9, 0.0, 2023-11-25 17:15:18.541
111.0, 28706.54656965096, 38088.78071174392, -46775.47326987663, -42001.43122690097, -59848.472159918805, -17469.899948823448, -6542.556767768475, -26179.45834153394, -0.182, 0.93, 0.28800000000000003, 192.0, 0.0, 0.0, 0.0, 0.0, 0.0, 0.0, 0.0, 0.0, 0.0, 1.700950518545544E9, 0.0, 2023-11-25 17:15:18.545
112.0, 28771.970125671643, 38180.154643077214, -46713.00014412405, -41930.88912140002, -59794.91738020389, -17424.324741879074, -6669.2241035967, -26115.577055880673, -0.182, 0.93, 0.28800000000000003, 192.0, 0.0, 0.0, 0.0, 0.0, 0.0, 0.0, 0.0, 0.0, 0.0, 1.700950518549662E9, 0.0, 2023-11-25 17:15:18.549
113.0, 28794.41127710477, 38154.04780555342, -46718.72219070461, -41940.790944193715, -59756.80765590759, -17372.133418575933, -6430.4627693251105, -26134.30781773422, -0.182, 0.93, 0.28800000000000003, 192.0, 0.0, 0.0, 0.0, 0.0, 0.0, 0.0, 0.0, 0.0, 0.0, 1.700950518553575E9, 0.0, 2023-11-25 17:15:18.553
114.0, 28724.8302966154, 38058.85172591826, -46761.14580168078, -42009.81313107171, -59814.139880435454, -17453.94080328236, -6372.59410293032, -26165.913184394027, -0.182, 0.93, 0.28800000000000003, 192.0, 0.0, 0.0, 0.0, 0.0, 0.0, 0.0, 0.0, 0.0, 0.0, 1.700950518558657E9, 0.0, 2023-11-25 17:15:18.558
115.0, 28718.504752934547, 38092.64756353469, -46757.21189465665, -41988.467215116885, -59823.01352298421, -17450.498634636242, -6504.536450449998, -26161.42048375851, -0.182, 0.93, 0.28800000000000003, 192.0, 0.0, 0.0, 0.0, 0.0, 0.0, 0.0, 0.0, 0.0, 0.0, 1.700950518562665E9, 0.0, 2023-11-25 17:15:18.562
116.0, 28760.391922043793, 38175.30431453041, -46718.185748837685, -41938.82399068165, -59798.627769783474, -17433.10897745001, -6657.645899968851, -26136.252419501834, -0.182, 0.93, 0.28800000000000003, 192.0, 0.0, 0.0, 0.0, 0.0, 0.0, 0.0, 0.0, 0.0, 0.0, 1.700950518566665E9, 0.0, 2023-11-25 17:15:18.566
117.0, 28793.092524181906, 38171.39275925073, -46713.26836505751, -41934.46540051287, -59755.62301345146, -17377.408430267387, -6480.821249582917, -26140.20867827042, -0.182, 0.93, 0.28800000000000003, 192.0, 0.0, 0.0, 0.0, 0.0, 0.0, 0.0, 0.0, 0.0, 0.0, 1.700950518570633E9, 0.0, 2023-11-25 17:15:18.570
118.0, 28726.506677449546, 38064.99845564347, -46765.61615057184, -42015.78104684127, -59809.49071758875, -17451.236242203267, -6349.661213119175, -26177.84901593316, -0.182, 0.93, 0.28800000000000003, 192.0, 0.0, 0.0, 0.0, 0.0, 0.0, 0.0, 0.0, 0.0, 0.0, 1.700950518574776E9, 0.0, 2023-11-25 17:15:18.574
119.0, 28715.599026155356, 38082.45516806307, -46757.21189465665, -41999.59838385563, -59819.90663050493, -17450.45393114733, -6476.0156245250255, -26144.924896350494, -0.186, 0.934, 0.28200000000000003, 192.0, 250.0, 48.0, 29.0, 48.0, 8.0, 208.0, 0.0, 0.0, 0.0, 1.700950518578701E9, 0.0, 2023-11-25 17:15:18.578
120.0, 28756.88269816431, 38172.823270895875, -46717.068161614916, -41942.959063405884, -59796.30318836012, -17423.229506400767, -6626.152292031324, -26103.21654119689, -0.186, 0.934, 0.28200000000000003, 192.0, 0.0, 0.0, 0.0, 0.0, 0.0, 0.0, 0.0, 0.0, 0.0, 1.70095051858372E9, 0.0, 2023-11-25 17:15:18.583
121.0, 28802.189684175217, 38198.52777701947, -46691.14013804676, -41915.131141559024, -59741.67552491135, -17359.079999814036, -6518.975677368126, -26093.44882886992, -0.186, 0.934, 0.28200000000000003, 192.0, 0.0, 0.0, 0.0, 0.0, 0.0, 0.0, 0.0, 0.0, 0.0, 1.700950518587719E9, 0.0, 2023-11-25 17:15:18.587
122.0, 28742.287009034993, 38096.96145021456, -46748.651176530264, -41997.85494778812, -59788.94946443433, -17421.039035444144, -6328.874090775739, -26163.65565820404, -0.186, 0.934, 0.28200000000000003, 192.0, 0.0, 0.0, 0.0, 0.0, 0.0, 0.0, 0.0, 0.0, 0.0, 1.70095051859176E9, 0.0, 2023-11-25 17:15:18.591
123.0, 28706.47951441759, 38081.516394795945, -46755.98254871161, -42009.03082001577, -59821.82888052808, -17455.50542539423, -6452.814513780417, -26160.45935874693, -0.186, 0.934, 0.28200000000000003, 192.0, 0.0, 0.0, 0.0, 0.0, 0.0, 0.0, 0.0, 0.0, 0.0, 1.700950518595751E9, 0.0, 2023-11-25 17:15:18.595
124.0, 28741.303532278962, 38164.016683580485, -46726.38883905278, -41961.06397641468, -59806.49558383174, -17433.0642739611, -6602.951181286715, -26126.998797297336, -0.186, 0.934, 0.28200000000000003, 192.0, 0.0, 0.0, 0.0, 0.0, 0.0, 0.0, 0.0, 0.0, 0.0, 1.700950518599792E9, 0.0, 2023-11-25 17:15:18.599
125.0, 28796.780562017033, 38212.5199690485, -46686.96036183362, -41918.416847993954, -59749.74450465972, -17376.067325600066, -6581.15823044279, -26108.44684939943, -0.186, 0.934, 0.28200000000000003, 192.0, 0.0, 0.0, 0.0, 0.0, 0.0, 0.0, 0.0, 0.0, 0.0, 1.700950518602714E9, 0.0, 2023-11-25 17:15:18.602
126.0, 28751.183003328206, 38118.575587102845, -46741.744487493575, -41991.819976785184, -59780.2099323523, -17411.763061495192, -6337.345401924301, -26178.27369907781, -0.186, 0.934, 0.28200000000000003, 192.0, 0.0, 0.0, 0.0, 0.0, 0.0, 0.0, 0.0, 0.0, 0.0, 1.700950518605733E9, 0.0, 2023-11-25 17:15:18.605
127.0, 28695.124828234297, 38067.121871366726, -46762.62101681483, -42024.609985901116, -59830.7695783102, -17477.276024493698, -6445.1925689211575, -26199.127876654613, -0.186, 0.934, 0.28200000000000003, 192.0, 0.0, 0.0, 0.0, 0.0, 0.0, 0.0, 0.0, 0.0, 0.0, 1.700950518609768E9, 0.0, 2023-11-25 17:15:18.609
128.0, 28723.31037799244, 38146.62702639426, -46735.68716474619, -41974.65383704351, -59815.95037173633, -17444.530718866674, -6580.845306020416, -26152.591544698662, -0.186, 0.934, 0.28200000000000003, 192.0, 0.0, 0.0, 0.0, 0.0, 0.0, 0.0, 0.0, 0.0, 0.0, 1.700950518614763E9, 0.0, 2023-11-25 17:15:18.614
129.0, 28782.251928121084, 38213.861073715816, -46687.65326591174, -41918.61801369405, -59759.53456873114, -17387.824343183558, -6616.250469237622, -26091.794799780226, -0.186, 0.932, 0.28200000000000003, 192.0, 250.0, 48.0, 29.0, 32.0, 8.0, 208.0, 0.0, 0.0, 0.0, 1.700950518618802E9, 0.0, 2023-11-25 17:15:18.618
130.0, 28768.393846558793, 38142.84958158131, -46724.71245821863, -41967.97066545137, -59761.76974317667, -17387.24319782772, -6350.711745108574, -26142.17563178249, -0.186, 0.932, 0.28200000000000003, 192.0, 0.0, 0.0, 0.0, 0.0, 0.0, 0.0, 0.0, 0.0, 0.0, 1.700950518622827E9, 0.0, 2023-11-25 17:15:18.622
131.0, 28711.553360408947, 38076.129624382214, -46747.24301662958, -42013.3670584401, -59813.64814205744, -17464.893158065457, -6415.0847691398585, -26171.679934463496, -0.186, 0.932, 0.28200000000000003, 192.0, 0.0, 0.0, 0.0, 0.0, 0.0, 0.0, 0.0, 0.0, 0.0, 1.700950518625807E9, 0.0, 2023-11-25 17:15:18.625
132.0, 28724.763241382032, 38136.345223944816, -46735.97773742411, -41982.72281679187, -59814.989246724756, -17452.175015470388, -6549.86578820536, -26168.394228028566, -0.186, 0.932, 0.28200000000000003, 192.0, 0.0, 0.0, 0.0, 0.0, 0.0, 0.0, 0.0, 0.0, 0.0, 1.700950518629835E9, 0.0, 2023-11-25 17:15:18.629
133.0, 28777.088675151907, 38213.25757661552, -46687.02741706699, -41922.70838292938, -59769.771667691675, -17405.951607936815, -6643.02785909508, -26111.151410478524, -0.186, 0.932, 0.28200000000000003, 192.0, 0.0, 0.0, 0.0, 0.0, 0.0, 0.0, 0.0, 0.0, 0.0, 1.700950518633884E9, 0.0, 2023-11-25 17:15:18.633
134.0, 28780.530843798024, 38169.470509227576, -46708.10511208834, -41945.82008669616, -59745.47532146875, -17365.96433710627, -6375.030443075949, -26122.081413517168, -0.186, 0.932, 0.28200000000000003, 192.0, 0.0, 0.0, 0.0, 0.0, 0.0, 0.0, 0.0, 0.0, 0.0, 1.700950518637861E9, 0.0, 2023-11-25 17:15:18.637
135.0, 28703.171456238208, 38074.810871459355, -46754.619092299836, -42016.004564285824, -59814.40810136892, -17463.1720737424, -6382.317111768379, -26182.78875145778, -0.186, 0.932, 0.28200000000000003, 192.0, 0.0, 0.0, 0.0, 0.0, 0.0, 0.0, 0.0, 0.0, 0.0, 1.700950518642319E9, 0.0, 2023-11-25 17:15:18.642
136.0, 28710.324014463906, 38121.436610393124, -46746.37129859583, -41983.505127847806, -59815.190412424854, -17450.811559058617, -6522.931936136715, -26184.867463692128, -0.186, 0.932, 0.28200000000000003, 192.0, 0.0, 0.0, 0.0, 0.0, 0.0, 0.0, 0.0, 0.0, 0.0, 1.700950518647251E9, 0.0, 2023-11-25 17:15:18.647
137.0, 28762.850613933875, 38210.217739369604, -46696.862184627316, -41920.13793231701, -59772.67739447086, -17407.1586021374, -6651.298004543544, -26100.713145817896, -0.186, 0.932, 0.28200000000000003, 192.0, 0.0, 0.0, 0.0, 0.0, 0.0, 0.0, 0.0, 0.0, 0.0, 1.700950518650877E9, 0.0, 2023-11-25 17:15:18.650
138.0, 28787.906919468274, 38190.50350076002, -46700.55022246244, -41924.071839341144, -59734.12063528546, -17348.038238053112, -6418.482234297066, -26093.314718403188, -0.186, 0.932, 0.28200000000000003, 192.0, 0.0, 0.0, 0.0, 0.0, 0.0, 0.0, 0.0, 0.0, 0.0, 1.700950518654918E9, 0.0, 2023-11-25 17:15:18.654
139.0, 28707.708860362633, 38079.68355175061, -46757.25659814556, -42008.02499151528, -59805.199182653334, -17445.156567711423, -6355.003280043993, -26153.575021454697, -0.188, 0.934, 0.28, 192.0, 250.0, 32.0, 29.0, 48.0, 8.0, 192.0, 0.0, 0.0, 0.0, 1.700950518658991E9, 0.0, 2023-11-25 17:15:18.658
