%OpenBCI Raw EXG Data
%Number of channels = 8
%Sample Rate = 250 Hz
%Board = OpenBCI_GUI$BoardCytonSerial
Sample Index, EXG Channel 0, EXG Channel 1, EXG Channel 2, EXG Channel 3, EXG Channel 4, EXG Channel 5, EXG Channel 6, EXG Channel 7, Accel Channel 0, Accel Channel 1, Accel Channel 2, Other, Other, Other, Other, Other, Other, Other, Analog Channel 0, Analog Channel 1, Analog Channel 2, Timestamp, Other, Timestamp (Formatted)
202.0, 7465.460296328104, 12963.408286977803, -55936.33573488423, -58482.735870210636, -49693.04647362787, -60262.94055735357, -34024.65242441326, -16328.999856591208, 0.0, 0.0, 0.0, 192.0, 0.0, 0.0, 0.0, 0.0, 0.0, 0.0, 0.0, 0.0, 0.0, 1.700946873671504E9, 0.0, 2023-11-25 16:14:33.671
203.0, 7558.421201517725, 13015.487851558668, -55947.824531534265, -58485.39572780082, -49887.84192655587, -60075.58823532918, -34038.376395508814, -16344.176691076362, 0.0, 0.0, 0.0, 192.0, 0.0, 0.0, 0.0, 0.0, 0.0, 0.0, 0.0, 0.0, 0.0, 1.700946873671517E9, 0.0, 2023-11-25 16:14:33.671
204.0, 7710.435415558269, 13057.44207590128, -55976.07713652577, -58502.226591375664, -49584.70756825299, -59922.590544532606, -34076.50847154957, -16379.671261271389, 0.0, 0.0, 0.0, 192.0, 0.0, 0.0, 0.0, 0.0, 0.0, 0.0, 0.0, 0.0, 0.0, 1.700946873671524E9, 0.0, 2023-11-25 16:14:33.671
205.0, 7745.795875286565, 12974.7629731611, -55983.49791568493, -58548.4723506537, -49157.20810380079, -59986.427126696966, -34120.69787033771, -16425.872317060508, 0.0, 0.0, 0.0, 192.0, 0.0, 0.0, 0.0, 0.0, 0.0, 0.0, 0.0, 0.0, 0.0, 1.700946873671531E9, 0.0, 2023-11-25 16:14:33.671
0.0, 0.0, 0.0, 0.0, 0.0, 0.0, 0.0, 0.0, 0.0, -0.13, 0.9520000000000001, 0.262, 192.0, 251.0, 240.0, 29.0, 192.0, 8.0, 48.0, 0.0, 0.0, 0.0, 1.700946873774379E9, 0.0, 2023-11-25 16:14:33.774
1.0, 7735.469369348213, 13500.900685894572, -55557.026631477675, -58263.86758850427, -49653.30507198633, -59690.95941674226, -33998.456179911635, -16116.412415076784, -0.13, 0.9520000000000001, 0.262, 192.0, 0.0, 0.0, 0.0, 0.0, 0.0, 0.0, 0.0, 0.0, 0.0, 1.700946873790436E9, 0.0, 2023-11-25 16:14:33.790
2.0, 7877.604112339511, 13536.954049700982, -55564.13448621446, -58268.96378624008, -49371.47192614937, -59584.38629917936, -34024.36185173534, -16133.489147840637, -0.13, 0.9520000000000001, 0.262, 192.0, 0.0, 0.0, 0.0, 0.0, 0.0, 0.0, 0.0, 0.0, 0.0, 1.700946873793502E9, 0.0, 2023-11-25 16:14:33.793
3.0, 7854.98414695074, 13429.464510615411, -55574.617454364, -58317.82469961938, -48970.68279632125, -59685.52794283962, -34070.78642496901, -16178.77378210709, -0.13, 0.9520000000000001, 0.262, 192.0, 0.0, 0.0, 0.0, 0.0, 0.0, 0.0, 0.0, 0.0, 0.0, 1.700946873797427E9, 0.0, 2023-11-25 16:14:33.797
4.0, 7608.958495731175, 13451.033944014782, -55533.57965154406, -58235.83850095732, -49533.991460083904, -59900.46231752185, -33973.802205777436, -16073.720583167147, -0.13, 0.9520000000000001, 0.262, 192.0, 0.0, 0.0, 0.0, 0.0, 0.0, 0.0, 0.0, 0.0, 0.0, 1.700946873801467E9, 0.0, 2023-11-25 16:14:33.801
5.0, 7715.419854571803, 13512.367130800145, -55541.04513419213, -58231.681076488625, -49699.79670045337, -59699.7436523132, -33979.70306631363, -16079.152057069787, -0.13, 0.9520000000000001, 0.262, 192.0, 0.0, 0.0, 0.0, 0.0, 0.0, 0.0, 0.0, 0.0, 0.0, 1.700946873805462E9, 0.0, 2023-11-25 16:14:33.805
6.0, 7865.042431955628, 13554.455465609488, -55561.18405594636, -58242.99105918301, -49435.666136225, -59557.586557577444, -34006.03342128199, -16102.554333514492, -0.13, 0.9520000000000001, 0.262, 192.0, 0.0, 0.0, 0.0, 0.0, 0.0, 0.0, 0.0, 0.0, 0.0, 1.700946873808502E9, 0.0, 2023-11-25 16:14:33.808
7.0, 7909.008313299217, 13471.195217513468, -55555.350250643525, -58286.04051900393, -49001.59525890294, -59612.817718126505, -34037.50467747506, -16135.053769952508, -0.13, 0.9520000000000001, 0.262, 192.0, 0.0, 0.0, 0.0, 0.0, 0.0, 0.0, 0.0, 0.0, 0.0, 1.700946873812476E9, 0.0, 2023-11-25 16:14:33.812
8.0, 7637.9487082897085, 13426.55878383622, -55556.467837866294, -58261.63241405874, -49394.516574682784, -59875.56247419864, -33996.35511593284, -16086.014042617566, -0.12, 0.9440000000000001, 0.258, 192.0, 252.0, 64.0, 29.0, 128.0, 8.0, 16.0, 0.0, 0.0, 0.0, 1.700946873817564E9, 0.0, 2023-11-25 16:14:33.817
9.0, 7666.044851070029, 13492.608188701653, -55546.00722146121, -58234.0950648898, -49741.23683467351, -59744.91652785737, -33970.784720275966, -16061.762399883557, -0.12, 0.9440000000000001, 0.258, 192.0, 0.0, 0.0, 0.0, 0.0, 0.0, 0.0, 0.0, 0.0, 0.0, 1.700946873821518E9, 0.0, 2023-11-25 16:14:33.821
10.0, 7816.203870320782, 13540.530328813831, -55574.12571598598, -58248.86956797476, -49487.8798112726, -59562.21336867969, -33998.9255665452, -16085.075269350442, -0.12, 0.9440000000000001, 0.258, 192.0, 0.0, 0.0, 0.0, 0.0, 0.0, 0.0, 0.0, 0.0, 0.0, 1.700946873825507E9, 0.0, 2023-11-25 16:14:33.825
11.0, 7887.684749088854, 13475.66556640453, -55572.73990782975, -58288.8568388053, -49066.61648352343, -59584.3639474349, -34028.40751748175, -16115.205420876197, -0.12, 0.9440000000000001, 0.258, 192.0, 0.0, 0.0, 0.0, 0.0, 0.0, 0.0, 0.0, 0.0, 0.0, 1.700946873829493E9, 0.0, 2023-11-25 16:14:33.829
12.0, 7671.588083694945, 13429.352751893133, -55556.62430007748, -58257.09500993431, -49253.83469508108, -59824.68990381836, -33973.62339182179, -16057.403809714773, -0.12, 0.9440000000000001, 0.258, 192.0, 0.0, 0.0, 0.0, 0.0, 0.0, 0.0, 0.0, 0.0, 0.0, 1.700946873832499E9, 0.0, 2023-11-25 16:14:33.832
13.0, 7634.1936152212165, 13487.132011310103, -55542.72151502628, -58220.572259494336, -49763.07448900634, -59774.04085088264, -33937.81589720439, -16021.596315097371, -0.12, 0.9440000000000001, 0.258, 192.0, 0.0, 0.0, 0.0, 0.0, 0.0, 0.0, 0.0, 0.0, 0.0, 1.700946873838639E9, 0.0, 2023-11-25 16:14:33.838
14.0, 7784.330282727514, 13525.241735606402, -55586.70974811432, -58250.568300553365, -49530.079904804224, -59573.74686881863, -33987.61558385081, -16070.032545332022, -0.12, 0.9440000000000001, 0.258, 192.0, 0.0, 0.0, 0.0, 0.0, 0.0, 0.0, 0.0, 0.0, 0.0, 1.700946873841763E9, 0.0, 2023-11-25 16:14:33.841
15.0, 7892.020987513183, 13495.044528847282, -55578.52900964368, -58274.81994328737, -49143.37237398295, -59561.721630301676, -34015.309395230935, -16097.927522412245, -0.12, 0.9440000000000001, 0.258, 192.0, 0.0, 0.0, 0.0, 0.0, 0.0, 0.0, 0.0, 0.0, 0.0, 1.700946873845573E9, 0.0, 2023-11-25 16:14:33.845
16.0, 7727.892127977864, 13429.218641426402, -55560.64761407943, -58264.62754781575, -49125.87095807445, -59776.4101357949, -33984.978078005086, -16065.897472607789, -0.12, 0.9440000000000001, 0.258, 192.0, 0.0, 0.0, 0.0, 0.0, 0.0, 0.0, 0.0, 0.0, 0.0, 1.70094687384959E9, 0.0, 2023-11-25 16:14:33.849
17.0, 7617.36275164637, 13486.014424087338, -55523.34255258353, -58203.36141626375, -49746.95888125407, -59805.757976264715, -33921.58853072984, -16003.200829410653, -0.12, 0.9440000000000001, 0.258, 192.0, 0.0, 0.0, 0.0, 0.0, 0.0, 0.0, 0.0, 0.0, 0.0, 1.70094687385361E9, 0.0, 2023-11-25 16:14:33.853
18.0, 7765.510113896145, 13524.347665828189, -55561.5640356021, -58238.610117269774, -49557.30432955079, -59581.74879333363, -33980.48537736957, -16059.08019054892, -0.124, 0.9480000000000001, 0.26, 192.0, 252.0, 32.0, 29.0, 160.0, 8.0, 32.0, 0.0, 0.0, 0.0, 1.700946873857646E9, 0.0, 2023-11-25 16:14:33.857
19.0, 7890.903400290418, 13521.710159982464, -55551.170474430386, -58254.03282094393, -49212.64043004995, -59536.30769685599, -34008.15683700524, -16088.092754851908, -0.124, 0.9480000000000001, 0.26, 192.0, 0.0, 0.0, 0.0, 0.0, 0.0, 0.0, 0.0, 0.0, 0.0, 1.700946873860686E9, 0.0, 2023-11-25 16:14:33.860
20.0, 7786.386643217403, 13440.193347953958, -55536.41832308988, -58264.605196071294, -49010.0665700515, -59712.081815252524, -34004.73702010358, -16082.9965571161, -0.124, 0.9480000000000001, 0.26, 192.0, 0.0, 0.0, 0.0, 0.0, 0.0, 0.0, 0.0, 0.0, 0.0, 1.700946873864651E9, 0.0, 2023-11-25 16:14:33.864
21.0, 7605.270457896049, 13485.634444431596, -55501.25902906168, -58198.30992201685, -49683.83755491228, -59831.12720622149, -33925.16480984269, -16008.229971913097, -0.124, 0.9480000000000001, 0.26, 192.0, 0.0, 0.0, 0.0, 0.0, 0.0, 0.0, 0.0, 0.0, 0.0, 1.70094687386872E9, 0.0, 2023-11-25 16:14:33.868
22.0, 7755.183607957793, 13536.976401445438, -55534.18314864435, -58224.1932420961, -49589.40143458861, -59605.59810466744, -33962.24635389404, -16050.072437533432, -0.124, 0.9480000000000001, 0.26, 192.0, 0.0, 0.0, 0.0, 0.0, 0.0, 0.0, 0.0, 0.0, 0.0, 1.700946873874623E9, 0.0, 2023-11-25 16:14:33.874
23.0, 7892.043339257639, 13545.179491660536, -55551.148122685925, -58253.38462035473, -49284.411881495944, -59536.620621278365, -34006.63691838228, -16099.022757890554, -0.124, 0.9480000000000001, 0.26, 192.0, 0.0, 0.0, 0.0, 0.0, 0.0, 0.0, 0.0, 0.0, 0.0, 1.700946873877648E9, 0.0, 2023-11-25 16:14:33.877
24.0, 7836.1192746304605, 13447.100036990649, -55547.61654706199, -58288.007472516, -48958.50109559311, -59687.696062051786, -34037.14704956378, -16136.86426125339, -0.124, 0.9480000000000001, 0.26, 192.0, 0.0, 0.0, 0.0, 0.0, 0.0, 0.0, 0.0, 0.0, 0.0, 1.700946873881707E9, 0.0, 2023-11-25 16:14:33.881
25.0, 7616.893365012809, 13489.076613077714, -55493.36886326896, -58196.67824467162, -49603.99712371792, -59866.599424672066, -33942.55446702892, -16043.076341518921, -0.124, 0.9480000000000001, 0.26, 192.0, 0.0, 0.0, 0.0, 0.0, 0.0, 0.0, 0.0, 0.0, 0.0, 1.700946873885693E9, 0.0, 2023-11-25 16:14:33.885
26.0, 7747.114628209428, 13540.038590435815, -55513.060750134086, -58210.223401811534, -49634.44019966605, -59644.15486385285, -33979.90423201373, -16081.18606581522, -0.124, 0.9480000000000001, 0.26, 192.0, 0.0, 0.0, 0.0, 0.0, 0.0, 0.0, 0.0, 0.0, 0.0, 1.700946873888701E9, 0.0, 2023-11-25 16:14:33.888
27.0, 7879.861638529496, 13565.385468648134, -55536.127750411964, -58233.0445329004, -49354.97633874135, -59542.6555922813, -34023.80305812396, -16122.71560701318, -0.124, 0.9480000000000001, 0.26, 192.0, 0.0, 0.0, 0.0, 0.0, 0.0, 0.0, 0.0, 0.0, 0.0, 1.700946873892691E9, 0.0, 2023-11-25 16:14:33.892
28.0, 7887.237714199748, 13472.156342525048, -55532.03738117664, -58275.3563851543, -48953.248435646114, -59638.85750041694, -34054.29083756099, -16156.019706251587, -0.13, 0.9460000000000001, 0.26, 192.0, 251.0, 240.0, 29.0, 144.0, 8.0, 32.0, 0.0, 0.0, 0.0, 1.700946873898432E9, 0.0, 2023-11-25 16:14:33.898
29.0, 7633.433655909736, 13467.775400611807, -55511.384369299936, -58219.40996878266, -49486.40459613855, -59870.645090418475, -33975.23271742257, -16064.84694061839, -0.13, 0.9460000000000001, 0.26, 192.0, 0.0, 0.0, 0.0, 0.0, 0.0, 0.0, 0.0, 0.0, 0.0, 1.700946873900785E9, 0.0, 2023-11-25 16:14:33.900
30.0, 7716.9621249392185, 13532.796625232295, -55515.720607724266, -58212.100948345775, -49681.26710429992, -59682.55516082706, -33973.69044705516, -16057.60497541487, -0.13, 0.9460000000000001, 0.26, 192.0, 0.0, 0.0, 0.0, 0.0, 0.0, 0.0, 0.0, 0.0, 0.0, 1.700946873905745E9, 0.0, 2023-11-25 16:14:33.905
31.0, 7853.799504494608, 13563.999660491903, -55554.8138087766, -58243.371038838755, -49411.14627255753, -59541.94033645873, -34015.510560931034, -16098.262798579073, -0.13, 0.9460000000000001, 0.26, 192.0, 0.0, 0.0, 0.0, 0.0, 0.0, 0.0, 0.0, 0.0, 0.0, 1.700946873909747E9, 0.0, 2023-11-25 16:14:33.909
32.0, 7897.653627115921, 13479.934749595493, -55560.26763442369, -58291.20377197311, -48984.33971218344, -59604.59227616695, -34054.89433466129, -16136.976019975666, -0.13, 0.9460000000000001, 0.26, 192.0, 0.0, 0.0, 0.0, 0.0, 0.0, 0.0, 0.0, 0.0, 0.0, 1.700946873913753E9, 0.0, 2023-11-25 16:14:33.913
33.0, 7666.402478981314, 13471.798714613762, -55523.2084421168, -58229.378846809734, -49343.75576302478, -59843.71123834983, -33975.43388312267, -16047.390228198796, -0.13, 0.9460000000000001, 0.26, 192.0, 0.0, 0.0, 0.0, 0.0, 0.0, 0.0, 0.0, 0.0, 0.0, 1.700946873916784E9, 0.0, 2023-11-25 16:14:33.916
34.0, 7681.869886144386, 13523.67711349453, -55526.896479951916, -58219.38761703821, -49716.62756402821, -59729.18089976083, -33967.74488303004, -16041.489367662594, -0.13, 0.9460000000000001, 0.26, 192.0, 0.0, 0.0, 0.0, 0.0, 0.0, 0.0, 0.0, 0.0, 0.0, 1.700946873920761E9, 0.0, 2023-11-25 16:14:33.920
35.0, 7830.911318172374, 13573.387393163133, -55552.489227353246, -58232.53044277793, -49473.48528784338, -59547.34945861691, -33994.768142076515, -16067.618556930847, -0.13, 0.9460000000000001, 0.26, 192.0, 0.0, 0.0, 0.0, 0.0, 0.0, 0.0, 0.0, 0.0, 0.0, 1.70094687392477E9, 0.0, 2023-11-25 16:14:33.924
36.0, 7917.144348280949, 13516.233982590913, -55549.31527964059, -58270.61781532977, -49058.4804485417, -59560.536987845546, -34025.233569769094, -16103.604865503892, -0.13, 0.9460000000000001, 0.26, 192.0, 0.0, 0.0, 0.0, 0.0, 0.0, 0.0, 0.0, 0.0, 0.0, 1.700946873928861E9, 0.0, 2023-11-25 16:14:33.928
37.0, 7718.280877862082, 13477.051374560759, -55519.87803219295, -58231.23404159952, -49203.252697378724, -59793.28570285866, -33964.973266717585, -16039.32124845043, -0.13, 0.9460000000000001, 0.26, 192.0, 0.0, 0.0, 0.0, 0.0, 0.0, 0.0, 0.0, 0.0, 0.0, 1.700946873934216E9, 0.0, 2023-11-25 16:14:33.934
38.0, 7665.262540014093, 13526.62754376263, -55502.13074709544, -58192.92315160312, -49729.949203723576, -59758.88636814194, -33929.23282733355, -16004.027843955499, -0.128, 0.9480000000000001, 0.26, 192.0, 252.0, 0.0, 29.0, 160.0, 8.0, 32.0, 0.0, 0.0, 0.0, 1.700946873937856E9, 0.0, 2023-11-25 16:14:33.937
39.0, 7827.089169870516, 13578.751811832406, -55530.00337243121, -58209.731663433515, -49503.011942268844, -59545.06958068247, -33964.92856322868, -16038.963620539143, -0.128, 0.9480000000000001, 0.26, 192.0, 0.0, 0.0, 0.0, 0.0, 0.0, 0.0, 0.0, 0.0, 0.0, 1.700946873941911E9, 0.0, 2023-11-25 16:14:33.941
40.0, 7926.465025718811, 13529.734436241919, -55541.82744524806, -58253.8987104772, -49118.04784751509, -59533.044342165515, -34012.73894461858, -16086.61753971786, -0.128, 0.9480000000000001, 0.26, 192.0, 0.0, 0.0, 0.0, 0.0, 0.0, 0.0, 0.0, 0.0, 0.0, 1.700946873944883E9, 0.0, 2023-11-25 16:14:33.944
41.0, 7763.7443260841765, 13452.151531237547, -55528.97519218626, -58248.57899529684, -49058.10046888596, -59746.68231566934, -33987.772046062004, -16061.449475461182, -0.128, 0.9480000000000001, 0.26, 192.0, 0.0, 0.0, 0.0, 0.0, 0.0, 0.0, 0.0, 0.0, 0.0, 1.700946873948834E9, 0.0, 2023-11-25 16:14:33.948
42.0, 7631.757275075588, 13507.00271213087, -55498.66622670487, -58185.837648610795, -49704.289401088885, -59795.8114499821, -33918.66045220619, -15986.079393157888, -0.128, 0.9480000000000001, 0.26, 192.0, 0.0, 0.0, 0.0, 0.0, 0.0, 0.0, 0.0, 0.0, 0.0, 1.700946873952861E9, 0.0, 2023-11-25 16:14:33.952
43.0, 7785.961960072752, 13552.175587675047, -55538.13940741294, -58213.19618382409, -49538.17123629704, -59563.5097698581, -33964.79445276195, -16026.848975044368, -0.128, 0.9480000000000001, 0.26, 192.0, 0.0, 0.0, 0.0, 0.0, 0.0, 0.0, 0.0, 0.0, 0.0, 1.700946873956855E9, 0.0, 2023-11-25 16:14:33.956
44.0, 7906.32610396458, 13549.49337834041, -55539.77108475818, -58232.57514626684, -49208.30419162562, -59511.13963259931, -33992.26474669752, -16052.17350151223, -0.128, 0.9480000000000001, 0.26, 192.0, 0.0, 0.0, 0.0, 0.0, 0.0, 0.0, 0.0, 0.0, 0.0, 1.700946873961107E9, 0.0, 2023-11-25 16:14:33.961
45.0, 7805.810309149064, 13461.360449953134, -55531.09860790952, -58251.03768718692, -48985.54670638403, -59685.594998072986, -33991.99652576405, -16049.804216599969, -0.128, 0.9480000000000001, 0.26, 192.0, 0.0, 0.0, 0.0, 0.0, 0.0, 0.0, 0.0, 0.0, 0.0, 1.700946873966858E9, 0.0, 2023-11-25 16:14:33.966
46.0, 7604.242277651105, 13486.215589787435, -55514.804186201596, -58203.38376800821, -49668.079575071286, -59827.729741064286, -33931.44565003463, -15981.229064611087, -0.128, 0.9480000000000001, 0.26, 192.0, 0.0, 0.0, 0.0, 0.0, 0.0, 0.0, 0.0, 0.0, 0.0, 1.700946873970392E9, 0.0, 2023-11-25 16:14:33.970
47.0, 7745.572357842012, 13528.30392459678, -55554.12090469848, -58238.07367540285, -49600.59965856071, -59610.291971003055, -33980.03834248047, -16032.615725113837, -0.128, 0.9480000000000001, 0.254, 192.0, 252.0, 0.0, 29.0, 160.0, 7.0, 240.0, 0.0, 0.0, 0.0, 1.700946873973875E9, 0.0, 2023-11-25 16:14:33.973
48.0, 7886.455403143812, 13554.053134209293, -55555.19378843234, -58248.109608663275, -49303.1873468384, -59525.64591475081, -34003.01593578052, -16059.437818460205, -0.128, 0.9480000000000001, 0.254, 192.0, 0.0, 0.0, 0.0, 0.0, 0.0, 0.0, 0.0, 0.0, 0.0, 1.700946873976882E9, 0.0, 2023-11-25 16:14:33.976
49.0, 7857.196969651815, 13475.57615942671, -55537.178282401364, -58268.29323390642, -48954.88011299135, -59654.45901804674, -34018.952729577155, -16082.638929204813, -0.128, 0.9480000000000001, 0.254, 192.0, 0.0, 0.0, 0.0, 0.0, 0.0, 0.0, 0.0, 0.0, 0.0, 1.700946873981644E9, 0.0, 2023-11-25 16:14:33.981
50.0, 7621.050789481496, 13492.33996776819, -55509.86445067698, -58201.46151798505, -49580.416033317575, -59853.34484021006, -33955.272609623986, -16018.020035984522, -0.128, 0.9480000000000001, 0.254, 192.0, 0.0, 0.0, 0.0, 0.0, 0.0, 0.0, 0.0, 0.0, 0.0, 1.700946873984909E9, 0.0, 2023-11-25 16:14:33.984
51.0, 7741.526692095601, 13542.273764881345, -55531.34447709852, -58213.41970126864, -49639.96108054651, -59646.94883190976, -33987.92850827319, -16053.291088734995, -0.128, 0.9480000000000001, 0.254, 192.0, 0.0, 0.0, 0.0, 0.0, 0.0, 0.0, 0.0, 0.0, 0.0, 1.70094687399092E9, 0.0, 2023-11-25 16:14:33.990
52.0, 7884.488449631745, 13569.945224517016, -55556.87016926648, -58236.55375677988, -49358.373803898554, -59537.02295267856, -34032.34142450588, -16097.391080545316, -0.128, 0.9480000000000001, 0.254, 192.0, 0.0, 0.0, 0.0, 0.0, 0.0, 0.0, 0.0, 0.0, 0.0, 1.700946873994129E9, 0.0, 2023-11-25 16:14:33.994
53.0, 7892.825650313574, 13482.482848463398, -55548.80118951812, -58275.244626432024, -48945.000641942104, -59625.60291595494, -34055.14020385029, -16124.57080180297, -0.128, 0.9480000000000001, 0.254, 192.0, 0.0, 0.0, 0.0, 0.0, 0.0, 0.0, 0.0, 0.0, 0.0, 1.700946873998144E9, 0.0, 2023-11-25 16:14:33.998
54.0, 7648.766952606077, 13493.323444524223, -55508.925677409854, -58203.7413959195, -49442.416363050506, -59852.875453576504, -33967.92369698569, -16030.380550668306, -0.128, 0.9480000000000001, 0.254, 192.0, 0.0, 0.0, 0.0, 0.0, 0.0, 0.0, 0.0, 0.0, 0.0, 1.700946874000918E9, 0.0, 2023-11-25 16:14:34.000
55.0, 7715.017523171607, 13545.112436427169, -55520.258011848695, -58210.357512278264, -49679.814240910324, -59693.46281212125, -33985.29100242746, -16052.329963723418, -0.128, 0.9480000000000001, 0.254, 192.0, 0.0, 0.0, 0.0, 0.0, 0.0, 0.0, 0.0, 0.0, 0.0, 1.700946874004975E9, 0.0, 2023-11-25 16:14:34.004
56.0, 7867.232902912248, 13591.31349221629, -55538.25116613522, -58223.656800229175, -49417.315354027196, -59539.347534101915, -34011.21902599562, -16079.04029834751, -0.128, 0.9480000000000001, 0.254, 192.0, 0.0, 0.0, 0.0, 0.0, 0.0, 0.0, 0.0, 0.0, 0.0, 1.700946874009106E9, 0.0, 2023-11-25 16:14:34.009
57.0, 7930.577746698588, 13518.96089541446, -55529.28811660864, -58265.43221061614, -48983.82562206097, -59582.35229043392, -34043.22672405562, -16117.440595321727, -0.128, 0.9520000000000001, 0.254, 192.0, 252.0, 0.0, 29.0, 192.0, 7.0, 240.0, 0.0, 0.0, 0.0, 1.700946874013173E9, 0.0, 2023-11-25 16:14:34.013
58.0, 7695.392691539847, 13488.741336910885, -55507.13753785343, -58227.501300275486, -49295.52069849023, -59832.98240101128, -33977.82551977939, -16053.827530601924, -0.128, 0.9520000000000001, 0.254, 192.0, 0.0, 0.0, 0.0, 0.0, 0.0, 0.0, 0.0, 0.0, 0.0, 1.700946874016983E9, 0.0, 2023-11-25 16:14:34.016
59.0, 7708.490813790658, 13550.566262074264, -55491.938351623816, -58199.96395110655, -49709.251488357964, -59729.76204511667, -33948.3659205873, -16028.570059367426, -0.128, 0.9520000000000001, 0.254, 192.0, 0.0, 0.0, 0.0, 0.0, 0.0, 0.0, 0.0, 0.0, 0.0, 1.700946874021997E9, 0.0, 2023-11-25 16:14:34.021
60.0, 7853.710097516788, 13585.010300279893, -55534.741942255736, -58229.62471599874, -49460.02953768129, -59548.288231884035, -33995.70691534363, -16064.824588873935, -0.128, 0.9520000000000001, 0.254, 192.0, 0.0, 0.0, 0.0, 0.0, 0.0, 0.0, 0.0, 0.0, 0.0, 1.700946874024998E9, 0.0, 2023-11-25 16:14:34.024
61.0, 7939.76431366972, 13536.507014811876, -55523.43195956135, -58255.82096050036, -49052.26666358312, -59553.07150519747, -34018.88567434379, -16090.953778142188, -0.128, 0.9520000000000001, 0.254, 192.0, 0.0, 0.0, 0.0, 0.0, 0.0, 0.0, 0.0, 0.0, 0.0, 1.700946874028953E9, 0.0, 2023-11-25 16:14:34.028
62.0, 7737.391619371369, 13480.873522862617, -55507.07048262006, -58231.23404159952, -49153.609472943484, -59786.44606905533, -33974.02572322199, -16047.971373554634, -0.128, 0.9520000000000001, 0.254, 192.0, 0.0, 0.0, 0.0, 0.0, 0.0, 0.0, 0.0, 0.0, 0.0, 1.700946874032985E9, 0.0, 2023-11-25 16:14:34.032
63.0, 7669.03998482704, 13535.434131078022, -55494.55350572509, -58190.84443936878, -49711.97840118151, -59768.25174906871, -33938.821725704875, -16011.381567881295, -0.128, 0.9520000000000001, 0.254, 192.0, 0.0, 0.0, 0.0, 0.0, 0.0, 0.0, 0.0, 0.0, 0.0, 1.700946874037023E9, 0.0, 2023-11-25 16:14:34.037
64.0, 7818.841376166508, 13577.991852520927, -55537.446503334824, -58222.06982637285, -49499.16744222253, -59561.52046460158, -33991.7730083195, -16065.338678996406, -0.128, 0.9520000000000001, 0.254, 192.0, 0.0, 0.0, 0.0, 0.0, 0.0, 0.0, 0.0, 0.0, 0.0, 1.700946874041024E9, 0.0, 2023-11-25 16:14:34.041
65.0, 7931.136540309971, 13549.560433573775, -55534.76429400019, -58252.445847087605, -49135.48220819023, -59535.3018683555, -34024.92064534672, -16100.207400346686, -0.128, 0.9520000000000001, 0.254, 192.0, 0.0, 0.0, 0.0, 0.0, 0.0, 0.0, 0.0, 0.0, 0.0, 1.700946874045054E9, 0.0, 2023-11-25 16:14:34.045
66.0, 7781.156335014861, 13469.943519823972, -55525.37656132896, -58255.61979480026, -49044.01886987912, -59739.708571399286, -34003.30650845844, -16073.56412095596, -0.128, 0.9520000000000001, 0.254, 192.0, 0.0, 0.0, 0.0, 0.0, 0.0, 0.0, 0.0, 0.0, 0.0, 1.70094687404952E9, 0.0, 2023-11-25 16:14:34.049
67.0, 7647.470551427669, 13528.549793785787, -55483.198819541794, -58180.98732006399, -49702.970648166025, -59800.32650236208, -33914.74889692651, -15981.184361122176, -0.128, 0.9520000000000001, 0.258, 192.0, 252.0, 0.0, 29.0, 192.0, 8.0, 16.0, 0.0, 0.0, 0.0, 1.700946874054058E9, 0.0, 2023-11-25 16:14:34.054
68.0, 7795.237934021704, 13559.752829045396, -55531.61269803199, -58219.5440792494, -49548.27422479084, -59566.92958675976, -33970.13651968676, -16026.670161088725, -0.128, 0.9520000000000001, 0.258, 192.0, 0.0, 0.0, 0.0, 0.0, 0.0, 0.0, 0.0, 0.0, 0.0, 1.700946874057073E9, 0.0, 2023-11-25 16:14:34.057
69.0, 7906.2590487312145, 13536.685828767519, -55561.31816641309, -58262.97351872606, -49219.79298827565, -59522.87429843835, -34023.981872079596, -16076.671013435247, -0.128, 0.9520000000000001, 0.258, 192.0, 0.0, 0.0, 0.0, 0.0, 0.0, 0.0, 0.0, 0.0, 0.0, 1.700946874061049E9, 0.0, 2023-11-25 16:14:34.061
70.0, 7814.795710420098, 13443.210833455425, -55561.228759435275, -58287.24751320452, -48965.11721195188, -59696.837925534004, -34031.804982638954, -16085.388193772817, -0.128, 0.9520000000000001, 0.258, 192.0, 0.0, 0.0, 0.0, 0.0, 0.0, 0.0, 0.0, 0.0, 0.0, 1.700946874065056E9, 0.0, 2023-11-25 16:14:34.065
71.0, 7621.386065648326, 13496.989130614893, -55513.261915834184, -58201.774442407426, -49647.2701009834, -59839.12913073649, -33938.95583617161, -15988.918064703712, -0.128, 0.9520000000000001, 0.258, 192.0, 0.0, 0.0, 0.0, 0.0, 0.0, 0.0, 0.0, 0.0, 0.0, 1.700946874069032E9, 0.0, 2023-11-25 16:14:34.069
72.0, 7759.899826037864, 13548.219328906456, -55543.325012126574, -58226.22725084153, -49599.43736784904, -59606.64863665684, -33983.39110414876, -16043.255155474562, -0.128, 0.9520000000000001, 0.258, 192.0, 0.0, 0.0, 0.0, 0.0, 0.0, 0.0, 0.0, 0.0, 0.0, 1.700946874073059E9, 0.0, 2023-11-25 16:14:34.073
73.0, 7892.579781124567, 13568.49236112742, -55556.467837866294, -58246.34382085131, -49307.43417828491, -59518.87333618085, -34014.34827021936, -16077.028641346533, -0.128, 0.9520000000000001, 0.258, 192.0, 0.0, 0.0, 0.0, 0.0, 0.0, 0.0, 0.0, 0.0, 0.0, 1.700946874078099E9, 0.0, 2023-11-25 16:14:34.078
74.0, 7861.846132498519, 13468.848284345662, -55555.640823321446, -58287.96276902709, -48944.084220419434, -59642.63494522989, -34044.76899442304, -16115.920676698766, -0.128, 0.9520000000000001, 0.258, 192.0, 0.0, 0.0, 0.0, 0.0, 0.0, 0.0, 0.0, 0.0, 0.0, 1.700946874081105E9, 0.0, 2023-11-25 16:14:34.081
75.0, 7618.525042358046, 13480.985281584894, -55524.0578084061, -58224.215593840556, -49553.7951056713, -59853.590709399075, -33963.85567949482, -16037.197832727175, -0.128, 0.9520000000000001, 0.258, 192.0, 0.0, 0.0, 0.0, 0.0, 0.0, 0.0, 0.0, 0.0, 0.0, 1.700946874084094E9, 0.0, 2023-11-25 16:14:34.084
76.0, 7725.276973876593, 13534.830633977728, -55539.547567313624, -58236.21848061305, -49651.62869115218, -59653.14026512388, -33984.35222916034, -16064.399905729284, -0.128, 0.9520000000000001, 0.258, 192.0, 0.0, 0.0, 0.0, 0.0, 0.0, 0.0, 0.0, 0.0, 0.0, 1.700946874089164E9, 0.0, 2023-11-25 16:14:34.089
77.0, 7870.764478536186, 13581.881056056149, -55549.11411394049, -58242.588727782815, -49378.646836119515, -59525.86943219536, -34006.994546293565, -16091.445516520205, -0.132, 0.9460000000000001, 0.26, 192.0, 251.0, 224.0, 29.0, 144.0, 8.0, 32.0, 0.0, 0.0, 0.0, 1.700946874093127E9, 0.0, 2023-11-25 16:14:34.093
78.0, 7904.023874285684, 13502.755880684363, -55533.043209677126, -58272.093030463824, -48961.4068223723, -59596.47859292968, -34030.37447099382, -16120.480432567649, -0.132, 0.9460000000000001, 0.26, 192.0, 0.0, 0.0, 0.0, 0.0, 0.0, 0.0, 0.0, 0.0, 0.0, 1.700946874097143E9, 0.0, 2023-11-25 16:14:34.097
79.0, 7655.003089309108, 13494.57514221372, -55501.236677317225, -58211.45274775657, -49426.09958959813, -59834.1223399785, -33953.73033925657, -16039.544765894982, -0.132, 0.9460000000000001, 0.26, 192.0, 0.0, 0.0, 0.0, 0.0, 0.0, 0.0, 0.0, 0.0, 0.0, 1.700946874101198E9, 0.0, 2023-11-25 16:14:34.101
80.0, 7717.856194717431, 13552.555567330786, -55500.543773239115, -58203.316712774846, -49687.97262763651, -59674.128553167415, -33953.32800785637, -16039.634172872804, -0.132, 0.9460000000000001, 0.26, 192.0, 0.0, 0.0, 0.0, 0.0, 0.0, 0.0, 0.0, 0.0, 0.0, 1.700946874106136E9, 0.0, 2023-11-25 16:14:34.106
81.0, 7864.08130694405, 13580.4058409221, -55537.1559306569, -58232.35162882229, -49423.2162145634, -59520.952048415194, -33994.745790332054, -16082.169542571253, -0.132, 0.9460000000000001, 0.26, 192.0, 0.0, 0.0, 0.0, 0.0, 0.0, 0.0, 0.0, 0.0, 0.0, 1.70094687410916E9, 0.0, 2023-11-25 16:14:34.109
82.0, 7914.506842435222, 13502.085328350704, -55535.345439356024, -58276.11634446578, -48994.97914254417, -59564.73911580314, -34031.91674136123, -16125.062540180987, -0.132, 0.9460000000000001, 0.26, 192.0, 0.0, 0.0, 0.0, 0.0, 0.0, 0.0, 0.0, 0.0, 0.0, 1.70094687411222E9, 0.0, 2023-11-25 16:14:34.112
83.0, 7681.579313466467, 13469.00474655685, -55509.79739544361, -58230.988172410514, -49265.01056730874, -59808.44018559936, -33971.36586563181, -16061.672992905736, -0.132, 0.9460000000000001, 0.26, 192.0, 0.0, 0.0, 0.0, 0.0, 0.0, 0.0, 0.0, 0.0, 0.0, 1.700946874117223E9, 0.0, 2023-11-25 16:14:34.117
84.0, 7670.515199961091, 13522.112491382659, -55502.33191279554, -58205.99892210948, -49701.80835745435, -59728.040960793616, -33955.25025787953, -16046.451454931672, -0.132, 0.9460000000000001, 0.26, 192.0, 0.0, 0.0, 0.0, 0.0, 0.0, 0.0, 0.0, 0.0, 0.0, 1.700946874121317E9, 0.0, 2023-11-25 16:14:34.121
85.0, 7826.642134981411, 13568.49236112742, -55534.94310795583, -58227.18837585311, -49455.6709475125, -59542.141502158825, -33992.84589205335, -16092.630158976337, -0.132, 0.9460000000000001, 0.26, 192.0, 0.0, 0.0, 0.0, 0.0, 0.0, 0.0, 0.0, 0.0, 0.0, 1.700946874125236E9, 0.0, 2023-11-25 16:14:34.125
86.0, 7928.320220508603, 13527.432206563022, -55520.325067082056, -58249.96480345307, -49049.40564029284, -59540.06278992448, -34019.48917144408, -16122.961476202188, -0.132, 0.9460000000000001, 0.26, 192.0, 0.0, 0.0, 0.0, 0.0, 0.0, 0.0, 0.0, 0.0, 0.0, 1.700946874129305E9, 0.0, 2023-11-25 16:14:34.129
87.0, 7741.616099073422, 13468.46830468992, -55502.08604360653, -58230.89876543269, -49104.52504211963, -59769.23522582475, -33983.83813903786, -16088.696251952202, -0.126, 0.9460000000000001, 0.262, 192.0, 252.0, 16.0, 29.0, 144.0, 8.0, 48.0, 0.0, 0.0, 0.0, 1.700946874133288E9, 0.0, 2023-11-25 16:14:34.133
88.0, 7658.445257955224, 13530.606154275674, -55474.660453159864, -58179.51210492994, -49694.34287480627, -59768.05058336861, -33928.405812788704, -16033.330980936407, -0.126, 0.9460000000000001, 0.262, 192.0, 0.0, 0.0, 0.0, 0.0, 0.0, 0.0, 0.0, 0.0, 0.0, 1.700946874137239E9, 0.0, 2023-11-25 16:14:34.137
89.0, 7821.233012823226, 13583.222160723468, -55506.46698551977, -58200.54509646238, -49490.785538051794, -59544.39902834881, -33964.6156388063, -16068.758495898068, -0.126, 0.9460000000000001, 0.262, 192.0, 0.0, 0.0, 0.0, 0.0, 0.0, 0.0, 0.0, 0.0, 0.0, 1.700946874140282E9, 0.0, 2023-11-25 16:14:34.140
90.0, 7934.511653722722, 13551.952070230493, -55521.66617174938, -58241.87347196025, -49127.65909763087, -59517.331065813436, -34014.460028941634, -16114.847792964913, -0.126, 0.9460000000000001, 0.262, 192.0, 0.0, 0.0, 0.0, 0.0, 0.0, 0.0, 0.0, 0.0, 0.0, 1.700946874144312E9, 0.0, 2023-11-25 16:14:34.144
91.0, 7794.097995054483, 13471.888121591583, -55517.84402344752, -58250.59065229782, -49003.60691590392, -59726.92337357085, -33999.01497352302, -16103.895438181811, -0.126, 0.9460000000000001, 0.262, 192.0, 0.0, 0.0, 0.0, 0.0, 0.0, 0.0, 0.0, 0.0, 0.0, 1.700946874149286E9, 0.0, 2023-11-25 16:14:34.149
92.0, 7637.613432122878, 13523.654761750075, -55489.345549267004, -58189.27981725691, -49674.6733396856, -59814.63161881347, -33927.69055696613, -16033.442739658683, -0.126, 0.9460000000000001, 0.262, 192.0, 0.0, 0.0, 0.0, 0.0, 0.0, 0.0, 0.0, 0.0, 0.0, 1.700946874153294E9, 0.0, 2023-11-25 16:14:34.153
93.0, 7783.860896093953, 13564.022012236359, -55533.64670677742, -58222.51686126195, -49541.72516366544, -59589.75071784863, -33982.85466228183, -16082.169542571253, -0.126, 0.9460000000000001, 0.262, 192.0, 0.0, 0.0, 0.0, 0.0, 0.0, 0.0, 0.0, 0.0, 0.0, 1.700946874157302E9, 0.0, 2023-11-25 16:14:34.157
94.0, 7914.238621501759, 13572.001585006903, -55537.71472426829, -58240.13003589273, -49225.55973834512, -59524.930658928235, -34008.00037479405, -16103.783679459535, -0.126, 0.9460000000000001, 0.262, 192.0, 0.0, 0.0, 0.0, 0.0, 0.0, 0.0, 0.0, 0.0, 0.0, 1.700946874161288E9, 0.0, 2023-11-25 16:14:34.161
95.0, 7851.519626560167, 13494.66454919154, -55520.61563975998, -58253.54108256592, -48952.130848423345, -59673.078021178015, -34004.133523003286, -16099.268627079562, -0.126, 0.9460000000000001, 0.262, 192.0, 0.0, 0.0, 0.0, 0.0, 0.0, 0.0, 0.0, 0.0, 0.0, 1.700946874165344E9, 0.0, 2023-11-25 16:14:34.165
96.0, 7632.338420431426, 13518.782081458818, -55496.073424348055, -58190.21859052403, -49621.43148439306, -59837.11747373551, -33930.99861514552, -16019.897582518768, -0.126, 0.9460000000000001, 0.262, 192.0, 0.0, 0.0, 0.0, 0.0, 0.0, 0.0, 0.0, 0.0, 0.0, 1.70094687416834E9, 0.0, 2023-11-25 16:14:34.168
97.0, 7766.0912592519835, 13564.49139886992, -55522.64964850541, -58210.96100937856, -49598.43153934855, -59610.6719506588, -33964.347417872836, -16051.815873600946, -0.11800000000000001, 0.9460000000000001, 0.258, 192.0, 252.0, 80.0, 29.0, 144.0, 8.0, 16.0, 0.0, 0.0, 0.0, 1.700946874172396E9, 0.0, 2023-11-25 16:14:34.172
98.0, 7904.023874285684, 13591.73817536094, -55531.36682884298, -58221.37692229473, -49313.87148068804, -59508.7479959426, -33988.956688518134, -16070.837208132412, -0.11800000000000001, 0.9460000000000001, 0.258, 192.0, 0.0, 0.0, 0.0, 0.0, 0.0, 0.0, 0.0, 0.0, 0.0, 1.700946874177352E9, 0.0, 2023-11-25 16:14:34.177
99.0, 7882.946179264329, 13496.452688747966, -55523.72253223926, -58255.77625701145, -48929.287365590026, -59610.783709381074, -34013.074220785405, -16097.9498741567, -0.11800000000000001, 0.9460000000000001, 0.258, 192.0, 0.0, 0.0, 0.0, 0.0, 0.0, 0.0, 0.0, 0.0, 0.0, 1.700946874181377E9, 0.0, 2023-11-25 16:14:34.181
100.0, 7634.0148012655745, 13512.568296500242, -55483.46704047526, -58181.05437529735, -49514.25486972986, -59820.55483109413, -33923.175504586165, -16006.352425378851, -0.11800000000000001, 0.9460000000000001, 0.258, 192.0, 0.0, 0.0, 0.0, 0.0, 0.0, 0.0, 0.0, 0.0, 0.0, 1.700946874185364E9, 0.0, 2023-11-25 16:14:34.185
101.0, 7745.304136908548, 13574.750849574906, -55485.925732365344, -58179.84738109677, -49641.68216486957, -59617.33277050648, -33930.864504678786, -16018.467070873628, -0.11800000000000001, 0.9460000000000001, 0.258, 192.0, 0.0, 0.0, 0.0, 0.0, 0.0, 0.0, 0.0, 0.0, 0.0, 1.70094687418934E9, 0.0, 2023-11-25 16:14:34.189
102.0, 7889.405833411913, 13607.585562179753, -55507.36105529798, -58200.41098599565, -49366.10750748009, -59485.88216136482, -33964.8168045064, -16050.251251489075, -0.11800000000000001, 0.9460000000000001, 0.258, 192.0, 0.0, 0.0, 0.0, 0.0, 0.0, 0.0, 0.0, 0.0, 0.0, 1.700946874192374E9, 0.0, 2023-11-25 16:14:34.192
103.0, 7916.607906414021, 13517.798604702784, -55504.54473549661, -58246.27676561794, -48941.714935507174, -59557.92183374427, -34001.51836890201, -16089.120935096853, -0.11800000000000001, 0.9460000000000001, 0.258, 192.0, 0.0, 0.0, 0.0, 0.0, 0.0, 0.0, 0.0, 0.0, 0.0, 1.700946874196387E9, 0.0, 2023-11-25 16:14:34.196
104.0, 7667.408307481803, 13506.242752819391, -55472.0452990586, -58186.46349745554, -49374.86939130657, -59797.510182560705, -33930.372766300774, -16006.330073634395, -0.11800000000000001, 0.9460000000000001, 0.258, 192.0, 0.0, 0.0, 0.0, 0.0, 0.0, 0.0, 0.0, 0.0, 0.0, 1.700946874200856E9, 0.0, 2023-11-25 16:14:34.200
105.0, 7711.485947547669, 13555.64010806562, -55478.61671192846, -58183.64717765417, -49676.886162386676, -59661.16454138333, -33936.36303381479, -16012.096823703865, -0.11800000000000001, 0.9460000000000001, 0.258, 192.0, 0.0, 0.0, 0.0, 0.0, 0.0, 0.0, 0.0, 0.0, 0.0, 1.700946874205382E9, 0.0, 2023-11-25 16:14:34.205
106.0, 7853.330117861047, 13593.280445728356, -55511.63023848894, -58205.48483198701, -49420.73517092886, -59499.427318504735, -33968.21426966361, -16040.08120776191, -0.11800000000000001, 0.9460000000000001, 0.258, 192.0, 0.0, 0.0, 0.0, 0.0, 0.0, 0.0, 0.0, 0.0, 0.0, 1.700946874209454E9, 0.0, 2023-11-25 16:14:34.209
107.0, 7925.056865818127, 13528.907421697071, -55504.254162818695, -58243.59455628331, -48996.23084023367, -59525.578859517445, -33996.13159848828, -16067.41739123075, -0.12, 0.9520000000000001, 0.262, 192.0, 252.0, 64.0, 29.0, 192.0, 8.0, 48.0, 0.0, 0.0, 0.0, 1.700946874213459E9, 0.0, 2023-11-25 16:14:34.213
108.0, 7692.755185694121, 13481.85699961865, -55495.782851670134, -58223.008599639965, -49228.130188957475, -59777.93005441786, -33953.55152530093, -16020.344617407873, -0.12, 0.9520000000000001, 0.262, 192.0, 0.0, 0.0, 0.0, 0.0, 0.0, 0.0, 0.0, 0.0, 0.0, 1.700946874217521E9, 0.0, 2023-11-25 16:14:34.217
109.0, 7675.678452930267, 13550.722724285451, -55473.65462465938, -58186.530552688906, -49707.016313912434, -59713.78054783113, -33916.537036482936, -15983.01720416751, -0.12, 0.9520000000000001, 0.262, 192.0, 0.0, 0.0, 0.0, 0.0, 0.0, 0.0, 0.0, 0.0, 0.0, 1.700946874220399E9, 0.0, 2023-11-25 16:14:34.220
110.0, 7831.626573994944, 13602.489364443943, -55508.568049498565, -58214.000846624476, -49470.35604361964, -59518.716873969664, -33961.709912027116, -16030.939344279688, -0.12, 0.9520000000000001, 0.262, 192.0, 0.0, 0.0, 0.0, 0.0, 0.0, 0.0, 0.0, 0.0, 0.0, 1.700946874224465E9, 0.0, 2023-11-25 16:14:34.224
111.0, 7924.453368717835, 13554.500169098399, -55516.3017530801, -58259.55370182439, -49075.57953305001, -59521.95787691568, -34008.87209282781, -16084.695289694702, -0.12, 0.9520000000000001, 0.262, 192.0, 0.0, 0.0, 0.0, 0.0, 0.0, 0.0, 0.0, 0.0, 0.0, 1.700946874228436E9, 0.0, 2023-11-25 16:14:34.228
112.0, 7745.393543886369, 13495.268046291834, -55501.08021510604, -58245.85208247329, -49103.228640941226, -59755.39949600691, -33979.61365933582, -16052.709943379157, -0.12, 0.9520000000000001, 0.262, 192.0, 0.0, 0.0, 0.0, 0.0, 0.0, 0.0, 0.0, 0.0, 0.0, 1.700946874232794E9, 0.0, 2023-11-25 16:14:34.232
113.0, 7654.891330586831, 13555.796570276807, -55472.38057522543, -58189.458631212554, -49715.44292157208, -59772.11860085948, -33930.0598418784, -16000.339806120373, -0.12, 0.9520000000000001, 0.262, 192.0, 0.0, 0.0, 0.0, 0.0, 0.0, 0.0, 0.0, 0.0, 0.0, 1.700946874237451E9, 0.0, 2023-11-25 16:14:34.237
114.0, 7806.905544627374, 13597.862553341694, -55514.17833735685, -58219.164099593654, -49517.31705872024, -59559.21823492268, -33981.73707505907, -16053.626364901826, -0.12, 0.9520000000000001, 0.262, 192.0, 0.0, 0.0, 0.0, 0.0, 0.0, 0.0, 0.0, 0.0, 0.0, 1.70094687424156E9, 0.0, 2023-11-25 16:14:34.241
115.0, 7925.660362918421, 13586.753736347406, -55510.37854079945, -58237.4478265581, -49161.9019701364, -59514.47004252316, -34004.58055789239, -16082.728336182636, -0.12, 0.9520000000000001, 0.262, 192.0, 0.0, 0.0, 0.0, 0.0, 0.0, 0.0, 0.0, 0.0, 0.0, 1.700946874245546E9, 0.0, 2023-11-25 16:14:34.245
116.0, 7797.3166462560475, 13500.81127891675, -55509.93150591034, -58252.82582674335, -49000.63413389136, -59712.55120188608, -34010.81669459542, -16088.875065907845, -0.12, 0.9520000000000001, 0.262, 192.0, 0.0, 0.0, 0.0, 0.0, 0.0, 0.0, 0.0, 0.0, 0.0, 1.700946874248561E9, 0.0, 2023-11-25 16:14:34.248
117.0, 7635.758237333088, 13550.521558585353, -55476.58270318303, -58184.69770964357, -49686.11743284672, -59815.771557780696, -33940.162830372195, -16017.371835395317, -0.128, 0.9500000000000001, 0.262, 192.0, 252.0, 0.0, 29.0, 176.0, 8.0, 48.0, 0.0, 0.0, 0.0, 1.700946874252547E9, 0.0, 2023-11-25 16:14:34.252
118.0, 7781.156335014861, 13584.227989223957, -55520.21330835978, -58222.91919266215, -49568.54725701181, -59589.57190389299, -33988.55435711794, -16070.65839417677, -0.128, 0.9500000000000001, 0.262, 192.0, 0.0, 0.0, 0.0, 0.0, 0.0, 0.0, 0.0, 0.0, 0.0, 1.700946874256514E9, 0.0, 2023-11-25 16:14:34.256
119.0, 7904.426205685879, 13584.78678283534, -55530.09277940903, -58247.10378016279, -49256.33809046008, -59528.64104850782, -34023.19956102366, -16108.81282196198, -0.128, 0.9500000000000001, 0.262, 192.0, 0.0, 0.0, 0.0, 0.0, 0.0, 0.0, 0.0, 0.0, 0.0, 1.7009468742605E9, 0.0, 2023-11-25 16:14:34.260
120.0, 7841.841321211019, 13492.496429979377, -55523.32020083907, -58273.277672919954, -48953.76252576859, -59676.72135552423, -34037.191753052684, -16121.016874434576, -0.128, 0.9500000000000001, 0.262, 192.0, 0.0, 0.0, 0.0, 0.0, 0.0, 0.0, 0.0, 0.0, 0.0, 1.700946874265534E9, 0.0, 2023-11-25 16:14:34.265
121.0, 7622.011914493074, 13529.801491475284, -55487.69152017731, -58199.62867493972, -49620.58211810376, -59850.39440994197, -33952.94802820063, -16032.526318136015, -0.128, 0.9500000000000001, 0.262, 192.0, 0.0, 0.0, 0.0, 0.0, 0.0, 0.0, 0.0, 0.0, 0.0, 1.700946874269547E9, 0.0, 2023-11-25 16:14:34.269
122.0, 7759.8104190600425, 13583.199808979012, -55504.54473549661, -58212.391521023696, -49625.54420537284, -59623.859479887426, -33977.31142965692, -16056.710905636659, -0.128, 0.9500000000000001, 0.262, 192.0, 0.0, 0.0, 0.0, 0.0, 0.0, 0.0, 0.0, 0.0, 0.0, 1.700946874272519E9, 0.0, 2023-11-25 16:14:34.272
123.0, 7893.719720091787, 13601.505887687908, -55519.43099730385, -58232.37398056674, -49334.70330652038, -59516.3475890574, -34004.692316614666, -16082.102487337886, -0.128, 0.9500000000000001, 0.262, 192.0, 0.0, 0.0, 0.0, 0.0, 0.0, 0.0, 0.0, 0.0, 0.0, 1.700946874276533E9, 0.0, 2023-11-25 16:14:34.276
124.0, 7874.6089785825, 13503.091156851193, -55515.497090279714, -58270.43900137413, -48936.618737771365, -59622.36191300892, -34025.032404068996, -16103.8507346929, -0.128, 0.9500000000000001, 0.262, 192.0, 0.0, 0.0, 0.0, 0.0, 0.0, 0.0, 0.0, 0.0, 0.0, 1.700946874280541E9, 0.0, 2023-11-25 16:14:34.280
125.0, 7624.6270685943455, 13511.607171488664, -55484.60697944248, -58200.723910418026, -49494.51827937583, -59835.99988651275, -33942.77798447347, -16010.308684147441, -0.128, 0.9500000000000001, 0.262, 192.0, 0.0, 0.0, 0.0, 0.0, 0.0, 0.0, 0.0, 0.0, 0.0, 1.700946874284599E9, 0.0, 2023-11-25 16:14:34.284
126.0, 7717.230345872682, 13567.061849482281, -55497.01219761517, -58202.51204997445, -49659.474153455994, -59641.964392896225, -33959.3629788593, -16020.970466252622, -0.128, 0.9500000000000001, 0.262, 192.0, 0.0, 0.0, 0.0, 0.0, 0.0, 0.0, 0.0, 0.0, 0.0, 1.700946874288749E9, 0.0, 2023-11-25 16:14:34.288
127.0, 7873.133763448449, 13620.706036175017, -55504.9023634079, -58201.93090461861, -49386.22407748987, -59488.40790848827, -33977.57965059038, -16033.532146636504, -0.132, 0.9480000000000001, 0.26, 192.0, 251.0, 224.0, 29.0, 160.0, 8.0, 32.0, 0.0, 0.0, 0.0, 1.700946874292683E9, 0.0, 2023-11-25 16:14:34.292
128.0, 7916.85377560303, 13541.334991614223, -55499.38148252744, -58241.06880915986, -48945.69354602022, -59542.767351003575, -34014.460028941634, -16067.953833097677, -0.132, 0.9480000000000001, 0.26, 192.0, 0.0, 0.0, 0.0, 0.0, 0.0, 0.0, 0.0, 0.0, 0.0, 1.700946874297632E9, 0.0, 2023-11-25 16:14:34.297
129.0, 7670.872827872376, 13523.163023372057, -55474.21341827076, -58187.55873293385, -49331.50700706327, -59788.59183652304, -33948.43297582066, -15993.969558950612, -0.132, 0.9480000000000001, 0.26, 192.0, 0.0, 0.0, 0.0, 0.0, 0.0, 0.0, 0.0, 0.0, 0.0, 1.700946874300654E9, 0.0, 2023-11-25 16:14:34.300
130.0, 7704.62396199989, 13576.538989131332, -55473.38640372591, -58175.15351476116, -49672.84049664027, -59662.32683209501, -33937.8606006933, -15985.87822745779, -0.132, 0.9480000000000001, 0.26, 192.0, 0.0, 0.0, 0.0, 0.0, 0.0, 0.0, 0.0, 0.0, 0.0, 1.700946874304677E9, 0.0, 2023-11-25 16:14:34.304
131.0, 7842.6012805225, 13602.623474910675, -55520.59328801552, -58213.8890879022, -49416.48833948235, -59499.04733884899, -33984.73220881608, -16032.928649536212, -0.132, 0.9480000000000001, 0.26, 192.0, 0.0, 0.0, 0.0, 0.0, 0.0, 0.0, 0.0, 0.0, 0.0, 1.700946874308654E9, 0.0, 2023-11-25 16:14:34.308
132.0, 7920.251240760236, 13544.777160260339, -55511.83140418904, -58248.131960407736, -48998.24249723465, -59527.61286826288, -34012.00133705155, -16066.791542386001, -0.132, 0.9480000000000001, 0.26, 192.0, 0.0, 0.0, 0.0, 0.0, 0.0, 0.0, 0.0, 0.0, 0.0, 1.700946874312665E9, 0.0, 2023-11-25 16:14:34.312
133.0, 7708.244944601649, 13507.67326446453, -55487.535057966124, -58211.676265201124, -49193.55204028512, -59771.380993292456, -33961.88872598275, -16015.06960571642, -0.132, 0.9480000000000001, 0.26, 192.0, 0.0, 0.0, 0.0, 0.0, 0.0, 0.0, 0.0, 0.0, 0.0, 1.700946874316661E9, 0.0, 2023-11-25 16:14:34.316
134.0, 7667.229493526161, 13557.115323199669, -55484.42816548684, -58189.92801784611, -49701.20486035405, -59733.38302771843, -33950.60109503283, -16007.827640512902, -0.132, 0.9480000000000001, 0.26, 192.0, 0.0, 0.0, 0.0, 0.0, 0.0, 0.0, 0.0, 0.0, 0.0, 1.700946874320669E9, 0.0, 2023-11-25 16:14:34.320
135.0, 7823.73640820222, 13610.670102914584, -55520.59328801552, -58211.206878567566, -49470.78072676429, -59542.342667858924, -33997.80797932243, -16056.621498658837, -0.132, 0.9480000000000001, 0.26, 192.0, 0.0, 0.0, 0.0, 0.0, 0.0, 0.0, 0.0, 0.0, 0.0, 1.70094687432566E9, 0.0, 2023-11-25 16:14:34.325
136.0, 7936.679772934887, 13583.177457234557, -55509.7526919547, -58231.72577997754, -49090.51049834615, -59522.628429249344, -34017.43281095419, -16085.008214117077, -0.132, 0.9480000000000001, 0.26, 192.0, 0.0, 0.0, 0.0, 0.0, 0.0, 0.0, 0.0, 0.0, 0.0, 1.70094687432873E9, 0.0, 2023-11-25 16:14:34.328
137.0, 7763.006718517151, 13509.81903193224, -55504.27651456315, -58229.51295727646, -49075.9818644502, -59747.799902892104, -33998.031496766984, -16073.89939712279, -0.124, 0.9480000000000001, 0.26, 192.0, 252.0, 32.0, 29.0, 160.0, 8.0, 32.0, 0.0, 0.0, 0.0, 1.700946874332636E9, 0.0, 2023-11-25 16:14:34.332
138.0, 7643.402533936804, 13558.523483100354, -55484.60697944248, -58181.12143053072, -49708.11154939074, -59793.0621854141, -33954.11031891231, -16029.59823961237, -0.124, 0.9480000000000001, 0.26, 192.0, 0.0, 0.0, 0.0, 0.0, 0.0, 0.0, 0.0, 0.0, 0.0, 1.700946874336683E9, 0.0, 2023-11-25 16:14:34.336
139.0, 7790.342901985991, 13593.079280028258, -55533.91492771089, -58220.1922798386, -49525.810721613256, -59581.94995903373, -34016.292871986974, -16090.931426397734, -0.124, 0.9480000000000001, 0.26, 192.0, 0.0, 0.0, 0.0, 0.0, 0.0, 0.0, 0.0, 0.0, 0.0, 1.700946874340733E9, 0.0, 2023-11-25 16:14:34.340
140.0, 7916.563202925111, 13588.631282881652, -55527.522328796666, -58236.82197771335, -49183.27023783568, -59534.40779857729, -34035.783593152, -16116.658284265792, -0.124, 0.9480000000000001, 0.26, 192.0, 0.0, 0.0, 0.0, 0.0, 0.0, 0.0, 0.0, 0.0, 0.0, 1.70094687434471E9, 0.0, 2023-11-25 16:14:34.344
141.0, 7805.855012637975, 13496.117412581136, -55524.01310491718, -58259.3525361243, -48989.681779108265, -59720.93310605683, -34037.10234607486, -16125.464871581182, -0.124, 0.9480000000000001, 0.26, 192.0, 0.0, 0.0, 0.0, 0.0, 0.0, 0.0, 0.0, 0.0, 0.0, 1.700946874348825E9, 0.0, 2023-11-25 16:14:34.348
142.0, 7619.821443536454, 13535.367075844655, -55496.40870051488, -58200.008654595455, -49675.05331934134, -59848.203938985345, -33970.80707202042, -16055.056876546965, -0.124, 0.9480000000000001, 0.26, 192.0, 0.0, 0.0, 0.0, 0.0, 0.0, 0.0, 0.0, 0.0, 0.0, 1.700946874353762E9, 0.0, 2023-11-25 16:14:34.353
143.0, 7772.707375610755, 13591.291140471834, -55519.27453509266, -58217.487718759505, -49577.555010027296, -59614.15882279383, -34006.54751140446, -16086.975167629143, -0.124, 0.9480000000000001, 0.26, 192.0, 0.0, 0.0, 0.0, 0.0, 0.0, 0.0, 0.0, 0.0, 0.0, 1.700946874356755E9, 0.0, 2023-11-25 16:14:34.356
144.0, 7899.195897483337, 13602.60112316622, -55526.672962507364, -58237.4478265581, -49262.93185507439, -59531.435016564734, -34034.24132278458, -16114.221944120163, -0.124, 0.9480000000000001, 0.26, 192.0, 0.0, 0.0, 0.0, 0.0, 0.0, 0.0, 0.0, 0.0, 0.0, 1.700946874360784E9, 0.0, 2023-11-25 16:14:34.360
145.0, 7846.512835802178, 13505.348683041178, -55520.48152929325, -58267.10859145029, -48935.32233659296, -59670.641681032386, -34045.01486361204, -16128.996447205122, -0.124, 0.9480000000000001, 0.26, 192.0, 0.0, 0.0, 0.0, 0.0, 0.0, 0.0, 0.0, 0.0, 0.0, 1.700946874364717E9, 0.0, 2023-11-25 16:14:34.364
146.0, 7622.7495220600995, 13535.143558400103, -55480.56131369607, -58187.11169804475, -49586.205135131495, -59848.18158724089, -33946.309560097405, -16024.278524432008, -0.124, 0.9480000000000001, 0.26, 192.0, 0.0, 0.0, 0.0, 0.0, 0.0, 0.0, 0.0, 0.0, 0.0, 1.700946874368869E9, 0.0, 2023-11-25 16:14:34.368
147.0, 7745.8405787754755, 13585.077355513258, -55504.9023634079, -58202.31088427435, -49617.27405992438, -59621.40078799734, -33975.612697078315, -16046.965545054145, -0.122, 0.9500000000000001, 0.254, 192.0, 252.0, 48.0, 29.0, 176.0, 7.0, 240.0, 0.0, 0.0, 0.0, 1.700946874372815E9, 0.0, 2023-11-25 16:14:34.372
148.0, 7879.727528062765, 13616.302742517322, -55519.87803219295, -58212.324465790334, -49334.680954775926, -59500.477850494135, -33992.667078097715, -16057.828492859424, -0.122, 0.9500000000000001, 0.254, 192.0, 0.0, 0.0, 0.0, 0.0, 0.0, 0.0, 0.0, 0.0, 0.0, 1.700946874376845E9, 0.0, 2023-11-25 16:14:34.376
149.0, 7881.9627025082955, 13527.700427496486, -55511.74199721122, -58242.78989348291, -48929.980269668136, -59585.28036895757, -34007.64274688277, -16072.446533733195, -0.122, 0.9500000000000001, 0.254, 192.0, 0.0, 0.0, 0.0, 0.0, 0.0, 0.0, 0.0, 0.0, 0.0, 1.700946874381829E9, 0.0, 2023-11-25 16:14:34.381
150.0, 7628.784493063033, 13525.174680373035, -55486.909209121375, -58181.233189253, -49454.3745463341, -59805.35564486452, -33926.64002497673, -15981.184361122176, -0.122, 0.9500000000000001, 0.254, 192.0, 0.0, 0.0, 0.0, 0.0, 0.0, 0.0, 0.0, 0.0, 0.0, 1.700946874384845E9, 0.0, 2023-11-25 16:14:34.384
151.0, 7707.2167643567045, 13579.645881610619, -55489.92669462284, -58174.013575793935, -49649.52762717338, -59621.691360675264, -33927.355280799304, -15977.384564564773, -0.122, 0.9500000000000001, 0.254, 192.0, 0.0, 0.0, 0.0, 0.0, 0.0, 0.0, 0.0, 0.0, 0.0, 1.700946874387817E9, 0.0, 2023-11-25 16:14:34.387
152.0, 7847.339850347024, 13610.69245465904, -55519.341590326025, -58197.70642491656, -49374.44470816192, -59478.01434731655, -33970.717665042604, -16010.912181247733, -0.122, 0.9500000000000001, 0.254, 192.0, 0.0, 0.0, 0.0, 0.0, 0.0, 0.0, 0.0, 0.0, 0.0, 1.700946874392811E9, 0.0, 2023-11-25 16:14:34.392
153.0, 7901.878106817974, 13544.978325960437, -55499.02385461615, -58225.22142234104, -48938.31747034997, -59521.89082168232, -33991.23656645257, -16033.487443147595, -0.122, 0.9500000000000001, 0.254, 192.0, 0.0, 0.0, 0.0, 0.0, 0.0, 0.0, 0.0, 0.0, 0.0, 1.700946874396802E9, 0.0, 2023-11-25 16:14:34.396
154.0, 7671.275159272571, 13530.740264742408, -55465.16096176636, -58171.73369785949, -49288.01051235325, -59761.43446700984, -33924.784830186945, -15963.750000447037, -0.122, 0.9500000000000001, 0.254, 192.0, 0.0, 0.0, 0.0, 0.0, 0.0, 0.0, 0.0, 0.0, 0.0, 1.700946874400851E9, 0.0, 2023-11-25 16:14:34.400
155.0, 7685.781441424066, 13580.383489177644, -55468.84899960149, -58167.66568036863, -49665.1738482921, -59661.0304309166, -33930.439821534135, -15969.382640049773, -0.122, 0.9500000000000001, 0.254, 192.0, 0.0, 0.0, 0.0, 0.0, 0.0, 0.0, 0.0, 0.0, 0.0, 1.70094687440486E9, 0.0, 2023-11-25 16:14:34.404
156.0, 7837.16980661986, 13632.463053758509, -55494.039415602616, -58183.580122420804, -49415.706028426415, -59483.66933866374, -33968.14721443024, -16004.519582333516, -0.122, 0.9500000000000001, 0.254, 192.0, 0.0, 0.0, 0.0, 0.0, 0.0, 0.0, 0.0, 0.0, 0.0, 1.7009468744089E9, 0.0, 2023-11-25 16:14:34.408
157.0, 7932.745865910753, 13586.418460180577, -55477.76734563916, -58211.72096869004, -49002.98106705917, -59492.45357423468, -33993.985831020575, -16037.421350171728, -0.122, 0.9500000000000001, 0.25, 192.0, 252.0, 48.0, 29.0, 176.0, 7.0, 208.0, 0.0, 0.0, 0.0, 1.700946874412915E9, 0.0, 2023-11-25 16:14:34.412
158.0, 7730.52963382359, 13536.01527643386, -55461.316461720045, -58189.682148657106, -49146.65808041788, -59737.316934742565, -33959.161813159204, -16004.608989311337, -0.122, 0.9500000000000001, 0.25, 192.0, 0.0, 0.0, 0.0, 0.0, 0.0, 0.0, 0.0, 0.0, 0.0, 1.700946874416917E9, 0.0, 2023-11-25 16:14:34.416
159.0, 7668.011804582096, 13587.759564847895, -55454.65564187237, -58164.93876754508, -49681.289456044375, -59722.72124561325, -33949.48350781006, -15995.601236295848, -0.122, 0.9500000000000001, 0.25, 192.0, 0.0, 0.0, 0.0, 0.0, 0.0, 0.0, 0.0, 0.0, 0.0, 1.700946874420974E9, 0.0, 2023-11-25 16:14:34.420
160.0, 7830.799559450097, 13650.009173155926, -55485.299883520594, -58180.719099130525, -49460.096592914655, -59523.88012693884, -33992.84589205335, -16040.215318228642, -0.122, 0.9500000000000001, 0.25, 192.0, 0.0, 0.0, 0.0, 0.0, 0.0, 0.0, 0.0, 0.0, 0.0, 1.700946874424924E9, 0.0, 2023-11-25 16:14:34.424
161.0, 7957.712764467331, 13625.645771699641, -55473.58756942601, -58200.723910418026, -49080.31810287453, -59496.43218474772, -34013.25303474105, -16072.044202332998, -0.122, 0.9500000000000001, 0.25, 192.0, 0.0, 0.0, 0.0, 0.0, 0.0, 0.0, 0.0, 0.0, 0.0, 1.700946874427906E9, 0.0, 2023-11-25 16:14:34.427
162.0, 7787.7500996291765, 13529.935601942016, -55484.875200375944, -58220.05816937187, -49021.912994612816, -59724.28586772512, -34017.54456967647, -16077.743897169103, -0.122, 0.9500000000000001, 0.25, 192.0, 0.0, 0.0, 0.0, 0.0, 0.0, 0.0, 0.0, 0.0, 0.0, 1.700946874431896E9, 0.0, 2023-11-25 16:14:34.431
163.0, 7645.660060126789, 13572.180398962546, -55471.821781614046, -58175.57819790581, -49672.92990361809, -59796.90668546042, -33971.32116214289, -16030.089977990387, -0.122, 0.9500000000000001, 0.25, 192.0, 0.0, 0.0, 0.0, 0.0, 0.0, 0.0, 0.0, 0.0, 0.0, 1.700946874436941E9, 0.0, 2023-11-25 16:14:34.436
164.0, 7804.40214924838, 13624.930515877071, -55504.880011663445, -58201.640331940696, -49508.91280280505, -59572.51752287359, -34016.96342432063, -16077.386269257817, -0.122, 0.9500000000000001, 0.25, 192.0, 0.0, 0.0, 0.0, 0.0, 0.0, 0.0, 0.0, 0.0, 0.0, 1.700946874440922E9, 0.0, 2023-11-25 16:14:34.440
165.0, 7931.672982176899, 13623.07532108728, -55504.27651456315, -58222.02512288393, -49175.424775531865, -59520.50501352609, -34040.79038390999, -16105.9517986717, -0.122, 0.9500000000000001, 0.25, 192.0, 0.0, 0.0, 0.0, 0.0, 0.0, 0.0, 0.0, 0.0, 0.0, 1.700946874444921E9, 0.0, 2023-11-25 16:14:34.444
166.0, 7835.605184507988, 13532.215479876457, -55492.36303476847, -58237.15725388018, -48951.25913038959, -59694.55804759957, -34038.108174575354, -16105.549467271505, -0.122, 0.9500000000000001, 0.25, 192.0, 0.0, 0.0, 0.0, 0.0, 0.0, 0.0, 0.0, 0.0, 0.0, 1.700946874448943E9, 0.0, 2023-11-25 16:14:34.448
167.0, 7639.602737379401, 13568.604119849697, -55461.42822044232, -58170.61611063673, -49634.2166822215, -59827.439168386365, -33964.86150799531, -16027.586582611393, -0.124, 0.9460000000000001, 0.252, 192.0, 252.0, 32.0, 29.0, 144.0, 7.0, 224.0, 0.0, 0.0, 0.0, 1.70094687445297E9, 0.0, 2023-11-25 16:14:34.452
168.0, 7764.616044117934, 13597.013187052393, -55513.328971067545, -58219.23115482702, -49560.90296040809, -59613.26475301561, -34024.183037779694, -16089.746783941602, -0.124, 0.9460000000000001, 0.252, 192.0, 0.0, 0.0, 0.0, 0.0, 0.0, 0.0, 0.0, 0.0, 0.0, 1.700946874456024E9, 0.0, 2023-11-25 16:14:34.456
169.0, 7893.764423580697, 13610.558344192308, -55526.337686340536, -58239.3477248368, -49262.41776495192, -59534.78777823303, -34045.305436289964, -16115.741862743123, -0.124, 0.9460000000000001, 0.252, 192.0, 0.0, 0.0, 0.0, 0.0, 0.0, 0.0, 0.0, 0.0, 0.0, 1.700946874459991E9, 0.0, 2023-11-25 16:14:34.459
170.0, 7861.60026330951, 13521.19606985999, -55518.17929961435, -58265.789838527424, -48921.866586430864, -59660.5833960275, -34053.8885061608, -16125.062540180987, -0.124, 0.9460000000000001, 0.252, 192.0, 0.0, 0.0, 0.0, 0.0, 0.0, 0.0, 0.0, 0.0, 0.0, 1.700946874465159E9, 0.0, 2023-11-25 16:14:34.465
171.0, 7627.666905840267, 13552.622622564153, -55474.72750839323, -58182.57429392032, -49555.06915510526, -59846.43815117337, -33951.38340608876, -16017.081262717398, -0.124, 0.9460000000000001, 0.252, 192.0, 0.0, 0.0, 0.0, 0.0, 0.0, 0.0, 0.0, 0.0, 0.0, 1.700946874468314E9, 0.0, 2023-11-25 16:14:34.468
172.0, 7742.733686296187, 13602.958751077504, -55492.96653186876, -58195.672416171124, -49615.642382579135, -59629.78269216808, -33969.08598769736, -16038.069550760933, -0.124, 0.9460000000000001, 0.252, 192.0, 0.0, 0.0, 0.0, 0.0, 0.0, 0.0, 0.0, 0.0, 0.0, 1.70094687447303E9, 0.0, 2023-11-25 16:14:34.473
173.0, 7886.8353827995525, 13645.158844609125, -55498.88974414942, -58203.1378988192, -49338.39134435551, -59505.015254618556, -33983.39110414876, -16054.967469569145, -0.124, 0.9460000000000001, 0.252, 192.0, 0.0, 0.0, 0.0, 0.0, 0.0, 0.0, 0.0, 0.0, 0.0, 1.700946874477044E9, 0.0, 2023-11-25 16:14:34.477
174.0, 7904.85088883053, 13552.510863841875, -55484.33875850902, -58243.48279756103, -48924.77231321005, -59584.40865092381, -34000.57959563489, -16083.33183328293, -0.124, 0.9460000000000001, 0.252, 192.0, 0.0, 0.0, 0.0, 0.0, 0.0, 0.0, 0.0, 0.0, 0.0, 1.700946874480089E9, 0.0, 2023-11-25 16:14:34.480
175.0, 7648.923414817264, 13540.91030846957, -55453.627461627424, -58188.3857474787, -49421.1151505846, -59821.359493894524, -33921.94615864112, -16002.55262882145, -0.124, 0.9460000000000001, 0.252, 192.0, 0.0, 0.0, 0.0, 0.0, 0.0, 0.0, 0.0, 0.0, 0.0, 1.700946874486087E9, 0.0, 2023-11-25 16:14:34.486
176.0, 7714.123453393395, 13585.434983424544, -55463.417525698846, -58194.24190452599, -49649.52762717338, -59661.745686739174, -33931.646815734726, -16017.617704584325, -0.124, 0.9460000000000001, 0.252, 192.0, 0.0, 0.0, 0.0, 0.0, 0.0, 0.0, 0.0, 0.0, 0.0, 1.700946874489109E9, 0.0, 2023-11-25 16:14:34.489
177.0, 7855.006498695195, 13621.957733864516, -55490.7984126566, -58212.52563149043, -49382.96072279939, -59508.859754664874, -33964.05684519492, -16045.333867708907, -0.126, 0.9540000000000001, 0.254, 192.0, 252.0, 16.0, 29.0, 208.0, 7.0, 240.0, 0.0, 0.0, 0.0, 1.700946874492099E9, 0.0, 2023-11-25 16:14:34.492
178.0, 7916.965534325306, 13556.802398777296, -55474.74986013769, -58240.062980659364, -48958.79166827103, -59543.192034148226, -33984.53104311598, -16064.042277817998, -0.126, 0.9540000000000001, 0.254, 192.0, 0.0, 0.0, 0.0, 0.0, 0.0, 0.0, 0.0, 0.0, 0.0, 1.700946874497057E9, 0.0, 2023-11-25 16:14:34.497
179.0, 7689.447127514735, 13537.91517471256, -55443.54682487808, -58182.84251485378, -49273.504230201754, -59771.716269459284, -33904.310632265886, -15966.946299904144, -0.126, 0.9540000000000001, 0.254, 192.0, 0.0, 0.0, 0.0, 0.0, 0.0, 0.0, 0.0, 0.0, 0.0, 1.700946874501091E9, 0.0, 2023-11-25 16:14:34.501
180.0, 7692.084633360462, 13591.849934083217, -55450.81114182605, -58169.27500596941, -49686.609171224736, -59670.37346009892, -33902.43308573164, -15949.601346206826, -0.126, 0.9540000000000001, 0.254, 192.0, 0.0, 0.0, 0.0, 0.0, 0.0, 0.0, 0.0, 0.0, 0.0, 1.700946874505168E9, 0.0, 2023-11-25 16:14:34.505
181.0, 7834.420542051857, 13632.4183502696, -55507.09283436452, -58207.630599454715, -49441.41053455002, -59497.84034464841, -33968.750711530534, -16000.473916587105, -0.126, 0.9540000000000001, 0.254, 192.0, 0.0, 0.0, 0.0, 0.0, 0.0, 0.0, 0.0, 0.0, 0.0, 1.700946874508353E9, 0.0, 2023-11-25 16:14:34.508
182.0, 7933.885804877974, 13603.919876089083, -55494.32998828054, -58226.38371305272, -49038.49798899866, -59498.26502779306, -34000.40078167925, -16027.340713422385, -0.126, 0.9540000000000001, 0.254, 192.0, 0.0, 0.0, 0.0, 0.0, 0.0, 0.0, 0.0, 0.0, 0.0, 1.700946874512148E9, 0.0, 2023-11-25 16:14:34.512
183.0, 7748.634546832389, 13571.912178029082, -55466.05503154457, -58185.99411082198, -49142.701821649294, -59726.78926310412, -33961.2181736491, -15980.759677977525, -0.126, 0.9540000000000001, 0.254, 192.0, 0.0, 0.0, 0.0, 0.0, 0.0, 0.0, 0.0, 0.0, 0.0, 1.700946874516187E9, 0.0, 2023-11-25 16:14:34.516
184.0, 7685.468517001691, 13630.004361868425, -55447.23486271321, -58141.60354633374, -49693.76172945044, -59715.76985308765, -33939.29111233844, -15956.038648609954, -0.126, 0.9540000000000001, 0.254, 192.0, 0.0, 0.0, 0.0, 0.0, 0.0, 0.0, 0.0, 0.0, 0.0, 1.7009468745201E9, 0.0, 2023-11-25 16:14:34.520
185.0, 7836.208681608282, 13670.081039676792, -55490.93252312333, -58172.068974026326, -49466.824467995706, -59512.03370237753, -34000.289022956975, -16020.478727874606, -0.126, 0.9540000000000001, 0.254, 192.0, 0.0, 0.0, 0.0, 0.0, 0.0, 0.0, 0.0, 0.0, 0.0, 1.70094687452513E9, 0.0, 2023-11-25 16:14:34.525
186.0, 7946.2910230506695, 13636.911050905115, -55490.7984126566, -58202.266180785446, -49097.19366993829, -59491.33598701191, -34033.92839836221, -16067.260929019563, -0.126, 0.9540000000000001, 0.254, 192.0, 0.0, 0.0, 0.0, 0.0, 0.0, 0.0, 0.0, 0.0, 0.0, 1.700946874529139E9, 0.0, 2023-11-25 16:14:34.529
187.0, 7803.441024236802, 13562.63620408013, -55479.6448921734, -58203.093195330286, -49008.70311363973, -59704.86220179346, -34015.510560931034, -16058.074362048432, -0.122, 0.9500000000000001, 0.254, 192.0, 252.0, 48.0, 29.0, 176.0, 7.0, 240.0, 0.0, 0.0, 0.0, 1.700946874533242E9, 0.0, 2023-11-25 16:14:34.533
188.0, 7669.129391804861, 13622.248306542435, -55444.77617082312, -58136.14972068665, -49673.55575246284, -59773.10207761551, -33944.58847577435, -15985.520599546506, -0.122, 0.9500000000000001, 0.254, 192.0, 0.0, 0.0, 0.0, 0.0, 0.0, 0.0, 0.0, 0.0, 0.0, 1.700946874536238E9, 0.0, 2023-11-25 16:14:34.536
189.0, 7821.568288990055, 13663.93430995158, -55482.77413639714, -58168.760915846935, -49516.735913364406, -59547.34945861691, -33994.63403160978, -16033.59920186987, -0.122, 0.9500000000000001, 0.254, 192.0, 0.0, 0.0, 0.0, 0.0, 0.0, 0.0, 0.0, 0.0, 0.0, 1.700946874540218E9, 0.0, 2023-11-25 16:14:34.540
190.0, 7957.891578422974, 13673.791429256373, -55472.93936883681, -58177.81337235134, -49190.42279606138, -59482.46234446316, -34010.39201145077, -16049.759513111057, -0.122, 0.9500000000000001, 0.254, 192.0, 0.0, 0.0, 0.0, 0.0, 0.0, 0.0, 0.0, 0.0, 0.0, 1.700946874544206E9, 0.0, 2023-11-25 16:14:34.544
191.0, 7870.1609814358935, 13571.107515228692, -55478.63906367291, -58212.77150067944, -48931.12020863536, -59647.7311429657, -34023.93716859069, -16068.467923220149, -0.122, 0.9500000000000001, 0.254, 192.0, 0.0, 0.0, 0.0, 0.0, 0.0, 0.0, 0.0, 0.0, 0.0, 1.700946874548169E9, 0.0, 2023-11-25 16:14:34.548
192.0, 7659.18286552225, 13604.255152255912, -55447.614842368945, -58142.81054053432, -49609.406245876104, -59799.678301772874, -33943.24737110703, -15985.364137335318, -0.122, 0.9500000000000001, 0.254, 192.0, 0.0, 0.0, 0.0, 0.0, 0.0, 0.0, 0.0, 0.0, 0.0, 1.700946874552229E9, 0.0, 2023-11-25 16:14:34.552
193.0, 7792.511021198156, 13646.678763232085, -55480.65072067389, -58165.92224430112, -49558.868951662655, -59569.343575160936, -33984.37458090479, -16027.228954700107, -0.122, 0.9500000000000001, 0.254, 192.0, 0.0, 0.0, 0.0, 0.0, 0.0, 0.0, 0.0, 0.0, 0.0, 1.700946874557203E9, 0.0, 2023-11-25 16:14:34.557
194.0, 7923.1122640505155, 13666.70592626404, -55486.909209121375, -58176.539322917386, -49268.09510804357, -59472.3370042249, -33993.650554853746, -16042.986934541099, -0.122, 0.9500000000000001, 0.254, 192.0, 0.0, 0.0, 0.0, 0.0, 0.0, 0.0, 0.0, 0.0, 0.0, 1.700946874561222E9, 0.0, 2023-11-25 16:14:34.561
195.0, 7891.305731690613, 13566.92773901555, -55482.05888057457, -58214.58199198032, -48906.555641478975, -59590.242456226646, -34009.386182950286, -16061.896510350289, -0.122, 0.9500000000000001, 0.254, 192.0, 0.0, 0.0, 0.0, 0.0, 0.0, 0.0, 0.0, 0.0, 0.0, 1.700946874564224E9, 0.0, 2023-11-25 16:14:34.564
196.0, 7645.0565630264955, 13578.170666476568, -55451.14641799288, -58150.16426446012, -49522.32384947823, -59803.187525652356, -33925.05305112041, -15972.35542206233, -0.122, 0.9500000000000001, 0.254, 192.0, 0.0, 0.0, 0.0, 0.0, 0.0, 0.0, 0.0, 0.0, 0.0, 1.700946874568263E9, 0.0, 2023-11-25 16:14:34.568
197.0, 7751.495570122668, 13622.270658286889, -55473.43110721483, -58171.353718203754, -49625.432446650564, -59601.79830811004, -33949.595266532335, -16000.920951476211, -0.128, 0.9580000000000001, 0.264, 192.0, 252.0, 0.0, 29.0, 240.0, 8.0, 64.0, 0.0, 0.0, 0.0, 1.700946874572528E9, 0.0, 2023-11-25 16:14:34.572
198.0, 7882.521496119678, 13644.153016108636, -55503.09187210702, -58202.84732614128, -49355.62453933055, -59484.809277630964, -33985.805092549934, -16036.728446093613, -0.128, 0.9580000000000001, 0.264, 192.0, 0.0, 0.0, 0.0, 0.0, 0.0, 0.0, 0.0, 0.0, 0.0, 1.700946874576308E9, 0.0, 2023-11-25 16:14:34.576
199.0, 7910.908211577918, 13563.127942458146, -55490.351377767496, -58240.420608570654, -48942.005508185095, -59562.749810546615, -34006.927491060196, -16064.444609218195, -0.128, 0.9580000000000001, 0.264, 192.0, 0.0, 0.0, 0.0, 0.0, 0.0, 0.0, 0.0, 0.0, 0.0, 1.700946874580296E9, 0.0, 2023-11-25 16:14:34.580
200.0, 7673.890313373842, 13568.268843682867, -55446.63136561291, -58170.794924592374, -49406.161833544, -59799.767708750696, -33922.43789701914, -15979.01624191001, -0.128, 0.9580000000000001, 0.264, 192.0, 0.0, 0.0, 0.0, 0.0, 0.0, 0.0, 0.0, 0.0, 0.0, 1.700946874585289E9, 0.0, 2023-11-25 16:14:34.585
201.0, 7733.234194902682, 13621.041312341848, -55450.408810425855, -58166.36927919022, -49662.53634244637, -59646.792369698574, -33932.78675470195, -15991.376756593796, -0.128, 0.9580000000000001, 0.264, 192.0, 0.0, 0.0, 0.0, 0.0, 0.0, 0.0, 0.0, 0.0, 0.0, 1.700946874589317E9, 0.0, 2023-11-25 16:14:34.589
202.0, 7867.635234312444, 13652.423161557099, -55485.65751143188, -58192.051433569366, -49385.53117341175, -59493.95114111318, -33971.63408656527, -16028.480652389606, -0.128, 0.9580000000000001, 0.264, 192.0, 0.0, 0.0, 0.0, 0.0, 0.0, 0.0, 0.0, 0.0, 0.0, 1.700946874593323E9, 0.0, 2023-11-25 16:14:34.593
203.0, 7930.555394954133, 13584.675024113063, -55473.475810703734, -58225.02025664094, -48944.44184833072, -59522.82959494944, -33991.72830483059, -16047.524338665527, -0.128, 0.9580000000000001, 0.264, 192.0, 0.0, 0.0, 0.0, 0.0, 0.0, 0.0, 0.0, 0.0, 0.0, 1.700946874596351E9, 0.0, 2023-11-25 16:14:34.596
204.0, 7697.1808310962715, 13548.44284635101, -55456.73435410671, -58189.726852146014, -49208.907688725914, -59767.804714179605, -33936.85477219281, -15981.921968689201, -0.128, 0.9580000000000001, 0.264, 192.0, 0.0, 0.0, 0.0, 0.0, 0.0, 0.0, 0.0, 0.0, 0.0, 1.700946874600355E9, 0.0, 2023-11-25 16:14:34.600
205.0, 7689.067147858996, 13610.379530236665, -55451.191121481796, -58167.66568036863, -49659.45180171154, -59691.115878953446, -33922.95198714161, -15959.25729981152, -0.128, 0.9580000000000001, 0.264, 192.0, 0.0, 0.0, 0.0, 0.0, 0.0, 0.0, 0.0, 0.0, 0.0, 1.700946874604299E9, 0.0, 2023-11-25 16:14:34.604
206.0, 7865.444763355824, 13679.625234559207, -55471.240636258204, -58177.99218630698, -49418.432941249965, -59498.75676617107, -33959.184164903665, -15984.78299197948, -0.128, 0.9580000000000001, 0.264, 192.0, 0.0, 0.0, 0.0, 0.0, 0.0, 0.0, 0.0, 0.0, 0.0, 1.700946874608348E9, 0.0, 2023-11-25 16:14:34.608
207.0, 7972.397860574468, 13636.464016016009, -55469.921883335344, -58217.62182922624, -49008.85957585092, -59503.9423708847, -34011.5766539069, -16039.880042061812, -0.122, 0.9540000000000001, 0.254, 192.0, 252.0, 48.0, 29.0, 208.0, 7.0, 240.0, 0.0, 0.0, 0.0, 1.700946874613284E9, 0.0, 2023-11-25 16:14:34.613
208.0, 7790.029977563618, 13584.78678283534, -55450.94525229279, -58195.04656732638, -49066.10239340096, -59742.7484086452, -33987.32501117289, -16018.198849940163, -0.122, 0.9540000000000001, 0.254, 192.0, 0.0, 0.0, 0.0, 0.0, 0.0, 0.0, 0.0, 0.0, 0.0, 1.700946874617385E9, 0.0, 2023-11-25 16:14:34.617
209.0, 7714.011694671118, 13649.182158611078, -55421.91033624534, -58136.97673523149, -49649.10294402873, -59746.05646682459, -33945.884876952754, -15983.173666378698, -0.122, 0.9540000000000001, 0.254, 192.0, 0.0, 0.0, 0.0, 0.0, 0.0, 0.0, 0.0, 0.0, 0.0, 1.70094687462046E9, 0.0, 2023-11-25 16:14:34.620
210.0, 7861.51085633169, 13683.08975494978, -55469.18427576832, -58172.15838100414, -49434.705011213424, -59534.228984621644, -34009.20736899464, -16053.022867801532, -0.122, 0.9540000000000001, 0.254, 192.0, 0.0, 0.0, 0.0, 0.0, 0.0, 0.0, 0.0, 0.0, 0.0, 1.700946874624333E9, 0.0, 2023-11-25 16:14:34.624
211.0, 7962.920720925417, 13647.483426032475, -55477.32031075005, -58204.769576164435, -49073.791393493586, -59507.58570523092, -34042.55617172196, -16093.70304271019, -0.122, 0.9540000000000001, 0.254, 192.0, 0.0, 0.0, 0.0, 0.0, 0.0, 0.0, 0.0, 0.0, 0.0, 1.700946874628336E9, 0.0, 2023-11-25 16:14:34.628
212.0, 7826.1951000923045, 13564.334936658734, -55466.9938048117, -58207.295323287886, -48953.27078739057, -59702.40350990338, -34023.847761612866, -16074.301728522985, -0.122, 0.9540000000000001, 0.254, 192.0, 0.0, 0.0, 0.0, 0.0, 0.0, 0.0, 0.0, 0.0, 0.0, 1.700946874632374E9, 0.0, 2023-11-25 16:14:34.632
213.0, 7656.210083509694, 13601.908219088105, -55444.93263303431, -58153.29350868386, -49637.390629934154, -59792.50339180272, -33956.14432765774, -16005.570114322916, -0.122, 0.9540000000000001, 0.254, 192.0, 0.0, 0.0, 0.0, 0.0, 0.0, 0.0, 0.0, 0.0, 0.0, 1.700946874636484E9, 0.0, 2023-11-25 16:14:34.636
214.0, 7798.322474756536, 13637.60395498323, -55488.11620332196, -58189.97272133503, -49507.906974304555, -59560.04524946753, -34001.183092735184, -16052.665239890248, -0.122, 0.9540000000000001, 0.254, 192.0, 0.0, 0.0, 0.0, 0.0, 0.0, 0.0, 0.0, 0.0, 0.0, 1.700946874640517E9, 0.0, 2023-11-25 16:14:34.640
215.0, 7930.041304831661, 13651.216167356512, -55487.89268587741, -58202.62380869673, -49194.088482152045, -59487.62559743233, -34017.05283129845, -16066.679783663725, -0.122, 0.9540000000000001, 0.254, 192.0, 0.0, 0.0, 0.0, 0.0, 0.0, 0.0, 0.0, 0.0, 0.0, 1.70094687464541E9, 0.0, 2023-11-25 16:14:34.645
216.0, 7866.897626745418, 13562.502093613399, -55481.231866029724, -58225.75786420797, -48913.127054348835, -59636.10823584894, -34018.7292121326, -16070.747801154592, -0.124, 0.9500000000000001, 0.258, 192.0, 252.0, 32.0, 29.0, 176.0, 8.0, 16.0, 0.0, 0.0, 0.0, 1.700946874648408E9, 0.0, 2023-11-25 16:14:34.648
217.0, 7653.438467197236, 13597.2590562414, -55446.7878278241, -58150.65600283814, -49586.65217002061, -59793.12924064747, -33927.69055696613, -15974.143561618754, -0.124, 0.9500000000000001, 0.258, 192.0, 0.0, 0.0, 0.0, 0.0, 0.0, 0.0, 0.0, 0.0, 0.0, 1.700946874652456E9, 0.0, 2023-11-25 16:14:34.652
218.0, 7783.436212949302, 13643.482463774975, -55476.73916539421, -58169.94555830307, -49564.27807382084, -59566.92958675976, -33965.24148765105, -16015.337826649884, -0.124, 0.9500000000000001, 0.258, 192.0, 0.0, 0.0, 0.0, 0.0, 0.0, 0.0, 0.0, 0.0, 0.0, 1.700946874656607E9, 0.0, 2023-11-25 16:14:34.656
219.0, 7923.492243706256, 13667.75645825344, -55486.21630504326, -58179.109773529744, -49270.307930744646, -59460.71409710814, -33982.65349658173, -16035.700265848669, -0.124, 0.9500000000000001, 0.258, 192.0, 0.0, 0.0, 0.0, 0.0, 0.0, 0.0, 0.0, 0.0, 0.0, 1.700946874660432E9, 0.0, 2023-11-25 16:14:34.660
220.0, 7893.093871247038, 13546.989982961415, -55498.48741274922, -58235.592631768304, -48891.13293780482, -59579.26774969909, -34016.20346500915, -16080.269644292552, -0.124, 0.9500000000000001, 0.258, 192.0, 0.0, 0.0, 0.0, 0.0, 0.0, 0.0, 0.0, 0.0, 0.0, 1.700946874664455E9, 0.0, 2023-11-25 16:14:34.664
221.0, 7633.143083231817, 13553.002602219893, -55469.005461812674, -58171.24195948148, -49495.054721242755, -59803.83572624156, -33925.678899965154, -15986.325262346896, -0.124, 0.9500000000000001, 0.258, 192.0, 0.0, 0.0, 0.0, 0.0, 0.0, 0.0, 0.0, 0.0, 0.0, 1.700946874669522E9, 0.0, 2023-11-25 16:14:34.669
222.0, 7741.77256128461, 13617.397977995632, -55468.64783390139, -58167.55392164635, -49637.43533342306, -59594.51163941761, -33920.91797839617, -15981.25141635554, -0.124, 0.9500000000000001, 0.258, 192.0, 0.0, 0.0, 0.0, 0.0, 0.0, 0.0, 0.0, 0.0, 0.0, 1.700946874674918E9, 0.0, 2023-11-25 16:14:34.674
223.0, 7877.5594088505995, 13635.301725304333, -55507.78573844263, -58206.51301223195, -49367.314501680674, -59470.52651292402, -33966.87316499629, -16027.363065166839, -0.124, 0.9500000000000001, 0.258, 192.0, 0.0, 0.0, 0.0, 0.0, 0.0, 0.0, 0.0, 0.0, 0.0, 1.700946874675484E9, 0.0, 2023-11-25 16:14:34.675
224.0, 7913.277496490181, 13555.863625510172, -55499.82851741654, -58248.6460505302, -48955.774182769565, -59546.70125802771, -33999.171435734206, -16063.505835951071, -0.124, 0.9500000000000001, 0.258, 192.0, 0.0, 0.0, 0.0, 0.0, 0.0, 0.0, 0.0, 0.0, 0.0, 1.700946874680616E9, 0.0, 2023-11-25 16:14:34.680
225.0, 7673.085650573451, 13550.745076029907, -55468.02198505664, -58193.54900044787, -49386.1570222565, -59789.86588595699, -33926.14828659872, -15988.627492025793, -0.124, 0.9500000000000001, 0.258, 192.0, 0.0, 0.0, 0.0, 0.0, 0.0, 0.0, 0.0, 0.0, 0.0, 1.700946874684532E9, 0.0, 2023-11-25 16:14:34.684
226.0, 7706.657970745322, 13595.69443412953, -55484.875200375944, -58202.98143660801, -49694.231116083996, -59668.71943100923, -33947.40479557571, -16013.437928371184, -0.124, 0.9480000000000001, 0.262, 192.0, 252.0, 32.0, 29.0, 160.0, 8.0, 48.0, 0.0, 0.0, 0.0, 1.700946874688489E9, 0.0, 2023-11-25 16:14:34.688
227.0, 7860.169751664371, 13651.618498756707, -55505.639970974924, -58214.358474535766, -49444.562130518214, -59509.61971397635, -33985.022781494, -16052.642888145792, -0.124, 0.9480000000000001, 0.262, 192.0, 0.0, 0.0, 0.0, 0.0, 0.0, 0.0, 0.0, 0.0, 0.0, 1.700946874692565E9, 0.0, 2023-11-25 16:14:34.692
228.0, 7933.528176966689, 13581.232855466946, -55499.202668571794, -58256.80443725639, -49018.470825966695, -59539.7051620132, -34021.813752867434, -16098.933350912734, -0.124, 0.9480000000000001, 0.262, 192.0, 0.0, 0.0, 0.0, 0.0, 0.0, 0.0, 0.0, 0.0, 0.0, 1.700946874697526E9, 0.0, 2023-11-25 16:14:34.697
229.0, 7706.836784700965, 13537.982229945927, -55472.872313603446, -58219.00763738247, -49246.123343244, -59789.888237701445, -33960.637028293255, -16036.639039115793, -0.124, 0.9480000000000001, 0.262, 192.0, 0.0, 0.0, 0.0, 0.0, 0.0, 0.0, 0.0, 0.0, 0.0, 1.700946874700549E9, 0.0, 2023-11-25 16:14:34.700
230.0, 7691.592894982446, 13610.69245465904, -55438.942365520285, -58165.40815417864, -49719.15331115166, -59707.9914460172, -33912.22314980306, -15984.894750701756, -0.124, 0.9480000000000001, 0.262, 192.0, 0.0, 0.0, 0.0, 0.0, 0.0, 0.0, 0.0, 0.0, 0.0, 1.700946874703522E9, 0.0, 2023-11-25 16:14:34.703
231.0, 7836.678068241843, 13639.257984072923, -55487.51270622167, -58200.96977960703, -49476.726290789404, -59511.47490876614, -33970.94118248716, -16042.092864762888, -0.124, 0.9480000000000001, 0.262, 192.0, 0.0, 0.0, 0.0, 0.0, 0.0, 0.0, 0.0, 0.0, 0.0, 1.700946874708559E9, 0.0, 2023-11-25 16:14:34.708
232.0, 7937.8420636465635, 13602.556419677308, -55479.06374681756, -58224.10383511828, -49088.945876234284, -59504.43410926272, -33996.69039209967, -16068.378516242328, -0.124, 0.9480000000000001, 0.262, 192.0, 0.0, 0.0, 0.0, 0.0, 0.0, 0.0, 0.0, 0.0, 0.0, 1.700946874712589E9, 0.0, 2023-11-25 16:14:34.712
233.0, 7761.665613849833, 13537.62460203464, -55470.43597345782, -58216.660704214664, -49107.31901017654, -59728.1974230048, -33973.95866798862, -16040.751760095569, -0.124, 0.9480000000000001, 0.262, 192.0, 0.0, 0.0, 0.0, 0.0, 0.0, 0.0, 0.0, 0.0, 0.0, 1.70094687471658E9, 0.0, 2023-11-25 16:14:34.716
234.0, 7662.245054512627, 13591.715823616485, -55451.191121481796, -58169.99026179198, -49722.953107709065, -59754.28190878414, -33927.5564464994, -15993.701338017147, -0.124, 0.9480000000000001, 0.262, 192.0, 0.0, 0.0, 0.0, 0.0, 0.0, 0.0, 0.0, 0.0, 0.0, 1.700946874720639E9, 0.0, 2023-11-25 16:14:34.720
235.0, 7827.871480926452, 13646.27643183189, -55482.46121197477, -58191.73850914699, -49529.36464898165, -59532.06086540948, -33964.68269403967, -16035.499100148572, -0.124, 0.9480000000000001, 0.262, 192.0, 0.0, 0.0, 0.0, 0.0, 0.0, 0.0, 0.0, 0.0, 0.0, 1.700946874724645E9, 0.0, 2023-11-25 16:14:34.724
236.0, 7949.733191696787, 13637.827472427784, -55477.45442121678, -58210.916305889645, -49176.38590054344, -59488.363204999354, -33990.90129028574, -16067.283280764019, -0.116, 0.9540000000000001, 0.264, 192.0, 252.0, 96.0, 29.0, 208.0, 8.0, 64.0, 0.0, 0.0, 0.0, 1.700946874728731E9, 0.0, 2023-11-25 16:14:34.728
237.0, 7838.600318265, 13565.49722737041, -55461.76349660916, -58209.441090755594, -49008.68076189527, -59676.5872450575, -33978.02668547949, -16053.983992813111, -0.116, 0.9540000000000001, 0.264, 192.0, 0.0, 0.0, 0.0, 0.0, 0.0, 0.0, 0.0, 0.0, 0.0, 1.700946874731644E9, 0.0, 2023-11-25 16:14:34.731
238.0, 7668.436487726747, 13610.625399425675, -55429.442874126784, -58144.285755668374, -49680.730662432994, -59776.92422591737, -33906.07642007785, -15979.843256454857, -0.116, 0.9540000000000001, 0.264, 192.0, 0.0, 0.0, 0.0, 0.0, 0.0, 0.0, 0.0, 0.0, 0.0, 1.700946874735713E9, 0.0, 2023-11-25 16:14:34.735
239.0, 7801.474070724735, 13654.032487157881, -55467.57495016754, -58169.72204085851, -49563.67457672055, -59543.77317950406, -33951.78573748896, -16024.658504087747, -0.116, 0.9540000000000001, 0.264, 192.0, 0.0, 0.0, 0.0, 0.0, 0.0, 0.0, 0.0, 0.0, 0.0, 1.700946874741668E9, 0.0, 2023-11-25 16:14:34.741
240.0, 7931.941203110362, 13657.072324403802, -55477.56617993906, -58188.29634050088, -49245.74336358826, -59462.658698875755, -33977.020856979, -16045.311515964451, -0.116, 0.9540000000000001, 0.264, 192.0, 0.0, 0.0, 0.0, 0.0, 0.0, 0.0, 0.0, 0.0, 0.0, 1.700946874744676E9, 0.0, 2023-11-25 16:14:34.744
241.0, 7863.4107546103905, 13556.914157499572, -55477.23090377223, -58216.168965836645, -48936.21640637117, -59608.50383144663, -33987.66028733972, -16055.28039399152, -0.116, 0.9540000000000001, 0.264, 192.0, 0.0, 0.0, 0.0, 0.0, 0.0, 0.0, 0.0, 0.0, 0.0, 1.700946874748638E9, 0.0, 2023-11-25 16:14:34.748
242.0, 7644.6542316263, 13593.12398351717, -55435.053161985066, -58134.853319508235, -49598.54329807083, -59772.45387702631, -33888.73146638054, -15950.54011947395, -0.116, 0.9540000000000001, 0.264, 192.0, 0.0, 0.0, 0.0, 0.0, 0.0, 0.0, 0.0, 0.0, 0.0, 1.700946874752662E9, 0.0, 2023-11-25 16:14:34.752
243.0, 7761.82207606102, 13624.997571110436, -55476.04626131609, -58174.23709323849, -49603.52773708436, -59557.43009536625, -33936.13951637024, -15997.344672363362, -0.116, 0.9540000000000001, 0.264, 192.0, 0.0, 0.0, 0.0, 0.0, 0.0, 0.0, 0.0, 0.0, 0.0, 1.700946874755681E9, 0.0, 2023-11-25 16:14:34.755
244.0, 7893.94323753634, 13648.399847555143, -55492.83242140203, -58196.67824467162, -49321.58283252512, -59459.641213374285, -33964.74974927303, -16023.78678605399, -0.116, 0.9540000000000001, 0.264, 192.0, 0.0, 0.0, 0.0, 0.0, 0.0, 0.0, 0.0, 0.0, 0.0, 1.700946874759681E9, 0.0, 2023-11-25 16:14:34.759
245.0, 7892.490374146745, 13558.411724378077, -55483.37763349744, -58235.27970734593, -48932.08133364694, -59562.12396170187, -33985.20159544964, -16048.150187510275, -0.116, 0.9540000000000001, 0.264, 192.0, 0.0, 0.0, 0.0, 0.0, 0.0, 0.0, 0.0, 0.0, 0.0, 1.700946874763673E9, 0.0, 2023-11-25 16:14:34.763
246.0, 7645.9953362936185, 13566.950090760005, -55450.96760403724, -58169.72204085851, -49491.67960783, -59792.52574354717, -33909.31742302387, -15965.806360936924, -0.122, 0.9560000000000001, 0.266, 192.0, 252.0, 48.0, 29.0, 224.0, 8.0, 80.0, 0.0, 0.0, 0.0, 1.700946874769716E9, 0.0, 2023-11-25 16:14:34.769
247.0, 7737.793950771565, 13619.521393718887, -55463.283415232116, -58178.14864851817, -49654.60147316474, -59612.34833149295, -33931.356243056805, -15992.494343816561, -0.122, 0.9560000000000001, 0.266, 192.0, 0.0, 0.0, 0.0, 0.0, 0.0, 0.0, 0.0, 0.0, 0.0, 1.700946874772699E9, 0.0, 2023-11-25 16:14:34.772
248.0, 7876.218304183281, 13657.295841848356, -55489.81493590056, -58199.20399179507, -49384.86062107809, -59481.70238515167, -33970.80707202042, -16030.9840477686, -0.122, 0.9560000000000001, 0.266, 192.0, 0.0, 0.0, 0.0, 0.0, 0.0, 0.0, 0.0, 0.0, 0.0, 1.700946874776741E9, 0.0, 2023-11-25 16:14:34.776
249.0, 7919.2901157486585, 13580.696413600019, -55483.93642710882, -58239.61594577026, -48960.177476427256, -59546.343630116426, -34008.179188749695, -16070.256062776574, -0.122, 0.9560000000000001, 0.266, 192.0, 0.0, 0.0, 0.0, 0.0, 0.0, 0.0, 0.0, 0.0, 0.0, 1.700946874780726E9, 0.0, 2023-11-25 16:14:34.780
250.0, 7674.896141874331, 13563.865550025172, -55462.34464196499, -58187.782250378405, -49352.58470208463, -59796.325540104575, -33947.360092086805, -16000.295102631462, -0.122, 0.9560000000000001, 0.266, 192.0, 0.0, 0.0, 0.0, 0.0, 0.0, 0.0, 0.0, 0.0, 0.0, 1.700946874783775E9, 0.0, 2023-11-25 16:14:34.783
251.0, 7704.758072466621, 13621.17542280858, -55462.232883242716, -58173.07480252681, -49697.33800856328, -59669.70290776526, -33946.2648566085, -15997.389375852274, -0.122, 0.9560000000000001, 0.266, 192.0, 0.0, 0.0, 0.0, 0.0, 0.0, 0.0, 0.0, 0.0, 0.0, 1.700946874787932E9, 0.0, 2023-11-25 16:14:34.787
252.0, 7848.569196292066, 13667.778809997895, -55493.10064233549, -58192.90079985867, -49441.81286595021, -59498.57795221543, -33986.9226797727, -16032.503966391561, -0.122, 0.9560000000000001, 0.266, 192.0, 0.0, 0.0, 0.0, 0.0, 0.0, 0.0, 0.0, 0.0, 0.0, 1.700946874791755E9, 0.0, 2023-11-25 16:14:34.791
253.0, 7943.09472359356, 13620.907201875116, -55476.11331654946, -58219.722893205035, -49028.260890038124, -59514.58180124543, -34009.20736899464, -16057.292050992495, -0.122, 0.9560000000000001, 0.266, 192.0, 0.0, 0.0, 0.0, 0.0, 0.0, 0.0, 0.0, 0.0, 0.0, 1.700946874796813E9, 0.0, 2023-11-25 16:14:34.796
254.0, 7735.1564449258385, 13577.745983331917, -55457.51666516265, -58192.744337647484, -49216.104950440524, -59758.97577511976, -33963.67686553918, -16008.364082379829, -0.122, 0.9560000000000001, 0.266, 192.0, 0.0, 0.0, 0.0, 0.0, 0.0, 0.0, 0.0, 0.0, 0.0, 1.7009468748009E9, 0.0, 2023-11-25 16:14:34.800
255.0, 7681.892237888842, 13616.593315195241, -55462.27758673163, -58183.311901487345, -49718.616869284735, -59727.37040845995, -33960.011179448506, -16009.146393435765, -0.122, 0.9560000000000001, 0.266, 192.0, 0.0, 0.0, 0.0, 0.0, 0.0, 0.0, 0.0, 0.0, 0.0, 1.700946874804933E9, 0.0, 2023-11-25 16:14:34.804
0.0, 7829.950193160796, 13664.023716929403, -55495.00054061419, -58208.61407621075, -49486.27048567182, -59532.99963867661, -34000.981927035085, -16048.418408443738, -0.126, 0.9480000000000001, 0.258, 192.0, 252.0, 16.0, 29.0, 160.0, 8.0, 16.0, 0.0, 0.0, 0.0, 1.700946874808825E9, 0.0, 2023-11-25 16:14:34.808
1.0, 7946.33572653958, 13638.498024761442, -55478.728470650734, -58231.56931776635, -49101.462853129255, -59508.524478498046, -34016.44933419816, -16062.879987106322, -0.126, 0.9480000000000001, 0.258, 192.0, 0.0, 0.0, 0.0, 0.0, 0.0, 0.0, 0.0, 0.0, 0.0, 1.700946874811863E9, 0.0, 2023-11-25 16:14:34.811
2.0, 7784.576151916523, 13572.649785596108, -55461.808200098065, -58224.37205605174, -49078.99934995167, -59724.464681680765, -33986.45329313914, -16036.773149582525, -0.126, 0.9480000000000001, 0.258, 192.0, 0.0, 0.0, 0.0, 0.0, 0.0, 0.0, 0.0, 0.0, 0.0, 1.700946874815882E9, 0.0, 2023-11-25 16:14:34.815
3.0, 7671.476324972668, 13638.140396850158, -55430.068722971526, -58159.37318317571, -49711.21844187003, -59756.91941462987, -33924.293091808926, -15971.997794151044, -0.126, 0.9480000000000001, 0.258, 192.0, 0.0, 0.0, 0.0, 0.0, 0.0, 0.0, 0.0, 0.0, 0.0, 1.700946874819902E9, 0.0, 2023-11-25 16:14:34.819
4.0, 7828.340867560014, 13688.074193963314, -55467.10556353397, -58183.84834335427, -49518.74757036538, -59524.505975783584, -33969.98005747558, -16017.17066969522, -0.126, 0.9480000000000001, 0.258, 192.0, 0.0, 0.0, 0.0, 0.0, 0.0, 0.0, 0.0, 0.0, 0.0, 1.700946874823792E9, 0.0, 2023-11-25 16:14:34.823
5.0, 7940.501921236744, 13673.769077511917, -55472.425278714334, -58206.0883290873, -49169.43450801784, -59475.220379259634, -34001.92070030221, -16052.061742789954, -0.126, 0.9480000000000001, 0.258, 192.0, 0.0, 0.0, 0.0, 0.0, 0.0, 0.0, 0.0, 0.0, 0.0, 1.700946874828833E9, 0.0, 2023-11-25 16:14:34.828
6.0, 7834.956983918784, 13589.257131726401, -55464.44570594379, -58215.5878204808, -48970.2581131766, -59650.59216625598, -33989.69429608516, -16037.846033316378, -0.126, 0.9480000000000001, 0.258, 192.0, 0.0, 0.0, 0.0, 0.0, 0.0, 0.0, 0.0, 0.0, 0.0, 1.700946874833043E9, 0.0, 2023-11-25 16:14:34.833
7.0, 7651.762086363088, 13629.758492679417, -55431.92391776132, -58149.09138072627, -49652.81333360831, -59767.42473452386, -33908.423353245664, -15955.837482909857, -0.126, 0.9480000000000001, 0.258, 192.0, 0.0, 0.0, 0.0, 0.0, 0.0, 0.0, 0.0, 0.0, 0.0, 1.700946874836849E9, 0.0, 2023-11-25 16:14:34.836
8.0, 7789.001797318673, 13671.578606555297, -55469.11722053495, -58180.8308578528, -49562.8475621757, -59539.21342363518, -33953.171545645186, -15994.193076395164, -0.126, 0.9480000000000001, 0.258, 192.0, 0.0, 0.0, 0.0, 0.0, 0.0, 0.0, 0.0, 0.0, 0.0, 1.700946874839919E9, 0.0, 2023-11-25 16:14:34.839
9.0, 7928.588441442066, 13696.52315336742, -55466.41265945586, -58190.173887035126, -49258.483857927786, -59452.82393131542, -33968.415435363706, -16005.726576534104, -0.126, 0.9480000000000001, 0.258, 192.0, 0.0, 0.0, 0.0, 0.0, 0.0, 0.0, 0.0, 0.0, 0.0, 1.700946874843853E9, 0.0, 2023-11-25 16:14:34.843
10.0, 7879.973397251773, 13596.186172507547, -55470.972415324744, -58233.6927334896, -48923.744132965105, -59598.84787784194, -33997.6738688557, -16035.186175726198, -0.128, 0.9460000000000001, 0.256, 192.0, 252.0, 0.0, 29.0, 144.0, 8.0, 0.0, 0.0, 0.0, 0.0, 1.700946874847887E9, 0.0, 2023-11-25 16:14:34.847
11.0, 7649.057525283996, 13620.571925708286, -55442.026906255116, -58171.39842169266, -49574.470469292464, -59797.309016860614, -33922.974338886066, -15956.217462565597, -0.128, 0.9460000000000001, 0.256, 192.0, 0.0, 0.0, 0.0, 0.0, 0.0, 0.0, 0.0, 0.0, 0.0, 1.700946874851936E9, 0.0, 2023-11-25 16:14:34.851
12.0, 7782.139811770894, 13682.75447878295, -55453.60510988297, -58179.75797411895, -49621.20796694851, -59581.12294448888, -33942.48741179555, -15980.290291343963, -0.128, 0.9460000000000001, 0.256, 192.0, 0.0, 0.0, 0.0, 0.0, 0.0, 0.0, 0.0, 0.0, 0.0, 1.700946874856903E9, 0.0, 2023-11-25 16:14:34.856
13.0, 7916.049112802639, 13705.933237783103, -55475.82274387154, -58203.3390645193, -49341.96762346836, -59472.87344609183, -33980.8206535364, -16021.46220463064, -0.128, 0.9460000000000001, 0.256, 192.0, 0.0, 0.0, 0.0, 0.0, 0.0, 0.0, 0.0, 0.0, 0.0, 1.700946874862112E9, 0.0, 2023-11-25 16:14:34.862
14.0, 7911.064673789106, 13605.059815056304, -55480.42720322934, -58253.00464069899, -48939.5021128061, -59580.3629851774, -34023.423078468215, -16069.98784184311, -0.128, 0.9460000000000001, 0.256, 192.0, 0.0, 0.0, 0.0, 0.0, 0.0, 0.0, 0.0, 0.0, 0.0, 1.700946874865095E9, 0.0, 2023-11-25 16:14:34.865
15.0, 7665.486057458646, 13619.007303596414, -55440.50698763216, -58177.83572409579, -49470.60191280865, -59811.144746678445, -33938.64291174924, -15979.01624191001, -0.128, 0.9460000000000001, 0.256, 192.0, 0.0, 0.0, 0.0, 0.0, 0.0, 0.0, 0.0, 0.0, 0.0, 1.700946874868997E9, 0.0, 2023-11-25 16:14:34.868
16.0, 7740.38675312838, 13667.935272209083, -55456.60024363998, -58183.91539858763, -49673.64515944066, -59637.784616683086, -33961.844022493846, -16000.78684100948, -0.128, 0.9460000000000001, 0.256, 192.0, 0.0, 0.0, 0.0, 0.0, 0.0, 0.0, 0.0, 0.0, 0.0, 1.700946874871978E9, 0.0, 2023-11-25 16:14:34.871
17.0, 7879.727528062765, 13697.216057445534, -55488.026796344144, -58205.194259309086, -49412.487377224854, -59499.36026327137, -34000.93722354618, -16042.450492674172, -0.128, 0.9460000000000001, 0.256, 192.0, 0.0, 0.0, 0.0, 0.0, 0.0, 0.0, 0.0, 0.0, 0.0, 1.700946874875999E9, 0.0, 2023-11-25 16:14:34.875
18.0, 7926.420322229901, 13611.810041881805, -55490.194915556305, -58252.736419765526, -48984.87615405037, -59559.464104111685, -34036.20827629665, -16086.416374017761, -0.128, 0.9460000000000001, 0.256, 192.0, 0.0, 0.0, 0.0, 0.0, 0.0, 0.0, 0.0, 0.0, 0.0, 1.700946874880178E9, 0.0, 2023-11-25 16:14:34.880
19.0, 7686.072014101985, 13591.112326516191, -55461.91995882034, -58200.299227273375, -49329.60710878457, -59805.489755331255, -33965.55441207343, -16016.611876083838, -0.128, 0.9460000000000001, 0.256, 192.0, 0.0, 0.0, 0.0, 0.0, 0.0, 0.0, 0.0, 0.0, 0.0, 1.700946874885101E9, 0.0, 2023-11-25 16:14:34.885
20.0, 7692.866944416398, 13641.2696410739, -55463.17165650984, -58184.496543943475, -49710.45848255855, -59696.3908906449, -33956.77017650249, -16011.493326603571, -0.13, 0.9500000000000001, 0.25, 192.0, 251.0, 240.0, 29.0, 176.0, 7.0, 208.0, 0.0, 0.0, 0.0, 1.700946874889028E9, 0.0, 2023-11-25 16:14:34.889
21.0, 7846.423428824357, 13688.297711407866, -55495.93931388132, -58199.04752958388, -49455.268616112306, -59509.82087967645, -33989.73899957407, -16045.043295030988, -0.13, 0.9500000000000001, 0.25, 192.0, 0.0, 0.0, 0.0, 0.0, 0.0, 0.0, 0.0, 0.0, 0.0, 1.700946874892045E9, 0.0, 2023-11-25 16:14:34.892
22.0, 7930.197767042848, 13621.734216419962, -55502.08604360653, -58240.510015548476, -49040.55434948854, -59525.44474905071, -34031.22383728312, -16086.304615295485, -0.13, 0.9500000000000001, 0.25, 192.0, 0.0, 0.0, 0.0, 0.0, 0.0, 0.0, 0.0, 0.0, 0.0, 1.700946874896051E9, 0.0, 2023-11-25 16:14:34.896
23.0, 7733.345953624958, 13581.769297333873, -55476.158020038376, -58202.57910520782, -49181.079766879055, -59759.44516175332, -33977.40083663474, -16026.066663988433, -0.13, 0.9500000000000001, 0.25, 192.0, 0.0, 0.0, 0.0, 0.0, 0.0, 0.0, 0.0, 0.0, 0.0, 1.700946874900078E9, 0.0, 2023-11-25 16:14:34.900
24.0, 7683.993301867641, 13647.729295221485, -55445.670240601336, -58150.56659586032, -49717.54398555088, -59717.93797229981, -33926.885894165745, -15972.757753462525, -0.13, 0.9500000000000001, 0.25, 192.0, 0.0, 0.0, 0.0, 0.0, 0.0, 0.0, 0.0, 0.0, 0.0, 1.700946874904059E9, 0.0, 2023-11-25 16:14:34.904
25.0, 7834.107617629483, 13692.455135876553, -55483.332930008524, -58179.44504969657, -49488.930343262, -59506.6469319638, -33971.567031331906, -16016.164841194732, -0.13, 0.9500000000000001, 0.25, 192.0, 0.0, 0.0, 0.0, 0.0, 0.0, 0.0, 0.0, 0.0, 0.0, 1.700946874908031E9, 0.0, 2023-11-25 16:14:34.908
26.0, 7937.1938630573595, 13650.165635367113, -55496.16283132587, -58225.02025664094, -49112.45991140127, -59494.68874868021, -34017.142238276276, -16061.114199294354, -0.13, 0.9500000000000001, 0.25, 192.0, 0.0, 0.0, 0.0, 0.0, 0.0, 0.0, 0.0, 0.0, 0.0, 1.700946874912076E9, 0.0, 2023-11-25 16:14:34.912
27.0, 7776.194247745782, 13568.425305894054, -55496.60986621498, -58233.82684395634, -49051.57375950501, -59717.91562055536, -34013.275386485504, -16048.08313227691, -0.13, 0.9500000000000001, 0.25, 192.0, 0.0, 0.0, 0.0, 0.0, 0.0, 0.0, 0.0, 0.0, 0.0, 1.700946874918166E9, 0.0, 2023-11-25 16:14:34.918
28.0, 7646.330612460449, 13629.60203046823, -55456.8908163179, -58163.68706985559, -49700.243735342476, -59768.564673491084, -33937.48062103756, -15971.349593561841, -0.13, 0.9500000000000001, 0.25, 192.0, 0.0, 0.0, 0.0, 0.0, 0.0, 0.0, 0.0, 0.0, 0.0, 1.700946874921044E9, 0.0, 2023-11-25 16:14:34.921
29.0, 7806.078530082528, 13681.256911904446, -55483.37763349744, -58181.076727041815, -49530.3928292266, -59529.66922875276, -33972.39404587675, -16005.12307943381, -0.13, 0.9500000000000001, 0.25, 192.0, 0.0, 0.0, 0.0, 0.0, 0.0, 0.0, 0.0, 0.0, 0.0, 1.700946874925099E9, 0.0, 2023-11-25 16:14:34.925
30.0, 7933.505825222233, 13674.193760656568, -55481.36597649646, -58200.031006339916, -49188.4111390604, -59468.648966389774, -33997.15977873323, -16026.424291899717, -0.12, 0.9540000000000001, 0.252, 192.0, 252.0, 64.0, 29.0, 208.0, 7.0, 224.0, 0.0, 0.0, 0.0, 1.700946874928066E9, 0.0, 2023-11-25 16:14:34.928
31.0, 7842.534225289134, 13582.417497923077, -55472.0452990586, -58218.2923815599, -48955.81888625847, -59639.68451496179, -33998.813807822924, -16028.570059367426, -0.12, 0.9540000000000001, 0.252, 192.0, 0.0, 0.0, 0.0, 0.0, 0.0, 0.0, 0.0, 0.0, 0.0, 1.700946874932168E9, 0.0, 2023-11-25 16:14:34.932
32.0, 7645.883577571342, 13622.784748409362, -55433.64500208438, -58147.75027605895, -49634.931938044065, -59778.80177245162, -33920.8062196739, -15950.584822962861, -0.12, 0.9540000000000001, 0.252, 192.0, 0.0, 0.0, 0.0, 0.0, 0.0, 0.0, 0.0, 0.0, 0.0, 1.700946874936177E9, 0.0, 2023-11-25 16:14:34.936
33.0, 7789.895867096886, 13671.176275155101, -55461.62938614242, -58175.66760488363, -49554.46565800496, -59551.17160691877, -33965.08502543986, -16002.574980565905, -0.12, 0.9540000000000001, 0.252, 192.0, 0.0, 0.0, 0.0, 0.0, 0.0, 0.0, 0.0, 0.0, 0.0, 1.700946874940179E9, 0.0, 2023-11-25 16:14:34.940
34.0, 7923.939278595362, 13684.050879961358, -55472.17940952533, -58198.399328994674, -49250.41487817942, -59471.308823979954, -33999.39495317876, -16044.015114786043, -0.12, 0.9540000000000001, 0.252, 192.0, 0.0, 0.0, 0.0, 0.0, 0.0, 0.0, 0.0, 0.0, 0.0, 1.700946874944204E9, 0.0, 2023-11-25 16:14:34.944
35.0, 7886.99184501074, 13586.932550303049, -55468.62548215693, -58237.201957369085, -48901.81707165445, -59611.1189855479, -34024.45125871316, -16076.961586113166, -0.12, 0.9540000000000001, 0.252, 192.0, 0.0, 0.0, 0.0, 0.0, 0.0, 0.0, 0.0, 0.0, 0.0, 1.700946874948191E9, 0.0, 2023-11-25 16:14:34.948
36.0, 7655.5618829204905, 13618.493213473943, -55425.57602233601, -58158.09913374176, -49534.52790195083, -59808.618999554994, -33937.03358614846, -15985.475896057595, -0.12, 0.9540000000000001, 0.252, 192.0, 0.0, 0.0, 0.0, 0.0, 0.0, 0.0, 0.0, 0.0, 0.0, 1.700946874951194E9, 0.0, 2023-11-25 16:14:34.951
37.0, 7770.20398023176, 13662.637908773175, -55450.766438337145, -58177.299282228865, -49604.757083029406, -59602.535915677065, -33973.17635693269, -16020.769300552523, -0.12, 0.9540000000000001, 0.252, 192.0, 0.0, 0.0, 0.0, 0.0, 0.0, 0.0, 0.0, 0.0, 0.0, 1.700946874956229E9, 0.0, 2023-11-25 16:14:34.956
38.0, 7906.415510942401, 13688.297711407866, -55474.83926711551, -58196.27591327142, -49324.957945937866, -59484.742222397595, -34002.233624724584, -16053.045219545987, -0.12, 0.9540000000000001, 0.252, 192.0, 0.0, 0.0, 0.0, 0.0, 0.0, 0.0, 0.0, 0.0, 0.0, 1.700946874960215E9, 0.0, 2023-11-25 16:14:34.960
39.0, 7934.913985122917, 13611.3630069927, -55458.74601110769, -58220.16992809415, -48913.484682260125, -59558.6594413113, -34014.124752774806, -16067.573853441938, -0.12, 0.9540000000000001, 0.252, 192.0, 0.0, 0.0, 0.0, 0.0, 0.0, 0.0, 0.0, 0.0, 0.0, 1.70094687496423E9, 0.0, 2023-11-25 16:14:34.964
40.0, 7697.136127607361, 13624.908164132616, -55416.76943502062, -58143.190520190066, -49410.520423712784, -59781.238112597246, -33923.08609760834, -15969.628509238782, -0.114, 0.9540000000000001, 0.252, 192.0, 252.0, 112.0, 29.0, 208.0, 7.0, 224.0, 0.0, 0.0, 0.0, 1.700946874971225E9, 0.0, 2023-11-25 16:14:34.971
41.0, 7764.146657484372, 13680.005214214947, -55427.16299619234, -58140.46360736652, -49646.82306609429, -59612.08011055948, -33934.17256285818, -15980.938491933168, -0.114, 0.9540000000000001, 0.252, 192.0, 0.0, 0.0, 0.0, 0.0, 0.0, 0.0, 0.0, 0.0, 0.0, 1.700946874974206E9, 0.0, 2023-11-25 16:14:34.974
42.0, 7896.826612571074, 13702.535772625897, -55467.26202574516, -58172.51600891543, -49377.43984191893, -59465.67618437722, -33980.6194878363, -16027.340713422385, -0.114, 0.9540000000000001, 0.252, 192.0, 0.0, 0.0, 0.0, 0.0, 0.0, 0.0, 0.0, 0.0, 0.0, 1.700946874978224E9, 0.0, 2023-11-25 16:14:34.978
43.0, 7953.1083051095375, 13628.395036267644, -55455.92969130632, -58210.223401811534, -48951.370889111866, -59509.21738257616, -34002.25597646904, -16052.598184656881, -0.114, 0.9540000000000001, 0.252, 192.0, 0.0, 0.0, 0.0, 0.0, 0.0, 0.0, 0.0, 0.0, 0.0, 1.700946874981247E9, 0.0, 2023-11-25 16:14:34.981
44.0, 7715.978648183185, 13598.421346953077, -55429.01819098213, -58165.72107860102, -49258.10387827204, -59758.68520244184, -33935.29015008094, -15984.157143134731, -0.114, 0.9540000000000001, 0.252, 192.0, 0.0, 0.0, 0.0, 0.0, 0.0, 0.0, 0.0, 0.0, 0.0, 1.700946874984255E9, 0.0, 2023-11-25 16:14:34.984
45.0, 7717.364456339415, 13652.199644112545, -55422.42442636781, -58146.967965003016, -49679.5236682324, -59664.1820268848, -33918.906321395196, -15970.366116805806, -0.114, 0.9540000000000001, 0.252, 192.0, 0.0, 0.0, 0.0, 0.0, 0.0, 0.0, 0.0, 0.0, 0.0, 1.7009468749883E9, 0.0, 2023-11-25 16:14:34.988
46.0, 7858.381612107946, 13692.633949832196, -55464.8927408329, -58181.210837508545, -49433.54272050175, -59487.35737649887, -33965.97909521808, -16019.539954607482, -0.114, 0.9540000000000001, 0.252, 192.0, 0.0, 0.0, 0.0, 0.0, 0.0, 0.0, 0.0, 0.0, 0.0, 1.700946874992261E9, 0.0, 2023-11-25 16:14:34.992
47.0, 7954.851741177052, 13652.624327257196, -55450.96760403724, -58207.496488987985, -49023.27645102459, -59488.07263232144, -33983.860490782325, -16040.975277540121, -0.114, 0.9540000000000001, 0.252, 192.0, 0.0, 0.0, 0.0, 0.0, 0.0, 0.0, 0.0, 0.0, 0.0, 1.700946874998323E9, 0.0, 2023-11-25 16:14:34.998
48.0, 7760.77154407162, 13596.767317863383, -55434.11438871794, -58187.11169804475, -49119.03132427113, -59726.141062514915, -33952.52334505598, -16002.351463121351, -0.114, 0.9540000000000001, 0.252, 192.0, 0.0, 0.0, 0.0, 0.0, 0.0, 0.0, 0.0, 0.0, 0.0, 1.700946875001903E9, 0.0, 2023-11-25 16:14:35.001
49.0, 7688.262485058604, 13653.518397035408, -55415.40597860885, -58144.48692136847, -49687.95027589206, -59713.71349259776, -33915.57591147136, -15961.53717774596, -0.114, 0.9540000000000001, 0.252, 192.0, 0.0, 0.0, 0.0, 0.0, 0.0, 0.0, 0.0, 0.0, 0.0, 1.700946875004345E9, 0.0, 2023-11-25 16:14:35.004
50.0, 7837.035696153128, 13695.494973122475, -55461.62938614242, -58179.42269795212, -49468.41144185203, -59500.29903653849, -33973.17635693269, -16006.128907934299, -0.11800000000000001, 0.9560000000000001, 0.248, 192.0, 252.0, 80.0, 29.0, 224.0, 7.0, 192.0, 0.0, 0.0, 0.0, 1.700946875007342E9, 0.0, 2023-11-25 16:14:35.007
51.0, 7952.750677198253, 13677.2783013914, -55455.996746539684, -58204.210782553055, -49107.58723111001, -59474.393364714786, -34008.15683700524, -16034.22505071462, -0.11800000000000001, 0.9560000000000001, 0.248, 192.0, 0.0, 0.0, 0.0, 0.0, 0.0, 0.0, 0.0, 0.0, 0.0, 1.700946875011365E9, 0.0, 2023-11-25 16:14:35.011
52.0, 7810.459471995769, 13598.108422530702, -55446.94429003529, -58209.77636692243, -49004.97037231569, -59682.66691954934, -34004.8264270814, -16025.798443054968, -0.11800000000000001, 0.9560000000000001, 0.248, 192.0, 0.0, 0.0, 0.0, 0.0, 0.0, 0.0, 0.0, 0.0, 0.0, 1.700946875016304E9, 0.0, 2023-11-25 16:14:35.016
53.0, 7666.380127236859, 13652.043181901357, -55412.23203089619, -58143.43638937907, -49662.201066279544, -59756.628841951955, -33940.14047862774, -15956.440980010151, -0.11800000000000001, 0.9560000000000001, 0.248, 192.0, 0.0, 0.0, 0.0, 0.0, 0.0, 0.0, 0.0, 0.0, 0.0, 1.700946875020363E9, 0.0, 2023-11-25 16:14:35.020
54.0, 7811.889983640908, 13686.643682318174, -55458.7907145966, -58181.65787239765, -49508.823395827225, -59533.51372879908, -34001.07133401291, -16016.634227828292, -0.11800000000000001, 0.9560000000000001, 0.248, 192.0, 0.0, 0.0, 0.0, 0.0, 0.0, 0.0, 0.0, 0.0, 0.0, 1.700946875024374E9, 0.0, 2023-11-25 16:14:35.024
55.0, 7943.072371849105, 13688.632987574696, -55459.707136119265, -58201.19329705159, -49187.29355183763, -59478.57314092793, -34027.602854681354, -16047.65844913226, -0.11800000000000001, 0.9560000000000001, 0.248, 192.0, 0.0, 0.0, 0.0, 0.0, 0.0, 0.0, 0.0, 0.0, 0.0, 1.700946875028365E9, 0.0, 2023-11-25 16:14:35.028
56.0, 7868.4622488572895, 13603.450489455521, -55445.245557456685, -58219.36526529375, -48929.95791792368, -59645.04893363106, -34032.69905241717, -16055.347449224884, -0.11800000000000001, 0.9560000000000001, 0.248, 192.0, 0.0, 0.0, 0.0, 0.0, 0.0, 0.0, 0.0, 0.0, 0.0, 1.7009468750314E9, 0.0, 2023-11-25 16:14:35.031
57.0, 7662.982662079652, 13641.426103285088, -55407.560516305035, -58150.56659586032, -49607.618106319685, -59794.716214503795, -33946.55542928641, -15972.981270907077, -0.11800000000000001, 0.9560000000000001, 0.248, 192.0, 0.0, 0.0, 0.0, 0.0, 0.0, 0.0, 0.0, 0.0, 0.0, 1.700946875035479E9, 0.0, 2023-11-25 16:14:35.035
58.0, 7792.443965964791, 13682.553313082852, -55440.574042865526, -58178.66273864064, -49558.77954468484, -59569.65649958331, -33987.704990828635, -16021.953943008655, -0.11800000000000001, 0.9560000000000001, 0.248, 192.0, 0.0, 0.0, 0.0, 0.0, 0.0, 0.0, 0.0, 0.0, 0.0, 1.700946875039432E9, 0.0, 2023-11-25 16:14:35.039
59.0, 7930.421284487401, 13712.303484952867, -55437.9365370198, -58178.9309595741, -49265.23408475329, -59470.6382716463, -33996.39981942175, -16035.40969317075, -0.11800000000000001, 0.9560000000000001, 0.248, 192.0, 0.0, 0.0, 0.0, 0.0, 0.0, 0.0, 0.0, 0.0, 0.0, 1.70094687504445E9, 0.0, 2023-11-25 16:14:35.044
60.0, 7914.708008135321, 13623.79057690985, -55426.62655432541, -58208.45761399956, -48891.468213971646, -59584.922741046285, -34014.34827021936, -16059.884853349311, -0.122, 0.9520000000000001, 0.252, 192.0, 252.0, 48.0, 29.0, 192.0, 7.0, 224.0, 0.0, 0.0, 0.0, 1.700946875048499E9, 0.0, 2023-11-25 16:14:35.048
61.0, 7673.37622325137, 13641.60491724073, -55390.79670796356, -58134.76391253041, -49492.394863652575, -59792.68220575836, -33929.56810350038, -15971.93073891768, -0.122, 0.9520000000000001, 0.252, 192.0, 0.0, 0.0, 0.0, 0.0, 0.0, 0.0, 0.0, 0.0, 0.0, 1.700946875052523E9, 0.0, 2023-11-25 16:14:35.052
62.0, 7777.222427990727, 13686.822496273817, -55412.92493497431, -58147.5267586144, -49590.02728343335, -59585.28036895757, -33955.80905149091, -15999.69160553117, -0.122, 0.9520000000000001, 0.252, 192.0, 0.0, 0.0, 0.0, 0.0, 0.0, 0.0, 0.0, 0.0, 0.0, 1.700946875056482E9, 0.0, 2023-11-25 16:14:35.056
63.0, 7912.718702878798, 13717.354979199765, -55436.97541200822, -58163.46355241103, -49317.76068422326, -59455.796713327974, -33979.948935502645, -16018.377663895806, -0.122, 0.9520000000000001, 0.252, 192.0, 0.0, 0.0, 0.0, 0.0, 0.0, 0.0, 0.0, 0.0, 0.0, 1.700946875059463E9, 0.0, 2023-11-25 16:14:35.059
64.0, 7940.993659614762, 13630.607858968719, -55435.61195559645, -58206.91534363215, -48899.33602801991, -59535.16775788877, -34011.330784717895, -16051.547652667483, -0.122, 0.9520000000000001, 0.252, 192.0, 0.0, 0.0, 0.0, 0.0, 0.0, 0.0, 0.0, 0.0, 0.0, 1.700946875063468E9, 0.0, 2023-11-25 16:14:35.063
65.0, 7696.242057829149, 13629.177347323579, -55401.05615866854, -58139.50248235494, -49358.597321343106, -59771.380993292456, -33928.31640581088, -15960.687811456659, -0.122, 0.9520000000000001, 0.252, 192.0, 0.0, 0.0, 0.0, 0.0, 0.0, 0.0, 0.0, 0.0, 0.0, 1.700946875067469E9, 0.0, 2023-11-25 16:14:35.067
66.0, 7749.282747421593, 13682.530961338398, -55406.934667460286, -58131.63466830667, -49632.65206010963, -59616.39399723936, -33928.562274999895, -15962.811227179913, -0.122, 0.9520000000000001, 0.252, 192.0, 0.0, 0.0, 0.0, 0.0, 0.0, 0.0, 0.0, 0.0, 0.0, 1.70094687507193E9, 0.0, 2023-11-25 16:14:35.071
67.0, 7887.908266533407, 13713.935162298103, -55450.72173484823, -58160.379011676196, -49373.08125175015, -59461.3846494418, -33976.48441511207, -16007.335902134884, -0.122, 0.9520000000000001, 0.252, 192.0, 0.0, 0.0, 0.0, 0.0, 0.0, 0.0, 0.0, 0.0, 0.0, 1.700946875077599E9, 0.0, 2023-11-25 16:14:35.077
68.0, 7951.1637033419265, 13646.544652765353, -55445.11144698995, -58197.237038283, -48953.606063557396, -59498.46619349316, -34005.76520034852, -16031.475786146617, -0.122, 0.9520000000000001, 0.252, 192.0, 0.0, 0.0, 0.0, 0.0, 0.0, 0.0, 0.0, 0.0, 0.0, 1.700946875080562E9, 0.0, 2023-11-25 16:14:35.080
69.0, 7731.602517557445, 13621.577754208774, -55413.68489428579, -58146.87855802519, -49216.75315102973, -59736.37816147544, -33934.82076344738, -15960.464294012107, -0.122, 0.9520000000000001, 0.252, 192.0, 0.0, 0.0, 0.0, 0.0, 0.0, 0.0, 0.0, 0.0, 0.0, 1.700946875084654E9, 0.0, 2023-11-25 16:14:35.084
70.0, 7720.940735452264, 13674.149057167657, -55405.30299011505, -58120.950534457035, -49658.31186274432, -59649.787503455584, -33916.894664394225, -15940.794758891436, -0.122, 0.9540000000000001, 0.248, 192.0, 252.0, 48.0, 29.0, 208.0, 7.0, 192.0, 0.0, 0.0, 0.0, 1.70094687508753E9, 0.0, 2023-11-25 16:14:35.087
71.0, 7865.422411611368, 13707.006121516959, -55449.7382580922, -58155.66279359613, -49410.028685334764, -59462.25636747556, -33969.75654003102, -15988.895712959256, -0.122, 0.9540000000000001, 0.248, 192.0, 0.0, 0.0, 0.0, 0.0, 0.0, 0.0, 0.0, 0.0, 0.0, 1.700946875091511E9, 0.0, 2023-11-25 16:14:35.091
72.0, 7961.110229624538, 13653.428990057588, -55450.274699959125, -58197.438203983096, -49013.26286950861, -59467.84430358939, -34006.25693872654, -16032.07928324691, -0.122, 0.9540000000000001, 0.248, 192.0, 0.0, 0.0, 0.0, 0.0, 0.0, 0.0, 0.0, 0.0, 0.0, 1.700946875095542E9, 0.0, 2023-11-25 16:14:35.095
73.0, 7787.30306474007, 13607.607913924208, -55423.81023452404, -58171.89016007068, -49069.589265535986, -59695.76504180015, -33960.03353119297, -15984.492419301561, -0.122, 0.9540000000000001, 0.248, 192.0, 0.0, 0.0, 0.0, 0.0, 0.0, 0.0, 0.0, 0.0, 0.0, 1.700946875099546E9, 0.0, 2023-11-25 16:14:35.099
74.0, 7698.700749719233, 13665.588339041275, -55395.57998127699, -58121.75519725743, -49660.30116800084, -59698.179030201325, -33909.22801604605, -15934.20099427712, -0.122, 0.9540000000000001, 0.248, 192.0, 0.0, 0.0, 0.0, 0.0, 0.0, 0.0, 0.0, 0.0, 0.0, 1.700946875104575E9, 0.0, 2023-11-25 16:14:35.104
75.0, 7850.737315504231, 13706.603790116764, -55430.7839787941, -58146.63268883619, -49450.30652884323, -59478.48373395011, -33953.12684215628, -15977.563378520415, -0.122, 0.9540000000000001, 0.248, 192.0, 0.0, 0.0, 0.0, 0.0, 0.0, 0.0, 0.0, 0.0, 0.0, 1.700946875108594E9, 0.0, 2023-11-25 16:14:35.108
76.0, 7968.9556919283505, 13682.799182271861, -55430.18048169381, -58173.81241009384, -49085.54841107708, -59439.61405034233, -33980.95476400313, -16007.581771323894, -0.122, 0.9540000000000001, 0.248, 192.0, 0.0, 0.0, 0.0, 0.0, 0.0, 0.0, 0.0, 0.0, 0.0, 1.700946875112618E9, 0.0, 2023-11-25 16:14:35.112
77.0, 7835.605184507988, 13598.60016090872, -55421.820929267524, -58181.30024448637, -48949.18041815524, -59643.9760498972, -33971.701141798636, -16000.652730542748, -0.122, 0.9540000000000001, 0.248, 192.0, 0.0, 0.0, 0.0, 0.0, 0.0, 0.0, 0.0, 0.0, 0.0, 1.700946875115644E9, 0.0, 2023-11-25 16:14:35.115
78.0, 7679.18767680975, 13642.297821318845, -55389.34384457396, -58120.034112934365, -49615.642382579135, -59738.83685336553, -33912.31255678088, -15940.995924591534, -0.122, 0.9540000000000001, 0.248, 192.0, 0.0, 0.0, 0.0, 0.0, 0.0, 0.0, 0.0, 0.0, 0.0, 1.700946875119815E9, 0.0, 2023-11-25 16:14:35.119
79.0, 7825.993934392207, 13687.761269540939, -55423.74317929068, -58147.50440686994, -49484.97408449341, -59519.54388851451, -33967.74488303004, -15996.40589909624, -0.122, 0.9540000000000001, 0.248, 192.0, 0.0, 0.0, 0.0, 0.0, 0.0, 0.0, 0.0, 0.0, 0.0, 1.700946875124158E9, 0.0, 2023-11-25 16:14:35.124
80.0, 7961.870188936018, 13705.2850371939, -55418.959905977244, -58158.83674130878, -49169.43450801784, -59452.55571038195, -33993.359982175825, -16025.55257386596, -0.11800000000000001, 0.9500000000000001, 0.246, 192.0, 252.0, 80.0, 29.0, 176.0, 7.0, 176.0, 0.0, 0.0, 0.0, 1.700946875128159E9, 0.0, 2023-11-25 16:14:35.128
81.0, 7901.0957957620385, 13620.236649541457, -55411.24855414016, -58184.89887534367, -48879.82295511043, -59613.376511737886, -34001.965403791124, -16042.830472329912, -0.11800000000000001, 0.9500000000000001, 0.246, 192.0, 0.0, 0.0, 0.0, 0.0, 0.0, 0.0, 0.0, 0.0, 0.0, 1.700946875131666E9, 0.0, 2023-11-25 16:14:35.131
82.0, 7683.14393557834, 13653.093713890757, -55382.99594914865, -58119.3188571118, -49545.457904989475, -59785.708461488306, -33926.93059765465, -15965.784009192468, -0.11800000000000001, 0.9500000000000001, 0.246, 192.0, 0.0, 0.0, 0.0, 0.0, 0.0, 0.0, 0.0, 0.0, 0.0, 1.700946875138843E9, 0.0, 2023-11-25 16:14:35.138
83.0, 7812.001742363184, 13700.792336558383, -55413.95311521925, -58142.85524402324, -49522.726180878424, -59564.13561870285, -33967.29784814094, -16007.112384690332, -0.11800000000000001, 0.9500000000000001, 0.246, 192.0, 0.0, 0.0, 0.0, 0.0, 0.0, 0.0, 0.0, 0.0, 0.0, 1.700946875139657E9, 0.0, 2023-11-25 16:14:35.139
84.0, 7938.289098535669, 13709.889496551694, -55442.56334812204, -58175.332328716795, -49233.114627971016, -59471.889969335796, -34004.96053754813, -16040.930574051212, -0.11800000000000001, 0.9500000000000001, 0.246, 192.0, 0.0, 0.0, 0.0, 0.0, 0.0, 0.0, 0.0, 0.0, 0.0, 1.700946875143682E9, 0.0, 2023-11-25 16:14:35.143
85.0, 7924.386313484468, 13613.732291904962, -55440.0376009986, -58215.31959954734, -48861.606283379355, -59587.873171314386, -34024.36185173534, -16062.65646966177, -0.11800000000000001, 0.9500000000000001, 0.246, 192.0, 0.0, 0.0, 0.0, 0.0, 0.0, 0.0, 0.0, 0.0, 0.0, 1.700946875147666E9, 0.0, 2023-11-25 16:14:35.147
86.0, 7689.3130170480035, 13633.804158425828, -55397.23401036669, -58136.70851429803, -49447.35609857513, -59792.86101971401, -33929.29988256692, -15958.340878288851, -0.11800000000000001, 0.9500000000000001, 0.246, 192.0, 0.0, 0.0, 0.0, 0.0, 0.0, 0.0, 0.0, 0.0, 0.0, 1.700946875151695E9, 0.0, 2023-11-25 16:14:35.151
87.0, 7788.174782773827, 13684.140286939179, -55414.7801297641, -58144.732790557486, -49584.77462348636, -59594.73515686216, -33948.94706594313, -15977.362212820319, -0.11800000000000001, 0.9500000000000001, 0.246, 192.0, 0.0, 0.0, 0.0, 0.0, 0.0, 0.0, 0.0, 0.0, 0.0, 1.700946875155669E9, 0.0, 2023-11-25 16:14:35.155
88.0, 7925.012162329217, 13716.326798954822, -55445.46907490124, -58165.51991290092, -49315.43610279991, -59459.641213374285, -33981.80413029243, -16008.229971913097, -0.11800000000000001, 0.9500000000000001, 0.246, 192.0, 0.0, 0.0, 0.0, 0.0, 0.0, 0.0, 0.0, 0.0, 0.0, 1.700946875159737E9, 0.0, 2023-11-25 16:14:35.159
89.0, 7961.937244169384, 13640.554385251331, -55432.6838770728, -58197.572314449826, -48891.84819362738, -59521.95787691568, -34002.74771484706, -16034.515623392539, -0.11800000000000001, 0.9500000000000001, 0.246, 192.0, 0.0, 0.0, 0.0, 0.0, 0.0, 0.0, 0.0, 0.0, 0.0, 1.700946875164731E9, 0.0, 2023-11-25 16:14:35.164
90.0, 7710.9718574251965, 13628.46209150101, -55403.73836800318, -58141.11180795572, -49307.65769572946, -59758.28287104164, -33926.23769357654, -15950.9648026186, -0.12, 0.9520000000000001, 0.256, 192.0, 252.0, 64.0, 29.0, 192.0, 8.0, 0.0, 0.0, 0.0, 0.0, 1.700946875167759E9, 0.0, 2023-11-25 16:14:35.167
91.0, 7749.1262852104055, 13686.956606740549, -55402.41961508032, -58126.963153715515, -49615.083588967755, -59618.71857866271, -33927.24352207703, -15945.801549649424, -0.12, 0.9520000000000001, 0.256, 192.0, 0.0, 0.0, 0.0, 0.0, 0.0, 0.0, 0.0, 0.0, 0.0, 1.700946875171766E9, 0.0, 2023-11-25 16:14:35.171
92.0, 7908.628333643477, 13743.774741145939, -55419.4292926108, -58134.78626427487, -49351.8470945176, -59438.94349800867, -33947.47185080908, -15966.208692337119, -0.12, 0.9520000000000001, 0.256, 192.0, 0.0, 0.0, 0.0, 0.0, 0.0, 0.0, 0.0, 0.0, 0.0, 1.700946875175749E9, 0.0, 2023-11-25 16:14:35.175
93.0, 7974.610683275543, 13666.75062975295, -55426.49244385868, -58190.53151494641, -48928.996792912105, -59474.169847270234, -33992.935299031175, -16019.159974951743, -0.12, 0.9520000000000001, 0.256, 192.0, 0.0, 0.0, 0.0, 0.0, 0.0, 0.0, 0.0, 0.0, 0.0, 1.700946875179782E9, 0.0, 2023-11-25 16:14:35.179
94.0, 7755.563587613534, 13632.485405502965, -55398.21748712272, -58147.70557257004, -49151.3519467535, -59720.82134733455, -33934.41843204718, -15950.785988662958, -0.12, 0.9520000000000001, 0.256, 192.0, 0.0, 0.0, 0.0, 0.0, 0.0, 0.0, 0.0, 0.0, 0.0, 1.700946875183795E9, 0.0, 2023-11-25 16:14:35.183
95.0, 7743.538349096579, 13700.18883945809, -55370.47897225368, -58104.63376100466, -49622.32555417127, -59648.84873018846, -33892.7994838714, -15910.128165498754, -0.12, 0.9520000000000001, 0.256, 192.0, 0.0, 0.0, 0.0, 0.0, 0.0, 0.0, 0.0, 0.0, 0.0, 1.700946875187783E9, 0.0, 2023-11-25 16:14:35.187
96.0, 7899.173545738882, 13749.832063893327, -55395.87055395491, -58121.68814202406, -49375.45053666241, -59440.66458233173, -33929.36693780028, -15944.035761837455, -0.12, 0.9520000000000001, 0.256, 192.0, 0.0, 0.0, 0.0, 0.0, 0.0, 0.0, 0.0, 0.0, 0.0, 1.700946875192788E9, 0.0, 2023-11-25 16:14:35.192
97.0, 7988.245247393281, 13690.287016664388, -55406.934667460286, -58171.89016007068, -48977.74594756913, -59437.44593113017, -33974.22688892209, -15994.863628728823, -0.12, 0.9520000000000001, 0.256, 192.0, 0.0, 0.0, 0.0, 0.0, 0.0, 0.0, 0.0, 0.0, 0.0, 1.700946875195784E9, 0.0, 2023-11-25 16:14:35.195
98.0, 7805.251515537681, 13621.063664086303, -55395.69173999927, -58164.60349137825, -48990.732311097665, -59672.921558966824, -33949.8634874658, -15970.142599361254, -0.12, 0.9520000000000001, 0.256, 192.0, 0.0, 0.0, 0.0, 0.0, 0.0, 0.0, 0.0, 0.0, 0.0, 1.700946875199874E9, 0.0, 2023-11-25 16:14:35.199
99.0, 7714.436377815769, 13691.315196909332, -55356.37502150238, -58099.98459815796, -49609.33919064274, -59692.14405919839, -33887.79269311341, -15905.188429974132, -0.12, 0.9520000000000001, 0.256, 192.0, 0.0, 0.0, 0.0, 0.0, 0.0, 0.0, 0.0, 0.0, 0.0, 1.700946875203821E9, 0.0, 2023-11-25 16:14:35.203
100.0, 7881.3145019190915, 13740.153758544178, -55386.48282128368, -58124.660924036616, -49415.706028426415, -59463.351602953866, -33926.103583109805, -15944.281631026464, -0.126, 0.9480000000000001, 0.258, 192.0, 252.0, 16.0, 29.0, 160.0, 8.0, 16.0, 0.0, 0.0, 0.0, 1.700946875207876E9, 0.0, 2023-11-25 16:14:35.207
101.0, 7995.844840508085, 13717.354979199765, -55392.182516119785, -58159.55199713135, -49065.92357944531, -59428.30406764794, -33963.45334809463, -15995.422422340205, -0.126, 0.9480000000000001, 0.258, 192.0, 0.0, 0.0, 0.0, 0.0, 0.0, 0.0, 0.0, 0.0, 0.0, 1.700946875211818E9, 0.0, 2023-11-25 16:14:35.211
102.0, 7872.329100648058, 13629.64673395714, -55385.879324183385, -58174.572369405316, -48893.63633318381, -59627.74868342265, -33969.06363595291, -16007.559419579438, -0.126, 0.9480000000000001, 0.258, 192.0, 0.0, 0.0, 0.0, 0.0, 0.0, 0.0, 0.0, 0.0, 0.0, 1.700946875215864E9, 0.0, 2023-11-25 16:14:35.215
103.0, 7708.468462046202, 13685.23552241749, -55342.60634691791, -58099.98459815796, -49574.269303592366, -59736.35580973099, -33894.56527168337, -15934.044532065933, -0.126, 0.9480000000000001, 0.258, 192.0, 0.0, 0.0, 0.0, 0.0, 0.0, 0.0, 0.0, 0.0, 0.0, 1.700946875219842E9, 0.0, 2023-11-25 16:14:35.219
104.0, 7854.112428916983, 13725.960400815058, -55380.716071214214, -58128.773645016394, -49465.37160460611, -59503.85296390689, -33946.28720835295, -15986.951111191645, -0.126, 0.9480000000000001, 0.258, 192.0, 0.0, 0.0, 0.0, 0.0, 0.0, 0.0, 0.0, 0.0, 0.0, 1.700946875224926E9, 0.0, 2023-11-25 16:14:35.224
105.0, 7976.063546665138, 13727.05563629337, -55394.68591149878, -58153.248805194955, -49155.352909011, -59432.3273816499, -33981.73707505907, -16021.953943008655, -0.126, 0.9480000000000001, 0.258, 192.0, 0.0, 0.0, 0.0, 0.0, 0.0, 0.0, 0.0, 0.0, 0.0, 1.70094687522793E9, 0.0, 2023-11-25 16:14:35.227
106.0, 7914.596249413044, 13628.529146734376, -55392.38368181988, -58184.04950905437, -48843.14374245927, -59576.85376129792, -33996.19865372165, -16037.957792038655, -0.126, 0.9480000000000001, 0.258, 192.0, 0.0, 0.0, 0.0, 0.0, 0.0, 0.0, 0.0, 0.0, 0.0, 1.700946875232069E9, 0.0, 2023-11-25 16:14:35.232
107.0, 7700.980627653674, 13669.969280954514, -55347.814303376, -58101.4151098031, -49504.75537833636, -59748.44810348131, -33904.98118459954, -15938.984267590557, -0.126, 0.9480000000000001, 0.258, 192.0, 0.0, 0.0, 0.0, 0.0, 0.0, 0.0, 0.0, 0.0, 0.0, 1.700946875235982E9, 0.0, 2023-11-25 16:14:35.235
108.0, 7812.851108652486, 13691.1810864426, -55404.4759755702, -58148.10790397023, -49509.583355138704, -59539.347534101915, -33972.08112145437, -15996.428250840694, -0.126, 0.9480000000000001, 0.258, 192.0, 0.0, 0.0, 0.0, 0.0, 0.0, 0.0, 0.0, 0.0, 0.0, 1.700946875239958E9, 0.0, 2023-11-25 16:14:35.239
109.0, 7943.3629445270235, 13712.884630308705, -55425.106635702454, -58166.14576174567, -49229.58305234707, -59435.70249506265, -33997.94208978917, -16019.607009840849, -0.126, 0.9480000000000001, 0.258, 192.0, 0.0, 0.0, 0.0, 0.0, 0.0, 0.0, 0.0, 0.0, 0.0, 1.700946875243942E9, 0.0, 2023-11-25 16:14:35.243
110.0, 7945.776932928197, 13621.890678631149, -55418.93755423278, -58203.56258196385, -48838.025192979, -59534.854833466394, -34020.96438657813, -16048.932498566212, -0.13, 0.9440000000000001, 0.256, 192.0, 251.0, 240.0, 29.0, 128.0, 8.0, 0.0, 0.0, 0.0, 0.0, 1.700946875247958E9, 0.0, 2023-11-25 16:14:35.247
111.0, 7702.1652701098055, 13638.140396850158, -55384.694681727255, -58132.5734415738, -49400.193917774435, -59759.1545890754, -33938.08411813786, -15961.693639957148, -0.13, 0.9440000000000001, 0.256, 192.0, 0.0, 0.0, 0.0, 0.0, 0.0, 0.0, 0.0, 0.0, 0.0, 1.700946875252012E9, 0.0, 2023-11-25 16:14:35.252
112.0, 7787.817154862542, 13689.974092242015, -55401.79376623557, -58138.65311606564, -49578.2032106165, -59575.42324965278, -33956.457252080116, -15975.21644535261, -0.13, 0.9440000000000001, 0.256, 192.0, 0.0, 0.0, 0.0, 0.0, 0.0, 0.0, 0.0, 0.0, 0.0, 1.700946875254982E9, 0.0, 2023-11-25 16:14:35.254
113.0, 7930.756560654231, 13729.134348527712, -55426.648906069866, -58153.36056391723, -49310.27284983073, -59427.409997869734, -33987.213252450616, -16000.853896242847, -0.13, 0.9440000000000001, 0.256, 192.0, 0.0, 0.0, 0.0, 0.0, 0.0, 0.0, 0.0, 0.0, 0.0, 1.700946875259996E9, 0.0, 2023-11-25 16:14:35.259
114.0, 7966.00526166025, 13636.866347416204, -55432.8850427729, -58204.54605871988, -48890.4400337267, -59493.45940273516, -34030.79915413847, -16051.815873600946, -0.13, 0.9440000000000001, 0.256, 192.0, 0.0, 0.0, 0.0, 0.0, 0.0, 0.0, 0.0, 0.0, 0.0, 1.700946875264004E9, 0.0, 2023-11-25 16:14:35.264
115.0, 7717.00682842813, 13618.672027429586, -55404.52067905911, -58151.95240401655, -49282.75785240625, -59745.855301124495, -33960.368807359795, -15978.904483187735, -0.13, 0.9440000000000001, 0.256, 192.0, 0.0, 0.0, 0.0, 0.0, 0.0, 0.0, 0.0, 0.0, 0.0, 1.700946875268016E9, 0.0, 2023-11-25 16:14:35.268
116.0, 7750.53444511109, 13670.237501887977, -55402.39726333586, -58140.70947655553, -49635.848359566735, -59624.99941885465, -33949.729376999065, -15972.981270907077, -0.13, 0.9440000000000001, 0.256, 192.0, 0.0, 0.0, 0.0, 0.0, 0.0, 0.0, 0.0, 0.0, 0.0, 1.700946875272027E9, 0.0, 2023-11-25 16:14:35.272
117.0, 7887.79650781113, 13707.52021163943, -55438.674144586825, -58168.760915846935, -49378.19980123041, -59459.46239941865, -33988.93433677367, -16017.684759817692, -0.13, 0.9440000000000001, 0.256, 192.0, 0.0, 0.0, 0.0, 0.0, 0.0, 0.0, 0.0, 0.0, 0.0, 1.700946875276042E9, 0.0, 2023-11-25 16:14:35.276
118.0, 7968.3074913391465, 13657.56406278182, -55424.21256592424, -58198.89106737269, -48960.46804910518, -59477.70142289418, -34009.63205213929, -16044.775074097524, -0.13, 0.9440000000000001, 0.256, 192.0, 0.0, 0.0, 0.0, 0.0, 0.0, 0.0, 0.0, 0.0, 0.0, 1.700946875280102E9, 0.0, 2023-11-25 16:14:35.280
119.0, 7764.794858073576, 13627.79153916735, -55389.47795504069, -58155.88631104068, -49136.1974640128, -59709.0419780066, -33940.498106539024, -15978.189227365165, -0.13, 0.9440000000000001, 0.256, 192.0, 0.0, 0.0, 0.0, 0.0, 0.0, 0.0, 0.0, 0.0, 0.0, 1.700946875283146E9, 0.0, 2023-11-25 16:14:35.283
120.0, 7718.593802284456, 13681.815705515828, -55373.87643741089, -58122.31399086881, -49649.32646147328, -59664.74082049618, -33906.255234033495, -15949.221366551086, -0.12, 0.9420000000000001, 0.25, 192.0, 252.0, 64.0, 29.0, 112.0, 7.0, 208.0, 0.0, 0.0, 0.0, 1.700946875287109E9, 0.0, 2023-11-25 16:14:35.287
121.0, 7868.12697269046, 13712.929333797614, -55416.94824897627, -58156.57921511879, -49413.82848189217, -59463.46336167614, -33952.05395842242, -15996.741175263069, -0.12, 0.9420000000000001, 0.25, 192.0, 0.0, 0.0, 0.0, 0.0, 0.0, 0.0, 0.0, 0.0, 0.0, 1.700946875292137E9, 0.0, 2023-11-25 16:14:35.292
122.0, 7962.831313947597, 13668.069382675814, -55420.81510076703, -58192.78904113639, -49034.631137207885, -59453.65094586027, -33982.69820007065, -16030.201736712665, -0.12, 0.9420000000000001, 0.25, 192.0, 0.0, 0.0, 0.0, 0.0, 0.0, 0.0, 0.0, 0.0, 0.0, 1.70094687529611E9, 0.0, 2023-11-25 16:14:35.296
123.0, 7802.882230625419, 13604.411614467099, -55400.29619935706, -58178.550979918364, -49005.57386941599, -59666.03722167459, -33950.265818866, -15999.311625875429, -0.12, 0.9420000000000001, 0.25, 192.0, 0.0, 0.0, 0.0, 0.0, 0.0, 0.0, 0.0, 0.0, 0.0, 1.700946875300496E9, 0.0, 2023-11-25 16:14:35.300
124.0, 7690.609418226411, 13663.531978551386, -55363.14760007234, -58112.1662988861, -49632.696763598535, -59703.00700700367, -33880.64013488771, -15930.043569808433, -0.12, 0.9420000000000001, 0.25, 192.0, 0.0, 0.0, 0.0, 0.0, 0.0, 0.0, 0.0, 0.0, 0.0, 1.700946875304057E9, 0.0, 2023-11-25 16:14:35.304
125.0, 7857.934577218841, 13720.372464701231, -55388.15920211783, -58126.203194404035, -49443.64570899555, -59462.81516108694, -33911.776114913955, -15969.293233071952, -0.12, 0.9420000000000001, 0.25, 192.0, 0.0, 0.0, 0.0, 0.0, 0.0, 0.0, 0.0, 0.0, 0.0, 1.700946875308114E9, 0.0, 2023-11-25 16:14:35.308
126.0, 7980.712709511842, 13712.504650652963, -55391.17668761929, -58150.231319693485, -49097.99833273868, -59412.97077095161, -33946.801298475424, -16009.816945769424, -0.12, 0.9420000000000001, 0.25, 192.0, 0.0, 0.0, 0.0, 0.0, 0.0, 0.0, 0.0, 0.0, 0.0, 1.700946875311083E9, 0.0, 2023-11-25 16:14:35.311
127.0, 7860.84030399803, 13607.049120312826, -55404.09599591446, -58183.20014276507, -48886.32731274692, -59612.21422102621, -33966.76140627401, -16032.772187325025, -0.12, 0.9420000000000001, 0.25, 192.0, 0.0, 0.0, 0.0, 0.0, 0.0, 0.0, 0.0, 0.0, 0.0, 1.70094687531509E9, 0.0, 2023-11-25 16:14:35.315
128.0, 7684.417985012292, 13667.935272209083, -55356.15150405783, -58093.52494401037, -49569.441326790016, -59731.326667228546, -33869.93364929362, -15935.363284988796, -0.12, 0.9420000000000001, 0.25, 192.0, 0.0, 0.0, 0.0, 0.0, 0.0, 0.0, 0.0, 0.0, 0.0, 1.700946875320099E9, 0.0, 2023-11-25 16:14:35.320
129.0, 7841.014306666173, 13720.819499590338, -55388.80740270703, -58117.57542104428, -49473.55234307675, -59489.212571288655, -33917.229940561054, -15981.050250655444, -0.12, 0.9460000000000001, 0.26, 192.0, 252.0, 64.0, 29.0, 144.0, 8.0, 32.0, 0.0, 0.0, 0.0, 1.700946875324126E9, 0.0, 2023-11-25 16:14:35.324
130.0, 7956.081087122094, 13720.819499590338, -55418.91520248833, -58156.73567732998, -49170.01565337368, -59424.95130597965, -33973.60104007734, -16029.531184379004, -0.12, 0.9460000000000001, 0.26, 192.0, 0.0, 0.0, 0.0, 0.0, 0.0, 0.0, 0.0, 0.0, 0.0, 1.700946875328116E9, 0.0, 2023-11-25 16:14:35.328
131.0, 7914.618601157499, 13632.977143880982, -55413.14845241886, -58186.4858492, -48843.65783258174, -59563.91210125829, -33994.7234385876, -16041.98110604061, -0.12, 0.9460000000000001, 0.26, 192.0, 0.0, 0.0, 0.0, 0.0, 0.0, 0.0, 0.0, 0.0, 0.0, 1.700946875332172E9, 0.0, 2023-11-25 16:14:35.332
