%OpenBCI Raw EXG Data
%Number of channels = 8
%Sample Rate = 250 Hz
%Board = OpenBCI_GUI$BoardCytonSerial
Sample Index, EXG Channel 0, EXG Channel 1, EXG Channel 2, EXG Channel 3, EXG Channel 4, EXG Channel 5, EXG Channel 6, EXG Channel 7, Accel Channel 0, Accel Channel 1, Accel Channel 2, Other, Other, Other, Other, Other, Other, Other, Analog Channel 0, Analog Channel 1, Analog Channel 2, Timestamp, Other, Timestamp (Formatted)
233.0, 73550.29267672214, 82547.02628219442, -15182.824752667519, -12428.396931695574, -1461.155886787878, -4381.00896847355, -14789.389346765203, 187500.0, -0.056, 0.986, 0.03, 192.0, 254.0, 64.0, 30.0, 208.0, 0.0, 240.0, 0.0, 0.0, 0.0, 1.700945213122969E9, 0.0, 2023-11-25 15:46:53.122
234.0, 73570.67746766537, 82548.92618047312, -14490.077136764186, -11261.077077517162, -36.74626788452481, -3504.798234081058, -14763.01428830794, 187500.0, -0.056, 0.986, 0.03, 192.0, 0.0, 0.0, 0.0, 0.0, 0.0, 0.0, 0.0, 0.0, 0.0, 1.700945213123015E9, 0.0, 2023-11-25 15:46:53.123
235.0, 73552.3043337231, 82520.15948535914, -14762.29903248537, -11490.18245818406, -143.54290289198195, -3625.721171584269, -14826.69440826111, 187500.0, -0.056, 0.986, 0.03, 192.0, 0.0, 0.0, 0.0, 0.0, 0.0, 0.0, 0.0, 0.0, 0.0, 1.700945213123062E9, 0.0, 2023-11-25 15:46:53.123
0.0, 0.0, 0.0, 0.0, 0.0, 0.0, 0.0, 0.0, 0.0, -0.056, 0.986, 0.03, 192.0, 0.0, 0.0, 0.0, 0.0, 0.0, 0.0, 0.0, 0.0, 0.0, 1.700945213195044E9, 0.0, 2023-11-25 15:46:53.195
1.0, 71788.93051015503, 81317.45681970798, -14438.71282800589, -11282.08771730515, -1145.3927928677551, -3488.54851586205, -14836.730341521543, 187500.0, -0.074, 0.984, 0.034, 192.0, 253.0, 176.0, 30.0, 192.0, 1.0, 16.0, 0.0, 0.0, 0.0, 1.700945213212298E9, 0.0, 2023-11-25 15:46:53.212
2.0, 71783.61079497467, 81323.15651454408, -14808.813012696864, -11764.639528350775, -1719.072666057666, -3750.823885300623, -14832.774082752954, 187500.0, -0.074, 0.984, 0.034, 192.0, 0.0, 0.0, 0.0, 0.0, 0.0, 0.0, 0.0, 0.0, 0.0, 1.700945213215484E9, 0.0, 2023-11-25 15:46:53.215
3.0, 71780.43684726201, 81336.34404377271, -15183.271787556623, -12428.754559606858, -2578.765461297686, -4285.187039993649, -14861.808998800398, 187500.0, -0.074, 0.984, 0.034, 192.0, 0.0, 0.0, 0.0, 0.0, 0.0, 0.0, 0.0, 0.0, 0.0, 1.700945213219137E9, 0.0, 2023-11-25 15:46:53.219
4.0, 71786.22594907593, 81341.37318627516, -14571.45983832596, -11754.313022412423, -1763.7314514793698, -3844.3659358460827, -14765.048297053374, 187500.0, -0.074, 0.984, 0.034, 192.0, 0.0, 0.0, 0.0, 0.0, 0.0, 0.0, 0.0, 0.0, 0.0, 1.700945213222263E9, 0.0, 2023-11-25 15:46:53.222
5.0, 71786.29300430931, 81330.24201753641, -14380.285367999717, -11201.107347143574, -1077.1529170457027, -3428.087047110444, -14825.353303593793, 187500.0, -0.074, 0.984, 0.034, 192.0, 0.0, 0.0, 0.0, 0.0, 0.0, 0.0, 0.0, 0.0, 0.0, 1.700945213226183E9, 0.0, 2023-11-25 15:46:53.226
6.0, 71772.3455157692, 81325.05641282279, -14733.465282138024, -11665.01780331347, -1580.983588812779, -3692.7093497168244, -14831.991771697018, 187500.0, -0.074, 0.984, 0.034, 192.0, 0.0, 0.0, 0.0, 0.0, 0.0, 0.0, 0.0, 0.0, 0.0, 1.700945213230147E9, 0.0, 2023-11-25 15:46:53.230
7.0, 71778.35813502767, 81346.89406715562, -15162.328203002002, -12340.375762030573, -2472.661730368344, -4196.9200011396415, -14863.03834474544, 187500.0, -0.074, 0.984, 0.034, 192.0, 0.0, 0.0, 0.0, 0.0, 0.0, 0.0, 0.0, 0.0, 0.0, 1.700945213234172E9, 0.0, 2023-11-25 15:46:53.234
8.0, 71788.63993747711, 81348.70455845649, -14702.821040489798, -11960.060830123524, -2002.8504136622446, -3996.4025016310816, -14778.995785593484, 187500.0, -0.07200000000000001, 0.986, 0.03, 192.0, 253.0, 192.0, 30.0, 208.0, 0.0, 240.0, 0.0, 0.0, 0.0, 1.700945213239232E9, 0.0, 2023-11-25 15:46:53.239
9.0, 71792.30562356778, 81334.48884898292, -14327.848175507568, -11148.692506395879, -1040.6525183501863, -3388.1221280243553, -14808.969474908052, 187500.0, -0.07200000000000001, 0.986, 0.03, 192.0, 0.0, 0.0, 0.0, 0.0, 0.0, 0.0, 0.0, 0.0, 0.0, 1.700945213242246E9, 0.0, 2023-11-25 15:46:53.242
10.0, 71780.92858564002, 81324.2964535113, -14668.75698193991, -11593.268703611935, -1472.2423520377104, -3658.1088493000093, -14825.487414060524, 187500.0, -0.07200000000000001, 0.986, 0.03, 192.0, 0.0, 0.0, 0.0, 0.0, 0.0, 0.0, 0.0, 0.0, 0.0, 1.700945213246217E9, 0.0, 2023-11-25 15:46:53.246
11.0, 71771.96553611345, 81333.05833733777, -15116.618885590899, -12224.683132729904, -2325.5872518524234, -4087.150584119628, -14862.099571478317, 187500.0, -0.07200000000000001, 0.986, 0.03, 192.0, 0.0, 0.0, 0.0, 0.0, 0.0, 0.0, 0.0, 0.0, 0.0, 1.700945213250302E9, 0.0, 2023-11-25 15:46:53.250
12.0, 71777.2405478049, 81336.58991296172, -14866.61462385829, -12175.017556550212, -2247.154980558751, -4151.992994784474, -14811.003483653485, 187500.0, -0.07200000000000001, 0.986, 0.03, 192.0, 0.0, 0.0, 0.0, 0.0, 0.0, 0.0, 0.0, 0.0, 0.0, 1.700945213254261E9, 0.0, 2023-11-25 15:46:53.254
13.0, 71775.83238790421, 81316.00395631838, -14320.78502425969, -11153.744000642777, -1072.8613821102838, -3396.0793490504443, -14817.418434312158, 187500.0, -0.07200000000000001, 0.986, 0.03, 192.0, 0.0, 0.0, 0.0, 0.0, 0.0, 0.0, 0.0, 0.0, 0.0, 1.700945213258291E9, 0.0, 2023-11-25 15:46:53.258
14.0, 71772.8372541472, 81304.38104920162, -14631.608382655191, -11515.194060229547, -1393.2736388771104, -3617.76395055818, -14851.08016146185, 187500.0, -0.07200000000000001, 0.986, 0.03, 192.0, 0.0, 0.0, 0.0, 0.0, 0.0, 0.0, 0.0, 0.0, 0.0, 1.700945213262611E9, 0.0, 2023-11-25 15:46:53.262
15.0, 71775.87709139312, 81329.70557566948, -15050.301259792002, -12101.167392869878, -2178.892752992243, -3987.484155593414, -14853.292984162927, 187500.0, -0.07200000000000001, 0.986, 0.03, 192.0, 0.0, 0.0, 0.0, 0.0, 0.0, 0.0, 0.0, 0.0, 0.0, 1.700945213267227E9, 0.0, 2023-11-25 15:46:53.267
16.0, 71787.41059153207, 81343.11662234267, -14994.600712609377, -12338.20764281841, -2446.53254110009, -4261.047155981917, -14818.290152345915, 187500.0, -0.07200000000000001, 0.986, 0.03, 192.0, 0.0, 0.0, 0.0, 0.0, 0.0, 0.0, 0.0, 0.0, 0.0, 1.700945213270306E9, 0.0, 2023-11-25 15:46:53.270
17.0, 71794.04905963529, 81332.56659895976, -14326.194146417874, -11242.726295319355, -1176.104089749347, -3454.2162363786983, -14788.83055315382, 187500.0, -0.07200000000000001, 0.986, 0.03, 192.0, 0.0, 0.0, 0.0, 0.0, 0.0, 0.0, 0.0, 0.0, 0.0, 1.700945213274242E9, 0.0, 2023-11-25 15:46:53.274
18.0, 71778.51459723886, 81299.39661018808, -14571.482190070414, -11457.168931623572, -1315.646030383829, -3586.247990876197, -14846.27453640396, 187500.0, -0.07200000000000001, 0.978, 0.032, 192.0, 253.0, 192.0, 30.0, 144.0, 1.0, 0.0, 0.0, 0.0, 0.0, 1.700945213279287E9, 0.0, 2023-11-25 15:46:53.279
19.0, 71774.42422800354, 81309.72311612644, -14968.471523341123, -11971.974309918203, -2007.5219282534038, -3877.5582763622137, -14845.536928836935, 187500.0, -0.07200000000000001, 0.978, 0.032, 192.0, 0.0, 0.0, 0.0, 0.0, 0.0, 0.0, 0.0, 0.0, 0.0, 1.700945213282316E9, 0.0, 2023-11-25 15:46:53.282
20.0, 71795.59133000272, 81330.57729370325, -15101.08442319446, -12426.608792139148, -2568.975397226262, -4308.723426905087, -14830.851832729797, 187500.0, -0.07200000000000001, 0.978, 0.032, 192.0, 0.0, 0.0, 0.0, 0.0, 0.0, 0.0, 0.0, 0.0, 0.0, 1.700945213286358E9, 0.0, 2023-11-25 15:46:53.286
21.0, 71795.52427476934, 81309.20902600397, -14377.133772031519, -11361.279947910303, -1333.1250945478791, -3544.7855049116024, -14773.631366924212, 187500.0, -0.07200000000000001, 0.978, 0.032, 192.0, 0.0, 0.0, 0.0, 0.0, 0.0, 0.0, 0.0, 0.0, 0.0, 1.700945213290346E9, 0.0, 2023-11-25 15:46:53.290
22.0, 71777.195844316, 81273.46858661993, -14512.317122497216, -11354.82029376272, -1228.9212618972376, -3524.8924523463793, -14845.067542203373, 187500.0, -0.07200000000000001, 0.978, 0.032, 192.0, 0.0, 0.0, 0.0, 0.0, 0.0, 0.0, 0.0, 0.0, 0.0, 1.700945213294364E9, 0.0, 2023-11-25 15:46:53.294
23.0, 71763.60598368717, 81274.1838424425, -14887.267635734992, -11845.955174679182, -1850.165647288042, -3787.2572287627736, -14836.439768843624, 187500.0, -0.07200000000000001, 0.978, 0.032, 192.0, 0.0, 0.0, 0.0, 0.0, 0.0, 0.0, 0.0, 0.0, 0.0, 1.700945213297433E9, 0.0, 2023-11-25 15:46:53.297
24.0, 71777.93345188301, 81304.42575269053, -15172.721764173719, -12459.689373933003, -2618.0151245612055, -4312.90320311823, -14848.152082938204, 187500.0, -0.07200000000000001, 0.978, 0.032, 192.0, 0.0, 0.0, 0.0, 0.0, 0.0, 0.0, 0.0, 0.0, 0.0, 1.700945213301373E9, 0.0, 2023-11-25 15:46:53.301
25.0, 71785.55539674227, 81305.29747072428, -14470.228787687873, -11549.861615879729, -1548.0147657412012, -3686.3167508026067, -14767.484637199002, 187500.0, -0.07200000000000001, 0.978, 0.032, 192.0, 0.0, 0.0, 0.0, 0.0, 0.0, 0.0, 0.0, 0.0, 0.0, 1.70094521330636E9, 0.0, 2023-11-25 15:46:53.306
26.0, 71781.37562052913, 81280.5317378678, -14448.212319399396, -11260.250062972316, -1142.9341009776713, -3459.7147655147037, -14840.328972378848, 187500.0, -0.07200000000000001, 0.978, 0.032, 192.0, 0.0, 0.0, 0.0, 0.0, 0.0, 0.0, 0.0, 0.0, 0.0, 1.700945213310407E9, 0.0, 2023-11-25 15:46:53.310
27.0, 71783.29787055228, 81292.82519731822, -14804.49912601699, -11749.485045610076, -1704.4769769283507, -3729.6791350459025, -14826.94027745012, 187500.0, -0.07200000000000001, 0.978, 0.032, 192.0, 0.0, 0.0, 0.0, 0.0, 0.0, 0.0, 0.0, 0.0, 0.0, 1.700945213314365E9, 0.0, 2023-11-25 15:46:53.314
28.0, 71793.15498985708, 81310.21485450445, -15182.28831080059, -12423.188975237486, -2567.589589070033, -4269.160839219194, -14857.204539442604, 187500.0, -0.076, 0.98, 0.034, 192.0, 253.0, 160.0, 30.0, 160.0, 1.0, 16.0, 0.0, 0.0, 0.0, 1.700945213318407E9, 0.0, 2023-11-25 15:46:53.318
29.0, 71800.91104518308, 81312.45002894998, -14575.50550407237, -11760.459752137633, -1770.1911056269535, -3841.169636388974, -14774.771305891432, 187500.0, -0.076, 0.98, 0.034, 192.0, 0.0, 0.0, 0.0, 0.0, 0.0, 0.0, 0.0, 0.0, 0.0, 1.700945213321418E9, 0.0, 2023-11-25 15:46:53.321
30.0, 71801.71570798346, 81295.2391857194, -14373.736306874313, -11197.352254075082, -1067.6757773966524, -3415.033628348545, -14828.147271650705, 187500.0, -0.076, 0.98, 0.034, 192.0, 0.0, 0.0, 0.0, 0.0, 0.0, 0.0, 0.0, 0.0, 0.0, 1.700945213325473E9, 0.0, 2023-11-25 15:46:53.325
31.0, 71789.75752469987, 81287.79605481579, -14713.05813945033, -11656.412381698177, -1559.056527502123, -3677.5548669761265, -14820.771195980455, 187500.0, -0.076, 0.98, 0.034, 192.0, 0.0, 0.0, 0.0, 0.0, 0.0, 0.0, 0.0, 0.0, 0.0, 1.700945213329526E9, 0.0, 2023-11-25 15:46:53.329
32.0, 71786.44946652048, 81301.60943288916, -15149.878281340396, -12332.150320071021, -2452.299291169559, -4177.585742185801, -14857.293946420426, 187500.0, -0.076, 0.98, 0.034, 192.0, 0.0, 0.0, 0.0, 0.0, 0.0, 0.0, 0.0, 0.0, 0.0, 1.700945213334491E9, 0.0, 2023-11-25 15:46:53.334
33.0, 71797.51358002587, 81311.86888359414, -14713.304008639338, -11997.455298597253, -2029.516044797426, -4018.1731007305507, -14776.850018125775, 187500.0, -0.076, 0.98, 0.034, 192.0, 0.0, 0.0, 0.0, 0.0, 0.0, 0.0, 0.0, 0.0, 0.0, 1.700945213338455E9, 0.0, 2023-11-25 15:46:53.338
34.0, 71803.86147545118, 81301.74354335589, -14315.778233501702, -11145.742076127777, -1032.8517595352841, -3382.578895399439, -14811.07053888685, 187500.0, -0.076, 0.98, 0.034, 192.0, 0.0, 0.0, 0.0, 0.0, 0.0, 0.0, 0.0, 0.0, 0.0, 1.700945213342513E9, 0.0, 2023-11-25 15:46:53.342
35.0, 71787.79057118781, 81281.06817973474, -14658.966917868485, -11584.216247107535, -1459.2336367647215, -3648.832875351057, -14829.622486784756, 187500.0, -0.076, 0.98, 0.034, 192.0, 0.0, 0.0, 0.0, 0.0, 0.0, 0.0, 0.0, 0.0, 0.0, 1.700945213346856E9, 0.0, 2023-11-25 15:46:53.346
36.0, 71768.16573955605, 81281.40345590156, -15089.84149573344, -12179.845533352558, -2284.661207754756, -4047.967976089475, -14847.347420137814, 187500.0, -0.076, 0.98, 0.034, 192.0, 0.0, 0.0, 0.0, 0.0, 0.0, 0.0, 0.0, 0.0, 0.0, 1.700945213350518E9, 0.0, 2023-11-25 15:46:53.350
37.0, 71775.87709139312, 81290.07593275022, -14868.782743070453, -12156.867940052503, -2247.512608470036, -4133.038715486374, -14805.773175450942, 187500.0, -0.076, 0.98, 0.034, 192.0, 0.0, 0.0, 0.0, 0.0, 0.0, 0.0, 0.0, 0.0, 0.0, 1.700945213353551E9, 0.0, 2023-11-25 15:46:53.353
38.0, 71787.45529502098, 81283.52687162482, -14318.974532958811, -11161.54475945768, -1083.2996467709122, -3402.874279364858, -14814.043320899407, 187500.0, -0.07200000000000001, 0.984, 0.034, 192.0, 253.0, 192.0, 30.0, 192.0, 1.0, 16.0, 0.0, 0.0, 0.0, 1.700945213357512E9, 0.0, 2023-11-25 15:46:53.357
39.0, 71790.80805668927, 81275.41318838754, -14606.708539331978, -11504.241705446448, -1370.5195630216078, -3602.9447439843116, -14834.562222309378, 187500.0, -0.07200000000000001, 0.984, 0.034, 192.0, 0.0, 0.0, 0.0, 0.0, 0.0, 0.0, 0.0, 0.0, 0.0, 1.700945213362548E9, 0.0, 2023-11-25 15:46:53.362
40.0, 71788.43877177702, 81298.27902296532, -15019.969942566151, -12061.962433095268, -2126.8578919002885, -3946.9157394070317, -14835.299829876403, 187500.0, -0.07200000000000001, 0.984, 0.034, 192.0, 0.0, 0.0, 0.0, 0.0, 0.0, 0.0, 0.0, 0.0, 0.0, 1.700945213366589E9, 0.0, 2023-11-25 15:46:53.366
41.0, 71800.08403063823, 81308.29260448129, -14987.112878216849, -12328.931668869456, -2426.9300612127854, -4244.864492996275, -14800.565218992857, 187500.0, -0.07200000000000001, 0.984, 0.034, 192.0, 0.0, 0.0, 0.0, 0.0, 0.0, 0.0, 0.0, 0.0, 0.0, 1.700945213371596E9, 0.0, 2023-11-25 15:46:53.371
42.0, 71803.5485510288, 81296.02149677533, -14307.038701419677, -11208.326960602637, -1142.5317695774759, -3428.7575994441036, -14772.960814590553, 187500.0, -0.07200000000000001, 0.984, 0.034, 192.0, 0.0, 0.0, 0.0, 0.0, 0.0, 0.0, 0.0, 0.0, 0.0, 1.700945213375633E9, 0.0, 2023-11-25 15:46:53.375
43.0, 71793.93730091302, 81275.65905757654, -14547.632878736602, -11395.522820415834, -1262.7394512581172, -3542.729144421714, -14835.769216509965, 187500.0, -0.07200000000000001, 0.984, 0.034, 192.0, 0.0, 0.0, 0.0, 0.0, 0.0, 0.0, 0.0, 0.0, 0.0, 1.700945213378624E9, 0.0, 2023-11-25 15:46:53.378
44.0, 71786.78474268732, 81281.49286287939, -14948.176139375704, -11930.333009997967, -1963.6231021431809, -3845.550578302214, -14828.393140839713, 187500.0, -0.07200000000000001, 0.984, 0.034, 192.0, 0.0, 0.0, 0.0, 0.0, 0.0, 0.0, 0.0, 0.0, 0.0, 1.700945213381986E9, 0.0, 2023-11-25 15:46:53.381
45.0, 71792.79736194579, 81297.76493284285, -15098.961007471205, -12413.577725121704, -2550.6022632839995, -4297.145223277238, -14822.022893669951, 187500.0, -0.07200000000000001, 0.984, 0.034, 192.0, 0.0, 0.0, 0.0, 0.0, 0.0, 0.0, 0.0, 0.0, 0.0, 1.700945213385644E9, 0.0, 2023-11-25 15:46:53.385
46.0, 71786.36005954267, 81286.76787457084, -14377.044365053698, -11356.608433319145, -1324.8102456105048, -3541.0974670764767, -14767.708154643555, 187500.0, -0.07200000000000001, 0.984, 0.034, 192.0, 0.0, 0.0, 0.0, 0.0, 0.0, 0.0, 0.0, 0.0, 0.0, 1.700945213389732E9, 0.0, 2023-11-25 15:46:53.389
47.0, 71784.5942717307, 81266.04780746077, -14499.621331646602, -11324.556031770235, -1190.6103719008413, -3500.730216590192, -14842.27357414646, 187500.0, -0.07200000000000001, 0.984, 0.034, 192.0, 0.0, 0.0, 0.0, 0.0, 0.0, 0.0, 0.0, 0.0, 0.0, 1.70094521339467E9, 0.0, 2023-11-25 15:46:53.394
48.0, 71780.5486059843, 81272.93214475301, -14872.739001839043, -11818.797805165983, -1808.9713822569113, -3771.8121733441562, -14830.896536218708, 187500.0, -0.078, 0.984, 0.04, 192.0, 253.0, 144.0, 30.0, 192.0, 1.0, 64.0, 0.0, 0.0, 0.0, 1.700945213399663E9, 0.0, 2023-11-25 15:46:53.399
49.0, 71778.46989374995, 81279.92824076752, -15170.307775772546, -12425.379446194107, -2582.006464243706, -4288.763319106498, -14852.331859151347, 187500.0, -0.078, 0.984, 0.04, 192.0, 0.0, 0.0, 0.0, 0.0, 0.0, 0.0, 0.0, 0.0, 0.0, 1.700945213403701E9, 0.0, 2023-11-25 15:46:53.403
50.0, 71783.72255369695, 81274.27324942032, -14482.857523305122, -11557.125932827705, -1553.3568326660197, -3688.1272421034864, -14773.698422157577, 187500.0, -0.078, 0.984, 0.04, 192.0, 0.0, 0.0, 0.0, 0.0, 0.0, 0.0, 0.0, 0.0, 0.0, 1.700945213406653E9, 0.0, 2023-11-25 15:46:53.406
51.0, 71785.95772814247, 81261.1304236806, -14430.085054646142, -11233.450321370403, -1113.5862605078532, -3442.4592187952067, -14833.869318231264, 187500.0, -0.078, 0.984, 0.04, 192.0, 0.0, 0.0, 0.0, 0.0, 0.0, 0.0, 0.0, 0.0, 0.0, 1.700945213409696E9, 0.0, 2023-11-25 15:46:53.409
52.0, 71772.05494309127, 81254.15667941055, -14789.299939787381, -11705.630922988765, -1664.7355752868148, -3703.885221944478, -14830.471853074057, 187500.0, -0.078, 0.984, 0.04, 192.0, 0.0, 0.0, 0.0, 0.0, 0.0, 0.0, 0.0, 0.0, 0.0, 1.700945213413804E9, 0.0, 2023-11-25 15:46:53.413
53.0, 71775.27359429284, 81267.12069119462, -15176.812133409041, -12377.054974681732, -2531.4021147968906, -4224.233832864026, -14854.32116440787, 187500.0, -0.078, 0.984, 0.04, 192.0, 0.0, 0.0, 0.0, 0.0, 0.0, 0.0, 0.0, 0.0, 0.0, 1.700945213419768E9, 0.0, 2023-11-25 15:46:53.419
54.0, 71780.50390249537, 81265.3325516382, -14605.12156547565, -11780.866894825327, -1802.4670246204169, -3852.8595987390995, -14779.889855371697, 187500.0, -0.078, 0.984, 0.04, 192.0, 0.0, 0.0, 0.0, 0.0, 0.0, 0.0, 0.0, 0.0, 0.0, 1.700945213423516E9, 0.0, 2023-11-25 15:46:53.423
55.0, 71777.0393821048, 81241.52794379329, -14376.88790284251, -11156.806189633155, -1050.6213963772532, -3384.2776279780423, -14838.876108989252, 187500.0, -0.078, 0.984, 0.04, 192.0, 0.0, 0.0, 0.0, 0.0, 0.0, 0.0, 0.0, 0.0, 0.0, 1.700945213426741E9, 0.0, 2023-11-25 15:46:53.426
56.0, 71771.67496343554, 81239.89626644806, -14734.180537960594, -11628.025666239939, -1553.0439082436453, -3657.0359655661546, -14845.045190458917, 187500.0, -0.078, 0.984, 0.04, 192.0, 0.0, 0.0, 0.0, 0.0, 0.0, 0.0, 0.0, 0.0, 0.0, 1.700945213430739E9, 0.0, 2023-11-25 15:46:53.430
57.0, 71767.18226280001, 81252.5250020653, -15164.362211747433, -12314.157165784498, -2447.270148667115, -4156.820971586821, -14865.251167446515, 187500.0, -0.08, 0.986, 0.036000000000000004, 192.0, 253.0, 128.0, 30.0, 208.0, 1.0, 32.0, 0.0, 0.0, 0.0, 1.700945213433757E9, 0.0, 2023-11-25 15:46:53.433
58.0, 71768.72453316743, 81249.66397877503, -14753.581852147801, -11996.829449752504, -2054.3264811428166, -4003.5550598567797, -14796.474849757535, 187500.0, -0.08, 0.986, 0.036000000000000004, 192.0, 0.0, 0.0, 0.0, 0.0, 0.0, 0.0, 0.0, 0.0, 0.0, 1.700945213437756E9, 0.0, 2023-11-25 15:46:53.437
59.0, 71784.90719615307, 81246.89236246257, -14353.955013031366, -11154.25809076525, -1060.0091290484822, -3384.2999797224975, -14836.037437443429, 187500.0, -0.08, 0.986, 0.036000000000000004, 192.0, 0.0, 0.0, 0.0, 0.0, 0.0, 0.0, 0.0, 0.0, 0.0, 1.700945213441763E9, 0.0, 2023-11-25 15:46:53.441
60.0, 71765.70704766596, 81222.86423717311, -14677.943548911042, -11579.030642393906, -1464.3968897338975, -3639.2216252352746, -14845.872205003763, 187500.0, -0.08, 0.986, 0.036000000000000004, 192.0, 0.0, 0.0, 0.0, 0.0, 0.0, 0.0, 0.0, 0.0, 0.0, 1.700945213445831E9, 0.0, 2023-11-25 15:46:53.445
61.0, 71759.9850010854, 81241.66205426003, -15108.460498864712, -12178.347966474053, -2284.281228099016, -4031.472388681458, -14863.664193590188, 187500.0, -0.08, 0.986, 0.036000000000000004, 192.0, 0.0, 0.0, 0.0, 0.0, 0.0, 0.0, 0.0, 0.0, 0.0, 1.700945213449872E9, 0.0, 2023-11-25 15:46:53.449
62.0, 71761.30375400827, 81246.15475489554, -14897.147106784238, -12185.656986910939, -2276.6145797508457, -4139.408962656136, -14811.964608665063, 187500.0, -0.08, 0.986, 0.036000000000000004, 192.0, 0.0, 0.0, 0.0, 0.0, 0.0, 0.0, 0.0, 0.0, 0.0, 1.700945213454857E9, 0.0, 2023-11-25 15:46:53.454
63.0, 71765.81880638824, 81235.13534487908, -14333.41375987694, -11172.385355518503, -1095.3919405212332, -3395.9228868392574, -14818.737187235021, 187500.0, -0.08, 0.986, 0.036000000000000004, 192.0, 0.0, 0.0, 0.0, 0.0, 0.0, 0.0, 0.0, 0.0, 0.0, 1.700945213458921E9, 0.0, 2023-11-25 15:46:53.458
64.0, 71755.15702428306, 81213.05182135724, -14633.105949533696, -11526.593449901755, -1388.803289986049, -3625.318840184074, -14858.255071432004, 187500.0, -0.08, 0.986, 0.036000000000000004, 192.0, 0.0, 0.0, 0.0, 0.0, 0.0, 0.0, 0.0, 0.0, 0.0, 1.700945213461812E9, 0.0, 2023-11-25 15:46:53.461
65.0, 71738.57202989722, 81213.23063531288, -15045.048599845006, -12067.997404098202, -2129.696563446112, -3944.5688062392246, -14862.926586023163, 187500.0, -0.08, 0.986, 0.036000000000000004, 192.0, 0.0, 0.0, 0.0, 0.0, 0.0, 0.0, 0.0, 0.0, 0.0, 1.700945213465836E9, 0.0, 2023-11-25 15:46:53.465
66.0, 71742.59534389917, 81224.85354242964, -15032.68808516122, -12325.668314178982, -2447.7171835562212, -4229.0841614108285, -14833.064655430873, 187500.0, -0.08, 0.986, 0.036000000000000004, 192.0, 0.0, 0.0, 0.0, 0.0, 0.0, 0.0, 0.0, 0.0, 0.0, 1.700945213469847E9, 0.0, 2023-11-25 15:46:53.469
67.0, 71747.78094861281, 81218.19272258195, -14355.69844909888, -11228.443530612414, -1180.8873630627827, -3429.5622622444944, -14804.365015550258, 187500.0, -0.08, 0.984, 0.034, 192.0, 253.0, 128.0, 30.0, 192.0, 1.0, 16.0, 0.0, 0.0, 0.0, 1.700945213473867E9, 0.0, 2023-11-25 15:46:53.473
68.0, 71751.04430330328, 81204.80402765323, -14589.050661212286, -11421.74141666191, -1291.5284981165528, -3551.3345660370073, -14872.649594861221, 187500.0, -0.08, 0.984, 0.034, 192.0, 0.0, 0.0, 0.0, 0.0, 0.0, 0.0, 0.0, 0.0, 0.0, 1.700945213477901E9, 0.0, 2023-11-25 15:46:53.477
69.0, 71742.77415785482, 81209.9672806224, -14977.479276356611, -11939.944260113747, -1971.0885847912534, -3847.3387178586386, -14861.98781275604, 187500.0, -0.08, 0.984, 0.034, 192.0, 0.0, 0.0, 0.0, 0.0, 0.0, 0.0, 0.0, 0.0, 0.0, 1.700945213482996E9, 0.0, 2023-11-25 15:46:53.482
70.0, 71750.35139922517, 81222.21603658391, -15135.975496289195, -12423.032513026299, -2564.2815308906474, -4290.6632173851995, -14844.84402475882, 187500.0, -0.08, 0.984, 0.034, 192.0, 0.0, 0.0, 0.0, 0.0, 0.0, 0.0, 0.0, 0.0, 0.0, 1.700945213486984E9, 0.0, 2023-11-25 15:46:53.486
71.0, 71754.70998939396, 81222.171333095, -14406.548667734703, -11391.387747691602, -1356.2144465702113, -3554.8437899164906, -14777.006480336962, 187500.0, -0.08, 0.984, 0.034, 192.0, 0.0, 0.0, 0.0, 0.0, 0.0, 0.0, 0.0, 0.0, 0.0, 1.700945213489955E9, 0.0, 2023-11-25 15:46:53.489
72.0, 71739.95783805345, 81196.8691583716, -14511.959494585932, -11327.662924249522, -1193.9854853135926, -3496.729254332692, -14850.476664361557, 187500.0, -0.08, 0.984, 0.034, 192.0, 0.0, 0.0, 0.0, 0.0, 0.0, 0.0, 0.0, 0.0, 0.0, 1.700945213493938E9, 0.0, 2023-11-25 15:46:53.493
73.0, 71727.30675069174, 81197.91969036098, -14884.98775780055, -11820.451834255677, -1805.395103144062, -3769.979330298821, -14845.626335814755, 187500.0, -0.08, 0.984, 0.034, 192.0, 0.0, 0.0, 0.0, 0.0, 0.0, 0.0, 0.0, 0.0, 0.0, 1.700945213497926E9, 0.0, 2023-11-25 15:46:53.497
74.0, 71744.69640787797, 81227.08871687517, -15192.436002783299, -12460.583443711215, -2600.3125429526026, -4310.623325183788, -14858.210367943093, 187500.0, -0.08, 0.984, 0.034, 192.0, 0.0, 0.0, 0.0, 0.0, 0.0, 0.0, 0.0, 0.0, 0.0, 1.700945213501901E9, 0.0, 2023-11-25 15:46:53.501
75.0, 71750.8878410921, 81226.55227500825, -14503.666997393013, -11601.29297987139, -1583.9340190808796, -3720.2466988857627, -14773.474904713024, 187500.0, -0.08, 0.984, 0.034, 192.0, 0.0, 0.0, 0.0, 0.0, 0.0, 0.0, 0.0, 0.0, 0.0, 1.700945213505942E9, 0.0, 2023-11-25 15:46:53.505
76.0, 71744.27172473332, 81203.73114391937, -14444.703095519913, -11229.292896901716, -1106.5007575155207, -3436.0442681365334, -14852.89065276273, 187500.0, -0.08, 0.984, 0.034, 192.0, 0.0, 0.0, 0.0, 0.0, 0.0, 0.0, 0.0, 0.0, 0.0, 1.70094521350998E9, 0.0, 2023-11-25 15:46:53.509
77.0, 71727.15028848057, 81195.68451591546, -14811.942256920607, -11718.103196394826, -1667.4177846214516, -3709.6743237584024, -14847.481530604546, 187500.0, -0.078, 0.986, 0.032, 192.0, 253.0, 144.0, 30.0, 208.0, 1.0, 0.0, 0.0, 0.0, 0.0, 1.700945213514982E9, 0.0, 2023-11-25 15:46:53.514
78.0, 71720.86944828862, 81200.66895492899, -15209.378625080422, -12395.517515601816, -2547.562426038078, -4239.365963860269, -14872.649594861221, 187500.0, -0.078, 0.986, 0.032, 192.0, 0.0, 0.0, 0.0, 0.0, 0.0, 0.0, 0.0, 0.0, 0.0, 1.700945213518034E9, 0.0, 2023-11-25 15:46:53.518
79.0, 71731.3300646937, 81201.92065261849, -14644.61709792818, -11817.233183054112, -1841.1131907836427, -3882.632122353569, -14791.490410744002, 187500.0, -0.078, 0.986, 0.032, 192.0, 0.0, 0.0, 0.0, 0.0, 0.0, 0.0, 0.0, 0.0, 0.0, 1.70094521352204E9, 0.0, 2023-11-25 15:46:53.522
80.0, 71734.0793292617, 81180.48532968585, -14397.697376930402, -11175.246378808783, -1066.178210518147, -3398.448633962707, -14848.934393994141, 187500.0, -0.078, 0.986, 0.032, 192.0, 0.0, 0.0, 0.0, 0.0, 0.0, 0.0, 0.0, 0.0, 0.0, 1.700945213526076E9, 0.0, 2023-11-25 15:46:53.526
81.0, 71721.11531747763, 81171.29876271472, -14754.58768064829, -11653.64076538572, -1564.0409665156565, -3675.6773204418805, -14859.059734232394, 187500.0, -0.078, 0.986, 0.032, 192.0, 0.0, 0.0, 0.0, 0.0, 0.0, 0.0, 0.0, 0.0, 0.0, 1.700945213529994E9, 0.0, 2023-11-25 15:46:53.529
82.0, 71718.79073605427, 81189.3142687457, -15194.179438850813, -12314.447738462417, -2444.0962009544614, -4162.922997823119, -14895.336615483358, 187500.0, -0.078, 0.986, 0.032, 192.0, 0.0, 0.0, 0.0, 0.0, 0.0, 0.0, 0.0, 0.0, 0.0, 1.700945213534147E9, 0.0, 2023-11-25 15:46:53.534
83.0, 71731.79945132726, 81197.91969036098, -14797.21245732456, -12038.336639206009, -2094.4702141845482, -4043.3411649872264, -14814.199783110595, 187500.0, -0.078, 0.986, 0.032, 192.0, 0.0, 0.0, 0.0, 0.0, 0.0, 0.0, 0.0, 0.0, 0.0, 1.700945213538059E9, 0.0, 2023-11-25 15:46:53.538
84.0, 71743.04237878829, 81194.99161183735, -14354.312640942651, -11143.283384237693, -1049.8614370657726, -3377.996787786101, -14834.606925798289, 187500.0, -0.078, 0.986, 0.032, 192.0, 0.0, 0.0, 0.0, 0.0, 0.0, 0.0, 0.0, 0.0, 0.0, 1.700945213542046E9, 0.0, 2023-11-25 15:46:53.542
85.0, 71737.61090488565, 81188.10727454511, -14689.275883349883, -11573.889741169185, -1457.3337384860206, -3645.882445082956, -14861.496074378023, 187500.0, -0.078, 0.986, 0.032, 192.0, 0.0, 0.0, 0.0, 0.0, 0.0, 0.0, 0.0, 0.0, 0.0, 1.700945213545098E9, 0.0, 2023-11-25 15:46:53.545
86.0, 71729.6313321151, 81198.12085606108, -15127.124205484894, -12182.728908387293, -2281.464908297647, -4049.1079150566957, -14876.628205374267, 187500.0, -0.078, 0.986, 0.032, 192.0, 0.0, 0.0, 0.0, 0.0, 0.0, 0.0, 0.0, 0.0, 0.0, 1.700945213550328E9, 0.0, 2023-11-25 15:46:53.550
87.0, 71737.09681476316, 81200.93717586246, -14935.636810736278, -12225.711312974849, -2310.4551208561807, -4181.944332354586, -14825.487414060524, 187500.0, -0.082, 0.982, 0.034, 192.0, 253.0, 112.0, 30.0, 176.0, 1.0, 16.0, 0.0, 0.0, 0.0, 1.700945213554209E9, 0.0, 2023-11-25 15:46:53.554
88.0, 71730.86067806014, 81179.12187327408, -14350.870472296534, -11175.559303231157, -1096.9565626331048, -3402.8295758759473, -14832.215289141572, 187500.0, -0.082, 0.982, 0.034, 192.0, 0.0, 0.0, 0.0, 0.0, 0.0, 0.0, 0.0, 0.0, 0.0, 1.700945213558222E9, 0.0, 2023-11-25 15:46:53.558
89.0, 71719.46128838793, 81164.19090797793, -14646.181720040051, -11508.71205433751, -1372.2406473446665, -3608.7114940537804, -14875.935301296151, 187500.0, -0.082, 0.982, 0.034, 192.0, 0.0, 0.0, 0.0, 0.0, 0.0, 0.0, 0.0, 0.0, 0.0, 1.700945213562198E9, 0.0, 2023-11-25 15:46:53.562
90.0, 71705.26793065881, 81174.47271042738, -15062.751181453608, -12074.68057569034, -2128.8919006457213, -3956.7281552229115, -14880.47270542058, 187500.0, -0.082, 0.982, 0.034, 192.0, 0.0, 0.0, 0.0, 0.0, 0.0, 0.0, 0.0, 0.0, 0.0, 1.700945213566233E9, 0.0, 2023-11-25 15:46:53.566
91.0, 71722.34466342267, 81196.6679926715, -15070.618995501876, -12382.732317773382, -2491.6607131553546, -4288.271580728481, -14851.527196350957, 187500.0, -0.082, 0.982, 0.034, 192.0, 0.0, 0.0, 0.0, 0.0, 0.0, 0.0, 0.0, 0.0, 0.0, 1.700945213569243E9, 0.0, 2023-11-25 15:46:53.569
92.0, 71723.05991924524, 81183.18989076494, -14376.865551098055, -11276.388022469047, -1218.4382937476987, -3487.5203356171055, -14814.088024388317, 187500.0, -0.082, 0.982, 0.034, 192.0, 0.0, 0.0, 0.0, 0.0, 0.0, 0.0, 0.0, 0.0, 0.0, 1.700945213574267E9, 0.0, 2023-11-25 15:46:53.574
93.0, 71704.50797134734, 81149.05877698169, -14587.866018756155, -11422.233155039925, -1285.7170445581728, -3570.4229558018396, -14867.307527936404, 187500.0, -0.082, 0.982, 0.034, 192.0, 0.0, 0.0, 0.0, 0.0, 0.0, 0.0, 0.0, 0.0, 0.0, 1.700945213578235E9, 0.0, 2023-11-25 15:46:53.578
94.0, 71689.84522698465, 81158.9605997754, -14979.267415913037, -11927.3155244965, -1951.4637531594938, -3850.356203360105, -14863.686545334644, 187500.0, -0.082, 0.982, 0.034, 192.0, 0.0, 0.0, 0.0, 0.0, 0.0, 0.0, 0.0, 0.0, 0.0, 1.700945213582272E9, 0.0, 2023-11-25 15:46:53.582
95.0, 71703.14451493556, 81184.19571926544, -15159.601290178454, -12432.487300930894, -2576.6196938299768, -4305.594182681344, -14859.529120865956, 187500.0, -0.082, 0.982, 0.034, 192.0, 0.0, 0.0, 0.0, 0.0, 0.0, 0.0, 0.0, 0.0, 0.0, 1.700945213586282E9, 0.0, 2023-11-25 15:46:53.586
96.0, 71714.38744239658, 81182.07230354218, -14425.167670865974, -11401.423680952035, -1378.0744526475016, -3568.8583336899683, -14788.517628731446, 187500.0, -0.082, 0.982, 0.034, 192.0, 0.0, 0.0, 0.0, 0.0, 0.0, 0.0, 0.0, 0.0, 0.0, 1.700945213589328E9, 0.0, 2023-11-25 15:46:53.589
97.0, 71706.81020102624, 81153.03738749474, -14516.340436499171, -11306.33936003916, -1184.6648078757296, -3490.962504263223, -14863.977118012563, 187500.0, -0.082, 0.982, 0.036000000000000004, 192.0, 253.0, 112.0, 30.0, 176.0, 1.0, 32.0, 0.0, 0.0, 0.0, 1.70094521359339E9, 0.0, 2023-11-25 15:46:53.593
98.0, 71694.36027936463, 81154.37849216205, -14890.285121236459, -11805.72203465963, -1791.8722977486013, -3767.4535831753715, -14856.824559786864, 187500.0, -0.082, 0.982, 0.036000000000000004, 192.0, 0.0, 0.0, 0.0, 0.0, 0.0, 0.0, 0.0, 0.0, 0.0, 1.700945213598297E9, 0.0, 2023-11-25 15:46:53.598
99.0, 71712.62165458461, 81180.73119887486, -15208.395148324389, -12440.019838812334, -2592.1541562264156, -4297.480499444067, -14870.459123904602, 187500.0, -0.082, 0.982, 0.036000000000000004, 192.0, 0.0, 0.0, 0.0, 0.0, 0.0, 0.0, 0.0, 0.0, 0.0, 1.700945213602313E9, 0.0, 2023-11-25 15:46:53.602
100.0, 71721.62940760009, 81181.17823376396, -14530.667904695023, -11621.163680692158, -1613.5947839730723, -3746.7111643208464, -14783.667300184645, 187500.0, -0.082, 0.982, 0.036000000000000004, 192.0, 0.0, 0.0, 0.0, 0.0, 0.0, 0.0, 0.0, 0.0, 0.0, 1.700945213606319E9, 0.0, 2023-11-25 15:46:53.606
101.0, 71709.29124466077, 81154.24438169532, -14450.715714778391, -11237.69715281691, -1110.8593476843057, -3458.060736425011, -14853.963536496585, 187500.0, -0.082, 0.982, 0.036000000000000004, 192.0, 0.0, 0.0, 0.0, 0.0, 0.0, 0.0, 0.0, 0.0, 0.0, 1.700945213610305E9, 0.0, 2023-11-25 15:46:53.610
102.0, 71685.12900890458, 81141.92857050044, -14813.417472054658, -11708.156670112214, -1650.9221972134349, -3715.172852894408, -14860.5573011109, 187500.0, -0.082, 0.982, 0.036000000000000004, 192.0, 0.0, 0.0, 0.0, 0.0, 0.0, 0.0, 0.0, 0.0, 0.0, 1.700945213614435E9, 0.0, 2023-11-25 15:46:53.614
103.0, 71701.69165154596, 81172.10342551512, -15219.034578685116, -12386.733280030881, -2535.112504376472, -4241.22115865006, -14894.33078698287, 187500.0, -0.082, 0.982, 0.036000000000000004, 192.0, 0.0, 0.0, 0.0, 0.0, 0.0, 0.0, 0.0, 0.0, 0.0, 1.700945213617422E9, 0.0, 2023-11-25 15:46:53.617
104.0, 71717.02494824231, 81176.28320172825, -14666.767676683388, -11844.234090356123, -1869.9692928754441, -3912.3375907346717, -14807.091928373806, 187500.0, -0.082, 0.982, 0.036000000000000004, 192.0, 0.0, 0.0, 0.0, 0.0, 0.0, 0.0, 0.0, 0.0, 0.0, 1.700945213621363E9, 0.0, 2023-11-25 15:46:53.621
105.0, 71704.06093645823, 81140.11807919957, -14401.85480139909, -11161.656518179956, -1059.7632598594737, -3400.7955671305144, -14866.435809902647, 187500.0, -0.082, 0.982, 0.036000000000000004, 192.0, 0.0, 0.0, 0.0, 0.0, 0.0, 0.0, 0.0, 0.0, 0.0, 1.700945213627405E9, 0.0, 2023-11-25 15:46:53.627
106.0, 71697.10954393263, 81140.27454141075, -14752.128988758206, -11627.891555773205, -1541.5104081047068, -3673.3527390185286, -14866.905196536209, 187500.0, -0.082, 0.982, 0.036000000000000004, 192.0, 0.0, 0.0, 0.0, 0.0, 0.0, 0.0, 0.0, 0.0, 0.0, 1.70094521363039E9, 0.0, 2023-11-25 15:46:53.630
107.0, 71698.20477941094, 81159.72055908687, -15187.295101558579, -12280.651900845993, -2414.591898273456, -4138.805465555843, -14890.41923170319, 187500.0, -0.078, 0.982, 0.034, 192.0, 253.0, 144.0, 30.0, 176.0, 1.0, 16.0, 0.0, 0.0, 0.0, 1.700945213634432E9, 0.0, 2023-11-25 15:46:53.634
108.0, 71698.89768348905, 81157.66419859699, -14813.64098949921, -12037.643735127895, -2110.541118447914, -4048.2138452784834, -14813.93156217713, 187500.0, -0.078, 0.982, 0.034, 192.0, 0.0, 0.0, 0.0, 0.0, 0.0, 0.0, 0.0, 0.0, 0.0, 1.700945213638445E9, 0.0, 2023-11-25 15:46:53.638
109.0, 71692.54978806374, 81136.07241345316, -14364.058001525165, -11120.953991526841, -1050.6213963772532, -3367.357357425375, -14835.210422898583, 187500.0, -0.078, 0.982, 0.034, 192.0, 0.0, 0.0, 0.0, 0.0, 0.0, 0.0, 0.0, 0.0, 0.0, 1.700945213641375E9, 0.0, 2023-11-25 15:46:53.641
110.0, 71682.96088969242, 81120.2473783788, -14699.468278821503, -11543.826644876795, -1447.7001366257832, -3629.9680030307777, -14859.953804010607, 187500.0, -0.078, 0.982, 0.034, 192.0, 0.0, 0.0, 0.0, 0.0, 0.0, 0.0, 0.0, 0.0, 0.0, 1.70094521364537E9, 0.0, 2023-11-25 15:46:53.645
111.0, 71687.58770079467, 81146.71184381389, -15140.579955646988, -12158.141989486456, -2274.379405305315, -4036.546234672813, -14884.965406056095, 187500.0, -0.078, 0.982, 0.034, 192.0, 0.0, 0.0, 0.0, 0.0, 0.0, 0.0, 0.0, 0.0, 0.0, 1.700945213649534E9, 0.0, 2023-11-25 15:46:53.649
112.0, 71704.03858471377, 81167.92364930197, -14969.075020441416, -12252.980441210324, -2351.9399585652304, -4211.538042013412, -14826.716760005565, 187500.0, -0.078, 0.982, 0.034, 192.0, 0.0, 0.0, 0.0, 0.0, 0.0, 0.0, 0.0, 0.0, 0.0, 1.700945213653404E9, 0.0, 2023-11-25 15:46:53.653
113.0, 71695.54492182075, 81147.69532056991, -14347.383600161505, -11168.11617232754, -1101.9857051355489, -3410.2280032906538, -14802.196896338093, 187500.0, -0.078, 0.982, 0.034, 192.0, 0.0, 0.0, 0.0, 0.0, 0.0, 0.0, 0.0, 0.0, 0.0, 1.700945213658484E9, 0.0, 2023-11-25 15:46:53.658
114.0, 71683.7208490039, 81129.81392500567, -14636.145786779618, -11466.958995694995, -1344.0103940976137, -3595.434557847328, -14851.862472517787, 187500.0, -0.078, 0.982, 0.034, 192.0, 0.0, 0.0, 0.0, 0.0, 0.0, 0.0, 0.0, 0.0, 0.0, 1.700945213662462E9, 0.0, 2023-11-25 15:46:53.662
115.0, 71686.31365136072, 81151.2492479383, -15053.02817261555, -12031.89933680288, -2092.3915019502047, -3937.639765458079, -14859.260899932493, 187500.0, -0.078, 0.982, 0.034, 192.0, 0.0, 0.0, 0.0, 0.0, 0.0, 0.0, 0.0, 0.0, 0.0, 1.700945213666517E9, 0.0, 2023-11-25 15:46:53.666
116.0, 71697.6236340551, 81162.60393412161, -15080.632577017854, -12373.948082202445, -2493.0241695671284, -4291.512583674501, -14837.020914199462, 187500.0, -0.078, 0.982, 0.034, 192.0, 0.0, 0.0, 0.0, 0.0, 0.0, 0.0, 0.0, 0.0, 0.0, 1.700945213669504E9, 0.0, 2023-11-25 15:46:53.669
117.0, 71703.14451493556, 81150.6010473491, -14374.853894097078, -11270.911845077497, -1218.4829972366092, -3489.0626059845217, -14796.340739290803, 187500.0, -0.074, 0.984, 0.03, 192.0, 253.0, 176.0, 30.0, 192.0, 0.0, 240.0, 0.0, 0.0, 0.0, 1.700945213673519E9, 0.0, 2023-11-25 15:46:53.673
118.0, 71699.90351198954, 81130.93151222843, -14570.811637736755, -11398.517954172845, -1256.100983154891, -3561.0575748750657, -14853.158873696195, 187500.0, -0.074, 0.984, 0.03, 192.0, 0.0, 0.0, 0.0, 0.0, 0.0, 0.0, 0.0, 0.0, 0.0, 1.700945213677489E9, 0.0, 2023-11-25 15:46:53.677
119.0, 71680.52454954678, 81131.42325060646, -14961.34131685988, -11904.963780041193, -1915.52214807536, -3841.549616044714, -14851.482492862046, 187500.0, -0.074, 0.984, 0.03, 192.0, 0.0, 0.0, 0.0, 0.0, 0.0, 0.0, 0.0, 0.0, 0.0, 1.700945213681494E9, 0.0, 2023-11-25 15:46:53.681
120.0, 71686.71598276091, 81146.30951241369, -15169.14548506087, -12431.8838038306, -2571.523496094167, -4314.0878455743605, -14860.758466810998, 187500.0, -0.074, 0.984, 0.03, 192.0, 0.0, 0.0, 0.0, 0.0, 0.0, 0.0, 0.0, 0.0, 0.0, 1.700945213686558E9, 0.0, 2023-11-25 15:46:53.686
121.0, 71687.76651475031, 81134.59719831911, -14445.798330998223, -11423.618963196155, -1399.867403491426, -3601.335418383529, -14800.095832359295, 187500.0, -0.074, 0.984, 0.03, 192.0, 0.0, 0.0, 0.0, 0.0, 0.0, 0.0, 0.0, 0.0, 0.0, 1.700945213690614E9, 0.0, 2023-11-25 15:46:53.690
122.0, 71688.61588103962, 81116.51463705476, -14518.843831878166, -11313.223697331394, -1182.5190404080201, -3512.666048129326, -14875.33180419586, 187500.0, -0.074, 0.984, 0.03, 192.0, 0.0, 0.0, 0.0, 0.0, 0.0, 0.0, 0.0, 0.0, 0.0, 1.700945213693516E9, 0.0, 2023-11-25 15:46:53.693
123.0, 71682.84913097013, 81127.1987709044, -14877.477571663569, -11798.301255500468, -1768.3135590927077, -3777.5118681802596, -14861.831350544853, 187500.0, -0.074, 0.984, 0.03, 192.0, 0.0, 0.0, 0.0, 0.0, 0.0, 0.0, 0.0, 0.0, 0.0, 1.700945213697546E9, 0.0, 2023-11-25 15:46:53.697
124.0, 71692.79565725275, 81143.82846877915, -15208.618665768941, -12431.727341619415, -2576.485583363245, -4301.794386123942, -14880.271539720481, 187500.0, -0.074, 0.984, 0.03, 192.0, 0.0, 0.0, 0.0, 0.0, 0.0, 0.0, 0.0, 0.0, 0.0, 1.700945213701667E9, 0.0, 2023-11-25 15:46:53.701
125.0, 71695.9249014765, 81131.89263724002, -14548.973983403921, -11625.499919116488, -1623.98834514479, -3755.5401033806925, -14799.000596880986, 187500.0, -0.074, 0.984, 0.03, 192.0, 0.0, 0.0, 0.0, 0.0, 0.0, 0.0, 0.0, 0.0, 0.0, 1.70094521370558E9, 0.0, 2023-11-25 15:46:53.705
126.0, 71695.16494216502, 81112.6924887529, -14457.376534626072, -11222.006228209286, -1101.4045597797108, -3451.6457857663377, -14877.477571663569, 187500.0, -0.074, 0.984, 0.03, 192.0, 0.0, 0.0, 0.0, 0.0, 0.0, 0.0, 0.0, 0.0, 0.0, 1.700945213709606E9, 0.0, 2023-11-25 15:46:53.709
127.0, 71672.41086630951, 81105.33876482712, -14806.086099873317, -11692.085765848848, -1627.0728858796224, -3711.4401115703718, -14864.5582633684, 187500.0, -0.076, 0.982, 0.024, 192.0, 253.0, 160.0, 30.0, 176.0, 0.0, 192.0, 0.0, 0.0, 0.0, 1.700945213713671E9, 0.0, 2023-11-25 15:46:53.713
128.0, 71670.667430242, 81115.77702948774, -15215.10067166098, -12352.423352291984, -2500.847280126486, -4216.343667071303, -14887.915836324197, 187500.0, -0.076, 0.982, 0.024, 192.0, 0.0, 0.0, 0.0, 0.0, 0.0, 0.0, 0.0, 0.0, 0.0, 1.70094521371868E9, 0.0, 2023-11-25 15:46:53.718
129.0, 71687.02890718328, 81127.95873021588, -14688.985310671964, -11848.212700869168, -1886.6883977280138, -3916.830291370188, -14802.88980041621, 187500.0, -0.076, 0.982, 0.024, 192.0, 0.0, 0.0, 0.0, 0.0, 0.0, 0.0, 0.0, 0.0, 0.0, 1.70094521372162E9, 0.0, 2023-11-25 15:46:53.721
130.0, 71685.86661647161, 81114.65944226498, -14393.405841994983, -11153.073448309118, -1052.655405122686, -3398.8509653629026, -14843.055885202395, 187500.0, -0.076, 0.982, 0.024, 192.0, 0.0, 0.0, 0.0, 0.0, 0.0, 0.0, 0.0, 0.0, 0.0, 1.7009452137256E9, 0.0, 2023-11-25 15:46:53.725
131.0, 71673.64021225456, 81104.37763981553, -14736.48276763949, -11619.77787253593, -1522.6902392733384, -3674.7161954303024, -14849.806112027898, 187500.0, -0.076, 0.982, 0.024, 192.0, 0.0, 0.0, 0.0, 0.0, 0.0, 0.0, 0.0, 0.0, 0.0, 1.7009452137296E9, 0.0, 2023-11-25 15:46:53.729
132.0, 71678.49054080136, 81126.3494046151, -15172.274729284612, -12266.391487883508, -2386.1157758373947, -4133.776323053399, -14873.543664639434, 187500.0, -0.076, 0.982, 0.024, 192.0, 0.0, 0.0, 0.0, 0.0, 0.0, 0.0, 0.0, 0.0, 0.0, 1.700945213733639E9, 0.0, 2023-11-25 15:46:53.733
133.0, 71674.95896517741, 81118.7945149892, -14824.950972193596, -12071.730145422238, -2129.316583790372, -4082.926104417575, -14805.21438183956, 187500.0, -0.076, 0.982, 0.024, 192.0, 0.0, 0.0, 0.0, 0.0, 0.0, 0.0, 0.0, 0.0, 0.0, 1.700945213737705E9, 0.0, 2023-11-25 15:46:53.737
134.0, 71667.64994474054, 81095.88397692252, -14350.535196129704, -11127.279535207694, -1039.9372625276164, -3384.6576076337824, -14826.40383558319, 187500.0, -0.076, 0.982, 0.024, 192.0, 0.0, 0.0, 0.0, 0.0, 0.0, 0.0, 0.0, 0.0, 0.0, 1.700945213741697E9, 0.0, 2023-11-25 15:46:53.741
135.0, 71663.9619069054, 81082.9423168829, -14683.352671069226, -11527.062836535315, -1416.9888397441912, -3629.275098952663, -14857.495112120523, 187500.0, -0.076, 0.982, 0.024, 192.0, 0.0, 0.0, 0.0, 0.0, 0.0, 0.0, 0.0, 0.0, 0.0, 1.700945213746575E9, 0.0, 2023-11-25 15:46:53.746
136.0, 71663.1125406161, 81096.01808738925, -15119.971647259194, -12126.06723619309, -2228.6253844053012, -4012.898089039098, -14875.398859429224, 187500.0, -0.076, 0.982, 0.024, 192.0, 0.0, 0.0, 0.0, 0.0, 0.0, 0.0, 0.0, 0.0, 0.0, 1.700945213749673E9, 0.0, 2023-11-25 15:46:53.749
137.0, 71672.83554945416, 81106.21048286087, -14973.411258865746, -12227.208879853355, -2336.561958379979, -4185.095928322784, -14825.956800694084, 187500.0, -0.078, 0.986, 0.024, 192.0, 253.0, 144.0, 30.0, 208.0, 0.0, 192.0, 0.0, 0.0, 0.0, 1.700945213753701E9, 0.0, 2023-11-25 15:46:53.753
138.0, 71661.63732548205, 81080.59538371509, -14350.758713574258, -11148.737209884788, -1096.5095277439987, -3390.960799570179, -14814.199783110595, 187500.0, -0.078, 0.986, 0.024, 192.0, 0.0, 0.0, 0.0, 0.0, 0.0, 0.0, 0.0, 0.0, 0.0, 1.700945213757714E9, 0.0, 2023-11-25 15:46:53.757
139.0, 71650.77437767677, 81060.25529626076, -14634.13412977864, -11443.73553320593, -1331.9628038362032, -3578.156659383376, -14869.386240170747, 187500.0, -0.078, 0.986, 0.024, 192.0, 0.0, 0.0, 0.0, 0.0, 0.0, 0.0, 0.0, 0.0, 0.0, 1.700945213761704E9, 0.0, 2023-11-25 15:46:53.761
140.0, 71651.44493001043, 81077.24262204679, -15040.98058235414, -11988.894580470871, -2061.926074257621, -3903.6651138860125, -14872.537836138945, 187500.0, -0.078, 0.986, 0.024, 192.0, 0.0, 0.0, 0.0, 0.0, 0.0, 0.0, 0.0, 0.0, 0.0, 1.700945213765761E9, 0.0, 2023-11-25 15:46:53.765
141.0, 71666.7111714734, 81098.49913102378, -15094.445955091234, -12366.01321292081, -2501.920163860341, -4284.024749281973, -14849.537891094435, 187500.0, -0.078, 0.986, 0.024, 192.0, 0.0, 0.0, 0.0, 0.0, 0.0, 0.0, 0.0, 0.0, 0.0, 1.700945213769802E9, 0.0, 2023-11-25 15:46:53.769
142.0, 71666.33119181766, 81088.2396803188, -14372.149333017986, -11270.509513677302, -1228.161302585757, -3491.2754286855975, -14796.698367202089, 187500.0, -0.078, 0.986, 0.024, 192.0, 0.0, 0.0, 0.0, 0.0, 0.0, 0.0, 0.0, 0.0, 0.0, 1.700945213774744E9, 0.0, 2023-11-25 15:46:53.774
143.0, 71655.87057541258, 81066.78200564171, -14553.958422417454, -11354.619128062623, -1229.4353520197096, -3530.502740204661, -14865.206463957604, 187500.0, -0.078, 0.986, 0.024, 192.0, 0.0, 0.0, 0.0, 0.0, 0.0, 0.0, 0.0, 0.0, 0.0, 1.700945213777786E9, 0.0, 2023-11-25 15:46:53.777
144.0, 71651.15435733252, 81076.12503482403, -14944.510453285035, -11868.575140067953, -1890.0858628852204, -3817.588545988625, -14864.401801157213, 187500.0, -0.078, 0.986, 0.024, 192.0, 0.0, 0.0, 0.0, 0.0, 0.0, 0.0, 0.0, 0.0, 0.0, 1.700945213781779E9, 0.0, 2023-11-25 15:46:53.781
145.0, 71665.28065982828, 81094.00643038827, -15164.51867395862, -12425.31239096074, -2571.232923416248, -4314.691342674654, -14865.698202335621, 187500.0, -0.078, 0.986, 0.024, 192.0, 0.0, 0.0, 0.0, 0.0, 0.0, 0.0, 0.0, 0.0, 0.0, 1.700945213785762E9, 0.0, 2023-11-25 15:46:53.785
146.0, 71660.34092430364, 81079.85777614806, -14433.437816314437, -11423.104873073682, -1401.096749436468, -3605.6716568078587, -14795.02198636794, 187500.0, -0.078, 0.986, 0.024, 192.0, 0.0, 0.0, 0.0, 0.0, 0.0, 0.0, 0.0, 0.0, 0.0, 1.700945213790813E9, 0.0, 2023-11-25 15:46:53.790
147.0, 71654.86474691209, 81059.31652299363, -14486.791430329256, -11268.877836332063, -1143.135266677769, -3479.317245402008, -14868.13454248125, 187500.0, -0.078, 0.99, 0.02, 192.0, 253.0, 144.0, 30.0, 240.0, 0.0, 160.0, 0.0, 0.0, 0.0, 1.700945213794784E9, 0.0, 2023-11-25 15:46:53.794
148.0, 71645.02997935176, 81063.92098235142, -14846.788626526431, -11750.401467132744, -1726.269927772275, -3738.1504461944637, -14855.394048141725, 187500.0, -0.078, 0.99, 0.02, 192.0, 0.0, 0.0, 0.0, 0.0, 0.0, 0.0, 0.0, 0.0, 0.0, 1.700945213798251E9, 0.0, 2023-11-25 15:46:53.798
149.0, 71648.27098229778, 81079.70131393688, -15189.57497949302, -12397.149192947054, -2552.591568540522, -4265.0704699838725, -14876.739964096543, 187500.0, -0.078, 0.99, 0.02, 192.0, 0.0, 0.0, 0.0, 0.0, 0.0, 0.0, 0.0, 0.0, 0.0, 1.700945213802829E9, 0.0, 2023-11-25 15:46:53.802
150.0, 71648.71801718688, 81067.51961320873, -14535.920564642021, -11636.340515177311, -1641.1544848864658, -3756.1883039698964, -14794.932579390119, 187500.0, -0.078, 0.99, 0.02, 192.0, 0.0, 0.0, 0.0, 0.0, 0.0, 0.0, 0.0, 0.0, 0.0, 1.700945213805932E9, 0.0, 2023-11-25 15:46:53.805
151.0, 71651.75785443281, 81049.05707228865, -14405.319321789662, -11185.751698702778, -1068.5698471748647, -3414.2066138036985, -14854.611737085788, 187500.0, -0.078, 0.99, 0.02, 192.0, 0.0, 0.0, 0.0, 0.0, 0.0, 0.0, 0.0, 0.0, 0.0, 1.700945213811985E9, 0.0, 2023-11-25 15:46:53.811
152.0, 71640.40316824951, 81041.59158964058, -14759.214491750537, -11664.838989357828, -1600.2060890443433, -3681.8016984226347, -14849.292021905427, 187500.0, -0.078, 0.99, 0.02, 192.0, 0.0, 0.0, 0.0, 0.0, 0.0, 0.0, 0.0, 0.0, 0.0, 1.700945213813895E9, 0.0, 2023-11-25 15:46:53.813
153.0, 71641.87838338356, 81055.27085724722, -15179.270825299123, -12348.578852245671, -2492.823003867031, -4201.636219219711, -14878.32693795287, 187500.0, -0.078, 0.99, 0.02, 192.0, 0.0, 0.0, 0.0, 0.0, 0.0, 0.0, 0.0, 0.0, 0.0, 1.700945213817907E9, 0.0, 2023-11-25 15:46:53.817
154.0, 71652.29429629973, 81064.36801724053, -14656.575281211768, -11872.978433725648, -1905.1509386480975, -3924.4522362294483, -14781.677994928123, 187500.0, -0.078, 0.99, 0.02, 192.0, 0.0, 0.0, 0.0, 0.0, 0.0, 0.0, 0.0, 0.0, 0.0, 1.700945213821927E9, 0.0, 2023-11-25 15:46:53.821
155.0, 71650.21558406539, 81054.0862147911, -14334.620754077525, -11144.400971460458, -1038.2161782045578, -3379.2037819866878, -14819.586553524323, 187500.0, -0.078, 0.99, 0.02, 192.0, 0.0, 0.0, 0.0, 0.0, 0.0, 0.0, 0.0, 0.0, 0.0, 1.700945213826831E9, 0.0, 2023-11-25 15:46:53.826
156.0, 71633.98821759084, 81043.44678443036, -14681.832752446266, -11605.025721195427, -1506.9546111768022, -3653.0350033086543, -14834.94220196512, 187500.0, -0.078, 0.99, 0.02, 192.0, 0.0, 0.0, 0.0, 0.0, 0.0, 0.0, 0.0, 0.0, 0.0, 1.700945213831934E9, 0.0, 2023-11-25 15:46:53.831
157.0, 71635.61989493608, 81066.78200564171, -15123.458519394222, -12262.971670981846, -2382.47244149118, -4116.364314122715, -14853.047114973917, 187500.0, -0.076, 0.982, 0.02, 192.0, 253.0, 160.0, 30.0, 176.0, 0.0, 160.0, 0.0, 0.0, 0.0, 1.700945213834966E9, 0.0, 2023-11-25 15:46:53.834
158.0, 71642.32541827267, 81074.89568887898, -14786.505971730468, -12102.664959748383, -2164.520581307481, -4090.033959154363, -14770.904454100664, 187500.0, -0.076, 0.982, 0.02, 192.0, 0.0, 0.0, 0.0, 0.0, 0.0, 0.0, 0.0, 0.0, 0.0, 1.700945213838996E9, 0.0, 2023-11-25 15:46:53.838
159.0, 71628.71320589939, 81041.7257001073, -14298.053300148644, -11127.413645674425, -1046.8439515643063, -3361.881180033825, -14785.477791485524, 187500.0, -0.076, 0.982, 0.02, 192.0, 0.0, 0.0, 0.0, 0.0, 0.0, 0.0, 0.0, 0.0, 0.0, 1.700945213841966E9, 0.0, 2023-11-25 15:46:53.841
160.0, 71620.82304010667, 81039.40111868395, -14623.360588951182, -11528.783920858374, -1416.8547292774595, -3610.9019650104005, -14809.595323752801, 187500.0, -0.076, 0.982, 0.02, 192.0, 0.0, 0.0, 0.0, 0.0, 0.0, 0.0, 0.0, 0.0, 0.0, 1.7009452138459E9, 0.0, 2023-11-25 15:46:53.845
161.0, 71612.21761849137, 81059.69650264937, -15057.006783128594, -12125.039055948146, -2227.8207216049104, -3993.899106252087, -14826.22502162755, 187500.0, -0.076, 0.982, 0.02, 192.0, 0.0, 0.0, 0.0, 0.0, 0.0, 0.0, 0.0, 0.0, 0.0, 1.700945213849943E9, 0.0, 2023-11-25 15:46:53.849
162.0, 71621.85122035161, 81070.31358126564, -14925.28795305347, -12271.532389108228, -2382.785365913554, -4205.503071010479, -14777.453515226069, 187500.0, -0.076, 0.982, 0.02, 192.0, 0.0, 0.0, 0.0, 0.0, 0.0, 0.0, 0.0, 0.0, 0.0, 1.70094521385398E9, 0.0, 2023-11-25 15:46:53.853
163.0, 71624.01933956378, 81058.9812468268, -14283.703480208336, -11178.733250943811, -1126.5502722919314, -3401.421415975263, -14758.499235927968, 187500.0, -0.076, 0.982, 0.02, 192.0, 0.0, 0.0, 0.0, 0.0, 0.0, 0.0, 0.0, 0.0, 0.0, 1.700945213857981E9, 0.0, 2023-11-25 15:46:53.857
164.0, 71605.8026678327, 81033.54496163667, -14552.662021239046, -11441.813283182775, -1328.7218008901837, -3565.9079034218676, -14812.5457540209, 187500.0, -0.076, 0.982, 0.02, 192.0, 0.0, 0.0, 0.0, 0.0, 0.0, 0.0, 0.0, 0.0, 0.0, 1.700945213862006E9, 0.0, 2023-11-25 15:46:53.862
165.0, 71589.77646705824, 81039.80345008415, -14959.463770325634, -11975.751754731149, -2050.906664241155, -3878.2064769514177, -14820.391216324713, 187500.0, -0.076, 0.982, 0.02, 192.0, 0.0, 0.0, 0.0, 0.0, 0.0, 0.0, 0.0, 0.0, 0.0, 1.700945213865037E9, 0.0, 2023-11-25 15:46:53.865
166.0, 71609.42365043446, 81073.5322324672, -15031.794015383008, -12374.842151980658, -2523.847225170997, -4272.915932287685, -14806.823707440342, 187500.0, -0.076, 0.982, 0.02, 192.0, 0.0, 0.0, 0.0, 0.0, 0.0, 0.0, 0.0, 0.0, 0.0, 1.70094521386901E9, 0.0, 2023-11-25 15:46:53.869
167.0, 71604.68508060994, 81054.82382235811, -14314.370073601018, -11282.244179516338, -1257.3750325888434, -3482.8935245148573, -14760.130913273206, 187500.0, -0.08, 0.98, 0.026000000000000002, 192.0, 253.0, 128.0, 30.0, 160.0, 0.0, 208.0, 0.0, 0.0, 0.0, 1.700945213874072E9, 0.0, 2023-11-25 15:46:53.874
168.0, 71593.26333919328, 81028.87344704551, -14494.72629961089, -11350.752276271854, -1241.9523289146816, -3516.7564173646474, -14832.528213563946, 187500.0, -0.08, 0.98, 0.026000000000000002, 192.0, 0.0, 0.0, 0.0, 0.0, 0.0, 0.0, 0.0, 0.0, 0.0, 1.700945213878036E9, 0.0, 2023-11-25 15:46:53.878
169.0, 71583.54033035522, 81040.49635416227, -14880.316243209392, -11864.931805721737, -1898.0654356557652, -3803.2834295372286, -14825.93444894963, 187500.0, -0.08, 0.98, 0.026000000000000002, 192.0, 0.0, 0.0, 0.0, 0.0, 0.0, 0.0, 0.0, 0.0, 0.0, 1.700945213883292E9, 0.0, 2023-11-25 15:46:53.883
170.0, 71592.61513860407, 81064.50212770727, -15105.197144174237, -12429.626277640615, -2597.026836517672, -4301.839089612852, -14823.274591359448, 187500.0, -0.08, 0.98, 0.026000000000000002, 192.0, 0.0, 0.0, 0.0, 0.0, 0.0, 0.0, 0.0, 0.0, 0.0, 1.700945213887095E9, 0.0, 2023-11-25 15:46:53.887
171.0, 71596.92902528394, 81058.19893577087, -14385.403917479984, -11455.403143811602, -1457.6466629083948, -3614.701761567803, -14748.664468367633, 187500.0, -0.08, 0.98, 0.026000000000000002, 192.0, 0.0, 0.0, 0.0, 0.0, 0.0, 0.0, 0.0, 0.0, 0.0, 1.700945213890098E9, 0.0, 2023-11-25 15:46:53.890
172.0, 71591.38579265903, 81028.49346738977, -14429.302743590206, -11279.450211459423, -1172.4831071475874, -3477.842030267958, -14821.084120402827, 187500.0, -0.08, 0.98, 0.026000000000000002, 192.0, 0.0, 0.0, 0.0, 0.0, 0.0, 0.0, 0.0, 0.0, 0.0, 1.700945213893096E9, 0.0, 2023-11-25 15:46:53.893
173.0, 71582.33333615462, 81033.76847908122, -14793.770288678443, -11766.002984762548, -1752.1979513404312, -3747.5828823546035, -14811.539925520412, 187500.0, -0.08, 0.98, 0.026000000000000002, 192.0, 0.0, 0.0, 0.0, 0.0, 0.0, 0.0, 0.0, 0.0, 0.0, 1.700945213897223E9, 0.0, 2023-11-25 15:46:53.897
174.0, 71600.03591776323, 81065.70912190786, -15140.535252158077, -12429.201594495964, -2592.712949837798, -4291.937266819152, -14832.237640886027, 187500.0, -0.08, 0.98, 0.026000000000000002, 192.0, 0.0, 0.0, 0.0, 0.0, 0.0, 0.0, 0.0, 0.0, 0.0, 1.700945213902099E9, 0.0, 2023-11-25 15:46:53.902
175.0, 71598.98538577383, 81061.10466255006, -14496.357976956127, -11680.060527331892, -1696.922087302457, -3795.9297056114324, -14749.379724190203, 187500.0, -0.08, 0.98, 0.026000000000000002, 192.0, 0.0, 0.0, 0.0, 0.0, 0.0, 0.0, 0.0, 0.0, 0.0, 1.700945213906169E9, 0.0, 2023-11-25 15:46:53.906
176.0, 71583.45092337739, 81028.73933657877, -14358.023030522232, -11188.366852804047, -1089.1334520737473, -3424.1084365973998, -14815.607943011279, 187500.0, -0.08, 0.98, 0.026000000000000002, 192.0, 0.0, 0.0, 0.0, 0.0, 0.0, 0.0, 0.0, 0.0, 0.0, 1.700945213910124E9, 0.0, 2023-11-25 15:46:53.910
177.0, 71576.07484770713, 81026.21358945532, -14712.164069672117, -11663.07320154586, -1612.5442519836727, -3690.0941956155534, -14810.847021442298, 187500.0, -0.078, 0.974, 0.036000000000000004, 192.0, 253.0, 144.0, 30.0, 112.0, 1.0, 32.0, 0.0, 0.0, 0.0, 1.700945213914147E9, 0.0, 2023-11-25 15:46:53.914
178.0, 71582.60155708808, 81043.53619140819, -15129.046455508049, -12343.773227187781, -2497.718035902743, -4201.1444808416945, -14839.345495622814, 187500.0, -0.078, 0.974, 0.036000000000000004, 192.0, 0.0, 0.0, 0.0, 0.0, 0.0, 0.0, 0.0, 0.0, 0.0, 1.700945213917173E9, 0.0, 2023-11-25 15:46:53.917
179.0, 71577.68417330792, 81036.45068841585, -14642.493682204926, -11907.869506820382, -1953.229540971463, -3957.175190112018, -14761.092038284783, 187500.0, -0.078, 0.974, 0.036000000000000004, 192.0, 0.0, 0.0, 0.0, 0.0, 0.0, 0.0, 0.0, 0.0, 0.0, 1.700945213921147E9, 0.0, 2023-11-25 15:46:53.921
180.0, 71567.40237085849, 81015.64121432796, -14318.572201558614, -11151.240605263783, -1058.2880447254236, -3395.2970379945086, -14802.88980041621, 187500.0, -0.078, 0.974, 0.036000000000000004, 192.0, 0.0, 0.0, 0.0, 0.0, 0.0, 0.0, 0.0, 0.0, 0.0, 1.700945213925176E9, 0.0, 2023-11-25 15:46:53.925
181.0, 71556.07003641964, 81006.02996421218, -14659.548063224323, -11598.253142625468, -1505.1888233648328, -3662.5791981910706, -14810.623503997746, 187500.0, -0.078, 0.974, 0.036000000000000004, 192.0, 0.0, 0.0, 0.0, 0.0, 0.0, 0.0, 0.0, 0.0, 0.0, 1.700945213929244E9, 0.0, 2023-11-25 15:46:53.929
182.0, 71552.44905381788, 81017.94344400686, -15094.445955091234, -12234.629659012517, -2361.3723947253698, -4108.34003786326, -14836.50682407699, 187500.0, -0.078, 0.974, 0.036000000000000004, 192.0, 0.0, 0.0, 0.0, 0.0, 0.0, 0.0, 0.0, 0.0, 0.0, 1.700945213934283E9, 0.0, 2023-11-25 15:46:53.934
183.0, 71558.97576319883, 81019.86569403001, -14795.804297423876, -12111.06921566358, -2190.023921730986, -4113.771511765899, -14782.482657728513, 187500.0, -0.078, 0.974, 0.036000000000000004, 192.0, 0.0, 0.0, 0.0, 0.0, 0.0, 0.0, 0.0, 0.0, 0.0, 1.700945213938271E9, 0.0, 2023-11-25 15:46:53.938
184.0, 71563.22259464534, 81005.64998455644, -14294.633483246982, -11138.231889990795, -1064.1218500282587, -3391.0502065480005, -14800.654625970677, 187500.0, -0.078, 0.974, 0.036000000000000004, 192.0, 0.0, 0.0, 0.0, 0.0, 0.0, 0.0, 0.0, 0.0, 0.0, 1.700945213943314E9, 0.0, 2023-11-25 15:46:53.943
185.0, 71554.17013814094, 80990.38374309347, -14602.46170788547, -11515.328170696279, -1405.2094704162444, -3621.2284709487526, -14825.26389661597, 187500.0, -0.078, 0.974, 0.036000000000000004, 192.0, 0.0, 0.0, 0.0, 0.0, 0.0, 0.0, 0.0, 0.0, 0.0, 1.700945213947258E9, 0.0, 2023-11-25 15:46:53.947
186.0, 71537.89806817747, 80993.55769080612, -15029.916468848762, -12102.44144230383, -2200.3951311582487, -3993.7426440409, -14837.311486877381, 187500.0, -0.078, 0.974, 0.036000000000000004, 192.0, 0.0, 0.0, 0.0, 0.0, 0.0, 0.0, 0.0, 0.0, 0.0, 1.700945213950276E9, 0.0, 2023-11-25 15:46:53.950
187.0, 71545.76588222574, 81002.72190603279, -14931.389979289768, -12286.9997962713, -2395.8387846754536, -4234.001545190996, -14790.484582243513, 187500.0, -0.07200000000000001, 0.982, 0.036000000000000004, 192.0, 253.0, 192.0, 30.0, 176.0, 1.0, 32.0, 0.0, 0.0, 0.0, 1.700945213953427E9, 0.0, 2023-11-25 15:46:53.953
188.0, 71549.5880305276, 80993.96002220632, -14292.443012290361, -11195.050024396185, -1141.9059207327273, -3433.026782635067, -14767.216416265539, 187500.0, -0.07200000000000001, 0.982, 0.036000000000000004, 192.0, 0.0, 0.0, 0.0, 0.0, 0.0, 0.0, 0.0, 0.0, 0.0, 1.700945213957605E9, 0.0, 2023-11-25 15:46:53.957
189.0, 71533.1371466085, 80966.109748615, -14555.567748018235, -11447.691791974521, -1331.2922515025439, -3589.1090141664763, -14825.867393716264, 187500.0, -0.07200000000000001, 0.982, 0.036000000000000004, 192.0, 0.0, 0.0, 0.0, 0.0, 0.0, 0.0, 0.0, 0.0, 0.0, 1.700945213962255E9, 0.0, 2023-11-25 15:46:53.962
190.0, 71522.81064067014, 80970.98242890625, -14954.076999911906, -11971.236702351178, -2038.1438181571746, -3886.4766223998813, -14834.092835675818, 187500.0, -0.07200000000000001, 0.982, 0.036000000000000004, 192.0, 0.0, 0.0, 0.0, 0.0, 0.0, 0.0, 0.0, 0.0, 0.0, 1.700945213967423E9, 0.0, 2023-11-25 15:46:53.967
191.0, 71538.41215829995, 80989.93670820436, -15043.126349821849, -12381.279454383786, -2531.7150392192652, -4283.063624270395, -14815.719701733555, 187500.0, -0.07200000000000001, 0.982, 0.036000000000000004, 192.0, 0.0, 0.0, 0.0, 0.0, 0.0, 0.0, 0.0, 0.0, 0.0, 1.700945213969416E9, 0.0, 2023-11-25 15:46:53.969
192.0, 71541.42964380141, 80992.57421405008, -14329.390445874984, -11300.326740780682, -1279.0115212215808, -3498.5173938891166, -14757.851035338765, 187500.0, -0.07200000000000001, 0.982, 0.036000000000000004, 192.0, 0.0, 0.0, 0.0, 0.0, 0.0, 0.0, 0.0, 0.0, 0.0, 1.700945213973374E9, 0.0, 2023-11-25 15:46:53.973
193.0, 71523.50354474825, 80960.79003343463, -14496.425032189492, -11351.601642561156, -1241.617052747852, -3518.4327981987954, -14834.495167076013, 187500.0, -0.07200000000000001, 0.982, 0.036000000000000004, 192.0, 0.0, 0.0, 0.0, 0.0, 0.0, 0.0, 0.0, 0.0, 0.0, 1.70094521397734E9, 0.0, 2023-11-25 15:46:53.977
194.0, 71509.15372480795, 80957.63843746643, -14868.916853537185, -11837.305049574978, -1870.818659164746, -3778.5400484252036, -14830.203632140594, 187500.0, -0.07200000000000001, 0.982, 0.036000000000000004, 192.0, 0.0, 0.0, 0.0, 0.0, 0.0, 0.0, 0.0, 0.0, 0.0, 1.700945213981367E9, 0.0, 2023-11-25 15:46:53.981
195.0, 71530.52199250723, 80984.57228953509, -15117.736472813664, -12416.103472245155, -2590.142499225438, -4283.644769626233, -14839.323143878359, 187500.0, -0.07200000000000001, 0.982, 0.036000000000000004, 192.0, 0.0, 0.0, 0.0, 0.0, 0.0, 0.0, 0.0, 0.0, 0.0, 1.700945213985427E9, 0.0, 2023-11-25 15:46:53.985
196.0, 71526.56573373864, 80972.90467892942, -14416.316380061673, -11466.26609161688, -1478.9031718853919, -3618.2556889361967, -14766.25529125396, 187500.0, -0.07200000000000001, 0.982, 0.036000000000000004, 192.0, 0.0, 0.0, 0.0, 0.0, 0.0, 0.0, 0.0, 0.0, 0.0, 1.700945213989526E9, 0.0, 2023-11-25 15:46:53.989
197.0, 71521.91657089193, 80945.63555069394, -14444.077246675164, -11263.08873451814, -1167.9904065120706, -3459.4688963256954, -14841.379504368248, 187500.0, -0.07200000000000001, 0.98, 0.032, 192.0, 253.0, 192.0, 30.0, 160.0, 1.0, 0.0, 0.0, 0.0, 0.0, 1.700945213994834E9, 0.0, 2023-11-25 15:46:53.994
198.0, 71512.79705915417, 80942.84158263703, -14798.821782925343, -11749.932080499182, -1739.6809744454592, -3725.3205448771173, -14831.768254252465, 187500.0, -0.07200000000000001, 0.98, 0.032, 192.0, 0.0, 0.0, 0.0, 0.0, 0.0, 0.0, 0.0, 0.0, 0.0, 1.700945213997675E9, 0.0, 2023-11-25 15:46:53.997
199.0, 71521.46953600283, 80967.58496374905, -15148.917156328816, -12407.855678541146, -2574.161001939893, -4255.123943701261, -14851.147216695217, 187500.0, -0.07200000000000001, 0.98, 0.032, 192.0, 0.0, 0.0, 0.0, 0.0, 0.0, 0.0, 0.0, 0.0, 0.0, 1.700945214001447E9, 0.0, 2023-11-25 15:46:54.001
200.0, 71534.72412046482, 80972.52469927368, -14533.595983218669, -11712.582315514364, -1734.271852287275, -3802.1881940589187, -14767.261119754448, 187500.0, -0.07200000000000001, 0.98, 0.032, 192.0, 0.0, 0.0, 0.0, 0.0, 0.0, 0.0, 0.0, 0.0, 0.0, 1.700945214005406E9, 0.0, 2023-11-25 15:46:54.005
201.0, 71529.69497796238, 80942.28278902564, -14379.592463921603, -11207.097614657596, -1109.495891272532, -3427.1035703544107, -14832.304696119392, 187500.0, -0.07200000000000001, 0.98, 0.032, 192.0, 0.0, 0.0, 0.0, 0.0, 0.0, 0.0, 0.0, 0.0, 0.0, 1.700945214010462E9, 0.0, 2023-11-25 15:46:54.010
202.0, 71512.66294868743, 80932.0009865762, -14723.183479688583, -11653.238433985523, -1606.0622460916336, -3672.592779707048, -14833.89166997572, 187500.0, -0.07200000000000001, 0.98, 0.032, 192.0, 0.0, 0.0, 0.0, 0.0, 0.0, 0.0, 0.0, 0.0, 0.0, 1.700945214014477E9, 0.0, 2023-11-25 15:46:54.014
203.0, 71515.99335861127, 80954.41978626487, -15133.248583465647, -12308.949209326413, -2474.8298495805084, -4159.994919299474, -14860.13261796625, 187500.0, -0.07200000000000001, 0.98, 0.032, 192.0, 0.0, 0.0, 0.0, 0.0, 0.0, 0.0, 0.0, 0.0, 0.0, 1.700945214017585E9, 0.0, 2023-11-25 15:46:54.017
204.0, 71526.49867850528, 80963.62870498047, -14669.38283078466, -11903.510916651598, -1974.1284220371751, -3940.1878643259843, -14783.153210062172, 187500.0, -0.07200000000000001, 0.98, 0.032, 192.0, 0.0, 0.0, 0.0, 0.0, 0.0, 0.0, 0.0, 0.0, 0.0, 1.700945214022514E9, 0.0, 2023-11-25 15:46:54.022
205.0, 71522.38595752549, 80942.66276868139, -14329.92688774191, -11136.95784055684, -1066.7146523850743, -3370.6654156047603, -14817.396082567702, 187500.0, -0.07200000000000001, 0.98, 0.032, 192.0, 0.0, 0.0, 0.0, 0.0, 0.0, 0.0, 0.0, 0.0, 0.0, 1.700945214025469E9, 0.0, 2023-11-25 15:46:54.025
206.0, 71503.09640206056, 80922.0544602936, -14667.32647029477, -11588.172505876126, -1509.4356548113412, -3639.735715357747, -14827.722588506054, 187500.0, -0.074, 0.978, 0.024, 192.0, 253.0, 176.0, 30.0, 144.0, 0.0, 192.0, 0.0, 0.0, 0.0, 1.700945214029469E9, 0.0, 2023-11-25 15:46:54.029
207.0, 71492.45697169984, 80926.56951267357, -15104.571295329488, -12211.495603501273, -2352.141124265328, -4066.1399443316395, -14857.31629816488, 187500.0, -0.074, 0.978, 0.024, 192.0, 0.0, 0.0, 0.0, 0.0, 0.0, 0.0, 0.0, 0.0, 0.0, 1.700945214033815E9, 0.0, 2023-11-25 15:46:54.033
208.0, 71517.33446327859, 80950.79880366311, -14830.31539086287, -12129.911736239403, -2224.467959936614, -4103.936744205564, -14792.026852610928, 187500.0, -0.074, 0.978, 0.024, 192.0, 0.0, 0.0, 0.0, 0.0, 0.0, 0.0, 0.0, 0.0, 0.0, 1.700945214037545E9, 0.0, 2023-11-25 15:46:54.037
209.0, 71511.8806376315, 80927.91061734088, -14316.895820724467, -11157.096762311074, -1091.4803852415546, -3385.484622178629, -14800.721681204044, 187500.0, -0.074, 0.978, 0.024, 192.0, 0.0, 0.0, 0.0, 0.0, 0.0, 0.0, 0.0, 0.0, 0.0, 1.700945214041511E9, 0.0, 2023-11-25 15:46:54.041
210.0, 71496.99437582426, 80910.14098049891, -14623.114719762174, -11531.577888915288, -1423.5826043585068, -3618.434502891839, -14827.83434722833, 187500.0, -0.074, 0.978, 0.024, 192.0, 0.0, 0.0, 0.0, 0.0, 0.0, 0.0, 0.0, 0.0, 0.0, 1.700945214045552E9, 0.0, 2023-11-25 15:46:54.045
211.0, 71492.5240269332, 80930.61517841998, -15039.147739308804, -12107.49293655073, -2199.5457648689467, -3981.896219479587, -14839.524309578457, 187500.0, -0.074, 0.978, 0.024, 192.0, 0.0, 0.0, 0.0, 0.0, 0.0, 0.0, 0.0, 0.0, 0.0, 1.700945214050529E9, 0.0, 2023-11-25 15:46:54.050
212.0, 71499.78834388117, 80942.349844259, -14955.842787723876, -12288.497363149807, -2403.23721209016, -4217.528309527434, -14801.347530048792, 187500.0, -0.074, 0.978, 0.024, 192.0, 0.0, 0.0, 0.0, 0.0, 0.0, 0.0, 0.0, 0.0, 0.0, 1.700945214053746E9, 0.0, 2023-11-25 15:46:54.053
213.0, 71505.30922476164, 80938.5500477016, -14307.552791542148, -11186.981044647819, -1141.9282724771824, -3409.8480236349137, -14778.459343726558, 187500.0, -0.074, 0.978, 0.024, 192.0, 0.0, 0.0, 0.0, 0.0, 0.0, 0.0, 0.0, 0.0, 0.0, 1.700945214056554E9, 0.0, 2023-11-25 15:46:54.056
214.0, 71494.58038742309, 80916.8465038355, -14553.220814850429, -11407.078672299227, -1301.8550040549046, -3542.215054299242, -14832.774082752954, 187500.0, -0.074, 0.978, 0.024, 192.0, 0.0, 0.0, 0.0, 0.0, 0.0, 0.0, 0.0, 0.0, 0.0, 1.700945214061889E9, 0.0, 2023-11-25 15:46:54.061
215.0, 71483.53862566217, 80925.51898068417, -14953.294688855969, -11943.788760160061, -2014.741541712468, -3853.686613283946, -14837.803225255399, 187500.0, -0.074, 0.978, 0.024, 192.0, 0.0, 0.0, 0.0, 0.0, 0.0, 0.0, 0.0, 0.0, 0.0, 1.700945214066672E9, 0.0, 2023-11-25 15:46:54.066
216.0, 71490.35590772104, 80938.3488820015, -15058.593756984921, -12378.97722470489, -2535.6042427544885, -4268.289121185437, -14822.849908214797, 187500.0, -0.07200000000000001, 0.984, 0.024, 192.0, 253.0, 192.0, 30.0, 192.0, 0.0, 192.0, 0.0, 0.0, 0.0, 1.700945214069899E9, 0.0, 2023-11-25 15:46:54.069
217.0, 71485.48322742978, 80919.08167828103, -14350.334030429607, -11305.557048983223, -1295.4847568851421, -3496.863364799424, -14772.089096556796, 187500.0, -0.07200000000000001, 0.984, 0.024, 192.0, 0.0, 0.0, 0.0, 0.0, 0.0, 0.0, 0.0, 0.0, 0.0, 1.700945214073767E9, 0.0, 2023-11-25 15:46:54.073
218.0, 71481.95165180584, 80891.63373608992, -14501.208305502929, -11326.835909704676, -1230.6646979647517, -3497.9809520221893, -14848.062675960384, 187500.0, -0.07200000000000001, 0.984, 0.024, 192.0, 0.0, 0.0, 0.0, 0.0, 0.0, 0.0, 0.0, 0.0, 0.0, 1.700945214078661E9, 0.0, 2023-11-25 15:46:54.078
219.0, 71482.51044541723, 80905.13418974093, -14876.292929207437, -11836.522738519043, -1867.1753248185307, -3779.8364496036115, -14839.07727468935, 187500.0, -0.07200000000000001, 0.984, 0.024, 192.0, 0.0, 0.0, 0.0, 0.0, 0.0, 0.0, 0.0, 0.0, 0.0, 1.700945214081681E9, 0.0, 2023-11-25 15:46:54.081
220.0, 71495.69797464585, 80929.72110864177, -15130.432263664277, -12447.999411582878, -2605.8557755775187, -4308.768130393998, -14841.826539257354, 187500.0, -0.07200000000000001, 0.984, 0.024, 192.0, 0.0, 0.0, 0.0, 0.0, 0.0, 0.0, 0.0, 0.0, 0.0, 1.700945214084718E9, 0.0, 2023-11-25 15:46:54.084
221.0, 71489.1712652649, 80914.52192241215, -14422.887792931533, -11505.046368246838, -1502.1713378633665, -3652.0068230637103, -14761.717887129533, 187500.0, -0.07200000000000001, 0.984, 0.024, 192.0, 0.0, 0.0, 0.0, 0.0, 0.0, 0.0, 0.0, 0.0, 0.0, 1.700945214089701E9, 0.0, 2023-11-25 15:46:54.089
222.0, 71478.73300060428, 80884.01179123066, -14415.51171726128, -11222.967353220864, -1124.1586356352134, -3429.4058000333075, -14826.269725116459, 187500.0, -0.07200000000000001, 0.984, 0.024, 192.0, 0.0, 0.0, 0.0, 0.0, 0.0, 0.0, 0.0, 0.0, 0.0, 1.700945214093815E9, 0.0, 2023-11-25 15:46:54.093
223.0, 71474.26265171322, 80892.95248901278, -14778.504047215469, -11700.422966530678, -1692.1164622445658, -3688.3954630369503, -14821.374693080747, 187500.0, -0.07200000000000001, 0.984, 0.024, 192.0, 0.0, 0.0, 0.0, 0.0, 0.0, 0.0, 0.0, 0.0, 0.0, 1.700945214098186E9, 0.0, 2023-11-25 15:46:54.098
224.0, 71470.97694527828, 80903.77073332915, -15147.643106894864, -12375.892683970056, -2552.949196451807, -4227.050152665395, -14848.688524805133, 187500.0, -0.07200000000000001, 0.984, 0.024, 192.0, 0.0, 0.0, 0.0, 0.0, 0.0, 0.0, 0.0, 0.0, 0.0, 1.700945214102163E9, 0.0, 2023-11-25 15:46:54.102
225.0, 71471.69220110086, 80898.40631465988, -14548.906928170554, -11713.31992308139, -1747.4146780269955, -3791.2134875313627, -14764.623613908723, 187500.0, -0.07200000000000001, 0.984, 0.024, 192.0, 0.0, 0.0, 0.0, 0.0, 0.0, 0.0, 0.0, 0.0, 0.0, 1.70094521410571E9, 0.0, 2023-11-25 15:46:54.105
226.0, 71470.06052375562, 80880.48021560672, -14376.262053997763, -11184.924684157932, -1092.8661933977835, -3399.2309450186426, -14825.88974546072, 187500.0, -0.08, 0.982, 0.022, 192.0, 253.0, 128.0, 30.0, 176.0, 0.0, 176.0, 0.0, 0.0, 0.0, 1.700945214109726E9, 0.0, 2023-11-25 15:46:54.109
227.0, 71453.65434332543, 80873.19354691429, -14722.8258517773, -11654.043096785916, -1600.474309977807, -3673.665663440903, -14825.845041971808, 187500.0, -0.08, 0.982, 0.022, 192.0, 0.0, 0.0, 0.0, 0.0, 0.0, 0.0, 0.0, 0.0, 0.0, 1.700945214112772E9, 0.0, 2023-11-25 15:46:54.112
228.0, 71451.19565143534, 80880.94960224029, -15145.13971151587, -12323.097863566622, -2481.021282794629, -4170.813163615842, -14850.677830061655, 187500.0, -0.08, 0.982, 0.022, 192.0, 0.0, 0.0, 0.0, 0.0, 0.0, 0.0, 0.0, 0.0, 0.0, 1.700945214116744E9, 0.0, 2023-11-25 15:46:54.116
229.0, 71459.0634654836, 80884.5482330976, -14686.772487970888, -11946.918004383804, -2009.2877160653732, -3976.9117804660536, -14768.7363348885, 187500.0, -0.08, 0.982, 0.022, 192.0, 0.0, 0.0, 0.0, 0.0, 0.0, 0.0, 0.0, 0.0, 0.0, 1.700945214121759E9, 0.0, 2023-11-25 15:46:54.121
230.0, 71438.47750884027, 80848.67368324682, -14327.870527252022, -11133.068637021619, -1061.9537308160939, -3374.264046462065, -14817.016102911963, 187500.0, -0.08, 0.982, 0.022, 192.0, 0.0, 0.0, 0.0, 0.0, 0.0, 0.0, 0.0, 0.0, 0.0, 1.700945214125829E9, 0.0, 2023-11-25 15:46:54.125
231.0, 71421.82545922107, 80832.64748247237, -14669.360479040204, -11579.634139494197, -1500.606715751495, -3638.8639973239897, -14832.058826930384, 187500.0, -0.08, 0.982, 0.022, 192.0, 0.0, 0.0, 0.0, 0.0, 0.0, 0.0, 0.0, 0.0, 0.0, 1.700945214132953E9, 0.0, 2023-11-25 15:46:54.132
232.0, 71425.82642147856, 80853.30049434907, -15100.056242949517, -12218.1340716045, -2346.866112573876, -4070.610293222701, -14847.950917238108, 187500.0, -0.08, 0.982, 0.022, 192.0, 0.0, 0.0, 0.0, 0.0, 0.0, 0.0, 0.0, 0.0, 0.0, 1.700945214135812E9, 0.0, 2023-11-25 15:46:54.135
233.0, 71436.80112800612, 80864.34225610999, -14829.041341428918, -12145.35679165802, -2239.6894979106783, -4113.995029210452, -14783.242617039994, 187500.0, -0.08, 0.982, 0.022, 192.0, 0.0, 0.0, 0.0, 0.0, 0.0, 0.0, 0.0, 0.0, 0.0, 1.700945214139789E9, 0.0, 2023-11-25 15:46:54.139
234.0, 71434.45419483831, 80853.38990132688, -14295.169925113909, -11135.549680656157, -1080.818603136373, -3367.5361713810175, -14791.088079343806, 187500.0, -0.08, 0.982, 0.022, 192.0, 0.0, 0.0, 0.0, 0.0, 0.0, 0.0, 0.0, 0.0, 0.0, 1.700945214142804E9, 0.0, 2023-11-25 15:46:54.142
235.0, 71424.19474413333, 80841.54347676558, -14593.968044992453, -11494.921028008584, -1392.3125138655323, -3587.343226354507, -14821.017065169463, 187500.0, -0.08, 0.982, 0.022, 192.0, 0.0, 0.0, 0.0, 0.0, 0.0, 0.0, 0.0, 0.0, 0.0, 1.70094521414584E9, 0.0, 2023-11-25 15:46:54.145
236.0, 71426.07229066758, 80864.49871832118, -15017.310084975968, -12068.735011665227, -2168.767412753989, -3946.044021373275, -14838.898460733708, 187500.0, -0.08, 0.982, 0.026000000000000002, 192.0, 253.0, 128.0, 30.0, 176.0, 0.0, 208.0, 0.0, 0.0, 0.0, 1.700945214150967E9, 0.0, 2023-11-25 15:46:54.150
237.0, 71430.98967444774, 80869.19258465679, -14957.943851702674, -12287.67034860496, -2421.364476843414, -4215.628411248733, -14813.104547632283, 187500.0, -0.08, 0.982, 0.026000000000000002, 192.0, 0.0, 0.0, 0.0, 0.0, 0.0, 0.0, 0.0, 0.0, 0.0, 1.700945214153884E9, 0.0, 2023-11-25 15:46:54.153
238.0, 71421.73605224324, 80848.69603499127, -14307.888067708978, -11190.490268527303, -1162.1789529536907, -3413.089026580933, -14799.671149214644, 187500.0, -0.08, 0.982, 0.026000000000000002, 192.0, 0.0, 0.0, 0.0, 0.0, 0.0, 0.0, 0.0, 0.0, 0.0, 1.700945214157863E9, 0.0, 2023-11-25 15:46:54.157
239.0, 71425.06646216709, 80836.55903775204, -14547.632878736602, -11399.25556173987, -1298.7704633200722, -3538.705830419759, -14849.157911438693, 187500.0, -0.08, 0.982, 0.026000000000000002, 192.0, 0.0, 0.0, 0.0, 0.0, 0.0, 0.0, 0.0, 0.0, 0.0, 1.700945214161819E9, 0.0, 2023-11-25 15:46:54.161
240.0, 71419.88085745345, 80854.46278506075, -14943.303459084447, -11931.897632109838, -1995.5413932253593, -3849.372726604072, -14850.096684705817, 187500.0, -0.08, 0.982, 0.026000000000000002, 192.0, 0.0, 0.0, 0.0, 0.0, 0.0, 0.0, 0.0, 0.0, 0.0, 1.700945214164878E9, 0.0, 2023-11-25 15:46:54.164
241.0, 71426.8098982346, 80868.29851487858, -15071.088382135438, -12394.891666757068, -2545.5731207815556, -4283.577714392867, -14839.79253051192, 187500.0, -0.08, 0.982, 0.026000000000000002, 192.0, 0.0, 0.0, 0.0, 0.0, 0.0, 0.0, 0.0, 0.0, 0.0, 1.700945214168843E9, 0.0, 2023-11-25 15:46:54.168
242.0, 71423.41243307739, 80848.74073848019, -14356.771332832735, -11335.173110386504, -1314.8637193278933, -3518.924536576812, -14778.079364070818, 187500.0, -0.08, 0.982, 0.026000000000000002, 192.0, 0.0, 0.0, 0.0, 0.0, 0.0, 0.0, 0.0, 0.0, 0.0, 1.700945214172892E9, 0.0, 2023-11-25 15:46:54.172
243.0, 71411.87893293846, 80829.58529348198, -14493.34049145466, -11329.182842872482, -1218.8182734034388, -3502.8759840579014, -14848.196786427116, 187500.0, -0.08, 0.982, 0.026000000000000002, 192.0, 0.0, 0.0, 0.0, 0.0, 0.0, 0.0, 0.0, 0.0, 0.0, 1.700945214176956E9, 0.0, 2023-11-25 15:46:54.176
244.0, 71398.98197638775, 80838.19071509728, -14867.486341892045, -11820.407130766765, -1838.9897750603886, -3768.5488186536813, -14841.468911346068, 187500.0, -0.08, 0.982, 0.026000000000000002, 192.0, 0.0, 0.0, 0.0, 0.0, 0.0, 0.0, 0.0, 0.0, 0.0, 1.70094521418201E9, 0.0, 2023-11-25 15:46:54.182
245.0, 71422.78658423264, 80875.18285217081, -15134.723798599696, -12434.70012363197, -2589.4719468917783, -4283.980045793062, -14841.155986923693, 187500.0, -0.08, 0.982, 0.026000000000000002, 192.0, 0.0, 0.0, 0.0, 0.0, 0.0, 0.0, 0.0, 0.0, 0.0, 1.700945214186025E9, 0.0, 2023-11-25 15:46:54.186
246.0, 71412.30361608311, 80852.00409317066, -14442.199700140918, -11518.457414920023, -1520.119788660978, -3650.15162827392, -14768.937500588598, 187500.0, -0.082, 0.984, 0.026000000000000002, 192.0, 253.0, 112.0, 30.0, 192.0, 0.0, 208.0, 0.0, 0.0, 0.0, 1.700945214189931E9, 0.0, 2023-11-25 15:46:54.189
247.0, 71400.81481943307, 80830.99345338267, -14432.09671164712, -11223.280277643238, -1129.1207229042916, -3429.316393055486, -14842.720609035565, 187500.0, -0.082, 0.984, 0.026000000000000002, 192.0, 0.0, 0.0, 0.0, 0.0, 0.0, 0.0, 0.0, 0.0, 0.0, 1.70094521419294E9, 0.0, 2023-11-25 15:46:54.192
248.0, 71384.0957145805, 80815.70486017525, -14794.21732356755, -11702.769899698485, -1694.0834157566328, -3694.9445241623553, -14836.596231054811, 187500.0, -0.082, 0.984, 0.026000000000000002, 192.0, 0.0, 0.0, 0.0, 0.0, 0.0, 0.0, 0.0, 0.0, 0.0, 1.700945214196918E9, 0.0, 2023-11-25 15:46:54.196
249.0, 71394.91395889687, 80843.75629946665, -15181.885979400395, -12385.21336140792, -2569.042452459628, -4240.215330149571, -14873.454257661613, 187500.0, -0.082, 0.984, 0.026000000000000002, 192.0, 0.0, 0.0, 0.0, 0.0, 0.0, 0.0, 0.0, 0.0, 0.0, 1.700945214201038E9, 0.0, 2023-11-25 15:46:54.201
250.0, 71399.07138336556, 80846.46086054575, -14584.088573943207, -11748.345106642855, -1794.2192309164086, -3834.754685730301, -14786.371861263737, 187500.0, -0.082, 0.984, 0.026000000000000002, 192.0, 0.0, 0.0, 0.0, 0.0, 0.0, 0.0, 0.0, 0.0, 0.0, 1.700945214204991E9, 0.0, 2023-11-25 15:46:54.204
251.0, 71387.06849659306, 80816.88950263137, -14376.46321969786, -11157.096762311074, -1081.913838614683, -3391.7654623705703, -14836.953858966097, 187500.0, -0.082, 0.984, 0.026000000000000002, 192.0, 0.0, 0.0, 0.0, 0.0, 0.0, 0.0, 0.0, 0.0, 0.0, 1.700945214209988E9, 0.0, 2023-11-25 15:46:54.209
252.0, 71375.80321738758, 80814.4755142302, -14736.48276763949, -11639.983849523527, -1595.4451674753627, -3668.927093616378, -14839.859585745286, 187500.0, -0.082, 0.984, 0.026000000000000002, 192.0, 0.0, 0.0, 0.0, 0.0, 0.0, 0.0, 0.0, 0.0, 0.0, 1.700945214214047E9, 0.0, 2023-11-25 15:46:54.214
253.0, 71381.72642966824, 80830.14408709337, -15167.357345504446, -12322.002628088312, -2487.324474731025, -4173.338910739292, -14871.42024891618, 187500.0, -0.082, 0.984, 0.026000000000000002, 192.0, 0.0, 0.0, 0.0, 0.0, 0.0, 0.0, 0.0, 0.0, 0.0, 1.700945214219969E9, 0.0, 2023-11-25 15:46:54.219
254.0, 71398.78081068765, 80850.01478791414, -14717.975523230496, -11960.060830123524, -2036.6462512786688, -3986.679492793023, -14785.366032763248, 187500.0, -0.082, 0.984, 0.026000000000000002, 192.0, 0.0, 0.0, 0.0, 0.0, 0.0, 0.0, 0.0, 0.0, 0.0, 1.700945214221821E9, 0.0, 2023-11-25 15:46:54.221
255.0, 71388.81193266058, 80827.73009869219, -14339.024047735222, -11138.902442324454, -1069.7097861420855, -3374.934598795724, -14829.533079806934, 187500.0, -0.082, 0.984, 0.026000000000000002, 192.0, 0.0, 0.0, 0.0, 0.0, 0.0, 0.0, 0.0, 0.0, 0.0, 1.700945214225011E9, 0.0, 2023-11-25 15:46:54.225
0.0, 71381.50291222369, 80821.20338931125, -14675.61896748769, -11581.936369173094, -1498.4609482837855, -3642.216758992286, -14855.818731286376, 187500.0, -0.082, 0.978, 0.024, 192.0, 253.0, 112.0, 30.0, 144.0, 0.0, 192.0, 0.0, 0.0, 0.0, 1.700945214228975E9, 0.0, 2023-11-25 15:46:54.228
1.0, 71389.32602278305, 80844.04687214456, -15101.307940639013, -12195.044719582167, -2328.5823856094344, -4055.1428860596284, -14867.016955258485, 187500.0, -0.082, 0.978, 0.024, 192.0, 0.0, 0.0, 0.0, 0.0, 0.0, 0.0, 0.0, 0.0, 0.0, 1.700945214233072E9, 0.0, 2023-11-25 15:46:54.233
2.0, 71388.14138032692, 80842.21402909924, -14861.786647055942, -12158.589024375562, -2266.824515679421, -4124.545052593357, -14804.275608572438, 187500.0, -0.082, 0.978, 0.024, 192.0, 0.0, 0.0, 0.0, 0.0, 0.0, 0.0, 0.0, 0.0, 0.0, 1.700945214239093E9, 0.0, 2023-11-25 15:46:54.239
3.0, 71376.89845286589, 80810.25103452815, -14307.530439797692, -11108.794642543155, -1073.7107483995853, -3347.486656604607, -14809.237695841515, 187500.0, -0.082, 0.978, 0.024, 192.0, 0.0, 0.0, 0.0, 0.0, 0.0, 0.0, 0.0, 0.0, 0.0, 1.700945214242106E9, 0.0, 2023-11-25 15:46:54.242
4.0, 71367.62247891695, 80791.78849360807, -14622.913554062075, -11477.799591755818, -1393.899487721859, -3578.491935550205, -14860.356135410802, 187500.0, -0.082, 0.978, 0.024, 192.0, 0.0, 0.0, 0.0, 0.0, 0.0, 0.0, 0.0, 0.0, 0.0, 1.700945214245079E9, 0.0, 2023-11-25 15:46:54.245
5.0, 71371.86931036346, 80822.43273525628, -15036.890213118819, -12073.183008811833, -2173.282465133961, -3948.5250650078137, -14865.832312802353, 187500.0, -0.082, 0.978, 0.024, 192.0, 0.0, 0.0, 0.0, 0.0, 0.0, 0.0, 0.0, 0.0, 0.0, 1.700945214249103E9, 0.0, 2023-11-25 15:46:54.249
6.0, 71385.77209541465, 80844.49390703367, -14989.705680573665, -12323.097863566622, -2454.91444527083, -4237.399010348202, -14826.40383558319, 187500.0, -0.082, 0.978, 0.024, 192.0, 0.0, 0.0, 0.0, 0.0, 0.0, 0.0, 0.0, 0.0, 0.0, 1.700945214253158E9, 0.0, 2023-11-25 15:46:54.253
7.0, 71387.58258671554, 80833.49684876167, -14321.746149271268, -11239.84292028462, -1194.454871947154, -3447.7789339755695, -14796.139573590706, 187500.0, -0.082, 0.978, 0.024, 192.0, 0.0, 0.0, 0.0, 0.0, 0.0, 0.0, 0.0, 0.0, 0.0, 1.700945214257142E9, 0.0, 2023-11-25 15:46:54.257
8.0, 71376.67493542134, 80800.63978441236, -14556.908852685554, -11427.284649286825, -1309.1416727473347, -3563.0468801315883, -14859.730286566055, 187500.0, -0.082, 0.978, 0.024, 192.0, 0.0, 0.0, 0.0, 0.0, 0.0, 0.0, 0.0, 0.0, 0.0, 1.700945214261164E9, 0.0, 2023-11-25 15:46:54.261
9.0, 71377.74781915519, 80807.0770868155, -14949.96427893213, -11953.712934698216, -1996.7036839370353, -3866.427107623471, -14852.376562640258, 187500.0, -0.082, 0.978, 0.024, 192.0, 0.0, 0.0, 0.0, 0.0, 0.0, 0.0, 0.0, 0.0, 0.0, 1.700945214265183E9, 0.0, 2023-11-25 15:46:54.265
10.0, 71368.6506591619, 80806.16066529283, -15093.596588801933, -12420.059731013744, -2559.3194436215695, -4298.151051777727, -14845.447521859112, 187500.0, -0.08, 0.98, 0.018000000000000002, 192.0, 253.0, 128.0, 30.0, 160.0, 0.0, 144.0, 0.0, 0.0, 0.0, 1.700945214270178E9, 0.0, 2023-11-25 15:46:54.270
11.0, 71370.61761267396, 80807.63588042688, -14379.815981366157, -11370.354756159159, -1339.517693462097, -3535.12955130691, -14785.343681018792, 187500.0, -0.08, 0.98, 0.018000000000000002, 192.0, 0.0, 0.0, 0.0, 0.0, 0.0, 0.0, 0.0, 0.0, 0.0, 1.700945214273306E9, 0.0, 2023-11-25 15:46:54.273
12.0, 71361.095769536, 80774.84587131094, -14500.761270613822, -11325.673618993, -1206.8824418643048, -3491.83422229698, -14855.014068485985, 187500.0, -0.08, 0.98, 0.018000000000000002, 192.0, 0.0, 0.0, 0.0, 0.0, 0.0, 0.0, 0.0, 0.0, 0.0, 1.700945214277319E9, 0.0, 2023-11-25 15:46:54.277
13.0, 71350.67985661983, 80779.1150545019, -14870.168551226683, -11798.345958989377, -1815.1181119821206, -3751.5391411231926, -14848.934393994141, 187500.0, -0.08, 0.98, 0.018000000000000002, 192.0, 0.0, 0.0, 0.0, 0.0, 0.0, 0.0, 0.0, 0.0, 0.0, 1.700945214281309E9, 0.0, 2023-11-25 15:46:54.281
14.0, 71361.2969352361, 80798.73988613367, -15152.940470330772, -12395.383405135084, -2574.6080368289995, -4259.884865270241, -14858.925623765663, 187500.0, -0.08, 0.98, 0.018000000000000002, 192.0, 0.0, 0.0, 0.0, 0.0, 0.0, 0.0, 0.0, 0.0, 0.0, 1.700945214285305E9, 0.0, 2023-11-25 15:46:54.285
15.0, 71369.20945277327, 80803.3666972359, -14469.044145231743, -11528.627458647188, -1545.3325564065644, -3668.01067209371, -14782.97439610653, 187500.0, -0.08, 0.98, 0.018000000000000002, 192.0, 0.0, 0.0, 0.0, 0.0, 0.0, 0.0, 0.0, 0.0, 0.0, 1.700945214289225E9, 0.0, 2023-11-25 15:46:54.289
16.0, 71367.30955449457, 80785.01591503811, -14426.017037155276, -11218.318190374159, -1119.55417627742, -3429.0481721220226, -14840.351324123303, 187500.0, -0.08, 0.98, 0.018000000000000002, 192.0, 0.0, 0.0, 0.0, 0.0, 0.0, 0.0, 0.0, 0.0, 0.0, 1.700945214293213E9, 0.0, 2023-11-25 15:46:54.293
17.0, 71342.38735942691, 80768.43092065226, -14793.882047400719, -11711.867059691795, -1682.5499156176945, -3695.950352662844, -14838.987867711528, 187500.0, -0.08, 0.98, 0.018000000000000002, 192.0, 0.0, 0.0, 0.0, 0.0, 0.0, 0.0, 0.0, 0.0, 0.0, 1.70094521429988E9, 0.0, 2023-11-25 15:46:54.299
18.0, 71342.25324896017, 80785.32883946048, -15177.929720631806, -12397.328006902697, -2553.306824363092, -4230.31350735587, -14862.479551134056, 187500.0, -0.08, 0.98, 0.018000000000000002, 192.0, 0.0, 0.0, 0.0, 0.0, 0.0, 0.0, 0.0, 0.0, 0.0, 1.700945214301346E9, 0.0, 2023-11-25 15:46:54.301
19.0, 71349.1375862524, 80782.4231126813, -14602.774632307845, -11774.586054633386, -1806.2221176889084, -3849.104505670608, -14790.30576828787, 187500.0, -0.08, 0.98, 0.018000000000000002, 192.0, 0.0, 0.0, 0.0, 0.0, 0.0, 0.0, 0.0, 0.0, 0.0, 1.700945214304304E9, 0.0, 2023-11-25 15:46:54.304
20.0, 71356.80423460058, 80769.72732183068, -14383.883998857022, -11167.512675227246, -1079.2316292800463, -3399.5885729299275, -14841.960649724086, 187500.0, -0.078, 0.978, 0.022, 192.0, 253.0, 144.0, 30.0, 144.0, 0.0, 176.0, 0.0, 0.0, 0.0, 1.700945214309366E9, 0.0, 2023-11-25 15:46:54.309
21.0, 71350.12106300844, 80773.12478698789, -14721.350636643248, -11638.955669278583, -1572.9816642977792, -3671.8775238844783, -14832.304696119392, 187500.0, -0.078, 0.978, 0.022, 192.0, 0.0, 0.0, 0.0, 0.0, 0.0, 0.0, 0.0, 0.0, 0.0, 1.70094521431335E9, 0.0, 2023-11-25 15:46:54.313
22.0, 71332.86551628895, 80781.77491209208, -15146.14554001636, -12306.870497092068, -2444.7667532881205, -4148.617881371722, -14859.037382487939, 187500.0, -0.078, 0.978, 0.022, 192.0, 0.0, 0.0, 0.0, 0.0, 0.0, 0.0, 0.0, 0.0, 0.0, 1.700945214317282E9, 0.0, 2023-11-25 15:46:54.317
23.0, 71332.2396674442, 80780.47851091367, -14725.888040767675, -11987.08408916999, -2041.6306902922024, -3994.7931760302995, -14786.327157774826, 187500.0, -0.078, 0.978, 0.022, 192.0, 0.0, 0.0, 0.0, 0.0, 0.0, 0.0, 0.0, 0.0, 0.0, 1.700945214321311E9, 0.0, 2023-11-25 15:46:54.321
24.0, 71326.07058597454, 80760.51840311509, -14324.607172561547, -11099.138688938463, -1032.4717798795439, -3345.027964714523, -14829.913059462675, 187500.0, -0.078, 0.978, 0.022, 192.0, 0.0, 0.0, 0.0, 0.0, 0.0, 0.0, 0.0, 0.0, 0.0, 1.700945214325378E9, 0.0, 2023-11-25 15:46:54.325
25.0, 71317.88984750389, 80763.29001942754, -14663.95135688202, -11526.168766757104, -1452.7292791282273, -3607.146871941909, -14858.076257476361, 187500.0, -0.078, 0.978, 0.022, 192.0, 0.0, 0.0, 0.0, 0.0, 0.0, 0.0, 0.0, 0.0, 0.0, 1.70094521432933E9, 0.0, 2023-11-25 15:46:54.329
26.0, 71311.38548986739, 80768.38621716335, -15100.659740049809, -12153.02344000619, -2292.171393891739, -4021.995249032408, -14879.489228664546, 187500.0, -0.078, 0.978, 0.022, 192.0, 0.0, 0.0, 0.0, 0.0, 0.0, 0.0, 0.0, 0.0, 0.0, 1.700945214332428E9, 0.0, 2023-11-25 15:46:54.332
27.0, 71324.52831560711, 80786.24526098315, -14882.439658932646, -12175.621053650506, -2281.822536208932, -4134.826855042798, -14818.826594212842, 187500.0, -0.078, 0.978, 0.022, 192.0, 0.0, 0.0, 0.0, 0.0, 0.0, 0.0, 0.0, 0.0, 0.0, 1.700945214337613E9, 0.0, 2023-11-25 15:46:54.337
28.0, 71332.4408331443, 80780.27734521357, -14308.670378764913, -11136.466102178825, -1086.4735944835656, -3375.560447640473, -14813.93156217713, 187500.0, -0.078, 0.978, 0.022, 192.0, 0.0, 0.0, 0.0, 0.0, 0.0, 0.0, 0.0, 0.0, 0.0, 1.700945214341645E9, 0.0, 2023-11-25 15:46:54.341
29.0, 71312.77129802362, 80746.03447270805, -14614.218725468962, -11484.728632536964, -1381.874249204904, -3592.9535142127893, -14860.758466810998, 187500.0, -0.078, 0.978, 0.022, 192.0, 0.0, 0.0, 0.0, 0.0, 0.0, 0.0, 0.0, 0.0, 0.0, 1.700945214345383E9, 0.0, 2023-11-25 15:46:54.345
30.0, 71312.36896662343, 80777.63983936785, -15023.076835045438, -12034.00040078168, -2123.795702909911, -3924.4298844849927, -14868.46981864808, 187500.0, -0.07200000000000001, 0.978, 0.026000000000000002, 192.0, 253.0, 192.0, 30.0, 144.0, 0.0, 208.0, 0.0, 0.0, 0.0, 1.700945214349411E9, 0.0, 2023-11-25 15:46:54.349
31.0, 71321.64494057238, 80790.96147906322, -15000.076890000928, -12299.092090021622, -2434.9543374722407, -4223.049190407895, -14832.908193219686, 187500.0, -0.07200000000000001, 0.978, 0.026000000000000002, 192.0, 0.0, 0.0, 0.0, 0.0, 0.0, 0.0, 0.0, 0.0, 0.0, 1.700945214353394E9, 0.0, 2023-11-25 15:46:54.353
32.0, 71310.73728927819, 80767.3580369184, -14328.585783074592, -11194.290065084704, -1168.8621245458276, -3411.099721324411, -14799.022948625441, 187500.0, -0.07200000000000001, 0.978, 0.026000000000000002, 192.0, 0.0, 0.0, 0.0, 0.0, 0.0, 0.0, 0.0, 0.0, 0.0, 1.700945214357388E9, 0.0, 2023-11-25 15:46:54.357
33.0, 71298.68969901677, 80743.53107732905, -14562.630899266112, -11382.469401653934, -1279.6820735552399, -3526.41237096934, -14863.015993000985, 187500.0, -0.07200000000000001, 0.978, 0.026000000000000002, 192.0, 0.0, 0.0, 0.0, 0.0, 0.0, 0.0, 0.0, 0.0, 0.0, 1.700945214360462E9, 0.0, 2023-11-25 15:46:54.360
34.0, 71288.9219866898, 80749.25312390961, -14955.708677257142, -11901.901591050815, -1959.9350643080552, -3824.0929036251196, -14863.485379634545, 187500.0, -0.07200000000000001, 0.978, 0.026000000000000002, 192.0, 0.0, 0.0, 0.0, 0.0, 0.0, 0.0, 0.0, 0.0, 0.0, 1.700945214365533E9, 0.0, 2023-11-25 15:46:54.365
35.0, 71296.29806236006, 80765.0111037506, -15120.441033892756, -12397.238599924875, -2558.917112221374, -4282.37072019228, -14857.517463864979, 187500.0, -0.07200000000000001, 0.978, 0.026000000000000002, 192.0, 0.0, 0.0, 0.0, 0.0, 0.0, 0.0, 0.0, 0.0, 0.0, 1.70094521436921E9, 0.0, 2023-11-25 15:46:54.369
36.0, 71293.19116988077, 80756.18216469076, -14404.76052817828, -11363.135142700094, -1355.610949469918, -3548.540597980094, -14801.347530048792, 187500.0, -0.07200000000000001, 0.978, 0.026000000000000002, 192.0, 0.0, 0.0, 0.0, 0.0, 0.0, 0.0, 0.0, 0.0, 0.0, 1.700945214373582E9, 0.0, 2023-11-25 15:46:54.373
37.0, 71293.25822511414, 80735.73031851415, -14507.667959650513, -11305.42293851649, -1205.7425028970843, -3490.3813589073848, -14863.328917423358, 187500.0, -0.07200000000000001, 0.978, 0.026000000000000002, 192.0, 0.0, 0.0, 0.0, 0.0, 0.0, 0.0, 0.0, 0.0, 0.0, 1.700945214377497E9, 0.0, 2023-11-25 15:46:54.377
38.0, 71283.75873372064, 80744.02281570707, -14876.315280951892, -11802.4363282247, -1815.4757398934055, -3759.0269755157206, -14850.767237039476, 187500.0, -0.07200000000000001, 0.978, 0.026000000000000002, 192.0, 0.0, 0.0, 0.0, 0.0, 0.0, 0.0, 0.0, 0.0, 0.0, 1.700945214381514E9, 0.0, 2023-11-25 15:46:54.381
39.0, 71290.62071926841, 80764.65347583932, -15183.540008490088, -12440.444521956984, -2602.547717398133, -4294.641827898244, -14876.22587397407, 187500.0, -0.07200000000000001, 0.978, 0.026000000000000002, 192.0, 0.0, 0.0, 0.0, 0.0, 0.0, 0.0, 0.0, 0.0, 0.0, 1.700945214384519E9, 0.0, 2023-11-25 15:46:54.384
40.0, 71296.70039376026, 80764.27349618358, -14497.497915923348, -11567.05010736586, -1576.6473503884497, -3696.2856288296734, -14791.915093888652, 187500.0, -0.07200000000000001, 0.984, 0.022, 192.0, 253.0, 192.0, 30.0, 192.0, 0.0, 176.0, 0.0, 0.0, 0.0, 1.700945214388506E9, 0.0, 2023-11-25 15:46:54.388
41.0, 71298.01914668312, 80744.87218199637, -14440.076284417664, -11219.949867719397, -1122.0352199119593, -3436.066619880989, -14855.952841753107, 187500.0, -0.07200000000000001, 0.984, 0.022, 192.0, 0.0, 0.0, 0.0, 0.0, 0.0, 0.0, 0.0, 0.0, 0.0, 1.700945214392493E9, 0.0, 2023-11-25 15:46:54.392
42.0, 71288.63141401189, 80736.6020365479, -14791.02102411044, -11696.466707762089, -1667.9765782328343, -3701.0018469097436, -14852.823597529365, 187500.0, -0.07200000000000001, 0.984, 0.022, 192.0, 0.0, 0.0, 0.0, 0.0, 0.0, 0.0, 0.0, 0.0, 0.0, 1.700945214397524E9, 0.0, 2023-11-25 15:46:54.397
43.0, 71306.44575434277, 80773.34830443244, -15169.726630416708, -12362.056954152222, -2527.2446903282034, -4218.556489772379, -14875.912949551697, 187500.0, -0.07200000000000001, 0.984, 0.022, 192.0, 0.0, 0.0, 0.0, 0.0, 0.0, 0.0, 0.0, 0.0, 0.0, 1.700945214401493E9, 0.0, 2023-11-25 15:46:54.401
44.0, 71307.49628633217, 80775.35996143341, -14608.854306799687, -11781.202170992157, -1816.101588738154, -3853.1278196725634, -14797.614788724755, 187500.0, -0.07200000000000001, 0.984, 0.022, 192.0, 0.0, 0.0, 0.0, 0.0, 0.0, 0.0, 0.0, 0.0, 0.0, 1.700945214405623E9, 0.0, 2023-11-25 15:46:54.405
45.0, 71291.76065823564, 80742.63700755085, -14380.821809866646, -11162.327070513615, -1070.0897657978255, -3392.48071819314, -14862.613661600788, 187500.0, -0.07200000000000001, 0.984, 0.022, 192.0, 0.0, 0.0, 0.0, 0.0, 0.0, 0.0, 0.0, 0.0, 0.0, 1.700945214409548E9, 0.0, 2023-11-25 15:46:54.409
46.0, 71285.9715564217, 80736.9596644592, -14724.05519772234, -11631.266669185958, -1555.9496350228353, -3658.3994219779283, -14860.5573011109, 187500.0, -0.07200000000000001, 0.984, 0.022, 192.0, 0.0, 0.0, 0.0, 0.0, 0.0, 0.0, 0.0, 0.0, 0.0, 1.70094521441255E9, 0.0, 2023-11-25 15:46:54.412
47.0, 71293.4817425587, 80760.27253392608, -15146.704333627742, -12287.044499760212, -2425.633660034378, -4140.8618260457315, -14884.116039766794, 187500.0, -0.07200000000000001, 0.984, 0.022, 192.0, 0.0, 0.0, 0.0, 0.0, 0.0, 0.0, 0.0, 0.0, 0.0, 1.700945214416584E9, 0.0, 2023-11-25 15:46:54.416
48.0, 71301.5283705626, 80763.60294384992, -14747.211604978038, -12003.780842278105, -2066.2399609374957, -4019.6036123756903, -14818.960704679574, 187500.0, -0.07200000000000001, 0.984, 0.022, 192.0, 0.0, 0.0, 0.0, 0.0, 0.0, 0.0, 0.0, 0.0, 0.0, 1.700945214420627E9, 0.0, 2023-11-25 15:46:54.420
49.0, 71302.26597812962, 80742.48054533965, -14315.487660823783, -11096.232962159273, -1028.53787285541, -3348.000746727079, -14841.357152623792, 187500.0, -0.07200000000000001, 0.984, 0.022, 192.0, 0.0, 0.0, 0.0, 0.0, 0.0, 0.0, 0.0, 0.0, 0.0, 1.700945214425586E9, 0.0, 2023-11-25 15:46:54.425
50.0, 71281.94824241975, 80717.49129503862, -14656.396467256125, -11517.831566075274, -1437.0830580095123, -3606.431616119339, -14869.18507447065, 187500.0, -0.08, 0.98, 0.016, 192.0, 253.0, 128.0, 30.0, 160.0, 0.0, 128.0, 0.0, 0.0, 0.0, 1.700945214429636E9, 0.0, 2023-11-25 15:46:54.429
51.0, 71282.75290522014, 80738.47958308215, -15095.027100447072, -12154.45395165133, -2276.3240070729266, -4022.7775600883438, -14884.026632788973, 187500.0, -0.08, 0.98, 0.016, 192.0, 0.0, 0.0, 0.0, 0.0, 0.0, 0.0, 0.0, 0.0, 0.0, 1.700945214433715E9, 0.0, 2023-11-25 15:46:54.433
52.0, 71280.89771043035, 80737.4514028372, -14901.28217950847, -12195.201181793354, -2298.631048039323, -4152.730602351499, -14837.087969432829, 187500.0, -0.08, 0.98, 0.016, 192.0, 0.0, 0.0, 0.0, 0.0, 0.0, 0.0, 0.0, 0.0, 0.0, 1.700945214436728E9, 0.0, 2023-11-25 15:46:54.436
53.0, 71286.55270177755, 80727.84015272143, -14317.856945736045, -11138.20953824634, -1091.1898125636355, -3371.71594759416, -14826.381483838735, 187500.0, -0.08, 0.98, 0.016, 192.0, 0.0, 0.0, 0.0, 0.0, 0.0, 0.0, 0.0, 0.0, 0.0, 1.700945214440664E9, 0.0, 2023-11-25 15:46:54.440
54.0, 71272.04641962606, 80714.33969907042, -14609.860135300176, -11466.020222427873, -1362.6964524622504, -3571.0935081354987, -14867.173417469672, 187500.0, -0.08, 0.98, 0.016, 192.0, 0.0, 0.0, 0.0, 0.0, 0.0, 0.0, 0.0, 0.0, 0.0, 1.700945214446696E9, 0.0, 2023-11-25 15:46:54.446
55.0, 71262.07754159899, 80729.71769925568, -15025.222602513148, -12000.293970143077, -2100.1699090206516, -3894.9255818039874, -14881.880865321264, 187500.0, -0.08, 0.98, 0.016, 192.0, 0.0, 0.0, 0.0, 0.0, 0.0, 0.0, 0.0, 0.0, 0.0, 1.700945214449769E9, 0.0, 2023-11-25 15:46:54.449
56.0, 71278.93075691829, 80757.59032459144, -15033.559803194978, -12321.846165877125, -2463.586922119489, -4232.995716690507, -14854.36586789678, 187500.0, -0.08, 0.98, 0.016, 192.0, 0.0, 0.0, 0.0, 0.0, 0.0, 0.0, 0.0, 0.0, 0.0, 1.700945214452683E9, 0.0, 2023-11-25 15:46:54.452
57.0, 71274.19218709377, 80739.9547982162, -14344.366114660039, -11241.496949374314, -1203.8873081072936, -3438.391201304341, -14808.857716185776, 187500.0, -0.08, 0.98, 0.016, 192.0, 0.0, 0.0, 0.0, 0.0, 0.0, 0.0, 0.0, 0.0, 0.0, 1.700945214457666E9, 0.0, 2023-11-25 15:46:54.457
58.0, 71267.79958817955, 80723.72743174166, -14547.409361292048, -11381.128296986617, -1266.4945443266088, -3524.8477488574686, -14861.138446466739, 187500.0, -0.08, 0.98, 0.016, 192.0, 0.0, 0.0, 0.0, 0.0, 0.0, 0.0, 0.0, 0.0, 0.0, 1.700945214461693E9, 0.0, 2023-11-25 15:46:54.461
59.0, 71256.31079152951, 80729.67299576677, -14923.81273791942, -11860.819084741961, -1915.231575397441, -3794.1862695439186, -14853.002411485008, 187500.0, -0.08, 0.98, 0.016, 192.0, 0.0, 0.0, 0.0, 0.0, 0.0, 0.0, 0.0, 0.0, 0.0, 1.700945214464684E9, 0.0, 2023-11-25 15:46:54.464
60.0, 71254.70146592874, 80732.3552051014, -15118.205859447226, -12381.681785783981, -2552.1221819069606, -4274.860534055297, -14865.407629657702, 187500.0, -0.078, 0.976, 0.016, 192.0, 253.0, 144.0, 30.0, 128.0, 0.0, 128.0, 0.0, 0.0, 0.0, 1.700945214468758E9, 0.0, 2023-11-25 15:46:54.468
61.0, 71257.76365491911, 80727.68369051024, -14402.927685132943, -11375.808581806254, -1372.6206270004068, -3564.477391776728, -14800.296998059393, 187500.0, -0.078, 0.976, 0.016, 192.0, 0.0, 0.0, 0.0, 0.0, 0.0, 0.0, 0.0, 0.0, 0.0, 1.700945214472755E9, 0.0, 2023-11-25 15:46:54.472
62.0, 71250.85696588243, 80698.8946436518, -14492.424069931993, -11285.28401676226, -1184.396586942266, -3474.802193022036, -14866.36875466928, 187500.0, -0.078, 0.976, 0.016, 192.0, 0.0, 0.0, 0.0, 0.0, 0.0, 0.0, 0.0, 0.0, 0.0, 1.70094521447683E9, 0.0, 2023-11-25 15:46:54.476
63.0, 71244.91140185732, 80695.58658547243, -14862.613661600788, -11784.75609836055, -1793.3922163715622, -3738.1727979389193, -14851.191920184127, 187500.0, -0.078, 0.976, 0.016, 192.0, 0.0, 0.0, 0.0, 0.0, 0.0, 0.0, 0.0, 0.0, 0.0, 1.700945214480823E9, 0.0, 2023-11-25 15:46:54.480
64.0, 71268.6713062133, 80739.37365286036, -15167.603214693454, -12428.352228206662, -2583.548734611122, -4269.22789445256, -14865.809961057897, 187500.0, -0.078, 0.976, 0.016, 192.0, 0.0, 0.0, 0.0, 0.0, 0.0, 0.0, 0.0, 0.0, 0.0, 1.700945214484936E9, 0.0, 2023-11-25 15:46:54.484
65.0, 71268.55954749102, 80730.00827193359, -14490.993558286853, -11580.930540672605, -1584.0010743142457, -3695.659779984925, -14787.847076397788, 187500.0, -0.078, 0.976, 0.016, 192.0, 0.0, 0.0, 0.0, 0.0, 0.0, 0.0, 0.0, 0.0, 0.0, 1.700945214489809E9, 0.0, 2023-11-25 15:46:54.489
66.0, 71249.53821295955, 80690.84801564789, -14431.314400591184, -11201.509678543769, -1108.110083116303, -3424.086084852944, -14867.5086936365, 187500.0, -0.078, 0.976, 0.016, 192.0, 0.0, 0.0, 0.0, 0.0, 0.0, 0.0, 0.0, 0.0, 0.0, 1.700945214492779E9, 0.0, 2023-11-25 15:46:54.492
67.0, 71251.48281472718, 80712.73037346965, -14773.787829135399, -11675.232550529547, -1645.4460198218846, -3685.1991635798413, -14844.709914292089, 187500.0, -0.078, 0.976, 0.016, 192.0, 0.0, 0.0, 0.0, 0.0, 0.0, 0.0, 0.0, 0.0, 0.0, 1.700945214496905E9, 0.0, 2023-11-25 15:46:54.496
68.0, 71253.3156577725, 80735.23858013614, -15162.015278579627, -12341.448645764429, -2509.296239530592, -4195.02010286094, -14867.128713980761, 187500.0, -0.078, 0.976, 0.016, 192.0, 0.0, 0.0, 0.0, 0.0, 0.0, 0.0, 0.0, 0.0, 0.0, 1.700945214500846E9, 0.0, 2023-11-25 15:46:54.500
69.0, 71253.4721199837, 80724.46503930868, -14615.090443502719, -11778.296444212967, -1829.0656005222322, -3845.192950390929, -14789.16582932065, 187500.0, -0.078, 0.976, 0.016, 192.0, 0.0, 0.0, 0.0, 0.0, 0.0, 0.0, 0.0, 0.0, 0.0, 1.700945214504856E9, 0.0, 2023-11-25 15:46:54.504
70.0, 71250.83461413796, 80709.01998389006, -14373.333975474117, -11133.292154466171, -1057.3939749472113, -3369.994863271101, -14854.835254530342, 187500.0, -0.074, 0.976, 0.014, 192.0, 253.0, 176.0, 30.0, 128.0, 0.0, 112.0, 0.0, 0.0, 0.0, 1.700945214508908E9, 0.0, 2023-11-25 15:46:54.508
71.0, 71246.54307920254, 80710.67401297975, -14720.05423546484, -11589.468907054534, -1536.1683411798886, -3636.7182298562802, -14859.573824354868, 187500.0, -0.074, 0.976, 0.014, 192.0, 0.0, 0.0, 0.0, 0.0, 0.0, 0.0, 0.0, 0.0, 0.0, 1.700945214512881E9, 0.0, 2023-11-25 15:46:54.512
72.0, 71244.68788441275, 80715.14436187081, -15161.367077990422, -12272.582921097628, -2423.9349274557744, -4124.477997359991, -14890.955673570119, 187500.0, -0.074, 0.976, 0.014, 192.0, 0.0, 0.0, 0.0, 0.0, 0.0, 0.0, 0.0, 0.0, 0.0, 1.700945214517894E9, 0.0, 2023-11-25 15:46:54.517
73.0, 71244.82199487949, 80711.34456531341, -14787.958835120064, -12037.599031638985, -2113.5362522049254, -4042.737667886933, -14828.750768750999, 187500.0, -0.074, 0.976, 0.014, 192.0, 0.0, 0.0, 0.0, 0.0, 0.0, 0.0, 0.0, 0.0, 0.0, 1.70094521452086E9, 0.0, 2023-11-25 15:46:54.520
74.0, 71240.06107331051, 80693.91020463828, -14342.823844292623, -11112.43797688937, -1055.851704579795, -3358.483714876618, -14849.090856205328, 187500.0, -0.074, 0.976, 0.014, 192.0, 0.0, 0.0, 0.0, 0.0, 0.0, 0.0, 0.0, 0.0, 0.0, 1.700945214524869E9, 0.0, 2023-11-25 15:46:54.524
75.0, 71229.7122156277, 80692.79261741551, -14677.138886110652, -11533.589545916266, -1454.2268460067328, -3614.634706334437, -14874.840065817842, 187500.0, -0.074, 0.976, 0.014, 192.0, 0.0, 0.0, 0.0, 0.0, 0.0, 0.0, 0.0, 0.0, 0.0, 1.700945214528893E9, 0.0, 2023-11-25 15:46:54.528
76.0, 71230.06984353898, 80714.33969907042, -15106.47119360819, -12147.279041681177, -2275.0946611278846, -4019.2012809754947, -14893.794345115943, 187500.0, -0.074, 0.976, 0.014, 192.0, 0.0, 0.0, 0.0, 0.0, 0.0, 0.0, 0.0, 0.0, 0.0, 1.700945214532891E9, 0.0, 2023-11-25 15:46:54.532
77.0, 71248.73355015917, 80733.74101325763, -14928.528955999489, -12226.247754841776, -2335.17615022375, -4184.626541689222, -14844.151120680704, 187500.0, -0.074, 0.976, 0.014, 192.0, 0.0, 0.0, 0.0, 0.0, 0.0, 0.0, 0.0, 0.0, 0.0, 1.700945214538927E9, 0.0, 2023-11-25 15:46:54.538
78.0, 71253.85209963944, 80727.79544923252, -14324.607172561547, -11158.594329189578, -1105.1149493592918, -3393.19597401571, -14826.873222216753, 187500.0, -0.074, 0.976, 0.014, 192.0, 0.0, 0.0, 0.0, 0.0, 0.0, 0.0, 0.0, 0.0, 0.0, 1.700945214541932E9, 0.0, 2023-11-25 15:46:54.541
79.0, 71235.14368953033, 80691.20564355918, -14609.346045177705, -11460.32052759177, -1355.901522147837, -3583.2975606080963, -14872.493132650035, 187500.0, -0.074, 0.976, 0.014, 192.0, 0.0, 0.0, 0.0, 0.0, 0.0, 0.0, 0.0, 0.0, 0.0, 1.700945214546004E9, 0.0, 2023-11-25 15:46:54.546
80.0, 71230.29336098355, 80701.95683264219, -15030.20704152668, -12027.38428442291, -2110.8763946147437, -3925.234547285384, -14890.083955536362, 187500.0, -0.078, 0.98, 0.014, 192.0, 253.0, 144.0, 30.0, 160.0, 0.0, 112.0, 0.0, 0.0, 0.0, 1.700945214548999E9, 0.0, 2023-11-25 15:46:54.548
81.0, 71247.95123910323, 80741.49706858362, -15049.764817925075, -12374.216303135909, -2502.858937127464, -4274.480554399557, -14859.976155755063, 187500.0, -0.078, 0.98, 0.014, 192.0, 0.0, 0.0, 0.0, 0.0, 0.0, 0.0, 0.0, 0.0, 0.0, 1.700945214551995E9, 0.0, 2023-11-25 15:46:54.551
82.0, 71238.11647154289, 80720.77700147356, -14350.915175785445, -11262.75345835131, -1225.5685002289415, -3463.536913816561, -14817.753710478988, 187500.0, -0.078, 0.98, 0.014, 192.0, 0.0, 0.0, 0.0, 0.0, 0.0, 0.0, 0.0, 0.0, 0.0, 1.700945214556995E9, 0.0, 2023-11-25 15:46:54.556
83.0, 71214.557732887, 80686.86940513486, -14557.869977697132, -11389.309035457258, -1275.4799455976422, -3539.1081618199546, -14882.976100799573, 187500.0, -0.078, 0.98, 0.014, 192.0, 0.0, 0.0, 0.0, 0.0, 0.0, 0.0, 0.0, 0.0, 0.0, 1.700945214561013E9, 0.0, 2023-11-25 15:46:54.561
84.0, 71216.0105962766, 80710.49519902411, -14944.242232351571, -11898.727643338161, -1940.712564076491, -3830.172578116963, -14880.47270542058, 187500.0, -0.078, 0.98, 0.014, 192.0, 0.0, 0.0, 0.0, 0.0, 0.0, 0.0, 0.0, 0.0, 0.0, 1.700945214565703E9, 0.0, 2023-11-25 15:46:54.565
85.0, 71236.70831164221, 80745.74390003012, -15125.693693839752, -12414.181222221998, -2572.9987112282174, -4295.08886278735, -14865.005298257507, 187500.0, -0.078, 0.98, 0.014, 192.0, 0.0, 0.0, 0.0, 0.0, 0.0, 0.0, 0.0, 0.0, 0.0, 1.700945214569064E9, 0.0, 2023-11-25 15:46:54.569
86.0, 71234.40608196332, 80735.52915281405, -14406.056929356686, -11396.998035549885, -1392.737197010183, -3573.8427727035014, -14794.418489267648, 187500.0, -0.078, 0.98, 0.014, 192.0, 0.0, 0.0, 0.0, 0.0, 0.0, 0.0, 0.0, 0.0, 0.0, 1.700945214573092E9, 0.0, 2023-11-25 15:46:54.573
87.0, 71218.3575294444, 80696.41360001727, -14491.44059317596, -11289.687310419955, -1189.6939503781737, -3487.5203356171055, -14875.018879773485, 187500.0, -0.078, 0.98, 0.014, 192.0, 0.0, 0.0, 0.0, 0.0, 0.0, 0.0, 0.0, 0.0, 0.0, 1.700945214577165E9, 0.0, 2023-11-25 15:46:54.577
88.0, 71209.43918340674, 80698.76053318508, -14847.190957926627, -11770.205112720147, -1774.3261783511853, -3745.54887360917, -14857.472760376068, 187500.0, -0.078, 0.98, 0.014, 192.0, 0.0, 0.0, 0.0, 0.0, 0.0, 0.0, 0.0, 0.0, 0.0, 1.700945214580054E9, 0.0, 2023-11-25 15:46:54.580
89.0, 71227.34293071544, 80726.70021375421, -15165.412743736833, -12401.21721043792, -2572.618731572477, -4265.0704699838725, -14874.773010584477, 187500.0, -0.078, 0.98, 0.014, 192.0, 0.0, 0.0, 0.0, 0.0, 0.0, 0.0, 0.0, 0.0, 0.0, 1.700945214585073E9, 0.0, 2023-11-25 15:46:54.585
90.0, 71224.63836963635, 80711.81395194697, -14507.153869528041, -11603.05876768336, -1619.0709613646225, -3724.7393995212797, -14797.413623024659, 187500.0, -0.074, 0.988, 0.016, 192.0, 253.0, 176.0, 30.0, 224.0, 0.0, 128.0, 0.0, 0.0, 0.0, 1.700945214589153E9, 0.0, 2023-11-25 15:46:54.589
91.0, 71221.97851204616, 80695.34071628342, -14421.099653375108, -11199.587428520612, -1106.009019137504, -3417.313506282986, -14870.012089015496, 187500.0, -0.074, 0.988, 0.016, 192.0, 0.0, 0.0, 0.0, 0.0, 0.0, 0.0, 0.0, 0.0, 0.0, 1.700945214593072E9, 0.0, 2023-11-25 15:46:54.593
92.0, 71224.19133474724, 80705.55546349949, -14766.59056742079, -11684.888504134238, -1646.2283308778206, -3682.315788545107, -14857.13748420924, 187500.0, -0.074, 0.988, 0.016, 192.0, 0.0, 0.0, 0.0, 0.0, 0.0, 0.0, 0.0, 0.0, 0.0, 1.700945214597066E9, 0.0, 2023-11-25 15:46:54.597
93.0, 71225.44303243674, 80725.51557129808, -15169.503112972156, -12364.940329186957, -2523.3107833040694, -4200.83155641932, -14887.334690968359, 187500.0, -0.074, 0.988, 0.016, 192.0, 0.0, 0.0, 0.0, 0.0, 0.0, 0.0, 0.0, 0.0, 0.0, 1.700945214601159E9, 0.0, 2023-11-25 15:46:54.601
94.0, 71217.55286664401, 80719.90528343979, -14639.6550106591, -11838.087360630914, -1883.4026912930838, -3881.916866530999, -14813.819803454853, 187500.0, -0.074, 0.988, 0.016, 192.0, 0.0, 0.0, 0.0, 0.0, 0.0, 0.0, 0.0, 0.0, 0.0, 1.70094521460426E9, 0.0, 2023-11-25 15:46:54.604
95.0, 71218.60339863341, 80703.63321347634, -14351.965707774843, -11138.455407435347, -1062.981911061038, -3363.7363748236153, -14850.811940528387, 187500.0, -0.074, 0.988, 0.016, 192.0, 0.0, 0.0, 0.0, 0.0, 0.0, 0.0, 0.0, 0.0, 0.0, 1.700945214608279E9, 0.0, 2023-11-25 15:46:54.608
96.0, 71201.10198272491, 80703.11912335386, -14688.404165316126, -11600.488317071, -1534.8272365125702, -3633.521930399171, -14844.866376503274, 187500.0, -0.074, 0.988, 0.016, 192.0, 0.0, 0.0, 0.0, 0.0, 0.0, 0.0, 0.0, 0.0, 0.0, 1.700945214612221E9, 0.0, 2023-11-25 15:46:54.612
97.0, 71196.43046813375, 80737.6078650484, -15126.632467106876, -12282.372985169051, -2418.950488442241, -4112.229241398482, -14877.56697864139, 187500.0, -0.074, 0.988, 0.016, 192.0, 0.0, 0.0, 0.0, 0.0, 0.0, 0.0, 0.0, 0.0, 0.0, 1.700945214617234E9, 0.0, 2023-11-25 15:46:54.617
98.0, 71214.13304974235, 80758.61850483638, -14758.789808605887, -12070.545502966108, -2139.196054839618, -4047.2974237558155, -14792.764460177954, 187500.0, -0.074, 0.988, 0.016, 192.0, 0.0, 0.0, 0.0, 0.0, 0.0, 0.0, 0.0, 0.0, 0.0, 1.700945214621244E9, 0.0, 2023-11-25 15:46:54.621
99.0, 71202.73366007014, 80726.87902770985, -14291.772459956701, -11120.417549659915, -1057.2151609915688, -3347.0396217155007, -14801.571047493346, 187500.0, -0.074, 0.978, 0.022, 192.0, 253.0, 176.0, 30.0, 144.0, 0.0, 176.0, 0.0, 0.0, 0.0, 1.700945214625238E9, 0.0, 2023-11-25 15:46:54.625
100.0, 71184.49463659461, 80708.59530074541, -14620.767786594366, -11536.204700017537, -1449.868255837948, -3608.3315143980403, -14830.628315285245, 187500.0, -0.074, 0.978, 0.022, 192.0, 0.0, 0.0, 0.0, 0.0, 0.0, 0.0, 0.0, 0.0, 0.0, 1.700945214629315E9, 0.0, 2023-11-25 15:46:54.629
101.0, 71182.41592436028, 80733.56219930199, -15045.562689967477, -12135.253803164222, -2261.4153935212366, -3995.7543010418776, -14845.22400441456, 187500.0, -0.074, 0.978, 0.022, 192.0, 0.0, 0.0, 0.0, 0.0, 0.0, 0.0, 0.0, 0.0, 0.0, 1.700945214632718E9, 0.0, 2023-11-25 15:46:54.632
102.0, 71196.92220651176, 80765.70400782872, -14888.295815979936, -12236.395446824485, -2357.1479150233167, -4168.332119981304, -14799.291169558905, 187500.0, -0.074, 0.978, 0.022, 192.0, 0.0, 0.0, 0.0, 0.0, 0.0, 0.0, 0.0, 0.0, 0.0, 1.700945214636263E9, 0.0, 2023-11-25 15:46:54.636
103.0, 71203.31480542598, 80767.44744389624, -14274.82983765958, -11160.315413512637, -1124.8962432022386, -3386.4904506791177, -14788.607035709267, 187500.0, -0.074, 0.978, 0.022, 192.0, 0.0, 0.0, 0.0, 0.0, 0.0, 0.0, 0.0, 0.0, 0.0, 1.700945214640328E9, 0.0, 2023-11-25 15:46:54.640
104.0, 71185.07578195045, 80736.06559468099, -14550.06921888223, -11455.090219389227, -1360.416574527809, -3559.56000799656, -14833.355228108792, 187500.0, -0.074, 0.978, 0.022, 192.0, 0.0, 0.0, 0.0, 0.0, 0.0, 0.0, 0.0, 0.0, 0.0, 1.700945214644301E9, 0.0, 2023-11-25 15:46:54.644
105.0, 71181.72302028215, 80747.15205993081, -14948.489063798079, -11997.052967197058, -2086.22242048054, -3874.9207705164877, -14832.483510075035, 187500.0, -0.074, 0.978, 0.022, 192.0, 0.0, 0.0, 0.0, 0.0, 0.0, 0.0, 0.0, 0.0, 0.0, 1.700945214649385E9, 0.0, 2023-11-25 15:46:54.649
106.0, 71190.84253201992, 80760.29488567053, -14994.511305631555, -12357.318384327697, -2511.5761174650333, -4248.552530831401, -14816.814937211864, 187500.0, -0.074, 0.978, 0.022, 192.0, 0.0, 0.0, 0.0, 0.0, 0.0, 0.0, 0.0, 0.0, 0.0, 1.70094521465332E9, 0.0, 2023-11-25 15:46:54.653
107.0, 71200.0067472466, 80766.08398748445, -14287.190352343363, -11250.057667500696, -1238.1748841017347, -3447.533064786561, -14763.483674941503, 187500.0, -0.074, 0.978, 0.022, 192.0, 0.0, 0.0, 0.0, 0.0, 0.0, 0.0, 0.0, 0.0, 0.0, 1.700945214657435E9, 0.0, 2023-11-25 15:46:54.657
108.0, 71188.67441280776, 80742.48054533965, -14485.517380895304, -11355.20027341846, -1268.9308844722373, -3509.6038591389492, -14833.98107695354, 187500.0, -0.074, 0.978, 0.022, 192.0, 0.0, 0.0, 0.0, 0.0, 0.0, 0.0, 0.0, 0.0, 0.0, 1.700945214660303E9, 0.0, 2023-11-25 15:46:54.660
109.0, 71177.76676151357, 80761.30071417103, -14861.496074378023, -11871.547922080508, -1930.877796516156, -3793.783938143723, -14825.621524527256, 187500.0, -0.076, 0.982, 0.024, 192.0, 253.0, 160.0, 30.0, 176.0, 0.0, 192.0, 0.0, 0.0, 0.0, 1.700945214664364E9, 0.0, 2023-11-25 15:46:54.664
110.0, 71180.78424701504, 80789.39685695134, -15067.892082678329, -12414.36003617764, -2597.295057451136, -4275.151106733216, -14833.466986831068, 187500.0, -0.076, 0.982, 0.024, 192.0, 0.0, 0.0, 0.0, 0.0, 0.0, 0.0, 0.0, 0.0, 0.0, 1.700945214668442E9, 0.0, 2023-11-25 15:46:54.668
111.0, 71190.23903491964, 80792.74961861964, -14358.961803789354, -11435.465387757467, -1446.1802180028224, -3585.1751071423423, -14759.63917489519, 187500.0, -0.076, 0.982, 0.024, 192.0, 0.0, 0.0, 0.0, 0.0, 0.0, 0.0, 0.0, 0.0, 0.0, 1.700945214673367E9, 0.0, 2023-11-25 15:46:54.673
112.0, 71178.39261035832, 80771.7613305761, -14416.808118439689, -11283.60763592811, -1195.0136655585368, -3461.413498093307, -14827.096739661305, 187500.0, -0.076, 0.982, 0.024, 192.0, 0.0, 0.0, 0.0, 0.0, 0.0, 0.0, 0.0, 0.0, 0.0, 1.700945214677367E9, 0.0, 2023-11-25 15:46:54.677
113.0, 71151.97284841214, 80764.38525490585, -14788.83055315382, -11768.573435374909, -1793.235754160375, -3732.0260682137096, -14828.236678628527, 187500.0, -0.076, 0.982, 0.024, 192.0, 0.0, 0.0, 0.0, 0.0, 0.0, 0.0, 0.0, 0.0, 0.0, 1.70094521468136E9, 0.0, 2023-11-25 15:46:54.681
114.0, 71159.1477583823, 80786.44642668325, -15134.544984644055, -12439.148120778576, -2633.3037177686356, -4285.119984760283, -14855.639917330733, 187500.0, -0.076, 0.982, 0.024, 192.0, 0.0, 0.0, 0.0, 0.0, 0.0, 0.0, 0.0, 0.0, 0.0, 1.700945214684329E9, 0.0, 2023-11-25 15:46:54.684
115.0, 71171.66473527727, 80795.07420004299, -14482.63400586057, -11659.943957322117, -1701.4147879379736, -3764.3466906960834, -14762.25432899646, 187500.0, -0.076, 0.982, 0.024, 192.0, 0.0, 0.0, 0.0, 0.0, 0.0, 0.0, 0.0, 0.0, 0.0, 1.700945214688364E9, 0.0, 2023-11-25 15:46:54.688
116.0, 71171.93295621073, 80786.20055749423, -14373.445734196393, -11219.79340550821, -1146.2198074126015, -3434.636108235849, -14824.414530326669, 187500.0, -0.076, 0.982, 0.024, 192.0, 0.0, 0.0, 0.0, 0.0, 0.0, 0.0, 0.0, 0.0, 0.0, 1.700945214692399E9, 0.0, 2023-11-25 15:46:54.692
117.0, 71155.7502932251, 80774.95763003321, -14720.38951163167, -11691.795193170929, -1670.8152497786582, -3697.269105585707, -14812.746919721, 187500.0, -0.076, 0.982, 0.024, 192.0, 0.0, 0.0, 0.0, 0.0, 0.0, 0.0, 0.0, 0.0, 0.0, 1.700945214696448E9, 0.0, 2023-11-25 15:46:54.696
118.0, 71147.54720300999, 80780.65732486932, -15131.482795653677, -12342.409770776007, -2536.78888521062, -4200.429225019125, -14857.092780720328, 187500.0, -0.076, 0.982, 0.024, 192.0, 0.0, 0.0, 0.0, 0.0, 0.0, 0.0, 0.0, 0.0, 0.0, 1.700945214700475E9, 0.0, 2023-11-25 15:46:54.700
119.0, 71163.55105204, 80792.03436279707, -14626.825109341755, -11867.010517956081, -1945.0264507563652, -3924.7875123962776, -14784.606073451767, 187500.0, -0.07200000000000001, 0.986, 0.022, 192.0, 253.0, 192.0, 30.0, 208.0, 0.0, 176.0, 0.0, 0.0, 0.0, 1.700945214705457E9, 0.0, 2023-11-25 15:46:54.705
120.0, 71173.11759866687, 80791.38616220787, -14326.328256884606, -11150.435942463391, -1091.6815509416522, -3390.804337358992, -14825.152137893694, 187500.0, -0.07200000000000001, 0.986, 0.022, 192.0, 0.0, 0.0, 0.0, 0.0, 0.0, 0.0, 0.0, 0.0, 0.0, 1.700945214709447E9, 0.0, 2023-11-25 15:46:54.709
121.0, 71165.07097066296, 80784.68063887127, -14663.146694081628, -11598.744881003486, -1547.0983442185336, -3655.672509154381, -14831.254164129992, 187500.0, -0.07200000000000001, 0.986, 0.022, 192.0, 0.0, 0.0, 0.0, 0.0, 0.0, 0.0, 0.0, 0.0, 0.0, 1.700945214712435E9, 0.0, 2023-11-25 15:46:54.712
122.0, 71156.51025253657, 80795.14125527636, -15102.246713906135, -12249.672383030938, -2413.3178488395038, -4112.00572395393, -14865.385277913247, 187500.0, -0.07200000000000001, 0.986, 0.022, 192.0, 0.0, 0.0, 0.0, 0.0, 0.0, 0.0, 0.0, 0.0, 0.0, 1.700945214716509E9, 0.0, 2023-11-25 15:46:54.716
123.0, 71176.09038067942, 80825.89725564687, -14765.852959853764, -12083.710680450284, -2181.8878867492544, -4082.479069528469, -14789.277588042927, 187500.0, -0.07200000000000001, 0.986, 0.022, 192.0, 0.0, 0.0, 0.0, 0.0, 0.0, 0.0, 0.0, 0.0, 0.0, 1.700945214720461E9, 0.0, 2023-11-25 15:46:54.720
124.0, 71170.39068584332, 80802.8749588579, -14287.235055832274, -11127.592459630068, -1083.4784607265547, -3369.7936975710036, -14802.107489360273, 187500.0, -0.07200000000000001, 0.986, 0.022, 192.0, 0.0, 0.0, 0.0, 0.0, 0.0, 0.0, 0.0, 0.0, 0.0, 1.70094521472452E9, 0.0, 2023-11-25 15:46:54.724
125.0, 71147.07781637643, 80767.78272006306, -14621.483042416936, -11542.70905765403, -1467.123802557445, -3623.6871628388362, -14844.106417191795, 187500.0, -0.07200000000000001, 0.986, 0.022, 192.0, 0.0, 0.0, 0.0, 0.0, 0.0, 0.0, 0.0, 0.0, 0.0, 1.700945214728497E9, 0.0, 2023-11-25 15:46:54.728
126.0, 71157.18080487022, 80808.6193571829, -15041.449968987701, -12139.768855544193, -2267.338605801893, -4003.130376712129, -14855.841083030831, 187500.0, -0.07200000000000001, 0.986, 0.022, 192.0, 0.0, 0.0, 0.0, 0.0, 0.0, 0.0, 0.0, 0.0, 0.0, 1.700945214733494E9, 0.0, 2023-11-25 15:46:54.733
127.0, 71177.99027895812, 80832.26750281663, -14901.885676608763, -12272.09118271961, -2398.3198283099923, -4207.760597200465, -14802.68863471611, 187500.0, -0.07200000000000001, 0.986, 0.022, 192.0, 0.0, 0.0, 0.0, 0.0, 0.0, 0.0, 0.0, 0.0, 0.0, 1.700945214737548E9, 0.0, 2023-11-25 15:46:54.737
128.0, 71175.06220043448, 80810.18397929479, -14279.501352250738, -11197.888695942009, -1158.84854302985, -3415.927698126757, -14781.454477483569, 187500.0, -0.07200000000000001, 0.986, 0.022, 192.0, 0.0, 0.0, 0.0, 0.0, 0.0, 0.0, 0.0, 0.0, 0.0, 1.700945214740579E9, 0.0, 2023-11-25 15:46:54.740
129.0, 71161.6958572502, 80784.99356329365, -14546.559995002746, -11465.796704983319, -1366.9432839087588, -3580.503592551183, -14829.846004229308, 187500.0, -0.076, 0.986, 0.02, 192.0, 253.0, 160.0, 30.0, 208.0, 0.0, 160.0, 0.0, 0.0, 0.0, 1.700945214744531E9, 0.0, 2023-11-25 15:46:54.744
130.0, 71150.7435024671, 80798.18109252228, -14947.974973675606, -12003.244400411177, -2086.6024001362803, -3890.812860824211, -14840.530138078946, 187500.0, -0.076, 0.986, 0.02, 192.0, 0.0, 0.0, 0.0, 0.0, 0.0, 0.0, 0.0, 0.0, 0.0, 1.700945214748655E9, 0.0, 2023-11-25 15:46:54.748
131.0, 71169.20604338718, 80819.25878754363, -15014.918448319251, -12386.934445730978, -2541.1474753794046, -4270.36783341978, -14822.760501236977, 187500.0, -0.076, 0.986, 0.02, 192.0, 0.0, 0.0, 0.0, 0.0, 0.0, 0.0, 0.0, 0.0, 0.0, 1.700945214752585E9, 0.0, 2023-11-25 15:46:54.752
132.0, 71170.65890677678, 80809.75929615014, -14316.269971879718, -11284.680519661966, -1275.3681868753656, -3481.9771029921894, -14778.660509426656, 187500.0, -0.076, 0.986, 0.02, 192.0, 0.0, 0.0, 0.0, 0.0, 0.0, 0.0, 0.0, 0.0, 0.0, 1.700945214756577E9, 0.0, 2023-11-25 15:46:54.756
133.0, 71168.26727012006, 80791.74379011916, -14497.475564178892, -11359.87178800962, -1271.1884106622233, -3518.9692400657227, -14842.340629379825, 187500.0, -0.076, 0.986, 0.02, 192.0, 0.0, 0.0, 0.0, 0.0, 0.0, 0.0, 0.0, 0.0, 0.0, 1.700945214761571E9, 0.0, 2023-11-25 15:46:54.761
134.0, 71161.11471189436, 80799.29867974504, -14875.018879773485, -11865.356488866388, -1920.0819039442426, -3798.9024876239882, -14836.707989777087, 187500.0, -0.076, 0.986, 0.02, 192.0, 0.0, 0.0, 0.0, 0.0, 0.0, 0.0, 0.0, 0.0, 0.0, 1.700945214765844E9, 0.0, 2023-11-25 15:46:54.765
135.0, 71166.70264800818, 80815.83897064197, -15101.866734250396, -12421.758463592347, -2608.2474122342364, -4289.612685395799, -14846.408646870692, 187500.0, -0.076, 0.986, 0.02, 192.0, 0.0, 0.0, 0.0, 0.0, 0.0, 0.0, 0.0, 0.0, 0.0, 1.700945214768659E9, 0.0, 2023-11-25 15:46:54.768
136.0, 71158.9018891933, 80807.05473507104, -14400.178420564942, -11454.531425777845, -1474.477526483241, -3604.8446422630122, -14778.280529770915, 187500.0, -0.076, 0.986, 0.02, 192.0, 0.0, 0.0, 0.0, 0.0, 0.0, 0.0, 0.0, 0.0, 0.0, 1.700945214771789E9, 0.0, 2023-11-25 15:46:54.771
137.0, 71164.28865960702, 80803.14317979135, -14440.769188495779, -11288.882647619565, -1201.5180231950312, -3465.436812095262, -14838.674943289156, 187500.0, -0.076, 0.986, 0.02, 192.0, 0.0, 0.0, 0.0, 0.0, 0.0, 0.0, 0.0, 0.0, 0.0, 1.700945214776678E9, 0.0, 2023-11-25 15:46:54.776
138.0, 71148.77654895504, 80803.99254608066, -14797.011291624463, -11774.09431625537, -1781.299922621241, -3734.2835944036956, -14829.756597251488, 187500.0, -0.076, 0.986, 0.02, 192.0, 0.0, 0.0, 0.0, 0.0, 0.0, 0.0, 0.0, 0.0, 0.0, 1.700945214780705E9, 0.0, 2023-11-25 15:46:54.780
139.0, 71161.0029531721, 80826.23253181369, -15141.317563214012, -12422.69723685947, -2607.1745285003817, -4262.857647282797, -14857.964498754085, 187500.0, -0.074, 0.976, 0.018000000000000002, 192.0, 253.0, 176.0, 30.0, 128.0, 0.0, 144.0, 0.0, 0.0, 0.0, 1.700945214784701E9, 0.0, 2023-11-25 15:46:54.784
140.0, 71168.02140093106, 80832.60277898345, -14510.48427945188, -11678.45120173111, -1714.5576136776942, -3762.133867995008, -14777.431163481613, 187500.0, -0.074, 0.976, 0.018000000000000002, 192.0, 0.0, 0.0, 0.0, 0.0, 0.0, 0.0, 0.0, 0.0, 0.0, 1.700945214788662E9, 0.0, 2023-11-25 15:46:54.788
141.0, 71147.01076114306, 80791.63203139688, -14403.866458400067, -11240.602879596101, -1150.3548801368333, -3428.087047110444, -14859.596176099323, 187500.0, -0.074, 0.976, 0.018000000000000002, 192.0, 0.0, 0.0, 0.0, 0.0, 0.0, 0.0, 0.0, 0.0, 0.0, 1.700945214793674E9, 0.0, 2023-11-25 15:46:54.793
142.0, 71156.6443630033, 80804.05960131403, -14746.183424733093, -11710.12362362428, -1672.4916306128064, -3693.782233450679, -14839.189033411627, 187500.0, -0.074, 0.976, 0.018000000000000002, 192.0, 0.0, 0.0, 0.0, 0.0, 0.0, 0.0, 0.0, 0.0, 0.0, 1.700945214796709E9, 0.0, 2023-11-25 15:46:54.796
143.0, 71174.57046205646, 80840.3811860539, -15137.629525378887, -12357.854826194623, -2534.106675875983, -4186.951123112574, -14842.787664268932, 187500.0, -0.074, 0.976, 0.018000000000000002, 192.0, 0.0, 0.0, 0.0, 0.0, 0.0, 0.0, 0.0, 0.0, 0.0, 1.700945214800783E9, 0.0, 2023-11-25 15:46:54.800
144.0, 71180.33721212593, 80843.577485511, -14632.61421115568, -11874.632462815342, -1953.5871688827478, -3913.209308768429, -14760.130913273206, 187500.0, -0.074, 0.976, 0.018000000000000002, 192.0, 0.0, 0.0, 0.0, 0.0, 0.0, 0.0, 0.0, 0.0, 0.0, 1.700945214804723E9, 0.0, 2023-11-25 15:46:54.804
145.0, 71173.11759866687, 80820.64459569987, -14331.960896487344, -11138.567166157623, -1088.5076032289987, -3373.7946598285034, -14819.653608757688, 187500.0, -0.074, 0.976, 0.018000000000000002, 192.0, 0.0, 0.0, 0.0, 0.0, 0.0, 0.0, 0.0, 0.0, 0.0, 1.700945214808737E9, 0.0, 2023-11-25 15:46:54.808
146.0, 71156.30908683647, 80810.11692406141, -14681.497476279435, -11618.816747524352, -1564.4880014047626, -3662.15451504642, -14840.977172968052, 187500.0, -0.074, 0.976, 0.018000000000000002, 192.0, 0.0, 0.0, 0.0, 0.0, 0.0, 0.0, 0.0, 0.0, 0.0, 1.700945214812785E9, 0.0, 2023-11-25 15:46:54.812
147.0, 71155.794996714, 80827.99831962567, -15110.494507610145, -12254.500359833284, -2417.207052374727, -4098.393511580648, -14869.207426215104, 187500.0, -0.074, 0.976, 0.018000000000000002, 192.0, 0.0, 0.0, 0.0, 0.0, 0.0, 0.0, 0.0, 0.0, 0.0, 1.700945214816732E9, 0.0, 2023-11-25 15:46:54.816
148.0, 71173.49757832261, 80839.21889534223, -14799.78290793692, -12115.740730254738, -2222.2998407244495, -4095.3760260791814, -14800.02877712593, 187500.0, -0.074, 0.976, 0.018000000000000002, 192.0, 0.0, 0.0, 0.0, 0.0, 0.0, 0.0, 0.0, 0.0, 0.0, 1.700945214820745E9, 0.0, 2023-11-25 15:46:54.820
149.0, 71172.33528761093, 80826.47840100269, -14303.060090906632, -11134.141520755473, -1094.2520015540126, -3368.6314068593274, -14804.92380916164, 187500.0, -0.074, 0.982, 0.018000000000000002, 192.0, 253.0, 176.0, 30.0, 176.0, 0.0, 144.0, 0.0, 0.0, 0.0, 1.700945214824764E9, 0.0, 2023-11-25 15:46:54.824
150.0, 71169.54131955402, 80826.72427019171, -14611.357702178682, -11514.009417773417, -1436.4348574203084, -3592.1041479234873, -14825.50976580498, 187500.0, -0.074, 0.982, 0.018000000000000002, 192.0, 0.0, 0.0, 0.0, 0.0, 0.0, 0.0, 0.0, 0.0, 0.0, 1.700945214828008E9, 0.0, 2023-11-25 15:46:54.828
151.0, 71167.28379336403, 80853.99339842718, -15030.139986293316, -12109.571648785073, -2232.335773984882, -3977.783498499811, -14842.631202057744, 187500.0, -0.074, 0.982, 0.018000000000000002, 192.0, 0.0, 0.0, 0.0, 0.0, 0.0, 0.0, 0.0, 0.0, 0.0, 1.700945214832831E9, 0.0, 2023-11-25 15:46:54.832
152.0, 71158.9465926822, 80851.22178211472, -14932.90989791273, -12286.351595682097, -2412.759055228121, -4207.760597200465, -14820.435919813624, 187500.0, -0.074, 0.982, 0.018000000000000002, 192.0, 0.0, 0.0, 0.0, 0.0, 0.0, 0.0, 0.0, 0.0, 0.0, 1.700945214836981E9, 0.0, 2023-11-25 15:46:54.836
153.0, 71165.65211601878, 80840.40353779835, -14304.580009529593, -11212.976123449342, -1169.9797117685928, -3412.9549161142013, -14796.161925335162, 187500.0, -0.074, 0.982, 0.018000000000000002, 192.0, 0.0, 0.0, 0.0, 0.0, 0.0, 0.0, 0.0, 0.0, 0.0, 1.700945214840924E9, 0.0, 2023-11-25 15:46:54.840
154.0, 71162.83579621742, 80827.66304345883, -14557.44529455248, -11477.084335933248, -1363.478763518186, -3578.2013628722866, -14837.356190366292, 187500.0, -0.074, 0.982, 0.018000000000000002, 192.0, 0.0, 0.0, 0.0, 0.0, 0.0, 0.0, 0.0, 0.0, 0.0, 1.700945214844798E9, 0.0, 2023-11-25 15:46:54.844
