%OpenBCI Raw EXG Data
%Number of channels = 8
%Sample Rate = 250 Hz
%Board = OpenBCI_GUI$BoardCytonSerial
Sample Index, EXG Channel 0, EXG Channel 1, EXG Channel 2, EXG Channel 3, EXG Channel 4, EXG Channel 5, EXG Channel 6, EXG Channel 7, Accel Channel 0, Accel Channel 1, Accel Channel 2, Other, Other, Other, Other, Other, Other, Other, Analog Channel 0, Analog Channel 1, Analog Channel 2, Timestamp, Other, Timestamp (Formatted)
10.0, 23952.64344842952, 33342.432480148374, -48333.34515492262, -44293.937896959535, -61113.826765278194, -14423.871269687566, -7738.106875193939, -25985.89223455098, 0.0, 0.0, 0.0, 192.0, 0.0, 0.0, 0.0, 0.0, 0.0, 0.0, 0.0, 0.0, 0.0, 1.700950444953429E9, 0.0, 2023-11-25 17:14:04.953
11.0, 23885.364697619047, 33244.66594990086, -48370.78432688527, -44355.96398782301, -61169.95199560547, -14507.19857301695, -7657.461781199191, -25992.463647420842, 0.0, 0.0, 0.0, 192.0, 0.0, 0.0, 0.0, 0.0, 0.0, 0.0, 0.0, 0.0, 0.0, 1.700950444953454E9, 0.0, 2023-11-25 17:14:04.953
12.0, 23886.72815403082, 33288.29655507762, -48364.52583843778, -44326.41498165309, -61175.40582125257, -14492.58053214318, -7820.9200884008515, -25971.207138443846, 0.0, 0.0, 0.0, 192.0, 0.0, 0.0, 0.0, 0.0, 0.0, 0.0, 0.0, 0.0, 0.0, 1.700950444953468E9, 0.0, 2023-11-25 17:14:04.953
13.0, 23945.043855314718, 33381.6821434119, -48310.65813430049, -44258.66684420906, -61131.50699514234, -14461.802180028222, -8054.249948769802, -25930.884591446473, 0.0, 0.0, 0.0, 192.0, 0.0, 0.0, 0.0, 0.0, 0.0, 0.0, 0.0, 0.0, 0.0, 1.70095044495348E9, 0.0, 2023-11-25 17:14:04.953
14.0, 23969.966050382383, 33373.88138459699, -48318.190672181925, -44263.65128322259, -61089.642177777554, -14408.292103802218, -7814.862765653464, -25973.822292545115, 0.0, 0.0, 0.0, 192.0, 0.0, 0.0, 0.0, 0.0, 0.0, 0.0, 0.0, 0.0, 0.0, 1.700950444953493E9, 0.0, 2023-11-25 17:14:04.953
15.0, 23895.15476169047, 33268.31409553457, -48370.11377455161, -44342.307071960815, -61153.21053900845, -14499.57662815769, -7653.32670847496, -26032.495621740298, 0.0, 0.0, 0.0, 192.0, 0.0, 0.0, 0.0, 0.0, 0.0, 0.0, 0.0, 0.0, 0.0, 1.700950444953506E9, 0.0, 2023-11-25 17:14:04.953
16.0, 23887.354002875567, 33291.82813070156, -48363.229437259375, -44319.28477517185, -61162.33005074621, -14492.53582865427, -7810.548878973589, -25999.370336457534, 0.0, 0.0, 0.0, 192.0, 0.0, 0.0, 0.0, 0.0, 0.0, 0.0, 0.0, 0.0, 0.0, 1.700950444953518E9, 0.0, 2023-11-25 17:14:04.953
0.0, 0.0, 0.0, 0.0, 0.0, 0.0, 0.0, 0.0, 0.0, 0.0, 0.0, 0.0, 192.0, 0.0, 0.0, 0.0, 0.0, 0.0, 0.0, 0.0, 0.0, 0.0, 1.700950445042021E9, 0.0, 2023-11-25 17:14:05.042
1.0, 24258.996457933958, 33723.73088881146, -48274.31419781616, -44177.57471532521, -61215.124871149645, -14691.935740940064, -7533.29784074996, -26234.33187417172, -0.148, 0.9440000000000001, 0.244, 192.0, 251.0, 96.0, 29.0, 128.0, 7.0, 160.0, 0.0, 0.0, 0.0, 1.70095044505812E9, 0.0, 2023-11-25 17:14:05.058
2.0, 24281.795237278373, 33796.709334458035, -48250.97897660482, -44130.72545894688, -61204.53014427783, -14666.611214472201, -7714.279915604582, -26194.90339695256, -0.148, 0.9440000000000001, 0.244, 192.0, 0.0, 0.0, 0.0, 0.0, 0.0, 0.0, 0.0, 0.0, 0.0, 1.700950445062202E9, 0.0, 2023-11-25 17:14:05.062
3.0, 24347.15173806569, 33874.024018528944, -48197.98299050129, -44071.91801928497, -61150.52832967381, -14617.973818537454, -7843.137722389427, -26159.431178501985, -0.148, 0.9440000000000001, 0.244, 192.0, 0.0, 0.0, 0.0, 0.0, 0.0, 0.0, 0.0, 0.0, 0.0, 1.700950445065084E9, 0.0, 2023-11-25 17:14:05.065
4.0, 24336.221735027044, 33813.74136373298, -48240.45130496637, -44124.48932224385, -61154.171664020025, -14619.091405760219, -7509.448529416148, -26232.96841775995, -0.148, 0.9440000000000001, 0.244, 192.0, 0.0, 0.0, 0.0, 0.0, 0.0, 0.0, 0.0, 0.0, 0.0, 1.700950445070096E9, 0.0, 2023-11-25 17:14:05.070
5.0, 24269.591184805773, 33730.52581912587, -48271.721395459346, -44175.585410068685, -61213.13556589313, -14701.837563733765, -7502.899468290743, -26240.90328704158, -0.148, 0.9440000000000001, 0.244, 192.0, 0.0, 0.0, 0.0, 0.0, 0.0, 0.0, 0.0, 0.0, 0.0, 1.70095044507314E9, 0.0, 2023-11-25 17:14:05.073
6.0, 24286.109123958246, 33795.994078635464, -48246.486275969306, -44127.35034553413, -61200.171554109045, -14663.70548769301, -7669.41996448278, -26185.04627764777, -0.148, 0.9440000000000001, 0.244, 192.0, 0.0, 0.0, 0.0, 0.0, 0.0, 0.0, 0.0, 0.0, 0.0, 1.700950445076086E9, 0.0, 2023-11-25 17:14:05.076
7.0, 24333.2936565034, 33870.537146393915, -48198.11710096802, -44070.06282449518, -61157.4350187105, -14623.874679073655, -7847.406905580391, -26134.911314834513, -0.148, 0.9440000000000001, 0.244, 192.0, 0.0, 0.0, 0.0, 0.0, 0.0, 0.0, 0.0, 0.0, 0.0, 1.700950445082144E9, 0.0, 2023-11-25 17:14:05.082
8.0, 24337.786357138917, 33829.275826129415, -48227.48729318229, -44103.63514466705, -61142.32523945871, -14596.382033393626, -7557.035393361497, -26194.054030663257, -0.154, 0.9420000000000001, 0.246, 192.0, 251.0, 48.0, 29.0, 112.0, 7.0, 176.0, 0.0, 0.0, 0.0, 1.700950445085133E9, 0.0, 2023-11-25 17:14:05.085
9.0, 24269.65824003914, 33738.684205852056, -48268.72626170234, -44171.4279856, -61207.27940884583, -14685.923121681586, -7475.0044912105195, -26235.42710965003, -0.154, 0.9420000000000001, 0.246, 192.0, 0.0, 0.0, 0.0, 0.0, 0.0, 0.0, 0.0, 0.0, 0.0, 1.700950445090249E9, 0.0, 2023-11-25 17:14:05.090
10.0, 24269.99351620597, 33779.94552611656, -48258.98090111982, -44139.97908115138, -61208.978141424435, -14660.308022535804, -7620.670809825756, -26180.017135145325, -0.154, 0.9420000000000001, 0.246, 192.0, 0.0, 0.0, 0.0, 0.0, 0.0, 0.0, 0.0, 0.0, 0.0, 1.700950445094171E9, 0.0, 2023-11-25 17:14:05.094
11.0, 24314.786412094407, 33852.67810257412, -48215.12677849851, -44083.98796129083, -61176.03167009731, -14631.027237299353, -7824.652829724888, -26129.681006631974, -0.154, 0.9420000000000001, 0.246, 192.0, 0.0, 0.0, 0.0, 0.0, 0.0, 0.0, 0.0, 0.0, 0.0, 1.70095044509719E9, 0.0, 2023-11-25 17:14:05.097
12.0, 24342.457871730076, 33840.11642219024, -48215.77497908771, -44085.44082468043, -61132.66928585402, -14572.912701715553, -7602.878821239331, -26152.524489465297, -0.154, 0.9420000000000001, 0.246, 192.0, 0.0, 0.0, 0.0, 0.0, 0.0, 0.0, 0.0, 0.0, 0.0, 1.700950445101763E9, 0.0, 2023-11-25 17:14:05.101
13.0, 24268.697115027564, 33733.856229049714, -48270.00031113629, -44166.39884309755, -61195.94707440699, -14665.627737716168, -7431.552699989403, -26223.53598159981, -0.154, 0.9420000000000001, 0.246, 192.0, 0.0, 0.0, 0.0, 0.0, 0.0, 0.0, 0.0, 0.0, 0.0, 1.700950445104296E9, 0.0, 2023-11-25 17:14:05.104
14.0, 24262.23746087998, 33757.52672642788, -48264.77000293374, -44148.316281833206, -61207.48057454593, -14667.818208672788, -7579.633007005812, -26214.729394284415, -0.154, 0.9420000000000001, 0.246, 192.0, 0.0, 0.0, 0.0, 0.0, 0.0, 0.0, 0.0, 0.0, 0.0, 1.700950445108211E9, 0.0, 2023-11-25 17:14:05.108
15.0, 24306.918598046137, 33838.730614034015, -48219.7312378563, -44087.94422005943, -61178.26684454285, -14632.234231499939, -7792.220448520237, -26138.509945691818, -0.154, 0.9420000000000001, 0.246, 192.0, 0.0, 0.0, 0.0, 0.0, 0.0, 0.0, 0.0, 0.0, 0.0, 1.700950445113168E9, 0.0, 2023-11-25 17:14:05.113
16.0, 24347.48701423252, 33853.952152008074, -48204.82262430461, -44069.615789606076, -61125.583782861686, -14560.73100098741, -7658.624071910867, -26124.69656761844, -0.154, 0.9420000000000001, 0.246, 192.0, 0.0, 0.0, 0.0, 0.0, 0.0, 0.0, 0.0, 0.0, 0.0, 1.700950445119288E9, 0.0, 2023-11-25 17:14:05.119
17.0, 24282.175216934113, 33752.5646391588, -48265.37350003404, -44153.770107480304, -61181.507847488865, -14635.27406874586, -7413.6042491917915, -26194.925748697013, -0.154, 0.9420000000000001, 0.246, 192.0, 0.0, 0.0, 0.0, 0.0, 0.0, 0.0, 0.0, 0.0, 0.0, 1.700950445122869E9, 0.0, 2023-11-25 17:14:05.122
18.0, 24254.883736954183, 33749.18952574606, -48273.28601757122, -44157.45814531543, -61210.6992257475, -14662.453790003514, -7551.559215969946, -26191.103600395156, -0.16, 0.9400000000000001, 0.254, 192.0, 251.0, 0.0, 29.0, 96.0, 7.0, 240.0, 0.0, 0.0, 0.0, 1.700950445126251E9, 0.0, 2023-11-25 17:14:05.126
19.0, 24282.443437867576, 33823.30791035985, -48243.71465965684, -44111.81588313769, -61198.718690719455, -14647.813397385287, -7770.0251662761175, -26161.04050410277, -0.16, 0.9400000000000001, 0.254, 192.0, 0.0, 0.0, 0.0, 0.0, 0.0, 0.0, 0.0, 0.0, 0.0, 1.700950445129303E9, 0.0, 2023-11-25 17:14:05.129
20.0, 24339.596848439796, 33864.92685853563, -48208.868290051025, -44071.58274311814, -61139.10658825715, -14585.429678610526, -7755.787105058087, -26148.679989418983, -0.16, 0.9400000000000001, 0.254, 192.0, 0.0, 0.0, 0.0, 0.0, 0.0, 0.0, 0.0, 0.0, 0.0, 1.700950445133393E9, 0.0, 2023-11-25 17:14:05.133
21.0, 24294.04399323988, 33769.59666843375, -48264.94881688939, -44148.69626148895, -61176.92573987553, -14636.212842012983, -7452.719801988578, -26233.214286948954, -0.16, 0.9400000000000001, 0.254, 192.0, 0.0, 0.0, 0.0, 0.0, 0.0, 0.0, 0.0, 0.0, 0.0, 1.700950445137401E9, 0.0, 2023-11-25 17:14:05.137
22.0, 24251.218050863514, 33730.59287435924, -48276.61642749506, -44165.16949715251, -61215.30368510529, -14684.693775736545, -7547.06651533443, -26231.582609603716, -0.16, 0.9400000000000001, 0.254, 192.0, 0.0, 0.0, 0.0, 0.0, 0.0, 0.0, 0.0, 0.0, 0.0, 1.700950445140294E9, 0.0, 2023-11-25 17:14:05.140
23.0, 24272.876891240703, 33800.88911067118, -48249.30259577067, -44118.320240774185, -61205.625379756144, -14659.056324846308, -7731.267241390615, -26181.112370623636, -0.16, 0.9400000000000001, 0.254, 192.0, 0.0, 0.0, 0.0, 0.0, 0.0, 0.0, 0.0, 0.0, 0.0, 1.700950445144263E9, 0.0, 2023-11-25 17:14:05.144
24.0, 24333.807746625873, 33863.69751259059, -48202.90037428145, -44067.090042482625, -61147.98023080591, -14605.45684164248, -7801.921105613841, -26158.93944012397, -0.16, 0.9400000000000001, 0.254, 192.0, 0.0, 0.0, 0.0, 0.0, 0.0, 0.0, 0.0, 0.0, 0.0, 1.700950445148312E9, 0.0, 2023-11-25 17:14:05.148
25.0, 24302.89528404418, 33787.478063997994, -48259.27147379774, -44138.190941594956, -61170.84606538369, -14632.748321622412, -7473.95395922112, -26239.696292840996, -0.16, 0.9400000000000001, 0.254, 192.0, 0.0, 0.0, 0.0, 0.0, 0.0, 0.0, 0.0, 0.0, 0.0, 1.70095044515231E9, 0.0, 2023-11-25 17:14:05.152
26.0, 24250.391036318666, 33726.033118490355, -48281.75732871978, -44174.98191296839, -61221.852746230696, -14704.229200390482, -7531.263832004528, -26247.47469991144, -0.16, 0.9400000000000001, 0.254, 192.0, 0.0, 0.0, 0.0, 0.0, 0.0, 0.0, 0.0, 0.0, 0.0, 1.70095044515829E9, 0.0, 2023-11-25 17:14:05.158
27.0, 24275.13441743069, 33798.251604825455, -48257.662148196956, -44127.99854612334, -61211.570943781255, -14676.736554710455, -7706.635619000866, -26207.66624303654, -0.16, 0.9400000000000001, 0.254, 192.0, 0.0, 0.0, 0.0, 0.0, 0.0, 0.0, 0.0, 0.0, 0.0, 1.700950445161368E9, 0.0, 2023-11-25 17:14:05.161
28.0, 24335.551182693387, 33873.71109410657, -48204.5767551156, -44066.41949014896, -61157.6361844106, -14625.148728507607, -7838.063876398072, -26150.60223944214, -0.164, 0.9380000000000001, 0.254, 192.0, 250.0, 224.0, 29.0, 80.0, 7.0, 240.0, 0.0, 0.0, 0.0, 1.70095044516738E9, 0.0, 2023-11-25 17:14:05.167
29.0, 24317.71449061805, 33806.700564229555, -48251.47071498284, -44121.91887163149, -61161.726553645916, -14619.739606349422, -7504.955828780631, -26215.84698150718, -0.164, 0.9380000000000001, 0.254, 192.0, 0.0, 0.0, 0.0, 0.0, 0.0, 0.0, 0.0, 0.0, 0.0, 1.700950445170969E9, 0.0, 2023-11-25 17:14:05.170
30.0, 24251.3745130747, 33724.9602347565, -48284.21602060986, -44180.23457291539, -61222.344484608715, -14710.532392326879, -7500.038445000464, -26247.2958859558, -0.164, 0.9380000000000001, 0.254, 192.0, 0.0, 0.0, 0.0, 0.0, 0.0, 0.0, 0.0, 0.0, 0.0, 1.700950445173334E9, 0.0, 2023-11-25 17:14:05.173
31.0, 24261.924536457605, 33776.81628189281, -48268.1898198354, -44141.610758496616, -61217.49415606191, -14682.168028613094, -7666.514237703591, -26210.035527948803, -0.164, 0.9380000000000001, 0.254, 192.0, 0.0, 0.0, 0.0, 0.0, 0.0, 0.0, 0.0, 0.0, 0.0, 1.700950445177322E9, 0.0, 2023-11-25 17:14:05.177
32.0, 24321.67074938664, 33860.27769568893, -48208.935345284386, -44075.24842920881, -61167.448600226475, -14631.6530861441, -7854.559463806089, -26139.381663725577, -0.164, 0.9380000000000001, 0.254, 192.0, 0.0, 0.0, 0.0, 0.0, 0.0, 0.0, 0.0, 0.0, 0.0, 1.700950445180387E9, 0.0, 2023-11-25 17:14:05.180
33.0, 24340.66973217365, 33836.09310818829, -48220.35708670105, -44091.967534061376, -61133.78687307679, -14584.312091387761, -7567.1607335997505, -26178.51956826682, -0.164, 0.9380000000000001, 0.254, 192.0, 0.0, 0.0, 0.0, 0.0, 0.0, 0.0, 0.0, 0.0, 0.0, 1.700950445185408E9, 0.0, 2023-11-25 17:14:05.185
34.0, 24263.355048102745, 33727.351871413215, -48265.149982589486, -44164.63305528558, -61197.33288256323, -14673.741420953444, -7458.6877177581455, -26213.61180706165, -0.164, 0.9380000000000001, 0.254, 192.0, 0.0, 0.0, 0.0, 0.0, 0.0, 0.0, 0.0, 0.0, 0.0, 1.700950445189393E9, 0.0, 2023-11-25 17:14:05.189
35.0, 24264.070303925313, 33761.50533694093, -48253.10239232807, -44134.70406945993, -61198.986911652915, -14655.077714333263, -7608.064425952963, -26184.08515263619, -0.164, 0.9380000000000001, 0.254, 192.0, 0.0, 0.0, 0.0, 0.0, 0.0, 0.0, 0.0, 0.0, 0.0, 1.700950445194423E9, 0.0, 2023-11-25 17:14:05.194
36.0, 24314.62994988322, 33851.76168105146, -48205.8284528051, -44077.28243795424, -61167.71682115994, -14629.127339020652, -7816.717960443254, -26136.99002706886, -0.164, 0.9380000000000001, 0.254, 192.0, 0.0, 0.0, 0.0, 0.0, 0.0, 0.0, 0.0, 0.0, 0.0, 1.700950445198411E9, 0.0, 2023-11-25 17:14:05.198
37.0, 24341.876726374237, 33843.5362390919, -48208.06362725063, -44080.14346124452, -61126.366093917626, -14579.417059352048, -7608.712626542167, -26161.107559336135, -0.164, 0.9380000000000001, 0.254, 192.0, 0.0, 0.0, 0.0, 0.0, 0.0, 0.0, 0.0, 0.0, 0.0, 1.700950445201515E9, 0.0, 2023-11-25 17:14:05.201
38.0, 24267.490120826977, 33733.45389764952, -48258.73503193081, -44155.35708133663, -61181.10551608867, -14661.269147547382, -7425.741246431023, -26211.309577382755, -0.166, 0.9460000000000001, 0.254, 192.0, 250.0, 208.0, 29.0, 144.0, 7.0, 240.0, 0.0, 0.0, 0.0, 1.700950445204473E9, 0.0, 2023-11-25 17:14:05.204
39.0, 24252.603859019742, 33748.78719434586, -48255.69519468489, -44137.69920321694, -61194.11423136166, -14658.363420768193, -7567.563064999947, -26174.94328915397, -0.166, 0.9460000000000001, 0.254, 192.0, 0.0, 0.0, 0.0, 0.0, 0.0, 0.0, 0.0, 0.0, 0.0, 1.700950445208466E9, 0.0, 2023-11-25 17:14:05.208
40.0, 24306.113935245747, 33844.07268095883, -48207.84010980608, -44078.22121122137, -61164.788742636294, -14636.212842012983, -7793.963884587752, -26133.145527022545, -0.166, 0.9460000000000001, 0.254, 192.0, 0.0, 0.0, 0.0, 0.0, 0.0, 0.0, 0.0, 0.0, 0.0, 1.700950445212449E9, 0.0, 2023-11-25 17:14:05.212
41.0, 24359.422845771653, 33871.788844083414, -48184.527240339194, -44054.30484465419, -61108.19412567546, -14571.281024370317, -7691.995226382641, -26142.17563178249, -0.166, 0.9460000000000001, 0.254, 192.0, 0.0, 0.0, 0.0, 0.0, 0.0, 0.0, 0.0, 0.0, 0.0, 1.700950445217456E9, 0.0, 2023-11-25 17:14:05.217
42.0, 24295.13922871819, 33758.80077586183, -48251.47071498284, -44143.62241549759, -61167.89563511559, -14646.271127017872, -7430.256298810995, -26214.304711139765, -0.166, 0.9460000000000001, 0.254, 192.0, 0.0, 0.0, 0.0, 0.0, 0.0, 0.0, 0.0, 0.0, 0.0, 1.70095044522149E9, 0.0, 2023-11-25 17:14:05.221
43.0, 24273.94977497456, 33752.27406648089, -48251.76128766075, -44143.711822475416, -61194.74008020641, -14676.624795988178, -7564.702041709667, -26201.51951331133, -0.166, 0.9460000000000001, 0.254, 192.0, 0.0, 0.0, 0.0, 0.0, 0.0, 0.0, 0.0, 0.0, 0.0, 1.700950445225797E9, 0.0, 2023-11-25 17:14:05.225
44.0, 24308.036185268902, 33836.36132912175, -48217.76428434423, -44091.05111253871, -61177.529236975824, -14648.193377041029, -7766.113610996439, -26152.3233237652, -0.166, 0.9460000000000001, 0.254, 192.0, 0.0, 0.0, 0.0, 0.0, 0.0, 0.0, 0.0, 0.0, 0.0, 1.7009504452287E9, 0.0, 2023-11-25 17:14:05.228
45.0, 24351.465624745564, 33862.53522187891, -48195.34548465556, -44064.921923270456, -61134.0774457547, -14601.545286362802, -7759.452791148758, -26156.1231203226, -0.166, 0.9460000000000001, 0.254, 192.0, 0.0, 0.0, 0.0, 0.0, 0.0, 0.0, 0.0, 0.0, 0.0, 1.700950445234548E9, 0.0, 2023-11-25 17:14:05.234
46.0, 24310.383118436708, 33767.65206666614, -48248.006194592264, -44137.006299138826, -61165.25812926986, -14643.745379894423, -7451.199883365618, -26228.520420613342, -0.166, 0.9460000000000001, 0.254, 192.0, 0.0, 0.0, 0.0, 0.0, 0.0, 0.0, 0.0, 0.0, 0.0, 1.700950445237528E9, 0.0, 2023-11-25 17:14:05.237
47.0, 24266.797216748862, 33728.134182469155, -48262.71364244386, -44159.581561038685, -61209.045196657804, -14699.982368943975, -7544.630175188801, -26230.979112503424, -0.162, 0.9440000000000001, 0.252, 192.0, 250.0, 240.0, 29.0, 128.0, 7.0, 224.0, 0.0, 0.0, 0.0, 1.700950445240573E9, 0.0, 2023-11-25 17:14:05.240
48.0, 24294.37926940671, 33806.857026440746, -48236.048011308674, -44110.8100546372, -61196.21529534046, -14671.863874419198, -7738.106875193939, -26189.740143983385, -0.162, 0.9440000000000001, 0.252, 192.0, 0.0, 0.0, 0.0, 0.0, 0.0, 0.0, 0.0, 0.0, 0.0, 1.700950445246564E9, 0.0, 2023-11-25 17:14:05.246
49.0, 24353.589040468818, 33871.56532663886, -48191.165708442415, -44060.943312757416, -61141.25235572486, -14614.08461500223, -7815.890945898408, -26138.867573603104, -0.162, 0.9440000000000001, 0.252, 192.0, 0.0, 0.0, 0.0, 0.0, 0.0, 0.0, 0.0, 0.0, 0.0, 1.700950445249533E9, 0.0, 2023-11-25 17:14:05.249
50.0, 24330.723205891038, 33802.74430546097, -48239.914863099446, -44123.61760421009, -61155.5351204318, -14623.986437795931, -7475.518581332992, -26207.398022103076, -0.162, 0.9440000000000001, 0.252, 192.0, 0.0, 0.0, 0.0, 0.0, 0.0, 0.0, 0.0, 0.0, 0.0, 1.700950445254082E9, 0.0, 2023-11-25 17:14:05.254
51.0, 24272.385152862687, 33738.90772329661, -48265.149982589486, -44167.65054078705, -61211.63799901462, -14703.759813756922, -7514.969410296609, -26230.86735378115, -0.162, 0.9440000000000001, 0.252, 192.0, 0.0, 0.0, 0.0, 0.0, 0.0, 0.0, 0.0, 0.0, 0.0, 1.700950445257369E9, 0.0, 2023-11-25 17:14:05.257
52.0, 24294.133400217703, 33812.444962554575, -48238.61846192103, -44120.04132509724, -61197.10936511867, -14670.701583707523, -7685.177944323772, -26183.392248558077, -0.162, 0.9440000000000001, 0.252, 192.0, 0.0, 0.0, 0.0, 0.0, 0.0, 0.0, 0.0, 0.0, 0.0, 1.700950445260617E9, 0.0, 2023-11-25 17:14:05.260
53.0, 24352.02441835695, 33880.84130058781, -48186.829470018085, -44064.16196395898, -61148.024934294815, -14625.439301185526, -7837.5497862756, -26139.560477681218, -0.162, 0.9440000000000001, 0.252, 192.0, 0.0, 0.0, 0.0, 0.0, 0.0, 0.0, 0.0, 0.0, 0.0, 1.700950445264687E9, 0.0, 2023-11-25 17:14:05.264
54.0, 24346.592944454307, 33823.24085512648, -48222.078171024106, -44110.63124068156, -61141.40881793605, -14611.134184734128, -7515.7964248414555, -26209.633196548606, -0.162, 0.9440000000000001, 0.252, 192.0, 0.0, 0.0, 0.0, 0.0, 0.0, 0.0, 0.0, 0.0, 0.0, 1.700950445268851E9, 0.0, 2023-11-25 17:14:05.268
55.0, 24276.631984309195, 33736.13610698415, -48257.08100284112, -44171.56209606673, -61203.479612288436, -14700.80938348882, -7478.580770323369, -26243.496089398395, -0.162, 0.9440000000000001, 0.252, 192.0, 0.0, 0.0, 0.0, 0.0, 0.0, 0.0, 0.0, 0.0, 0.0, 1.700950445272663E9, 0.0, 2023-11-25 17:14:05.272
56.0, 24293.395792650677, 33797.35753504724, -48235.846845608576, -44129.42905776847, -61196.21529534046, -14673.674365720079, -7636.048810011007, -26206.682766280504, -0.162, 0.9440000000000001, 0.252, 192.0, 0.0, 0.0, 0.0, 0.0, 0.0, 0.0, 0.0, 0.0, 0.0, 1.700950445277652E9, 0.0, 2023-11-25 17:14:05.277
57.0, 24352.62791545724, 33884.50698667848, -48182.716749038314, -44065.7042343264, -61153.29994598627, -14637.129263535651, -7828.854957682486, -26163.633306459586, -0.162, 0.9440000000000001, 0.244, 192.0, 250.0, 240.0, 29.0, 128.0, 7.0, 160.0, 0.0, 0.0, 0.0, 1.700950445280664E9, 0.0, 2023-11-25 17:14:05.280
58.0, 24369.592889498817, 33858.087224732306, -48196.32896141159, -44078.91411529948, -61119.012369991826, -14581.451068097482, -7551.916843881231, -26169.288297806776, -0.162, 0.9440000000000001, 0.244, 192.0, 0.0, 0.0, 0.0, 0.0, 0.0, 0.0, 0.0, 0.0, 0.0, 1.7009504452847E9, 0.0, 2023-11-25 17:14:05.284
59.0, 24293.351089161766, 33752.519935669894, -48241.8371131226, -44150.3726423231, -61181.70901318896, -14665.694792949535, -7427.954069132098, -26202.99472844538, -0.162, 0.9440000000000001, 0.244, 192.0, 0.0, 0.0, 0.0, 0.0, 0.0, 0.0, 0.0, 0.0, 0.0, 1.700950445288692E9, 0.0, 2023-11-25 17:14:05.288
60.0, 24288.768981548426, 33779.83376739428, -48230.50477868376, -44122.030630353765, -61184.25711205687, -14651.210862542495, -7580.325911083926, -26176.23969033238, -0.162, 0.9440000000000001, 0.244, 192.0, 0.0, 0.0, 0.0, 0.0, 0.0, 0.0, 0.0, 0.0, 0.0, 1.700950445292749E9, 0.0, 2023-11-25 17:14:05.292
61.0, 24343.15077580819, 33869.12898649323, -48178.89460073646, -44056.115335955066, -61147.01910579433, -14618.219687726461, -7804.960942859762, -26126.954093808425, -0.162, 0.9440000000000001, 0.244, 192.0, 0.0, 0.0, 0.0, 0.0, 0.0, 0.0, 0.0, 0.0, 0.0, 1.700950445296721E9, 0.0, 2023-11-25 17:14:05.296
62.0, 24378.667697747675, 33875.99097204101, -48175.00539720123, -44050.728565541336, -61099.45459359344, -14557.065314896741, -7610.612524820867, -26152.077454576192, -0.162, 0.9440000000000001, 0.244, 192.0, 0.0, 0.0, 0.0, 0.0, 0.0, 0.0, 0.0, 0.0, 0.0, 1.700950445300757E9, 0.0, 2023-11-25 17:14:05.300
63.0, 24303.029394510915, 33766.93681084357, -48233.49991244077, -44137.69920321694, -61162.15123679057, -14642.203109527007, -7405.535269443425, -26222.48544961041, -0.162, 0.9440000000000001, 0.244, 192.0, 0.0, 0.0, 0.0, 0.0, 0.0, 0.0, 0.0, 0.0, 0.0, 1.700950445304786E9, 0.0, 2023-11-25 17:14:05.304
64.0, 24280.09650469977, 33770.848366123246, -48237.657336909455, -44132.04421186975, -61186.35817603567, -14656.66468818959, -7558.935291640198, -26217.165734430044, -0.162, 0.9440000000000001, 0.244, 192.0, 0.0, 0.0, 0.0, 0.0, 0.0, 0.0, 0.0, 0.0, 0.0, 1.700950445307777E9, 0.0, 2023-11-25 17:14:05.307
65.0, 24323.414185454152, 33854.75681480847, -48194.78669104418, -44072.83444080764, -61161.25716701236, -14625.126376763152, -7786.364291472947, -26148.098844063144, -0.162, 0.9440000000000001, 0.244, 192.0, 0.0, 0.0, 0.0, 0.0, 0.0, 0.0, 0.0, 0.0, 0.0, 1.700950445312799E9, 0.0, 2023-11-25 17:14:05.312
66.0, 24367.91650866467, 33876.37095169675, -48178.313455380616, -44052.09202195311, -61110.92103849901, -14559.613413764646, -7693.492793261146, -26136.94532357995, -0.162, 0.9440000000000001, 0.244, 192.0, 0.0, 0.0, 0.0, 0.0, 0.0, 0.0, 0.0, 0.0, 0.0, 1.700950445316812E9, 0.0, 2023-11-25 17:14:05.316
67.0, 24309.891380058692, 33778.78323540488, -48238.6855171544, -44138.34740380614, -61161.81596062374, -14629.753187865399, -7421.807339406889, -26226.844039779193, -0.158, 0.9440000000000001, 0.246, 192.0, 251.0, 16.0, 29.0, 128.0, 7.0, 176.0, 0.0, 0.0, 0.0, 1.700950445320877E9, 0.0, 2023-11-25 17:14:05.320
68.0, 24278.86715875473, 33762.06413055231, -48247.514456214245, -44147.422212055, -61194.8965424176, -14669.271072062384, -7554.263777049038, -26226.79933629028, -0.158, 0.9440000000000001, 0.246, 192.0, 0.0, 0.0, 0.0, 0.0, 0.0, 0.0, 0.0, 0.0, 0.0, 1.700950445324821E9, 0.0, 2023-11-25 17:14:05.324
69.0, 24318.47444992953, 33852.47693687402, -48206.2307842053, -44088.10068227061, -61171.89659737308, -14638.604478669702, -7758.961052770741, -26154.424387744, -0.158, 0.9440000000000001, 0.246, 192.0, 0.0, 0.0, 0.0, 0.0, 0.0, 0.0, 0.0, 0.0, 0.0, 1.700950445331151E9, 0.0, 2023-11-25 17:14:05.331
70.0, 24371.73865696653, 33897.001611829, -48170.57975179908, -44047.33110038413, -61117.17952694649, -14578.45593434047, -7758.603424859456, -26131.536201421764, -0.158, 0.9440000000000001, 0.246, 192.0, 0.0, 0.0, 0.0, 0.0, 0.0, 0.0, 0.0, 0.0, 0.0, 1.700950445333927E9, 0.0, 2023-11-25 17:14:05.333
71.0, 24325.157621521666, 33797.15636934714, -48228.20254900486, -44122.231796053864, -61148.650783139565, -14620.410158683082, -7425.718894686568, -26214.0364902063, -0.158, 0.9440000000000001, 0.246, 192.0, 0.0, 0.0, 0.0, 0.0, 0.0, 0.0, 0.0, 0.0, 0.0, 1.700950445337857E9, 0.0, 2023-11-25 17:14:05.337
72.0, 24283.851597768262, 33754.39748220414, -48236.56210143115, -44142.05779338572, -61187.16283883606, -14677.541217510847, -7517.24928823105, -26223.446574621987, -0.158, 0.9440000000000001, 0.246, 192.0, 0.0, 0.0, 0.0, 0.0, 0.0, 0.0, 0.0, 0.0, 0.0, 1.700950445340873E9, 0.0, 2023-11-25 17:14:05.340
73.0, 24304.57166487833, 33820.91627370314, -48213.53980464218, -44100.68471439895, -61180.99375736639, -14653.46838873248, -7704.71336897771, -26174.339792053677, -0.158, 0.9440000000000001, 0.246, 192.0, 0.0, 0.0, 0.0, 0.0, 0.0, 0.0, 0.0, 0.0, 0.0, 1.700950445347842E9, 0.0, 2023-11-25 17:14:05.347
74.0, 24358.1487963377, 33873.688742362116, -48172.18907739986, -44055.22126617686, -61132.713989342934, -14608.384920166127, -7805.273867282137, -26152.65859993203, -0.158, 0.9440000000000001, 0.246, 192.0, 0.0, 0.0, 0.0, 0.0, 0.0, 0.0, 0.0, 0.0, 0.0, 1.700950445350862E9, 0.0, 2023-11-25 17:14:05.350
75.0, 24329.158583779168, 33797.893976914165, -48225.60974664805, -44118.78962740775, -61147.91317557254, -14615.8504028142, -7464.253302127517, -26225.234714178412, -0.158, 0.9440000000000001, 0.246, 192.0, 0.0, 0.0, 0.0, 0.0, 0.0, 0.0, 0.0, 0.0, 0.0, 1.700950445353857E9, 0.0, 2023-11-25 17:14:05.353
76.0, 24273.681554041097, 33734.906761039114, -48245.212226535354, -44156.67583425949, -61195.47768777343, -14686.817191459799, -7502.273619445994, -26217.70217629697, -0.158, 0.9440000000000001, 0.246, 192.0, 0.0, 0.0, 0.0, 0.0, 0.0, 0.0, 0.0, 0.0, 0.0, 1.700950445357921E9, 0.0, 2023-11-25 17:14:05.357
77.0, 24290.691231571585, 33792.03781986688, -48232.628194407014, -44122.812941409706, -61195.18711509551, -14666.767676683388, -7677.354833764414, -26189.337812583188, -0.164, 0.9460000000000001, 0.248, 192.0, 250.0, 224.0, 29.0, 144.0, 7.0, 192.0, 0.0, 0.0, 0.0, 1.700950445362974E9, 0.0, 2023-11-25 17:14:05.362
78.0, 24349.006932855482, 33867.27379170344, -48183.141432182965, -44065.36895815956, -61149.969536062425, -14623.762920351377, -7837.728600231243, -26139.78399512577, -0.164, 0.9460000000000001, 0.248, 192.0, 0.0, 0.0, 0.0, 0.0, 0.0, 0.0, 0.0, 0.0, 0.0, 1.7009504453659E9, 0.0, 2023-11-25 17:14:05.365
79.0, 24338.00987458347, 33812.95905267704, -48221.92170881292, -44109.82657788117, -61145.47683542691, -14603.93692301952, -7510.9237445501985, -26209.789658759793, -0.164, 0.9460000000000001, 0.248, 192.0, 0.0, 0.0, 0.0, 0.0, 0.0, 0.0, 0.0, 0.0, 0.0, 1.700950445370166E9, 0.0, 2023-11-25 17:14:05.370
80.0, 24259.33173410079, 33714.92430149607, -48266.111107601064, -44178.088805447675, -61217.69532176201, -14701.994025944952, -7467.1366771622515, -26243.652551609583, -0.164, 0.9460000000000001, 0.248, 192.0, 0.0, 0.0, 0.0, 0.0, 0.0, 0.0, 0.0, 0.0, 0.0, 1.700950445373163E9, 0.0, 2023-11-25 17:14:05.373
81.0, 24276.4308186091, 33771.49656671245, -48240.45130496637, -44130.88192115807, -61203.36785356615, -14667.795856928333, -7635.490016399624, -26188.823722460715, -0.164, 0.9460000000000001, 0.248, 192.0, 0.0, 0.0, 0.0, 0.0, 0.0, 0.0, 0.0, 0.0, 0.0, 1.700950445376944E9, 0.0, 2023-11-25 17:14:05.376
82.0, 24328.62214191224, 33851.76168105146, -48190.472804364304, -44068.4534988944, -61160.7877803788, -14633.79885361181, -7833.146492617905, -26144.3213992502, -0.164, 0.9460000000000001, 0.248, 192.0, 0.0, 0.0, 0.0, 0.0, 0.0, 0.0, 0.0, 0.0, 0.0, 1.70095044538096E9, 0.0, 2023-11-25 17:14:05.380
83.0, 24342.81549964136, 33827.77825925091, -48209.51649064023, -44087.988923548335, -61131.21642246442, -14592.671643814045, -7573.575684258424, -26194.925748697013, -0.164, 0.9460000000000001, 0.248, 192.0, 0.0, 0.0, 0.0, 0.0, 0.0, 0.0, 0.0, 0.0, 0.0, 1.700950445384985E9, 0.0, 2023-11-25 17:14:05.384
84.0, 24275.13441743069, 33732.26925519339, -48256.119877829544, -44160.7215000059, -61193.39897553909, -14677.407107044115, -7443.175607106163, -26236.38823466161, -0.164, 0.9460000000000001, 0.248, 192.0, 0.0, 0.0, 0.0, 0.0, 0.0, 0.0, 0.0, 0.0, 0.0, 1.700950445388047E9, 0.0, 2023-11-25 17:14:05.388
85.0, 24279.80593202185, 33770.17781378959, -48241.25596776676, -44129.74198219085, -61194.13658310611, -14659.011621357397, -7595.726263013633, -26185.158036370045, -0.164, 0.9460000000000001, 0.248, 192.0, 0.0, 0.0, 0.0, 0.0, 0.0, 0.0, 0.0, 0.0, 0.0, 1.700950445393975E9, 0.0, 2023-11-25 17:14:05.393
86.0, 24335.32766524883, 33863.71986433505, -48181.19683041535, -44058.61873133406, -61151.57886166321, -14616.409196425582, -7810.280658040126, -26102.0095469963, -0.164, 0.9460000000000001, 0.248, 192.0, 0.0, 0.0, 0.0, 0.0, 0.0, 0.0, 0.0, 0.0, 0.0, 1.700950445398051E9, 0.0, 2023-11-25 17:14:05.398
87.0, 24374.309107578887, 33873.28641096192, -48169.216295387305, -44047.62167306205, -61099.54400057125, -14554.114884628641, -7627.9127750292755, -26129.83746884316, -0.16, 0.9440000000000001, 0.25, 192.0, 251.0, 0.0, 29.0, 128.0, 7.0, 208.0, 0.0, 0.0, 0.0, 1.70095044540145E9, 0.0, 2023-11-25 17:14:05.401
88.0, 24302.76117357745, 33766.087444554265, -48229.610708905544, -44135.2181595824, -61161.12305654563, -14637.218670513472, -7398.628580406736, -26201.34069935569, -0.16, 0.9440000000000001, 0.25, 192.0, 0.0, 0.0, 0.0, 0.0, 0.0, 0.0, 0.0, 0.0, 0.0, 1.700950445406104E9, 0.0, 2023-11-25 17:14:05.406
89.0, 24286.913786758636, 33774.223479536, -48230.527130428214, -44128.98202287937, -61184.234760312414, -14657.446999245525, -7553.928500882209, -26196.62448127562, -0.16, 0.9440000000000001, 0.25, 192.0, 0.0, 0.0, 0.0, 0.0, 0.0, 0.0, 0.0, 0.0, 0.0, 1.700950445409076E9, 0.0, 2023-11-25 17:14:05.409
90.0, 24323.347130220787, 33850.24176242849, -48197.15597595644, -44081.79749033422, -61170.24256828339, -14639.99028682593, -7784.307930983059, -26155.765492411316, -0.16, 0.9440000000000001, 0.25, 192.0, 0.0, 0.0, 0.0, 0.0, 0.0, 0.0, 0.0, 0.0, 0.0, 1.700950445412999E9, 0.0, 2023-11-25 17:14:05.412
91.0, 24376.946613424614, 33878.09203601981, -48166.779955241676, -44052.606112075584, -61108.79762277575, -14573.225626137928, -7719.532575551579, -26143.248515516345, -0.16, 0.9440000000000001, 0.25, 192.0, 0.0, 0.0, 0.0, 0.0, 0.0, 0.0, 0.0, 0.0, 0.0, 1.700950445417075E9, 0.0, 2023-11-25 17:14:05.417
92.0, 24320.664920886153, 33775.452825481036, -48221.34056345708, -44131.753639191826, -61148.04728603927, -14628.792062853821, -7424.243679552517, -26211.287225638298, -0.16, 0.9440000000000001, 0.25, 192.0, 0.0, 0.0, 0.0, 0.0, 0.0, 0.0, 0.0, 0.0, 0.0, 1.700950445420626E9, 0.0, 2023-11-25 17:14:05.420
93.0, 24284.343336146278, 33751.625865891685, -48230.59418566158, -44143.75652596432, -61182.983062622916, -14668.600519728723, -7537.991707085575, -26201.85478947816, -0.16, 0.9440000000000001, 0.25, 192.0, 0.0, 0.0, 0.0, 0.0, 0.0, 0.0, 0.0, 0.0, 0.0, 1.700950445424148E9, 0.0, 2023-11-25 17:14:05.424
94.0, 24318.3403394628, 33832.06979418633, -48199.905240524444, -44096.32612423017, -61169.75082990537, -14650.763827653389, -7750.377982899903, -26168.41657977302, -0.16, 0.9440000000000001, 0.25, 192.0, 0.0, 0.0, 0.0, 0.0, 0.0, 0.0, 0.0, 0.0, 0.0, 1.700950445428061E9, 0.0, 2023-11-25 17:14:05.428
95.0, 24379.82998845935, 33886.94332682411, -48155.782896969664, -44049.23099866283, -61108.1270704421, -14588.067184456253, -7775.300177967571, -26128.608122898117, -0.16, 0.9440000000000001, 0.25, 192.0, 0.0, 0.0, 0.0, 0.0, 0.0, 0.0, 0.0, 0.0, 0.0, 1.700950445433109E9, 0.0, 2023-11-25 17:14:05.433
96.0, 24337.33932224981, 33801.58201474929, -48216.93726979939, -44124.22110131039, -61139.553623146254, -14619.8513650717, -7427.819958665366, -26200.781905744305, -0.16, 0.9440000000000001, 0.25, 192.0, 0.0, 0.0, 0.0, 0.0, 0.0, 0.0, 0.0, 0.0, 0.0, 1.70095044543718E9, 0.0, 2023-11-25 17:14:05.437
97.0, 24284.924481502116, 33750.68709262456, -48237.29970899817, -44154.99945342534, -61191.58848423821, -14687.554799026824, -7509.560288138425, -26210.728432026917, -0.162, 0.9440000000000001, 0.252, 192.0, 250.0, 240.0, 29.0, 128.0, 7.0, 224.0, 0.0, 0.0, 0.0, 1.70095044544314E9, 0.0, 2023-11-25 17:14:05.443
98.0, 24314.04880452738, 33823.620834782225, -48206.05197024965, -44102.3610952331, -61178.19978930948, -14653.84836838822, -7695.638560728856, -26144.18728878347, -0.162, 0.9440000000000001, 0.252, 192.0, 0.0, 0.0, 0.0, 0.0, 0.0, 0.0, 0.0, 0.0, 0.0, 1.700950445446048E9, 0.0, 2023-11-25 17:14:05.446
99.0, 24365.480168519043, 33880.57307965435, -48162.57782728408, -44054.90834175448, -61130.85879455314, -14605.143917220106, -7798.21071603426, -26108.133924977057, -0.162, 0.9440000000000001, 0.252, 192.0, 0.0, 0.0, 0.0, 0.0, 0.0, 0.0, 0.0, 0.0, 0.0, 1.700950445449087E9, 0.0, 2023-11-25 17:14:05.449
100.0, 24338.926296106136, 33808.242834596975, -48207.97422027281, -44113.380505249566, -61138.033704523295, -14609.860135300176, -7456.899578201721, -26200.625443533118, -0.162, 0.9440000000000001, 0.252, 192.0, 0.0, 0.0, 0.0, 0.0, 0.0, 0.0, 0.0, 0.0, 0.0, 1.700950445453513E9, 0.0, 2023-11-25 17:14:05.453
101.0, 24273.838016252284, 33726.34604291273, -48239.95956658835, -44166.175325653, -61200.797402953795, -14693.925046196586, -7475.675043544179, -26216.450478607476, -0.162, 0.9440000000000001, 0.252, 192.0, 0.0, 0.0, 0.0, 0.0, 0.0, 0.0, 0.0, 0.0, 0.0, 1.700950445456203E9, 0.0, 2023-11-25 17:14:05.456
102.0, 24284.790371035382, 33782.06894183981, -48229.56600541664, -44136.62631948308, -61206.51944953435, -14674.724897709477, -7648.454028183703, -26169.154187340046, -0.162, 0.9440000000000001, 0.252, 192.0, 0.0, 0.0, 0.0, 0.0, 0.0, 0.0, 0.0, 0.0, 0.0, 1.700950445461172E9, 0.0, 2023-11-25 17:14:05.461
103.0, 24345.18478455362, 33863.65280910168, -48176.212391401816, -44078.8023565772, -61161.70420190146, -14636.391655968626, -7827.603259992989, -26117.70047160393, -0.162, 0.9440000000000001, 0.252, 192.0, 0.0, 0.0, 0.0, 0.0, 0.0, 0.0, 0.0, 0.0, 0.0, 1.700950445465117E9, 0.0, 2023-11-25 17:14:05.465
104.0, 24356.226546314545, 33823.129096404205, -48200.21816494682, -44106.58557493515, -61138.74896034587, -14599.824202039743, -7514.812948085421, -26168.550690239754, -0.162, 0.9440000000000001, 0.252, 192.0, 0.0, 0.0, 0.0, 0.0, 0.0, 0.0, 0.0, 0.0, 0.0, 1.700950445469147E9, 0.0, 2023-11-25 17:14:05.469
105.0, 24275.156769175144, 33721.763935299394, -48249.30259577067, -44179.988703726376, -61209.49223154691, -14695.690834008556, -7443.063848383886, -26211.75661227186, -0.162, 0.9440000000000001, 0.252, 192.0, 0.0, 0.0, 0.0, 0.0, 0.0, 0.0, 0.0, 0.0, 0.0, 1.700950445472178E9, 0.0, 2023-11-25 17:14:05.472
106.0, 24278.353068632256, 33765.57335443179, -48238.90903459895, -44151.2220086124, -61213.02380717085, -14686.057232148318, -7618.390931891315, -26193.65169926306, -0.162, 0.9440000000000001, 0.252, 192.0, 0.0, 0.0, 0.0, 0.0, 0.0, 0.0, 0.0, 0.0, 0.0, 1.700950445476136E9, 0.0, 2023-11-25 17:14:05.476
107.0, 24331.773737880438, 33848.96771299454, -48188.036464218676, -44088.257144481795, -61173.8411991407, -14649.646240430624, -7831.336001317025, -26125.545933907742, -0.156, 0.9440000000000001, 0.244, 192.0, 251.0, 32.0, 29.0, 128.0, 7.0, 160.0, 0.0, 0.0, 0.0, 1.700950445480143E9, 0.0, 2023-11-25 17:14:05.480
108.0, 24352.2479358015, 33830.683986030104, -48199.50290912425, -44097.1084352861, -61134.34566668817, -14593.208085680973, -7574.134477869807, -26152.18921329847, -0.156, 0.9440000000000001, 0.244, 192.0, 0.0, 0.0, 0.0, 0.0, 0.0, 0.0, 0.0, 0.0, 0.0, 1.700950445484246E9, 0.0, 2023-11-25 17:14:05.484
109.0, 24286.265586169433, 33730.078784236764, -48244.87695036852, -44170.98095071089, -61190.605007482176, -14680.446944290037, -7425.450673753104, -26204.291129623787, -0.156, 0.9440000000000001, 0.244, 192.0, 0.0, 0.0, 0.0, 0.0, 0.0, 0.0, 0.0, 0.0, 0.0, 1.700950445488227E9, 0.0, 2023-11-25 17:14:05.488
110.0, 24282.71165880104, 33756.14091827165, -48235.04218280819, -44146.68460448797, -61195.45533602898, -14673.070868619785, -7582.35991982936, -26170.987030385382, -0.156, 0.9440000000000001, 0.244, 192.0, 0.0, 0.0, 0.0, 0.0, 0.0, 0.0, 0.0, 0.0, 0.0, 1.700950445493212E9, 0.0, 2023-11-25 17:14:05.493
111.0, 24334.1430227927, 33845.05615771486, -48183.67787404989, -44082.8033188347, -61160.98894607889, -14644.61709792818, -7814.2816202976255, -26118.438079170952, -0.156, 0.9440000000000001, 0.244, 192.0, 0.0, 0.0, 0.0, 0.0, 0.0, 0.0, 0.0, 0.0, 0.0, 1.70095044549826E9, 0.0, 2023-11-25 17:14:05.498
112.0, 24373.97383141206, 33854.77916655292, -48170.98208319928, -44069.168754716964, -61110.541058843264, -14582.903931487077, -7663.7202696466775, -26149.46230047492, -0.156, 0.9440000000000001, 0.244, 192.0, 0.0, 0.0, 0.0, 0.0, 0.0, 0.0, 0.0, 0.0, 0.0, 1.700950445502285E9, 0.0, 2023-11-25 17:14:05.502
113.0, 24302.582359621807, 33745.05445302182, -48234.55044443017, -44155.245322614355, -61171.62837643962, -14662.610252214701, -7427.1047028427965, -26218.842115264193, -0.156, 0.9440000000000001, 0.244, 192.0, 0.0, 0.0, 0.0, 0.0, 0.0, 0.0, 0.0, 0.0, 0.0, 1.700950445505308E9, 0.0, 2023-11-25 17:14:05.505
114.0, 24286.578510591808, 33753.369301959196, -48232.65054615147, -44144.181209108974, -61190.11326910416, -14677.205941344017, -7574.715623225645, -26195.775114986314, -0.156, 0.9440000000000001, 0.244, 192.0, 0.0, 0.0, 0.0, 0.0, 0.0, 0.0, 0.0, 0.0, 0.0, 1.700950445508257E9, 0.0, 2023-11-25 17:14:05.508
115.0, 24329.739729135006, 33843.51388734745, -48190.338693897575, -44085.84315608063, -61167.873283371126, -14650.875586375665, -7796.333169500014, -26141.728596893383, -0.156, 0.9440000000000001, 0.244, 192.0, 0.0, 0.0, 0.0, 0.0, 0.0, 0.0, 0.0, 0.0, 0.0, 1.700950445512256E9, 0.0, 2023-11-25 17:14:05.512
116.0, 24382.914529194182, 33881.645963388204, -48160.543818538645, -44051.01913821926, -61109.24465766486, -14581.160495419563, -7734.843520503465, -26124.40599494052, -0.156, 0.9440000000000001, 0.244, 192.0, 0.0, 0.0, 0.0, 0.0, 0.0, 0.0, 0.0, 0.0, 0.0, 1.700950445516297E9, 0.0, 2023-11-25 17:14:05.516
117.0, 24320.57551390833, 33780.10198832774, -48225.58739490359, -44134.055868870724, -61155.19984426497, -14631.94365882202, -7420.466234739571, -26191.2824143508, -0.162, 0.9500000000000001, 0.24, 192.0, 250.0, 240.0, 29.0, 176.0, 7.0, 128.0, 0.0, 0.0, 0.0, 1.700950445520733E9, 0.0, 2023-11-25 17:14:05.520
118.0, 24276.475522098008, 33745.83676407776, -48238.64081366549, -44150.5738080232, -61197.10936511867, -14681.229255345972, -7539.198701286162, -26192.80233297376, -0.162, 0.9500000000000001, 0.24, 192.0, 0.0, 0.0, 0.0, 0.0, 0.0, 0.0, 0.0, 0.0, 0.0, 1.700950445525508E9, 0.0, 2023-11-25 17:14:05.525
119.0, 24299.676632842617, 33816.80355272336, -48212.578679630606, -44109.20072903642, -61190.515600504354, -14667.505284250414, -7753.417820145824, -26163.65565820404, -0.162, 0.9500000000000001, 0.24, 192.0, 0.0, 0.0, 0.0, 0.0, 0.0, 0.0, 0.0, 0.0, 0.0, 1.70095044552835E9, 0.0, 2023-11-25 17:14:05.528
120.0, 24361.92624115065, 33876.058027274375, -48163.47189706229, -44058.88695226752, -61125.56143111723, -14607.110870732175, -7806.5926202050005, -26142.93559109397, -0.162, 0.9500000000000001, 0.24, 192.0, 0.0, 0.0, 0.0, 0.0, 0.0, 0.0, 0.0, 0.0, 0.0, 1.700950445532368E9, 0.0, 2023-11-25 17:14:05.532
121.0, 24318.116822018244, 33790.60730822173, -48223.955717558354, -44134.72642120438, -61153.32229773072, -14638.291554247327, -7454.865569456288, -26230.375615403133, -0.162, 0.9500000000000001, 0.24, 192.0, 0.0, 0.0, 0.0, 0.0, 0.0, 0.0, 0.0, 0.0, 0.0, 1.700950445536556E9, 0.0, 2023-11-25 17:14:05.536
122.0, 24267.89245222717, 33736.963121529, -48239.266662510236, -44163.627226785095, -61198.04813838579, -14701.43523233357, -7519.238593487572, -26211.019004704835, -0.162, 0.9500000000000001, 0.24, 192.0, 0.0, 0.0, 0.0, 0.0, 0.0, 0.0, 0.0, 0.0, 0.0, 1.700950445540367E9, 0.0, 2023-11-25 17:14:05.540
123.0, 24288.27724317041, 33804.1301136172, -48222.212281490836, -44127.283290300766, -61196.30470231828, -14686.168990870596, -7709.720159735699, -26179.190120600477, -0.162, 0.9500000000000001, 0.24, 192.0, 0.0, 0.0, 0.0, 0.0, 0.0, 0.0, 0.0, 0.0, 0.0, 1.700950445544389E9, 0.0, 2023-11-25 17:14:05.544
124.0, 24357.00885737048, 33884.48463493403, -48169.10453666503, -44070.75572857329, -61143.3310679592, -14634.379998967648, -7839.181463620837, -26127.959922308914, -0.162, 0.9500000000000001, 0.24, 192.0, 0.0, 0.0, 0.0, 0.0, 0.0, 0.0, 0.0, 0.0, 0.0, 1.700950445548355E9, 0.0, 2023-11-25 17:14:05.548
125.0, 24343.418996741653, 33826.07952667231, -48209.11415924003, -44119.70604893041, -61143.24166098138, -14621.639504628123, -7488.013206483509, -26187.840245704683, -0.162, 0.9500000000000001, 0.24, 192.0, 0.0, 0.0, 0.0, 0.0, 0.0, 0.0, 0.0, 0.0, 0.0, 1.700950445553512E9, 0.0, 2023-11-25 17:14:05.553
126.0, 24271.714600529027, 33740.986435530955, -48245.569854446636, -44180.7263112934, -61211.146260636604, -14713.48282259498, -7488.549648350436, -26231.783775303815, -0.162, 0.9500000000000001, 0.24, 192.0, 0.0, 0.0, 0.0, 0.0, 0.0, 0.0, 0.0, 0.0, 0.0, 1.700950445556443E9, 0.0, 2023-11-25 17:14:05.556
127.0, 24281.504664600452, 33799.011564136934, -48237.88085435401, -44151.043194656755, -61217.89648746211, -14698.037767176364, -7661.418039967781, -26207.643891292086, -0.162, 0.9460000000000001, 0.234, 192.0, 250.0, 240.0, 29.0, 144.0, 7.0, 80.0, 0.0, 0.0, 0.0, 1.700950445568359E9, 0.0, 2023-11-25 17:14:05.568
128.0, 24345.38595025372, 33885.31164947887, -48181.77797577119, -44085.55258340271, -61168.43207698251, -14648.796874141322, -7847.161036391382, -26134.911314834513, -0.162, 0.9460000000000001, 0.234, 192.0, 0.0, 0.0, 0.0, 0.0, 0.0, 0.0, 0.0, 0.0, 0.0, 1.70095044556839E9, 0.0, 2023-11-25 17:14:05.568
129.0, 24356.941802137113, 33858.33309392132, -48201.022827747205, -44105.91502260149, -61137.76548358983, -14594.37037639265, -7525.854709846343, -26150.51283246432, -0.162, 0.9460000000000001, 0.234, 192.0, 0.0, 0.0, 0.0, 0.0, 0.0, 0.0, 0.0, 0.0, 0.0, 1.700950445568452E9, 0.0, 2023-11-25 17:14:05.568
130.0, 24274.687382541586, 33754.2186682485, -48250.800162649175, -44183.31911365022, -61210.78863272532, -14694.52854329688, -7445.053153640409, -26215.645815807085, -0.162, 0.9460000000000001, 0.234, 192.0, 0.0, 0.0, 0.0, 0.0, 0.0, 0.0, 0.0, 0.0, 0.0, 1.700950445574449E9, 0.0, 2023-11-25 17:14:05.574
131.0, 24271.42402785111, 33789.98145937699, -48248.274415525724, -44162.867267473615, -61223.1491474091, -14693.52271479639, -7615.440501623214, -26222.373690888133, -0.162, 0.9460000000000001, 0.234, 192.0, 0.0, 0.0, 0.0, 0.0, 0.0, 0.0, 0.0, 0.0, 0.0, 1.700950445577438E9, 0.0, 2023-11-25 17:14:05.577
132.0, 24327.28103724492, 33881.1989284991, -48197.08892072307, -44100.572955676675, -61185.26294055736, -14661.559720225301, -7838.510911287179, -26156.480748233887, -0.162, 0.9460000000000001, 0.234, 192.0, 0.0, 0.0, 0.0, 0.0, 0.0, 0.0, 0.0, 0.0, 0.0, 1.700950445581428E9, 0.0, 2023-11-25 17:14:05.581
133.0, 24366.284831319434, 33885.87044309026, -48195.12196721101, -44094.850909096116, -61134.23390796589, -14588.782440278823, -7602.141213672307, -26143.49438470535, -0.162, 0.9460000000000001, 0.234, 192.0, 0.0, 0.0, 0.0, 0.0, 0.0, 0.0, 0.0, 0.0, 0.0, 1.700950445584439E9, 0.0, 2023-11-25 17:14:05.584
134.0, 24292.792295550382, 33780.30315402784, -48253.70588942837, -44181.106290949145, -61204.55249602229, -14688.135944382662, -7441.253357083006, -26215.645815807085, -0.162, 0.9460000000000001, 0.234, 192.0, 0.0, 0.0, 0.0, 0.0, 0.0, 0.0, 0.0, 0.0, 0.0, 1.700950445588441E9, 0.0, 2023-11-25 17:14:05.588
135.0, 24283.31515590133, 33801.045572882365, -48248.721450414836, -44165.370662852605, -61218.99172294042, -14697.43427007607, -7607.885611997321, -26221.99371123239, -0.162, 0.9460000000000001, 0.234, 192.0, 0.0, 0.0, 0.0, 0.0, 0.0, 0.0, 0.0, 0.0, 0.0, 1.70095044559248E9, 0.0, 2023-11-25 17:14:05.592
136.0, 24323.771813365438, 33884.75285586749, -48202.25217369225, -44106.384409235056, -61189.73328944842, -14670.366307540693, -7832.230071095237, -26155.139643566567, -0.162, 0.9460000000000001, 0.234, 192.0, 0.0, 0.0, 0.0, 0.0, 0.0, 0.0, 0.0, 0.0, 0.0, 1.700950445596509E9, 0.0, 2023-11-25 17:14:05.596
137.0, 24371.06810463287, 33910.52441722446, -48182.359121127025, -44082.892725812526, -61130.836442808686, -14595.107983959673, -7691.972874638185, -26145.03665507277, -0.164, 0.9520000000000001, 0.23600000000000002, 192.0, 250.0, 224.0, 29.0, 192.0, 7.0, 96.0, 0.0, 0.0, 0.0, 1.700950445600509E9, 0.0, 2023-11-25 17:14:05.600
138.0, 24310.76309809245, 33814.79189572238, -48238.50670319876, -44166.24238088637, -61186.53698999131, -14669.785162184855, -7444.516711773481, -26225.055900222767, -0.164, 0.9520000000000001, 0.23600000000000002, 192.0, 0.0, 0.0, 0.0, 0.0, 0.0, 0.0, 0.0, 0.0, 0.0, 1.700950445604527E9, 0.0, 2023-11-25 17:14:05.604
139.0, 24283.00223147896, 33808.75692471945, -48249.92844461542, -44173.95373272344, -61220.89162121912, -14705.503249824436, -7582.762251229555, -26243.898420798592, -0.164, 0.9520000000000001, 0.23600000000000002, 192.0, 0.0, 0.0, 0.0, 0.0, 0.0, 0.0, 0.0, 0.0, 0.0, 1.700950445608526E9, 0.0, 2023-11-25 17:14:05.608
140.0, 24317.87095282924, 33888.709114636076, -48215.439702920885, -44125.89748214454, -61206.43004255653, -14689.030014160875, -7810.034788851117, -26194.27754810781, -0.164, 0.9520000000000001, 0.23600000000000002, 192.0, 0.0, 0.0, 0.0, 0.0, 0.0, 0.0, 0.0, 0.0, 0.0, 1.700950445611588E9, 0.0, 2023-11-25 17:14:05.611
141.0, 24374.242052345522, 33926.125934854266, -48173.15020241144, -44084.01031303529, -61138.90542255705, -14606.395614909605, -7769.399317431369, -26136.587695668662, -0.164, 0.9520000000000001, 0.23600000000000002, 192.0, 0.0, 0.0, 0.0, 0.0, 0.0, 0.0, 0.0, 0.0, 0.0, 1.700950445615566E9, 0.0, 2023-11-25 17:14:05.615
142.0, 24310.986615537004, 33815.663613756136, -48236.83032236461, -44170.77978501079, -61183.27363530084, -14659.033973101852, -7445.075505384863, -26222.396042632587, -0.164, 0.9520000000000001, 0.23600000000000002, 192.0, 0.0, 0.0, 0.0, 0.0, 0.0, 0.0, 0.0, 0.0, 0.0, 1.700950445620634E9, 0.0, 2023-11-25 17:14:05.620
143.0, 24263.55621380284, 33779.14086331616, -48251.24719753829, -44191.67866607651, -61225.96546721047, -14714.19807841755, -7560.298748051971, -26230.0403392363, -0.164, 0.9520000000000001, 0.23600000000000002, 192.0, 0.0, 0.0, 0.0, 0.0, 0.0, 0.0, 0.0, 0.0, 0.0, 1.700950445624641E9, 0.0, 2023-11-25 17:14:05.624
144.0, 24292.680536828106, 33863.07166374584, -48219.50772041175, -44141.00726139632, -61210.47570830295, -14688.448868805037, -7766.672404607822, -26184.979222414404, -0.164, 0.9520000000000001, 0.23600000000000002, 192.0, 0.0, 0.0, 0.0, 0.0, 0.0, 0.0, 0.0, 0.0, 0.0, 1.700950445628676E9, 0.0, 2023-11-25 17:14:05.628
145.0, 24357.500595748497, 33929.36693780028, -48171.11619366601, -44087.40777819249, -61147.600251150165, -14621.639504628123, -7815.510966242668, -26140.63336141507, -0.164, 0.9520000000000001, 0.23600000000000002, 192.0, 0.0, 0.0, 0.0, 0.0, 0.0, 0.0, 0.0, 0.0, 0.0, 1.700950445632653E9, 0.0, 2023-11-25 17:14:05.632
146.0, 24323.078909287324, 33851.76168105146, -48228.18019726041, -44156.38526158158, -61171.29310027279, -14647.23225202945, -7469.640072541246, -26225.726452556428, -0.164, 0.9520000000000001, 0.23600000000000002, 192.0, 0.0, 0.0, 0.0, 0.0, 0.0, 0.0, 0.0, 0.0, 0.0, 1.700950445636664E9, 0.0, 2023-11-25 17:14:05.636
147.0, 24265.70198127055, 33790.339087288274, -48251.783639405214, -44194.40557890005, -61225.38432185463, -14722.691741310568, -7534.147207039262, -26240.456252152475, -0.164, 0.9440000000000001, 0.242, 192.0, 250.0, 224.0, 29.0, 128.0, 7.0, 144.0, 0.0, 0.0, 0.0, 1.700950445639661E9, 0.0, 2023-11-25 17:14:05.639
148.0, 24284.164522190636, 33863.02696025693, -48232.002345562265, -44151.199656867946, -61219.21524038497, -14700.608217788724, -7718.035008673073, -26204.447591834974, -0.164, 0.9440000000000001, 0.242, 192.0, 0.0, 0.0, 0.0, 0.0, 0.0, 0.0, 0.0, 0.0, 0.0, 1.700950445643813E9, 0.0, 2023-11-25 17:14:05.643
149.0, 24344.044845586403, 33937.435917548646, -48179.18517341437, -44091.967534061376, -61166.04044032579, -14653.624850943668, -7855.766458006676, -26175.390324043077, -0.164, 0.9440000000000001, 0.242, 192.0, 0.0, 0.0, 0.0, 0.0, 0.0, 0.0, 0.0, 0.0, 0.0, 1.700950445649756E9, 0.0, 2023-11-25 17:14:05.649
150.0, 24328.28686574541, 33873.62168712875, -48222.011115790745, -44143.39889805304, -61163.71585890244, -14644.505339205902, -7508.397997426749, -26253.621429636652, -0.164, 0.9440000000000001, 0.242, 192.0, 0.0, 0.0, 0.0, 0.0, 0.0, 0.0, 0.0, 0.0, 0.0, 1.700950445652737E9, 0.0, 2023-11-25 17:14:05.652
151.0, 24253.14030088667, 33779.83376739428, -48257.528037730226, -44200.35114292517, -61226.83718524423, -14723.697569811055, -7487.633226827768, -26243.496089398395, -0.164, 0.9440000000000001, 0.242, 192.0, 0.0, 0.0, 0.0, 0.0, 0.0, 0.0, 0.0, 0.0, 0.0, 1.700950445658353E9, 0.0, 2023-11-25 17:14:05.658
152.0, 24271.04404819537, 33842.79863152488, -48235.422162463925, -44157.1228691486, -61220.3998828411, -14693.43330781857, -7659.719307389178, -26184.621594503118, -0.164, 0.9440000000000001, 0.242, 192.0, 0.0, 0.0, 0.0, 0.0, 0.0, 0.0, 0.0, 0.0, 0.0, 1.70095044566174E9, 0.0, 2023-11-25 17:14:05.661
153.0, 24335.707644904574, 33931.71387096809, -48180.414519359416, -44095.29794398522, -61174.15412356307, -14656.731743422955, -7858.31455687458, -26143.919067850005, -0.164, 0.9440000000000001, 0.242, 192.0, 0.0, 0.0, 0.0, 0.0, 0.0, 0.0, 0.0, 0.0, 0.0, 1.70095044566482E9, 0.0, 2023-11-25 17:14:05.664
154.0, 24337.227563527533, 33892.57596642685, -48214.098598253564, -44128.73615369036, -61158.10557104416, -14620.208992982984, -7542.9761460991085, -26179.860672934137, -0.164, 0.9440000000000001, 0.242, 192.0, 0.0, 0.0, 0.0, 0.0, 0.0, 0.0, 0.0, 0.0, 0.0, 1.700950445667919E9, 0.0, 2023-11-25 17:14:05.667
155.0, 24258.728237000494, 33787.03102910889, -48266.08875585661, -44205.73791333889, -61230.704037035, -14719.115462197717, -7448.070639141874, -26222.977187988425, -0.164, 0.9440000000000001, 0.242, 192.0, 0.0, 0.0, 0.0, 0.0, 0.0, 0.0, 0.0, 0.0, 0.0, 1.700950445671809E9, 0.0, 2023-11-25 17:14:05.671
156.0, 24267.601879549253, 33831.60040755277, -48248.18500854791, -44172.65733154504, -61229.966429467975, -14706.553781813835, -7622.526004615546, -26203.978205201412, -0.164, 0.9440000000000001, 0.242, 192.0, 0.0, 0.0, 0.0, 0.0, 0.0, 0.0, 0.0, 0.0, 0.0, 1.700950445675928E9, 0.0, 2023-11-25 17:14:05.675
157.0, 24319.56968540784, 33917.07347834986, -48196.95481025634, -44111.6594209265, -61195.03065288433, -14678.994080900442, -7843.607109022989, -26150.334018508678, -0.166, 0.9420000000000001, 0.23800000000000002, 192.0, 250.0, 208.0, 29.0, 112.0, 7.0, 112.0, 0.0, 0.0, 0.0, 1.70095044568082E9, 0.0, 2023-11-25 17:14:05.680
158.0, 24348.53754622192, 33909.13860906823, -48199.7264265688, -44113.73813316085, -61153.09878028617, -14623.382940695637, -7621.542527859513, -26182.36406831313, -0.166, 0.9420000000000001, 0.23800000000000002, 192.0, 0.0, 0.0, 0.0, 0.0, 0.0, 0.0, 0.0, 0.0, 0.0, 1.700950445684902E9, 0.0, 2023-11-25 17:14:05.684
159.0, 24275.3802866197, 33800.86675892672, -48253.661185939454, -44196.193718456474, -61216.71184500597, -14715.248610406949, -7444.360249562294, -26256.214231993465, -0.166, 0.9420000000000001, 0.23800000000000002, 192.0, 0.0, 0.0, 0.0, 0.0, 0.0, 0.0, 0.0, 0.0, 0.0, 1.700950445689286E9, 0.0, 2023-11-25 17:14:05.689
160.0, 24265.366705103723, 33819.709279502546, -48246.59803469158, -44178.6252473146, -61227.88771723363, -14714.376892373193, -7598.430824092726, -26226.352301401177, -0.166, 0.9420000000000001, 0.23800000000000002, 192.0, 0.0, 0.0, 0.0, 0.0, 0.0, 0.0, 0.0, 0.0, 0.0, 1.700950445691867E9, 0.0, 2023-11-25 17:14:05.691
161.0, 24308.505571902464, 33903.70713516559, -48202.989781259275, -44120.130732075064, -61202.31732157676, -14680.782220456866, -7820.316591300559, -26140.968637581904, -0.166, 0.9420000000000001, 0.23800000000000002, 192.0, 0.0, 0.0, 0.0, 0.0, 0.0, 0.0, 0.0, 0.0, 0.0, 1.700950445695908E9, 0.0, 2023-11-25 17:14:05.695
162.0, 24361.658020217183, 33931.423298290174, -48182.33676938257, -44096.01319980779, -61145.32037321573, -14612.631751612635, -7700.488889275657, -26145.97542833989, -0.166, 0.9420000000000001, 0.23800000000000002, 192.0, 0.0, 0.0, 0.0, 0.0, 0.0, 0.0, 0.0, 0.0, 0.0, 1.700950445699988E9, 0.0, 2023-11-25 17:14:05.699
163.0, 24298.179065964112, 33827.77825925091, -48243.64760442348, -44182.31328514973, -61197.936379663515, -14687.510095537913, -7431.999734878509, -26235.04712999429, -0.166, 0.9420000000000001, 0.23800000000000002, 192.0, 0.0, 0.0, 0.0, 0.0, 0.0, 0.0, 0.0, 0.0, 0.0, 1.700950445703888E9, 0.0, 2023-11-25 17:14:05.703
164.0, 24278.66599305463, 33826.213637139044, -48238.841979365585, -44175.89833449106, -61215.50485080539, -14712.34288362776, -7573.665091236245, -26232.610789848663, -0.166, 0.9420000000000001, 0.23800000000000002, 192.0, 0.0, 0.0, 0.0, 0.0, 0.0, 0.0, 0.0, 0.0, 0.0, 1.70095044570889E9, 0.0, 2023-11-25 17:14:05.708
165.0, 24312.171257993134, 33904.28828052143, -48203.77209231521, -44123.05881059871, -61196.97525465194, -14689.81232521681, -7791.482840953213, -26197.675013265016, -0.166, 0.9420000000000001, 0.23800000000000002, 192.0, 0.0, 0.0, 0.0, 0.0, 0.0, 0.0, 0.0, 0.0, 0.0, 1.700950445713097E9, 0.0, 2023-11-25 17:14:05.713
166.0, 24361.143930094713, 33939.35816757181, -48174.80423150113, -44088.23479273734, -61141.34176270268, -14623.293533717817, -7764.169009228827, -26157.285411034278, -0.166, 0.9420000000000001, 0.23800000000000002, 192.0, 0.0, 0.0, 0.0, 0.0, 0.0, 0.0, 0.0, 0.0, 0.0, 1.700950445716952E9, 0.0, 2023-11-25 17:14:05.716
167.0, 24313.914694060648, 33844.76558503695, -48231.46590369534, -44166.10827041963, -61177.305719531265, -14663.504321992914, -7434.9725168910645, -26220.518496098342, -0.156, 0.9400000000000001, 0.24, 192.0, 251.0, 32.0, 29.0, 96.0, 7.0, 128.0, 0.0, 0.0, 0.0, 1.700950445720243E9, 0.0, 2023-11-25 17:14:05.720
168.0, 24268.428894094097, 33799.235081581486, -48248.31911901464, -44192.37157015462, -61224.6020107987, -14726.491537867969, -7544.5631199554355, -26239.025740507335, -0.156, 0.9400000000000001, 0.24, 192.0, 0.0, 0.0, 0.0, 0.0, 0.0, 0.0, 0.0, 0.0, 0.0, 1.700950445723947E9, 0.0, 2023-11-25 17:14:05.723
169.0, 24299.20724620906, 33878.09203601981, -48215.81968257662, -44141.07431662969, -61210.34159783621, -14700.116479410706, -7749.7744857996095, -26189.963661427937, -0.156, 0.9400000000000001, 0.24, 192.0, 0.0, 0.0, 0.0, 0.0, 0.0, 0.0, 0.0, 0.0, 0.0, 1.700950445727983E9, 0.0, 2023-11-25 17:14:05.727
170.0, 24361.81448242837, 33938.64291174924, -48168.21046688682, -44086.71487411438, -61152.987021563895, -14643.052475816308, -7824.630477980433, -26159.453530246443, -0.156, 0.9400000000000001, 0.24, 192.0, 0.0, 0.0, 0.0, 0.0, 0.0, 0.0, 0.0, 0.0, 0.0, 1.700950445732015E9, 0.0, 2023-11-25 17:14:05.732
171.0, 24332.399586725187, 33857.21550669855, -48221.00528729025, -44149.25505510033, -61168.096800815685, -14653.066057332286, -7469.304796374417, -26225.860563023158, -0.156, 0.9400000000000001, 0.24, 192.0, 0.0, 0.0, 0.0, 0.0, 0.0, 0.0, 0.0, 0.0, 0.0, 1.700950445735984E9, 0.0, 2023-11-25 17:14:05.735
172.0, 24275.223824408513, 33793.44597976756, -48244.74283990179, -44188.97410499741, -61221.33865610822, -14728.257325679939, -7516.757549853033, -26232.297865426288, -0.156, 0.9400000000000001, 0.24, 192.0, 0.0, 0.0, 0.0, 0.0, 0.0, 0.0, 0.0, 0.0, 0.0, 1.700950445740974E9, 0.0, 2023-11-25 17:14:05.740
173.0, 24292.591129850287, 33853.23689618551, -48225.989726303786, -44150.43969755646, -61220.64575203011, -14707.246685891949, -7696.622037484889, -26193.763457985337, -0.156, 0.9400000000000001, 0.24, 192.0, 0.0, 0.0, 0.0, 0.0, 0.0, 0.0, 0.0, 0.0, 0.0, 1.700950445744973E9, 0.0, 2023-11-25 17:14:05.744
174.0, 24348.515194477463, 33922.23673131904, -48175.74300476826, -44096.0579032967, -61171.40485899507, -14666.030069116363, -7844.590585779022, -26160.928745380494, -0.156, 0.9400000000000001, 0.24, 192.0, 0.0, 0.0, 0.0, 0.0, 0.0, 0.0, 0.0, 0.0, 0.0, 1.700950445748026E9, 0.0, 2023-11-25 17:14:05.748
175.0, 24333.383063481222, 33863.2951811904, -48217.56311864414, -44144.896464931546, -61166.263957770345, -14653.222519543473, -7510.074378260896, -26229.213324691456, -0.156, 0.9400000000000001, 0.24, 192.0, 0.0, 0.0, 0.0, 0.0, 0.0, 0.0, 0.0, 0.0, 0.0, 1.700950445752244E9, 0.0, 2023-11-25 17:14:05.752
176.0, 24265.053780681348, 33778.00092434894, -48248.22971203682, -44201.9828202704, -61224.49025207642, -14736.885099039686, -7484.414575626204, -26242.400853920088, -0.156, 0.9400000000000001, 0.24, 192.0, 0.0, 0.0, 0.0, 0.0, 0.0, 0.0, 0.0, 0.0, 0.0, 1.700950445756076E9, 0.0, 2023-11-25 17:14:05.756
177.0, 24282.51049310094, 33844.31855014784, -48224.44745593637, -44159.60391278314, -61215.482499060934, -14707.045520191852, -7652.27617648556, -26195.819818475225, -0.158, 0.9520000000000001, 0.242, 192.0, 251.0, 16.0, 29.0, 192.0, 7.0, 144.0, 0.0, 0.0, 0.0, 1.700950445760045E9, 0.0, 2023-11-25 17:14:05.760
178.0, 24341.11676706276, 33927.06470812139, -48170.73621401027, -44098.00250506431, -61173.2377020404, -14669.874569162675, -7854.514760317178, -26138.956980580926, -0.158, 0.9520000000000001, 0.242, 192.0, 0.0, 0.0, 0.0, 0.0, 0.0, 0.0, 0.0, 0.0, 0.0, 1.700950445764125E9, 0.0, 2023-11-25 17:14:05.764
179.0, 24361.121578350256, 33901.31549850887, -48188.25998166323, -44116.35328726212, -61143.889861570584, -14621.997132539409, -7565.953739399164, -26182.14055086858, -0.158, 0.9520000000000001, 0.242, 192.0, 0.0, 0.0, 0.0, 0.0, 0.0, 0.0, 0.0, 0.0, 0.0, 1.700950445769172E9, 0.0, 2023-11-25 17:14:05.769
180.0, 24279.448304110563, 33798.40806703664, -48242.619424178534, -44196.618401601125, -61216.71184500597, -14724.658694822634, -7456.43019156816, -26247.2958859558, -0.158, 0.9520000000000001, 0.242, 192.0, 0.0, 0.0, 0.0, 0.0, 0.0, 0.0, 0.0, 0.0, 0.0, 1.700950445774103E9, 0.0, 2023-11-25 17:14:05.774
181.0, 24284.700964057563, 33842.37394838023, -48224.089828025084, -44161.59321803966, -61214.722539749455, -14704.966807957508, -7619.709684814177, -26199.194931887978, -0.158, 0.9520000000000001, 0.242, 192.0, 0.0, 0.0, 0.0, 0.0, 0.0, 0.0, 0.0, 0.0, 0.0, 1.700950445778065E9, 0.0, 2023-11-25 17:14:05.778
182.0, 24336.78052863843, 33932.3620715573, -48176.771185013204, -44101.422321965976, -61184.033594612316, -14676.468333776991, -7838.779132220642, -26136.16301252401, -0.158, 0.9520000000000001, 0.242, 192.0, 0.0, 0.0, 0.0, 0.0, 0.0, 0.0, 0.0, 0.0, 0.0, 1.700950445781122E9, 0.0, 2023-11-25 17:14:05.781
183.0, 24376.477226791052, 33943.157964129205, -48174.893638478956, -44096.01319980779, -61136.08910275568, -14615.783347580833, -7635.51236814408, -26161.84516690316, -0.158, 0.9520000000000001, 0.242, 192.0, 0.0, 0.0, 0.0, 0.0, 0.0, 0.0, 0.0, 0.0, 0.0, 1.700950445784247E9, 0.0, 2023-11-25 17:14:05.784
184.0, 24294.178103706614, 33834.34967212077, -48237.45617120936, -44183.11794795012, -61200.81975469825, -14707.447851592047, -7435.330144802349, -26242.490260897906, -0.158, 0.9520000000000001, 0.242, 192.0, 0.0, 0.0, 0.0, 0.0, 0.0, 0.0, 0.0, 0.0, 0.0, 1.700950445788109E9, 0.0, 2023-11-25 17:14:05.788
185.0, 24275.71556278653, 33851.582867095814, -48227.01790654873, -44164.78951749677, -61210.96744668096, -14711.515869082914, -7586.986730931608, -26230.800298547783, -0.158, 0.9520000000000001, 0.242, 192.0, 0.0, 0.0, 0.0, 0.0, 0.0, 0.0, 0.0, 0.0, 0.0, 1.700950445792119E9, 0.0, 2023-11-25 17:14:05.792
186.0, 24318.943836563092, 33945.10256589682, -48179.47574609229, -44103.433978966954, -61181.95488237797, -14681.206903601516, -7807.129062071927, -26181.93938516848, -0.158, 0.9520000000000001, 0.242, 192.0, 0.0, 0.0, 0.0, 0.0, 0.0, 0.0, 0.0, 0.0, 0.0, 1.700950445796185E9, 0.0, 2023-11-25 17:14:05.796
187.0, 24365.658982474684, 33973.15400518823, -48159.068603404594, -44077.12597574305, -61125.06969273921, -14604.294550930805, -7689.111851347906, -26159.721751179906, -0.156, 0.9560000000000001, 0.242, 192.0, 251.0, 32.0, 29.0, 224.0, 7.0, 144.0, 0.0, 0.0, 0.0, 1.700950445801376E9, 0.0, 2023-11-25 17:14:05.801
188.0, 24306.449211412575, 33873.241707473004, -48217.8313395776, -44155.64765401455, -61172.410687495554, -14656.61998470068, -7401.668417652657, -26209.074402937225, -0.156, 0.9560000000000001, 0.242, 192.0, 0.0, 0.0, 0.0, 0.0, 0.0, 0.0, 0.0, 0.0, 0.0, 1.70095044580419E9, 0.0, 2023-11-25 17:14:05.804
189.0, 24271.04404819537, 33855.98616075351, -48233.65637465196, -44165.46006983043, -61211.16861238106, -14691.734575239967, -7529.989782570575, -26220.09381295369, -0.156, 0.9560000000000001, 0.242, 192.0, 0.0, 0.0, 0.0, 0.0, 0.0, 0.0, 0.0, 0.0, 0.0, 1.700950445809166E9, 0.0, 2023-11-25 17:14:05.809
190.0, 24306.918598046137, 33939.671091994176, -48201.06753123612, -44110.76535114829, -61194.941245906506, -14666.857083661209, -7754.87068353542, -26186.99087941538, -0.156, 0.9560000000000001, 0.242, 192.0, 0.0, 0.0, 0.0, 0.0, 0.0, 0.0, 0.0, 0.0, 0.0, 1.700950445812216E9, 0.0, 2023-11-25 17:14:05.812
191.0, 24367.290659819922, 33990.16368271872, -48163.069565662096, -44065.413661648476, -61132.89280329857, -14596.337329904716, -7753.149599212361, -26180.687687478985, -0.156, 0.9560000000000001, 0.242, 192.0, 0.0, 0.0, 0.0, 0.0, 0.0, 0.0, 0.0, 0.0, 0.0, 1.700950445816227E9, 0.0, 2023-11-25 17:14:05.816
192.0, 24328.510383189965, 33902.701306665105, -48219.26185122274, -44136.4698572719, -61161.21246352345, -14627.674475631056, -7418.23106029404, -26268.127711788144, -0.156, 0.9560000000000001, 0.242, 192.0, 0.0, 0.0, 0.0, 0.0, 0.0, 0.0, 0.0, 0.0, 0.0, 1.700950445820203E9, 0.0, 2023-11-25 17:14:05.820
193.0, 24275.737914530982, 33855.69558807559, -48240.89833985548, -44160.900313961545, -61207.994664668404, -14677.228293088472, -7506.00636077003, -26256.48245292693, -0.156, 0.9560000000000001, 0.242, 192.0, 0.0, 0.0, 0.0, 0.0, 0.0, 0.0, 0.0, 0.0, 0.0, 1.70095044582631E9, 0.0, 2023-11-25 17:14:05.826
194.0, 24297.173237463623, 33928.94225465563, -48222.4805024243, -44121.471836742385, -61203.79253671081, -14658.363420768193, -7705.316866078004, -26213.209475661457, -0.156, 0.9560000000000001, 0.242, 192.0, 0.0, 0.0, 0.0, 0.0, 0.0, 0.0, 0.0, 0.0, 0.0, 1.700950445829529E9, 0.0, 2023-11-25 17:14:05.829
195.0, 24370.10697962129, 34007.06160152693, -48168.38928084246, -44061.5021063688, -61140.760617346845, -14597.231399682929, -7798.948323601285, -26163.856823904138, -0.156, 0.9560000000000001, 0.242, 192.0, 0.0, 0.0, 0.0, 0.0, 0.0, 0.0, 0.0, 0.0, 0.0, 1.700950445833304E9, 0.0, 2023-11-25 17:14:05.833
196.0, 24344.313066519866, 33941.12395538377, -48223.37457220251, -44125.89748214454, -61156.965632076935, -14609.077824244241, -7445.120208873775, -26251.363903446665, -0.156, 0.9560000000000001, 0.242, 192.0, 0.0, 0.0, 0.0, 0.0, 0.0, 0.0, 0.0, 0.0, 0.0, 1.700950445836337E9, 0.0, 2023-11-25 17:14:05.836
197.0, 24275.290879641878, 33866.98321902552, -48260.254950553775, -44178.98287522589, -61223.68558927603, -14700.719976511, -7485.107479704318, -26291.77585742186, -0.15, 0.9440000000000001, 0.242, 192.0, 251.0, 80.0, 29.0, 128.0, 7.0, 144.0, 0.0, 0.0, 0.0, 1.700950445840232E9, 0.0, 2023-11-25 17:14:05.840
198.0, 24292.99346125048, 33935.35720531431, -48245.92748235792, -44139.93437766247, -61223.3503131092, -14682.257435590916, -7673.890313373842, -26268.574746677252, -0.15, 0.9440000000000001, 0.242, 192.0, 0.0, 0.0, 0.0, 0.0, 0.0, 0.0, 0.0, 0.0, 0.0, 1.700950445844286E9, 0.0, 2023-11-25 17:14:05.844
199.0, 24352.650267201694, 34012.71659287412, -48200.79931030265, -44086.84898458111, -61181.95488237797, -14647.142845051629, -7837.572138020056, -26235.67297883904, -0.15, 0.9440000000000001, 0.242, 192.0, 0.0, 0.0, 0.0, 0.0, 0.0, 0.0, 0.0, 0.0, 0.0, 1.7009504458483E9, 0.0, 2023-11-25 17:14:05.848
200.0, 24353.72315093555, 33964.95091497313, -48236.15977003095, -44127.484456000864, -61170.44373398349, -14622.153594750596, -7502.899468290743, -26284.086857329235, -0.15, 0.9440000000000001, 0.242, 192.0, 0.0, 0.0, 0.0, 0.0, 0.0, 0.0, 0.0, 0.0, 0.0, 1.700950445852273E9, 0.0, 2023-11-25 17:14:05.852
201.0, 24282.1305134452, 33876.1474342522, -48275.52119201675, -44189.06351197523, -61234.32501963676, -14706.218505647006, -7460.386450336749, -26295.463895256984, -0.15, 0.9440000000000001, 0.242, 192.0, 0.0, 0.0, 0.0, 0.0, 0.0, 0.0, 0.0, 0.0, 0.0, 1.700950445856368E9, 0.0, 2023-11-25 17:14:05.856
202.0, 24289.32777515981, 33928.22699883306, -48263.47360175534, -44154.3736045806, -61236.76135978239, -14687.800668215832, -7631.913737286775, -26268.977078077445, -0.15, 0.9440000000000001, 0.242, 192.0, 0.0, 0.0, 0.0, 0.0, 0.0, 0.0, 0.0, 0.0, 0.0, 1.700950445859312E9, 0.0, 2023-11-25 17:14:05.859
203.0, 24352.87378464625, 34018.23747375458, -48205.582583616095, -44085.3067142137, -61189.50977200387, -14646.807568884798, -7839.69555374331, -26219.982054231412, -0.15, 0.9440000000000001, 0.242, 192.0, 0.0, 0.0, 0.0, 0.0, 0.0, 0.0, 0.0, 0.0, 0.0, 1.700950445863423E9, 0.0, 2023-11-25 17:14:05.863
204.0, 24370.91164242168, 33995.326935687895, -48221.988764046284, -44102.58461267765, -61157.85970185515, -14597.7454898054, -7559.583492229402, -26264.909060586582, -0.15, 0.9440000000000001, 0.242, 192.0, 0.0, 0.0, 0.0, 0.0, 0.0, 0.0, 0.0, 0.0, 0.0, 1.700950445868338E9, 0.0, 2023-11-25 17:14:05.868
205.0, 24300.324833431823, 33901.67312642016, -48267.96630239085, -44174.91485773502, -61218.99172294042, -14687.711261238012, -7430.323354044361, -26300.649499970616, -0.15, 0.9440000000000001, 0.242, 192.0, 0.0, 0.0, 0.0, 0.0, 0.0, 0.0, 0.0, 0.0, 0.0, 1.70095044587236E9, 0.0, 2023-11-25 17:14:05.872
206.0, 24305.421031167632, 33944.007330418506, -48256.343395274096, -44145.522313776295, -61223.30560962029, -14681.206903601516, -7597.670864781245, -26278.76714214887, -0.154, 0.936, 0.246, 192.0, 251.0, 48.0, 29.0, 64.0, 7.0, 176.0, 0.0, 0.0, 0.0, 1.700950445876384E9, 0.0, 2023-11-25 17:14:05.876
207.0, 24361.188633583624, 34036.856476885856, -48203.906202781945, -44077.79652807672, -61188.369833036646, -14646.740513651434, -7819.444873266802, -26216.003443718368, -0.154, 0.936, 0.246, 192.0, 0.0, 0.0, 0.0, 0.0, 0.0, 0.0, 0.0, 0.0, 0.0, 1.700950445880406E9, 0.0, 2023-11-25 17:14:05.880
208.0, 24395.140933411236, 34040.25394204306, -48203.5262231262, -44072.23094370734, -61144.85098658216, -14586.83783851121, -7620.536699359024, -26234.82361254974, -0.154, 0.936, 0.246, 192.0, 0.0, 0.0, 0.0, 0.0, 0.0, 0.0, 0.0, 0.0, 0.0, 1.700950445884581E9, 0.0, 2023-11-25 17:14:05.884
209.0, 24319.033243540915, 33930.57393200087, -48267.83219192412, -44159.64861627205, -61209.67104550255, -14677.876493677675, -7404.7976618764005, -26306.68447097355, -0.154, 0.936, 0.246, 192.0, 0.0, 0.0, 0.0, 0.0, 0.0, 0.0, 0.0, 0.0, 0.0, 1.700950445889419E9, 0.0, 2023-11-25 17:14:05.889
210.0, 24305.644548612185, 33945.34843508583, -48265.976997134334, -44148.0704126442, -61228.08888293373, -14694.506191552424, -7556.230730561106, -26295.419191768076, -0.154, 0.936, 0.246, 192.0, 0.0, 0.0, 0.0, 0.0, 0.0, 0.0, 0.0, 0.0, 0.0, 1.700950445893507E9, 0.0, 2023-11-25 17:14:05.893
211.0, 24351.935011379126, 34038.26463678654, -48221.29585996817, -44087.76540610378, -61201.69147273201, -14671.841522674744, -7786.945436828785, -26253.621429636652, -0.154, 0.936, 0.246, 192.0, 0.0, 0.0, 0.0, 0.0, 0.0, 0.0, 0.0, 0.0, 0.0, 1.70095044589651E9, 0.0, 2023-11-25 17:14:05.896
212.0, 24401.421773603175, 34065.62317199983, -48194.63022883299, -44055.57889408814, -61139.79949233526, -14597.83489678322, -7697.538459007556, -26243.272571953843, -0.154, 0.936, 0.246, 192.0, 0.0, 0.0, 0.0, 0.0, 0.0, 0.0, 0.0, 0.0, 0.0, 1.700950445901538E9, 0.0, 2023-11-25 17:14:05.901
213.0, 24345.743578165006, 33958.98299920357, -48248.31911901464, -44129.49611300184, -61176.63516719761, -14647.813397385287, -7404.931772343132, -26303.68933721654, -0.154, 0.936, 0.246, 192.0, 0.0, 0.0, 0.0, 0.0, 0.0, 0.0, 0.0, 0.0, 0.0, 1.700950445905798E9, 0.0, 2023-11-25 17:14:05.905
214.0, 24309.734917847505, 33940.8110309614, -48255.71754642935, -44131.37365953608, -61204.932475678026, -14673.897883164631, -7521.272602233005, -26266.63014490964, -0.154, 0.936, 0.246, 192.0, 0.0, 0.0, 0.0, 0.0, 0.0, 0.0, 0.0, 0.0, 0.0, 1.700950445910535E9, 0.0, 2023-11-25 17:14:05.910
215.0, 24348.179918310634, 34032.25201752806, -48222.99459254678, -44074.980208275345, -61185.93349289102, -14648.305135763305, -7738.710372294233, -26222.28428391031, -0.154, 0.936, 0.246, 192.0, 0.0, 0.0, 0.0, 0.0, 0.0, 0.0, 0.0, 0.0, 0.0, 1.700950445913432E9, 0.0, 2023-11-25 17:14:05.913
216.0, 24413.424660375676, 34090.00892520058, -48178.15699316943, -44026.52162629624, -61120.21936419242, -14580.64640529709, -7752.859026534442, -26199.150228399067, -0.156, 0.9420000000000001, 0.242, 192.0, 251.0, 32.0, 29.0, 112.0, 7.0, 144.0, 0.0, 0.0, 0.0, 1.700950445916451E9, 0.0, 2023-11-25 17:14:05.916
217.0, 24367.983563898037, 33999.3278979454, -48237.031488064706, -44106.809092379706, -61153.76933261983, -14616.453899914492, -7407.524574699948, -26279.57180494926, -0.156, 0.9420000000000001, 0.242, 192.0, 0.0, 0.0, 0.0, 0.0, 0.0, 0.0, 0.0, 0.0, 0.0, 1.700950445919694E9, 0.0, 2023-11-25 17:14:05.919
218.0, 24313.24414172699, 33944.32025484088, -48259.13736333101, -44143.64476724205, -61210.16278388057, -14687.018357159897, -7497.065662987908, -26292.91579638908, -0.156, 0.9420000000000001, 0.242, 192.0, 0.0, 0.0, 0.0, 0.0, 0.0, 0.0, 0.0, 0.0, 0.0, 1.700950445923474E9, 0.0, 2023-11-25 17:14:05.923
219.0, 24337.04874957189, 34011.755467862546, -48240.27249101073, -44107.52434820227, -61212.465013559464, -14675.864836676697, -7704.445148044247, -26270.09466530021, -0.156, 0.9420000000000001, 0.242, 192.0, 0.0, 0.0, 0.0, 0.0, 0.0, 0.0, 0.0, 0.0, 0.0, 1.700950445928521E9, 0.0, 2023-11-25 17:14:05.928
220.0, 24405.176866671667, 34081.17998614073, -48187.611781074025, -44051.17560043044, -61156.406838465555, -14617.839708070722, -7815.913297642863, -26213.05301345027, -0.156, 0.9420000000000001, 0.242, 192.0, 0.0, 0.0, 0.0, 0.0, 0.0, 0.0, 0.0, 0.0, 0.0, 1.700950445932522E9, 0.0, 2023-11-25 17:14:05.932
221.0, 24384.948537939614, 34012.33661321838, -48231.06357229514, -44108.0607900692, -61161.167760034536, -14616.163327236573, -7458.151275891219, -26268.77591237735, -0.156, 0.9420000000000001, 0.242, 192.0, 0.0, 0.0, 0.0, 0.0, 0.0, 0.0, 0.0, 0.0, 0.0, 1.700950445939521E9, 0.0, 2023-11-25 17:14:05.939
222.0, 24315.43461268361, 33930.81980118988, -48261.93133138792, -44162.107308162136, -61223.596182298206, -14708.81130800382, -7485.733328549067, -26314.73109897746, -0.156, 0.9420000000000001, 0.242, 192.0, 0.0, 0.0, 0.0, 0.0, 0.0, 0.0, 0.0, 0.0, 0.0, 1.700950445942595E9, 0.0, 2023-11-25 17:14:05.942
223.0, 24331.281999502422, 33993.33763043137, -48242.59707243408, -44121.762409420306, -61217.42710082854, -14685.00670015892, -7661.37333647887, -26270.80992112278, -0.156, 0.9420000000000001, 0.242, 192.0, 0.0, 0.0, 0.0, 0.0, 0.0, 0.0, 0.0, 0.0, 0.0, 1.700950445946618E9, 0.0, 2023-11-25 17:14:05.946
224.0, 24389.35183159731, 34075.010904671064, -48188.81877527461, -44058.95400750089, -61165.638108925596, -14637.7551123804, -7821.903565156886, -26201.385402844597, -0.156, 0.9420000000000001, 0.242, 192.0, 0.0, 0.0, 0.0, 0.0, 0.0, 0.0, 0.0, 0.0, 0.0, 1.700950445949596E9, 0.0, 2023-11-25 17:14:05.949
225.0, 24385.820255973373, 34033.86134312885, -48223.262813480236, -44094.71679862938, -61150.97536456292, -14606.060338742775, -7487.543819849947, -26249.128729001135, -0.156, 0.9420000000000001, 0.242, 192.0, 0.0, 0.0, 0.0, 0.0, 0.0, 0.0, 0.0, 0.0, 0.0, 1.700950445953583E9, 0.0, 2023-11-25 17:14:05.953
226.0, 24318.76502260745, 33945.14726938573, -48257.97507261933, -44155.0218051698, -61210.2968943473, -14695.489668308457, -7432.983211634542, -26278.543624704318, -0.162, 0.9440000000000001, 0.244, 192.0, 250.0, 240.0, 29.0, 128.0, 7.0, 160.0, 0.0, 0.0, 0.0, 1.700950445956655E9, 0.0, 2023-11-25 17:14:05.956
227.0, 24330.18676402411, 33997.696220600155, -48237.56792993163, -44119.035496596756, -61206.22887685644, -14670.165141840595, -7591.591190289401, -26242.445557409, -0.162, 0.9440000000000001, 0.244, 192.0, 0.0, 0.0, 0.0, 0.0, 0.0, 0.0, 0.0, 0.0, 0.0, 1.700950445960579E9, 0.0, 2023-11-25 17:14:05.960
228.0, 24386.669622262674, 34082.47638731913, -48185.801289773146, -44060.920961012955, -61170.957824105964, -14638.85034785871, -7802.792823647598, -26196.825646975714, -0.162, 0.9440000000000001, 0.244, 192.0, 0.0, 0.0, 0.0, 0.0, 0.0, 0.0, 0.0, 0.0, 0.0, 1.700950445964609E9, 0.0, 2023-11-25 17:14:05.964
229.0, 24413.3129016534, 34066.137262122305, -48200.55344111365, -44076.656589109494, -61140.9841347914, -14589.587103079213, -7541.903262365254, -26243.652551609583, -0.162, 0.9440000000000001, 0.244, 192.0, 0.0, 0.0, 0.0, 0.0, 0.0, 0.0, 0.0, 0.0, 0.0, 1.700950445968616E9, 0.0, 2023-11-25 17:14:05.968
230.0, 24337.76400539446, 33962.49222308305, -48254.64466269549, -44155.62530227009, -61210.386301325125, -14682.995043157942, -7397.443937950604, -26300.82831392626, -0.162, 0.9440000000000001, 0.244, 192.0, 0.0, 0.0, 0.0, 0.0, 0.0, 0.0, 0.0, 0.0, 0.0, 1.700950445972644E9, 0.0, 2023-11-25 17:14:05.972
231.0, 24330.522040190943, 33989.090798984864, -48243.535845701204, -44127.417400767496, -61215.79542348331, -14675.641319232145, -7561.282224808005, -26273.82740662425, -0.162, 0.9440000000000001, 0.244, 192.0, 0.0, 0.0, 0.0, 0.0, 0.0, 0.0, 0.0, 0.0, 0.0, 1.700950445978012E9, 0.0, 2023-11-25 17:14:05.978
232.0, 24384.523854794963, 34082.23051813013, -48188.68466480788, -44057.47879236684, -61174.84702764118, -14640.414969970581, -7791.013454319651, -26215.04231870679, -0.162, 0.9440000000000001, 0.244, 192.0, 0.0, 0.0, 0.0, 0.0, 0.0, 0.0, 0.0, 0.0, 0.0, 1.700950445981643E9, 0.0, 2023-11-25 17:14:05.981
233.0, 24426.50043088203, 34096.625041559346, -48182.96261822732, -44045.7441265278, -61124.28738168328, -14576.734850017412, -7620.290830170015, -26238.95868527397, -0.162, 0.9440000000000001, 0.244, 192.0, 0.0, 0.0, 0.0, 0.0, 0.0, 0.0, 0.0, 0.0, 0.0, 1.700950445985642E9, 0.0, 2023-11-25 17:14:05.985
234.0, 24354.840738158317, 33983.994601249055, -48252.09656382759, -44138.28034857278, -61191.856705171675, -14669.606348229212, -7386.156307000674, -26327.02455842788, -0.162, 0.9440000000000001, 0.244, 192.0, 0.0, 0.0, 0.0, 0.0, 0.0, 0.0, 0.0, 0.0, 0.0, 1.700950445989682E9, 0.0, 2023-11-25 17:14:05.989
235.0, 24339.954476351082, 33990.09662748535, -48250.62134869354, -44124.86930189959, -61209.447528058, -14684.514961780902, -7536.337677995883, -26305.008090139403, -0.162, 0.9440000000000001, 0.244, 192.0, 0.0, 0.0, 0.0, 0.0, 0.0, 0.0, 0.0, 0.0, 0.0, 1.700950445993863E9, 0.0, 2023-11-25 17:14:05.993
236.0, 24381.372258826766, 34082.27522161904, -48210.43291216289, -44064.921923270456, -61183.40774576757, -14652.999002098919, -7761.263282449638, -26236.05295849478, -0.156, 0.9380000000000001, 0.25, 192.0, 251.0, 32.0, 29.0, 80.0, 7.0, 208.0, 0.0, 0.0, 0.0, 1.700950445997779E9, 0.0, 2023-11-25 17:14:05.997
237.0, 24432.714215840606, 34116.78631505803, -48186.24832466225, -44033.83064673313, -61125.33791367268, -14580.8922744861, -7689.424775770281, -26209.007347703857, -0.156, 0.9380000000000001, 0.25, 192.0, 0.0, 0.0, 0.0, 0.0, 0.0, 0.0, 0.0, 0.0, 0.0, 1.700950446000759E9, 0.0, 2023-11-25 17:14:06.000
238.0, 24368.29648832041, 34007.50863641604, -48250.08490682661, -44118.40964775201, -61171.44956248398, -14636.145786779618, -7382.490620910004, -26282.946918362013, -0.156, 0.9380000000000001, 0.25, 192.0, 0.0, 0.0, 0.0, 0.0, 0.0, 0.0, 0.0, 0.0, 0.0, 1.700950446004733E9, 0.0, 2023-11-25 17:14:06.004
239.0, 24330.656150657673, 33984.32987741588, -48254.6893661844, -44125.85277865562, -61204.17251636655, -14675.350746554226, -7511.124910250296, -26288.601909709207, -0.156, 0.9380000000000001, 0.25, 192.0, 0.0, 0.0, 0.0, 0.0, 0.0, 0.0, 0.0, 0.0, 0.0, 1.700950446010673E9, 0.0, 2023-11-25 17:14:06.010
240.0, 24355.28777304742, 34059.65525623027, -48230.86240659504, -44084.47969966885, -61199.411594797566, -14660.486836491447, -7725.075808176495, -26261.265726240366, -0.156, 0.9380000000000001, 0.25, 192.0, 0.0, 0.0, 0.0, 0.0, 0.0, 0.0, 0.0, 0.0, 0.0, 1.700950446013744E9, 0.0, 2023-11-25 17:14:06.013
241.0, 24414.54224759844, 34111.06426847747, -48193.199717187854, -44041.89962648149, -61143.554585403755, -14597.074937471742, -7755.675346335811, -26210.37080411563, -0.156, 0.9380000000000001, 0.25, 192.0, 0.0, 0.0, 0.0, 0.0, 0.0, 0.0, 0.0, 0.0, 0.0, 1.700950446017979E9, 0.0, 2023-11-25 17:14:06.017
242.0, 24378.77945646995, 34022.88663660129, -48250.42018299344, -44116.62150819558, -61170.24256828339, -14628.456786686993, -7409.312714256373, -26288.512502731384, -0.156, 0.9380000000000001, 0.25, 192.0, 0.0, 0.0, 0.0, 0.0, 0.0, 0.0, 0.0, 0.0, 0.0, 1.700950446032943E9, 0.0, 2023-11-25 17:14:06.032
243.0, 24325.872877344238, 33969.42126386419, -48266.91577040145, -44148.36098532212, -61216.890658961616, -14698.596560787746, -7494.584619353369, -26305.72334596197, -0.156, 0.9380000000000001, 0.25, 192.0, 0.0, 0.0, 0.0, 0.0, 0.0, 0.0, 0.0, 0.0, 0.0, 1.700950446035718E9, 0.0, 2023-11-25 17:14:06.035
244.0, 24352.20323231259, 34044.92545663422, -48237.54557818718, -44097.421359708474, -61202.16085936557, -14665.359516782704, -7686.809621669009, -26240.47860389693, -0.156, 0.9380000000000001, 0.25, 192.0, 0.0, 0.0, 0.0, 0.0, 0.0, 0.0, 0.0, 0.0, 0.0, 1.700950446039775E9, 0.0, 2023-11-25 17:14:06.039
245.0, 24428.22151520509, 34124.855294806395, -48174.51365882321, -44030.880216465026, -61137.98900103438, -14605.166268964562, -7806.525564971634, -26186.633251504096, -0.156, 0.9380000000000001, 0.25, 192.0, 0.0, 0.0, 0.0, 0.0, 0.0, 0.0, 0.0, 0.0, 0.0, 1.700950446042749E9, 0.0, 2023-11-25 17:14:06.042
246.0, 24404.998052716026, 34052.6368084713, -48225.58739490359, -44092.36986546157, -61149.61190815114, -14608.65314109959, -7444.628470495757, -26271.14519728961, -0.156, 0.9440000000000001, 0.25, 192.0, 251.0, 32.0, 29.0, 128.0, 7.0, 208.0, 0.0, 0.0, 0.0, 1.700950446045841E9, 0.0, 2023-11-25 17:14:06.045
247.0, 24325.224676755035, 33960.54762131544, -48267.56397099066, -44156.04998541474, -61224.847879987705, -14708.945418470554, -7457.637185768746, -26314.01584315489, -0.156, 0.9440000000000001, 0.25, 192.0, 0.0, 0.0, 0.0, 0.0, 0.0, 0.0, 0.0, 0.0, 0.0, 1.70095044604989E9, 0.0, 2023-11-25 17:14:06.049
248.0, 24337.071101316345, 34016.80696210945, -48249.749630659775, -44117.44852274043, -61222.27742937535, -14686.817191459799, -7641.301469958004, -26281.225834038956, -0.156, 0.9440000000000001, 0.25, 192.0, 0.0, 0.0, 0.0, 0.0, 0.0, 0.0, 0.0, 0.0, 0.0, 1.70095044605288E9, 0.0, 2023-11-25 17:14:06.052
249.0, 24396.83966598984, 34098.81551251597, -48191.56803984261, -44053.12020219806, -61170.80136189477, -14639.520900192369, -7819.020190122151, -26214.41646986204, -0.156, 0.9440000000000001, 0.25, 192.0, 0.0, 0.0, 0.0, 0.0, 0.0, 0.0, 0.0, 0.0, 0.0, 1.700950446055882E9, 0.0, 2023-11-25 17:14:06.055
250.0, 24398.940729968635, 34055.83310792841, -48220.893528567976, -44091.542850916725, -61157.6361844106, -14608.027292254841, -7494.405805397726, -26260.30460122879, -0.156, 0.9440000000000001, 0.25, 192.0, 0.0, 0.0, 0.0, 0.0, 0.0, 0.0, 0.0, 0.0, 0.0, 1.700950446059893E9, 0.0, 2023-11-25 17:14:06.059
251.0, 24332.48899370301, 33963.98978996155, -48254.75642141777, -44156.295854603755, -61219.3493508517, -14694.52854329688, -7413.760711402979, -26283.215139295477, -0.156, 0.9440000000000001, 0.25, 192.0, 0.0, 0.0, 0.0, 0.0, 0.0, 0.0, 0.0, 0.0, 0.0, 1.700950446062995E9, 0.0, 2023-11-25 17:14:06.062
252.0, 24335.43942397111, 34002.099514257854, -48245.212226535354, -44132.20067408093, -61226.77013001086, -14687.554799026824, -7576.302597081972, -26265.892537342614, -0.156, 0.9440000000000001, 0.25, 192.0, 0.0, 0.0, 0.0, 0.0, 0.0, 0.0, 0.0, 0.0, 0.0, 1.700950446065845E9, 0.0, 2023-11-25 17:14:06.065
253.0, 24389.888273464236, 34088.51135832207, -48194.22789743279, -44074.19789721941, -61191.83435342722, -14667.035897616852, -7803.977466103729, -26237.729339328926, -0.156, 0.9440000000000001, 0.25, 192.0, 0.0, 0.0, 0.0, 0.0, 0.0, 0.0, 0.0, 0.0, 0.0, 1.700950446069905E9, 0.0, 2023-11-25 17:14:06.069
254.0, 24427.573314615885, 34084.242175131105, -48189.19875493035, -44068.341740172116, -61140.67121036902, -14599.846553784198, -7557.437724761692, -26243.965476031957, -0.156, 0.9440000000000001, 0.25, 192.0, 0.0, 0.0, 0.0, 0.0, 0.0, 0.0, 0.0, 0.0, 0.0, 1.700950446072883E9, 0.0, 2023-11-25 17:14:06.072
255.0, 24360.562784738875, 33981.334743658874, -48237.813799120646, -44140.38141255157, -61198.15989710807, -14684.805534458821, -7390.872525080744, -26285.24914804091, -0.156, 0.9440000000000001, 0.25, 192.0, 0.0, 0.0, 0.0, 0.0, 0.0, 0.0, 0.0, 0.0, 0.0, 1.700950446075838E9, 0.0, 2023-11-25 17:14:06.075
0.0, 24346.212964798568, 34004.11117125883, -48238.573758432125, -44123.215272809895, -61213.515545548864, -14690.728746739478, -7548.005288601553, -26269.267650755366, -0.154, 0.9440000000000001, 0.252, 192.0, 251.0, 48.0, 29.0, 128.0, 7.0, 224.0, 0.0, 0.0, 0.0, 1.700950446078883E9, 0.0, 2023-11-25 17:14:06.078
1.0, 24386.222587373566, 34089.494835078105, -48193.66910382141, -44062.48558312483, -61184.14535333459, -14664.621909215679, -7779.189381502793, -26210.348452371178, -0.154, 0.9440000000000001, 0.252, 192.0, 0.0, 0.0, 0.0, 0.0, 0.0, 0.0, 0.0, 0.0, 0.0, 1.700950446085989E9, 0.0, 2023-11-25 17:14:06.085
2.0, 24433.094195496345, 34098.7484572826, -48184.05785370563, -44049.7003852964, -61132.490471898374, -14601.65704508508, -7633.098379742906, -26226.106432212167, -0.154, 0.9440000000000001, 0.252, 192.0, 0.0, 0.0, 0.0, 0.0, 0.0, 0.0, 0.0, 0.0, 0.0, 1.700950446088944E9, 0.0, 2023-11-25 17:14:06.088
3.0, 24368.162377853678, 33988.196729206655, -48250.84486613809, -44137.67685147248, -61191.87905691613, -14681.206903601516, -7389.933751813621, -26304.382241294654, -0.154, 0.9440000000000001, 0.252, 192.0, 0.0, 0.0, 0.0, 0.0, 0.0, 0.0, 0.0, 0.0, 0.0, 1.70095044609314E9, 0.0, 2023-11-25 17:14:06.093
4.0, 24343.933086864126, 33984.59809834935, -48252.56595046115, -44131.463066513905, -61213.4484903155, -14700.988197444463, -7538.058762318941, -26298.39197378063, -0.154, 0.9440000000000001, 0.252, 192.0, 0.0, 0.0, 0.0, 0.0, 0.0, 0.0, 0.0, 0.0, 0.0, 1.700950446096005E9, 0.0, 2023-11-25 17:14:06.096
5.0, 24381.59577627132, 34073.35687558137, -48210.52231914071, -44070.53221112874, -61186.9393213915, -14672.087391863752, -7768.773468586621, -26252.23562148042, -0.154, 0.9440000000000001, 0.252, 192.0, 0.0, 0.0, 0.0, 0.0, 0.0, 0.0, 0.0, 0.0, 0.0, 1.700950446098949E9, 0.0, 2023-11-25 17:14:06.098
6.0, 24434.569410630396, 34110.17019869926, -48179.363987370016, -44031.72958275433, -61126.67901834, -14593.83393452572, -7711.888278947864, -26215.154077429066, -0.154, 0.9440000000000001, 0.252, 192.0, 0.0, 0.0, 0.0, 0.0, 0.0, 0.0, 0.0, 0.0, 0.0, 1.700950446101989E9, 0.0, 2023-11-25 17:14:06.101
7.0, 24373.079761633846, 34000.914871801724, -48248.63204343701, -44118.92373787448, -61177.14925732008, -14646.338182251238, -7387.005673289976, -26280.1529503051, -0.154, 0.9440000000000001, 0.252, 192.0, 0.0, 0.0, 0.0, 0.0, 0.0, 0.0, 0.0, 0.0, 0.0, 1.700950446105961E9, 0.0, 2023-11-25 17:14:06.105
8.0, 24329.00212156798, 33962.447519594134, -48263.98769187781, -44137.766258450305, -61219.058778173785, -14695.109688652718, -7503.905296791232, -26283.617470695674, -0.154, 0.9440000000000001, 0.252, 192.0, 0.0, 0.0, 0.0, 0.0, 0.0, 0.0, 0.0, 0.0, 0.0, 1.700950446108988E9, 0.0, 2023-11-25 17:14:06.108
9.0, 24360.29456380541, 34041.57269496592, -48229.633060650005, -44086.96074330339, -61202.51848727685, -14670.947452896531, -7723.444130831258, -26245.597153377195, -0.154, 0.9440000000000001, 0.252, 192.0, 0.0, 0.0, 0.0, 0.0, 0.0, 0.0, 0.0, 0.0, 0.0, 1.700950446111959E9, 0.0, 2023-11-25 17:14:06.111
10.0, 24433.07184375189, 34110.43841963272, -48178.20169665834, -44034.54590255569, -61137.78783533428, -14607.870830043654, -7778.675291380321, -26212.47186809443, -0.156, 0.9440000000000001, 0.25, 192.0, 251.0, 32.0, 29.0, 128.0, 7.0, 208.0, 0.0, 0.0, 0.0, 1.700950446116023E9, 0.0, 2023-11-25 17:14:06.116
11.0, 24402.181732914654, 34031.3802994943, -48236.3832874755, -44109.245432525335, -61164.453466469466, -14634.268240245372, -7422.343781273817, -26293.228720811454, -0.156, 0.9440000000000001, 0.25, 192.0, 0.0, 0.0, 0.0, 0.0, 0.0, 0.0, 0.0, 0.0, 0.0, 1.700950446120049E9, 0.0, 2023-11-25 17:14:06.120
12.0, 24342.927258363638, 33971.43292086517, -48259.338529031105, -44151.44552605695, -61220.511641563375, -14712.00760746093, -7494.539915864458, -26310.68543323105, -0.156, 0.9440000000000001, 0.25, 192.0, 0.0, 0.0, 0.0, 0.0, 0.0, 0.0, 0.0, 0.0, 0.0, 1.700950446123993E9, 0.0, 2023-11-25 17:14:06.123
13.0, 24352.560860223875, 34026.79819188097, -48245.50279921327, -44120.19778730843, -61223.529127064845, -14697.09899390924, -7682.5627902225015, -26277.694258415017, -0.156, 0.9440000000000001, 0.25, 192.0, 0.0, 0.0, 0.0, 0.0, 0.0, 0.0, 0.0, 0.0, 0.0, 1.700950446127996E9, 0.0, 2023-11-25 17:14:06.127
14.0, 24413.536419097953, 34095.37334386985, -48191.67979856489, -44064.67605408145, -61169.706126416466, -14649.13215030815, -7820.45070176729, -26228.073385724234, -0.156, 0.9440000000000001, 0.25, 192.0, 0.0, 0.0, 0.0, 0.0, 0.0, 0.0, 0.0, 0.0, 0.0, 1.700950446132011E9, 0.0, 2023-11-25 17:14:06.132
15.0, 24401.48882883654, 34037.59408445288, -48236.45034270887, -44117.135598318055, -61171.04723108378, -14637.106911791196, -7460.542912547936, -26283.952746862502, -0.156, 0.9440000000000001, 0.25, 192.0, 0.0, 0.0, 0.0, 0.0, 0.0, 0.0, 0.0, 0.0, 0.0, 1.700950446137042E9, 0.0, 2023-11-25 17:14:06.137
16.0, 24335.95351409358, 33958.02187419199, -48266.535790745715, -44166.73411926438, -61228.93824922303, -14718.958999986531, -7455.893749701232, -26297.140276091133, -0.156, 0.9440000000000001, 0.25, 192.0, 0.0, 0.0, 0.0, 0.0, 0.0, 0.0, 0.0, 0.0, 0.0, 1.700950446140039E9, 0.0, 2023-11-25 17:14:06.140
17.0, 24358.998162627002, 34027.781668637, -48234.46103745235, -44114.565147705696, -61211.235667614426, -14682.90563618012, -7633.03132450954, -26253.040284280814, -0.156, 0.9440000000000001, 0.25, 192.0, 0.0, 0.0, 0.0, 0.0, 0.0, 0.0, 0.0, 0.0, 0.0, 1.700950446144086E9, 0.0, 2023-11-25 17:14:06.144
18.0, 24411.97179698608, 34106.32569865295, -48180.45922284832, -44055.91417025497, -61167.69446941549, -14642.270164760372, -7808.112538827961, -26205.3863651021, -0.156, 0.9440000000000001, 0.25, 192.0, 0.0, 0.0, 0.0, 0.0, 0.0, 0.0, 0.0, 0.0, 0.0, 1.700950446148061E9, 0.0, 2023-11-25 17:14:06.148
19.0, 24416.12922145477, 34063.611514998855, -48212.44456916387, -44093.28628698424, -61155.75863787635, -14614.531649891336, -7492.505907119025, -26256.370694204652, -0.156, 0.9440000000000001, 0.25, 192.0, 0.0, 0.0, 0.0, 0.0, 0.0, 0.0, 0.0, 0.0, 0.0, 1.700950446152047E9, 0.0, 2023-11-25 17:14:06.152
20.0, 24347.91169737717, 33961.62050504929, -48253.325909772626, -44162.48728781787, -61220.91397296357, -14708.878363237187, -7405.8481938658, -26294.793342923327, -0.16, 0.9440000000000001, 0.246, 192.0, 251.0, 0.0, 29.0, 128.0, 7.0, 176.0, 0.0, 0.0, 0.0, 1.700950446156117E9, 0.0, 2023-11-25 17:14:06.156
21.0, 24350.213927056066, 33997.80797932243, -48243.0888108121, -44134.21233108191, -61226.01017069938, -14695.690834008556, -7569.842942934388, -26260.30460122879, -0.16, 0.9440000000000001, 0.246, 192.0, 0.0, 0.0, 0.0, 0.0, 0.0, 0.0, 0.0, 0.0, 0.0, 1.700950446159116E9, 0.0, 2023-11-25 17:14:06.159
22.0, 24408.77549752897, 34088.444303088705, -48188.5729060856, -44069.50403088379, -61186.894617902595, -14667.818208672788, -7797.718977656243, -26212.38246111661, -0.16, 0.9440000000000001, 0.246, 192.0, 0.0, 0.0, 0.0, 0.0, 0.0, 0.0, 0.0, 0.0, 0.0, 1.700950446163148E9, 0.0, 2023-11-25 17:14:06.163
23.0, 24433.965913530104, 34078.45307331718, -48200.24051669127, -44079.49526065532, -61150.461274440444, -14619.94077204952, -7561.081059107907, -26255.52132791535, -0.16, 0.9440000000000001, 0.246, 192.0, 0.0, 0.0, 0.0, 0.0, 0.0, 0.0, 0.0, 0.0, 0.0, 1.700950446167114E9, 0.0, 2023-11-25 17:14:06.167
24.0, 24354.125482335745, 33963.18512716116, -48260.098488342584, -44162.509639562326, -61217.024769428346, -14709.593619059757, -7383.4964494104925, -26289.652441698607, -0.16, 0.9440000000000001, 0.246, 192.0, 0.0, 0.0, 0.0, 0.0, 0.0, 0.0, 0.0, 0.0, 0.0, 1.700950446172075E9, 0.0, 2023-11-25 17:14:06.172
25.0, 24333.830098370327, 33979.81482503591, -48262.66893895494, -44148.875075444594, -61234.12385393666, -14717.841412763764, -7545.010154844542, -26275.86141536968, -0.16, 0.9440000000000001, 0.246, 192.0, 0.0, 0.0, 0.0, 0.0, 0.0, 0.0, 0.0, 0.0, 0.0, 1.700950446176166E9, 0.0, 2023-11-25 17:14:06.176
26.0, 24384.47915130605, 34072.574564525436, -48213.74097034228, -44083.89855431301, -61199.746870964394, -14694.170915385595, -7795.819079377542, -26239.13749922961, -0.16, 0.9440000000000001, 0.246, 192.0, 0.0, 0.0, 0.0, 0.0, 0.0, 0.0, 0.0, 0.0, 0.0, 1.700950446180159E9, 0.0, 2023-11-25 17:14:06.180
27.0, 24435.798756575437, 34097.4967595931, -48197.71476956782, -44061.636216835526, -61141.54292840278, -14628.412083198082, -7670.492848216635, -26256.415397693563, -0.16, 0.9440000000000001, 0.246, 192.0, 0.0, 0.0, 0.0, 0.0, 0.0, 0.0, 0.0, 0.0, 0.0, 1.700950446184275E9, 0.0, 2023-11-25 17:14:06.184
28.0, 24374.040886645424, 33989.85075829634, -48256.678671440925, -44144.628243998086, -61194.024824383836, -14698.618912532202, -7412.03962707992, -26319.1120408907, -0.16, 0.9440000000000001, 0.246, 192.0, 0.0, 0.0, 0.0, 0.0, 0.0, 0.0, 0.0, 0.0, 0.0, 1.700950446187255E9, 0.0, 2023-11-25 17:14:06.187
29.0, 24348.939877622113, 33980.59713609185, -48253.817648150645, -44137.341575305654, -61213.78376648233, -14711.91820048311, -7545.837169389388, -26278.945956104515, -0.16, 0.9440000000000001, 0.246, 192.0, 0.0, 0.0, 0.0, 0.0, 0.0, 0.0, 0.0, 0.0, 0.0, 1.700950446191225E9, 0.0, 2023-11-25 17:14:06.191
30.0, 24382.981584427547, 34062.583334753916, -48211.59520287457, -44077.68476935444, -61188.52629524783, -14674.926063409575, -7764.616044117934, -26193.56229228524, -0.154, 0.9520000000000001, 0.246, 192.0, 251.0, 48.0, 29.0, 192.0, 7.0, 176.0, 0.0, 0.0, 0.0, 1.70095044619524E9, 0.0, 2023-11-25 17:14:06.195
31.0, 24447.39931194774, 34111.578358599945, -48166.73525175277, -44031.97545194333, -61121.113433970626, -14599.399518895092, -7726.796892499554, -26169.556518740243, -0.154, 0.9520000000000001, 0.246, 192.0, 0.0, 0.0, 0.0, 0.0, 0.0, 0.0, 0.0, 0.0, 0.0, 1.70095044619951E9, 0.0, 2023-11-25 17:14:06.199
32.0, 24389.35183159731, 34006.30164221545, -48238.30553749866, -44123.61760421009, -61172.96948110694, -14659.369249268682, -7393.241809993006, -26264.909060586582, -0.154, 0.9520000000000001, 0.246, 192.0, 0.0, 0.0, 0.0, 0.0, 0.0, 0.0, 0.0, 0.0, 0.0, 1.70095044620422E9, 0.0, 2023-11-25 17:14:06.204
33.0, 24346.90586887668, 33966.11320568481, -48252.23067429432, -44145.05292714274, -61216.98006593944, -14714.131023184184, -7505.20169796964, -26269.200595522, -0.154, 0.9520000000000001, 0.246, 192.0, 0.0, 0.0, 0.0, 0.0, 0.0, 0.0, 0.0, 0.0, 0.0, 1.70095044620825E9, 0.0, 2023-11-25 17:14:06.208
34.0, 24371.15751161069, 34033.74958440657, -48227.15201701546, -44100.371789976576, -61209.98396992493, -14692.181610129073, -7714.034046415573, -26227.80516479077, -0.154, 0.9520000000000001, 0.246, 192.0, 0.0, 0.0, 0.0, 0.0, 0.0, 0.0, 0.0, 0.0, 0.0, 1.700950446212234E9, 0.0, 2023-11-25 17:14:06.212
35.0, 24433.004788518523, 34089.74070426711, -48177.86642049151, -44048.828667262635, -61149.701315128965, -14629.239097742928, -7779.926989069819, -26187.549673026762, -0.154, 0.9520000000000001, 0.246, 192.0, 0.0, 0.0, 0.0, 0.0, 0.0, 0.0, 0.0, 0.0, 0.0, 1.700950446215276E9, 0.0, 2023-11-25 17:14:06.215
36.0, 24393.93393921065, 34004.58055789239, -48237.29970899817, -44122.58942396515, -61173.93060611852, -14649.243909030427, -7418.208708549584, -26265.42315070905, -0.154, 0.9520000000000001, 0.246, 192.0, 0.0, 0.0, 0.0, 0.0, 0.0, 0.0, 0.0, 0.0, 0.0, 1.700950446219283E9, 0.0, 2023-11-25 17:14:06.219
37.0, 24331.52786869143, 33941.19101061714, -48260.813744165156, -44165.728290763895, -61231.86632774667, -14731.118348970218, -7484.280465159472, -26292.20054056651, -0.154, 0.9520000000000001, 0.246, 192.0, 0.0, 0.0, 0.0, 0.0, 0.0, 0.0, 0.0, 0.0, 0.0, 1.70095044622338E9, 0.0, 2023-11-25 17:14:06.223
38.0, 24342.659037430174, 33998.947918289654, -48244.653432923966, -44132.7147642034, -61232.80510101379, -14714.801575517844, -7672.6609674288, -26264.126749530646, -0.154, 0.9520000000000001, 0.246, 192.0, 0.0, 0.0, 0.0, 0.0, 0.0, 0.0, 0.0, 0.0, 0.0, 1.700950446227309E9, 0.0, 2023-11-25 17:14:06.227
39.0, 24400.12537242477, 34068.55125052348, -48192.238592176276, -44078.02004552127, -61183.675966701034, -14666.588862727745, -7818.461396510768, -26207.33096686971, -0.154, 0.9520000000000001, 0.246, 192.0, 0.0, 0.0, 0.0, 0.0, 0.0, 0.0, 0.0, 0.0, 0.0, 1.700950446232352E9, 0.0, 2023-11-25 17:14:06.232
40.0, 24396.571445056376, 34017.58927316538, -48227.241423993284, -44122.70118268743, -61175.7410974194, -14648.573356696768, -7471.7187847755895, -26263.97028731946, -0.16, 0.9460000000000001, 0.248, 192.0, 251.0, 0.0, 29.0, 144.0, 7.0, 192.0, 0.0, 0.0, 0.0, 1.700950446236383E9, 0.0, 2023-11-25 17:14:06.236
41.0, 24325.314083732854, 33930.48452502305, -48260.18789532041, -44180.65925606004, -61237.07428420476, -14741.176633975105, -7455.402011323215, -26296.62618596866, -0.16, 0.9460000000000001, 0.248, 192.0, 0.0, 0.0, 0.0, 0.0, 0.0, 0.0, 0.0, 0.0, 0.0, 1.700950446239386E9, 0.0, 2023-11-25 17:14:06.239
42.0, 24331.796089624895, 33986.11801697231, -48243.02175557873, -44144.00239515334, -61235.01792371487, -14721.529450598891, -7625.230565694638, -26263.05386579679, -0.16, 0.9460000000000001, 0.248, 192.0, 0.0, 0.0, 0.0, 0.0, 0.0, 0.0, 0.0, 0.0, 0.0, 1.700950446243424E9, 0.0, 2023-11-25 17:14:06.243
43.0, 24387.228415874055, 34066.494890033595, -48192.95384799884, -44086.178432247456, -61194.53891450631, -14689.18647637206, -7822.730579701732, -26230.86735378115, -0.16, 0.9460000000000001, 0.248, 192.0, 0.0, 0.0, 0.0, 0.0, 0.0, 0.0, 0.0, 0.0, 0.0, 1.70095044624735E9, 0.0, 2023-11-25 17:14:06.247
44.0, 24403.38872711524, 34031.55911344995, -48218.434836677894, -44112.84406338264, -61171.56132120625, -14647.813397385287, -7520.3785324547935, -26271.324011245255, -0.16, 0.9460000000000001, 0.248, 192.0, 0.0, 0.0, 0.0, 0.0, 0.0, 0.0, 0.0, 0.0, 0.0, 1.700950446251413E9, 0.0, 2023-11-25 17:14:06.251
45.0, 24328.890362845705, 33925.03069937595, -48267.67572971294, -44186.202488684954, -61239.24240341692, -14734.96284901653, -7409.290362511917, -26281.2034822945, -0.16, 0.9460000000000001, 0.248, 192.0, 0.0, 0.0, 0.0, 0.0, 0.0, 0.0, 0.0, 0.0, 0.0, 1.700950446255403E9, 0.0, 2023-11-25 17:14:06.255
46.0, 24340.11093856227, 33963.788624261455, -48249.28024402622, -44149.21035161142, -61234.66029580359, -14713.728691783988, -7575.341472070393, -26237.416414906555, -0.16, 0.9460000000000001, 0.248, 192.0, 0.0, 0.0, 0.0, 0.0, 0.0, 0.0, 0.0, 0.0, 0.0, 1.700950446259506E9, 0.0, 2023-11-25 17:14:06.259
47.0, 24397.487866579042, 34053.86615441634, -48197.55830735664, -44083.160946745986, -61194.15893485057, -14684.33614782526, -7806.369102760447, -26197.13857139809, -0.16, 0.9460000000000001, 0.248, 192.0, 0.0, 0.0, 0.0, 0.0, 0.0, 0.0, 0.0, 0.0, 0.0, 1.700950446264538E9, 0.0, 2023-11-25 17:14:06.264
48.0, 24443.286590967964, 34057.44243352919, -48188.41644387441, -44070.375748917555, -61138.637201623584, -14615.55983013628, -7591.948818200686, -26218.305673397266, -0.16, 0.9460000000000001, 0.248, 192.0, 0.0, 0.0, 0.0, 0.0, 0.0, 0.0, 0.0, 0.0, 0.0, 1.700950446267441E9, 0.0, 2023-11-25 17:14:06.267
49.0, 24367.64828773121, 33944.14144088524, -48245.74866840228, -44151.51258129032, -61201.17738260954, -14705.235028890971, -7392.5936094038025, -26287.283156786343, -0.16, 0.9460000000000001, 0.248, 192.0, 0.0, 0.0, 0.0, 0.0, 0.0, 0.0, 0.0, 0.0, 0.0, 1.700950446271441E9, 0.0, 2023-11-25 17:14:06.271
50.0, 24346.01179909847, 33953.171545645186, -48247.40269749197, -44137.140409605556, -61218.45528107349, -14709.235991148471, -7550.39692525827, -26246.066540010757, -0.152, 0.9480000000000001, 0.242, 192.0, 251.0, 64.0, 29.0, 160.0, 7.0, 144.0, 0.0, 0.0, 0.0, 1.700950446275482E9, 0.0, 2023-11-25 17:14:06.275
51.0, 24394.604491544305, 34042.69028218869, -48202.073359736605, -44075.38253967554, -61190.40384178208, -14680.603406501223, -7789.471183952235, -26173.73629495338, -0.152, 0.9480000000000001, 0.242, 192.0, 0.0, 0.0, 0.0, 0.0, 0.0, 0.0, 0.0, 0.0, 0.0, 1.700950446279495E9, 0.0, 2023-11-25 17:14:06.279
52.0, 24440.805547333428, 34061.33163706442, -48191.85861252053, -44061.3009406687, -61143.37577144811, -14621.684208117034, -7673.666795929289, -26191.260062606343, -0.152, 0.9480000000000001, 0.242, 192.0, 0.0, 0.0, 0.0, 0.0, 0.0, 0.0, 0.0, 0.0, 0.0, 1.700950446283581E9, 0.0, 2023-11-25 17:14:06.283
53.0, 24377.3042413359, 33951.91984795569, -48254.0411655952, -44147.17634286599, -61196.99760639639, -14698.14952589864, -7402.875411853244, -26279.415342738073, -0.152, 0.9480000000000001, 0.242, 192.0, 0.0, 0.0, 0.0, 0.0, 0.0, 0.0, 0.0, 0.0, 0.0, 1.700950446287593E9, 0.0, 2023-11-25 17:14:06.287
54.0, 24354.617220713764, 33944.90140019672, -48248.38617424801, -44137.36392705011, -61214.4990223049, -14720.635380820679, -7544.92074786672, -26266.741903631915, -0.152, 0.9480000000000001, 0.242, 192.0, 0.0, 0.0, 0.0, 0.0, 0.0, 0.0, 0.0, 0.0, 0.0, 1.70095044629256E9, 0.0, 2023-11-25 17:14:06.292
55.0, 24387.653099018706, 34024.85359011336, -48212.578679630606, -44081.9539525454, -61195.09770811769, -14690.169953128096, -7760.2798056936035, -26211.13076342711, -0.152, 0.9480000000000001, 0.242, 192.0, 0.0, 0.0, 0.0, 0.0, 0.0, 0.0, 0.0, 0.0, 0.0, 1.700950446295781E9, 0.0, 2023-11-25 17:14:06.295
56.0, 24446.08055902488, 34072.03812265851, -48172.68081577788, -44036.22228338984, -61130.21059396394, -14612.721158590455, -7743.404238629847, -26162.426312259, -0.152, 0.9480000000000001, 0.242, 192.0, 0.0, 0.0, 0.0, 0.0, 0.0, 0.0, 0.0, 0.0, 0.0, 1.700950446300587E9, 0.0, 2023-11-25 17:14:06.300
57.0, 24397.711384023594, 33973.75750228852, -48232.15880777345, -44114.43103723897, -61167.023917081824, -14655.23417654445, -7403.724778142546, -26235.561220116764, -0.152, 0.9480000000000001, 0.242, 192.0, 0.0, 0.0, 0.0, 0.0, 0.0, 0.0, 0.0, 0.0, 0.0, 1.700950446304274E9, 0.0, 2023-11-25 17:14:06.304
58.0, 24344.782453153428, 33925.343623798326, -48249.771982404236, -44141.16372360751, -61216.197754883506, -14719.96482848702, -7502.072453745896, -26254.58255464823, -0.152, 0.9480000000000001, 0.242, 192.0, 0.0, 0.0, 0.0, 0.0, 0.0, 0.0, 0.0, 0.0, 0.0, 1.700950446307632E9, 0.0, 2023-11-25 17:14:06.307
59.0, 24375.270232590465, 34002.233624724584, -48215.61851687652, -44088.681827626446, -61199.85862968667, -14692.069851406795, -7705.898011433842, -26207.442725591987, -0.152, 0.9480000000000001, 0.242, 192.0, 0.0, 0.0, 0.0, 0.0, 0.0, 0.0, 0.0, 0.0, 0.0, 1.700950446311675E9, 0.0, 2023-11-25 17:14:06.311
60.0, 24436.201087975634, 34066.60664875587, -48170.28917912116, -44040.022079947244, -61146.214442993936, -14636.972801324464, -7780.441079192291, -26165.779073927293, -0.14200000000000002, 0.9460000000000001, 0.244, 192.0, 251.0, 144.0, 29.0, 144.0, 7.0, 160.0, 0.0, 0.0, 0.0, 1.70095044631562E9, 0.0, 2023-11-25 17:14:06.315
61.0, 24413.514067353495, 33995.99748802155, -48218.05485702215, -44104.39510397853, -61160.20663502296, -14650.786179397845, -7426.56826097587, -26239.808051563272, -0.14200000000000002, 0.9460000000000001, 0.244, 192.0, 0.0, 0.0, 0.0, 0.0, 0.0, 0.0, 0.0, 0.0, 0.0, 1.700950446320649E9, 0.0, 2023-11-25 17:14:06.320
62.0, 24349.54337472241, 33923.15315284171, -48239.758400888255, -44149.9703109229, -61215.01311242737, -14731.297162925859, -7467.024918439975, -26269.692333900017, -0.14200000000000002, 0.9460000000000001, 0.244, 192.0, 0.0, 0.0, 0.0, 0.0, 0.0, 0.0, 0.0, 0.0, 0.0, 1.700950446323694E9, 0.0, 2023-11-25 17:14:06.323
63.0, 24358.05938935988, 33980.88770876977, -48219.10538901155, -44114.72160991688, -61212.8002897263, -14716.835584263275, -7654.578406164456, -26253.73318835893, -0.14200000000000002, 0.9460000000000001, 0.244, 192.0, 0.0, 0.0, 0.0, 0.0, 0.0, 0.0, 0.0, 0.0, 0.0, 1.700950446326978E9, 0.0, 2023-11-25 17:14:06.326
64.0, 24419.370224400787, 34054.201430583176, -48155.76054522521, -44047.152286428485, -61152.11530353014, -14658.8104556573, -7806.570268460545, -26172.484597263887, -0.14200000000000002, 0.9460000000000001, 0.244, 192.0, 0.0, 0.0, 0.0, 0.0, 0.0, 0.0, 0.0, 0.0, 0.0, 1.700950446331747E9, 0.0, 2023-11-25 17:14:06.331
65.0, 24415.793945287936, 33998.09855200035, -48190.83043227559, -44088.59242064863, -61141.00648653585, -14635.519937934869, -7458.352441591316, -26222.083118210212, -0.14200000000000002, 0.9460000000000001, 0.244, 192.0, 0.0, 0.0, 0.0, 0.0, 0.0, 0.0, 0.0, 0.0, 0.0, 1.700950446335705E9, 0.0, 2023-11-25 17:14:06.335
66.0, 24346.995275854504, 33908.89273987922, -48227.666107137935, -44149.21035161142, -61204.46308904447, -14726.871517523708, -7421.226194051051, -26253.777891847836, -0.14200000000000002, 0.9460000000000001, 0.244, 192.0, 0.0, 0.0, 0.0, 0.0, 0.0, 0.0, 0.0, 0.0, 0.0, 1.700950446339622E9, 0.0, 2023-11-25 17:14:06.339
67.0, 24358.77464518245, 33964.25801089502, -48214.63504012049, -44111.413551737496, -61202.25026634339, -14697.411918331614, -7592.7534810010775, -26208.694423281482, -0.14200000000000002, 0.9460000000000001, 0.244, 192.0, 0.0, 0.0, 0.0, 0.0, 0.0, 0.0, 0.0, 0.0, 0.0, 1.700950446343776E9, 0.0, 2023-11-25 17:14:06.343
68.0, 24411.860038263803, 34046.0877473459, -48167.20463838633, -44053.61194057607, -61162.6876786575, -14661.626775458668, -7797.428404978324, -26149.32819000819, -0.14200000000000002, 0.9460000000000001, 0.244, 192.0, 0.0, 0.0, 0.0, 0.0, 0.0, 0.0, 0.0, 0.0, 0.0, 1.700950446348695E9, 0.0, 2023-11-25 17:14:06.348
69.0, 24439.956181044126, 34028.72044190412, -48180.45922284832, -44069.66049309498, -61127.327218929204, -14614.755167335888, -7512.756587595533, -26187.594376515674, -0.14200000000000002, 0.9460000000000001, 0.244, 192.0, 0.0, 0.0, 0.0, 0.0, 0.0, 0.0, 0.0, 0.0, 0.0, 1.700950446351726E9, 0.0, 2023-11-25 17:14:06.351
70.0, 24368.341191809322, 33926.79648718792, -48232.35997347355, -44145.87994168758, -61195.38828079561, -14710.599447560246, -7392.526554170437, -26241.462080652964, -0.152, 0.9500000000000001, 0.23800000000000002, 192.0, 251.0, 64.0, 29.0, 176.0, 7.0, 112.0, 0.0, 0.0, 0.0, 1.700950446354759E9, 0.0, 2023-11-25 17:14:06.354
71.0, 24369.279965076443, 33959.43003409267, -48223.128703013506, -44117.5155779738, -61201.62441749864, -14700.407052088625, -7560.008175374052, -26220.9878827319, -0.152, 0.9500000000000001, 0.23800000000000002, 192.0, 0.0, 0.0, 0.0, 0.0, 0.0, 0.0, 0.0, 0.0, 0.0, 1.700950446359798E9, 0.0, 2023-11-25 17:14:06.359
72.0, 24414.095212709333, 34042.89144788879, -48179.565153070114, -44060.96566450187, -61174.33293751871, -14678.971729155986, -7793.516849698645, -26177.938422910982, -0.152, 0.9500000000000001, 0.23800000000000002, 192.0, 0.0, 0.0, 0.0, 0.0, 0.0, 0.0, 0.0, 0.0, 0.0, 1.700950446363743E9, 0.0, 2023-11-25 17:14:06.363
73.0, 24466.51005345703, 34055.162555594754, -48162.39901332844, -44043.799524760194, -61114.407910634036, -14607.759071321378, -7604.398739862292, -26181.917033424026, -0.152, 0.9500000000000001, 0.23800000000000002, 192.0, 0.0, 0.0, 0.0, 0.0, 0.0, 0.0, 0.0, 0.0, 0.0, 1.700950446367698E9, 0.0, 2023-11-25 17:14:06.367
74.0, 24403.656948048705, 33947.69536825363, -48215.59616513207, -44122.47766524287, -61171.226045039424, -14687.800668215832, -7389.531420413426, -26228.542772357796, -0.152, 0.9500000000000001, 0.23800000000000002, 192.0, 0.0, 0.0, 0.0, 0.0, 0.0, 0.0, 0.0, 0.0, 0.0, 1.700950446371749E9, 0.0, 2023-11-25 17:14:06.371
75.0, 24385.462628062087, 33950.578743288366, -48216.266717465725, -44113.26874652729, -61191.923760405036, -14702.597523045246, -7538.952832097153, -26215.2881878958, -0.152, 0.9500000000000001, 0.23800000000000002, 192.0, 0.0, 0.0, 0.0, 0.0, 0.0, 0.0, 0.0, 0.0, 0.0, 1.700950446375775E9, 0.0, 2023-11-25 17:14:06.375
76.0, 24424.10879422531, 34029.81567738243, -48178.313455380616, -44062.7985075472, -61171.784838650805, -14689.968787427997, -7778.675291380321, -26185.381553814597, -0.152, 0.9500000000000001, 0.23800000000000002, 192.0, 0.0, 0.0, 0.0, 0.0, 0.0, 0.0, 0.0, 0.0, 0.0, 1.700950446379927E9, 0.0, 2023-11-25 17:14:06.379
77.0, 24474.020239594014, 34055.05079687248, -48155.29115859165, -44041.02790844774, -61117.537154857775, -14624.902859318598, -7684.730909434666, -26183.504007280353, -0.152, 0.9500000000000001, 0.23800000000000002, 192.0, 0.0, 0.0, 0.0, 0.0, 0.0, 0.0, 0.0, 0.0, 0.0, 1.700950446382805E9, 0.0, 2023-11-25 17:14:06.382
78.0, 24406.24975040552, 33940.54281002794, -48223.0839995246, -44137.07335437219, -61176.903388131075, -14694.685005508067, -7382.825897076834, -26253.57672614774, -0.152, 0.9500000000000001, 0.23800000000000002, 192.0, 0.0, 0.0, 0.0, 0.0, 0.0, 0.0, 0.0, 0.0, 0.0, 1.700950446387873E9, 0.0, 2023-11-25 17:14:06.387
79.0, 24367.782398197938, 33910.12208582427, -48233.25404325176, -44150.88673244557, -61214.67783626054, -14740.48372989699, -7524.513605179025, -26269.11118854418, -0.152, 0.9500000000000001, 0.23800000000000002, 192.0, 0.0, 0.0, 0.0, 0.0, 0.0, 0.0, 0.0, 0.0, 0.0, 1.700950446392E9, 0.0, 2023-11-25 17:14:06.392
80.0, 24393.263386876988, 33986.00625825003, -48200.53108936919, -44098.8071678647, -61198.18224885253, -14712.946380728054, -7745.125322952906, -26214.148248928577, -0.156, 0.9520000000000001, 0.234, 192.0, 251.0, 32.0, 29.0, 192.0, 7.0, 80.0, 0.0, 0.0, 0.0, 1.700950446395841E9, 0.0, 2023-11-25 17:14:06.395
81.0, 24455.55769867393, 34037.482325730605, -48158.8674377045, -44051.17560043044, -61133.205727720946, -14640.012638570386, -7746.645241575867, -26173.915108909026, -0.156, 0.9520000000000001, 0.234, 192.0, 0.0, 0.0, 0.0, 0.0, 0.0, 0.0, 0.0, 0.0, 0.0, 1.700950446401834E9, 0.0, 2023-11-25 17:14:06.401
82.0, 24405.556846327407, 33931.17742910116, -48226.14618851498, -44134.905235160026, -61173.55062646278, -14680.916330923597, -7395.7005018830905, -26251.162737746567, -0.156, 0.9520000000000001, 0.234, 192.0, 0.0, 0.0, 0.0, 0.0, 0.0, 0.0, 0.0, 0.0, 0.0, 1.700950446404859E9, 0.0, 2023-11-25 17:14:06.404
83.0, 24344.134252564225, 33868.83841381531, -48248.94496785939, -44167.181154153484, -61226.77013001086, -14745.177596232606, -7491.142450707252, -26254.984886048424, -0.156, 0.9520000000000001, 0.234, 192.0, 0.0, 0.0, 0.0, 0.0, 0.0, 0.0, 0.0, 0.0, 0.0, 1.700950446407818E9, 0.0, 2023-11-25 17:14:06.407
84.0, 24364.429636529643, 33937.74884197102, -48220.84882507907, -44118.43199949646, -61215.46014731648, -14719.026055219896, -7698.90191541933, -26209.364975615143, -0.156, 0.9520000000000001, 0.234, 192.0, 0.0, 0.0, 0.0, 0.0, 0.0, 0.0, 0.0, 0.0, 0.0, 1.700950446410855E9, 0.0, 2023-11-25 17:14:06.410
85.0, 24430.769614072993, 34001.42896192419, -48166.62349303049, -44059.892780768016, -61155.44571345398, -14658.653993446113, -7797.271942767137, -26163.40978901503, -0.156, 0.9520000000000001, 0.234, 192.0, 0.0, 0.0, 0.0, 0.0, 0.0, 0.0, 0.0, 0.0, 0.0, 1.700950446414883E9, 0.0, 2023-11-25 17:14:06.414
86.0, 24411.323596396876, 33923.466077264085, -48217.652525621954, -44127.618566467594, -61170.24256828339, -14667.818208672788, -7436.5594907473915, -26256.035418037824, -0.156, 0.9520000000000001, 0.234, 192.0, 0.0, 0.0, 0.0, 0.0, 0.0, 0.0, 0.0, 0.0, 0.0, 1.700950446418875E9, 0.0, 2023-11-25 17:14:06.418
87.0, 24354.326648035843, 33857.662541587655, -48235.913900841944, -44170.1762879105, -61220.3998828411, -14747.368067189225, -7473.57397956538, -26291.932319633048, -0.156, 0.9520000000000001, 0.234, 192.0, 0.0, 0.0, 0.0, 0.0, 0.0, 0.0, 0.0, 0.0, 0.0, 1.700950446424248E9, 0.0, 2023-11-25 17:14:06.424
88.0, 24360.80865392788, 33910.63617594673, -48218.94892680037, -44129.25024381283, -61215.99658918341, -14713.14754642815, -7633.634821609834, -26221.47962110992, -0.156, 0.9520000000000001, 0.234, 192.0, 0.0, 0.0, 0.0, 0.0, 0.0, 0.0, 0.0, 0.0, 0.0, 1.700950446427869E9, 0.0, 2023-11-25 17:14:06.427
89.0, 24424.064090736403, 33985.13454021628, -48156.364042325506, -44056.09298421061, -61154.50694018685, -14649.13215030815, -7792.846297364986, -26131.670311888494, -0.156, 0.9520000000000001, 0.234, 192.0, 0.0, 0.0, 0.0, 0.0, 0.0, 0.0, 0.0, 0.0, 0.0, 1.700950446431932E9, 0.0, 2023-11-25 17:14:06.431
90.0, 24432.98243677407, 33945.683711252655, -48179.989836214765, -44084.88203106905, -61128.645971852064, -14613.79404232431, -7459.067697413886, -26191.79650447327, -0.156, 0.9520000000000001, 0.23800000000000002, 192.0, 251.0, 32.0, 29.0, 192.0, 7.0, 112.0, 0.0, 0.0, 0.0, 1.700950446434885E9, 0.0, 2023-11-25 17:14:06.434
91.0, 24359.132273093735, 33848.90065776118, -48220.24532797877, -44147.37750856609, -61190.940283649004, -14704.184496901573, -7402.406025219682, -26229.99563574739, -0.156, 0.9520000000000001, 0.23800000000000002, 192.0, 0.0, 0.0, 0.0, 0.0, 0.0, 0.0, 0.0, 0.0, 0.0, 1.700950446438931E9, 0.0, 2023-11-25 17:14:06.438
92.0, 24361.456854517088, 33893.71590539407, -48207.99657201726, -44111.413551737496, -61191.521429004846, -14685.409031559115, -7574.179181358717, -26189.85190270566, -0.156, 0.9520000000000001, 0.23800000000000002, 192.0, 0.0, 0.0, 0.0, 0.0, 0.0, 0.0, 0.0, 0.0, 0.0, 1.700950446442908E9, 0.0, 2023-11-25 17:14:06.442
93.0, 24419.0125964895, 33978.138444201766, -48153.3689085685, -44046.57114107265, -61148.29315522828, -14648.595708441224, -7791.415785719846, -26132.474974688885, -0.156, 0.9520000000000001, 0.23800000000000002, 192.0, 0.0, 0.0, 0.0, 0.0, 0.0, 0.0, 0.0, 0.0, 0.0, 1.700950446447965E9, 0.0, 2023-11-25 17:14:06.447
94.0, 24449.58978290436, 33955.04909217943, -48165.01416742971, -44062.08325172463, -61113.17856468899, -14602.975798007941, -7525.698247635156, -26178.2289955889, -0.156, 0.9520000000000001, 0.23800000000000002, 192.0, 0.0, 0.0, 0.0, 0.0, 0.0, 0.0, 0.0, 0.0, 0.0, 1.700950446451967E9, 0.0, 2023-11-25 17:14:06.451
95.0, 24369.86111043228, 33836.09310818829, -48226.28029898171, -44150.99849116785, -61189.93445514852, -14710.778261515889, -7394.9405425716095, -26252.459138924976, -0.156, 0.9520000000000001, 0.23800000000000002, 192.0, 0.0, 0.0, 0.0, 0.0, 0.0, 0.0, 0.0, 0.0, 0.0, 1.70095044645619E9, 0.0, 2023-11-25 17:14:06.456
96.0, 24366.21777608607, 33869.196041726595, -48217.183138988396, -44124.04228735474, -61198.4951732749, -14704.542124812857, -7570.871123179331, -26225.055900222767, -0.156, 0.9520000000000001, 0.23800000000000002, 192.0, 0.0, 0.0, 0.0, 0.0, 0.0, 0.0, 0.0, 0.0, 0.0, 1.700950446458999E9, 0.0, 2023-11-25 17:14:06.458
97.0, 24413.715233053594, 33955.51847881299, -48169.372757598496, -44062.95496975839, -61168.81205663825, -14678.971729155986, -7810.951210373785, -26175.41267578753, -0.156, 0.9520000000000001, 0.23800000000000002, 192.0, 0.0, 0.0, 0.0, 0.0, 0.0, 0.0, 0.0, 0.0, 0.0, 1.700950446463175E9, 0.0, 2023-11-25 17:14:06.463
98.0, 24455.244774251554, 33958.51361257, -48161.43788831686, -44052.09202195311, -61119.59351534767, -14616.967990036965, -7630.572632619457, -26189.471923049918, -0.156, 0.9520000000000001, 0.23800000000000002, 192.0, 0.0, 0.0, 0.0, 0.0, 0.0, 0.0, 0.0, 0.0, 0.0, 1.700950446466966E9, 0.0, 2023-11-25 17:14:06.466
99.0, 24387.451933318607, 33852.7898612964, -48216.51258665474, -44135.28521481576, -61176.63516719761, -14692.986272929464, -7393.487679182015, -26232.163754959554, -0.156, 0.9520000000000001, 0.23800000000000002, 192.0, 0.0, 0.0, 0.0, 0.0, 0.0, 0.0, 0.0, 0.0, 0.0, 1.700950446471026E9, 0.0, 2023-11-25 17:14:06.471
100.0, 24359.02051437146, 33848.61008508326, -48222.279336724205, -44134.99464213785, -61204.48544078892, -14717.5731918303, -7535.376552984304, -26223.51362985535, -0.156, 0.9500000000000001, 0.234, 192.0, 251.0, 32.0, 29.0, 176.0, 7.0, 80.0, 0.0, 0.0, 0.0, 1.700950446474967E9, 0.0, 2023-11-25 17:14:06.474
101.0, 24395.878540978258, 33928.51757151098, -48180.615685059514, -44080.61284787808, -61183.20658006747, -14700.943493955552, -7768.996986031174, -26185.89564393707, -0.156, 0.9500000000000001, 0.234, 192.0, 0.0, 0.0, 0.0, 0.0, 0.0, 0.0, 0.0, 0.0, 0.0, 1.700950446480031E9, 0.0, 2023-11-25 17:14:06.480
102.0, 24445.812338091415, 33954.222077634586, -48156.90048419243, -44056.83059177764, -61130.277649197305, -14634.84938560121, -7683.993301867641, -26168.953021639947, -0.156, 0.9500000000000001, 0.234, 192.0, 0.0, 0.0, 0.0, 0.0, 0.0, 0.0, 0.0, 0.0, 0.0, 1.700950446483995E9, 0.0, 2023-11-25 17:14:06.483
103.0, 24388.323651352366, 33851.80638454037, -48214.12094999802, -44142.43777304146, -61177.86451314265, -14696.696662509044, -7385.12812675573, -26234.734205571916, -0.156, 0.9500000000000001, 0.234, 192.0, 0.0, 0.0, 0.0, 0.0, 0.0, 0.0, 0.0, 0.0, 0.0, 1.70095044648703E9, 0.0, 2023-11-25 17:14:06.487
104.0, 24341.47439497404, 33819.19518938007, -48225.60974664805, -44158.70984300492, -61217.49415606191, -14741.891889797675, -7510.096730005352, -26242.445557409, -0.156, 0.9500000000000001, 0.234, 192.0, 0.0, 0.0, 0.0, 0.0, 0.0, 0.0, 0.0, 0.0, 0.0, 1.700950446491109E9, 0.0, 2023-11-25 17:14:06.491
105.0, 24370.576366254852, 33894.87819610575, -48194.49611836626, -44111.145330804036, -61204.999530911395, -14726.402130890148, -7731.468407090713, -26214.818801262238, -0.156, 0.9500000000000001, 0.234, 192.0, 0.0, 0.0, 0.0, 0.0, 0.0, 0.0, 0.0, 0.0, 0.0, 1.700950446495176E9, 0.0, 2023-11-25 17:14:06.495
106.0, 24441.83372757837, 33951.94219970014, -48146.75279220972, -44057.61290283357, -61136.44673066697, -14652.261394531894, -7755.764753313631, -26171.94815539696, -0.156, 0.9500000000000001, 0.234, 192.0, 0.0, 0.0, 0.0, 0.0, 0.0, 0.0, 0.0, 0.0, 0.0, 1.700950446499058E9, 0.0, 2023-11-25 17:14:06.499
107.0, 24399.611282302296, 33857.90841077667, -48210.34350518507, -44133.564130492705, -61167.38154499311, -14676.04365063234, -7389.754937857979, -26222.440746121498, -0.156, 0.9500000000000001, 0.234, 192.0, 0.0, 0.0, 0.0, 0.0, 0.0, 0.0, 0.0, 0.0, 0.0, 1.70095044650326E9, 0.0, 2023-11-25 17:14:06.503
108.0, 24340.58032519583, 33799.145674603664, -48232.80700836265, -44165.41536634152, -61219.86344097417, -14743.925898543108, -7467.918988218187, -26225.74880430088, -0.156, 0.9500000000000001, 0.234, 192.0, 0.0, 0.0, 0.0, 0.0, 0.0, 0.0, 0.0, 0.0, 0.0, 1.700950446507045E9, 0.0, 2023-11-25 17:14:06.507
109.0, 24370.86693893277, 33880.237803487515, -48195.03256023319, -44105.19976677892, -61197.53404826332, -14708.945418470554, -7667.274197015071, -26174.94328915397, -0.154, 0.9460000000000001, 0.234, 192.0, 251.0, 48.0, 29.0, 144.0, 7.0, 80.0, 0.0, 0.0, 0.0, 1.700950446512074E9, 0.0, 2023-11-25 17:14:06.512
110.0, 24441.36434094481, 33955.876106724274, -48136.985079882754, -44039.79856250269, -61131.77521607581, -14651.792007898333, -7778.764698358143, -26148.83645163017, -0.154, 0.9460000000000001, 0.234, 192.0, 0.0, 0.0, 0.0, 0.0, 0.0, 0.0, 0.0, 0.0, 0.0, 1.700950446515152E9, 0.0, 2023-11-25 17:14:06.515
111.0, 24424.958160514612, 33886.09396053481, -48185.15308918394, -44094.02389455127, -61137.65372486755, -14641.80077812681, -7414.565374203369, -26205.185199402, -0.154, 0.9460000000000001, 0.234, 192.0, 0.0, 0.0, 0.0, 0.0, 0.0, 0.0, 0.0, 0.0, 0.0, 1.700950446519142E9, 0.0, 2023-11-25 17:14:06.519
112.0, 24359.355790538288, 33804.532445017394, -48216.53493839919, -44142.90715967502, -61197.802269196785, -14716.880287752187, -7423.170795818663, -26205.118144168635, -0.154, 0.9460000000000001, 0.234, 192.0, 0.0, 0.0, 0.0, 0.0, 0.0, 0.0, 0.0, 0.0, 0.0, 1.700950446523204E9, 0.0, 2023-11-25 17:14:06.523
113.0, 24371.35867731079, 33859.0930532328, -48198.89941202395, -44102.62931616656, -61192.37079529415, -14691.488706050957, -7603.214097406161, -26180.642983990074, -0.154, 0.9460000000000001, 0.234, 192.0, 0.0, 0.0, 0.0, 0.0, 0.0, 0.0, 0.0, 0.0, 0.0, 1.700950446527357E9, 0.0, 2023-11-25 17:14:06.527
114.0, 24430.099061739336, 33932.38442330175, -48137.47681826077, -44033.875350222035, -61134.90446029955, -14643.834786872243, -7783.480916438212, -26121.88024781707, -0.154, 0.9460000000000001, 0.234, 192.0, 0.0, 0.0, 0.0, 0.0, 0.0, 0.0, 0.0, 0.0, 0.0, 1.700950446531194E9, 0.0, 2023-11-25 17:14:06.531
115.0, 24437.095157753847, 33890.56430942587, -48161.951978439334, -44061.211533690876, -61112.508012355334, -14605.233324197929, -7451.848083954822, -26155.921954622503, -0.154, 0.9460000000000001, 0.234, 192.0, 0.0, 0.0, 0.0, 0.0, 0.0, 0.0, 0.0, 0.0, 0.0, 1.700950446535147E9, 0.0, 2023-11-25 17:14:06.535
116.0, 24368.967040654068, 33795.05530536834, -48204.39794115996, -44130.412534524505, -61180.613777710656, -14707.38079635868, -7390.134917513718, -26204.93933021299, -0.154, 0.9460000000000001, 0.234, 192.0, 0.0, 0.0, 0.0, 0.0, 0.0, 0.0, 0.0, 0.0, 0.0, 1.700950446540304E9, 0.0, 2023-11-25 17:14:06.540
117.0, 24382.19927337161, 33845.21261992605, -48188.63996131897, -44096.43788295244, -61179.272673043335, -14695.757889241922, -7576.012024404053, -26175.099751365156, -0.154, 0.9460000000000001, 0.234, 192.0, 0.0, 0.0, 0.0, 0.0, 0.0, 0.0, 0.0, 0.0, 0.0, 1.700950446543334E9, 0.0, 2023-11-25 17:14:06.543
118.0, 24440.962009544615, 33932.04914713492, -48135.28634730415, -44032.690707765905, -61136.62554462261, -14664.66661270459, -7799.775338146132, -26112.06783200119, -0.154, 0.9460000000000001, 0.234, 192.0, 0.0, 0.0, 0.0, 0.0, 0.0, 0.0, 0.0, 0.0, 0.0, 1.700950446547235E9, 0.0, 2023-11-25 17:14:06.547
119.0, 24462.59849817735, 33911.73141142505, -48151.893693434446, -44049.16394342946, -61104.95312272944, -14622.712388361979, -7544.183140299695, -26158.425350001497, -0.15, 0.9500000000000001, 0.23600000000000002, 192.0, 251.0, 80.0, 29.0, 176.0, 7.0, 96.0, 0.0, 0.0, 0.0, 1.70095044655132E9, 0.0, 2023-11-25 17:14:06.551
120.0, 24387.943671696627, 33802.364325805225, -48210.70113309636, -44135.77695319378, -61178.40095500958, -14729.889003025175, -7406.339932243816, -26235.85179279468, -0.15, 0.9500000000000001, 0.23600000000000002, 192.0, 0.0, 0.0, 0.0, 0.0, 0.0, 0.0, 0.0, 0.0, 0.0, 1.700950446562529E9, 0.0, 2023-11-25 17:14:06.562
121.0, 24381.01463091548, 33830.08048892981, -48201.246345191765, -44114.54279596124, -61186.44758301349, -14728.302029168848, -7577.151963371273, -26211.71190878295, -0.15, 0.9500000000000001, 0.23600000000000002, 192.0, 0.0, 0.0, 0.0, 0.0, 0.0, 0.0, 0.0, 0.0, 0.0, 1.700950446565207E9, 0.0, 2023-11-25 17:14:06.565
122.0, 24427.03687274896, 33921.67793770766, -48149.27853933317, -44053.656644064984, -61153.434056453, -14700.049424177341, -7808.06783533905, -26152.435082487475, -0.15, 0.9500000000000001, 0.23600000000000002, 192.0, 0.0, 0.0, 0.0, 0.0, 0.0, 0.0, 0.0, 0.0, 0.0, 1.700950446569352E9, 0.0, 2023-11-25 17:14:06.569
123.0, 24469.706352914138, 33933.725527969065, -48138.884978161455, -44044.13480092702, -61105.06488145172, -14637.866871102677, -7637.099342000407, -26160.54876572475, -0.15, 0.9500000000000001, 0.23600000000000002, 192.0, 0.0, 0.0, 0.0, 0.0, 0.0, 0.0, 0.0, 0.0, 0.0, 1.70095044657222E9, 0.0, 2023-11-25 17:14:06.572
124.0, 24394.671546777674, 33813.07081139932, -48203.95090627085, -44138.190941594956, -61172.00835609536, -14719.29427615336, -7391.096042525297, -26220.160868187057, -0.15, 0.9500000000000001, 0.23600000000000002, 192.0, 0.0, 0.0, 0.0, 0.0, 0.0, 0.0, 0.0, 0.0, 0.0, 1.700950446575258E9, 0.0, 2023-11-25 17:14:06.575
125.0, 24365.480168519043, 33806.298232829366, -48205.716694082825, -44136.24633982734, -61198.76339420836, -14739.29908744086, -7535.82358787341, -26196.93740569799, -0.15, 0.9500000000000001, 0.23600000000000002, 192.0, 0.0, 0.0, 0.0, 0.0, 0.0, 0.0, 0.0, 0.0, 0.0, 1.700950446579361E9, 0.0, 2023-11-25 17:14:06.579
126.0, 24404.707480038105, 33897.82862637385, -48163.29308310665, -44077.215382720875, -61175.47287648593, -14712.633456305679, -7759.8104190600425, -26139.40401547003, -0.15, 0.9500000000000001, 0.23600000000000002, 192.0, 0.0, 0.0, 0.0, 0.0, 0.0, 0.0, 0.0, 0.0, 0.0, 1.700950446582307E9, 0.0, 2023-11-25 17:14:06.582
127.0, 24462.665553410716, 33938.687615238145, -48129.83252165705, -44038.837437491115, -61113.51384085582, -14641.666667660078, -7698.320770063493, -26124.83067808517, -0.15, 0.9500000000000001, 0.23600000000000002, 192.0, 0.0, 0.0, 0.0, 0.0, 0.0, 0.0, 0.0, 0.0, 0.0, 1.700950446585326E9, 0.0, 2023-11-25 17:14:06.585
