%OpenBCI Raw EXG Data
%Number of channels = 8
%Sample Rate = 250 Hz
%Board = OpenBCI_GUI$BoardCytonSerial
Sample Index, EXG Channel 0, EXG Channel 1, EXG Channel 2, EXG Channel 3, EXG Channel 4, EXG Channel 5, EXG Channel 6, EXG Channel 7, Accel Channel 0, Accel Channel 1, Accel Channel 2, Other, Other, Other, Other, Other, Other, Other, Analog Channel 0, Analog Channel 1, Analog Channel 2, Timestamp, Other, Timestamp (Formatted)
7.0, 13578.595349621219, 19965.561624236303, -54210.69165595671, -52724.3453531677, -66543.28901091684, -7941.552453226144, -36334.19112374677, 19333.02960789557, 0.0, 0.0, 0.0, 192.0, 0.0, 0.0, 0.0, 0.0, 0.0, 0.0, 0.0, 0.0, 0.0, 1.700950196812361E9, 0.0, 2023-11-25 17:09:56.812
8.0, 13495.67037769203, 19862.855358464167, -54227.5001677871, -52764.44438272052, -66609.5172297379, -8092.672597488475, -36384.97428714923, 19281.82176134846, 0.0, 0.0, 0.0, 192.0, 0.0, 0.0, 0.0, 0.0, 0.0, 0.0, 0.0, 0.0, 0.0, 1.700950196812392E9, 0.0, 2023-11-25 17:09:56.812
9.0, 13508.232058075913, 19916.164268990073, -54211.406911779275, -52731.922594538046, -66615.9768838855, -8068.800934410207, -36385.309563316056, 19320.579686233963, 0.0, 0.0, 0.0, 192.0, 0.0, 0.0, 0.0, 0.0, 0.0, 0.0, 0.0, 0.0, 0.0, 1.700950196812405E9, 0.0, 2023-11-25 17:09:56.812
10.0, 13578.64005311013, 20012.14265968116, -54170.81614384844, -52679.39599506807, -66585.44440095955, -8045.041030054216, -36368.92573463032, 19350.709837759714, 0.0, 0.0, 0.0, 192.0, 0.0, 0.0, 0.0, 0.0, 0.0, 0.0, 0.0, 0.0, 0.0, 1.700950196812417E9, 0.0, 2023-11-25 17:09:56.812
0.0, 0.0, 0.0, 0.0, 0.0, 0.0, 0.0, 0.0, 0.0, -0.246, 0.9440000000000001, 0.186, 192.0, 248.0, 80.0, 29.0, 128.0, 5.0, 208.0, 0.0, 0.0, 0.0, 1.700950196905379E9, 0.0, 2023-11-25 17:09:56.905
1.0, 14204.399490880907, 20480.746982186676, -53997.32190338635, -52404.71540745681, -66481.70995494246, -8920.447101646318, -36649.75305196679, 19036.15373804018, -0.246, 0.9440000000000001, 0.186, 192.0, 0.0, 0.0, 0.0, 0.0, 0.0, 0.0, 0.0, 0.0, 0.0, 1.700950196921388E9, 0.0, 2023-11-25 17:09:56.921
2.0, 14277.377936527484, 20555.133587733937, -53969.89631293969, -52365.19752325983, -66425.96470427093, -8850.754362434669, -36615.71134516136, 19067.893215166714, -0.246, 0.9440000000000001, 0.186, 192.0, 0.0, 0.0, 0.0, 0.0, 0.0, 0.0, 0.0, 0.0, 0.0, 1.700950196925456E9, 0.0, 2023-11-25 17:09:56.925
3.0, 14242.44215994384, 20469.90638612585, -54030.134264246735, -52434.08559967108, -66433.72075959692, -8828.424969723817, -36638.21955182785, 19018.29469422039, -0.246, 0.9440000000000001, 0.186, 192.0, 0.0, 0.0, 0.0, 0.0, 0.0, 0.0, 0.0, 0.0, 0.0, 1.70095019692847E9, 0.0, 2023-11-25 17:09:56.928
4.0, 14176.61627252296, 20401.84532425944, -54028.34612469031, -52450.06709695663, -66487.5437602453, -8967.609282447014, -36669.26612487628, 18987.09165896078, -0.246, 0.9440000000000001, 0.186, 192.0, 0.0, 0.0, 0.0, 0.0, 0.0, 0.0, 0.0, 0.0, 0.0, 1.700950196931432E9, 0.0, 2023-11-25 17:09:56.931
5.0, 14197.269284399663, 20469.19113030328, -54011.001170993, -52416.6735907404, -66492.34938530318, -8935.020439031177, -36662.73941549533, 19027.57066816934, -0.246, 0.9440000000000001, 0.186, 192.0, 0.0, 0.0, 0.0, 0.0, 0.0, 0.0, 0.0, 0.0, 0.0, 1.700950196935426E9, 0.0, 2023-11-25 17:09:56.935
6.0, 14281.155381340432, 20567.985840795736, -53962.72140296953, -52356.860322577995, -66436.76059684284, -8878.448173814795, -36619.712307418864, 19069.368430300765, -0.246, 0.9440000000000001, 0.186, 192.0, 0.0, 0.0, 0.0, 0.0, 0.0, 0.0, 0.0, 0.0, 0.0, 1.700950196942492E9, 0.0, 2023-11-25 17:09:56.942
7.0, 14260.927052608378, 20502.830505708516, -54026.66974385617, -52422.23917510977, -66431.88791655158, -8814.455129439251, -36630.23997905731, 19031.303409493376, -0.246, 0.9440000000000001, 0.186, 192.0, 0.0, 0.0, 0.0, 0.0, 0.0, 0.0, 0.0, 0.0, 0.0, 1.700950196945494E9, 0.0, 2023-11-25 17:09:56.945
8.0, 14175.14105738891, 20407.99205398465, -54034.537557904434, -52454.582149336595, -66491.63412948062, -8968.72686966978, -36671.948334210916, 18993.081926474802, -0.248, 0.9440000000000001, 0.178, 192.0, 248.0, 64.0, 29.0, 128.0, 5.0, 144.0, 0.0, 0.0, 0.0, 1.700950196948449E9, 0.0, 2023-11-25 17:09:56.948
9.0, 14188.19447615081, 20463.11145581144, -54012.45403438259, -52415.98068666228, -66489.95774864647, -8935.042790775633, -36657.330293337145, 19042.926316610137, -0.248, 0.9440000000000001, 0.178, 192.0, 0.0, 0.0, 0.0, 0.0, 0.0, 0.0, 0.0, 0.0, 0.0, 1.700950196953451E9, 0.0, 2023-11-25 17:09:56.953
10.0, 14267.029078844676, 20564.230747727248, -53960.933263413106, -52352.099401009014, -66445.61188764714, -8894.072043189055, -36622.52862722023, 19084.43350606364, -0.248, 0.9440000000000001, 0.178, 192.0, 0.0, 0.0, 0.0, 0.0, 0.0, 0.0, 0.0, 0.0, 0.0, 1.700950196956468E9, 0.0, 2023-11-25 17:09:56.956
11.0, 14277.690860949859, 20530.05493045508, -54011.22468843755, -52399.507450998724, -66420.46617513492, -8801.513469399628, -36613.140894549004, 19068.228491333546, -0.248, 0.9440000000000001, 0.178, 192.0, 0.0, 0.0, 0.0, 0.0, 0.0, 0.0, 0.0, 0.0, 0.0, 1.700950196960538E9, 0.0, 2023-11-25 17:09:56.960
12.0, 14192.508362830684, 20410.741318552653, -54039.566700406875, -52453.263396413735, -66483.85572241017, -8948.520892682183, -36661.308903850186, 19004.034281257904, -0.248, 0.9440000000000001, 0.178, 192.0, 0.0, 0.0, 0.0, 0.0, 0.0, 0.0, 0.0, 0.0, 0.0, 1.700950196963528E9, 0.0, 2023-11-25 17:09:56.963
13.0, 14193.648301797904, 20444.09012127997, -54025.32863918885, -52425.3237158446, -66494.80807719327, -8944.586985658048, -36662.78411898424, 19030.72226413754, -0.248, 0.9440000000000001, 0.178, 192.0, 0.0, 0.0, 0.0, 0.0, 0.0, 0.0, 0.0, 0.0, 0.0, 1.700950196967559E9, 0.0, 2023-11-25 17:09:56.967
14.0, 14257.306070006618, 20538.90622125938, -53983.19560089059, -52370.04785180663, -66469.55060595878, -8922.056427247098, -36640.23120882883, 19062.93112789764, -0.248, 0.9440000000000001, 0.178, 192.0, 0.0, 0.0, 0.0, 0.0, 0.0, 0.0, 0.0, 0.0, 0.0, 1.700950196971565E9, 0.0, 2023-11-25 17:09:56.971
15.0, 14294.789945458167, 20540.984933493728, -54005.994380235, -52383.95063685783, -66419.929733268, -8812.287010227086, -36604.401362466975, 19061.657078463686, -0.248, 0.9440000000000001, 0.178, 192.0, 0.0, 0.0, 0.0, 0.0, 0.0, 0.0, 0.0, 0.0, 0.0, 1.700950196975566E9, 0.0, 2023-11-25 17:09:56.975
16.0, 14212.200249695808, 20431.394330429357, -54038.538520161936, -52439.13709391798, -66467.42719023552, -8920.156528968399, -36647.540229265716, 18997.306406176856, -0.248, 0.9440000000000001, 0.178, 192.0, 0.0, 0.0, 0.0, 0.0, 0.0, 0.0, 0.0, 0.0, 0.0, 1.700950196979587E9, 0.0, 2023-11-25 17:09:56.979
17.0, 14191.703700030292, 20443.061941035026, -54019.852461797294, -52416.45007329585, -66483.2969287988, -8944.251709491218, -36644.56744725316, 19037.919525852147, -0.246, 0.9380000000000001, 0.182, 192.0, 248.0, 80.0, 29.0, 80.0, 5.0, 176.0, 0.0, 0.0, 0.0, 1.700950196983585E9, 0.0, 2023-11-25 17:09:56.983
18.0, 14243.224470999774, 20537.431006125335, -53979.19463863309, -52366.60568316051, -66465.95197510147, -8917.496671378216, -36623.57915920963, 19080.14197112822, -0.246, 0.9380000000000001, 0.182, 192.0, 0.0, 0.0, 0.0, 0.0, 0.0, 0.0, 0.0, 0.0, 0.0, 1.700950196988585E9, 0.0, 2023-11-25 17:09:56.988
19.0, 14294.074689635598, 20559.06749475807, -53981.51922005644, -52363.8117151036, -66408.46328836243, -8814.611591650439, -36590.073894271125, 19097.19635214762, -0.246, 0.9380000000000001, 0.182, 192.0, 0.0, 0.0, 0.0, 0.0, 0.0, 0.0, 0.0, 0.0, 0.0, 1.700950196991677E9, 0.0, 2023-11-25 17:09:56.991
20.0, 14221.520927133672, 20437.496356665655, -54030.491892158025, -52435.60551829404, -66448.87524233761, -8883.678482017336, -36635.649101215495, 19025.871935590738, -0.246, 0.9380000000000001, 0.182, 192.0, 0.0, 0.0, 0.0, 0.0, 0.0, 0.0, 0.0, 0.0, 0.0, 1.700950196995652E9, 0.0, 2023-11-25 17:09:56.995
21.0, 14194.899999487401, 20425.985208271173, -54007.15667094668, -52417.09827388505, -66469.97528910343, -8952.588910173048, -36643.136935608025, 19035.505537450976, -0.246, 0.9380000000000001, 0.182, 192.0, 0.0, 0.0, 0.0, 0.0, 0.0, 0.0, 0.0, 0.0, 0.0, 1.700950196999815E9, 0.0, 2023-11-25 17:09:56.999
22.0, 14240.363447709495, 20512.419404079843, -53975.52895254242, -52371.254846007214, -66459.42526572052, -8922.503462136205, -36636.72198494935, 19052.761084170474, -0.246, 0.9380000000000001, 0.182, 192.0, 0.0, 0.0, 0.0, 0.0, 0.0, 0.0, 0.0, 0.0, 0.0, 1.700950197003799E9, 0.0, 2023-11-25 17:09:57.003
23.0, 14314.59359104557, 20572.07621003106, -53958.832199434306, -52343.87395904946, -66400.10373593614, -8840.293746029585, -36602.792036866194, 19064.361639542778, -0.246, 0.9380000000000001, 0.182, 192.0, 0.0, 0.0, 0.0, 0.0, 0.0, 0.0, 0.0, 0.0, 0.0, 1.700950197007712E9, 0.0, 2023-11-25 17:09:57.007
24.0, 14264.078648576577, 20471.314546026533, -54018.08667398533, -52415.06426513961, -66423.43895714747, -8851.60372872397, -36628.63065345653, 19019.34522620979, -0.246, 0.9380000000000001, 0.182, 192.0, 0.0, 0.0, 0.0, 0.0, 0.0, 0.0, 0.0, 0.0, 0.0, 1.700950197011712E9, 0.0, 2023-11-25 17:09:57.011
25.0, 14207.61814208247, 20419.860830290418, -54010.66589482617, -52418.729951230285, -66468.07539082473, -8969.755049914724, -36657.66556950397, 18998.535752121898, -0.246, 0.9380000000000001, 0.182, 192.0, 0.0, 0.0, 0.0, 0.0, 0.0, 0.0, 0.0, 0.0, 0.0, 1.700950197016719E9, 0.0, 2023-11-25 17:09:57.016
26.0, 14241.123407020976, 20492.392241047888, -53985.85545848077, -52378.89914261093, -66463.02389657783, -8932.941726796833, -36653.19522061291, 19037.33838049631, -0.246, 0.9380000000000001, 0.182, 192.0, 0.0, 0.0, 0.0, 0.0, 0.0, 0.0, 0.0, 0.0, 0.0, 1.700950197019702E9, 0.0, 2023-11-25 17:09:57.019
27.0, 14319.041588192176, 20567.002364039705, -53951.79139993089, -52335.961441512285, -66406.0716517057, -8868.144019620899, -36617.94651960689, 19084.455857808098, -0.246, 0.9460000000000001, 0.184, 192.0, 248.0, 80.0, 29.0, 144.0, 5.0, 192.0, 0.0, 0.0, 0.0, 1.700950197023795E9, 0.0, 2023-11-25 17:09:57.023
28.0, 14293.806468702134, 20492.72751721472, -54005.12266220125, -52401.63086672198, -66405.53520983878, -8830.883661613901, -36632.2963395472, 19042.05459857638, -0.246, 0.9460000000000001, 0.184, 192.0, 0.0, 0.0, 0.0, 0.0, 0.0, 0.0, 0.0, 0.0, 0.0, 1.700950197027762E9, 0.0, 2023-11-25 17:09:57.027
29.0, 14206.969941493267, 20400.66068180331, -54020.5006623865, -52439.09239042907, -66476.41259150655, -8986.317692556107, -36678.83267150315, 18986.130533949203, -0.246, 0.9460000000000001, 0.184, 192.0, 0.0, 0.0, 0.0, 0.0, 0.0, 0.0, 0.0, 0.0, 0.0, 1.700950197031811E9, 0.0, 2023-11-25 17:09:57.031
30.0, 14227.421787669873, 20466.799493646562, -53999.19944992059, -52402.994323133746, -66478.20073106299, -8951.314860739096, -36665.89101146353, 19028.218868758544, -0.246, 0.9460000000000001, 0.184, 192.0, 0.0, 0.0, 0.0, 0.0, 0.0, 0.0, 0.0, 0.0, 0.0, 1.700950197035876E9, 0.0, 2023-11-25 17:09:57.035
31.0, 14298.16505887092, 20554.97712552275, -53962.00614714696, -52356.70386036681, -66438.81695733273, -8906.09728170601, -36631.20110406889, 19064.473398265054, -0.246, 0.9460000000000001, 0.184, 192.0, 0.0, 0.0, 0.0, 0.0, 0.0, 0.0, 0.0, 0.0, 0.0, 1.700950197039942E9, 0.0, 2023-11-25 17:09:57.039
32.0, 14290.006672144733, 20498.024880650628, -54019.4501303971, -52415.623058751, -66427.57402987171, -8834.616402937938, -36636.05143261569, 19025.33549372381, -0.246, 0.9460000000000001, 0.184, 192.0, 0.0, 0.0, 0.0, 0.0, 0.0, 0.0, 0.0, 0.0, 0.0, 1.700950197045328E9, 0.0, 2023-11-25 17:09:57.045
33.0, 14215.463604386283, 20401.21947541469, -54028.3014212014, -52448.25660565575, -66484.1462950881, -8984.663663466414, -36675.12228192357, 18978.687403045584, -0.246, 0.9460000000000001, 0.184, 192.0, 0.0, 0.0, 0.0, 0.0, 0.0, 0.0, 0.0, 0.0, 0.0, 1.700950197047827E9, 0.0, 2023-11-25 17:09:57.047
34.0, 14218.771662565669, 20444.157176513338, -54019.53953737492, -52423.64733501045, -66497.11030687217, -8960.590834688048, -36668.3049998647, 19012.863220317748, -0.246, 0.9460000000000001, 0.184, 192.0, 0.0, 0.0, 0.0, 0.0, 0.0, 0.0, 0.0, 0.0, 0.0, 1.70095019705081E9, 0.0, 2023-11-25 17:09:57.050
35.0, 14281.44595401835, 20534.30176190159, -53980.62515027823, -52373.06533730809, -66469.81882689224, -8930.795959329123, -36635.649101215495, 19060.405380774188, -0.246, 0.9460000000000001, 0.184, 192.0, 0.0, 0.0, 0.0, 0.0, 0.0, 0.0, 0.0, 0.0, 0.0, 1.700950197055852E9, 0.0, 2023-11-25 17:09:57.055
36.0, 14296.30986408113, 20510.318340101046, -54020.99240076452, -52410.28099182618, -66434.95010554197, -8827.374437734417, -36616.493656217295, 19068.139084355724, -0.246, 0.9460000000000001, 0.184, 192.0, 0.0, 0.0, 0.0, 0.0, 0.0, 0.0, 0.0, 0.0, 0.0, 1.700950197059862E9, 0.0, 2023-11-25 17:09:57.059
37.0, 14197.358691377485, 20380.03002167106, -54059.72797390557, -52475.61514086904, -66507.36975757715, -8971.789058660157, -36673.758825511795, 18994.08775497529, -0.25, 0.9440000000000001, 0.18, 192.0, 248.0, 48.0, 29.0, 128.0, 5.0, 160.0, 0.0, 0.0, 0.0, 1.700950197063893E9, 0.0, 2023-11-25 17:09:57.063
38.0, 14199.19153442282, 20412.66356857581, -54034.98459279354, -52440.969936963316, -66512.28714135733, -8970.157381314919, -36669.46729057637, 19018.38410119821, -0.25, 0.9440000000000001, 0.18, 192.0, 0.0, 0.0, 0.0, 0.0, 0.0, 0.0, 0.0, 0.0, 0.0, 1.700950197069915E9, 0.0, 2023-11-25 17:09:57.069
39.0, 14269.219549801297, 20515.749814003684, -53984.20142939108, -52378.049776321626, -66478.35719327416, -8929.38779942844, -36629.77059242375, 19067.803808188895, -0.25, 0.9440000000000001, 0.18, 192.0, 0.0, 0.0, 0.0, 0.0, 0.0, 0.0, 0.0, 0.0, 0.0, 1.700950197072883E9, 0.0, 2023-11-25 17:09:57.072
40.0, 14308.715082253824, 20518.96846520525, -54004.6979790566, -52390.969084616794, -66427.77519557181, -8819.46192019724, -36603.10496128857, 19072.497674524508, -0.25, 0.9440000000000001, 0.18, 192.0, 0.0, 0.0, 0.0, 0.0, 0.0, 0.0, 0.0, 0.0, 0.0, 1.700950197076885E9, 0.0, 2023-11-25 17:09:57.076
41.0, 14221.587982367038, 20389.70832702021, -54045.244043498526, -52455.69973655936, -66480.23473980841, -8930.393627928928, -36658.939618937926, 18995.13828696469, -0.25, 0.9440000000000001, 0.18, 192.0, 0.0, 0.0, 0.0, 0.0, 0.0, 0.0, 0.0, 0.0, 0.0, 1.700950197079946E9, 0.0, 2023-11-25 17:09:57.079
42.0, 14193.961226220277, 20388.4119258418, -54025.1498252332, -52430.41991358041, -66494.31633881526, -8965.932901612867, -36651.36237756758, 19029.135290281214, -0.25, 0.9440000000000001, 0.18, 192.0, 0.0, 0.0, 0.0, 0.0, 0.0, 0.0, 0.0, 0.0, 0.0, 1.700950197082879E9, 0.0, 2023-11-25 17:09:57.082
43.0, 14249.684125147358, 20487.3854502899, -53980.8933712117, -52372.19361927434, -66470.60113794818, -8929.499558150716, -36621.50044697529, 19077.638575749228, -0.25, 0.9440000000000001, 0.18, 192.0, 0.0, 0.0, 0.0, 0.0, 0.0, 0.0, 0.0, 0.0, 0.0, 1.70095019708797E9, 0.0, 2023-11-25 17:09:57.087
44.0, 14317.342855613573, 20534.458224112775, -53974.29960659738, -52356.74856385572, -66405.49050634987, -8826.279202256108, -36582.85428081206, 19100.079727182358, -0.25, 0.9440000000000001, 0.18, 192.0, 0.0, 0.0, 0.0, 0.0, 0.0, 0.0, 0.0, 0.0, 0.0, 1.700950197091914E9, 0.0, 2023-11-25 17:09:57.091
45.0, 14252.858072860012, 20427.728644338687, -54029.17313923516, -52428.89999495745, -66445.45542543595, -8886.986540196722, -36627.87069414505, 19028.442386203096, -0.25, 0.9440000000000001, 0.18, 192.0, 0.0, 0.0, 0.0, 0.0, 0.0, 0.0, 0.0, 0.0, 0.0, 1.700950197095983E9, 0.0, 2023-11-25 17:09:57.095
46.0, 14218.145813720921, 20408.23792317366, -54008.83305178083, -52411.68915172687, -66471.24933853738, -8968.72686966978, -36647.897857177006, 19020.060482032357, -0.25, 0.9440000000000001, 0.18, 192.0, 0.0, 0.0, 0.0, 0.0, 0.0, 0.0, 0.0, 0.0, 0.0, 1.700950197099966E9, 0.0, 2023-11-25 17:09:57.099
47.0, 14253.707439149313, 20489.19594159078, -53974.143144386195, -52363.69995638132, -66456.67600115252, -8932.517043652182, -36641.01351988477, 19049.408322502175, -0.252, 0.9380000000000001, 0.188, 192.0, 248.0, 32.0, 29.0, 80.0, 5.0, 224.0, 0.0, 0.0, 0.0, 1.700950197103387E9, 0.0, 2023-11-25 17:09:57.103
48.0, 14316.135861412986, 20539.755587548683, -53954.92064415463, -52335.804979301094, -66397.98032021288, -8846.395772265885, -36602.54616767719, 19090.24495962202, -0.252, 0.9380000000000001, 0.188, 192.0, 0.0, 0.0, 0.0, 0.0, 0.0, 0.0, 0.0, 0.0, 0.0, 1.700950197106944E9, 0.0, 2023-11-25 17:09:57.106
49.0, 14273.578139970083, 20444.827728846994, -54013.03517973843, -52406.68236096887, -66417.44868963346, -8846.060496099055, -36631.87165640255, 19047.620182945753, -0.252, 0.9380000000000001, 0.188, 192.0, 0.0, 0.0, 0.0, 0.0, 0.0, 0.0, 0.0, 0.0, 0.0, 1.700950197110973E9, 0.0, 2023-11-25 17:09:57.110
50.0, 14219.352807921507, 20386.55673105201, -54010.33061865933, -52417.16532911841, -66469.52825421432, -8973.554846472127, -36670.964857454885, 19017.735900609005, -0.252, 0.9380000000000001, 0.188, 192.0, 0.0, 0.0, 0.0, 0.0, 0.0, 0.0, 0.0, 0.0, 0.0, 1.700950197115944E9, 0.0, 2023-11-25 17:09:57.115
51.0, 14248.38772396895, 20460.13867379888, -53994.37147311825, -52387.86219213751, -66475.85379789518, -8952.767724128691, -36682.65481980501, 19019.680502376617, -0.252, 0.9380000000000001, 0.188, 192.0, 0.0, 0.0, 0.0, 0.0, 0.0, 0.0, 0.0, 0.0, 0.0, 1.70095019712014E9, 0.0, 2023-11-25 17:09:57.120
52.0, 14320.270934137217, 20540.49319511571, -53963.369603558735, -52347.763162584684, -66425.51766938182, -8893.647360044404, -36645.41681354246, 19054.035133604426, -0.252, 0.9380000000000001, 0.188, 192.0, 0.0, 0.0, 0.0, 0.0, 0.0, 0.0, 0.0, 0.0, 0.0, 1.700950197124013E9, 0.0, 2023-11-25 17:09:57.124
53.0, 14298.232114104285, 20467.782970402597, -54018.041970496415, -52411.2197650933, -66423.10368098065, -8848.876815900423, -36640.58883674012, 19024.62023790124, -0.252, 0.9380000000000001, 0.188, 192.0, 0.0, 0.0, 0.0, 0.0, 0.0, 0.0, 0.0, 0.0, 0.0, 1.700950197128072E9, 0.0, 2023-11-25 17:09:57.128
54.0, 14220.96213352229, 20382.33225134996, -54024.054589754895, -52439.94175671837, -66485.42034452205, -8999.326407829096, -36675.301095879215, 18986.42110662712, -0.252, 0.9380000000000001, 0.188, 192.0, 0.0, 0.0, 0.0, 0.0, 0.0, 0.0, 0.0, 0.0, 0.0, 1.700950197131114E9, 0.0, 2023-11-25 17:09:57.131
55.0, 14240.654020387414, 20444.648914891353, -54003.75920578947, -52405.49771851274, -66486.8955596561, -8967.788096402657, -36670.87545047706, 19018.71937736504, -0.252, 0.9380000000000001, 0.188, 192.0, 0.0, 0.0, 0.0, 0.0, 0.0, 0.0, 0.0, 0.0, 0.0, 1.700950197135069E9, 0.0, 2023-11-25 17:09:57.135
56.0, 14306.97164618631, 20530.814889766563, -53964.53189427041, -52358.44729643432, -66446.95299231446, -8927.66671510538, -36644.36628155307, 19042.76985439895, -0.252, 0.9380000000000001, 0.188, 192.0, 0.0, 0.0, 0.0, 0.0, 0.0, 0.0, 0.0, 0.0, 0.0, 1.700950197139097E9, 0.0, 2023-11-25 17:09:57.139
57.0, 14292.621826246004, 20474.95788037275, -54020.74653157551, -52416.986515162775, -66430.92679154001, -8854.643565969893, -36646.17677285395, 19015.1878017411, -0.25, 0.9460000000000001, 0.184, 192.0, 248.0, 48.0, 29.0, 144.0, 5.0, 192.0, 0.0, 0.0, 0.0, 1.700950197143061E9, 0.0, 2023-11-25 17:09:57.143
58.0, 14207.752252549202, 20369.50235003261, -54033.26350847048, -52454.55979759214, -66491.20944633597, -9010.368169590018, -36687.12516869607, 18963.08588541578, -0.25, 0.9460000000000001, 0.184, 192.0, 0.0, 0.0, 0.0, 0.0, 0.0, 0.0, 0.0, 0.0, 0.0, 1.70095019714811E9, 0.0, 2023-11-25 17:09:57.148
59.0, 14220.001008510711, 20420.08434773497, -54008.98951399202, -52417.120625629505, -66492.17057134755, -8981.892047153957, -36673.64706678952, 19016.730072108516, -0.25, 0.9460000000000001, 0.184, 192.0, 0.0, 0.0, 0.0, 0.0, 0.0, 0.0, 0.0, 0.0, 0.0, 1.700950197152117E9, 0.0, 2023-11-25 17:09:57.152
60.0, 14283.703480208336, 20506.04915691008, -53966.655309993665, -52364.41521220389, -66463.49328321138, -8953.192407273342, -36657.3526450816, 19057.34319178381, -0.25, 0.9460000000000001, 0.184, 192.0, 0.0, 0.0, 0.0, 0.0, 0.0, 0.0, 0.0, 0.0, 0.0, 1.700950197155155E9, 0.0, 2023-11-25 17:09:57.155
61.0, 14312.35841660004, 20486.5360840006, -53995.57846731883, -52388.15276481542, -66419.57210535671, -8841.590147207993, -36633.19040932541, 19056.20325281659, -0.25, 0.9460000000000001, 0.184, 192.0, 0.0, 0.0, 0.0, 0.0, 0.0, 0.0, 0.0, 0.0, 0.0, 1.700950197159114E9, 0.0, 2023-11-25 17:09:57.159
62.0, 14218.01170325419, 20359.846396427918, -54036.12453176076, -52450.76000103474, -66488.30371955677, -8974.493619739249, -36674.22821214535, 18988.164542694634, -0.25, 0.9460000000000001, 0.184, 192.0, 0.0, 0.0, 0.0, 0.0, 0.0, 0.0, 0.0, 0.0, 0.0, 1.700950197163495E9, 0.0, 2023-11-25 17:09:57.163
63.0, 14202.991330980221, 20381.28171936056, -54032.21297648108, -52432.52097755921, -66510.27548435635, -8986.608265234026, -36666.49450856382, 19014.316083707345, -0.25, 0.9460000000000001, 0.184, 192.0, 0.0, 0.0, 0.0, 0.0, 0.0, 0.0, 0.0, 0.0, 0.0, 1.700950197167186E9, 0.0, 2023-11-25 17:09:57.167
64.0, 14266.045602088643, 20484.68088921081, -53988.11298467076, -52374.048814064125, -66483.7439636879, -8956.411058474905, -36645.72973796484, 19048.223680046045, -0.25, 0.9460000000000001, 0.184, 192.0, 0.0, 0.0, 0.0, 0.0, 0.0, 0.0, 0.0, 0.0, 0.0, 1.700950197171252E9, 0.0, 2023-11-25 17:09:57.171
65.0, 14310.905553210445, 20498.740136473196, -54001.50167959949, -52380.93315135636, -66427.10464323816, -8840.919594874335, -36607.73177239082, 19067.110904110777, -0.25, 0.9460000000000001, 0.184, 192.0, 0.0, 0.0, 0.0, 0.0, 0.0, 0.0, 0.0, 0.0, 0.0, 1.700950197176216E9, 0.0, 2023-11-25 17:09:57.176
66.0, 14233.367351694984, 20377.75014373662, -54043.72412487557, -52446.84844575506, -66475.69733568399, -8941.301279223118, -36648.3001885772, 19004.48131614701, -0.25, 0.9460000000000001, 0.184, 192.0, 0.0, 0.0, 0.0, 0.0, 0.0, 0.0, 0.0, 0.0, 0.0, 1.700950197180215E9, 0.0, 2023-11-25 17:09:57.180
67.0, 14209.853316528, 20374.911472190797, -54028.5025869015, -52429.59289903557, -66499.09961212869, -8988.172887345898, -36657.86673520407, 19015.657188374662, -0.23800000000000002, 0.9420000000000001, 0.184, 192.0, 248.0, 144.0, 29.0, 112.0, 5.0, 192.0, 0.0, 0.0, 0.0, 1.700950197184455E9, 0.0, 2023-11-25 17:09:57.184
68.0, 14255.070895561088, 20459.13284529839, -53993.365644617756, -52382.3636630015, -66487.38729803411, -8962.15545679992, -36655.16217412498, 19044.915621866658, -0.23800000000000002, 0.9420000000000001, 0.184, 192.0, 0.0, 0.0, 0.0, 0.0, 0.0, 0.0, 0.0, 0.0, 0.0, 1.700950197187249E9, 0.0, 2023-11-25 17:09:57.187
69.0, 14318.683960280892, 20501.06471789655, -53984.35789160227, -52367.29858723863, -66425.33885542618, -8867.406412053873, -36626.32842377763, 19063.86990116476, -0.23800000000000002, 0.9420000000000001, 0.184, 192.0, 0.0, 0.0, 0.0, 0.0, 0.0, 0.0, 0.0, 0.0, 0.0, 1.700950197191218E9, 0.0, 2023-11-25 17:09:57.191
70.0, 14258.40130548493, 20397.151457923825, -54035.99042129403, -52438.62300379551, -66456.1395592856, -8921.654095846903, -36670.92015396597, 18986.66697581613, -0.23800000000000002, 0.9420000000000001, 0.184, 192.0, 0.0, 0.0, 0.0, 0.0, 0.0, 0.0, 0.0, 0.0, 0.0, 1.700950197195252E9, 0.0, 2023-11-25 17:09:57.195
71.0, 14211.932028762345, 20368.11654187638, -54025.50745314449, -52435.717277016316, -66490.4941905134, -9016.961934204333, -36685.80641577321, 18982.531903091898, -0.23800000000000002, 0.9420000000000001, 0.184, 192.0, 0.0, 0.0, 0.0, 0.0, 0.0, 0.0, 0.0, 0.0, 0.0, 1.700950197199437E9, 0.0, 2023-11-25 17:09:57.199
72.0, 14244.789093111647, 20447.800510859553, -54001.30051389939, -52396.2664480527, -66484.74979218839, -8990.564524002615, -36683.59359307213, 19019.658150632164, -0.23800000000000002, 0.9420000000000001, 0.184, 192.0, 0.0, 0.0, 0.0, 0.0, 0.0, 0.0, 0.0, 0.0, 0.0, 1.700950197204296E9, 0.0, 2023-11-25 17:09:57.204
73.0, 14323.199012660863, 20518.16380240486, -53969.449278050575, -52356.4579911778, -66418.18629720047, -8901.269304903664, -36638.08544136112, 19073.950537914105, -0.23800000000000002, 0.9420000000000001, 0.184, 192.0, 0.0, 0.0, 0.0, 0.0, 0.0, 0.0, 0.0, 0.0, 0.0, 1.700950197208406E9, 0.0, 2023-11-25 17:09:57.208
74.0, 14273.868712648, 20424.822917559497, -54031.117741002774, -52433.95148920435, -66438.12405325462, -8901.492822348217, -36669.10966266509, 19012.796165084383, -0.23800000000000002, 0.9420000000000001, 0.184, 192.0, 0.0, 0.0, 0.0, 0.0, 0.0, 0.0, 0.0, 0.0, 0.0, 1.700950197211526E9, 0.0, 2023-11-25 17:09:57.211
75.0, 14217.519964876172, 20378.063068158994, -54017.50552862949, -52436.90191947245, -66478.93833863, -9028.830710510101, -36694.25537517731, 18981.32490889131, -0.23800000000000002, 0.9420000000000001, 0.184, 192.0, 0.0, 0.0, 0.0, 0.0, 0.0, 0.0, 0.0, 0.0, 0.0, 1.70095019721529E9, 0.0, 2023-11-25 17:09:57.215
76.0, 14243.783264611158, 20451.488548694677, -53998.037159208914, -52399.619209721, -66479.47478049694, -8986.54121000066, -36691.52846235377, 19017.445327931087, -0.23800000000000002, 0.9420000000000001, 0.184, 192.0, 0.0, 0.0, 0.0, 0.0, 0.0, 0.0, 0.0, 0.0, 0.0, 1.700950197219417E9, 0.0, 2023-11-25 17:09:57.219
77.0, 14314.526535812205, 20529.026750210138, -53970.94684492909, -52363.18586625885, -66437.90053581007, -8937.412075687895, -36670.808395243694, 19044.982677100026, -0.248, 0.9480000000000001, 0.18, 192.0, 248.0, 64.0, 29.0, 160.0, 5.0, 160.0, 0.0, 0.0, 0.0, 1.700950197223292E9, 0.0, 2023-11-25 17:09:57.223
78.0, 14293.694709979858, 20457.90349935335, -54028.949621790605, -52428.36355309052, -66436.20180323145, -8889.936970464823, -36681.1572529265, 19001.888513790193, -0.248, 0.9480000000000001, 0.18, 192.0, 0.0, 0.0, 0.0, 0.0, 0.0, 0.0, 0.0, 0.0, 0.0, 1.700950197227402E9, 0.0, 2023-11-25 17:09:57.227
79.0, 14214.681293330348, 20364.875538930362, -54027.16148223418, -52451.6317190685, -66491.61177773617, -9031.870547756023, -36704.17954971547, 18961.38715283718, -0.248, 0.9480000000000001, 0.18, 192.0, 0.0, 0.0, 0.0, 0.0, 0.0, 0.0, 0.0, 0.0, 0.0, 1.700950197231319E9, 0.0, 2023-11-25 17:09:57.231
80.0, 14222.303238189608, 20414.719929065697, -54011.8505372823, -52421.3227535871, -66498.71963247296, -9000.30988458513, -36701.20676770291, 18998.08871723279, -0.248, 0.9480000000000001, 0.18, 192.0, 0.0, 0.0, 0.0, 0.0, 0.0, 0.0, 0.0, 0.0, 0.0, 1.700950197237283E9, 0.0, 2023-11-25 17:09:57.237
81.0, 14299.461460049328, 20508.709014500262, -53965.35890881526, -52364.348156970525, -66453.65851565106, -8962.177808544375, -36680.68786629294, 19029.358807725766, -0.248, 0.9480000000000001, 0.18, 192.0, 0.0, 0.0, 0.0, 0.0, 0.0, 0.0, 0.0, 0.0, 0.0, 1.700950197241383E9, 0.0, 2023-11-25 17:09:57.241
82.0, 14312.671341022415, 20480.59051997549, -54002.239287166514, -52399.2168783208, -66415.95112275495, -8862.265510829153, -36663.18645038443, 19025.76017686846, -0.248, 0.9480000000000001, 0.18, 192.0, 0.0, 0.0, 0.0, 0.0, 0.0, 0.0, 0.0, 0.0, 0.0, 1.700950197245359E9, 0.0, 2023-11-25 17:09:57.245
83.0, 14216.58119160905, 20371.961041922696, -54028.949621790605, -52450.35766963455, -66485.68856545551, -9016.984285948789, -36701.989078758845, 18963.42116158261, -0.248, 0.9480000000000001, 0.18, 192.0, 0.0, 0.0, 0.0, 0.0, 0.0, 0.0, 0.0, 0.0, 0.0, 1.700950197248406E9, 0.0, 2023-11-25 17:09:57.248
84.0, 14224.471357401771, 20422.453632647233, -54008.475423869546, -52414.550175017146, -66488.10255385668, -8990.58687574707, -36679.19029941443, 19011.589170883795, -0.248, 0.9480000000000001, 0.18, 192.0, 0.0, 0.0, 0.0, 0.0, 0.0, 0.0, 0.0, 0.0, 0.0, 1.70095019725244E9, 0.0, 2023-11-25 17:09:57.252
85.0, 14278.674337705892, 20506.25032261018, -53977.92058919914, -52369.377299472966, -66471.09287632619, -8964.792962645646, -36658.96197068238, 19047.217851545556, -0.248, 0.9480000000000001, 0.18, 192.0, 0.0, 0.0, 0.0, 0.0, 0.0, 0.0, 0.0, 0.0, 0.0, 1.700950197255468E9, 0.0, 2023-11-25 17:09:57.255
86.0, 14308.692730509369, 20505.57977027652, -54003.04394996691, -52387.72808167077, -66422.05314899125, -8850.642603712393, -36627.6471767005, 19058.796055173403, -0.248, 0.9480000000000001, 0.18, 192.0, 0.0, 0.0, 0.0, 0.0, 0.0, 0.0, 0.0, 0.0, 0.0, 1.700950197259463E9, 0.0, 2023-11-25 17:09:57.259
87.0, 14225.72305509127, 20397.28556839056, -54033.39761893721, -52439.85234974055, -66477.95486187398, -8967.497523724738, -36668.796738242716, 19002.179086468113, -0.246, 0.9420000000000001, 0.182, 192.0, 248.0, 80.0, 29.0, 112.0, 5.0, 176.0, 0.0, 0.0, 0.0, 1.700950197263467E9, 0.0, 2023-11-25 17:09:57.263
88.0, 14204.28773215863, 20406.963873739707, -54025.64156361122, -52423.200300121345, -66502.4970772859, -8983.769593688201, -36673.8035290007, 19015.23250523001, -0.246, 0.9420000000000001, 0.182, 192.0, 0.0, 0.0, 0.0, 0.0, 0.0, 0.0, 0.0, 0.0, 0.0, 1.700950197267487E9, 0.0, 2023-11-25 17:09:57.267
89.0, 14251.181692025864, 20489.642976479885, -53986.74952825899, -52371.90304659642, -66485.95678638897, -8955.53934044115, -36646.1991245984, 19052.80578765938, -0.246, 0.9420000000000001, 0.182, 192.0, 0.0, 0.0, 0.0, 0.0, 0.0, 0.0, 0.0, 0.0, 0.0, 1.700950197272451E9, 0.0, 2023-11-25 17:09:57.272
90.0, 14296.600436759049, 20509.692491256297, -53997.25484815298, -52373.579427430566, -66430.52446013982, -8843.422990253328, -36602.389705466, 19082.600663018307, -0.246, 0.9420000000000001, 0.182, 192.0, 0.0, 0.0, 0.0, 0.0, 0.0, 0.0, 0.0, 0.0, 0.0, 1.700950197275408E9, 0.0, 2023-11-25 17:09:57.275
91.0, 14218.19051720983, 20393.12814392187, -54047.054534799405, -52444.881492242996, -66483.945129388, -8935.422770431373, -36651.16121186748, 19005.867124303237, -0.246, 0.9420000000000001, 0.182, 192.0, 0.0, 0.0, 0.0, 0.0, 0.0, 0.0, 0.0, 0.0, 0.0, 1.700950197279573E9, 0.0, 2023-11-25 17:09:57.279
92.0, 14196.688139043825, 20392.36818461039, -54032.12356950326, -52427.04480016766, -66508.97908317794, -8992.620884492504, -36659.632523016044, 19011.81268832835, -0.246, 0.9420000000000001, 0.182, 192.0, 0.0, 0.0, 0.0, 0.0, 0.0, 0.0, 0.0, 0.0, 0.0, 1.70095019728351E9, 0.0, 2023-11-25 17:09:57.283
93.0, 14232.003895283211, 20470.643993692876, -54014.3986361502, -52391.17025031689, -66510.87898145664, -8972.370204015995, -36661.33125559465, 19028.352979225278, -0.246, 0.9420000000000001, 0.182, 192.0, 0.0, 0.0, 0.0, 0.0, 0.0, 0.0, 0.0, 0.0, 0.0, 1.700950197287504E9, 0.0, 2023-11-25 17:09:57.287
94.0, 14292.040680890166, 20522.790613507106, -54009.32479015885, -52374.339386742045, -66452.9879633174, -8881.488011060717, -36633.212761069866, 19048.000162601493, -0.246, 0.9420000000000001, 0.182, 192.0, 0.0, 0.0, 0.0, 0.0, 0.0, 0.0, 0.0, 0.0, 0.0, 1.700950197291483E9, 0.0, 2023-11-25 17:09:57.291
95.0, 14234.328476706563, 20421.626618102386, -54064.37713675227, -52442.1769311639, -66479.1395043301, -8917.429616144851, -36664.952238196405, 18990.57853109581, -0.246, 0.9420000000000001, 0.182, 192.0, 0.0, 0.0, 0.0, 0.0, 0.0, 0.0, 0.0, 0.0, 0.0, 1.700950197295606E9, 0.0, 2023-11-25 17:09:57.295
96.0, 14197.068118699566, 20396.32444337898, -54041.824226596866, -52425.435474566875, -66502.76529821937, -9005.249620109751, -36674.42937784545, 19005.263627202945, -0.246, 0.9420000000000001, 0.182, 192.0, 0.0, 0.0, 0.0, 0.0, 0.0, 0.0, 0.0, 0.0, 0.0, 1.700950197298524E9, 0.0, 2023-11-25 17:09:57.298
97.0, 14243.447988444328, 20490.62645323592, -54003.89331625621, -52373.80294487512, -66486.42617302254, -8959.160323042908, -36661.3536073391, 19063.042886619914, -0.244, 0.934, 0.192, 192.0, 248.0, 96.0, 29.0, 48.0, 6.0, 0.0, 0.0, 0.0, 0.0, 1.700950197304521E9, 0.0, 2023-11-25 17:09:57.304
98.0, 14312.291361366673, 20557.100541246004, -53985.85545848077, -52345.192711972326, -66434.9277537975, -8891.456889087784, -36638.68893846142, 19089.932035199647, -0.244, 0.934, 0.192, 192.0, 0.0, 0.0, 0.0, 0.0, 0.0, 0.0, 0.0, 0.0, 0.0, 1.700950197307597E9, 0.0, 2023-11-25 17:09:57.307
99.0, 14275.478038248782, 20473.706182683254, -54041.958337063596, -52412.69498022735, -66442.66145737904, -8888.28294137513, -36674.33997086763, 19018.004121542468, -0.244, 0.934, 0.192, 192.0, 0.0, 0.0, 0.0, 0.0, 0.0, 0.0, 0.0, 0.0, 0.0, 1.700950197311833E9, 0.0, 2023-11-25 17:09:57.311
100.0, 14211.864973528978, 20412.484754620167, -54035.76690384947, -52423.200300121345, -66488.81780967925, -9023.868623241022, -36703.35253517062, 18983.42597287011, -0.244, 0.934, 0.192, 192.0, 0.0, 0.0, 0.0, 0.0, 0.0, 0.0, 0.0, 0.0, 0.0, 1.700950197315564E9, 0.0, 2023-11-25 17:09:57.315
101.0, 14239.804654098112, 20485.798476433574, -54015.806796050885, -52385.314093269604, -66487.32024280075, -8989.245771079752, -36691.103779209116, 19020.306351221367, -0.244, 0.934, 0.192, 192.0, 0.0, 0.0, 0.0, 0.0, 0.0, 0.0, 0.0, 0.0, 0.0, 1.700950197319579E9, 0.0, 2023-11-25 17:09:57.319
102.0, 14314.750053256757, 20575.607785654996, -53980.66985376714, -52340.565900870075, -66438.34757069917, -8938.95434605531, -36655.363339825075, 19056.225604561045, -0.244, 0.934, 0.192, 192.0, 0.0, 0.0, 0.0, 0.0, 0.0, 0.0, 0.0, 0.0, 0.0, 1.70095019732359E9, 0.0, 2023-11-25 17:09:57.323
103.0, 14293.0241576462, 20512.039424424103, -54041.42189519667, -52404.98362839027, -66434.57012588622, -8885.287807618119, -36655.43039505844, 19019.077005276326, -0.244, 0.934, 0.192, 192.0, 0.0, 0.0, 0.0, 0.0, 0.0, 0.0, 0.0, 0.0, 0.0, 1.70095019732666E9, 0.0, 2023-11-25 17:09:57.326
104.0, 14216.849412542513, 20420.46432739071, -54047.52392143296, -52433.16917814841, -66494.22693183743, -9043.60521359506, -36692.33312515415, 18958.213205124524, -0.244, 0.934, 0.192, 192.0, 0.0, 0.0, 0.0, 0.0, 0.0, 0.0, 0.0, 0.0, 0.0, 1.700950197331716E9, 0.0, 2023-11-25 17:09:57.331
105.0, 14237.211851741296, 20479.204711819257, -54026.49092990052, -52392.734872428766, -66491.83529518072, -9005.696654998857, -36679.570279070176, 18999.273359688923, -0.244, 0.934, 0.192, 192.0, 0.0, 0.0, 0.0, 0.0, 0.0, 0.0, 0.0, 0.0, 0.0, 1.700950197336675E9, 0.0, 2023-11-25 17:09:57.336
106.0, 14306.54696304166, 20571.048029786114, -53983.66498752416, -52339.04598224712, -66452.56328017275, -8972.817238905101, -36653.53049677974, 19037.80776712987, -0.244, 0.934, 0.192, 192.0, 0.0, 0.0, 0.0, 0.0, 0.0, 0.0, 0.0, 0.0, 0.0, 1.700950197339625E9, 0.0, 2023-11-25 17:09:57.339
107.0, 14322.014370204732, 20545.25411668469, -54016.991438507015, -52373.490020452744, -66414.2300384319, -8879.029319170633, -36643.2486943303, 19019.85931633226, -0.24, 0.9420000000000001, 0.196, 192.0, 248.0, 128.0, 29.0, 112.0, 6.0, 32.0, 0.0, 0.0, 0.0, 1.700950197343731E9, 0.0, 2023-11-25 17:09:57.343
108.0, 14228.248802214719, 20432.89189730786, -54044.43938069813, -52426.93304144538, -66482.78283867631, -9027.713123287336, -36697.943413012435, 18959.599013280753, -0.24, 0.9420000000000001, 0.196, 192.0, 0.0, 0.0, 0.0, 0.0, 0.0, 0.0, 0.0, 0.0, 0.0, 1.700950197346686E9, 0.0, 2023-11-25 17:09:57.346
109.0, 14230.19340398233, 20471.873339637918, -54032.61530788128, -52403.01667487821, -66495.85860918267, -9016.73841675978, -36693.87539552157, 19004.414260913643, -0.24, 0.9420000000000001, 0.196, 192.0, 0.0, 0.0, 0.0, 0.0, 0.0, 0.0, 0.0, 0.0, 0.0, 1.700950197350668E9, 0.0, 2023-11-25 17:09:57.350
110.0, 14296.421622803406, 20570.064553030083, -53986.5930660478, -52350.69124110833, -66469.05886758077, -8992.464422281317, -36660.124261394056, 19045.04973233339, -0.24, 0.9420000000000001, 0.196, 192.0, 0.0, 0.0, 0.0, 0.0, 0.0, 0.0, 0.0, 0.0, 0.0, 1.700950197354719E9, 0.0, 2023-11-25 17:09:57.354
111.0, 14324.897745239467, 20558.21812846877, -54011.80583379338, -52375.54638094263, -66422.50018388036, -8878.42582207034, -36613.632632927016, 19056.11384583877, -0.24, 0.9420000000000001, 0.196, 192.0, 0.0, 0.0, 0.0, 0.0, 0.0, 0.0, 0.0, 0.0, 0.0, 1.700950197359092E9, 0.0, 2023-11-25 17:09:57.359
112.0, 14236.183671496354, 20434.09889150845, -54047.0098313105, -52438.62300379551, -66481.17351307554, -8997.471213039305, -36653.284627590736, 18986.197589182568, -0.24, 0.9420000000000001, 0.196, 192.0, 0.0, 0.0, 0.0, 0.0, 0.0, 0.0, 0.0, 0.0, 0.0, 1.700950197363887E9, 0.0, 2023-11-25 17:09:57.363
113.0, 14223.778453323657, 20451.19797601676, -54027.22853746755, -52413.209070349825, -66493.80224869278, -9012.603344035548, -36649.417775799964, 19016.350092452776, -0.24, 0.9420000000000001, 0.196, 192.0, 0.0, 0.0, 0.0, 0.0, 0.0, 0.0, 0.0, 0.0, 0.0, 1.700950197367859E9, 0.0, 2023-11-25 17:09:57.367
114.0, 14283.457611019328, 20543.73419806173, -53981.94390320109, -52357.486171422745, -66468.79064664729, -8991.369186803006, -36638.666586716965, 19035.14790953969, -0.24, 0.9420000000000001, 0.196, 192.0, 0.0, 0.0, 0.0, 0.0, 0.0, 0.0, 0.0, 0.0, 0.0, 1.700950197371839E9, 0.0, 2023-11-25 17:09:57.371
115.0, 14333.302001154661, 20570.109256518994, -53987.06245268136, -52354.64749987692, -66408.79856452925, -8881.733880249725, -36605.876577601026, 19039.640610175207, -0.24, 0.9420000000000001, 0.196, 192.0, 0.0, 0.0, 0.0, 0.0, 0.0, 0.0, 0.0, 0.0, 0.0, 1.700950197375863E9, 0.0, 2023-11-25 17:09:57.375
116.0, 14255.227357772275, 20449.923926582807, -54035.29751721591, -52421.63567800947, -66453.68086739551, -8958.445067220338, -36654.75984272479, 18965.991612194972, -0.24, 0.9420000000000001, 0.196, 192.0, 0.0, 0.0, 0.0, 0.0, 0.0, 0.0, 0.0, 0.0, 0.0, 1.700950197379254E9, 0.0, 2023-11-25 17:09:57.379
117.0, 14220.537450377638, 20434.56827814201, -54018.89133678572, -52403.195488833844, -66476.03261185081, -9010.815204479124, -36654.670435746964, 18996.971130010024, -0.244, 0.9420000000000001, 0.186, 192.0, 248.0, 96.0, 29.0, 112.0, 5.0, 208.0, 0.0, 0.0, 0.0, 1.700950197382848E9, 0.0, 2023-11-25 17:09:57.382
118.0, 14272.996994614245, 20529.786709521617, -53973.67375775263, -52344.902139294405, -66453.27853599531, -8971.297320282141, -36632.43045001393, 19061.67943020814, -0.244, 0.9420000000000001, 0.186, 192.0, 0.0, 0.0, 0.0, 0.0, 0.0, 0.0, 0.0, 0.0, 0.0, 1.700950197386923E9, 0.0, 2023-11-25 17:09:57.386
119.0, 14343.874376282023, 20589.667032917387, -53955.278272065916, -52319.71172329327, -66388.90551196403, -8874.670729001848, -36595.01362979575, 19083.897064196713, -0.244, 0.9420000000000001, 0.186, 192.0, 0.0, 0.0, 0.0, 0.0, 0.0, 0.0, 0.0, 0.0, 0.0, 1.70095019739088E9, 0.0, 2023-11-25 17:09:57.390
120.0, 14279.613110973014, 20481.417534520333, -54021.01475250897, -52404.35777954552, -66427.19405021597, -8915.753235310702, -36643.36045305258, 18993.819534041828, -0.244, 0.9420000000000001, 0.186, 192.0, 0.0, 0.0, 0.0, 0.0, 0.0, 0.0, 0.0, 0.0, 0.0, 1.700950197395827E9, 0.0, 2023-11-25 17:09:57.395
121.0, 14222.973790523267, 20433.584801385976, -54018.84663329681, -52413.03025639418, -66475.22794905043, -9031.468216355826, -36671.54600281072, 18969.769057007918, -0.244, 0.9420000000000001, 0.186, 192.0, 0.0, 0.0, 0.0, 0.0, 0.0, 0.0, 0.0, 0.0, 0.0, 1.700950197399971E9, 0.0, 2023-11-25 17:09:57.399
122.0, 14244.051485544622, 20503.56811327554, -54003.04394996691, -52382.00603509021, -66480.54766423079, -9008.512974800227, -36670.65193303251, 18997.060536987847, -0.244, 0.9420000000000001, 0.186, 192.0, 0.0, 0.0, 0.0, 0.0, 0.0, 0.0, 0.0, 0.0, 0.0, 1.700950197402889E9, 0.0, 2023-11-25 17:09:57.402
123.0, 14322.483756838294, 20580.21224501279, -53968.97989141702, -52337.3025461796, -66416.46521287742, -8930.348924440017, -36620.51697021925, 19046.882575378728, -0.244, 0.9420000000000001, 0.186, 192.0, 0.0, 0.0, 0.0, 0.0, 0.0, 0.0, 0.0, 0.0, 0.0, 1.70095019740695E9, 0.0, 2023-11-25 17:09:57.406
124.0, 14288.06207037712, 20496.080278883015, -54029.374304935256, -52405.47536676829, -66422.8801635361, -8909.070063718566, -36647.87550543255, 19004.660130102653, -0.244, 0.9420000000000001, 0.186, 192.0, 0.0, 0.0, 0.0, 0.0, 0.0, 0.0, 0.0, 0.0, 0.0, 1.700950197411376E9, 0.0, 2023-11-25 17:09:57.411
125.0, 14215.553011364105, 20421.447804146745, -54033.06234277038, -52425.14490188896, -66480.48060899742, -9051.69654508788, -36689.203880930414, 18966.5280540619, -0.244, 0.9420000000000001, 0.186, 192.0, 0.0, 0.0, 0.0, 0.0, 0.0, 0.0, 0.0, 0.0, 0.0, 1.700950197417041E9, 0.0, 2023-11-25 17:09:57.417
126.0, 14233.456758672806, 20477.86360715194, -54015.538575117425, -52391.66198869491, -66483.27457705434, -9019.197108649863, -36678.87737499206, 18996.70290907656, -0.244, 0.9420000000000001, 0.186, 192.0, 0.0, 0.0, 0.0, 0.0, 0.0, 0.0, 0.0, 0.0, 0.0, 1.700950197419926E9, 0.0, 2023-11-25 17:09:57.419
127.0, 14311.240829377275, 20563.06845701557, -53970.14218212869, -52337.97309851326, -66433.38548343009, -8976.05824185112, -36647.16024960998, 19020.082833776814, -0.252, 0.9460000000000001, 0.19, 192.0, 248.0, 32.0, 29.0, 144.0, 5.0, 240.0, 0.0, 0.0, 0.0, 1.700950197424081E9, 0.0, 2023-11-25 17:09:57.424
128.0, 14304.065919407121, 20503.791630720098, -54020.79123506442, -52392.53370672867, -66417.56044835574, -8906.767834039669, -36647.51787752126, 18988.611577583742, -0.252, 0.9460000000000001, 0.19, 192.0, 0.0, 0.0, 0.0, 0.0, 0.0, 0.0, 0.0, 0.0, 0.0, 1.700950197428141E9, 0.0, 2023-11-25 17:09:57.428
129.0, 14213.004912496199, 20401.532399837066, -54039.2537759845, -52432.69979151485, -66484.68273695502, -9064.45939117186, -36692.33312515415, 18947.059684641325, -0.252, 0.9460000000000001, 0.19, 192.0, 0.0, 0.0, 0.0, 0.0, 0.0, 0.0, 0.0, 0.0, 0.0, 1.700950197431016E9, 0.0, 2023-11-25 17:09:57.431
130.0, 14227.980581281256, 20458.95403134275, -54026.06624675587, -52400.44622426584, -66489.33189980172, -9040.31950716013, -36687.527500096265, 18990.57853109581, -0.252, 0.9460000000000001, 0.19, 192.0, 0.0, 0.0, 0.0, 0.0, 0.0, 0.0, 0.0, 0.0, 0.0, 1.700950197435032E9, 0.0, 2023-11-25 17:09:57.435
131.0, 14307.59749503106, 20556.16176797888, -53984.492002069, -52346.77968582865, -66453.79262611779, -9012.312771357629, -36663.92405795146, 19021.535697166408, -0.252, 0.9460000000000001, 0.19, 192.0, 0.0, 0.0, 0.0, 0.0, 0.0, 0.0, 0.0, 0.0, 0.0, 1.700950197438958E9, 0.0, 2023-11-25 17:09:57.438
132.0, 14326.417663862429, 20521.06952918405, -54024.27810719945, -52386.72225317029, -66421.36024491313, -8909.092415463021, -36638.241903572314, 19018.562915153852, -0.252, 0.9460000000000001, 0.19, 192.0, 0.0, 0.0, 0.0, 0.0, 0.0, 0.0, 0.0, 0.0, 0.0, 1.700950197442986E9, 0.0, 2023-11-25 17:09:57.442
133.0, 14224.29254344613, 20393.932806722263, -54056.1069913038, -52447.89897774446, -66492.95288240348, -9055.876321301022, -36682.58776457164, 18951.686495743572, -0.252, 0.9460000000000001, 0.19, 192.0, 0.0, 0.0, 0.0, 0.0, 0.0, 0.0, 0.0, 0.0, 0.0, 1.70095019744695E9, 0.0, 2023-11-25 17:09:57.446
134.0, 14211.641456084426, 20419.23498144567, -54043.59001440883, -52430.129340902495, -66510.0519669118, -9059.452600413872, -36683.14655818303, 18977.61451931173, -0.252, 0.9460000000000001, 0.19, 192.0, 0.0, 0.0, 0.0, 0.0, 0.0, 0.0, 0.0, 0.0, 0.0, 1.700950197454027E9, 0.0, 2023-11-25 17:09:57.454
135.0, 14270.359488768518, 20513.380529091424, -54001.613438321765, -52380.55317170062, -66489.13073410162, -9041.571204849626, -36669.57904929865, 19011.790336583894, -0.252, 0.9460000000000001, 0.19, 192.0, 0.0, 0.0, 0.0, 0.0, 0.0, 0.0, 0.0, 0.0, 0.0, 1.70095019745809E9, 0.0, 2023-11-25 17:09:57.458
136.0, 14314.101852667554, 20520.421328594843, -54011.962296004574, -52388.108061326515, -66429.76450082833, -8918.793072556624, -36631.312862791165, 19032.644514160696, -0.252, 0.9460000000000001, 0.19, 192.0, 0.0, 0.0, 0.0, 0.0, 0.0, 0.0, 0.0, 0.0, 0.0, 1.700950197461418E9, 0.0, 2023-11-25 17:09:57.461
137.0, 14229.031113270656, 20399.99012946965, -54047.56862492188, -52449.9329864899, -66482.80519042077, -9023.667457540925, -36667.07565391966, 18970.23844364148, -0.25, 0.9400000000000001, 0.192, 192.0, 248.0, 48.0, 29.0, 96.0, 6.0, 0.0, 0.0, 0.0, 0.0, 1.700950197464057E9, 0.0, 2023-11-25 17:09:57.464
138.0, 14216.715302075781, 20416.6198273444, -54025.26158395548, -52422.909727443424, -66493.55637950377, -9043.336992661594, -36659.23019161585, 19000.122725978224, -0.25, 0.9400000000000001, 0.192, 192.0, 0.0, 0.0, 0.0, 0.0, 0.0, 0.0, 0.0, 0.0, 0.0, 1.700950197468068E9, 0.0, 2023-11-25 17:09:57.468
139.0, 14274.852189404035, 20514.85574422547, -53984.58140904682, -52365.398688959925, -66470.31056527025, -9008.557678289137, -36645.5509240092, 19054.795092915905, -0.25, 0.9400000000000001, 0.192, 192.0, 0.0, 0.0, 0.0, 0.0, 0.0, 0.0, 0.0, 0.0, 0.0, 1.700950197477328E9, 0.0, 2023-11-25 17:09:57.477
140.0, 14331.625620320514, 20553.814834811074, -53984.58140904682, -52352.56878764258, -66405.37874762759, -8896.70954903478, -36610.413981725455, 19074.509331525485, -0.25, 0.9400000000000001, 0.192, 192.0, 0.0, 0.0, 0.0, 0.0, 0.0, 0.0, 0.0, 0.0, 0.0, 1.700950197481171E9, 0.0, 2023-11-25 17:09:57.481
141.0, 14259.340078752051, 20446.101778280947, -54035.655145127195, -52418.729951230285, -66443.84609983518, -8965.172942301386, -36645.305054820186, 18998.535752121898, -0.25, 0.9400000000000001, 0.192, 192.0, 0.0, 0.0, 0.0, 0.0, 0.0, 0.0, 0.0, 0.0, 0.0, 1.700950197484166E9, 0.0, 2023-11-25 17:09:57.484
142.0, 14222.660866100892, 20434.70238860874, -54028.12260724576, -52407.73289295827, -66477.01608860685, -9040.8335972826, -36660.25837186079, 18998.312234677345, -0.25, 0.9400000000000001, 0.192, 192.0, 0.0, 0.0, 0.0, 0.0, 0.0, 0.0, 0.0, 0.0, 0.0, 1.700950197487238E9, 0.0, 2023-11-25 17:09:57.487
143.0, 14261.329384008573, 20516.15214540388, -54005.27912441244, -52368.103250039014, -66476.52435022884, -9026.662591297936, -36672.842403989125, 19008.884609804703, -0.25, 0.9400000000000001, 0.192, 192.0, 0.0, 0.0, 0.0, 0.0, 0.0, 0.0, 0.0, 0.0, 0.0, 1.700950197491129E9, 0.0, 2023-11-25 17:09:57.491
144.0, 14337.92881225691, 20579.765210123685, -53982.07801366783, -52332.56397635508, -66409.78204128529, -8936.093322765031, -36638.68893846142, 19034.455005461576, -0.25, 0.9400000000000001, 0.192, 192.0, 0.0, 0.0, 0.0, 0.0, 0.0, 0.0, 0.0, 0.0, 0.0, 1.700950197494214E9, 0.0, 2023-11-25 17:09:57.494
145.0, 14284.35168079754, 20480.14348508638, -54042.83005509735, -52405.74358770175, -66437.56525964323, -8953.34886948453, -36664.37109284056, 18988.90215026166, -0.25, 0.9400000000000001, 0.192, 192.0, 0.0, 0.0, 0.0, 0.0, 0.0, 0.0, 0.0, 0.0, 0.0, 1.700950197497169E9, 0.0, 2023-11-25 17:09:57.497
146.0, 14239.49172967574, 20443.553679413042, -54024.7027903441, -52398.389863775956, -66472.5904432047, -9058.357364935562, -36668.573220798164, 18998.736917821996, -0.25, 0.9400000000000001, 0.192, 192.0, 0.0, 0.0, 0.0, 0.0, 0.0, 0.0, 0.0, 0.0, 0.0, 1.700950197500164E9, 0.0, 2023-11-25 17:09:57.500
147.0, 14271.790000413657, 20520.331921617024, -53999.75824353198, -52359.0060900457, -66470.77995190382, -9018.30303887165, -36656.346816581114, 19043.90979336617, -0.23800000000000002, 0.934, 0.194, 192.0, 248.0, 144.0, 29.0, 48.0, 6.0, 16.0, 0.0, 0.0, 0.0, 1.700950197504295E9, 0.0, 2023-11-25 17:09:57.504
148.0, 14336.811225034146, 20586.202512526812, -53977.04887116538, -52327.66894431936, -66424.95887577043, -8958.757991642713, -36627.49071448931, 19063.24405232001, -0.23800000000000002, 0.934, 0.194, 192.0, 0.0, 0.0, 0.0, 0.0, 0.0, 0.0, 0.0, 0.0, 0.0, 1.700950197507172E9, 0.0, 2023-11-25 17:09:57.507
149.0, 14299.662625749424, 20502.875209197427, -54037.957374806094, -52398.5686777316, -66430.03272176179, -8930.036000017644, -36647.56258101018, 19003.654301602164, -0.23800000000000002, 0.934, 0.194, 192.0, 0.0, 0.0, 0.0, 0.0, 0.0, 0.0, 0.0, 0.0, 0.0, 1.700950197511286E9, 0.0, 2023-11-25 17:09:57.511
150.0, 14227.62295336997, 20433.003656030138, -54034.78342709344, -52415.95833491783, -66479.72064968594, -9070.31554821915, -36677.02218020227, 18967.109199417737, -0.23800000000000002, 0.934, 0.194, 192.0, 0.0, 0.0, 0.0, 0.0, 0.0, 0.0, 0.0, 0.0, 0.0, 1.700950197515262E9, 0.0, 2023-11-25 17:09:57.515
151.0, 14248.432427457861, 20495.566188760542, -54016.16442396217, -52381.22372403428, -66480.1453328306, -9027.444902353871, -36667.388578342034, 19017.84765933128, -0.23800000000000002, 0.934, 0.194, 192.0, 0.0, 0.0, 0.0, 0.0, 0.0, 0.0, 0.0, 0.0, 0.0, 1.700950197519228E9, 0.0, 2023-11-25 17:09:57.519
152.0, 14324.048378950165, 20580.189893268336, -53980.04400492239, -52334.64268858942, -66438.01229453234, -8983.479021010282, -36642.15345885199, 19056.270308049956, -0.23800000000000002, 0.934, 0.194, 192.0, 0.0, 0.0, 0.0, 0.0, 0.0, 0.0, 0.0, 0.0, 0.0, 1.70095019752327E9, 0.0, 2023-11-25 17:09:57.523
153.0, 14322.684922538392, 20530.5466688331, -54030.626002624755, -52386.431680492366, -66417.60515184465, -8912.780453298146, -36646.93673216543, 19017.892362820192, -0.23800000000000002, 0.934, 0.194, 192.0, 0.0, 0.0, 0.0, 0.0, 0.0, 0.0, 0.0, 0.0, 0.0, 1.700950197528567E9, 0.0, 2023-11-25 17:09:57.528
154.0, 14236.027209285166, 20423.347702425446, -54048.55210167791, -52429.7270095023, -66484.74979218839, -9066.918083061944, -36693.69658156593, 18955.46394055652, -0.23800000000000002, 0.934, 0.194, 192.0, 0.0, 0.0, 0.0, 0.0, 0.0, 0.0, 0.0, 0.0, 0.0, 1.700950197531274E9, 0.0, 2023-11-25 17:09:57.531
155.0, 14242.95625006631, 20469.414647747835, -54034.828130582355, -52404.31307605661, -66495.88096092713, -9041.884129272, -36682.47600584936, 18996.367632909732, -0.23800000000000002, 0.934, 0.194, 192.0, 0.0, 0.0, 0.0, 0.0, 0.0, 0.0, 0.0, 0.0, 0.0, 1.700950197535258E9, 0.0, 2023-11-25 17:09:57.535
156.0, 14305.854058963545, 20558.21812846877, -53997.88069699773, -52359.229607490255, -66470.33291701472, -9018.079521427098, -36660.03485441623, 19023.122671022735, -0.23800000000000002, 0.934, 0.194, 192.0, 0.0, 0.0, 0.0, 0.0, 0.0, 0.0, 0.0, 0.0, 0.0, 1.700950197541631E9, 0.0, 2023-11-25 17:09:57.541
157.0, 14333.458463365849, 20541.700189316296, -54021.64060135372, -52383.280084524165, -66421.15907921303, -8907.930124751345, -36633.52568549224, 19026.609543157763, -0.24, 0.936, 0.186, 192.0, 248.0, 128.0, 29.0, 64.0, 5.0, 208.0, 0.0, 0.0, 0.0, 1.700950197544456E9, 0.0, 2023-11-25 17:09:57.544
158.0, 14246.95721232381, 20424.822917559497, -54038.71733411757, -52431.29163161417, -66474.80326590578, -9034.888033257488, -36667.92502020896, 18979.559121079343, -0.24, 0.936, 0.186, 192.0, 0.0, 0.0, 0.0, 0.0, 0.0, 0.0, 0.0, 0.0, 0.0, 1.700950197547382E9, 0.0, 2023-11-25 17:09:57.547
159.0, 14232.830909828057, 20445.52063292511, -54026.64739211171, -52411.666799982406, -66491.96940564745, -9036.050323969164, -36662.94058119543, 19009.33164469381, -0.24, 0.936, 0.186, 192.0, 0.0, 0.0, 0.0, 0.0, 0.0, 0.0, 0.0, 0.0, 0.0, 1.700950197553361E9, 0.0, 2023-11-25 17:09:57.553
160.0, 14289.872561678001, 20533.072415956547, -53983.083842168315, -52357.7096888673, -66466.98015534642, -9012.44688182436, -36638.800697183695, 19054.68333419363, -0.24, 0.936, 0.186, 192.0, 0.0, 0.0, 0.0, 0.0, 0.0, 0.0, 0.0, 0.0, 0.0, 1.700950197557409E9, 0.0, 2023-11-25 17:09:57.557
161.0, 14318.706312025346, 20526.992741464706, -54008.00603723598, -52376.10517455402, -66421.36024491313, -8903.638589815926, -36611.62097592604, 19063.132293597733, -0.24, 0.936, 0.186, 192.0, 0.0, 0.0, 0.0, 0.0, 0.0, 0.0, 0.0, 0.0, 0.0, 1.700950197566357E9, 0.0, 2023-11-25 17:09:57.566
162.0, 14234.95432555131, 20410.22722843018, -54045.78048536545, -52438.511245073234, -66472.29987052678, -9010.278762612195, -36655.29628459171, 18994.020699741926, -0.24, 0.936, 0.186, 192.0, 0.0, 0.0, 0.0, 0.0, 0.0, 0.0, 0.0, 0.0, 0.0, 1.700950197569398E9, 0.0, 2023-11-25 17:09:57.569
163.0, 14233.255592972708, 20436.311714209525, -54015.27035418396, -52401.63086672198, -66476.7925711623, -9035.424475124417, -36649.52953452224, 19021.80391809987, -0.24, 0.936, 0.186, 192.0, 0.0, 0.0, 0.0, 0.0, 0.0, 0.0, 0.0, 0.0, 0.0, 1.700950197572498E9, 0.0, 2023-11-25 17:09:57.572
164.0, 14282.45178251884, 20526.41159610887, -53987.26361838146, -52359.14020051244, -66468.5894809472, -9017.900707471455, -36648.74722346631, 19036.779586884928, -0.24, 0.936, 0.186, 192.0, 0.0, 0.0, 0.0, 0.0, 0.0, 0.0, 0.0, 0.0, 0.0, 1.700950197576509E9, 0.0, 2023-11-25 17:09:57.576
165.0, 14337.012390734244, 20565.124817505457, -53989.56584806035, -52350.847703319516, -66411.03373897479, -8923.039904003132, -36618.97469985184, 19044.356828255277, -0.24, 0.936, 0.186, 192.0, 0.0, 0.0, 0.0, 0.0, 0.0, 0.0, 0.0, 0.0, 0.0, 1.700950197579411E9, 0.0, 2023-11-25 17:09:57.579
166.0, 14271.924110880389, 20455.28834525208, -54037.063305027885, -52413.81256745012, -66443.55552715725, -8979.299244797141, -36656.23505785884, 18986.488161860485, -0.246, 0.9420000000000001, 0.188, 192.0, 248.0, 80.0, 29.0, 112.0, 5.0, 224.0, 0.0, 0.0, 0.0, 1.700950197582455E9, 0.0, 2023-11-25 17:09:57.582
167.0, 14237.055389530111, 20437.719874110207, -54023.629906610244, -52400.625038221486, -66473.12688507163, -9054.825789311622, -36671.031912688246, 18994.870066031228, -0.246, 0.9420000000000001, 0.188, 192.0, 0.0, 0.0, 0.0, 0.0, 0.0, 0.0, 0.0, 0.0, 0.0, 1.700950197585444E9, 0.0, 2023-11-25 17:09:57.585
168.0, 14278.786096428168, 20522.388282106913, -53996.13726093021, -52356.927377811364, -66467.1366175576, -9022.393408106973, -36659.23019161585, 19032.823328116338, -0.246, 0.9420000000000001, 0.188, 192.0, 0.0, 0.0, 0.0, 0.0, 0.0, 0.0, 0.0, 0.0, 0.0, 1.700950197589586E9, 0.0, 2023-11-25 17:09:57.589
169.0, 14345.059018738153, 20577.530035678155, -53977.04887116538, -52330.50761586519, -66409.53617209628, -8940.273098978174, -36617.20891203987, 19067.960270400083, -0.246, 0.9420000000000001, 0.188, 192.0, 0.0, 0.0, 0.0, 0.0, 0.0, 0.0, 0.0, 0.0, 0.0, 1.700950197592526E9, 0.0, 2023-11-25 17:09:57.592
170.0, 14301.741337983769, 20486.3349183005, -54026.49092990052, -52396.780538175175, -66422.85781179165, -8946.710401381302, -36648.657816488485, 19002.91669403514, -0.246, 0.9420000000000001, 0.188, 192.0, 0.0, 0.0, 0.0, 0.0, 0.0, 0.0, 0.0, 0.0, 0.0, 1.700950197595702E9, 0.0, 2023-11-25 17:09:57.595
171.0, 14242.86684308849, 20432.355455440935, -54019.49483388601, -52405.05068362364, -66469.93058561452, -9070.69552787489, -36675.61402030158, 18976.295766388866, -0.246, 0.9420000000000001, 0.188, 192.0, 0.0, 0.0, 0.0, 0.0, 0.0, 0.0, 0.0, 0.0, 0.0, 1.700950197598548E9, 0.0, 2023-11-25 17:09:57.598
172.0, 14272.818180658602, 20507.412613321856, -53996.6960545416, -52367.29858723863, -66468.65653618057, -9031.401161122461, -36655.60920901409, 19032.130424038223, -0.246, 0.9420000000000001, 0.188, 192.0, 0.0, 0.0, 0.0, 0.0, 0.0, 0.0, 0.0, 0.0, 0.0, 1.700950197602513E9, 0.0, 2023-11-25 17:09:57.602
173.0, 14342.734437314803, 20574.847826343517, -53964.80011520388, -52330.61937458746, -66418.00748324484, -8970.805581904124, -36623.132124320524, 19069.033154133936, -0.246, 0.9420000000000001, 0.188, 192.0, 0.0, 0.0, 0.0, 0.0, 0.0, 0.0, 0.0, 0.0, 0.0, 1.700950197606688E9, 0.0, 2023-11-25 17:09:57.606
174.0, 14316.314675368629, 20500.595331262986, -54017.52788037394, -52391.93020962837, -66411.10079420815, -8927.778473827657, -36634.82208667065, 19023.882630334214, -0.246, 0.9420000000000001, 0.188, 192.0, 0.0, 0.0, 0.0, 0.0, 0.0, 0.0, 0.0, 0.0, 0.0, 1.700950197610956E9, 0.0, 2023-11-25 17:09:57.610
175.0, 14235.468415673784, 20414.697577321243, -54025.64156361122, -52421.121587887006, -66473.55156821628, -9081.156144279974, -36677.58097381365, 18968.003269195946, -0.246, 0.9420000000000001, 0.188, 192.0, 0.0, 0.0, 0.0, 0.0, 0.0, 0.0, 0.0, 0.0, 0.0, 1.700950197615555E9, 0.0, 2023-11-25 17:09:57.615
176.0, 14260.144741552442, 20485.4855520112, -54004.98855173452, -52383.54830545763, -66474.95972811696, -9047.628527597015, -36670.87545047706, 18997.932255021602, -0.24, 0.9420000000000001, 0.184, 192.0, 248.0, 128.0, 29.0, 112.0, 5.0, 192.0, 0.0, 0.0, 0.0, 1.700950197622759E9, 0.0, 2023-11-25 17:09:57.622
177.0, 14343.941431515388, 20584.392021225933, -53955.322975554824, -52325.2996594071, -66424.60124785916, -8996.040701394166, -36629.59177846811, 19045.474415478042, -0.24, 0.9420000000000001, 0.184, 192.0, 0.0, 0.0, 0.0, 0.0, 0.0, 0.0, 0.0, 0.0, 0.0, 1.700950197625596E9, 0.0, 2023-11-25 17:09:57.625
178.0, 14335.470120366826, 20532.11129094497, -54009.41419713667, -52377.53568619915, -66405.4681546054, -8909.874726518956, -36629.3459092791, 19037.517194451953, -0.24, 0.9420000000000001, 0.184, 192.0, 0.0, 0.0, 0.0, 0.0, 0.0, 0.0, 0.0, 0.0, 0.0, 1.700950197628746E9, 0.0, 2023-11-25 17:09:57.628
179.0, 14247.851282102023, 20430.00852227313, -54023.294630443415, -52413.410236049924, -66464.74498090088, -9061.754830092768, -36669.132014409544, 18992.031394485402, -0.24, 0.9420000000000001, 0.184, 192.0, 0.0, 0.0, 0.0, 0.0, 0.0, 0.0, 0.0, 0.0, 0.0, 1.700950197632649E9, 0.0, 2023-11-25 17:09:57.632
180.0, 14256.34494499504, 20481.261072309146, -54000.38409237672, -52377.89331411044, -66466.24254777939, -9039.760713548745, -36653.82106945766, 19028.33062748082, -0.24, 0.9420000000000001, 0.184, 192.0, 0.0, 0.0, 0.0, 0.0, 0.0, 0.0, 0.0, 0.0, 0.0, 1.700950197635678E9, 0.0, 2023-11-25 17:09:57.635
181.0, 14316.493489324272, 20565.705962861295, -53962.52023726943, -52332.60867984399, -66440.13571025559, -9019.241812138775, -36635.358528537574, 19051.643496947705, -0.24, 0.9420000000000001, 0.184, 192.0, 0.0, 0.0, 0.0, 0.0, 0.0, 0.0, 0.0, 0.0, 0.0, 1.700950197639616E9, 0.0, 2023-11-25 17:09:57.639
182.0, 14335.760693044745, 20541.566078849566, -53996.76310977496, -52365.01870930418, -66397.66739579052, -8911.484052119738, -36615.08549631661, 19047.66488643466, -0.24, 0.9420000000000001, 0.184, 192.0, 0.0, 0.0, 0.0, 0.0, 0.0, 0.0, 0.0, 0.0, 0.0, 1.700950197643629E9, 0.0, 2023-11-25 17:09:57.643
183.0, 14237.703590119314, 20413.915266265307, -54035.74455210502, -52430.46461706932, -66467.06956232424, -9051.517731132237, -36669.73551150984, 18973.90412973215, -0.24, 0.9420000000000001, 0.184, 192.0, 0.0, 0.0, 0.0, 0.0, 0.0, 0.0, 0.0, 0.0, 0.0, 1.700950197647678E9, 0.0, 2023-11-25 17:09:57.647
184.0, 14228.29350570363, 20439.440958433268, -54019.94186877512, -52403.351951045035, -66480.74882993089, -9054.781085822713, -36659.565467782675, 19008.147002237678, -0.24, 0.9420000000000001, 0.184, 192.0, 0.0, 0.0, 0.0, 0.0, 0.0, 0.0, 0.0, 0.0, 0.0, 1.700950197652061E9, 0.0, 2023-11-25 17:09:57.652
185.0, 14288.509105266226, 20535.73227354673, -53975.73011824252, -52348.545473640625, -66456.7877598748, -9022.706332529347, -36631.51402849126, 19060.87476740775, -0.24, 0.9420000000000001, 0.184, 192.0, 0.0, 0.0, 0.0, 0.0, 0.0, 0.0, 0.0, 0.0, 0.0, 1.700950197656849E9, 0.0, 2023-11-25 17:09:57.656
186.0, 14333.190242432385, 20547.198718452302, -53990.214048649555, -52357.486171422745, -66404.03764296028, -8909.226525929753, -36597.58408040811, 19078.420886805165, -0.25, 0.9400000000000001, 0.184, 192.0, 248.0, 48.0, 29.0, 96.0, 5.0, 192.0, 0.0, 0.0, 0.0, 1.700950197660769E9, 0.0, 2023-11-25 17:09:57.660
187.0, 14242.039828543644, 20420.821955301995, -54043.6570696422, -52434.15265490445, -66465.28142276782, -9015.889050470478, -36653.08346189064, 18997.820496299326, -0.25, 0.9400000000000001, 0.184, 192.0, 0.0, 0.0, 0.0, 0.0, 0.0, 0.0, 0.0, 0.0, 0.0, 1.700950197663937E9, 0.0, 2023-11-25 17:09:57.663
188.0, 14219.039883499132, 20421.157231468827, -54026.75915083398, -52415.578355262085, -66487.7449259454, -9060.927815547922, -36657.330293337145, 19019.121708765237, -0.25, 0.9400000000000001, 0.184, 192.0, 0.0, 0.0, 0.0, 0.0, 0.0, 0.0, 0.0, 0.0, 0.0, 1.70095019766676E9, 0.0, 2023-11-25 17:09:57.666
189.0, 14272.326442280584, 20509.826601723027, -53992.82920275083, -52369.153782028414, -66478.11132408516, -9031.289402400185, -36641.57231349615, 19055.71151443857, -0.25, 0.9400000000000001, 0.184, 192.0, 0.0, 0.0, 0.0, 0.0, 0.0, 0.0, 0.0, 0.0, 0.0, 1.700950197671735E9, 0.0, 2023-11-25 17:09:57.671
190.0, 14338.286440168196, 20549.076264986546, -53988.98470270452, -52356.97208130027, -66421.65081759106, -8935.176901242365, -36601.02624905422, 19070.083686123337, -0.25, 0.9400000000000001, 0.184, 192.0, 0.0, 0.0, 0.0, 0.0, 0.0, 0.0, 0.0, 0.0, 0.0, 1.700950197675714E9, 0.0, 2023-11-25 17:09:57.675
191.0, 14279.769573184201, 20438.077502021493, -54037.26447072798, -52423.71439024382, -66451.55745167226, -8982.339082043061, -36642.75695595228, 19006.872952803726, -0.25, 0.9400000000000001, 0.184, 192.0, 0.0, 0.0, 0.0, 0.0, 0.0, 0.0, 0.0, 0.0, 0.0, 1.700950197678844E9, 0.0, 2023-11-25 17:09:57.678
192.0, 14231.221584227274, 20402.739394037653, -54029.48606365753, -52419.80283496414, -66488.61664397916, -9074.763545365757, -36674.22821214535, 19001.732051579005, -0.25, 0.9400000000000001, 0.184, 192.0, 0.0, 0.0, 0.0, 0.0, 0.0, 0.0, 0.0, 0.0, 0.0, 1.700950197682803E9, 0.0, 2023-11-25 17:09:57.682
193.0, 14281.892988907455, 20497.01905215014, -53989.945827716096, -52366.53862792714, -66472.25516703787, -9042.26410892774, -36658.96197068238, 19040.646438675696, -0.25, 0.9400000000000001, 0.184, 192.0, 0.0, 0.0, 0.0, 0.0, 0.0, 0.0, 0.0, 0.0, 0.0, 1.700950197687835E9, 0.0, 2023-11-25 17:09:57.687
194.0, 14356.726629343824, 20565.795369839117, -53969.15870537266, -52337.99545025772, -66414.69942506545, -8963.317747511595, -36615.934862605915, 19068.228491333546, -0.25, 0.9400000000000001, 0.184, 192.0, 0.0, 0.0, 0.0, 0.0, 0.0, 0.0, 0.0, 0.0, 0.0, 1.700950197692777E9, 0.0, 2023-11-25 17:09:57.692
195.0, 14299.573218771604, 20464.363153500934, -54044.57349116487, -52425.793102478165, -66448.02587604831, -8980.036852364165, -36659.2525433603, 18998.781621310907, -0.25, 0.9400000000000001, 0.184, 192.0, 0.0, 0.0, 0.0, 0.0, 0.0, 0.0, 0.0, 0.0, 0.0, 1.70095019769583E9, 0.0, 2023-11-25 17:09:57.695
196.0, 14246.0631425456, 20419.123222723392, -54032.81647358138, -52430.01758218022, -66492.97523414793, -9109.721673693857, -36683.92886923896, 18983.627138570206, -0.252, 0.936, 0.184, 192.0, 248.0, 32.0, 29.0, 64.0, 5.0, 192.0, 0.0, 0.0, 0.0, 1.700950197698888E9, 0.0, 2023-11-25 17:09:57.698
197.0, 14276.573273727094, 20497.53314227261, -54009.81652853687, -52393.27131429569, -66492.41644053656, -9074.920007576944, -36675.41285460149, 19026.184860013112, -0.252, 0.936, 0.184, 192.0, 0.0, 0.0, 0.0, 0.0, 0.0, 0.0, 0.0, 0.0, 0.0, 1.700950197703866E9, 0.0, 2023-11-25 17:09:57.703
198.0, 14339.560489602149, 20571.249195486213, -53980.62515027823, -52358.044965034125, -66448.1823382595, -9030.082408199598, -36648.45665078839, 19040.08764506431, -0.252, 0.936, 0.184, 192.0, 0.0, 0.0, 0.0, 0.0, 0.0, 0.0, 0.0, 0.0, 0.0, 1.700950197706863E9, 0.0, 2023-11-25 17:09:57.706
199.0, 14313.476003822805, 20499.09776438448, -54032.391790436726, -52418.61819250801, -66437.92288755452, -8979.455707008328, -36654.62573225805, 18989.460943873044, -0.252, 0.936, 0.184, 192.0, 0.0, 0.0, 0.0, 0.0, 0.0, 0.0, 0.0, 0.0, 0.0, 1.700950197710853E9, 0.0, 2023-11-25 17:09:57.710
200.0, 14235.110787762498, 20413.42352788729, -54033.19645323711, -52443.07100094212, -66491.67883296953, -9120.875194177055, -36677.26804939128, 18959.50960630293, -0.252, 0.936, 0.184, 192.0, 0.0, 0.0, 0.0, 0.0, 0.0, 0.0, 0.0, 0.0, 0.0, 1.700950197714827E9, 0.0, 2023-11-25 17:09:57.714
201.0, 14253.282756004663, 20476.142522828883, -54014.08571172783, -52408.872831925495, -66492.48349576992, -9083.681891403425, -36664.90753470749, 19015.768947096938, -0.252, 0.936, 0.184, 192.0, 0.0, 0.0, 0.0, 0.0, 0.0, 0.0, 0.0, 0.0, 0.0, 1.700950197729899E9, 0.0, 2023-11-25 17:09:57.729
202.0, 14331.290344153686, 20574.624308898965, -53965.314205326344, -52350.02068877467, -66444.71781786894, -9037.302021658663, -36623.489752231806, 19066.909738410683, -0.252, 0.936, 0.184, 192.0, 0.0, 0.0, 0.0, 0.0, 0.0, 0.0, 0.0, 0.0, 0.0, 1.700950197733904E9, 0.0, 2023-11-25 17:09:57.733
203.0, 14334.866623266535, 20536.53693634712, -54010.777653548445, -52393.53953522915, -66415.21351518792, -8939.826064089068, -36607.77647587973, 19058.170206328658, -0.252, 0.936, 0.184, 192.0, 0.0, 0.0, 0.0, 0.0, 0.0, 0.0, 0.0, 0.0, 0.0, 1.700950197736896E9, 0.0, 2023-11-25 17:09:57.736
204.0, 14246.465473945795, 20427.169850727303, -54032.01181078098, -52437.84069273957, -66481.01705086435, -9092.935513607921, -36654.78219446924, 18991.025565984914, -0.252, 0.936, 0.184, 192.0, 0.0, 0.0, 0.0, 0.0, 0.0, 0.0, 0.0, 0.0, 0.0, 1.700950197739898E9, 0.0, 2023-11-25 17:09:57.739
205.0, 14255.696744405835, 20474.39908676137, -54015.873851284254, -52403.44135802286, -66487.07437361174, -9072.573074409136, -36646.132069365034, 19029.850546103782, -0.252, 0.936, 0.184, 192.0, 0.0, 0.0, 0.0, 0.0, 0.0, 0.0, 0.0, 0.0, 0.0, 1.700950197742886E9, 0.0, 2023-11-25 17:09:57.742
206.0, 14330.150405186465, 20576.703021133308, -53964.46483903704, -52339.56007236959, -66448.5846696597, -9040.40891413795, -36618.460609729365, 19073.950537914105, -0.246, 0.9380000000000001, 0.19, 192.0, 248.0, 80.0, 29.0, 80.0, 5.0, 240.0, 0.0, 0.0, 0.0, 1.700950197745941E9, 0.0, 2023-11-25 17:09:57.745
207.0, 14356.950146788377, 20561.1015035035, -53992.96331321756, -52364.03523254815, -66401.19897141444, -8927.890232549935, -36592.42082743893, 19067.58029074434, -0.246, 0.9380000000000001, 0.19, 192.0, 0.0, 0.0, 0.0, 0.0, 0.0, 0.0, 0.0, 0.0, 0.0, 1.700950197749919E9, 0.0, 2023-11-25 17:09:57.749
208.0, 14261.888177619956, 20436.535231654078, -54031.02833402495, -52427.827111223596, -66466.10843731267, -9061.26309171475, -36645.05918563118, 18995.406507898155, -0.246, 0.9380000000000001, 0.19, 192.0, 0.0, 0.0, 0.0, 0.0, 0.0, 0.0, 0.0, 0.0, 0.0, 1.700950197758905E9, 0.0, 2023-11-25 17:09:57.758
209.0, 14252.679258904369, 20460.4292464768, -54012.74460706051, -52401.34029404406, -66478.33484152971, -9070.248492985786, -36642.578141996644, 19041.652267176185, -0.246, 0.9380000000000001, 0.19, 192.0, 0.0, 0.0, 0.0, 0.0, 0.0, 0.0, 0.0, 0.0, 0.0, 1.700950197759758E9, 0.0, 2023-11-25 17:09:57.759
210.0, 14313.185431144886, 20558.754570335695, -53965.269501837436, -52343.583386371545, -66452.67503889502, -9039.626603082013, -36619.19821729639, 19087.138067142736, -0.246, 0.9380000000000001, 0.19, 192.0, 0.0, 0.0, 0.0, 0.0, 0.0, 0.0, 0.0, 0.0, 0.0, 1.700950197759783E9, 0.0, 2023-11-25 17:09:57.759
211.0, 14358.112437500053, 20576.83713160004, -53980.02165317794, -52347.58434862904, -66399.5225905803, -8928.314915694586, -36586.51996690273, 19090.133200899745, -0.246, 0.9380000000000001, 0.19, 192.0, 0.0, 0.0, 0.0, 0.0, 0.0, 0.0, 0.0, 0.0, 0.0, 1.700950197762996E9, 0.0, 2023-11-25 17:09:57.762
212.0, 14282.697651707847, 20458.976383087207, -54024.680438599644, -52413.633753494476, -66446.86358533664, -9018.481852827294, -36640.03004312874, 19004.302502191367, -0.246, 0.9380000000000001, 0.19, 192.0, 0.0, 0.0, 0.0, 0.0, 0.0, 0.0, 0.0, 0.0, 0.0, 1.700950197765958E9, 0.0, 2023-11-25 17:09:57.765
213.0, 14244.945555322833, 20445.677095136296, -54016.924383273654, -52406.347084802044, -66479.16185607456, -9070.673176130436, -36653.552848524196, 19012.75146159547, -0.246, 0.9380000000000001, 0.19, 192.0, 0.0, 0.0, 0.0, 0.0, 0.0, 0.0, 0.0, 0.0, 0.0, 1.700950197768955E9, 0.0, 2023-11-25 17:09:57.768
214.0, 14298.366224571017, 20538.146261947903, -53973.11496414125, -52347.204368973304, -66459.17939653152, -9031.334105889095, -36631.64813895799, 19075.939843170625, -0.246, 0.9380000000000001, 0.19, 192.0, 0.0, 0.0, 0.0, 0.0, 0.0, 0.0, 0.0, 0.0, 0.0, 1.700950197771973E9, 0.0, 2023-11-25 17:09:57.771
215.0, 14353.55268163117, 20572.07621003106, -53973.91962694164, -52338.464836891275, -66408.06095696223, -8938.86493907749, -36607.91058634646, 19095.564674802386, -0.246, 0.9380000000000001, 0.19, 192.0, 0.0, 0.0, 0.0, 0.0, 0.0, 0.0, 0.0, 0.0, 0.0, 1.70095019777598E9, 0.0, 2023-11-25 17:09:57.775
216.0, 14298.723852482302, 20473.95205187226, -54020.79123506442, -52404.31307605661, -66432.98315202989, -8982.294378554152, -36647.71904322136, 19019.501688420976, -0.242, 0.9400000000000001, 0.192, 192.0, 248.0, 112.0, 29.0, 96.0, 6.0, 0.0, 0.0, 0.0, 0.0, 1.700950197779027E9, 0.0, 2023-11-25 17:09:57.779
217.0, 14258.758933396213, 20445.587688158477, -54000.987589477016, -52392.310189284115, -66462.24158552189, -9067.566283651147, -36644.053357130695, 19032.130424038223, -0.242, 0.9400000000000001, 0.192, 192.0, 0.0, 0.0, 0.0, 0.0, 0.0, 0.0, 0.0, 0.0, 0.0, 1.700950197783014E9, 0.0, 2023-11-25 17:09:57.783
218.0, 14298.522686782204, 20528.043273454103, -53972.13148738522, -52348.09843875151, -66456.45248370797, -9033.055190212153, -36632.74337443631, 19076.185712359635, -0.242, 0.9400000000000001, 0.192, 192.0, 0.0, 0.0, 0.0, 0.0, 0.0, 0.0, 0.0, 0.0, 0.0, 1.700950197785997E9, 0.0, 2023-11-25 17:09:57.785
219.0, 14367.947205060389, 20593.84680913053, -53952.886635409195, -52321.410455871875, -66407.81508777323, -8969.151552814432, -36609.788132880705, 19087.96508168758, -0.242, 0.9400000000000001, 0.192, 192.0, 0.0, 0.0, 0.0, 0.0, 0.0, 0.0, 0.0, 0.0, 0.0, 1.700950197790043E9, 0.0, 2023-11-25 17:09:57.790
220.0, 14320.44974809286, 20502.003491163672, -54015.62798209524, -52398.50162249823, -66423.68482633648, -8957.752163142224, -36630.01646161276, 19032.353941482776, -0.242, 0.9400000000000001, 0.192, 192.0, 0.0, 0.0, 0.0, 0.0, 0.0, 0.0, 0.0, 0.0, 0.0, 1.700950197794026E9, 0.0, 2023-11-25 17:09:57.794
221.0, 14244.118540777987, 20425.985208271173, -54015.82914779534, -52418.68524774138, -66478.2901380408, -9098.724615421846, -36667.79090974223, 18997.462868388044, -0.242, 0.9400000000000001, 0.192, 192.0, 0.0, 0.0, 0.0, 0.0, 0.0, 0.0, 0.0, 0.0, 0.0, 1.700950197799135E9, 0.0, 2023-11-25 17:09:57.799
222.0, 14272.617014958503, 20498.762488217653, -53988.22474339304, -52377.692148410344, -66471.27169028184, -9065.889902817, -36659.9007439495, 19038.23245027452, -0.242, 0.9400000000000001, 0.192, 192.0, 0.0, 0.0, 0.0, 0.0, 0.0, 0.0, 0.0, 0.0, 0.0, 1.700950197803474E9, 0.0, 2023-11-25 17:09:57.803
223.0, 14347.763579817247, 20575.160750765892, -53952.93133889811, -52333.03336298864, -66422.54488736927, -9017.744245260268, -36623.53445572072, 19069.591947745317, -0.242, 0.9400000000000001, 0.192, 192.0, 0.0, 0.0, 0.0, 0.0, 0.0, 0.0, 0.0, 0.0, 0.0, 1.700950197807094E9, 0.0, 2023-11-25 17:09:57.807
224.0, 14336.36419014504, 20514.274598869633, -54001.99341797751, -52383.905933368915, -66403.9705877269, -8943.335287968552, -36609.519911947245, 19045.072084077845, -0.242, 0.9400000000000001, 0.192, 192.0, 0.0, 0.0, 0.0, 0.0, 0.0, 0.0, 0.0, 0.0, 0.0, 1.700950197811077E9, 0.0, 2023-11-25 17:09:57.811
225.0, 14258.647174673937, 20422.073652991494, -54009.97299074805, -52412.873794183, -66463.73915240039, -9093.494307219304, -36643.22634258585, 18997.060536987847, -0.242, 0.9400000000000001, 0.192, 192.0, 0.0, 0.0, 0.0, 0.0, 0.0, 0.0, 0.0, 0.0, 0.0, 1.700950197814069E9, 0.0, 2023-11-25 17:09:57.814
226.0, 14290.431355289384, 20491.766392203142, -53980.26752236695, -52365.7116133823, -66453.79262611779, -9046.98032700781, -36626.842513900105, 19051.084703336324, -0.246, 0.9420000000000001, 0.19, 192.0, 248.0, 80.0, 29.0, 112.0, 5.0, 240.0, 0.0, 0.0, 0.0, 1.700950197818132E9, 0.0, 2023-11-25 17:09:57.818
227.0, 14361.46519916835, 20578.22293975627, -53933.26180377744, -52309.608734799476, -66411.05609071924, -9006.546021288159, -36597.85230134157, 19087.674509009663, -0.246, 0.9420000000000001, 0.19, 192.0, 0.0, 0.0, 0.0, 0.0, 0.0, 0.0, 0.0, 0.0, 0.0, 1.700950197822562E9, 0.0, 2023-11-25 17:09:57.822
228.0, 14371.232911495319, 20540.314381160068, -53973.3384815858, -52351.00416553071, -66377.50612229182, -8907.840717773524, -36580.95438253336, 19073.101171624803, -0.246, 0.9420000000000001, 0.19, 192.0, 0.0, 0.0, 0.0, 0.0, 0.0, 0.0, 0.0, 0.0, 0.0, 1.700950197827114E9, 0.0, 2023-11-25 17:09:57.827
229.0, 14278.763744683713, 20418.676187834288, -54008.9001070142, -52413.09731162755, -66454.79845461827, -9066.403992939471, -36636.833743671625, 18994.04305148638, -0.246, 0.9420000000000001, 0.19, 192.0, 0.0, 0.0, 0.0, 0.0, 0.0, 0.0, 0.0, 0.0, 0.0, 1.700950197831088E9, 0.0, 2023-11-25 17:09:57.831
230.0, 14290.677224478392, 20456.38358073039, -53989.92347597164, -52384.24120953574, -66462.95684134446, -9060.36902193654, -36628.85417090108, 19023.212078000557, -0.246, 0.9420000000000001, 0.19, 192.0, 0.0, 0.0, 0.0, 0.0, 0.0, 0.0, 0.0, 0.0, 0.0, 1.70095019783513E9, 0.0, 2023-11-25 17:09:57.835
231.0, 14351.719838585836, 20541.38726489392, -53952.08197260881, -52335.91673802337, -66441.8344428342, -9033.368114634528, -36603.52964443322, 19071.670659979663, -0.246, 0.9420000000000001, 0.19, 192.0, 0.0, 0.0, 0.0, 0.0, 0.0, 0.0, 0.0, 0.0, 0.0, 1.70095019783912E9, 0.0, 2023-11-25 17:09:57.839
232.0, 14378.9442633324, 20529.87611649944, -53983.01678693495, -52358.804924345604, -66400.90839873653, -8925.208023215297, -36582.63076336751, 19082.77947697395, -0.246, 0.9420000000000001, 0.19, 192.0, 0.0, 0.0, 0.0, 0.0, 0.0, 0.0, 0.0, 0.0, 0.0, 1.700950197842148E9, 0.0, 2023-11-25 17:09:57.842
233.0, 14294.96875941381, 20410.808373786018, -54015.85149953979, -52416.360666318025, -66457.61477441965, -9043.582861850604, -36618.77353415174, 19018.182935498113, -0.246, 0.9420000000000001, 0.19, 192.0, 0.0, 0.0, 0.0, 0.0, 0.0, 0.0, 0.0, 0.0, 0.0, 1.70095019784624E9, 0.0, 2023-11-25 17:09:57.846
234.0, 14281.602416229536, 20430.85788856243, -53997.23249640853, -52389.091538082546, -66469.68471642552, -9054.937548033899, -36609.5422636917, 19049.073046335347, -0.246, 0.9420000000000001, 0.19, 192.0, 0.0, 0.0, 0.0, 0.0, 0.0, 0.0, 0.0, 0.0, 0.0, 1.700950197852683E9, 0.0, 2023-11-25 17:09:57.852
235.0, 14341.326277414117, 20528.4456048543, -53949.22094931853, -52328.339496653025, -66442.9296783125, -9026.64023955348, -36592.06319952765, 19087.853322965304, -0.246, 0.9420000000000001, 0.19, 192.0, 0.0, 0.0, 0.0, 0.0, 0.0, 0.0, 0.0, 0.0, 0.0, 1.700950197854191E9, 0.0, 2023-11-25 17:09:57.854
236.0, 14397.540914719215, 20553.74777957771, -53950.5844057303, -52323.26565066167, -66378.64606125905, -8914.00979924319, -36559.72022530082, 19102.3596051168, -0.248, 0.934, 0.19, 192.0, 248.0, 64.0, 29.0, 48.0, 5.0, 240.0, 0.0, 0.0, 0.0, 1.700950197859221E9, 0.0, 2023-11-25 17:09:57.859
237.0, 14311.062015421632, 20427.438071660767, -54011.51526111547, -52409.38692204797, -66439.3757509441, -9009.272934111706, -36620.2934527747, 19012.14796449518, -0.248, 0.934, 0.19, 192.0, 0.0, 0.0, 0.0, 0.0, 0.0, 0.0, 0.0, 0.0, 0.0, 1.700950197863255E9, 0.0, 2023-11-25 17:09:57.863
238.0, 14284.441087775362, 20421.85013554694, -53993.47740334003, -52395.595895719045, -66466.26489952384, -9077.579865167125, -36639.784173939726, 19008.124650493224, -0.248, 0.934, 0.19, 192.0, 0.0, 0.0, 0.0, 0.0, 0.0, 0.0, 0.0, 0.0, 0.0, 1.700950197867225E9, 0.0, 2023-11-25 17:09:57.867
239.0, 14335.31365815564, 20516.375662848433, -53947.432809762104, -52337.637822346434, -66444.67311438001, -9035.133902446498, -36616.784228895216, 19064.048715120403, -0.248, 0.934, 0.19, 192.0, 0.0, 0.0, 0.0, 0.0, 0.0, 0.0, 0.0, 0.0, 0.0, 1.700950197870235E9, 0.0, 2023-11-25 17:09:57.870
240.0, 14396.333920518628, 20564.02958202715, -53931.987754343485, -52313.74380752371, -66380.23303511537, -8935.020439031177, -36570.27024868372, 19107.12052668578, -0.248, 0.934, 0.19, 192.0, 0.0, 0.0, 0.0, 0.0, 0.0, 0.0, 0.0, 0.0, 0.0, 1.700950197874219E9, 0.0, 2023-11-25 17:09:57.874
241.0, 14341.92977451441, 20467.358287257946, -53985.27431312494, -52380.352006000525, -66403.65766330453, -8959.830875376569, -36601.24976649878, 19050.414151002664, -0.248, 0.934, 0.19, 192.0, 0.0, 0.0, 0.0, 0.0, 0.0, 0.0, 0.0, 0.0, 0.0, 1.700950197878244E9, 0.0, 2023-11-25 17:09:57.878
242.0, 14296.376919314494, 20434.47887116419, -53970.16453387315, -52370.070203551084, -66439.95689629995, -9062.715955104346, -36629.59177846811, 19032.175127527134, -0.248, 0.934, 0.19, 192.0, 0.0, 0.0, 0.0, 0.0, 0.0, 0.0, 0.0, 0.0, 0.0, 1.700950197882261E9, 0.0, 2023-11-25 17:09:57.882
243.0, 14331.35739938705, 20519.68372102782, -53945.5329114834, -52324.71851405127, -66434.88305030859, -9028.473082598815, -36631.08934534661, 19058.796055173403, -0.248, 0.934, 0.19, 192.0, 0.0, 0.0, 0.0, 0.0, 0.0, 0.0, 0.0, 0.0, 0.0, 1.700950197887331E9, 0.0, 2023-11-25 17:09:57.887
244.0, 14400.312531031674, 20592.393945740932, -53918.12967278119, -52286.3405688215, -66376.99203216935, -8960.456724221316, -36596.2876792297, 19089.797924732917, -0.248, 0.934, 0.19, 192.0, 0.0, 0.0, 0.0, 0.0, 0.0, 0.0, 0.0, 0.0, 0.0, 1.700950197891304E9, 0.0, 2023-11-25 17:09:57.891
245.0, 14367.991908549298, 20513.961674447262, -53970.47745829552, -52349.03721201864, -66378.17667462549, -8932.405284929906, -36606.81535086815, 19063.311107553378, -0.248, 0.934, 0.19, 192.0, 0.0, 0.0, 0.0, 0.0, 0.0, 0.0, 0.0, 0.0, 0.0, 1.700950197895305E9, 0.0, 2023-11-25 17:09:57.895
246.0, 14293.82882044659, 20438.703350866243, -53977.51825779895, -52376.641616420944, -66440.02395153332, -9077.624568656036, -36645.57327575365, 19027.794185613893, -0.246, 0.9400000000000001, 0.186, 192.0, 248.0, 80.0, 29.0, 96.0, 5.0, 208.0, 0.0, 0.0, 0.0, 1.700950197898438E9, 0.0, 2023-11-25 17:09:57.898
247.0, 14314.235963134286, 20502.11524988595, -53962.944920414084, -52348.41136317389, -66447.95882081495, -9053.417629410938, -36640.119450106555, 19057.879633650737, -0.246, 0.9400000000000001, 0.186, 192.0, 0.0, 0.0, 0.0, 0.0, 0.0, 0.0, 0.0, 0.0, 0.0, 1.70095019790233E9, 0.0, 2023-11-25 17:09:57.902
248.0, 14392.042385583209, 20585.93429159335, -53913.882841334686, -52291.50382179068, -66389.59841604215, -8996.152460116442, -36591.70557161636, 19098.425698092666, -0.246, 0.9400000000000001, 0.186, 192.0, 0.0, 0.0, 0.0, 0.0, 0.0, 0.0, 0.0, 0.0, 0.0, 1.700950197906302E9, 0.0, 2023-11-25 17:09:57.906
249.0, 14377.26788249825, 20525.182250163823, -53961.82733319132, -52342.242281704224, -66369.43714254345, -8919.776549312657, -36589.00101053727, 19070.709534968082, -0.246, 0.9400000000000001, 0.186, 192.0, 0.0, 0.0, 0.0, 0.0, 0.0, 0.0, 0.0, 0.0, 0.0, 1.700950197910306E9, 0.0, 2023-11-25 17:09:57.910
250.0, 14286.698613965347, 20420.93371402427, -53982.323882856836, -52384.71059616931, -66440.49333816688, -9080.820868113145, -36637.9960343833, 19011.835040072805, -0.246, 0.9400000000000001, 0.186, 192.0, 0.0, 0.0, 0.0, 0.0, 0.0, 0.0, 0.0, 0.0, 0.0, 1.700950197914338E9, 0.0, 2023-11-25 17:09:57.914
251.0, 14305.474079307805, 20478.91413914134, -53964.26367333695, -52350.95946204179, -66444.53900391329, -9059.31848994714, -36635.939673893416, 19045.586174200318, -0.246, 0.9400000000000001, 0.186, 192.0, 0.0, 0.0, 0.0, 0.0, 0.0, 0.0, 0.0, 0.0, 0.0, 1.700950197919902E9, 0.0, 2023-11-25 17:09:57.919
252.0, 14383.28050175673, 20576.948890322317, -53917.07914079179, -52293.314313091556, -66403.09886969315, -9020.538213317182, -36605.72011538984, 19085.215817119577, -0.246, 0.9400000000000001, 0.186, 192.0, 0.0, 0.0, 0.0, 0.0, 0.0, 0.0, 0.0, 0.0, 0.0, 1.70095019792442E9, 0.0, 2023-11-25 17:09:57.924
253.0, 14391.617702438558, 20539.800291037594, -53961.760277957954, -52335.29088917862, -66371.24763384434, -8918.927183023356, -36592.10790301656, 19078.622052505263, -0.246, 0.9400000000000001, 0.186, 192.0, 0.0, 0.0, 0.0, 0.0, 0.0, 0.0, 0.0, 0.0, 0.0, 1.700950197928494E9, 0.0, 2023-11-25 17:09:57.928
254.0, 14294.365262313517, 20418.340911667456, -53988.44826083759, -52389.18094506037, -66437.6323148766, -9062.827713826622, -36638.62188322805, 19018.607618642764, -0.246, 0.9400000000000001, 0.186, 192.0, 0.0, 0.0, 0.0, 0.0, 0.0, 0.0, 0.0, 0.0, 0.0, 1.700950197931519E9, 0.0, 2023-11-25 17:09:57.931
255.0, 14287.771497699201, 20451.33208648349, -53973.383185074716, -52363.990529059236, -66451.78096911681, -9058.491475402294, -36632.96689188086, 19045.85439513378, -0.246, 0.9400000000000001, 0.186, 192.0, 0.0, 0.0, 0.0, 0.0, 0.0, 0.0, 0.0, 0.0, 0.0, 1.700950197934513E9, 0.0, 2023-11-25 17:09:57.934
0.0, 14341.795664047679, 20538.50388985919, -53943.320088782326, -52321.05282796059, -66439.42045443303, -9043.225233939318, -36618.952348107385, 19072.855302435793, -0.242, 0.932, 0.19, 192.0, 248.0, 112.0, 29.0, 32.0, 5.0, 240.0, 0.0, 0.0, 0.0, 1.700950197938417E9, 0.0, 2023-11-25 17:09:57.938
1.0, 14381.067679055654, 20540.895526515906, -53966.92353092713, -52336.96727001277, -66389.97839569788, -8932.00295352971, -36589.40334193747, 19079.091439138825, -0.242, 0.932, 0.19, 192.0, 0.0, 0.0, 0.0, 0.0, 0.0, 0.0, 0.0, 0.0, 0.0, 1.70095019794242E9, 0.0, 2023-11-25 17:09:57.942
2.0, 14295.460497791828, 20412.440051131256, -54000.004112720984, -52396.37820677498, -66442.32618121221, -9042.711143816847, -36623.087420831616, 19016.730072108516, -0.242, 0.932, 0.19, 192.0, 0.0, 0.0, 0.0, 0.0, 0.0, 0.0, 0.0, 0.0, 0.0, 1.700950197946434E9, 0.0, 2023-11-25 17:09:57.946
3.0, 14263.162227053908, 20405.37689988338, -53985.117850913746, -52376.865133865496, -66461.25810876586, -9068.505056918271, -36621.455743486375, 19050.43650274712, -0.242, 0.932, 0.19, 192.0, 0.0, 0.0, 0.0, 0.0, 0.0, 0.0, 0.0, 0.0, 0.0, 1.700950197951882E9, 0.0, 2023-11-25 17:09:57.951
4.0, 14319.130995169997, 20499.81302020705, -53941.86722539273, -52319.376447126444, -66439.10753001065, -9045.773332807223, -36605.09426654509, 19084.232340363546, -0.242, 0.932, 0.19, 192.0, 0.0, 0.0, 0.0, 0.0, 0.0, 0.0, 0.0, 0.0, 0.0, 1.700950197958526E9, 0.0, 2023-11-25 17:09:57.958
5.0, 14380.777106377735, 20540.001456737693, -53941.75546667045, -52310.39104585541, -66376.09796239114, -8938.77553209967, -36567.58803934909, 19100.750279516018, -0.242, 0.932, 0.19, 192.0, 0.0, 0.0, 0.0, 0.0, 0.0, 0.0, 0.0, 0.0, 0.0, 1.70095019796155E9, 0.0, 2023-11-25 17:09:57.961
6.0, 14306.368149086018, 20420.95606576873, -53995.42200510765, -52386.006997347715, -66423.17073621402, -9007.64125676647, -36615.309013761165, 19022.966208811547, -0.242, 0.932, 0.19, 192.0, 0.0, 0.0, 0.0, 0.0, 0.0, 0.0, 0.0, 0.0, 0.0, 1.700950197964526E9, 0.0, 2023-11-25 17:09:57.964
7.0, 14265.643270688448, 20397.106754434917, -53988.604723048775, -52383.145974057436, -66461.32516399922, -9085.715900148858, -36640.2982640622, 19023.14502276719, -0.242, 0.932, 0.19, 192.0, 0.0, 0.0, 0.0, 0.0, 0.0, 0.0, 0.0, 0.0, 0.0, 1.700950197967619E9, 0.0, 2023-11-25 17:09:57.967
8.0, 14310.078538665599, 20484.546778744076, -53953.71364995404, -52334.59798510051, -66449.434035949, -9057.060963757154, -36630.91053139097, 19064.093418609315, -0.242, 0.932, 0.19, 192.0, 0.0, 0.0, 0.0, 0.0, 0.0, 0.0, 0.0, 0.0, 0.0, 1.700950197971561E9, 0.0, 2023-11-25 17:09:57.971
9.0, 14374.920949330444, 20541.610782338477, -53939.319126524824, -52309.87695573294, -66390.13485790907, -8962.356622500018, -36597.897004830484, 19095.899950969215, -0.242, 0.932, 0.19, 192.0, 0.0, 0.0, 0.0, 0.0, 0.0, 0.0, 0.0, 0.0, 0.0, 1.700950197974552E9, 0.0, 2023-11-25 17:09:57.974
10.0, 14320.270934137217, 20442.592554401464, -53998.21597316456, -52380.93315135636, -66414.431204132, -8971.54318947115, -36627.06603134466, 19056.67263945015, -0.252, 0.9400000000000001, 0.188, 192.0, 248.0, 32.0, 29.0, 96.0, 5.0, 224.0, 0.0, 0.0, 0.0, 1.700950197979588E9, 0.0, 2023-11-25 17:09:57.979
11.0, 14268.236073045264, 20400.32540563648, -53985.14020265821, -52378.1615350439, -66454.99962031837, -9081.536123935715, -36652.859944446085, 19058.05844760638, -0.252, 0.9400000000000001, 0.188, 192.0, 0.0, 0.0, 0.0, 0.0, 0.0, 0.0, 0.0, 0.0, 0.0, 1.700950197982734E9, 0.0, 2023-11-25 17:09:57.982
12.0, 14306.859887464034, 20481.730458942708, -53953.35602204276, -52331.08876122103, -66448.24939349286, -9048.41083865295, -36645.97560715385, 19087.674509009663, -0.252, 0.9400000000000001, 0.188, 192.0, 0.0, 0.0, 0.0, 0.0, 0.0, 0.0, 0.0, 0.0, 0.0, 1.700950197986602E9, 0.0, 2023-11-25 17:09:57.986
13.0, 14378.117248787554, 20548.83039579754, -53925.975135085006, -52296.4435573153, -66398.53911382427, -8989.469288524306, -36615.86780737255, 19106.67349179667, -0.252, 0.9400000000000001, 0.188, 192.0, 0.0, 0.0, 0.0, 0.0, 0.0, 0.0, 0.0, 0.0, 0.0, 1.700950197990581E9, 0.0, 2023-11-25 17:09:57.990
14.0, 14346.355419916561, 20465.659554679343, -53984.067318924346, -52364.03523254815, -66400.8189917587, -8958.065087564599, -36628.742412178806, 19059.91364239617, -0.252, 0.9400000000000001, 0.188, 192.0, 0.0, 0.0, 0.0, 0.0, 0.0, 0.0, 0.0, 0.0, 0.0, 1.700950197995625E9, 0.0, 2023-11-25 17:09:57.995
15.0, 14281.960044140822, 20397.84436200194, -53980.13341190021, -52381.84957287903, -66452.49622493937, -9104.804289913689, -36660.191316627424, 19021.312179721856, -0.252, 0.9400000000000001, 0.188, 192.0, 0.0, 0.0, 0.0, 0.0, 0.0, 0.0, 0.0, 0.0, 0.0, 1.700950197999653E9, 0.0, 2023-11-25 17:09:57.999
16.0, 14301.83074496159, 20469.302889025555, -53964.37543205923, -52353.015822531685, -66454.686695896, -9075.970539566344, -36653.485793290834, 19046.837871889817, -0.252, 0.9400000000000001, 0.188, 192.0, 0.0, 0.0, 0.0, 0.0, 0.0, 0.0, 0.0, 0.0, 0.0, 1.700950198002655E9, 0.0, 2023-11-25 17:09:58.002
17.0, 14374.853894097078, 20559.670991858362, -53924.8798996067, -52305.54071730861, -66407.50216335084, -9031.937602989388, -36615.644289927994, 19079.940805428127, -0.252, 0.9400000000000001, 0.188, 192.0, 0.0, 0.0, 0.0, 0.0, 0.0, 0.0, 0.0, 0.0, 0.0, 1.700950198007622E9, 0.0, 2023-11-25 17:09:58.007
18.0, 14362.582786391114, 20501.265883596647, -53977.853533965776, -52360.68247087985, -66388.21260788591, -8949.884349093956, -36614.86197887206, 19056.896156894705, -0.252, 0.9400000000000001, 0.188, 192.0, 0.0, 0.0, 0.0, 0.0, 0.0, 0.0, 0.0, 0.0, 0.0, 1.700950198010628E9, 0.0, 2023-11-25 17:09:58.010
19.0, 14274.449858003838, 20396.70442303472, -53993.1421271732, -52401.49675625524, -66454.79845461827, -9108.358217282082, -36660.41483407198, 18991.62906308521, -0.252, 0.9400000000000001, 0.188, 192.0, 0.0, 0.0, 0.0, 0.0, 0.0, 0.0, 0.0, 0.0, 0.0, 1.700950198014636E9, 0.0, 2023-11-25 17:09:58.014
20.0, 14288.73262271078, 20448.91809808232, -53977.11592639875, -52370.494886695735, -66462.15217854407, -9084.665368159458, -36643.74043270832, 19028.77766236993, -0.252, 0.9480000000000001, 0.194, 192.0, 248.0, 32.0, 29.0, 160.0, 6.0, 16.0, 0.0, 0.0, 0.0, 1.700950198018683E9, 0.0, 2023-11-25 17:09:58.018
21.0, 14364.46033292536, 20551.803177810096, -53934.513501466936, -52312.29094413411, -66428.22223046092, -9048.12026597503, -36614.70551666088, 19073.324689069355, -0.252, 0.9480000000000001, 0.194, 192.0, 0.0, 0.0, 0.0, 0.0, 0.0, 0.0, 0.0, 0.0, 0.0, 1.700950198022699E9, 0.0, 2023-11-25 17:09:58.022
22.0, 14372.46225744036, 20520.62249429494, -53980.4910398115, -52350.423020174865, -66395.94631146746, -8940.898947822923, -36598.65696414196, 19087.138067142736, -0.252, 0.9480000000000001, 0.194, 192.0, 0.0, 0.0, 0.0, 0.0, 0.0, 0.0, 0.0, 0.0, 0.0, 1.700950198026747E9, 0.0, 2023-11-25 17:09:58.026
23.0, 14279.076669106087, 20397.37497536838, -54014.28687742793, -52406.5706022466, -66464.74498090088, -9083.346615236595, -36655.855078203094, 19012.080909261815, -0.252, 0.9480000000000001, 0.194, 192.0, 0.0, 0.0, 0.0, 0.0, 0.0, 0.0, 0.0, 0.0, 0.0, 1.700950198030776E9, 0.0, 2023-11-25 17:09:58.030
24.0, 14279.479000506282, 20428.667417605808, -53999.71354004306, -52376.909837354404, -66476.36788801764, -9082.385490225017, -36652.01057815678, 19031.214002515557, -0.252, 0.9480000000000001, 0.194, 192.0, 0.0, 0.0, 0.0, 0.0, 0.0, 0.0, 0.0, 0.0, 0.0, 1.700950198034964E9, 0.0, 2023-11-25 17:09:58.034
25.0, 14350.378733918516, 20532.379511878433, -53950.00326037446, -52311.620391800454, -66443.5331754128, -9047.516768874737, -36612.85032187108, 19076.610395504285, -0.252, 0.9480000000000001, 0.194, 192.0, 0.0, 0.0, 0.0, 0.0, 0.0, 0.0, 0.0, 0.0, 0.0, 1.700950198037774E9, 0.0, 2023-11-25 17:09:58.037
26.0, 14379.301891243684, 20531.10546244448, -53979.21699037755, -52332.63103158844, -66403.88118074909, -8938.708476866303, -36583.14485348998, 19084.992299675025, -0.252, 0.9480000000000001, 0.194, 192.0, 0.0, 0.0, 0.0, 0.0, 0.0, 0.0, 0.0, 0.0, 0.0, 1.700950198042745E9, 0.0, 2023-11-25 17:09:58.042
27.0, 14285.961006398322, 20405.779231283574, -54029.66487761318, -52406.95058190234, -66468.74594315838, -9065.26405397225, -36636.05143261569, 19003.29667369088, -0.252, 0.9480000000000001, 0.194, 192.0, 0.0, 0.0, 0.0, 0.0, 0.0, 0.0, 0.0, 0.0, 0.0, 1.700950198046736E9, 0.0, 2023-11-25 17:09:58.046
28.0, 14270.314785279606, 20423.32535068099, -54010.50943261498, -52384.91176186941, -66485.6438619666, -9108.246458559806, -36632.58691222512, 19012.483240662008, -0.252, 0.9480000000000001, 0.194, 192.0, 0.0, 0.0, 0.0, 0.0, 0.0, 0.0, 0.0, 0.0, 0.0, 1.700950198050912E9, 0.0, 2023-11-25 17:09:58.050
29.0, 14315.353550357051, 20503.702223742275, -53977.38414733221, -52341.102342737, -66474.17741706103, -9084.553609437182, -36622.68508943142, 19037.62895317423, -0.252, 0.9480000000000001, 0.194, 192.0, 0.0, 0.0, 0.0, 0.0, 0.0, 0.0, 0.0, 0.0, 0.0, 1.700950198055097E9, 0.0, 2023-11-25 17:09:58.055
30.0, 14368.438943438405, 20532.714788045265, -53976.490077554, -52329.032400731136, -66413.51478260932, -8976.572331973593, -36591.14677800498, 19068.250843078, -0.246, 0.9400000000000001, 0.196, 192.0, 248.0, 80.0, 29.0, 96.0, 6.0, 32.0, 0.0, 0.0, 0.0, 1.700950198058927E9, 0.0, 2023-11-25 17:09:58.058
31.0, 14312.224306133308, 20435.462347920224, -54021.28297344244, -52388.44333749334, -66445.45542543595, -9027.02021920922, -36628.00480461178, 19012.70675810656, -0.246, 0.9400000000000001, 0.196, 192.0, 0.0, 0.0, 0.0, 0.0, 0.0, 0.0, 0.0, 0.0, 0.0, 1.700950198061971E9, 0.0, 2023-11-25 17:09:58.061
32.0, 14276.573273727094, 20418.18444945627, -54011.537612859924, -52375.70284315382, -66478.11132408516, -9099.775147411245, -36647.40611879899, 19016.95358955307, -0.246, 0.9400000000000001, 0.196, 192.0, 0.0, 0.0, 0.0, 0.0, 0.0, 0.0, 0.0, 0.0, 0.0, 1.700950198069105E9, 0.0, 2023-11-25 17:09:58.069
33.0, 14320.807376004146, 20508.95488368927, -53979.8428392223, -52326.84192977452, -66466.95780360197, -9061.307795203662, -36646.04266238721, 19056.739694683518, -0.246, 0.9400000000000001, 0.196, 192.0, 0.0, 0.0, 0.0, 0.0, 0.0, 0.0, 0.0, 0.0, 0.0, 1.700950198072152E9, 0.0, 2023-11-25 17:09:58.072
34.0, 14399.105536831086, 20581.08396304655, -53955.16651334364, -52289.894496189896, -66397.68974753497, -8967.765744658202, -36606.94946133488, 19101.420831849675, -0.246, 0.9400000000000001, 0.196, 192.0, 0.0, 0.0, 0.0, 0.0, 0.0, 0.0, 0.0, 0.0, 0.0, 1.700950198074867E9, 0.0, 2023-11-25 17:09:58.074
35.0, 14349.819940307134, 20488.167761345838, -54014.689208828124, -52361.464781935785, -66416.91224776652, -8983.367262288006, -36643.136935608025, 19037.539546196407, -0.246, 0.9400000000000001, 0.196, 192.0, 0.0, 0.0, 0.0, 0.0, 0.0, 0.0, 0.0, 0.0, 0.0, 1.700950198078918E9, 0.0, 2023-11-25 17:09:58.078
36.0, 14290.9230936674, 20433.71891185271, -54008.2966099139, -52369.26554075069, -66463.82855937822, -9113.56617374017, -36669.57904929865, 18996.434688143097, -0.246, 0.9400000000000001, 0.196, 192.0, 0.0, 0.0, 0.0, 0.0, 0.0, 0.0, 0.0, 0.0, 0.0, 1.700950198082989E9, 0.0, 2023-11-25 17:09:58.082
37.0, 14315.711178268335, 20505.4903632987, -53987.576542803836, -52338.08485723554, -66467.78481814681, -9088.442812972406, -36665.46632831888, 19016.730072108516, -0.246, 0.9400000000000001, 0.196, 192.0, 0.0, 0.0, 0.0, 0.0, 0.0, 0.0, 0.0, 0.0, 0.0, 1.700950198086953E9, 0.0, 2023-11-25 17:09:58.086
38.0, 14387.504981458782, 20580.01107931269, -53956.35115579977, -52300.243353872705, -66415.9287710105, -9033.770446034723, -36634.08447910362, 19051.643496947705, -0.246, 0.9400000000000001, 0.196, 192.0, 0.0, 0.0, 0.0, 0.0, 0.0, 0.0, 0.0, 0.0, 0.0, 1.70095019808994E9, 0.0, 2023-11-25 17:09:58.089
39.0, 14366.963728304354, 20513.335825602513, -54004.87679301224, -52358.827276090065, -66406.16105868353, -8987.837611179068, -36638.241903572314, 19020.95455181057, -0.246, 0.9400000000000001, 0.196, 192.0, 0.0, 0.0, 0.0, 0.0, 0.0, 0.0, 0.0, 0.0, 0.0, 1.700950198094086E9, 0.0, 2023-11-25 17:09:58.094
40.0, 14288.665567477414, 20429.337969939468, -54015.538575117425, -52392.2654857952, -66471.45050423748, -9142.958717698899, -36678.4079883585, 18970.104333174746, -0.24, 0.9380000000000001, 0.198, 192.0, 248.0, 128.0, 29.0, 80.0, 6.0, 48.0, 0.0, 0.0, 0.0, 1.700950198101059E9, 0.0, 2023-11-25 17:09:58.101
41.0, 14308.670378764913, 20499.455392295768, -54000.428795865635, -52362.805886603106, -66477.0384403513, -9112.582696984136, -36674.16115691199, 19005.643606858685, -0.24, 0.9380000000000001, 0.198, 192.0, 0.0, 0.0, 0.0, 0.0, 0.0, 0.0, 0.0, 0.0, 0.0, 1.700950198103973E9, 0.0, 2023-11-25 17:09:58.103
42.0, 14385.895655858, 20594.07032657508, -53955.904120910665, -52308.91583072136, -66431.55264038476, -9070.203789496874, -36642.578141996644, 19044.312124766366, -0.24, 0.9380000000000001, 0.198, 192.0, 0.0, 0.0, 0.0, 0.0, 0.0, 0.0, 0.0, 0.0, 0.0, 1.700950198106952E9, 0.0, 2023-11-25 17:09:58.106
43.0, 14381.805286622679, 20544.2482881842, -54001.747548788495, -52355.07218302157, -66402.7188900374, -8983.16609658791, -36631.84930465809, 19025.71547337955, -0.24, 0.9380000000000001, 0.198, 192.0, 0.0, 0.0, 0.0, 0.0, 0.0, 0.0, 0.0, 0.0, 0.0, 1.700950198111048E9, 0.0, 2023-11-25 17:09:58.111
44.0, 14301.204896116842, 20444.157176513338, -54009.03421748093, -52387.72808167077, -66456.09485579668, -9135.001496672809, -36666.338046352634, 18965.32105986131, -0.24, 0.9380000000000001, 0.198, 192.0, 0.0, 0.0, 0.0, 0.0, 0.0, 0.0, 0.0, 0.0, 0.0, 1.700950198115072E9, 0.0, 2023-11-25 17:09:58.115
45.0, 14325.747111528768, 20505.40095632088, -53977.987644432505, -52342.06346774858, -66447.0871027812, -9105.117214336064, -36645.05918563118, 19002.536714379396, -0.24, 0.9380000000000001, 0.198, 192.0, 0.0, 0.0, 0.0, 0.0, 0.0, 0.0, 0.0, 0.0, 0.0, 1.700950198118162E9, 0.0, 2023-11-25 17:09:58.118
46.0, 14389.94132160441, 20594.83028588656, -53939.65440269165, -52289.469813045245, -66417.04635823326, -9075.165876765952, -36622.26040628677, 19042.166357298658, -0.24, 0.9380000000000001, 0.198, 192.0, 0.0, 0.0, 0.0, 0.0, 0.0, 0.0, 0.0, 0.0, 0.0, 1.700950198122536E9, 0.0, 2023-11-25 17:09:58.122
47.0, 14409.744967191813, 20574.87017808797, -53976.98181593202, -52320.38227562694, -66379.29426184825, -8966.156419057419, -36603.79786536669, 19053.521043481953, -0.24, 0.9380000000000001, 0.198, 192.0, 0.0, 0.0, 0.0, 0.0, 0.0, 0.0, 0.0, 0.0, 0.0, 1.700950198126068E9, 0.0, 2023-11-25 17:09:58.126
48.0, 14313.476003822805, 20449.655705649344, -54017.17025246266, -52386.297570025636, -66451.19982376097, -9115.019037129765, -36664.102871907104, 18965.61163253923, -0.24, 0.9380000000000001, 0.198, 192.0, 0.0, 0.0, 0.0, 0.0, 0.0, 0.0, 0.0, 0.0, 0.0, 1.700950198130117E9, 0.0, 2023-11-25 17:09:58.130
49.0, 14308.11158515353, 20478.86943565243, -53997.45601385308, -52358.31318596759, -66459.31350699825, -9118.148281353508, -36659.856040460596, 18994.49008637549, -0.24, 0.9380000000000001, 0.198, 192.0, 0.0, 0.0, 0.0, 0.0, 0.0, 0.0, 0.0, 0.0, 0.0, 1.700950198135075E9, 0.0, 2023-11-25 17:09:58.135
50.0, 14379.614815666058, 20581.665108402387, -53939.0285538469, -52288.79926071159, -66423.46130889193, -9077.8927895895, -36623.690917931905, 19056.96321212807, -0.25, 0.9460000000000001, 0.192, 192.0, 248.0, 48.0, 29.0, 144.0, 6.0, 0.0, 0.0, 0.0, 0.0, 1.700950198139066E9, 0.0, 2023-11-25 17:09:58.139
51.0, 14415.265848072273, 20581.93332933585, -53961.44735353558, -52304.60194404149, -66378.6684130035, -8964.368279500995, -36587.01170528075, 19073.39174430272, -0.25, 0.9460000000000001, 0.192, 192.0, 0.0, 0.0, 0.0, 0.0, 0.0, 0.0, 0.0, 0.0, 0.0, 1.700950198143093E9, 0.0, 2023-11-25 17:09:58.143
52.0, 14318.907477725445, 20446.48175793669, -54013.750435561, -52384.59883744703, -66442.7285126124, -9077.959844822866, -36634.598569226095, 18993.327795663812, -0.25, 0.9460000000000001, 0.192, 192.0, 0.0, 0.0, 0.0, 0.0, 0.0, 0.0, 0.0, 0.0, 0.0, 1.70095019814611E9, 0.0, 2023-11-25 17:09:58.146
53.0, 14295.996939658755, 20442.27962997909, -53998.70771154258, -52368.97496807277, -66465.30377451227, -9116.069569119165, -36624.182656309924, 19022.027435544423, -0.25, 0.9460000000000001, 0.192, 192.0, 0.0, 0.0, 0.0, 0.0, 0.0, 0.0, 0.0, 0.0, 0.0, 1.700950198150099E9, 0.0, 2023-11-25 17:09:58.150
54.0, 14345.394294904983, 20530.211392666268, -53967.45997279406, -52324.696162306805, -66456.51953894133, -9091.482650218326, -36615.86780737255, 19055.130369082734, -0.25, 0.9460000000000001, 0.192, 192.0, 0.0, 0.0, 0.0, 0.0, 0.0, 0.0, 0.0, 0.0, 0.0, 1.700950198155152E9, 0.0, 2023-11-25 17:09:58.155
55.0, 14409.007359624788, 20575.250157743714, -53962.27436808043, -52307.46296733177, -66396.72862252338, -8982.607302976527, -36582.51900464523, 19083.315918840875, -0.25, 0.9460000000000001, 0.192, 192.0, 0.0, 0.0, 0.0, 0.0, 0.0, 0.0, 0.0, 0.0, 0.0, 1.700950198159166E9, 0.0, 2023-11-25 17:09:58.159
56.0, 14336.520652356226, 20461.43507497729, -54023.54049963242, -52382.5648287016, -66439.7780823443, -9027.087274442587, -36631.58108372463, 19008.52698189342, -0.25, 0.9460000000000001, 0.192, 192.0, 0.0, 0.0, 0.0, 0.0, 0.0, 0.0, 0.0, 0.0, 0.0, 1.700950198162293E9, 0.0, 2023-11-25 17:09:58.162
57.0, 14293.672358235402, 20431.79666182955, -54011.73877856002, -52371.74658438523, -66473.439809494, -9111.04042661672, -36651.96587466787, 18994.49008637549, -0.25, 0.9460000000000001, 0.192, 192.0, 0.0, 0.0, 0.0, 0.0, 0.0, 0.0, 0.0, 0.0, 0.0, 1.700950198167179E9, 0.0, 2023-11-25 17:09:58.167
58.0, 14338.107626212553, 20517.247380882192, -53974.81369671985, -52315.73311278023, -66456.51953894133, -9069.443830185393, -36637.77251693875, 19039.61825843075, -0.25, 0.9460000000000001, 0.192, 192.0, 0.0, 0.0, 0.0, 0.0, 0.0, 0.0, 0.0, 0.0, 0.0, 1.700950198171206E9, 0.0, 2023-11-25 17:09:58.171
59.0, 14418.305685318195, 20589.97995733976, -53945.64467020568, -52272.10250760347, -66388.63729103057, -8976.170000573398, -36600.89213858749, 19095.564674802386, -0.246, 0.9480000000000001, 0.188, 192.0, 248.0, 80.0, 29.0, 160.0, 5.0, 224.0, 0.0, 0.0, 0.0, 1.700950198174189E9, 0.0, 2023-11-25 17:09:58.174
60.0, 14380.263016255263, 20499.701261484774, -53998.7971185204, -52335.961441512285, -66400.23784640287, -8970.872637137489, -36630.64231045751, 19049.900060880194, -0.246, 0.9480000000000001, 0.188, 192.0, 0.0, 0.0, 0.0, 0.0, 0.0, 0.0, 0.0, 0.0, 0.0, 1.700950198178486E9, 0.0, 2023-11-25 17:09:58.178
61.0, 14313.07367242261, 20431.081406006982, -54002.01576972196, -52356.0556597776, -66456.7877598748, -9112.985028384332, -36668.41675858698, 19008.504630148964, -0.246, 0.9480000000000001, 0.188, 192.0, 0.0, 0.0, 0.0, 0.0, 0.0, 0.0, 0.0, 0.0, 0.0, 1.700950198182286E9, 0.0, 2023-11-25 17:09:58.182
62.0, 14344.880204782512, 20504.238665609202, -53976.75829848746, -52319.935240737825, -66452.36211447265, -9086.095879804598, -36655.653912502996, 19035.10320605078, -0.246, 0.9480000000000001, 0.188, 192.0, 0.0, 0.0, 0.0, 0.0, 0.0, 0.0, 0.0, 0.0, 0.0, 1.70095019818659E9, 0.0, 2023-11-25 17:09:58.186
63.0, 14426.128795877552, 20584.034393314647, -53935.698143923066, -52275.09764136048, -66395.00753820033, -9031.714085544836, -36613.76674339375, 19064.853377920794, -0.246, 0.9480000000000001, 0.188, 192.0, 0.0, 0.0, 0.0, 0.0, 0.0, 0.0, 0.0, 0.0, 0.0, 1.700950198190245E9, 0.0, 2023-11-25 17:09:58.190
64.0, 14406.36985377906, 20516.621532037443, -53987.554191059375, -52338.53189212464, -66384.59162528416, -8978.852209908035, -36617.94651960689, 19035.058502561867, -0.246, 0.9480000000000001, 0.188, 192.0, 0.0, 0.0, 0.0, 0.0, 0.0, 0.0, 0.0, 0.0, 0.0, 1.700950198195433E9, 0.0, 2023-11-25 17:09:58.195
65.0, 14323.936620227889, 20431.930772296284, -53993.857382995775, -52372.12656404097, -66445.81305334724, -9135.984973428844, -36664.527555051754, 18981.190798424577, -0.246, 0.9480000000000001, 0.188, 192.0, 0.0, 0.0, 0.0, 0.0, 0.0, 0.0, 0.0, 0.0, 0.0, 1.700950198200288E9, 0.0, 2023-11-25 17:09:58.200
66.0, 14334.97838198881, 20490.42528753582, -53981.02748167843, -52346.93614803984, -66454.35141972917, -9115.309609807684, -36664.77342424076, 18998.491048632986, -0.246, 0.9480000000000001, 0.188, 192.0, 0.0, 0.0, 0.0, 0.0, 0.0, 0.0, 0.0, 0.0, 0.0, 1.700950198203346E9, 0.0, 2023-11-25 17:09:58.203
67.0, 14407.42038576846, 20577.105352533505, -53936.56986195682, -52297.18116488233, -66411.41371863052, -9083.324263492139, -36630.977586624336, 19041.16052879817, -0.246, 0.9480000000000001, 0.188, 192.0, 0.0, 0.0, 0.0, 0.0, 0.0, 0.0, 0.0, 0.0, 0.0, 1.700950198206315E9, 0.0, 2023-11-25 17:09:58.206
68.0, 14406.146336334508, 20529.63024731043, -53984.82727823583, -52346.53381663965, -66384.59162528416, -8992.866753681512, -36622.081592331124, 19033.605639172274, -0.246, 0.9480000000000001, 0.188, 192.0, 0.0, 0.0, 0.0, 0.0, 0.0, 0.0, 0.0, 0.0, 0.0, 1.700950198210335E9, 0.0, 2023-11-25 17:09:58.210
69.0, 14313.677169522904, 20416.396309899847, -54009.7494733035, -52395.52884048568, -66454.93256508501, -9153.464037592894, -36673.31179062269, 18960.60484178124, -0.244, 0.9460000000000001, 0.184, 192.0, 248.0, 96.0, 29.0, 144.0, 5.0, 192.0, 0.0, 0.0, 0.0, 1.7009501982145E9, 0.0, 2023-11-25 17:09:58.214
70.0, 14326.440015606882, 20464.877243623407, -53988.269446881946, -52360.07897377956, -66457.12303604162, -9136.275546106763, -36650.55771476719, 18993.774830552917, -0.244, 0.9460000000000001, 0.184, 192.0, 0.0, 0.0, 0.0, 0.0, 0.0, 0.0, 0.0, 0.0, 0.0, 1.700950198218531E9, 0.0, 2023-11-25 17:09:58.218
71.0, 14401.184249065429, 20567.49410241772, -53933.01593458843, -52295.63889451491, -66414.96764599891, -9103.016150357265, -36606.34596423459, 19033.806804872373, -0.244, 0.9460000000000001, 0.184, 192.0, 0.0, 0.0, 0.0, 0.0, 0.0, 0.0, 0.0, 0.0, 0.0, 1.700950198222416E9, 0.0, 2023-11-25 17:09:58.222
72.0, 14430.643848257525, 20555.96060227878, -53961.35794655776, -52315.44254010231, -66360.65290697252, -8979.567465730604, -36574.87470804152, 19044.87091837775, -0.244, 0.9460000000000001, 0.184, 192.0, 0.0, 0.0, 0.0, 0.0, 0.0, 0.0, 0.0, 0.0, 0.0, 1.700950198226385E9, 0.0, 2023-11-25 17:09:58.226
73.0, 14336.587707589593, 20430.47790890669, -54001.769900532956, -52377.93801759935, -66427.23875370488, -9116.807176686189, -36634.66562445946, 18963.532920304886, -0.244, 0.9460000000000001, 0.184, 192.0, 0.0, 0.0, 0.0, 0.0, 0.0, 0.0, 0.0, 0.0, 0.0, 1.700950198229591E9, 0.0, 2023-11-25 17:09:58.229
74.0, 14332.69850405437, 20461.81505463303, -53977.87588571023, -52342.175226470856, -66435.24067821988, -9120.09288312112, -36618.43825798491, 19004.48131614701, -0.244, 0.9460000000000001, 0.184, 192.0, 0.0, 0.0, 0.0, 0.0, 0.0, 0.0, 0.0, 0.0, 0.0, 1.700950198233451E9, 0.0, 2023-11-25 17:09:58.233
75.0, 14388.89078961501, 20556.96643077927, -53936.748675912466, -52288.77690896713, -66418.25335243385, -9094.902467119988, -36589.00101053727, 19048.29073527941, -0.244, 0.9460000000000001, 0.184, 192.0, 0.0, 0.0, 0.0, 0.0, 0.0, 0.0, 0.0, 0.0, 0.0, 1.700950198238469E9, 0.0, 2023-11-25 17:09:58.238
76.0, 14442.110293163098, 20579.675803145863, -53944.54943472736, -52288.6427985004, -66360.94347965044, -8977.175829073885, -36547.96320771733, 19061.321802296854, -0.244, 0.9460000000000001, 0.184, 192.0, 0.0, 0.0, 0.0, 0.0, 0.0, 0.0, 0.0, 0.0, 0.0, 1.700950198242455E9, 0.0, 2023-11-25 17:09:58.242
77.0, 14364.348574203084, 20458.90932785384, -53989.454089338076, -52359.18490400135, -66412.66541632001, -9068.572112151636, -36590.61033613805, 18982.196626925066, -0.244, 0.9460000000000001, 0.184, 192.0, 0.0, 0.0, 0.0, 0.0, 0.0, 0.0, 0.0, 0.0, 0.0, 1.700950198246449E9, 0.0, 2023-11-25 17:09:58.246
78.0, 14334.419588377428, 20448.26989749311, -53974.076089152826, -52342.84577880452, -66436.69354160948, -9116.56130749718, -36597.3382112191, 19003.184914968602, -0.244, 0.9460000000000001, 0.184, 192.0, 0.0, 0.0, 0.0, 0.0, 0.0, 0.0, 0.0, 0.0, 0.0, 1.700950198250441E9, 0.0, 2023-11-25 17:09:58.250
79.0, 14372.149333017986, 20527.126851931436, -53941.59900445927, -52292.91198169136, -66429.20570721694, -9077.244589000296, -36580.61910636653, 19058.684296451127, -0.234, 0.9420000000000001, 0.188, 192.0, 248.0, 176.0, 29.0, 112.0, 5.0, 224.0, 0.0, 0.0, 0.0, 1.700950198255476E9, 0.0, 2023-11-25 17:09:58.255
80.0, 14435.002438426309, 20577.999422311714, -53932.18892004358, -52269.53205699111, -66367.3137268202, -8964.211817289808, -36532.98753893227, 19104.035985950948, -0.234, 0.9420000000000001, 0.188, 192.0, 0.0, 0.0, 0.0, 0.0, 0.0, 0.0, 0.0, 0.0, 0.0, 1.70095019825854E9, 0.0, 2023-11-25 17:09:58.258
81.0, 14376.396164464495, 20475.5837292175, -53986.77188000344, -52334.97796475625, -66397.98032021288, -8997.11358512802, -36567.4315771379, 19041.115825309258, -0.234, 0.9420000000000001, 0.188, 192.0, 0.0, 0.0, 0.0, 0.0, 0.0, 0.0, 0.0, 0.0, 0.0, 1.700950198262481E9, 0.0, 2023-11-25 17:09:58.262
82.0, 14335.336009900095, 20442.95018231275, -53977.9429409436, -52325.9031565074, -66433.31842819673, -9087.45933621637, -36593.516062917246, 19039.461796219566, -0.234, 0.9420000000000001, 0.188, 192.0, 0.0, 0.0, 0.0, 0.0, 0.0, 0.0, 0.0, 0.0, 0.0, 1.700950198266568E9, 0.0, 2023-11-25 17:09:58.266
83.0, 14373.80336210768, 20525.249305397192, -53951.45612376406, -52279.322121062534, -66426.50114613786, -9051.920062532434, -36589.3362867041, 19074.218758847568, -0.234, 0.9420000000000001, 0.188, 192.0, 0.0, 0.0, 0.0, 0.0, 0.0, 0.0, 0.0, 0.0, 0.0, 1.700950198270506E9, 0.0, 2023-11-25 17:09:58.270
84.0, 14445.217185642385, 20591.902207362917, -53927.56210894133, -52244.81102762354, -66368.83364544317, -8973.241922049752, -36546.577399561094, 19099.006843448504, -0.234, 0.9420000000000001, 0.188, 192.0, 0.0, 0.0, 0.0, 0.0, 0.0, 0.0, 0.0, 0.0, 0.0, 1.700950198274513E9, 0.0, 2023-11-25 17:09:58.274
85.0, 14404.626417711546, 20499.209523106758, -53986.503659069975, -52317.09656919201, -66379.69659324845, -8965.530570212672, -36567.073949226615, 19040.221755531045, -0.234, 0.9420000000000001, 0.188, 192.0, 0.0, 0.0, 0.0, 0.0, 0.0, 0.0, 0.0, 0.0, 0.0, 1.700950198278566E9, 0.0, 2023-11-25 17:09:58.278
86.0, 14333.972553488322, 20431.304923451535, -53986.88363872572, -52335.22383394526, -66434.65953286404, -9103.440833501916, -36600.93684207641, 19011.56681913934, -0.234, 0.9420000000000001, 0.188, 192.0, 0.0, 0.0, 0.0, 0.0, 0.0, 0.0, 0.0, 0.0, 0.0, 1.700950198281582E9, 0.0, 2023-11-25 17:09:58.281
87.0, 14369.064792283154, 20508.932531944818, -53957.5357982559, -52293.82840321403, -66428.98218977239, -9070.002623796776, -36594.92422281793, 19037.2936770074, -0.234, 0.9420000000000001, 0.188, 192.0, 0.0, 0.0, 0.0, 0.0, 0.0, 0.0, 0.0, 0.0, 0.0, 1.700950198285672E9, 0.0, 2023-11-25 17:09:58.285
88.0, 14446.111255420597, 20591.186951540345, -53917.07914079179, -52252.701193416266, -66377.6178810141, -9019.621791794514, -36562.536545102186, 19068.966098900568, -0.234, 0.9420000000000001, 0.188, 192.0, 0.0, 0.0, 0.0, 0.0, 0.0, 0.0, 0.0, 0.0, 0.0, 1.700950198298633E9, 0.0, 2023-11-25 17:09:58.298
89.0, 14428.945115678922, 20518.76729950515, -53968.37639431672, -52314.50376683519, -66366.55376750873, -8959.808523632113, -36570.60552485055, 19045.072084077845, -0.248, 0.9380000000000001, 0.186, 192.0, 248.0, 64.0, 29.0, 80.0, 5.0, 208.0, 0.0, 0.0, 0.0, 1.70095019830164E9, 0.0, 2023-11-25 17:09:58.301
90.0, 14353.977364775821, 20425.89580129335, -53972.533818785414, -52346.53381663965, -66422.90251528056, -9116.985990641831, -36611.68803115941, 18991.42789738511, -0.248, 0.9380000000000001, 0.186, 192.0, 0.0, 0.0, 0.0, 0.0, 0.0, 0.0, 0.0, 0.0, 0.0, 1.700950198304663E9, 0.0, 2023-11-25 17:09:58.304
91.0, 14376.016184808754, 20491.922854414326, -53951.59023423079, -52314.19084241281, -66425.49531763737, -9090.387414740017, -36604.691935144896, 19019.90401982117, -0.248, 0.9380000000000001, 0.186, 192.0, 0.0, 0.0, 0.0, 0.0, 0.0, 0.0, 0.0, 0.0, 0.0, 1.700950198307753E9, 0.0, 2023-11-25 17:09:58.307
92.0, 14440.411560584495, 20567.382343695444, -53923.605850172746, -52278.89743791788, -66399.45553534693, -9065.420516183438, -36587.704609358865, 19044.66975267765, -0.248, 0.9380000000000001, 0.186, 192.0, 0.0, 0.0, 0.0, 0.0, 0.0, 0.0, 0.0, 0.0, 0.0, 1.70095019831173E9, 0.0, 2023-11-25 17:09:58.311
93.0, 14451.47567408987, 20527.35036937599, -53967.54937977188, -52324.51734835117, -66365.01149714131, -8978.718099441303, -36577.914545287436, 19023.390891956198, -0.248, 0.9380000000000001, 0.186, 192.0, 0.0, 0.0, 0.0, 0.0, 0.0, 0.0, 0.0, 0.0, 0.0, 1.700950198314958E9, 0.0, 2023-11-25 17:09:58.314
94.0, 14366.784914348713, 20419.123222723392, -53986.74952825899, -52369.77963087316, -66426.16586997102, -9128.608897758591, -36617.65594692897, 18968.76322850743, -0.248, 0.9380000000000001, 0.186, 192.0, 0.0, 0.0, 0.0, 0.0, 0.0, 0.0, 0.0, 0.0, 0.0, 1.700950198317712E9, 0.0, 2023-11-25 17:09:58.317
95.0, 14368.975385305332, 20457.210595275235, -53972.73498448551, -52340.54354912562, -66436.85000382067, -9115.533127252236, -36610.279871258725, 19008.214057471047, -0.248, 0.9380000000000001, 0.186, 192.0, 0.0, 0.0, 0.0, 0.0, 0.0, 0.0, 0.0, 0.0, 0.0, 1.700950198320739E9, 0.0, 2023-11-25 17:09:58.320
96.0, 14428.47572904536, 20547.936326019328, -53929.99844908696, -52286.85465894397, -66410.34083489666, -9093.60606594158, -36590.073894271125, 19034.38795022821, -0.248, 0.9380000000000001, 0.186, 192.0, 0.0, 0.0, 0.0, 0.0, 0.0, 0.0, 0.0, 0.0, 0.0, 1.700950198324738E9, 0.0, 2023-11-25 17:09:58.324
97.0, 14454.202586913418, 20541.431968382833, -53956.105286610764, -52307.30650512058, -66359.93765114996, -8982.20497157633, -36567.699798071364, 19027.213040258055, -0.248, 0.9380000000000001, 0.186, 192.0, 0.0, 0.0, 0.0, 0.0, 0.0, 0.0, 0.0, 0.0, 0.0, 1.700950198327779E9, 0.0, 2023-11-25 17:09:58.327
98.0, 14358.671231111435, 20419.74907156814, -53998.93122898713, -52375.14404954244, -66427.5293263828, -9116.091920863619, -36621.187522552915, 18944.578641006785, -0.248, 0.9380000000000001, 0.186, 192.0, 0.0, 0.0, 0.0, 0.0, 0.0, 0.0, 0.0, 0.0, 0.0, 1.700950198330719E9, 0.0, 2023-11-25 17:09:58.330
99.0, 14348.098855984075, 20444.71597012472, -53980.781612489416, -52350.98181378625, -66442.46029167894, -9129.570022770169, -36611.41981022595, 18988.544522350374, -0.254, 0.9400000000000001, 0.19, 192.0, 248.0, 16.0, 29.0, 96.0, 5.0, 240.0, 0.0, 0.0, 0.0, 1.700950198334762E9, 0.0, 2023-11-25 17:09:58.334
100.0, 14410.974313136854, 20547.3998841524, -53931.60777468774, -52291.95085667978, -66415.99582624386, -9097.092938076608, -36583.72599884582, 19040.422921231144, -0.254, 0.9400000000000001, 0.19, 192.0, 0.0, 0.0, 0.0, 0.0, 0.0, 0.0, 0.0, 0.0, 0.0, 1.700950198337782E9, 0.0, 2023-11-25 17:09:58.337
101.0, 14460.572834083181, 20570.891567574927, -53940.95080387006, -52295.884763703914, -66364.76562795229, -8988.284646068174, -36551.38302461899, 19051.710552181074, -0.254, 0.9400000000000001, 0.19, 192.0, 0.0, 0.0, 0.0, 0.0, 0.0, 0.0, 0.0, 0.0, 0.0, 1.700950198342515E9, 0.0, 2023-11-25 17:09:58.342
102.0, 14375.479742941827, 20445.453577691744, -53997.09838594179, -52374.92053209788, -66422.54488736927, -9078.585693667614, -36603.350830477575, 18976.38517336669, -0.254, 0.9400000000000001, 0.19, 192.0, 0.0, 0.0, 0.0, 0.0, 0.0, 0.0, 0.0, 0.0, 0.0, 1.700950198345892E9, 0.0, 2023-11-25 17:09:58.345
103.0, 14339.26991692423, 20431.23786821817, -53984.983740447016, -52363.87877033696, -66450.61867840514, -9132.609860016091, -36604.53547293371, 19003.85546730226, -0.254, 0.9400000000000001, 0.19, 192.0, 0.0, 0.0, 0.0, 0.0, 0.0, 0.0, 0.0, 0.0, 0.0, 1.700950198349978E9, 0.0, 2023-11-25 17:09:58.349
104.0, 14388.376699492539, 20521.20363965078, -53947.29869929537, -52312.0003714562, -66436.89470730958, -9099.037539844221, -36591.30324021617, 19040.199403786588, -0.254, 0.9400000000000001, 0.19, 192.0, 0.0, 0.0, 0.0, 0.0, 0.0, 0.0, 0.0, 0.0, 0.0, 1.700950198353902E9, 0.0, 2023-11-25 17:09:58.353
105.0, 14454.113179935597, 20570.086904774536, -53937.10630382375, -52292.844926458, -66376.9696804249, -9006.903649199445, -36565.464623625834, 19047.888403879217, -0.254, 0.9400000000000001, 0.19, 192.0, 0.0, 0.0, 0.0, 0.0, 0.0, 0.0, 0.0, 0.0, 0.0, 1.700950198358831E9, 0.0, 2023-11-25 17:09:58.358
106.0, 14394.299911773196, 20461.882109866394, -53990.638731794206, -52361.80005810262, -66404.86465750512, -9031.043533211176, -36595.08068502911, 18989.773868295415, -0.254, 0.9400000000000001, 0.19, 192.0, 0.0, 0.0, 0.0, 0.0, 0.0, 0.0, 0.0, 0.0, 0.0, 1.70095019836296E9, 0.0, 2023-11-25 17:09:58.362
107.0, 14344.8355012936, 20420.263161690615, -53978.993472933, -52354.893369065925, -66440.3815794446, -9120.47286277686, -36609.40815322497, 18993.37249915272, -0.254, 0.9400000000000001, 0.19, 192.0, 0.0, 0.0, 0.0, 0.0, 0.0, 0.0, 0.0, 0.0, 0.0, 1.700950198365842E9, 0.0, 2023-11-25 17:09:58.365
108.0, 14382.073507556142, 20501.2882353411, -53950.04796386337, -52308.22292664325, -66432.26789620733, -9081.446716957893, -36595.19244375139, 19043.485110221518, -0.254, 0.9400000000000001, 0.19, 192.0, 0.0, 0.0, 0.0, 0.0, 0.0, 0.0, 0.0, 0.0, 0.0, 1.700950198369906E9, 0.0, 2023-11-25 17:09:58.369
109.0, 14456.974203225876, 20574.400791454413, -53921.61654491622, -52269.50970524666, -66373.52751177878, -9006.613076521526, -36550.19838216286, 19086.758087486993, -0.252, 0.9420000000000001, 0.192, 192.0, 248.0, 32.0, 29.0, 112.0, 6.0, 0.0, 0.0, 0.0, 0.0, 1.700950198373889E9, 0.0, 2023-11-25 17:09:58.373
110.0, 14418.931534162944, 20485.23968282219, -53979.77578398893, -52337.88369153544, -66382.75878223882, -8984.574256488593, -36571.18667020639, 19046.368485256255, -0.252, 0.9420000000000001, 0.192, 192.0, 0.0, 0.0, 0.0, 0.0, 0.0, 0.0, 0.0, 0.0, 0.0, 1.700950198377917E9, 0.0, 2023-11-25 17:09:58.377
111.0, 14346.869510039034, 20412.820030786996, -53977.89823745468, -52354.40163068791, -66434.10073925267, -9121.411636043982, -36604.31195548915, 19011.72328135053, -0.252, 0.9420000000000001, 0.192, 192.0, 0.0, 0.0, 0.0, 0.0, 0.0, 0.0, 0.0, 0.0, 0.0, 1.700950198381984E9, 0.0, 2023-11-25 17:09:58.381
112.0, 14368.729516116324, 20483.71976419923, -53957.982833145004, -52321.4998628497, -66433.430186919, -9097.428214243439, -36597.94170831939, 19036.936049096115, -0.252, 0.9420000000000001, 0.192, 192.0, 0.0, 0.0, 0.0, 0.0, 0.0, 0.0, 0.0, 0.0, 0.0, 1.700950198386995E9, 0.0, 2023-11-25 17:09:58.386
113.0, 14454.627270058068, 20581.396887468924, -53912.407626200635, -52266.58162672301, -66377.08143914716, -9047.337954919096, -36565.55403060366, 19062.037058119426, -0.252, 0.9420000000000001, 0.192, 192.0, 0.0, 0.0, 0.0, 0.0, 0.0, 0.0, 0.0, 0.0, 0.0, 1.70095019839096E9, 0.0, 2023-11-25 17:09:58.390
114.0, 14447.497063576826, 20528.803232765586, -53957.49109476699, -52316.53777558062, -66355.04261911423, -8978.583988974571, -36567.766853304725, 19026.162508268655, -0.252, 0.9420000000000001, 0.192, 192.0, 0.0, 0.0, 0.0, 0.0, 0.0, 0.0, 0.0, 0.0, 0.0, 1.700950198405076E9, 0.0, 2023-11-25 17:09:58.405
115.0, 14370.115324272552, 20438.099853765947, -53955.14416159918, -52341.16939797037, -66406.56339008373, -9120.09288312112, -36592.84551058358, 18991.42789738511, -0.252, 0.9420000000000001, 0.192, 192.0, 0.0, 0.0, 0.0, 0.0, 0.0, 0.0, 0.0, 0.0, 0.0, 1.700950198407992E9, 0.0, 2023-11-25 17:09:58.407
116.0, 14383.03463256772, 20495.275616082625, -53939.877920136205, -52313.67675229034, -66416.46521287742, -9097.718786921358, -36587.81636808114, 19017.71354886455, -0.252, 0.9420000000000001, 0.192, 192.0, 0.0, 0.0, 0.0, 0.0, 0.0, 0.0, 0.0, 0.0, 0.0, 1.700950198411042E9, 0.0, 2023-11-25 17:09:58.411
117.0, 14460.595185827637, 20597.69130917684, -53892.268704446404, -52259.764344664145, -66376.18736936896, -9065.375812694529, -36551.271265896714, 19048.424845746144, -0.252, 0.9420000000000001, 0.192, 192.0, 0.0, 0.0, 0.0, 0.0, 0.0, 0.0, 0.0, 0.0, 0.0, 1.700950198415098E9, 0.0, 2023-11-25 17:09:58.415
118.0, 14460.572834083181, 20551.602012109997, -53947.6339754622, -52313.4979383347, -66352.3604097796, -8974.672433694892, -36545.14688791596, 19034.924392095138, -0.252, 0.9420000000000001, 0.192, 192.0, 0.0, 0.0, 0.0, 0.0, 0.0, 0.0, 0.0, 0.0, 0.0, 1.700950198418054E9, 0.0, 2023-11-25 17:09:58.418
119.0, 14372.574016162636, 20438.14455725486, -53972.35500482977, -52362.112982524995, -66413.89476226506, -9123.736217467334, -36592.91256581695, 18987.829266527806, -0.252, 0.9420000000000001, 0.194, 192.0, 248.0, 32.0, 29.0, 112.0, 6.0, 16.0, 0.0, 0.0, 0.0, 1.700950198421288E9, 0.0, 2023-11-25 17:09:58.421
120.0, 14370.741173117302, 20477.550682729565, -53957.55815000035, -52337.81663630207, -66427.37286417162, -9117.9024121645, -36587.50344365877, 19020.842793088294, -0.252, 0.9420000000000001, 0.194, 192.0, 0.0, 0.0, 0.0, 0.0, 0.0, 0.0, 0.0, 0.0, 0.0, 1.700950198424493E9, 0.0, 2023-11-25 17:09:58.424
121.0, 14434.309534348195, 20576.07717228856, -53912.832309345285, -52283.390138553405, -66399.79081151377, -9094.075452575142, -36562.89417301347, 19052.470511492553, -0.252, 0.9420000000000001, 0.194, 192.0, 0.0, 0.0, 0.0, 0.0, 0.0, 0.0, 0.0, 0.0, 0.0, 1.700950198428682E9, 0.0, 2023-11-25 17:09:58.428
122.0, 14469.759401054313, 20577.418276955876, -53935.564033456336, -52299.23752537221, -66349.87936614506, -8984.641311721958, -36538.86604772402, 19050.1459300692, -0.252, 0.9420000000000001, 0.194, 192.0, 0.0, 0.0, 0.0, 0.0, 0.0, 0.0, 0.0, 0.0, 0.0, 1.700950198431057E9, 0.0, 2023-11-25 17:09:58.431
123.0, 14378.340766232106, 20452.606135917442, -53981.96625494555, -52368.818505861585, -66416.68873032197, -9112.917973150967, -36602.83674035511, 18955.03925741187, -0.252, 0.9420000000000001, 0.194, 192.0, 0.0, 0.0, 0.0, 0.0, 0.0, 0.0, 0.0, 0.0, 0.0, 1.700950198434037E9, 0.0, 2023-11-25 17:09:58.434
124.0, 14356.45840841036, 20465.39133374588, -53973.517295541445, -52351.22768297526, -66440.96272480044, -9142.422275831972, -36608.670545657944, 18975.222882655013, -0.252, 0.9420000000000001, 0.194, 192.0, 0.0, 0.0, 0.0, 0.0, 0.0, 0.0, 0.0, 0.0, 0.0, 1.700950198437122E9, 0.0, 2023-11-25 17:09:58.437
125.0, 14405.028749111743, 20554.68655284483, -53937.57569045731, -52300.221002128244, -66423.3271984252, -9115.466072018871, -36583.90481280146, 19032.644514160696, -0.252, 0.9420000000000001, 0.194, 192.0, 0.0, 0.0, 0.0, 0.0, 0.0, 0.0, 0.0, 0.0, 0.0, 1.700950198440071E9, 0.0, 2023-11-25 17:09:58.440
126.0, 14464.350278896127, 20593.913864363894, -53932.546547954866, -52286.385272310414, -66357.07662785967, -9000.242829351762, -36534.909788955425, 19073.905834425193, -0.252, 0.9420000000000001, 0.194, 192.0, 0.0, 0.0, 0.0, 0.0, 0.0, 0.0, 0.0, 0.0, 0.0, 1.700950198444684E9, 0.0, 2023-11-25 17:09:58.444
127.0, 14400.692510687413, 20489.53121775761, -53976.02069092044, -52351.00416553071, -66398.82968650218, -9069.376774952028, -36568.83973703859, 19007.029415014913, -0.252, 0.9420000000000001, 0.194, 192.0, 0.0, 0.0, 0.0, 0.0, 0.0, 0.0, 0.0, 0.0, 0.0, 1.700950198447087E9, 0.0, 2023-11-25 17:09:58.447
128.0, 14370.69646962839, 20479.182360074803, -53963.794286703385, -52340.47649389225, -66430.25623920634, -9138.711886252391, -36584.396551179474, 18998.245179443977, -0.252, 0.9420000000000001, 0.194, 192.0, 0.0, 0.0, 0.0, 0.0, 0.0, 0.0, 0.0, 0.0, 0.0, 1.700950198450124E9, 0.0, 2023-11-25 17:09:58.450
129.0, 14401.363063021072, 20554.954773778292, -53943.72242018252, -52305.67482777534, -66432.49141365188, -9116.538955752725, -36585.1341587465, 19017.221810486535, -0.252, 0.936, 0.196, 192.0, 248.0, 32.0, 29.0, 64.0, 6.0, 32.0, 0.0, 0.0, 0.0, 1.700950198454178E9, 0.0, 2023-11-25 17:09:58.454
130.0, 14463.925595751476, 20605.872047647485, -53926.55628044085, -52275.52232450513, -66369.07951463218, -9013.542117302672, -36534.283940110676, 19081.706593240095, -0.252, 0.936, 0.196, 192.0, 0.0, 0.0, 0.0, 0.0, 0.0, 0.0, 0.0, 0.0, 0.0, 1.700950198458219E9, 0.0, 2023-11-25 17:09:58.458
131.0, 14401.921856632454, 20499.29893008458, -53985.45312708058, -52345.57269162806, -66392.99588119936, -9028.629544810003, -36565.41992013692, 19039.752368897483, -0.252, 0.936, 0.196, 192.0, 0.0, 0.0, 0.0, 0.0, 0.0, 0.0, 0.0, 0.0, 0.0, 1.700950198462188E9, 0.0, 2023-11-25 17:09:58.462
132.0, 14358.067734011143, 20463.29026976708, -53967.52702802742, -52333.61450834448, -66425.04828274826, -9129.61472625908, -36585.58119363561, 19021.13336576621, -0.252, 0.936, 0.196, 192.0, 0.0, 0.0, 0.0, 0.0, 0.0, 0.0, 0.0, 0.0, 0.0, 1.700950198466275E9, 0.0, 2023-11-25 17:09:58.466
133.0, 14383.302853501184, 20533.83237526803, -53951.567882486335, -52295.34832183699, -66431.55264038476, -9094.27661827524, -36579.94855403287, 19061.142988341213, -0.252, 0.936, 0.196, 192.0, 0.0, 0.0, 0.0, 0.0, 0.0, 0.0, 0.0, 0.0, 0.0, 1.700950198470279E9, 0.0, 2023-11-25 17:09:58.470
134.0, 14443.227880385863, 20597.89247487694, -53932.07716132131, -52265.553446478065, -66386.6256340296, -9035.290364657685, -36549.393719362466, 19090.043793921923, -0.252, 0.936, 0.196, 192.0, 0.0, 0.0, 0.0, 0.0, 0.0, 0.0, 0.0, 0.0, 0.0, 1.700950198474234E9, 0.0, 2023-11-25 17:09:58.474
135.0, 14412.22601082635, 20521.382453606424, -53983.75439450198, -52328.4512553753, -66385.30688110672, -9008.580030033592, -36559.8319840231, 19037.67365666314, -0.252, 0.936, 0.196, 192.0, 0.0, 0.0, 0.0, 0.0, 0.0, 0.0, 0.0, 0.0, 0.0, 1.700950198477222E9, 0.0, 2023-11-25 17:09:58.477
136.0, 14348.724704828825, 20452.85200510645, -53976.490077554, -52344.23158696075, -66430.77032932882, -9146.914976467488, -36588.03988552569, 19009.398699927176, -0.252, 0.936, 0.196, 192.0, 0.0, 0.0, 0.0, 0.0, 0.0, 0.0, 0.0, 0.0, 0.0, 1.70095019848221E9, 0.0, 2023-11-25 17:09:58.482
