%OpenBCI Raw EXG Data
%Number of channels = 8
%Sample Rate = 250 Hz
%Board = OpenBCI_GUI$BoardCytonSerial
Sample Index, EXG Channel 0, EXG Channel 1, EXG Channel 2, EXG Channel 3, EXG Channel 4, EXG Channel 5, EXG Channel 6, EXG Channel 7, Accel Channel 0, Accel Channel 1, Accel Channel 2, Other, Other, Other, Other, Other, Other, Other, Analog Channel 0, Analog Channel 1, Analog Channel 2, Timestamp, Other, Timestamp (Formatted)
104.0, 11935.183338544768, 18685.968957658883, -55001.40696780765, -53823.1571105906, -67032.45693832124, -3018.3572195002102, -35295.79613158657, 20960.95186006449, 0.0, 0.0, 0.0, 192.0, 0.0, 0.0, 0.0, 0.0, 0.0, 0.0, 0.0, 0.0, 0.0, 1.700950172744825E9, 0.0, 2023-11-25 17:09:32.744
105.0, 11857.846302729406, 18562.162645120938, -55058.918006291155, -53901.87995456219, -67080.73670634469, -3093.7943570368716, -35352.01076889167, 20890.968548174926, 0.0, 0.0, 0.0, 192.0, 0.0, 0.0, 0.0, 0.0, 0.0, 0.0, 0.0, 0.0, 0.0, 1.70095017274485E9, 0.0, 2023-11-25 17:09:32.744
106.0, 11832.521776261543, 18554.026610139204, -55039.002601981476, -53884.82557354279, -67108.18464853581, -3158.2344363015222, -35358.537478272614, 20901.31740585773, -0.23600000000000002, 0.9440000000000001, 0.182, 192.0, 248.0, 160.0, 29.0, 128.0, 5.0, 176.0, 0.0, 0.0, 0.0, 1.700950172744863E9, 0.0, 2023-11-25 17:09:32.744
0.0, 0.0, 0.0, 0.0, 0.0, 0.0, 0.0, 0.0, 0.0, -0.242, 0.9380000000000001, 0.182, 192.0, 248.0, 112.0, 29.0, 80.0, 5.0, 176.0, 0.0, 0.0, 0.0, 1.700950172832628E9, 0.0, 2023-11-25 17:09:32.832
1.0, 12380.944178216956, 18926.429024509078, -54601.2883903132, -53419.57401270557, -66920.87703000034, -4017.904879797087, -35733.890322910585, 21192.33711866583, -0.242, 0.9380000000000001, 0.182, 192.0, 0.0, 0.0, 0.0, 0.0, 0.0, 0.0, 0.0, 0.0, 0.0, 1.700950172849671E9, 0.0, 2023-11-25 17:09:32.849
2.0, 12451.240414528897, 18995.13828696469, -54579.65190168046, -53390.36028270248, -66867.1881398187, -3953.710669721445, -35706.50943595284, 21213.012482286988, -0.242, 0.9380000000000001, 0.182, 192.0, 0.0, 0.0, 0.0, 0.0, 0.0, 0.0, 0.0, 0.0, 0.0, 1.700950172853701E9, 0.0, 2023-11-25 17:09:32.853
3.0, 12419.612696124637, 18915.186097048056, -54627.015248181255, -53451.26878634319, -66865.89173864028, -3940.25491955935, -35727.184799573995, 21164.82212124135, -0.242, 0.9380000000000001, 0.182, 192.0, 0.0, 0.0, 0.0, 0.0, 0.0, 0.0, 0.0, 0.0, 0.0, 1.700950172856689E9, 0.0, 2023-11-25 17:09:32.856
4.0, 12345.270794066286, 18832.216421629957, -54626.1435301475, -53465.86447547251, -66919.51357358857, -4064.7541361754106, -35754.54333478729, 21154.786187980913, -0.242, 0.9380000000000001, 0.182, 192.0, 0.0, 0.0, 0.0, 0.0, 0.0, 0.0, 0.0, 0.0, 0.0, 1.700950172859712E9, 0.0, 2023-11-25 17:09:32.859
5.0, 12372.87519846859, 18902.22208526398, -54596.058082110656, -53420.13280631695, -66909.81291649496, -4028.4996066689027, -35737.19838108998, 21193.76763031097, -0.242, 0.9380000000000001, 0.182, 192.0, 0.0, 0.0, 0.0, 0.0, 0.0, 0.0, 0.0, 0.0, 0.0, 1.700950172863821E9, 0.0, 2023-11-25 17:09:32.863
6.0, 12449.9887168394, 18994.75830730895, -54557.546026414166, -53369.7966778036, -66856.83928213589, -3977.045890932786, -35698.239290504374, 21225.663569648692, -0.242, 0.9380000000000001, 0.182, 192.0, 0.0, 0.0, 0.0, 0.0, 0.0, 0.0, 0.0, 0.0, 0.0, 1.700950172866764E9, 0.0, 2023-11-25 17:09:32.866
7.0, 12427.771082850824, 18925.132623330668, -54620.868518456045, -53435.7119722023, -66847.56330818693, -3930.5989659546576, -35715.56189245723, 21177.249691158497, -0.242, 0.9380000000000001, 0.182, 192.0, 0.0, 0.0, 0.0, 0.0, 0.0, 0.0, 0.0, 0.0, 0.0, 1.700950172870748E9, 0.0, 2023-11-25 17:09:32.870
8.0, 12351.43987553595, 18833.15519489708, -54624.936535946916, -53459.9189114474, -66906.25898912657, -4072.6890054570445, -35752.26345685285, 21139.18467035111, -0.24, 0.9380000000000001, 0.192, 192.0, 248.0, 128.0, 29.0, 80.0, 6.0, 0.0, 0.0, 0.0, 0.0, 1.700950172874736E9, 0.0, 2023-11-25 17:09:32.874
9.0, 12367.309614099218, 18893.951939815517, -54606.406939793465, -53422.74796041822, -66909.70115777268, -4034.802798605299, -35736.59488398968, 21187.86676977477, -0.24, 0.9380000000000001, 0.192, 192.0, 0.0, 0.0, 0.0, 0.0, 0.0, 0.0, 0.0, 0.0, 0.0, 1.700950172878788E9, 0.0, 2023-11-25 17:09:32.878
10.0, 12428.799263095769, 18976.251062899955, -54571.24764576527, -53377.44097440731, -66879.50395101357, -4005.2537924353833, -35718.579377958704, 21215.784098599448, -0.24, 0.9380000000000001, 0.192, 192.0, 0.0, 0.0, 0.0, 0.0, 0.0, 0.0, 0.0, 0.0, 0.0, 1.700950172883905E9, 0.0, 2023-11-25 17:09:32.883
11.0, 12438.566975422738, 18937.873117670195, -54610.40790205097, -53417.741169660236, -66840.61191566133, -3915.779759380789, -35705.83888361918, 21194.549941366906, -0.24, 0.9380000000000001, 0.192, 192.0, 0.0, 0.0, 0.0, 0.0, 0.0, 0.0, 0.0, 0.0, 0.0, 1.700950172887823E9, 0.0, 2023-11-25 17:09:32.887
12.0, 12345.06962836619, 18820.705273235475, -54636.604146552585, -53470.223065641294, -66911.22107639564, -4059.9485111175195, -35753.44809930898, 21126.913562645146, -0.24, 0.9380000000000001, 0.192, 192.0, 0.0, 0.0, 0.0, 0.0, 0.0, 0.0, 0.0, 0.0, 0.0, 1.700950172892775E9, 0.0, 2023-11-25 17:09:32.892
13.0, 12343.750875443326, 18862.59244234472, -54626.814082481156, -53443.35626880602, -66927.73901554811, -4050.2478540239163, -35745.155602116065, 21158.742446749504, -0.24, 0.9380000000000001, 0.192, 192.0, 0.0, 0.0, 0.0, 0.0, 0.0, 0.0, 0.0, 0.0, 0.0, 1.700950172895795E9, 0.0, 2023-11-25 17:09:32.895
14.0, 12400.054919726244, 18951.50768178793, -54589.821945407624, -53393.42247169286, -66907.86831472736, -4022.4646356659696, -35723.966148372434, 21203.468287404572, -0.24, 0.9380000000000001, 0.192, 192.0, 0.0, 0.0, 0.0, 0.0, 0.0, 0.0, 0.0, 0.0, 0.0, 1.700950172899795E9, 0.0, 2023-11-25 17:09:32.899
15.0, 12431.146196263577, 18942.164652605614, -54611.03375089571, -53409.694541656325, -66850.44668322167, -3910.907079089532, -35688.13630201058, 21212.43133693115, -0.24, 0.9380000000000001, 0.192, 192.0, 0.0, 0.0, 0.0, 0.0, 0.0, 0.0, 0.0, 0.0, 0.0, 1.700950172903798E9, 0.0, 2023-11-25 17:09:32.903
16.0, 12338.900546896524, 18808.43416552951, -54654.55259735019, -53478.135583178475, -66915.42320435324, -4029.2148624914726, -35732.079831609706, 21144.772606464936, -0.24, 0.9380000000000001, 0.192, 192.0, 0.0, 0.0, 0.0, 0.0, 0.0, 0.0, 0.0, 0.0, 0.0, 1.700950172906839E9, 0.0, 2023-11-25 17:09:32.906
17.0, 12328.618744447083, 18834.093968164205, -54642.01326871077, -53458.24253061325, -66941.03830349902, -4058.0039093499076, -35735.61140723365, 21153.46743505805, -0.24, 0.9380000000000001, 0.192, 192.0, 0.0, 0.0, 0.0, 0.0, 0.0, 0.0, 0.0, 0.0, 0.0, 1.700950172910865E9, 0.0, 2023-11-25 17:09:32.910
18.0, 12389.057861454232, 18933.4698240125, -54601.55661124666, -53402.78785261964, -66923.87216375735, -4029.460731680481, -35710.331584254694, 21197.9027030352, -0.234, 0.9440000000000001, 0.194, 192.0, 248.0, 176.0, 29.0, 128.0, 6.0, 16.0, 0.0, 0.0, 0.0, 1.700950172914913E9, 0.0, 2023-11-25 17:09:32.914
19.0, 12439.148120778576, 18946.880870685683, -54603.30004731417, -53401.312637485586, -66859.74500891507, -3918.618430926613, -35672.60183961414, 21232.413796474197, -0.234, 0.9440000000000001, 0.194, 192.0, 0.0, 0.0, 0.0, 0.0, 0.0, 0.0, 0.0, 0.0, 0.0, 1.70095017291991E9, 0.0, 2023-11-25 17:09:32.919
20.0, 12357.340736072152, 18819.006540656872, -54651.401001382, -53475.0733941881, -66903.82264898093, -3999.0400074768077, -35723.764982672335, 21152.841586213304, -0.234, 0.9440000000000001, 0.194, 192.0, 0.0, 0.0, 0.0, 0.0, 0.0, 0.0, 0.0, 0.0, 0.0, 1.700950172926344E9, 0.0, 2023-11-25 17:09:32.926
21.0, 12327.635267691048, 18804.54496199429, -54639.107541931575, -53464.00928068272, -66937.90905927528, -4068.3304152882597, -35740.34997705817, 21151.701647246082, -0.234, 0.9440000000000001, 0.194, 192.0, 0.0, 0.0, 0.0, 0.0, 0.0, 0.0, 0.0, 0.0, 0.0, 1.700950172928959E9, 0.0, 2023-11-25 17:09:32.928
22.0, 12375.847980481147, 18888.095782768225, -54609.24561133929, -53420.13280631695, -66933.21519293966, -4051.1866272910393, -35745.289712582795, 21166.364391608764, -0.234, 0.9440000000000001, 0.194, 192.0, 0.0, 0.0, 0.0, 0.0, 0.0, 0.0, 0.0, 0.0, 0.0, 1.700950172933001E9, 0.0, 2023-11-25 17:09:32.933
23.0, 12458.616490199149, 18958.50377780244, -54581.75296565926, -53386.29226521162, -66859.07445658141, -3962.8972366925764, -35700.07213354971, 21193.14178146622, -0.234, 0.9440000000000001, 0.194, 192.0, 0.0, 0.0, 0.0, 0.0, 0.0, 0.0, 0.0, 0.0, 0.0, 1.700950172935952E9, 0.0, 2023-11-25 17:09:32.935
24.0, 12406.894553529568, 18857.809169031283, -54641.52153033275, -53467.69731851784, -66889.539884274, -3998.861193521165, -35736.66193922305, 21109.188629292086, -0.234, 0.9440000000000001, 0.194, 192.0, 0.0, 0.0, 0.0, 0.0, 0.0, 0.0, 0.0, 0.0, 0.0, 1.70095017293903E9, 0.0, 2023-11-25 17:09:32.939
25.0, 12349.852901679624, 18806.936598651006, -54636.91707097496, -53475.43102209938, -66939.54073662052, -4108.675314030089, -35762.65701802457, 21097.096335541766, -0.234, 0.9440000000000001, 0.194, 192.0, 0.0, 0.0, 0.0, 0.0, 0.0, 0.0, 0.0, 0.0, 0.0, 1.700950172942951E9, 0.0, 2023-11-25 17:09:32.942
26.0, 12381.994710206356, 18881.479666409454, -54606.58575374911, -53428.33589653205, -66932.52228886155, -4068.3751187771704, -35750.5870760187, 21167.57138580935, -0.234, 0.9440000000000001, 0.194, 192.0, 0.0, 0.0, 0.0, 0.0, 0.0, 0.0, 0.0, 0.0, 0.0, 1.700950172946944E9, 0.0, 2023-11-25 17:09:32.946
27.0, 12454.74963840838, 18959.84488246976, -54573.058137066146, -53387.78983209012, -66872.37374453232, -4000.939905755509, -35712.075020322205, 21208.519781651474, -0.234, 0.9440000000000001, 0.186, 192.0, 248.0, 176.0, 29.0, 128.0, 5.0, 208.0, 0.0, 0.0, 0.0, 1.700950172951022E9, 0.0, 2023-11-25 17:09:32.951
28.0, 12417.913963546034, 18876.4058204181, -54633.07257092865, -53457.95195793533, -66875.27947131151, -3984.3102078807606, -35736.57253224523, 21148.79592046689, -0.234, 0.9440000000000001, 0.186, 192.0, 0.0, 0.0, 0.0, 0.0, 0.0, 0.0, 0.0, 0.0, 0.0, 1.700950172957974E9, 0.0, 2023-11-25 17:09:32.957
29.0, 12344.86846266609, 18799.784040425307, -54634.59248955161, -53476.99564421125, -66932.61169583937, -4122.913375248119, -35776.29158214231, 21112.40728049365, -0.234, 0.9440000000000001, 0.186, 192.0, 0.0, 0.0, 0.0, 0.0, 0.0, 0.0, 0.0, 0.0, 0.0, 1.700950172962032E9, 0.0, 2023-11-25 17:09:32.962
30.0, 12368.918939700001, 18873.008355260892, -54610.29614332869, -53436.740152447244, -66928.87895451534, -4088.1117091312067, -35766.83679423771, 21143.699722731082, -0.234, 0.9440000000000001, 0.186, 192.0, 0.0, 0.0, 0.0, 0.0, 0.0, 0.0, 0.0, 0.0, 0.0, 1.700950172965013E9, 0.0, 2023-11-25 17:09:32.965
31.0, 12444.378428981117, 18966.818626739816, -54565.45854395134, -53381.91132329838, -66874.56421548894, -4033.4616939379807, -35729.50938099735, 21175.506255090982, -0.234, 0.9440000000000001, 0.186, 192.0, 0.0, 0.0, 0.0, 0.0, 0.0, 0.0, 0.0, 0.0, 0.0, 1.700950172968078E9, 0.0, 2023-11-25 17:09:32.968
32.0, 12441.159777779554, 18921.109309328713, -54607.85980318306, -53428.067675598584, -66844.72463664111, -3962.0255186588192, -35722.982671616395, 21141.55395526337, -0.234, 0.9440000000000001, 0.186, 192.0, 0.0, 0.0, 0.0, 0.0, 0.0, 0.0, 0.0, 0.0, 0.0, 1.700950172971369E9, 0.0, 2023-11-25 17:09:32.971
33.0, 12354.747933715336, 18812.859810931663, -54623.43896906841, -53468.01024294022, -66912.60688455187, -4103.489709316457, -35763.327570358226, 21102.0807745553, -0.234, 0.9440000000000001, 0.186, 192.0, 0.0, 0.0, 0.0, 0.0, 0.0, 0.0, 0.0, 0.0, 0.0, 1.700950172975096E9, 0.0, 2023-11-25 17:09:32.975
34.0, 12364.917977442501, 18864.380581901143, -54609.4914805283, -53439.53412050416, -66922.21813466765, -4079.61804623819, -35761.49472731289, 21138.245897083987, -0.234, 0.9440000000000001, 0.186, 192.0, 0.0, 0.0, 0.0, 0.0, 0.0, 0.0, 0.0, 0.0, 0.0, 1.700950172979133E9, 0.0, 2023-11-25 17:09:32.979
35.0, 12439.215176011941, 18961.61067028173, -54557.2778054807, -53380.07848025304, -66879.32513705792, -4041.6200806641677, -35731.856314165154, 21181.630633071738, -0.234, 0.9440000000000001, 0.186, 192.0, 0.0, 0.0, 0.0, 0.0, 0.0, 0.0, 0.0, 0.0, 0.0, 1.700950172983164E9, 0.0, 2023-11-25 17:09:32.983
36.0, 12450.011068583855, 18928.664198954608, -54595.5886954771, -53415.86362312599, -66838.01911330452, -3943.2724050608167, -35716.92534886901, 21175.48390334653, -0.234, 0.9440000000000001, 0.186, 192.0, 0.0, 0.0, 0.0, 0.0, 0.0, 0.0, 0.0, 0.0, 0.0, 1.700950172998136E9, 0.0, 2023-11-25 17:09:32.998
37.0, 12356.536073271762, 18812.256313831367, -54623.55072779069, -53465.90917896142, -66902.88387571381, -4075.482973513958, -35754.16335513155, 21128.254667312463, -0.242, 0.9520000000000001, 0.186, 192.0, 248.0, 112.0, 29.0, 192.0, 5.0, 208.0, 0.0, 0.0, 0.0, 1.700950173002418E9, 0.0, 2023-11-25 17:09:33.002
38.0, 12350.970488902389, 18842.699389779496, -54610.81023345116, -53436.606041980514, -66917.16664042075, -4072.443136268036, -35743.09924162617, 21163.682182274126, -0.242, 0.9520000000000001, 0.186, 192.0, 0.0, 0.0, 0.0, 0.0, 0.0, 0.0, 0.0, 0.0, 0.0, 1.700950173005178E9, 0.0, 2023-11-25 17:09:33.005
39.0, 12410.292018686774, 18936.174385091592, -54571.64997716546, -53380.01142501968, -66893.92082618724, -4046.13513304414, -35720.85925589314, 21194.90756927819, -0.242, 0.9520000000000001, 0.186, 192.0, 0.0, 0.0, 0.0, 0.0, 0.0, 0.0, 0.0, 0.0, 0.0, 1.700950173008202E9, 0.0, 2023-11-25 17:09:33.008
40.0, 12445.65247841507, 18944.33277181778, -54596.01337862175, -53393.71304437078, -66841.64009590627, -3940.4113817705374, -35696.60761315913, 21193.901740777703, -0.242, 0.9520000000000001, 0.186, 192.0, 0.0, 0.0, 0.0, 0.0, 0.0, 0.0, 0.0, 0.0, 0.0, 1.700950173012159E9, 0.0, 2023-11-25 17:09:33.012
41.0, 12362.168712874498, 18832.395235585598, -54632.49142557281, -53451.916986932396, -66894.16669537625, -4045.129304543651, -35740.72995671391, 21131.406263280664, -0.242, 0.9520000000000001, 0.186, 192.0, 0.0, 0.0, 0.0, 0.0, 0.0, 0.0, 0.0, 0.0, 0.0, 1.700950173015472E9, 0.0, 2023-11-25 17:09:33.015
42.0, 12338.67702945197, 18838.58666879972, -54615.88407944251, -53431.04045761114, -66914.93146597523, -4070.610293222701, -35724.36847977263, 21156.775493237437, -0.242, 0.9520000000000001, 0.186, 192.0, 0.0, 0.0, 0.0, 0.0, 0.0, 0.0, 0.0, 0.0, 0.0, 1.700950173018241E9, 0.0, 2023-11-25 17:09:33.018
43.0, 12390.220152165908, 18933.80510017933, -54571.76173588774, -53373.66352959437, -66895.2395791101, -4039.295499240816, -35698.7757323713, 21203.84826706031, -0.242, 0.9520000000000001, 0.186, 192.0, 0.0, 0.0, 0.0, 0.0, 0.0, 0.0, 0.0, 0.0, 0.0, 1.700950173022217E9, 0.0, 2023-11-25 17:09:33.022
44.0, 12450.07812381722, 18967.265661628924, -54576.65676792345, -53370.22136094825, -66838.1755755157, -3942.199521326962, -35675.038179759766, 21205.94933103911, -0.242, 0.9520000000000001, 0.186, 192.0, 0.0, 0.0, 0.0, 0.0, 0.0, 0.0, 0.0, 0.0, 0.0, 1.700950173025296E9, 0.0, 2023-11-25 17:09:33.025
45.0, 12378.865465982613, 18848.10851193768, -54636.738257019315, -53450.82175145409, -66889.1375528738, -4020.609440876179, -35734.873799666624, 21114.865972383737, -0.242, 0.9520000000000001, 0.186, 192.0, 0.0, 0.0, 0.0, 0.0, 0.0, 0.0, 0.0, 0.0, 0.0, 1.700950173029243E9, 0.0, 2023-11-25 17:09:33.029
46.0, 12346.835416178157, 18839.30192462229, -54624.46714931335, -53438.75180944822, -66925.3920823803, -4097.119462146695, -35753.13517488661, 21119.671597441626, -0.242, 0.9520000000000001, 0.186, 192.0, 0.0, 0.0, 0.0, 0.0, 0.0, 0.0, 0.0, 0.0, 0.0, 1.700950173032265E9, 0.0, 2023-11-25 17:09:33.032
47.0, 12394.019948723311, 18933.760396690417, -54595.499288499275, -53393.17660250385, -66919.42416661074, -4071.0349763673516, -35744.75327071587, 21156.775493237437, -0.23600000000000002, 0.9400000000000001, 0.192, 192.0, 248.0, 160.0, 29.0, 96.0, 6.0, 0.0, 0.0, 0.0, 0.0, 1.70095017303524E9, 0.0, 2023-11-25 17:09:33.035
48.0, 12466.506655991872, 18995.875894531717, -54578.48961096878, -53367.76266905817, -66859.81206414844, -3989.6075713166683, -35712.4773517224, 21188.738487808525, -0.23600000000000002, 0.9400000000000001, 0.192, 192.0, 0.0, 0.0, 0.0, 0.0, 0.0, 0.0, 0.0, 0.0, 0.0, 1.700950173038249E9, 0.0, 2023-11-25 17:09:33.038
49.0, 12411.566068120726, 18888.58752114624, -54639.17459716494, -53446.8654926855, -66883.50491327107, -4013.0545512502854, -35755.66092201006, 21117.436422996096, -0.23600000000000002, 0.9400000000000001, 0.192, 192.0, 0.0, 0.0, 0.0, 0.0, 0.0, 0.0, 0.0, 0.0, 0.0, 1.700950173042265E9, 0.0, 2023-11-25 17:09:33.042
50.0, 12355.820817449192, 18836.64206703211, -54626.00941968077, -53448.988908408755, -66928.5436783485, -4123.472168859502, -35768.4908233274, 21105.768812390426, -0.23600000000000002, 0.9400000000000001, 0.192, 192.0, 0.0, 0.0, 0.0, 0.0, 0.0, 0.0, 0.0, 0.0, 0.0, 1.70095017304529E9, 0.0, 2023-11-25 17:09:33.045
51.0, 12392.20945742243, 18920.192887806046, -54595.141660587986, -53403.34664623102, -66921.07819570044, -4086.412976552603, -35748.06132889525, 21146.56074602136, -0.23600000000000002, 0.9400000000000001, 0.192, 192.0, 0.0, 0.0, 0.0, 0.0, 0.0, 0.0, 0.0, 0.0, 0.0, 1.700950173049224E9, 0.0, 2023-11-25 17:09:33.049
52.0, 12467.937167637012, 19004.458964402555, -54564.67623289541, -53363.38172714493, -66865.86938689582, -4025.5938798897128, -35710.957433099444, 21170.655926544183, -0.23600000000000002, 0.9400000000000001, 0.192, 192.0, 0.0, 0.0, 0.0, 0.0, 0.0, 0.0, 0.0, 0.0, 0.0, 1.70095017305238E9, 0.0, 2023-11-25 17:09:33.052
53.0, 12425.60296363866, 18914.627303436675, -54634.503082573785, -53442.618661238994, -66875.39123003378, -4005.700827324489, -35737.399546790075, 21107.04286182438, -0.23600000000000002, 0.9400000000000001, 0.192, 192.0, 0.0, 0.0, 0.0, 0.0, 0.0, 0.0, 0.0, 0.0, 0.0, 1.700950173056315E9, 0.0, 2023-11-25 17:09:33.056
54.0, 12346.723657455881, 18827.276686105335, -54640.91803323246, -53465.77506849469, -66936.99263775261, -4142.605262113245, -35774.65990479707, 21082.74651560146, -0.23600000000000002, 0.9400000000000001, 0.192, 192.0, 0.0, 0.0, 0.0, 0.0, 0.0, 0.0, 0.0, 0.0, 0.0, 1.7009501730593E9, 0.0, 2023-11-25 17:09:33.059
55.0, 12371.914073457012, 18903.518486442386, -54615.906431186966, -53422.2562220402, -66933.21519293966, -4102.819156982799, -35763.819308736245, 21128.969923135035, -0.23600000000000002, 0.9400000000000001, 0.192, 192.0, 0.0, 0.0, 0.0, 0.0, 0.0, 0.0, 0.0, 0.0, 0.0, 1.700950173063352E9, 0.0, 2023-11-25 17:09:33.063
56.0, 12443.41730396954, 18996.27822593191, -54577.394375490476, -53373.08238423853, -66887.8858551843, -4056.126362815662, -35731.74455544288, 21162.56459505136, -0.23600000000000002, 0.9400000000000001, 0.192, 192.0, 0.0, 0.0, 0.0, 0.0, 0.0, 0.0, 0.0, 0.0, 0.0, 1.700950173067563E9, 0.0, 2023-11-25 17:09:33.067
57.0, 12430.386236952096, 18938.923649659595, -54633.20668139538, -53430.83929191104, -66865.84703515137, -3986.5677340707466, -35735.03026187781, 21125.393644022184, -0.232, 0.934, 0.192, 192.0, 248.0, 192.0, 29.0, 48.0, 6.0, 0.0, 0.0, 0.0, 0.0, 1.700950173070314E9, 0.0, 2023-11-25 17:09:33.070
58.0, 12341.135721342054, 18836.798529243297, -54645.92482399045, -53466.75854525073, -66926.82259402545, -4130.736485807477, -35773.98935246341, 21084.64641388016, -0.232, 0.934, 0.192, 192.0, 0.0, 0.0, 0.0, 0.0, 0.0, 0.0, 0.0, 0.0, 0.0, 1.700950173074389E9, 0.0, 2023-11-25 17:09:33.074
59.0, 12350.29993656873, 18892.230855492457, -54624.2436318688, -53429.92287038838, -66928.25310567059, -4103.847337227742, -35758.11961390014, 21119.51513523044, -0.232, 0.934, 0.192, 192.0, 0.0, 0.0, 0.0, 0.0, 0.0, 0.0, 0.0, 0.0, 0.0, 1.700950173078315E9, 0.0, 2023-11-25 17:09:33.078
60.0, 12422.518422903828, 18992.724298563517, -54576.61206443454, -53370.80250630409, -66892.4903145421, -4069.850333911221, -35722.66974719402, 21153.53449029142, -0.232, 0.934, 0.192, 192.0, 0.0, 0.0, 0.0, 0.0, 0.0, 0.0, 0.0, 0.0, 0.0, 1.700950173082354E9, 0.0, 2023-11-25 17:09:33.082
61.0, 12435.974173065923, 18956.98385917948, -54622.36608533455, -53411.7061986573, -66857.68864842519, -3977.8729054776322, -35710.42099123252, 21129.41695802414, -0.232, 0.934, 0.192, 192.0, 0.0, 0.0, 0.0, 0.0, 0.0, 0.0, 0.0, 0.0, 0.0, 1.700950173087363E9, 0.0, 2023-11-25 17:09:33.087
62.0, 12350.702267968925, 18839.48073857793, -54650.95396649289, -53464.836295227564, -66919.4912218441, -4114.106787932728, -35756.21971562144, 21067.480274138485, -0.232, 0.934, 0.192, 192.0, 0.0, 0.0, 0.0, 0.0, 0.0, 0.0, 0.0, 0.0, 0.0, 1.700950173091345E9, 0.0, 2023-11-25 17:09:33.091
63.0, 12344.622593477083, 18870.192035459524, -54636.470036085855, -53435.063771613095, -66932.67875107274, -4114.285601888371, -35750.29650334078, 21112.1837630491, -0.232, 0.934, 0.192, 192.0, 0.0, 0.0, 0.0, 0.0, 0.0, 0.0, 0.0, 0.0, 0.0, 1.700950173095342E9, 0.0, 2023-11-25 17:09:33.095
64.0, 12403.541791861271, 18966.215129639524, -54592.79472742018, -53372.97062551625, -66904.44849782568, -4076.2429328254384, -35725.75428792886, 21178.590795825818, -0.232, 0.934, 0.192, 192.0, 0.0, 0.0, 0.0, 0.0, 0.0, 0.0, 0.0, 0.0, 0.0, 1.700950173098365E9, 0.0, 2023-11-25 17:09:33.098
65.0, 12439.438693456495, 18975.692269288575, -54613.58184976362, -53384.9511605443, -66849.5749651879, -3971.88263796361, -35700.29565099426, 21181.76474353847, -0.232, 0.934, 0.192, 192.0, 0.0, 0.0, 0.0, 0.0, 0.0, 0.0, 0.0, 0.0, 0.0, 1.700950173102387E9, 0.0, 2023-11-25 17:09:33.102
66.0, 12366.661413510015, 18869.32031742577, -54646.3495071351, -53441.076390871574, -66896.11129714386, -4074.745365946933, -35741.17699160302, 21112.764908404937, -0.232, 0.934, 0.192, 192.0, 0.0, 0.0, 0.0, 0.0, 0.0, 0.0, 0.0, 0.0, 0.0, 1.700950173106391E9, 0.0, 2023-11-25 17:09:33.106
67.0, 12353.317422070197, 18882.01610827638, -54628.46811157085, -53419.7081231723, -66916.33962587592, -4112.676276287589, -35739.07592762422, 21133.17205109263, -0.232, 0.9400000000000001, 0.186, 192.0, 248.0, 192.0, 29.0, 96.0, 5.0, 208.0, 0.0, 0.0, 0.0, 1.700950173110397E9, 0.0, 2023-11-25 17:09:33.110
68.0, 12393.59526557866, 18962.482388315486, -54601.82483218013, -53384.54882914411, -66916.25021889809, -4101.343941848748, -35743.92625617102, 21147.499519288485, -0.232, 0.9400000000000001, 0.186, 192.0, 0.0, 0.0, 0.0, 0.0, 0.0, 0.0, 0.0, 0.0, 0.0, 1.700950173114451E9, 0.0, 2023-11-25 17:09:33.114
69.0, 12449.675792417025, 18995.987653253993, -54602.271867069234, -53381.68780585383, -66862.53897697199, -4013.1216064836512, -35717.618252947126, 21151.27696410143, -0.232, 0.9400000000000001, 0.186, 192.0, 0.0, 0.0, 0.0, 0.0, 0.0, 0.0, 0.0, 0.0, 0.0, 1.700950173119719E9, 0.0, 2023-11-25 17:09:33.119
70.0, 12370.327099600685, 18873.008355260892, -54670.69055684693, -53470.26776913021, -66915.06557644196, -4083.261380584405, -35775.88925074211, 21071.50358814044, -0.232, 0.9400000000000001, 0.186, 192.0, 0.0, 0.0, 0.0, 0.0, 0.0, 0.0, 0.0, 0.0, 0.0, 1.700950173123602E9, 0.0, 2023-11-25 17:09:33.123
71.0, 12330.362180514596, 18849.71783753846, -54658.46415262987, -53459.87420795849, -66951.52127164857, -4159.436125688091, -35792.340134661215, 21086.143980758665, -0.232, 0.9400000000000001, 0.186, 192.0, 0.0, 0.0, 0.0, 0.0, 0.0, 0.0, 0.0, 0.0, 0.0, 1.700950173126415E9, 0.0, 2023-11-25 17:09:33.126
72.0, 12370.081230411677, 18936.64377172515, -54625.92001270295, -53414.12018705848, -66942.60292561089, -4124.098017704251, -35778.303239143286, 21132.36738829224, -0.232, 0.9400000000000001, 0.186, 192.0, 0.0, 0.0, 0.0, 0.0, 0.0, 0.0, 0.0, 0.0, 0.0, 1.700950173130495E9, 0.0, 2023-11-25 17:09:33.130
73.0, 12446.70301040447, 19004.838944058294, -54597.22037282233, -53380.41375641987, -66875.50298875607, -4043.475275453958, -35736.8854566676, 21165.559728808374, -0.232, 0.9400000000000001, 0.186, 192.0, 0.0, 0.0, 0.0, 0.0, 0.0, 0.0, 0.0, 0.0, 0.0, 1.70095017314213E9, 0.0, 2023-11-25 17:09:33.142
74.0, 12404.16764070602, 18917.98006510497, -54651.222187426356, -53451.425248554384, -66888.5340557735, -4047.4985894559136, -35760.824174979236, 21104.919446101125, -0.232, 0.9400000000000001, 0.186, 192.0, 0.0, 0.0, 0.0, 0.0, 0.0, 0.0, 0.0, 0.0, 0.0, 1.700950173144765E9, 0.0, 2023-11-25 17:09:33.144
75.0, 12348.467093523395, 18870.72847732645, -54640.11337043207, -53456.34263233455, -66935.048035985, -4161.9395210670855, -35782.974753734445, 21093.251835495455, -0.232, 0.9400000000000001, 0.186, 192.0, 0.0, 0.0, 0.0, 0.0, 0.0, 0.0, 0.0, 0.0, 0.0, 1.700950173147753E9, 0.0, 2023-11-25 17:09:33.147
76.0, 12387.984977720378, 18955.03925741187, -54605.13289035951, -53407.97345733327, -66922.70987304568, -4117.392494367658, -35766.74738725989, 21140.972809907533, -0.232, 0.9400000000000001, 0.186, 192.0, 0.0, 0.0, 0.0, 0.0, 0.0, 0.0, 0.0, 0.0, 0.0, 1.700950173151529E9, 0.0, 2023-11-25 17:09:33.151
77.0, 12458.348269265685, 19031.23635426001, -54573.50517195525, -53368.18735220282, -66870.65266020926, -4056.0816593267514, -35731.14105834258, 21181.965909238566, -0.23800000000000002, 0.9400000000000001, 0.186, 192.0, 248.0, 144.0, 29.0, 96.0, 5.0, 208.0, 0.0, 0.0, 0.0, 1.700950173154599E9, 0.0, 2023-11-25 17:09:33.154
78.0, 12429.670981129526, 18958.146149891156, -54633.184329650925, -53436.13665534695, -66866.49523574057, -4016.072036751752, -35750.9894074189, 21133.440272026095, -0.23800000000000002, 0.9400000000000001, 0.186, 192.0, 0.0, 0.0, 0.0, 0.0, 0.0, 0.0, 0.0, 0.0, 0.0, 1.7009501731575E9, 0.0, 2023-11-25 17:09:33.157
79.0, 12355.73141047137, 18868.202730203, -54636.98412620832, -53460.05302191413, -66926.82259402545, -4155.993957041974, -35790.12731196014, 21094.257663995944, -0.23800000000000002, 0.9400000000000001, 0.186, 192.0, 0.0, 0.0, 0.0, 0.0, 0.0, 0.0, 0.0, 0.0, 0.0, 1.700950173161524E9, 0.0, 2023-11-25 17:09:33.161
80.0, 12389.326082387697, 18936.911992658617, -54609.893811928494, -53414.50016671421, -66921.77109977855, -4118.107750190228, -35777.7444455319, 21134.647266226682, -0.23800000000000002, 0.9400000000000001, 0.186, 192.0, 0.0, 0.0, 0.0, 0.0, 0.0, 0.0, 0.0, 0.0, 0.0, 1.700950173164518E9, 0.0, 2023-11-25 17:09:33.164
81.0, 12462.460990245461, 19026.698950135586, -54571.158238787444, -53362.53236085563, -66882.02969813702, -4081.294427072338, -35750.76588997435, 21169.13600792122, -0.23800000000000002, 0.9400000000000001, 0.186, 192.0, 0.0, 0.0, 0.0, 0.0, 0.0, 0.0, 0.0, 0.0, 0.0, 1.700950173168541E9, 0.0, 2023-11-25 17:09:33.168
82.0, 12458.32591752123, 18978.821513512317, -54618.27571609923, -53410.454500967804, -66852.81596813393, -4002.102196467185, -35735.432593278005, 21150.584060023317, -0.23800000000000002, 0.9400000000000001, 0.186, 192.0, 0.0, 0.0, 0.0, 0.0, 0.0, 0.0, 0.0, 0.0, 0.0, 1.70095017318261E9, 0.0, 2023-11-25 17:09:33.182
83.0, 12366.102619898633, 18865.699334824007, -54639.30870763167, -53457.639033512954, -66920.5417538335, -4148.349660438259, -35776.22452690894, 21105.813515879338, -0.23800000000000002, 0.9400000000000001, 0.186, 192.0, 0.0, 0.0, 0.0, 0.0, 0.0, 0.0, 0.0, 0.0, 0.0, 1.700950173186654E9, 0.0, 2023-11-25 17:09:33.186
84.0, 12372.808143235225, 18913.241495280447, -54622.679009756925, -53428.20178606532, -66927.76136729257, -4139.699535334055, -35773.27409664084, 21137.597696494784, -0.23800000000000002, 0.9400000000000001, 0.186, 192.0, 0.0, 0.0, 0.0, 0.0, 0.0, 0.0, 0.0, 0.0, 0.0, 1.700950173189634E9, 0.0, 2023-11-25 17:09:33.189
85.0, 12449.944013350489, 19020.842793088294, -54567.78312537469, -53363.11350621146, -66885.49421852759, -4107.6694855296, -35738.49478226838, 21189.029060486446, -0.23800000000000002, 0.9400000000000001, 0.186, 192.0, 0.0, 0.0, 0.0, 0.0, 0.0, 0.0, 0.0, 0.0, 0.0, 1.700950173193677E9, 0.0, 2023-11-25 17:09:33.193
86.0, 12475.08972586271, 19005.598903369773, -54596.66157921095, -53387.387500689925, -66832.81115684642, -4003.063321478763, -35717.14886631356, 21185.408077884684, -0.23800000000000002, 0.9400000000000001, 0.186, 192.0, 0.0, 0.0, 0.0, 0.0, 0.0, 0.0, 0.0, 0.0, 0.0, 1.700950173196648E9, 0.0, 2023-11-25 17:09:33.196
87.0, 12371.422335078996, 18874.327108183756, -54638.81696925366, -53452.98987066626, -66902.3921373358, -4136.43618064358, -35776.38098912012, 21109.054518825356, -0.232, 0.9440000000000001, 0.19, 192.0, 248.0, 192.0, 29.0, 128.0, 5.0, 240.0, 0.0, 0.0, 0.0, 1.700950173199605E9, 0.0, 2023-11-25 17:09:33.199
88.0, 12368.471904810895, 18907.407689977612, -54615.23587885331, -53417.450596982315, -66911.37753860683, -4145.332174936792, -35770.30131462828, 21138.223545339533, -0.232, 0.9440000000000001, 0.19, 192.0, 0.0, 0.0, 0.0, 0.0, 0.0, 0.0, 0.0, 0.0, 0.0, 1.700950173204115E9, 0.0, 2023-11-25 17:09:33.204
89.0, 12427.771082850824, 19006.537676636897, -54576.053270823155, -53363.00174748919, -66894.61373026535, -4120.409979869125, -35750.09533764068, 21178.81431327037, -0.232, 0.9440000000000001, 0.19, 192.0, 0.0, 0.0, 0.0, 0.0, 0.0, 0.0, 0.0, 0.0, 0.0, 1.700950173206719E9, 0.0, 2023-11-25 17:09:33.206
90.0, 12465.724344935936, 19013.690234862595, -54600.863707168544, -53381.307826198085, -66848.03269482049, -4022.7328565994335, -35725.10608733965, 21179.686031304125, -0.232, 0.9440000000000001, 0.19, 192.0, 0.0, 0.0, 0.0, 0.0, 0.0, 0.0, 0.0, 0.0, 0.0, 1.700950173209639E9, 0.0, 2023-11-25 17:09:33.209
91.0, 12385.280416641286, 18894.331919471257, -54646.68478330193, -53453.57101602209, -66901.20749487967, -4124.142721193161, -35776.962134475965, 21099.376213476207, -0.232, 0.9440000000000001, 0.19, 192.0, 0.0, 0.0, 0.0, 0.0, 0.0, 0.0, 0.0, 0.0, 0.0, 1.700950173213649E9, 0.0, 2023-11-25 17:09:33.213
92.0, 12361.475808796384, 18897.93055032856, -54629.98803019381, -53437.298946058625, -66925.48148935814, -4170.924922338119, -35781.41013162257, 21110.88736187069, -0.232, 0.9440000000000001, 0.19, 192.0, 0.0, 0.0, 0.0, 0.0, 0.0, 0.0, 0.0, 0.0, 0.0, 1.700950173216729E9, 0.0, 2023-11-25 17:09:33.216
93.0, 12399.0267394813, 18979.29090014588, -54604.57409674813, -53397.64695139491, -66923.58159107943, -4153.334099451792, -35784.40526537958, 21132.1885743366, -0.232, 0.9440000000000001, 0.19, 192.0, 0.0, 0.0, 0.0, 0.0, 0.0, 0.0, 0.0, 0.0, 0.0, 1.700950173220695E9, 0.0, 2023-11-25 17:09:33.220
94.0, 12453.90027211908, 19020.19459249909, -54598.87440191203, -53381.19606747581, -66860.9296513712, -4057.9592058609974, -35753.49280279789, 21156.82019672635, -0.232, 0.9440000000000001, 0.19, 192.0, 0.0, 0.0, 0.0, 0.0, 0.0, 0.0, 0.0, 0.0, 0.0, 1.700950173223736E9, 0.0, 2023-11-25 17:09:33.223
95.0, 12385.995672463856, 18914.627303436675, -54654.75376305029, -53452.58753926606, -66895.32898608792, -4104.182613394572, -35790.239070682415, 21098.16921927562, -0.232, 0.9440000000000001, 0.19, 192.0, 0.0, 0.0, 0.0, 0.0, 0.0, 0.0, 0.0, 0.0, 0.0, 1.700950173226777E9, 0.0, 2023-11-25 17:09:33.226
96.0, 12341.761570186804, 18884.586558888743, -54641.9462134774, -53445.45733278481, -66935.09273947391, -4190.482698736513, -35802.48782664393, 21101.812553621836, -0.232, 0.9440000000000001, 0.19, 192.0, 0.0, 0.0, 0.0, 0.0, 0.0, 0.0, 0.0, 0.0, 0.0, 1.700950173230762E9, 0.0, 2023-11-25 17:09:33.230
97.0, 12370.192989133953, 18957.60970802423, -54623.66248651296, -53411.4603294683, -66941.06065524348, -4163.101811778762, -35795.89406202961, 21127.60646672326, -0.23600000000000002, 0.9420000000000001, 0.194, 192.0, 248.0, 160.0, 29.0, 112.0, 6.0, 16.0, 0.0, 0.0, 0.0, 1.70095017323381E9, 0.0, 2023-11-25 17:09:33.233
98.0, 12432.330838719707, 19020.306351221367, -54606.94338166039, -53386.71694835627, -66890.41160230775, -4092.6267615111783, -35764.020474436344, 21152.774530979936, -0.23600000000000002, 0.9420000000000001, 0.194, 192.0, 0.0, 0.0, 0.0, 0.0, 0.0, 0.0, 0.0, 0.0, 0.0, 1.700950173236827E9, 0.0, 2023-11-25 17:09:33.236
99.0, 12372.606977535126, 18916.236629037456, -54675.87616156056, -53471.11713541951, -66913.88093398583, -4099.108767403218, -35801.03496325433, 21074.54342538636, -0.23600000000000002, 0.9420000000000001, 0.194, 192.0, 0.0, 0.0, 0.0, 0.0, 0.0, 0.0, 0.0, 0.0, 0.0, 1.700950173240781E9, 0.0, 2023-11-25 17:09:33.240
100.0, 12314.268924506776, 18858.144445198115, -54657.368917151565, -53471.67592903089, -66953.82350132745, -4212.543870513901, -35816.68118437305, 21059.567756601307, -0.23600000000000002, 0.9420000000000001, 0.194, 192.0, 0.0, 0.0, 0.0, 0.0, 0.0, 0.0, 0.0, 0.0, 0.0, 1.700950173243811E9, 0.0, 2023-11-25 17:09:33.243
101.0, 12337.693552695937, 18925.870230897694, -54629.83156798263, -53428.53706223215, -66947.76617858007, -4166.566332169335, -35792.474245127945, 21114.754213661457, -0.23600000000000002, 0.9420000000000001, 0.194, 192.0, 0.0, 0.0, 0.0, 0.0, 0.0, 0.0, 0.0, 0.0, 0.0, 1.700950173246868E9, 0.0, 2023-11-25 17:09:33.246
102.0, 12419.79151008028, 19016.126575008224, -54579.54014295818, -53365.25927367917, -66881.44855278118, -4096.426558068581, -35741.53461951431, 21174.85805450178, -0.23600000000000002, 0.9420000000000001, 0.194, 192.0, 0.0, 0.0, 0.0, 0.0, 0.0, 0.0, 0.0, 0.0, 0.0, 1.700950173250826E9, 0.0, 2023-11-25 17:09:33.250
103.0, 12398.244428425363, 18953.653449255642, -54638.66050704247, -53426.79362616463, -66870.60795672036, -4040.860121352687, -35747.12255562813, 21125.661864955648, -0.23600000000000002, 0.9420000000000001, 0.194, 192.0, 0.0, 0.0, 0.0, 0.0, 0.0, 0.0, 0.0, 0.0, 0.0, 1.700950173260877E9, 0.0, 2023-11-25 17:09:33.260
104.0, 12324.48367172285, 18866.280480179845, -54645.2989751457, -53455.5156177897, -66931.87408827235, -4190.460346992058, -35788.786207292826, 21078.0750010103, -0.23600000000000002, 0.9420000000000001, 0.194, 192.0, 0.0, 0.0, 0.0, 0.0, 0.0, 0.0, 0.0, 0.0, 0.0, 1.700950173265894E9, 0.0, 2023-11-25 17:09:33.265
105.0, 12344.130855099065, 18928.530088487874, -54622.72371324584, -53417.22707953776, -66929.32598940445, -4160.754878610955, -35784.82994852423, 21105.45588796805, -0.23600000000000002, 0.9420000000000001, 0.194, 192.0, 0.0, 0.0, 0.0, 0.0, 0.0, 0.0, 0.0, 0.0, 0.0, 1.700950173269907E9, 0.0, 2023-11-25 17:09:33.269
106.0, 12398.803222036746, 19004.883647547205, -54591.52067798623, -53375.921055784354, -66898.86056171186, -4140.1018667342505, -35771.68712278451, 21110.350920003762, -0.23600000000000002, 0.9420000000000001, 0.194, 192.0, 0.0, 0.0, 0.0, 0.0, 0.0, 0.0, 0.0, 0.0, 0.0, 1.700950173272896E9, 0.0, 2023-11-25 17:09:33.272
107.0, 12411.45430939845, 18971.110161675235, -54621.80729172317, -53406.94527708832, -66851.6313256778, -4039.7201823854666, -35746.45200329447, 21116.65411194016, -0.234, 0.9400000000000001, 0.192, 192.0, 248.0, 176.0, 29.0, 96.0, 6.0, 0.0, 0.0, 0.0, 0.0, 1.700950173275914E9, 0.0, 2023-11-25 17:09:33.275
108.0, 12337.358276529107, 18872.762486071886, -54628.19989063739, -53438.26007107021, -66902.72741350262, -4162.006576300451, -35772.38002686263, 21091.307233727843, -0.234, 0.9400000000000001, 0.192, 192.0, 0.0, 0.0, 0.0, 0.0, 0.0, 0.0, 0.0, 0.0, 0.0, 1.700950173280558E9, 0.0, 2023-11-25 17:09:33.280
109.0, 12338.453512007418, 18908.771146389383, -54614.00653290827, -53411.41562597938, -66915.11027993087, -4148.01438427143, -35762.96994244694, 21116.587056706794, -0.234, 0.9400000000000001, 0.192, 192.0, 0.0, 0.0, 0.0, 0.0, 0.0, 0.0, 0.0, 0.0, 0.0, 1.700950173282998E9, 0.0, 2023-11-25 17:09:33.282
110.0, 12406.849850040657, 19009.018720271437, -54571.85114286556, -53358.33023289803, -66888.46700054014, -4125.752046793944, -35747.48018353942, 21131.31685630284, -0.234, 0.9400000000000001, 0.192, 192.0, 0.0, 0.0, 0.0, 0.0, 0.0, 0.0, 0.0, 0.0, 0.0, 1.700950173286395E9, 0.0, 2023-11-25 17:09:33.286
111.0, 12434.767178865335, 19002.067327745837, -54610.7878817067, -53389.779137346646, -66847.58565993138, -4035.98744106143, -35737.89128516809, 21109.166277547632, -0.234, 0.9400000000000001, 0.192, 192.0, 0.0, 0.0, 0.0, 0.0, 0.0, 0.0, 0.0, 0.0, 0.0, 1.70095017329001E9, 0.0, 2023-11-25 17:09:33.290
112.0, 12357.92188142799, 18889.369832202177, -54640.98508846582, -53446.396106051936, -66903.35326234737, -4156.4186401866245, -35789.30029741529, 21050.15767218562, -0.234, 0.9400000000000001, 0.192, 192.0, 0.0, 0.0, 0.0, 0.0, 0.0, 0.0, 0.0, 0.0, 0.0, 1.700950173292969E9, 0.0, 2023-11-25 17:09:33.292
113.0, 12346.947174900435, 18901.149201530123, -54624.2436318688, -53422.92677437387, -66922.06167245648, -4173.428317717114, -35787.243936925406, 21065.803893304335, -0.234, 0.9400000000000001, 0.192, 192.0, 0.0, 0.0, 0.0, 0.0, 0.0, 0.0, 0.0, 0.0, 0.0, 1.700950173295968E9, 0.0, 2023-11-25 17:09:33.295
114.0, 12401.59719009366, 18989.170371195123, -54582.647035437476, -53370.57898885954, -66904.82847748142, -4156.463343675536, -35768.848451238686, 21092.357765717243, -0.234, 0.9400000000000001, 0.192, 192.0, 0.0, 0.0, 0.0, 0.0, 0.0, 0.0, 0.0, 0.0, 0.0, 1.700950173302949E9, 0.0, 2023-11-25 17:09:33.302
115.0, 12451.374524995628, 19013.24319997349, -54590.7830704192, -53372.5459423716, -66844.43406396318, -4052.863008125187, -35733.80091593277, 21105.83586762379, -0.234, 0.9400000000000001, 0.192, 192.0, 0.0, 0.0, 0.0, 0.0, 0.0, 0.0, 0.0, 0.0, 0.0, 1.700950173306021E9, 0.0, 2023-11-25 17:09:33.306
116.0, 12370.01417517831, 18891.537951414342, -54643.75670477828, -53447.84896944153, -66896.87125645534, -4140.168921967616, -35784.94170724651, 21031.672779521083, -0.234, 0.9400000000000001, 0.192, 192.0, 0.0, 0.0, 0.0, 0.0, 0.0, 0.0, 0.0, 0.0, 0.0, 1.70095017330901E9, 0.0, 2023-11-25 17:09:33.309
117.0, 12345.114331855098, 18888.431058935053, -54628.13283540402, -53430.2134430663, -66925.28032365804, -4200.652742463678, -35792.474245127945, 21034.623209789184, -0.232, 0.9400000000000001, 0.186, 192.0, 248.0, 192.0, 29.0, 96.0, 5.0, 208.0, 0.0, 0.0, 0.0, 1.700950173313017E9, 0.0, 2023-11-25 17:09:33.313
118.0, 12401.26191392683, 18989.058612472847, -54587.60912270655, -53375.54107612862, -66911.89162872931, -4168.913265337142, -35780.13608218862, 21074.275204452897, -0.232, 0.9400000000000001, 0.186, 192.0, 0.0, 0.0, 0.0, 0.0, 0.0, 0.0, 0.0, 0.0, 0.0, 1.700950173316081E9, 0.0, 2023-11-25 17:09:33.316
119.0, 12459.063525088255, 19026.654246646674, -54580.4342127364, -53360.58775908801, -66853.7770931455, -4072.0855083567512, -35743.38981430409, 21104.070079811823, -0.232, 0.9400000000000001, 0.186, 192.0, 0.0, 0.0, 0.0, 0.0, 0.0, 0.0, 0.0, 0.0, 0.0, 1.700950173320047E9, 0.0, 2023-11-25 17:09:33.320
120.0, 12383.69344278496, 18899.048137551326, -54645.52249259025, -53443.37862055047, -66891.75270697506, -4111.804558253832, -35782.214794422965, 21033.840898733248, -0.232, 0.9400000000000001, 0.186, 192.0, 0.0, 0.0, 0.0, 0.0, 0.0, 0.0, 0.0, 0.0, 0.0, 1.700950173322987E9, 0.0, 2023-11-25 17:09:33.322
121.0, 12327.0094188463, 18855.01520097437, -54647.73531529133, -53453.68277474437, -66947.14032973532, -4221.171643873649, -35809.953309291996, 21015.132488624156, -0.232, 0.9400000000000001, 0.186, 192.0, 0.0, 0.0, 0.0, 0.0, 0.0, 0.0, 0.0, 0.0, 0.0, 1.70095017332603E9, 0.0, 2023-11-25 17:09:33.326
122.0, 12368.985994933368, 18948.289030586366, -54619.90739344447, -53411.4603294683, -66943.76521632257, -4192.650817948677, -35797.928070775044, 21050.56000358582, -0.232, 0.9400000000000001, 0.186, 192.0, 0.0, 0.0, 0.0, 0.0, 0.0, 0.0, 0.0, 0.0, 0.0, 1.700950173330071E9, 0.0, 2023-11-25 17:09:33.330
123.0, 12443.529062691816, 19021.62510414423, -54585.843334894584, -53373.37295691645, -66880.24155858059, -4121.594622325257, -35756.197363876985, 21082.098315012256, -0.232, 0.9400000000000001, 0.186, 192.0, 0.0, 0.0, 0.0, 0.0, 0.0, 0.0, 0.0, 0.0, 0.0, 1.70095017333509E9, 0.0, 2023-11-25 17:09:33.335
124.0, 12400.569009848716, 18933.447472268042, -54642.21443441087, -53442.842178683546, -66881.64971848128, -4098.617029025201, -35770.658942539565, 21029.057625419813, -0.232, 0.9400000000000001, 0.186, 192.0, 0.0, 0.0, 0.0, 0.0, 0.0, 0.0, 0.0, 0.0, 0.0, 1.700950173339108E9, 0.0, 2023-11-25 17:09:33.339
125.0, 12318.068721064177, 18844.934564225026, -54650.015193225765, -53470.60304529704, -66945.77687332354, -4233.6662690241665, -35802.77839932185, 21003.68839546304, -0.232, 0.9400000000000001, 0.186, 192.0, 0.0, 0.0, 0.0, 0.0, 0.0, 0.0, 0.0, 0.0, 0.0, 1.700950173343421E9, 0.0, 2023-11-25 17:09:33.343
126.0, 12351.842206936146, 18921.198716306535, -54615.57115502014, -53422.703256929315, -66933.41635863976, -4187.331102768315, -35783.69000955701, 21059.053666478834, -0.232, 0.9400000000000001, 0.186, 192.0, 0.0, 0.0, 0.0, 0.0, 0.0, 0.0, 0.0, 0.0, 0.0, 1.700950173346138E9, 0.0, 2023-11-25 17:09:33.346
127.0, 12427.279344472809, 19005.822420814326, -54578.86959062453, -53376.01046276218, -66885.1812941052, -4135.6762213321, -35751.3917388191, 21097.27514949741, -0.234, 0.9400000000000001, 0.188, 192.0, 248.0, 176.0, 29.0, 96.0, 5.0, 224.0, 0.0, 0.0, 0.0, 1.700950173350228E9, 0.0, 2023-11-25 17:09:33.350
128.0, 12416.192879222976, 18942.812853194817, -54638.10171343109, -53441.05403912712, -66874.85478816686, -4084.3119125738044, -35765.85331748168, 21033.43856733305, -0.234, 0.9400000000000001, 0.188, 192.0, 0.0, 0.0, 0.0, 0.0, 0.0, 0.0, 0.0, 0.0, 0.0, 1.700950173365206E9, 0.0, 2023-11-25 17:09:33.365
129.0, 12344.15320684352, 18849.248450904903, -54637.31940237516, -53463.96457719381, -66929.37069289335, -4223.6303357637335, -35796.78813180782, 20988.86918888917, -0.234, 0.9400000000000001, 0.188, 192.0, 0.0, 0.0, 0.0, 0.0, 0.0, 0.0, 0.0, 0.0, 0.0, 1.700950173368218E9, 0.0, 2023-11-25 17:09:33.368
130.0, 12357.676012238982, 18906.357157988212, -54617.024018409735, -53427.97826862076, -66930.68944581621, -4187.1746405571275, -35781.23131766693, 21038.870041235692, -0.234, 0.9400000000000001, 0.188, 192.0, 0.0, 0.0, 0.0, 0.0, 0.0, 0.0, 0.0, 0.0, 0.0, 1.700950173372618E9, 0.0, 2023-11-25 17:09:33.372
131.0, 12436.890594588589, 19010.404528427665, -54570.01829982022, -53370.266064437164, -66890.29984358548, -4152.9541197960525, -35752.79989871978, 21072.151788729643, -0.234, 0.9400000000000001, 0.188, 192.0, 0.0, 0.0, 0.0, 0.0, 0.0, 0.0, 0.0, 0.0, 0.0, 1.700950173375281E9, 0.0, 2023-11-25 17:09:33.375
132.0, 12447.440617971495, 18974.03824019888, -54614.07358814163, -53412.689675413334, -66853.01713383403, -4062.1836855630504, -35739.12063111313, 21044.323866882787, -0.234, 0.9400000000000001, 0.188, 192.0, 0.0, 0.0, 0.0, 0.0, 0.0, 0.0, 0.0, 0.0, 0.0, 1.700950173378266E9, 0.0, 2023-11-25 17:09:33.378
133.0, 12360.0676488957, 18860.536081854832, -54631.642059283506, -53455.44856255634, -66910.79639325099, -4196.897649395186, -35778.16912867655, 20996.714651192982, -0.234, 0.9400000000000001, 0.188, 192.0, 0.0, 0.0, 0.0, 0.0, 0.0, 0.0, 0.0, 0.0, 0.0, 1.700950173381234E9, 0.0, 2023-11-25 17:09:33.381
134.0, 12368.87423621109, 18907.31828299979, -54604.2388205813, -53417.69646617132, -66914.1938584082, -4187.0628818348505, -35767.373236104635, 21028.72234925298, -0.234, 0.9400000000000001, 0.188, 192.0, 0.0, 0.0, 0.0, 0.0, 0.0, 0.0, 0.0, 0.0, 0.0, 1.700950173385206E9, 0.0, 2023-11-25 17:09:33.385
135.0, 12428.531042162305, 18998.692214333085, -54565.39148871798, -53368.790849303114, -66895.06076515446, -4167.34864322527, -35753.962189431455, 21049.26360240741, -0.234, 0.9400000000000001, 0.188, 192.0, 0.0, 0.0, 0.0, 0.0, 0.0, 0.0, 0.0, 0.0, 0.0, 1.700950173388207E9, 0.0, 2023-11-25 17:09:33.388
136.0, 12468.317147292752, 19006.224752214523, -54580.098936569564, -53378.26798895216, -66834.55459291395, -4057.7580401608993, -35725.10608733965, 21055.92442225509, -0.234, 0.9400000000000001, 0.188, 192.0, 0.0, 0.0, 0.0, 0.0, 0.0, 0.0, 0.0, 0.0, 0.0, 1.700950173391235E9, 0.0, 2023-11-25 17:09:33.391
137.0, 12379.044279938254, 18885.16770424458, -54624.6906667579, -53446.23964384075, -66899.62052102335, -4174.1435735396835, -35782.66182931207, 20986.63401444364, -0.23, 0.9380000000000001, 0.192, 192.0, 248.0, 208.0, 29.0, 80.0, 6.0, 0.0, 0.0, 0.0, 0.0, 1.700950173395232E9, 0.0, 2023-11-25 17:09:33.395
138.0, 12363.196893119442, 18897.63997765064, -54613.78301546371, -53429.63229771046, -66925.5485445915, -4208.878184423231, -35793.83770153972, 21000.53679949484, -0.23, 0.9380000000000001, 0.192, 192.0, 0.0, 0.0, 0.0, 0.0, 0.0, 0.0, 0.0, 0.0, 0.0, 1.700950173398335E9, 0.0, 2023-11-25 17:09:33.398
139.0, 12410.22496345341, 18984.051821714856, -54583.049366837666, -53389.46621292427, -66918.03835845452, -4193.678998193622, -35784.13704444612, 21021.54743928283, -0.23, 0.9380000000000001, 0.192, 192.0, 0.0, 0.0, 0.0, 0.0, 0.0, 0.0, 0.0, 0.0, 0.0, 1.700950173401369E9, 0.0, 2023-11-25 17:09:33.401
140.0, 12456.627184942627, 19004.74953708047, -54595.96867513283, -53397.46813743927, -66867.05402935196, -4100.651037770634, -35758.857221467166, 21020.698072993528, -0.23, 0.9380000000000001, 0.192, 192.0, 0.0, 0.0, 0.0, 0.0, 0.0, 0.0, 0.0, 0.0, 0.0, 1.700950173404347E9, 0.0, 2023-11-25 17:09:33.404
141.0, 12377.412602593018, 18881.479666409454, -54650.70809730388, -53474.425193598894, -66916.47373634264, -4176.646968918678, -35808.36633543567, 20953.48637741642, -0.23, 0.9380000000000001, 0.192, 192.0, 0.0, 0.0, 0.0, 0.0, 0.0, 0.0, 0.0, 0.0, 0.0, 1.700950173408509E9, 0.0, 2023-11-25 17:09:33.408
142.0, 12335.81600616169, 18853.91996549606, -54646.885949002026, -53472.614702298015, -66958.11503626288, -4244.439809851624, -35820.07864953025, 20965.131636277634, -0.23, 0.9380000000000001, 0.192, 192.0, 0.0, 0.0, 0.0, 0.0, 0.0, 0.0, 0.0, 0.0, 0.0, 1.70095017341158E9, 0.0, 2023-11-25 17:09:33.411
143.0, 12378.217265393409, 18939.32598105979, -54614.94530617539, -53427.307716287105, -66953.46587341618, -4222.445693307602, -35810.6015098812, 20995.23943605893, -0.23, 0.9380000000000001, 0.192, 192.0, 0.0, 0.0, 0.0, 0.0, 0.0, 0.0, 0.0, 0.0, 0.0, 1.700950173414427E9, 0.0, 2023-11-25 17:09:33.414
144.0, 12448.446446471984, 19005.487144647497, -54596.79568967768, -53401.13382352994, -66889.5845877629, -4133.731619564488, -35768.98256170542, 21020.653369504616, -0.23, 0.9380000000000001, 0.192, 192.0, 0.0, 0.0, 0.0, 0.0, 0.0, 0.0, 0.0, 0.0, 0.0, 1.700950173418305E9, 0.0, 2023-11-25 17:09:33.418
145.0, 12402.960646505433, 18909.464050467497, -54653.300899660695, -53474.64871104345, -66913.85858224137, -4159.391422199181, -35801.99608826591, 20951.362961693165, -0.23, 0.9380000000000001, 0.192, 192.0, 0.0, 0.0, 0.0, 0.0, 0.0, 0.0, 0.0, 0.0, 0.0, 1.70095017342336E9, 0.0, 2023-11-25 17:09:33.423
146.0, 12351.082247624667, 18858.747942298407, -54644.2484431563, -53476.30274013314, -66959.36673395238, -4265.204580450604, -35822.49263793143, 20943.62925811163, -0.23, 0.9380000000000001, 0.192, 192.0, 0.0, 0.0, 0.0, 0.0, 0.0, 0.0, 0.0, 0.0, 0.0, 1.700950173426326E9, 0.0, 2023-11-25 17:09:33.426
147.0, 12372.048183923744, 18929.781786177373, -54623.01428592376, -53440.65170772692, -66964.01589679909, -4232.615737034766, -35806.98052727944, 20983.795342897814, -0.234, 0.9440000000000001, 0.186, 192.0, 248.0, 176.0, 29.0, 128.0, 5.0, 208.0, 0.0, 0.0, 0.0, 1.700950173430423E9, 0.0, 2023-11-25 17:09:33.430
148.0, 12450.234586028408, 19011.589170883795, -54589.821945407624, -53396.37290196096, -66903.26385536956, -4163.750012367966, -35759.550125545284, 21021.614494516194, -0.234, 0.9440000000000001, 0.186, 192.0, 0.0, 0.0, 0.0, 0.0, 0.0, 0.0, 0.0, 0.0, 0.0, 1.700950173434522E9, 0.0, 2023-11-25 17:09:33.434
149.0, 12403.11710871662, 18926.518431486897, -54658.50885611879, -53472.39118485346, -66911.42224209574, -4140.481846389991, -35784.11469270166, 20962.38237170963, -0.234, 0.9440000000000001, 0.186, 192.0, 0.0, 0.0, 0.0, 0.0, 0.0, 0.0, 0.0, 0.0, 0.0, 1.700950173438369E9, 0.0, 2023-11-25 17:09:33.438
150.0, 12324.260154278298, 18846.163910170068, -54656.586606095625, -53486.11515594902, -66965.24524274412, -4275.531086388956, -35818.78224835185, 20925.256124169366, -0.234, 0.9440000000000001, 0.186, 192.0, 0.0, 0.0, 0.0, 0.0, 0.0, 0.0, 0.0, 0.0, 0.0, 1.700950173442423E9, 0.0, 2023-11-25 17:09:33.442
151.0, 12354.323250570686, 18922.383358762665, -54624.0424661687, -53435.689620457844, -66953.5999838829, -4234.470931824557, -35801.481998143434, 20959.72251411945, -0.234, 0.9440000000000001, 0.186, 192.0, 0.0, 0.0, 0.0, 0.0, 0.0, 0.0, 0.0, 0.0, 0.0, 1.700950173446427E9, 0.0, 2023-11-25 17:09:33.446
152.0, 12433.962516064945, 19017.62414188673, -54581.66355868144, -53380.41375641987, -66902.90622745827, -4183.665416677644, -35765.31687561475, 20991.52904647935, -0.234, 0.9440000000000001, 0.186, 192.0, 0.0, 0.0, 0.0, 0.0, 0.0, 0.0, 0.0, 0.0, 0.0, 1.700950173450482E9, 0.0, 2023-11-25 17:09:33.450
153.0, 12418.875088557612, 18957.743818490962, -54639.50987333177, -53441.83635018305, -66886.20947435015, -4127.003744483441, -35778.213832165464, 20935.2920574298, -0.234, 0.9440000000000001, 0.186, 192.0, 0.0, 0.0, 0.0, 0.0, 0.0, 0.0, 0.0, 0.0, 0.0, 1.700950173454426E9, 0.0, 2023-11-25 17:09:33.454
154.0, 12337.291221295742, 18859.977288243448, -54645.477789101344, -53470.49128657476, -66942.15589072178, -4263.036461238439, -35811.339117448224, 20917.969455476938, -0.234, 0.9440000000000001, 0.186, 192.0, 0.0, 0.0, 0.0, 0.0, 0.0, 0.0, 0.0, 0.0, 0.0, 1.700950173457433E9, 0.0, 2023-11-25 17:09:33.457
155.0, 12350.545805757738, 18917.041291837846, -54626.85878597007, -53434.57203323508, -66945.01691401207, -4226.781931731932, -35794.95528876249, 20995.127677336655, -0.234, 0.9440000000000001, 0.186, 192.0, 0.0, 0.0, 0.0, 0.0, 0.0, 0.0, 0.0, 0.0, 0.0, 1.700950173462453E9, 0.0, 2023-11-25 17:09:33.462
156.0, 12430.36388520764, 19015.99246454149, -54578.86959062453, -53375.27285519515, -66904.44849782568, -4194.371902271736, -35769.65311403908, 21033.952657455524, -0.234, 0.9440000000000001, 0.186, 192.0, 0.0, 0.0, 0.0, 0.0, 0.0, 0.0, 0.0, 0.0, 0.0, 1.700950173467685E9, 0.0, 2023-11-25 17:09:33.467
157.0, 12437.136463777599, 18976.586339066787, -54622.94723069039, -53417.13767255994, -66868.037506108, -4100.963962193008, -35763.37227384714, 21007.689357720537, -0.23, 0.9500000000000001, 0.182, 192.0, 248.0, 208.0, 29.0, 176.0, 5.0, 176.0, 0.0, 0.0, 0.0, 1.70095017347354E9, 0.0, 2023-11-25 17:09:33.473
158.0, 12344.264965565797, 18858.747942298407, -54646.68478330193, -53468.47962957378, -66932.0976057169, -4245.736211030032, -35814.33425120524, 20939.851813298683, -0.23, 0.9500000000000001, 0.182, 192.0, 0.0, 0.0, 0.0, 0.0, 0.0, 0.0, 0.0, 0.0, 0.0, 1.700950173476484E9, 0.0, 2023-11-25 17:09:33.476
159.0, 12353.652698237027, 18903.876114353672, -54620.019152166744, -53430.97340237778, -66934.28807667352, -4241.735248772532, -35791.66958232756, 20977.96153759498, -0.23, 0.9500000000000001, 0.182, 192.0, 0.0, 0.0, 0.0, 0.0, 0.0, 0.0, 0.0, 0.0, 0.0, 1.700950173479528E9, 0.0, 2023-11-25 17:09:33.479
160.0, 12412.683655343493, 18995.42885964261, -54578.579017946606, -53379.02794826364, -66912.02573919603, -4220.88107119573, -35772.55884081827, 21004.73892745244, -0.23, 0.9500000000000001, 0.182, 192.0, 0.0, 0.0, 0.0, 0.0, 0.0, 0.0, 0.0, 0.0, 0.0, 1.700950173483524E9, 0.0, 2023-11-25 17:09:33.483
161.0, 12457.32008902074, 19007.76702258194, -54583.116422071034, -53381.576047131544, -66842.40005521776, -4108.518851818902, -35743.25570383736, 21012.45027928952, -0.23, 0.9500000000000001, 0.182, 192.0, 0.0, 0.0, 0.0, 0.0, 0.0, 0.0, 0.0, 0.0, 0.0, 1.700950173488524E9, 0.0, 2023-11-25 17:09:33.488
162.0, 12374.618634536104, 18886.799381589815, -54622.07551265664, -53449.79357120914, -66898.81585822295, -4218.176510116638, -35794.150625962095, 20936.18612720801, -0.23, 0.9500000000000001, 0.182, 192.0, 0.0, 0.0, 0.0, 0.0, 0.0, 0.0, 0.0, 0.0, 0.0, 1.700950173491569E9, 0.0, 2023-11-25 17:09:33.491
163.0, 12351.372820302586, 18889.39218394663, -54616.264059098256, -53440.584652493555, -66932.65639932829, -4260.063679225884, -35801.45964639898, 20953.039342527314, -0.23, 0.9500000000000001, 0.182, 192.0, 0.0, 0.0, 0.0, 0.0, 0.0, 0.0, 0.0, 0.0, 0.0, 1.700950173495567E9, 0.0, 2023-11-25 17:09:33.495
164.0, 12404.346454661663, 18981.481371102498, -54580.6353784365, -53393.37776820395, -66924.98975098011, -4243.456333095591, -35795.067047484765, 20992.043136601824, -0.23, 0.9500000000000001, 0.182, 192.0, 0.0, 0.0, 0.0, 0.0, 0.0, 0.0, 0.0, 0.0, 0.0, 1.700950173498857E9, 0.0, 2023-11-25 17:09:33.498
165.0, 12464.852626902179, 19020.976903555027, -54579.830715636104, -53385.95698904479, -66862.69543918317, -4139.453666145047, -35760.041863923296, 21009.67866297706, -0.23, 0.9500000000000001, 0.182, 192.0, 0.0, 0.0, 0.0, 0.0, 0.0, 0.0, 0.0, 0.0, 0.0, 1.70095017350395E9, 0.0, 2023-11-25 17:09:33.503
166.0, 12384.878085241091, 18896.812963105796, -54641.2980128882, -53467.29498711765, -66910.25995138407, -4207.000637888985, -35809.14864649161, 20930.57583934973, -0.23, 0.9500000000000001, 0.182, 192.0, 0.0, 0.0, 0.0, 0.0, 0.0, 0.0, 0.0, 0.0, 0.0, 1.700950173507681E9, 0.0, 2023-11-25 17:09:33.507
167.0, 12342.29801205373, 18869.856759292696, -54629.92097496045, -53459.33776609156, -66947.02857101304, -4284.13650800425, -35823.07378328726, 20939.203612709476, -0.234, 0.9480000000000001, 0.182, 192.0, 248.0, 176.0, 29.0, 160.0, 5.0, 176.0, 0.0, 0.0, 0.0, 1.700950173510638E9, 0.0, 2023-11-25 17:09:33.510
168.0, 12378.373727604596, 18944.55628926233, -54600.75194844627, -53415.505995214706, -66942.06648374397, -4255.123943701261, -35812.255538970894, 20974.742886393415, -0.234, 0.9480000000000001, 0.182, 192.0, 0.0, 0.0, 0.0, 0.0, 0.0, 0.0, 0.0, 0.0, 0.0, 1.700950173513739E9, 0.0, 2023-11-25 17:09:33.513
169.0, 12448.669963916536, 19009.756327838462, -54580.59067494758, -53383.38653843243, -66879.43689578019, -4176.266989262937, -35776.26923039785, 20991.707860434995, -0.234, 0.9480000000000001, 0.182, 192.0, 0.0, 0.0, 0.0, 0.0, 0.0, 0.0, 0.0, 0.0, 0.0, 1.70095017351762E9, 0.0, 2023-11-25 17:09:33.517
170.0, 12400.79252729327, 18920.84108839525, -54634.97246920734, -53449.97238516479, -66894.3902128208, -4188.135765568705, -35804.41007666708, 20930.061749227258, -0.234, 0.9480000000000001, 0.182, 192.0, 0.0, 0.0, 0.0, 0.0, 0.0, 0.0, 0.0, 0.0, 0.0, 1.700950173522652E9, 0.0, 2023-11-25 17:09:33.522
171.0, 12341.269831808786, 18863.665326078575, -54624.578908035626, -53454.88976894495, -66940.92654477675, -4297.949886077629, -35824.012556554386, 20927.826574781728, -0.234, 0.9480000000000001, 0.182, 192.0, 0.0, 0.0, 0.0, 0.0, 0.0, 0.0, 0.0, 0.0, 0.0, 1.700950173529642E9, 0.0, 2023-11-25 17:09:33.529
172.0, 12366.124971643088, 18932.79927167884, -54600.41667227944, -53416.08714057054, -66940.61362035437, -4263.394089149724, -35815.697707617015, 20978.16270329508, -0.234, 0.9480000000000001, 0.182, 192.0, 0.0, 0.0, 0.0, 0.0, 0.0, 0.0, 0.0, 0.0, 0.0, 1.70095017353299E9, 0.0, 2023-11-25 17:09:33.532
173.0, 12439.08106554521, 19006.090641747793, -54566.77729687421, -53371.62952084894, -66884.0860586269, -4193.790756915898, -35770.658942539565, 21031.337503354254, -0.234, 0.9480000000000001, 0.182, 192.0, 0.0, 0.0, 0.0, 0.0, 0.0, 0.0, 0.0, 0.0, 0.0, 1.700950173536988E9, 0.0, 2023-11-25 17:09:33.536
174.0, 12403.11710871662, 18924.529126230376, -54636.02300119674, -53446.91019617441, -66890.61276800785, -4156.06101227534, -35788.96502124846, 20979.414400984573, -0.234, 0.9480000000000001, 0.182, 192.0, 0.0, 0.0, 0.0, 0.0, 0.0, 0.0, 0.0, 0.0, 0.0, 1.70095017353981E9, 0.0, 2023-11-25 17:09:33.539
175.0, 12341.91803239799, 18856.35630564169, -54628.02107668175, -53456.5661497791, -66939.33957092042, -4287.221048739082, -35816.65883262859, 20948.725455847438, -0.234, 0.9480000000000001, 0.182, 192.0, 0.0, 0.0, 0.0, 0.0, 0.0, 0.0, 0.0, 0.0, 0.0, 1.70095017354374E9, 0.0, 2023-11-25 17:09:33.543
176.0, 12365.052087909233, 18919.388225005656, -54607.41276829395, -53415.707160914804, -66936.83617554142, -4250.407725621191, -35807.025230768355, 20980.710802162983, -0.23800000000000002, 0.9460000000000001, 0.186, 192.0, 248.0, 144.0, 29.0, 144.0, 5.0, 208.0, 0.0, 0.0, 0.0, 1.700950173551787E9, 0.0, 2023-11-25 17:09:33.551
177.0, 12438.388161467095, 19008.61638887124, -54559.93766307088, -53357.7937910311, -66887.19295110619, -4206.106568110772, -35771.016570450854, 21024.721386995483, -0.23800000000000002, 0.9460000000000001, 0.186, 192.0, 0.0, 0.0, 0.0, 0.0, 0.0, 0.0, 0.0, 0.0, 0.0, 1.700950173554784E9, 0.0, 2023-11-25 17:09:33.554
178.0, 12429.022780540321, 18954.61457426722, -54609.37972180602, -53410.47685271226, -66861.48844498259, -4124.969735738008, -35764.84748898119, 21020.183982871054, -0.23800000000000002, 0.9460000000000001, 0.186, 192.0, 0.0, 0.0, 0.0, 0.0, 0.0, 0.0, 0.0, 0.0, 0.0, 1.700950173558761E9, 0.0, 2023-11-25 17:09:33.558
179.0, 12355.753762215825, 18858.703238809496, -54621.226146367335, -53449.547702020136, -66926.50966960308, -4274.860534055297, -35810.64621337011, 20975.324031749253, -0.23800000000000002, 0.9460000000000001, 0.186, 192.0, 0.0, 0.0, 0.0, 0.0, 0.0, 0.0, 0.0, 0.0, 0.0, 1.70095017356178E9, 0.0, 2023-11-25 17:09:33.561
180.0, 12369.053050166733, 18905.485439954453, -54612.196041607385, -53429.475835499274, -66942.66998084426, -4271.686586342644, -35817.53055066235, 20981.269595774367, -0.23800000000000002, 0.9460000000000001, 0.186, 192.0, 0.0, 0.0, 0.0, 0.0, 0.0, 0.0, 0.0, 0.0, 0.0, 1.700950173566253E9, 0.0, 2023-11-25 17:09:33.566
181.0, 12442.165606280043, 19001.66499634564, -54561.099953782556, -53370.78015455964, -66904.18027689222, -4244.730382529543, -35794.642364340114, 21017.97116016998, -0.23800000000000002, 0.9460000000000001, 0.186, 192.0, 0.0, 0.0, 0.0, 0.0, 0.0, 0.0, 0.0, 0.0, 0.0, 1.700950173569442E9, 0.0, 2023-11-25 17:09:33.569
182.0, 12461.32105127824, 18979.60382456825, -54594.18053557641, -53401.46909969677, -66857.17455830271, -4140.370087667714, -35776.91743098706, 21005.63299723065, -0.23800000000000002, 0.9460000000000001, 0.186, 192.0, 0.0, 0.0, 0.0, 0.0, 0.0, 0.0, 0.0, 0.0, 0.0, 1.700950173572825E9, 0.0, 2023-11-25 17:09:33.572
183.0, 12363.308651841719, 18843.660514791074, -54639.107541931575, -53469.23958888526, -66934.89157377381, -4283.600066137322, -35835.92603634907, 20922.395100879086, -0.23800000000000002, 0.9460000000000001, 0.186, 192.0, 0.0, 0.0, 0.0, 0.0, 0.0, 0.0, 0.0, 0.0, 0.0, 1.700950173575849E9, 0.0, 2023-11-25 17:09:33.575
184.0, 12353.16095985901, 18863.620622589664, -54631.55265230568, -53448.407763052914, -66957.42213218476, -4298.240458755548, -35835.0096148264, 20945.90913604607, -0.23800000000000002, 0.9460000000000001, 0.186, 192.0, 0.0, 0.0, 0.0, 0.0, 0.0, 0.0, 0.0, 0.0, 0.0, 1.700950173579797E9, 0.0, 2023-11-25 17:09:33.579
185.0, 12414.851774555656, 18961.633022026184, -54588.145564573475, -53390.404986191395, -66934.46689062916, -4280.090842257839, -35820.39157395263, 20987.05869758829, -0.23800000000000002, 0.9460000000000001, 0.186, 192.0, 0.0, 0.0, 0.0, 0.0, 0.0, 0.0, 0.0, 0.0, 0.0, 1.700950173583085E9, 0.0, 2023-11-25 17:09:33.583
186.0, 12463.869150146145, 18982.598958325263, -54591.47597449732, -53387.0522245231, -66864.14830257276, -4162.341852467282, -35776.62685830914, 21005.25301757491, -0.246, 0.9400000000000001, 0.194, 192.0, 248.0, 80.0, 29.0, 96.0, 6.0, 16.0, 0.0, 0.0, 0.0, 1.700950173592896E9, 0.0, 2023-11-25 17:09:33.592
187.0, 12379.044279938254, 18862.570090600264, -54631.32913486113, -53454.4650858003, -66915.0432246975, -4259.9072170146965, -35822.44793444251, 20929.570010849242, -0.246, 0.9400000000000001, 0.194, 192.0, 0.0, 0.0, 0.0, 0.0, 0.0, 0.0, 0.0, 0.0, 0.0, 1.700950173607879E9, 0.0, 2023-11-25 17:09:33.607
188.0, 12361.051125651733, 18865.16289295708, -54609.46912878384, -53435.26493731319, -66937.32791391945, -4304.297781502936, -35823.81139085429, 20950.67005761505, -0.246, 0.9400000000000001, 0.194, 192.0, 0.0, 0.0, 0.0, 0.0, 0.0, 0.0, 0.0, 0.0, 0.0, 1.700950173612252E9, 0.0, 2023-11-25 17:09:33.612
189.0, 12411.275495442807, 18954.279298100388, -54572.94637834387, -53389.8014890911, -66928.11899520385, -4284.18121149316, -35816.5023704174, 20976.82159862776, -0.246, 0.9400000000000001, 0.194, 192.0, 0.0, 0.0, 0.0, 0.0, 0.0, 0.0, 0.0, 0.0, 0.0, 1.700950173614928E9, 0.0, 2023-11-25 17:09:33.614
190.0, 12467.311318792263, 18989.840923528784, -54569.906541097946, -53379.139706985916, -66864.4388752507, -4188.672207435633, -35791.08843697172, 20991.327880779252, -0.246, 0.9400000000000001, 0.194, 192.0, 0.0, 0.0, 0.0, 0.0, 0.0, 0.0, 0.0, 0.0, 0.0, 1.700950173618887E9, 0.0, 2023-11-25 17:09:33.618
191.0, 12401.440727882473, 18875.69056459553, -54622.92487894594, -53448.430114797375, -66897.9441401892, -4236.0132021919735, -35834.89785610412, 20932.47573762843, -0.246, 0.9400000000000001, 0.194, 192.0, 0.0, 0.0, 0.0, 0.0, 0.0, 0.0, 0.0, 0.0, 0.0, 1.700950173621918E9, 0.0, 2023-11-25 17:09:33.621
192.0, 12356.804294205225, 18850.276631149845, -54617.06872189864, -53442.23868158325, -66940.61362035437, -4318.04410434295, -35846.587818454245, 20941.483490643917, -0.246, 0.9400000000000001, 0.194, 192.0, 0.0, 0.0, 0.0, 0.0, 0.0, 0.0, 0.0, 0.0, 0.0, 1.700950173624879E9, 0.0, 2023-11-25 17:09:33.624
193.0, 12388.521419587305, 18937.023751380893, -54594.91814314343, -53398.451614195306, -66942.11118723288, -4292.831336597364, -35835.27783575986, 20973.62529917065, -0.246, 0.9400000000000001, 0.194, 192.0, 0.0, 0.0, 0.0, 0.0, 0.0, 0.0, 0.0, 0.0, 0.0, 1.700950173628998E9, 0.0, 2023-11-25 17:09:33.628
194.0, 12458.012993098855, 18998.401641655164, -54573.37106148852, -53363.31467191156, -66881.02386963653, -4212.655629236177, -35793.79299805081, 21008.1587443541, -0.246, 0.9400000000000001, 0.194, 192.0, 0.0, 0.0, 0.0, 0.0, 0.0, 0.0, 0.0, 0.0, 0.0, 1.700950173631955E9, 0.0, 2023-11-25 17:09:33.631
195.0, 12403.698254072458, 18894.80130610482, -54633.54195756221, -53435.28728905765, -66896.42422156624, -4213.1250158697385, -35821.3079954753, 20949.641877370104, -0.246, 0.9400000000000001, 0.194, 192.0, 0.0, 0.0, 0.0, 0.0, 0.0, 0.0, 0.0, 0.0, 0.0, 1.700950173636154E9, 0.0, 2023-11-25 17:09:33.636
196.0, 12354.613823248605, 18844.554584569287, -54611.14550961799, -53429.31937328808, -66932.298771417, -4325.442531757657, -35836.440126471534, 20945.775025579336, -0.242, 0.9380000000000001, 0.198, 192.0, 248.0, 112.0, 29.0, 80.0, 6.0, 48.0, 0.0, 0.0, 0.0, 1.700950173638942E9, 0.0, 2023-11-25 17:09:33.638
197.0, 12371.712907756915, 18910.84985862373, -54599.701416456875, -53400.70914038529, -66941.21711745467, -4291.154955763216, -35827.96881532297, 20991.014956356878, -0.242, 0.9380000000000001, 0.198, 192.0, 0.0, 0.0, 0.0, 0.0, 0.0, 0.0, 0.0, 0.0, 0.0, 1.700950173642974E9, 0.0, 2023-11-25 17:09:33.642
198.0, 12438.388161467095, 18986.488161860485, -54571.8287911211, -53365.05810797908, -66898.03354716701, -4239.83535049383, -35796.184634707526, 21027.24713411893, -0.242, 0.9380000000000001, 0.198, 192.0, 0.0, 0.0, 0.0, 0.0, 0.0, 0.0, 0.0, 0.0, 0.0, 1.700950173645996E9, 0.0, 2023-11-25 17:09:33.645
199.0, 12412.616600110126, 18913.330902258265, -54632.06674242816, -53432.38156227846, -66892.80323896446, -4197.8587744067645, -35808.94748079151, 20976.419267227564, -0.242, 0.9380000000000001, 0.198, 192.0, 0.0, 0.0, 0.0, 0.0, 0.0, 0.0, 0.0, 0.0, 0.0, 1.700950173648984E9, 0.0, 2023-11-25 17:09:33.648
200.0, 12330.764511914793, 18824.952104681983, -54641.566233821664, -53460.47770505878, -66956.97509729565, -4343.770962211009, -35849.71706267799, 20939.918868532048, -0.242, 0.9380000000000001, 0.198, 192.0, 0.0, 0.0, 0.0, 0.0, 0.0, 0.0, 0.0, 0.0, 0.0, 1.700950173651989E9, 0.0, 2023-11-25 17:09:33.651
201.0, 12347.550672000727, 18891.806172347806, -54621.80729172317, -53420.78100690616, -66959.97023105266, -4315.496005475045, -35840.82106838478, 20976.642784672116, -0.242, 0.9380000000000001, 0.198, 192.0, 0.0, 0.0, 0.0, 0.0, 0.0, 0.0, 0.0, 0.0, 0.0, 1.700950173656031E9, 0.0, 2023-11-25 17:09:33.656
202.0, 12422.27255371482, 18982.062516458336, -54571.76173588774, -53359.33606139852, -66911.37753860683, -4277.274522456471, -35803.6501173556, 21007.041157131334, -0.242, 0.9380000000000001, 0.198, 192.0, 0.0, 0.0, 0.0, 0.0, 0.0, 0.0, 0.0, 0.0, 0.0, 1.700950173658991E9, 0.0, 2023-11-25 17:09:33.658
203.0, 12416.371693178618, 18929.714730944008, -54623.14839639049, -53411.08034981255, -66882.61084349285, -4198.417568018147, -35809.327460447246, 20960.974211808945, -0.242, 0.9380000000000001, 0.198, 192.0, 0.0, 0.0, 0.0, 0.0, 0.0, 0.0, 0.0, 0.0, 0.0, 1.700950173662034E9, 0.0, 2023-11-25 17:09:33.662
204.0, 12338.095884096132, 18834.96568619796, -54635.1959866519, -53448.72068747529, -66940.72537907666, -4339.993517398062, -35855.34970228073, 20919.66818805554, -0.242, 0.9380000000000001, 0.198, 192.0, 0.0, 0.0, 0.0, 0.0, 0.0, 0.0, 0.0, 0.0, 0.0, 1.70095017366604E9, 0.0, 2023-11-25 17:09:33.666
205.0, 12347.483616767362, 18880.58559663124, -54619.99680042229, -53422.99382960723, -66951.78949258203, -4327.09656084735, -35845.20201029802, 20962.96351706547, -0.242, 0.9380000000000001, 0.198, 192.0, 0.0, 0.0, 0.0, 0.0, 0.0, 0.0, 0.0, 0.0, 0.0, 1.700950173669024E9, 0.0, 2023-11-25 17:09:33.669
206.0, 12425.334742705196, 18980.60965306874, -54571.53821844319, -53367.673262080345, -66918.75361427708, -4309.103406560827, -35826.96298682249, 20994.21125581399, -0.234, 0.928, 0.192, 192.0, 248.0, 176.0, 29.0, 0.0, 6.0, 0.0, 0.0, 0.0, 0.0, 1.700950173672061E9, 0.0, 2023-11-25 17:09:33.672
207.0, 12456.336612264708, 18972.406562853645, -54600.43902402389, -53393.86950658197, -66867.1881398187, -4203.670227965144, -35807.42756216855, 20985.29290977632, -0.234, 0.928, 0.192, 192.0, 0.0, 0.0, 0.0, 0.0, 0.0, 0.0, 0.0, 0.0, 0.0, 1.700950173676087E9, 0.0, 2023-11-25 17:09:33.676
208.0, 12364.560349531217, 18849.33785788272, -54630.23389938282, -53450.08414388706, -66925.23562016913, -4323.252060801036, -35846.09608007623, 20936.968438263946, -0.234, 0.928, 0.192, 192.0, 0.0, 0.0, 0.0, 0.0, 0.0, 0.0, 0.0, 0.0, 0.0, 1.700950173679095E9, 0.0, 2023-11-25 17:09:33.679
209.0, 12357.273680838785, 18875.44469540652, -54602.04834962468, -53414.656628925404, -66930.8459080274, -4327.09656084735, -35826.71711763348, 20982.610700441684, -0.234, 0.928, 0.192, 192.0, 0.0, 0.0, 0.0, 0.0, 0.0, 0.0, 0.0, 0.0, 0.0, 1.700950173682087E9, 0.0, 2023-11-25 17:09:33.682
210.0, 12415.07529200021, 18966.88568197318, -54556.78606710268, -53359.33606139852, -66909.00825369457, -4304.543650691945, -35806.82406506826, 21013.523163023372, -0.234, 0.928, 0.192, 192.0, 0.0, 0.0, 0.0, 0.0, 0.0, 0.0, 0.0, 0.0, 0.0, 1.700950173685251E9, 0.0, 2023-11-25 17:09:33.685
211.0, 12463.75739142387, 18982.28603390289, -54564.095087539565, -53362.53236085563, -66848.34561924287, -4202.954972142574, -35783.17591943454, 21001.430869273052, -0.234, 0.928, 0.192, 192.0, 0.0, 0.0, 0.0, 0.0, 0.0, 0.0, 0.0, 0.0, 0.0, 1.700950173689085E9, 0.0, 2023-11-25 17:09:33.689
212.0, 12382.35233811764, 18860.357267899188, -54611.48078578482, -53436.51663500269, -66899.82168672344, -4299.335694233858, -35836.75305089391, 20916.04720545378, -0.234, 0.928, 0.192, 192.0, 0.0, 0.0, 0.0, 0.0, 0.0, 0.0, 0.0, 0.0, 0.0, 1.700950173692142E9, 0.0, 2023-11-25 17:09:33.692
213.0, 12355.463189537906, 18856.78098878634, -54593.71114894285, -53420.602192950515, -66925.83911726941, -4346.229654101093, -35837.490658460934, 20949.127787247635, -0.234, 0.928, 0.192, 192.0, 0.0, 0.0, 0.0, 0.0, 0.0, 0.0, 0.0, 0.0, 0.0, 1.700950173698424E9, 0.0, 2023-11-25 17:09:33.698
214.0, 12401.396024393562, 18939.728312459985, -54558.440096192375, -53376.211628462275, -66915.80318400898, -4317.597069453844, -35829.13110603465, 20998.92747389406, -0.234, 0.928, 0.192, 192.0, 0.0, 0.0, 0.0, 0.0, 0.0, 0.0, 0.0, 0.0, 0.0, 1.700950173699132E9, 0.0, 2023-11-25 17:09:33.699
215.0, 12467.020746114344, 18993.752478808463, -54546.92894779789, -53359.22430267624, -66850.93842159968, -4223.07154215235, -35795.17880620704, 21015.87009619118, -0.234, 0.928, 0.192, 192.0, 0.0, 0.0, 0.0, 0.0, 0.0, 0.0, 0.0, 0.0, 0.0, 1.700950173702129E9, 0.0, 2023-11-25 17:09:33.702
216.0, 12400.032567981789, 18888.922797313073, -54602.763605447246, -53431.26397505569, -66880.21920683613, -4256.2638826684815, -35821.486809430935, 20956.61562164016, -0.234, 0.932, 0.192, 192.0, 248.0, 176.0, 29.0, 32.0, 6.0, 0.0, 0.0, 0.0, 0.0, 1.700950173706128E9, 0.0, 2023-11-25 17:09:33.706
217.0, 12353.831512192668, 18850.58955557222, -54588.011454106745, -53422.6585534404, -66915.55731481998, -4340.641717987266, -35822.91732107608, 20960.169549008555, -0.234, 0.932, 0.192, 192.0, 0.0, 0.0, 0.0, 0.0, 0.0, 0.0, 0.0, 0.0, 0.0, 1.700950173710188E9, 0.0, 2023-11-25 17:09:33.710
218.0, 12382.218227650908, 18926.071396597792, -54566.687889896384, -53383.00655877669, -66918.03835845452, -4312.344409506847, -35812.72492560446, 20992.378412768652, -0.234, 0.932, 0.192, 192.0, 0.0, 0.0, 0.0, 0.0, 0.0, 0.0, 0.0, 0.0, 0.0, 1.700950173714205E9, 0.0, 2023-11-25 17:09:33.714
219.0, 12448.669963916536, 18991.271435173923, -54548.35945944303, -53351.91528223935, -66866.15995957375, -4237.93545221513, -35774.90577398608, 21029.616419031194, -0.234, 0.932, 0.192, 192.0, 0.0, 0.0, 0.0, 0.0, 0.0, 0.0, 0.0, 0.0, 0.0, 1.700950173718192E9, 0.0, 2023-11-25 17:09:33.718
220.0, 12409.152079719554, 18904.278445753866, -54608.016265394246, -53422.2562220402, -66877.51464575704, -4229.821768977853, -35798.46451264197, 20969.1996537685, -0.234, 0.932, 0.192, 192.0, 0.0, 0.0, 0.0, 0.0, 0.0, 0.0, 0.0, 0.0, 0.0, 1.70095017372221E9, 0.0, 2023-11-25 17:09:33.722
221.0, 12341.180424830965, 18837.53613681032, -54608.61976249454, -53438.59534723704, -66936.23267844113, -4357.316119350925, -35820.726850119456, 20960.080142030733, -0.234, 0.932, 0.192, 192.0, 0.0, 0.0, 0.0, 0.0, 0.0, 0.0, 0.0, 0.0, 0.0, 1.700950173726227E9, 0.0, 2023-11-25 17:09:33.726
222.0, 12358.54773027274, 18897.483515439453, -54590.38073901901, -53407.19114627733, -66940.72537907666, -4329.443494015157, -35816.79294309532, 20998.9051221496, -0.234, 0.932, 0.192, 192.0, 0.0, 0.0, 0.0, 0.0, 0.0, 0.0, 0.0, 0.0, 0.0, 1.70095017373024E9, 0.0, 2023-11-25 17:09:33.730
223.0, 12435.191862009986, 18977.547464078365, -54549.65586062144, -53356.72090729725, -66886.3882883058, -4277.274522456471, -35786.3498671472, 21026.375416085175, -0.234, 0.932, 0.192, 192.0, 0.0, 0.0, 0.0, 0.0, 0.0, 0.0, 0.0, 0.0, 0.0, 1.700950173733263E9, 0.0, 2023-11-25 17:09:33.733
224.0, 12418.986847279888, 18912.056852824313, -54606.7869194492, -53414.164890547385, -66870.42914276471, -4220.612850262267, -35803.89598654461, 20980.084953318234, -0.234, 0.932, 0.192, 192.0, 0.0, 0.0, 0.0, 0.0, 0.0, 0.0, 0.0, 0.0, 0.0, 1.700950173739293E9, 0.0, 2023-11-25 17:09:33.739
225.0, 12350.29993656873, 18828.95306693948, -54612.17368986293, -53436.67309721388, -66929.1471754488, -4364.982767699095, -35850.27585628937, 20944.90330754558, -0.234, 0.932, 0.192, 192.0, 0.0, 0.0, 0.0, 0.0, 0.0, 0.0, 0.0, 0.0, 0.0, 1.700950173742224E9, 0.0, 2023-11-25 17:09:33.742
226.0, 12381.279454383786, 18901.640939908142, -54594.314646043145, -53397.311675228084, -66932.67875107274, -4333.71267720612, -35844.643216686636, 20986.902235377103, -0.23600000000000002, 0.9420000000000001, 0.194, 192.0, 248.0, 160.0, 29.0, 112.0, 6.0, 16.0, 0.0, 0.0, 0.0, 1.700950173746408E9, 0.0, 2023-11-25 17:09:33.746
227.0, 12449.496978461382, 18996.032356742904, -54559.84825609306, -53348.85309324898, -66900.98397743511, -4307.494080960046, -35819.05046928531, 21013.456107790007, -0.23600000000000002, 0.9420000000000001, 0.194, 192.0, 0.0, 0.0, 0.0, 0.0, 0.0, 0.0, 0.0, 0.0, 0.0, 1.700950173750402E9, 0.0, 2023-11-25 17:09:33.750
228.0, 12468.317147292752, 18978.79916176786, -54593.80055592067, -53379.18441047483, -66853.84414837888, -4211.761559457965, -35797.52573937485, 20996.804058170805, -0.23600000000000002, 0.9420000000000001, 0.194, 192.0, 0.0, 0.0, 0.0, 0.0, 0.0, 0.0, 0.0, 0.0, 0.0, 1.700950173754308E9, 0.0, 2023-11-25 17:09:33.754
229.0, 12378.194913648953, 18872.628375605153, -54619.415655066456, -53429.8111116661, -66924.00627422408, -4354.611558271832, -35847.23601904345, 20934.643856840594, -0.23600000000000002, 0.9420000000000001, 0.194, 192.0, 0.0, 0.0, 0.0, 0.0, 0.0, 0.0, 0.0, 0.0, 0.0, 1.700950173758296E9, 0.0, 2023-11-25 17:09:33.758
230.0, 12371.824666479191, 18906.73713764395, -54612.17368986293, -53412.64497192443, -66946.82740531294, -4359.86421821883, -35854.25446680242, 20948.166662236057, -0.23600000000000002, 0.9420000000000001, 0.194, 192.0, 0.0, 0.0, 0.0, 0.0, 0.0, 0.0, 0.0, 0.0, 0.0, 1.700950173761338E9, 0.0, 2023-11-25 17:09:33.761
231.0, 12437.605850411159, 19001.128554478713, -54560.51880842672, -53355.55861658557, -66913.65741654127, -4331.365744038313, -35827.365318222684, 20997.74283143793, -0.23600000000000002, 0.9420000000000001, 0.194, 192.0, 0.0, 0.0, 0.0, 0.0, 0.0, 0.0, 0.0, 0.0, 0.0, 1.700950173765346E9, 0.0, 2023-11-25 17:09:33.765
232.0, 12463.533873979315, 18992.00904274095, -54584.166954060434, -53376.99393951821, -66860.41556124874, -4223.429170063636, -35807.04758251281, 20993.563055224786, -0.23600000000000002, 0.9420000000000001, 0.194, 192.0, 0.0, 0.0, 0.0, 0.0, 0.0, 0.0, 0.0, 0.0, 0.0, 1.700950173770447E9, 0.0, 2023-11-25 17:09:33.770
233.0, 12389.795469021257, 18886.911140312095, -54609.22325959483, -53426.05601859761, -66908.40475659427, -4338.495950519557, -35850.45467024502, 20920.696368300483, -0.23600000000000002, 0.9420000000000001, 0.194, 192.0, 0.0, 0.0, 0.0, 0.0, 0.0, 0.0, 0.0, 0.0, 0.0, 1.700950173774439E9, 0.0, 2023-11-25 17:09:33.774
234.0, 12378.127858415588, 18910.514582456897, -54596.974503633326, -53403.21253576429, -66929.57185859345, -4356.734973995087, -35844.24088528644, 20952.1452727491, -0.23600000000000002, 0.9420000000000001, 0.194, 192.0, 0.0, 0.0, 0.0, 0.0, 0.0, 0.0, 0.0, 0.0, 0.0, 1.700950173778381E9, 0.0, 2023-11-25 17:09:33.778
235.0, 12428.709856117948, 18997.932255021602, -54562.95514857235, -53355.62567181894, -66918.5971520659, -4339.613537742322, -35836.61894042718, 20991.864322646183, -0.23600000000000002, 0.9420000000000001, 0.194, 192.0, 0.0, 0.0, 0.0, 0.0, 0.0, 0.0, 0.0, 0.0, 0.0, 1.700950173782381E9, 0.0, 2023-11-25 17:09:33.782
236.0, 12492.14410688211, 19038.344208996798, -54557.83659909208, -53344.807427502565, -66844.54582268547, -4230.537024800423, -35787.51215785887, 21012.1597066116, -0.23600000000000002, 0.9380000000000001, 0.19, 192.0, 248.0, 160.0, 29.0, 80.0, 5.0, 240.0, 0.0, 0.0, 0.0, 1.700950173785397E9, 0.0, 2023-11-25 17:09:33.785
237.0, 12420.730283347402, 18927.390149520656, -54605.13289035951, -53416.757692904204, -66887.86350343985, -4309.259868772015, -35821.39740245311, 20937.14725221959, -0.23600000000000002, 0.9380000000000001, 0.19, 192.0, 0.0, 0.0, 0.0, 0.0, 0.0, 0.0, 0.0, 0.0, 0.0, 1.700950173789399E9, 0.0, 2023-11-25 17:09:33.789
238.0, 12385.63804455257, 18910.626341179173, -54592.72767218682, -53406.87822185495, -66920.36293987787, -4374.05757594795, -35829.82401011277, 20936.23083069692, -0.23600000000000002, 0.9380000000000001, 0.19, 192.0, 0.0, 0.0, 0.0, 0.0, 0.0, 0.0, 0.0, 0.0, 0.0, 1.700950173793431E9, 0.0, 2023-11-25 17:09:33.793
239.0, 12422.853699070656, 18993.86423753074, -54560.51880842672, -53361.03479397712, -66911.93633221822, -4345.760267467531, -35816.92705356205, 20973.53589219283, -0.23600000000000002, 0.9380000000000001, 0.19, 192.0, 0.0, 0.0, 0.0, 0.0, 0.0, 0.0, 0.0, 0.0, 0.0, 1.700950173798439E9, 0.0, 2023-11-25 17:09:33.798
240.0, 12483.069298633254, 19045.653229433683, -54551.15342749994, -53340.627651289426, -66852.41363673373, -4251.301795399403, -35777.40916936507, 20993.719517435973, -0.23600000000000002, 0.9380000000000001, 0.19, 192.0, 0.0, 0.0, 0.0, 0.0, 0.0, 0.0, 0.0, 0.0, 0.0, 1.7009501738025E9, 0.0, 2023-11-25 17:09:33.802
241.0, 12426.74290260588, 18941.628210738687, -54603.76943394774, -53405.33595148754, -66872.82077942142, -4265.964539762084, -35796.78813180782, 20947.406702924574, -0.23600000000000002, 0.9380000000000001, 0.19, 192.0, 0.0, 0.0, 0.0, 0.0, 0.0, 0.0, 0.0, 0.0, 0.0, 1.700950173806439E9, 0.0, 2023-11-25 17:09:33.806
242.0, 12383.78284976278, 18905.954826588015, -54587.63147445101, -53391.097890269506, -66908.18123914972, -4350.141209380771, -35799.51504463137, 20977.53685445033, -0.23600000000000002, 0.9380000000000001, 0.19, 192.0, 0.0, 0.0, 0.0, 0.0, 0.0, 0.0, 0.0, 0.0, 0.0, 1.700950173812748E9, 0.0, 2023-11-25 17:09:33.812
243.0, 12410.02379775331, 18978.553292578854, -54576.79087839018, -53356.25152066368, -66917.47956484313, -4327.8788719032855, -35802.554881877295, 20990.165590067576, -0.23600000000000002, 0.9380000000000001, 0.19, 192.0, 0.0, 0.0, 0.0, 0.0, 0.0, 0.0, 0.0, 0.0, 0.0, 1.700950173815524E9, 0.0, 2023-11-25 17:09:33.815
244.0, 12477.928397408534, 19047.776645156937, -54557.30015722515, -53321.472206291226, -66866.5846427184, -4268.534990374445, -35772.692951285004, 21000.469744261474, -0.23600000000000002, 0.9380000000000001, 0.19, 192.0, 0.0, 0.0, 0.0, 0.0, 0.0, 0.0, 0.0, 0.0, 0.0, 1.700950173818493E9, 0.0, 2023-11-25 17:09:33.818
245.0, 12431.8838038306, 18952.357048077232, -54622.94723069039, -53394.22713449325, -66874.40775327776, -4247.054963952895, -35785.45579736898, 20954.738075105917, -0.23600000000000002, 0.9380000000000001, 0.19, 192.0, 0.0, 0.0, 0.0, 0.0, 0.0, 0.0, 0.0, 0.0, 0.0, 1.700950173825599E9, 0.0, 2023-11-25 17:09:33.825
246.0, 12357.877177939079, 18868.582709858743, -54630.300954616185, -53418.076445827064, -66938.13257671983, -4392.318951167936, -35826.42654495556, 20921.143403189588, -0.232, 0.9420000000000001, 0.192, 192.0, 248.0, 192.0, 29.0, 112.0, 6.0, 0.0, 0.0, 0.0, 0.0, 1.700950173825614E9, 0.0, 2023-11-25 17:09:33.825
247.0, 12392.902361500546, 18948.55725151983, -54600.863707168544, -53372.88121853843, -66932.38817839482, -4356.511456550534, -35813.239015726926, 20963.231737998933, -0.232, 0.9420000000000001, 0.192, 192.0, 0.0, 0.0, 0.0, 0.0, 0.0, 0.0, 0.0, 0.0, 0.0, 1.700950173830508E9, 0.0, 2023-11-25 17:09:33.830
248.0, 12465.120847835642, 19036.734883396017, -54565.21267476233, -53328.15537788336, -66887.77409646203, -4312.433816484669, -35790.95432650499, 20984.622357442662, -0.232, 0.9420000000000001, 0.192, 192.0, 0.0, 0.0, 0.0, 0.0, 0.0, 0.0, 0.0, 0.0, 0.0, 1.700950173834503E9, 0.0, 2023-11-25 17:09:33.834
249.0, 12452.246243029385, 18981.414315869133, -54622.902527201484, -53386.4487274228, -66870.80912242045, -4252.151161688705, -35802.89015804412, 20943.919830789546, -0.232, 0.9420000000000001, 0.192, 192.0, 0.0, 0.0, 0.0, 0.0, 0.0, 0.0, 0.0, 0.0, 0.0, 1.700950173837596E9, 0.0, 2023-11-25 17:09:33.837
250.0, 12377.077326426188, 18892.901407826117, -54630.099788916086, -53412.3096957576, -66929.61656208236, -4395.604657602866, -35845.06789983129, 20901.630330280106, -0.232, 0.9420000000000001, 0.192, 192.0, 0.0, 0.0, 0.0, 0.0, 0.0, 0.0, 0.0, 0.0, 0.0, 1.700950173841567E9, 0.0, 2023-11-25 17:09:33.841
251.0, 12388.007329464834, 18952.915841688617, -54611.48078578482, -53378.022119763154, -66933.66222782877, -4372.492953836078, -35838.8094113838, 20930.307618416264, -0.232, 0.9420000000000001, 0.192, 192.0, 0.0, 0.0, 0.0, 0.0, 0.0, 0.0, 0.0, 0.0, 0.0, 1.700950173845555E9, 0.0, 2023-11-25 17:09:33.845
252.0, 12467.110153092164, 19062.48409300853, -54554.48383742379, -53311.97271489772, -66885.44951503868, -4332.840959172364, -35798.68803008652, 20971.39012472512, -0.232, 0.9420000000000001, 0.192, 192.0, 0.0, 0.0, 0.0, 0.0, 0.0, 0.0, 0.0, 0.0, 0.0, 1.700950173849577E9, 0.0, 2023-11-25 17:09:33.849
253.0, 12473.547455495294, 19026.38602571321, -54599.85787866806, -53358.21847417575, -66850.13375879929, -4237.466065581568, -35781.432483367025, 20951.921755304546, -0.232, 0.9420000000000001, 0.192, 192.0, 0.0, 0.0, 0.0, 0.0, 0.0, 0.0, 0.0, 0.0, 0.0, 1.700950173853629E9, 0.0, 2023-11-25 17:09:33.853
254.0, 12381.771192761802, 18907.206524277513, -54622.56725103465, -53414.83544288104, -66916.78666076502, -4383.333549896902, -35836.77540263837, 20887.79460046227, -0.232, 0.9420000000000001, 0.192, 192.0, 0.0, 0.0, 0.0, 0.0, 0.0, 0.0, 0.0, 0.0, 0.0, 1.700950173857598E9, 0.0, 2023-11-25 17:09:33.857
255.0, 12381.614730550615, 18940.64473398265, -54602.85301242507, -53392.148422258906, -66929.7506725491, -4389.05559647746, -35838.09415556123, 20909.967530961934, -0.232, 0.9420000000000001, 0.192, 192.0, 0.0, 0.0, 0.0, 0.0, 0.0, 0.0, 0.0, 0.0, 0.0, 1.700950173862603E9, 0.0, 2023-11-25 17:09:33.862
0.0, 12445.026629570322, 19037.606601429772, -54554.41678219042, -53338.97362219973, -66902.1462681468, -4365.161581654737, -35812.09907675971, 20951.00533378188, -0.23600000000000002, 0.9440000000000001, 0.19, 192.0, 248.0, 160.0, 29.0, 128.0, 5.0, 240.0, 0.0, 0.0, 0.0, 1.700950173866651E9, 0.0, 2023-11-25 17:09:33.866
1.0, 12477.771935197346, 19036.109034551268, -54577.21556153483, -53360.65481432138, -66848.23386052059, -4261.896522271219, -35781.991276978406, 20949.79833958129, -0.23600000000000002, 0.9440000000000001, 0.19, 192.0, 0.0, 0.0, 0.0, 0.0, 0.0, 0.0, 0.0, 0.0, 0.0, 1.700950173869682E9, 0.0, 2023-11-25 17:09:33.869
2.0, 12395.539867346271, 18915.767242403894, -54617.38164632102, -53425.78779766415, -66904.47084957015, -4376.315102137935, -35833.3555857367, 20876.506969512342, -0.23600000000000002, 0.9440000000000001, 0.19, 192.0, 0.0, 0.0, 0.0, 0.0, 0.0, 0.0, 0.0, 0.0, 0.0, 1.7009501738737E9, 0.0, 2023-11-25 17:09:33.873
3.0, 12382.77702126229, 18933.17925133458, -54604.10471011457, -53406.274724754665, -66927.98488473712, -4413.664867122754, -35840.306978262306, 20892.689632497983, -0.23600000000000002, 0.9440000000000001, 0.19, 192.0, 0.0, 0.0, 0.0, 0.0, 0.0, 0.0, 0.0, 0.0, 0.0, 1.700950173878688E9, 0.0, 2023-11-25 17:09:33.878
4.0, 12434.498957931872, 19024.262609989957, -54567.49255269678, -53357.74908754219, -66914.28326538602, -4389.994369744583, -35816.34590820622, 20938.2424876979, -0.23600000000000002, 0.9440000000000001, 0.19, 192.0, 0.0, 0.0, 0.0, 0.0, 0.0, 0.0, 0.0, 0.0, 0.0, 1.700950173882754E9, 0.0, 2023-11-25 17:09:33.882
5.0, 12485.349176567695, 19047.687238179118, -54570.71120389834, -53354.821009018546, -66852.14541580027, -4282.348368447825, -35770.36836986165, 20966.38333396713, -0.23600000000000002, 0.9440000000000001, 0.19, 192.0, 0.0, 0.0, 0.0, 0.0, 0.0, 0.0, 0.0, 0.0, 0.0, 1.70095017388573E9, 0.0, 2023-11-25 17:09:33.885
6.0, 12408.615637852627, 18926.60783846472, -54626.90348945898, -53429.475835499274, -66897.541808789, -4351.19174137017, -35821.062126286284, 20889.247463851865, -0.23600000000000002, 0.9440000000000001, 0.19, 192.0, 0.0, 0.0, 0.0, 0.0, 0.0, 0.0, 0.0, 0.0, 0.0, 1.70095017389073E9, 0.0, 2023-11-25 17:09:33.890
7.0, 12371.198817634442, 18902.445602708533, -54616.30876258716, -53418.83640513854, -66932.92462026175, -4421.286811982013, -35838.071803816776, 20889.1804086185, -0.23600000000000002, 0.9440000000000001, 0.19, 192.0, 0.0, 0.0, 0.0, 0.0, 0.0, 0.0, 0.0, 0.0, 0.0, 1.700950173893765E9, 0.0, 2023-11-25 17:09:33.893
8.0, 12415.254105955853, 18988.790391539384, -54580.255398780755, -53370.22136094825, -66923.67099805725, -4394.040035490994, -35826.76182112239, 20909.878123984116, -0.23600000000000002, 0.9440000000000001, 0.19, 192.0, 0.0, 0.0, 0.0, 0.0, 0.0, 0.0, 0.0, 0.0, 0.0, 1.700950173898815E9, 0.0, 2023-11-25 17:09:33.898
9.0, 12481.191752099008, 19048.983639357524, -54564.07273579511, -53347.28847113711, -66862.1813490607, -4310.623325183788, -35793.256556183886, 20910.101641428668, -0.23600000000000002, 0.9440000000000001, 0.19, 192.0, 0.0, 0.0, 0.0, 0.0, 0.0, 0.0, 0.0, 0.0, 0.0, 1.700950173902581E9, 0.0, 2023-11-25 17:09:33.902
10.0, 12418.115129246133, 18937.381379292176, -54630.27860287173, -53426.14542557543, -66889.89751218529, -4330.359915537824, -35828.37114672317, 20852.814120389714, -0.242, 0.9400000000000001, 0.19, 192.0, 248.0, 112.0, 29.0, 96.0, 5.0, 240.0, 0.0, 0.0, 0.0, 1.700950173905819E9, 0.0, 2023-11-25 17:09:33.905
11.0, 12375.579759547683, 18897.97525381747, -54605.44581478189, -53408.26403001118, -66919.22300091064, -4419.073989280938, -35835.4566497155, 20885.22414984991, -0.242, 0.9400000000000001, 0.19, 192.0, 0.0, 0.0, 0.0, 0.0, 0.0, 0.0, 0.0, 0.0, 0.0, 1.700950173911867E9, 0.0, 2023-11-25 17:09:33.911
12.0, 12409.844983797668, 18974.977013466003, -54576.72382315682, -53359.17959918733, -66913.72447177464, -4373.588189314388, -35814.84834132771, 20927.401891637077, -0.242, 0.9400000000000001, 0.19, 192.0, 0.0, 0.0, 0.0, 0.0, 0.0, 0.0, 0.0, 0.0, 0.0, 1.700950173914819E9, 0.0, 2023-11-25 17:09:33.914
13.0, 12480.52119976535, 19045.72028466705, -54547.241872220264, -53314.543165510084, -66857.95686935865, -4308.544612949445, -35770.815404750756, 20958.180243752035, -0.242, 0.9400000000000001, 0.19, 192.0, 0.0, 0.0, 0.0, 0.0, 0.0, 0.0, 0.0, 0.0, 0.0, 1.700950173918826E9, 0.0, 2023-11-25 17:09:33.918
14.0, 12456.783647153814, 18974.820551254816, -54601.10957635756, -53368.50027662519, -66850.35727624384, -4265.696318828621, -35775.95630597547, 20928.273609670832, -0.242, 0.9400000000000001, 0.19, 192.0, 0.0, 0.0, 0.0, 0.0, 0.0, 0.0, 0.0, 0.0, 0.0, 1.700950173921825E9, 0.0, 2023-11-25 17:09:33.921
15.0, 12382.106468928632, 18889.6604048801, -54612.73248347432, -53395.52353567166, -66918.57480032144, -4407.696951353187, -35821.26329198638, 20890.677975497005, -0.242, 0.9400000000000001, 0.19, 192.0, 0.0, 0.0, 0.0, 0.0, 0.0, 0.0, 0.0, 0.0, 0.0, 1.700950173924805E9, 0.0, 2023-11-25 17:09:33.924
16.0, 12401.105451715643, 18952.111178888223, -54590.20192506337, -53357.72673579773, -66920.38529162233, -4378.4161661167345, -35819.05046928531, 20919.891705500093, -0.242, 0.9400000000000001, 0.19, 192.0, 0.0, 0.0, 0.0, 0.0, 0.0, 0.0, 0.0, 0.0, 0.0, 1.700950173929928E9, 0.0, 2023-11-25 17:09:33.929
17.0, 12468.98769962641, 19039.61825843075, -54548.13594199848, -53307.8823456624, -66873.96071838865, -4335.344354551358, -35791.96015500548, 20949.038380269812, -0.242, 0.9400000000000001, 0.19, 192.0, 0.0, 0.0, 0.0, 0.0, 0.0, 0.0, 0.0, 0.0, 0.0, 1.700950173933848E9, 0.0, 2023-11-25 17:09:33.933
18.0, 12462.505693734372, 18983.85065601476, -54598.89675365648, -53365.61690159046, -66849.68672391018, -4265.629263595255, -35793.591832350714, 20916.226019409423, -0.242, 0.9400000000000001, 0.19, 192.0, 0.0, 0.0, 0.0, 0.0, 0.0, 0.0, 0.0, 0.0, 0.0, 1.700950173941452E9, 0.0, 2023-11-25 17:09:33.941
19.0, 12379.826590994191, 18880.652651864606, -54612.33015207412, -53409.068692811576, -66915.57966656443, -4413.7542741005755, -35835.99309158243, 20873.020097377314, -0.242, 0.9400000000000001, 0.19, 192.0, 0.0, 0.0, 0.0, 0.0, 0.0, 0.0, 0.0, 0.0, 0.0, 1.700950173942935E9, 0.0, 2023-11-25 17:09:33.942
20.0, 12389.057861454232, 18932.12871934518, -54596.2368960663, -53382.71598609877, -66926.17439343625, -4401.036131505505, -35837.42360322757, 20902.300882613767, -0.234, 0.936, 0.192, 192.0, 248.0, 176.0, 29.0, 64.0, 6.0, 0.0, 0.0, 0.0, 0.0, 1.700950173947189E9, 0.0, 2023-11-25 17:09:33.947
21.0, 12467.445429258994, 19034.320894994842, -54541.4751221508, -53319.77347371262, -66883.16963710423, -4374.370500370324, -35814.93774830553, 20935.38146440762, -0.234, 0.936, 0.192, 192.0, 0.0, 0.0, 0.0, 0.0, 0.0, 0.0, 0.0, 0.0, 0.0, 1.700950173950166E9, 0.0, 2023-11-25 17:09:33.950
22.0, 12485.885618434622, 19015.076043018824, -54578.04257607968, -53353.41284911786, -66838.80142436046, -4276.603970122811, -35802.21960571046, 20916.583647320705, -0.234, 0.936, 0.192, 192.0, 0.0, 0.0, 0.0, 0.0, 0.0, 0.0, 0.0, 0.0, 0.0, 1.700950173955267E9, 0.0, 2023-11-25 17:09:33.955
23.0, 12388.49906784285, 18887.872265323673, -54620.98027717832, -53424.37963776346, -66917.7924892655, -4424.281945739025, -35862.12228085069, 20847.293239509254, -0.234, 0.936, 0.192, 192.0, 0.0, 0.0, 0.0, 0.0, 0.0, 0.0, 0.0, 0.0, 0.0, 1.700950173957884E9, 0.0, 2023-11-25 17:09:33.957
24.0, 12391.561256833227, 18917.667140682595, -54602.04834962468, -53398.451614195306, -66930.28711441602, -4427.120617284849, -35854.05330110232, 20885.335908572186, -0.234, 0.936, 0.192, 192.0, 0.0, 0.0, 0.0, 0.0, 0.0, 0.0, 0.0, 0.0, 0.0, 1.700950173961988E9, 0.0, 2023-11-25 17:09:33.961
25.0, 12462.975080367933, 19023.927333823125, -54545.81136057513, -53334.190348886295, -66894.88195119881, -4395.358788413857, -35816.591777395224, 20936.275534185832, -0.234, 0.936, 0.192, 192.0, 0.0, 0.0, 0.0, 0.0, 0.0, 0.0, 0.0, 0.0, 0.0, 1.700950173967914E9, 0.0, 2023-11-25 17:09:33.967
26.0, 12505.28693262183, 19037.226621774033, -54563.1786660169, -53345.38857285841, -66834.42048244721, -4287.08693827235, -35785.276983413336, 20937.90721153107, -0.234, 0.936, 0.192, 192.0, 0.0, 0.0, 0.0, 0.0, 0.0, 0.0, 0.0, 0.0, 0.0, 1.700950173971036E9, 0.0, 2023-11-25 17:09:33.971
27.0, 12416.662265856537, 18910.469878967986, -54615.1911753644, -53420.91511737289, -66895.50780004356, -4403.092491995393, -35847.973626610474, 20838.55370742723, -0.234, 0.936, 0.192, 192.0, 0.0, 0.0, 0.0, 0.0, 0.0, 0.0, 0.0, 0.0, 0.0, 1.700950173973971E9, 0.0, 2023-11-25 17:09:33.973
28.0, 12391.382442877584, 18911.83333537976, -54602.51773625824, -53402.58668691954, -66918.66420729927, -4443.146818059304, -35845.02319634237, 20872.349545043653, -0.234, 0.936, 0.192, 192.0, 0.0, 0.0, 0.0, 0.0, 0.0, 0.0, 0.0, 0.0, 0.0, 1.700950173978091E9, 0.0, 2023-11-25 17:09:33.978
29.0, 12441.316239990741, 19008.169353982135, -54562.37400321651, -53344.472151335736, -66901.40866057976, -4413.821329333941, -35819.05046928531, 20936.67786558603, -0.234, 0.936, 0.192, 192.0, 0.0, 0.0, 0.0, 0.0, 0.0, 0.0, 0.0, 0.0, 0.0, 1.700950173980946E9, 0.0, 2023-11-25 17:09:33.980
30.0, 12499.654293019092, 19049.96711611356, -54561.0776020381, -53331.61989827394, -66839.11434878282, -4316.747703164542, -35779.621992066146, 20953.821653583247, -0.228, 0.9400000000000001, 0.19, 192.0, 248.0, 224.0, 29.0, 96.0, 5.0, 240.0, 0.0, 0.0, 0.0, 1.700950173985958E9, 0.0, 2023-11-25 17:09:33.985
31.0, 12428.486338673394, 18934.386245535166, -54620.22031786684, -53406.29707649912, -66881.38149754782, -4376.829192260408, -35824.16901876558, 20883.145437615567, -0.228, 0.9400000000000001, 0.19, 192.0, 0.0, 0.0, 0.0, 0.0, 0.0, 0.0, 0.0, 0.0, 0.0, 1.70095017398999E9, 0.0, 2023-11-25 17:09:33.989
32.0, 12388.186143420477, 18902.60206491972, -54611.212564851354, -53399.74801537371, -66922.039320712, -4461.1846758347365, -35844.12912656416, 20883.86069343814, -0.228, 0.9400000000000001, 0.19, 192.0, 0.0, 0.0, 0.0, 0.0, 0.0, 0.0, 0.0, 0.0, 0.0, 1.700950173994056E9, 0.0, 2023-11-25 17:09:33.994
33.0, 12431.034437541299, 18981.95075773606, -54577.97552084631, -53353.74812528469, -66914.37267236384, -4437.581233689933, -35832.394460725125, 20899.126934901113, -0.228, 0.9400000000000001, 0.19, 192.0, 0.0, 0.0, 0.0, 0.0, 0.0, 0.0, 0.0, 0.0, 0.0, 1.700950173998058E9, 0.0, 2023-11-25 17:09:33.998
34.0, 12515.211107159987, 19056.940860383613, -54537.407104659935, -53303.83667991599, -66832.31941846841, -4334.830264428886, -35772.491785584905, 20953.70989486097, -0.228, 0.9400000000000001, 0.19, 192.0, 0.0, 0.0, 0.0, 0.0, 0.0, 0.0, 0.0, 0.0, 0.0, 1.700950174002079E9, 0.0, 2023-11-25 17:09:34.002
35.0, 12458.348269265685, 18953.407580066632, -54600.90841065746, -53376.81512556257, -66848.25621226504, -4325.554290479933, -35794.88823352912, 20920.09287120019, -0.228, 0.9400000000000001, 0.19, 192.0, 0.0, 0.0, 0.0, 0.0, 0.0, 0.0, 0.0, 0.0, 0.0, 1.700950174006094E9, 0.0, 2023-11-25 17:09:34.006
36.0, 12399.205553436943, 18898.578750917764, -54593.4876314983, -53380.36905293096, -66896.58068377741, -4443.772666904052, -35825.24190249943, 20907.24061813839, -0.228, 0.9400000000000001, 0.19, 192.0, 0.0, 0.0, 0.0, 0.0, 0.0, 0.0, 0.0, 0.0, 0.0, 1.700950174009031E9, 0.0, 2023-11-25 17:09:34.009
37.0, 12430.609754396648, 18976.832208255793, -54566.57613117411, -53334.43621807531, -66892.78088722001, -4408.345151942391, -35818.02228904037, 20938.8906882871, -0.228, 0.9400000000000001, 0.19, 192.0, 0.0, 0.0, 0.0, 0.0, 0.0, 0.0, 0.0, 0.0, 0.0, 1.700950174013094E9, 0.0, 2023-11-25 17:09:34.013
38.0, 12504.549325054804, 19058.080799350835, -54532.75794181323, -53284.50242096215, -66837.7285406266, -4346.699040734654, -35785.835777024724, 20959.0966652747, -0.228, 0.9400000000000001, 0.19, 192.0, 0.0, 0.0, 0.0, 0.0, 0.0, 0.0, 0.0, 0.0, 0.0, 1.700950174018079E9, 0.0, 2023-11-25 17:09:34.018
39.0, 12474.866208418156, 18980.833170513295, -54596.30395129966, -53350.79769501659, -66836.45449119265, -4300.296819245436, -35800.34205917622, 20905.921865215525, -0.228, 0.9400000000000001, 0.19, 192.0, 0.0, 0.0, 0.0, 0.0, 0.0, 0.0, 0.0, 0.0, 0.0, 1.700950174022102E9, 0.0, 2023-11-25 17:09:34.022
40.0, 12399.920809259513, 18902.78087887536, -54596.57217223313, -53371.83068654903, -66895.41839306575, -4437.625937178843, -35830.449858957516, 20887.436972550986, -0.232, 0.9400000000000001, 0.188, 192.0, 248.0, 192.0, 29.0, 96.0, 5.0, 224.0, 0.0, 0.0, 0.0, 1.700950174026126E9, 0.0, 2023-11-25 17:09:34.026
41.0, 12422.183146736998, 18968.60676629624, -54573.10284055505, -53336.20200588727, -66896.02189016604, -4403.383064673312, -35824.10196353221, 20931.224039938934, -0.232, 0.9400000000000001, 0.188, 192.0, 0.0, 0.0, 0.0, 0.0, 0.0, 0.0, 0.0, 0.0, 0.0, 1.700950174030112E9, 0.0, 2023-11-25 17:09:34.030
42.0, 12490.333615581229, 19054.504520237984, -54530.79098830116, -53291.610275698935, -66855.05114257945, -4363.105221164849, -35796.117579474165, 20970.250185757897, -0.232, 0.9400000000000001, 0.188, 192.0, 0.0, 0.0, 0.0, 0.0, 0.0, 0.0, 0.0, 0.0, 0.0, 1.700950174033239E9, 0.0, 2023-11-25 17:09:34.033
43.0, 12484.52216202285, 19002.179086468113, -54579.696605169374, -53350.70828803877, -66831.98414230158, -4286.349330705325, -35785.85812876918, 20942.489319144406, -0.232, 0.9400000000000001, 0.188, 192.0, 0.0, 0.0, 0.0, 0.0, 0.0, 0.0, 0.0, 0.0, 0.0, 1.700950174039139E9, 0.0, 2023-11-25 17:09:34.039
44.0, 12393.058823711734, 18887.246416478923, -54603.121233358535, -53406.967628832776, -66907.68950077171, -4445.73962041612, -35836.596588682725, 20874.763533444828, -0.232, 0.9400000000000001, 0.188, 192.0, 0.0, 0.0, 0.0, 0.0, 0.0, 0.0, 0.0, 0.0, 0.0, 1.700950174042159E9, 0.0, 2023-11-25 17:09:34.042
45.0, 12395.718681301914, 18930.050007110836, -54586.893866883984, -53383.36418668797, -66919.22300091064, -4440.039925580016, -35841.64808292963, 20893.65075750956, -0.232, 0.9400000000000001, 0.188, 192.0, 0.0, 0.0, 0.0, 0.0, 0.0, 0.0, 0.0, 0.0, 0.0, 1.700950174048213E9, 0.0, 2023-11-25 17:09:34.048
46.0, 12474.173304340042, 19037.897174107693, -54531.19331970136, -53320.9357644243, -66878.29695681298, -4411.049713021483, -35810.48975115892, 20934.889726029603, -0.232, 0.9400000000000001, 0.188, 192.0, 0.0, 0.0, 0.0, 0.0, 0.0, 0.0, 0.0, 0.0, 0.0, 1.700950174050194E9, 0.0, 2023-11-25 17:09:34.050
47.0, 12504.549325054804, 19024.776700112427, -54560.29529098217, -53348.47311359324, -66826.68677886567, -4305.638886170254, -35785.634611324625, 20932.654551584073, -0.232, 0.9400000000000001, 0.188, 192.0, 0.0, 0.0, 0.0, 0.0, 0.0, 0.0, 0.0, 0.0, 0.0, 1.700950174054176E9, 0.0, 2023-11-25 17:09:34.054
48.0, 12427.636972384093, 18917.55538196032, -54584.099898827066, -53397.669303139366, -66880.7332969586, -4436.865977867363, -35833.40028922562, 20874.160036344532, -0.232, 0.9400000000000001, 0.188, 192.0, 0.0, 0.0, 0.0, 0.0, 0.0, 0.0, 0.0, 0.0, 0.0, 1.700950174057254E9, 0.0, 2023-11-25 17:09:34.057
49.0, 12417.109300745644, 18947.484367785975, -54574.22042777782, -53376.12222148445, -66899.17348613424, -4446.5666349609655, -35827.58883566724, 20905.340719859687, -0.232, 0.9400000000000001, 0.188, 192.0, 0.0, 0.0, 0.0, 0.0, 0.0, 0.0, 0.0, 0.0, 0.0, 1.700950174061277E9, 0.0, 2023-11-25 17:09:34.061
50.0, 12465.858455402667, 19036.53371769592, -54541.4751221508, -53330.614069773444, -66887.6399859953, -4433.557919687977, -35812.43435292654, 20946.66909535755, -0.234, 0.9420000000000001, 0.188, 192.0, 248.0, 176.0, 29.0, 112.0, 5.0, 224.0, 0.0, 0.0, 0.0, 1.700950174065349E9, 0.0, 2023-11-25 17:09:34.065
51.0, 12507.0527204338, 19047.73194166803, -54558.305985725645, -53340.135912911406, -66832.31941846841, -4331.5222062495, -35784.13704444612, 20954.223984983444, -0.234, 0.9420000000000001, 0.188, 192.0, 0.0, 0.0, 0.0, 0.0, 0.0, 0.0, 0.0, 0.0, 0.0, 1.700950174069244E9, 0.0, 2023-11-25 17:09:34.069
52.0, 12417.93631529049, 18913.44266098054, -54606.89867817148, -53412.86848936898, -66886.99178540609, -4430.473378953145, -35833.176771781065, 20880.619690492116, -0.234, 0.9420000000000001, 0.188, 192.0, 0.0, 0.0, 0.0, 0.0, 0.0, 0.0, 0.0, 0.0, 0.0, 1.700950174073236E9, 0.0, 2023-11-25 17:09:34.073
53.0, 12396.657454569036, 18917.153050560126, -54583.47404998232, -53387.61101813448, -66904.73907050361, -4475.914475430784, -35827.74529787842, 20898.27756861181, -0.234, 0.9420000000000001, 0.188, 192.0, 0.0, 0.0, 0.0, 0.0, 0.0, 0.0, 0.0, 0.0, 0.0, 1.700950174078823E9, 0.0, 2023-11-25 17:09:34.078
54.0, 12441.852681857668, 19010.628045872218, -54549.81232283263, -53337.543110554594, -66895.17252387674, -4453.361565275379, -35811.89791105961, 20936.43199639702, -0.234, 0.9420000000000001, 0.188, 192.0, 0.0, 0.0, 0.0, 0.0, 0.0, 0.0, 0.0, 0.0, 0.0, 1.70095017408228E9, 0.0, 2023-11-25 17:09:34.082
55.0, 12504.19169714352, 19057.20908131708, -54544.00086927425, -53319.39349405689, -66833.77228185801, -4357.383174584291, -35773.78818676331, 20952.972287293946, -0.234, 0.9420000000000001, 0.188, 192.0, 0.0, 0.0, 0.0, 0.0, 0.0, 0.0, 0.0, 0.0, 0.0, 1.70095017408537E9, 0.0, 2023-11-25 17:09:34.085
56.0, 12435.124806776621, 18943.192832850556, -54610.36319856205, -53397.71400662828, -66876.66527946774, -4406.735826341609, -35823.05143154281, 20866.403981018542, -0.234, 0.9420000000000001, 0.188, 192.0, 0.0, 0.0, 0.0, 0.0, 0.0, 0.0, 0.0, 0.0, 0.0, 1.700950174089291E9, 0.0, 2023-11-25 17:09:34.089
57.0, 12392.03064346679, 18906.848896366228, -54602.67419846943, -53394.0036170487, -66918.41833811025, -4498.333275119457, -35846.20783879851, 20862.000687360847, -0.234, 0.9420000000000001, 0.188, 192.0, 0.0, 0.0, 0.0, 0.0, 0.0, 0.0, 0.0, 0.0, 0.0, 1.700950174093381E9, 0.0, 2023-11-25 17:09:34.093
58.0, 12426.69819911697, 18981.95075773606, -54570.01829982022, -53347.08730543701, -66909.65645428377, -4460.759992690086, -35824.79486761032, 20919.13174618861, -0.234, 0.9420000000000001, 0.188, 192.0, 0.0, 0.0, 0.0, 0.0, 0.0, 0.0, 0.0, 0.0, 0.0, 1.70095017409745E9, 0.0, 2023-11-25 17:09:34.097
59.0, 12497.508525551382, 19052.135235325724, -54540.4245901614, -53309.96105789674, -66843.56234592943, -4373.990520714584, -35773.98935246341, 20972.842988114713, -0.234, 0.9420000000000001, 0.188, 192.0, 0.0, 0.0, 0.0, 0.0, 0.0, 0.0, 0.0, 0.0, 0.0, 1.700950174101361E9, 0.0, 2023-11-25 17:09:34.101
60.0, 12455.263728530852, 18963.197644138058, -54600.01434087924, -53380.99490177571, -66855.34171525738, -4360.937101952684, -35795.357620162686, 20917.52242058783, -0.23, 0.9440000000000001, 0.186, 192.0, 248.0, 208.0, 29.0, 128.0, 5.0, 208.0, 0.0, 0.0, 0.0, 1.700950174106366E9, 0.0, 2023-11-25 17:09:34.106
61.0, 12392.723547544903, 18902.35619573071, -54595.387529777, -53388.81801233507, -66908.15888740527, -4481.055376655505, -35828.70642289, 20895.684766254995, -0.23, 0.9440000000000001, 0.186, 192.0, 0.0, 0.0, 0.0, 0.0, 0.0, 0.0, 0.0, 0.0, 0.0, 1.70095017411142E9, 0.0, 2023-11-25 17:09:34.111
62.0, 12410.560239620238, 18964.51639706092, -54576.29914001217, -53353.1446281844, -66912.69629152969, -4446.901911127796, -35832.17094328057, 20922.819784023737, -0.23, 0.9440000000000001, 0.186, 192.0, 0.0, 0.0, 0.0, 0.0, 0.0, 0.0, 0.0, 0.0, 0.0, 1.700950174113338E9, 0.0, 2023-11-25 17:09:34.113
63.0, 12485.32682482324, 19045.496767222496, -54532.75794181323, -53301.42269151482, -66853.08418906739, -4381.076023706916, -35791.26725092736, 20972.351249736697, -0.23, 0.9440000000000001, 0.186, 192.0, 0.0, 0.0, 0.0, 0.0, 0.0, 0.0, 0.0, 0.0, 0.0, 1.700950174117378E9, 0.0, 2023-11-25 17:09:34.117
64.0, 12460.248167544385, 18973.70296403205, -54591.431271008405, -53366.063936479564, -66844.00938081853, -4328.23649981457, -35799.51504463137, 20937.773101064337, -0.23, 0.9440000000000001, 0.186, 192.0, 0.0, 0.0, 0.0, 0.0, 0.0, 0.0, 0.0, 0.0, 0.0, 1.700950174121328E9, 0.0, 2023-11-25 17:09:34.121
65.0, 12391.449498110951, 18895.44950669402, -54591.31951228613, -53387.07457626755, -66900.91692220175, -4472.047623640015, -35839.211742784, 20894.09779239867, -0.23, 0.9440000000000001, 0.186, 192.0, 0.0, 0.0, 0.0, 0.0, 0.0, 0.0, 0.0, 0.0, 0.0, 1.700950174125323E9, 0.0, 2023-11-25 17:09:34.125
66.0, 12408.88385878609, 18966.818626739816, -54572.05230856566, -53354.12810494043, -66906.16958214875, -4446.410172749779, -35830.76278337989, 20931.201688194476, -0.23, 0.9440000000000001, 0.186, 192.0, 0.0, 0.0, 0.0, 0.0, 0.0, 0.0, 0.0, 0.0, 0.0, 1.700950174129367E9, 0.0, 2023-11-25 17:09:34.129
67.0, 12488.299606835797, 19073.950537914105, -54520.6656480629, -53298.87459264691, -66859.74500891507, -4407.674599608731, -35796.69872483, 20978.319165506266, -0.23, 0.9440000000000001, 0.186, 192.0, 0.0, 0.0, 0.0, 0.0, 0.0, 0.0, 0.0, 0.0, 0.0, 1.700950174134468E9, 0.0, 2023-11-25 17:09:34.134
68.0, 12484.388051556118, 19020.61927564374, -54574.64511092247, -53361.861808521964, -66837.57207841541, -4338.875930175296, -35800.587928365225, 20940.254144698876, -0.23, 0.9440000000000001, 0.186, 192.0, 0.0, 0.0, 0.0, 0.0, 0.0, 0.0, 0.0, 0.0, 0.0, 1.700950174138386E9, 0.0, 2023-11-25 17:09:34.138
69.0, 12411.230791953898, 18916.482498226465, -54585.44100349439, -53405.17948927635, -66897.36299483335, -4489.79490873753, -35845.29141727584, 20892.46611505343, -0.23, 0.936, 0.186, 192.0, 248.0, 208.0, 29.0, 64.0, 5.0, 208.0, 0.0, 0.0, 0.0, 1.700950174141393E9, 0.0, 2023-11-25 17:09:34.141
70.0, 12430.341533463185, 18974.597033810263, -54557.389564202975, -53369.282587681126, -66896.35716633286, -4474.282798085546, -35825.80069611081, 20931.313446916753, -0.23, 0.936, 0.186, 192.0, 0.0, 0.0, 0.0, 0.0, 0.0, 0.0, 0.0, 0.0, 0.0, 1.700950174145424E9, 0.0, 2023-11-25 17:09:34.145
71.0, 12492.077051648743, 19065.43452327663, -54518.60928757302, -53321.29339233558, -66871.74789568757, -4458.88244615584, -35806.64525111261, 20949.932450048025, -0.23, 0.936, 0.186, 192.0, 0.0, 0.0, 0.0, 0.0, 0.0, 0.0, 0.0, 0.0, 0.0, 1.700950174149408E9, 0.0, 2023-11-25 17:09:34.149
72.0, 12515.367569371174, 19049.631839946727, -54552.69569786736, -53350.86475024996, -66826.73148235459, -4362.635834531287, -35786.260460169375, 20942.86929880015, -0.23, 0.936, 0.186, 192.0, 0.0, 0.0, 0.0, 0.0, 0.0, 0.0, 0.0, 0.0, 0.0, 1.700950174153394E9, 0.0, 2023-11-25 17:09:34.153
73.0, 12427.525213661816, 18929.960600133014, -54584.79280290518, -53407.459367210795, -66885.71773597214, -4485.771594735575, -35834.8084491263, 20889.1804086185, -0.23, 0.936, 0.186, 192.0, 0.0, 0.0, 0.0, 0.0, 0.0, 0.0, 0.0, 0.0, 0.0, 1.70095017415744E9, 0.0, 2023-11-25 17:09:34.157
74.0, 12413.51066988834, 18950.27833584289, -54570.64414866497, -53382.04543376511, -66902.9956344361, -4501.79779551003, -35834.83080087075, 20917.90240024357, -0.23, 0.936, 0.186, 192.0, 0.0, 0.0, 0.0, 0.0, 0.0, 0.0, 0.0, 0.0, 0.0, 1.700950174161455E9, 0.0, 2023-11-25 17:09:34.161
75.0, 12472.832199672725, 19050.72707542504, -54527.326467910585, -53324.9367266818, -66881.71677371464, -4479.557809776999, -35819.94453906352, 20949.86539481466, -0.23, 0.936, 0.186, 192.0, 0.0, 0.0, 0.0, 0.0, 0.0, 0.0, 0.0, 0.0, 0.0, 1.700950174166392E9, 0.0, 2023-11-25 17:09:34.166
76.0, 12520.173194429064, 19074.509331525485, -54541.29630819515, -53330.345848839985, -66824.11632825331, -4375.488087593089, -35782.84064326771, 20962.114150776168, -0.23, 0.936, 0.186, 192.0, 0.0, 0.0, 0.0, 0.0, 0.0, 0.0, 0.0, 0.0, 0.0, 1.700950174169442E9, 0.0, 2023-11-25 17:09:34.169
77.0, 12434.45425444296, 18948.691361986563, -54596.840393166596, -53406.29707649912, -66879.92863415822, -4468.4042892938005, -35827.47707694496, 20891.37087957512, -0.23, 0.936, 0.186, 192.0, 0.0, 0.0, 0.0, 0.0, 0.0, 0.0, 0.0, 0.0, 0.0, 1.700950174173473E9, 0.0, 2023-11-25 17:09:34.173
78.0, 12400.703120315447, 18943.014018894915, -54586.64799769497, -53394.33889321553, -66911.80222175148, -4526.429417899778, -35835.680167160055, 20898.523437800817, -0.23, 0.936, 0.186, 192.0, 0.0, 0.0, 0.0, 0.0, 0.0, 0.0, 0.0, 0.0, 0.0, 1.700950174177454E9, 0.0, 2023-11-25 17:09:34.177
79.0, 12432.911984075545, 19019.32287446533, -54560.31764272662, -53355.33509914102, -66912.31631187396, -4507.832766512963, -35832.550922936316, 20920.62931306712, -0.234, 0.9380000000000001, 0.192, 192.0, 248.0, 176.0, 29.0, 80.0, 6.0, 0.0, 0.0, 0.0, 0.0, 1.700950174181488E9, 0.0, 2023-11-25 17:09:34.181
80.0, 12505.353987855195, 19076.00689840399, -54538.03295350468, -53324.31087783705, -66838.46614819362, -4406.624067619332, -35783.13121594563, 20954.827482083736, -0.234, 0.9380000000000001, 0.192, 192.0, 0.0, 0.0, 0.0, 0.0, 0.0, 0.0, 0.0, 0.0, 0.0, 1.700950174185461E9, 0.0, 2023-11-25 17:09:34.185
81.0, 12442.61264116915, 18968.60676629624, -54595.23106756581, -53394.6518176379, -66867.6351747078, -4432.619146420854, -35810.40034418111, 20911.71096702945, -0.234, 0.9380000000000001, 0.192, 192.0, 0.0, 0.0, 0.0, 0.0, 0.0, 0.0, 0.0, 0.0, 0.0, 1.700950174189448E9, 0.0, 2023-11-25 17:09:34.189
82.0, 12386.107431186132, 18919.3658732612, -54596.125137344025, -53400.55267817411, -66921.70404454519, -4533.246699958647, -35842.72096666348, 20905.206609392957, -0.234, 0.9380000000000001, 0.192, 192.0, 0.0, 0.0, 0.0, 0.0, 0.0, 0.0, 0.0, 0.0, 0.0, 1.700950174194523E9, 0.0, 2023-11-25 17:09:34.194
83.0, 12427.748731106369, 19005.487144647497, -54566.50907594074, -53352.921110739844, -66917.52426833204, -4503.027141455072, -35838.58589393925, 20931.827537039226, -0.234, 0.9380000000000001, 0.192, 192.0, 0.0, 0.0, 0.0, 0.0, 0.0, 0.0, 0.0, 0.0, 0.0, 1.700950174197495E9, 0.0, 2023-11-25 17:09:34.197
84.0, 12502.470612820462, 19075.939843170625, -54541.49747389525, -53317.7841684561, -66860.19204380419, -4424.840739350408, -35790.37318114915, 20969.24435725741, -0.234, 0.9380000000000001, 0.192, 192.0, 0.0, 0.0, 0.0, 0.0, 0.0, 0.0, 0.0, 0.0, 0.0, 1.700950174201079E9, 0.0, 2023-11-25 17:09:34.201
85.0, 12461.94690012299, 18990.287958417888, -54602.80830893616, -53390.36028270248, -66868.90922414175, -4404.5900588739, -35804.767704578364, 20922.685673557007, -0.234, 0.9380000000000001, 0.192, 192.0, 0.0, 0.0, 0.0, 0.0, 0.0, 0.0, 0.0, 0.0, 0.0, 1.700950174205522E9, 0.0, 2023-11-25 17:09:34.205
86.0, 12392.477678355895, 18925.22203030849, -54602.405977535964, -53406.76646313268, -66927.40373938129, -4538.834636072474, -35847.54894346582, 20884.441838793977, -0.234, 0.9380000000000001, 0.192, 192.0, 0.0, 0.0, 0.0, 0.0, 0.0, 0.0, 0.0, 0.0, 0.0, 1.700950174209554E9, 0.0, 2023-11-25 17:09:34.209
87.0, 12426.809957839247, 19002.223789957025, -54571.35940448754, -53361.30301491058, -66920.31823638895, -4507.363379879401, -35836.48482996045, 20925.36788289164, -0.234, 0.9380000000000001, 0.192, 192.0, 0.0, 0.0, 0.0, 0.0, 0.0, 0.0, 0.0, 0.0, 0.0, 1.700950174213652E9, 0.0, 2023-11-25 17:09:34.213
88.0, 12511.76893851387, 19093.888293968237, -54521.40325562993, -53303.16612758233, -66857.17455830271, -4441.448085480701, -35787.75802704788, 20978.43092422854, -0.234, 0.9380000000000001, 0.192, 192.0, 0.0, 0.0, 0.0, 0.0, 0.0, 0.0, 0.0, 0.0, 0.0, 1.700950174217584E9, 0.0, 2023-11-25 17:09:34.217
89.0, 12477.146086352597, 19007.074118503824, -54589.50902098525, -53378.11152674098, -66852.7265611561, -4391.737805812098, -35806.42173366806, 20928.22890618192, -0.234, 0.9440000000000001, 0.194, 192.0, 248.0, 176.0, 29.0, 128.0, 6.0, 16.0, 0.0, 0.0, 0.0, 1.700950174223973E9, 0.0, 2023-11-25 17:09:34.223
90.0, 12392.12005044461, 18903.98787307595, -54598.69558795638, -53414.43311148085, -66918.28422764353, -4549.630528644387, -35859.82005117179, 20867.40980951903, -0.234, 0.9440000000000001, 0.194, 192.0, 0.0, 0.0, 0.0, 0.0, 0.0, 0.0, 0.0, 0.0, 0.0, 1.700950174226843E9, 0.0, 2023-11-25 17:09:34.226
91.0, 12410.716701831425, 18967.46682732902, -54578.288445268685, -53380.972550031256, -66921.70404454519, -4531.011525513116, -35855.95319938102, 20893.203722620456, -0.234, 0.9440000000000001, 0.194, 192.0, 0.0, 0.0, 0.0, 0.0, 0.0, 0.0, 0.0, 0.0, 0.0, 1.700950174229682E9, 0.0, 2023-11-25 17:09:34.229
92.0, 12487.919627180056, 19074.375221058755, -54530.187491200864, -53322.92506968082, -66880.57683474742, -4494.064091928493, -35823.90079783211, 20929.972342249435, -0.234, 0.9440000000000001, 0.194, 192.0, 0.0, 0.0, 0.0, 0.0, 0.0, 0.0, 0.0, 0.0, 0.0, 1.700950174233612E9, 0.0, 2023-11-25 17:09:34.233
93.0, 12489.528952780838, 19034.030322316925, -54582.42351799292, -53374.28937843912, -66851.81013963344, -4408.367503686846, -35823.8560943432, 20900.579798290706, -0.234, 0.9440000000000001, 0.194, 192.0, 0.0, 0.0, 0.0, 0.0, 0.0, 0.0, 0.0, 0.0, 0.0, 1.70095017423869E9, 0.0, 2023-11-25 17:09:34.238
94.0, 12400.144326704065, 18918.762376160907, -54604.8870211705, -53421.31744877309, -66915.73612877562, -4551.910406578828, -35870.05715013232, 20850.75775989983, -0.234, 0.9440000000000001, 0.194, 192.0, 0.0, 0.0, 0.0, 0.0, 0.0, 0.0, 0.0, 0.0, 0.0, 1.700950174241615E9, 0.0, 2023-11-25 17:09:34.241
95.0, 12406.69338782947, 18962.460036571032, -54579.13781155799, -53385.46525066677, -66918.50774508808, -4543.819075086007, -35854.00859761341, 20889.336870829688, -0.234, 0.9440000000000001, 0.194, 192.0, 0.0, 0.0, 0.0, 0.0, 0.0, 0.0, 0.0, 0.0, 0.0, 1.700950174245733E9, 0.0, 2023-11-25 17:09:34.245
96.0, 12483.09165037771, 19071.447142535108, -54523.146691697446, -53318.92410742332, -66879.90628241377, -4520.394446896845, -35826.314786233284, 20929.61471433815, -0.234, 0.9440000000000001, 0.194, 192.0, 0.0, 0.0, 0.0, 0.0, 0.0, 0.0, 0.0, 0.0, 0.0, 1.700950174250248E9, 0.0, 2023-11-25 17:09:34.250
97.0, 12521.357836885196, 19069.748409956504, -54547.35363094254, -53335.28558436461, -66826.21739223211, -4409.149814742782, -35799.31387893127, 20923.982074735413, -0.234, 0.9440000000000001, 0.194, 192.0, 0.0, 0.0, 0.0, 0.0, 0.0, 0.0, 0.0, 0.0, 0.0, 1.700950174253855E9, 0.0, 2023-11-25 17:09:34.253
98.0, 12412.393082665574, 18923.523297729887, -54607.56923050514, -53418.45642548281, -66908.20359089418, -4541.2486244736465, -35865.38563554116, 20844.901602852537, -0.234, 0.9440000000000001, 0.194, 192.0, 0.0, 0.0, 0.0, 0.0, 0.0, 0.0, 0.0, 0.0, 0.0, 1.700950174256686E9, 0.0, 2023-11-25 17:09:34.256
99.0, 12399.093794714665, 18942.812853194817, -54584.05519533816, -53389.421509435364, -66921.45817535618, -4563.3768514844005, -35849.40413825562, 20882.00549864835, -0.234, 0.9420000000000001, 0.196, 192.0, 248.0, 176.0, 29.0, 112.0, 6.0, 32.0, 0.0, 0.0, 0.0, 1.700950174260792E9, 0.0, 2023-11-25 17:09:34.260
100.0, 12448.804074383268, 19034.09737755029, -54542.637412862474, -53334.57032854204, -66904.11322165886, -4534.744266837152, -35822.827914098256, 20929.346493404686, -0.234, 0.9420000000000001, 0.196, 192.0, 0.0, 0.0, 0.0, 0.0, 0.0, 0.0, 0.0, 0.0, 0.0, 1.700950174265814E9, 0.0, 2023-11-25 17:09:34.265
101.0, 12493.887542949622, 19056.71734293906, -54553.65682287894, -53336.20200588727, -66847.65271516475, -4433.155588287782, -35800.4985213874, 20944.702141845482, -0.234, 0.9420000000000001, 0.196, 192.0, 0.0, 0.0, 0.0, 0.0, 0.0, 0.0, 0.0, 0.0, 0.0, 1.700950174269767E9, 0.0, 2023-11-25 17:09:34.269
102.0, 12409.59911460866, 18932.084015856268, -54613.738311974805, -53416.28830627064, -66900.87221871284, -4514.0689032159935, -35857.67428370408, 20867.02982986329, -0.234, 0.9420000000000001, 0.196, 192.0, 0.0, 0.0, 0.0, 0.0, 0.0, 0.0, 0.0, 0.0, 0.0, 1.700950174275794E9, 0.0, 2023-11-25 17:09:34.275
103.0, 12384.83338175218, 18921.60104770673, -54590.09016634109, -53396.90934382789, -66923.73805329061, -4576.1173458239255, -35848.130088821665, 20895.438897065986, -0.234, 0.9420000000000001, 0.196, 192.0, 0.0, 0.0, 0.0, 0.0, 0.0, 0.0, 0.0, 0.0, 0.0, 1.700950174278841E9, 0.0, 2023-11-25 17:09:34.278
104.0, 12424.619486882626, 19000.90503703416, -54556.38373570249, -53350.75299152768, -66916.11610843135, -4544.310813464023, -35822.44793444251, 20954.045171027803, -0.234, 0.9420000000000001, 0.196, 192.0, 0.0, 0.0, 0.0, 0.0, 0.0, 0.0, 0.0, 0.0, 0.0, 1.700950174282164E9, 0.0, 2023-11-25 17:09:34.282
105.0, 12495.496868550405, 19056.91850863916, -54537.9211947824, -53326.434293560305, -66851.54191869998, -4451.4393152522225, -35784.584079335225, 20985.225854542954, -0.234, 0.9420000000000001, 0.196, 192.0, 0.0, 0.0, 0.0, 0.0, 0.0, 0.0, 0.0, 0.0, 0.0, 1.700950174284826E9, 0.0, 2023-11-25 17:09:34.284
106.0, 12433.895460831578, 18950.367742820712, -54601.19898333538, -53408.39814047792, -66882.58849174839, -4475.132164374848, -35823.63257689864, 20919.33291188871, -0.234, 0.9420000000000001, 0.196, 192.0, 0.0, 0.0, 0.0, 0.0, 0.0, 0.0, 0.0, 0.0, 0.0, 1.700950174288859E9, 0.0, 2023-11-25 17:09:34.288
107.0, 12378.709003771426, 18900.009262562904, -54594.24759080978, -53411.99677133522, -66931.67292257225, -4580.006549359149, -35850.18644931155, 20914.99667346438, -0.234, 0.9420000000000001, 0.196, 192.0, 0.0, 0.0, 0.0, 0.0, 0.0, 0.0, 0.0, 0.0, 0.0, 1.700950174293826E9, 0.0, 2023-11-25 17:09:34.293
108.0, 12416.50580364535, 18978.195664667568, -54563.201017761356, -53363.94052075631, -66925.1909166802, -4543.908482063828, -35838.58589393925, 20955.073351272746, -0.234, 0.9420000000000001, 0.196, 192.0, 0.0, 0.0, 0.0, 0.0, 0.0, 0.0, 0.0, 0.0, 0.0, 1.700950174298309E9, 0.0, 2023-11-25 17:09:34.298
109.0, 12492.702900493492, 19053.521043481953, -54533.137921468966, -53324.35558132596, -66869.91505264223, -4474.774536463563, -35810.35564069219, 20978.475627717453, -0.24, 0.9440000000000001, 0.194, 192.0, 248.0, 128.0, 29.0, 128.0, 6.0, 16.0, 0.0, 0.0, 0.0, 1.700950174301879E9, 0.0, 2023-11-25 17:09:34.301
110.0, 12469.770010682347, 18984.051821714856, -54584.2340092938, -53384.57118088856, -66865.28824154, -4442.073934325449, -35832.260350258395, 20923.91501950205, -0.24, 0.9440000000000001, 0.194, 192.0, 0.0, 0.0, 0.0, 0.0, 0.0, 0.0, 0.0, 0.0, 0.0, 1.700950174304867E9, 0.0, 2023-11-25 17:09:34.304
111.0, 12409.085024486189, 18916.79542264884, -54581.23887553679, -53396.842288594526, -66917.52426833204, -4573.457488233744, -35864.357455296216, 20904.156077403557, -0.24, 0.9440000000000001, 0.194, 192.0, 0.0, 0.0, 0.0, 0.0, 0.0, 0.0, 0.0, 0.0, 0.0, 1.700950174308947E9, 0.0, 2023-11-25 17:09:34.308
112.0, 12427.8828415731, 18986.644624071672, -54564.47506719531, -53361.01244223266, -66921.10054744489, -4545.651918131342, -35858.07661510428, 20945.73032209043, -0.24, 0.9440000000000001, 0.194, 192.0, 0.0, 0.0, 0.0, 0.0, 0.0, 0.0, 0.0, 0.0, 0.0, 1.700950174312896E9, 0.0, 2023-11-25 17:09:34.312
113.0, 12499.162554641076, 19072.698840224606, -54522.07380796359, -53311.950363153264, -66872.0831718544, -4504.547060078033, -35830.159286279595, 20984.063563831278, -0.24, 0.9440000000000001, 0.194, 192.0, 0.0, 0.0, 0.0, 0.0, 0.0, 0.0, 0.0, 0.0, 0.0, 1.700950174316923E9, 0.0, 2023-11-25 17:09:34.316
114.0, 12485.9973771569, 19011.432708672608, -54577.394375490476, -53371.92009352685, -66852.63715417829, -4439.123504057348, -35838.87646661716, 20945.28328720132, -0.24, 0.9440000000000001, 0.194, 192.0, 0.0, 0.0, 0.0, 0.0, 0.0, 0.0, 0.0, 0.0, 0.0, 1.70095017432194E9, 0.0, 2023-11-25 17:09:34.321
115.0, 12397.93150400299, 18906.290102754843, -54593.37587277602, -53412.64497192443, -66921.65934105628, -4595.5410117555875, -35890.01725793091, 20895.662414510538, -0.24, 0.9440000000000001, 0.194, 192.0, 0.0, 0.0, 0.0, 0.0, 0.0, 0.0, 0.0, 0.0, 0.0, 1.700950174325955E9, 0.0, 2023-11-25 17:09:34.325
116.0, 12416.349341434163, 18960.26956561441, -54570.35357598706, -53375.51872438416, -66922.5981143234, -4570.037671332082, -35880.830690959774, 20949.552470392286, -0.24, 0.9440000000000001, 0.194, 192.0, 0.0, 0.0, 0.0, 0.0, 0.0, 0.0, 0.0, 0.0, 0.0, 1.700950174329938E9, 0.0, 2023-11-25 17:09:34.329
117.0, 12478.911874164567, 19043.708627666074, -54534.41197090292, -53331.08345640701, -66894.74784073209, -4547.0600780320265, -35858.99303662694, 20976.665136416574, -0.24, 0.9440000000000001, 0.194, 192.0, 0.0, 0.0, 0.0, 0.0, 0.0, 0.0, 0.0, 0.0, 0.0, 1.700950174334191E9, 0.0, 2023-11-25 17:09:34.334
118.0, 12495.832144717235, 19018.249990731478, -54574.55570394465, -53368.47792488074, -66855.49817746856, -4457.116658343871, -35834.74139389293, 20952.994639038403, -0.24, 0.9440000000000001, 0.194, 192.0, 0.0, 0.0, 0.0, 0.0, 0.0, 0.0, 0.0, 0.0, 0.0, 1.700950174336983E9, 0.0, 2023-11-25 17:09:34.336
119.0, 12406.089890729178, 18902.445602708533, -54604.931724659415, -53422.59149820704, -66924.85564051339, -4598.580849001509, -35875.62273450169, 20899.953949445957, -0.23800000000000002, 0.9420000000000001, 0.192, 192.0, 248.0, 144.0, 29.0, 112.0, 6.0, 0.0, 0.0, 0.0, 0.0, 1.700950174340986E9, 0.0, 2023-11-25 17:09:34.340
120.0, 12410.113204731131, 18939.527146759887, -54585.17278256092, -53389.89089606892, -66934.95862900717, -4597.440910034288, -35870.25831583242, 20942.936354033514, -0.23800000000000002, 0.9420000000000001, 0.192, 192.0, 0.0, 0.0, 0.0, 0.0, 0.0, 0.0, 0.0, 0.0, 0.0, 1.700950174345003E9, 0.0, 2023-11-25 17:09:34.345
121.0, 12470.731135693924, 19031.705740893573, -54540.759866328226, -53330.971697684734, -66907.86831472736, -4570.395299243367, -35848.77828941087, 20988.958595866992, -0.23800000000000002, 0.9420000000000001, 0.192, 192.0, 0.0, 0.0, 0.0, 0.0, 0.0, 0.0, 0.0, 0.0, 0.0, 1.700950174349019E9, 0.0, 2023-11-25 17:09:34.349
122.0, 12505.398691344106, 19032.420996716144, -54558.440096192375, -53341.29820362308, -66847.78682563148, -4457.966024633172, -35817.932882062545, 20997.228741315455, -0.23800000000000002, 0.9420000000000001, 0.192, 192.0, 0.0, 0.0, 0.0, 0.0, 0.0, 0.0, 0.0, 0.0, 0.0, 1.700950174354047E9, 0.0, 2023-11-25 17:09:34.354
123.0, 12413.175393721509, 18905.977178332472, -54604.10471011457, -53412.53321320215, -66910.81874499544, -4573.099860322459, -35870.05715013232, 20919.265856655344, -0.23800000000000002, 0.9420000000000001, 0.192, 192.0, 0.0, 0.0, 0.0, 0.0, 0.0, 0.0, 0.0, 0.0, 0.0, 1.700950174358028E9, 0.0, 2023-11-25 17:09:34.358
124.0, 12397.26095166933, 18918.69532092754, -54586.75975641725, -53391.76844260317, -66933.68457957322, -4609.376741573423, -35870.12420536568, 20941.37173192164, -0.23800000000000002, 0.9420000000000001, 0.192, 192.0, 0.0, 0.0, 0.0, 0.0, 0.0, 0.0, 0.0, 0.0, 0.0, 1.700950174361048E9, 0.0, 2023-11-25 17:09:34.361
125.0, 12448.535853449805, 19010.695101105583, -54550.79579958866, -53343.421619346336, -66923.40277712379, -4584.745119183674, -35850.298208033826, 20990.54556972332, -0.23800000000000002, 0.9420000000000001, 0.192, 192.0, 0.0, 0.0, 0.0, 0.0, 0.0, 0.0, 0.0, 0.0, 0.0, 1.70095017436504E9, 0.0, 2023-11-25 17:09:34.365
126.0, 12515.14405192662, 19050.861185891772, -54539.50816863873, -53326.277831349114, -66849.95494484364, -4473.366376562879, -35793.681239328536, 21031.896296965635, -0.23800000000000002, 0.9420000000000001, 0.192, 192.0, 0.0, 0.0, 0.0, 0.0, 0.0, 0.0, 0.0, 0.0, 0.0, 1.700950174369013E9, 0.0, 2023-11-25 17:09:34.369
127.0, 12430.65445788556, 18922.249248295935, -54602.070701369135, -53411.52738470166, -66899.82168672344, -4546.523636165099, -35848.063033588296, 20952.23467972692, -0.23800000000000002, 0.9420000000000001, 0.192, 192.0, 0.0, 0.0, 0.0, 0.0, 0.0, 0.0, 0.0, 0.0, 0.0, 1.700950174373042E9, 0.0, 2023-11-25 17:09:34.373
128.0, 12390.108393443632, 18895.58361716075, -54590.71601518584, -53403.056073553096, -66936.12091971886, -4629.381552860922, -35873.789891456356, 20951.027685526336, -0.23800000000000002, 0.9420000000000001, 0.192, 192.0, 0.0, 0.0, 0.0, 0.0, 0.0, 0.0, 0.0, 0.0, 0.0, 1.700950174377215E9, 0.0, 2023-11-25 17:09:34.377
129.0, 12438.097588789176, 18990.95851075155, -54551.60046238905, -53350.37301187194, -66924.11803294635, -4596.4797850227105, -35859.82005117179, 20993.294834291322, -0.23600000000000002, 0.9420000000000001, 0.186, 192.0, 248.0, 160.0, 29.0, 112.0, 5.0, 208.0, 0.0, 0.0, 0.0, 1.700950174382206E9, 0.0, 2023-11-25 17:09:34.382
130.0, 12513.870002492667, 19060.941822641114, -54525.11364520951, -53315.70545622176, -66854.33588675689, -4504.994094967138, -35813.50723666039, 21027.224782374476, -0.23600000000000002, 0.9420000000000001, 0.186, 192.0, 0.0, 0.0, 0.0, 0.0, 0.0, 0.0, 0.0, 0.0, 0.0, 1.700950174386052E9, 0.0, 2023-11-25 17:09:34.386
131.0, 12450.994545339889, 18958.794350480362, -54594.716977443335, -53397.535192672636, -66881.42620103672, -4523.143711464848, -35853.293341790835, 20962.62824089864, -0.23600000000000002, 0.9420000000000001, 0.186, 192.0, 0.0, 0.0, 0.0, 0.0, 0.0, 0.0, 0.0, 0.0, 0.0, 1.70095017438909E9, 0.0, 2023-11-25 17:09:34.389
132.0, 12396.83626852468, 18912.392128991145, -54583.16112555994, -53397.62459965046, -66925.61559982486, -4639.596300076998, -35880.562470026314, 20948.3454761917, -0.23600000000000002, 0.9420000000000001, 0.186, 192.0, 0.0, 0.0, 0.0, 0.0, 0.0, 0.0, 0.0, 0.0, 0.0, 1.700950174393154E9, 0.0, 2023-11-25 17:09:34.393
