%OpenBCI Raw EXG Data
%Number of channels = 8
%Sample Rate = 250 Hz
%Board = OpenBCI_GUI$BoardCytonSerial
Sample Index, EXG Channel 0, EXG Channel 1, EXG Channel 2, EXG Channel 3, EXG Channel 4, EXG Channel 5, EXG Channel 6, EXG Channel 7, Accel Channel 0, Accel Channel 1, Accel Channel 2, Other, Other, Other, Other, Other, Other, Other, Analog Channel 0, Analog Channel 1, Analog Channel 2, Timestamp, Other, Timestamp (Formatted)
82.0, 43997.37495152652, 68694.84558044023, 8666.888912545313, -8612.596525263372, 24049.85118506565, -34154.73957714315, 17790.535723034827, 10705.278599891497, 0.0, 0.0, 0.0, 192.0, 0.0, 0.0, 0.0, 0.0, 0.0, 0.0, 0.0, 0.0, 0.0, 1.700951011657061E9, 0.0, 2023-11-25 17:23:31.657
83.0, 43980.09705306257, 68663.55313820281, 8665.681918344728, -8629.650906282772, 24125.601247024686, -34055.76605269504, 17785.327766576742, 10725.439873390183, 0.0, 0.0, 0.0, 192.0, 0.0, 0.0, 0.0, 0.0, 0.0, 0.0, 0.0, 0.0, 0.0, 1.700951011657088E9, 0.0, 2023-11-25 17:23:31.657
84.0, 43952.93968354937, 68648.01867580636, 8667.403002667786, -8636.132912174811, 24055.86380432413, -34285.81020662907, 17777.079972872732, 10678.814134456414, 0.0, 0.0, 0.0, 192.0, 0.0, 0.0, 0.0, 0.0, 0.0, 0.0, 0.0, 0.0, 0.0, 1.700951011657101E9, 0.0, 2023-11-25 17:23:31.657
0.0, 0.0, 0.0, 0.0, 0.0, 0.0, 0.0, 0.0, 0.0, 0.0, 0.0, 0.0, 192.0, 0.0, 0.0, 0.0, 0.0, 0.0, 0.0, 0.0, 0.0, 0.0, 1.700951011736055E9, 0.0, 2023-11-25 17:23:31.736
1.0, 44774.90273414883, 69264.01040125018, 8418.404569435665, -8733.675924977772, 23716.720785703754, -34249.846249800474, 17871.381982729672, 11213.445510082902, -0.03, 0.964, 0.22, 192.0, 255.0, 16.0, 30.0, 32.0, 6.0, 224.0, 0.0, 0.0, 0.0, 1.700951011751201E9, 0.0, 2023-11-25 17:23:31.751
2.0, 44808.318592109514, 69297.6050731665, 8419.075121769325, -8712.419416000774, 23731.048253899608, -34062.225706842626, 17876.165256043107, 11249.94590877842, -0.03, 0.964, 0.22, 192.0, 0.0, 0.0, 0.0, 0.0, 0.0, 0.0, 0.0, 0.0, 0.0, 1.700951011755155E9, 0.0, 2023-11-25 17:23:31.755
3.0, 44828.949252241764, 69309.54090470563, 8426.898232328682, -8703.366959496374, 23767.973335739774, -34007.19571199366, 17887.87757013769, 11262.351126951115, -0.03, 0.964, 0.22, 192.0, 0.0, 0.0, 0.0, 0.0, 0.0, 0.0, 0.0, 0.0, 0.0, 1.700951011759158E9, 0.0, 2023-11-25 17:23:31.759
4.0, 44780.781242940575, 69253.88506101193, 8406.602848363264, -8742.147236126333, 23792.85082731853, -33985.91685127221, 17878.311023510818, 11266.776772353265, -0.03, 0.964, 0.22, 192.0, 0.0, 0.0, 0.0, 0.0, 0.0, 0.0, 0.0, 0.0, 0.0, 1.700951011763183E9, 0.0, 2023-11-25 17:23:31.763
5.0, 44763.39158575435, 69253.1474534449, 8406.848717552271, -8741.454332048217, 23703.98029136423, -34253.51193589115, 17877.752229899434, 11228.778806779243, -0.03, 0.964, 0.22, 192.0, 0.0, 0.0, 0.0, 0.0, 0.0, 0.0, 0.0, 0.0, 0.0, 1.700951011767132E9, 0.0, 2023-11-25 17:23:31.767
6.0, 44790.638362245365, 69283.9034538154, 8406.468737896532, -8724.86933766238, 23717.7489659487, -34089.80775950048, 17880.63560493417, 11264.675708374467, -0.03, 0.964, 0.22, 192.0, 0.0, 0.0, 0.0, 0.0, 0.0, 0.0, 0.0, 0.0, 0.0, 1.700951011770153E9, 0.0, 2023-11-25 17:23:31.770
7.0, 44825.328269640006, 69310.94906460632, 8418.449272924576, -8711.570049711472, 23748.03557968564, -34024.58536917989, 17885.39652650315, 11269.391926454537, -0.03, 0.964, 0.22, 192.0, 0.0, 0.0, 0.0, 0.0, 0.0, 0.0, 0.0, 0.0, 0.0, 1.700951011775153E9, 0.0, 2023-11-25 17:23:31.775
8.0, 44790.9736384122, 69264.83741579502, 8403.563011117341, -8744.605928016415, 23806.686557136367, -33963.498051583534, 17874.64533742015, 11272.923502078474, -0.034, 0.96, 0.222, 192.0, 254.0, 240.0, 30.0, 0.0, 6.0, 240.0, 0.0, 0.0, 0.0, 1.700951011779228E9, 0.0, 2023-11-25 17:23:31.779
9.0, 44765.49264973315, 69255.71790405725, 8402.981865761503, -8750.730305997171, 23714.88794265842, -34241.039662485084, 17867.00104081643, 11224.55432707719, -0.034, 0.96, 0.222, 192.0, 0.0, 0.0, 0.0, 0.0, 0.0, 0.0, 0.0, 0.0, 0.0, 1.70095101178323E9, 0.0, 2023-11-25 17:23:31.783
10.0, 44790.9736384122, 69283.12114275947, 8407.496918141474, -8731.619564487883, 23719.961788649773, -34135.11474551138, 17873.036011819364, 11256.740839092832, -0.034, 0.96, 0.222, 192.0, 0.0, 0.0, 0.0, 0.0, 0.0, 0.0, 0.0, 0.0, 0.0, 1.700951011787237E9, 0.0, 2023-11-25 17:23:31.787
11.0, 44841.399173903366, 69325.52240199118, 8431.882671342215, -8704.126918807855, 23743.073492416563, -34049.50756424756, 17889.44219224956, 11265.256853730305, -0.034, 0.96, 0.222, 192.0, 0.0, 0.0, 0.0, 0.0, 0.0, 0.0, 0.0, 0.0, 0.0, 1.700951011791279E9, 0.0, 2023-11-25 17:23:31.791
12.0, 44819.60622305945, 69287.9044160729, 8428.261688740455, -8726.836291174448, 23816.498972952246, -33962.08989168285, 17884.211884047018, 11277.773830625276, -0.034, 0.96, 0.222, 192.0, 0.0, 0.0, 0.0, 0.0, 0.0, 0.0, 0.0, 0.0, 0.0, 1.700951011794236E9, 0.0, 2023-11-25 17:23:31.794
13.0, 44779.79776618454, 69256.5449186021, 8416.303505456866, -8747.355192584419, 23729.79655621011, -34202.92993818878, 17869.593843173247, 11222.27444914275, -0.034, 0.96, 0.222, 192.0, 0.0, 0.0, 0.0, 0.0, 0.0, 0.0, 0.0, 0.0, 0.0, 1.70095101179827E9, 0.0, 2023-11-25 17:23:31.798
14.0, 44796.516871037114, 69279.07547701306, 8420.885613070204, -8727.39508478583, 23723.091032873515, -34176.174900075785, 17876.25466302093, 11241.564004607679, -0.034, 0.96, 0.222, 192.0, 0.0, 0.0, 0.0, 0.0, 0.0, 0.0, 0.0, 0.0, 0.0, 1.700951011803269E9, 0.0, 2023-11-25 17:23:31.803
15.0, 44841.041545992084, 69320.00152111072, 8436.397723722188, -8702.2046687847, 23739.363102836982, -34053.910857905255, 17889.01750910491, 11255.623251870067, -0.034, 0.96, 0.222, 192.0, 0.0, 0.0, 0.0, 0.0, 0.0, 0.0, 0.0, 0.0, 0.0, 1.700951011807312E9, 0.0, 2023-11-25 17:23:31.807
16.0, 44834.42542963332, 69302.90243660241, 8442.902081358681, -8708.44080548773, 23816.230752018782, -33958.692426525646, 17897.73468944248, 11285.507534206812, -0.034, 0.96, 0.222, 192.0, 0.0, 0.0, 0.0, 0.0, 0.0, 0.0, 0.0, 0.0, 0.0, 1.700951011811308E9, 0.0, 2023-11-25 17:23:31.811
17.0, 44795.71220823672, 69272.81698856557, 8432.687334142605, -8729.518500509084, 23757.42331235687, -34130.13030649785, 17884.569511958303, 11246.682554087944, -0.034, 0.96, 0.222, 192.0, 0.0, 0.0, 0.0, 0.0, 0.0, 0.0, 0.0, 0.0, 0.0, 1.700951011815292E9, 0.0, 2023-11-25 17:23:31.815
18.0, 44806.73161825319, 69293.73822137574, 8437.381200478221, -8711.055959589, 23732.389358566925, -34192.51402527261, 17892.146753328652, 11253.164559979983, -0.03, 0.964, 0.218, 192.0, 255.0, 16.0, 30.0, 32.0, 6.0, 208.0, 0.0, 0.0, 0.0, 1.700951011819318E9, 0.0, 2023-11-25 17:23:31.819
19.0, 44841.84620879248, 69328.69634970384, 8441.33745924681, -8694.895648347814, 23740.25717261519, -34042.019729855034, 17889.978634116487, 11258.484275160346, -0.03, 0.964, 0.218, 192.0, 0.0, 0.0, 0.0, 0.0, 0.0, 0.0, 0.0, 0.0, 0.0, 1.700951011823315E9, 0.0, 2023-11-25 17:23:31.823
20.0, 44846.718889083735, 69321.6108467115, 8450.211101795567, -8697.756671638093, 23807.111240281018, -33970.67296155369, 17900.014567376922, 11275.561007924201, -0.03, 0.964, 0.218, 192.0, 0.0, 0.0, 0.0, 0.0, 0.0, 0.0, 0.0, 0.0, 0.0, 1.700951011826381E9, 0.0, 2023-11-25 17:23:31.826
21.0, 44787.218545343705, 69263.38455240543, 8423.366656704744, -8741.119055881389, 23765.5593473386, -34077.26843086105, 17873.661860664113, 11230.768112035765, -0.03, 0.964, 0.218, 192.0, 0.0, 0.0, 0.0, 0.0, 0.0, 0.0, 0.0, 0.0, 0.0, 1.700951011830337E9, 0.0, 2023-11-25 17:23:31.830
22.0, 44789.40901630033, 69272.81698856557, 8427.077046284325, -8729.63025923136, 23707.064832099062, -34241.7325665632, 17881.06028807882, 11214.406635094481, -0.03, 0.964, 0.218, 192.0, 0.0, 0.0, 0.0, 0.0, 0.0, 0.0, 0.0, 0.0, 0.0, 1.700951011835401E9, 0.0, 2023-11-25 17:23:31.835
23.0, 44831.13972319839, 69313.72068091878, 8429.692200385594, -8709.647799688317, 23716.40786128138, -34066.15961386676, 17889.151619571643, 11238.725333061855, -0.03, 0.964, 0.218, 192.0, 0.0, 0.0, 0.0, 0.0, 0.0, 0.0, 0.0, 0.0, 0.0, 1.700951011839369E9, 0.0, 2023-11-25 17:23:31.839
24.0, 44855.100793254474, 69330.618599727, 8443.125598803235, -8697.019064071068, 23779.19391145634, -33997.763275833524, 17908.575285503302, 11264.22867348536, -0.03, 0.964, 0.218, 192.0, 0.0, 0.0, 0.0, 0.0, 0.0, 0.0, 0.0, 0.0, 0.0, 1.700951011843341E9, 0.0, 2023-11-25 17:23:31.843
25.0, 44807.357467097936, 69278.53903514612, 8418.80690083586, -8734.815863944992, 23784.75949582571, -34020.11502028883, 17891.722070184, 11249.364763422582, -0.03, 0.964, 0.218, 192.0, 0.0, 0.0, 0.0, 0.0, 0.0, 0.0, 0.0, 0.0, 0.0, 1.700951011847393E9, 0.0, 2023-11-25 17:23:31.847
26.0, 44803.021228673606, 69286.47390442777, 8422.606697393263, -8722.924735894769, 23709.25530305568, -34248.21457245524, 17897.39941327565, 11225.470748599857, -0.03, 0.964, 0.218, 192.0, 0.0, 0.0, 0.0, 0.0, 0.0, 0.0, 0.0, 0.0, 0.0, 1.700951011850389E9, 0.0, 2023-11-25 17:23:31.850
27.0, 44830.53622609809, 69315.53117221966, 8416.415264179142, -8709.111357821388, 23716.20669558128, -34070.674666246734, 17894.381927774182, 11250.37059192307, -0.03, 0.964, 0.218, 192.0, 0.0, 0.0, 0.0, 0.0, 0.0, 0.0, 0.0, 0.0, 0.0, 1.700951011854385E9, 0.0, 2023-11-25 17:23:31.854
28.0, 44863.415642191845, 69341.95093416583, 8431.703857386572, -8692.794584369014, 23758.764417024187, -34015.64467139777, 17910.318721570817, 11255.913824547986, -0.036000000000000004, 0.964, 0.224, 192.0, 254.0, 224.0, 30.0, 32.0, 7.0, 0.0, 0.0, 0.0, 0.0, 1.700951011858439E9, 0.0, 2023-11-25 17:23:31.858
29.0, 44812.07368517801, 69283.65758462639, 8405.105281484757, -8735.128788367367, 23789.252196461224, -33981.133577958775, 17893.644320207157, 11250.594109367623, -0.036000000000000004, 0.964, 0.224, 192.0, 0.0, 0.0, 0.0, 0.0, 0.0, 0.0, 0.0, 0.0, 0.0, 1.700951011863395E9, 0.0, 2023-11-25 17:23:31.863
30.0, 44797.276830348594, 69284.30578521559, 8407.563973374841, -8727.104512107911, 23705.433154753824, -34256.95410453726, 17899.25460806544, 11213.065530427162, -0.036000000000000004, 0.964, 0.224, 192.0, 0.0, 0.0, 0.0, 0.0, 0.0, 0.0, 0.0, 0.0, 0.0, 1.700951011867396E9, 0.0, 2023-11-25 17:23:31.867
31.0, 44830.849150520466, 69314.50299197472, 8407.385159419198, -8704.015160085579, 23724.722710218753, -34094.70279153619, 17920.086433897788, 11257.523150148769, -0.036000000000000004, 0.964, 0.224, 192.0, 0.0, 0.0, 0.0, 0.0, 0.0, 0.0, 0.0, 0.0, 0.0, 1.700951011871453E9, 0.0, 2023-11-25 17:23:31.871
32.0, 44872.53515392961, 69345.3707510675, 8418.024589779925, -8686.938427321724, 23753.71292277729, -34029.94978784917, 17937.587849806292, 11267.939063064941, -0.036000000000000004, 0.964, 0.224, 192.0, 0.0, 0.0, 0.0, 0.0, 0.0, 0.0, 0.0, 0.0, 0.0, 1.700951011875513E9, 0.0, 2023-11-25 17:23:31.875
33.0, 44840.2368831917, 69296.86746559948, 8398.958551759548, -8722.522404494573, 23811.402775216437, -33960.8158422489, 17926.16610838963, 11268.564911909689, -0.036000000000000004, 0.964, 0.224, 192.0, 0.0, 0.0, 0.0, 0.0, 0.0, 0.0, 0.0, 0.0, 0.0, 1.700951011879381E9, 0.0, 2023-11-25 17:23:31.879
34.0, 44812.40896134484, 69280.19306423582, 8391.09073771128, -8734.704105222716, 23718.866553171465, -34237.9327700058, 17915.236105350985, 11207.634056524523, -0.036000000000000004, 0.964, 0.224, 192.0, 0.0, 0.0, 0.0, 0.0, 0.0, 0.0, 0.0, 0.0, 0.0, 1.700951011882491E9, 0.0, 2023-11-25 17:23:31.882
35.0, 44844.66252859384, 69306.90339885991, 8394.219981935023, -8711.570049711472, 23729.684797487833, -34148.61519916239, 17923.819175221823, 11238.971202250863, -0.036000000000000004, 0.964, 0.224, 192.0, 0.0, 0.0, 0.0, 0.0, 0.0, 0.0, 0.0, 0.0, 0.0, 1.700951011886517E9, 0.0, 2023-11-25 17:23:31.886
36.0, 44891.78000590563, 69342.71089347731, 8404.255915195456, -8689.91120933428, 23746.716826762775, -34063.74562546559, 17926.70255025656, 11239.373533651058, -0.036000000000000004, 0.964, 0.224, 192.0, 0.0, 0.0, 0.0, 0.0, 0.0, 0.0, 0.0, 0.0, 0.0, 1.700951011890538E9, 0.0, 2023-11-25 17:23:31.890
37.0, 44872.0434155516, 69304.5117622032, 8393.102394712258, -8712.06178808949, 23822.623350932998, -33976.931450001175, 17919.907619942143, 11251.488179145836, -0.036000000000000004, 0.964, 0.224, 192.0, 0.0, 0.0, 0.0, 0.0, 0.0, 0.0, 0.0, 0.0, 0.0, 1.700951011895602E9, 0.0, 2023-11-25 17:23:31.895
38.0, 44841.086249481, 69286.04922128312, 8385.681615553096, -8722.25418356111, 23752.84120474353, -34201.43237131028, 17910.475183782004, 11201.777899477232, -0.038, 0.9560000000000001, 0.218, 192.0, 254.0, 208.0, 29.0, 224.0, 6.0, 208.0, 0.0, 0.0, 0.0, 1.700951011899551E9, 0.0, 2023-11-25 17:23:31.899
39.0, 44859.81701133454, 69310.47967797276, 8385.167525430623, -8704.976285097157, 23743.16289939438, -34187.26136532562, 17914.632608250693, 11219.480481085835, -0.038, 0.9560000000000001, 0.218, 192.0, 0.0, 0.0, 0.0, 0.0, 0.0, 0.0, 0.0, 0.0, 0.0, 1.700951011903664E9, 0.0, 2023-11-25 17:23:31.903
40.0, 44901.05597985459, 69346.0189516567, 8387.80503127635, -8689.330063978441, 23746.917992462873, -34069.55707902397, 17917.761852474436, 11225.22487941085, -0.038, 0.9560000000000001, 0.218, 192.0, 0.0, 0.0, 0.0, 0.0, 0.0, 0.0, 0.0, 0.0, 0.0, 1.700951011906614E9, 0.0, 2023-11-25 17:23:31.906
41.0, 44899.491357742714, 69327.80227992563, 8393.549429601364, -8697.264933260076, 23825.260856778725, -33985.24629893855, 17925.40614907815, 11248.381286666547, -0.038, 0.9560000000000001, 0.218, 192.0, 0.0, 0.0, 0.0, 0.0, 0.0, 0.0, 0.0, 0.0, 0.0, 1.700951011911996E9, 0.0, 2023-11-25 17:23:31.911
42.0, 44852.865618808944, 69287.07740152805, 8380.09367943927, -8723.572936483972, 23768.599184584524, -34143.98838806014, 17904.328454056795, 11205.957675690375, -0.038, 0.9560000000000001, 0.218, 192.0, 0.0, 0.0, 0.0, 0.0, 0.0, 0.0, 0.0, 0.0, 0.0, 1.700951011914704E9, 0.0, 2023-11-25 17:23:31.914
43.0, 44868.511839927654, 69306.18814303735, 8386.352167886755, -8705.19980254171, 23734.780995223642, -34230.89197050237, 17908.59763724776, 11207.79051873571, -0.038, 0.9560000000000001, 0.218, 192.0, 0.0, 0.0, 0.0, 0.0, 0.0, 0.0, 0.0, 0.0, 0.0, 1.70095101191866E9, 0.0, 2023-11-25 17:23:31.918
44.0, 44915.13757886143, 69347.53887027966, 8394.219981935023, -8686.133764521333, 23745.688646517832, -34077.4919483056, 17910.54223901537, 11224.800196266198, -0.038, 0.9560000000000001, 0.218, 192.0, 0.0, 0.0, 0.0, 0.0, 0.0, 0.0, 0.0, 0.0, 0.0, 1.700951011923632E9, 0.0, 2023-11-25 17:23:31.923
45.0, 44919.74203821922, 69337.25706783021, 8399.316179670832, -8693.062805302477, 23808.050013548138, -34006.32399395991, 17905.893076168668, 11239.641754584522, -0.038, 0.9560000000000001, 0.218, 192.0, 0.0, 0.0, 0.0, 0.0, 0.0, 0.0, 0.0, 0.0, 0.0, 1.700951011927609E9, 0.0, 2023-11-25 17:23:31.927
46.0, 44875.39617721989, 69292.9559103198, 8385.569856830818, -8719.884898648847, 23791.733240095764, -34086.23148038763, 17888.749288171446, 11222.319152631659, -0.038, 0.9560000000000001, 0.218, 192.0, 0.0, 0.0, 0.0, 0.0, 0.0, 0.0, 0.0, 0.0, 0.0, 1.700951011930616E9, 0.0, 2023-11-25 17:23:31.930
47.0, 44876.17848827583, 69306.76928839317, 8389.101432454758, -8705.020988586068, 23732.83639345603, -34259.12222374943, 17893.10787834023, 11210.36096934807, -0.042, 0.9580000000000001, 0.218, 192.0, 254.0, 176.0, 29.0, 240.0, 6.0, 208.0, 0.0, 0.0, 0.0, 1.700951011934863E9, 0.0, 2023-11-25 17:23:31.934
48.0, 44915.80813119509, 69339.6710562314, 8390.353130144254, -8687.273703488554, 23745.5545360511, -34082.431683830226, 17889.129267827186, 11230.030504468741, -0.042, 0.9580000000000001, 0.218, 192.0, 0.0, 0.0, 0.0, 0.0, 0.0, 0.0, 0.0, 0.0, 0.0, 1.70095101193871E9, 0.0, 2023-11-25 17:23:31.938
49.0, 44943.121962919475, 69350.51165229222, 8408.480394897508, -8677.10365976139, 23802.685594878865, -34023.60189242386, 17895.655977208135, 11244.290917431226, -0.042, 0.9580000000000001, 0.218, 192.0, 0.0, 0.0, 0.0, 0.0, 0.0, 0.0, 0.0, 0.0, 0.0, 1.700951011942642E9, 0.0, 2023-11-25 17:23:31.942
50.0, 44887.35436050348, 69287.88206432844, 8385.122821941713, -8719.01318061509, 23806.95477806983, -34031.9837965946, 17869.951471084532, 11224.867251499565, -0.042, 0.9580000000000001, 0.218, 192.0, 0.0, 0.0, 0.0, 0.0, 0.0, 0.0, 0.0, 0.0, 0.0, 1.700951011946701E9, 0.0, 2023-11-25 17:23:31.946
51.0, 44877.00550282068, 69294.0511457981, 8395.248162179967, -8705.780947897549, 23732.858745200487, -34268.71112212075, 17877.886340366167, 11203.700149500388, -0.042, 0.9580000000000001, 0.218, 192.0, 0.0, 0.0, 0.0, 0.0, 0.0, 0.0, 0.0, 0.0, 0.0, 1.700951011950746E9, 0.0, 2023-11-25 17:23:31.950
52.0, 44906.979192135244, 69327.42230026989, 8397.550391858864, -8686.938427321724, 23749.689608775334, -34087.90786122178, 17884.34599451375, 11246.973126765863, -0.042, 0.9580000000000001, 0.218, 192.0, 0.0, 0.0, 0.0, 0.0, 0.0, 0.0, 0.0, 0.0, 0.0, 1.700951011955793E9, 0.0, 2023-11-25 17:23:31.955
53.0, 44934.98592793774, 69350.26578310321, 8410.71556934304, -8672.543903892507, 23785.51945513719, -34029.0333663265, 17895.991253374967, 11257.813722826688, -0.042, 0.9580000000000001, 0.218, 192.0, 0.0, 0.0, 0.0, 0.0, 0.0, 0.0, 0.0, 0.0, 0.0, 1.700951011958754E9, 0.0, 2023-11-25 17:23:31.958
54.0, 44887.890802370406, 69294.94521557633, 8387.603865576251, -8713.000561356612, 23819.315292753614, -33983.1228832153, 17876.589939187757, 11253.70100184691, -0.042, 0.9580000000000001, 0.218, 192.0, 0.0, 0.0, 0.0, 0.0, 0.0, 0.0, 0.0, 0.0, 0.0, 1.700951011961791E9, 0.0, 2023-11-25 17:23:31.961
55.0, 44869.96470331725, 69291.92773007485, 8390.71075805554, -8711.279477033553, 23730.869439943963, -34252.506107390655, 17882.49079972396, 11215.45716708388, -0.042, 0.9580000000000001, 0.218, 192.0, 0.0, 0.0, 0.0, 0.0, 0.0, 0.0, 0.0, 0.0, 0.0, 1.700951011966914E9, 0.0, 2023-11-25 17:23:31.966
56.0, 44898.15025307539, 69319.93446587735, 8391.80599353385, -8693.53219193604, 23744.638114528432, -34109.79021904352, 17892.750250428948, 11255.019754769773, -0.042, 0.9580000000000001, 0.218, 192.0, 0.0, 0.0, 0.0, 0.0, 0.0, 0.0, 0.0, 0.0, 0.0, 1.700951011970771E9, 0.0, 2023-11-25 17:23:31.970
57.0, 44935.41061108239, 69349.41641681391, 8401.908982027648, -8683.540962164518, 23760.865481002988, -34049.79813692548, 17896.68415745308, 11253.186911724439, -0.038, 0.96, 0.216, 192.0, 254.0, 208.0, 30.0, 0.0, 6.0, 192.0, 0.0, 0.0, 0.0, 1.700951011974798E9, 0.0, 2023-11-25 17:23:31.974
58.0, 44913.483549771736, 69315.68763443084, 8401.014912249437, -8706.138575808833, 23834.20155456085, -33970.31533364241, 17894.247817307452, 11271.492990433335, -0.038, 0.96, 0.216, 192.0, 0.0, 0.0, 0.0, 0.0, 0.0, 0.0, 0.0, 0.0, 0.0, 1.700951011978918E9, 0.0, 2023-11-25 17:23:31.978
59.0, 44886.37088374745, 69298.52149468916, 8401.238429693989, -8712.821747400969, 23750.695437275823, -34225.01346171063, 17887.676404437592, 11230.097559702106, -0.038, 0.96, 0.216, 192.0, 0.0, 0.0, 0.0, 0.0, 0.0, 0.0, 0.0, 0.0, 0.0, 1.700951011982811E9, 0.0, 2023-11-25 17:23:31.982
60.0, 44906.93448864633, 69321.00734961122, 8404.702950084562, -8696.303808248498, 23752.28241113215, -34145.5083066831, 17894.337224285275, 11258.774847838265, -0.038, 0.96, 0.216, 192.0, 0.0, 0.0, 0.0, 0.0, 0.0, 0.0, 0.0, 0.0, 0.0, 1.700951011986866E9, 0.0, 2023-11-25 17:23:31.986
61.0, 44947.301739132614, 69363.63212628748, 8418.739845602495, -8678.780040595537, 23763.435931615346, -34058.64942772978, 17899.075794109798, 11259.914786805486, -0.038, 0.96, 0.216, 192.0, 0.0, 0.0, 0.0, 0.0, 0.0, 0.0, 0.0, 0.0, 0.0, 1.700951011989861E9, 0.0, 2023-11-25 17:23:31.989
62.0, 44925.911119688884, 69327.86933515899, 8412.369598432731, -8701.981151340146, 23836.86141215103, -33964.74974927303, 17892.437326006573, 11276.745650380331, -0.038, 0.96, 0.216, 192.0, 0.0, 0.0, 0.0, 0.0, 0.0, 0.0, 0.0, 0.0, 0.0, 1.700951011994893E9, 0.0, 2023-11-25 17:23:31.994
63.0, 44888.98603784872, 69299.4602679563, 8405.753482073962, -8719.169642826277, 23766.475768861266, -34176.97956287617, 17880.948529356545, 11228.018847467763, -0.038, 0.96, 0.216, 192.0, 0.0, 0.0, 0.0, 0.0, 0.0, 0.0, 0.0, 0.0, 0.0, 1.700951011998906E9, 0.0, 2023-11-25 17:23:31.998
64.0, 44902.37473277745, 69314.48064023026, 8408.770967575427, -8702.852869373903, 23747.588544796534, -34186.41199903632, 17890.895055639157, 11241.072266229661, -0.038, 0.96, 0.216, 192.0, 0.0, 0.0, 0.0, 0.0, 0.0, 0.0, 0.0, 0.0, 0.0, 1.700951012002852E9, 0.0, 2023-11-25 17:23:32.002
65.0, 44935.81294248259, 69345.41545455641, 8415.47649091202, -8686.446688943708, 23749.041408186127, -34063.767977210046, 17893.30904404033, 11251.666993101477, -0.038, 0.96, 0.216, 192.0, 0.0, 0.0, 0.0, 0.0, 0.0, 0.0, 0.0, 0.0, 0.0, 1.700951012008935E9, 0.0, 2023-11-25 17:23:32.008
66.0, 44930.537930791135, 69330.32802704908, 8420.773854347928, -8692.749880880105, 23826.110223068026, -33974.09277845535, 17901.44507902206, 11274.644586401533, -0.038, 0.96, 0.216, 192.0, 0.0, 0.0, 0.0, 0.0, 0.0, 0.0, 0.0, 0.0, 0.0, 1.70095101201196E9, 0.0, 2023-11-25 17:23:32.011
67.0, 44883.88984011291, 69290.81014285209, 8405.239391951489, -8719.639029459839, 23780.311498679104, -34110.550178355, 17887.698756182046, 11238.479463872847, -0.034, 0.962, 0.216, 192.0, 254.0, 240.0, 30.0, 16.0, 6.0, 192.0, 0.0, 0.0, 0.0, 1.700951012015111E9, 0.0, 2023-11-25 17:23:32.015
68.0, 44887.35436050348, 69302.70127090231, 8405.306447184856, -8709.267820032575, 23737.753777236197, -34218.95613896324, 17889.978634116487, 11232.93623124793, -0.034, 0.962, 0.216, 192.0, 0.0, 0.0, 0.0, 0.0, 0.0, 0.0, 0.0, 0.0, 0.0, 1.700951012018016E9, 0.0, 2023-11-25 17:23:32.018
69.0, 44922.46895104277, 69340.5204225207, 8406.04405475188, -8695.275628003554, 23744.682818017343, -34065.22084059964, 17887.87757013769, 11243.374495908558, -0.034, 0.962, 0.216, 192.0, 0.0, 0.0, 0.0, 0.0, 0.0, 0.0, 0.0, 0.0, 0.0, 1.700951012021967E9, 0.0, 2023-11-25 17:23:32.021
70.0, 44928.88390170144, 69339.04520738665, 8412.928392044114, -8694.381558225341, 23809.100545537538, -33991.415380408216, 17895.611273719227, 11261.367650195081, -0.034, 0.962, 0.216, 192.0, 0.0, 0.0, 0.0, 0.0, 0.0, 0.0, 0.0, 0.0, 0.0, 1.700951012026971E9, 0.0, 2023-11-25 17:23:32.026
71.0, 44877.00550282068, 69290.38545970744, 8393.437670879088, -8728.289154564041, 23793.499027907736, -34051.318055548436, 17877.841636877256, 11239.887623773531, -0.034, 0.962, 0.216, 192.0, 0.0, 0.0, 0.0, 0.0, 0.0, 0.0, 0.0, 0.0, 0.0, 1.700951012031043E9, 0.0, 2023-11-25 17:23:32.031
72.0, 44878.793642377095, 69301.87425635746, 8402.42307215012, -8712.06178808949, 23732.07643414455, -34242.60428459696, 17888.414012004618, 11228.957620734885, -0.034, 0.962, 0.216, 192.0, 0.0, 0.0, 0.0, 0.0, 0.0, 0.0, 0.0, 0.0, 0.0, 1.700951012034948E9, 0.0, 2023-11-25 17:23:32.034
73.0, 44914.399971294406, 69337.65939923041, 8407.586325119297, -8691.945218079713, 23745.196908139817, -34067.16544236725, 17890.53742772787, 11254.639775114034, -0.034, 0.962, 0.216, 192.0, 0.0, 0.0, 0.0, 0.0, 0.0, 0.0, 0.0, 0.0, 0.0, 1.700951012038953E9, 0.0, 2023-11-25 17:23:32.038
74.0, 44942.29494837463, 69355.25022211674, 8424.394836949687, -8680.970511552157, 23798.10348726553, -34012.47072368512, 17896.728860941992, 11264.921577563475, -0.034, 0.962, 0.216, 192.0, 0.0, 0.0, 0.0, 0.0, 0.0, 0.0, 0.0, 0.0, 0.0, 1.70095101204204E9, 0.0, 2023-11-25 17:23:32.042
75.0, 44894.05988384008, 69299.2591022562, 8402.624237850217, -8719.907250393302, 23814.822592118097, -34001.63012762429, 17874.26535776441, 11255.332679192148, -0.034, 0.962, 0.216, 192.0, 0.0, 0.0, 0.0, 0.0, 0.0, 0.0, 0.0, 0.0, 0.0, 1.700951012046054E9, 0.0, 2023-11-25 17:23:32.046
76.0, 44880.93940984481, 69300.19787552331, 8407.295752441378, -8712.642933445328, 23731.674102744353, -34252.930790535305, 17878.48983746646, 11225.895431744508, -0.034, 0.962, 0.216, 192.0, 0.0, 0.0, 0.0, 0.0, 0.0, 0.0, 0.0, 0.0, 0.0, 1.700951012050035E9, 0.0, 2023-11-25 17:23:32.050
77.0, 44905.63808746792, 69326.9082101474, 8408.011008263948, -8696.169697781766, 23743.676989516855, -34078.38601808382, 17886.73763117047, 11267.782600853754, -0.03, 0.962, 0.22, 192.0, 255.0, 16.0, 30.0, 16.0, 6.0, 224.0, 0.0, 0.0, 0.0, 1.700951012055052E9, 0.0, 2023-11-25 17:23:32.055
78.0, 44942.4067070969, 69359.47470181879, 8429.71455213005, -8674.086174259923, 23782.83724580255, -34017.477514443104, 17907.144773858163, 11286.580417940668, -0.03, 0.962, 0.22, 192.0, 0.0, 0.0, 0.0, 0.0, 0.0, 0.0, 0.0, 0.0, 0.0, 1.700951012059065E9, 0.0, 2023-11-25 17:23:32.059
79.0, 44899.916040887365, 69309.94323610583, 8412.794281577382, -8710.050131088512, 23826.75842365723, -33949.99759793253, 17893.219637062506, 11292.794202899242, -0.03, 0.962, 0.22, 192.0, 0.0, 0.0, 0.0, 0.0, 0.0, 0.0, 0.0, 0.0, 0.0, 1.700951012063098E9, 0.0, 2023-11-25 17:23:32.063
80.0, 44867.617770149445, 69291.92773007485, 8402.937162272592, -8724.467006262184, 23721.437003783823, -34232.54599959207, 17879.897997367145, 11235.193757437917, -0.03, 0.962, 0.22, 192.0, 0.0, 0.0, 0.0, 0.0, 0.0, 0.0, 0.0, 0.0, 0.0, 1.70095101206711E9, 0.0, 2023-11-25 17:23:32.067
81.0, 44893.70225592879, 69321.07440484458, 8405.552316373864, -8705.825651386458, 23732.568172522566, -34106.37040214186, 17891.29738703935, 11272.789391611743, -0.03, 0.962, 0.22, 192.0, 0.0, 0.0, 0.0, 0.0, 0.0, 0.0, 0.0, 0.0, 0.0, 1.70095101207016E9, 0.0, 2023-11-25 17:23:32.070
82.0, 44924.77118072166, 69353.17150988239, 8418.113996757746, -8691.341720979419, 23748.75083550821, -34039.091651331386, 17901.087451110776, 11278.109106792106, -0.03, 0.962, 0.22, 192.0, 0.0, 0.0, 0.0, 0.0, 0.0, 0.0, 0.0, 0.0, 0.0, 1.700951012074133E9, 0.0, 2023-11-25 17:23:32.074
83.0, 44891.91411637236, 69311.86548612898, 8411.877860054716, -8718.186166070243, 23816.968359585808, -33950.13170839926, 17898.11466909822, 11295.208191300415, -0.03, 0.962, 0.22, 192.0, 0.0, 0.0, 0.0, 0.0, 0.0, 0.0, 0.0, 0.0, 0.0, 1.700951012078184E9, 0.0, 2023-11-25 17:23:32.078
84.0, 44852.999729275674, 69288.7537823622, 8401.081967482802, -8738.861529691403, 23719.31358806057, -34211.60241503744, 17883.094296824253, 11235.93136500494, -0.03, 0.962, 0.22, 192.0, 0.0, 0.0, 0.0, 0.0, 0.0, 0.0, 0.0, 0.0, 0.0, 1.700951012082147E9, 0.0, 2023-11-25 17:23:32.082
85.0, 44877.184316776315, 69312.87131462948, 8405.507612884952, -8722.29888705002, 23716.564323492566, -34156.594771932934, 17890.403317261138, 11258.260757715792, -0.03, 0.962, 0.22, 192.0, 0.0, 0.0, 0.0, 0.0, 0.0, 0.0, 0.0, 0.0, 0.0, 1.700951012087201E9, 0.0, 2023-11-25 17:23:32.087
86.0, 44923.206558609796, 69351.13750113697, 8418.493976413487, -8704.082215318944, 23729.304817832093, -34063.92443942123, 17895.186590574576, 11260.585339139145, -0.03, 0.962, 0.22, 192.0, 0.0, 0.0, 0.0, 0.0, 0.0, 0.0, 0.0, 0.0, 0.0, 1.700951012091163E9, 0.0, 2023-11-25 17:23:32.091
87.0, 44912.88005267144, 69324.1142420905, 8420.975020048025, -8717.49326199213, 23813.19091477286, -33965.129728928776, 17897.68998595357, 11280.366632982092, -0.036000000000000004, 0.968, 0.216, 192.0, 254.0, 224.0, 30.0, 64.0, 6.0, 192.0, 0.0, 0.0, 0.0, 1.700951012095139E9, 0.0, 2023-11-25 17:23:32.095
88.0, 44870.054110295074, 69287.92676781735, 8408.480394897508, -8738.97328841368, 23746.582716296045, -34164.06025458101, 17879.473314222494, 11228.13060619004, -0.036000000000000004, 0.968, 0.216, 192.0, 0.0, 0.0, 0.0, 0.0, 0.0, 0.0, 0.0, 0.0, 0.0, 1.700951012098178E9, 0.0, 2023-11-25 17:23:32.098
89.0, 44883.196936034794, 69308.91505586088, 8414.783586833904, -8715.168680568777, 23731.249419599702, -34189.250670582136, 17886.58116895928, 11245.60967035409, -0.036000000000000004, 0.968, 0.216, 192.0, 0.0, 0.0, 0.0, 0.0, 0.0, 0.0, 0.0, 0.0, 0.0, 1.700951012102386E9, 0.0, 2023-11-25 17:23:32.102
90.0, 44924.592366766024, 69352.09862614854, 8426.697066628583, -8687.810145355481, 23742.961733694287, -34055.69899746168, 17894.672500452103, 11259.244234471827, -0.036000000000000004, 0.968, 0.216, 192.0, 0.0, 0.0, 0.0, 0.0, 0.0, 0.0, 0.0, 0.0, 0.0, 1.700951012106221E9, 0.0, 2023-11-25 17:23:32.106
91.0, 44925.352326077504, 69339.93927716486, 8430.273345741432, -8694.180392525244, 23820.119955554004, -33966.53788882946, 17903.613198234227, 11284.792278384242, -0.036000000000000004, 0.968, 0.216, 192.0, 0.0, 0.0, 0.0, 0.0, 0.0, 0.0, 0.0, 0.0, 0.0, 1.700951012110541E9, 0.0, 2023-11-25 17:23:32.110
92.0, 44877.00550282068, 69296.59924466601, 8412.928392044114, -8724.601116728916, 23776.399943399425, -34089.58424205593, 17886.290596281364, 11247.934251777442, -0.036000000000000004, 0.968, 0.216, 192.0, 0.0, 0.0, 0.0, 0.0, 0.0, 0.0, 0.0, 0.0, 0.0, 1.700951012115192E9, 0.0, 2023-11-25 17:23:32.115
93.0, 44883.6439709239, 69310.34556750602, 8420.393874692187, -8705.87035487537, 23731.674102744353, -34216.63155753989, 17890.224503305497, 11239.46294062888, -0.036000000000000004, 0.968, 0.216, 192.0, 0.0, 0.0, 0.0, 0.0, 0.0, 0.0, 0.0, 0.0, 0.0, 1.700951012119236E9, 0.0, 2023-11-25 17:23:32.119
94.0, 44917.70802947379, 69343.89553593345, 8420.036246780903, -8690.67116864576, 23735.496251046214, -34055.25196257257, 17885.77650615889, 11250.258833200793, -0.036000000000000004, 0.968, 0.216, 192.0, 0.0, 0.0, 0.0, 0.0, 0.0, 0.0, 0.0, 0.0, 0.0, 1.700951012123225E9, 0.0, 2023-11-25 17:23:32.123
95.0, 44932.19195988082, 69351.49512904824, 8433.939031832104, -8681.819877841459, 23803.534961168167, -33980.843005280854, 17900.819230177312, 11274.398717212525, -0.036000000000000004, 0.968, 0.216, 192.0, 0.0, 0.0, 0.0, 0.0, 0.0, 0.0, 0.0, 0.0, 0.0, 1.70095101212621E9, 0.0, 2023-11-25 17:23:32.126
96.0, 44885.163889546864, 69302.23188426875, 8414.224793222522, -8714.72164567967, 23796.18123724237, -34021.29966274496, 17885.374174758694, 11260.048897272218, -0.036000000000000004, 0.968, 0.216, 192.0, 0.0, 0.0, 0.0, 0.0, 0.0, 0.0, 0.0, 0.0, 0.0, 1.70095101213022E9, 0.0, 2023-11-25 17:23:32.130
97.0, 44878.63718016591, 69313.56421870759, 8419.611563636252, -8700.81886062847, 23728.12017537596, -34230.847267013465, 17891.16327657262, 11240.491120873825, -0.042, 0.968, 0.22, 192.0, 254.0, 176.0, 30.0, 64.0, 6.0, 224.0, 0.0, 0.0, 0.0, 1.700951012134216E9, 0.0, 2023-11-25 17:23:32.134
98.0, 44912.142445104415, 69348.36588482451, 8423.076084026825, -8680.38936619632, 23741.665332515877, -34049.708729947655, 17902.048576122354, 11276.745650380331, -0.042, 0.968, 0.22, 192.0, 0.0, 0.0, 0.0, 0.0, 0.0, 0.0, 0.0, 0.0, 0.0, 1.700951012138276E9, 0.0, 2023-11-25 17:23:32.138
99.0, 44934.8071139821, 69364.3697338545, 8434.453121954575, -8670.62165386935, 23787.978147027272, -33989.00139200704, 17918.968846675023, 11293.084775577161, -0.042, 0.968, 0.22, 192.0, 0.0, 0.0, 0.0, 0.0, 0.0, 0.0, 0.0, 0.0, 0.0, 1.700951012143342E9, 0.0, 2023-11-25 17:23:32.143
100.0, 44883.487508712715, 69305.9646255928, 8408.413339664143, -8712.620581700872, 23807.737089125763, -33968.92952548618, 17896.88532315318, 11281.528923693768, -0.042, 0.968, 0.22, 192.0, 0.0, 0.0, 0.0, 0.0, 0.0, 0.0, 0.0, 0.0, 0.0, 1.70095101214729E9, 0.0, 2023-11-25 17:23:32.147
101.0, 44865.62846489292, 69300.62255866796, 8405.172336718124, -8716.979171869656, 23716.944303148306, -34237.03870022758, 17888.078735837786, 11235.551385349201, -0.042, 0.968, 0.22, 192.0, 0.0, 0.0, 0.0, 0.0, 0.0, 0.0, 0.0, 0.0, 0.0, 1.700951012150236E9, 0.0, 2023-11-25 17:23:32.150
102.0, 44900.8995176434, 69340.5651260096, 8409.039188508892, -8698.561334438484, 23734.088091145528, -34078.78834948401, 17894.985424874478, 11267.715545620387, -0.042, 0.968, 0.22, 192.0, 0.0, 0.0, 0.0, 0.0, 0.0, 0.0, 0.0, 0.0, 0.0, 1.700951012154367E9, 0.0, 2023-11-25 17:23:32.154
103.0, 44940.64091928493, 69374.65153630395, 8428.306392229366, -8679.472944673651, 23768.174501439873, -34021.187904022685, 17902.49561101146, 11267.782600853754, -0.042, 0.968, 0.22, 192.0, 0.0, 0.0, 0.0, 0.0, 0.0, 0.0, 0.0, 0.0, 0.0, 1.70095101215831E9, 0.0, 2023-11-25 17:23:32.158
104.0, 44902.82176766655, 69326.7070444473, 8416.728188601517, -8713.089968334432, 23823.651531177944, -33947.62831302027, 17897.26530280892, 11279.204342270416, -0.042, 0.968, 0.22, 192.0, 0.0, 0.0, 0.0, 0.0, 0.0, 0.0, 0.0, 0.0, 0.0, 1.700951012162325E9, 0.0, 2023-11-25 17:23:32.162
105.0, 44874.21153476376, 69310.25616052821, 8412.414301921643, -8721.516575994085, 23728.343692820516, -34216.29628137306, 17903.03205287839, 11246.302574432204, -0.042, 0.968, 0.22, 192.0, 0.0, 0.0, 0.0, 0.0, 0.0, 0.0, 0.0, 0.0, 0.0, 1.700951012166388E9, 0.0, 2023-11-25 17:23:32.166
106.0, 44901.100683343495, 69332.13851834995, 8412.593115877286, -8706.652665931304, 23734.13279463444, -34103.28586140703, 17915.034939650886, 11279.986653326352, -0.042, 0.968, 0.22, 192.0, 0.0, 0.0, 0.0, 0.0, 0.0, 0.0, 0.0, 0.0, 0.0, 1.700951012171399E9, 0.0, 2023-11-25 17:23:32.171
107.0, 44937.93635820584, 69365.30850712163, 8422.986677049003, -8691.498183190606, 23750.22605064226, -34031.87203787232, 17921.02520716491, 11281.75244113832, -0.04, 0.972, 0.214, 192.0, 254.0, 192.0, 30.0, 96.0, 6.0, 176.0, 0.0, 0.0, 0.0, 1.700951012175393E9, 0.0, 2023-11-25 17:23:32.175
108.0, 44909.32612530305, 69327.19878282533, 8416.974057790525, -8716.15215732481, 23821.72928115479, -33938.95583617161, 17915.34786407326, 11301.243162303348, -0.04, 0.972, 0.214, 192.0, 0.0, 0.0, 0.0, 0.0, 0.0, 0.0, 0.0, 0.0, 0.0, 1.700951012179416E9, 0.0, 2023-11-25 17:23:32.179
109.0, 44867.2377904937, 69302.05307031311, 8403.719473328529, -8737.833349446459, 23730.712977732775, -34189.36242930441, 17898.002910375944, 11242.167501707972, -0.04, 0.972, 0.214, 192.0, 0.0, 0.0, 0.0, 0.0, 0.0, 0.0, 0.0, 0.0, 0.0, 1.700951012182407E9, 0.0, 2023-11-25 17:23:32.182
110.0, 44884.4933372132, 69324.29305604614, 8401.640761094184, -8722.589459727938, 23723.761585207176, -34157.35473124441, 17898.852276665246, 11254.013926269285, -0.04, 0.972, 0.214, 192.0, 0.0, 0.0, 0.0, 0.0, 0.0, 0.0, 0.0, 0.0, 0.0, 1.700951012186363E9, 0.0, 2023-11-25 17:23:32.186
111.0, 44934.293023859624, 69372.7292862808, 8418.225755480022, -8693.018101813568, 23737.79848072511, -34057.889468418296, 17905.714262213023, 11258.193702482427, -0.04, 0.972, 0.214, 192.0, 0.0, 0.0, 0.0, 0.0, 0.0, 0.0, 0.0, 0.0, 0.0, 1.700951012190441E9, 0.0, 2023-11-25 17:23:32.190
112.0, 44922.2007301093, 69345.63897200096, 8416.102339756768, -8706.406796742296, 23814.733185140274, -33955.33966485735, 17907.79297444737, 11286.200438284926, -0.04, 0.972, 0.214, 192.0, 0.0, 0.0, 0.0, 0.0, 0.0, 0.0, 0.0, 0.0, 0.0, 1.700951012194495E9, 0.0, 2023-11-25 17:23:32.194
113.0, 44880.201802277785, 69310.47967797276, 8404.61354310674, -8728.669134219783, 23751.61185879849, -34138.13223101285, 17892.05734635083, 11243.799179053209, -0.04, 0.972, 0.214, 192.0, 0.0, 0.0, 0.0, 0.0, 0.0, 0.0, 0.0, 0.0, 0.0, 1.700951012198468E9, 0.0, 2023-11-25 17:23:32.198
114.0, 44890.193032049305, 69326.50587874721, 8410.71556934304, -8712.039436345034, 23726.93553291983, -34185.80850193602, 17899.321663298808, 11260.56298739469, -0.04, 0.972, 0.214, 192.0, 0.0, 0.0, 0.0, 0.0, 0.0, 0.0, 0.0, 0.0, 0.0, 1.700951012203461E9, 0.0, 2023-11-25 17:23:32.203
115.0, 44926.626375511456, 69359.02766692969, 8416.2364502235, -8695.29797974801, 23731.69645448881, -34051.094538103884, 17899.723994699, 11271.649452644522, -0.04, 0.972, 0.214, 192.0, 0.0, 0.0, 0.0, 0.0, 0.0, 0.0, 0.0, 0.0, 0.0, 1.700951012206513E9, 0.0, 2023-11-25 17:23:32.206
116.0, 44930.91791044687, 69347.02478015718, 8423.321953215833, -8698.404872227296, 23806.261873991716, -33969.10833944182, 17901.802706933344, 11290.737842409355, -0.04, 0.972, 0.214, 192.0, 0.0, 0.0, 0.0, 0.0, 0.0, 0.0, 0.0, 0.0, 0.0, 1.700951012210502E9, 0.0, 2023-11-25 17:23:32.210
117.0, 44883.68867441281, 69302.43304996885, 8409.821499564827, -8726.433959774251, 23772.667202075387, -34073.043951158994, 17882.133171812675, 11258.46192341589, -0.036000000000000004, 0.972, 0.212, 192.0, 254.0, 224.0, 30.0, 96.0, 6.0, 160.0, 0.0, 0.0, 0.0, 1.700951012214466E9, 0.0, 2023-11-25 17:23:32.214
118.0, 44893.92577337334, 69323.46604150129, 8422.316124715344, -8703.523421707561, 23729.573038765557, -34218.21853139622, 17889.531599227383, 11251.443475656924, -0.036000000000000004, 0.972, 0.212, 192.0, 0.0, 0.0, 0.0, 0.0, 0.0, 0.0, 0.0, 0.0, 0.0, 1.7009510122185E9, 0.0, 2023-11-25 17:23:32.218
119.0, 44937.1540471499, 69368.88478623447, 8430.496863185987, -8678.355357450886, 23740.32422784856, -34049.8875439033, 17894.270169051906, 11279.204342270416, -0.036000000000000004, 0.972, 0.212, 192.0, 0.0, 0.0, 0.0, 0.0, 0.0, 0.0, 0.0, 0.0, 0.0, 1.700951012222494E9, 0.0, 2023-11-25 17:23:32.222
120.0, 44949.268692644684, 69374.33861188157, 8438.47643595653, -8676.075479516445, 23794.862484319507, -33984.128711715784, 17901.35567204424, 11288.837944130653, -0.036000000000000004, 0.972, 0.212, 192.0, 0.0, 0.0, 0.0, 0.0, 0.0, 0.0, 0.0, 0.0, 0.0, 1.700951012226509E9, 0.0, 2023-11-25 17:23:32.226
121.0, 44894.61867745146, 69321.43203275587, 8415.543546145385, -8715.77217766907, 23788.782809827666, -34013.565959163425, 17885.97767185899, 11271.403583455514, -0.036000000000000004, 0.972, 0.212, 192.0, 0.0, 0.0, 0.0, 0.0, 0.0, 0.0, 0.0, 0.0, 0.0, 1.700951012230504E9, 0.0, 2023-11-25 17:23:32.230
122.0, 44885.566220947054, 69327.69052120335, 8418.359865946753, -8707.569087453972, 23711.848105412497, -34237.66454907233, 17893.06317485132, 11249.253004700304, -0.036000000000000004, 0.972, 0.212, 192.0, 0.0, 0.0, 0.0, 0.0, 0.0, 0.0, 0.0, 0.0, 0.0, 1.700951012235517E9, 0.0, 2023-11-25 17:23:32.235
123.0, 44910.197843336806, 69351.45042555933, 8413.353075188765, -8695.119165792366, 23717.63720722642, -34062.06924463144, 17894.82896266329, 11275.09162129064, -0.036000000000000004, 0.972, 0.212, 192.0, 0.0, 0.0, 0.0, 0.0, 0.0, 0.0, 0.0, 0.0, 0.0, 1.70095101223853E9, 0.0, 2023-11-25 17:23:32.238
124.0, 44932.79545698112, 69365.375562355, 8427.121749773234, -8683.809183097981, 23759.524376335667, -34007.53098816049, 17912.173916360607, 11290.894304620542, -0.036000000000000004, 0.972, 0.212, 192.0, 0.0, 0.0, 0.0, 0.0, 0.0, 0.0, 0.0, 0.0, 0.0, 1.700951012242555E9, 0.0, 2023-11-25 17:23:32.242
125.0, 44884.2921715131, 69311.17258205087, 8410.514403642941, -8721.717741694181, 23786.011193515205, -33973.15400518823, 17903.993177889966, 11296.504592478823, -0.036000000000000004, 0.972, 0.212, 192.0, 0.0, 0.0, 0.0, 0.0, 0.0, 0.0, 0.0, 0.0, 0.0, 1.700951012246518E9, 0.0, 2023-11-25 17:23:32.246
126.0, 44867.79658410509, 69307.41748898238, 8414.224793222522, -8722.72357019467, 23694.793724393097, -34241.5314008631, 17907.10007036925, 11255.89147280353, -0.036000000000000004, 0.972, 0.212, 192.0, 0.0, 0.0, 0.0, 0.0, 0.0, 0.0, 0.0, 0.0, 0.0, 1.700951012250581E9, 0.0, 2023-11-25 17:23:32.250
127.0, 44895.289229785114, 69334.0607683731, 8414.627124622719, -8709.826613643958, 23704.98611986472, -34087.75139901059, 17912.01745414942, 11282.490048705346, -0.042, 0.966, 0.212, 192.0, 254.0, 176.0, 30.0, 48.0, 6.0, 160.0, 0.0, 0.0, 0.0, 1.700951012255308E9, 0.0, 2023-11-25 17:23:32.255
128.0, 44928.436866812335, 69357.30658260663, 8427.47937768452, -8703.143442051822, 23725.907352674887, -34037.34821526387, 17917.78420421889, 11276.075098046673, -0.042, 0.966, 0.212, 192.0, 0.0, 0.0, 0.0, 0.0, 0.0, 0.0, 0.0, 0.0, 0.0, 1.70095101225866E9, 0.0, 2023-11-25 17:23:32.258
129.0, 44888.60605819298, 69308.7585936497, 8414.872993811727, -8738.056866891011, 23783.88777779195, -33962.045188193944, 17907.837677936277, 11283.741746394844, -0.042, 0.966, 0.212, 192.0, 0.0, 0.0, 0.0, 0.0, 0.0, 0.0, 0.0, 0.0, 0.0, 1.700951012262659E9, 0.0, 2023-11-25 17:23:32.262
130.0, 44864.30971197006, 69303.57298893607, 8419.388046191698, -8736.715762223694, 23699.97932910673, -34232.92597924781, 17909.424651792604, 11241.966336007874, -0.042, 0.966, 0.212, 192.0, 0.0, 0.0, 0.0, 0.0, 0.0, 0.0, 0.0, 0.0, 0.0, 1.700951012265684E9, 0.0, 2023-11-25 17:23:32.265
131.0, 44890.03656983812, 69336.09477711855, 8427.300563728877, -8712.732340423148, 23714.373852535948, -34121.770754071564, 17920.287599597883, 11277.706775391911, -0.042, 0.966, 0.212, 192.0, 0.0, 0.0, 0.0, 0.0, 0.0, 0.0, 0.0, 0.0, 0.0, 1.700951012270636E9, 0.0, 2023-11-25 17:23:32.270
132.0, 44925.97817492225, 69368.81773100111, 8438.655249912174, -8698.360168738385, 23727.36021606448, -34045.4842502456, 17920.26524785343, 11275.650414902022, -0.042, 0.966, 0.212, 192.0, 0.0, 0.0, 0.0, 0.0, 0.0, 0.0, 0.0, 0.0, 0.0, 1.700951012274778E9, 0.0, 2023-11-25 17:23:32.274
133.0, 44904.20757582278, 69338.4640620308, 8436.017744066447, -8717.426206758762, 23804.67490013539, -33946.08604265285, 17914.11851812822, 11302.80778441522, -0.042, 0.966, 0.212, 192.0, 0.0, 0.0, 0.0, 0.0, 0.0, 0.0, 0.0, 0.0, 0.0, 1.700951012278723E9, 0.0, 2023-11-25 17:23:32.278
134.0, 44870.92582832883, 69319.84505889953, 8430.675677141628, -8727.14921559682, 23730.355349821493, -34170.25168779513, 17902.316797055817, 11263.692231618434, -0.042, 0.966, 0.212, 192.0, 0.0, 0.0, 0.0, 0.0, 0.0, 0.0, 0.0, 0.0, 0.0, 1.700951012282616E9, 0.0, 2023-11-25 17:23:32.282
135.0, 44888.27078202615, 69341.59330625455, 8433.782569620917, -8705.982113597645, 23726.019111397163, -34139.92037056928, 17908.10589886974, 11288.189743541448, -0.042, 0.966, 0.212, 192.0, 0.0, 0.0, 0.0, 0.0, 0.0, 0.0, 0.0, 0.0, 0.0, 1.70095101228692E9, 0.0, 2023-11-25 17:23:32.286
136.0, 44934.248320370716, 69386.14033295398, 8448.266500027956, -8682.66924413076, 23737.284390602636, -34028.74279364858, 17913.380910561194, 11296.146964567539, -0.042, 0.966, 0.212, 192.0, 0.0, 0.0, 0.0, 0.0, 0.0, 0.0, 0.0, 0.0, 0.0, 1.700951012290662E9, 0.0, 2023-11-25 17:23:32.290
137.0, 44921.82075045357, 69361.55341405314, 8447.864168627759, -8694.985055325635, 23811.4698304498, -33929.92573141167, 17909.916390170623, 11317.381121800081, -0.046, 0.968, 0.21, 192.0, 254.0, 144.0, 30.0, 64.0, 6.0, 144.0, 0.0, 0.0, 0.0, 1.700951012293687E9, 0.0, 2023-11-25 17:23:32.293
138.0, 44866.67899688232, 69317.47577398727, 8426.317086972844, -8724.422302773273, 23744.16872789487, -34103.263509662575, 17884.189532302564, 11265.94975780842, -0.046, 0.968, 0.21, 192.0, 0.0, 0.0, 0.0, 0.0, 0.0, 0.0, 0.0, 0.0, 0.0, 1.700951012298653E9, 0.0, 2023-11-25 17:23:32.298
139.0, 44883.95689534627, 69343.58261151107, 8436.95651733357, -8700.662398417282, 23721.481707272735, -34176.174900075785, 17896.88532315318, 11276.23156025786, -0.046, 0.968, 0.21, 192.0, 0.0, 0.0, 0.0, 0.0, 0.0, 0.0, 0.0, 0.0, 0.0, 1.700951012302681E9, 0.0, 2023-11-25 17:23:32.302
140.0, 44922.96068942078, 69379.36775438402, 8439.214043523556, -8688.257180244587, 23723.761585207176, -34038.89048563129, 17896.21477081952, 11280.14311553754, -0.046, 0.968, 0.21, 192.0, 0.0, 0.0, 0.0, 0.0, 0.0, 0.0, 0.0, 0.0, 0.0, 1.700951012306726E9, 0.0, 2023-11-25 17:23:32.306
141.0, 44930.537930791135, 69370.38235311299, 8446.880691871726, -8693.085157046933, 23793.27551046318, -33960.48056608207, 17904.93195115709, 11300.438499502958, -0.046, 0.968, 0.21, 192.0, 0.0, 0.0, 0.0, 0.0, 0.0, 0.0, 0.0, 0.0, 0.0, 1.700951012310809E9, 0.0, 2023-11-25 17:23:32.310
142.0, 44886.75086340319, 69332.18322183886, 8433.112017287256, -8720.57780272696, 23771.594318341533, -34050.40163402577, 17894.20311381854, 11281.28305450476, -0.046, 0.968, 0.21, 192.0, 0.0, 0.0, 0.0, 0.0, 0.0, 0.0, 0.0, 0.0, 0.0, 1.700951012314676E9, 0.0, 2023-11-25 17:23:32.314
143.0, 44883.86748836845, 69341.28038183217, 8433.871976598737, -8710.184241555244, 23715.156163591884, -34210.03779292558, 17898.896980154157, 11272.744688122832, -0.046, 0.968, 0.21, 192.0, 0.0, 0.0, 0.0, 0.0, 0.0, 0.0, 0.0, 0.0, 0.0, 1.700951012318986E9, 0.0, 2023-11-25 17:23:32.318
144.0, 44917.46216028478, 69373.9809839703, 8435.57070917734, -8693.263971002576, 23723.918047418363, -34043.94197987819, 17901.288616810874, 11292.28011277677, -0.046, 0.968, 0.21, 192.0, 0.0, 0.0, 0.0, 0.0, 0.0, 0.0, 0.0, 0.0, 0.0, 1.700951012321749E9, 0.0, 2023-11-25 17:23:32.321
145.0, 44935.924701204865, 69380.01595497322, 8451.731020418527, -8683.742127864614, 23788.089905749548, -33979.032513979975, 17911.726881471503, 11302.785432670766, -0.046, 0.968, 0.21, 192.0, 0.0, 0.0, 0.0, 0.0, 0.0, 0.0, 0.0, 0.0, 0.0, 1.700951012326245E9, 0.0, 2023-11-25 17:23:32.326
146.0, 44875.105604541975, 69314.74886116372, 8426.831177095315, -8727.260974319099, 23787.285242949158, -33995.1257699878, 17890.336262027773, 11284.300540006227, -0.046, 0.968, 0.21, 192.0, 0.0, 0.0, 0.0, 0.0, 0.0, 0.0, 0.0, 0.0, 0.0, 1.700951012330714E9, 0.0, 2023-11-25 17:23:32.330
147.0, 44861.20281949077, 69315.17354430837, 8427.1888050066, -8719.504918993107, 23704.874361142443, -34232.85892401444, 17895.54421848586, 11258.394868182526, -0.034, 0.962, 0.21, 192.0, 254.0, 240.0, 30.0, 16.0, 6.0, 144.0, 0.0, 0.0, 0.0, 1.700951012334803E9, 0.0, 2023-11-25 17:23:32.334
148.0, 44889.52247971565, 69346.35422782353, 8424.126616016223, -8705.66918917527, 23712.78687867962, -34059.07411087443, 17907.59180874727, 11291.5648569542, -0.034, 0.962, 0.21, 192.0, 0.0, 0.0, 0.0, 0.0, 0.0, 0.0, 0.0, 0.0, 0.0, 1.70095101233873E9, 0.0, 2023-11-25 17:23:32.338
149.0, 44915.718724217266, 69367.1189984225, 8435.682467899618, -8695.610904170384, 23753.89173673293, -34001.45131366865, 17929.98825669149, 11312.061406619718, -0.034, 0.962, 0.21, 192.0, 0.0, 0.0, 0.0, 0.0, 0.0, 0.0, 0.0, 0.0, 0.0, 1.700951012342936E9, 0.0, 2023-11-25 17:23:32.342
150.0, 44869.9423515728, 69313.45245998532, 8416.795243834882, -8734.301773822519, 23787.41935341589, -33958.24539163654, 17924.847355466765, 11323.639610247566, -0.034, 0.962, 0.21, 192.0, 0.0, 0.0, 0.0, 0.0, 0.0, 0.0, 0.0, 0.0, 0.0, 1.700951012345963E9, 0.0, 2023-11-25 17:23:32.345
151.0, 44857.11245025545, 69316.40289025342, 8423.992505549491, -8728.266802819588, 23702.750945419186, -34231.96485423623, 17938.303105628864, 11289.843772631142, -0.034, 0.962, 0.21, 192.0, 0.0, 0.0, 0.0, 0.0, 0.0, 0.0, 0.0, 0.0, 0.0, 1.700951012349861E9, 0.0, 2023-11-25 17:23:32.349
152.0, 44880.760595889165, 69338.68757947536, 8418.650438624672, -8716.040398602534, 23709.590579222513, -34084.89037572031, 17937.56549806184, 11318.901040423041, -0.034, 0.962, 0.21, 192.0, 0.0, 0.0, 0.0, 0.0, 0.0, 0.0, 0.0, 0.0, 0.0, 1.700951012353871E9, 0.0, 2023-11-25 17:23:32.353
153.0, 44917.14923586241, 69368.19188215636, 8434.833101610315, -8697.823726871458, 23734.490422545725, -34024.94299709117, 17944.025152209422, 11323.550203269746, -0.034, 0.962, 0.21, 192.0, 0.0, 0.0, 0.0, 0.0, 0.0, 0.0, 0.0, 0.0, 0.0, 1.700951012357804E9, 0.0, 2023-11-25 17:23:32.357
154.0, 44887.08613957002, 69325.03066361317, 8426.451197439575, -8723.930564395258, 23800.04808903314, -33940.498106539024, 17934.235088137997, 11333.653191763544, -0.034, 0.962, 0.21, 192.0, 0.0, 0.0, 0.0, 0.0, 0.0, 0.0, 0.0, 0.0, 0.0, 1.700951012362809E9, 0.0, 2023-11-25 17:23:32.362
155.0, 44859.79465959009, 69314.54769546363, 8424.2383747385, -8730.211404587199, 23710.417593767357, -34207.1767696353, 17918.857087952743, 11277.03622305825, -0.034, 0.962, 0.21, 192.0, 0.0, 0.0, 0.0, 0.0, 0.0, 0.0, 0.0, 0.0, 0.0, 1.700951012366811E9, 0.0, 2023-11-25 17:23:32.366
156.0, 44884.76155814667, 69343.33674232206, 8427.412322451153, -8711.368884011375, 23714.329149047036, -34116.831018546945, 17916.331340829296, 11300.28203729177, -0.034, 0.962, 0.21, 192.0, 0.0, 0.0, 0.0, 0.0, 0.0, 0.0, 0.0, 0.0, 0.0, 1.700951012370908E9, 0.0, 2023-11-25 17:23:32.370
157.0, 44924.659421999386, 69385.15685619794, 8440.801017379883, -8691.319369234965, 23728.902486431896, -34034.755412907056, 17916.264285595928, 11299.05269134673, -0.036000000000000004, 0.9580000000000001, 0.22, 192.0, 254.0, 224.0, 29.0, 240.0, 6.0, 224.0, 0.0, 0.0, 0.0, 1.700951012373876E9, 0.0, 2023-11-25 17:23:32.373
158.0, 44899.51370948717, 69351.09279764806, 8433.201424265078, -8712.53117472305, 23800.33866171106, -33940.05107164992, 17909.089375625776, 11311.14498509705, -0.036000000000000004, 0.9580000000000001, 0.22, 192.0, 0.0, 0.0, 0.0, 0.0, 0.0, 0.0, 0.0, 0.0, 0.0, 1.700951012378011E9, 0.0, 2023-11-25 17:23:32.378
159.0, 44862.83449683601, 69323.93542813485, 8422.137310759701, -8728.512672008595, 23721.437003783823, -34162.87561212487, 17893.91254114062, 11264.631004885556, -0.036000000000000004, 0.9580000000000001, 0.22, 192.0, 0.0, 0.0, 0.0, 0.0, 0.0, 0.0, 0.0, 0.0, 0.0, 1.70095101238197E9, 0.0, 2023-11-25 17:23:32.381
160.0, 44882.34756974549, 69348.63410575797, 8424.931278816615, -8706.004465342101, 23711.49047750121, -34150.3586352299, 17900.036919121376, 11289.396737742036, -0.036000000000000004, 0.9580000000000001, 0.22, 192.0, 0.0, 0.0, 0.0, 0.0, 0.0, 0.0, 0.0, 0.0, 0.0, 1.700951012386899E9, 0.0, 2023-11-25 17:23:32.386
161.0, 44909.70610495879, 69378.69720205036, 8422.606697393263, -8693.19691576921, 23711.669291456856, -34039.158706564755, 17893.510209740427, 11286.938045851952, -0.036000000000000004, 0.9580000000000001, 0.22, 192.0, 0.0, 0.0, 0.0, 0.0, 0.0, 0.0, 0.0, 0.0, 0.0, 1.700951012390867E9, 0.0, 2023-11-25 17:23:32.390
162.0, 44897.45734899728, 69355.78666398367, 8422.830214837815, -8704.015160085579, 23791.33090869557, -33948.74590024303, 17899.902808654646, 11308.90981065152, -0.036000000000000004, 0.9580000000000001, 0.22, 192.0, 0.0, 0.0, 0.0, 0.0, 0.0, 0.0, 0.0, 0.0, 0.0, 1.700951012394892E9, 0.0, 2023-11-25 17:23:32.394
163.0, 44857.17950548881, 69319.77800366617, 8410.514403642941, -8726.97040164118, 23738.871364458962, -34104.42580037425, 17891.856180650735, 11275.47160094638, -0.036000000000000004, 0.9580000000000001, 0.22, 192.0, 0.0, 0.0, 0.0, 0.0, 0.0, 0.0, 0.0, 0.0, 0.0, 1.700951012399019E9, 0.0, 2023-11-25 17:23:32.399
164.0, 44874.7926801196, 69340.5204225207, 8418.985714791503, -8707.233811287142, 23708.40593676638, -34190.41296129381, 17906.630683735693, 11284.367595239592, -0.036000000000000004, 0.9580000000000001, 0.22, 192.0, 0.0, 0.0, 0.0, 0.0, 0.0, 0.0, 0.0, 0.0, 0.0, 1.700951012401987E9, 0.0, 2023-11-25 17:23:32.401
165.0, 44909.92962240334, 69371.0752571911, 8418.605735135763, -8696.504973948595, 23709.344710033503, -34042.869096144335, 17907.815326191823, 11294.76115641131, -0.036000000000000004, 0.9580000000000001, 0.22, 192.0, 0.0, 0.0, 0.0, 0.0, 0.0, 0.0, 0.0, 0.0, 0.0, 1.700951012406112E9, 0.0, 2023-11-25 17:23:32.406
166.0, 44910.51076775918, 69357.03836167317, 8422.494938670987, -8707.703197920704, 23771.728428808266, -33970.33768538686, 17915.616085006724, 11313.894249665052, -0.036000000000000004, 0.9580000000000001, 0.22, 192.0, 0.0, 0.0, 0.0, 0.0, 0.0, 0.0, 0.0, 0.0, 0.0, 1.700951012410061E9, 0.0, 2023-11-25 17:23:32.410
167.0, 44855.12314499893, 69303.34947149151, 8399.51734537093, -8749.1656838853, 23744.280486617146, -34052.703863704664, 17894.314872540817, 11282.333586494158, -0.036000000000000004, 0.964, 0.214, 192.0, 254.0, 224.0, 30.0, 32.0, 6.0, 176.0, 0.0, 0.0, 0.0, 1.700951012414079E9, 0.0, 2023-11-25 17:23:32.414
168.0, 44857.42537467783, 69319.66624494389, 8409.977961776014, -8731.843081932437, 23688.602291178977, -34232.05426121405, 17903.948474401055, 11268.676670631967, -0.036000000000000004, 0.964, 0.214, 192.0, 0.0, 0.0, 0.0, 0.0, 0.0, 0.0, 0.0, 0.0, 0.0, 1.700951012420081E9, 0.0, 2023-11-25 17:23:32.420
169.0, 44891.042398338606, 69356.07723666159, 8416.28115371241, -8713.022913101067, 23695.55368370458, -34055.81075618396, 17906.45186978005, 11291.184877298461, -0.036000000000000004, 0.964, 0.214, 192.0, 0.0, 0.0, 0.0, 0.0, 0.0, 0.0, 0.0, 0.0, 0.0, 1.700951012423017E9, 0.0, 2023-11-25 17:23:32.423
170.0, 44916.5010352732, 69373.623356059, 8439.079933056824, -8697.041415815524, 23754.584640811045, -33990.11897922981, 17928.580096790804, 11311.055578119229, -0.036000000000000004, 0.964, 0.214, 192.0, 0.0, 0.0, 0.0, 0.0, 0.0, 0.0, 0.0, 0.0, 0.0, 1.700951012427042E9, 0.0, 2023-11-25 17:23:32.427
171.0, 44869.160040516865, 69326.75174793623, 8426.518252672942, -8730.077294120467, 23771.661373574898, -33987.79439780646, 17925.540259544883, 11310.340322296659, -0.036000000000000004, 0.964, 0.214, 192.0, 0.0, 0.0, 0.0, 0.0, 0.0, 0.0, 0.0, 0.0, 0.0, 1.70095101243003E9, 0.0, 2023-11-25 17:23:32.430
172.0, 44861.09106076849, 69337.7711579527, 8437.068276055847, -8715.749825924615, 23698.77233490614, -34226.46632510023, 17940.180652163108, 11291.162525554006, -0.036000000000000004, 0.964, 0.214, 192.0, 0.0, 0.0, 0.0, 0.0, 0.0, 0.0, 0.0, 0.0, 0.0, 1.700951012434025E9, 0.0, 2023-11-25 17:23:32.434
173.0, 44893.00935185068, 69369.6223938015, 8441.33745924681, -8694.29215124752, 23711.669291456856, -34049.06052935845, 17949.70249530107, 11330.769816728809, -0.036000000000000004, 0.964, 0.214, 192.0, 0.0, 0.0, 0.0, 0.0, 0.0, 0.0, 0.0, 0.0, 0.0, 1.700951012438058E9, 0.0, 2023-11-25 17:23:32.438
174.0, 44923.43007605435, 69390.23070218929, 8455.016726853459, -8681.663415630272, 23745.46512907328, -33996.60098512185, 17957.391495393695, 11339.062313921728, -0.036000000000000004, 0.964, 0.214, 192.0, 0.0, 0.0, 0.0, 0.0, 0.0, 0.0, 0.0, 0.0, 0.0, 1.7009510124421E9, 0.0, 2023-11-25 17:23:32.442
175.0, 44873.9433138303, 69336.13948060745, 8431.48033994202, -8723.125901594865, 23784.46892314779, -33946.24250486404, 17934.995047449476, 11333.832005719187, -0.036000000000000004, 0.964, 0.214, 192.0, 0.0, 0.0, 0.0, 0.0, 0.0, 0.0, 0.0, 0.0, 0.0, 1.7009510124461E9, 0.0, 2023-11-25 17:23:32.446
176.0, 44851.52451414162, 69334.50780326221, 8430.943898075093, -8724.310544050997, 23694.100820314983, -34224.85699949944, 17925.048521166864, 11285.485182462357, -0.036000000000000004, 0.964, 0.214, 192.0, 0.0, 0.0, 0.0, 0.0, 0.0, 0.0, 0.0, 0.0, 0.0, 1.70095101245115E9, 0.0, 2023-11-25 17:23:32.451
177.0, 44880.40296797788, 69364.74971351025, 8435.168377777145, -8705.020988586068, 23705.07552684254, -34082.632849530324, 17928.87066946872, 11321.806767202232, -0.04, 0.964, 0.214, 192.0, 254.0, 192.0, 30.0, 32.0, 6.0, 176.0, 0.0, 0.0, 0.0, 1.700951012455145E9, 0.0, 2023-11-25 17:23:32.455
178.0, 44916.56809050657, 69393.13642896849, 8448.087686072313, -8690.559409923484, 23725.12504161895, -34020.67381390021, 17931.821099736822, 11321.6726567355, -0.04, 0.964, 0.214, 192.0, 0.0, 0.0, 0.0, 0.0, 0.0, 0.0, 0.0, 0.0, 0.0, 1.700951012458125E9, 0.0, 2023-11-25 17:23:32.458
179.0, 44884.82861338003, 69351.74099823726, 8438.029401067424, -8717.068578847478, 23793.789600585653, -33933.27849307996, 17919.482936797493, 11332.066217907217, -0.04, 0.964, 0.214, 192.0, 0.0, 0.0, 0.0, 0.0, 0.0, 0.0, 0.0, 0.0, 0.0, 1.700951012462118E9, 0.0, 2023-11-25 17:23:32.462
180.0, 44851.256293208164, 69333.50197476173, 8430.42980795262, -8727.551546997018, 23704.047346597596, -34195.71032472972, 17905.468393024017, 11275.069269546184, -0.04, 0.964, 0.214, 192.0, 0.0, 0.0, 0.0, 0.0, 0.0, 0.0, 0.0, 0.0, 0.0, 1.700951012466143E9, 0.0, 2023-11-25 17:23:32.466
181.0, 44878.01133132116, 69359.3182396076, 8436.554185933373, -8704.462194974685, 23707.422460010348, -34121.65899534929, 17913.291503583372, 11299.209153557917, -0.04, 0.964, 0.214, 192.0, 0.0, 0.0, 0.0, 0.0, 0.0, 0.0, 0.0, 0.0, 0.0, 1.700951012470173E9, 0.0, 2023-11-25 17:23:32.470
182.0, 44920.03261089714, 69395.0810307361, 8448.95940410607, -8686.357281965886, 23721.45935552828, -34032.74375590608, 17918.65592225265, 11300.080871591672, -0.04, 0.964, 0.214, 192.0, 0.0, 0.0, 0.0, 0.0, 0.0, 0.0, 0.0, 0.0, 0.0, 1.700951012474318E9, 0.0, 2023-11-25 17:23:32.474
183.0, 44899.17843332034, 69359.05001867414, 8441.292755757899, -8708.48550897664, 23796.583568642567, -33934.66430123619, 17915.727843729, 11319.884517179074, -0.04, 0.964, 0.214, 192.0, 0.0, 0.0, 0.0, 0.0, 0.0, 0.0, 0.0, 0.0, 0.0, 1.700951012479171E9, 0.0, 2023-11-25 17:23:32.479
184.0, 44853.424412420325, 69324.89655314643, 8427.926412573626, -8730.904308665313, 23717.12311710395, -34151.05153930802, 17899.522828998903, 11266.553254908713, -0.04, 0.964, 0.214, 192.0, 0.0, 0.0, 0.0, 0.0, 0.0, 0.0, 0.0, 0.0, 0.0, 1.700951012482181E9, 0.0, 2023-11-25 17:23:32.482
185.0, 44858.87823806742, 69337.59234399705, 8423.009028793458, -8720.935430638247, 23693.564378448056, -34165.982504604166, 17901.422727277604, 11273.795220112232, -0.04, 0.964, 0.214, 192.0, 0.0, 0.0, 0.0, 0.0, 0.0, 0.0, 0.0, 0.0, 0.0, 1.700951012486248E9, 0.0, 2023-11-25 17:23:32.486
186.0, 44892.159985561375, 69370.71762927981, 8426.562956161852, -8705.535078708539, 23689.652823168377, -34048.032349113506, 17905.133116857185, 11285.932217351463, -0.04, 0.964, 0.214, 192.0, 0.0, 0.0, 0.0, 0.0, 0.0, 0.0, 0.0, 0.0, 0.0, 1.700951012490189E9, 0.0, 2023-11-25 17:23:32.490
187.0, 44898.239660053216, 69362.4698355758, 8442.09741855829, -8701.087081561933, 23775.21530094329, -33952.47864156707, 17925.65201826716, 11326.299467837747, -0.042, 0.962, 0.214, 192.0, 254.0, 176.0, 30.0, 16.0, 6.0, 176.0, 0.0, 0.0, 0.0, 1.700951012494252E9, 0.0, 2023-11-25 17:23:32.494
188.0, 44850.138705985395, 69325.79062292464, 8425.087741027803, -8728.49032026414, 23725.348559063503, -34087.661992032765, 17912.48684078298, 11289.486144719856, -0.042, 0.962, 0.214, 192.0, 0.0, 0.0, 0.0, 0.0, 0.0, 0.0, 0.0, 0.0, 0.0, 1.700951012498267E9, 0.0, 2023-11-25 17:23:32.498
189.0, 44855.88310431041, 69344.43197780037, 8426.115921272745, -8714.542831724028, 23680.220387008238, -34193.11752237291, 17918.79003271938, 11290.335511009158, -0.042, 0.962, 0.214, 192.0, 0.0, 0.0, 0.0, 0.0, 0.0, 0.0, 0.0, 0.0, 0.0, 1.700951012502245E9, 0.0, 2023-11-25 17:23:32.502
190.0, 44895.89272688541, 69380.28417590668, 8430.04982829688, -8698.337816993931, 23684.266052754647, -34041.103308332364, 17921.248724609464, 11302.606618715123, -0.042, 0.962, 0.214, 192.0, 0.0, 0.0, 0.0, 0.0, 0.0, 0.0, 0.0, 0.0, 0.0, 1.700951012506238E9, 0.0, 2023-11-25 17:23:32.506
191.0, 44909.214366580774, 69380.50769335123, 8442.790322636405, -8697.063767559977, 23755.07637918906, -33969.44361560865, 17935.06210268284, 11321.493842779857, -0.042, 0.962, 0.214, 192.0, 0.0, 0.0, 0.0, 0.0, 0.0, 0.0, 0.0, 0.0, 0.0, 1.700951012510264E9, 0.0, 2023-11-25 17:23:32.510
192.0, 44860.46521192374, 69335.58068699607, 8427.412322451153, -8729.183224342254, 23746.001570940207, -34027.22287502562, 17926.143756645175, 11305.020607116296, -0.042, 0.962, 0.214, 192.0, 0.0, 0.0, 0.0, 0.0, 0.0, 0.0, 0.0, 0.0, 0.0, 1.700951012513278E9, 0.0, 2023-11-25 17:23:32.513
193.0, 44857.090098511, 69346.82361445708, 8432.53087193142, -8717.58266896995, 23679.974517819228, -34217.59268255147, 17935.196213149575, 11295.588170956156, -0.042, 0.962, 0.214, 192.0, 0.0, 0.0, 0.0, 0.0, 0.0, 0.0, 0.0, 0.0, 0.0, 1.700951012518303E9, 0.0, 2023-11-25 17:23:32.518
194.0, 44890.90828787188, 69378.04900146116, 8435.682467899618, -8698.918962349768, 23688.378773734425, -34041.460936243646, 17945.16509117664, 11330.345133584158, -0.042, 0.962, 0.214, 192.0, 0.0, 0.0, 0.0, 0.0, 0.0, 0.0, 0.0, 0.0, 0.0, 1.700951012522334E9, 0.0, 2023-11-25 17:23:32.522
195.0, 44914.44467478331, 69386.43090563189, 8447.238319783011, -8689.106546533889, 23739.94424819282, -33983.793435548956, 17960.811312295355, 11343.5773663017, -0.042, 0.962, 0.214, 192.0, 0.0, 0.0, 0.0, 0.0, 0.0, 0.0, 0.0, 0.0, 0.0, 1.70095101252632E9, 0.0, 2023-11-25 17:23:32.526
196.0, 44862.70038636928, 69324.27070430169, 8421.422054937131, -8731.418398787786, 23753.93644022184, -33973.712798799614, 17942.0358469529, 11331.820348718209, -0.042, 0.962, 0.214, 192.0, 0.0, 0.0, 0.0, 0.0, 0.0, 0.0, 0.0, 0.0, 0.0, 1.700951012530364E9, 0.0, 2023-11-25 17:23:32.530
197.0, 44853.7373368427, 69329.0092741262, 8422.673752626628, -8726.076331862967, 23671.190282248295, -34230.40023212436, 17946.12621618822, 11299.387967513558, -0.036000000000000004, 0.964, 0.20800000000000002, 192.0, 254.0, 224.0, 30.0, 32.0, 6.0, 128.0, 0.0, 0.0, 0.0, 1.700951012534359E9, 0.0, 2023-11-25 17:23:32.534
198.0, 44894.84219489601, 69374.8303502596, 8428.57461316283, -8700.394177483819, 23690.16691329085, -34060.39286379729, 17956.340963404295, 11335.418979575514, -0.036000000000000004, 0.964, 0.20800000000000002, 192.0, 0.0, 0.0, 0.0, 0.0, 0.0, 0.0, 0.0, 0.0, 0.0, 1.70095101253846E9, 0.0, 2023-11-25 17:23:32.538
199.0, 44928.995660423716, 69402.72532733981, 8442.276232513932, -8684.770308109559, 23726.13087011944, -33998.70204910065, 17962.487693129504, 11340.269308122315, -0.036000000000000004, 0.964, 0.20800000000000002, 192.0, 0.0, 0.0, 0.0, 0.0, 0.0, 0.0, 0.0, 0.0, 0.0, 1.700951012541375E9, 0.0, 2023-11-25 17:23:32.541
200.0, 44886.348532002994, 69350.37754182548, 8426.85352883977, -8718.946125381724, 23777.428123644368, -33930.99861514552, 17946.34973363277, 11344.538491313278, -0.036000000000000004, 0.964, 0.20800000000000002, 192.0, 0.0, 0.0, 0.0, 0.0, 0.0, 0.0, 0.0, 0.0, 0.0, 1.70095101254638E9, 0.0, 2023-11-25 17:23:32.546
201.0, 44859.74995610118, 69336.5194602632, 8420.930316559115, -8725.651648718316, 23681.44973295328, -34208.24965336915, 17928.535393301892, 11291.22958078737, -0.036000000000000004, 0.964, 0.20800000000000002, 192.0, 0.0, 0.0, 0.0, 0.0, 0.0, 0.0, 0.0, 0.0, 0.0, 1.700951012550399E9, 0.0, 2023-11-25 17:23:32.550
202.0, 44891.243564038705, 69366.2696321332, 8426.674714884128, -8702.227020529153, 23690.569244691043, -34086.41029434327, 17927.194288634575, 11314.877726421086, -0.036000000000000004, 0.964, 0.20800000000000002, 192.0, 0.0, 0.0, 0.0, 0.0, 0.0, 0.0, 0.0, 0.0, 0.0, 1.700951012554396E9, 0.0, 2023-11-25 17:23:32.554
203.0, 44929.621509268465, 69402.4794581508, 8443.215005781056, -8680.679938874238, 23708.472991999744, -34018.41628771023, 17932.02226543692, 11315.48122352138, -0.036000000000000004, 0.964, 0.20800000000000002, 192.0, 0.0, 0.0, 0.0, 0.0, 0.0, 0.0, 0.0, 0.0, 0.0, 1.700951012558499E9, 0.0, 2023-11-25 17:23:32.558
204.0, 44893.79166290661, 69359.22883262979, 8428.57461316283, -8712.128843322855, 23772.04135323064, -33924.71777495358, 17917.22541060751, 11327.707627738433, -0.036000000000000004, 0.964, 0.20800000000000002, 192.0, 0.0, 0.0, 0.0, 0.0, 0.0, 0.0, 0.0, 0.0, 0.0, 1.700951012562413E9, 0.0, 2023-11-25 17:23:32.562
205.0, 44860.17463924583, 69339.44753878684, 8420.975020048025, -8725.763407440592, 23683.081410298517, -34178.343019287946, 17909.02232039241, 11276.186856768949, -0.036000000000000004, 0.964, 0.20800000000000002, 192.0, 0.0, 0.0, 0.0, 0.0, 0.0, 0.0, 0.0, 0.0, 0.0, 1.700951012566443E9, 0.0, 2023-11-25 17:23:32.566
206.0, 44880.38061623342, 69359.80997798563, 8422.830214837815, -8707.591439198428, 23678.365192218447, -34122.26249244958, 17911.43630879358, 11297.666883190499, -0.032, 0.96, 0.214, 192.0, 255.0, 0.0, 30.0, 0.0, 6.0, 176.0, 0.0, 0.0, 0.0, 1.700951012569453E9, 0.0, 2023-11-25 17:23:32.569
207.0, 44920.9043289309, 69397.0256325037, 8437.448255711586, -8685.083232531933, 23688.401125478882, -34030.19565703817, 17921.092262398277, 11305.937028638964, -0.032, 0.96, 0.214, 192.0, 0.0, 0.0, 0.0, 0.0, 0.0, 0.0, 0.0, 0.0, 0.0, 1.700951012574621E9, 0.0, 2023-11-25 17:23:32.574
208.0, 44904.27463105615, 69368.7730275122, 8437.828235367328, -8702.808165884991, 23767.258079917203, -33932.33971981284, 17925.517907800426, 11329.473415550401, -0.032, 0.96, 0.214, 192.0, 0.0, 0.0, 0.0, 0.0, 0.0, 0.0, 0.0, 0.0, 0.0, 1.700951012578641E9, 0.0, 2023-11-25 17:23:32.578
209.0, 44862.432165435814, 69334.68661721786, 8426.42884569512, -8728.57972724196, 23693.765544148155, -34135.338262955935, 17908.9776169035, 11277.617368414089, -0.032, 0.96, 0.214, 192.0, 0.0, 0.0, 0.0, 0.0, 0.0, 0.0, 0.0, 0.0, 0.0, 1.700951012582489E9, 0.0, 2023-11-25 17:23:32.582
210.0, 44880.17945053333, 69360.52523380819, 8435.637764410707, -8707.792604898525, 23678.49930268518, -34162.22741153567, 17923.59565777727, 11293.531810466267, -0.032, 0.96, 0.214, 192.0, 0.0, 0.0, 0.0, 0.0, 0.0, 0.0, 0.0, 0.0, 0.0, 1.700951012586552E9, 0.0, 2023-11-25 17:23:32.586
211.0, 44918.35623006299, 69400.46780114983, 8444.131427303724, -8691.274665746054, 23683.260224254158, -34033.63782568429, 17934.056274182352, 11307.47929900638, -0.032, 0.96, 0.214, 192.0, 0.0, 0.0, 0.0, 0.0, 0.0, 0.0, 0.0, 0.0, 0.0, 1.700951012592542E9, 0.0, 2023-11-25 17:23:32.592
212.0, 44914.802302694596, 69389.53779811118, 8450.993412851503, -8700.058901316988, 23758.518547835178, -33948.209458376106, 17945.053332454365, 11332.982639429885, -0.032, 0.96, 0.214, 192.0, 0.0, 0.0, 0.0, 0.0, 0.0, 0.0, 0.0, 0.0, 0.0, 1.700951012595584E9, 0.0, 2023-11-25 17:23:32.595
213.0, 44866.83545909351, 69350.55635578113, 8437.381200478221, -8728.512672008595, 23720.11825086096, -34069.46767204615, 17932.089320670286, 11295.342301767148, -0.032, 0.96, 0.214, 192.0, 0.0, 0.0, 0.0, 0.0, 0.0, 0.0, 0.0, 0.0, 0.0, 1.700951012598699E9, 0.0, 2023-11-25 17:23:32.598
214.0, 44869.07063353904, 69364.99558269925, 8442.276232513932, -8712.799395656515, 23675.39241020589, -34197.990202664165, 17942.25936439745, 11286.356900496114, -0.032, 0.96, 0.214, 192.0, 0.0, 0.0, 0.0, 0.0, 0.0, 0.0, 0.0, 0.0, 0.0, 1.70095101260154E9, 0.0, 2023-11-25 17:23:32.601
215.0, 44902.598250222, 69398.52319938221, 8443.930261603626, -8694.806241369992, 23678.16402651835, -34039.40457575376, 17950.26128891245, 11303.701854193432, -0.032, 0.96, 0.214, 192.0, 0.0, 0.0, 0.0, 0.0, 0.0, 0.0, 0.0, 0.0, 0.0, 1.700951012609335E9, 0.0, 2023-11-25 17:23:32.609
216.0, 44912.902404415894, 69395.43865864738, 8451.596909951795, -8691.431127957241, 23740.45833831529, -33968.16956617469, 17967.539187376402, 11324.578383514689, -0.04, 0.97, 0.212, 192.0, 254.0, 192.0, 30.0, 80.0, 6.0, 160.0, 0.0, 0.0, 0.0, 1.700951012610717E9, 0.0, 2023-11-25 17:23:32.610
217.0, 44858.677072367325, 69338.17348935289, 8424.19367124959, -8730.993715643133, 23728.500155031703, -34015.734078375586, 17951.445931368584, 11302.628970459578, -0.04, 0.97, 0.212, 192.0, 0.0, 0.0, 0.0, 0.0, 0.0, 0.0, 0.0, 0.0, 0.0, 1.700951012614655E9, 0.0, 2023-11-25 17:23:32.614
218.0, 44857.090098511, 69348.54469878016, 8426.85352883977, -8718.521442237074, 23658.718008842232, -34225.080516944, 17965.102847230773, 11283.495877205834, -0.04, 0.97, 0.212, 192.0, 0.0, 0.0, 0.0, 0.0, 0.0, 0.0, 0.0, 0.0, 0.0, 1.700951012618625E9, 0.0, 2023-11-25 17:23:32.618
219.0, 44897.30088678609, 69389.11311496653, 8429.982773063513, -8698.337816993931, 23673.894843327387, -34045.75247117907, 17974.35646943527, 11312.6202002311, -0.04, 0.97, 0.212, 192.0, 0.0, 0.0, 0.0, 0.0, 0.0, 0.0, 0.0, 0.0, 0.0, 1.700951012621627E9, 0.0, 2023-11-25 17:23:32.621
220.0, 44924.97234642176, 69409.69907160987, 8444.220834281545, -8687.698386633205, 23728.209582353782, -33988.71081932912, 17987.678109130637, 11324.734845725876, -0.04, 0.97, 0.212, 192.0, 0.0, 0.0, 0.0, 0.0, 0.0, 0.0, 0.0, 0.0, 0.0, 1.700951012625999E9, 0.0, 2023-11-25 17:23:32.625
221.0, 44874.27858999713, 69351.22690811478, 8416.839947323793, -8729.429093531262, 23748.773187252664, -33966.98492371856, 17969.03675425491, 11316.487052021868, -0.04, 0.97, 0.212, 192.0, 0.0, 0.0, 0.0, 0.0, 0.0, 0.0, 0.0, 0.0, 0.0, 1.70095101262963E9, 0.0, 2023-11-25 17:23:32.629
222.0, 44865.15907825936, 69354.69142850536, 8416.527022901419, -8720.734264938148, 23664.4847589117, -34228.187409423284, 17973.50710314597, 11277.595016669633, -0.04, 0.97, 0.212, 192.0, 0.0, 0.0, 0.0, 0.0, 0.0, 0.0, 0.0, 0.0, 0.0, 1.700951012633724E9, 0.0, 2023-11-25 17:23:32.633
223.0, 44897.83732865302, 69389.31428066663, 8412.95074378857, -8700.483584461641, 23676.621756150933, -34069.2441546016, 17978.625652626237, 11304.260647804815, -0.04, 0.97, 0.212, 192.0, 0.0, 0.0, 0.0, 0.0, 0.0, 0.0, 0.0, 0.0, 0.0, 1.700951012638847E9, 0.0, 2023-11-25 17:23:32.638
224.0, 44943.680756530855, 69426.44052820689, 8431.457988197564, -8674.823781826948, 23714.77618393614, -34010.59317715087, 17995.411812712173, 11310.608543230122, -0.04, 0.97, 0.212, 192.0, 0.0, 0.0, 0.0, 0.0, 0.0, 0.0, 0.0, 0.0, 0.0, 1.700951012642639E9, 0.0, 2023-11-25 17:23:32.642
225.0, 44903.80524442259, 69374.51742583721, 8409.888554798194, -8709.848965388413, 23768.487425862244, -33934.55254251391, 17983.341870706307, 11318.006970644828, -0.04, 0.97, 0.212, 192.0, 0.0, 0.0, 0.0, 0.0, 0.0, 0.0, 0.0, 0.0, 0.0, 1.700951012646689E9, 0.0, 2023-11-25 17:23:32.646
226.0, 44884.40393023538, 69365.88965247746, 8406.558144874352, -8711.34653226692, 23679.706296885764, -34213.14468540486, 17977.79863808139, 11269.503685176813, -0.04, 0.968, 0.214, 192.0, 254.0, 192.0, 30.0, 64.0, 6.0, 176.0, 0.0, 0.0, 0.0, 1.700951012649721E9, 0.0, 2023-11-25 17:23:32.649
227.0, 44915.003468394694, 69390.74479231177, 8404.099452984268, -8692.079328546444, 23687.26118651166, -34096.04389620351, 17976.45753341407, 11296.102261078628, -0.04, 0.968, 0.214, 192.0, 0.0, 0.0, 0.0, 0.0, 0.0, 0.0, 0.0, 0.0, 0.0, 1.700951012653681E9, 0.0, 2023-11-25 17:23:32.653
228.0, 44956.108326448004, 69424.36181597254, 8411.09554899878, -8674.868485315857, 23702.326262274535, -34029.301587259964, 17977.195140981097, 11292.615388943601, -0.04, 0.968, 0.214, 192.0, 0.0, 0.0, 0.0, 0.0, 0.0, 0.0, 0.0, 0.0, 0.0, 1.700951012657675E9, 0.0, 2023-11-25 17:23:32.657
229.0, 44932.39312558092, 69385.60389108704, 8401.774871560916, -8697.220229771165, 23778.74687656723, -33938.15117337122, 17966.913338531656, 11310.787357185765, -0.04, 0.968, 0.214, 192.0, 0.0, 0.0, 0.0, 0.0, 0.0, 0.0, 0.0, 0.0, 0.0, 1.700951012663745E9, 0.0, 2023-11-25 17:23:32.663
230.0, 44902.62060196645, 69368.59421355656, 8396.164583702634, -8706.049168831012, 23702.326262274535, -34182.79101643455, 17954.239899425495, 11260.384173439048, -0.04, 0.968, 0.214, 192.0, 0.0, 0.0, 0.0, 0.0, 0.0, 0.0, 0.0, 0.0, 0.0, 1.700951012666729E9, 0.0, 2023-11-25 17:23:32.666
231.0, 44922.759523720684, 69390.96830975632, 8394.778775546405, -8691.38642446833, 23698.571169206047, -34140.92619906976, 17950.93184124611, 11270.420106699481, -0.04, 0.968, 0.214, 192.0, 0.0, 0.0, 0.0, 0.0, 0.0, 0.0, 0.0, 0.0, 0.0, 1.700951012671806E9, 0.0, 2023-11-25 17:23:32.671
232.0, 44966.50188761972, 69429.79328987519, 8404.322970428822, -8671.269854458555, 23707.891846643906, -34042.578523466414, 17952.876443013723, 11272.52117067828, -0.04, 0.968, 0.214, 192.0, 0.0, 0.0, 0.0, 0.0, 0.0, 0.0, 0.0, 0.0, 0.0, 1.700951012675003E9, 0.0, 2023-11-25 17:23:32.675
233.0, 44955.41542236989, 69401.92066453942, 8400.120842471224, -8690.000616312102, 23783.776019069675, -33948.18710663165, 17952.675277313625, 11294.381176755569, -0.04, 0.968, 0.214, 192.0, 0.0, 0.0, 0.0, 0.0, 0.0, 0.0, 0.0, 0.0, 0.0, 1.700951012678784E9, 0.0, 2023-11-25 17:23:32.678
234.0, 44915.60696549499, 69370.94114672436, 8386.933313242593, -8713.537003223539, 23720.207657838782, -34136.4558501787, 17939.55480331836, 11252.963394279885, -0.04, 0.968, 0.214, 192.0, 0.0, 0.0, 0.0, 0.0, 0.0, 0.0, 0.0, 0.0, 0.0, 1.700951012681769E9, 0.0, 2023-11-25 17:23:32.681
235.0, 44928.638032512434, 69389.09076322208, 8390.442537122075, -8694.76153788108, 23697.274768027637, -34184.2662315686, 17948.36139063375, 11265.480371174857, -0.04, 0.968, 0.214, 192.0, 0.0, 0.0, 0.0, 0.0, 0.0, 0.0, 0.0, 0.0, 0.0, 1.700951012685791E9, 0.0, 2023-11-25 17:23:32.685
236.0, 44968.7147103208, 69422.6854351384, 8397.37157790322, -8675.315520204964, 23703.667366941856, -34050.11106134785, 17949.143701689685, 11281.551275438223, -0.038, 0.964, 0.216, 192.0, 254.0, 208.0, 30.0, 32.0, 6.0, 192.0, 0.0, 0.0, 0.0, 1.700951012691807E9, 0.0, 2023-11-25 17:23:32.691
237.0, 44968.87117253199, 69406.16749598592, 8401.931333772103, -8682.222209241654, 23775.304707921114, -33967.09668244084, 17954.79869303688, 11305.668807705499, -0.038, 0.964, 0.216, 192.0, 0.0, 0.0, 0.0, 0.0, 0.0, 0.0, 0.0, 0.0, 0.0, 1.700951012695125E9, 0.0, 2023-11-25 17:23:32.695
238.0, 44924.07827664355, 69362.24631813125, 8388.430880121097, -8711.033607844545, 23739.541916792623, -34078.83305297292, 17944.181614420606, 11280.6125021711, -0.038, 0.964, 0.216, 192.0, 0.0, 0.0, 0.0, 0.0, 0.0, 0.0, 0.0, 0.0, 0.0, 1.700951012698806E9, 0.0, 2023-11-25 17:23:32.698
239.0, 44931.34259359152, 69378.16076018343, 8396.209287191545, -8695.074462303455, 23688.579939434523, -34221.95127272025, 17953.36818139174, 11276.544484680235, -0.038, 0.964, 0.216, 192.0, 0.0, 0.0, 0.0, 0.0, 0.0, 0.0, 0.0, 0.0, 0.0, 1.700951012701838E9, 0.0, 2023-11-25 17:23:32.701
240.0, 44974.8167365571, 69419.17621125892, 8402.311313427845, -8674.264988215566, 23699.666404684354, -34056.59306723989, 17953.61405058075, 11295.655226189521, -0.038, 0.964, 0.216, 192.0, 0.0, 0.0, 0.0, 0.0, 0.0, 0.0, 0.0, 0.0, 0.0, 1.700951012705894E9, 0.0, 2023-11-25 17:23:32.705
241.0, 44991.69230362085, 69420.00322580377, 8411.833156565805, -8674.063822515467, 23760.999591469717, -33989.090798984864, 17955.916280259644, 11307.434595517469, -0.038, 0.964, 0.216, 192.0, 0.0, 0.0, 0.0, 0.0, 0.0, 0.0, 0.0, 0.0, 0.0, 1.700951012709938E9, 0.0, 2023-11-25 17:23:32.709
242.0, 44946.87705598796, 69375.29973689315, 8397.438633136588, -8707.72554966516, 23763.055951959606, -34020.87497960031, 17938.884250984698, 11294.068252333194, -0.038, 0.964, 0.216, 192.0, 0.0, 0.0, 0.0, 0.0, 0.0, 0.0, 0.0, 0.0, 0.0, 1.700951012713948E9, 0.0, 2023-11-25 17:23:32.713
243.0, 44946.87705598796, 69388.88959752198, 8405.597019862775, -8691.945218079713, 23694.369041248447, -34235.29526416007, 17945.254498154463, 11275.248083501827, -0.038, 0.964, 0.216, 192.0, 0.0, 0.0, 0.0, 0.0, 0.0, 0.0, 0.0, 0.0, 0.0, 1.700951012717898E9, 0.0, 2023-11-25 17:23:32.717
244.0, 44982.975123283286, 69421.90312408247, 8408.614505364241, -8670.33108119143, 23707.735384432723, -34058.91764866324, 17948.808425522857, 11304.6182757161, -0.038, 0.964, 0.216, 192.0, 0.0, 0.0, 0.0, 0.0, 0.0, 0.0, 0.0, 0.0, 0.0, 1.700951012721953E9, 0.0, 2023-11-25 17:23:32.721
245.0, 45011.51830095271, 69443.27139178175, 8423.880746827215, -8654.349583905887, 23758.719713535276, -33997.04802001095, 17959.35844890576, 11318.364598556114, -0.038, 0.964, 0.216, 192.0, 0.0, 0.0, 0.0, 0.0, 0.0, 0.0, 0.0, 0.0, 0.0, 1.700951012726914E9, 0.0, 2023-11-25 17:23:32.726
246.0, 44958.54466659363, 69384.08397246408, 8396.61161859174, -8698.136651293833, 23784.558330125612, -33966.35907487381, 17933.743349759978, 11310.183860085472, -0.032, 0.964, 0.218, 192.0, 255.0, 0.0, 30.0, 32.0, 6.0, 208.0, 0.0, 0.0, 0.0, 1.700951012729933E9, 0.0, 2023-11-25 17:23:32.729
247.0, 44939.2551111287, 69379.70303055085, 8395.85165928026, -8696.19204952622, 23688.848160367987, -34236.21168568274, 17932.469300326025, 11271.224769499871, -0.032, 0.964, 0.218, 192.0, 0.0, 0.0, 0.0, 0.0, 0.0, 0.0, 0.0, 0.0, 0.0, 1.700951012733994E9, 0.0, 2023-11-25 17:23:32.733
248.0, 44961.003358483715, 69404.40170817396, 8391.068385966824, -8685.23969474312, 23694.816076137555, -34083.41516058626, 17929.854146224756, 11300.796127414242, -0.032, 0.964, 0.218, 192.0, 0.0, 0.0, 0.0, 0.0, 0.0, 0.0, 0.0, 0.0, 0.0, 1.700951012737963E9, 0.0, 2023-11-25 17:23:32.737
249.0, 44996.09559727855, 69433.6377899215, 8406.111109985246, -8671.560427136472, 23719.402995038392, -34030.84385762738, 17937.140814917188, 11302.472508248391, -0.032, 0.964, 0.218, 192.0, 0.0, 0.0, 0.0, 0.0, 0.0, 0.0, 0.0, 0.0, 0.0, 1.700951012741938E9, 0.0, 2023-11-25 17:23:32.741
250.0, 44958.611721827, 69385.55918759813, 8394.264685423934, -8702.986979840634, 23778.813931800596, -33954.691464268144, 17928.73655900199, 11313.983656642873, -0.032, 0.964, 0.218, 192.0, 0.0, 0.0, 0.0, 0.0, 0.0, 0.0, 0.0, 0.0, 0.0, 1.700951012746015E9, 0.0, 2023-11-25 17:23:32.746
251.0, 44934.69535525982, 69374.71859153731, 8395.784604046894, -8706.183279297744, 23688.959919090263, -34223.1806186653, 17921.606352520746, 11268.766077609787, -0.032, 0.964, 0.218, 192.0, 0.0, 0.0, 0.0, 0.0, 0.0, 0.0, 0.0, 0.0, 0.0, 1.700951012749983E9, 0.0, 2023-11-25 17:23:32.749
252.0, 44968.40178589842, 69406.07808900811, 8401.841926794283, -8685.44086044322, 23699.17466630634, -34116.98748075813, 17928.960076446543, 11297.488069234858, -0.032, 0.964, 0.218, 192.0, 0.0, 0.0, 0.0, 0.0, 0.0, 0.0, 0.0, 0.0, 0.0, 1.700951012755065E9, 0.0, 2023-11-25 17:23:32.755
253.0, 45004.54455668265, 69437.50464171226, 8410.76027283195, -8670.53224689153, 23708.852971655488, -34042.511468233046, 17932.938686959587, 11297.689234934955, -0.032, 0.964, 0.218, 192.0, 0.0, 0.0, 0.0, 0.0, 0.0, 0.0, 0.0, 0.0, 0.0, 1.700951012757989E9, 0.0, 2023-11-25 17:23:32.757
254.0, 44973.09565223404, 69397.31620518163, 8400.009083748948, -8698.047244316012, 23778.52335912268, -33949.63997002125, 17925.853183967254, 11311.212040330416, -0.032, 0.964, 0.218, 192.0, 0.0, 0.0, 0.0, 0.0, 0.0, 0.0, 0.0, 0.0, 0.0, 1.700951012761991E9, 0.0, 2023-11-25 17:23:32.761
255.0, 44937.5563785501, 69376.75260028275, 8393.437670879088, -8714.811052657491, 23696.73832616071, -34187.12725485888, 17917.918314685623, 11262.887568818041, -0.032, 0.964, 0.218, 192.0, 0.0, 0.0, 0.0, 0.0, 0.0, 0.0, 0.0, 0.0, 0.0, 1.700951012766054E9, 0.0, 2023-11-25 17:23:32.766
0.0, 44956.86828575948, 69399.81960056062, 8399.070310481824, -8695.275628003554, 23690.144561546393, -34159.36638824539, 17928.401282835162, 11283.473525461379, -0.036000000000000004, 0.966, 0.214, 192.0, 254.0, 224.0, 30.0, 48.0, 6.0, 176.0, 0.0, 0.0, 0.0, 1.700951012770068E9, 0.0, 2023-11-25 17:23:32.770
1.0, 44991.28997222066, 69431.02263582023, 8406.178165218613, -8680.43406968523, 23693.430267981323, -34054.335541049906, 17931.21760263653, 11284.635816173055, -0.036000000000000004, 0.966, 0.214, 192.0, 0.0, 0.0, 0.0, 0.0, 0.0, 0.0, 0.0, 0.0, 0.0, 1.700951012774062E9, 0.0, 2023-11-25 17:23:32.774
2.0, 44984.24917271724, 69408.17915298691, 8409.083891997801, -8692.951046580201, 23775.595280599035, -33961.2181736491, 17937.476091084016, 11311.502613008335, -0.036000000000000004, 0.966, 0.214, 192.0, 0.0, 0.0, 0.0, 0.0, 0.0, 0.0, 0.0, 0.0, 0.0, 1.700951012778421E9, 0.0, 2023-11-25 17:23:32.778
3.0, 44929.777971479656, 69363.40860884293, 8387.648569065163, -8726.322201051975, 23706.282521043126, -34136.03116703405, 17916.912486185134, 11261.837036828641, -0.036000000000000004, 0.966, 0.214, 192.0, 0.0, 0.0, 0.0, 0.0, 0.0, 0.0, 0.0, 0.0, 0.0, 1.700951012782085E9, 0.0, 2023-11-25 17:23:32.782
4.0, 44940.730326262754, 69383.03344047468, 8396.052824980357, -8706.496203720119, 23678.789875363098, -34203.89106320037, 17924.26621011093, 11269.28016773226, -0.036000000000000004, 0.966, 0.214, 192.0, 0.0, 0.0, 0.0, 0.0, 0.0, 0.0, 0.0, 0.0, 0.0, 1.700951012786035E9, 0.0, 2023-11-25 17:23:32.786
5.0, 44984.33857969506, 69425.27823749522, 8401.014912249437, -8688.503049433595, 23684.02018356564, -34060.72813996412, 17925.339093844785, 11281.75244113832, -0.036000000000000004, 0.966, 0.214, 192.0, 0.0, 0.0, 0.0, 0.0, 0.0, 0.0, 0.0, 0.0, 0.0, 1.700951012789056E9, 0.0, 2023-11-25 17:23:32.789
6.0, 44990.440605931355, 69421.14316477098, 8410.76027283195, -8689.665340145271, 23758.965582724286, -33979.188976191166, 17933.318666615327, 11305.221772816394, -0.036000000000000004, 0.966, 0.214, 192.0, 0.0, 0.0, 0.0, 0.0, 0.0, 0.0, 0.0, 0.0, 0.0, 1.700951012794093E9, 0.0, 2023-11-25 17:23:32.794
7.0, 44935.18709363784, 69367.7224955228, 8386.620388820218, -8728.669134219783, 23722.912218917874, -34077.29078260551, 17904.842544179268, 11268.6096153986, -0.036000000000000004, 0.966, 0.214, 192.0, 0.0, 0.0, 0.0, 0.0, 0.0, 0.0, 0.0, 0.0, 0.0, 1.700951012798091E9, 0.0, 2023-11-25 17:23:32.798
8.0, 44938.47280007277, 69380.06065846213, 8392.029510978402, -8714.788700913037, 23668.01633453564, -34235.54113334908, 17907.033015135887, 11255.422086169969, -0.036000000000000004, 0.966, 0.214, 192.0, 0.0, 0.0, 0.0, 0.0, 0.0, 0.0, 0.0, 0.0, 0.0, 1.700951012802283E9, 0.0, 2023-11-25 17:23:32.802
9.0, 44976.58252436907, 69417.92451356942, 8396.902191269659, -8696.1026425484, 23676.97938406222, -34067.00898015606, 17910.296369826363, 11281.819496371687, -0.036000000000000004, 0.966, 0.214, 192.0, 0.0, 0.0, 0.0, 0.0, 0.0, 0.0, 0.0, 0.0, 0.0, 1.700951012806205E9, 0.0, 2023-11-25 17:23:32.806
10.0, 45001.705885136835, 69436.07413006714, 8418.538679902396, -8681.1493255078, 23744.21343138378, -33999.19378747866, 17932.379893348207, 11309.647418218545, -0.044, 0.968, 0.216, 192.0, 254.0, 160.0, 30.0, 64.0, 6.0, 192.0, 0.0, 0.0, 0.0, 1.700951012810233E9, 0.0, 2023-11-25 17:23:32.810
11.0, 44953.18024792436, 69383.25695791923, 8398.824441292816, -8716.15215732481, 23750.94130646483, -34011.28608122898, 17920.131137386696, 11306.786394928266, -0.044, 0.968, 0.216, 192.0, 0.0, 0.0, 0.0, 0.0, 0.0, 0.0, 0.0, 0.0, 0.0, 1.700951012813134E9, 0.0, 2023-11-25 17:23:32.813
12.0, 44934.98592793774, 69378.18311192788, 8395.829307535805, -8712.06178808949, 23670.117398514438, -34242.20195319676, 17922.388663576683, 11279.718432392889, -0.044, 0.968, 0.216, 192.0, 0.0, 0.0, 0.0, 0.0, 0.0, 0.0, 0.0, 0.0, 0.0, 1.700951012817203E9, 0.0, 2023-11-25 17:23:32.817
13.0, 44959.550495094125, 69406.41336517494, 8393.370615645721, -8697.354340237896, 23679.616889907946, -34068.8418232014, 17922.008683920943, 11297.465717490402, -0.044, 0.968, 0.216, 192.0, 0.0, 0.0, 0.0, 0.0, 0.0, 0.0, 0.0, 0.0, 0.0, 1.700951012821376E9, 0.0, 2023-11-25 17:23:32.821
14.0, 44994.19569899985, 69432.72136839884, 8416.012932778947, -8676.678976616739, 23726.68966373082, -34012.53777891848, 17940.69474228558, 11308.730996695876, -0.044, 0.968, 0.216, 192.0, 0.0, 0.0, 0.0, 0.0, 0.0, 0.0, 0.0, 0.0, 0.0, 1.700951012826193E9, 0.0, 2023-11-25 17:23:32.826
15.0, 44944.64188154243, 69374.33861188157, 8396.94689475857, -8717.269744547575, 23764.352353138012, -33964.90621148422, 17924.489727555483, 11314.520098509802, -0.044, 0.968, 0.216, 192.0, 0.0, 0.0, 0.0, 0.0, 0.0, 0.0, 0.0, 0.0, 0.0, 1.700951012830154E9, 0.0, 2023-11-25 17:23:32.830
16.0, 44919.74203821922, 69362.17926289789, 8395.382272646699, -8721.874203905369, 23664.328296700514, -34236.993996738674, 17919.348826330763, 11267.402621198014, -0.044, 0.968, 0.216, 192.0, 0.0, 0.0, 0.0, 0.0, 0.0, 0.0, 0.0, 0.0, 0.0, 1.700951012834233E9, 0.0, 2023-11-25 17:23:32.834
17.0, 44942.51846581918, 69387.90612076594, 8395.09169996878, -8706.138575808833, 23669.02216303613, -34088.04197168851, 17921.472242054017, 11297.599827957134, -0.044, 0.968, 0.216, 192.0, 0.0, 0.0, 0.0, 0.0, 0.0, 0.0, 0.0, 0.0, 0.0, 1.700951012838458E9, 0.0, 2023-11-25 17:23:32.838
18.0, 44980.29291394865, 69422.35015897157, 8413.353075188765, -8685.932598821235, 23695.598387193488, -34030.24036052708, 17931.195250892073, 11308.57453448469, -0.044, 0.968, 0.216, 192.0, 0.0, 0.0, 0.0, 0.0, 0.0, 0.0, 0.0, 0.0, 0.0, 1.700951012841388E9, 0.0, 2023-11-25 17:23:32.841
19.0, 44944.46306758679, 69376.55143458265, 8401.193726205078, -8718.588497470439, 23755.009323955695, -33945.4601938081, 17917.8289077078, 11324.198403858949, -0.044, 0.968, 0.216, 192.0, 0.0, 0.0, 0.0, 0.0, 0.0, 0.0, 0.0, 0.0, 0.0, 1.700951012845227E9, 0.0, 2023-11-25 17:23:32.845
20.0, 44910.75663694819, 69360.83815823057, 8396.745729058472, -8728.177395841765, 23662.137825743896, -34209.88133071439, 17911.726881471503, 11275.09162129064, -0.044, 0.97, 0.212, 192.0, 254.0, 160.0, 30.0, 80.0, 6.0, 160.0, 0.0, 0.0, 0.0, 1.700951012849291E9, 0.0, 2023-11-25 17:23:32.849
21.0, 44934.36007909299, 69385.69329806487, 8400.769043060427, -8707.300866520509, 23668.686886869298, -34114.81936154597, 17921.584000776293, 11307.792223428754, -0.044, 0.97, 0.212, 192.0, 0.0, 0.0, 0.0, 0.0, 0.0, 0.0, 0.0, 0.0, 0.0, 1.700951012854235E9, 0.0, 2023-11-25 17:23:32.854
22.0, 44982.28221920517, 69427.133432285, 8419.656267125161, -8679.897627818302, 23685.137770788406, -34032.27436927252, 17931.664637525635, 11312.061406619718, -0.044, 0.97, 0.212, 192.0, 0.0, 0.0, 0.0, 0.0, 0.0, 0.0, 0.0, 0.0, 0.0, 1.700951012858331E9, 0.0, 2023-11-25 17:23:32.858
23.0, 44965.831335286064, 69394.74575456927, 8419.276287469422, -8698.047244316012, 23764.46411186029, -33934.843115191834, 17929.518870057927, 11331.462720806923, -0.044, 0.97, 0.212, 192.0, 0.0, 0.0, 0.0, 0.0, 0.0, 0.0, 0.0, 0.0, 0.0, 1.7009510128624E9, 0.0, 2023-11-25 17:23:32.862
24.0, 44920.390238808424, 69361.48635881978, 8405.731130329506, -8721.695389949726, 23681.807360864565, -34161.19923129073, 17911.413957049128, 11281.394813227036, -0.044, 0.97, 0.212, 192.0, 0.0, 0.0, 0.0, 0.0, 0.0, 0.0, 0.0, 0.0, 0.0, 1.700951012866291E9, 0.0, 2023-11-25 17:23:32.866
25.0, 44934.449486070815, 69383.61458583052, 8410.872031554227, -8703.948104852212, 23669.849177580974, -34151.14094628584, 17918.141832130175, 11294.582342455667, -0.044, 0.97, 0.212, 192.0, 0.0, 0.0, 0.0, 0.0, 0.0, 0.0, 0.0, 0.0, 0.0, 1.700951012869294E9, 0.0, 2023-11-25 17:23:32.869
26.0, 44977.34248368055, 69424.60768516155, 8421.936145059604, -8681.775174352548, 23679.348668974482, -34041.952674621665, 17919.818212964325, 11294.04590058874, -0.044, 0.97, 0.212, 192.0, 0.0, 0.0, 0.0, 0.0, 0.0, 0.0, 0.0, 0.0, 0.0, 1.700951012873313E9, 0.0, 2023-11-25 17:23:32.873
27.0, 44970.07816673257, 69405.31812969662, 8420.393874692187, -8695.38738672583, 23761.245460658727, -33946.95776068661, 17922.72393974351, 11317.604639244633, -0.044, 0.97, 0.212, 192.0, 0.0, 0.0, 0.0, 0.0, 0.0, 0.0, 0.0, 0.0, 0.0, 1.700951012877343E9, 0.0, 2023-11-25 17:23:32.877
28.0, 44921.12784637545, 69364.03445768768, 8398.46681338153, -8728.780892942059, 23702.370965763446, -34111.53365511104, 17903.21086683403, 11271.113010777595, -0.044, 0.97, 0.212, 192.0, 0.0, 0.0, 0.0, 0.0, 0.0, 0.0, 0.0, 0.0, 0.0, 1.700951012882308E9, 0.0, 2023-11-25 17:23:32.882
29.0, 44932.907215703395, 69382.45229511886, 8406.178165218613, -8705.892706619825, 23669.35743920296, -34192.6704874838, 17926.680198512102, 11286.535714451757, -0.044, 0.97, 0.212, 192.0, 0.0, 0.0, 0.0, 0.0, 0.0, 0.0, 0.0, 0.0, 0.0, 1.700951012886312E9, 0.0, 2023-11-25 17:23:32.886
30.0, 44982.21516397181, 69434.15188004398, 8423.679581127117, -8672.119220747856, 23687.998794078685, -34034.0848605734, 17948.964887734044, 11318.990447400862, -0.042, 0.968, 0.218, 192.0, 254.0, 176.0, 30.0, 64.0, 6.0, 208.0, 0.0, 0.0, 0.0, 1.700951012890325E9, 0.0, 2023-11-25 17:23:32.890
31.0, 44991.08880652056, 69431.71553989835, 8432.709685887061, -8672.789773081515, 23760.08316994705, -33949.57291478788, 17958.6878965721, 11343.420904090513, -0.042, 0.968, 0.218, 192.0, 0.0, 0.0, 0.0, 0.0, 0.0, 0.0, 0.0, 0.0, 0.0, 1.700951012893936E9, 0.0, 2023-11-25 17:23:32.893
32.0, 44932.72840174776, 69374.18214967039, 8402.199554705567, -8719.281401548553, 23726.443794541814, -34032.81081113945, 17933.542184059883, 11308.440424017957, -0.042, 0.968, 0.218, 192.0, 0.0, 0.0, 0.0, 0.0, 0.0, 0.0, 0.0, 0.0, 0.0, 1.700951012898038E9, 0.0, 2023-11-25 17:23:32.898
33.0, 44927.07341040056, 69379.16658868392, 8402.490127383486, -8712.307657278498, 23662.070770510527, -34213.636423782875, 17939.465396340536, 11291.766022654298, -0.042, 0.968, 0.218, 192.0, 0.0, 0.0, 0.0, 0.0, 0.0, 0.0, 0.0, 0.0, 0.0, 1.700951012901373E9, 0.0, 2023-11-25 17:23:32.901
34.0, 44961.159820694906, 69411.66602512193, 8404.188859962089, -8693.286322747032, 23666.474064168226, -34044.54547697848, 17946.819120266333, 11316.151775855038, -0.042, 0.968, 0.218, 192.0, 0.0, 0.0, 0.0, 0.0, 0.0, 0.0, 0.0, 0.0, 0.0, 1.700951012905468E9, 0.0, 2023-11-25 17:23:32.905
35.0, 44982.617495372, 69420.07028103713, 8416.504671156963, -8684.546790665006, 23722.26401832867, -33982.385275648274, 17959.470207628037, 11330.568651028712, -0.042, 0.968, 0.218, 192.0, 0.0, 0.0, 0.0, 0.0, 0.0, 0.0, 0.0, 0.0, 0.0, 1.70095101290943E9, 0.0, 2023-11-25 17:23:32.909
36.0, 44934.248320370716, 69362.29102162016, 8395.404624391154, -8726.590421985438, 23734.780995223642, -33990.38720016327, 17937.520794572927, 11314.676560720989, -0.042, 0.968, 0.218, 192.0, 0.0, 0.0, 0.0, 0.0, 0.0, 0.0, 0.0, 0.0, 0.0, 1.700951012915466E9, 0.0, 2023-11-25 17:23:32.915
37.0, 44929.353288335005, 69368.61656530101, 8401.305484927356, -8715.749825924615, 23653.934735528797, -34232.791868781074, 17937.610201550746, 11281.75244113832, -0.042, 0.968, 0.218, 192.0, 0.0, 0.0, 0.0, 0.0, 0.0, 0.0, 0.0, 0.0, 0.0, 1.700951012918459E9, 0.0, 2023-11-25 17:23:32.918
38.0, 44959.259922416204, 69399.84195230508, 8397.818612792327, -8701.891744362325, 23662.517805399635, -34064.103253376874, 17932.201079392562, 11306.205249572427, -0.042, 0.968, 0.218, 192.0, 0.0, 0.0, 0.0, 0.0, 0.0, 0.0, 0.0, 0.0, 0.0, 1.70095101292247E9, 0.0, 2023-11-25 17:23:32.922
39.0, 44992.29580072115, 69430.17326953093, 8416.415264179142, -8684.971473809657, 23705.656672198376, -34009.274424228, 17941.141777174686, 11315.10124386564, -0.042, 0.968, 0.218, 192.0, 0.0, 0.0, 0.0, 0.0, 0.0, 0.0, 0.0, 0.0, 0.0, 1.700951012925453E9, 0.0, 2023-11-25 17:23:32.925
40.0, 44952.353233379516, 69380.82061777361, 8401.32783667181, -8718.968477126178, 23750.36016110899, -33953.864449723296, 17927.417806079127, 11318.498709022846, -0.04, 0.966, 0.218, 192.0, 254.0, 192.0, 30.0, 48.0, 6.0, 208.0, 0.0, 0.0, 0.0, 1.700951012929505E9, 0.0, 2023-11-25 17:23:32.929
41.0, 44933.13073314795, 69378.96542298382, 8403.674769839618, -8717.426206758762, 23658.829767564508, -34228.477982101205, 17928.06600666833, 11273.728164878865, -0.04, 0.966, 0.218, 192.0, 0.0, 0.0, 0.0, 0.0, 0.0, 0.0, 0.0, 0.0, 0.0, 1.700951012933538E9, 0.0, 2023-11-25 17:23:32.933
42.0, 44958.52231484918, 69408.89440880947, 8405.820537307327, -8696.706139648693, 23668.083389769006, -34086.45499783218, 17930.99408519198, 11305.266476305304, -0.04, 0.966, 0.218, 192.0, 0.0, 0.0, 0.0, 0.0, 0.0, 0.0, 0.0, 0.0, 0.0, 1.700951012937672E9, 0.0, 2023-11-25 17:23:32.937
43.0, 44994.843899589054, 69438.82339463514, 8421.958496804058, -8676.231941727632, 23694.480799970723, -34022.41724996773, 17939.487748084994, 11312.754310697832, -0.04, 0.966, 0.218, 192.0, 0.0, 0.0, 0.0, 0.0, 0.0, 0.0, 0.0, 0.0, 0.0, 1.700951012942587E9, 0.0, 2023-11-25 17:23:32.942
44.0, 44962.411518384404, 69392.66704233493, 8411.14025248769, -8704.037511830034, 23765.00055372722, -33932.831458190856, 17935.777358505413, 11333.452026063445, -0.04, 0.966, 0.218, 192.0, 0.0, 0.0, 0.0, 0.0, 0.0, 0.0, 0.0, 0.0, 0.0, 1.700951012946701E9, 0.0, 2023-11-25 17:23:32.946
45.0, 44923.38537256543, 69367.4766263338, 8398.735034314996, -8722.790625428037, 23665.982325790206, -34197.40905730832, 17923.282733354896, 11275.963339324397, -0.04, 0.966, 0.218, 192.0, 0.0, 0.0, 0.0, 0.0, 0.0, 0.0, 0.0, 0.0, 0.0, 1.700951012949582E9, 0.0, 2023-11-25 17:23:32.949
46.0, 44947.18998041034, 69394.96927201383, 8401.819575049827, -8704.506898463595, 23665.557642645555, -34122.26249244958, 17931.59758229227, 11300.058519847218, -0.04, 0.966, 0.218, 192.0, 0.0, 0.0, 0.0, 0.0, 0.0, 0.0, 0.0, 0.0, 0.0, 1.700951012953632E9, 0.0, 2023-11-25 17:23:32.953
47.0, 44993.01105654372, 69441.34914175859, 8418.918659558138, -8680.0987935184, 23677.493474184692, -34036.92353211922, 17944.226317909517, 11307.076967606185, -0.04, 0.966, 0.218, 192.0, 0.0, 0.0, 0.0, 0.0, 0.0, 0.0, 0.0, 0.0, 0.0, 1.700951012957658E9, 0.0, 2023-11-25 17:23:32.957
48.0, 44967.597123098036, 69398.45614414885, 8406.535793129897, -8710.877145633358, 23746.64977152941, -33939.71579548309, 17934.816233493835, 11323.304334080736, -0.04, 0.966, 0.218, 192.0, 0.0, 0.0, 0.0, 0.0, 0.0, 0.0, 0.0, 0.0, 0.0, 1.700951012961625E9, 0.0, 2023-11-25 17:23:32.961
49.0, 44933.197788381316, 69370.76233276872, 8397.952723259059, -8731.172529598776, 23669.60330839197, -34165.22254529269, 17920.377006575705, 11265.525074663768, -0.04, 0.966, 0.218, 192.0, 0.0, 0.0, 0.0, 0.0, 0.0, 0.0, 0.0, 0.0, 0.0, 1.70095101296569E9, 0.0, 2023-11-25 17:23:32.965
50.0, 44952.17441942387, 69394.18696095789, 8402.735996572495, -8711.860622389391, 23655.8346338075, -34169.84935639493, 17929.16124214664, 11284.926388850974, -0.034, 0.968, 0.218, 192.0, 254.0, 240.0, 30.0, 64.0, 6.0, 208.0, 0.0, 0.0, 0.0, 1.700951012969669E9, 0.0, 2023-11-25 17:23:32.969
51.0, 44991.24526873175, 69431.87200210954, 8411.743749587984, -8692.1016802909, 23662.92013679983, -34048.70290144717, 17931.910506714645, 11292.928313365974, -0.034, 0.968, 0.218, 192.0, 0.0, 0.0, 0.0, 0.0, 0.0, 0.0, 0.0, 0.0, 0.0, 1.700951012974612E9, 0.0, 2023-11-25 17:23:32.974
52.0, 44992.58637339907, 69421.32197872663, 8423.500767171476, -8696.549677437506, 23750.293105875626, -33954.62440903478, 17941.320591130327, 11324.488976536868, -0.034, 0.968, 0.218, 192.0, 0.0, 0.0, 0.0, 0.0, 0.0, 0.0, 0.0, 0.0, 0.0, 1.700951012977683E9, 0.0, 2023-11-25 17:23:32.977
53.0, 44942.205541396805, 69377.15493168295, 8408.592153619786, -8727.082160363456, 23699.912273873364, -34096.46857934816, 17926.546088045372, 11288.055633074717, -0.034, 0.968, 0.218, 192.0, 0.0, 0.0, 0.0, 0.0, 0.0, 0.0, 0.0, 0.0, 0.0, 1.700951012980674E9, 0.0, 2023-11-25 17:23:32.980
54.0, 44949.402803111414, 69393.8293330466, 8416.66113336815, -8709.446633988218, 23661.869604810432, -34197.40905730832, 17938.526623073416, 11294.872915133587, -0.034, 0.968, 0.218, 192.0, 0.0, 0.0, 0.0, 0.0, 0.0, 0.0, 0.0, 0.0, 0.0, 1.700951012985672E9, 0.0, 2023-11-25 17:23:32.985
55.0, 44988.116024508, 69433.14605154349, 8422.919621815638, -8687.608979655382, 23669.692715369787, -34038.510505975544, 17945.388608621193, 11319.303371823236, -0.034, 0.968, 0.218, 192.0, 0.0, 0.0, 0.0, 0.0, 0.0, 0.0, 0.0, 0.0, 0.0, 1.700951012989707E9, 0.0, 2023-11-25 17:23:32.989
56.0, 45000.722408380796, 69438.01873183475, 8438.498787700986, -8681.596360396905, 23744.41459708388, -33958.9159439702, 17961.906547773666, 11342.929165712496, -0.034, 0.968, 0.218, 192.0, 0.0, 0.0, 0.0, 0.0, 0.0, 0.0, 0.0, 0.0, 0.0, 1.700951012993782E9, 0.0, 2023-11-25 17:23:32.993
57.0, 44947.592311810535, 69386.02857423169, 8416.750540345973, -8719.907250393302, 23726.443794541814, -34024.69712790217, 17936.51496607244, 11311.815537430708, -0.034, 0.968, 0.218, 192.0, 0.0, 0.0, 0.0, 0.0, 0.0, 0.0, 0.0, 0.0, 0.0, 1.70095101299776E9, 0.0, 2023-11-25 17:23:32.997
58.0, 44948.486381588744, 69401.00424301675, 8427.05469453987, -8699.880087361347, 23665.803511834565, -34215.178694150294, 17944.248669653975, 11296.683406434466, -0.034, 0.968, 0.218, 192.0, 0.0, 0.0, 0.0, 0.0, 0.0, 0.0, 0.0, 0.0, 0.0, 1.700951013002762E9, 0.0, 2023-11-25 17:23:33.002
59.0, 44975.353178424026, 69430.53089744221, 8424.66305788315, -8686.938427321724, 23669.40214269187, -34037.81760189743, 17944.762759776444, 11322.745540469354, -0.034, 0.968, 0.218, 192.0, 0.0, 0.0, 0.0, 0.0, 0.0, 0.0, 0.0, 0.0, 0.0, 1.700951013005794E9, 0.0, 2023-11-25 17:23:33.005
60.0, 44994.642733888955, 69441.01386559175, 8434.341363232299, -8682.110450519378, 23718.50892526018, -33981.267688425505, 17952.004724979965, 11334.256688863838, -0.042, 0.9580000000000001, 0.216, 192.0, 254.0, 176.0, 29.0, 240.0, 6.0, 192.0, 0.0, 0.0, 0.0, 1.700951013008809E9, 0.0, 2023-11-25 17:23:33.008
61.0, 44947.14527692143, 69390.63303358949, 8415.23062172301, -8718.499090492618, 23739.810137726086, -33972.86343251031, 17938.660733540146, 11328.378180072092, -0.042, 0.9580000000000001, 0.216, 192.0, 0.0, 0.0, 0.0, 0.0, 0.0, 0.0, 0.0, 0.0, 0.0, 1.700951013013782E9, 0.0, 2023-11-25 17:23:33.013
62.0, 44929.822674968564, 69389.24722543327, 8415.834118823304, -8715.079273590956, 23652.437168650293, -34224.566426821526, 17938.12429167322, 11292.973016854885, -0.042, 0.9580000000000001, 0.216, 192.0, 0.0, 0.0, 0.0, 0.0, 0.0, 0.0, 0.0, 0.0, 0.0, 1.700951013017766E9, 0.0, 2023-11-25 17:23:33.017
63.0, 44955.907160747905, 69411.57661814411, 8413.554240888863, -8700.774157139558, 23659.075636753518, -34058.7388347076, 17941.588812063794, 11324.556031770235, -0.042, 0.9580000000000001, 0.216, 192.0, 0.0, 0.0, 0.0, 0.0, 0.0, 0.0, 0.0, 0.0, 0.0, 1.700951013022036E9, 0.0, 2023-11-25 17:23:33.022
64.0, 44987.154899496425, 69429.65917940845, 8427.702895129072, -8685.91024707678, 23692.893826114396, -34006.435752682184, 17955.491597114993, 11331.999162673852, -0.042, 0.9580000000000001, 0.216, 192.0, 0.0, 0.0, 0.0, 0.0, 0.0, 0.0, 0.0, 0.0, 0.0, 1.700951013025964E9, 0.0, 2023-11-25 17:23:33.025
65.0, 44944.97715770926, 69376.81965551611, 8412.257839710455, -8719.817843415482, 23742.425291827356, -33944.8119932189, 17944.203966165063, 11337.207119131937, -0.042, 0.9580000000000001, 0.216, 192.0, 0.0, 0.0, 0.0, 0.0, 0.0, 0.0, 0.0, 0.0, 0.0, 1.700951013029848E9, 0.0, 2023-11-25 17:23:33.029
66.0, 44918.35623006299, 69368.14717866745, 8410.80497632086, -8724.601116728916, 23643.094139467972, -34216.45274358425, 17940.046541696374, 11288.837944130653, -0.042, 0.9580000000000001, 0.216, 192.0, 0.0, 0.0, 0.0, 0.0, 0.0, 0.0, 0.0, 0.0, 0.0, 1.700951013033851E9, 0.0, 2023-11-25 17:23:33.033
67.0, 44944.21719839778, 69397.20444645935, 8414.157737989157, -8705.065692074979, 23649.24086919318, -34082.83401523042, 17949.367219134238, 11321.6726567355, -0.042, 0.9580000000000001, 0.216, 192.0, 0.0, 0.0, 0.0, 0.0, 0.0, 0.0, 0.0, 0.0, 0.0, 1.700951013037322E9, 0.0, 2023-11-25 17:23:33.037
68.0, 44986.2161262293, 69435.67179866694, 8431.793264364394, -8684.703252876194, 23670.117398514438, -34013.25303474105, 17961.21364369555, 11331.418017318014, -0.042, 0.9580000000000001, 0.216, 192.0, 0.0, 0.0, 0.0, 0.0, 0.0, 0.0, 0.0, 0.0, 0.0, 1.70095101304091E9, 0.0, 2023-11-25 17:23:33.040
69.0, 44959.10346020502, 69395.19278945838, 8423.366656704744, -8715.39219801333, 23739.988951681727, -33924.82953367585, 17950.976544735022, 11344.270270379815, -0.042, 0.9580000000000001, 0.216, 192.0, 0.0, 0.0, 0.0, 0.0, 0.0, 0.0, 0.0, 0.0, 0.0, 1.700951013045921E9, 0.0, 2023-11-25 17:23:33.045
70.0, 44921.731343475745, 69375.38914387097, 8410.939086787592, -8735.642878489838, 23647.184508703293, -34187.68604847027, 17932.7822247484, 11283.495877205834, -0.038, 0.964, 0.22, 192.0, 254.0, 208.0, 30.0, 32.0, 6.0, 224.0, 0.0, 0.0, 0.0, 1.700951013049908E9, 0.0, 2023-11-25 17:23:33.049
71.0, 44945.87122748748, 69404.20054247386, 8416.057636267858, -8715.369846268875, 23646.33514241399, -34123.51419013908, 17943.153434175663, 11316.330589810681, -0.038, 0.964, 0.22, 192.0, 0.0, 0.0, 0.0, 0.0, 0.0, 0.0, 0.0, 0.0, 0.0, 1.700951013053939E9, 0.0, 2023-11-25 17:23:33.053
72.0, 44987.33371345207, 69441.75147315877, 8426.09356952829, -8698.002540827101, 23653.57710761751, -34032.34142450588, 17943.622820809225, 11319.169261356505, -0.038, 0.964, 0.22, 192.0, 0.0, 0.0, 0.0, 0.0, 0.0, 0.0, 0.0, 0.0, 0.0, 1.700951013057962E9, 0.0, 2023-11-25 17:23:33.057
73.0, 44973.60974235651, 69413.16359200043, 8425.467720683542, -8712.575878211961, 23737.64201851392, -33933.83728669134, 17941.27588764142, 11341.185729644982, -0.038, 0.964, 0.22, 192.0, 0.0, 0.0, 0.0, 0.0, 0.0, 0.0, 0.0, 0.0, 0.0, 1.700951013060945E9, 0.0, 2023-11-25 17:23:33.060
74.0, 44933.91304420389, 69387.45908587684, 8419.343342702789, -8725.316372551486, 23672.419628193336, -34133.952454799706, 17929.809442735845, 11300.103223336127, -0.038, 0.964, 0.22, 192.0, 0.0, 0.0, 0.0, 0.0, 0.0, 0.0, 0.0, 0.0, 0.0, 1.700951013064977E9, 0.0, 2023-11-25 17:23:33.064
75.0, 44947.54760832162, 69410.99547278827, 8426.182976506112, -8701.310599006487, 23654.046494251073, -34152.88438235335, 17942.169957419632, 11319.839813690163, -0.038, 0.964, 0.22, 192.0, 0.0, 0.0, 0.0, 0.0, 0.0, 0.0, 0.0, 0.0, 0.0, 1.700951013069E9, 0.0, 2023-11-25 17:23:33.069
76.0, 44978.974161025784, 69443.15963305946, 8428.507557929464, -8686.75961336608, 23653.219479706226, -34026.440563969685, 17941.6335155527, 11326.992371915863, -0.038, 0.964, 0.22, 192.0, 0.0, 0.0, 0.0, 0.0, 0.0, 0.0, 0.0, 0.0, 0.0, 1.700951013074E9, 0.0, 2023-11-25 17:23:33.074
77.0, 44972.04512024464, 69421.09846128208, 8428.038171295902, -8701.377654239852, 23723.89569567391, -33945.32608334137, 17943.35459987576, 11343.130331412594, -0.038, 0.964, 0.22, 192.0, 0.0, 0.0, 0.0, 0.0, 0.0, 0.0, 0.0, 0.0, 0.0, 1.700951013078017E9, 0.0, 2023-11-25 17:23:33.078
78.0, 44922.33484057603, 69376.03734446017, 8409.128595486713, -8733.474759277673, 23678.16402651835, -34078.49777680609, 17927.97659969051, 11305.244124560848, -0.038, 0.964, 0.22, 192.0, 0.0, 0.0, 0.0, 0.0, 0.0, 0.0, 0.0, 0.0, 0.0, 1.700951013082052E9, 0.0, 2023-11-25 17:23:33.082
79.0, 44928.66038425689, 69392.19765570137, 8416.28115371241, -8715.682770691248, 23638.377921387902, -34197.74433347515, 17939.823024251822, 11306.540525739256, -0.038, 0.964, 0.22, 192.0, 0.0, 0.0, 0.0, 0.0, 0.0, 0.0, 0.0, 0.0, 0.0, 1.700951013086097E9, 0.0, 2023-11-25 17:23:33.086
80.0, 44962.85855327351, 69425.21118226185, 8418.069293268836, -8700.349473994907, 23642.043607478572, -34039.87396238732, 17940.158300418654, 11322.454967791435, -0.036000000000000004, 0.97, 0.216, 192.0, 254.0, 224.0, 30.0, 80.0, 6.0, 192.0, 0.0, 0.0, 0.0, 1.70095101308907E9, 0.0, 2023-11-25 17:23:33.089
81.0, 44979.71176859281, 69433.12369979903, 8432.57557542033, -8694.962703581179, 23711.55753273458, -33968.86247025281, 17955.916280259644, 11339.509348810834, -0.036000000000000004, 0.97, 0.216, 192.0, 0.0, 0.0, 0.0, 0.0, 0.0, 0.0, 0.0, 0.0, 0.0, 1.700951013093149E9, 0.0, 2023-11-25 17:23:33.093
82.0, 44924.9052911884, 69377.89253924997, 8406.312275685345, -8739.174454113776, 23696.470105227247, -34021.38906972278, 17933.765701504435, 11314.654208976533, -0.036000000000000004, 0.97, 0.216, 192.0, 0.0, 0.0, 0.0, 0.0, 0.0, 0.0, 0.0, 0.0, 0.0, 1.700951013097031E9, 0.0, 2023-11-25 17:23:33.097
83.0, 44914.08704687203, 69383.48047536379, 8404.077101239813, -8735.933451167757, 23620.138897912373, -34232.41188912534, 17935.352675360762, 11289.307330764215, -0.036000000000000004, 0.97, 0.216, 192.0, 0.0, 0.0, 0.0, 0.0, 0.0, 0.0, 0.0, 0.0, 0.0, 1.700951013102104E9, 0.0, 2023-11-25 17:23:33.102
84.0, 44954.029614213665, 69423.08776653859, 8411.877860054716, -8710.251296788609, 23634.376959130404, -34055.76605269504, 17946.394437121682, 11320.28684857927, -0.036000000000000004, 0.97, 0.216, 192.0, 0.0, 0.0, 0.0, 0.0, 0.0, 0.0, 0.0, 0.0, 0.0, 1.700951013106157E9, 0.0, 2023-11-25 17:23:33.106
85.0, 44975.17436446838, 69431.51437419825, 8422.561993904352, -8701.511764706584, 23678.678116640822, -33997.91973804471, 17954.508120358958, 11331.216851617915, -0.036000000000000004, 0.97, 0.216, 192.0, 0.0, 0.0, 0.0, 0.0, 0.0, 0.0, 0.0, 0.0, 0.0, 1.700951013110106E9, 0.0, 2023-11-25 17:23:33.110
86.0, 44925.9558231778, 69375.43384735988, 8401.75251981646, -8739.375619813874, 23704.270864042148, -33981.51355761451, 17937.006704450454, 11328.6240492611, -0.036000000000000004, 0.97, 0.216, 192.0, 0.0, 0.0, 0.0, 0.0, 0.0, 0.0, 0.0, 0.0, 0.0, 1.700951013114136E9, 0.0, 2023-11-25 17:23:33.114
87.0, 44914.62348873896, 69380.99943172926, 8406.848717552271, -8728.736189453148, 23624.13986016987, -34235.809354282545, 17945.07568419882, 11304.707682693921, -0.036000000000000004, 0.97, 0.216, 192.0, 0.0, 0.0, 0.0, 0.0, 0.0, 0.0, 0.0, 0.0, 0.0, 1.700951013117094E9, 0.0, 2023-11-25 17:23:33.117
88.0, 44945.290082131636, 69414.0353100342, 8408.390987919687, -8712.53117472305, 23633.907572496842, -34069.0429889015, 17951.334172646308, 11339.062313921728, -0.036000000000000004, 0.97, 0.216, 192.0, 0.0, 0.0, 0.0, 0.0, 0.0, 0.0, 0.0, 0.0, 0.0, 1.700951013121113E9, 0.0, 2023-11-25 17:23:33.121
89.0, 44982.57279188309, 69446.15476681647, 8426.652363139674, -8697.130822793344, 23666.943450801784, -34015.06352604193, 17958.240861682996, 11345.499616324856, -0.036000000000000004, 0.97, 0.216, 192.0, 0.0, 0.0, 0.0, 0.0, 0.0, 0.0, 0.0, 0.0, 0.0, 1.70095101312517E9, 0.0, 2023-11-25 17:23:33.125
90.0, 44941.713803018785, 69391.95178651235, 8411.699046099073, -8738.034515146555, 23721.88403867293, -33945.08021415237, 17942.974620220022, 11351.623994305612, -0.042, 0.966, 0.22, 192.0, 254.0, 176.0, 30.0, 48.0, 6.0, 224.0, 0.0, 0.0, 0.0, 1.700951013129208E9, 0.0, 2023-11-25 17:23:33.129
91.0, 44907.403875279895, 69374.6291845595, 8405.127633229213, -8750.193864130242, 23623.066976436017, -34219.69374653027, 17929.74238750248, 11299.879705891575, -0.042, 0.966, 0.22, 192.0, 0.0, 0.0, 0.0, 0.0, 0.0, 0.0, 0.0, 0.0, 0.0, 1.700951013134248E9, 0.0, 2023-11-25 17:23:33.134
92.0, 44932.39312558092, 69401.16070522794, 8407.005179763459, -8731.239584832143, 23630.465403850725, -34099.28489914953, 17934.100977671264, 11330.635706262077, -0.042, 0.966, 0.22, 192.0, 0.0, 0.0, 0.0, 0.0, 0.0, 0.0, 0.0, 0.0, 0.0, 1.700951013138306E9, 0.0, 2023-11-25 17:23:33.138
93.0, 44977.09661449154, 69441.52795571422, 8425.959459061558, -8708.06082583199, 23651.185470960794, -34034.755412907056, 17941.387646363695, 11329.160491128026, -0.042, 0.966, 0.22, 192.0, 0.0, 0.0, 0.0, 0.0, 0.0, 0.0, 0.0, 0.0, 0.0, 1.700951013141274E9, 0.0, 2023-11-25 17:23:33.141
94.0, 44946.16180016539, 69396.8244668036, 8416.079988012312, -8738.77212271358, 23723.78393695163, -33943.873219951776, 17933.27396312642, 11340.58223254469, -0.042, 0.966, 0.22, 192.0, 0.0, 0.0, 0.0, 0.0, 0.0, 0.0, 0.0, 0.0, 0.0, 1.700951013145266E9, 0.0, 2023-11-25 17:23:33.145
95.0, 44917.86449168497, 69383.34636489706, 8417.935182802103, -8744.270651849587, 23642.334180156493, -34191.59760374994, 17930.72586425851, 11296.772813412288, -0.042, 0.966, 0.22, 192.0, 0.0, 0.0, 0.0, 0.0, 0.0, 0.0, 0.0, 0.0, 0.0, 1.700951013149236E9, 0.0, 2023-11-25 17:23:33.149
96.0, 44937.26580587218, 69403.59704537356, 8416.817595579338, -8727.86447141939, 23633.48288935219, -34138.9592455577, 17937.54314631738, 11319.48218577888, -0.042, 0.966, 0.22, 192.0, 0.0, 0.0, 0.0, 0.0, 0.0, 0.0, 0.0, 0.0, 0.0, 1.700951013153285E9, 0.0, 2023-11-25 17:23:33.153
97.0, 44976.38135866897, 69441.93028711442, 8427.926412573626, -8705.088043819433, 23643.608229590445, -34040.18688680969, 17943.712227787048, 11320.95740091293, -0.042, 0.966, 0.22, 192.0, 0.0, 0.0, 0.0, 0.0, 0.0, 0.0, 0.0, 0.0, 0.0, 1.700951013157293E9, 0.0, 2023-11-25 17:23:33.157
98.0, 44964.73609980776, 69417.23160949131, 8433.268479498443, -8714.520479979574, 23728.947189920807, -33934.23961809154, 17953.949326747577, 11351.467532094424, -0.042, 0.966, 0.22, 192.0, 0.0, 0.0, 0.0, 0.0, 0.0, 0.0, 0.0, 0.0, 0.0, 1.700951013161883E9, 0.0, 2023-11-25 17:23:33.161
99.0, 44922.93833767633, 69381.22294917381, 8422.986677049003, -8737.676887235271, 23660.483796654204, -34123.29067269453, 17943.0863789423, 11309.021569373796, -0.042, 0.966, 0.22, 192.0, 0.0, 0.0, 0.0, 0.0, 0.0, 0.0, 0.0, 0.0, 0.0, 1.700951013166385E9, 0.0, 2023-11-25 17:23:33.166
100.0, 44936.125866904964, 69401.74185058378, 8429.491034685498, -8717.985000370145, 23638.892011510376, -34164.507289470115, 17951.9376697466, 11323.259630591827, -0.04, 0.968, 0.226, 192.0, 254.0, 192.0, 30.0, 64.0, 7.0, 16.0, 0.0, 0.0, 0.0, 1.700951013170334E9, 0.0, 2023-11-25 17:23:33.170
101.0, 44969.38526265446, 69434.77772888872, 8432.821444609339, -8701.265895517576, 23639.942543499776, -34028.4298692262, 17952.094131957787, 11333.161453385526, -0.04, 0.968, 0.226, 192.0, 0.0, 0.0, 0.0, 0.0, 0.0, 0.0, 0.0, 0.0, 0.0, 1.700951013173354E9, 0.0, 2023-11-25 17:23:33.173
102.0, 44966.613646342, 69421.61255140454, 8439.1916917791, -8704.171622296766, 23713.12215484645, -33942.37565307327, 17960.61014659526, 11357.72602054191, -0.04, 0.968, 0.226, 192.0, 0.0, 0.0, 0.0, 0.0, 0.0, 0.0, 0.0, 0.0, 0.0, 1.700951013177322E9, 0.0, 2023-11-25 17:23:33.177
103.0, 44917.37275330696, 69380.26182416223, 8426.3394387173, -8731.39604704333, 23682.075581798028, -34058.22474458513, 17947.064989455343, 11324.95836317043, -0.04, 0.968, 0.226, 192.0, 0.0, 0.0, 0.0, 0.0, 0.0, 0.0, 0.0, 0.0, 0.0, 1.700951013181317E9, 0.0, 2023-11-25 17:23:33.181
104.0, 44922.22308185376, 69401.67479535041, 8434.296659743388, -8711.905325878302, 23637.327389398502, -34191.66465898331, 17957.145626204685, 11321.71736022441, -0.04, 0.968, 0.226, 192.0, 0.0, 0.0, 0.0, 0.0, 0.0, 0.0, 0.0, 0.0, 0.0, 1.700951013187347E9, 0.0, 2023-11-25 17:23:33.187
105.0, 44954.11902119148, 69432.9895893323, 8431.368581219744, -8698.717796649671, 23638.266162665626, -34026.68643315869, 17954.8881000147, 11335.374276086603, -0.04, 0.968, 0.226, 192.0, 0.0, 0.0, 0.0, 0.0, 0.0, 0.0, 0.0, 0.0, 0.0, 1.700951013191375E9, 0.0, 2023-11-25 17:23:33.191
106.0, 44971.4639748888, 69438.17519404594, 8444.891386615203, -8691.162907023778, 23702.54977971909, -33961.844022493846, 17967.69564958759, 11355.334383885192, -0.04, 0.968, 0.226, 192.0, 0.0, 0.0, 0.0, 0.0, 0.0, 0.0, 0.0, 0.0, 0.0, 1.700951013195371E9, 0.0, 2023-11-25 17:23:33.195
107.0, 44921.28430858664, 69386.14033295398, 8425.825348594826, -8727.953878397213, 23700.15814306237, -33998.031496766984, 17952.31764940234, 11342.236261634382, -0.04, 0.968, 0.226, 192.0, 0.0, 0.0, 0.0, 0.0, 0.0, 0.0, 0.0, 0.0, 0.0, 1.700951013198406E9, 0.0, 2023-11-25 17:23:33.198
108.0, 44912.45536952679, 69391.75062081225, 8426.630011395218, -8718.499090492618, 23626.5762003155, -34216.76566800662, 17955.916280259644, 11319.504537523335, -0.04, 0.968, 0.226, 192.0, 0.0, 0.0, 0.0, 0.0, 0.0, 0.0, 0.0, 0.0, 0.0, 1.700951013201414E9, 0.0, 2023-11-25 17:23:33.201
109.0, 44941.89261697443, 69425.4346997064, 8425.37831370572, -8700.282418761542, 23633.43818586328, -34042.98085486661, 17957.45855062706, 11346.90777622554, -0.046, 0.966, 0.222, 192.0, 254.0, 144.0, 30.0, 48.0, 6.0, 240.0, 0.0, 0.0, 0.0, 1.700951013205409E9, 0.0, 2023-11-25 17:23:33.205
110.0, 44962.52327710668, 69440.29860976919, 8435.503653943975, -8692.19108726872, 23674.520692172133, -33986.9226797727, 17964.924033275132, 11353.568596073223, -0.046, 0.966, 0.222, 192.0, 0.0, 0.0, 0.0, 0.0, 0.0, 0.0, 0.0, 0.0, 0.0, 1.700951013209455E9, 0.0, 2023-11-25 17:23:33.209
111.0, 44913.39414279391, 69387.77201029922, 8411.76610133244, -8736.87222443488, 23699.30877677307, -33967.25314465203, 17941.320591130327, 11333.697895252455, -0.046, 0.966, 0.222, 192.0, 0.0, 0.0, 0.0, 0.0, 0.0, 0.0, 0.0, 0.0, 0.0, 1.700951013213436E9, 0.0, 2023-11-25 17:23:33.213
112.0, 44894.35045651799, 69395.68452783639, 8411.721397843528, -8736.045209890033, 23609.678281507287, -34231.45076411376, 17941.78997776389, 11297.868048890597, -0.046, 0.966, 0.222, 192.0, 0.0, 0.0, 0.0, 0.0, 0.0, 0.0, 0.0, 0.0, 0.0, 1.700951013217442E9, 0.0, 2023-11-25 17:23:33.217
113.0, 44931.163779635885, 69436.40940623396, 8422.651400882174, -8708.843136887925, 23630.554810828544, -34067.3442563229, 17959.55961460586, 11343.5773663017, -0.046, 0.966, 0.222, 192.0, 0.0, 0.0, 0.0, 0.0, 0.0, 0.0, 0.0, 0.0, 0.0, 1.700951013222707E9, 0.0, 2023-11-25 17:23:33.222
114.0, 44976.113137735505, 69469.1994153499, 8447.707706416573, -8684.122107520356, 23669.245680480682, -33999.9760985346, 17977.66452761466, 11355.49084609638, -0.046, 0.966, 0.222, 192.0, 0.0, 0.0, 0.0, 0.0, 0.0, 0.0, 0.0, 0.0, 0.0, 1.700951013225509E9, 0.0, 2023-11-25 17:23:33.225
115.0, 44934.98592793774, 69412.91772281143, 8430.318049230344, -8723.86350916189, 23726.019111397163, -33921.11914409627, 17967.13685597621, 11370.131238714604, -0.046, 0.966, 0.222, 192.0, 0.0, 0.0, 0.0, 0.0, 0.0, 0.0, 0.0, 0.0, 0.0, 1.700951013229509E9, 0.0, 2023-11-25 17:23:33.229
116.0, 44908.096779358006, 69403.79821107366, 8427.702895129072, -8730.993715643133, 23633.01350271863, -34200.58300502098, 17959.581966350313, 11318.297543322748, -0.046, 0.966, 0.222, 192.0, 0.0, 0.0, 0.0, 0.0, 0.0, 0.0, 0.0, 0.0, 0.0, 1.700951013233491E9, 0.0, 2023-11-25 17:23:33.233
117.0, 44939.88095997345, 69440.41036849146, 8435.168377777145, -8705.311561263987, 23644.412892390836, -34091.32767812344, 17969.103809488275, 11349.791151260275, -0.046, 0.966, 0.222, 192.0, 0.0, 0.0, 0.0, 0.0, 0.0, 0.0, 0.0, 0.0, 0.0, 1.700951013237565E9, 0.0, 2023-11-25 17:23:33.237
118.0, 44977.7671668252, 69473.06626714066, 8446.187787793611, -8683.250389486599, 23660.081465254007, -34016.53874117598, 17972.970661279043, 11351.266366394326, -0.046, 0.966, 0.222, 192.0, 0.0, 0.0, 0.0, 0.0, 0.0, 0.0, 0.0, 0.0, 0.0, 1.700951013241524E9, 0.0, 2023-11-25 17:23:33.241
119.0, 44951.772088023674, 69427.7369293853, 8432.732037631517, -8707.882011876347, 23733.998684167706, -33915.50885623799, 17963.068838485342, 11374.221607949927, -0.04, 0.968, 0.218, 192.0, 254.0, 192.0, 30.0, 64.0, 6.0, 208.0, 0.0, 0.0, 0.0, 1.700951013247524E9, 0.0, 2023-11-25 17:23:33.247
120.0, 44911.40483753739, 69399.77489707171, 8418.851604324771, -8726.702180707714, 23645.95516275825, -34154.3148939985, 17951.781207535412, 11326.925316682496, -0.04, 0.968, 0.218, 192.0, 0.0, 0.0, 0.0, 0.0, 0.0, 0.0, 0.0, 0.0, 0.0, 1.700951013250516E9, 0.0, 2023-11-25 17:23:33.250
121.0, 44931.67786975836, 69426.82050786263, 8426.786473606406, -8703.299904263009, 23637.48385160969, -34123.49183839463, 17967.98622226551, 11352.965098972929, -0.04, 0.968, 0.218, 192.0, 0.0, 0.0, 0.0, 0.0, 0.0, 0.0, 0.0, 0.0, 0.0, 1.700951013253574E9, 0.0, 2023-11-25 17:23:33.253
122.0, 44978.32596043658, 69474.56383401917, 8447.931223861126, -8670.778116080537, 23654.046494251073, -34012.29190972947, 17982.17957999463, 11370.086535225695, -0.04, 0.968, 0.218, 192.0, 0.0, 0.0, 0.0, 0.0, 0.0, 0.0, 0.0, 0.0, 0.0, 1.700951013256511E9, 0.0, 2023-11-25 17:23:33.256
123.0, 44962.12094570648, 69445.21599354935, 8445.964270349059, -8687.251351744098, 23734.646884756912, -33910.27854803545, 17984.526513162436, 11397.378015205624, -0.04, 0.968, 0.218, 192.0, 0.0, 0.0, 0.0, 0.0, 0.0, 0.0, 0.0, 0.0, 0.0, 1.700951013261641E9, 0.0, 2023-11-25 17:23:33.261
124.0, 44911.56129974858, 69403.6864523514, 8426.518252672942, -8719.236698059643, 23667.97163104673, -34090.56771881196, 17964.186425708107, 11348.181825659494, -0.04, 0.968, 0.218, 192.0, 0.0, 0.0, 0.0, 0.0, 0.0, 0.0, 0.0, 0.0, 0.0, 1.700951013266157E9, 0.0, 2023-11-25 17:23:33.266
125.0, 44919.16089286338, 69418.46095543634, 8427.166453262145, -8703.411662985285, 23635.20397367525, -34152.92908584226, 17967.092152487297, 11351.489883838878, -0.04, 0.968, 0.218, 192.0, 0.0, 0.0, 0.0, 0.0, 0.0, 0.0, 0.0, 0.0, 0.0, 1.700951013269628E9, 0.0, 2023-11-25 17:23:33.269
126.0, 44957.40472762641, 69454.40256052048, 8432.95555507607, -8683.071575530956, 23639.450805121756, -34014.191808008174, 17968.03092575442, 11359.87178800962, -0.04, 0.968, 0.218, 192.0, 0.0, 0.0, 0.0, 0.0, 0.0, 0.0, 0.0, 0.0, 0.0, 1.700951013273623E9, 0.0, 2023-11-25 17:23:33.273
127.0, 44964.24436142974, 69449.68634244041, 8445.561938948864, -8682.848058086403, 23719.425346782846, -33930.931559912155, 17982.492504417005, 11380.793020819787, -0.04, 0.968, 0.218, 192.0, 0.0, 0.0, 0.0, 0.0, 0.0, 0.0, 0.0, 0.0, 0.0, 1.700951013277639E9, 0.0, 2023-11-25 17:23:33.277
128.0, 44903.78289267813, 69395.01397550273, 8417.37638919072, -8726.501015007618, 23680.957994575263, -34032.07320357242, 17954.508120358958, 11340.67163952251, -0.04, 0.968, 0.218, 192.0, 0.0, 0.0, 0.0, 0.0, 0.0, 0.0, 0.0, 0.0, 0.0, 1.700951013281605E9, 0.0, 2023-11-25 17:23:33.281
129.0, 44901.88299439943, 69410.637844877, 8418.471624669031, -8712.173546811766, 23627.783194516087, -34189.29537407105, 17959.827835539323, 11330.38983707307, -0.036000000000000004, 0.96, 0.22, 192.0, 254.0, 224.0, 30.0, 0.0, 6.0, 224.0, 0.0, 0.0, 0.0, 1.700951013284651E9, 0.0, 2023-11-25 17:23:33.284
130.0, 44935.83529422704, 69444.83601389361, 8419.47745316952, -8696.706139648693, 23632.789985274077, -34023.82540986841, 17956.586832593304, 11345.454912835947, -0.036000000000000004, 0.96, 0.22, 192.0, 0.0, 0.0, 0.0, 0.0, 0.0, 0.0, 0.0, 0.0, 0.0, 1.700951013288651E9, 0.0, 2023-11-25 17:23:33.288
131.0, 44957.248265415226, 69455.78836867672, 8438.968174334548, -8685.418508698764, 23698.459410483767, -33958.558316058916, 17968.813236810354, 11360.184712431994, -0.036000000000000004, 0.96, 0.22, 192.0, 0.0, 0.0, 0.0, 0.0, 0.0, 0.0, 0.0, 0.0, 0.0, 1.700951013293682E9, 0.0, 2023-11-25 17:23:33.293
132.0, 44915.159930605885, 69405.31812969662, 8426.227679995023, -8719.214346315188, 23707.042480354605, -33977.981981990575, 17954.575175592327, 11347.891252981575, -0.036000000000000004, 0.96, 0.22, 192.0, 0.0, 0.0, 0.0, 0.0, 0.0, 0.0, 0.0, 0.0, 0.0, 1.700951013297785E9, 0.0, 2023-11-25 17:23:33.297
133.0, 44911.091913115015, 69412.42598443342, 8434.073142298836, -8707.054997331501, 23634.600476574957, -34203.511083544625, 17963.60528035227, 11326.81355796022, -0.036000000000000004, 0.96, 0.22, 192.0, 0.0, 0.0, 0.0, 0.0, 0.0, 0.0, 0.0, 0.0, 0.0, 1.700951013301735E9, 0.0, 2023-11-25 17:23:33.301
134.0, 44945.04421294263, 69447.98760986181, 8435.168377777145, -8687.407813955286, 23644.90463076885, -34026.61937792532, 17973.350640934783, 11357.34604088617, -0.036000000000000004, 0.96, 0.22, 192.0, 0.0, 0.0, 0.0, 0.0, 0.0, 0.0, 0.0, 0.0, 0.0, 1.700951013305803E9, 0.0, 2023-11-25 17:23:33.305
135.0, 44980.27056220419, 69473.93798517442, 8453.608566952773, -8666.95596777868, 23692.58090169202, -33965.50970858451, 17991.947292321598, 11379.004881263361, -0.036000000000000004, 0.96, 0.22, 192.0, 0.0, 0.0, 0.0, 0.0, 0.0, 0.0, 0.0, 0.0, 0.0, 1.700951013308743E9, 0.0, 2023-11-25 17:23:33.308
136.0, 44937.310509361094, 69420.27144673723, 8436.978869078024, -8702.741110651627, 23731.338826577525, -33924.00251913101, 17979.810295082367, 11382.312939442747, -0.036000000000000004, 0.96, 0.22, 192.0, 0.0, 0.0, 0.0, 0.0, 0.0, 0.0, 0.0, 0.0, 0.0, 1.700951013312802E9, 0.0, 2023-11-25 17:23:33.312
137.0, 44916.769256206666, 69415.37641470152, 8434.85545335477, -8705.736244408638, 23636.209802175737, -34194.72684797369, 17978.60330088178, 11340.559880800234, -0.036000000000000004, 0.96, 0.22, 192.0, 0.0, 0.0, 0.0, 0.0, 0.0, 0.0, 0.0, 0.0, 0.0, 1.700951013317688E9, 0.0, 2023-11-25 17:23:33.317
138.0, 44953.739041535744, 69457.24123206631, 8443.729095903527, -8678.712985362172, 23650.559622116045, -34041.527991477014, 17993.109583033274, 11379.027233007817, -0.036000000000000004, 0.96, 0.22, 192.0, 0.0, 0.0, 0.0, 0.0, 0.0, 0.0, 0.0, 0.0, 0.0, 1.700951013321722E9, 0.0, 2023-11-25 17:23:33.321
139.0, 44990.95469605383, 69489.89713071552, 8464.113886846768, -8658.059973485468, 23680.533311430612, -33978.7195895576, 18006.699443662103, 11387.744413345386, -0.032, 0.96, 0.22, 192.0, 255.0, 0.0, 30.0, 0.0, 6.0, 224.0, 0.0, 0.0, 0.0, 1.700951013325777E9, 0.0, 2023-11-25 17:23:33.325
140.0, 44949.78278276716, 69434.9341910999, 8451.708668674073, -8692.19108726872, 23741.5535737936, -33896.64398391771, 17996.395289468204, 11399.523782673334, -0.032, 0.96, 0.22, 192.0, 0.0, 0.0, 0.0, 0.0, 0.0, 0.0, 0.0, 0.0, 0.0, 1.700951013329748E9, 0.0, 2023-11-25 17:23:33.329
141.0, 44920.79257020862, 69419.37737695902, 8449.495845972997, -8699.701273405704, 23649.01735174863, -34164.41788249229, 17992.61784465526, 11352.58511931719, -0.032, 0.96, 0.22, 192.0, 0.0, 0.0, 0.0, 0.0, 0.0, 0.0, 0.0, 0.0, 0.0, 1.700951013333765E9, 0.0, 2023-11-25 17:23:33.333
142.0, 44937.802247739106, 69441.90793536996, 8446.344250004799, -8682.57983715294, 23646.670418580823, -34066.51724177805, 17993.735431878024, 11376.143857973082, -0.032, 0.96, 0.22, 192.0, 0.0, 0.0, 0.0, 0.0, 0.0, 0.0, 0.0, 0.0, 0.0, 1.700951013336751E9, 0.0, 2023-11-25 17:23:33.336
143.0, 44976.02373075768, 69481.42581956695, 8459.263558299966, -8663.022060754545, 23656.01344776314, -33985.469816383105, 18001.692652904112, 11380.97183477543, -0.032, 0.96, 0.22, 192.0, 0.0, 0.0, 0.0, 0.0, 0.0, 0.0, 0.0, 0.0, 0.0, 1.700951013340771E9, 0.0, 2023-11-25 17:23:33.340
144.0, 44949.24634090022, 69439.22572603532, 8450.322860517843, -8690.872334345859, 23725.795593952607, -33886.473940190546, 17997.33406273533, 11398.45089893948, -0.032, 0.96, 0.22, 192.0, 0.0, 0.0, 0.0, 0.0, 0.0, 0.0, 0.0, 0.0, 0.0, 1.700951013344747E9, 0.0, 2023-11-25 17:23:33.344
145.0, 44908.432055524834, 69408.06739426462, 8438.85641561227, -8710.944200866723, 23642.28947666758, -34121.636643604834, 17981.911359061167, 11338.10118891015, -0.032, 0.96, 0.22, 192.0, 0.0, 0.0, 0.0, 0.0, 0.0, 0.0, 0.0, 0.0, 0.0, 1.70095101334976E9, 0.0, 2023-11-25 17:23:33.349
146.0, 44922.17837836485, 69428.31807474114, 8439.48226445702, -8692.772232624558, 23630.063072450528, -34107.33152715344, 17987.56635040836, 11355.647308307565, -0.032, 0.96, 0.22, 192.0, 0.0, 0.0, 0.0, 0.0, 0.0, 0.0, 0.0, 0.0, 0.0, 1.700951013353811E9, 0.0, 2023-11-25 17:23:33.353
147.0, 44962.09859396203, 69464.5949559921, 8445.42782848213, -8671.806296325482, 23636.05333996455, -33997.24918571105, 17989.533303920427, 11358.95536648695, -0.032, 0.96, 0.22, 192.0, 0.0, 0.0, 0.0, 0.0, 0.0, 0.0, 0.0, 0.0, 0.0, 1.700951013357781E9, 0.0, 2023-11-25 17:23:33.357
148.0, 44954.655463058414, 69436.5435167007, 8441.449217969086, -8685.977302310146, 23712.093974601506, -33907.12695206725, 17988.482771931027, 11373.640462594089, -0.032, 0.96, 0.22, 192.0, 0.0, 0.0, 0.0, 0.0, 0.0, 0.0, 0.0, 0.0, 0.0, 1.700951013361825E9, 0.0, 2023-11-25 17:23:33.361
149.0, 44915.69637247281, 69403.03825176219, 8426.697066628583, -8711.547697967017, 23653.286534939594, -34073.40157907028, 17978.0445072704, 11333.988467930374, -0.034, 0.964, 0.216, 192.0, 254.0, 240.0, 30.0, 32.0, 6.0, 192.0, 0.0, 0.0, 0.0, 1.700951013364842E9, 0.0, 2023-11-25 17:23:33.364
150.0, 44929.196826123814, 69424.56298167264, 8429.781607363417, -8693.018101813568, 23623.424604347303, -34150.582152674455, 17994.808315611877, 11342.638593034577, -0.034, 0.964, 0.216, 192.0, 0.0, 0.0, 0.0, 0.0, 0.0, 0.0, 0.0, 0.0, 0.0, 1.700951013368846E9, 0.0, 2023-11-25 17:23:33.368
151.0, 44972.9168382784, 69465.10904611458, 8433.939031832104, -8672.834476570426, 23631.15830792884, -34009.56499690592, 18005.98418783953, 11353.926223984507, -0.034, 0.964, 0.216, 192.0, 0.0, 0.0, 0.0, 0.0, 0.0, 0.0, 0.0, 0.0, 0.0, 1.700951013372853E9, 0.0, 2023-11-25 17:23:33.372
