%OpenBCI Raw EXG Data
%Number of channels = 8
%Sample Rate = 250 Hz
%Board = OpenBCI_GUI$BoardCytonSerial
Sample Index, EXG Channel 0, EXG Channel 1, EXG Channel 2, EXG Channel 3, EXG Channel 4, EXG Channel 5, EXG Channel 6, EXG Channel 7, Accel Channel 0, Accel Channel 1, Accel Channel 2, Other, Other, Other, Other, Other, Other, Other, Analog Channel 0, Analog Channel 1, Analog Channel 2, Timestamp, Other, Timestamp (Formatted)
44.0, 50677.439651184046, 67269.60894699204, 9083.27956000323, -7442.639165239235, 23099.14208640362, -31366.851194721607, 19145.40906493772, 15945.712142671604, 0.0, 0.0, 0.0, 192.0, 0.0, 0.0, 0.0, 0.0, 0.0, 0.0, 0.0, 0.0, 0.0, 1.700951104727571E9, 0.0, 2023-11-25 17:25:04.727
45.0, 50637.81000826479, 67228.14646102744, 9065.375812694529, -7477.597293567335, 23100.23732188193, -31281.355772180057, 19123.72787281607, 15950.070732840388, 0.0, 0.0, 0.0, 192.0, 0.0, 0.0, 0.0, 0.0, 0.0, 0.0, 0.0, 0.0, 0.0, 1.700951104727598E9, 0.0, 2023-11-25 17:25:04.727
46.0, 50627.77407500435, 67242.80920539012, 9068.348594707084, -7468.768354507489, 23037.11599554014, -31517.94898723948, 19119.905724514214, 15900.71808108307, 0.0, 0.0, 0.0, 192.0, 0.0, 0.0, 0.0, 0.0, 0.0, 0.0, 0.0, 0.0, 0.0, 1.700951104727611E9, 0.0, 2023-11-25 17:25:04.727
0.0, 0.0, 0.0, 0.0, 0.0, 0.0, 0.0, 0.0, 0.0, -0.004, 0.984, 0.14200000000000002, 192.0, 255.0, 224.0, 30.0, 192.0, 4.0, 112.0, 0.0, 0.0, 0.0, 1.700951104812101E9, 0.0, 2023-11-25 17:25:04.812
1.0, 51292.11262370499, 67447.93116425647, 9074.696490132392, -7232.488063870438, 23014.004291773355, -31260.38983588098, 19238.1911561717, 16318.718054141767, -0.004, 0.984, 0.14200000000000002, 192.0, 0.0, 0.0, 0.0, 0.0, 0.0, 0.0, 0.0, 0.0, 0.0, 1.700951104829252E9, 0.0, 2023-11-25 17:25:04.829
2.0, 51336.659650404414, 67492.85817061164, 9096.623551443046, -7201.463842566472, 23025.627198890114, -31229.209152365824, 19253.412694145765, 16324.238935022227, -0.004, 0.984, 0.14200000000000002, 192.0, 0.0, 0.0, 0.0, 0.0, 0.0, 0.0, 0.0, 0.0, 0.0, 1.700951104832005E9, 0.0, 2023-11-25 17:25:04.832
3.0, 51333.28453699166, 67469.29943195575, 9100.46805148936, -7209.264601381374, 23105.847609740213, -31056.072539815017, 19264.58856637342, 16383.113429917506, -0.004, 0.984, 0.14200000000000002, 192.0, 0.0, 0.0, 0.0, 0.0, 0.0, 0.0, 0.0, 0.0, 0.0, 1.700951104835023E9, 0.0, 2023-11-25 17:25:04.835
4.0, 51286.50233584671, 67430.42974834797, 9077.579865167125, -7243.306308186807, 23048.42597823453, -31158.577639887055, 19241.052179461978, 16343.059103853597, -0.004, 0.984, 0.14200000000000002, 192.0, 0.0, 0.0, 0.0, 0.0, 0.0, 0.0, 0.0, 0.0, 0.0, 1.70095110483903E9, 0.0, 2023-11-25 17:25:04.839
5.0, 51287.70933004729, 67443.28200140977, 9078.093955289598, -7232.063380725787, 23014.831306318203, -31270.537527863686, 19242.3932841293, 16326.295295512116, -0.004, 0.984, 0.14200000000000002, 192.0, 0.0, 0.0, 0.0, 0.0, 0.0, 0.0, 0.0, 0.0, 0.0, 1.700951104843216E9, 0.0, 2023-11-25 17:25:04.843
6.0, 51315.49254840524, 67473.81448433573, 9084.218333270352, -7213.176156661053, 23009.399832415562, -31226.191666864357, 19242.75091204058, 16322.249629765705, -0.004, 0.984, 0.14200000000000002, 192.0, 0.0, 0.0, 0.0, 0.0, 0.0, 0.0, 0.0, 0.0, 0.0, 1.700951104847076E9, 0.0, 2023-11-25 17:25:04.847
7.0, 51322.24277523074, 67468.42771392199, 9096.46708923186, -7209.823394992757, 23086.312185086274, -31099.63608975841, 19258.665354092762, 16363.645060496934, -0.004, 0.984, 0.14200000000000002, 192.0, 0.0, 0.0, 0.0, 0.0, 0.0, 0.0, 0.0, 0.0, 0.0, 1.700951104851106E9, 0.0, 2023-11-25 17:25:04.851
8.0, 51272.8007164956, 67425.24414363434, 9070.9413970639, -7248.581319878259, 23063.84868190869, -31104.06173516056, 19234.927801481226, 16344.780188176655, -0.012, 0.98, 0.14, 192.0, 255.0, 160.0, 30.0, 160.0, 4.0, 96.0, 0.0, 0.0, 0.0, 1.700951104855067E9, 0.0, 2023-11-25 17:25:04.855
9.0, 51270.72200426126, 67442.27617290929, 9074.674138387936, -7233.270374926374, 23021.1344982546, -31291.503464162764, 19237.587659071407, 16308.145679014408, -0.012, 0.98, 0.14, 192.0, 0.0, 0.0, 0.0, 0.0, 0.0, 0.0, 0.0, 0.0, 0.0, 1.700951104858079E9, 0.0, 2023-11-25 17:25:04.858
10.0, 51304.85311804451, 67476.8766733261, 9079.74798437929, -7214.360799117184, 23018.340530197685, -31218.368556305, 19236.33596138191, 16313.487745939226, -0.012, 0.98, 0.14, 192.0, 0.0, 0.0, 0.0, 0.0, 0.0, 0.0, 0.0, 0.0, 0.0, 1.700951104862091E9, 0.0, 2023-11-25 17:25:04.862
11.0, 51328.143635766944, 67484.61037690764, 9098.836374144123, -7200.7038832549915, 23081.059525139277, -31143.333750168535, 19251.71396156716, 16343.975525376265, -0.012, 0.98, 0.14, 192.0, 0.0, 0.0, 0.0, 0.0, 0.0, 0.0, 0.0, 0.0, 0.0, 1.700951104866176E9, 0.0, 2023-11-25 17:25:04.866
12.0, 51278.14278342042, 67426.60760004612, 9072.640129642503, -7243.887453542645, 23085.686336241524, -31058.91121136084, 19232.0891299354, 16355.196101092828, -0.012, 0.98, 0.14, 192.0, 0.0, 0.0, 0.0, 0.0, 0.0, 0.0, 0.0, 0.0, 0.0, 1.700951104870092E9, 0.0, 2023-11-25 17:25:04.870
13.0, 51257.42271631035, 67427.09933842413, 9068.79562959619, -7244.915633787589, 23014.607788873647, -31308.580196926618, 19228.289333377998, 16299.22733297674, -0.012, 0.98, 0.14, 192.0, 0.0, 0.0, 0.0, 0.0, 0.0, 0.0, 0.0, 0.0, 0.0, 1.700951104875193E9, 0.0, 2023-11-25 17:25:04.875
14.0, 51292.44789987182, 67463.10799874163, 9077.021071555742, -7222.452130610005, 23018.921675553524, -31229.879704699484, 19236.224202659632, 16316.08054829604, -0.012, 0.98, 0.14, 192.0, 0.0, 0.0, 0.0, 0.0, 0.0, 0.0, 0.0, 0.0, 0.0, 1.700951104879188E9, 0.0, 2023-11-25 17:25:04.879
15.0, 51322.10866476401, 67478.88833032708, 9093.494307219304, -7208.325828114251, 23059.870071395646, -31192.93227111486, 19249.076455721435, 16329.312781013583, -0.012, 0.98, 0.14, 192.0, 0.0, 0.0, 0.0, 0.0, 0.0, 0.0, 0.0, 0.0, 0.0, 1.700951104883214E9, 0.0, 2023-11-25 17:25:04.883
16.0, 51282.635484055936, 67425.82528899018, 9071.41078369746, -7246.592014621737, 23094.962310190476, -31040.694539629763, 19235.106615436867, 16357.587737749547, -0.012, 0.98, 0.14, 192.0, 0.0, 0.0, 0.0, 0.0, 0.0, 0.0, 0.0, 0.0, 0.0, 1.700951104886198E9, 0.0, 2023-11-25 17:25:04.886
17.0, 51259.769649478156, 67419.63385577606, 9065.487571416805, -7252.984613535955, 23014.898361551568, -31304.19925501338, 19229.272810134033, 16294.533466641125, -0.012, 0.98, 0.14, 192.0, 0.0, 0.0, 0.0, 0.0, 0.0, 0.0, 0.0, 0.0, 0.0, 1.700951104890157E9, 0.0, 2023-11-25 17:25:04.890
18.0, 51286.16705967988, 67445.04778922175, 9067.946263306889, -7236.846654039223, 23015.233637718396, -31242.70960601683, 19232.066778190947, 16302.669501622857, -0.016, 0.976, 0.14400000000000002, 192.0, 255.0, 128.0, 30.0, 128.0, 4.0, 128.0, 0.0, 0.0, 0.0, 1.700951104894177E9, 0.0, 2023-11-25 17:25:04.894
19.0, 51324.27678397617, 67476.92137681501, 9087.682853660925, -7215.366627617673, 23039.46292870795, -31234.90884720193, 19245.366066141854, 16299.473202165747, -0.016, 0.976, 0.14400000000000002, 192.0, 0.0, 0.0, 0.0, 0.0, 0.0, 0.0, 0.0, 0.0, 0.0, 1.700951104898259E9, 0.0, 2023-11-25 17:25:04.898
20.0, 51288.022254469666, 67426.13821341256, 9073.444792442893, -7247.083752999753, 23096.19165613552, -31042.48267918619, 19239.733426539115, 16351.776284191166, -0.016, 0.976, 0.14400000000000002, 192.0, 0.0, 0.0, 0.0, 0.0, 0.0, 0.0, 0.0, 0.0, 0.0, 1.700951104903289E9, 0.0, 2023-11-25 17:25:04.903
21.0, 51248.68318422833, 67409.35205332661, 9060.771353336735, -7264.9204450750885, 23009.578646371207, -31278.47239714532, 19223.215487386642, 16286.12921072593, -0.016, 0.976, 0.14400000000000002, 192.0, 0.0, 0.0, 0.0, 0.0, 0.0, 0.0, 0.0, 0.0, 0.0, 1.700951104907267E9, 0.0, 2023-11-25 17:25:04.907
22.0, 51273.851248485, 67439.66101880801, 9067.722745862335, -7240.981726763454, 23006.94114052548, -31255.248934656258, 19231.396225857286, 16297.46154516477, -0.016, 0.976, 0.14400000000000002, 192.0, 0.0, 0.0, 0.0, 0.0, 0.0, 0.0, 0.0, 0.0, 0.0, 1.70095110491129E9, 0.0, 2023-11-25 17:25:04.911
23.0, 51317.727722850774, 67480.49765592786, 9087.057004816175, -7213.2655636388745, 23020.84392557668, -31244.587152551074, 19243.37676088533, 16293.482934651725, -0.016, 0.976, 0.14400000000000002, 192.0, 0.0, 0.0, 0.0, 0.0, 0.0, 0.0, 0.0, 0.0, 0.0, 1.700951104914291E9, 0.0, 2023-11-25 17:25:04.914
24.0, 51309.63639135795, 67454.41317014852, 9092.622589185547, -7222.04979920981, 23107.836914996733, -31044.829612353995, 19254.99966800209, 16364.919109930886, -0.016, 0.976, 0.14400000000000002, 192.0, 0.0, 0.0, 0.0, 0.0, 0.0, 0.0, 0.0, 0.0, 0.0, 1.700951104918304E9, 0.0, 2023-11-25 17:25:04.918
25.0, 51264.37410883595, 67422.3160651107, 9074.048289543187, -7249.140113489642, 23036.646608906583, -31206.097448599037, 19236.85005150438, 16319.925048342355, -0.016, 0.976, 0.14400000000000002, 192.0, 0.0, 0.0, 0.0, 0.0, 0.0, 0.0, 0.0, 0.0, 0.0, 1.700951104922315E9, 0.0, 2023-11-25 17:25:04.922
26.0, 51279.215667154276, 67443.5725740877, 9079.03272855672, -7231.616345836681, 23019.0334342758, -31251.76206252123, 19243.086188207413, 16321.176746031852, -0.016, 0.976, 0.14400000000000002, 192.0, 0.0, 0.0, 0.0, 0.0, 0.0, 0.0, 0.0, 0.0, 0.0, 1.700951104926324E9, 0.0, 2023-11-25 17:25:04.926
27.0, 51328.38950495595, 67489.19248452097, 9098.456394488383, -7202.223801877953, 23021.31331221024, -31224.381175563478, 19255.223185446644, 16321.84729836551, -0.02, 0.982, 0.14400000000000002, 192.0, 255.0, 96.0, 30.0, 176.0, 4.0, 128.0, 0.0, 0.0, 0.0, 1.700951104930339E9, 0.0, 2023-11-25 17:25:04.930
28.0, 51314.53142339366, 67455.62016434911, 9092.935513607921, -7221.37924687615, 23087.876807198147, -31065.370865508423, 19251.80336854498, 16365.343793075537, -0.02, 0.982, 0.14400000000000002, 192.0, 0.0, 0.0, 0.0, 0.0, 0.0, 0.0, 0.0, 0.0, 0.0, 1.700951104935302E9, 0.0, 2023-11-25 17:25:04.935
29.0, 51270.96787345027, 67417.64455051953, 9073.713013376357, -7251.867026313189, 23037.495975195885, -31152.520317139664, 19229.965714212147, 16329.648057180413, -0.02, 0.982, 0.14400000000000002, 192.0, 0.0, 0.0, 0.0, 0.0, 0.0, 0.0, 0.0, 0.0, 0.0, 1.700951104938358E9, 0.0, 2023-11-25 17:25:04.938
30.0, 51279.841515999025, 67433.2684198938, 9082.65371115848, -7232.085732470243, 23007.56698937023, -31274.247917443266, 19240.225164917134, 16316.192307018318, -0.02, 0.982, 0.14400000000000002, 192.0, 0.0, 0.0, 0.0, 0.0, 0.0, 0.0, 0.0, 0.0, 0.0, 1.700951104942405E9, 0.0, 2023-11-25 17:25:04.942
31.0, 51313.77146408218, 67467.19836797695, 9091.616760685058, -7209.823394992757, 23003.342509668175, -31220.000233650237, 19248.54001385451, 16318.025150063653, -0.02, 0.982, 0.14400000000000002, 192.0, 0.0, 0.0, 0.0, 0.0, 0.0, 0.0, 0.0, 0.0, 0.0, 1.700951104946387E9, 0.0, 2023-11-25 17:25:04.946
32.0, 51318.30886820661, 67459.08468473968, 9098.769318910756, -7209.644581037114, 23071.67179246805, -31102.988851426704, 19260.00645876008, 16359.197063350328, -0.02, 0.982, 0.14400000000000002, 192.0, 0.0, 0.0, 0.0, 0.0, 0.0, 0.0, 0.0, 0.0, 0.0, 1.700951104950363E9, 0.0, 2023-11-25 17:25:04.950
33.0, 51267.72687050425, 67409.68732949345, 9070.851990086077, -7252.29170945784, 23050.996428846887, -31088.72843846422, 19239.174632927734, 16350.256365568206, -0.02, 0.982, 0.14400000000000002, 192.0, 0.0, 0.0, 0.0, 0.0, 0.0, 0.0, 0.0, 0.0, 0.0, 1.700951104954411E9, 0.0, 2023-11-25 17:25:04.954
34.0, 51261.26721635667, 67416.70577725241, 9068.08037377362, -7246.949642533022, 22994.69238456397, -31297.270214232234, 19243.041484718502, 16306.245780735706, -0.02, 0.982, 0.14400000000000002, 192.0, 0.0, 0.0, 0.0, 0.0, 0.0, 0.0, 0.0, 0.0, 0.0, 1.700951104958415E9, 0.0, 2023-11-25 17:25:04.958
35.0, 51291.7549957937, 67445.9195072555, 9070.248492985786, -7229.5823370912485, 22988.612710072128, -31232.56191403412, 19242.61680157385, 16306.402242946893, -0.02, 0.982, 0.14400000000000002, 192.0, 0.0, 0.0, 0.0, 0.0, 0.0, 0.0, 0.0, 0.0, 0.0, 1.700951104963483E9, 0.0, 2023-11-25 17:25:04.963
36.0, 51311.93862103685, 67454.56963235971, 9085.13475479302, -7218.920554986067, 23041.139309542097, -31165.84195683503, 19255.11142672437, 16331.816176392578, -0.02, 0.982, 0.14400000000000002, 192.0, 0.0, 0.0, 0.0, 0.0, 0.0, 0.0, 0.0, 0.0, 0.0, 1.700951104968719E9, 0.0, 2023-11-25 17:25:04.968
37.0, 51266.542228048114, 67404.27820733526, 9062.26892021524, -7257.969052549488, 23053.119844570145, -31055.446690970268, 19239.733426539115, 16348.80350217861, -0.012, 0.98, 0.14400000000000002, 192.0, 255.0, 160.0, 30.0, 160.0, 4.0, 128.0, 0.0, 0.0, 0.0, 1.700951104970714E9, 0.0, 2023-11-25 17:25:04.970
38.0, 51251.56655926306, 67409.53086728226, 9060.972519036832, -7255.577415892771, 22982.51068383583, -31304.802752113672, 19236.268906148543, 16292.208885217773, -0.012, 0.98, 0.14400000000000002, 192.0, 0.0, 0.0, 0.0, 0.0, 0.0, 0.0, 0.0, 0.0, 0.0, 1.70095110497446E9, 0.0, 2023-11-25 17:25:04.974
39.0, 51278.56746656507, 67440.95741998643, 9066.336937706106, -7236.086694727743, 22982.801256513747, -31227.644530253954, 19236.55947882646, 16300.769603344155, -0.012, 0.98, 0.14400000000000002, 192.0, 0.0, 0.0, 0.0, 0.0, 0.0, 0.0, 0.0, 0.0, 0.0, 1.700951104978437E9, 0.0, 2023-11-25 17:25:04.978
40.0, 51313.2126704708, 67468.09243775517, 9091.572057196148, -7214.606668306193, 23026.923600068523, -31198.11787582849, 19256.81015930297, 16315.65586515139, -0.012, 0.98, 0.14400000000000002, 192.0, 0.0, 0.0, 0.0, 0.0, 0.0, 0.0, 0.0, 0.0, 0.0, 1.700951104982471E9, 0.0, 2023-11-25 17:25:04.982
41.0, 51272.62190253996, 67415.43172781846, 9073.668309887447, -7251.084715257253, 23069.526025000338, -31023.707213843732, 19250.685781322216, 16366.126104131474, -0.012, 0.98, 0.14400000000000002, 192.0, 0.0, 0.0, 0.0, 0.0, 0.0, 0.0, 0.0, 0.0, 0.0, 1.700951104986438E9, 0.0, 2023-11-25 17:25:04.986
42.0, 51248.50437027268, 67412.660111506, 9071.299024975184, -7258.10316301622, 22992.30074790725, -31280.551109379663, 19250.506967366575, 16309.464431937271, -0.012, 0.98, 0.14400000000000002, 192.0, 0.0, 0.0, 0.0, 0.0, 0.0, 0.0, 0.0, 0.0, 0.0, 1.700951104991425E9, 0.0, 2023-11-25 17:25:04.991
43.0, 51271.9513502063, 67435.83887050615, 9074.897655832488, -7240.825264552268, 22992.345451396162, -31228.426841309887, 19252.47392087864, 16321.489670454226, -0.012, 0.98, 0.14400000000000002, 192.0, 0.0, 0.0, 0.0, 0.0, 0.0, 0.0, 0.0, 0.0, 0.0, 1.700951104994456E9, 0.0, 2023-11-25 17:25:04.994
44.0, 51312.31860069258, 67467.53364414378, 9101.831507901134, -7212.483252582938, 23018.899323809066, -31223.37534706299, 19267.62840361934, 16322.98723733273, -0.012, 0.98, 0.14400000000000002, 192.0, 0.0, 0.0, 0.0, 0.0, 0.0, 0.0, 0.0, 0.0, 0.0, 1.700951104997505E9, 0.0, 2023-11-25 17:25:04.997
45.0, 51279.260370643184, 67415.1188033961, 9089.023958328242, -7242.658107597603, 23083.13823737362, -31021.919074287307, 19260.72171458265, 16374.619767024491, -0.012, 0.98, 0.14400000000000002, 192.0, 0.0, 0.0, 0.0, 0.0, 0.0, 0.0, 0.0, 0.0, 0.0, 1.700951105001508E9, 0.0, 2023-11-25 17:25:05.001
46.0, 51241.68708821382, 67400.0090241443, 9077.736327378312, -7257.38790719365, 23006.292939936273, -31247.939914219372, 19246.371894642343, 16311.252571493695, -0.012, 0.98, 0.14400000000000002, 192.0, 0.0, 0.0, 0.0, 0.0, 0.0, 0.0, 0.0, 0.0, 0.0, 1.700951105006522E9, 0.0, 2023-11-25 17:25:05.006
47.0, 51258.4956000442, 67423.70187326692, 9079.345652979095, -7237.316040672785, 23001.532018367296, -31243.782489750683, 19254.70909532417, 16322.271981510161, -0.01, 0.978, 0.14, 192.0, 255.0, 176.0, 30.0, 144.0, 4.0, 96.0, 0.0, 0.0, 0.0, 1.700951105010876E9, 0.0, 2023-11-25 17:25:05.010
48.0, 51301.857984287504, 67465.70080109844, 9094.27661827524, -7213.377322361151, 23011.07621324971, -31241.41320483842, 19266.24259546311, 16315.231182006739, -0.01, 0.978, 0.14, 192.0, 0.0, 0.0, 0.0, 0.0, 0.0, 0.0, 0.0, 0.0, 0.0, 1.700951105014655E9, 0.0, 2023-11-25 17:25:05.014
49.0, 51285.58591432404, 67433.64839954954, 9086.609969927069, -7234.276203426863, 23084.99343216341, -31048.00356006665, 19267.226072219142, 16368.897720443932, -0.01, 0.978, 0.14, 192.0, 0.0, 0.0, 0.0, 0.0, 0.0, 0.0, 0.0, 0.0, 0.0, 1.700951105018633E9, 0.0, 2023-11-25 17:25:05.018
50.0, 51244.07872487053, 67408.23446610385, 9067.543931906692, -7260.763020606401, 23017.513515652838, -31198.207282806314, 19248.629420832327, 16325.37887398945, -0.01, 0.978, 0.14, 192.0, 0.0, 0.0, 0.0, 0.0, 0.0, 0.0, 0.0, 0.0, 0.0, 1.700951105022599E9, 0.0, 2023-11-25 17:25:05.022
51.0, 51254.51698953116, 67428.79807100273, 9068.862684829555, -7241.898148286123, 22998.849809032658, -31263.18380393789, 19254.373819157343, 16322.13787104343, -0.01, 0.978, 0.14, 192.0, 0.0, 0.0, 0.0, 0.0, 0.0, 0.0, 0.0, 0.0, 0.0, 1.700951105025609E9, 0.0, 2023-11-25 17:25:05.025
52.0, 51296.113585962485, 67466.79603657675, 9086.364100738061, -7211.499775826905, 23002.381384656597, -31236.13819314697, 19264.834435562425, 16317.667522152367, -0.01, 0.978, 0.14, 192.0, 0.0, 0.0, 0.0, 0.0, 0.0, 0.0, 0.0, 0.0, 0.0, 1.700951105029599E9, 0.0, 2023-11-25 17:25:05.029
53.0, 51287.26229515819, 67437.4705478514, 9090.543876951204, -7217.288877640829, 23080.388972805617, -31073.618659212432, 19270.66824086526, 16370.708211744812, -0.01, 0.978, 0.14, 192.0, 0.0, 0.0, 0.0, 0.0, 0.0, 0.0, 0.0, 0.0, 0.0, 1.700951105034812E9, 0.0, 2023-11-25 17:25:05.034
54.0, 51246.38095454943, 67400.6572247335, 9077.110478533565, -7244.401543665117, 23043.061559565256, -31133.431927374833, 19251.66925807825, 16342.701475942313, -0.01, 0.978, 0.14, 192.0, 0.0, 0.0, 0.0, 0.0, 0.0, 0.0, 0.0, 0.0, 0.0, 1.700951105038616E9, 0.0, 2023-11-25 17:25:05.038
55.0, 51258.652062255394, 67424.59594304513, 9087.146411793998, -7223.167386432575, 23011.433841160997, -31269.643458085473, 19258.732409326127, 16326.407054234392, -0.01, 0.978, 0.14, 192.0, 0.0, 0.0, 0.0, 0.0, 0.0, 0.0, 0.0, 0.0, 0.0, 1.700951105042666E9, 0.0, 2023-11-25 17:25:05.042
56.0, 51300.27101043118, 67464.58321387568, 9096.109461320575, -7200.502717554894, 23005.60003585816, -31214.54640800314, 19259.17944421523, 16326.787033890134, -0.01, 0.978, 0.14, 192.0, 0.0, 0.0, 0.0, 0.0, 0.0, 0.0, 0.0, 0.0, 0.0, 1.700951105046646E9, 0.0, 2023-11-25 17:25:05.046
57.0, 51314.084388504554, 67459.66583009552, 9108.313513793173, -7198.289894853819, 23070.8447779232, -31107.50390380668, 19273.216339733164, 16365.924938431375, -0.01, 0.982, 0.14200000000000002, 192.0, 255.0, 176.0, 30.0, 176.0, 4.0, 112.0, 0.0, 0.0, 0.0, 1.700951105049738E9, 0.0, 2023-11-25 17:25:05.049
58.0, 51267.70451875979, 67409.15088762651, 9088.129888550031, -7236.824302294768, 23059.08776033971, -31067.941316120785, 19256.76545581406, 16363.622708752479, -0.01, 0.982, 0.14200000000000002, 192.0, 0.0, 0.0, 0.0, 0.0, 0.0, 0.0, 0.0, 0.0, 0.0, 1.700951105053715E9, 0.0, 2023-11-25 17:25:05.053
59.0, 51260.57431227855, 67420.99731218783, 9091.08031881813, -7229.425874880061, 22998.961567754934, -31285.312030948644, 19257.95009827019, 16321.892001854421, -0.01, 0.982, 0.14200000000000002, 192.0, 0.0, 0.0, 0.0, 0.0, 0.0, 0.0, 0.0, 0.0, 0.0, 1.700951105057712E9, 0.0, 2023-11-25 17:25:05.057
60.0, 51289.38571088144, 67451.48509162487, 9089.873324617545, -7219.121720686165, 22985.37170712611, -31216.4686580263, 19255.871386035848, 16322.942533843821, -0.01, 0.982, 0.14200000000000002, 192.0, 0.0, 0.0, 0.0, 0.0, 0.0, 0.0, 0.0, 0.0, 0.0, 1.700951105062798E9, 0.0, 2023-11-25 17:25:05.062
61.0, 51321.12518800798, 67471.84753082365, 9110.347522538606, -7204.056644923287, 23037.808899618256, -31167.31717196908, 19270.802351331993, 16342.030923608652, -0.01, 0.982, 0.14200000000000002, 192.0, 0.0, 0.0, 0.0, 0.0, 0.0, 0.0, 0.0, 0.0, 0.0, 1.700951105066788E9, 0.0, 2023-11-25 17:25:05.066
62.0, 51282.702539289305, 67426.42878609047, 9093.494307219304, -7238.143055217631, 23065.122731342643, -31037.028853539094, 19259.782941315527, 16374.172732135385, -0.01, 0.982, 0.14200000000000002, 192.0, 0.0, 0.0, 0.0, 0.0, 0.0, 0.0, 0.0, 0.0, 0.0, 1.700951105070775E9, 0.0, 2023-11-25 17:25:05.070
63.0, 51255.88044594294, 67419.87972496507, 9085.51473444876, -7243.820398309279, 22987.897454249556, -31293.939804308393, 19250.641077833305, 16316.61699016297, -0.01, 0.982, 0.14200000000000002, 192.0, 0.0, 0.0, 0.0, 0.0, 0.0, 0.0, 0.0, 0.0, 0.0, 1.700951105074784E9, 0.0, 2023-11-25 17:25:05.074
64.0, 51291.799699282616, 67457.52006262781, 9099.261057288773, -7212.5056043273935, 22998.045146232267, -31223.867085441005, 19262.308688438974, 16331.346789759016, -0.01, 0.982, 0.14200000000000002, 192.0, 0.0, 0.0, 0.0, 0.0, 0.0, 0.0, 0.0, 0.0, 0.0, 1.700951105077804E9, 0.0, 2023-11-25 17:25:05.077
65.0, 51322.82392058658, 67482.39755420656, 9118.885888920533, -7187.47165053745, 23037.853603107167, -31196.307384527612, 19279.81010434748, 16340.578060219057, -0.01, 0.982, 0.14200000000000002, 192.0, 0.0, 0.0, 0.0, 0.0, 0.0, 0.0, 0.0, 0.0, 0.0, 1.700951105081824E9, 0.0, 2023-11-25 17:25:05.081
66.0, 51287.68697830284, 67435.95062922843, 9100.289237533718, -7217.825319507757, 23092.928301445045, -31007.99393749165, 19275.76443860107, 16386.4661915858, -0.01, 0.982, 0.14200000000000002, 192.0, 0.0, 0.0, 0.0, 0.0, 0.0, 0.0, 0.0, 0.0, 0.0, 1.700951105085903E9, 0.0, 2023-11-25 17:25:05.085
67.0, 51255.88044594294, 67425.28884712326, 9086.185286782418, -7233.806816793302, 23005.532980624794, -31269.151719707457, 19265.61674661836, 16319.7015308978, -0.004, 0.986, 0.138, 192.0, 255.0, 224.0, 30.0, 208.0, 4.0, 80.0, 0.0, 0.0, 0.0, 1.700951105090791E9, 0.0, 2023-11-25 17:25:05.090
68.0, 51278.232190398245, 67451.32862941368, 9082.31843499165, -7220.61928756467, 22994.088887463677, -31232.60661752303, 19265.90731929628, 16321.869650109966, -0.004, 0.986, 0.138, 192.0, 0.0, 0.0, 0.0, 0.0, 0.0, 0.0, 0.0, 0.0, 0.0, 1.700951105094805E9, 0.0, 2023-11-25 17:25:05.094
69.0, 51316.85600481701, 67486.64438565307, 9094.522487464248, -7201.240325121918, 23006.851733547657, -31234.819440224106, 19276.25617697909, 16315.119423284463, -0.004, 0.986, 0.138, 192.0, 0.0, 0.0, 0.0, 0.0, 0.0, 0.0, 0.0, 0.0, 0.0, 1.700951105098793E9, 0.0, 2023-11-25 17:25:05.098
70.0, 51285.04947245711, 67443.99725723235, 9079.926798334933, -7227.123645201164, 23078.8467024382, -31027.596417378954, 19278.178427002244, 16373.47982805727, -0.004, 0.986, 0.138, 192.0, 0.0, 0.0, 0.0, 0.0, 0.0, 0.0, 0.0, 0.0, 0.0, 1.700951105102894E9, 0.0, 2023-11-25 17:25:05.102
71.0, 51245.3974777934, 67423.52305931128, 9063.274748715728, -7244.8485785542225, 22999.69917532196, -31237.099318158547, 19266.488464652117, 16317.175783774352, -0.004, 0.986, 0.138, 192.0, 0.0, 0.0, 0.0, 0.0, 0.0, 0.0, 0.0, 0.0, 0.0, 1.700951105105889E9, 0.0, 2023-11-25 17:25:05.105
72.0, 51264.95525419179, 67442.164414187, 9063.252396971273, -7224.955525988999, 22990.40084962855, -31244.74361476226, 19273.86454032237, 16327.390530990426, -0.004, 0.986, 0.138, 192.0, 0.0, 0.0, 0.0, 0.0, 0.0, 0.0, 0.0, 0.0, 0.0, 1.700951105109879E9, 0.0, 2023-11-25 17:25:05.109
73.0, 51310.35164718052, 67480.18473150549, 9082.474897202837, -7195.920609941556, 23000.906169522546, -31234.394757079455, 19289.53311318554, 16325.75885364519, -0.004, 0.986, 0.138, 192.0, 0.0, 0.0, 0.0, 0.0, 0.0, 0.0, 0.0, 0.0, 0.0, 1.700951105113849E9, 0.0, 2023-11-25 17:25:05.113
74.0, 51300.56158310909, 67448.73582705687, 9083.525429192237, -7207.409406591583, 23086.021612408356, -31035.15130700485, 19297.758555145094, 16388.656662542424, -0.004, 0.986, 0.138, 192.0, 0.0, 0.0, 0.0, 0.0, 0.0, 0.0, 0.0, 0.0, 0.0, 1.700951105117977E9, 0.0, 2023-11-25 17:25:05.117
75.0, 51259.25555935569, 67415.07409990717, 9064.213521982852, -7232.823340037267, 23025.448384934472, -31165.909012068394, 19281.19591250371, 16345.718961443778, -0.004, 0.986, 0.138, 192.0, 0.0, 0.0, 0.0, 0.0, 0.0, 0.0, 0.0, 0.0, 0.0, 1.700951105122968E9, 0.0, 2023-11-25 17:25:05.122
76.0, 51274.7006147743, 67433.916620483, 9064.928777805422, -7215.031351450843, 23003.27545443481, -31248.319893875112, 19284.86159859438, 16336.890022383932, -0.004, 0.986, 0.138, 192.0, 0.0, 0.0, 0.0, 0.0, 0.0, 0.0, 0.0, 0.0, 0.0, 1.700951105126942E9, 0.0, 2023-11-25 17:25:05.126
77.0, 51321.52751940817, 67476.60845239264, 9078.451583200882, -7186.287008081318, 23005.488277135883, -31219.620253994497, 19291.030680064046, 16331.145624058918, -0.006, 0.984, 0.14200000000000002, 192.0, 255.0, 208.0, 30.0, 192.0, 4.0, 112.0, 0.0, 0.0, 0.0, 1.700951105130986E9, 0.0, 2023-11-25 17:25:05.130
78.0, 51331.02701080168, 67464.13617898658, 9083.927760592433, -7187.046967392799, 23086.89333044211, -31065.32616201951, 19297.222113278167, 16377.413735081404, -0.006, 0.984, 0.14200000000000002, 192.0, 0.0, 0.0, 0.0, 0.0, 0.0, 0.0, 0.0, 0.0, 0.0, 1.700951105133961E9, 0.0, 2023-11-25 17:25:05.133
79.0, 51294.32544640607, 67427.68048377997, 9056.390411423494, -7224.910822500089, 23048.358923001164, -31105.87222646144, 19269.125970497844, 16345.830720166055, -0.006, 0.984, 0.14200000000000002, 192.0, 0.0, 0.0, 0.0, 0.0, 0.0, 0.0, 0.0, 0.0, 0.0, 1.700951105138101E9, 0.0, 2023-11-25 17:25:05.138
80.0, 51303.757882566206, 67447.52883285629, 9054.870492800534, -7213.623191550159, 23007.45523064795, -31275.05258024366, 19267.449589663698, 16312.79484186111, -0.006, 0.984, 0.14200000000000002, 192.0, 0.0, 0.0, 0.0, 0.0, 0.0, 0.0, 0.0, 0.0, 0.0, 1.700951105141982E9, 0.0, 2023-11-25 17:25:05.141
81.0, 51344.013374330214, 67488.25371125386, 9059.22908296932, -7193.953656429489, 23002.806067801248, -31225.85639069753, 19264.454455906685, 16304.032958034632, -0.006, 0.984, 0.14200000000000002, 192.0, 0.0, 0.0, 0.0, 0.0, 0.0, 0.0, 0.0, 0.0, 0.0, 1.700951105146008E9, 0.0, 2023-11-25 17:25:05.146
82.0, 51363.61585421752, 67490.08655429918, 9069.734402863312, -7188.030444148832, 23070.889481412112, -31128.313377894567, 19275.71973511216, 16339.683990440846, -0.006, 0.984, 0.14200000000000002, 192.0, 0.0, 0.0, 0.0, 0.0, 0.0, 0.0, 0.0, 0.0, 0.0, 1.700951105151035E9, 0.0, 2023-11-25 17:25:05.151
83.0, 51325.43907468785, 67444.6231060771, 9046.689754329891, -7225.916651000578, 23070.75537094538, -31067.3825225094, 19254.753798813083, 16340.823929408067, -0.006, 0.984, 0.14200000000000002, 192.0, 0.0, 0.0, 0.0, 0.0, 0.0, 0.0, 0.0, 0.0, 0.0, 1.700951105155015E9, 0.0, 2023-11-25 17:25:05.155
84.0, 51320.58874614105, 67454.63668759307, 9048.679059586413, -7216.752435773902, 23014.808954573746, -31296.39849619848, 19255.647868591295, 16292.432402662327, -0.006, 0.984, 0.14200000000000002, 192.0, 0.0, 0.0, 0.0, 0.0, 0.0, 0.0, 0.0, 0.0, 0.0, 1.700951105158021E9, 0.0, 2023-11-25 17:25:05.158
85.0, 51358.0726215926, 67484.11863852962, 9053.395277666483, -7196.278237852841, 23017.044129019276, -31227.33160583158, 19260.81112156047, 16300.389623688416, -0.006, 0.984, 0.14200000000000002, 192.0, 0.0, 0.0, 0.0, 0.0, 0.0, 0.0, 0.0, 0.0, 0.0, 1.700951105161058E9, 0.0, 2023-11-25 17:25:05.161
86.0, 51385.69937773936, 67495.8309526242, 9068.661519129459, -7183.895371424601, 23066.061504609766, -31175.36379997299, 19273.86454032237, 16319.142737286418, -0.006, 0.984, 0.14200000000000002, 192.0, 0.0, 0.0, 0.0, 0.0, 0.0, 0.0, 0.0, 0.0, 0.0, 1.700951105166108E9, 0.0, 2023-11-25 17:25:05.166
87.0, 51346.82969413158, 67438.3646176296, 9039.760713548745, -7229.314116157784, 23088.457952553985, -31032.4243941813, 19249.90347026628, 16342.768531175678, -0.004, 0.976, 0.14200000000000002, 192.0, 255.0, 224.0, 30.0, 128.0, 4.0, 112.0, 0.0, 0.0, 0.0, 1.700951105170124E9, 0.0, 2023-11-25 17:25:05.170
88.0, 51331.58580441306, 67437.24703040684, 9035.938565246888, -7229.694095813525, 23011.612655116638, -31296.040868287193, 19241.007475973067, 16281.927082768332, -0.004, 0.976, 0.14200000000000002, 192.0, 0.0, 0.0, 0.0, 0.0, 0.0, 0.0, 0.0, 0.0, 0.0, 1.700951105174136E9, 0.0, 2023-11-25 17:25:05.174
89.0, 51359.63724370447, 67462.83977780817, 9040.07363797112, -7210.80687174879, 23010.69623359397, -31226.862219198018, 19244.42729287473, 16297.014510275665, -0.004, 0.976, 0.14200000000000002, 192.0, 0.0, 0.0, 0.0, 0.0, 0.0, 0.0, 0.0, 0.0, 0.0, 1.700951105178163E9, 0.0, 2023-11-25 17:25:05.178
90.0, 51400.11625291303, 67493.30520550076, 9062.023051026232, -7187.918685426555, 23044.648533421583, -31211.84184692405, 19260.25232794909, 16307.966865058765, -0.004, 0.976, 0.14200000000000002, 192.0, 0.0, 0.0, 0.0, 0.0, 0.0, 0.0, 0.0, 0.0, 0.0, 1.700951105183214E9, 0.0, 2023-11-25 17:25:05.183
91.0, 51374.72467121181, 67449.00404799033, 9048.634356097504, -7219.322886386262, 23106.13818241813, -31012.486638127168, 19254.932612768724, 16361.789865707144, -0.004, 0.976, 0.14200000000000002, 192.0, 0.0, 0.0, 0.0, 0.0, 0.0, 0.0, 0.0, 0.0, 0.0, 1.700951105186092E9, 0.0, 2023-11-25 17:25:05.186
92.0, 51345.2203685308, 67438.09639669614, 9035.178605935407, -7234.902052271611, 23019.480469164904, -31267.162414450937, 19243.13089169632, 16295.002853274687, -0.004, 0.976, 0.14200000000000002, 192.0, 0.0, 0.0, 0.0, 0.0, 0.0, 0.0, 0.0, 0.0, 0.0, 1.700951105190123E9, 0.0, 2023-11-25 17:25:05.190
93.0, 51369.65082522045, 67468.24889996635, 9041.682963571902, -7211.030389193344, 23016.619445874625, -31232.874838456493, 19252.85390053438, 16314.515926184169, -0.004, 0.976, 0.14200000000000002, 192.0, 0.0, 0.0, 0.0, 0.0, 0.0, 0.0, 0.0, 0.0, 0.0, 1.700951105194124E9, 0.0, 2023-11-25 17:25:05.194
94.0, 51408.43110185041, 67500.41306023754, 9063.252396971273, -7184.543572013805, 23032.84681234918, -31227.08573664257, 19263.694496595206, 16317.42165296336, -0.004, 0.976, 0.14200000000000002, 192.0, 0.0, 0.0, 0.0, 0.0, 0.0, 0.0, 0.0, 0.0, 0.0, 1.700951105198236E9, 0.0, 2023-11-25 17:25:05.198
95.0, 51387.64397950697, 67460.8728242961, 9059.609062625059, -7205.33069435724, 23112.016691209876, -31012.91132127182, 19264.365048928863, 16381.52645606118, -0.004, 0.976, 0.14200000000000002, 192.0, 0.0, 0.0, 0.0, 0.0, 0.0, 0.0, 0.0, 0.0, 0.0, 1.700951105202288E9, 0.0, 2023-11-25 17:25:05.202
96.0, 51345.37683074198, 67440.93506824196, 9045.84038804059, -7227.5930318347255, 23035.573725172726, -31213.093544613548, 19247.601240587384, 16324.842432122521, -0.004, 0.976, 0.14200000000000002, 192.0, 0.0, 0.0, 0.0, 0.0, 0.0, 0.0, 0.0, 0.0, 0.0, 1.700951105206247E9, 0.0, 2023-11-25 17:25:05.206
97.0, 51358.67611869289, 67460.93987952947, 9052.74707707728, -7207.230592635941, 23024.911943067546, -31238.462774570322, 19258.218319203654, 16334.073702582564, -0.004, 0.98, 0.14200000000000002, 192.0, 255.0, 224.0, 30.0, 160.0, 4.0, 112.0, 0.0, 0.0, 0.0, 1.700951105210266E9, 0.0, 2023-11-25 17:25:05.210
98.0, 51398.03754067869, 67497.39557473607, 9069.309719718662, -7182.107231868176, 23026.633027390602, -31230.3714430775, 19265.683801851726, 16327.99402809072, -0.004, 0.98, 0.14200000000000002, 192.0, 0.0, 0.0, 0.0, 0.0, 0.0, 0.0, 0.0, 0.0, 0.0, 1.700951105214748E9, 0.0, 2023-11-25 17:25:05.214
99.0, 51386.90637193994, 67465.7231528429, 9068.013318540254, -7198.111080898176, 23105.042946939822, -31036.917094816818, 19266.15318848529, 16388.656662542424, -0.004, 0.98, 0.14200000000000002, 192.0, 0.0, 0.0, 0.0, 0.0, 0.0, 0.0, 0.0, 0.0, 0.0, 1.700951105217538E9, 0.0, 2023-11-25 17:25:05.217
100.0, 51341.912310351414, 67429.62508554758, 9045.862739785045, -7233.091560970732, 23041.876917109123, -31153.950828784804, 19238.61583931635, 16338.767568918178, -0.004, 0.98, 0.14200000000000002, 192.0, 0.0, 0.0, 0.0, 0.0, 0.0, 0.0, 0.0, 0.0, 0.0, 1.700951105222192E9, 0.0, 2023-11-25 17:25:05.222
101.0, 51354.33988026856, 67449.89811776855, 9052.300042188173, -7214.986647961932, 23015.635969118593, -31256.52298409021, 19244.24847891909, 16325.937667600832, -0.004, 0.98, 0.14200000000000002, 192.0, 0.0, 0.0, 0.0, 0.0, 0.0, 0.0, 0.0, 0.0, 0.0, 1.700951105226226E9, 0.0, 2023-11-25 17:25:05.226
102.0, 51394.774185988215, 67489.12542928761, 9063.945301049389, -7194.4230430630505, 23011.523248138816, -31226.88457094247, 19248.741179554603, 16321.892001854421, -0.004, 0.98, 0.14200000000000002, 192.0, 0.0, 0.0, 0.0, 0.0, 0.0, 0.0, 0.0, 0.0, 0.0, 1.70095110523027E9, 0.0, 2023-11-25 17:25:05.230
103.0, 51403.06668318113, 67476.51904541481, 9071.32137671964, -7199.7651099878685, 23086.446295553007, -31086.649726229876, 19256.877214536336, 16370.819970467088, -0.004, 0.98, 0.14200000000000002, 192.0, 0.0, 0.0, 0.0, 0.0, 0.0, 0.0, 0.0, 0.0, 0.0, 1.700951105234272E9, 0.0, 2023-11-25 17:25:05.234
104.0, 51355.63628144697, 67433.73780652735, 9044.164007206442, -7241.607575608204, 23050.594097446694, -31106.83335147302, 19225.160089154255, 16345.249574810217, -0.004, 0.98, 0.14200000000000002, 192.0, 0.0, 0.0, 0.0, 0.0, 0.0, 0.0, 0.0, 0.0, 0.0, 1.700951105238213E9, 0.0, 2023-11-25 17:25:05.238
105.0, 51353.669327934906, 67449.2722689238, 9045.683925829402, -7231.772808047868, 23002.98488175689, -31292.933975807904, 19222.47787981962, 16307.22925749174, -0.004, 0.98, 0.14200000000000002, 192.0, 0.0, 0.0, 0.0, 0.0, 0.0, 0.0, 0.0, 0.0, 0.0, 1.700951105242235E9, 0.0, 2023-11-25 17:25:05.242
106.0, 51394.68477901039, 67492.16526653353, 9059.676117858424, -7203.833127478734, 23005.197704457965, -31236.495821058255, 19231.575039812928, 16312.951304072298, -0.004, 0.98, 0.14200000000000002, 192.0, 0.0, 0.0, 0.0, 0.0, 0.0, 0.0, 0.0, 0.0, 0.0, 1.700951105245257E9, 0.0, 2023-11-25 17:25:05.245
107.0, 51417.416503121436, 67501.68710967149, 9079.725632634834, -7191.986702917422, 23076.56682450376, -31145.904200780893, 19249.18821444371, 16347.082417855552, -0.004, 0.982, 0.14200000000000002, 192.0, 255.0, 224.0, 30.0, 176.0, 4.0, 112.0, 0.0, 0.0, 0.0, 1.700951105250709E9, 0.0, 2023-11-25 17:25:05.250
108.0, 51373.96471190032, 67455.12842597108, 9059.385545180505, -7229.314116157784, 23081.9982984064, -31061.883993373394, 19228.33403686691, 16356.961888904798, -0.004, 0.982, 0.14200000000000002, 192.0, 0.0, 0.0, 0.0, 0.0, 0.0, 0.0, 0.0, 0.0, 0.0, 1.700951105254278E9, 0.0, 2023-11-25 17:25:05.254
109.0, 51360.53131348269, 67460.98458301838, 9056.41276316795, -7228.487101612938, 23008.7292800819, -31302.47817069032, 19221.293237363487, 16300.65784462188, -0.004, 0.982, 0.14200000000000002, 192.0, 0.0, 0.0, 0.0, 0.0, 0.0, 0.0, 0.0, 0.0, 0.0, 1.700951105258509E9, 0.0, 2023-11-25 17:25:05.258
110.0, 51397.54580230067, 67499.72015615943, 9065.889902817, -7205.911839713078, 23008.908094037546, -31232.740727989763, 19233.09495843589, 16315.36529247347, -0.004, 0.982, 0.14200000000000002, 192.0, 0.0, 0.0, 0.0, 0.0, 0.0, 0.0, 0.0, 0.0, 0.0, 1.700951105262464E9, 0.0, 2023-11-25 17:25:05.262
111.0, 51430.31345967215, 67521.02136862533, 9087.951074594388, -7188.119851126654, 23057.836062650214, -31187.769018145686, 19259.693534337704, 16344.556670732103, -0.004, 0.982, 0.14200000000000002, 192.0, 0.0, 0.0, 0.0, 0.0, 0.0, 0.0, 0.0, 0.0, 0.0, 1.700951105268466E9, 0.0, 2023-11-25 17:25:05.268
112.0, 51389.18624987439, 67465.25376620934, 9064.146466749486, -7229.492930113427, 23089.32967058774, -31025.80827782253, 19248.562365598962, 16380.364165349505, -0.004, 0.982, 0.14200000000000002, 192.0, 0.0, 0.0, 0.0, 0.0, 0.0, 0.0, 0.0, 0.0, 0.0, 1.700951105269737E9, 0.0, 2023-11-25 17:25:05.269
113.0, 51364.30875829563, 67458.99527776186, 9058.156199235464, -7233.71740981548, 23008.7292800819, -31286.496673404778, 19243.443816118695, 16320.573248931558, -0.004, 0.982, 0.14200000000000002, 192.0, 0.0, 0.0, 0.0, 0.0, 0.0, 0.0, 0.0, 0.0, 0.0, 1.700951105273353E9, 0.0, 2023-11-25 17:25:05.273
114.0, 51397.32228485612, 67491.22649326641, 9072.08133603112, -7204.928362957045, 23015.814783074235, -31219.776716205684, 19260.22997620463, 16345.048409110119, -0.004, 0.982, 0.14200000000000002, 192.0, 0.0, 0.0, 0.0, 0.0, 0.0, 0.0, 0.0, 0.0, 0.0, 1.700951105278391E9, 0.0, 2023-11-25 17:25:05.278
115.0, 51433.10742772907, 67514.91934238904, 9092.8461066301, -7182.151935357087, 23043.486242709907, -31202.565872975098, 19274.62449963385, 16353.206795836306, -0.004, 0.982, 0.14200000000000002, 192.0, 0.0, 0.0, 0.0, 0.0, 0.0, 0.0, 0.0, 0.0, 0.0, 1.70095110528238E9, 0.0, 2023-11-25 17:25:05.282
116.0, 51396.98700868929, 67461.83394930768, 9077.624568656036, -7214.338447372729, 23102.450144583006, -30998.89677749834, 19265.504987896085, 16403.431165627382, -0.004, 0.982, 0.14200000000000002, 192.0, 0.0, 0.0, 0.0, 0.0, 0.0, 0.0, 0.0, 0.0, 0.0, 1.700951105286573E9, 0.0, 2023-11-25 17:25:05.286
117.0, 51359.9725198713, 67446.47830086689, 9068.058022029165, -7222.42977886555, 23020.240428476387, -31239.937989704373, 19256.0949034804, 16344.601374221013, -0.006, 0.986, 0.14400000000000002, 192.0, 255.0, 208.0, 30.0, 208.0, 4.0, 128.0, 0.0, 0.0, 0.0, 1.700951105290485E9, 0.0, 2023-11-25 17:25:05.290
118.0, 51388.64980800746, 67481.74935361736, 9079.390356468006, -7188.566886015759, 23024.867239578634, -31210.143114345447, 19272.411676932774, 16361.946327918331, -0.006, 0.986, 0.14400000000000002, 192.0, 0.0, 0.0, 0.0, 0.0, 0.0, 0.0, 0.0, 0.0, 0.0, 1.700951105294408E9, 0.0, 2023-11-25 17:25:05.294
119.0, 51426.9383462594, 67516.8415924122, 9093.740176408313, -7166.237493304908, 23035.998408317377, -31207.37149803299, 19284.123991027354, 16358.593566250036, -0.006, 0.986, 0.14400000000000002, 192.0, 0.0, 0.0, 0.0, 0.0, 0.0, 0.0, 0.0, 0.0, 0.0, 1.70095110529745E9, 0.0, 2023-11-25 17:25:05.297
120.0, 51398.350465101066, 67469.61235637813, 9073.757716865268, -7202.737892000425, 23104.14887716161, -31002.89773975584, 19274.892720567314, 16416.708101833832, -0.006, 0.986, 0.14400000000000002, 192.0, 0.0, 0.0, 0.0, 0.0, 0.0, 0.0, 0.0, 0.0, 0.0, 1.700951105301503E9, 0.0, 2023-11-25 17:25:05.301
121.0, 51360.77718267169, 67446.85828052262, 9053.708202088857, -7229.157653946598, 23030.522230925828, -31196.59795720553, 19249.18821444371, 16356.336040060049, -0.006, 0.986, 0.14400000000000002, 192.0, 0.0, 0.0, 0.0, 0.0, 0.0, 0.0, 0.0, 0.0, 0.0, 1.700951105305929E9, 0.0, 2023-11-25 17:25:05.305
122.0, 51384.44768004986, 67476.69785937046, 9062.69360335989, -7208.459938580983, 23025.291922723285, -31237.769870492208, 19253.256231934578, 16356.134874359952, -0.006, 0.986, 0.14400000000000002, 192.0, 0.0, 0.0, 0.0, 0.0, 0.0, 0.0, 0.0, 0.0, 0.0, 1.700951105309444E9, 0.0, 2023-11-25 17:25:05.309
123.0, 51428.70413407137, 67518.71913894644, 9076.909312833466, -7186.80109820379, 23026.811841346247, -31228.873876198995, 19253.367990656854, 16342.410903264394, -0.006, 0.986, 0.14400000000000002, 192.0, 0.0, 0.0, 0.0, 0.0, 0.0, 0.0, 0.0, 0.0, 0.0, 1.700951105314476E9, 0.0, 2023-11-25 17:25:05.314
124.0, 51423.22795667982, 67491.40530722206, 9075.456449443871, -7205.375397846151, 23104.305339372797, -31050.57401067901, 19251.982182500626, 16391.405927110427, -0.006, 0.986, 0.14400000000000002, 192.0, 0.0, 0.0, 0.0, 0.0, 0.0, 0.0, 0.0, 0.0, 0.0, 1.700951105319438E9, 0.0, 2023-11-25 17:25:05.319
125.0, 51379.35148231405, 67454.59198410416, 9052.925891032923, -7243.753343075913, 23045.900231111078, -31151.425081661357, 19220.75679549656, 16342.723827686767, -0.006, 0.986, 0.14400000000000002, 192.0, 0.0, 0.0, 0.0, 0.0, 0.0, 0.0, 0.0, 0.0, 0.0, 1.700951105323448E9, 0.0, 2023-11-25 17:25:05.323
126.0, 51390.90733419744, 67476.4743419259, 9062.425382426427, -7224.106159699698, 23020.03926277629, -31276.05840874415, 19225.65182753227, 16324.976542589253, -0.006, 0.986, 0.14400000000000002, 192.0, 0.0, 0.0, 0.0, 0.0, 0.0, 0.0, 0.0, 0.0, 0.0, 1.700951105326473E9, 0.0, 2023-11-25 17:25:05.326
127.0, 51432.61568935105, 67519.61320872465, 9080.79851636869, -7193.1936971180085, 23023.883762822603, -31238.440422825865, 19234.74898752558, 16323.166051288374, 0.002, 0.984, 0.148, 192.0, 0.0, 16.0, 30.0, 192.0, 4.0, 160.0, 0.0, 0.0, 0.0, 1.700951105330167E9, 0.0, 2023-11-25 17:25:05.330
128.0, 51436.59429986409, 67508.21381905244, 9091.683815918424, -7191.1373366281205, 23101.71253701598, -31098.02676415763, 19246.61776383135, 16367.176636120874, 0.002, 0.984, 0.148, 192.0, 0.0, 0.0, 0.0, 0.0, 0.0, 0.0, 0.0, 0.0, 0.0, 1.700951105333582E9, 0.0, 2023-11-25 17:25:05.333
129.0, 51387.39811031796, 67461.56572837422, 9067.476876673327, -7231.325773158762, 23073.482283768928, -31094.070505389038, 19222.120251908334, 16352.357429547004, 0.002, 0.984, 0.148, 192.0, 0.0, 0.0, 0.0, 0.0, 0.0, 0.0, 0.0, 0.0, 0.0, 1.700951105338533E9, 0.0, 2023-11-25 17:25:05.338
130.0, 51388.35923532954, 67479.93886231647, 9076.104650033076, -7213.7349502724355, 23027.370634957628, -31286.51902514923, 19229.94336246769, 16326.161185045385, 0.002, 0.984, 0.148, 192.0, 0.0, 0.0, 0.0, 0.0, 0.0, 0.0, 0.0, 0.0, 0.0, 1.700951105343606E9, 0.0, 2023-11-25 17:25:05.343
131.0, 51421.84214852359, 67514.76288017785, 9085.022996070742, -7190.3773773166395, 23025.26957097883, -31218.726184216284, 19238.213507916156, 16341.583888719546, 0.002, 0.984, 0.148, 192.0, 0.0, 0.0, 0.0, 0.0, 0.0, 0.0, 0.0, 0.0, 0.0, 1.700951105346538E9, 0.0, 2023-11-25 17:25:05.346
132.0, 51430.335811416604, 67512.72887143241, 9093.896638619499, -7186.666987737059, 23077.349135559696, -31142.506735623687, 19251.95983075617, 16368.33892683255, 0.002, 0.984, 0.148, 192.0, 0.0, 0.0, 0.0, 0.0, 0.0, 0.0, 0.0, 0.0, 0.0, 1.700951105350545E9, 0.0, 2023-11-25 17:25:05.350
133.0, 51378.971502658314, 67459.01762950631, 9069.421478440938, -7226.274278911863, 23082.735905973426, -31042.10269953045, 19237.788824771505, 16384.923921218386, 0.002, 0.984, 0.148, 192.0, 0.0, 0.0, 0.0, 0.0, 0.0, 0.0, 0.0, 0.0, 0.0, 1.700951105353509E9, 0.0, 2023-11-25 17:25:05.353
134.0, 51367.23683681928, 67464.51615864232, 9071.254321486274, -7216.573621818259, 23017.737033097394, -31282.920394291927, 19241.56626958445, 16340.063970096586, 0.002, 0.984, 0.148, 192.0, 0.0, 0.0, 0.0, 0.0, 0.0, 0.0, 0.0, 0.0, 0.0, 1.700951105357555E9, 0.0, 2023-11-25 17:25:05.357
135.0, 51401.50206106926, 67493.97575783441, 9078.22806575633, -7192.456089550983, 23018.65345462006, -31204.577529976075, 19251.691609822705, 16357.207758093806, 0.002, 0.984, 0.148, 192.0, 0.0, 0.0, 0.0, 0.0, 0.0, 0.0, 0.0, 0.0, 0.0, 1.700951105361633E9, 0.0, 2023-11-25 17:25:05.361
136.0, 51432.03454399521, 67512.61711271014, 9095.7965368982, -7175.066432364754, 23059.55714697327, -31169.17236675887, 19270.24355772061, 16374.798580980132, 0.002, 0.984, 0.148, 192.0, 0.0, 0.0, 0.0, 0.0, 0.0, 0.0, 0.0, 0.0, 0.0, 1.700951105365615E9, 0.0, 2023-11-25 17:25:05.365
137.0, 51395.9811801888, 67461.45396965194, 9078.853914601077, -7208.147014158609, 23102.830124238746, -30990.961908216705, 19268.790694331015, 16418.272723945705, 0.002, 0.986, 0.146, 192.0, 0.0, 16.0, 30.0, 208.0, 4.0, 144.0, 0.0, 0.0, 0.0, 1.700951105370628E9, 0.0, 2023-11-25 17:25:05.370
138.0, 51368.84616242006, 67450.83689103567, 9068.438001684905, -7218.3170578857735, 23019.771041842825, -31253.639609055474, 19261.81695006096, 16351.619821979979, 0.002, 0.986, 0.146, 192.0, 0.0, 0.0, 0.0, 0.0, 0.0, 0.0, 0.0, 0.0, 0.0, 1.700951105374605E9, 0.0, 2023-11-25 17:25:05.374
139.0, 51404.74306401528, 67488.34311823167, 9078.697452389892, -7193.037234906821, 23029.06936753623, -31201.247120052234, 19273.1492844998, 16370.864673955999, 0.002, 0.986, 0.146, 192.0, 0.0, 0.0, 0.0, 0.0, 0.0, 0.0, 0.0, 0.0, 0.0, 1.700951105378674E9, 0.0, 2023-11-25 17:25:05.378
140.0, 51440.25998595476, 67513.7346999329, 9092.309664763174, -7177.525124254838, 23047.956591600967, -31196.01681184969, 19284.43691544973, 16369.456514055315, 0.002, 0.986, 0.146, 192.0, 0.0, 0.0, 0.0, 0.0, 0.0, 0.0, 0.0, 0.0, 0.0, 1.700951105381697E9, 0.0, 2023-11-25 17:25:05.381
141.0, 51410.10748268455, 67465.70080109844, 9077.289292489206, -7210.538650815327, 23111.502601087406, -30997.488617597657, 19278.357240957885, 16417.71393033432, 0.002, 0.986, 0.146, 192.0, 0.0, 0.0, 0.0, 0.0, 0.0, 0.0, 0.0, 0.0, 0.0, 1.700951105386709E9, 0.0, 2023-11-25 17:25:05.386
142.0, 51369.06967986461, 67441.20328917544, 9056.166893978942, -7236.6901918280355, 23021.425070932517, -31238.61923678151, 19253.971487757146, 16344.579022476557, 0.002, 0.986, 0.146, 192.0, 0.0, 0.0, 0.0, 0.0, 0.0, 0.0, 0.0, 0.0, 0.0, 1.700951105389679E9, 0.0, 2023-11-25 17:25:05.389
143.0, 51398.484575567796, 67473.85918782464, 9066.560455150659, -7211.097444426709, 23024.62137038963, -31227.868047698506, 19264.58856637342, 16357.274813327173, 0.002, 0.986, 0.146, 192.0, 0.0, 0.0, 0.0, 0.0, 0.0, 0.0, 0.0, 0.0, 0.0, 1.700951105393775E9, 0.0, 2023-11-25 17:25:05.393
144.0, 51451.43585818242, 67520.90960990306, 9092.644940930002, -7179.894409167101, 23043.598001432183, -31223.084774385068, 19277.73139211314, 16354.793769692633, 0.002, 0.986, 0.146, 192.0, 0.0, 0.0, 0.0, 0.0, 0.0, 0.0, 0.0, 0.0, 0.0, 1.700951105397816E9, 0.0, 2023-11-25 17:25:05.397
145.0, 51430.492273627795, 67481.65994663954, 9082.251379758285, -7207.85644148069, 23117.71638604598, -31017.024042251593, 19267.270775708053, 16410.38255815298, 0.002, 0.986, 0.146, 192.0, 0.0, 0.0, 0.0, 0.0, 0.0, 0.0, 0.0, 0.0, 0.0, 1.70095110540277E9, 0.0, 2023-11-25 17:25:05.402
146.0, 51387.75573822925, 67451.7756643028, 9064.258225471762, -7236.645488339125, 23044.112091554653, -31195.63683219395, 19236.447720104185, 16346.56832773308, 0.002, 0.986, 0.146, 192.0, 0.0, 0.0, 0.0, 0.0, 0.0, 0.0, 0.0, 0.0, 0.0, 1.700951105405779E9, 0.0, 2023-11-25 17:25:05.405
147.0, 51401.613819791535, 67469.43354242248, 9068.616815640547, -7216.037179951332, 23030.656341392558, -31252.477318343797, 19237.319438137944, 16344.154339331906, -0.002, 0.98, 0.15, 192.0, 255.0, 240.0, 30.0, 160.0, 4.0, 176.0, 0.0, 0.0, 0.0, 1.700951105409796E9, 0.0, 2023-11-25 17:25:05.409
148.0, 51445.28912845721, 67507.31974927423, 9084.397147225995, -7188.142202871109, 23036.31133273975, -31233.120707645503, 19244.024961474533, 16337.426464250859, -0.002, 0.98, 0.15, 192.0, 0.0, 0.0, 0.0, 0.0, 0.0, 0.0, 0.0, 0.0, 0.0, 1.700951105413779E9, 0.0, 2023-11-25 17:25:05.413
149.0, 51443.009250522766, 67488.16430427603, 9090.543876951204, -7195.384168074628, 23120.890333758634, -31055.156118292347, 19250.976354000137, 16397.306787646627, -0.002, 0.98, 0.15, 192.0, 0.0, 0.0, 0.0, 0.0, 0.0, 0.0, 0.0, 0.0, 0.0, 1.700951105417808E9, 0.0, 2023-11-25 17:25:05.417
150.0, 51402.44083433638, 67457.00597250533, 9076.484629688815, -7222.005095720899, 23080.299565827798, -31120.847895246494, 19238.1911561717, 16373.658642012912, -0.002, 0.98, 0.15, 192.0, 0.0, 0.0, 0.0, 0.0, 0.0, 0.0, 0.0, 0.0, 0.0, 1.700951105421796E9, 0.0, 2023-11-25 17:25:05.421
151.0, 51412.99085771929, 67476.74256285936, 9084.598312926091, -7200.860345466179, 23049.61062069066, -31251.069158443115, 19250.23874643311, 16361.387534306949, -0.002, 0.98, 0.15, 192.0, 0.0, 0.0, 0.0, 0.0, 0.0, 0.0, 0.0, 0.0, 0.0, 1.700951105425845E9, 0.0, 2023-11-25 17:25:05.425
152.0, 51454.36393670606, 67516.08163310071, 9095.908295620477, -7174.977025386933, 23045.11792005514, -31208.779657933672, 19259.738237826616, 16361.342830818037, -0.002, 0.98, 0.15, 192.0, 0.0, 0.0, 0.0, 0.0, 0.0, 0.0, 0.0, 0.0, 0.0, 1.700951105430834E9, 0.0, 2023-11-25 17:25:05.430
153.0, 51471.261855514276, 67515.1875633225, 9111.532164994736, -7168.472667750439, 23118.588104079736, -31084.571013995534, 19277.10554326839, 16405.688691817366, -0.002, 0.98, 0.15, 192.0, 0.0, 0.0, 0.0, 0.0, 0.0, 0.0, 0.0, 0.0, 0.0, 1.700951105433851E9, 0.0, 2023-11-25 17:25:05.433
154.0, 51422.75857004626, 67466.9748505324, 9083.100746047587, -7212.058569438287, 23095.811676479778, -31060.56524045053, 19251.75866505607, 16394.73633703427, -0.002, 0.98, 0.15, 192.0, 0.0, 0.0, 0.0, 0.0, 0.0, 0.0, 0.0, 0.0, 0.0, 1.700951105436882E9, 0.0, 2023-11-25 17:25:05.436
155.0, 51414.84605250908, 67471.60166163465, 9078.496286689793, -7206.180060646541, 23034.925524583523, -31270.358713908045, 19246.327191153432, 16353.273851069673, -0.002, 0.98, 0.15, 192.0, 0.0, 0.0, 0.0, 0.0, 0.0, 0.0, 0.0, 0.0, 0.0, 1.700951105441903E9, 0.0, 2023-11-25 17:25:05.441
156.0, 51450.43002968193, 67508.437336497, 9086.006472826777, -7182.688377224014, 23031.08102453721, -31206.857407910516, 19253.636211590318, 16359.442932539338, -0.002, 0.98, 0.15, 192.0, 0.0, 0.0, 0.0, 0.0, 0.0, 0.0, 0.0, 0.0, 0.0, 1.700951105445872E9, 0.0, 2023-11-25 17:25:05.445
157.0, 51469.38430898003, 67515.29932204477, 9099.976313111343, -7172.540685241304, 23085.61928100816, -31137.87992452144, 19270.310612953977, 16388.05316544213, -0.006, 0.976, 0.152, 192.0, 255.0, 208.0, 30.0, 128.0, 4.0, 192.0, 0.0, 0.0, 0.0, 1.700951105449873E9, 0.0, 2023-11-25 17:25:05.449
158.0, 51429.53114861622, 67464.60556562014, 9079.569170423647, -7212.483252582938, 23102.494848071918, -31025.160077233326, 19254.262060435067, 16403.185296438372, -0.006, 0.976, 0.152, 192.0, 0.0, 0.0, 0.0, 0.0, 0.0, 0.0, 0.0, 0.0, 0.0, 1.700951105453918E9, 0.0, 2023-11-25 17:25:05.453
159.0, 51413.61670656404, 67463.10799874163, 9075.456449443871, -7213.846708994712, 23031.32689372622, -31279.72409483482, 19250.730484811127, 16348.557632989603, -0.006, 0.976, 0.152, 192.0, 0.0, 0.0, 0.0, 0.0, 0.0, 0.0, 0.0, 0.0, 0.0, 1.700951105458877E9, 0.0, 2023-11-25 17:25:05.458
160.0, 51438.382439420515, 67488.49958044286, 9075.232931999319, -7199.51924079886, 23027.12476576862, -31209.919596900894, 19255.044371491, 16358.57121450558, -0.006, 0.976, 0.152, 192.0, 0.0, 0.0, 0.0, 0.0, 0.0, 0.0, 0.0, 0.0, 0.0, 1.700951105461877E9, 0.0, 2023-11-25 17:25:05.461
161.0, 51472.11122180358, 67513.35472027716, 9095.908295620477, -7180.028519633833, 23068.56489998876, -31183.79040763264, 19275.093886267412, 16372.518703045691, -0.006, 0.976, 0.152, 192.0, 0.0, 0.0, 0.0, 0.0, 0.0, 0.0, 0.0, 0.0, 0.0, 1.700951105464951E9, 0.0, 2023-11-25 17:25:05.464
162.0, 51430.04523873869, 67458.90587078403, 9072.327205220128, -7221.535709087338, 23109.49094408643, -30999.589681576454, 19260.297031437996, 16414.137651221474, -0.006, 0.976, 0.152, 192.0, 0.0, 0.0, 0.0, 0.0, 0.0, 0.0, 0.0, 0.0, 0.0, 1.700951105470141E9, 0.0, 2023-11-25 17:25:05.470
163.0, 51400.429177335405, 67449.49578636835, 9059.340841691595, -7234.946755760522, 23020.307483709752, -31265.933068505892, 19244.069664963445, 16345.987182377243, -0.006, 0.976, 0.152, 192.0, 0.0, 0.0, 0.0, 0.0, 0.0, 0.0, 0.0, 0.0, 0.0, 1.700951105473967E9, 0.0, 2023-11-25 17:25:05.473
164.0, 51433.0403724957, 67482.26344373982, 9069.868513330044, -7207.3423513582175, 23026.40950994605, -31214.300538814136, 19255.983144758124, 16369.43416231086, -0.006, 0.976, 0.152, 192.0, 0.0, 0.0, 0.0, 0.0, 0.0, 0.0, 0.0, 0.0, 0.0, 1.700951105478223E9, 0.0, 2023-11-25 17:25:05.478
165.0, 51472.357090992584, 67514.91934238904, 9092.264961274263, -7183.47068827995, 23047.12957705612, -31207.438553266355, 19271.405848432285, 16371.557578034113, -0.006, 0.976, 0.152, 192.0, 0.0, 0.0, 0.0, 0.0, 0.0, 0.0, 0.0, 0.0, 0.0, 1.700951105481955E9, 0.0, 2023-11-25 17:25:05.481
166.0, 51447.814875580654, 67473.7250773579, 9086.252342015785, -7207.834089736234, 23116.889371501133, -30996.728658286174, 19273.484560666628, 16436.511747421235, -0.006, 0.976, 0.152, 192.0, 0.0, 0.0, 0.0, 0.0, 0.0, 0.0, 0.0, 0.0, 0.0, 1.700951105485952E9, 0.0, 2023-11-25 17:25:05.485
167.0, 51419.294049655684, 67464.38204817558, 9082.385490225017, -7219.4346451085385, 23043.0392078208, -31219.88847492796, 19264.14153148431, 16379.157171148918, -0.004, 0.982, 0.15, 192.0, 255.0, 224.0, 30.0, 176.0, 4.0, 176.0, 0.0, 0.0, 0.0, 1.700951105489974E9, 0.0, 2023-11-25 17:25:05.489
168.0, 51442.33869818911, 67493.37226073412, 9092.220257785351, -7196.300589597296, 23040.46875720844, -31219.553198761132, 19270.645889120806, 16384.745107262745, -0.004, 0.982, 0.15, 192.0, 0.0, 0.0, 0.0, 0.0, 0.0, 0.0, 0.0, 0.0, 0.0, 1.700951105493327E9, 0.0, 2023-11-25 17:25:05.493
169.0, 51487.109242333085, 67535.2370780989, 9116.360141797084, -7165.745754926891, 23053.499824225884, -31213.339413802558, 19284.839246849926, 16385.30390087413, -0.004, 0.982, 0.15, 192.0, 0.0, 0.0, 0.0, 0.0, 0.0, 0.0, 0.0, 0.0, 0.0, 1.700951105498073E9, 0.0, 2023-11-25 17:25:05.498
170.0, 51465.53980893372, 67495.36156599064, 9108.492327748816, -7188.522182526849, 23128.40051989562, -31010.385574148368, 19283.319328226964, 16444.02193355822, -0.004, 0.982, 0.15, 192.0, 0.0, 0.0, 0.0, 0.0, 0.0, 0.0, 0.0, 0.0, 0.0, 1.700951105502014E9, 0.0, 2023-11-25 17:25:05.502
171.0, 51420.09871245608, 67464.06912375322, 9086.341748993606, -7218.138243930131, 23055.22090854894, -31170.669933637375, 19256.81015930297, 16387.76259276421, -0.004, 0.982, 0.15, 192.0, 0.0, 0.0, 0.0, 0.0, 0.0, 0.0, 0.0, 0.0, 0.0, 1.70095110550602E9, 0.0, 2023-11-25 17:25:05.506
172.0, 51435.119084730046, 67493.81929562322, 9094.209563041873, -7194.378339574139, 23040.021722319332, -31240.116803660014, 19264.253290206587, 16382.688746772856, -0.004, 0.982, 0.15, 192.0, 0.0, 0.0, 0.0, 0.0, 0.0, 0.0, 0.0, 0.0, 0.0, 1.700951105510513E9, 0.0, 2023-11-25 17:25:05.510
173.0, 51473.56408519317, 67536.22055485494, 9103.977275368843, -7172.138353841109, 23038.457100207463, -31218.256797582722, 19261.794598316505, 16366.371973320482, -0.004, 0.982, 0.15, 192.0, 0.0, 0.0, 0.0, 0.0, 0.0, 0.0, 0.0, 0.0, 0.0, 1.700951105514067E9, 0.0, 2023-11-25 17:25:05.514
174.0, 51476.559218950184, 67516.90864764556, 9109.98989462732, -7177.860400421668, 23121.42677562556, -31053.546792691566, 19269.19302573121, 16416.641046600467, -0.004, 0.982, 0.15, 192.0, 0.0, 0.0, 0.0, 0.0, 0.0, 0.0, 0.0, 0.0, 0.0, 1.700951105517066E9, 0.0, 2023-11-25 17:25:05.517
175.0, 51429.6876108274, 67475.5802721477, 9087.861667616568, -7210.695113026513, 23077.505597770883, -31110.476685819234, 19246.930688253724, 16387.248502641738, -0.004, 0.982, 0.15, 192.0, 0.0, 0.0, 0.0, 0.0, 0.0, 0.0, 0.0, 0.0, 0.0, 1.700951105521085E9, 0.0, 2023-11-25 17:25:05.521
176.0, 51434.60499460757, 67490.06420255473, 9092.667292674458, -7193.28310409583, 23040.60286767517, -31260.18867018088, 19253.345638912397, 16365.276737842172, -0.004, 0.982, 0.15, 192.0, 0.0, 0.0, 0.0, 0.0, 0.0, 0.0, 0.0, 0.0, 0.0, 1.700951105525119E9, 0.0, 2023-11-25 17:25:05.525
177.0, 51467.551465934695, 67516.75218543436, 9094.902467119988, -7176.742813198903, 23030.79045185929, -31210.79131493465, 19253.882080779324, 16362.885101185455, -0.004, 0.982, 0.15, 192.0, 0.0, 0.0, 30.0, 144.0, 4.0, 144.0, 0.0, 0.0, 0.0, 1.700951105530117E9, 0.0, 2023-11-25 17:25:05.530
178.0, 51482.571838208656, 67514.9863976224, 9108.93936263792, -7171.221932318442, 23099.924397459556, -31101.133656636914, 19272.322269954955, 16402.20181968234, -0.004, 0.982, 0.15, 192.0, 0.0, 0.0, 0.0, 0.0, 0.0, 0.0, 0.0, 0.0, 0.0, 1.700951105534119E9, 0.0, 2023-11-25 17:25:05.534
179.0, 51428.27945092672, 67460.78341731828, 9077.579865167125, -7219.300534641807, 23079.584310005226, -31053.457385713744, 19249.09880746589, 16403.431165627382, -0.004, 0.982, 0.15, 192.0, 0.0, 0.0, 0.0, 0.0, 0.0, 0.0, 0.0, 0.0, 0.0, 1.700951105538133E9, 0.0, 2023-11-25 17:25:05.538
180.0, 51423.38441889101, 67474.08270526919, 9079.926798334933, -7209.555174059293, 23020.374538943117, -31280.461702401844, 19251.2445749336, 16363.443894796837, -0.004, 0.982, 0.15, 192.0, 0.0, 0.0, 0.0, 0.0, 0.0, 0.0, 0.0, 0.0, 0.0, 1.700951105542171E9, 0.0, 2023-11-25 17:25:05.542
181.0, 51462.38821296552, 67511.07484234271, 9088.062833316664, -7185.102365625187, 23020.195724987476, -31206.611538721507, 19262.599261116895, 16376.921996703388, -0.004, 0.982, 0.15, 192.0, 0.0, 0.0, 0.0, 0.0, 0.0, 0.0, 0.0, 0.0, 0.0, 1.700951105545199E9, 0.0, 2023-11-25 17:25:05.545
182.0, 51485.432861498935, 67525.11173786066, 9102.61381895707, -7173.054775363777, 23069.95070814499, -31149.994570016217, 19276.077363023443, 16401.218342926306, -0.004, 0.982, 0.15, 192.0, 0.0, 0.0, 0.0, 0.0, 0.0, 0.0, 0.0, 0.0, 0.0, 1.700951105549652E9, 0.0, 2023-11-25 17:25:05.549
183.0, 51438.02481150923, 67469.05356276674, 9075.501152932782, -7216.975953218455, 23086.200426363997, -31020.779135320085, 19253.591508101406, 16423.48068040379, -0.004, 0.982, 0.15, 192.0, 0.0, 0.0, 0.0, 0.0, 0.0, 0.0, 0.0, 0.0, 0.0, 1.70095110555321E9, 0.0, 2023-11-25 17:25:05.553
184.0, 51423.74204680229, 67472.83100757969, 9076.506981433271, -7215.456034595494, 23014.160753984543, -31286.183748982403, 19251.71396156716, 16364.025040152676, -0.004, 0.982, 0.15, 192.0, 0.0, 0.0, 0.0, 0.0, 0.0, 0.0, 0.0, 0.0, 0.0, 1.700951105558213E9, 0.0, 2023-11-25 17:25:05.558
185.0, 51455.593282651105, 67507.8785428856, 9086.721728649347, -7193.953656429489, 23018.161716242044, -31217.072155126592, 19260.520548882552, 16380.654738027424, -0.004, 0.982, 0.15, 192.0, 0.0, 0.0, 0.0, 0.0, 0.0, 0.0, 0.0, 0.0, 0.0, 1.700951105562244E9, 0.0, 2023-11-25 17:25:05.562
186.0, 51485.589323710126, 67531.81726119724, 9106.793595170211, -7176.832220176723, 23051.51051896936, -31191.434704236355, 19278.424296191253, 16387.7178892753, -0.004, 0.982, 0.15, 192.0, 0.0, 0.0, 30.0, 160.0, 5.0, 0.0, 0.0, 0.0, 0.0, 1.700951105566251E9, 0.0, 2023-11-25 17:25:05.566
187.0, 51448.68659361442, 67481.99522280636, 9092.153202551986, -7208.929325214544, 23105.1547056621, -30996.102809441425, 19275.987956045625, 16439.998619556263, -0.004, 0.982, 0.15, 192.0, 0.0, 0.0, 0.0, 0.0, 0.0, 0.0, 0.0, 0.0, 0.0, 1.70095110557032E9, 0.0, 2023-11-25 17:25:05.570
188.0, 51419.62932582251, 67467.77951333279, 9082.98898732531, -7222.04979920981, 23019.256951720352, -31256.70179804585, 19265.482636151628, 16376.854941470021, -0.004, 0.982, 0.15, 192.0, 0.0, 0.0, 0.0, 0.0, 0.0, 0.0, 0.0, 0.0, 0.0, 1.700951105573308E9, 0.0, 2023-11-25 17:25:05.573
189.0, 51446.04908776869, 67492.29937700026, 9090.65563567348, -7199.541592543315, 23021.89445756608, -31217.27332082669, 19275.093886267412, 16393.015252711208, -0.004, 0.982, 0.15, 192.0, 0.0, 0.0, 0.0, 0.0, 0.0, 0.0, 0.0, 0.0, 0.0, 1.700951105577279E9, 0.0, 2023-11-25 17:25:05.577
190.0, 51483.130631820044, 67527.81629893974, 9110.772205683257, -7175.08878410921, 23039.820556619234, -31212.199474835335, 19292.930578342748, 16395.406889367925, -0.004, 0.982, 0.15, 192.0, 0.0, 0.0, 0.0, 0.0, 0.0, 0.0, 0.0, 0.0, 0.0, 1.700951105581495E9, 0.0, 2023-11-25 17:25:05.581
191.0, 51457.0461460407, 67483.85041759616, 9097.249400287796, -7203.9001827121, 23110.787345264835, -30999.32146064299, 19290.91892134177, 16454.97428834132, -0.004, 0.982, 0.15, 192.0, 0.0, 0.0, 0.0, 0.0, 0.0, 0.0, 0.0, 0.0, 0.0, 1.700951105586284E9, 0.0, 2023-11-25 17:25:05.586
192.0, 51420.16576768944, 67460.89517604056, 9077.736327378312, -7226.408389378595, 23028.532925669304, -31214.389945791954, 19265.95202278519, 16390.400098609938, -0.004, 0.982, 0.15, 192.0, 0.0, 0.0, 0.0, 0.0, 0.0, 0.0, 0.0, 0.0, 0.0, 1.700951105590467E9, 0.0, 2023-11-25 17:25:05.590
193.0, 51439.36591617655, 67484.94565307446, 9080.530295435226, -7207.878793225145, 23021.626236632615, -31231.734899489275, 19267.2484239636, 16391.271816643693, -0.004, 0.982, 0.15, 192.0, 0.0, 0.0, 0.0, 0.0, 0.0, 0.0, 0.0, 0.0, 0.0, 1.70095110559434E9, 0.0, 2023-11-25 17:25:05.594
194.0, 51481.65541668599, 67524.91057216056, 9094.790708397712, -7182.04017663481, 23028.75644311386, -31222.79420170715, 19272.322269954955, 16380.833551983065, -0.004, 0.982, 0.15, 192.0, 0.0, 0.0, 0.0, 0.0, 0.0, 0.0, 0.0, 0.0, 0.0, 1.70095110559837E9, 0.0, 2023-11-25 17:25:05.598
195.0, 51463.639910655016, 67493.50637120086, 9088.532219950226, -7200.189793132519, 23104.171228906063, -31029.026929024094, 19272.366973443863, 16442.6808288909, -0.004, 0.982, 0.15, 192.0, 0.0, 0.0, 0.0, 0.0, 0.0, 0.0, 0.0, 0.0, 0.0, 1.700951105601416E9, 0.0, 2023-11-25 17:25:05.601
196.0, 51416.07539845412, 67460.49284464036, 9065.442867927894, -7233.069209226276, 23038.457100207463, -31165.618439390477, 19246.506005109073, 16393.551694578135, -0.004, 0.98, 0.164, 192.0, 255.0, 224.0, 30.0, 160.0, 5.0, 32.0, 0.0, 0.0, 0.0, 1.700951105605374E9, 0.0, 2023-11-25 17:25:05.605
197.0, 51431.00636375027, 67482.44225769547, 9074.070641287643, -7213.399674105606, 23020.866277321136, -31257.10412944605, 19251.646906333794, 16379.62655778248, -0.004, 0.98, 0.164, 192.0, 0.0, 0.0, 0.0, 0.0, 0.0, 0.0, 0.0, 0.0, 0.0, 1.700951105609367E9, 0.0, 2023-11-25 17:25:05.609
198.0, 51468.870218857555, 67518.3391592907, 9087.682853660925, -7193.216048862464, 23021.17920174351, -31230.460850055322, 19260.118217482355, 16375.066801913597, -0.004, 0.98, 0.164, 192.0, 0.0, 0.0, 0.0, 0.0, 0.0, 0.0, 0.0, 0.0, 0.0, 1.700951105613488E9, 0.0, 2023-11-25 17:25:05.613
199.0, 51469.09373630211, 67501.66475792704, 9094.477783975337, -7198.178136131542, 23099.745583503915, -31072.031685356105, 19274.110409511377, 16429.67211361791, -0.004, 0.98, 0.164, 192.0, 0.0, 0.0, 0.0, 0.0, 0.0, 0.0, 0.0, 0.0, 0.0, 1.700951105618374E9, 0.0, 2023-11-25 17:25:05.618
200.0, 51422.78092179071, 67462.39274291907, 9074.674138387936, -7229.984668491444, 23067.80494067728, -31102.832389215517, 19255.75962731357, 16412.19304945386, -0.004, 0.98, 0.164, 192.0, 0.0, 0.0, 0.0, 0.0, 0.0, 0.0, 0.0, 0.0, 0.0, 1.700951105622459E9, 0.0, 2023-11-25 17:25:05.622
201.0, 51423.38441889101, 67476.60845239264, 9080.262074501763, -7212.9526392165, 23027.683559380002, -31263.966114993826, 19266.689630352215, 16391.271816643693, -0.004, 0.98, 0.164, 192.0, 0.0, 0.0, 0.0, 0.0, 0.0, 0.0, 0.0, 0.0, 0.0, 1.700951105625471E9, 0.0, 2023-11-25 17:25:05.625
202.0, 51460.91299783147, 67512.19242956549, 9089.269827517252, -7188.768051715858, 23024.733129111904, -31204.868102653996, 19273.976299044647, 16392.568217822103, -0.004, 0.98, 0.164, 192.0, 0.0, 0.0, 0.0, 0.0, 0.0, 0.0, 0.0, 0.0, 0.0, 1.700951105629488E9, 0.0, 2023-11-25 17:25:05.629
203.0, 51482.97416960885, 67518.67443545752, 9110.101653349597, -7176.60870273217, 23096.839856724724, -31102.16183688186, 19289.041374807523, 16430.387369440483, -0.004, 0.98, 0.164, 192.0, 0.0, 0.0, 0.0, 0.0, 0.0, 0.0, 0.0, 0.0, 0.0, 1.700951105634109E9, 0.0, 2023-11-25 17:25:05.634
204.0, 51445.84792206859, 67479.24595823836, 9099.037539844221, -7205.129528657142, 23103.433621339038, -31032.647911625852, 19278.178427002244, 16444.558375425146, -0.004, 0.98, 0.164, 192.0, 0.0, 0.0, 0.0, 0.0, 0.0, 0.0, 0.0, 0.0, 0.0, 1.700951105637479E9, 0.0, 2023-11-25 17:25:05.637
205.0, 51443.7915615787, 67497.03794682478, 9110.36987428306, -7186.063490636765, 23053.23160329242, -31255.4277486119, 19287.38734571783, 16411.81306979812, -0.004, 0.98, 0.164, 192.0, 0.0, 0.0, 0.0, 0.0, 0.0, 0.0, 0.0, 0.0, 0.0, 1.70095110564152E9, 0.0, 2023-11-25 17:25:05.641
206.0, 51473.74289914881, 67525.98345589441, 9110.99572312781, -7170.461973006961, 23047.934239856513, -31183.298669254622, 19288.43787770723, 16421.15609898044, -0.006, 0.978, 0.16, 192.0, 255.0, 208.0, 30.0, 144.0, 5.0, 0.0, 0.0, 0.0, 0.0, 1.700951105645514E9, 0.0, 2023-11-25 17:25:05.645
207.0, 51505.14710010852, 67547.70935150496, 9132.073418149164, -7153.474647220928, 23100.125563159654, -31130.68266280683, 19302.877104625357, 16436.10941602104, -0.006, 0.978, 0.16, 192.0, 0.0, 0.0, 0.0, 0.0, 0.0, 0.0, 0.0, 0.0, 0.0, 1.700951105650517E9, 0.0, 2023-11-25 17:25:05.650
208.0, 51474.50285846029, 67508.2808742858, 9119.467034276371, -7183.604798746682, 23137.85530780021, -30981.238899378648, 19290.49423819712, 16467.670079191932, -0.006, 0.978, 0.16, 192.0, 0.0, 0.0, 0.0, 0.0, 0.0, 0.0, 0.0, 0.0, 0.0, 1.700951105653534E9, 0.0, 2023-11-25 17:25:05.653
209.0, 51458.878989086035, 67517.19922032347, 9117.254211575295, -7182.084880123721, 23060.451216751484, -31240.675597271398, 19285.174523016754, 16411.58955235357, -0.006, 0.978, 0.16, 192.0, 0.0, 0.0, 0.0, 0.0, 0.0, 0.0, 0.0, 0.0, 0.0, 1.700951105657546E9, 0.0, 2023-11-25 17:25:05.657
210.0, 51486.43868999943, 67551.17387189555, 9119.064702876176, -7164.494057237394, 23058.841891150703, -31175.92259358437, 19289.24254050762, 16422.8771833035, -0.006, 0.978, 0.16, 192.0, 0.0, 0.0, 0.0, 0.0, 0.0, 0.0, 0.0, 0.0, 0.0, 1.700951105661584E9, 0.0, 2023-11-25 17:25:05.661
211.0, 51521.508577049804, 67579.80645654279, 9137.817816474178, -7142.321126737729, 23092.324804344753, -31163.562078900588, 19305.179334304255, 16427.21342172783, -0.006, 0.978, 0.16, 192.0, 0.0, 0.0, 0.0, 0.0, 0.0, 0.0, 0.0, 0.0, 0.0, 1.700951105665627E9, 0.0, 2023-11-25 17:25:05.665
212.0, 51489.47852724535, 67532.35370306417, 9126.552537268703, -7169.433792762017, 23155.647296386636, -30965.79384396003, 19304.173505803767, 16480.365870042548, -0.006, 0.978, 0.16, 192.0, 0.0, 0.0, 0.0, 0.0, 0.0, 0.0, 0.0, 0.0, 0.0, 1.70095110567257E9, 0.0, 2023-11-25 17:25:05.672
213.0, 51450.56414014866, 67507.1856388075, 9106.905353892489, -7189.237438349419, 23067.00027787689, -31214.74757370324, 19286.76149687308, 16413.690616332366, -0.006, 0.978, 0.16, 192.0, 0.0, 0.0, 0.0, 0.0, 0.0, 0.0, 0.0, 0.0, 0.0, 1.700951105675634E9, 0.0, 2023-11-25 17:25:05.675
214.0, 51465.40569846698, 67521.51310700335, 9097.85289738809, -7178.7544701998795, 23053.164548059052, -31184.32684949957, 19286.895607339815, 16421.312561191626, -0.006, 0.978, 0.16, 192.0, 0.0, 0.0, 0.0, 0.0, 0.0, 0.0, 0.0, 0.0, 0.0, 1.700951105678608E9, 0.0, 2023-11-25 17:25:05.678
215.0, 51509.75155946631, 67561.70154353399, 9117.298915064206, -7151.686507664503, 23067.51436799936, -31182.248137265226, 19303.748822659116, 16418.898572790455, -0.006, 0.978, 0.16, 192.0, 0.0, 0.0, 0.0, 0.0, 0.0, 0.0, 0.0, 0.0, 0.0, 1.700951105682605E9, 0.0, 2023-11-25 17:25:05.682
216.0, 51491.445480757415, 67529.73854896291, 9114.907278407489, -7170.797249173791, 23146.930116049065, -30972.745236485633, 19305.715776171182, 16479.114172353053, -0.006, 0.978, 0.162, 192.0, 255.0, 208.0, 30.0, 144.0, 5.0, 16.0, 0.0, 0.0, 0.0, 1.70095110568567E9, 0.0, 2023-11-25 17:25:05.685
217.0, 51452.68755587191, 67509.06318534174, 9099.305760777685, -7191.651426750592, 23069.81659767826, -31175.36379997299, 19289.06372655198, 16417.95979952333, -0.006, 0.978, 0.162, 192.0, 0.0, 0.0, 0.0, 0.0, 0.0, 0.0, 0.0, 0.0, 0.0, 1.700951105689609E9, 0.0, 2023-11-25 17:25:05.689
218.0, 51473.11705030406, 67533.85126994268, 9104.714882935868, -7165.27636829333, 23059.735960928912, -31195.435666493857, 19300.597226690916, 16425.53704089368, -0.006, 0.978, 0.162, 192.0, 0.0, 0.0, 0.0, 0.0, 0.0, 0.0, 0.0, 0.0, 0.0, 1.700951105694585E9, 0.0, 2023-11-25 17:25:05.694
219.0, 51519.8098444712, 67583.06981123326, 9126.597240757614, -7134.654478389559, 23067.402609277084, -31176.481387195756, 19314.43295650875, 16424.218287970816, -0.006, 0.978, 0.162, 192.0, 0.0, 0.0, 0.0, 0.0, 0.0, 0.0, 0.0, 0.0, 0.0, 1.700951105698735E9, 0.0, 2023-11-25 17:25:05.698
220.0, 51512.567879267684, 67560.80747375578, 9131.04523790422, -7144.623356416626, 23152.763921351903, -30986.245690136635, 19321.607866478906, 16486.624358490033, -0.006, 0.978, 0.162, 192.0, 0.0, 0.0, 0.0, 0.0, 0.0, 0.0, 0.0, 0.0, 0.0, 1.700951105702096E9, 0.0, 2023-11-25 17:25:05.702
221.0, 51467.08207930113, 67526.27402857233, 9109.9004876495, -7179.201505088986, 23091.497789799905, -31106.408668328368, 19295.299863255008, 16441.38442771249, -0.006, 0.978, 0.162, 192.0, 0.0, 0.0, 0.0, 0.0, 0.0, 0.0, 0.0, 0.0, 0.0, 1.700951105705657E9, 0.0, 2023-11-25 17:25:05.705
222.0, 51484.248219042805, 67554.21370914146, 9120.830490688144, -7157.073278078232, 23071.26946106785, -31208.109105600015, 19303.413546492284, 16430.07444501811, -0.006, 0.978, 0.162, 192.0, 0.0, 0.0, 0.0, 0.0, 0.0, 0.0, 0.0, 0.0, 0.0, 1.700951105709695E9, 0.0, 2023-11-25 17:25:05.709
223.0, 51516.121806636074, 67589.3059479363, 9127.111330880087, -7142.522292437827, 23057.90311788358, -31180.281183753155, 19298.943197601224, 16415.992846011264, -0.006, 0.978, 0.162, 192.0, 0.0, 0.0, 0.0, 0.0, 0.0, 0.0, 0.0, 0.0, 0.0, 1.700951105712738E9, 0.0, 2023-11-25 17:25:05.712
224.0, 51533.176187655474, 67587.49545663541, 9145.976203200365, -7133.425132444518, 23139.15170897862, -31040.158097762836, 19318.925657144267, 16468.228872803316, -0.006, 0.978, 0.162, 192.0, 0.0, 0.0, 0.0, 0.0, 0.0, 0.0, 0.0, 0.0, 0.0, 1.700951105717748E9, 0.0, 2023-11-25 17:25:05.717
225.0, 51489.009140611786, 67542.09906364669, 9123.512700022782, -7168.383260772617, 23110.67558654256, -31048.33883623348, 19298.026776078557, 16453.20850052935, -0.006, 0.978, 0.162, 192.0, 0.0, 0.0, 0.0, 0.0, 0.0, 0.0, 0.0, 0.0, 0.0, 1.700951105721999E9, 0.0, 2023-11-25 17:25:05.721
226.0, 51487.62333245556, 67556.20301439798, 9127.692476235923, -7153.094667565188, 23067.693181955005, -31229.56678027711, 19302.76534590308, 16418.63035185699, -0.006, 0.978, 0.162, 192.0, 0.0, 0.0, 30.0, 128.0, 5.0, 0.0, 0.0, 0.0, 0.0, 1.700951105725748E9, 0.0, 2023-11-25 17:25:05.725
227.0, 51519.47456830437, 67587.09312523522, 9133.95096468341, -7132.9333940665, 23063.781626675325, -31171.340485971035, 19304.64289243733, 16417.982151267785, -0.006, 0.978, 0.162, 192.0, 0.0, 0.0, 0.0, 0.0, 0.0, 0.0, 0.0, 0.0, 0.0, 1.70095110572994E9, 0.0, 2023-11-25 17:25:05.729
228.0, 51526.135388152055, 67580.74522980991, 9140.8576537201, -7130.139426009587, 23121.270313414374, -31083.922813406327, 19315.327026286963, 16447.933488837898, -0.006, 0.978, 0.162, 192.0, 0.0, 0.0, 0.0, 0.0, 0.0, 0.0, 0.0, 0.0, 0.0, 1.700951105733821E9, 0.0, 2023-11-25 17:25:05.733
229.0, 51475.374576494054, 67530.63261874112, 9116.002513885798, -7168.517371239349, 23122.25379017041, -30997.93565248676, 19300.463116224186, 16462.573881456123, -0.006, 0.978, 0.162, 192.0, 0.0, 0.0, 0.0, 0.0, 0.0, 0.0, 0.0, 0.0, 0.0, 1.7009511057378E9, 0.0, 2023-11-25 17:25:05.737
230.0, 51458.92369257494, 67530.23028734092, 9111.688627205924, -7165.432830504517, 23054.99739110439, -31235.26647511321, 19300.44076447973, 16418.33977917907, -0.006, 0.978, 0.162, 192.0, 0.0, 0.0, 0.0, 0.0, 0.0, 0.0, 0.0, 0.0, 0.0, 1.700951105740769E9, 0.0, 2023-11-25 17:25:05.740
231.0, 51487.98096036685, 67553.63256378562, 9109.47580450485, -7150.144237297087, 23050.594097446694, -31166.713674868784, 19301.245427280122, 16423.34656993706, -0.006, 0.978, 0.162, 192.0, 0.0, 0.0, 0.0, 0.0, 0.0, 0.0, 0.0, 0.0, 0.0, 1.70095110574481E9, 0.0, 2023-11-25 17:25:05.744
232.0, 51517.77583572577, 67572.07275296125, 9127.580717513647, -7133.693353377981, 23097.555112547292, -31129.58742732852, 19320.959665889703, 16442.6808288909, -0.006, 0.978, 0.162, 192.0, 0.0, 0.0, 0.0, 0.0, 0.0, 0.0, 0.0, 0.0, 0.0, 1.700951105750818E9, 0.0, 2023-11-25 17:25:05.750
233.0, 51485.656378943495, 67527.61513323964, 9111.621571972559, -7165.5445892267935, 23138.592915367237, -30968.408998061303, 19311.63898845184, 16481.125829354027, -0.006, 0.978, 0.162, 192.0, 0.0, 0.0, 0.0, 0.0, 0.0, 0.0, 0.0, 0.0, 0.0, 1.700951105753789E9, 0.0, 2023-11-25 17:25:05.753
234.0, 51464.62338741105, 67526.83282218371, 9107.821775415156, -7168.137391583609, 23064.943917387, -31226.83986745356, 19307.235694794144, 16419.502069890746, -0.006, 0.978, 0.162, 192.0, 0.0, 0.0, 0.0, 0.0, 0.0, 0.0, 0.0, 0.0, 0.0, 1.700951105758452E9, 0.0, 2023-11-25 17:25:05.758
235.0, 51495.088815103634, 67559.44401734401, 9117.343618553117, -7142.924623838023, 23073.348173302194, -31157.39299743092, 19320.646741467328, 16440.423302700914, -0.006, 0.978, 0.162, 192.0, 0.0, 0.0, 0.0, 0.0, 0.0, 0.0, 0.0, 0.0, 0.0, 1.700951105761904E9, 0.0, 2023-11-25 17:25:05.761
236.0, 51536.05956269021, 67593.08339274923, 9139.8071217307, -7117.555393881249, 23104.640615539625, -31144.786613558128, 19339.01987540959, 16447.508805693247, -0.002, 0.98, 0.168, 192.0, 255.0, 240.0, 30.0, 160.0, 5.0, 64.0, 0.0, 0.0, 0.0, 1.700951105766093E9, 0.0, 2023-11-25 17:25:05.766
237.0, 51503.47071927437, 67550.9950579399, 9124.295011078717, -7150.41245823055, 23163.49275869045, -30947.487765251135, 19330.459157283207, 16494.60393126058, -0.002, 0.98, 0.168, 192.0, 0.0, 0.0, 0.0, 0.0, 0.0, 0.0, 0.0, 0.0, 0.0, 1.700951105768922E9, 0.0, 2023-11-25 17:25:05.768
238.0, 51473.407622981984, 67541.92024969104, 9115.577830741147, -7163.801153159279, 23079.71842047196, -31195.4133147494, 19316.690482698737, 16428.286305461683, -0.002, 0.98, 0.168, 192.0, 0.0, 0.0, 0.0, 0.0, 0.0, 0.0, 0.0, 0.0, 0.0, 1.700951105773002E9, 0.0, 2023-11-25 17:25:05.773
239.0, 51495.71466394838, 67566.5965755697, 9121.366932555073, -7142.522292437827, 23075.225719836442, -31167.473634180267, 19323.55246824652, 16439.48452943379, -0.002, 0.98, 0.168, 192.0, 0.0, 0.0, 0.0, 0.0, 0.0, 0.0, 0.0, 0.0, 0.0, 1.700951105778003E9, 0.0, 2023-11-25 17:25:05.778
240.0, 51535.59017605665, 67603.87928532115, 9141.170578142473, -7114.426149657506, 23084.90402518559, -31162.444491677823, 19337.432901553264, 16440.06567478963, -0.002, 0.98, 0.168, 192.0, 0.0, 0.0, 0.0, 0.0, 0.0, 0.0, 0.0, 0.0, 0.0, 1.700951105781954E9, 0.0, 2023-11-25 17:25:05.781
241.0, 51513.14902462352, 67564.69667729101, 9134.018019916775, -7134.207443500453, 23161.794026111846, -30949.700587952208, 19340.62920101037, 16506.60681803308, -0.002, 0.98, 0.168, 192.0, 0.0, 0.0, 0.0, 0.0, 0.0, 0.0, 0.0, 0.0, 0.0, 1.700951105785937E9, 0.0, 2023-11-25 17:25:05.785
242.0, 51465.83038161163, 67530.69967397448, 9110.928667894445, -7163.46587699245, 23081.126580372642, -31138.192848943814, 19315.170564075775, 16446.145349281473, -0.002, 0.98, 0.168, 192.0, 0.0, 0.0, 0.0, 0.0, 0.0, 0.0, 0.0, 0.0, 0.0, 1.700951105789915E9, 0.0, 2023-11-25 17:25:05.789
243.0, 51474.01112008228, 67546.25648811537, 9107.397092270505, -7150.993603586388, 23061.479396996427, -31186.360858245, 19315.68465419825, 16442.43495970189, -0.002, 0.98, 0.168, 192.0, 0.0, 0.0, 0.0, 0.0, 0.0, 0.0, 0.0, 0.0, 0.0, 1.700951105792933E9, 0.0, 2023-11-25 17:25:05.792
244.0, 51515.786530469246, 67587.69662233551, 9127.13368262454, -7124.775007340313, 23064.630992964627, -31178.202471518813, 19324.44653802473, 16431.840232830076, -0.002, 0.98, 0.168, 192.0, 0.0, 0.0, 0.0, 0.0, 0.0, 0.0, 0.0, 0.0, 0.0, 1.700951105796985E9, 0.0, 2023-11-25 17:25:05.796
245.0, 51503.67188497447, 67561.03099120033, 9126.731351224345, -7140.778856370313, 23142.415063669094, -30998.539149587054, 19326.860526425902, 16487.40666954597, -0.002, 0.98, 0.168, 192.0, 0.0, 0.0, 0.0, 0.0, 0.0, 0.0, 0.0, 0.0, 0.0, 1.700951105800993E9, 0.0, 2023-11-25 17:25:05.800
246.0, 51451.86054132707, 67520.66374071405, 9098.098766577097, -7182.934246413022, 23080.992469905912, -31100.418400814346, 19298.0044243341, 16444.31250623614, -0.008, 0.974, 0.162, 192.0, 255.0, 192.0, 30.0, 112.0, 5.0, 16.0, 0.0, 0.0, 0.0, 1.700951105805202E9, 0.0, 2023-11-25 17:25:05.805
247.0, 51465.025718811245, 67546.21178462646, 9107.844127159611, -7161.722440924936, 23056.04792309379, -31221.65426273993, 19306.140459315833, 16425.067654260118, -0.008, 0.974, 0.162, 192.0, 0.0, 0.0, 0.0, 0.0, 0.0, 0.0, 0.0, 0.0, 0.0, 1.700951105810033E9, 0.0, 2023-11-25 17:25:05.810
248.0, 51508.54456526573, 67589.17183746956, 9123.33388606714, -7133.894519078079, 23057.813710905757, -31179.387113974946, 19309.11324132839, 16414.6740930884, -0.008, 0.974, 0.162, 192.0, 0.0, 0.0, 0.0, 0.0, 0.0, 0.0, 0.0, 0.0, 0.0, 1.700951105813964E9, 0.0, 2023-11-25 17:25:05.813
249.0, 51519.273402604274, 67585.01441300087, 9133.839205961134, -7131.927565566011, 23133.653179842615, -31040.783946607586, 19320.423224022776, 16458.39410524298, -0.008, 0.974, 0.162, 192.0, 0.0, 0.0, 0.0, 0.0, 0.0, 0.0, 0.0, 0.0, 0.0, 1.700951105817029E9, 0.0, 2023-11-25 17:25:05.817
250.0, 51472.580608437136, 67540.31092409026, 9108.358217282082, -7171.378394529628, 23105.892313229124, -31033.65374012634, 19296.171581288767, 16443.68665739139, -0.008, 0.974, 0.162, 192.0, 0.0, 0.0, 0.0, 0.0, 0.0, 0.0, 0.0, 0.0, 0.0, 1.700951105820965E9, 0.0, 2023-11-25 17:25:05.820
251.0, 51469.71958514686, 67551.57620329574, 9115.019037129765, -7155.218083288441, 23057.813710905757, -31229.56678027711, 19303.59236044793, 16408.81793604111, -0.008, 0.974, 0.162, 192.0, 0.0, 0.0, 0.0, 0.0, 0.0, 0.0, 0.0, 0.0, 0.0, 1.700951105825044E9, 0.0, 2023-11-25 17:25:05.825
252.0, 51505.84000418663, 67585.72966882345, 9124.831452945644, -7126.093760263177, 23058.417208006053, -31160.2540207212, 19315.10350884241, 16423.748901337254, -0.008, 0.974, 0.162, 192.0, 0.0, 0.0, 0.0, 0.0, 0.0, 0.0, 0.0, 0.0, 0.0, 1.700951105829084E9, 0.0, 2023-11-25 17:25:05.829
253.0, 51526.20244338542, 67589.97650026996, 9141.32704035366, -7113.7108938349365, 23116.62115056767, -31077.351400536467, 19336.851756197426, 16456.561262197647, -0.008, 0.974, 0.162, 192.0, 0.0, 0.0, 0.0, 0.0, 0.0, 0.0, 0.0, 0.0, 0.0, 1.70095110583305E9, 0.0, 2023-11-25 17:25:05.833
254.0, 51474.256989271285, 67530.7890809523, 9110.794557427711, -7160.18017055752, 23119.48217385795, -30977.863785965896, 19318.858601910903, 16468.854721648066, -0.008, 0.974, 0.162, 192.0, 0.0, 0.0, 0.0, 0.0, 0.0, 0.0, 0.0, 0.0, 0.0, 1.700951105838068E9, 0.0, 2023-11-25 17:25:05.838
255.0, 51456.68851812941, 67532.55486876427, 9105.050159102699, -7158.7943624012905, 23047.911888112056, -31232.2713413562, 19313.561238474995, 16412.953008765344, -0.008, 0.974, 0.162, 192.0, 0.0, 0.0, 0.0, 0.0, 0.0, 0.0, 0.0, 0.0, 0.0, 1.700951105842062E9, 0.0, 2023-11-25 17:25:05.842
0.0, 51488.316236533676, 67566.64127905862, 9110.883964405533, -7135.5485481677715, 23048.738902656904, -31155.291933452125, 19323.999503135623, 16427.19106998337, -0.006, 0.982, 0.168, 192.0, 255.0, 208.0, 30.0, 176.0, 5.0, 64.0, 0.0, 0.0, 0.0, 1.700951105846046E9, 0.0, 2023-11-25 17:25:05.846
1.0, 51519.04988515972, 67585.08146823425, 9128.608897758591, -7118.114187492632, 23090.76018223288, -31122.032537702627, 19340.182166121267, 16438.05401778865, -0.006, 0.982, 0.168, 192.0, 0.0, 0.0, 0.0, 0.0, 0.0, 0.0, 0.0, 0.0, 0.0, 1.700951105850103E9, 0.0, 2023-11-25 17:25:05.850
2.0, 51488.0033121113, 67535.12531937663, 9113.052083617698, -7150.546568697282, 23141.29747644633, -30948.046558862516, 19335.041264896547, 16482.35517529907, -0.006, 0.982, 0.168, 192.0, 0.0, 0.0, 0.0, 0.0, 0.0, 0.0, 0.0, 0.0, 0.0, 1.700951105854095E9, 0.0, 2023-11-25 17:25:05.854
3.0, 51466.03154731173, 67530.96789490794, 9106.391263770016, -7156.4474292334835, 23064.943917387, -31205.851579410028, 19332.716683473194, 16422.11722399202, -0.006, 0.982, 0.168, 192.0, 0.0, 0.0, 0.0, 0.0, 0.0, 0.0, 0.0, 0.0, 0.0, 1.700951105857112E9, 0.0, 2023-11-25 17:25:05.857
4.0, 51493.45713775839, 67559.48872083292, 9107.173574825953, -7136.912004579545, 23066.195615076496, -31151.670950850363, 19341.232698110663, 16433.471910175314, -0.006, 0.982, 0.168, 192.0, 0.0, 0.0, 0.0, 0.0, 0.0, 0.0, 0.0, 0.0, 0.0, 1.700951105861141E9, 0.0, 2023-11-25 17:25:05.861
5.0, 51531.4103998435, 67588.56834036927, 9121.657505232992, -7117.510690392339, 23091.52014154436, -31148.54170662662, 19355.0684279285, 16430.275610718207, -0.006, 0.982, 0.168, 192.0, 0.0, 0.0, 0.0, 0.0, 0.0, 0.0, 0.0, 0.0, 0.0, 1.700951105866137E9, 0.0, 2023-11-25 17:25:05.866
6.0, 51499.67092271697, 67532.13018561962, 9101.85385964559, -7153.407591987561, 23156.9660493095, -30943.777375671554, 19350.799244737536, 16487.69724222389, -0.006, 0.982, 0.168, 192.0, 0.0, 0.0, 0.0, 0.0, 0.0, 0.0, 0.0, 0.0, 0.0, 1.700951105870194E9, 0.0, 2023-11-25 17:25:05.870
7.0, 51466.970320578854, 67509.10788883065, 9082.56430418066, -7174.977025386933, 23071.872958168147, -31184.907994855406, 19332.87314568438, 16421.960761780832, -0.006, 0.982, 0.168, 192.0, 0.0, 0.0, 0.0, 0.0, 0.0, 0.0, 0.0, 0.0, 0.0, 1.700951105873222E9, 0.0, 2023-11-25 17:25:05.873
8.0, 51491.62429471306, 67535.37118856564, 9082.60900766957, -7153.072315820732, 23067.849644166192, -31173.754474372206, 19339.01987540959, 16429.046264773162, -0.006, 0.982, 0.168, 192.0, 0.0, 0.0, 0.0, 0.0, 0.0, 0.0, 0.0, 0.0, 0.0, 1.700951105877497E9, 0.0, 2023-11-25 17:25:05.877
9.0, 51534.40553360052, 67574.77731404034, 9097.070586332153, -7126.071408518721, 23080.880711183636, -31169.328828970058, 19348.988753436657, 16420.82082281361, -0.006, 0.982, 0.168, 192.0, 0.0, 0.0, 0.0, 0.0, 0.0, 0.0, 0.0, 0.0, 0.0, 1.70095110588113E9, 0.0, 2023-11-25 17:25:05.881
10.0, 51519.45221655992, 67536.8911071886, 9088.241647272307, -7148.55726344076, 23159.62590689968, -30961.591716002433, 19351.715666260203, 16479.36004154206, -0.006, 0.982, 0.168, 192.0, 0.0, 0.0, 30.0, 112.0, 5.0, 48.0, 0.0, 0.0, 0.0, 1.700951105885167E9, 0.0, 2023-11-25 17:25:05.885
11.0, 51475.151059049495, 67507.16328706304, 9060.8384085701, -7184.096537124698, 23082.33357457323, -31136.49411636521, 19323.15013684632, 16415.85873554453, -0.006, 0.982, 0.168, 192.0, 0.0, 0.0, 0.0, 0.0, 0.0, 0.0, 0.0, 0.0, 0.0, 1.700951105889172E9, 0.0, 2023-11-25 17:25:05.889
12.0, 51489.769099923265, 67527.48102277292, 9059.564359136148, -7170.216103817953, 23063.60281271968, -31197.46967523929, 19320.24441006713, 16406.6721685734, -0.006, 0.982, 0.168, 192.0, 0.0, 0.0, 0.0, 0.0, 0.0, 0.0, 0.0, 0.0, 0.0, 1.700951105894246E9, 0.0, 2023-11-25 17:25:05.894
13.0, 51534.29377487824, 67564.87549124664, 9070.963748808355, -7147.216158773442, 23061.36763827415, -31180.817625620086, 19322.166660090286, 16398.312616147115, -0.006, 0.982, 0.168, 192.0, 0.0, 0.0, 0.0, 0.0, 0.0, 0.0, 0.0, 0.0, 0.0, 1.700951105899896E9, 0.0, 2023-11-25 17:25:05.899
14.0, 51537.40066735753, 67543.2390026139, 9077.378699467028, -7154.636937932603, 23146.170156737586, -31011.61492009341, 19328.87218342688, 16454.30373600766, -0.006, 0.982, 0.168, 192.0, 0.0, 0.0, 0.0, 0.0, 0.0, 0.0, 0.0, 0.0, 0.0, 1.700951105901321E9, 0.0, 2023-11-25 17:25:05.901
15.0, 51491.28901854623, 67500.65892942654, 9049.617832853537, -7196.680569253036, 23092.391859578118, -31094.361078066955, 19292.930578342748, 16411.053110486642, -0.006, 0.982, 0.168, 192.0, 0.0, 0.0, 0.0, 0.0, 0.0, 0.0, 0.0, 0.0, 0.0, 1.700951105905251E9, 0.0, 2023-11-25 17:25:05.905
16.0, 51507.33757106514, 67525.60347623867, 9054.758734078257, -7180.699071967491, 23058.28309753932, -31238.61923678151, 19290.650700408307, 16389.550732320637, -0.006, 0.982, 0.168, 192.0, 0.0, 0.0, 0.0, 0.0, 0.0, 0.0, 0.0, 0.0, 0.0, 1.700951105909466E9, 0.0, 2023-11-25 17:25:05.909
17.0, 51555.840856533156, 67572.2515669169, 9071.477838930827, -7150.747734397381, 23060.31710628475, -31191.434704236355, 19293.131744042843, 16390.37774686548, -0.006, 0.982, 0.168, 192.0, 0.0, 0.0, 0.0, 0.0, 0.0, 0.0, 0.0, 0.0, 0.0, 1.700951105913202E9, 0.0, 2023-11-25 17:25:05.913
18.0, 51571.24120846286, 67570.50813084938, 9089.694510661902, -7143.192844771486, 23139.621095612183, -31063.42626374081, 19305.67107268227, 16437.785796855187, -0.006, 0.982, 0.168, 192.0, 0.0, 0.0, 0.0, 0.0, 0.0, 0.0, 0.0, 0.0, 0.0, 1.700951105917298E9, 0.0, 2023-11-25 17:25:05.917
19.0, 51523.09555090613, 67520.08259535821, 9063.162989993452, -7187.203429603986, 23121.225609925463, -31038.36995820641, 19276.90437756829, 16427.14636649446, -0.006, 0.982, 0.168, 192.0, 0.0, 0.0, 0.0, 0.0, 0.0, 0.0, 0.0, 0.0, 0.0, 1.700951105921294E9, 0.0, 2023-11-25 17:25:05.921
20.0, 51527.20827188591, 67539.97564792343, 9070.807286597168, -7167.980929372422, 23074.51046401387, -31243.80484149514, 19283.967528816167, 16393.931674233874, -0.002, 0.98, 0.166, 192.0, 255.0, 240.0, 30.0, 160.0, 5.0, 48.0, 0.0, 0.0, 0.0, 1.700951105926365E9, 0.0, 2023-11-25 17:25:05.926
21.0, 51556.15378095553, 67566.44011335852, 9072.774240109235, -7148.691373907492, 23069.43661802252, -31171.899279582416, 19287.409697462284, 16404.34758715005, -0.002, 0.98, 0.166, 192.0, 0.0, 0.0, 0.0, 0.0, 0.0, 0.0, 0.0, 0.0, 0.0, 1.700951105929267E9, 0.0, 2023-11-25 17:25:05.929
22.0, 51586.01571154782, 67577.03484023034, 9098.344635766105, -7127.233699230397, 23136.491851388437, -31102.474761304235, 19310.431994251252, 16438.277535233206, -0.002, 0.98, 0.166, 192.0, 0.0, 0.0, 0.0, 0.0, 0.0, 0.0, 0.0, 0.0, 0.0, 1.700951105933266E9, 0.0, 2023-11-25 17:25:05.933
23.0, 51543.23447266036, 67521.35664479216, 9075.545856421693, -7170.014938117855, 23153.38977019665, -30985.75395175862, 19289.06372655198, 16458.46116047635, -0.002, 0.98, 0.166, 192.0, 0.0, 0.0, 0.0, 0.0, 0.0, 0.0, 0.0, 0.0, 0.0, 1.70095110593727E9, 0.0, 2023-11-25 17:25:05.937
24.0, 51523.252013117315, 67523.36830179313, 9067.901559817978, -7176.385185287618, 23074.488112269417, -31250.778585765194, 19278.044316535514, 16392.076479444084, -0.002, 0.98, 0.166, 192.0, 0.0, 0.0, 0.0, 0.0, 0.0, 0.0, 0.0, 0.0, 0.0, 1.700951105941352E9, 0.0, 2023-11-25 17:25:05.941
25.0, 51551.862246020115, 67552.87260447415, 9070.561417408158, -7157.028574589322, 23073.32582155774, -31177.643677907432, 19282.782886360037, 16408.05797672963, -0.002, 0.98, 0.166, 192.0, 0.0, 0.0, 0.0, 0.0, 0.0, 0.0, 0.0, 0.0, 0.0, 1.700951105945394E9, 0.0, 2023-11-25 17:25:05.945
26.0, 51583.98170280239, 67576.54310185231, 9089.18042053943, -7138.722495880425, 23113.13427843264, -31150.329846183045, 19297.959720845192, 16419.323255935105, -0.002, 0.98, 0.166, 192.0, 0.0, 0.0, 0.0, 0.0, 0.0, 0.0, 0.0, 0.0, 0.0, 1.700951105949828E9, 0.0, 2023-11-25 17:25:05.949
27.0, 51550.58819658616, 67528.03981638429, 9076.305815733172, -7172.60774047467, 23165.370305224696, -30970.532413784556, 19291.075383552958, 16468.139465825494, -0.002, 0.98, 0.166, 192.0, 0.0, 0.0, 0.0, 0.0, 0.0, 0.0, 0.0, 0.0, 0.0, 1.70095110595435E9, 0.0, 2023-11-25 17:25:05.954
28.0, 51518.848719459624, 67515.07580460022, 9065.55462665017, -7185.415290047561, 23080.925414672543, -31230.505553544233, 19279.899511325304, 16405.15224995044, -0.002, 0.98, 0.166, 192.0, 0.0, 0.0, 0.0, 0.0, 0.0, 0.0, 0.0, 0.0, 0.0, 1.700951105957366E9, 0.0, 2023-11-25 17:25:05.957
29.0, 51540.462856347905, 67536.75699672187, 9067.83450458461, -7169.389089273106, 23075.918623914557, -31183.678648910365, 19282.894645082313, 16413.176526209896, -0.002, 0.98, 0.166, 192.0, 0.0, 0.0, 0.0, 0.0, 0.0, 0.0, 0.0, 0.0, 0.0, 1.700951105960503E9, 0.0, 2023-11-25 17:25:05.960
30.0, 51580.31601671172, 67566.66363080307, 9092.711996163369, -7145.450370961473, 23098.04685092531, -31179.54357618613, 19300.44076447973, 16413.95883726583, -0.002, 0.98, 0.166, 192.0, 0.0, 0.0, 30.0, 112.0, 4.0, 208.0, 0.0, 0.0, 0.0, 1.700951105965392E9, 0.0, 2023-11-25 17:25:05.965
31.0, 51541.96042322641, 67510.35958652015, 9075.881132588522, -7181.079051623232, 23161.10112203373, -30970.487710295645, 19291.142438786323, 16468.385335014504, -0.002, 0.98, 0.166, 192.0, 0.0, 0.0, 0.0, 0.0, 0.0, 0.0, 0.0, 0.0, 0.0, 1.700951105969403E9, 0.0, 2023-11-25 17:25:05.969
32.0, 51507.06935013168, 67497.30616775824, 9067.499228417782, -7193.506621540382, 23084.9487286745, -31200.151884573927, 19275.652679878793, 16401.039528970665, -0.002, 0.98, 0.166, 192.0, 0.0, 0.0, 0.0, 0.0, 0.0, 0.0, 0.0, 0.0, 0.0, 1.700951105973415E9, 0.0, 2023-11-25 17:25:05.973
33.0, 51531.72332426588, 67526.9892843949, 9078.876266345533, -7164.56111247076, 23086.200426363997, -31188.59603269053, 19290.740107386126, 16417.557468123134, -0.002, 0.98, 0.166, 192.0, 0.0, 0.0, 0.0, 0.0, 0.0, 0.0, 0.0, 0.0, 0.0, 1.700951105977409E9, 0.0, 2023-11-25 17:25:05.977
34.0, 51571.710595096425, 67562.97559296794, 9098.232877043829, -7132.799283599768, 23094.157647390086, -31175.92259358437, 19306.67690118276, 16418.608000112534, -0.002, 0.98, 0.166, 192.0, 0.0, 0.0, 0.0, 0.0, 0.0, 0.0, 0.0, 0.0, 0.0, 1.700951105982494E9, 0.0, 2023-11-25 17:25:05.982
35.0, 51543.39093487155, 67514.40525226656, 9085.246513515296, -7162.4376967475055, 23161.72697087848, -30976.388570831845, 19305.224037793167, 16475.649651962478, -0.002, 0.98, 0.166, 192.0, 0.0, 0.0, 0.0, 0.0, 0.0, 0.0, 0.0, 0.0, 0.0, 1.700951105985381E9, 0.0, 2023-11-25 17:25:05.985
36.0, 51500.0061988838, 67484.58802516318, 9064.504094660771, -7193.439566307016, 23090.08962989922, -31137.276427421148, 19284.168694516266, 16422.787776325677, -0.002, 0.98, 0.166, 192.0, 0.0, 0.0, 0.0, 0.0, 0.0, 0.0, 0.0, 0.0, 0.0, 1.700951105989278E9, 0.0, 2023-11-25 17:25:05.989
37.0, 51513.79722521272, 67505.91158937354, 9069.26501622975, -7174.015900375355, 23069.548376744795, -31209.740782945253, 19291.276549253053, 16421.178450724896, -0.002, 0.98, 0.166, 192.0, 0.0, 0.0, 0.0, 0.0, 0.0, 0.0, 0.0, 0.0, 0.0, 1.700951105993411E9, 0.0, 2023-11-25 17:25:05.993
38.0, 51554.83502803267, 67544.13307239211, 9084.218333270352, -7147.551434940271, 23067.849644166192, -31184.17038728838, 19296.126877799856, 16410.270799430706, -0.002, 0.98, 0.166, 192.0, 0.0, 0.0, 0.0, 0.0, 0.0, 0.0, 0.0, 0.0, 0.0, 1.700951105998268E9, 0.0, 2023-11-25 17:25:05.998
39.0, 51552.80101928723, 67520.32846454722, 9089.13571705052, -7157.877940878623, 23145.05256951482, -31024.131896988383, 19301.133668557843, 16457.00829708675, -0.002, 0.98, 0.166, 192.0, 0.0, 0.0, 0.0, 0.0, 0.0, 0.0, 0.0, 0.0, 0.0, 1.700951106001431E9, 0.0, 2023-11-25 17:25:06.001
40.0, 51501.23554482884, 67472.00399303484, 9059.206731224864, -7203.497851311905, 23096.19165613552, -31087.879072174917, 19268.85774956438, 16422.25133445875, -0.002, 0.98, 0.166, 192.0, 0.0, 0.0, 30.0, 144.0, 5.0, 32.0, 0.0, 0.0, 0.0, 1.700951106006527E9, 0.0, 2023-11-25 17:25:06.006
41.0, 51506.89053617603, 67489.03602230978, 9061.821885326133, -7190.109156383176, 23056.003219604878, -31248.632818297487, 19267.20372047469, 16393.48463934477, -0.002, 0.98, 0.166, 192.0, 0.0, 0.0, 0.0, 0.0, 0.0, 0.0, 0.0, 0.0, 0.0, 1.700951106009521E9, 0.0, 2023-11-25 17:25:06.009
42.0, 51547.034269217766, 67530.65497048557, 9069.622644141036, -7167.13156308312, 23052.046960836287, -31195.27920428267, 19268.61188037537, 16394.53517133417, -0.002, 0.98, 0.166, 192.0, 0.0, 0.0, 0.0, 0.0, 0.0, 0.0, 0.0, 0.0, 0.0, 1.700951106013477E9, 0.0, 2023-11-25 17:25:06.013
43.0, 51566.65910084952, 67538.23221185592, 9084.486554203815, -7161.6106822026595, 23125.29362741633, -31084.794531440086, 19282.984052060136, 16436.86937533252, -0.002, 0.98, 0.166, 192.0, 0.0, 0.0, 0.0, 0.0, 0.0, 0.0, 0.0, 0.0, 0.0, 1.700951106017606E9, 0.0, 2023-11-25 17:25:06.017
44.0, 51516.278268847265, 67485.75031587486, 9056.703335845868, -7206.783557746835, 23113.491906343927, -31036.894743072364, 19255.849034291394, 16430.946163051864, -0.002, 0.98, 0.166, 192.0, 0.0, 0.0, 0.0, 0.0, 0.0, 0.0, 0.0, 0.0, 0.0, 1.700951106021517E9, 0.0, 2023-11-25 17:25:06.021
45.0, 51507.76225420979, 67492.29937700026, 9061.531312648214, -7196.747624486402, 23056.18203356052, -31259.674580058407, 19251.80336854498, 16382.331118861572, -0.002, 0.98, 0.166, 192.0, 0.0, 0.0, 0.0, 0.0, 0.0, 0.0, 0.0, 0.0, 0.0, 1.700951106025545E9, 0.0, 2023-11-25 17:25:06.025
46.0, 51542.988603471356, 67523.92709540452, 9072.215446497852, -7172.071298607743, 23055.80205390478, -31190.51828271369, 19257.234842447622, 16389.371918364992, -0.002, 0.98, 0.166, 192.0, 0.0, 0.0, 0.0, 0.0, 0.0, 0.0, 0.0, 0.0, 0.0, 1.700951106028529E9, 0.0, 2023-11-25 17:25:06.028
47.0, 51573.58814163067, 67537.3381420777, 9094.99187409781, -7151.932376853511, 23113.737775532936, -31128.62630231694, 19281.262967737075, 16417.982151267785, -0.002, 0.98, 0.166, 192.0, 0.0, 0.0, 0.0, 0.0, 0.0, 0.0, 0.0, 0.0, 0.0, 1.700951106033593E9, 0.0, 2023-11-25 17:25:06.033
48.0, 51530.40457134302, 67481.34702221716, 9069.667347629947, -7193.171345373553, 23135.86600254369, -30995.521664085587, 19267.114313496866, 16444.24545100277, -0.002, 0.98, 0.166, 192.0, 0.0, 0.0, 0.0, 0.0, 0.0, 0.0, 0.0, 0.0, 0.0, 1.700951106037547E9, 0.0, 2023-11-25 17:25:06.037
49.0, 51510.9585536669, 67479.8271035942, 9062.783010337713, -7193.9983599184, 23062.507577241373, -31249.146908419956, 19262.86748205036, 16391.405927110427, -0.002, 0.98, 0.166, 192.0, 0.0, 0.0, 0.0, 0.0, 0.0, 0.0, 0.0, 0.0, 0.0, 1.700951106041514E9, 0.0, 2023-11-25 17:25:06.041
50.0, 51541.0663534482, 67510.67251094253, 9066.448696428382, -7172.51833349685, 23063.580460975227, -31176.436683706845, 19269.28243270903, 16405.44282262836, 0.002, 0.98, 0.164, 192.0, 0.0, 16.0, 30.0, 160.0, 5.0, 32.0, 0.0, 0.0, 0.0, 1.700951106045503E9, 0.0, 2023-11-25 17:25:06.045
51.0, 51577.90202831054, 67538.32161883374, 9087.436984471917, -7150.993603586388, 23099.365603848175, -31156.83420381954, 19289.53311318554, 16412.885953531975, 0.002, 0.98, 0.164, 192.0, 0.0, 0.0, 0.0, 0.0, 0.0, 0.0, 0.0, 0.0, 0.0, 1.700951106051555E9, 0.0, 2023-11-25 17:25:06.051
52.0, 51542.206292415416, 67487.42669670901, 9070.561417408158, -7187.046967392799, 23152.227479484973, -30970.241841106636, 19282.939348571224, 16459.44463723238, 0.002, 0.98, 0.164, 192.0, 0.0, 0.0, 0.0, 0.0, 0.0, 0.0, 0.0, 0.0, 0.0, 1.700951106054551E9, 0.0, 2023-11-25 17:25:06.054
53.0, 51514.7583502243, 67480.92233907251, 9063.498266160283, -7192.5454965288045, 23070.956536645477, -31221.006062150725, 19277.507874668583, 16398.983168480776, 0.002, 0.98, 0.164, 192.0, 0.0, 0.0, 0.0, 0.0, 0.0, 0.0, 0.0, 0.0, 0.0, 1.700951106057576E9, 0.0, 2023-11-25 17:25:06.057
54.0, 51534.092609178144, 67505.59866495118, 9070.360251708062, -7168.070336350243, 23070.86712966766, -31171.005209804203, 19290.650700408307, 16423.86066005953, 0.002, 0.98, 0.164, 192.0, 0.0, 0.0, 0.0, 0.0, 0.0, 0.0, 0.0, 0.0, 0.0, 1.700951106060626E9, 0.0, 2023-11-25 17:25:06.060
55.0, 51563.97689151489, 67531.28081933032, 9087.302874005183, -7147.417324473539, 23087.563882775772, -31168.434759191845, 19302.050090080513, 16422.11722399202, 0.002, 0.98, 0.164, 192.0, 0.0, 0.0, 0.0, 0.0, 0.0, 0.0, 0.0, 0.0, 0.0, 1.700951106065708E9, 0.0, 2023-11-25 17:25:06.065
56.0, 51532.79620799974, 67484.25274899635, 9079.03272855672, -7176.586350987715, 23160.05059004433, -30959.200079345715, 19300.708985413192, 16478.108343852564, 0.002, 0.98, 0.164, 192.0, 0.0, 0.0, 0.0, 0.0, 0.0, 0.0, 0.0, 0.0, 0.0, 1.700951106069656E9, 0.0, 2023-11-25 17:25:06.069
57.0, 51495.580553481646, 67467.08660925468, 9066.828676084122, -7196.524107041849, 23081.975946661943, -31171.02756154866, 19281.710002626183, 16419.993808268762, 0.002, 0.98, 0.164, 192.0, 0.0, 0.0, 0.0, 0.0, 0.0, 0.0, 0.0, 0.0, 0.0, 1.700951106073606E9, 0.0, 2023-11-25 17:25:06.073
58.0, 51516.837062458646, 67496.65796716904, 9076.238760499808, -7171.870132907646, 23081.037173394823, -31184.460959966298, 19290.941273086224, 16431.572011896613, 0.002, 0.98, 0.164, 192.0, 0.0, 0.0, 0.0, 0.0, 0.0, 0.0, 0.0, 0.0, 0.0, 1.700951106077637E9, 0.0, 2023-11-25 17:25:06.077
59.0, 51557.383126900575, 67536.95816242197, 9091.326188007139, -7147.573786684727, 23083.85349319619, -31174.201509261315, 19296.126877799856, 16426.475814160804, 0.002, 0.98, 0.164, 192.0, 0.0, 0.0, 0.0, 0.0, 0.0, 0.0, 0.0, 0.0, 0.0, 1.700951106080644E9, 0.0, 2023-11-25 17:25:06.080
60.0, 51547.43660061796, 67509.44316499749, 9092.332016507627, -7160.135467068609, 23164.900918591135, -30979.875442966873, 19297.57974118945, 16486.758468956767, -0.004, 0.98, 0.154, 192.0, 255.0, 224.0, 30.0, 160.0, 4.0, 208.0, 0.0, 0.0, 0.0, 1.700951106084638E9, 0.0, 2023-11-25 17:25:06.084
61.0, 51504.47654777486, 67476.13906575908, 9071.701356375379, -7190.891467439112, 23100.706708515492, -31119.77501151264, 19270.08709550942, 16435.729436365298, -0.004, 0.98, 0.154, 192.0, 0.0, 0.0, 0.0, 0.0, 0.0, 0.0, 0.0, 0.0, 0.0, 1.700951106088663E9, 0.0, 2023-11-25 17:25:06.088
62.0, 51520.614507271595, 67502.1788480495, 9079.36800472355, -7170.37256602914, 23080.32191757225, -31212.22182657979, 19274.222168233653, 16424.642971115467, -0.004, 0.98, 0.154, 192.0, 0.0, 0.0, 0.0, 0.0, 0.0, 0.0, 0.0, 0.0, 0.0, 1.700951106092793E9, 0.0, 2023-11-25 17:25:06.092
63.0, 51564.26746419281, 67544.87067995915, 9093.60606594158, -7145.450370961473, 23078.310260571274, -31179.58827967504, 19281.19591250371, 16420.351436180048, -0.004, 0.98, 0.154, 192.0, 0.0, 0.0, 0.0, 0.0, 0.0, 0.0, 0.0, 0.0, 0.0, 1.700951106097648E9, 0.0, 2023-11-25 17:25:06.097
64.0, 51572.269388707806, 67531.30317107477, 9103.552592224192, -7150.993603586388, 23156.183738253563, -31025.361242933424, 19291.030680064046, 16468.944128625888, -0.004, 0.98, 0.154, 192.0, 0.0, 0.0, 0.0, 0.0, 0.0, 0.0, 0.0, 0.0, 0.0, 1.700951106101805E9, 0.0, 2023-11-25 17:25:06.101
65.0, 51531.00806844331, 67494.13222004559, 9085.157106537474, -7184.744737713902, 23122.074976214764, -31064.00740909665, 19269.975336787145, 16441.026799801206, -0.004, 0.98, 0.154, 192.0, 0.0, 0.0, 0.0, 0.0, 0.0, 0.0, 0.0, 0.0, 0.0, 1.700951106105716E9, 0.0, 2023-11-25 17:25:06.105
66.0, 51523.63199277306, 67500.43541198199, 9085.17945828193, -7176.496944009894, 23074.71162971397, -31231.578437278087, 19268.05308676399, 16408.840287785566, -0.004, 0.98, 0.154, 192.0, 0.0, 0.0, 0.0, 0.0, 0.0, 0.0, 0.0, 0.0, 0.0, 1.700951106108752E9, 0.0, 2023-11-25 17:25:06.108
67.0, 51559.28302517928, 67538.50043278938, 9095.349502009094, -7152.133542553609, 23073.549339002293, -31178.873023852473, 19270.355316442885, 16408.68382557438, -0.004, 0.98, 0.154, 192.0, 0.0, 0.0, 0.0, 0.0, 0.0, 0.0, 0.0, 0.0, 0.0, 1.700951106112724E9, 0.0, 2023-11-25 17:25:06.112
68.0, 51576.69503410996, 67538.16515662255, 9110.012246371776, -7143.215196515942, 23142.683284602557, -31074.266859801635, 19290.695403897214, 16450.123959794517, -0.004, 0.98, 0.154, 192.0, 0.0, 0.0, 0.0, 0.0, 0.0, 0.0, 0.0, 0.0, 0.0, 1.700951106116785E9, 0.0, 2023-11-25 17:25:06.116
69.0, 51529.37639109807, 67485.19152226347, 9083.927760592433, -7182.889542924112, 23141.073959001777, -31005.42348687929, 19275.742086856615, 16453.633183674, -0.004, 0.98, 0.154, 192.0, 0.0, 0.0, 0.0, 0.0, 0.0, 0.0, 0.0, 0.0, 0.0, 1.700951106120761E9, 0.0, 2023-11-25 17:25:06.120
70.0, 51513.93133567945, 67485.5267984303, 9076.41757445545, -7181.481383023427, 23073.95167040249, -31237.54635304765, 19268.298955953, 16396.18920042386, -0.006, 0.986, 0.164, 192.0, 255.0, 208.0, 30.0, 208.0, 5.0, 32.0, 0.0, 0.0, 0.0, 1.700951106125939E9, 0.0, 2023-11-25 17:25:06.125
71.0, 51551.90694950902, 67526.22932508342, 9084.911237348466, -7152.804094887269, 23077.393839048607, -31165.573735901566, 19275.987956045625, 16406.42629938439, -0.006, 0.986, 0.164, 192.0, 0.0, 0.0, 0.0, 0.0, 0.0, 0.0, 0.0, 0.0, 0.0, 1.700951106129768E9, 0.0, 2023-11-25 17:25:06.129
72.0, 51581.38890044557, 67545.76474973735, 9104.021978857754, -7133.134559766599, 23130.993322252434, -31111.996604442193, 19296.57391268896, 16433.673075875413, -0.006, 0.986, 0.164, 192.0, 0.0, 0.0, 0.0, 0.0, 0.0, 0.0, 0.0, 0.0, 0.0, 1.700951106133848E9, 0.0, 2023-11-25 17:25:06.133
73.0, 51535.500769078826, 67490.15360953256, 9079.859743101566, -7176.273426565341, 23158.933002821566, -30966.17382361577, 19281.1512090148, 16463.60206170107, -0.006, 0.986, 0.164, 192.0, 0.0, 0.0, 0.0, 0.0, 0.0, 0.0, 0.0, 0.0, 0.0, 1.700951106137164E9, 0.0, 2023-11-25 17:25:06.137
74.0, 51517.2617456033, 67493.70753690094, 9076.17170526644, -7176.072260865243, 23083.51821702936, -31226.973977920294, 19279.921863069758, 16407.275665673693, -0.006, 0.986, 0.164, 192.0, 0.0, 0.0, 0.0, 0.0, 0.0, 0.0, 0.0, 0.0, 0.0, 1.700951106140847E9, 0.0, 2023-11-25 17:25:06.140
75.0, 51544.26265290531, 67521.20018258097, 9076.954016322377, -7158.906121123568, 23081.774780961845, -31161.93040155535, 19286.448572450707, 16427.705160105845, -0.006, 0.986, 0.164, 192.0, 0.0, 0.0, 0.0, 0.0, 0.0, 0.0, 0.0, 0.0, 0.0, 1.700951106144774E9, 0.0, 2023-11-25 17:25:06.144
76.0, 51581.634769634584, 67549.58689803921, 9100.244534044807, -7138.275460991319, 23113.62601681066, -31148.474651393255, 19306.743956416125, 16436.26587823223, -0.006, 0.986, 0.164, 192.0, 0.0, 0.0, 0.0, 0.0, 0.0, 0.0, 0.0, 0.0, 0.0, 1.700951106148793E9, 0.0, 2023-11-25 17:25:06.148
77.0, 51545.223777916886, 67499.27312127032, 9086.677025160436, -7175.625225976137, 23169.43832271556, -30951.779300186554, 19306.453383738208, 16488.680718979922, -0.006, 0.986, 0.164, 192.0, 0.0, 0.0, 0.0, 0.0, 0.0, 0.0, 0.0, 0.0, 0.0, 1.700951106153829E9, 0.0, 2023-11-25 17:25:06.153
78.0, 51507.605791998605, 67480.6764698835, 9071.65665288647, -7192.701958739992, 23079.450199538496, -31208.153809088926, 19286.91795908427, 16410.53902036417, -0.006, 0.986, 0.164, 192.0, 0.0, 0.0, 0.0, 0.0, 0.0, 0.0, 0.0, 0.0, 0.0, 1.700951106157851E9, 0.0, 2023-11-25 17:25:06.157
79.0, 51530.29281262074, 67499.67545267052, 9075.188228510407, -7173.300644552785, 23074.979850647433, -31180.03531456415, 19291.522418442062, 16416.976322767296, -0.006, 0.986, 0.164, 192.0, 0.0, 0.0, 0.0, 0.0, 0.0, 0.0, 0.0, 0.0, 0.0, 1.700951106160854E9, 0.0, 2023-11-25 17:25:06.160
80.0, 51570.34713868465, 67533.51599377584, 9090.32035950665, -7149.451333218973, 23086.178074619544, -31181.957564587305, 19300.329005757452, 16399.519610347703, -0.008, 0.98, 0.166, 192.0, 255.0, 192.0, 30.0, 160.0, 5.0, 48.0, 0.0, 0.0, 0.0, 1.700951106164916E9, 0.0, 2023-11-25 17:25:06.164
81.0, 51555.39382164405, 67497.97672009192, 9085.671196659947, -7165.410478760062, 23163.448055201537, -30967.71609398319, 19306.11810757138, 16471.96161412735, -0.008, 0.98, 0.166, 192.0, 0.0, 0.0, 0.0, 0.0, 0.0, 0.0, 0.0, 0.0, 0.0, 1.700951106168919E9, 0.0, 2023-11-25 17:25:06.168
82.0, 51511.07031238917, 67468.38301043308, 9061.866588815044, -7190.243266849908, 23079.114923371664, -31164.4561486788, 19291.142438786323, 16431.616715385524, -0.008, 0.98, 0.166, 192.0, 0.0, 0.0, 0.0, 0.0, 0.0, 0.0, 0.0, 0.0, 0.0, 1.700951106172909E9, 0.0, 2023-11-25 17:25:06.172
83.0, 51534.025553944775, 67503.29643527228, 9071.835466842113, -7161.230702546919, 23075.80686519228, -31191.16648330289, 19302.430069736252, 16439.886860833987, -0.008, 0.98, 0.166, 192.0, 0.0, 0.0, 0.0, 0.0, 0.0, 0.0, 0.0, 0.0, 0.0, 1.700951106176885E9, 0.0, 2023-11-25 17:25:06.176
84.0, 51575.44333642046, 67546.72587474894, 9087.548743194193, -7132.754580110858, 23083.674679240547, -31174.156805772403, 19304.62054069287, 16432.197860741362, -0.008, 0.98, 0.166, 192.0, 0.0, 0.0, 0.0, 0.0, 0.0, 0.0, 0.0, 0.0, 0.0, 1.700951106180899E9, 0.0, 2023-11-25 17:25:06.180
85.0, 51557.29371992275, 67514.27114179984, 9080.70910939087, -7151.46299021995, 23161.25758424492, -30987.47503608168, 19298.116183056376, 16484.50094276678, -0.008, 0.98, 0.166, 192.0, 0.0, 0.0, 0.0, 0.0, 0.0, 0.0, 0.0, 0.0, 0.0, 1.700951106185958E9, 0.0, 2023-11-25 17:25:06.185
86.0, 51507.42697804296, 67480.60941465014, 9055.786914323202, -7185.035310391821, 23100.505542815394, -31105.44754331679, 19264.789732073514, 16430.11914850702, -0.008, 0.98, 0.166, 192.0, 0.0, 0.0, 0.0, 0.0, 0.0, 0.0, 0.0, 0.0, 0.0, 1.700951106189316E9, 0.0, 2023-11-25 17:25:06.189
87.0, 51524.77193174028, 67509.62197895313, 9072.237798242308, -7156.7380019114025, 23084.14406587411, -31207.75147768873, 19275.339755456418, 16415.814032055623, -0.008, 0.98, 0.166, 192.0, 0.0, 0.0, 0.0, 0.0, 0.0, 0.0, 0.0, 0.0, 0.0, 1.700951106193167E9, 0.0, 2023-11-25 17:25:06.193
88.0, 51566.59204561616, 67547.61994452715, 9086.632321671525, -7134.475664433917, 23081.551263517293, -31166.46780567978, 19278.312537468977, 16408.884991274477, -0.008, 0.98, 0.166, 192.0, 0.0, 0.0, 0.0, 0.0, 0.0, 0.0, 0.0, 0.0, 0.0, 1.700951106197008E9, 0.0, 2023-11-25 17:25:06.197
89.0, 51572.51525789681, 67535.86292694365, 9100.356292767083, -7135.861472590145, 23162.06224704531, -31025.160077233326, 19289.711927141183, 16458.952898854364, -0.008, 0.98, 0.166, 192.0, 0.0, 0.0, 0.0, 0.0, 0.0, 0.0, 0.0, 0.0, 0.0, 1.700951106200988E9, 0.0, 2023-11-25 17:25:06.200
90.0, 51521.68739100545, 67486.95731007545, 9076.641091900003, -7176.206371331975, 23134.48019438746, -31035.777155849595, 19266.555519885485, 16446.10064579256, -0.004, 0.976, 0.16, 192.0, 255.0, 224.0, 30.0, 128.0, 5.0, 0.0, 0.0, 0.0, 0.0, 1.70095110620502E9, 0.0, 2023-11-25 17:25:06.205
91.0, 51520.63685901605, 67499.34017650368, 9083.301911747683, -7159.688432179503, 23089.419077565562, -31223.509457529723, 19270.95881354318, 16416.037549500175, -0.004, 0.976, 0.16, 192.0, 0.0, 0.0, 0.0, 0.0, 0.0, 0.0, 0.0, 0.0, 0.0, 1.700951106208961E9, 0.0, 2023-11-25 17:25:06.208
92.0, 51549.44825761894, 67523.1894878375, 9088.107536805575, -7143.036382560299, 23079.919586172055, -31162.93623005584, 19273.976299044647, 16423.167755981416, -0.004, 0.976, 0.16, 192.0, 0.0, 0.0, 0.0, 0.0, 0.0, 0.0, 0.0, 0.0, 0.0, 1.700951106214009E9, 0.0, 2023-11-25 17:25:06.214
93.0, 51569.22955146188, 67524.86586867165, 9105.005455613787, -7131.860510332645, 23144.24790671443, -31071.025856855616, 19291.187142275234, 16456.225986030815, -0.004, 0.976, 0.16, 192.0, 0.0, 0.0, 0.0, 0.0, 0.0, 0.0, 0.0, 0.0, 0.0, 1.700951106218103E9, 0.0, 2023-11-25 17:25:06.218
94.0, 51521.59798402763, 67470.43937092298, 9081.13379253552, -7174.5299904978265, 23147.600668382725, -30987.944422715238, 19272.366973443863, 16463.065619834142, -0.004, 0.976, 0.16, 192.0, 0.0, 0.0, 0.0, 0.0, 0.0, 0.0, 0.0, 0.0, 0.0, 1.70095110622103E9, 0.0, 2023-11-25 17:25:06.221
95.0, 51506.197632097916, 67476.0273070368, 9082.251379758285, -7166.505714238372, 23082.244167595407, -31230.259684355224, 19273.417505433263, 16413.91413377692, -0.004, 0.976, 0.16, 192.0, 0.0, 0.0, 0.0, 0.0, 0.0, 0.0, 0.0, 0.0, 0.0, 1.700951106225055E9, 0.0, 2023-11-25 17:25:06.225
96.0, 51531.25393763232, 67506.02334809583, 9084.71007164837, -7145.897405850578, 23077.28208032633, -31155.18017472985, 19280.234787492132, 16425.134709493483, -0.004, 0.976, 0.16, 192.0, 0.0, 0.0, 0.0, 0.0, 0.0, 0.0, 0.0, 0.0, 0.0, 1.700951106229182E9, 0.0, 2023-11-25 17:25:06.229
97.0, 51553.69508906545, 67520.2390575694, 9098.61285669957, -7133.26867023333, 23117.314054645783, -31113.784743998618, 19299.278473768052, 16443.82076785812, -0.004, 0.976, 0.16, 192.0, 0.0, 0.0, 0.0, 0.0, 0.0, 0.0, 0.0, 0.0, 0.0, 1.700951106233194E9, 0.0, 2023-11-25 17:25:06.233
98.0, 51507.00229489831, 67461.90100454104, 9075.70231863288, -7173.613568975159, 23152.763921351903, -30957.099015366915, 19289.354299229897, 16479.44944851988, -0.004, 0.976, 0.16, 192.0, 0.0, 0.0, 0.0, 0.0, 0.0, 0.0, 0.0, 0.0, 0.0, 1.700951106237131E9, 0.0, 2023-11-25 17:25:06.237
99.0, 51479.30848351819, 67458.99527776186, 9067.610987140059, -7180.788478945313, 23068.31903079975, -31224.40352730793, 19286.001537561602, 16418.92092453491, 0.002, 0.982, 0.162, 192.0, 0.0, 16.0, 30.0, 176.0, 5.0, 16.0, 0.0, 0.0, 0.0, 1.700951106242088E9, 0.0, 2023-11-25 17:25:06.242
100.0, 51512.0090856563, 67495.47332471292, 9075.232931999319, -7154.346365254684, 23069.101341855687, -31161.55042189961, 19296.082174310945, 16437.159948010438, 0.002, 0.982, 0.162, 192.0, 0.0, 0.0, 0.0, 0.0, 0.0, 0.0, 0.0, 0.0, 0.0, 1.700951106245128E9, 0.0, 2023-11-25 17:25:06.245
101.0, 51536.8642254906, 67514.96404587795, 9080.46324020186, -7143.170493027031, 23083.60762400718, -31155.35898868549, 19297.49033421163, 16427.168718238918, 0.002, 0.982, 0.162, 192.0, 0.0, 0.0, 0.0, 0.0, 0.0, 0.0, 0.0, 0.0, 0.0, 1.700951106248119E9, 0.0, 2023-11-25 17:25:06.248
102.0, 51494.86529765908, 67459.39760916206, 9053.104704988564, -7183.493040024405, 23138.25763920041, -30960.116500868382, 19281.464133437174, 16470.17347457093, 0.002, 0.982, 0.162, 192.0, 0.0, 0.0, 0.0, 0.0, 0.0, 0.0, 0.0, 0.0, 0.0, 1.700951106253262E9, 0.0, 2023-11-25 17:25:06.253
103.0, 51461.62825365404, 67444.84662352165, 9037.078504214109, -7197.9993221759, 23055.60088820468, -31209.27139631169, 19262.554557627984, 16408.66147382992, 0.002, 0.982, 0.162, 192.0, 0.0, 0.0, 0.0, 0.0, 0.0, 0.0, 0.0, 0.0, 0.0, 1.700951106257168E9, 0.0, 2023-11-25 17:25:06.257
104.0, 51487.08689058863, 67472.51808315731, 9041.973536249821, -7175.401708531584, 23057.143158572097, -31182.3598959875, 19267.159016985777, 16421.133747235985, 0.002, 0.982, 0.162, 192.0, 0.0, 0.0, 0.0, 0.0, 0.0, 0.0, 0.0, 0.0, 0.0, 1.700951106261467E9, 0.0, 2023-11-25 17:25:06.261
105.0, 51524.2131381289, 67500.70363291545, 9053.149408477475, -7159.979004857422, 23062.552280730284, -31186.919651856384, 19268.410714675276, 16402.402985382436, 0.002, 0.982, 0.162, 192.0, 0.0, 0.0, 0.0, 0.0, 0.0, 0.0, 0.0, 0.0, 0.0, 1.700951106265175E9, 0.0, 2023-11-25 17:25:06.265
106.0, 51507.65049548751, 67459.17409171749, 9049.729591575813, -7184.409461547072, 23138.883488045158, -30992.392419861844, 19266.309650696476, 16450.63804991699, 0.002, 0.982, 0.162, 192.0, 0.0, 0.0, 0.0, 0.0, 0.0, 0.0, 0.0, 0.0, 0.0, 1.70095110626925E9, 0.0, 2023-11-25 17:25:06.269
107.0, 51480.895457374514, 67445.36071364411, 9047.539120619193, -7198.401653576095, 23074.242243080407, -31175.69907613982, 19256.653697091784, 16401.48656385977, 0.002, 0.982, 0.162, 192.0, 0.0, 0.0, 0.0, 0.0, 0.0, 0.0, 0.0, 0.0, 0.0, 1.70095110627325E9, 0.0, 2023-11-25 17:25:06.273
108.0, 51498.28511456074, 67470.01468777833, 9058.156199235464, -7178.150973099587, 23064.943917387, -31208.04205036665, 19264.90149079579, 16408.52736336319, 0.002, 0.982, 0.162, 192.0, 0.0, 0.0, 0.0, 0.0, 0.0, 0.0, 0.0, 0.0, 0.0, 1.700951106276257E9, 0.0, 2023-11-25 17:25:06.276
109.0, 51535.38901035655, 67502.93880736099, 9072.930702320422, -7157.8555891341675, 23061.211176062963, -31191.680573425365, 19268.05308676399, 16395.250427156738, 0.002, 0.984, 0.158, 192.0, 0.0, 16.0, 30.0, 192.0, 4.0, 240.0, 0.0, 0.0, 0.0, 1.700951106281221E9, 0.0, 2023-11-25 17:25:06.281
110.0, 51530.71749576539, 67475.51321691433, 9081.469068702349, -7169.143220084098, 23141.990380524443, -31019.862713797418, 19273.9986507891, 16443.485491691292, 0.002, 0.984, 0.158, 192.0, 0.0, 0.0, 0.0, 0.0, 0.0, 0.0, 0.0, 0.0, 0.0, 1.700951106285327E9, 0.0, 2023-11-25 17:25:06.285
111.0, 51491.13255633504, 67445.45012062194, 9071.65665288647, -7193.461918051472, 23096.32576660225, -31115.25995913267, 19257.57011861445, 16407.81210754062, 0.002, 0.984, 0.158, 192.0, 0.0, 0.0, 0.0, 0.0, 0.0, 0.0, 0.0, 0.0, 0.0, 1.700951106289263E9, 0.0, 2023-11-25 17:25:06.289
112.0, 51500.52028900627, 67471.2216819789, 9083.972464081344, -7169.254978806374, 23071.381219790128, -31223.777678463186, 19266.980203030136, 16401.44186037086, 0.002, 0.984, 0.158, 192.0, 0.0, 0.0, 0.0, 0.0, 0.0, 0.0, 0.0, 0.0, 0.0, 1.700951106293376E9, 0.0, 2023-11-25 17:25:06.293
113.0, 51538.58530981366, 67513.17590632151, 9101.764452667769, -7138.610737158148, 23072.945841902, -31175.900241839918, 19276.166770001266, 16405.01813948371, 0.002, 0.984, 0.158, 192.0, 0.0, 0.0, 0.0, 0.0, 0.0, 0.0, 0.0, 0.0, 0.0, 1.700951106297304E9, 0.0, 2023-11-25 17:25:06.297
114.0, 51547.526007595785, 67503.72111841693, 9115.667237718968, -7134.900347578568, 23150.59580213974, -31036.917094816818, 19293.064688809478, 16457.276518020215, 0.002, 0.984, 0.158, 192.0, 0.0, 0.0, 0.0, 0.0, 0.0, 0.0, 0.0, 0.0, 0.0, 1.700951106301378E9, 0.0, 2023-11-25 17:25:06.301
115.0, 51506.04116988673, 67464.73967608687, 9097.65173168799, -7166.885693894112, 23131.0603774858, -31024.958911533227, 19277.552578157494, 16451.755637139755, 0.002, 0.984, 0.158, 192.0, 0.0, 0.0, 0.0, 0.0, 0.0, 0.0, 0.0, 0.0, 0.0, 1.700951106304316E9, 0.0, 2023-11-25 17:25:06.304
116.0, 51494.57472498116, 67472.6745453685, 9098.076414832642, -7156.089801322199, 23079.8972344276, -31209.807838178618, 19285.308633483488, 16420.977285024797, 0.002, 0.984, 0.158, 192.0, 0.0, 0.0, 0.0, 0.0, 0.0, 0.0, 0.0, 0.0, 0.0, 1.700951106308297E9, 0.0, 2023-11-25 17:25:06.308
117.0, 51521.083893905154, 67503.2293800389, 9102.882039890534, -7132.4416556884835, 23077.19267334851, -31137.097613465503, 19288.750802129605, 16423.838308315077, 0.002, 0.984, 0.158, 192.0, 0.0, 0.0, 0.0, 0.0, 0.0, 0.0, 0.0, 0.0, 0.0, 1.700951106313322E9, 0.0, 2023-11-25 17:25:06.313
118.0, 51540.57461507018, 67512.46065049895, 9123.66916223397, -7113.017989756821, 23144.80670032581, -31049.881106600897, 19313.00244486361, 16461.92568086692, 0.002, 0.984, 0.158, 192.0, 0.0, 0.0, 0.0, 0.0, 0.0, 0.0, 0.0, 0.0, 0.0, 1.700951106317786E9, 0.0, 2023-11-25 17:25:06.317
119.0, 51493.30067554721, 67457.49771088336, 9099.126946822042, -7153.69816466548, 23153.568584152294, -30946.07960535045, 19301.647758680316, 16485.41736428945, 0.002, 0.984, 0.158, 192.0, 0.0, 0.0, 31.0, 16.0, 4.0, 208.0, 0.0, 0.0, 0.0, 1.700951106321362E9, 0.0, 2023-11-25 17:25:06.321
120.0, 51475.70985266088, 67460.11286498462, 9096.020054342755, -7151.753562897869, 23082.15476061759, -31196.530901972164, 19299.457287723697, 16438.791625355676, 0.002, 0.984, 0.158, 192.0, 0.0, 0.0, 0.0, 0.0, 0.0, 0.0, 0.0, 0.0, 0.0, 1.700951106325381E9, 0.0, 2023-11-25 17:25:06.325
121.0, 51502.7554634518, 67487.80667636475, 9097.763490410267, -7134.922699323023, 23077.751466959893, -31122.993662714205, 19308.263875039087, 16458.349401754072, 0.002, 0.984, 0.158, 192.0, 0.0, 0.0, 0.0, 0.0, 0.0, 0.0, 0.0, 0.0, 0.0, 1.700951106328356E9, 0.0, 2023-11-25 17:25:06.328
122.0, 51528.88465272006, 67502.49177247188, 9107.75472018179, -7126.652553874559, 23108.932150475044, -31095.92570017883, 19319.35034028892, 16467.11128558055, 0.002, 0.984, 0.158, 192.0, 0.0, 0.0, 0.0, 0.0, 0.0, 0.0, 0.0, 0.0, 0.0, 1.700951106332443E9, 0.0, 2023-11-25 17:25:06.332
123.0, 51487.109242333085, 67444.39958863254, 9078.630397156525, -7175.7593364428685, 23140.023427012376, -30941.139869825827, 19301.178372046754, 16497.88963769551, 0.002, 0.984, 0.158, 192.0, 0.0, 0.0, 0.0, 0.0, 0.0, 0.0, 0.0, 0.0, 0.0, 1.700951106336406E9, 0.0, 2023-11-25 17:25:06.336
124.0, 51463.394041466, 67440.89036475305, 9067.856856329066, -7188.030444148832, 23052.493995725396, -31221.967187162303, 19290.136610285834, 16425.514689149226, 0.002, 0.984, 0.158, 192.0, 0.0, 0.0, 0.0, 0.0, 0.0, 0.0, 0.0, 0.0, 0.0, 1.700951106340439E9, 0.0, 2023-11-25 17:25:06.340
125.0, 51491.22196331286, 67469.16532148902, 9069.287367974206, -7169.836124162212, 23047.733074156415, -31168.725331869762, 19291.947101586713, 16436.802320099156, 0.002, 0.984, 0.158, 192.0, 0.0, 0.0, 0.0, 0.0, 0.0, 0.0, 0.0, 0.0, 0.0, 1.700951106345416E9, 0.0, 2023-11-25 17:25:06.345
126.0, 51525.68835326294, 67498.42375498102, 9083.726594892334, -7149.585443685704, 23069.056638366776, -31168.36770395848, 19301.82657263596, 16434.16481425343, 0.002, 0.984, 0.158, 192.0, 0.0, 0.0, 0.0, 0.0, 0.0, 0.0, 0.0, 0.0, 0.0, 1.700951106349448E9, 0.0, 2023-11-25 17:25:06.349
127.0, 51498.1063006051, 67449.13815845706, 9069.041498785198, -7186.37641505914, 23132.62499959767, -30976.209756876204, 19292.885874853837, 16479.985890386808, 0.002, 0.984, 0.158, 192.0, 0.0, 0.0, 0.0, 0.0, 0.0, 0.0, 0.0, 0.0, 0.0, 1.700951106353417E9, 0.0, 2023-11-25 17:25:06.353
128.0, 51454.34158496161, 67423.88068722257, 9043.940489761888, -7218.115892185676, 23038.099472296177, -31221.14017261746, 19261.68283959423, 16400.05605221463, 0.002, 0.984, 0.158, 192.0, 0.0, 0.0, 0.0, 0.0, 0.0, 0.0, 0.0, 0.0, 0.0, 1.70095110635646E9, 0.0, 2023-11-25 17:25:06.356
129.0, 51481.07427133015, 67458.36942891711, 9052.881187544011, -7192.701958739992, 23041.362826986653, -31212.17712309088, 19271.38349668783, 16408.192087196363, 0.004, 0.986, 0.162, 192.0, 0.0, 32.0, 30.0, 208.0, 5.0, 16.0, 0.0, 0.0, 0.0, 1.700951106360506E9, 0.0, 2023-11-25 17:25:06.360
130.0, 51526.828292230166, 67503.0282143388, 9072.349556964584, -7163.085897336709, 23057.52313822784, -31202.498817741733, 19284.638081149827, 16403.565276094112, 0.004, 0.986, 0.162, 192.0, 0.0, 0.0, 0.0, 0.0, 0.0, 0.0, 0.0, 0.0, 0.0, 1.700951106364459E9, 0.0, 2023-11-25 17:25:06.364
131.0, 51505.370617553075, 67465.58904237617, 9065.50992316126, -7185.281179580829, 23133.34025542024, -31002.718925800196, 19285.040412550024, 16465.41255300195, 0.004, 0.986, 0.162, 192.0, 0.0, 0.0, 0.0, 0.0, 0.0, 0.0, 0.0, 0.0, 0.0, 1.700951106368526E9, 0.0, 2023-11-25 17:25:06.368
132.0, 51470.43484096943, 67450.30044916875, 9056.8374463126, -7200.525069299349, 23069.66013546707, -31169.060608036594, 19270.355316442885, 16416.48458438928, 0.004, 0.986, 0.162, 192.0, 0.0, 0.0, 0.0, 0.0, 0.0, 0.0, 0.0, 0.0, 0.0, 1.700951106373588E9, 0.0, 2023-11-25 17:25:06.373
133.0, 51485.41050975448, 67474.19446399146, 9066.9404348064, -7176.496944009894, 23060.22769930693, -31212.065364368602, 19278.267833980066, 16424.195936226362, 0.004, 0.986, 0.162, 192.0, 0.0, 0.0, 0.0, 0.0, 0.0, 0.0, 0.0, 0.0, 0.0, 1.700951106377524E9, 0.0, 2023-11-25 17:25:06.377
134.0, 51516.77000722528, 67503.27408352782, 9074.249455243285, -7157.520312967338, 23053.633934692614, -31183.186910532346, 19276.792618846015, 16415.47875588879, 0.004, 0.986, 0.162, 192.0, 0.0, 0.0, 0.0, 0.0, 0.0, 0.0, 0.0, 0.0, 0.0, 1.700951106381562E9, 0.0, 2023-11-25 17:25:06.381
135.0, 51515.89828919152, 67484.677432141, 9084.844182115101, -7156.268615277841, 23141.76686307989, -31007.211626435714, 19292.86352310938, 16471.849855405075, 0.004, 0.986, 0.162, 192.0, 0.0, 0.0, 0.0, 0.0, 0.0, 0.0, 0.0, 0.0, 0.0, 1.700951106384536E9, 0.0, 2023-11-25 17:25:06.384
136.0, 51471.395965981006, 67447.39472238955, 9069.779106352224, -7181.213162089964, 23100.43848758203, -31072.4340167563, 19276.189121745723, 16448.11230279354, 0.004, 0.986, 0.162, 192.0, 0.0, 0.0, 0.0, 0.0, 0.0, 0.0, 0.0, 0.0, 0.0, 1.700951106388548E9, 0.0, 2023-11-25 17:25:06.388
137.0, 51468.91492234647, 67464.06912375322, 9077.289292489206, -7159.688432179503, 23066.441484265506, -31200.21893980729, 19289.734278885637, 16438.63516314449, 0.004, 0.986, 0.162, 192.0, 0.0, 0.0, 0.0, 0.0, 0.0, 0.0, 0.0, 0.0, 0.0, 1.700951106392606E9, 0.0, 2023-11-25 17:25:06.392
138.0, 51501.660227973494, 67500.30130151527, 9092.913161863466, -7130.117074265132, 23068.050809866287, -31141.947942012306, 19304.82170639297, 16448.514634193736, 0.004, 0.986, 0.162, 192.0, 0.0, 0.0, 0.0, 0.0, 0.0, 0.0, 0.0, 0.0, 0.0, 1.700951106396561E9, 0.0, 2023-11-25 17:25:06.396
139.0, 51506.845832687126, 67484.40921120755, 9104.781938169233, -7130.228832987408, 23138.592915367237, -31019.95212077524, 19318.657436210804, 16489.68654748041, 0.002, 0.988, 0.162, 192.0, 0.0, 16.0, 30.0, 224.0, 5.0, 16.0, 0.0, 0.0, 0.0, 1.700951106401585E9, 0.0, 2023-11-25 17:25:06.401
140.0, 51460.398907708994, 67432.48610883787, 9080.37383322404, -7170.5960834736925, 23120.39859538062, -30995.85694025242, 19295.76924988857, 16480.321166553636, 0.002, 0.988, 0.162, 192.0, 0.0, 0.0, 0.0, 0.0, 0.0, 0.0, 0.0, 0.0, 0.0, 1.70095110640557E9, 0.0, 2023-11-25 17:25:06.405
141.0, 51453.626329139035, 67440.04099846375, 9076.663443644458, -7166.125734582632, 23060.80884466277, -31212.959434146815, 19292.48354345364, 16436.735264865787, 0.002, 0.988, 0.162, 192.0, 0.0, 0.0, 0.0, 0.0, 0.0, 0.0, 0.0, 0.0, 0.0, 1.700951106408549E9, 0.0, 2023-11-25 17:25:06.408
142.0, 51486.3045795327, 67473.90389131354, 9079.725632634834, -7149.183112285508, 23054.8409288932, -31147.334712426033, 19295.43397372174, 16440.33389572309, 0.002, 0.988, 0.162, 192.0, 0.0, 0.0, 0.0, 0.0, 0.0, 0.0, 0.0, 0.0, 0.0, 1.700951106412571E9, 0.0, 2023-11-25 17:25:06.412
143.0, 51506.48820477584, 67481.16820826152, 9091.169725795951, -7146.053868061766, 23107.412231852082, -31085.73330470721, 19310.052014595512, 16459.01995408773, 0.002, 0.988, 0.162, 192.0, 0.0, 0.0, 0.0, 0.0, 0.0, 0.0, 0.0, 0.0, 0.0, 1.70095110641662E9, 0.0, 2023-11-25 17:25:06.416
144.0, 51472.8488293706, 67438.3646176296, 9075.65761514397, -7181.593141745704, 23129.831031540758, -30975.181576631257, 19297.62444467836, 16480.701146209376, 0.002, 0.988, 0.162, 192.0, 0.0, 0.0, 0.0, 0.0, 0.0, 0.0, 0.0, 0.0, 0.0, 1.700951106420602E9, 0.0, 2023-11-25 17:25:06.420
145.0, 51451.882893071524, 67436.4647193509, 9065.129943505519, -7186.219952847952, 23047.397797989583, -31236.98755943627, 19282.44761019321, 16415.523459377702, 0.002, 0.988, 0.162, 192.0, 0.0, 0.0, 0.0, 0.0, 0.0, 0.0, 0.0, 0.0, 0.0, 1.700951106424579E9, 0.0, 2023-11-25 17:25:06.424
146.0, 51485.723434176856, 67474.01565003583, 9074.987062810309, -7160.828371146724, 23049.498861968383, -31168.30064872511, 19289.39900271881, 16431.281439218696, 0.002, 0.988, 0.162, 192.0, 0.0, 0.0, 0.0, 0.0, 0.0, 0.0, 0.0, 0.0, 0.0, 1.700951106428617E9, 0.0, 2023-11-25 17:25:06.428
147.0, 51510.35505656661, 67494.35573749016, 9091.862629874067, -7144.8245221167235, 23082.93707167352, -31140.875058278452, 19303.2570842811, 16445.474796947812, 0.002, 0.988, 0.162, 192.0, 0.0, 0.0, 0.0, 0.0, 0.0, 0.0, 0.0, 0.0, 0.0, 1.700951106433673E9, 0.0, 2023-11-25 17:25:06.433
148.0, 51461.49414318731, 67431.48028033738, 9063.900597560478, -7193.976008173944, 23115.86119125619, -30970.13008238436, 19278.826627591447, 16475.716707195843, 0.002, 0.988, 0.162, 192.0, 0.0, 0.0, 0.0, 0.0, 0.0, 0.0, 0.0, 0.0, 0.0, 1.700951106436749E9, 0.0, 2023-11-25 17:25:06.436
149.0, 51441.51168364426, 67431.27911463728, 9061.754830092768, -7204.190755390019, 23033.450309449472, -31244.296579873157, 19270.57883388744, 16409.823764541597, -0.008, 0.982, 0.16, 192.0, 255.0, 192.0, 30.0, 176.0, 5.0, 0.0, 0.0, 0.0, 0.0, 1.700951106440712E9, 0.0, 2023-11-25 17:25:06.440
150.0, 51470.837172369625, 67461.58808011867, 9069.51088541876, -7181.123755112142, 23037.495975195885, -31189.803026891117, 19277.016136290567, 16427.83927057258, -0.008, 0.982, 0.16, 192.0, 0.0, 0.0, 0.0, 0.0, 0.0, 0.0, 0.0, 0.0, 0.0, 1.700951106444938E9, 0.0, 2023-11-25 17:25:06.444
151.0, 51499.93914365043, 67485.21387400792, 9084.039519314709, -7160.515446724349, 23053.924507370535, -31182.046971565127, 19281.57589215945, 16416.261066944728, -0.008, 0.982, 0.16, 192.0, 0.0, 0.0, 0.0, 0.0, 0.0, 0.0, 0.0, 0.0, 0.0, 1.700951106448719E9, 0.0, 2023-11-25 17:25:06.448
152.0, 51476.358053250086, 67438.92341124099, 9077.088126789109, -7189.505659282882, 23125.271275671876, -30978.310820855004, 19279.675993880748, 16473.92856763942, -0.008, 0.982, 0.16, 192.0, 0.0, 0.0, 0.0, 0.0, 0.0, 0.0, 0.0, 0.0, 0.0, 1.700951106453461E9, 0.0, 2023-11-25 17:25:06.453
153.0, 51438.27068069824, 67419.43269007596, 9067.387469695506, -7208.437586836528, 23044.737940399402, -31202.945852630837, 19265.035601262523, 16416.328122178093, -0.008, 0.982, 0.16, 192.0, 0.0, 0.0, 0.0, 0.0, 0.0, 0.0, 0.0, 0.0, 0.0, 1.700951106456924E9, 0.0, 2023-11-25 17:25:06.456
