%OpenBCI Raw EXG Data
%Number of channels = 8
%Sample Rate = 250 Hz
%Board = OpenBCI_GUI$BoardCytonSerial
Sample Index, EXG Channel 0, EXG Channel 1, EXG Channel 2, EXG Channel 3, EXG Channel 4, EXG Channel 5, EXG Channel 6, EXG Channel 7, Accel Channel 0, Accel Channel 1, Accel Channel 2, Other, Other, Other, Other, Other, Other, Other, Analog Channel 0, Analog Channel 1, Analog Channel 2, Timestamp, Other, Timestamp (Formatted)
79.0, 37847.00189197086, 47463.23644676643, 27472.99849665147, -27530.55423862389, 16493.21812310435, 66474.31152752775, 14026.34549454993, 30805.442429237657, 0.0, 0.0, 0.0, 192.0, 0.0, 0.0, 0.0, 0.0, 0.0, 0.0, 0.0, 0.0, 0.0, 1.700951359947207E9, 0.0, 2023-11-25 17:29:19.947
80.0, 37974.339780132745, 47438.314251698765, 27507.442534857102, -27439.314417757323, 16693.668567379544, 67088.40335469287, 14018.969418879678, 30792.90310059823, -0.07200000000000001, 0.98, 0.07, 192.0, 253.0, 192.0, 30.0, 160.0, 2.0, 48.0, 0.0, 0.0, 0.0, 1.700951359947237E9, 0.0, 2023-11-25 17:29:19.947
81.0, 37725.43075387845, 47309.948183291934, 27476.66418274214, -27637.79790852045, 16509.132565156528, 66699.7959255929, 14014.990808366634, 30764.203460717617, -0.07200000000000001, 0.98, 0.07, 192.0, 0.0, 0.0, 0.0, 0.0, 0.0, 0.0, 0.0, 0.0, 0.0, 1.700951359947253E9, 0.0, 2023-11-25 17:29:19.947
82.0, 37727.59887309061, 47373.941227667485, 27463.499005257967, -27586.098323595324, 16481.528160754224, 66432.3796549296, 14024.825575926969, 30801.79909489144, -0.07200000000000001, 0.98, 0.07, 192.0, 0.0, 0.0, 0.0, 0.0, 0.0, 0.0, 0.0, 0.0, 0.0, 1.700951359947268E9, 0.0, 2023-11-25 17:29:19.947
83.0, 37817.609348012134, 47458.40846996409, 27456.234688309993, -27558.56097442639, 16457.58944244259, 66460.76637038784, 14011.861564142891, 30792.679583153677, -0.07200000000000001, 0.98, 0.07, 192.0, 0.0, 0.0, 0.0, 0.0, 0.0, 0.0, 0.0, 0.0, 0.0, 1.700951359947282E9, 0.0, 2023-11-25 17:29:19.947
84.0, 37978.09487320124, 47458.76609787537, 27502.145171421194, -27445.05881608234, 16681.06218350675, 66988.82633314448, 14021.517517747585, 30805.800057148943, -0.07200000000000001, 0.98, 0.07, 192.0, 0.0, 0.0, 0.0, 0.0, 0.0, 0.0, 0.0, 0.0, 0.0, 1.700951359947297E9, 0.0, 2023-11-25 17:29:19.947
85.0, 37774.64929516903, 47325.72851487738, 27481.15688337766, -27615.04383266495, 16541.52024287227, 66824.36219744231, 14013.605000210406, 30777.256879479515, -0.07200000000000001, 0.98, 0.07, 192.0, 0.0, 0.0, 0.0, 0.0, 0.0, 0.0, 0.0, 0.0, 0.0, 1.700951359947322E9, 0.0, 2023-11-25 17:29:19.947
86.0, 37707.97404145885, 47351.58948321218, 27462.359066290745, -27605.276120337978, 16480.03059387572, 66403.5682563267, 14014.052035099512, 30787.18105401767, -0.07200000000000001, 0.98, 0.07, 192.0, 0.0, 0.0, 0.0, 0.0, 0.0, 0.0, 0.0, 0.0, 0.0, 1.700951359947337E9, 0.0, 2023-11-25 17:29:19.947
87.0, 37789.73672267637, 47444.3492227017, 27454.848880153764, -27566.78641638594, 16444.06663704713, 66427.68578859398, 14010.475755986663, 30792.120789542296, -0.07200000000000001, 0.98, 0.07, 192.0, 0.0, 0.0, 0.0, 0.0, 0.0, 0.0, 0.0, 0.0, 0.0, 1.700951359947349E9, 0.0, 2023-11-25 17:29:19.947
88.0, 37953.39619557813, 47463.1023362997, 27502.34633712129, -27442.62247593671, 16658.01753497333, 66850.55844194394, 14025.58553523845, 30814.96427237562, -0.07200000000000001, 0.98, 0.07, 192.0, 0.0, 0.0, 0.0, 0.0, 0.0, 0.0, 0.0, 0.0, 0.0, 1.700951359947363E9, 0.0, 2023-11-25 17:29:19.947
89.0, 37814.122475877106, 47337.48553246087, 27485.738990990998, -27568.708666409097, 16583.742688148344, 66960.77489385306, 14020.936372391747, 30798.312222756416, -0.07200000000000001, 0.98, 0.07, 192.0, 0.0, 0.0, 0.0, 0.0, 0.0, 0.0, 0.0, 0.0, 0.0, 1.700951359947375E9, 0.0, 2023-11-25 17:29:19.947
90.0, 37691.769026728754, 47335.40682022653, 27472.81968269583, -27607.690108739152, 16492.011128903763, 66369.25832858782, 14035.263840587599, 30821.356871289838, -0.068, 0.982, 0.07200000000000001, 192.0, 253.0, 224.0, 30.0, 176.0, 2.0, 64.0, 0.0, 0.0, 0.0, 1.700951359947389E9, 0.0, 2023-11-25 17:29:19.947
91.0, 37772.36941723459, 47433.30746094078, 27456.32409528781, -27555.6552476472, 16448.648744660466, 66404.55173308274, 14029.63120098486, 30821.490981756568, -0.068, 0.982, 0.07200000000000001, 192.0, 0.0, 0.0, 0.0, 0.0, 0.0, 0.0, 0.0, 0.0, 0.0, 1.700951359947401E9, 0.0, 2023-11-25 17:29:19.947
92.0, 37931.6032447342, 47475.932237617046, 27496.803104496375, -27452.323133030313, 16618.834926943175, 66686.89896904219, 14034.794453954037, 30832.01865339502, -0.068, 0.982, 0.07200000000000001, 192.0, 0.0, 0.0, 0.0, 0.0, 0.0, 0.0, 0.0, 0.0, 0.0, 1.700951359947415E9, 0.0, 2023-11-25 17:29:19.947
93.0, 37878.45079641948, 47374.94705616797, 27493.740915505998, -27522.52996236443, 16626.367464824612, 67014.86611543491, 14016.197802567222, 30805.464780982114, -0.068, 0.982, 0.07200000000000001, 192.0, 0.0, 0.0, 0.0, 0.0, 0.0, 0.0, 0.0, 0.0, 0.0, 1.700951359947427E9, 0.0, 2023-11-25 17:29:19.947
94.0, 37689.4444453054, 47325.59440441065, 27472.886737929195, -27625.973835703593, 16486.199675345382, 66349.49938648932, 14023.618581726383, 30809.555150217435, -0.068, 0.982, 0.07200000000000001, 192.0, 0.0, 0.0, 0.0, 0.0, 0.0, 0.0, 0.0, 0.0, 0.0, 1.700951359947441E9, 0.0, 2023-11-25 17:29:19.947
95.0, 37756.2091059934, 47416.789521788305, 27449.81973765132, -27570.65326817671, 16443.373732969016, 66379.20485487042, 14013.180317065755, 30814.316071786416, -0.068, 0.982, 0.07200000000000001, 192.0, 0.0, 0.0, 0.0, 0.0, 0.0, 0.0, 0.0, 0.0, 0.0, 1.700951359947453E9, 0.0, 2023-11-25 17:29:19.947
96.0, 37892.95707857097, 47472.66888292657, 27479.6369647547, -27493.40563933917, 16561.36859194858, 66531.77786252236, 14014.342607777431, 30821.267464312015, -0.068, 0.982, 0.07200000000000001, 192.0, 0.0, 0.0, 0.0, 0.0, 0.0, 0.0, 0.0, 0.0, 0.0, 1.700951359947466E9, 0.0, 2023-11-25 17:29:19.947
97.0, 37918.46041899448, 47394.705998266465, 27493.78561899491, -27492.444514327588, 16654.5306628383, 67028.07599640799, 14000.417470981774, 30810.24805429555, -0.068, 0.982, 0.07200000000000001, 192.0, 0.0, 0.0, 0.0, 0.0, 0.0, 0.0, 0.0, 0.0, 0.0, 1.700951359947479E9, 0.0, 2023-11-25 17:29:19.947
98.0, 37686.56107027067, 47310.17170073649, 27471.925612917617, -27645.129280701793, 16482.422230532437, 66361.21170058391, 14006.67595942926, 30796.43467622217, -0.068, 0.982, 0.07200000000000001, 192.0, 0.0, 0.0, 0.0, 0.0, 0.0, 0.0, 0.0, 0.0, 0.0, 1.700951359947492E9, 0.0, 2023-11-25 17:29:19.947
99.0, 37746.95548378891, 47404.04902744878, 27455.228859809504, -27573.98367810055, 16455.82365463062, 66322.74434837632, 14006.854773384903, 30809.37633626179, -0.074, 0.984, 0.066, 192.0, 253.0, 176.0, 30.0, 192.0, 2.0, 16.0, 0.0, 0.0, 0.0, 1.700951359947505E9, 0.0, 2023-11-25 17:29:19.947
100.0, 37865.710302079955, 47474.56878120527, 27475.971278664027, -27511.39879362569, 16522.431853107435, 66391.58772129867, 14015.460195000196, 30822.407403279234, -0.074, 0.984, 0.066, 192.0, 0.0, 0.0, 0.0, 0.0, 0.0, 0.0, 0.0, 0.0, 0.0, 1.700951359947518E9, 0.0, 2023-11-25 17:29:19.947
101.0, 37955.87723921266, 47424.16559745856, 27500.312328375858, -27451.227897552002, 16685.53253239781, 66997.09647859294, 14011.77215716507, 30824.62022598031, -0.074, 0.984, 0.066, 192.0, 0.0, 0.0, 0.0, 0.0, 0.0, 0.0, 0.0, 0.0, 0.0, 1.700951359947536E9, 0.0, 2023-11-25 17:29:19.947
102.0, 37698.631012276535, 47307.15421523502, 27467.6340779822, -27645.33044640189, 16491.631149248024, 66445.99186730289, 14009.648741441815, 30796.769952388997, -0.074, 0.984, 0.066, 192.0, 0.0, 0.0, 0.0, 0.0, 0.0, 0.0, 0.0, 0.0, 0.0, 1.70095135994755E9, 0.0, 2023-11-25 17:29:19.947
103.0, 37732.94094001543, 47386.39114932909, 27452.43489175259, -27577.090570579836, 16467.78183791421, 66294.06706024017, 14010.833383897947, 30812.930263630184, -0.074, 0.984, 0.066, 192.0, 0.0, 0.0, 0.0, 0.0, 0.0, 0.0, 0.0, 0.0, 0.0, 1.700951359947562E9, 0.0, 2023-11-25 17:29:19.947
104.0, 37834.68608077599, 47468.91378985808, 27462.873156413218, -27534.197572970104, 16485.149143355982, 66294.42468815144, 14015.326084533464, 30814.696051442155, -0.074, 0.984, 0.066, 192.0, 0.0, 0.0, 0.0, 0.0, 0.0, 0.0, 0.0, 0.0, 0.0, 1.700951359947576E9, 0.0, 2023-11-25 17:29:19.947
105.0, 37969.176527163574, 47442.40462093409, 27495.707869018064, -27438.934438101584, 16689.600549888677, 66904.64966352578, 14011.77215716507, 30821.736850945577, -0.074, 0.984, 0.066, 192.0, 0.0, 0.0, 0.0, 0.0, 0.0, 0.0, 0.0, 0.0, 0.0, 1.700951359947588E9, 0.0, 2023-11-25 17:29:19.947
106.0, 37724.8049050337, 47301.67803784347, 27460.973258134516, -27639.608399821333, 16507.143259900007, 66565.03725827186, 13993.555485433995, 30776.18399574566, -0.074, 0.984, 0.066, 192.0, 0.0, 0.0, 0.0, 0.0, 0.0, 0.0, 0.0, 0.0, 0.0, 1.700951359947601E9, 0.0, 2023-11-25 17:29:19.947
0.0, 47359.56905598272, 27450.467938240523, -27593.94378589914, 16476.655480462967, 66274.33046988613, 14000.395119237319, 30793.79717037644, 0.0, -0.07, 0.978, 0.06, 192.0, 253.0, 208.0, 30.0, 144.0, 1.0, 224.0, 0.0, 0.0, 0.0, 1.700951360015419E9, 0.0, 2023-11-25 17:29:20.015
1.0, 37170.74986347555, 47846.97119557515, 26470.746275275502, -27331.020215871362, 16229.601648998458, 61441.32452503736, 13696.456098134053, 30698.087000618816, -0.07, 0.978, 0.06, 192.0, 0.0, 0.0, 0.0, 0.0, 0.0, 0.0, 0.0, 0.0, 0.0, 1.700951360031508E9, 0.0, 2023-11-25 17:29:20.031
2.0, 37327.94968222972, 47859.175248047744, 26512.72285136257, -27219.261493594826, 16439.05984628914, 61864.48775106523, 13695.137345211191, 30705.21720710006, -0.07, 0.978, 0.06, 192.0, 0.0, 0.0, 0.0, 0.0, 0.0, 0.0, 0.0, 0.0, 0.0, 1.700951360035568E9, 0.0, 2023-11-25 17:29:20.035
3.0, 37173.521479788, 47727.12114180579, 26488.404153395197, -27367.162986655592, 16337.8064439066, 61864.42069583186, 13677.792391513873, 30663.419444968637, -0.07, 0.978, 0.06, 192.0, 0.0, 0.0, 0.0, 0.0, 0.0, 0.0, 0.0, 0.0, 0.0, 1.700951360038498E9, 0.0, 2023-11-25 17:29:20.038
4.0, 37071.44106286062, 47731.68089767467, 26472.44500785411, -27392.509864867912, 16255.8873004779, 61335.82429120831, 13686.062536962336, 30670.996686338985, -0.07, 0.978, 0.06, 192.0, 0.0, 0.0, 0.0, 0.0, 0.0, 0.0, 0.0, 0.0, 0.0, 1.700951360041508E9, 0.0, 2023-11-25 17:29:20.041
5.0, 37140.53030497197, 47820.52908188452, 26452.48490005552, -27348.40987305759, 16209.887410388877, 61416.402329969686, 13676.965376969025, 30679.445645743093, -0.07, 0.978, 0.06, 192.0, 0.0, 0.0, 0.0, 0.0, 0.0, 0.0, 0.0, 0.0, 0.0, 1.70095136004562E9, 0.0, 2023-11-25 17:29:20.045
6.0, 37294.86910043587, 47853.87788461184, 26493.545054619917, -27240.562706060733, 16394.71398528981, 61736.61342103642, 13688.2306561745, 30711.006308913984, -0.07, 0.978, 0.06, 192.0, 0.0, 0.0, 0.0, 0.0, 0.0, 0.0, 0.0, 0.0, 0.0, 1.700951360049534E9, 0.0, 2023-11-25 17:29:20.049
7.0, 37216.101552975364, 47741.42625825718, 26483.24090042602, -27324.82878265724, 16377.547845548135, 61986.729441491305, 13676.071307190814, 30702.646756487702, -0.07, 0.978, 0.06, 192.0, 0.0, 0.0, 0.0, 0.0, 0.0, 0.0, 0.0, 0.0, 0.0, 1.700951360053547E9, 0.0, 2023-11-25 17:29:20.053
8.0, 37045.20011487009, 47706.1105020178, 26463.81723449436, -27410.167742987604, 16249.427646330316, 61370.536550347395, 13690.66699632013, 30704.16667511066, -0.07, 0.984, 0.062, 192.0, 253.0, 208.0, 30.0, 192.0, 1.0, 240.0, 0.0, 0.0, 0.0, 1.700951360058554E9, 0.0, 2023-11-25 17:29:20.058
9.0, 37117.17273201617, 47806.1345584553, 26446.27111509694, -27355.45067256101, 16207.942808621267, 61437.32356277986, 13681.122801437712, 30700.992727398007, -0.07, 0.984, 0.062, 192.0, 0.0, 0.0, 0.0, 0.0, 0.0, 0.0, 0.0, 0.0, 0.0, 1.70095136006158E9, 0.0, 2023-11-25 17:29:20.061
10.0, 37270.081015834934, 47864.4502597392, 26489.074705728854, -27265.6860668285, 16349.205833578806, 61616.80807075597, 13700.077080735813, 30726.049032932406, -0.07, 0.984, 0.062, 192.0, 0.0, 0.0, 0.0, 0.0, 0.0, 0.0, 0.0, 0.0, 0.0, 1.70095136006562E9, 0.0, 2023-11-25 17:29:20.065
11.0, 37275.6466002043, 47782.352302354855, 26500.362336678787, -27284.97562229343, 16420.664360602423, 62035.90327929298, 13695.606731844751, 30718.80706772889, -0.07, 0.984, 0.062, 192.0, 0.0, 0.0, 0.0, 0.0, 0.0, 0.0, 0.0, 0.0, 0.0, 1.700951360069611E9, 0.0, 2023-11-25 17:29:20.069
12.0, 37058.05236793189, 47703.71886536108, 26472.33324913183, -27421.634187893178, 16256.289631878095, 61388.90968428966, 13699.026548746413, 30706.759477467476, -0.07, 0.984, 0.062, 192.0, 0.0, 0.0, 0.0, 0.0, 0.0, 0.0, 0.0, 0.0, 0.0, 1.700951360073663E9, 0.0, 2023-11-25 17:29:20.073
13.0, 37122.24657800753, 47800.63602931929, 26451.61318202176, -27349.63921900263, 16224.170175095818, 61413.76482412396, 13685.928426495604, 30714.60493977129, -0.07, 0.984, 0.062, 192.0, 0.0, 0.0, 0.0, 0.0, 0.0, 0.0, 0.0, 0.0, 0.0, 1.700951360077743E9, 0.0, 2023-11-25 17:29:20.077
14.0, 37250.12090803634, 47870.30641678649, 26477.250632911997, -27282.82985482572, 16304.32353071255, 61530.910316814225, 13689.638816075185, 30720.304634607393, -0.07, 0.984, 0.062, 192.0, 0.0, 0.0, 0.0, 0.0, 0.0, 0.0, 0.0, 0.0, 0.0, 1.700951360081665E9, 0.0, 2023-11-25 17:29:20.081
15.0, 37325.178065917265, 47818.40566616126, 26506.218493726075, -27241.412072350035, 16454.147273796472, 62086.44057350643, 13690.242313175479, 30714.783753726933, -0.07, 0.984, 0.062, 192.0, 0.0, 0.0, 0.0, 0.0, 0.0, 0.0, 0.0, 0.0, 0.0, 1.700951360086657E9, 0.0, 2023-11-25 17:29:20.086
16.0, 37082.639286832724, 47710.3126299754, 26482.547996347905, -27416.113307012714, 16272.539350097102, 61504.423499634686, 13694.600903344262, 30691.984974382518, -0.07, 0.984, 0.062, 192.0, 0.0, 0.0, 0.0, 0.0, 0.0, 0.0, 0.0, 0.0, 0.0, 1.700951360089657E9, 0.0, 2023-11-25 17:29:20.089
17.0, 37124.8617321088, 47792.58940131538, 26463.437254838616, -27342.240791587927, 16248.69003876329, 61432.96497261107, 13692.857467276748, 30706.625367000746, -0.07, 0.984, 0.062, 192.0, 0.0, 0.0, 0.0, 0.0, 0.0, 0.0, 0.0, 0.0, 0.0, 1.700951360092666E9, 0.0, 2023-11-25 17:29:20.092
18.0, 37228.8867508038, 47873.9497511327, 26473.652002054692, -27292.97754680843, 16276.182684443318, 61477.93668245515, 13694.243275432978, 30701.193893098105, -0.078, 0.978, 0.064, 192.0, 253.0, 144.0, 30.0, 144.0, 2.0, 0.0, 0.0, 0.0, 0.0, 1.700951360097758E9, 0.0, 2023-11-25 17:29:20.097
19.0, 37345.361691160404, 47841.338555972405, 26502.664566357682, -27211.10310686864, 16465.546663468678, 62065.83226511863, 13686.643682318174, 30702.579701254333, -0.078, 0.978, 0.064, 192.0, 0.0, 0.0, 0.0, 0.0, 0.0, 0.0, 0.0, 0.0, 0.0, 1.700951360102263E9, 0.0, 2023-11-25 17:29:20.102
20.0, 37100.8559585638, 47708.97152530808, 26471.349772375797, -27407.217312719502, 16280.518922867648, 61625.61465807136, 13681.927464238104, 30672.36014275076, -0.078, 0.978, 0.064, 192.0, 0.0, 0.0, 0.0, 0.0, 0.0, 0.0, 0.0, 0.0, 0.0, 1.700951360105756E9, 0.0, 2023-11-25 17:29:20.105
21.0, 37105.54982489942, 47771.6234650163, 26458.47516756954, -27348.40987305759, 16254.054457432565, 61408.60157115479, 13689.527057352909, 30698.131704107727, -0.078, 0.978, 0.064, 192.0, 0.0, 0.0, 0.0, 0.0, 0.0, 0.0, 0.0, 0.0, 0.0, 1.700951360109928E9, 0.0, 2023-11-25 17:29:20.109
22.0, 37188.25127938405, 47854.66019566777, 26458.38576059172, -27313.652910429588, 16241.246907859673, 61436.92123137966, 13688.94591199707, 30697.863483174264, -0.078, 0.978, 0.064, 192.0, 0.0, 0.0, 0.0, 0.0, 0.0, 0.0, 0.0, 0.0, 0.0, 1.700951360114874E9, 0.0, 2023-11-25 17:29:20.114
23.0, 37337.113897456395, 47850.9945095771, 26498.417734911174, -27204.6211009766, 16459.511692465745, 61965.048249369655, 13692.768060298928, 30716.974224683552, -0.078, 0.978, 0.064, 192.0, 0.0, 0.0, 0.0, 0.0, 0.0, 0.0, 0.0, 0.0, 0.0, 1.700951360117885E9, 0.0, 2023-11-25 17:29:20.117
24.0, 37131.14257230074, 47711.58667940935, 26467.304106629384, -27383.8150362748, 16307.22925749174, 61766.20713069524, 13681.793353771372, 30694.06368661686, -0.078, 0.978, 0.064, 192.0, 0.0, 0.0, 0.0, 0.0, 0.0, 0.0, 0.0, 0.0, 0.0, 1.700951360120877E9, 0.0, 2023-11-25 17:29:20.120
25.0, 37079.778263542445, 47746.20953157062, 26453.244859366998, -27367.073579677774, 16254.166216154841, 61389.133201734214, 13689.862333519737, 30716.638948516724, -0.078, 0.978, 0.064, 192.0, 0.0, 0.0, 0.0, 0.0, 0.0, 0.0, 0.0, 0.0, 0.0, 1.700951360125883E9, 0.0, 2023-11-25 17:29:20.125
26.0, 37160.78098544848, 47838.835160593415, 26448.171013375642, -27326.728680935943, 16222.538497750582, 61434.7531121675, 13691.51636260943, 30713.286186848425, -0.078, 0.978, 0.064, 192.0, 0.0, 0.0, 0.0, 0.0, 0.0, 0.0, 0.0, 0.0, 0.0, 1.700951360129827E9, 0.0, 2023-11-25 17:29:20.129
27.0, 37320.01481294809, 47855.75543114608, 26497.30014768841, -27211.32662431319, 16438.50105267776, 61868.57812030055, 13700.702929580562, 30725.713756765577, -0.078, 0.978, 0.064, 192.0, 0.0, 0.0, 0.0, 0.0, 0.0, 0.0, 0.0, 0.0, 0.0, 1.700951360133897E9, 0.0, 2023-11-25 17:29:20.133
28.0, 37175.64489551126, 47731.32326976339, 26480.983374236035, -27342.978399154952, 16353.251499325217, 61915.36032144551, 13684.386156128188, 30688.58750922531, -0.076, 0.98, 0.064, 192.0, 253.0, 160.0, 30.0, 160.0, 2.0, 0.0, 0.0, 0.0, 0.0, 1.700951360137847E9, 0.0, 2023-11-25 17:29:20.137
29.0, 37069.11648143727, 47736.03948784345, 26464.75600776148, -27369.912251223595, 16267.621966316936, 61386.67450984413, 13689.460002119542, 30692.722581949543, -0.076, 0.98, 0.064, 192.0, 0.0, 0.0, 0.0, 0.0, 0.0, 0.0, 0.0, 0.0, 0.0, 1.700951360140866E9, 0.0, 2023-11-25 17:29:20.140
30.0, 37149.426299265186, 47832.263747723555, 26447.411054064163, -27323.040643100816, 16221.44326227227, 61454.06501937688, 13677.2783013914, 30693.54959649439, -0.076, 0.98, 0.064, 192.0, 0.0, 0.0, 0.0, 0.0, 0.0, 0.0, 0.0, 0.0, 0.0, 1.700951360144925E9, 0.0, 2023-11-25 17:29:20.144
31.0, 37309.934176198745, 47878.28598955703, 26497.09898198831, -27207.593882989157, 16410.76253780872, 61753.60074682245, 13700.367653413732, 30723.344471853314, -0.076, 0.98, 0.064, 192.0, 0.0, 0.0, 0.0, 0.0, 0.0, 0.0, 0.0, 0.0, 0.0, 1.700951360149015E9, 0.0, 2023-11-25 17:29:20.149
32.0, 37241.60489339887, 47767.75661322554, 26490.460513885086, -27283.388648437103, 16404.414642383414, 62046.85563407608, 13686.107240451247, 30696.902358162686, -0.076, 0.98, 0.064, 192.0, 0.0, 0.0, 0.0, 0.0, 0.0, 0.0, 0.0, 0.0, 0.0, 1.700951360153908E9, 0.0, 2023-11-25 17:29:20.153
33.0, 37061.44983308909, 47718.47101670159, 26464.42073159465, -27381.244585662436, 16265.677364549323, 61420.313885249365, 13688.074193963314, 30691.917919149153, -0.076, 0.98, 0.064, 192.0, 0.0, 0.0, 0.0, 0.0, 0.0, 0.0, 0.0, 0.0, 0.0, 1.700951360157921E9, 0.0, 2023-11-25 17:29:20.157
34.0, 37136.05995608091, 47818.40566616126, 26447.075777897335, -27323.420622756556, 16227.21001234174, 61464.16800787068, 13678.217074658523, 30696.50002676249, -0.076, 0.98, 0.064, 192.0, 0.0, 0.0, 0.0, 0.0, 0.0, 0.0, 0.0, 0.0, 0.0, 1.700951360163173E9, 0.0, 2023-11-25 17:29:20.163
35.0, 37284.43083577524, 47881.3034750585, 26484.76081904898, -27236.092357169673, 16359.889967428444, 61648.14521648231, 13690.801106786861, 30708.748782724, -0.076, 0.98, 0.064, 192.0, 0.0, 0.0, 0.0, 0.0, 0.0, 0.0, 0.0, 0.0, 0.0, 1.700951360165953E9, 0.0, 2023-11-25 17:29:20.165
36.0, 37296.47842603665, 47802.24535492007, 26492.472170886063, -27251.44800561047, 16435.05888403164, 62115.11786164259, 13680.161676426134, 30691.917919149153, -0.076, 0.98, 0.064, 192.0, 0.0, 0.0, 0.0, 0.0, 0.0, 0.0, 0.0, 0.0, 0.0, 1.70095136016996E9, 0.0, 2023-11-25 17:29:20.169
37.0, 37069.76468202647, 47720.885005102755, 26462.967868205058, -27402.434039406067, 16261.966974969742, 61460.859949691294, 13684.386156128188, 30670.348485749782, -0.078, 0.982, 0.066, 192.0, 253.0, 144.0, 30.0, 176.0, 2.0, 16.0, 0.0, 0.0, 0.0, 1.700951360174045E9, 0.0, 2023-11-25 17:29:20.174
38.0, 37129.30972925541, 47816.528119627015, 26443.745367973494, -27334.328274050746, 16231.099215876964, 61457.32837406736, 13679.602882814752, 30681.770227166442, -0.078, 0.982, 0.066, 192.0, 0.0, 0.0, 0.0, 0.0, 0.0, 0.0, 0.0, 0.0, 0.0, 1.700951360178027E9, 0.0, 2023-11-25 17:29:20.178
39.0, 37255.28416100552, 47892.07701588595, 26472.556766576385, -27267.965944762942, 16309.196211003808, 61538.50990992903, 13691.873990520715, 30697.371744796248, -0.078, 0.982, 0.066, 192.0, 0.0, 0.0, 0.0, 0.0, 0.0, 0.0, 0.0, 0.0, 0.0, 1.700951360182002E9, 0.0, 2023-11-25 17:29:20.182
40.0, 37330.542484586535, 47838.23166349312, 26490.192292951622, -27224.424746564004, 16457.723552909323, 62109.708739484406, 13675.601920557252, 30680.36206726576, -0.078, 0.982, 0.066, 192.0, 0.0, 0.0, 0.0, 0.0, 0.0, 0.0, 0.0, 0.0, 0.0, 1.700951360185062E9, 0.0, 2023-11-25 17:29:20.185
41.0, 37083.689818822124, 47723.3660487373, 26454.876536712236, -27410.65948136562, 16263.97863197072, 61543.69551464266, 13669.298728620855, 30647.59440989428, -0.078, 0.982, 0.066, 192.0, 0.0, 0.0, 0.0, 0.0, 0.0, 0.0, 0.0, 0.0, 0.0, 1.700951360189023E9, 0.0, 2023-11-25 17:29:20.189
42.0, 37128.25919726601, 47809.62143059033, 26440.28084758292, -27339.22330608646, 16240.755169481656, 61440.13988258122, 13669.209321643035, 30675.22116604104, -0.078, 0.982, 0.066, 192.0, 0.0, 0.0, 0.0, 0.0, 0.0, 0.0, 0.0, 0.0, 0.0, 1.700951360193116E9, 0.0, 2023-11-25 17:29:20.193
43.0, 37236.866323574344, 47892.36758856387, 26458.56457454736, -27287.993107794897, 16270.706507051767, 61470.47119980708, 13678.775868269906, 30702.289128576416, -0.078, 0.982, 0.066, 192.0, 0.0, 0.0, 0.0, 0.0, 0.0, 0.0, 0.0, 0.0, 0.0, 1.700951360198067E9, 0.0, 2023-11-25 17:29:20.198
44.0, 37358.43746166676, 47862.32684401594, 26494.215606953578, -27194.875740394087, 16470.10641933756, 62065.60874767408, 13679.267606647922, 30716.46013456108, -0.078, 0.982, 0.066, 192.0, 0.0, 0.0, 0.0, 0.0, 0.0, 0.0, 0.0, 0.0, 0.0, 1.700951360202348E9, 0.0, 2023-11-25 17:29:20.202
45.0, 37113.37293545878, 47732.03852558596, 26464.867766483756, -27391.884016023163, 16287.626777604435, 61658.04703927601, 13673.769077511917, 30677.83632014231, -0.078, 0.982, 0.066, 192.0, 0.0, 0.0, 0.0, 0.0, 0.0, 0.0, 0.0, 0.0, 0.0, 1.700951360206098E9, 0.0, 2023-11-25 17:29:20.206
46.0, 37114.51287442599, 47797.81970951793, 26454.027170422934, -27339.6032857422, 16259.955317968765, 61403.34891120779, 13681.815705515828, 30702.11031462077, -0.078, 0.982, 0.066, 192.0, 0.0, 0.0, 0.0, 0.0, 0.0, 0.0, 0.0, 0.0, 0.0, 1.700951360210187E9, 0.0, 2023-11-25 17:29:20.210
47.0, 37201.774084779514, 47884.0527396265, 26454.38479833422, -27304.600453925188, 16243.996172427676, 61427.44409173061, 13689.728223053005, 30706.02186990045, -0.076, 0.982, 0.064, 192.0, 253.0, 160.0, 30.0, 176.0, 2.0, 0.0, 0.0, 0.0, 0.0, 1.700951360213124E9, 0.0, 2023-11-25 17:29:20.213
48.0, 37353.140098230855, 47884.276257071055, 26497.52366513296, -27190.494798480846, 16465.03257334621, 61962.56720573512, 13695.673787078118, 30721.04224217442, -0.076, 0.982, 0.064, 192.0, 0.0, 0.0, 0.0, 0.0, 0.0, 0.0, 0.0, 0.0, 0.0, 1.700951360219102E9, 0.0, 2023-11-25 17:29:20.219
49.0, 37151.90734289972, 47745.89660714824, 26466.633554295728, -27367.99000120044, 16315.968789573764, 61791.688119374296, 13680.385193870688, 30680.630288199223, -0.076, 0.982, 0.064, 192.0, 0.0, 0.0, 0.0, 0.0, 0.0, 0.0, 0.0, 0.0, 0.0, 1.700951360222101E9, 0.0, 2023-11-25 17:29:20.222
50.0, 37094.1057317383, 47773.03162491699, 26446.494632541497, -27361.642105775132, 16254.635602788401, 61380.77364930793, 13683.067403205325, 30688.7439714365, -0.076, 0.982, 0.064, 192.0, 0.0, 0.0, 0.0, 0.0, 0.0, 0.0, 0.0, 0.0, 0.0, 1.700951360225155E9, 0.0, 2023-11-25 17:29:20.225
51.0, 37171.55452627594, 47866.014881851064, 26433.530620757418, -27327.242771058416, 16214.246000557663, 61410.50146943349, 13672.852655989249, 30681.21143355506, -0.076, 0.982, 0.064, 192.0, 0.0, 0.0, 0.0, 0.0, 0.0, 0.0, 0.0, 0.0, 0.0, 1.700951360230136E9, 0.0, 2023-11-25 17:29:20.230
52.0, 37332.62119682088, 47890.825318196454, 26480.312821902375, -27206.43159227748, 16425.15706123794, 61806.909657348355, 13683.3803276277, 30704.300785577394, -0.076, 0.982, 0.064, 192.0, 0.0, 0.0, 0.0, 0.0, 0.0, 0.0, 0.0, 0.0, 0.0, 1.700951360234507E9, 0.0, 2023-11-25 17:29:20.234
53.0, 37194.777988765, 47761.81104920043, 26457.514042557963, -27334.08240486174, 16343.260269553695, 61899.66939683788, 13656.781751725883, 30663.285334501903, -0.076, 0.982, 0.064, 192.0, 0.0, 0.0, 0.0, 0.0, 0.0, 0.0, 0.0, 0.0, 0.0, 1.700951360238196E9, 0.0, 2023-11-25 17:29:20.238
54.0, 37072.2010221721, 47756.24546483105, 26441.353731316776, -27377.198919916027, 16246.968954440232, 61347.3801430917, 13658.011097670926, 30661.966581579043, -0.076, 0.982, 0.064, 192.0, 0.0, 0.0, 0.0, 0.0, 0.0, 0.0, 0.0, 0.0, 0.0, 1.700951360241347E9, 0.0, 2023-11-25 17:29:20.241
55.0, 37151.34854928834, 47860.47164922615, 26431.787184689903, -27327.287474547324, 16208.456898743738, 61387.3897656667, 13658.681650004584, 30670.661410172157, -0.076, 0.982, 0.064, 192.0, 0.0, 0.0, 0.0, 0.0, 0.0, 0.0, 0.0, 0.0, 0.0, 1.700951360245156E9, 0.0, 2023-11-25 17:29:20.245
56.0, 37310.53767329904, 47908.81847248298, 26479.128179446245, -27214.657034237032, 16389.617787554, 61667.457123691696, 13679.669938048119, 30705.306614077883, -0.076, 0.982, 0.064, 192.0, 0.0, 0.0, 0.0, 0.0, 0.0, 0.0, 0.0, 0.0, 0.0, 1.700951360249452E9, 0.0, 2023-11-25 17:29:20.249
57.0, 37254.52420169404, 47800.07723570791, 26469.94161247511, -27283.835683326208, 16391.964720721808, 61998.01707244123, 13656.401772070143, 30677.746913164487, -0.07200000000000001, 0.978, 0.06, 192.0, 253.0, 192.0, 30.0, 144.0, 1.0, 224.0, 0.0, 0.0, 0.0, 1.700951360253662E9, 0.0, 2023-11-25 17:29:20.253
58.0, 37071.731635538534, 47752.624482229294, 26448.930972687125, -27388.866530521696, 16254.21091964375, 61352.11871291623, 13660.402734327643, 30677.344581764293, -0.07200000000000001, 0.978, 0.06, 192.0, 0.0, 0.0, 0.0, 0.0, 0.0, 0.0, 0.0, 0.0, 0.0, 1.700951360258472E9, 0.0, 2023-11-25 17:29:20.258
59.0, 37141.89376138375, 47850.21219852116, 26430.22256257803, -27325.499334990902, 16217.241134314674, 61391.949521535586, 13654.926556936092, 30676.294049774893, -0.07200000000000001, 0.978, 0.06, 192.0, 0.0, 0.0, 0.0, 0.0, 0.0, 0.0, 0.0, 0.0, 0.0, 1.700951360262253E9, 0.0, 2023-11-25 17:29:20.262
60.0, 37279.69226595071, 47907.72323700467, 26460.218603637055, -27242.77552876181, 16336.510042728192, 61568.260081799046, 13665.633042530186, 30682.79840741139, -0.07200000000000001, 0.978, 0.06, 192.0, 0.0, 0.0, 0.0, 0.0, 0.0, 0.0, 0.0, 0.0, 0.0, 1.7009513602652E9, 0.0, 2023-11-25 17:29:20.265
61.0, 37303.76509472908, 47836.84585533689, 26475.73071428904, -27245.793014263276, 16429.962686295832, 62045.40277068649, 13656.55823428133, 30674.863538129754, -0.07200000000000001, 0.978, 0.06, 192.0, 0.0, 0.0, 0.0, 0.0, 0.0, 0.0, 0.0, 0.0, 0.0, 1.700951360271462E9, 0.0, 2023-11-25 17:29:20.271
62.0, 37077.252516419, 47752.06568861791, 26450.920277943645, -27397.337841670258, 16260.111780179952, 61396.82220182684, 13662.61555702872, 30662.92770659062, -0.07200000000000001, 0.978, 0.06, 192.0, 0.0, 0.0, 0.0, 0.0, 0.0, 0.0, 0.0, 0.0, 0.0, 1.700951360273253E9, 0.0, 2023-11-25 17:29:20.273
63.0, 37130.472019967085, 47836.82350359244, 26426.735690443005, -27333.255390316892, 16225.064244874031, 61384.796963309884, 13650.635022000673, 30662.033636812408, -0.07200000000000001, 0.978, 0.06, 192.0, 0.0, 0.0, 0.0, 0.0, 0.0, 0.0, 0.0, 0.0, 0.0, 1.700951360279268E9, 0.0, 2023-11-25 17:29:20.279
64.0, 37243.28127423302, 47900.99536192362, 26445.622914507738, -27281.332287947214, 16288.051460749086, 61465.285595093446, 13654.658336002629, 30662.4359682126, -0.07200000000000001, 0.978, 0.06, 192.0, 0.0, 0.0, 0.0, 0.0, 0.0, 0.0, 0.0, 0.0, 0.0, 1.700951360282311E9, 0.0, 2023-11-25 17:29:20.282
65.0, 37322.920539727274, 47854.503733456586, 26474.881347999737, -27221.20609536244, 16456.427151730913, 62042.31822995165, 13656.647641259151, 30683.84893940079, -0.07200000000000001, 0.978, 0.06, 192.0, 0.0, 0.0, 0.0, 0.0, 0.0, 0.0, 0.0, 0.0, 0.0, 1.700951360285433E9, 0.0, 2023-11-25 17:29:20.285
66.0, 37067.9988942145, 47733.69255467565, 26440.839641194303, -27409.027804020385, 16262.257547647661, 61493.64995880723, 13655.865330203216, 30676.294049774893, -0.07200000000000001, 0.978, 0.06, 192.0, 0.0, 0.0, 0.0, 0.0, 0.0, 0.0, 0.0, 0.0, 0.0, 1.700951360290296E9, 0.0, 2023-11-25 17:29:20.290
67.0, 37107.136798755746, 47815.209366704155, 26424.858143908757, -27342.30784682129, 16235.59191651248, 61366.26736715643, 13656.625289514695, 30694.331907550328, -0.07200000000000001, 0.982, 0.07200000000000001, 192.0, 253.0, 192.0, 30.0, 176.0, 2.0, 64.0, 0.0, 0.0, 0.0, 1.700951360294323E9, 0.0, 2023-11-25 17:29:20.294
68.0, 37208.59136683838, 47896.39090256583, 26431.1389841007, -27303.84049461371, 16248.31005910755, 61400.48788791751, 13654.121894135702, 30681.949041122087, -0.07200000000000001, 0.982, 0.07200000000000001, 192.0, 0.0, 0.0, 0.0, 0.0, 0.0, 0.0, 0.0, 0.0, 0.0, 1.700951360297414E9, 0.0, 2023-11-25 17:29:20.297
69.0, 37331.615368320396, 47872.92157088775, 26464.085455427823, -27211.639548735566, 16449.16283478294, 61977.45346754235, 13649.003344655437, 30681.233785299515, -0.07200000000000001, 0.982, 0.07200000000000001, 192.0, 0.0, 0.0, 0.0, 0.0, 0.0, 0.0, 0.0, 0.0, 0.0, 1.700951360302565E9, 0.0, 2023-11-25 17:29:20.302
70.0, 37093.36812417128, 47739.95104312313, 26435.85520218077, -27404.602158618232, 16269.275995406628, 61607.01800668455, 13650.858539445228, 30657.228011754516, -0.07200000000000001, 0.982, 0.07200000000000001, 192.0, 0.0, 0.0, 0.0, 0.0, 0.0, 0.0, 0.0, 0.0, 0.0, 1.700951360305344E9, 0.0, 2023-11-25 17:29:20.305
71.0, 37090.507100881, 47800.01018047454, 26430.13315560021, -27351.98615217044, 16240.084617147997, 61334.48318654099, 13672.696193778062, 30697.34939305179, -0.07200000000000001, 0.982, 0.07200000000000001, 192.0, 0.0, 0.0, 0.0, 0.0, 0.0, 0.0, 0.0, 0.0, 0.0, 1.700951360309417E9, 0.0, 2023-11-25 17:29:20.309
72.0, 37179.332933346384, 47890.646504240816, 26430.80370793387, -27313.4964482184, 16223.320808806517, 61361.55114907637, 13677.211246158035, 30696.634137229223, -0.07200000000000001, 0.982, 0.07200000000000001, 192.0, 0.0, 0.0, 0.0, 0.0, 0.0, 0.0, 0.0, 0.0, 0.0, 1.70095136031335E9, 0.0, 2023-11-25 17:29:20.313
73.0, 37338.41029863481, 47896.301495588006, 26473.584946821327, -27196.261548550316, 16446.16770102593, 61887.91237925439, 13682.262740404933, 30706.89358793421, -0.07200000000000001, 0.982, 0.07200000000000001, 192.0, 0.0, 0.0, 0.0, 0.0, 0.0, 0.0, 0.0, 0.0, 0.0, 1.70095136031853E9, 0.0, 2023-11-25 17:29:20.318
74.0, 37151.70617719962, 47762.68276723418, 26448.81921396485, -27366.023047688373, 16309.531487170636, 61750.426799109795, 13665.342469852267, 30668.64975317118, -0.07200000000000001, 0.982, 0.07200000000000001, 192.0, 0.0, 0.0, 0.0, 0.0, 0.0, 0.0, 0.0, 0.0, 0.0, 1.700951360321529E9, 0.0, 2023-11-25 17:29:20.321
75.0, 37091.91526078168, 47792.85762224885, 26431.94364690109, -27360.99390518593, 16246.656030017857, 61318.85931716673, 13665.677746019095, 30681.323192277338, -0.07200000000000001, 0.982, 0.07200000000000001, 192.0, 0.0, 0.0, 0.0, 0.0, 0.0, 0.0, 0.0, 0.0, 0.0, 1.700951360324423E9, 0.0, 2023-11-25 17:29:20.324
76.0, 37174.393197821766, 47889.84184144042, 26420.387795017697, -27328.382710025635, 16207.048738843054, 61347.201329136056, 13655.552405780842, 30670.46024447206, -0.07200000000000001, 0.982, 0.07200000000000001, 192.0, 0.0, 0.0, 0.0, 0.0, 0.0, 0.0, 0.0, 0.0, 0.0, 1.700951360329411E9, 0.0, 2023-11-25 17:29:20.329
77.0, 37336.89038001184, 47920.01669645509, 26469.919260730658, -27206.319833555204, 16418.71975883481, 61732.16542388981, 13662.526150050897, 30688.07341910284, -0.068, 0.98, 0.07, 192.0, 253.0, 224.0, 30.0, 160.0, 2.0, 48.0, 0.0, 0.0, 0.0, 1.700951360333931E9, 0.0, 2023-11-25 17:29:20.333
78.0, 37212.01118374005, 47802.91590725374, 26457.491690813506, -27321.45366924449, 16356.47015052678, 61851.76960847016, 13644.376533553188, 30657.831508854808, -0.068, 0.98, 0.07, 192.0, 0.0, 0.0, 0.0, 0.0, 0.0, 0.0, 0.0, 0.0, 0.0, 1.700951360337476E9, 0.0, 2023-11-25 17:29:20.337
79.0, 37085.500310123, 47791.98590421509, 26436.726920214525, -27368.951126212018, 16253.339201609995, 61284.839962105754, 13643.750684708439, 30661.988933323497, -0.068, 0.98, 0.07, 192.0, 0.0, 0.0, 0.0, 0.0, 0.0, 0.0, 0.0, 0.0, 0.0, 1.700951360341455E9, 0.0, 2023-11-25 17:29:20.341
80.0, 37163.79847094995, 47890.44533854072, 26418.84552465028, -27318.726756420943, 16206.579352209492, 61346.642535524676, 13630.74196943545, 30661.363084478748, -0.068, 0.98, 0.07, 192.0, 0.0, 0.0, 0.0, 0.0, 0.0, 0.0, 0.0, 0.0, 0.0, 1.700951360345526E9, 0.0, 2023-11-25 17:29:20.345
81.0, 37315.25389137911, 47941.183798454265, 26462.654943782683, -27213.114763869617, 16376.921996703388, 61604.82753572793, 13646.65641148763, 30679.244480042995, -0.068, 0.98, 0.07, 192.0, 0.0, 0.0, 0.0, 0.0, 0.0, 0.0, 0.0, 0.0, 0.0, 1.700951360349498E9, 0.0, 2023-11-25 17:29:20.349
82.0, 37261.38618724182, 47835.057715780466, 26452.797824477893, -27281.19817748048, 16388.030813697675, 61949.4243799954, 13629.110292090214, 30641.514735402434, -0.068, 0.98, 0.07, 192.0, 0.0, 0.0, 0.0, 0.0, 0.0, 0.0, 0.0, 0.0, 0.0, 1.700951360352543E9, 0.0, 2023-11-25 17:29:20.352
83.0, 37070.368179126766, 47777.9266569527, 26428.41207127715, -27394.32035616879, 16241.291611348584, 61278.60382540272, 13635.637001471163, 30624.549761360857, -0.068, 0.98, 0.07, 192.0, 0.0, 0.0, 0.0, 0.0, 0.0, 0.0, 0.0, 0.0, 0.0, 1.700951360358017E9, 0.0, 2023-11-25 17:29:20.358
84.0, 37137.82574389288, 47866.50662022908, 26404.36159424324, -27334.5517914953, 16201.036119584576, 61312.19849731905, 13628.17151882309, 30629.5789038633, -0.068, 0.98, 0.07, 192.0, 0.0, 0.0, 0.0, 0.0, 0.0, 0.0, 0.0, 0.0, 0.0, 1.700951360361666E9, 0.0, 2023-11-25 17:29:20.361
85.0, 37272.36089376937, 47924.53174883506, 26435.94460915859, -27258.332342902704, 16315.499402940202, 61451.87454842026, 13638.27450731689, 30646.655636627154, -0.068, 0.98, 0.07, 192.0, 0.0, 0.0, 0.0, 0.0, 0.0, 0.0, 0.0, 0.0, 0.0, 1.700951360365858E9, 0.0, 2023-11-25 17:29:20.365
86.0, 37296.925460925755, 47848.73698338711, 26446.673446497138, -27250.62099106562, 16413.310636676626, 61964.24358656927, 13627.813890911806, 30646.052139526862, -0.068, 0.98, 0.07, 192.0, 0.0, 0.0, 0.0, 0.0, 0.0, 0.0, 0.0, 0.0, 0.0, 1.700951360369572E9, 0.0, 2023-11-25 17:29:20.369
87.0, 37059.88521097723, 47750.45636301713, 26416.632701949206, -27413.498152911445, 16230.853346687956, 61336.80776796434, 13637.291030560855, 30636.686758600088, -0.066, 0.984, 0.068, 192.0, 253.0, 240.0, 30.0, 192.0, 2.0, 32.0, 0.0, 0.0, 0.0, 1.700951360375617E9, 0.0, 2023-11-25 17:29:20.375
88.0, 37116.25631049351, 47837.11407627035, 26398.12545754021, -27347.202878857002, 16200.454974228738, 61310.16448857362, 13645.65058298714, 30648.86845932823, -0.066, 0.984, 0.068, 192.0, 0.0, 0.0, 0.0, 0.0, 0.0, 0.0, 0.0, 0.0, 0.0, 1.700951360378593E9, 0.0, 2023-11-25 17:29:20.378
89.0, 37233.06652701694, 47911.43362658425, 26421.326568284818, -27291.614090396655, 16262.771637770134, 61361.9311287321, 13658.458132560032, 30656.31159023185, -0.066, 0.984, 0.068, 192.0, 0.0, 0.0, 0.0, 0.0, 0.0, 0.0, 0.0, 0.0, 0.0, 1.700951360381577E9, 0.0, 2023-11-25 17:29:20.381
90.0, 37322.026469949065, 47868.47357374115, 26452.66371401116, -27223.73184248589, 16435.483567176292, 61938.98611533477, 13660.089809905268, 30662.972410079532, -0.066, 0.984, 0.068, 192.0, 0.0, 0.0, 0.0, 0.0, 0.0, 0.0, 0.0, 0.0, 0.0, 1.700951360385599E9, 0.0, 2023-11-25 17:29:20.385
91.0, 37067.82008025886, 47740.8674646458, 26418.197324061075, -27410.368908687702, 16240.419893314827, 61428.718141164565, 13658.100504648746, 30637.96080803404, -0.066, 0.984, 0.068, 192.0, 0.0, 0.0, 0.0, 0.0, 0.0, 0.0, 0.0, 0.0, 0.0, 1.700951360389607E9, 0.0, 2023-11-25 17:29:20.389
92.0, 37097.36908642877, 47815.56699461544, 26402.729916898003, -27343.380730555145, 16216.548230236558, 61303.3695582592, 13663.12964715119, 30663.86647985774, -0.066, 0.984, 0.068, 192.0, 0.0, 0.0, 0.0, 0.0, 0.0, 0.0, 0.0, 0.0, 0.0, 1.700951360393667E9, 0.0, 2023-11-25 17:29:20.393
93.0, 37202.60109932436, 47904.32577184746, 26416.453887993564, -27301.672375401544, 16229.914573420832, 61313.427843264086, 13669.969280954514, 30663.330037990814, -0.066, 0.984, 0.068, 192.0, 0.0, 0.0, 0.0, 0.0, 0.0, 0.0, 0.0, 0.0, 0.0, 1.700951360397982E9, 0.0, 2023-11-25 17:29:20.397
94.0, 37338.186781190256, 47890.26652458507, 26455.502385556985, -27201.49185675286, 16441.675000390413, 61883.21851291878, 13671.08686817728, 30672.69541891759, -0.066, 0.984, 0.068, 192.0, 0.0, 0.0, 0.0, 0.0, 0.0, 0.0, 0.0, 0.0, 0.0, 1.700951360401813E9, 0.0, 2023-11-25 17:29:20.401
95.0, 37109.215510990085, 47757.85479043183, 26427.04861486538, -27392.688678823553, 16267.17493142783, 61542.98025882009, 13662.123818650702, 30641.69354935808, -0.066, 0.984, 0.068, 192.0, 0.0, 0.0, 0.0, 0.0, 0.0, 0.0, 0.0, 0.0, 0.0, 1.700951360404746E9, 0.0, 2023-11-25 17:29:20.404
96.0, 37096.02798176146, 47809.889651523794, 26409.390736745685, -27350.5556405253, 16230.003980398653, 61269.238444475945, 13663.93430995158, 30657.07154954333, -0.066, 0.984, 0.068, 192.0, 0.0, 0.0, 0.0, 0.0, 0.0, 0.0, 0.0, 0.0, 0.0, 1.700951360408701E9, 0.0, 2023-11-25 17:29:20.408
97.0, 37183.44565432616, 47897.93317293325, 26405.948568099568, -27318.50323897639, 16203.628921941392, 61294.473563965985, 13662.548501795352, 30653.048235541373, -0.066, 0.984, 0.07, 192.0, 253.0, 240.0, 30.0, 192.0, 2.0, 48.0, 0.0, 0.0, 0.0, 1.700951360412707E9, 0.0, 2023-11-25 17:29:20.412
98.0, 37337.829153278966, 47908.751417249616, 26451.009684921468, -27199.23433056287, 16427.481642661292, 61797.56662816604, 13667.689403020073, 30668.26977351544, -0.066, 0.984, 0.07, 192.0, 0.0, 0.0, 0.0, 0.0, 0.0, 0.0, 0.0, 0.0, 0.0, 1.700951360419431E9, 0.0, 2023-11-25 17:29:20.419
99.0, 37152.64495046675, 47776.71966275211, 26426.243952064986, -27364.301963365313, 16298.445021920805, 61708.293760811546, 13652.959603424026, 30635.189191721583, -0.066, 0.984, 0.07, 192.0, 0.0, 0.0, 0.0, 0.0, 0.0, 0.0, 0.0, 0.0, 0.0, 1.700951360421736E9, 0.0, 2023-11-25 17:29:20.421
100.0, 37083.287487421934, 47799.78666302999, 26412.296463524875, -27361.642105775132, 16233.379093811405, 61250.35122041121, 13663.710792507029, 30655.86455534274, -0.066, 0.984, 0.07, 192.0, 0.0, 0.0, 0.0, 0.0, 0.0, 0.0, 0.0, 0.0, 0.0, 1.700951360425825E9, 0.0, 2023-11-25 17:29:20.425
101.0, 37160.24454358155, 47889.99830365161, 26399.60067267426, -27329.209724570483, 16187.82623861149, 61281.956587071014, 13650.858539445228, 30644.733386604, -0.066, 0.984, 0.07, 192.0, 0.0, 0.0, 0.0, 0.0, 0.0, 0.0, 0.0, 0.0, 0.0, 1.700951360430344E9, 0.0, 2023-11-25 17:29:20.430
102.0, 37316.55029255751, 47917.87092898738, 26444.371216818243, -27209.024394634296, 16391.62944455498, 61657.935280553735, 13653.540748779864, 30654.344636719783, -0.066, 0.984, 0.07, 192.0, 0.0, 0.0, 0.0, 0.0, 0.0, 0.0, 0.0, 0.0, 0.0, 1.700951360433893E9, 0.0, 2023-11-25 17:29:20.433
103.0, 37196.07438994341, 47794.46694784963, 26427.7862224324, -27317.698576175997, 16338.544051473626, 61827.85324190298, 13633.982972381471, 30624.236836938482, -0.066, 0.984, 0.07, 192.0, 0.0, 0.0, 0.0, 0.0, 0.0, 0.0, 0.0, 0.0, 0.0, 1.700951360436919E9, 0.0, 2023-11-25 17:29:20.436
104.0, 37060.62281854425, 47776.205572629646, 26410.217751290533, -27379.009411216906, 16231.479195532704, 61248.67483957706, 13641.426103285088, 30639.413671423637, -0.066, 0.984, 0.07, 192.0, 0.0, 0.0, 0.0, 0.0, 0.0, 0.0, 0.0, 0.0, 0.0, 1.700951360443788E9, 0.0, 2023-11-25 17:29:20.443
105.0, 37137.937502615154, 47877.973065134654, 26393.40923946014, -27327.376881525146, 16192.63186366938, 61292.93129359857, 13633.893565403649, 30643.816965081332, -0.066, 0.984, 0.07, 192.0, 0.0, 0.0, 0.0, 0.0, 0.0, 0.0, 0.0, 0.0, 0.0, 1.700951360446852E9, 0.0, 2023-11-25 17:29:20.446
106.0, 37283.31324855248, 47923.570623823485, 26430.490783511494, -27231.06321466723, 16351.932746402354, 61533.59252614887, 13636.262850315912, 30634.652749854657, -0.066, 0.984, 0.07, 192.0, 0.0, 0.0, 0.0, 0.0, 0.0, 0.0, 0.0, 0.0, 0.0, 1.700951360451213E9, 0.0, 2023-11-25 17:29:20.451
107.0, 37241.068451531944, 47825.0888377534, 26429.552010244373, -27284.90856706006, 16377.659604270411, 61896.5625043586, 13619.566097207797, 30596.945356958553, -0.074, 0.986, 0.068, 192.0, 253.0, 176.0, 30.0, 208.0, 2.0, 32.0, 0.0, 0.0, 0.0, 1.7009513604538E9, 0.0, 2023-11-25 17:29:20.453
108.0, 37042.96494042456, 47763.26391259002, 26405.41212623264, -27399.32714692678, 16227.21001234174, 61243.377476141155, 13628.17151882309, 30601.080429682785, -0.074, 0.986, 0.068, 192.0, 0.0, 0.0, 0.0, 0.0, 0.0, 0.0, 0.0, 0.0, 0.0, 1.700951360457854E9, 0.0, 2023-11-25 17:29:20.457
109.0, 37112.63532789175, 47857.83414338042, 26385.295556222864, -27336.049358373806, 16189.972006079199, 61270.22192123198, 13621.086015830759, 30621.889903770676, -0.074, 0.986, 0.068, 192.0, 0.0, 0.0, 0.0, 0.0, 0.0, 0.0, 0.0, 0.0, 0.0, 1.700951360460839E9, 0.0, 2023-11-25 17:29:20.460
110.0, 37248.757451624566, 47924.64350755734, 26419.829001406313, -27257.661790569044, 16302.401280689393, 61394.788193081404, 13638.207452083523, 30634.71980508802, -0.074, 0.986, 0.068, 192.0, 0.0, 0.0, 0.0, 0.0, 0.0, 0.0, 0.0, 0.0, 0.0, 1.700951360465928E9, 0.0, 2023-11-25 17:29:20.465
111.0, 37288.09652186591, 47857.96825384715, 26438.626818493227, -27238.036958937286, 16416.86456404502, 61919.85302208103, 13635.748760193439, 30626.717880573022, -0.074, 0.986, 0.068, 192.0, 0.0, 0.0, 0.0, 0.0, 0.0, 0.0, 0.0, 0.0, 0.0, 1.700951360469891E9, 0.0, 2023-11-25 17:29:20.469
112.0, 37051.43625157312, 47759.30765382143, 26411.245931535475, -27405.5185801409, 16235.614268256935, 61306.20822980502, 13643.549519008342, 30616.21256067903, -0.074, 0.986, 0.068, 192.0, 0.0, 0.0, 0.0, 0.0, 0.0, 0.0, 0.0, 0.0, 0.0, 1.700951360472923E9, 0.0, 2023-11-25 17:29:20.472
113.0, 37103.44876092062, 47843.55137867348, 26393.342184226774, -27339.245657830914, 16208.9262853773, 61263.60580487321, 13646.388190554166, 30628.953055018552, -0.074, 0.986, 0.068, 192.0, 0.0, 0.0, 0.0, 0.0, 0.0, 0.0, 0.0, 0.0, 0.0, 1.700951360477896E9, 0.0, 2023-11-25 17:29:20.477
114.0, 37216.05684948646, 47915.54634756403, 26413.235236792, -27283.92509030403, 16261.855216247466, 61308.06342459482, 13660.17921688309, 30630.58473236379, -0.074, 0.986, 0.068, 192.0, 0.0, 0.0, 0.0, 0.0, 0.0, 0.0, 0.0, 0.0, 0.0, 1.700951360481924E9, 0.0, 2023-11-25 17:29:20.481
115.0, 37307.72135349767, 47867.46774524066, 26436.078719625322, -27216.601636004645, 16433.53896540868, 61931.23006000878, 13657.675821504095, 30621.800496792854, -0.074, 0.986, 0.068, 192.0, 0.0, 0.0, 0.0, 0.0, 0.0, 0.0, 0.0, 0.0, 0.0, 1.700951360485961E9, 0.0, 2023-11-25 17:29:20.485
116.0, 37057.80649874288, 47739.571063467396, 26403.93691109859, -27417.7226326135, 16237.223593857718, 61429.25458303149, 13653.853673202238, 30592.854987723233, -0.074, 0.986, 0.068, 192.0, 0.0, 0.0, 0.0, 0.0, 0.0, 0.0, 0.0, 0.0, 0.0, 1.700951360488969E9, 0.0, 2023-11-25 17:29:20.488
117.0, 37089.16599621368, 47817.75746557206, 26392.761038870936, -27350.13095738065, 16215.765919180623, 61264.81279907379, 13666.258891374933, 30633.646921354168, -0.076, 0.988, 0.062, 192.0, 253.0, 160.0, 30.0, 224.0, 1.0, 240.0, 0.0, 0.0, 0.0, 1.700951360492979E9, 0.0, 2023-11-25 17:29:20.492
118.0, 37187.6254305393, 47904.81751022548, 26400.51709419693, -27310.07663131674, 16221.107986105442, 61276.14513351263, 13670.393964099165, 30634.026901009907, -0.076, 0.988, 0.062, 192.0, 0.0, 0.0, 0.0, 0.0, 0.0, 0.0, 0.0, 0.0, 0.0, 1.700951360497021E9, 0.0, 2023-11-25 17:29:20.497
119.0, 37326.228597906666, 47892.41229205278, 26439.878516182725, -27200.597786974646, 16438.09872127756, 61846.4498932898, 13671.176275155101, 30649.047273283875, -0.076, 0.988, 0.062, 192.0, 0.0, 0.0, 0.0, 0.0, 0.0, 0.0, 0.0, 0.0, 0.0, 1.700951360501026E9, 0.0, 2023-11-25 17:29:20.501
120.0, 37102.35352544231, 47755.97724389759, 26411.268283279933, -27390.252338677925, 16269.633623317914, 61542.93555533118, 13667.935272209083, 30618.894770013663, -0.076, 0.988, 0.062, 192.0, 0.0, 0.0, 0.0, 0.0, 0.0, 0.0, 0.0, 0.0, 0.0, 1.700951360505019E9, 0.0, 2023-11-25 17:29:20.505
121.0, 37084.405074644696, 47806.71570381114, 26399.868893607723, -27351.405006814603, 16231.032160643597, 61223.372664853654, 13679.066440947825, 30639.771299334923, -0.076, 0.988, 0.062, 192.0, 0.0, 0.0, 0.0, 0.0, 0.0, 0.0, 0.0, 0.0, 0.0, 1.700951360513057E9, 0.0, 2023-11-25 17:29:20.513
122.0, 37166.748901218045, 47891.02648389655, 26389.78825685838, -27323.621788456654, 16196.208142782229, 61244.04802847481, 13672.405621100143, 30632.417575409127, -0.076, 0.988, 0.062, 192.0, 0.0, 0.0, 0.0, 0.0, 0.0, 0.0, 0.0, 0.0, 0.0, 1.700951360516034E9, 0.0, 2023-11-25 17:29:20.516
123.0, 37319.90305422581, 47897.19556536622, 26429.999045133478, -27208.599711489645, 16414.539982621667, 61729.55026978854, 13672.427972844598, 30648.7343488615, -0.076, 0.988, 0.062, 192.0, 0.0, 0.0, 0.0, 0.0, 0.0, 0.0, 0.0, 0.0, 0.0, 1.700951360520047E9, 0.0, 2023-11-25 17:29:20.520
124.0, 37144.531267229475, 47766.77313646951, 26406.261492521942, -27368.61585004519, 16295.673405608346, 61658.04703927601, 13655.41829531411, 30613.48564785548, -0.076, 0.988, 0.062, 192.0, 0.0, 0.0, 0.0, 0.0, 0.0, 0.0, 0.0, 0.0, 0.0, 1.700951360523089E9, 0.0, 2023-11-25 17:29:20.523
125.0, 37062.790937756414, 47783.08990992188, 26385.496721922962, -27378.361210627703, 16221.242096572174, 61180.54672247729, 13653.943080180059, 30623.700395071555, -0.076, 0.988, 0.062, 192.0, 0.0, 0.0, 0.0, 0.0, 0.0, 0.0, 0.0, 0.0, 0.0, 1.700951360526443E9, 0.0, 2023-11-25 17:29:20.526
126.0, 37143.88306664027, 47881.77286169206, 26374.812588073324, -27339.938561909028, 16178.505561173626, 61207.27940884583, 13643.46011203052, 30620.414688636625, -0.076, 0.988, 0.062, 192.0, 0.0, 0.0, 0.0, 0.0, 0.0, 0.0, 0.0, 0.0, 0.0, 1.700951360530145E9, 0.0, 2023-11-25 17:29:20.530
127.0, 37306.04497266352, 47917.17802490926, 26417.683233938606, -27217.875685438597, 16379.023060682186, 61568.125971332316, 13652.110237134724, 30634.67510159911, -0.07200000000000001, 0.986, 0.06, 192.0, 253.0, 192.0, 30.0, 208.0, 1.0, 224.0, 0.0, 0.0, 0.0, 1.700951360533072E9, 0.0, 2023-11-25 17:29:20.533
128.0, 37203.60692782485, 47802.64768632027, 26400.718259897025, -27322.034814600327, 16333.76077816019, 61775.14782847737, 13631.45722525802, 30598.755848259432, -0.07200000000000001, 0.986, 0.06, 192.0, 0.0, 0.0, 0.0, 0.0, 0.0, 0.0, 0.0, 0.0, 0.0, 1.700951360537143E9, 0.0, 2023-11-25 17:29:20.537
129.0, 37064.04263544591, 47785.59330530087, 26387.038992290378, -27382.7645042854, 16226.740625708178, 61178.60212070968, 13645.784693453872, 30614.446772867057, -0.07200000000000001, 0.986, 0.06, 192.0, 0.0, 0.0, 0.0, 0.0, 0.0, 0.0, 0.0, 0.0, 0.0, 1.70095136054121E9, 0.0, 2023-11-25 17:29:20.541
130.0, 37137.49046772605, 47884.56682974897, 26369.82814905979, -27325.097003590705, 16184.361718220916, 61233.654467303095, 13638.721542205996, 30615.25143566745, -0.07200000000000001, 0.986, 0.06, 192.0, 0.0, 0.0, 0.0, 0.0, 0.0, 0.0, 0.0, 0.0, 0.0, 1.700951360545111E9, 0.0, 2023-11-25 17:29:20.545
131.0, 37279.312286294975, 47934.59003383995, 26410.57537920182, -27229.43153732199, 16342.299144542116, 61458.44596129012, 13647.46107428802, 30623.25336018245, -0.07200000000000001, 0.986, 0.06, 192.0, 0.0, 0.0, 0.0, 0.0, 0.0, 0.0, 0.0, 0.0, 0.0, 1.700951360551176E9, 0.0, 2023-11-25 17:29:20.551
132.0, 37254.61360867186, 47842.36673621735, 26418.17497231662, -27262.48976737139, 16388.746069520246, 61858.586890529026, 13641.113178862714, 30601.48276108298, -0.07200000000000001, 0.986, 0.06, 192.0, 0.0, 0.0, 0.0, 0.0, 0.0, 0.0, 0.0, 0.0, 0.0, 1.700951360554209E9, 0.0, 2023-11-25 17:29:20.554
133.0, 37049.71516725006, 47773.34454933937, 26393.968033071524, -27387.436018876557, 16230.965105410232, 61213.98493218243, 13651.126760378691, 30598.934662215077, -0.07200000000000001, 0.986, 0.06, 192.0, 0.0, 0.0, 0.0, 0.0, 0.0, 0.0, 0.0, 0.0, 0.0, 1.700951360558167E9, 0.0, 2023-11-25 17:29:20.558
134.0, 37121.62072916278, 47870.641692953315, 26375.684306107083, -27324.046471601305, 16194.218837525706, 61222.00920844188, 13645.717638220507, 30614.8267525228, -0.07200000000000001, 0.986, 0.06, 192.0, 0.0, 0.0, 0.0, 0.0, 0.0, 0.0, 0.0, 0.0, 0.0, 1.700951360561185E9, 0.0, 2023-11-25 17:29:20.561
135.0, 37257.072300561944, 47935.97584199618, 26403.84750412077, -27252.476185855412, 16294.153486985386, 61334.86316619673, 13654.591280769264, 30620.660557825635, -0.07200000000000001, 0.986, 0.06, 192.0, 0.0, 0.0, 0.0, 0.0, 0.0, 0.0, 0.0, 0.0, 0.0, 1.700951360565239E9, 0.0, 2023-11-25 17:29:20.565
136.0, 37300.23351910514, 47866.596027206906, 26416.23037054901, -27232.046691423264, 16413.601209354547, 61902.128088727964, 13648.824530699794, 30624.169781705117, -0.07200000000000001, 0.986, 0.06, 192.0, 0.0, 0.0, 0.0, 0.0, 0.0, 0.0, 0.0, 0.0, 0.0, 1.700951360569195E9, 0.0, 2023-11-25 17:29:20.569
137.0, 37055.1466411527, 47762.72747072309, 26387.284861479387, -27407.753754586432, 16221.957352394744, 61293.4677354655, 13656.491179047964, 30618.783011291387, -0.07200000000000001, 0.98, 0.066, 192.0, 253.0, 192.0, 30.0, 160.0, 2.0, 16.0, 0.0, 0.0, 0.0, 1.700951360572177E9, 0.0, 2023-11-25 17:29:20.572
138.0, 37104.63340337675, 47850.39101247681, 26369.98461127098, -27337.010483385384, 16194.531761948081, 61218.835260729225, 13655.373591825199, 30635.16683997713, -0.07200000000000001, 0.98, 0.066, 192.0, 0.0, 0.0, 0.0, 0.0, 0.0, 0.0, 0.0, 0.0, 0.0, 1.700951360579245E9, 0.0, 2023-11-25 17:29:20.579
139.0, 37217.867340787336, 47927.52688259207, 26387.79895160186, -27281.332287947214, 16242.632716015902, 61256.16267396959, 13663.93430995158, 30639.39131967918, -0.07200000000000001, 0.98, 0.066, 192.0, 0.0, 0.0, 0.0, 0.0, 0.0, 0.0, 0.0, 0.0, 0.0, 1.700951360583195E9, 0.0, 2023-11-25 17:29:20.583
140.0, 37321.400621104316, 47887.89723967281, 26414.41987924813, -27207.750345200344, 16423.01129377023, 61858.363373084474, 13661.56502503932, 30639.8830580572, -0.07200000000000001, 0.98, 0.066, 192.0, 0.0, 0.0, 0.0, 0.0, 0.0, 0.0, 0.0, 0.0, 0.0, 1.700951360586209E9, 0.0, 2023-11-25 17:29:20.586
141.0, 37070.88226924923, 47759.35235731034, 26381.965146299022, -27402.881074295175, 16227.791157697578, 61384.6405010987, 13656.647641259151, 30606.91423498562, -0.07200000000000001, 0.98, 0.066, 192.0, 0.0, 0.0, 0.0, 0.0, 0.0, 0.0, 0.0, 0.0, 0.0, 1.70095136058921E9, 0.0, 2023-11-25 17:29:20.589
142.0, 37092.362295670784, 47831.280270967516, 26369.60463161524, -27340.944390409517, 16202.757203907635, 61196.08118487373, 13659.173388382602, 30627.6790055846, -0.07200000000000001, 0.98, 0.066, 192.0, 0.0, 0.0, 0.0, 0.0, 0.0, 0.0, 0.0, 0.0, 0.0, 1.700951360595277E9, 0.0, 2023-11-25 17:29:20.595
143.0, 37188.0277619395, 47915.05460918601, 26375.46078866253, -27306.16507603706, 16204.143012063863, 61202.22791459894, 13667.957623953536, 30630.070642241317, -0.07200000000000001, 0.98, 0.066, 192.0, 0.0, 0.0, 0.0, 0.0, 0.0, 0.0, 0.0, 0.0, 0.0, 1.700951360598288E9, 0.0, 2023-11-25 17:29:20.598
144.0, 37323.45698159421, 47900.03423691204, 26410.17304780162, -27197.24502530635, 16416.417529155915, 61781.473372158216, 13672.51737982242, 30638.787822578888, -0.07200000000000001, 0.98, 0.066, 192.0, 0.0, 0.0, 0.0, 0.0, 0.0, 0.0, 0.0, 0.0, 0.0, 1.700951360601265E9, 0.0, 2023-11-25 17:29:20.601
145.0, 37096.94440328412, 47758.435935787675, 26375.863120062724, -27388.28538516586, 16245.292573606084, 61522.46135741012, 13663.12964715119, 30604.54495007336, -0.07200000000000001, 0.98, 0.066, 192.0, 0.0, 0.0, 0.0, 0.0, 0.0, 0.0, 0.0, 0.0, 0.0, 1.700951360605258E9, 0.0, 2023-11-25 17:29:20.605
146.0, 37062.030978444935, 47797.05975020644, 26354.092520963255, -27360.03278017435, 16193.034195069577, 61198.04813838579, 13667.84586523126, 30630.182400963593, -0.07200000000000001, 0.98, 0.066, 192.0, 0.0, 0.0, 0.0, 0.0, 0.0, 0.0, 0.0, 0.0, 0.0, 1.7009513606093E9, 0.0, 2023-11-25 17:29:20.609
147.0, 37143.30192128443, 47889.461861784686, 26348.07990170478, -27328.628579214645, 16157.114941729897, 61209.53693503582, 13659.575719782797, 30620.660557825635, -0.074, 0.97, 0.062, 192.0, 253.0, 176.0, 30.0, 80.0, 1.0, 240.0, 0.0, 0.0, 0.0, 1.700951360613303E9, 0.0, 2023-11-25 17:29:20.613
148.0, 37307.38607733084, 47911.6571440288, 26395.443248205574, -27202.363574786614, 16382.934615961865, 61670.16168477079, 13667.868216975716, 30635.59152312178, -0.074, 0.97, 0.062, 192.0, 0.0, 0.0, 0.0, 0.0, 0.0, 0.0, 0.0, 0.0, 0.0, 1.700951360617266E9, 0.0, 2023-11-25 17:29:20.617
149.0, 37138.87627588228, 47778.93248545319, 26370.006963015436, -27350.84621320322, 16272.807571030567, 61652.973193284655, 13650.500911533942, 30607.16010417463, -0.074, 0.97, 0.062, 192.0, 0.0, 0.0, 0.0, 0.0, 0.0, 0.0, 0.0, 0.0, 0.0, 1.700951360621337E9, 0.0, 2023-11-25 17:29:20.621
150.0, 37048.686987005116, 47790.734206525594, 26356.55121285334, -27367.900594222618, 16199.225628283695, 61145.58859414919, 13656.13355113668, 30625.935569517085, -0.074, 0.97, 0.062, 192.0, 0.0, 0.0, 0.0, 0.0, 0.0, 0.0, 0.0, 0.0, 0.0, 1.700951360625756E9, 0.0, 2023-11-25 17:29:20.625
151.0, 37128.19214203264, 47887.629018739346, 26345.97883772598, -27325.611093713178, 16157.539624874547, 61173.617681696145, 13649.450379544543, 30628.662482340635, -0.074, 0.97, 0.062, 192.0, 0.0, 0.0, 0.0, 0.0, 0.0, 0.0, 0.0, 0.0, 0.0, 1.70095136062833E9, 0.0, 2023-11-25 17:29:20.628
152.0, 37291.2034143452, 47924.5093970906, 26393.185722015587, -27207.705641711433, 16355.933708659853, 61526.88700281227, 13656.379420325688, 30645.96273254904, -0.074, 0.97, 0.062, 192.0, 0.0, 0.0, 0.0, 0.0, 0.0, 0.0, 0.0, 0.0, 0.0, 1.700951360633341E9, 0.0, 2023-11-25 17:29:20.633
153.0, 37196.14144517678, 47805.66517182174, 26378.70179160855, -27307.148552793093, 16317.913391341377, 61768.62111909642, 13632.977143880982, 30607.987118719473, -0.074, 0.97, 0.062, 192.0, 0.0, 0.0, 0.0, 0.0, 0.0, 0.0, 0.0, 0.0, 0.0, 1.700951360637415E9, 0.0, 2023-11-25 17:29:20.637
154.0, 37042.942588680104, 47777.54667729696, 26364.016695501414, -27384.887920008652, 16197.72806140519, 61146.39325694958, 13647.349315565743, 30616.994871734965, -0.074, 0.97, 0.062, 192.0, 0.0, 0.0, 0.0, 0.0, 0.0, 0.0, 0.0, 0.0, 0.0, 1.700951360641949E9, 0.0, 2023-11-25 17:29:20.641
155.0, 37116.546883171424, 47875.80494592249, 26347.476404604484, -27331.17667808255, 16154.969174262187, 61188.191019081, 13643.683629475074, 30622.359290404238, -0.074, 0.97, 0.062, 192.0, 0.0, 0.0, 0.0, 0.0, 0.0, 0.0, 0.0, 0.0, 0.0, 1.700951360645371E9, 0.0, 2023-11-25 17:29:20.645
156.0, 37262.101443064385, 47925.29170814654, 26384.51324516693, -27235.5782670472, 16305.396414446404, 61397.40334718268, 13649.94211792256, 30631.25528469745, -0.074, 0.97, 0.062, 192.0, 0.0, 0.0, 0.0, 0.0, 0.0, 0.0, 0.0, 0.0, 0.0, 1.700951360649461E9, 0.0, 2023-11-25 17:29:20.649
157.0, 37245.270579489545, 47834.09659076889, 26387.217806246023, -27264.702590072466, 16358.101827872018, 61832.39064602741, 13633.982972381471, 30613.843275766765, -0.076, 0.98, 0.064, 192.0, 253.0, 160.0, 30.0, 160.0, 2.0, 0.0, 0.0, 0.0, 0.0, 1.700951360653472E9, 0.0, 2023-11-25 17:29:20.653
158.0, 37037.46641128855, 47768.583627770386, 26365.69307633556, -27395.50499862492, 16200.67849167329, 61169.99669909439, 13648.153978366136, 30609.909368742632, -0.076, 0.98, 0.064, 192.0, 0.0, 0.0, 0.0, 0.0, 0.0, 0.0, 0.0, 0.0, 0.0, 1.700951360656382E9, 0.0, 2023-11-25 17:29:20.656
159.0, 37097.57025212887, 47864.338501016915, 26347.565811582306, -27330.461422259978, 16166.033287767565, 61164.386411236104, 13643.191891097056, 30620.861723525733, -0.076, 0.98, 0.064, 192.0, 0.0, 0.0, 0.0, 0.0, 0.0, 0.0, 0.0, 0.0, 0.0, 1.700951360660435E9, 0.0, 2023-11-25 17:29:20.660
160.0, 37208.97134649412, 47931.39373438284, 26374.857291562235, -27258.958191747453, 16258.390695856893, 61257.928461781565, 13653.160769124124, 30627.34372941777, -0.076, 0.98, 0.064, 192.0, 0.0, 0.0, 0.0, 0.0, 0.0, 0.0, 0.0, 0.0, 0.0, 1.700951360665663E9, 0.0, 2023-11-25 17:29:20.665
161.0, 37250.88086734782, 47864.87494288385, 26389.54238766937, -27225.452926808946, 16386.220322396795, 61832.077721605034, 13645.717638220507, 30624.482706127492, -0.076, 0.98, 0.064, 192.0, 0.0, 0.0, 0.0, 0.0, 0.0, 0.0, 0.0, 0.0, 0.0, 1.700951360669474E9, 0.0, 2023-11-25 17:29:20.669
162.0, 36996.22744276851, 47756.2231130866, 26358.56286985432, -27405.719745840997, 16194.799982881545, 61244.47271161946, 13649.897414433648, 30602.421534350102, -0.076, 0.98, 0.064, 192.0, 0.0, 0.0, 0.0, 0.0, 0.0, 0.0, 0.0, 0.0, 0.0, 1.700951360673455E9, 0.0, 2023-11-25 17:29:20.673
163.0, 37046.36240558176, 47842.83612285091, 26341.843765001748, -27334.976474639952, 16170.414229680806, 61159.24551001138, 13647.371667310199, 30611.54104608787, -0.076, 0.98, 0.064, 192.0, 0.0, 0.0, 0.0, 0.0, 0.0, 0.0, 0.0, 0.0, 0.0, 1.700951360677503E9, 0.0, 2023-11-25 17:29:20.677
164.0, 37157.383520291274, 47923.19064416774, 26359.725160565995, -27278.49361640139, 16211.004997611642, 61193.68954821701, 13654.099542391246, 30624.460354383034, -0.076, 0.98, 0.064, 192.0, 0.0, 0.0, 0.0, 0.0, 0.0, 0.0, 0.0, 0.0, 0.0, 1.700951360680577E9, 0.0, 2023-11-25 17:29:20.680
165.0, 37263.8448791319, 47890.1547658628, 26391.41993420362, -27192.461751992912, 16403.408813882925, 61802.77458462412, 13651.059705145324, 30640.10657550175, -0.076, 0.98, 0.064, 192.0, 0.0, 0.0, 0.0, 0.0, 0.0, 0.0, 0.0, 0.0, 0.0, 1.700951360684593E9, 0.0, 2023-11-25 17:29:20.684
166.0, 37016.34401277829, 47765.52143878001, 26360.239250688464, -27387.45837062101, 16213.486041246182, 61348.028343680904, 13643.46011203052, 30608.34474663076, -0.076, 0.98, 0.064, 192.0, 0.0, 0.0, 0.0, 0.0, 0.0, 0.0, 0.0, 0.0, 0.0, 1.700951360688518E9, 0.0, 2023-11-25 17:29:20.688
167.0, 37026.89403616119, 47834.65538438027, 26342.179041168576, -27331.17667808255, 16182.171247264296, 61142.14642550307, 13641.001420140437, 30618.268921168918, -0.078, 0.978, 0.06, 192.0, 253.0, 144.0, 30.0, 144.0, 1.0, 224.0, 0.0, 0.0, 0.0, 1.700951360693532E9, 0.0, 2023-11-25 17:29:20.693
168.0, 37116.05514479341, 47916.52982432006, 26342.31315163531, -27297.000860810385, 16174.169322749296, 61152.87526284162, 13642.253117829934, 30616.167857190118, -0.078, 0.978, 0.06, 192.0, 0.0, 0.0, 0.0, 0.0, 0.0, 0.0, 0.0, 0.0, 0.0, 1.700951360698219E9, 0.0, 2023-11-25 17:29:20.698
169.0, 37259.91097210777, 47910.3607428504, 26386.726067868003, -27179.29657450874, 16399.117278947506, 61710.35012130143, 13655.597109269753, 30642.07352901382, -0.078, 0.978, 0.06, 192.0, 0.0, 0.0, 0.0, 0.0, 0.0, 0.0, 0.0, 0.0, 0.0, 1.700951360701584E9, 0.0, 2023-11-25 17:29:20.701
170.0, 37039.3439578228, 47771.13172663829, 26359.054608232334, -27361.12801565266, 16242.833881716, 61478.8084004889, 13649.919766178104, 30611.228121665496, -0.078, 0.978, 0.06, 192.0, 0.0, 0.0, 0.0, 0.0, 0.0, 0.0, 0.0, 0.0, 0.0, 1.700951360705602E9, 0.0, 2023-11-25 17:29:20.705
171.0, 36994.19343402308, 47812.77302655853, 26345.196526670043, -27337.390463041123, 16196.208142782229, 61119.079425225194, 13656.111199392224, 30636.59735162227, -0.078, 0.978, 0.06, 192.0, 0.0, 0.0, 0.0, 0.0, 0.0, 0.0, 0.0, 0.0, 0.0, 1.700951360708625E9, 0.0, 2023-11-25 17:29:20.708
172.0, 37076.31374315188, 47907.58912653794, 26344.50362259193, -27297.157323021573, 16167.754372090623, 61131.752864331356, 13660.13451339418, 30646.230953482504, -0.078, 0.978, 0.06, 192.0, 0.0, 0.0, 0.0, 0.0, 0.0, 0.0, 0.0, 0.0, 0.0, 1.700951360712692E9, 0.0, 2023-11-25 17:29:20.712
173.0, 37233.89354156179, 47925.87285350238, 26394.213902260533, -27172.121664538583, 16390.780078265678, 61579.95004414917, 13666.169484397113, 30660.58077342281, -0.078, 0.978, 0.06, 192.0, 0.0, 0.0, 0.0, 0.0, 0.0, 0.0, 0.0, 0.0, 0.0, 1.700951360716562E9, 0.0, 2023-11-25 17:29:20.716
174.0, 37076.2019844296, 47799.63020081881, 26372.06332350532, -27318.21266629847, 16290.487800894714, 61597.42910831322, 13646.567004509809, 30622.068717726317, -0.078, 0.978, 0.06, 192.0, 0.0, 0.0, 0.0, 0.0, 0.0, 0.0, 0.0, 0.0, 0.0, 1.700951360720604E9, 0.0, 2023-11-25 17:29:20.720
175.0, 36973.741587846474, 47806.671000322225, 26353.667837818604, -27344.051282888806, 16206.378186509393, 61096.95119821444, 13649.293917333356, 30635.010377765942, -0.078, 0.978, 0.06, 192.0, 0.0, 0.0, 0.0, 0.0, 0.0, 0.0, 0.0, 0.0, 0.0, 1.700951360725653E9, 0.0, 2023-11-25 17:29:20.725
176.0, 37045.62479801474, 47899.654257256305, 26339.385073111665, -27304.801619625287, 16161.786456321057, 61132.982210276394, 13637.156920094123, 30630.718842830523, -0.078, 0.978, 0.06, 192.0, 0.0, 0.0, 0.0, 0.0, 0.0, 0.0, 0.0, 0.0, 0.0, 1.700951360729625E9, 0.0, 2023-11-25 17:29:20.729
177.0, 37204.098666202866, 47936.46758037419, 26385.47437017851, -27189.600728702633, 16355.710191215301, 61451.561623997884, 13648.578661510786, 30649.36019770625, -0.076, 0.98, 0.058, 192.0, 253.0, 160.0, 30.0, 160.0, 1.0, 208.0, 0.0, 0.0, 0.0, 1.70095136073384E9, 0.0, 2023-11-25 17:29:20.733
178.0, 37119.65377565072, 47825.2900034535, 26379.75232359795, -27278.046581512284, 16339.102845085008, 61707.511449755606, 13637.447492772042, 30619.05123222485, -0.076, 0.98, 0.058, 192.0, 0.0, 0.0, 0.0, 0.0, 0.0, 0.0, 0.0, 0.0, 0.0, 1.700951360736637E9, 0.0, 2023-11-25 17:29:20.736
179.0, 36955.59197134876, 47782.46406107713, 26356.97589599799, -27368.83936748974, 16208.769823166112, 61098.314654626214, 13643.683629475074, 30605.215502407016, -0.076, 0.98, 0.058, 192.0, 0.0, 0.0, 0.0, 0.0, 0.0, 0.0, 0.0, 0.0, 0.0, 1.700951360740626E9, 0.0, 2023-11-25 17:29:20.740
180.0, 37027.54223675039, 47877.48132675664, 26338.58041031127, -27314.949311607998, 16167.307337201517, 61142.66051562554, 13637.268678816401, 30606.646014052156, -0.076, 0.98, 0.058, 192.0, 0.0, 0.0, 0.0, 0.0, 0.0, 0.0, 0.0, 0.0, 0.0, 1.70095136074476E9, 0.0, 2023-11-25 17:29:20.744
181.0, 37176.15898563373, 47939.73093506467, 26382.36747769922, -27217.741574971864, 16318.695702397312, 61316.95941888803, 13659.352202338243, 30633.66927309862, -0.076, 0.98, 0.058, 192.0, 0.0, 0.0, 0.0, 0.0, 0.0, 0.0, 0.0, 0.0, 0.0, 1.70095136074878E9, 0.0, 2023-11-25 17:29:20.748
182.0, 37165.497203528554, 47850.27925375453, 26383.46271317753, -27237.612275792635, 16380.81120023861, 61775.103124988455, 13647.930460921581, 30619.945302003063, -0.076, 0.98, 0.058, 192.0, 0.0, 0.0, 0.0, 0.0, 0.0, 0.0, 0.0, 0.0, 0.0, 1.700951360753731E9, 0.0, 2023-11-25 17:29:20.753
183.0, 36945.37722413269, 47766.52726728049, 26350.292724405852, -27381.155178684614, 16208.68041618829, 61132.11049224264, 13649.808007455827, 30610.24464490946, -0.076, 0.98, 0.058, 192.0, 0.0, 0.0, 0.0, 0.0, 0.0, 0.0, 0.0, 0.0, 0.0, 1.700951360757782E9, 0.0, 2023-11-25 17:29:20.757
184.0, 37012.544216220886, 47861.298663771, 26331.561962552307, -27312.468267973458, 16177.7679536066, 61132.11049224264, 13647.930460921581, 30623.20865669354, -0.076, 0.98, 0.058, 192.0, 0.0, 0.0, 0.0, 0.0, 0.0, 0.0, 0.0, 0.0, 0.0, 1.700951360760756E9, 0.0, 2023-11-25 17:29:20.760
185.0, 37137.177543303675, 47927.92921399227, 26355.612439586217, -27241.121499672117, 16264.783294771112, 61230.5028713349, 13656.111199392224, 30631.97054052002, -0.076, 0.98, 0.058, 192.0, 0.0, 0.0, 0.0, 0.0, 0.0, 0.0, 0.0, 0.0, 0.0, 1.700951360764752E9, 0.0, 2023-11-25 17:29:20.764
186.0, 37193.660401542234, 47863.645596938804, 26373.471483406007, -27205.291653310258, 16403.274703416195, 61804.272151502635, 13645.382362053677, 30623.946264260565, -0.076, 0.98, 0.058, 192.0, 0.0, 0.0, 0.0, 0.0, 0.0, 0.0, 0.0, 0.0, 0.0, 1.700951360768898E9, 0.0, 2023-11-25 17:29:20.768
187.0, 36952.26156142492, 47760.73816546657, 26352.21497442901, -27381.423399618077, 16222.985532639686, 61213.56024903778, 13652.84784470175, 30611.161066432127, -0.076, 0.98, 0.064, 192.0, 253.0, 160.0, 30.0, 160.0, 2.0, 0.0, 0.0, 0.0, 0.0, 1.700951360772871E9, 0.0, 2023-11-25 17:29:20.772
188.0, 36996.383904979695, 47850.927454343735, 26337.507526577418, -27312.982358095927, 16196.58812243797, 61133.09396899867, 13652.959603424026, 30631.702319586555, -0.076, 0.98, 0.064, 192.0, 0.0, 0.0, 0.0, 0.0, 0.0, 0.0, 0.0, 0.0, 0.0, 1.700951360776824E9, 0.0, 2023-11-25 17:29:20.776
189.0, 37105.57217664387, 47934.72414430668, 26358.69698032105, -27263.450892382967, 16231.233326343696, 61141.72174235842, 13667.46588557552, 30643.235819725494, -0.076, 0.98, 0.064, 192.0, 0.0, 0.0, 0.0, 0.0, 0.0, 0.0, 0.0, 0.0, 0.0, 1.700951360780829E9, 0.0, 2023-11-25 17:29:20.780
190.0, 37221.98006176711, 47902.09059740193, 26390.570567914318, -27177.463731463402, 16424.039474015175, 61740.07794142699, 13664.716621007517, 30646.58858139379, -0.076, 0.98, 0.064, 192.0, 0.0, 0.0, 0.0, 0.0, 0.0, 0.0, 0.0, 0.0, 0.0, 1.700951360786764E9, 0.0, 2023-11-25 17:29:20.786
191.0, 36978.211936737534, 47769.410642315226, 26356.30534366433, -27378.47296934998, 16234.049646145064, 61308.4210525061, 13652.624327257196, 30610.53521758738, -0.076, 0.98, 0.064, 192.0, 0.0, 0.0, 0.0, 0.0, 0.0, 0.0, 0.0, 0.0, 0.0, 1.700951360788825E9, 0.0, 2023-11-25 17:29:20.788
192.0, 36986.75030311946, 47836.95761405917, 26338.379244611177, -27329.053262359295, 16200.030291084087, 61081.97552942939, 13649.182158611078, 30622.024014237406, -0.076, 0.98, 0.064, 192.0, 0.0, 0.0, 0.0, 0.0, 0.0, 0.0, 0.0, 0.0, 0.0, 1.70095136079286E9, 0.0, 2023-11-25 17:29:20.792
193.0, 37080.47116762056, 47926.4092953693, 26343.006055713424, -27292.418753197046, 16192.229532269184, 61086.62469227609, 13650.679725489585, 30622.426345637603, -0.076, 0.98, 0.064, 192.0, 0.0, 0.0, 0.0, 0.0, 0.0, 0.0, 0.0, 0.0, 0.0, 1.700951360796841E9, 0.0, 2023-11-25 17:29:20.796
194.0, 37225.10930599085, 47917.22272839818, 26379.75232359795, -27174.647411662034, 16411.20957269783, 61653.73315259614, 13649.048048144346, 30638.072566756317, -0.076, 0.98, 0.064, 192.0, 0.0, 0.0, 0.0, 0.0, 0.0, 0.0, 0.0, 0.0, 0.0, 1.700951360800889E9, 0.0, 2023-11-25 17:29:20.800
195.0, 37011.985422609505, 47778.641912775274, 26352.282029662376, -27356.4565010615, 16257.161349911852, 61458.490664779034, 13634.586469481763, 30608.34474663076, -0.076, 0.98, 0.064, 192.0, 0.0, 0.0, 0.0, 0.0, 0.0, 0.0, 0.0, 0.0, 0.0, 1.700951360804926E9, 0.0, 2023-11-25 17:29:20.804
196.0, 36966.946657532055, 47816.34930567137, 26342.380206868675, -27334.01534962837, 16210.11092783343, 61067.40219204452, 13644.309478319821, 30629.556552118847, -0.076, 0.98, 0.064, 192.0, 0.0, 0.0, 0.0, 0.0, 0.0, 0.0, 0.0, 0.0, 0.0, 1.700951360808893E9, 0.0, 2023-11-25 17:29:20.808
197.0, 37043.32256833584, 47900.61538226788, 26329.39384334014, -27301.02417481234, 16170.235415725163, 61093.46432607941, 13637.067513116303, 30623.119249715717, -0.074, 0.982, 0.066, 192.0, 253.0, 176.0, 30.0, 176.0, 2.0, 16.0, 0.0, 0.0, 0.0, 1.700951360812908E9, 0.0, 2023-11-25 17:29:20.812
198.0, 37198.9801167226, 47919.70377203271, 26374.9243467956, -27183.81162688871, 16383.158133406418, 61521.03084576498, 13642.230766085479, 30636.731462089, -0.074, 0.982, 0.066, 192.0, 0.0, 0.0, 0.0, 0.0, 0.0, 0.0, 0.0, 0.0, 0.0, 1.700951360816994E9, 0.0, 2023-11-25 17:29:20.816
199.0, 37050.76569923946, 47796.76917752853, 26359.188718699064, -27319.46436398797, 16295.047556763597, 61550.423389723706, 13634.3182485483, 30611.161066432127, -0.074, 0.982, 0.066, 192.0, 0.0, 0.0, 0.0, 0.0, 0.0, 0.0, 0.0, 0.0, 0.0, 1.700951360819912E9, 0.0, 2023-11-25 17:29:20.819
200.0, 36946.539514844364, 47797.35032288436, 26340.88263999017, -27349.5051085359, 16206.288779531573, 61027.59373516962, 13650.523263278397, 30635.613874866234, -0.074, 0.982, 0.066, 192.0, 0.0, 0.0, 0.0, 0.0, 0.0, 0.0, 0.0, 0.0, 0.0, 1.700951360825288E9, 0.0, 2023-11-25 17:29:20.825
201.0, 37026.42464952763, 47895.63094325435, 26326.93515145006, -27308.847285371696, 16160.087723742454, 61066.35166005512, 13643.817739941805, 30635.323302188317, -0.074, 0.982, 0.066, 192.0, 0.0, 0.0, 0.0, 0.0, 0.0, 0.0, 0.0, 0.0, 0.0, 1.700951360828956E9, 0.0, 2023-11-25 17:29:20.828
202.0, 37181.366942091816, 47932.10899020541, 26366.810663558324, -27201.938891641963, 16338.94638287382, 61368.591948579786, 13646.298783576345, 30637.647883611666, -0.074, 0.982, 0.066, 192.0, 0.0, 0.0, 0.0, 0.0, 0.0, 0.0, 0.0, 0.0, 0.0, 1.700951360833023E9, 0.0, 2023-11-25 17:29:20.833
203.0, 37105.2592522215, 47823.94889878618, 26356.797082042347, -27284.662697871056, 16325.714150156278, 61648.14521648231, 13629.490271745954, 30608.68002279759, -0.074, 0.982, 0.066, 192.0, 0.0, 0.0, 0.0, 0.0, 0.0, 0.0, 0.0, 0.0, 0.0, 1.700951360837206E9, 0.0, 2023-11-25 17:29:20.837
204.0, 36930.178037903075, 47780.40770058724, 26331.718424763494, -27373.622640803176, 16192.654215413835, 61036.42267422947, 13641.783731196372, 30613.239778666473, -0.074, 0.982, 0.066, 192.0, 0.0, 0.0, 0.0, 0.0, 0.0, 0.0, 0.0, 0.0, 0.0, 1.700951360840947E9, 0.0, 2023-11-25 17:29:20.840
205.0, 36997.74736139147, 47877.45897501218, 26311.534799520352, -27317.944445365007, 16149.962383504198, 61082.869599207595, 13634.139434592658, 30611.563397832324, -0.074, 0.982, 0.066, 192.0, 0.0, 0.0, 0.0, 0.0, 0.0, 0.0, 0.0, 0.0, 0.0, 1.700951360844967E9, 0.0, 2023-11-25 17:29:20.844
206.0, 37141.13380207227, 47939.73093506467, 26354.561907596817, -27222.413089563026, 16291.292463695107, 61243.802159285806, 13652.087885390269, 30633.646921354168, -0.08, 0.98, 0.064, 192.0, 253.0, 128.0, 30.0, 160.0, 2.0, 0.0, 0.0, 0.0, 0.0, 1.700951360848334E9, 0.0, 2023-11-25 17:29:20.848
207.0, 37141.29026428345, 47852.402669477786, 26359.99338149946, -27236.405281592048, 16364.583833764058, 61716.809775449015, 13637.000457882938, 30618.49243861347, -0.08, 0.98, 0.064, 192.0, 0.0, 0.0, 0.0, 0.0, 0.0, 0.0, 0.0, 0.0, 0.0, 1.700951360851983E9, 0.0, 2023-11-25 17:29:20.851
208.0, 36916.02938366287, 47765.700252735645, 26328.186849139554, -27384.530292097366, 16190.374337479394, 61090.78211674478, 13638.69919046154, 30600.67809828259, -0.08, 0.98, 0.064, 192.0, 0.0, 0.0, 0.0, 0.0, 0.0, 0.0, 0.0, 0.0, 0.0, 1.700951360858194E9, 0.0, 2023-11-25 17:29:20.858
209.0, 36975.84265182527, 47857.52121895805, 26309.63490124165, -27322.191276811514, 16156.891424285344, 61085.171828886494, 13635.257021815423, 30609.663499553622, -0.08, 0.98, 0.064, 192.0, 0.0, 0.0, 0.0, 0.0, 0.0, 0.0, 0.0, 0.0, 0.0, 1.700951360861049E9, 0.0, 2023-11-25 17:29:20.861
210.0, 37106.82387433337, 47932.2654524166, 26340.68147429007, -27254.5325463453, 16241.336314837494, 61129.80826256374, 13651.08205688978, 30615.34084264527, -0.08, 0.98, 0.064, 192.0, 0.0, 0.0, 0.0, 0.0, 0.0, 0.0, 0.0, 0.0, 0.0, 1.700951360865028E9, 0.0, 2023-11-25 17:29:20.865
211.0, 37179.60115427985, 47879.42592852425, 26361.714465822515, -27208.800877189744, 16389.058993942617, 61699.889504896346, 13644.644754486651, 30613.39624087766, -0.08, 0.98, 0.064, 192.0, 0.0, 0.0, 0.0, 0.0, 0.0, 0.0, 0.0, 0.0, 0.0, 1.700951360869053E9, 0.0, 2023-11-25 17:29:20.869
212.0, 36933.620206549196, 47765.94612192466, 26330.198506140532, -27391.638146834153, 16195.91757010431, 61148.69548662847, 13646.902280676637, 30611.49634259896, -0.08, 0.98, 0.064, 192.0, 0.0, 0.0, 0.0, 0.0, 0.0, 0.0, 0.0, 0.0, 0.0, 1.700951360873E9, 0.0, 2023-11-25 17:29:20.873
213.0, 36969.51710814442, 47849.67575665424, 26313.211180354498, -27323.442974501013, 16171.129485503376, 61046.97269761237, 13648.51160627742, 30634.764508576933, -0.08, 0.98, 0.064, 192.0, 0.0, 0.0, 0.0, 0.0, 0.0, 0.0, 0.0, 0.0, 0.0, 1.700951360876059E9, 0.0, 2023-11-25 17:29:20.876
214.0, 37069.719978537556, 47929.44913261523, 26325.92932294957, -27279.3876861796, 16197.571599194003, 61070.55378801272, 13654.658336002629, 30637.91610454513, -0.08, 0.98, 0.064, 192.0, 0.0, 0.0, 0.0, 0.0, 0.0, 0.0, 0.0, 0.0, 0.0, 1.700951360881162E9, 0.0, 2023-11-25 17:29:20.881
215.0, 37182.70804675914, 47899.2072223672, 26358.384055898674, -27191.210054303418, 16395.76451727921, 61673.3579842279, 13647.125798121191, 30638.765470834434, -0.08, 0.98, 0.064, 192.0, 0.0, 0.0, 0.0, 0.0, 0.0, 0.0, 0.0, 0.0, 0.0, 1.700951360885637E9, 0.0, 2023-11-25 17:29:20.885
216.0, 36934.22370364949, 47763.08509863438, 26327.181020639066, -27391.19111194505, 16208.099270832452, 61268.903168309116, 13638.36391429471, 30606.646014052156, -0.074, 0.982, 0.064, 192.0, 253.0, 176.0, 30.0, 176.0, 2.0, 0.0, 0.0, 0.0, 0.0, 1.700951360889151E9, 0.0, 2023-11-25 17:29:20.889
217.0, 36933.8660757382, 47821.0878754959, 26308.517314018885, -27344.49831777791, 16173.476418671182, 61026.69966539141, 13639.257984072923, 30619.028880480397, -0.074, 0.982, 0.064, 192.0, 0.0, 0.0, 0.0, 0.0, 0.0, 0.0, 0.0, 0.0, 0.0, 1.700951360893474E9, 0.0, 2023-11-25 17:29:20.893
218.0, 37028.21278908406, 47911.14305390633, 26314.820505955282, -27310.009576083372, 16164.356906933417, 61025.44796770191, 13641.291992818356, 30612.815095521823, -0.074, 0.982, 0.064, 192.0, 0.0, 0.0, 0.0, 0.0, 0.0, 0.0, 0.0, 0.0, 0.0, 1.70095136089716E9, 0.0, 2023-11-25 17:29:20.897
219.0, 37184.384427593286, 47916.082789430955, 26363.770826312404, -27188.90782462452, 16395.76451727921, 61548.61289842283, 13648.399847555143, 30628.461316640536, -0.074, 0.982, 0.064, 192.0, 0.0, 0.0, 0.0, 0.0, 0.0, 0.0, 0.0, 0.0, 0.0, 1.700951360900184E9, 0.0, 2023-11-25 17:29:20.900
220.0, 36987.80083510886, 47778.17252614171, 26338.043968444345, -27358.848137718218, 16252.467483576238, 61384.528742376424, 13644.376533553188, 30601.952147716544, -0.074, 0.982, 0.064, 192.0, 0.0, 0.0, 0.0, 0.0, 0.0, 0.0, 0.0, 0.0, 0.0, 1.70095136090414E9, 0.0, 2023-11-25 17:29:20.904
221.0, 36936.01184320591, 47804.860509021346, 26318.48619204595, -27349.25923934689, 16192.63186366938, 60998.26824644426, 13646.768170209905, 30621.889903770676, -0.074, 0.982, 0.064, 192.0, 0.0, 0.0, 0.0, 0.0, 0.0, 0.0, 0.0, 0.0, 0.0, 1.700951360908516E9, 0.0, 2023-11-25 17:29:20.908
222.0, 37021.50726574746, 47903.87873695836, 26313.702918732517, -27314.30111101879, 16158.634860352859, 61010.11467100557, 13644.041257386358, 30623.34276716027, -0.074, 0.982, 0.064, 192.0, 0.0, 0.0, 0.0, 0.0, 0.0, 0.0, 0.0, 0.0, 0.0, 1.700951360913196E9, 0.0, 2023-11-25 17:29:20.913
223.0, 37181.52340430301, 47929.94087099325, 26360.88745127767, -27188.080810079675, 16373.23395886826, 61428.20405104209, 13657.452304059543, 30642.855840069755, -0.074, 0.982, 0.064, 192.0, 0.0, 0.0, 0.0, 0.0, 0.0, 0.0, 0.0, 0.0, 0.0, 1.700951360917181E9, 0.0, 2023-11-25 17:29:20.917
224.0, 37039.7909927119, 47802.51357585354, 26340.1673841676, -27320.447840744, 16288.431440404827, 61514.99587476205, 13640.12970210668, 30611.317528643314, -0.074, 0.982, 0.064, 192.0, 0.0, 0.0, 0.0, 0.0, 0.0, 0.0, 0.0, 0.0, 0.0, 1.700951360921479E9, 0.0, 2023-11-25 17:29:20.921
225.0, 36923.42781107758, 47795.3833693723, 26319.603779268717, -27362.02208543087, 16192.810677625022, 60970.86500774205, 13645.516472520409, 30619.565322347324, -0.074, 0.982, 0.064, 192.0, 0.0, 0.0, 0.0, 0.0, 0.0, 0.0, 0.0, 0.0, 0.0, 1.70095136092529E9, 0.0, 2023-11-25 17:29:20.925
226.0, 36991.622983410714, 47886.086748371934, 26298.079049358257, -27325.499334990902, 16142.698066556224, 61015.63555188603, 13635.659353215618, 30607.875359997197, -0.068, 0.98, 0.062, 192.0, 253.0, 224.0, 30.0, 160.0, 1.0, 240.0, 0.0, 0.0, 0.0, 1.700951360928227E9, 0.0, 2023-11-25 17:29:20.928
227.0, 37146.63233120827, 47929.784408782056, 26341.150860923633, -27216.57928426019, 16322.89783035491, 61291.03139531987, 13648.601013255242, 30630.517677130425, -0.068, 0.98, 0.062, 192.0, 0.0, 0.0, 0.0, 0.0, 0.0, 0.0, 0.0, 0.0, 0.0, 1.700951360932235E9, 0.0, 2023-11-25 17:29:20.932
228.0, 37077.140757696725, 47820.90906154026, 26331.62901778567, -27288.171921750538, 16318.22631576375, 61604.671073516736, 13627.188042067057, 30606.422496607604, -0.068, 0.98, 0.062, 192.0, 0.0, 0.0, 0.0, 0.0, 0.0, 0.0, 0.0, 0.0, 0.0, 1.70095136093624E9, 0.0, 2023-11-25 17:29:20.936
229.0, 36890.63780196164, 47767.667206247716, 26301.87884591566, -27391.83931253425, 16174.124619260387, 60971.75907752026, 13627.500966489431, 30595.00075519094, -0.068, 0.98, 0.062, 192.0, 0.0, 0.0, 0.0, 0.0, 0.0, 0.0, 0.0, 0.0, 0.0, 1.700951360941248E9, 0.0, 2023-11-25 17:29:20.941
230.0, 36958.52004987241, 47863.48913472761, 26282.2540142839, -27337.83749793023, 16133.712665285191, 60991.60742659658, 13616.816832639794, 30593.592595290258, -0.068, 0.98, 0.062, 192.0, 0.0, 0.0, 0.0, 0.0, 0.0, 0.0, 0.0, 0.0, 0.0, 1.700951360945224E9, 0.0, 2023-11-25 17:29:20.945
231.0, 37101.52651089746, 47923.68238254576, 26320.25197985792, -27249.503403842857, 16266.839655261, 61140.760617346845, 13630.563155479807, 30608.612967564222, -0.068, 0.98, 0.062, 192.0, 0.0, 0.0, 0.0, 0.0, 0.0, 0.0, 0.0, 0.0, 0.0, 1.700951360949295E9, 0.0, 2023-11-25 17:29:20.949
232.0, 37120.52549368447, 47842.23262575062, 26328.410366584107, -27257.482976613403, 16351.977449891265, 61639.204518700186, 13616.258039028411, 30590.217481877506, -0.068, 0.98, 0.062, 192.0, 0.0, 0.0, 0.0, 0.0, 0.0, 0.0, 0.0, 0.0, 0.0, 1.700951360953108E9, 0.0, 2023-11-25 17:29:20.953
233.0, 36898.34915379872, 47756.37957529778, 26302.147066849124, -27411.71001335502, 16177.05269778403, 60998.71528133337, 13621.086015830759, 30574.973592158985, -0.068, 0.98, 0.062, 192.0, 0.0, 0.0, 0.0, 0.0, 0.0, 0.0, 0.0, 0.0, 0.0, 1.700951360956255E9, 0.0, 2023-11-25 17:29:20.956
234.0, 36955.703730071036, 47845.89831184129, 26282.946918362013, -27344.095986377717, 16144.262688668096, 60972.273167642736, 13619.431986741065, 30590.619813277703, -0.068, 0.98, 0.062, 192.0, 0.0, 0.0, 0.0, 0.0, 0.0, 0.0, 0.0, 0.0, 0.0, 1.700951360960305E9, 0.0, 2023-11-25 17:29:20.960
235.0, 37075.442025118115, 47918.76499876559, 26308.137334363146, -27280.21470072445, 16217.330541292495, 61036.26621201828, 13629.110292090214, 30604.54495007336, -0.068, 0.98, 0.062, 192.0, 0.0, 0.0, 0.0, 0.0, 0.0, 0.0, 0.0, 0.0, 0.0, 1.700951360964551E9, 0.0, 2023-11-25 17:29:20.964
236.0, 37151.102680099335, 47868.71944293016, 26334.44533758704, -27220.937874428975, 16378.553674048624, 61616.58455331142, 13621.890678631149, 30610.6246245652, -0.074, 0.984, 0.062, 192.0, 253.0, 176.0, 30.0, 192.0, 1.0, 240.0, 0.0, 0.0, 0.0, 1.700951360969316E9, 0.0, 2023-11-25 17:29:20.969
237.0, 36896.002220630915, 47746.36599378181, 26298.079049358257, -27411.553551143832, 16181.657157141824, 61072.878369436075, 13613.955809349514, 30581.142673628652, -0.074, 0.984, 0.062, 192.0, 0.0, 0.0, 0.0, 0.0, 0.0, 0.0, 0.0, 0.0, 0.0, 1.700951360973454E9, 0.0, 2023-11-25 17:29:20.973
238.0, 36927.49582856844, 47824.37358193083, 26281.58346195024, -27344.766538711374, 16155.930299273767, 60961.16435064845, 13612.234725026456, 30598.264109881417, -0.074, 0.984, 0.062, 192.0, 0.0, 0.0, 0.0, 0.0, 0.0, 0.0, 0.0, 0.0, 0.0, 1.700951360977355E9, 0.0, 2023-11-25 17:29:20.977
239.0, 37028.16808559514, 47908.01380968259, 26297.095572602222, -27297.291433488303, 16181.25482574163, 60973.189589165406, 13624.103501332225, 30603.8743977397, -0.074, 0.984, 0.062, 192.0, 0.0, 0.0, 0.0, 0.0, 0.0, 0.0, 0.0, 0.0, 0.0, 1.700951360980372E9, 0.0, 2023-11-25 17:29:20.980
240.0, 37155.52832550148, 47886.8020041945, 26337.30636087732, -27195.635699705566, 16390.221284654293, 61562.716849174125, 13632.619515969696, 30621.73344155949, -0.074, 0.984, 0.062, 192.0, 0.0, 0.0, 0.0, 0.0, 0.0, 0.0, 0.0, 0.0, 0.0, 1.70095136098459E9, 0.0, 2023-11-25 17:29:20.984
241.0, 36917.50459879692, 47752.155095595735, 26308.852590185714, -27386.161969442604, 16209.283913288584, 61197.042309885306, 13628.238574056457, 30594.19609239055, -0.074, 0.984, 0.062, 192.0, 0.0, 0.0, 0.0, 0.0, 0.0, 0.0, 0.0, 0.0, 0.0, 1.700951360988348E9, 0.0, 2023-11-25 17:29:20.988
242.0, 36911.60373826072, 47812.348343413876, 26295.86622665718, -27338.79862294181, 16176.136276261364, 60941.517167272235, 13639.392094539655, 30615.989043234476, -0.074, 0.984, 0.062, 192.0, 0.0, 0.0, 0.0, 0.0, 0.0, 0.0, 0.0, 0.0, 0.0, 1.700951360992543E9, 0.0, 2023-11-25 17:29:20.992
243.0, 37005.01167833945, 47905.800986981514, 26298.190808080533, -27301.337099234715, 16163.328726688473, 60970.55208331968, 13643.482463774975, 30623.8792090272, -0.074, 0.984, 0.062, 192.0, 0.0, 0.0, 0.0, 0.0, 0.0, 0.0, 0.0, 0.0, 0.0, 1.700951360996365E9, 0.0, 2023-11-25 17:29:20.996
244.0, 37156.78002319098, 47908.952582949714, 26340.390901612154, -27184.01279258881, 16386.53324681917, 61503.97646474558, 13640.733199206972, 30633.758680076444, -0.074, 0.984, 0.062, 192.0, 0.0, 0.0, 0.0, 0.0, 0.0, 0.0, 0.0, 0.0, 0.0, 1.700951361001415E9, 0.0, 2023-11-25 17:29:21.001
245.0, 36960.59876210675, 47776.09381390737, 26316.83216295626, -27354.26603010488, 16246.901899206865, 61357.192558907576, 13627.948001378538, 30595.760714502423, -0.074, 0.984, 0.062, 192.0, 0.0, 0.0, 0.0, 0.0, 0.0, 0.0, 0.0, 0.0, 0.0, 1.700951361005361E9, 0.0, 2023-11-25 17:29:21.005
246.0, 36902.216005589486, 47802.87120376482, 26300.314223803787, -27347.82872770175, 16185.032270554577, 60932.66587646793, 13631.256059557923, 30615.474953112003, -0.076, 0.978, 0.066, 192.0, 253.0, 160.0, 30.0, 144.0, 2.0, 16.0, 0.0, 0.0, 0.0, 1.700951361009386E9, 0.0, 2023-11-25 17:29:21.009
247.0, 36979.86596582722, 47894.111024631384, 26286.72436317496, -27314.16700055206, 16143.793302034534, 60952.96126043335, 13623.656466443119, 30613.016261221917, -0.076, 0.978, 0.066, 192.0, 0.0, 0.0, 0.0, 0.0, 0.0, 0.0, 0.0, 0.0, 0.0, 1.700951361012465E9, 0.0, 2023-11-25 17:29:21.012
248.0, 37138.988034604554, 47916.73099002016, 26328.142145650643, -27196.641528206055, 16353.653830725412, 61357.393724607675, 13627.120986833692, 30623.521581115914, -0.076, 0.978, 0.066, 192.0, 0.0, 0.0, 0.0, 0.0, 0.0, 0.0, 0.0, 0.0, 0.0, 1.700951361016522E9, 0.0, 2023-11-25 17:29:21.016
249.0, 37012.678326687615, 47793.036436204486, 26309.97017740848, -27322.235980300426, 16283.335242669016, 61469.890054451236, 13605.372739478677, 30588.67521151009, -0.076, 0.978, 0.066, 192.0, 0.0, 0.0, 0.0, 0.0, 0.0, 0.0, 0.0, 0.0, 0.0, 1.700951361020448E9, 0.0, 2023-11-25 17:29:21.020
250.0, 36891.46481650649, 47783.89457272227, 26289.697145187518, -27367.408855844602, 16181.903026330832, 60903.340387742566, 13613.084091315759, 30594.598423790747, -0.076, 0.978, 0.066, 192.0, 0.0, 0.0, 0.0, 0.0, 0.0, 0.0, 0.0, 0.0, 0.0, 1.70095136102465E9, 0.0, 2023-11-25 17:29:21.024
251.0, 36963.392730163665, 47879.76120469108, 26271.659287412083, -27325.052300101794, 16133.958534474199, 60938.231460837305, 13608.077300557768, 30591.849159222744, -0.076, 0.978, 0.066, 192.0, 0.0, 0.0, 0.0, 0.0, 0.0, 0.0, 0.0, 0.0, 0.0, 1.700951361028533E9, 0.0, 2023-11-25 17:29:21.028
252.0, 37117.820932605384, 47927.48217910316, 26319.559075779805, -27217.026319149296, 16311.431385449338, 61185.978196379925, 13624.483480987965, 30614.33501414478, -0.076, 0.978, 0.066, 192.0, 0.0, 0.0, 0.0, 0.0, 0.0, 0.0, 0.0, 0.0, 0.0, 1.700951361033628E9, 0.0, 2023-11-25 17:29:21.033
253.0, 37059.013492943464, 47817.13161672731, 26309.59019775274, -27282.852206570176, 16317.46635645227, 61535.93945931667, 13604.45631795601, 30587.267051609404, -0.076, 0.978, 0.066, 192.0, 0.0, 0.0, 0.0, 0.0, 0.0, 0.0, 0.0, 0.0, 0.0, 1.700951361036542E9, 0.0, 2023-11-25 17:29:21.036
254.0, 36866.87789760565, 47763.12980212329, 26286.366735263677, -27393.336879412756, 16173.744639604645, 60887.58240790158, 13610.468937214488, 30571.777292701878, -0.076, 0.978, 0.066, 192.0, 0.0, 0.0, 0.0, 0.0, 0.0, 0.0, 0.0, 0.0, 0.0, 1.700951361040495E9, 0.0, 2023-11-25 17:29:21.040
255.0, 36936.347119372746, 47860.851628881894, 26269.893499600115, -27331.467250760466, 16135.456101352705, 60912.214030291325, 13609.843088369738, 30589.323412099293, -0.076, 0.978, 0.066, 192.0, 0.0, 0.0, 0.0, 0.0, 0.0, 0.0, 0.0, 0.0, 0.0, 1.700951361044559E9, 0.0, 2023-11-25 17:29:21.044
0.0, 37070.14466168221, 47917.49094933164, 26303.666985472082, -27245.23422065189, 16257.094294678485, 61063.20006408692, 13624.215260054501, 30617.91129325763, -0.07200000000000001, 0.984, 0.068, 192.0, 253.0, 192.0, 30.0, 192.0, 2.0, 32.0, 0.0, 0.0, 0.0, 1.700951361048539E9, 0.0, 2023-11-25 17:29:21.048
1.0, 37082.86280427728, 47835.10241926937, 26309.500790774917, -27244.407206107047, 16347.082417855552, 61572.03752661199, 13605.193925523035, 30589.390467332658, -0.07200000000000001, 0.984, 0.068, 192.0, 0.0, 0.0, 0.0, 0.0, 0.0, 0.0, 0.0, 0.0, 0.0, 1.700951361052504E9, 0.0, 2023-11-25 17:29:21.052
2.0, 36850.78464159783, 47746.81302867091, 26280.48822647193, -27401.09293473875, 16167.240281968152, 60916.79613790467, 13607.809079624305, 30572.403141546627, -0.07200000000000001, 0.984, 0.068, 192.0, 0.0, 0.0, 0.0, 0.0, 0.0, 0.0, 0.0, 0.0, 0.0, 1.700951361056573E9, 0.0, 2023-11-25 17:29:21.056
3.0, 36913.54834002833, 47844.71366938516, 26268.3512292327, -27325.499334990902, 16142.38514213385, 60870.684489093364, 13617.710902418006, 30594.643127279658, -0.07200000000000001, 0.984, 0.068, 192.0, 0.0, 0.0, 0.0, 0.0, 0.0, 0.0, 0.0, 0.0, 0.0, 1.700951361061675E9, 0.0, 2023-11-25 17:29:21.061
4.0, 37029.173914095634, 47913.60174579641, 26287.417267253077, -27266.758950562355, 16204.187715552775, 60946.0322196522, 13628.573850223285, 30608.791781519867, -0.07200000000000001, 0.984, 0.068, 192.0, 0.0, 0.0, 0.0, 0.0, 0.0, 0.0, 0.0, 0.0, 0.0, 1.700951361064523E9, 0.0, 2023-11-25 17:29:21.064
5.0, 37114.53522617045, 47862.77387890505, 26310.551322764317, -27209.6725952235, 16365.746124475734, 61548.99287807857, 13621.287181530855, 30609.10470594224, -0.07200000000000001, 0.984, 0.068, 192.0, 0.0, 0.0, 0.0, 0.0, 0.0, 0.0, 0.0, 0.0, 0.0, 1.700951361068542E9, 0.0, 2023-11-25 17:29:21.068
6.0, 36864.195688271015, 47746.79067692646, 26284.846816640715, -27402.255225450426, 16176.650366383836, 60992.99323475281, 13624.572887965785, 30587.557624287325, -0.07200000000000001, 0.984, 0.068, 192.0, 0.0, 0.0, 0.0, 0.0, 0.0, 0.0, 0.0, 0.0, 0.0, 1.700951361072544E9, 0.0, 2023-11-25 17:29:21.072
7.0, 36889.073179849765, 47821.26668945154, 26267.3006972433, -27334.820012428765, 16151.549357360525, 60853.04896271813, 13623.74587342094, 30609.81996176481, -0.07200000000000001, 0.984, 0.068, 192.0, 0.0, 0.0, 0.0, 0.0, 0.0, 0.0, 0.0, 0.0, 0.0, 1.700951361076566E9, 0.0, 2023-11-25 17:29:21.076
8.0, 36985.051570540854, 47898.804890967, 26272.888633357124, -27295.682107887522, 16161.697049343235, 60892.94682657085, 13625.958696122016, 30614.893807756165, -0.07200000000000001, 0.984, 0.068, 192.0, 0.0, 0.0, 0.0, 0.0, 0.0, 0.0, 0.0, 0.0, 0.0, 1.70095136108056E9, 0.0, 2023-11-25 17:29:21.080
9.0, 37119.6090721618, 47880.81173668048, 26312.92060767658, -27190.56185371421, 16375.178560635874, 61484.99983370303, 13631.926611891582, 30633.758680076444, -0.07200000000000001, 0.984, 0.068, 192.0, 0.0, 0.0, 0.0, 0.0, 0.0, 0.0, 0.0, 0.0, 0.0, 1.700951361084643E9, 0.0, 2023-11-25 17:29:21.084
10.0, 36890.66015370609, 47751.19397058415, 26287.596081208718, -27378.741190283443, 16202.958369607732, 61123.14744271606, 13626.271620544388, 30608.76942977541, -0.07200000000000001, 0.98, 0.066, 192.0, 253.0, 192.0, 30.0, 160.0, 2.0, 16.0, 0.0, 0.0, 0.0, 1.700951361089618E9, 0.0, 2023-11-25 17:29:21.089
11.0, 36882.14413906862, 47806.402779388765, 26269.11118854418, -27335.93759965153, 16164.96040403371, 60831.479529318756, 13623.611762954208, 30623.476877627003, -0.07200000000000001, 0.98, 0.066, 192.0, 0.0, 0.0, 0.0, 0.0, 0.0, 0.0, 0.0, 0.0, 0.0, 1.700951361093705E9, 0.0, 2023-11-25 17:29:21.093
12.0, 36971.305247700846, 47895.876812443355, 26266.07135129826, -27305.718041147953, 16142.049865967021, 60829.69138976233, 13621.913030375605, 30618.11245895773, -0.07200000000000001, 0.98, 0.066, 192.0, 0.0, 0.0, 0.0, 0.0, 0.0, 0.0, 0.0, 0.0, 0.0, 1.700951361097673E9, 0.0, 2023-11-25 17:29:21.097
13.0, 37129.555598444414, 47905.9574491927, 26311.87007568718, -27184.28101352227, 16367.914243687897, 61329.74461671646, 13630.831376413273, 30634.809212065844, -0.07200000000000001, 0.98, 0.066, 192.0, 0.0, 0.0, 0.0, 0.0, 0.0, 0.0, 0.0, 0.0, 0.0, 1.700951361100699E9, 0.0, 2023-11-25 17:29:21.100
14.0, 36947.50063985594, 47779.3795203423, 26293.0052033669, -27345.03475964484, 16243.727951494213, 61206.96648442346, 13623.522355976387, 30605.751944273943, -0.07200000000000001, 0.98, 0.066, 192.0, 0.0, 0.0, 0.0, 0.0, 0.0, 0.0, 0.0, 0.0, 0.0, 1.700951361104639E9, 0.0, 2023-11-25 17:29:21.104
15.0, 36878.232583788944, 47802.08889270889, 26272.53100544584, -27343.26897183287, 16175.689241372258, 60768.29114774361, 13624.595239710241, 30617.06192696833, -0.07200000000000001, 0.98, 0.066, 192.0, 0.0, 0.0, 0.0, 0.0, 0.0, 0.0, 0.0, 0.0, 0.0, 1.700951361108703E9, 0.0, 2023-11-25 17:29:21.108
16.0, 36953.401500392145, 47892.38994030833, 26253.979057547935, -27314.479924974436, 16124.391987847328, 60811.765290709176, 13610.22306802548, 30600.856912238232, -0.07200000000000001, 0.98, 0.066, 192.0, 0.0, 0.0, 0.0, 0.0, 0.0, 0.0, 0.0, 0.0, 0.0, 1.700951361114698E9, 0.0, 2023-11-25 17:29:21.114
17.0, 37110.84718833533, 47919.10027493242, 26300.58244473725, -27198.653185207033, 16331.436196736837, 61194.8965424176, 13616.88388787316, 30613.038612966375, -0.07200000000000001, 0.98, 0.066, 192.0, 0.0, 0.0, 0.0, 0.0, 0.0, 0.0, 0.0, 0.0, 0.0, 1.700951361118738E9, 0.0, 2023-11-25 17:29:21.118
18.0, 36987.66672464213, 47792.14236642628, 26284.556243962797, -27316.17865755304, 16269.857140762466, 61343.222718623016, 13598.398995208621, 30587.512920798414, -0.07200000000000001, 0.98, 0.066, 192.0, 0.0, 0.0, 0.0, 0.0, 0.0, 0.0, 0.0, 0.0, 0.0, 1.700951361121768E9, 0.0, 2023-11-25 17:29:21.121
19.0, 36856.283170733834, 47773.0763284059, 26264.417322208563, -27371.253355890913, 16164.58042437797, 60769.58754892201, 13603.674006900073, 30597.7723715034, -0.07200000000000001, 0.98, 0.066, 192.0, 0.0, 0.0, 0.0, 0.0, 0.0, 0.0, 0.0, 0.0, 0.0, 1.700951361124758E9, 0.0, 2023-11-25 17:29:21.124
20.0, 36931.07210768129, 47869.56880921946, 26250.358074946176, -27322.21362855597, 16121.709778512692, 60802.17639233785, 13600.477707442966, 30600.521636071404, -0.076, 0.978, 0.064, 192.0, 253.0, 160.0, 30.0, 144.0, 2.0, 0.0, 0.0, 0.0, 0.0, 1.700951361127722E9, 0.0, 2023-11-25 17:29:21.127
21.0, 37080.89585076521, 47914.18289115225, 26293.54164523383, -27218.456830794436, 16289.07964099403, 61047.82206390167, 13617.040350084348, 30612.85979901073, -0.076, 0.978, 0.064, 192.0, 0.0, 0.0, 0.0, 0.0, 0.0, 0.0, 0.0, 0.0, 0.0, 1.700951361132861E9, 0.0, 2023-11-25 17:29:21.132
22.0, 37037.93579792211, 47812.37069515833, 26291.82056091077, -27271.676334342523, 16315.946437829309, 61412.557829923375, 13603.83046911126, 30596.878301725188, -0.076, 0.978, 0.064, 192.0, 0.0, 0.0, 0.0, 0.0, 0.0, 0.0, 0.0, 0.0, 0.0, 1.700951361136745E9, 0.0, 2023-11-25 17:29:21.136
23.0, 36847.81185958527, 47755.574912497395, 26268.328877488242, -27384.84321651974, 16169.117828502398, 60772.76149663467, 13610.491288958943, 30593.793760990357, -0.076, 0.978, 0.064, 192.0, 0.0, 0.0, 0.0, 0.0, 0.0, 0.0, 0.0, 0.0, 0.0, 1.700951361140827E9, 0.0, 2023-11-25 17:29:21.140
24.0, 36913.14600862814, 47850.301605498986, 26247.228830722433, -27330.282608304336, 16127.945915215721, 60796.521400990656, 13601.394128965632, 30594.352554601737, -0.076, 0.978, 0.064, 192.0, 0.0, 0.0, 0.0, 0.0, 0.0, 0.0, 0.0, 0.0, 0.0, 1.700951361144871E9, 0.0, 2023-11-25 17:29:21.144
25.0, 37046.317702092856, 47915.18871965274, 26276.86724387017, -27253.50436610036, 16238.676457247313, 60921.60176296256, 13606.065643556793, 30598.889958726166, -0.076, 0.978, 0.064, 192.0, 0.0, 0.0, 0.0, 0.0, 0.0, 0.0, 0.0, 0.0, 0.0, 1.700951361148857E9, 0.0, 2023-11-25 17:29:21.148
26.0, 37078.90654550869, 47845.540683930005, 26291.038249854835, -27242.082624683695, 16344.46726375428, 61441.436283759635, 13591.760527105394, 30586.752961486935, -0.076, 0.978, 0.064, 192.0, 0.0, 0.0, 0.0, 0.0, 0.0, 0.0, 0.0, 0.0, 0.0, 1.700951361151874E9, 0.0, 2023-11-25 17:29:21.151
27.0, 36845.12965025064, 47753.63031072978, 26263.880880341636, -27404.266882451404, 16164.312203444506, 60817.26381984518, 13593.54866666182, 30573.453673536027, -0.076, 0.978, 0.064, 192.0, 0.0, 0.0, 0.0, 0.0, 0.0, 0.0, 0.0, 0.0, 0.0, 1.700951361157934E9, 0.0, 2023-11-25 17:29:21.157
28.0, 36898.997354387924, 47845.0936490409, 26248.614638878662, -27333.478907761444, 16137.646572309324, 60767.75470587668, 13587.312529958788, 30585.21069111952, -0.076, 0.978, 0.064, 192.0, 0.0, 0.0, 0.0, 0.0, 0.0, 0.0, 0.0, 0.0, 0.0, 1.700951361160825E9, 0.0, 2023-11-25 17:29:21.160
29.0, 37010.21963479753, 47913.44528358523, 26267.188938521023, -27276.571366378234, 16193.414174725316, 60825.1539856379, 13599.874210342672, 30589.613984777214, -0.076, 0.978, 0.064, 192.0, 0.0, 0.0, 0.0, 0.0, 0.0, 0.0, 0.0, 0.0, 0.0, 1.700951361164845E9, 0.0, 2023-11-25 17:29:21.164
30.0, 37102.800560331416, 47866.97600686264, 26293.273424300365, -27209.136153356572, 16366.059048898107, 61433.747283667006, 13603.83046911126, 30597.839426736766, -0.078, 0.986, 0.062, 192.0, 253.0, 144.0, 30.0, 208.0, 1.0, 240.0, 0.0, 0.0, 0.0, 1.700951361168849E9, 0.0, 2023-11-25 17:29:21.168
31.0, 36857.98190331244, 47749.204665327634, 26266.317220487264, -27397.404896903623, 16177.499732673137, 60921.445300751366, 13606.3115127458, 30580.717990484, -0.078, 0.986, 0.062, 192.0, 0.0, 0.0, 0.0, 0.0, 0.0, 0.0, 0.0, 0.0, 0.0, 1.700951361172818E9, 0.0, 2023-11-25 17:29:21.172
32.0, 36887.1062263377, 47824.59709937538, 26252.749711602894, -27324.672320446054, 16158.143121974841, 60786.32900551904, 13615.922762861583, 30620.235874680984, -0.078, 0.986, 0.062, 192.0, 0.0, 0.0, 0.0, 0.0, 0.0, 0.0, 0.0, 0.0, 0.0, 1.700951361175986E9, 0.0, 2023-11-25 17:29:21.175
33.0, 36989.83484385429, 47909.19845213872, 26264.48437744193, -27279.83472106871, 16171.82238958149, 60819.32018033507, 13630.227879312979, 30636.48559289999, -0.078, 0.986, 0.062, 192.0, 0.0, 0.0, 0.0, 0.0, 0.0, 0.0, 0.0, 0.0, 0.0, 1.700951361179901E9, 0.0, 2023-11-25 17:29:21.179
34.0, 37125.576987931374, 47896.010922910085, 26305.74569770643, -27172.546347683234, 16389.43897359836, 61398.69974836108, 13636.464016016009, 30649.404901195157, -0.078, 0.986, 0.062, 192.0, 0.0, 0.0, 0.0, 0.0, 0.0, 0.0, 0.0, 0.0, 0.0, 1.700951361184155E9, 0.0, 2023-11-25 17:29:21.184
35.0, 36893.8564531632, 47759.79939219945, 26271.167549034068, -27363.094969164726, 16213.30722729054, 61096.99590170335, 13628.372684523189, 30613.798572277854, -0.078, 0.986, 0.062, 192.0, 0.0, 0.0, 0.0, 0.0, 0.0, 0.0, 0.0, 0.0, 0.0, 1.700951361188902E9, 0.0, 2023-11-25 17:29:21.188
36.0, 36875.01393258738, 47812.974192258625, 26253.979057547935, -27327.712157691978, 16173.297604715539, 60803.428090027344, 13634.385303781666, 30632.909313787142, -0.078, 0.986, 0.062, 192.0, 0.0, 0.0, 0.0, 0.0, 0.0, 0.0, 0.0, 0.0, 0.0, 1.700951361192883E9, 0.0, 2023-11-25 17:29:21.192
37.0, 36959.65998883963, 47901.35298983491, 26248.90521155658, -27295.525645676335, 16145.067351468488, 60824.14815713742, 13631.524280491387, 30624.415650894127, -0.078, 0.986, 0.062, 192.0, 0.0, 0.0, 0.0, 0.0, 0.0, 0.0, 0.0, 0.0, 0.0, 1.700951361196935E9, 0.0, 2023-11-25 17:29:21.196
38.0, 37115.11637152629, 47910.71837076168, 26298.570787736273, -27171.160539527005, 16370.819970467088, 61310.74563392945, 13642.253117829934, 30643.325226703317, -0.078, 0.986, 0.062, 192.0, 0.0, 0.0, 0.0, 0.0, 0.0, 0.0, 0.0, 0.0, 0.0, 1.700951361199915E9, 0.0, 2023-11-25 17:29:21.199
39.0, 36940.526895585885, 47778.21722963062, 26275.660249669585, -27329.142669337118, 16245.985477684198, 61238.974182483464, 13627.411559511609, 30607.361269874727, -0.078, 0.986, 0.062, 192.0, 0.0, 0.0, 0.0, 0.0, 0.0, 0.0, 0.0, 0.0, 0.0, 1.700951361203899E9, 0.0, 2023-11-25 17:29:21.203
40.0, 36866.92260109456, 47795.53983158348, 26254.068464525757, -27339.6032857422, 16171.978851792677, 60795.2473515567, 13627.03157985587, 30608.657671053134, -0.078, 0.984, 0.062, 192.0, 253.0, 144.0, 30.0, 192.0, 1.0, 240.0, 0.0, 0.0, 0.0, 1.700951361207941E9, 0.0, 2023-11-25 17:29:21.207
41.0, 36947.27712241139, 47894.96039092069, 26243.943124287503, -27313.407041240578, 16131.052807695009, 60824.5057850487, 13614.961637850003, 30607.76360127492, -0.078, 0.984, 0.062, 192.0, 0.0, 0.0, 0.0, 0.0, 0.0, 0.0, 0.0, 0.0, 0.0, 1.700951361211907E9, 0.0, 2023-11-25 17:29:21.211
42.0, 37111.42833369116, 47929.20326342622, 26295.732116190447, -27186.76205715681, 16341.047446852619, 61185.75467893537, 13628.50679498992, 30636.642055111177, -0.078, 0.984, 0.062, 192.0, 0.0, 0.0, 0.0, 0.0, 0.0, 0.0, 0.0, 0.0, 0.0, 1.700951361216997E9, 0.0, 2023-11-25 17:29:21.216
43.0, 36998.9320038476, 47809.688485823695, 26279.750618904905, -27295.41388695406, 16287.626777604435, 61368.56959683533, 13606.177402279069, 30605.662537296124, -0.078, 0.984, 0.062, 192.0, 0.0, 0.0, 0.0, 0.0, 0.0, 0.0, 0.0, 0.0, 0.0, 1.700951361220956E9, 0.0, 2023-11-25 17:29:21.220
44.0, 36854.42797594404, 47789.39310185827, 26254.940182559512, -27360.636277274643, 16170.302470958528, 60790.575836965545, 13601.2600184989, 30598.979365703985, -0.078, 0.984, 0.062, 192.0, 0.0, 0.0, 0.0, 0.0, 0.0, 0.0, 0.0, 0.0, 0.0, 1.700951361225032E9, 0.0, 2023-11-25 17:29:21.225
45.0, 36928.05462217982, 47889.84184144042, 26236.43293815052, -27312.803544140286, 16126.180127403752, 60825.31044784909, 13590.777050349361, 30593.838464479264, -0.078, 0.984, 0.062, 192.0, 0.0, 0.0, 0.0, 0.0, 0.0, 0.0, 0.0, 0.0, 0.0, 1.700951361228011E9, 0.0, 2023-11-25 17:29:21.228
46.0, 37077.16310944118, 47935.34999315143, 26277.694258415017, -27208.778525445287, 16289.258454949673, 61048.78318891325, 13608.233762768956, 30609.909368742632, -0.078, 0.984, 0.062, 192.0, 0.0, 0.0, 0.0, 0.0, 0.0, 0.0, 0.0, 0.0, 0.0, 1.700951361232016E9, 0.0, 2023-11-25 17:29:21.232
47.0, 37039.880399689726, 47831.59319538989, 26275.749656647404, -27257.281810913304, 16321.288504754128, 61438.46350174708, 13591.939341061037, 30588.38463883217, -0.078, 0.984, 0.062, 192.0, 0.0, 0.0, 0.0, 0.0, 0.0, 0.0, 0.0, 0.0, 0.0, 1.700951361236007E9, 0.0, 2023-11-25 17:29:21.236
48.0, 36847.07425201825, 47773.21043887263, 26257.063598282766, -27373.980268714462, 16175.845703583445, 60793.235694555726, 13606.289161001345, 30605.72959252949, -0.078, 0.984, 0.062, 192.0, 0.0, 0.0, 0.0, 0.0, 0.0, 0.0, 0.0, 0.0, 0.0, 1.700951361240219E9, 0.0, 2023-11-25 17:29:21.240
49.0, 36926.42294483459, 47877.704844201195, 26243.22786846493, -27300.957119578972, 16145.581441590959, 60814.17927911035, 13614.715768660995, 30625.756755561444, -0.078, 0.984, 0.062, 192.0, 0.0, 0.0, 0.0, 0.0, 0.0, 0.0, 0.0, 0.0, 0.0, 1.700951361244011E9, 0.0, 2023-11-25 17:29:21.244
50.0, 37060.488708077515, 47942.659013588316, 26272.53100544584, -27222.323682585204, 16250.098198663974, 60944.42289405142, 13625.98104786647, 30624.68387182759, -0.066, 0.986, 0.066, 192.0, 253.0, 240.0, 30.0, 208.0, 2.0, 16.0, 0.0, 0.0, 0.0, 1.700951361249116E9, 0.0, 2023-11-25 17:29:21.249
51.0, 37092.29524043742, 47868.250056296594, 26285.807941652292, -27211.81836269121, 16361.543996518136, 61485.200999403125, 13611.854745370716, 30604.410839606626, -0.066, 0.986, 0.066, 192.0, 0.0, 0.0, 0.0, 0.0, 0.0, 0.0, 0.0, 0.0, 0.0, 1.700951361256662E9, 0.0, 2023-11-25 17:29:21.256
52.0, 36850.851696831196, 47763.755650968036, 26255.253106981887, -27381.3116408958, 16175.353965205428, 60867.48818963626, 13613.419367482587, 30597.548854058845, -0.066, 0.986, 0.066, 192.0, 0.0, 0.0, 0.0, 0.0, 0.0, 0.0, 0.0, 0.0, 0.0, 1.700951361256829E9, 0.0, 2023-11-25 17:29:21.256
53.0, 36902.48422652295, 47850.34630898789, 26237.43876665101, -27309.182561538528, 16148.66598232579, 60809.97715115275, 13613.50877446041, 30615.094973456264, -0.066, 0.986, 0.066, 192.0, 0.0, 0.0, 0.0, 0.0, 0.0, 0.0, 0.0, 0.0, 0.0, 1.700951361260005E9, 0.0, 2023-11-25 17:29:21.260
54.0, 37012.00777435396, 47921.7601325226, 26252.369731947154, -27253.593773078177, 16198.555075950037, 60860.87207327749, 13621.242478041946, 30622.269883426416, -0.066, 0.986, 0.066, 192.0, 0.0, 0.0, 0.0, 0.0, 0.0, 0.0, 0.0, 0.0, 0.0, 1.700951361264042E9, 0.0, 2023-11-25 17:29:21.264
55.0, 37104.02990627645, 47877.72719594565, 26282.812807895283, -27182.269356521294, 16378.598377537535, 61455.38377229974, 13626.271620544388, 30640.195982479574, -0.066, 0.986, 0.066, 192.0, 0.0, 0.0, 0.0, 0.0, 0.0, 0.0, 0.0, 0.0, 0.0, 1.700951361268023E9, 0.0, 2023-11-25 17:29:21.268
56.0, 36856.998426556405, 47753.943235152154, 26255.543679659808, -27376.304850137814, 16190.173171779297, 60959.264452369745, 13634.050027614836, 30624.147429960663, -0.066, 0.986, 0.066, 192.0, 0.0, 0.0, 0.0, 0.0, 0.0, 0.0, 0.0, 0.0, 0.0, 1.700951361272023E9, 0.0, 2023-11-25 17:29:21.272
57.0, 36885.49690073692, 47829.26861396654, 26241.484432397418, -27313.719965662953, 16166.189749978752, 60783.82561014004, 13640.241460828956, 30650.36602620674, -0.066, 0.986, 0.066, 192.0, 0.0, 0.0, 0.0, 0.0, 0.0, 0.0, 0.0, 0.0, 0.0, 1.700951361277135E9, 0.0, 2023-11-25 17:29:21.277
58.0, 36981.631753639194, 47911.52303356207, 26243.80901382077, -27274.179729721516, 16166.614433123403, 60806.75849995119, 13636.799292182839, 30641.961770291542, -0.066, 0.986, 0.066, 192.0, 0.0, 0.0, 0.0, 0.0, 0.0, 0.0, 0.0, 0.0, 0.0, 1.700951361281114E9, 0.0, 2023-11-25 17:29:21.281
59.0, 37117.53035992746, 47900.19069912323, 26284.220967795965, -27167.89718483653, 16384.543941562646, 61368.07785845731, 13638.140396850158, 30652.757662863456, -0.066, 0.986, 0.066, 192.0, 0.0, 0.0, 0.0, 0.0, 0.0, 0.0, 0.0, 0.0, 0.0, 1.700951361284133E9, 0.0, 2023-11-25 17:29:21.284
60.0, 36900.85254917772, 47766.41550855822, 26255.498976170897, -27359.071655162774, 16216.034140114087, 61078.868636950094, 13624.572887965785, 30619.073583969308, -0.074, 0.98, 0.066, 192.0, 253.0, 176.0, 30.0, 160.0, 2.0, 16.0, 0.0, 0.0, 0.0, 1.700951361288112E9, 0.0, 2023-11-25 17:29:21.288
61.0, 36880.95949661249, 47817.82452080542, 26243.496089398395, -27327.44393675851, 16173.364659948906, 60742.09490324198, 13628.350332778733, 30634.652749854657, -0.074, 0.98, 0.066, 192.0, 0.0, 0.0, 0.0, 0.0, 0.0, 0.0, 0.0, 0.0, 0.0, 1.700951361292142E9, 0.0, 2023-11-25 17:29:21.292
62.0, 36973.875698313204, 47917.20037665372, 26243.943124287503, -27289.513026417855, 16149.00125849262, 60753.82956908102, 13626.383379266666, 30631.59056086428, -0.074, 0.98, 0.066, 192.0, 0.0, 0.0, 0.0, 0.0, 0.0, 0.0, 0.0, 0.0, 0.0, 1.700951361296163E9, 0.0, 2023-11-25 17:29:21.296
63.0, 37126.60516817631, 47925.649336057824, 26285.807941652292, -27171.09348429364, 16366.439028553848, 61237.230746415946, 13624.997571110436, 30642.58761913629, -0.074, 0.98, 0.066, 192.0, 0.0, 0.0, 0.0, 0.0, 0.0, 0.0, 0.0, 0.0, 0.0, 1.700951361301228E9, 0.0, 2023-11-25 17:29:21.301
64.0, 36952.59683759175, 47793.63993330478, 26264.39497046411, -27329.07561410375, 16248.377114340916, 61195.81296394026, 13604.255152255912, 30597.548854058845, -0.074, 0.98, 0.066, 192.0, 0.0, 0.0, 0.0, 0.0, 0.0, 0.0, 0.0, 0.0, 0.0, 1.700951361305171E9, 0.0, 2023-11-25 17:29:21.305
65.0, 36869.18012728455, 47808.213270689645, 26247.318237700256, -27340.743224709422, 16170.86126456991, 60711.76358601613, 13601.908219088105, 30598.174702903594, -0.074, 0.98, 0.066, 192.0, 0.0, 0.0, 0.0, 0.0, 0.0, 0.0, 0.0, 0.0, 0.0, 1.700951361309187E9, 0.0, 2023-11-25 17:29:21.309
66.0, 36952.66389282512, 47904.01284742509, 26235.024778249834, -27301.35945097917, 16127.81180474899, 60736.99870550617, 13593.235742239445, 30591.022144677896, -0.074, 0.98, 0.066, 192.0, 0.0, 0.0, 0.0, 0.0, 0.0, 0.0, 0.0, 0.0, 0.0, 1.700951361312199E9, 0.0, 2023-11-25 17:29:21.312
67.0, 37113.81997034788, 47937.69692631924, 26285.182092807543, -27184.348068755637, 16329.75981590269, 61074.42063980349, 13609.396053480632, 30615.452601367546, -0.074, 0.98, 0.066, 192.0, 0.0, 0.0, 0.0, 0.0, 0.0, 0.0, 0.0, 0.0, 0.0, 1.700951361316228E9, 0.0, 2023-11-25 17:29:21.316
68.0, 37016.41106801165, 47822.965422030145, 26279.57180494926, -27277.331325689713, 16295.449888163792, 61281.84482834874, 13601.952922577015, 30603.06973493931, -0.074, 0.98, 0.066, 192.0, 0.0, 0.0, 0.0, 0.0, 0.0, 0.0, 0.0, 0.0, 0.0, 1.700951361320293E9, 0.0, 2023-11-25 17:29:21.320
69.0, 36870.38712148513, 47795.87510775031, 26261.71276112947, -27345.97353291196, 16179.265520485107, 60683.555684513536, 13610.22306802548, 30611.4739908545, -0.074, 0.98, 0.066, 192.0, 0.0, 0.0, 0.0, 0.0, 0.0, 0.0, 0.0, 0.0, 0.0, 1.700951361324308E9, 0.0, 2023-11-25 17:29:21.324
70.0, 36948.014729978415, 47893.44047229773, 26239.405720163075, -27294.20689275347, 16132.930354229255, 60729.197946691274, 13605.238629011945, 30613.016261221917, -0.08600000000000001, 0.98, 0.06, 192.0, 253.0, 80.0, 30.0, 160.0, 1.0, 224.0, 0.0, 0.0, 0.0, 1.700951361328279E9, 0.0, 2023-11-25 17:29:21.328
71.0, 37096.05033350591, 47947.93402527977, 26277.58249969274, -27193.154656071027, 16285.41395490336, 60948.04387665318, 13625.288143788355, 30634.04925275436, -0.08600000000000001, 0.98, 0.06, 192.0, 0.0, 0.0, 0.0, 0.0, 0.0, 0.0, 0.0, 0.0, 0.0, 1.700951361332397E9, 0.0, 2023-11-25 17:29:21.332
72.0, 37074.749121040004, 47858.57175094745, 26279.907081116093, -27227.643397765565, 16333.023170593164, 61364.188654922094, 13615.900411117127, 30622.359290404238, -0.08600000000000001, 0.98, 0.06, 192.0, 0.0, 0.0, 0.0, 0.0, 0.0, 0.0, 0.0, 0.0, 0.0, 1.700951361337474E9, 0.0, 2023-11-25 17:29:21.337
73.0, 36870.610638929684, 47792.209421659645, 26257.063598282766, -27354.735416738444, 16173.7669913491, 60714.17757441731, 13623.768225165395, 30622.895732271165, -0.08600000000000001, 0.98, 0.06, 192.0, 0.0, 0.0, 0.0, 0.0, 0.0, 0.0, 0.0, 0.0, 0.0, 1.700951361340515E9, 0.0, 2023-11-25 17:29:21.340
74.0, 36928.926340213584, 47878.50950700158, 26228.699234568983, -27293.648099142087, 16132.215098406685, 60736.886946783896, 13616.347446006233, 30627.835467795787, -0.08600000000000001, 0.98, 0.06, 192.0, 0.0, 0.0, 0.0, 0.0, 0.0, 0.0, 0.0, 0.0, 0.0, 1.70095136134333E9, 0.0, 2023-11-25 17:29:21.343
75.0, 37054.00670218548, 47938.21101644171, 26252.1462145026, -27229.140964644073, 16222.583201239491, 60850.4114568724, 13625.60106821073, 30631.478802142003, -0.08600000000000001, 0.98, 0.06, 192.0, 0.0, 0.0, 0.0, 0.0, 0.0, 0.0, 0.0, 0.0, 0.0, 1.700951361349134E9, 0.0, 2023-11-25 17:29:21.349
76.0, 37105.303955710406, 47874.821469166454, 26270.519348444865, -27204.665804465512, 16345.696609699324, 61381.66771908614, 13621.823623397784, 30628.68483408509, -0.08600000000000001, 0.98, 0.06, 192.0, 0.0, 0.0, 0.0, 0.0, 0.0, 0.0, 0.0, 0.0, 0.0, 1.700951361352535E9, 0.0, 2023-11-25 17:29:21.352
77.0, 36860.284132991335, 47766.21434285812, 26237.572877117742, -27377.690658294043, 16152.711648072202, 60770.861598355965, 13621.086015830759, 30605.193150662562, -0.08600000000000001, 0.98, 0.06, 192.0, 0.0, 0.0, 0.0, 0.0, 0.0, 0.0, 0.0, 0.0, 0.0, 1.700951361356318E9, 0.0, 2023-11-25 17:29:21.356
78.0, 36900.1596450996, 47847.775858375535, 26215.869333251638, -27310.300148761293, 16123.497918069115, 60709.77428075961, 13613.419367482587, 30614.603235078244, -0.08600000000000001, 0.98, 0.06, 192.0, 0.0, 0.0, 0.0, 0.0, 0.0, 0.0, 0.0, 0.0, 0.0, 1.700951361360372E9, 0.0, 2023-11-25 17:29:21.360
79.0, 37013.55004472137, 47927.95156573672, 26239.00338876288, -27253.839642267187, 16171.39770643684, 60747.92870854482, 13619.052007085325, 30623.20865669354, -0.08600000000000001, 0.98, 0.06, 192.0, 0.0, 0.0, 0.0, 0.0, 0.0, 0.0, 0.0, 0.0, 0.0, 1.700951361365443E9, 0.0, 2023-11-25 17:29:21.365
80.0, 37121.240749507044, 47893.708693231194, 26272.374543234655, -27173.842748861643, 16360.225243595272, 61353.81744549483, 13615.520431461387, 30633.155182976152, -0.082, 0.974, 0.06, 192.0, 253.0, 112.0, 30.0, 112.0, 1.0, 224.0, 0.0, 0.0, 0.0, 1.700951361368707E9, 0.0, 2023-11-25 17:29:21.368
81.0, 36881.69710417952, 47770.528229537995, 26244.926601043535, -27371.722742524475, 16171.777686092579, 60882.374451443495, 13611.765338392896, 30609.23881640897, -0.082, 0.974, 0.06, 192.0, 0.0, 0.0, 0.0, 0.0, 0.0, 0.0, 0.0, 0.0, 0.0, 1.700951361372454E9, 0.0, 2023-11-25 17:29:21.372
82.0, 36902.19365384503, 47840.75741061657, 26224.675920567028, -27314.32346276325, 16143.994467734632, 60704.54397255707, 13607.093823801735, 30627.321377673314, -0.082, 0.974, 0.06, 192.0, 0.0, 0.0, 0.0, 0.0, 0.0, 0.0, 0.0, 0.0, 0.0, 1.700951361376365E9, 0.0, 2023-11-25 17:29:21.376
83.0, 36994.12637878971, 47928.9126907483, 26227.693406068494, -27274.44795065498, 16140.440540366239, 60726.49338561218, 13609.530163947364, 30624.61681659422, -0.082, 0.974, 0.06, 192.0, 0.0, 0.0, 0.0, 0.0, 0.0, 0.0, 0.0, 0.0, 0.0, 1.700951361380669E9, 0.0, 2023-11-25 17:29:21.380
84.0, 37124.07942105287, 47917.58035630946, 26264.842005353214, -27166.13139702456, 16353.139740602941, 61273.48527592245, 13610.93832384805, 30636.284427199895, -0.082, 0.974, 0.06, 192.0, 0.0, 0.0, 0.0, 0.0, 0.0, 0.0, 0.0, 0.0, 0.0, 1.700951361384416E9, 0.0, 2023-11-25 17:29:21.384
85.0, 36899.39968578812, 47777.591380785874, 26230.08504272521, -27354.288381849336, 16184.205256009729, 61009.31000820518, 13600.164783020591, 30599.068772681807, -0.082, 0.974, 0.06, 192.0, 0.0, 0.0, 0.0, 0.0, 0.0, 0.0, 0.0, 0.0, 0.0, 1.700951361388396E9, 0.0, 2023-11-25 17:29:21.388
86.0, 36865.24622026041, 47819.45619815066, 26212.740089027895, -27330.103794348695, 16133.690313540736, 60662.27682379208, 13606.467974956988, 30616.659595568133, -0.082, 0.974, 0.06, 192.0, 0.0, 0.0, 0.0, 0.0, 0.0, 0.0, 0.0, 0.0, 0.0, 1.700951361392546E9, 0.0, 2023-11-25 17:29:21.392
87.0, 36953.379148647684, 47917.46859758718, 26209.543789570784, -27292.865788086154, 16106.175316116252, 60674.79380068705, 13606.3115127458, 30616.167857190118, -0.082, 0.974, 0.06, 192.0, 0.0, 0.0, 0.0, 0.0, 0.0, 0.0, 0.0, 0.0, 0.0, 1.700951361396448E9, 0.0, 2023-11-25 17:29:21.396
88.0, 37102.42058067567, 47930.03027797107, 26248.748749345395, -27177.351972741126, 16318.963923330775, 61134.680942855, 13612.659408171106, 30632.417575409127, -0.082, 0.974, 0.06, 192.0, 0.0, 0.0, 0.0, 0.0, 0.0, 0.0, 0.0, 0.0, 0.0, 1.700951361399504E9, 0.0, 2023-11-25 17:29:21.399
89.0, 36938.11290718471, 47791.89649723727, 26218.909170497558, -27332.517782749866, 16205.215895797719, 61138.81601557923, 13591.06762302728, 30589.837502221766, -0.082, 0.974, 0.06, 192.0, 0.0, 0.0, 0.0, 0.0, 0.0, 0.0, 0.0, 0.0, 0.0, 1.700951361404472E9, 0.0, 2023-11-25 17:29:21.404
90.0, 36850.15879275308, 47802.401817131264, 26208.068574436737, -27350.13095738065, 16131.119862928375, 60644.77540788358, 13598.890733586639, 30598.644089537156, -0.07200000000000001, 0.982, 0.056, 192.0, 253.0, 192.0, 30.0, 176.0, 1.0, 192.0, 0.0, 0.0, 0.0, 1.700951361408453E9, 0.0, 2023-11-25 17:29:21.408
91.0, 36934.715442027504, 47905.666876514784, 26203.017080189835, -27297.134971277115, 16097.748708456602, 60682.95218741324, 13600.164783020591, 30599.78402850438, -0.07200000000000001, 0.982, 0.056, 192.0, 0.0, 0.0, 0.0, 0.0, 0.0, 0.0, 0.0, 0.0, 0.0, 1.700951361412455E9, 0.0, 2023-11-25 17:29:21.412
92.0, 37096.09503699482, 47945.788257812055, 26248.86050806767, -27181.822321632186, 16293.549989885092, 61026.83377585814, 13614.872230872183, 30621.73344155949, -0.07200000000000001, 0.982, 0.056, 192.0, 0.0, 0.0, 0.0, 0.0, 0.0, 0.0, 0.0, 0.0, 0.0, 1.700951361416541E9, 0.0, 2023-11-25 17:29:21.416
93.0, 37010.934890620105, 47834.923605313736, 26242.132632986624, -27273.39741866558, 16271.444114618793, 61268.09850550872, 13601.729405132462, 30597.213577892016, -0.07200000000000001, 0.982, 0.056, 192.0, 0.0, 0.0, 0.0, 0.0, 0.0, 0.0, 0.0, 0.0, 0.0, 1.700951361419749E9, 0.0, 2023-11-25 17:29:21.419
94.0, 36856.573743411755, 47802.80414853146, 26221.189048432, -27351.203841114504, 16149.180072448264, 60660.421629002296, 13605.953884834515, 30595.380734846683, -0.07200000000000001, 0.982, 0.056, 192.0, 0.0, 0.0, 0.0, 0.0, 0.0, 0.0, 0.0, 0.0, 0.0, 1.700951361423581E9, 0.0, 2023-11-25 17:29:21.423
95.0, 36933.4190408491, 47902.783501480044, 26204.581702301708, -27297.537302677312, 16108.343435328417, 60711.4283098493, 13597.236704496945, 30597.81707499231, -0.07200000000000001, 0.982, 0.056, 192.0, 0.0, 0.0, 0.0, 0.0, 0.0, 0.0, 0.0, 0.0, 0.0, 1.700951361427575E9, 0.0, 2023-11-25 17:29:21.427
96.0, 37075.08439720683, 47951.53265613707, 26238.91398178506, -27209.76200220132, 16248.399466085371, 60910.58235294609, 13601.796460365827, 30599.113476170718, -0.07200000000000001, 0.982, 0.056, 192.0, 0.0, 0.0, 0.0, 0.0, 0.0, 0.0, 0.0, 0.0, 0.0, 1.700951361431603E9, 0.0, 2023-11-25 17:29:21.431
97.0, 37053.850239974294, 47855.889541612814, 26237.95285677348, -27245.994179963374, 16299.093222510008, 61330.57163126131, 13578.885922299138, 30570.369132801192, -0.07200000000000001, 0.982, 0.056, 192.0, 0.0, 0.0, 0.0, 0.0, 0.0, 0.0, 0.0, 0.0, 0.0, 1.700951361436586E9, 0.0, 2023-11-25 17:29:21.436
98.0, 36841.03928101531, 47783.179316899696, 26212.62833030562, -27380.484626350957, 16136.774854275567, 60685.567341514514, 13585.859666569195, 30564.088292609253, -0.07200000000000001, 0.982, 0.056, 192.0, 0.0, 0.0, 0.0, 0.0, 0.0, 0.0, 0.0, 0.0, 0.0, 1.700951361440674E9, 0.0, 2023-11-25 17:29:21.440
99.0, 36905.54641551333, 47878.08482385693, 26191.79650447327, -27318.45853548748, 16102.934313170234, 60706.95796095824, 13578.036556009836, 30554.90172563812, -0.07200000000000001, 0.982, 0.056, 192.0, 0.0, 0.0, 0.0, 0.0, 0.0, 0.0, 0.0, 0.0, 0.0, 1.700951361444623E9, 0.0, 2023-11-25 17:29:21.444
100.0, 37035.00771939847, 47953.968996282696, 26227.693406068494, -27240.138022916082, 16199.382090494883, 60806.55733425109, 13600.678873143062, 30589.122246399194, -0.078, 0.982, 0.056, 192.0, 253.0, 144.0, 30.0, 176.0, 1.0, 192.0, 0.0, 0.0, 0.0, 1.700951361448659E9, 0.0, 2023-11-25 17:29:21.448
101.0, 37089.38951365823, 47895.56388802098, 26251.00627553538, -27199.23433056287, 16335.95124911681, 61375.1857131941, 13598.175477764069, 30607.58478731928, -0.078, 0.982, 0.056, 192.0, 0.0, 0.0, 0.0, 0.0, 0.0, 0.0, 0.0, 0.0, 0.0, 1.700951361452715E9, 0.0, 2023-11-25 17:29:21.452
102.0, 36856.86431608967, 47795.696293794674, 26229.258028180368, -27366.224213388472, 16155.907947529311, 60773.40969722387, 13606.020940067881, 30592.363249345217, -0.078, 0.982, 0.056, 192.0, 0.0, 0.0, 0.0, 0.0, 0.0, 0.0, 0.0, 0.0, 0.0, 1.700951361455632E9, 0.0, 2023-11-25 17:29:21.455
103.0, 36916.94580518553, 47889.48421352914, 26219.57972283122, -27282.181654236516, 16141.021685722077, 60714.06581569503, 13612.212373282002, 30622.53810435988, -0.078, 0.982, 0.056, 192.0, 0.0, 0.0, 0.0, 0.0, 0.0, 0.0, 0.0, 0.0, 0.0, 1.700951361459639E9, 0.0, 2023-11-25 17:29:21.459
104.0, 37026.84933267228, 47969.99519705716, 26236.030606750322, -27233.857182724143, 16176.650366383836, 60763.93255757482, 13618.806137896318, 30616.167857190118, -0.078, 0.982, 0.056, 192.0, 0.0, 0.0, 0.0, 0.0, 0.0, 0.0, 0.0, 0.0, 0.0, 1.700951361464682E9, 0.0, 2023-11-25 17:29:21.464
105.0, 37134.13770605776, 47932.60072858343, 26266.831310609738, -27156.631905631057, 16365.09792388653, 61361.84172175428, 13615.878059372671, 30620.571150847813, -0.078, 0.982, 0.056, 192.0, 0.0, 0.0, 0.0, 0.0, 0.0, 0.0, 0.0, 0.0, 0.0, 1.700951361468747E9, 0.0, 2023-11-25 17:29:21.468
106.0, 36890.190767072534, 47802.15594794226, 26236.768214317348, -27352.232021359447, 16178.617319895902, 60907.900143611456, 13606.423271468077, 30586.596499275747, -0.078, 0.982, 0.056, 192.0, 0.0, 0.0, 0.0, 0.0, 0.0, 0.0, 0.0, 0.0, 0.0, 1.700951361472696E9, 0.0, 2023-11-25 17:29:21.472
107.0, 36900.8078456888, 47866.81954465146, 26216.89751349658, -27296.39736371009, 16148.308354414507, 60700.72182425521, 13605.015111567393, 30607.38362161918, -0.078, 0.982, 0.056, 192.0, 0.0, 0.0, 0.0, 0.0, 0.0, 0.0, 0.0, 0.0, 0.0, 1.700951361475677E9, 0.0, 2023-11-25 17:29:21.475
108.0, 36995.199262523565, 47952.784353826566, 26222.083118210212, -27256.834776024196, 16144.754427046113, 60717.08330119649, 13613.665236671595, 30629.847124796765, -0.078, 0.982, 0.056, 192.0, 0.0, 0.0, 0.0, 0.0, 0.0, 0.0, 0.0, 0.0, 0.0, 1.700951361479671E9, 0.0, 2023-11-25 17:29:21.479
109.0, 37136.10465956982, 47944.24598744464, 26263.59030766372, -27141.432719401448, 16363.466246541293, 61273.52997941137, 13619.11906231869, 30643.59344763678, -0.078, 0.982, 0.056, 192.0, 0.0, 0.0, 0.0, 0.0, 0.0, 0.0, 0.0, 0.0, 0.0, 1.700951361483764E9, 0.0, 2023-11-25 17:29:21.483
110.0, 36920.11975289819, 47803.519404354025, 26233.169583460043, -27326.92984663604, 16204.746509164157, 61044.22343304437, 13608.256114513411, 30605.39431636266, -0.07200000000000001, 0.978, 0.056, 192.0, 253.0, 192.0, 30.0, 144.0, 1.0, 192.0, 0.0, 0.0, 0.0, 1.700951361487743E9, 0.0, 2023-11-25 17:29:21.487
111.0, 36881.27242103487, 47841.15974201677, 26213.589455317197, -27308.40025048259, 16152.219909694186, 60676.29136756556, 13613.285257015856, 30616.01139497893, -0.07200000000000001, 0.978, 0.056, 192.0, 0.0, 0.0, 0.0, 0.0, 0.0, 0.0, 0.0, 0.0, 0.0, 1.700951361491716E9, 0.0, 2023-11-25 17:29:21.491
112.0, 36962.58806736327, 47933.36068789491, 26204.08996392369, -27278.717133845945, 16116.680636010247, 60698.17372538731, 13603.226972010967, 30601.549816316347, -0.07200000000000001, 0.978, 0.056, 192.0, 0.0, 0.0, 0.0, 0.0, 0.0, 0.0, 0.0, 0.0, 0.0, 1.700951361496743E9, 0.0, 2023-11-25 17:29:21.496
113.0, 37119.430258206165, 47947.8669700464, 26249.843984823703, -27160.18583299945, 16333.447853737815, 61138.324277201216, 13611.541820948341, 30618.53714210238, -0.07200000000000001, 0.978, 0.056, 192.0, 0.0, 0.0, 0.0, 0.0, 0.0, 0.0, 0.0, 0.0, 0.0, 1.700951361500706E9, 0.0, 2023-11-25 17:29:21.500
114.0, 36966.23140170949, 47817.82452080542, 26231.023815992336, -27303.147590535595, 16238.050608402564, 61158.86553035564, 13602.422309210577, 30584.80835971932, -0.07200000000000001, 0.978, 0.056, 192.0, 0.0, 0.0, 0.0, 0.0, 0.0, 0.0, 0.0, 0.0, 0.0, 1.70095136150398E9, 0.0, 2023-11-25 17:29:21.503
115.0, 36864.97799932695, 47821.64666910728, 26213.90237973957, -27331.6013612272, 16153.762180061602, 60636.080579290465, 13610.290123258845, 30593.5702435458, -0.07200000000000001, 0.978, 0.056, 192.0, 0.0, 0.0, 0.0, 0.0, 0.0, 0.0, 0.0, 0.0, 0.0, 1.700951361507724E9, 0.0, 2023-11-25 17:29:21.507
116.0, 36942.40444212013, 47917.46859758718, 26200.536036555295, -27289.8930060736, 16111.38327257434, 60686.86374269292, 13608.501983702421, 30590.95508944453, -0.07200000000000001, 0.978, 0.056, 192.0, 0.0, 0.0, 0.0, 0.0, 0.0, 0.0, 0.0, 0.0, 0.0, 1.700951361511814E9, 0.0, 2023-11-25 17:29:21.511
117.0, 37093.72575208256, 47954.99717652764, 26248.122900500646, -27182.448170476935, 16302.043652778108, 60990.98157775183, 13623.79057690985, 30610.736383287476, -0.07200000000000001, 0.978, 0.056, 192.0, 0.0, 0.0, 0.0, 0.0, 0.0, 0.0, 0.0, 0.0, 0.0, 1.700951361515863E9, 0.0, 2023-11-25 17:29:21.515
118.0, 37009.526730719415, 47838.74575361559, 26237.125842228634, -27268.01064825185, 16282.351765912983, 61263.53874963984, 13607.183230779558, 30579.779217216877, -0.07200000000000001, 0.978, 0.056, 192.0, 0.0, 0.0, 0.0, 0.0, 0.0, 0.0, 0.0, 0.0, 0.0, 1.700951361519859E9, 0.0, 2023-11-25 17:29:21.519
119.0, 36843.96735953896, 47795.24925890556, 26212.62833030562, -27355.83065221675, 16150.275307926573, 60647.8152451295, 13607.965541835492, 30580.29330733935, -0.07200000000000001, 0.978, 0.056, 192.0, 0.0, 0.0, 0.0, 0.0, 0.0, 0.0, 0.0, 0.0, 0.0, 1.700951361523863E9, 0.0, 2023-11-25 17:29:21.523
120.0, 36916.007031918416, 47891.58527750794, 26193.875216707616, -27301.068878301252, 16108.879877195344, 60688.89775143835, 13596.610855652198, 30575.755903214922, -0.076, 0.982, 0.068, 192.0, 253.0, 160.0, 30.0, 176.0, 2.0, 32.0, 0.0, 0.0, 0.0, 1.700951361528855E9, 0.0, 2023-11-25 17:29:21.528
121.0, 37060.354597610785, 47949.92333053629, 26232.923714271037, -27210.834885935175, 16250.098198663974, 60873.67962285038, 13615.185155294557, 30591.96091794502, -0.076, 0.982, 0.068, 192.0, 0.0, 0.0, 0.0, 0.0, 0.0, 0.0, 0.0, 0.0, 0.0, 1.700951361531833E9, 0.0, 2023-11-25 17:29:21.531
122.0, 37055.7948417419, 47867.15482081829, 26240.47860389693, -27229.76681348882, 16318.427481463848, 61330.37046556121, 13607.160879035102, 30590.15042664414, -0.076, 0.982, 0.068, 192.0, 0.0, 0.0, 0.0, 0.0, 0.0, 0.0, 0.0, 0.0, 0.0, 1.700951361535838E9, 0.0, 2023-11-25 17:29:21.535
123.0, 36839.04997575879, 47788.25316289105, 26214.371766373133, -27370.448693090522, 16151.392895149338, 60677.185437343775, 13610.245419769934, 30580.986211417465, -0.076, 0.982, 0.068, 192.0, 0.0, 0.0, 0.0, 0.0, 0.0, 0.0, 0.0, 0.0, 0.0, 1.700951361539832E9, 0.0, 2023-11-25 17:29:21.539
124.0, 36902.75244745641, 47883.56100124848, 26196.825646975714, -27299.571311422744, 16122.71560701318, 60671.95512914123, 13600.678873143062, 30589.90455745513, -0.076, 0.982, 0.068, 192.0, 0.0, 0.0, 0.0, 0.0, 0.0, 0.0, 0.0, 0.0, 0.0, 1.700951361543847E9, 0.0, 2023-11-25 17:29:21.543
125.0, 37025.687041960606, 47954.751307338636, 26222.2395804214, -27226.59286577617, 16205.193544053263, 60755.59535689299, 13605.573905178775, 30591.647993522645, -0.076, 0.982, 0.068, 192.0, 0.0, 0.0, 0.0, 0.0, 0.0, 0.0, 0.0, 0.0, 0.0, 1.700951361547883E9, 0.0, 2023-11-25 17:29:21.547
