%OpenBCI Raw EXG Data
%Number of channels = 8
%Sample Rate = 250 Hz
%Board = OpenBCI_GUI$BoardCytonSerial
Sample Index, EXG Channel 0, EXG Channel 1, EXG Channel 2, EXG Channel 3, EXG Channel 4, EXG Channel 5, EXG Channel 6, EXG Channel 7, Accel Channel 0, Accel Channel 1, Accel Channel 2, Other, Other, Other, Other, Other, Other, Other, Analog Channel 0, Analog Channel 1, Analog Channel 2, Timestamp, Other, Timestamp (Formatted)
169.0, 10758.252234250574, 15333.833138207572, -63039.85423324755, -72644.04119778171, -58207.09415758779, -22888.38748793453, -17830.47829037646, -3546.193664812287, -0.22, 0.9560000000000001, 0.108, 192.0, 249.0, 32.0, 29.0, 224.0, 3.0, 96.0, 0.0, 0.0, 0.0, 1.700950047036031E9, 0.0, 2023-11-25 17:07:27.036
170.0, 10769.092830311398, 15399.591970395086, -63030.75707325424, -72620.52716261473, -58258.41376285718, -22810.37989978551, -17801.979816195944, -3475.6515593113377, -0.22, 0.9560000000000001, 0.108, 192.0, 0.0, 0.0, 0.0, 0.0, 0.0, 0.0, 0.0, 0.0, 0.0, 1.700950047036054E9, 0.0, 2023-11-25 17:07:27.036
0.0, 0.0, 0.0, 0.0, 0.0, 0.0, 0.0, 0.0, 0.0, -0.214, 0.9540000000000001, 0.138, 192.0, 249.0, 80.0, 29.0, 208.0, 4.0, 80.0, 0.0, 0.0, 0.0, 1.700950047109797E9, 0.0, 2023-11-25 17:07:27.109
1.0, 11347.444218092469, 11900.426375916764, -63611.25422850302, -66616.49097400796, -69255.96377324627, -149.44376342818302, -25109.189761780475, 21990.31674746475, -0.214, 0.9540000000000001, 0.138, 192.0, 0.0, 0.0, 0.0, 0.0, 0.0, 0.0, 0.0, 0.0, 0.0, 1.700950047126301E9, 0.0, 2023-11-25 17:07:27.126
2.0, 11426.010599852872, 12021.57283086453, -63537.26995435596, -66533.74481603442, -69256.343752902, -116.1396641897755, -25083.8205318237, 22045.950239414007, -0.214, 0.9540000000000001, 0.138, 192.0, 0.0, 0.0, 0.0, 0.0, 0.0, 0.0, 0.0, 0.0, 0.0, 1.70095004712929E9, 0.0, 2023-11-25 17:07:27.129
3.0, 11512.534202639366, 12080.29086354862, -63528.03868389591, -66512.62241752415, -69140.44995790123, 0.15646221118714942, -25033.81967947718, 22086.362193389203, -0.214, 0.9540000000000001, 0.138, 192.0, 0.0, 0.0, 0.0, 0.0, 0.0, 0.0, 0.0, 0.0, 0.0, 1.700950047133281E9, 0.0, 2023-11-25 17:07:27.133
4.0, 11393.846439581686, 11912.429262689266, -63642.92665039619, -66639.55797428584, -69170.35659198245, -52.66070993670344, -25107.78160187979, 21995.97173881194, -0.214, 0.9540000000000001, 0.138, 192.0, 0.0, 0.0, 0.0, 0.0, 0.0, 0.0, 0.0, 0.0, 0.0, 1.700950047137397E9, 0.0, 2023-11-25 17:07:27.137
5.0, 11351.802808261253, 11890.390442656333, -63610.44956570263, -66614.65813096263, -69249.12413944294, -134.17752196520829, -25134.827212670712, 22004.107773793672, -0.214, 0.9540000000000001, 0.138, 192.0, 0.0, 0.0, 0.0, 0.0, 0.0, 0.0, 0.0, 0.0, 0.0, 1.700950047140383E9, 0.0, 2023-11-25 17:07:27.140
6.0, 11423.775425407342, 12011.626304581918, -63544.42251258165, -66532.53782183383, -69250.59935457699, -86.43419580867241, -25103.49006694437, 22067.69848676902, -0.214, 0.9540000000000001, 0.138, 192.0, 0.0, 0.0, 0.0, 0.0, 0.0, 0.0, 0.0, 0.0, 0.0, 1.700950047144427E9, 0.0, 2023-11-25 17:07:27.144
7.0, 11519.820871331796, 12103.782546971148, -63513.80062267788, -66490.76241144686, -69156.09617901995, 6.102026236298828, -25051.142281430042, 22108.624530866688, -0.214, 0.9540000000000001, 0.138, 192.0, 0.0, 0.0, 0.0, 0.0, 0.0, 0.0, 0.0, 0.0, 0.0, 1.700950047148387E9, 0.0, 2023-11-25 17:07:27.148
8.0, 11427.016428353361, 11953.064734109013, -63636.19877531514, -66623.59882874475, -69142.57337362449, -4.045665746410578, -25107.44632571296, 22010.858000619173, -0.216, 0.9480000000000001, 0.152, 192.0, 249.0, 64.0, 29.0, 160.0, 4.0, 192.0, 0.0, 0.0, 0.0, 1.700950047152356E9, 0.0, 2023-11-25 17:07:27.152
9.0, 11352.898043739564, 11883.506105364098, -63613.4670512041, -66624.55995375632, -69240.71988352775, -121.25821367004082, -25139.141099350585, 21993.915378322054, -0.216, 0.9480000000000001, 0.152, 192.0, 0.0, 0.0, 0.0, 0.0, 0.0, 0.0, 0.0, 0.0, 0.0, 1.700950047156403E9, 0.0, 2023-11-25 17:07:27.156
10.0, 11391.477154669423, 11974.2765395971, -63572.78687629544, -66572.74861010893, -69266.8043693071, -91.53039354448242, -25128.032282356296, 22039.468233521966, -0.216, 0.9480000000000001, 0.152, 192.0, 0.0, 0.0, 0.0, 0.0, 0.0, 0.0, 0.0, 0.0, 0.0, 1.700950047160704E9, 0.0, 2023-11-25 17:07:27.160
11.0, 11498.720824565986, 12089.0527473751, -63513.15242208868, -66503.23468485293, -69198.92212139632, -22.44115143312829, -25087.508569658825, 22083.56822533229, -0.216, 0.9480000000000001, 0.152, 192.0, 0.0, 0.0, 0.0, 0.0, 0.0, 0.0, 0.0, 0.0, 0.0, 1.700950047165362E9, 0.0, 2023-11-25 17:07:27.165
12.0, 11452.765637965875, 11981.764373989627, -63619.85965011831, -66612.44530826155, -69142.30515269103, 20.31773570987412, -25108.608616424637, 22019.664587934567, -0.216, 0.9480000000000001, 0.152, 192.0, 0.0, 0.0, 0.0, 0.0, 0.0, 0.0, 0.0, 0.0, 0.0, 1.70095004716837E9, 0.0, 2023-11-25 17:07:27.168
13.0, 11368.231340435905, 11884.10960246439, -63606.20273425612, -66625.65518923465, -69235.73544451421, -102.23687913857451, -25138.425843528017, 21998.67629989103, -0.216, 0.9480000000000001, 0.152, 192.0, 0.0, 0.0, 0.0, 0.0, 0.0, 0.0, 0.0, 0.0, 0.0, 1.700950047172378E9, 0.0, 2023-11-25 17:07:27.172
14.0, 11388.236151723404, 11952.1706643308, -63578.64303334273, -66585.89143584865, -69273.97927927725, -87.77530047599083, -25140.146927851074, 22021.676244935545, -0.216, 0.9480000000000001, 0.152, 192.0, 0.0, 0.0, 0.0, 0.0, 0.0, 0.0, 0.0, 0.0, 0.0, 1.700950047177482E9, 0.0, 2023-11-25 17:07:27.177
15.0, 11500.598371100232, 12087.175200840855, -63498.62378819273, -66496.57386500524, -69221.31856934054, -36.25452950650806, -25097.835075597177, 22071.27476588187, -0.216, 0.9480000000000001, 0.152, 192.0, 0.0, 0.0, 0.0, 0.0, 0.0, 0.0, 0.0, 0.0, 0.0, 1.700950047180449E9, 0.0, 2023-11-25 17:07:27.180
16.0, 11483.007548213905, 12014.956714505759, -63593.7081091056, -66585.220883515, -69130.63754208536, 46.49162846703869, -25099.332642475685, 22026.973608371452, -0.216, 0.9480000000000001, 0.152, 192.0, 0.0, 0.0, 0.0, 0.0, 0.0, 0.0, 0.0, 0.0, 0.0, 1.700950047184381E9, 0.0, 2023-11-25 17:07:27.184
17.0, 11359.178883931505, 11866.96581446717, -63628.57683045588, -66644.65417202165, -69234.55080205809, -93.07266391189862, -25160.621125772137, 21977.196273469483, -0.216, 0.9480000000000001, 0.152, 192.0, 0.0, 0.0, 0.0, 0.0, 0.0, 0.0, 0.0, 0.0, 0.0, 1.700950047188432E9, 0.0, 2023-11-25 17:07:27.188
18.0, 11373.238131193893, 11926.309695996011, -63596.12209750678, -66604.4210320021, -69274.96275603327, -87.52943128698246, -25154.809672213756, 22024.045529847805, -0.214, 0.9540000000000001, 0.152, 192.0, 249.0, 80.0, 29.0, 208.0, 4.0, 192.0, 0.0, 0.0, 0.0, 1.700950047193433E9, 0.0, 2023-11-25 17:07:27.193
19.0, 11483.052251702817, 12068.958529109781, -63507.96681737505, -66506.87801919914, -69244.27381089613, -39.67434640817004, -25108.519209446815, 22083.925853243574, -0.214, 0.9540000000000001, 0.152, 192.0, 0.0, 0.0, 0.0, 0.0, 0.0, 0.0, 0.0, 0.0, 0.0, 1.700950047196499E9, 0.0, 2023-11-25 17:07:27.196
20.0, 11504.241705446448, 12046.159749765367, -63569.36705939378, -66557.4153134126, -69134.21382119821, 70.78797468995747, -25090.16842724901, 22069.911309470095, -0.214, 0.9540000000000001, 0.152, 192.0, 0.0, 0.0, 0.0, 0.0, 0.0, 0.0, 0.0, 0.0, 0.0, 1.700950047200464E9, 0.0, 2023-11-25 17:07:27.200
21.0, 11379.183695219004, 11885.338948409433, -63622.36304549731, -66637.21104111803, -69212.9366651698, -42.0883348093432, -25151.568669267737, 21996.530532423323, -0.214, 0.9540000000000001, 0.152, 192.0, 0.0, 0.0, 0.0, 0.0, 0.0, 0.0, 0.0, 0.0, 0.0, 1.700950047204445E9, 0.0, 2023-11-25 17:07:27.204
22.0, 11381.754145831364, 11922.219326760689, -63579.02301299847, -66592.99929058545, -69258.0424854806, -54.20298030411963, -25140.102224362163, 22027.845326405208, -0.214, 0.9540000000000001, 0.152, 192.0, 0.0, 0.0, 0.0, 0.0, 0.0, 0.0, 0.0, 0.0, 0.0, 1.700950047208557E9, 0.0, 2023-11-25 17:07:27.208
23.0, 11481.17470516857, 12067.326851764543, -63492.25354102297, -66496.68562372752, -69242.41861610636, -8.627773359748526, -25098.192703508463, 22100.4661441405, -0.214, 0.9540000000000001, 0.152, 192.0, 0.0, 0.0, 0.0, 0.0, 0.0, 0.0, 0.0, 0.0, 0.0, 1.70095004721253E9, 0.0, 2023-11-25 17:07:27.212
24.0, 11550.733333913486, 12100.63095100295, -63513.91238140016, -66503.01116740837, -69119.28285590206, 117.65958281273637, -25048.124795928576, 22135.223106768502, -0.214, 0.9540000000000001, 0.152, 192.0, 0.0, 0.0, 0.0, 0.0, 0.0, 0.0, 0.0, 0.0, 0.0, 1.700950047216522E9, 0.0, 2023-11-25 17:07:27.216
25.0, 11414.991189836406, 11915.916134824292, -63612.30476049242, -66621.54246825486, -69179.63256593139, 20.675363621159033, -25121.706738675446, 22036.048416620306, -0.214, 0.9540000000000001, 0.152, 192.0, 0.0, 0.0, 0.0, 0.0, 0.0, 0.0, 0.0, 0.0, 0.0, 1.700950047220482E9, 0.0, 2023-11-25 17:07:27.220
26.0, 11388.951407545974, 11917.771329614083, -63574.642071085225, -66586.1149532932, -69245.1455289299, -39.11555279678736, -25133.44140451448, 22049.07948363775, -0.214, 0.9540000000000001, 0.152, 192.0, 0.0, 0.0, 0.0, 0.0, 0.0, 0.0, 0.0, 0.0, 0.0, 1.700950047224492E9, 0.0, 2023-11-25 17:07:27.224
27.0, 11470.445867830023, 12051.121837034445, -63502.222419050035, -66497.26676908336, -69242.21745040626, 2.101063978798864, -25104.182971022485, 22107.37283317719, -0.22, 0.96, 0.16, 192.0, 249.0, 32.0, 30.0, 0.0, 5.0, 0.0, 0.0, 0.0, 0.0, 1.700950047227487E9, 0.0, 2023-11-25 17:07:27.227
28.0, 11557.595319461265, 12120.188727401344, -63496.3886137472, -66473.4845129829, -69133.9232485203, 105.14260591776443, -25060.686476312458, 22132.451490456046, -0.22, 0.96, 0.16, 192.0, 0.0, 0.0, 0.0, 0.0, 0.0, 0.0, 0.0, 0.0, 0.0, 1.700950047232522E9, 0.0, 2023-11-25 17:07:27.232
29.0, 11456.453675801002, 11970.096763383957, -63604.995740055536, -66589.04303181685, -69145.94848703724, 63.27778855297429, -25120.611503197135, 22044.273858579858, -0.22, 0.96, 0.16, 192.0, 0.0, 0.0, 0.0, 0.0, 0.0, 0.0, 0.0, 0.0, 0.0, 1.700950047236573E9, 0.0, 2023-11-25 17:07:27.236
30.0, 11389.823125579731, 11915.156175512813, -63594.423364928174, -66585.89143584865, -69249.63822956542, -44.47997146606105, -25155.6366867586, 22033.433262519036, -0.22, 0.96, 0.16, 192.0, 0.0, 0.0, 0.0, 0.0, 0.0, 0.0, 0.0, 0.0, 0.0, 1.700950047240873E9, 0.0, 2023-11-25 17:07:27.240
31.0, 11452.4527135435, 12026.601973366973, -63537.53817528942, -66512.35419659069, -69261.46230238228, -12.896956550712176, -25138.314084805737, 22077.17562641807, -0.22, 0.96, 0.16, 192.0, 0.0, 0.0, 0.0, 0.0, 0.0, 0.0, 0.0, 0.0, 0.0, 1.70095004724461E9, 0.0, 2023-11-25 17:07:27.244
32.0, 11559.294052039868, 12129.68821879485, -63497.126221314225, -66457.14538778608, -69169.06019080403, 75.41478579220603, -25092.76122960582, 22120.917990317106, -0.22, 0.96, 0.16, 192.0, 0.0, 0.0, 0.0, 0.0, 0.0, 0.0, 0.0, 0.0, 0.0, 1.700950047248597E9, 0.0, 2023-11-25 17:07:27.248
33.0, 11472.725745764465, 11986.435888580787, -63621.98306584157, -66587.3666509827, -69152.25167897364, 80.06394863890989, -25141.06334937374, 22031.712178195976, -0.22, 0.96, 0.16, 192.0, 0.0, 0.0, 0.0, 0.0, 0.0, 0.0, 0.0, 0.0, 0.0, 1.700950047252597E9, 0.0, 2023-11-25 17:07:27.252
34.0, 11387.431488923012, 11901.096928250425, -63612.08124304787, -66594.5192092084, -69259.78592154813, -46.513980211493994, -25172.691067778, 22011.819125630755, -0.22, 0.96, 0.16, 192.0, 0.0, 0.0, 0.0, 0.0, 0.0, 0.0, 0.0, 0.0, 0.0, 1.700950047255635E9, 0.0, 2023-11-25 17:07:27.255
35.0, 11430.88328014413, 11993.90137122886, -63570.97638499456, -66533.76716777887, -69282.27177647017, -17.076732763854597, -25149.668770989036, 22061.305887854804, -0.22, 0.96, 0.16, 192.0, 0.0, 0.0, 0.0, 0.0, 0.0, 0.0, 0.0, 0.0, 0.0, 1.700950047261613E9, 0.0, 2023-11-25 17:07:27.261
36.0, 11543.848996621251, 12121.060445435101, -63503.74233767299, -66452.27270749482, -69212.64609249188, 51.83369539185708, -25092.425953438993, 22118.74987110494, -0.22, 0.96, 0.16, 192.0, 0.0, 0.0, 0.0, 0.0, 0.0, 0.0, 0.0, 0.0, 0.0, 1.700950047264675E9, 0.0, 2023-11-25 17:07:27.264
37.0, 11501.738310067452, 12022.75747332066, -63609.01905405749, -66554.9119180336, -69143.46744340271, 108.51771933051579, -25106.14992453455, 22055.069751151772, -0.218, 0.9520000000000001, 0.16, 192.0, 249.0, 48.0, 29.0, 192.0, 5.0, 0.0, 0.0, 0.0, 0.0, 1.700950047268692E9, 0.0, 2023-11-25 17:07:27.268
38.0, 11391.007768035863, 11905.232000974656, -63622.56421119741, -66589.0653835613, -69253.3933226339, -37.28270975145218, -25159.50353854937, 21996.195256256495, -0.218, 0.9520000000000001, 0.16, 192.0, 0.0, 0.0, 0.0, 0.0, 0.0, 0.0, 0.0, 0.0, 0.0, 1.700950047272664E9, 0.0, 2023-11-25 17:07:27.272
39.0, 11418.343951504703, 11984.670100768817, -63588.34369043633, -66536.58348758024, -69283.18819799283, -10.594726871815547, -25145.667808731534, 22038.305942810293, -0.218, 0.9520000000000001, 0.16, 192.0, 0.0, 0.0, 0.0, 0.0, 0.0, 0.0, 0.0, 0.0, 0.0, 1.700950047276686E9, 0.0, 2023-11-25 17:07:27.276
40.0, 11534.640077905666, 12128.771797272182, -63504.56935221784, -66439.42045443303, -69230.14750840039, 50.336128513351504, -25091.375421449593, 22103.50598138642, -0.218, 0.9520000000000001, 0.16, 192.0, 0.0, 0.0, 0.0, 0.0, 0.0, 0.0, 0.0, 0.0, 0.0, 1.700950047280702E9, 0.0, 2023-11-25 17:07:27.280
41.0, 11509.092033993249, 12054.38519172492, -63610.91895233619, -66535.84588001322, -69147.40135042684, 130.24361494107424, -25096.404563952037, 22052.298134839315, -0.218, 0.9520000000000001, 0.16, 192.0, 0.0, 0.0, 0.0, 0.0, 0.0, 0.0, 0.0, 0.0, 0.0, 1.700950047283683E9, 0.0, 2023-11-25 17:07:27.283
42.0, 11369.72890731441, 11886.456535632198, -63661.88092969429, -66614.27815130689, -69261.596412849, -21.77059909946908, -25172.73577126691, 21971.653040844565, -0.218, 0.9520000000000001, 0.16, 192.0, 0.0, 0.0, 0.0, 0.0, 0.0, 0.0, 0.0, 0.0, 0.0, 1.70095004728844E9, 0.0, 2023-11-25 17:07:27.288
43.0, 11383.810506321253, 11940.324239769488, -63621.46897571909, -66567.00421178392, -69296.91216908839, -14.61804087377082, -25165.516157807848, 22010.65683491908, -0.218, 0.9520000000000001, 0.16, 192.0, 0.0, 0.0, 0.0, 0.0, 0.0, 0.0, 0.0, 0.0, 0.0, 1.700950047292745E9, 0.0, 2023-11-25 17:07:27.292
44.0, 11489.042519216839, 12084.872971161958, -63537.873451456246, -66469.61766119214, -69268.92778503035, 29.638413147737165, -25127.138212578084, 22075.096914183727, -0.218, 0.9520000000000001, 0.16, 192.0, 0.0, 0.0, 0.0, 0.0, 0.0, 0.0, 0.0, 0.0, 0.0, 1.700950047296768E9, 0.0, 2023-11-25 17:07:27.296
45.0, 11521.072569021293, 12075.39583151291, -63593.797516083425, -66511.12485064565, -69153.48102491868, 143.3640889363395, -25095.30932847373, 22072.37000136018, -0.218, 0.9520000000000001, 0.16, 192.0, 0.0, 0.0, 0.0, 0.0, 0.0, 0.0, 0.0, 0.0, 0.0, 1.700950047301124E9, 0.0, 2023-11-25 17:07:27.301
46.0, 11390.247808724382, 11912.541021411542, -63662.238557605575, -66602.87876163468, -69230.77335724514, 30.644241648225982, -25159.34707633818, 21986.002860784873, -0.218, 0.9520000000000001, 0.16, 192.0, 0.0, 0.0, 0.0, 0.0, 0.0, 0.0, 0.0, 0.0, 0.0, 1.700950047304758E9, 0.0, 2023-11-25 17:07:27.304
47.0, 11373.975738760917, 11930.802396631527, -63628.465071733604, -66566.22190072798, -69284.64106138243, 0.49173837801675535, -25163.68331476251, 22008.846343618196, -0.20800000000000002, 0.9480000000000001, 0.164, 192.0, 249.0, 128.0, 29.0, 160.0, 5.0, 32.0, 0.0, 0.0, 0.0, 1.700950047307757E9, 0.0, 2023-11-25 17:07:27.307
48.0, 11457.168931623572, 12057.62619467094, -63541.919117202655, -66467.62835593562, -69264.1445117169, 50.87257038027887, -25119.985654352386, 22091.570149847288, -0.20800000000000002, 0.9480000000000001, 0.164, 192.0, 0.0, 0.0, 0.0, 0.0, 0.0, 0.0, 0.0, 0.0, 0.0, 1.700950047313034E9, 0.0, 2023-11-25 17:07:27.313
49.0, 11517.652752119631, 12090.259741575688, -63565.4555041141, -66475.80909440626, -69149.65887661683, 165.4923159470935, -25080.69128759996, 22116.84997282624, -0.20800000000000002, 0.9480000000000001, 0.164, 192.0, 0.0, 0.0, 0.0, 0.0, 0.0, 0.0, 0.0, 0.0, 0.0, 1.700950047317031E9, 0.0, 2023-11-25 17:07:27.317
50.0, 11409.179736278027, 11939.877204880382, -63653.83430169038, -66579.20826425651, -69187.79095265758, 91.06100691092098, -25146.27130583183, 22030.393425273112, -0.20800000000000002, 0.9480000000000001, 0.164, 192.0, 0.0, 0.0, 0.0, 0.0, 0.0, 0.0, 0.0, 0.0, 0.0, 1.700950047319858E9, 0.0, 2023-11-25 17:07:27.319
51.0, 11373.238131193893, 11930.534175698063, -63624.32999900937, -66553.14613022162, -69260.0988459705, 20.205976987597584, -25165.493806063394, 22036.49545150941, -0.20800000000000002, 0.9480000000000001, 0.164, 192.0, 0.0, 0.0, 0.0, 0.0, 0.0, 0.0, 0.0, 0.0, 0.0, 1.700950047324807E9, 0.0, 2023-11-25 17:07:27.324
52.0, 11451.536292020834, 12056.083924303524, -63546.9482597051, -66460.90048085457, -69250.80052027709, 67.56932348839325, -25124.00896835434, 22112.469030913002, -0.20800000000000002, 0.9480000000000001, 0.164, 192.0, 0.0, 0.0, 0.0, 0.0, 0.0, 0.0, 0.0, 0.0, 0.0, 1.700950047328794E9, 0.0, 2023-11-25 17:07:27.328
53.0, 11526.99578130195, 12109.39283482943, -63553.92200397516, -66449.12111152662, -69163.6287169014, 159.39028971079466, -25090.48135167138, 22138.017074825417, -0.20800000000000002, 0.9480000000000001, 0.164, 192.0, 0.0, 0.0, 0.0, 0.0, 0.0, 0.0, 0.0, 0.0, 0.0, 1.700950047331789E9, 0.0, 2023-11-25 17:07:27.331
54.0, 11414.186527036016, 11942.961745615214, -63681.10342992585, -66585.98084282647, -69187.63449044639, 103.39916985025047, -25172.73577126691, 22013.987244842916, -0.20800000000000002, 0.9480000000000001, 0.164, 192.0, 0.0, 0.0, 0.0, 0.0, 0.0, 0.0, 0.0, 0.0, 0.0, 1.700950047336817E9, 0.0, 2023-11-25 17:07:27.336
55.0, 11355.893177496575, 11895.956027025704, -63657.29882208096, -66575.83315084375, -69278.36022119048, -3.1068924792876818, -25206.84453330571, 22000.10681153617, -0.20800000000000002, 0.9480000000000001, 0.164, 192.0, 0.0, 0.0, 0.0, 0.0, 0.0, 0.0, 0.0, 0.0, 0.0, 1.700950047340841E9, 0.0, 2023-11-25 17:07:27.340
56.0, 11412.241925268403, 12002.752662033161, -63601.73238536506, -66504.32992033123, -69287.41267769488, 39.964919086089026, -25182.727001038435, 22084.574053832777, -0.20800000000000002, 0.9480000000000001, 0.164, 192.0, 0.0, 0.0, 0.0, 0.0, 0.0, 0.0, 0.0, 0.0, 0.0, 1.700950047344011E9, 0.0, 2023-11-25 17:07:27.344
57.0, 11521.385493443668, 12113.483204064752, -63554.57020456436, -66445.47777718041, -69199.21269407425, 127.98608875108825, -25130.088642846185, 22148.701208675055, -0.21, 0.9540000000000001, 0.168, 192.0, 249.0, 112.0, 29.0, 208.0, 5.0, 64.0, 0.0, 0.0, 0.0, 1.700950047347889E9, 0.0, 2023-11-25 17:07:27.347
58.0, 11457.303042090303, 11993.677853784306, -63656.69532498066, -66558.48819714645, -69155.55973715303, 149.28730121699587, -25157.223660614927, 22078.919062485584, -0.21, 0.9540000000000001, 0.168, 192.0, 0.0, 0.0, 0.0, 0.0, 0.0, 0.0, 0.0, 0.0, 0.0, 1.700950047352912E9, 0.0, 2023-11-25 17:07:27.352
59.0, 11371.472343381924, 11904.807317830006, -63646.100598108846, -66575.90020607713, -69260.36706690396, 14.886261807234504, -25192.65117557659, 22054.89093719613, -0.21, 0.9540000000000001, 0.168, 192.0, 0.0, 0.0, 0.0, 0.0, 0.0, 0.0, 0.0, 0.0, 0.0, 1.700950047357004E9, 0.0, 2023-11-25 17:07:27.357
60.0, 11418.120434060149, 12001.769185277128, -63598.267864974485, -66518.16565014907, -69278.42727642386, 43.94352959913368, -25177.809617258266, 22105.76350757641, -0.21, 0.9540000000000001, 0.168, 192.0, 0.0, 0.0, 0.0, 0.0, 0.0, 0.0, 0.0, 0.0, 0.0, 1.700950047359983E9, 0.0, 2023-11-25 17:07:27.359
61.0, 11540.607993675232, 12139.411227632909, -63515.96874189004, -66428.95983802793, -69202.7889731871, 120.63236482529221, -25119.203343296453, 22173.288127575892, -0.21, 0.9540000000000001, 0.168, 192.0, 0.0, 0.0, 0.0, 0.0, 0.0, 0.0, 0.0, 0.0, 0.0, 1.700950047363908E9, 0.0, 2023-11-25 17:07:27.363
62.0, 11503.839374046252, 12041.801159596582, -63622.36304549731, -66538.32692364775, -69133.83384154247, 181.29499927699558, -25135.028378370807, 22112.647844868643, -0.21, 0.9540000000000001, 0.168, 192.0, 0.0, 0.0, 0.0, 0.0, 0.0, 0.0, 0.0, 0.0, 0.0, 1.700950047367888E9, 0.0, 2023-11-25 17:07:27.367
63.0, 11388.616131379144, 11908.87533532087, -63642.770188185, -66592.93223535207, -69249.10178769848, 33.16998877167568, -25193.947576755, 22054.823881962762, -0.21, 0.9540000000000001, 0.168, 192.0, 0.0, 0.0, 0.0, 0.0, 0.0, 0.0, 0.0, 0.0, 0.0, 1.700950047371928E9, 0.0, 2023-11-25 17:07:27.371
64.0, 11410.699654900987, 11977.763411732127, -63601.128888264764, -66548.4075603971, -69276.08034325605, 58.71803268409165, -25177.764913769355, 22106.344652932246, -0.21, 0.9540000000000001, 0.168, 192.0, 0.0, 0.0, 0.0, 0.0, 0.0, 0.0, 0.0, 0.0, 0.0, 1.700950047376379E9, 0.0, 2023-11-25 17:07:27.376
65.0, 11529.834452847774, 12125.888422237447, -63499.60726494876, -66443.55552715725, -69214.47893553722, 133.41756265372786, -25108.40745072454, 22194.298767363878, -0.21, 0.9540000000000001, 0.168, 192.0, 0.0, 0.0, 0.0, 0.0, 0.0, 0.0, 0.0, 0.0, 0.0, 1.700950047384599E9, 0.0, 2023-11-25 17:07:27.384
66.0, 11515.775205585385, 12062.878854617937, -63597.6643678742, -66538.9527724925, -69129.16232695131, 224.61268003138068, -25106.574607679202, 22158.938307635584, -0.21, 0.9540000000000001, 0.168, 192.0, 0.0, 0.0, 0.0, 0.0, 0.0, 0.0, 0.0, 0.0, 0.0, 1.700950047385933E9, 0.0, 2023-11-25 17:07:27.385
67.0, 11382.379994676114, 11900.851059061415, -63649.520415010506, -66625.18580260107, -69238.08237768202, 76.48766952606077, -25172.35579161117, 22090.60902483571, -0.216, 0.9580000000000001, 0.16, 192.0, 249.0, 64.0, 29.0, 240.0, 5.0, 0.0, 0.0, 0.0, 0.0, 1.70095004738999E9, 0.0, 2023-11-25 17:07:27.389
68.0, 11401.155460018572, 11958.250338822645, -63603.05113828792, -66579.18591251205, -69270.58181412004, 86.09891964184281, -25145.891326176086, 22144.208508039537, -0.216, 0.9580000000000001, 0.16, 192.0, 0.0, 0.0, 0.0, 0.0, 0.0, 0.0, 0.0, 0.0, 0.0, 1.700950047392997E9, 0.0, 2023-11-25 17:07:27.392
69.0, 11487.65671106061, 12088.069270619068, -63527.21166935107, -66496.86443768317, -69254.33209590103, 125.25917592754078, -25116.230561283897, 22197.807991243364, -0.216, 0.9580000000000001, 0.16, 192.0, 0.0, 0.0, 0.0, 0.0, 0.0, 0.0, 0.0, 0.0, 0.0, 1.700950047396168E9, 0.0, 2023-11-25 17:07:27.396
70.0, 11517.585696886266, 12078.189799569822, -63580.74409732153, -66539.86919401518, -69143.08746374697, 233.3075086244951, -25090.749572604844, 22186.81093297135, -0.216, 0.9580000000000001, 0.16, 192.0, 0.0, 0.0, 0.0, 0.0, 0.0, 0.0, 0.0, 0.0, 0.0, 1.700950047399964E9, 0.0, 2023-11-25 17:07:27.399
71.0, 11396.394538449591, 11911.490489422142, -63648.671048721204, -66635.42290156161, -69216.11061288245, 123.53809160448213, -25149.534660522302, 22105.271769198393, -0.216, 0.9580000000000001, 0.16, 192.0, 0.0, 0.0, 0.0, 0.0, 0.0, 0.0, 0.0, 0.0, 0.0, 1.700950047404007E9, 0.0, 2023-11-25 17:07:27.404
72.0, 11382.692919098488, 11929.64010591985, -63619.77024314049, -66608.28788379287, -69280.84126482502, 82.79086146245736, -25158.36359958215, 22128.651693898642, -0.216, 0.9580000000000001, 0.16, 192.0, 0.0, 0.0, 0.0, 0.0, 0.0, 0.0, 0.0, 0.0, 0.0, 1.700950047409036E9, 0.0, 2023-11-25 17:07:27.409
73.0, 11467.964824195484, 12062.208302284278, -63545.74126550452, -66520.57963855025, -69275.92388104486, 113.77037927751294, -25140.281038317808, 22189.157866139158, -0.216, 0.9580000000000001, 0.16, 192.0, 0.0, 0.0, 0.0, 0.0, 0.0, 0.0, 0.0, 0.0, 0.0, 1.70095004741306E9, 0.0, 2023-11-25 17:07:27.413
74.0, 11532.628420904688, 12100.809764958592, -63559.86756800027, -66520.26671412787, -69160.74534186666, 224.43386607573822, -25103.959453577932, 22209.788526271408, -0.216, 0.9580000000000001, 0.16, 192.0, 0.0, 0.0, 0.0, 0.0, 0.0, 0.0, 0.0, 0.0, 0.0, 1.700950047416011E9, 0.0, 2023-11-25 17:07:27.416
75.0, 11433.923117390052, 11951.142484085856, -63637.58458347137, -66614.50166875144, -69180.45958047624, 161.93838857869966, -25161.78341648381, 22124.38251070768, -0.216, 0.9580000000000001, 0.16, 192.0, 0.0, 0.0, 0.0, 0.0, 0.0, 0.0, 0.0, 0.0, 0.0, 1.700950047420036E9, 0.0, 2023-11-25 17:07:27.420
76.0, 11403.5918001642, 11937.016181590103, -63607.499135434526, -66590.719412651, -69254.22033717875, 84.62370450779254, -25178.83779750321, 22118.70516761603, -0.216, 0.9580000000000001, 0.16, 192.0, 0.0, 0.0, 0.0, 0.0, 0.0, 0.0, 0.0, 0.0, 0.0, 1.70095004742402E9, 0.0, 2023-11-25 17:07:27.424
77.0, 11455.35844032269, 12034.201566481777, -63564.91906224717, -66541.14324344913, -69278.51668340167, 103.510928572527, -25170.299431121282, 22159.273583802413, -0.214, 0.9560000000000001, 0.154, 192.0, 249.0, 80.0, 29.0, 224.0, 4.0, 208.0, 0.0, 0.0, 0.0, 1.700950047428106E9, 0.0, 2023-11-25 17:07:27.428
78.0, 11545.391266988669, 12109.236372618243, -63541.00269567999, -66511.52718204584, -69177.01741183012, 201.76919719805684, -25118.86806712962, 22223.288979922414, -0.214, 0.9560000000000001, 0.154, 192.0, 0.0, 0.0, 0.0, 0.0, 0.0, 0.0, 0.0, 0.0, 0.0, 1.700950047432049E9, 0.0, 2023-11-25 17:07:27.432
79.0, 11444.920175662062, 11958.384449289377, -63654.1248743683, -66640.58615453079, -69177.35268799696, 181.3173510214509, -25167.907794464565, 22143.493252216966, -0.214, 0.9560000000000001, 0.154, 192.0, 0.0, 0.0, 0.0, 0.0, 0.0, 0.0, 0.0, 0.0, 0.0, 1.700950047437068E9, 0.0, 2023-11-25 17:07:27.437
80.0, 11378.423735907523, 11899.398195671822, -63630.40967350122, -66640.58615453079, -69274.38161067743, 67.59167523284856, -25198.999071001897, 22120.582714150278, -0.214, 0.9560000000000001, 0.154, 192.0, 0.0, 0.0, 0.0, 0.0, 0.0, 0.0, 0.0, 0.0, 0.0, 1.700950047441073E9, 0.0, 2023-11-25 17:07:27.441
81.0, 11442.148559349604, 12009.569944092029, -63566.036649469934, -66568.59118564024, -69279.94719504681, 112.71984728811351, -25166.812558986254, 22186.00627017096, -0.214, 0.9560000000000001, 0.154, 192.0, 0.0, 0.0, 0.0, 0.0, 0.0, 0.0, 0.0, 0.0, 0.0, 1.70095004744408E9, 0.0, 2023-11-25 17:07:27.444
82.0, 11556.209511305036, 12125.262573392698, -63506.89393364119, -66502.85470519718, -69191.00960385914, 203.78085419903448, -25096.96335756342, 22249.105244768292, -0.214, 0.9560000000000001, 0.154, 192.0, 0.0, 0.0, 0.0, 0.0, 0.0, 0.0, 0.0, 0.0, 0.0, 1.70095004744832E9, 0.0, 2023-11-25 17:07:27.448
83.0, 11470.5576265523, 11987.575827548008, -63640.89264165076, -66644.11773015473, -69167.4732169477, 218.08597065043102, -25147.008913398855, 22155.47378724501, -0.214, 0.9560000000000001, 0.154, 192.0, 0.0, 0.0, 0.0, 0.0, 0.0, 0.0, 0.0, 0.0, 0.0, 1.700950047452106E9, 0.0, 2023-11-25 17:07:27.452
84.0, 11362.397535133068, 11876.912340749783, -63648.93926965467, -66680.99810850598, -69291.88302658594, 63.94834088663351, -25214.08649850923, 22102.723670330488, -0.214, 0.9560000000000001, 0.154, 192.0, 0.0, 0.0, 0.0, 0.0, 0.0, 0.0, 0.0, 0.0, 0.0, 1.700950047456137E9, 0.0, 2023-11-25 17:07:27.456
85.0, 11410.409082223068, 11976.332900086987, -63588.74602183652, -66613.20526757304, -69300.62255866796, 107.31072512992921, -25187.040887718307, 22169.980069396504, -0.214, 0.9560000000000001, 0.154, 192.0, 0.0, 0.0, 0.0, 0.0, 0.0, 0.0, 0.0, 0.0, 0.0, 1.700950047460107E9, 0.0, 2023-11-25 17:07:27.460
86.0, 11519.954981798528, 12098.239314346232, -63518.11450935776, -66532.51547008938, -69240.71988352775, 179.7750806540347, -25133.7319771924, 22253.30737272589, -0.214, 0.9560000000000001, 0.154, 192.0, 0.0, 0.0, 0.0, 0.0, 0.0, 0.0, 0.0, 0.0, 0.0, 1.700950047464131E9, 0.0, 2023-11-25 17:07:27.464
87.0, 11489.377795383669, 12009.413481880842, -63624.17353679819, -66631.60075325976, -69165.03687680207, 247.36675588688325, -25147.45594828796, 22206.34635762529, -0.212, 0.9540000000000001, 0.156, 192.0, 249.0, 96.0, 29.0, 208.0, 4.0, 224.0, 0.0, 0.0, 0.0, 1.700950047469123E9, 0.0, 2023-11-25 17:07:27.469
88.0, 11382.40234642057, 11889.429317644754, -63638.121025338296, -66668.03409672191, -69265.23974719521, 104.06972218390969, -25198.50733262388, 22150.466996487023, -0.212, 0.9540000000000001, 0.156, 192.0, 0.0, 0.0, 0.0, 0.0, 0.0, 0.0, 0.0, 0.0, 0.0, 1.700950047472151E9, 0.0, 2023-11-25 17:07:27.472
89.0, 11412.085463057216, 11965.51465577062, -63597.35144345182, -66612.64647396165, -69291.86067484149, 125.61680383882569, -25170.88057647712, 22199.014985443948, -0.212, 0.9540000000000001, 0.156, 192.0, 0.0, 0.0, 0.0, 0.0, 0.0, 0.0, 0.0, 0.0, 0.0, 1.700950047476171E9, 0.0, 2023-11-25 17:07:27.476
90.0, 11516.602220130233, 12097.255837590199, -63516.88516341271, -66516.46691757046, -69254.33209590103, 172.734281150613, -25115.045918827764, 22262.65040190821, -0.212, 0.9540000000000001, 0.156, 192.0, 0.0, 0.0, 0.0, 0.0, 0.0, 0.0, 0.0, 0.0, 0.0, 1.700950047481348E9, 0.0, 2023-11-25 17:07:27.481
91.0, 11513.405920673124, 12046.42797069883, -63598.17845799666, -66587.5678166828, -69155.76090285313, 267.97506427467636, -25108.318043746716, 22234.576610872344, -0.212, 0.9540000000000001, 0.156, 192.0, 0.0, 0.0, 0.0, 0.0, 0.0, 0.0, 0.0, 0.0, 0.0, 1.700950047484171E9, 0.0, 2023-11-25 17:07:27.484
92.0, 11380.748317330876, 11888.423489144265, -63655.957717413636, -66671.99035549049, -69259.36123840348, 120.9005857587559, -25180.290660892806, 22147.985952852483, -0.212, 0.9540000000000001, 0.156, 192.0, 0.0, 0.0, 0.0, 0.0, 0.0, 0.0, 0.0, 0.0, 0.0, 1.700950047488174E9, 0.0, 2023-11-25 17:07:27.488
93.0, 11393.265294225848, 11939.206652546723, -63615.94809483863, -66625.8787066792, -69301.1590005349, 113.39039962177273, -25172.467550333447, 22186.565063782342, -0.212, 0.9540000000000001, 0.156, 192.0, 0.0, 0.0, 0.0, 0.0, 0.0, 0.0, 0.0, 0.0, 0.0, 1.700950047492183E9, 0.0, 2023-11-25 17:07:27.492
94.0, 11474.782106254353, 12053.491121946709, -63547.39529459421, -66546.15003420711, -69294.2523114982, 141.508894146549, -25154.63085825811, 22234.129575983236, -0.212, 0.9540000000000001, 0.156, 192.0, 0.0, 0.0, 0.0, 0.0, 0.0, 0.0, 0.0, 0.0, 0.0, 1.700950047497289E9, 0.0, 2023-11-25 17:07:27.497
95.0, 11532.337848226769, 12067.05863083108, -63572.25043442851, -66560.58926112525, -69164.18751051277, 258.43086939226026, -25119.44921248546, 22248.83702383483, -0.212, 0.9540000000000001, 0.156, 192.0, 0.0, 0.0, 0.0, 0.0, 0.0, 0.0, 0.0, 0.0, 0.0, 1.700950047500226E9, 0.0, 2023-11-25 17:07:27.500
96.0, 11411.101986301182, 11909.322370209977, -63645.675914964195, -66657.84170125029, -69225.52069729814, 154.4058506972612, -25194.55107385529, 22169.041296129384, -0.212, 0.9540000000000001, 0.156, 192.0, 0.0, 0.0, 0.0, 0.0, 0.0, 0.0, 0.0, 0.0, 0.0, 1.700950047504189E9, 0.0, 2023-11-25 17:07:27.504
97.0, 11390.761898846853, 11922.375788971876, -63621.02194082999, -66630.99725615946, -69293.73822137574, 102.50510007203819, -25209.392632173614, 22182.698211991574, -0.20600000000000002, 0.9540000000000001, 0.162, 192.0, 249.0, 144.0, 29.0, 208.0, 5.0, 16.0, 0.0, 0.0, 0.0, 1.700950047508621E9, 0.0, 2023-11-25 17:07:27.508
98.0, 11481.37587086867, 12058.38615398242, -63542.45555906958, -66540.18211843754, -69285.4010206939, 140.2124929681412, -25181.072971948743, 22241.125671997746, -0.20600000000000002, 0.9540000000000001, 0.162, 192.0, 0.0, 0.0, 0.0, 0.0, 0.0, 0.0, 0.0, 0.0, 0.0, 1.700950047512261E9, 0.0, 2023-11-25 17:07:27.512
99.0, 11560.366935773724, 12107.515288295184, -63547.61881203876, -66532.53782183383, -69169.3284117375, 255.9498257577212, -25143.522041263826, 22272.239300279536, -0.20600000000000002, 0.9540000000000001, 0.162, 192.0, 0.0, 0.0, 0.0, 0.0, 0.0, 0.0, 0.0, 0.0, 0.0, 1.700950047515275E9, 0.0, 2023-11-25 17:07:27.515
100.0, 11446.149521607103, 11946.850949150437, -63646.07824636439, -66650.80090174686, -69198.67625220731, 194.77310118354575, -25208.878542051145, 22178.473732289523, -0.20600000000000002, 0.9540000000000001, 0.162, 192.0, 0.0, 0.0, 0.0, 0.0, 0.0, 0.0, 0.0, 0.0, 0.0, 1.700950047520234E9, 0.0, 2023-11-25 17:07:27.520
101.0, 11407.056320554771, 11932.83640537696, -63608.88494359076, -66626.2810380794, -69274.62747986645, 117.4360653681833, -25222.915437569078, 22188.308499849856, -0.20600000000000002, 0.9540000000000001, 0.162, 192.0, 0.0, 0.0, 0.0, 0.0, 0.0, 0.0, 0.0, 0.0, 0.0, 1.700950047524253E9, 0.0, 2023-11-25 17:07:27.524
102.0, 11485.287426148347, 12063.81762788506, -63537.873451456246, -66547.91582201909, -69276.41561942287, 163.79358336849015, -25184.761009783866, 22256.25780299399, -0.20600000000000002, 0.9540000000000001, 0.162, 192.0, 0.0, 0.0, 0.0, 0.0, 0.0, 0.0, 0.0, 0.0, 0.0, 1.700950047528334E9, 0.0, 2023-11-25 17:07:27.528
103.0, 11582.584569762299, 12146.899062025435, -63510.06788135385, -66515.50579255889, -69182.00185084365, 257.40268914731615, -25128.993407367874, 22298.144972103237, -0.20600000000000002, 0.9540000000000001, 0.162, 192.0, 0.0, 0.0, 0.0, 0.0, 0.0, 0.0, 0.0, 0.0, 0.0, 1.700950047532273E9, 0.0, 2023-11-25 17:07:27.532
104.0, 11480.817077257285, 11985.363004846931, -63628.755644411525, -66650.64443953568, -69180.57133919852, 236.95084297071017, -25188.22553017444, 22197.942101710094, -0.20600000000000002, 0.9540000000000001, 0.162, 192.0, 0.0, 0.0, 0.0, 0.0, 0.0, 0.0, 0.0, 0.0, 0.0, 1.700950047536257E9, 0.0, 2023-11-25 17:07:27.536
105.0, 11400.127279773627, 11909.814108587994, -63615.612818671805, -66658.51225358395, -69286.25038698321, 111.46814959861632, -25225.105908525697, 22166.537900750387, -0.20600000000000002, 0.9540000000000001, 0.162, 192.0, 0.0, 0.0, 0.0, 0.0, 0.0, 0.0, 0.0, 0.0, 0.0, 1.700950047541308E9, 0.0, 2023-11-25 17:07:27.541
106.0, 11443.109684361183, 12008.005321980158, -63574.3067949184, -66605.42686050259, -69310.50202971722, 137.82085631142334, -25210.689033352024, 22202.68067153462, -0.20600000000000002, 0.9540000000000001, 0.162, 192.0, 0.0, 0.0, 0.0, 0.0, 0.0, 0.0, 0.0, 0.0, 0.0, 1.700950047545417E9, 0.0, 2023-11-25 17:07:27.545
107.0, 11542.865519865218, 12113.550259298117, -63529.51389902996, -66548.94400226403, -69241.39043586141, 213.86149094837796, -25154.384989069105, 22265.31025949839, -0.20800000000000002, 0.9520000000000001, 0.162, 192.0, 249.0, 128.0, 29.0, 192.0, 5.0, 16.0, 0.0, 0.0, 0.0, 1.70095004754836E9, 0.0, 2023-11-25 17:07:27.548
108.0, 11470.98230969695, 11985.98885369168, -63650.705057466635, -66673.26440492444, -69201.20199933076, 242.65053780681347, -25185.632727817625, 22202.568912812345, -0.20800000000000002, 0.9520000000000001, 0.162, 192.0, 0.0, 0.0, 0.0, 0.0, 0.0, 0.0, 0.0, 0.0, 0.0, 1.700950047552405E9, 0.0, 2023-11-25 17:07:27.552
109.0, 11382.82702956522, 11892.06682349048, -63633.717731680605, -66679.76876256094, -69291.9053783304, 118.93363224668889, -25212.56657988627, 22195.841037731298, -0.20800000000000002, 0.9520000000000001, 0.162, 192.0, 0.0, 0.0, 0.0, 0.0, 0.0, 0.0, 0.0, 0.0, 0.0, 1.700950047557416E9, 0.0, 2023-11-25 17:07:27.557
110.0, 11427.21759405346, 11988.04521418157, -63580.47587638806, -66612.4229565171, -69303.57298893607, 161.4019467117723, -25182.727001038435, 22258.425922206156, -0.20800000000000002, 0.9520000000000001, 0.162, 192.0, 0.0, 0.0, 0.0, 0.0, 0.0, 0.0, 0.0, 0.0, 0.0, 1.700950047561358E9, 0.0, 2023-11-25 17:07:27.561
111.0, 11534.3718569722, 12112.656189519905, -63510.04552960939, -66532.51547008938, -69251.06874121055, 219.96351718467682, -25134.804860926255, 22316.02636766748, -0.20800000000000002, 0.9520000000000001, 0.162, 192.0, 0.0, 0.0, 0.0, 0.0, 0.0, 0.0, 0.0, 0.0, 0.0, 1.700950047566371E9, 0.0, 2023-11-25 17:07:27.566
112.0, 11499.838411788753, 12016.81190929555, -63620.083167562865, -66639.35680858574, -69184.14761831137, 281.76609060360084, -25150.56284076725, 22257.06246579438, -0.20800000000000002, 0.9520000000000001, 0.162, 192.0, 0.0, 0.0, 0.0, 0.0, 0.0, 0.0, 0.0, 0.0, 0.0, 1.700950047569366E9, 0.0, 2023-11-25 17:07:27.569
113.0, 11396.551000660778, 11887.887047277338, -63631.88488863527, -66679.07585848283, -69279.88013981344, 145.15222849276407, -25192.628823832136, 22205.854619247275, -0.20800000000000002, 0.9520000000000001, 0.162, 192.0, 0.0, 0.0, 0.0, 0.0, 0.0, 0.0, 0.0, 0.0, 0.0, 1.700950047572425E9, 0.0, 2023-11-25 17:07:27.572
114.0, 11426.234117297427, 11960.597271990451, -63588.52250439197, -66624.85052643425, -69305.98697733725, 166.65460665876947, -25173.11575092265, 22259.476454195556, -0.20800000000000002, 0.9520000000000001, 0.162, 192.0, 0.0, 0.0, 0.0, 0.0, 0.0, 0.0, 0.0, 0.0, 0.0, 1.700950047576392E9, 0.0, 2023-11-25 17:07:27.576
115.0, 11527.08518827977, 12090.192686342321, -63514.47117501154, -66537.29874340282, -69276.68384035633, 209.61465950186962, -25130.558029479747, 22323.71536776011, -0.20800000000000002, 0.9520000000000001, 0.162, 192.0, 0.0, 0.0, 0.0, 0.0, 0.0, 0.0, 0.0, 0.0, 0.0, 1.700950047580413E9, 0.0, 2023-11-25 17:07:27.580
116.0, 11546.106522811238, 12056.508607448175, -63581.258187444, -66593.40162198563, -69164.36632446841, 319.0264486105977, -25109.525037947304, 22309.32084433089, -0.20800000000000002, 0.9520000000000001, 0.162, 192.0, 0.0, 0.0, 0.0, 0.0, 0.0, 0.0, 0.0, 0.0, 0.0, 1.700950047584408E9, 0.0, 2023-11-25 17:07:27.584
117.0, 11403.949428075484, 11884.511933864587, -63646.59233648686, -66685.84843705279, -69262.51283437166, 182.85962138886708, -25191.622995331647, 22216.359939141268, -0.22, 0.9460000000000001, 0.166, 192.0, 249.0, 32.0, 29.0, 144.0, 5.0, 48.0, 0.0, 0.0, 0.0, 1.700950047588388E9, 0.0, 2023-11-25 17:07:27.588
118.0, 11418.947448604995, 11942.51471072611, -63594.19984748362, -66629.8796689367, -69294.56523592059, 180.7138539211576, -25182.7940562718, 22266.383143232244, -0.22, 0.9460000000000001, 0.166, 192.0, 0.0, 0.0, 0.0, 0.0, 0.0, 0.0, 0.0, 0.0, 0.0, 1.70095004759241E9, 0.0, 2023-11-25 17:07:27.592
119.0, 11518.368007942201, 12074.05472684559, -63518.87446866924, -66546.15003420711, -69281.62357588096, 219.85175846240026, -25159.97292518293, 22359.2769931885, -0.22, 0.9460000000000001, 0.166, 192.0, 0.0, 0.0, 0.0, 0.0, 0.0, 0.0, 0.0, 0.0, 0.0, 1.700950047595454E9, 0.0, 2023-11-25 17:07:27.595
120.0, 11570.313462056334, 12083.665976961373, -63562.259204656984, -66577.82245610029, -69174.64812691786, 324.3908672798714, -25147.433596543506, 22358.964068766127, -0.22, 0.9460000000000001, 0.166, 192.0, 0.0, 0.0, 0.0, 0.0, 0.0, 0.0, 0.0, 0.0, 0.0, 1.700950047599683E9, 0.0, 2023-11-25 17:07:27.599
121.0, 11456.677193245554, 11928.813091375005, -63634.05300784743, -66671.83389327931, -69228.02409267714, 232.88282547984429, -25224.390652703125, 22257.151872772203, -0.22, 0.9460000000000001, 0.166, 192.0, 0.0, 0.0, 0.0, 0.0, 0.0, 0.0, 0.0, 0.0, 0.0, 1.700950047603487E9, 0.0, 2023-11-25 17:07:27.603
122.0, 11447.870605930162, 11945.331030527477, -63588.29898694742, -66630.41611080362, -69282.83057008154, 188.0005226135877, -25230.671492895068, 22271.144064801225, -0.22, 0.9460000000000001, 0.166, 192.0, 0.0, 0.0, 0.0, 0.0, 0.0, 0.0, 0.0, 0.0, 0.0, 1.700950047608616E9, 0.0, 2023-11-25 17:07:27.608
123.0, 11534.3718569722, 12076.938101880325, -63512.5936284773, -66544.31719116178, -69275.9015293004, 232.65930803529122, -25197.99324250141, 22333.594838809353, -0.22, 0.9460000000000001, 0.166, 192.0, 0.0, 0.0, 0.0, 0.0, 0.0, 0.0, 0.0, 0.0, 0.0, 1.700950047612581E9, 0.0, 2023-11-25 17:07:27.612
124.0, 11596.017968179938, 12114.511384309697, -63534.23011711003, -66552.94496452152, -69187.96976661323, 322.96035563473174, -25171.46172183296, 22344.435434870178, -0.22, 0.9460000000000001, 0.166, 192.0, 0.0, 0.0, 0.0, 0.0, 0.0, 0.0, 0.0, 0.0, 0.0, 1.700950047616494E9, 0.0, 2023-11-25 17:07:27.616
125.0, 11482.448754602523, 11950.2707660521, -63642.47961550709, -66677.6900503266, -69220.04451990659, 262.05185199402, -25242.09323431173, 22242.69029410962, -0.22, 0.9460000000000001, 0.166, 192.0, 0.0, 0.0, 0.0, 0.0, 0.0, 0.0, 0.0, 0.0, 0.0, 1.700950047620485E9, 0.0, 2023-11-25 17:07:27.620
126.0, 11439.756922692886, 11922.778120372071, -63602.469992932085, -66651.60556454725, -69295.14638127641, 181.25029578808497, -25249.983400104455, 22261.5551664299, -0.22, 0.9460000000000001, 0.166, 192.0, 0.0, 0.0, 0.0, 0.0, 0.0, 0.0, 0.0, 0.0, 0.0, 1.700950047624109E9, 0.0, 2023-11-25 17:07:27.624
127.0, 11493.55757159681, 12025.819662311038, -63547.171777149655, -66586.7631538824, -69308.7585936497, 212.9674211701657, -25223.630693391646, 22325.481155572077, -0.226, 0.9500000000000001, 0.16, 192.0, 248.0, 240.0, 29.0, 176.0, 5.0, 0.0, 0.0, 0.0, 0.0, 1.700950047627587E9, 0.0, 2023-11-25 17:07:27.627
128.0, 11595.77209899093, 12124.480262336763, -63504.97168361804, -66537.54461259182, -69207.75106045617, 306.53182346008106, -25159.36942808264, 22376.309022463443, -0.226, 0.9500000000000001, 0.16, 192.0, 0.0, 0.0, 0.0, 0.0, 0.0, 0.0, 0.0, 0.0, 0.0, 1.700950047631631E9, 0.0, 2023-11-25 17:07:27.631
129.0, 11502.23004844547, 11975.37177507541, -63628.53212696697, -66670.31397465634, -69201.35846154195, 298.7310646451789, -25213.170076986564, 22281.023535850472, -0.226, 0.9500000000000001, 0.16, 192.0, 0.0, 0.0, 0.0, 0.0, 0.0, 0.0, 0.0, 0.0, 0.0, 1.700950047635567E9, 0.0, 2023-11-25 17:07:27.635
130.0, 11417.181660793027, 11892.089175234936, -63620.150222796234, -66681.0875154838, -69312.13370706246, 173.29307476199565, -25251.212746049496, 22262.02455306346, -0.226, 0.9500000000000001, 0.16, 192.0, 0.0, 0.0, 0.0, 0.0, 0.0, 0.0, 0.0, 0.0, 0.0, 1.700950047640864E9, 0.0, 2023-11-25 17:07:27.640
131.0, 11472.390469597634, 12001.500964343664, -63565.835483769835, -66611.64064546116, -69323.01900661219, 218.08597065043102, -25217.70748111099, 22337.126414433293, -0.226, 0.9500000000000001, 0.16, 192.0, 0.0, 0.0, 0.0, 0.0, 0.0, 0.0, 0.0, 0.0, 0.0, 1.700950047644673E9, 0.0, 2023-11-25 17:07:27.644
132.0, 11580.639967994686, 12114.600791287517, -63511.56544823235, -66545.63594408464, -69251.98516273322, 292.7184453867013, -25158.810634471254, 22398.884284363307, -0.226, 0.9500000000000001, 0.16, 192.0, 0.0, 0.0, 0.0, 0.0, 0.0, 0.0, 0.0, 0.0, 0.0, 1.700950047647631E9, 0.0, 2023-11-25 17:07:27.647
133.0, 11518.435063175568, 11989.855705482449, -63631.30374327943, -66664.32370714232, -69204.26418832115, 331.1187423609188, -25190.013669730863, 22326.911667217217, -0.226, 0.9500000000000001, 0.16, 192.0, 0.0, 0.0, 0.0, 0.0, 0.0, 0.0, 0.0, 0.0, 0.0, 1.700950047651605E9, 0.0, 2023-11-25 17:07:27.651
134.0, 11425.720027174953, 11888.132916466346, -63624.10648156482, -66681.82512305083, -69302.90243660241, 197.72353145164627, -25229.062167294287, 22292.244111567034, -0.226, 0.9500000000000001, 0.16, 192.0, 0.0, 0.0, 0.0, 0.0, 0.0, 0.0, 0.0, 0.0, 0.0, 1.70095004765641E9, 0.0, 2023-11-25 17:07:27.656
135.0, 11468.590673040233, 11980.22210362221, -63572.94333850662, -66619.977846143, -69318.05691934311, 232.86047373538898, -25209.50439089589, 22346.447091871156, -0.226, 0.9500000000000001, 0.16, 192.0, 0.0, 0.0, 0.0, 0.0, 0.0, 0.0, 0.0, 0.0, 0.0, 1.700950047659693E9, 0.0, 2023-11-25 17:07:27.659
136.0, 11567.944177144072, 12100.318026580577, -63506.60336096327, -66543.3560661502, -69275.36508743347, 280.58144814746953, -25171.79699799979, 22403.399336743278, -0.226, 0.9500000000000001, 0.16, 192.0, 0.0, 0.0, 0.0, 0.0, 0.0, 0.0, 0.0, 0.0, 0.0, 1.70095004766369E9, 0.0, 2023-11-25 17:07:27.663
137.0, 11549.28047052389, 12028.725389090228, -63601.03948128694, -66629.70085498106, -69188.64031894688, 357.38204209590464, -25172.959288711463, 22373.1797782397, -0.224, 0.9480000000000001, 0.16, 192.0, 249.0, 0.0, 29.0, 160.0, 5.0, 0.0, 0.0, 0.0, 0.0, 1.700950047668703E9, 0.0, 2023-11-25 17:07:27.668
138.0, 11441.120379104661, 11898.012387515591, -63621.692493163646, -66671.81154153484, -69280.55069214711, 227.83133123294488, -25215.204085731995, 22336.56762082191, -0.224, 0.9480000000000001, 0.16, 192.0, 0.0, 0.0, 0.0, 0.0, 0.0, 0.0, 0.0, 0.0, 0.0, 1.700950047672682E9, 0.0, 2023-11-25 17:07:27.672
139.0, 11446.685963474032, 11948.504978240131, -63601.79944059843, -66637.68042775159, -69330.37273053799, 220.81288347397847, -25217.99805378891, 22368.016525270526, -0.224, 0.9480000000000001, 0.16, 192.0, 0.0, 0.0, 0.0, 0.0, 0.0, 0.0, 0.0, 0.0, 0.0, 1.70095004767573E9, 0.0, 2023-11-25 17:07:27.675
140.0, 11542.194967531559, 12080.983767626736, -63530.877355441735, -66551.46974938748, -69312.06665182908, 252.9099885117994, -25188.203178429983, 22431.920162668248, -0.224, 0.9480000000000001, 0.16, 192.0, 0.0, 0.0, 0.0, 0.0, 0.0, 0.0, 0.0, 0.0, 0.0, 1.700950047680266E9, 0.0, 2023-11-25 17:07:27.680
141.0, 11563.697345697565, 12059.839017372014, -63596.05504227341, -66606.43268900308, -69205.56058949955, 357.2479316291728, -25174.5909660567, 22424.097052108893, -0.224, 0.9480000000000001, 0.16, 192.0, 0.0, 0.0, 0.0, 0.0, 0.0, 0.0, 0.0, 0.0, 0.0, 1.700950047683717E9, 0.0, 2023-11-25 17:07:27.683
142.0, 11445.009582639883, 11904.963780041193, -63646.48057776458, -66686.98837602, -69282.83057008154, 232.03345919054263, -25252.419740250083, 22332.544306819953, -0.224, 0.9480000000000001, 0.16, 192.0, 0.0, 0.0, 0.0, 0.0, 0.0, 0.0, 0.0, 0.0, 0.0, 1.700950047687715E9, 0.0, 2023-11-25 17:07:27.687
143.0, 11443.534367505834, 11935.451559478232, -63607.230914501066, -66647.35873310074, -69330.03745437115, 211.4698542916601, -25253.04558909483, 22364.864929302326, -0.224, 0.9480000000000001, 0.16, 192.0, 0.0, 0.0, 0.0, 0.0, 0.0, 0.0, 0.0, 0.0, 0.0, 1.700950047691765E9, 0.0, 2023-11-25 17:07:27.691
144.0, 11540.876214608696, 12075.038203601624, -63519.72383495854, -66549.6592580866, -69310.94906460632, 255.92747401326588, -25213.862981064678, 22443.945401185203, -0.224, 0.9480000000000001, 0.16, 192.0, 0.0, 0.0, 0.0, 0.0, 0.0, 0.0, 0.0, 0.0, 0.0, 1.700950047695782E9, 0.0, 2023-11-25 17:07:27.695
145.0, 11601.829421738317, 12106.084776650045, -63539.66159101267, -66554.9566215225, -69187.34391776848, 378.8397167729994, -25172.51225382236, 22478.858826024392, -0.224, 0.9480000000000001, 0.16, 192.0, 0.0, 0.0, 0.0, 0.0, 0.0, 0.0, 0.0, 0.0, 0.0, 1.70095004770077E9, 0.0, 2023-11-25 17:07:27.700
146.0, 11467.540141050833, 11929.260126264111, -63634.008304358525, -66667.94468974408, -69247.80538652008, 284.09067202695275, -25249.22344079297, 22386.412010957243, -0.224, 0.9480000000000001, 0.16, 192.0, 0.0, 0.0, 0.0, 0.0, 0.0, 0.0, 0.0, 0.0, 0.0, 1.700950047704028E9, 0.0, 2023-11-25 17:07:27.704
147.0, 11436.471216257956, 11923.40396921682, -63604.16872551069, -66642.55310804285, -69319.68859668834, 221.08110440744215, -25269.876452669676, 22386.926101079716, -0.214, 0.9480000000000001, 0.162, 192.0, 249.0, 80.0, 29.0, 160.0, 5.0, 16.0, 0.0, 0.0, 0.0, 1.70095004770884E9, 0.0, 2023-11-25 17:07:27.708
148.0, 11504.062891490805, 12038.895432817393, -63545.16012014868, -66568.92646180707, -69328.115204348, 249.7136890546905, -25247.27883902536, 22444.258325607578, -0.214, 0.9480000000000001, 0.162, 192.0, 0.0, 0.0, 0.0, 0.0, 0.0, 0.0, 0.0, 0.0, 0.0, 1.700950047711857E9, 0.0, 2023-11-25 17:07:27.711
149.0, 11598.767232747941, 12112.566782542084, -63526.76463446196, -66534.19185092353, -69210.09799362397, 366.434498600304, -25190.751277297888, 22501.523494902074, -0.214, 0.9480000000000001, 0.162, 192.0, 0.0, 0.0, 0.0, 0.0, 0.0, 0.0, 0.0, 0.0, 0.0, 1.700950047715822E9, 0.0, 2023-11-25 17:07:27.715
150.0, 11486.315606393291, 11947.096818339447, -63641.138510839766, -66661.37327687422, -69232.56149680156, 323.8097219240334, -25251.793891405334, 22403.354633254366, -0.214, 0.9480000000000001, 0.162, 192.0, 0.0, 0.0, 0.0, 0.0, 0.0, 0.0, 0.0, 0.0, 0.0, 1.700950047719799E9, 0.0, 2023-11-25 17:07:27.719
151.0, 11424.714198674465, 11898.682939849252, -63620.97723734108, -66654.10895992625, -69327.89168690344, 225.08206666494212, -25271.396371292638, 22404.181647799214, -0.214, 0.9480000000000001, 0.162, 192.0, 0.0, 0.0, 0.0, 0.0, 0.0, 0.0, 0.0, 0.0, 0.0, 1.700950047723836E9, 0.0, 2023-11-25 17:07:27.723
152.0, 11483.722804036475, 12016.543688362086, -63561.0522104564, -66580.459961946, -69337.10060561902, 268.1538782303188, -25242.13793780064, 22473.53911084403, -0.214, 0.9480000000000001, 0.162, 192.0, 0.0, 0.0, 0.0, 0.0, 0.0, 0.0, 0.0, 0.0, 0.0, 1.700950047728842E9, 0.0, 2023-11-25 17:07:27.728
153.0, 11597.560238547354, 12118.735864011749, -63511.744262187996, -66519.26088562737, -69238.41765384885, 367.64149280089055, -25182.7940562718, 22538.537983720063, -0.214, 0.9480000000000001, 0.162, 192.0, 0.0, 0.0, 0.0, 0.0, 0.0, 0.0, 0.0, 0.0, 0.0, 1.700950047731846E9, 0.0, 2023-11-25 17:07:27.731
154.0, 11518.211545731014, 11978.612778021428, -63626.27460077699, -66640.25087836396, -69214.90361868187, 376.35867313846035, -25218.46744042247, 22456.909412969282, -0.214, 0.9480000000000001, 0.162, 192.0, 0.0, 0.0, 0.0, 0.0, 0.0, 0.0, 0.0, 0.0, 0.0, 1.700950047735852E9, 0.0, 2023-11-25 17:07:27.735
155.0, 11434.727780190442, 11901.2086869727, -63610.360158724805, -66646.66582902263, -69316.89462863143, 252.77587804506757, -25251.436263494048, 22438.75979647157, -0.214, 0.9480000000000001, 0.162, 192.0, 0.0, 0.0, 0.0, 0.0, 0.0, 0.0, 0.0, 0.0, 0.0, 1.700950047739933E9, 0.0, 2023-11-25 17:07:27.739
156.0, 11474.402126598612, 11993.61079855094, -63566.193111681125, -66590.04886031734, -69337.3688265525, 284.2918377270505, -25233.80073711881, 22488.87240754037, -0.214, 0.9480000000000001, 0.162, 192.0, 0.0, 0.0, 0.0, 0.0, 0.0, 0.0, 0.0, 0.0, 0.0, 1.700950047743924E9, 0.0, 2023-11-25 17:07:27.743
157.0, 11564.077325353304, 12096.33941606753, -63523.36716930475, -66533.4542433565, -69287.45738118379, 335.34322206297185, -25202.910626281577, 22533.08415807297, -0.20800000000000002, 0.9540000000000001, 0.162, 192.0, 249.0, 128.0, 29.0, 208.0, 5.0, 16.0, 0.0, 0.0, 0.0, 1.70095004774787E9, 0.0, 2023-11-25 17:07:27.747
158.0, 11526.481691179479, 11996.829449752504, -63625.31347576541, -66632.02543640441, -69218.41284256135, 390.39556865639315, -25222.535457913335, 22478.00945973509, -0.20800000000000002, 0.9540000000000001, 0.162, 192.0, 0.0, 0.0, 0.0, 0.0, 0.0, 0.0, 0.0, 0.0, 0.0, 1.700950047751877E9, 0.0, 2023-11-25 17:07:27.751
159.0, 11409.470308955946, 11869.648023801807, -63643.46309226312, -66675.79015204789, -69336.81003294111, 237.53198832654815, -25271.217557336993, 22425.304046309477, -0.20800000000000002, 0.9540000000000001, 0.162, 192.0, 0.0, 0.0, 0.0, 0.0, 0.0, 0.0, 0.0, 0.0, 0.0, 1.70095004775692E9, 0.0, 2023-11-25 17:07:27.756
160.0, 11443.377905294647, 11952.79651317555, -63595.09391726183, -66615.68631120758, -69358.73709425177, 266.00811076260936, -25238.449899965515, 22484.849093538418, -0.20800000000000002, 0.9540000000000001, 0.162, 192.0, 0.0, 0.0, 0.0, 0.0, 0.0, 0.0, 0.0, 0.0, 0.0, 1.700950047759954E9, 0.0, 2023-11-25 17:07:27.759
161.0, 11568.324156799812, 12102.195573114823, -63500.546038215885, -66507.68268199953, -69295.07932604305, 341.4228965548154, -25168.354829353673, 22583.88967321988, -0.20800000000000002, 0.9540000000000001, 0.162, 192.0, 0.0, 0.0, 0.0, 0.0, 0.0, 0.0, 0.0, 0.0, 0.0, 1.700950047763496E9, 0.0, 2023-11-25 17:07:27.763
162.0, 11550.129836813192, 12033.128682747923, -63596.524428906974, -66595.92736910908, -69209.82977269051, 424.5713859285577, -25169.986506698908, 22543.321257033498, -0.20800000000000002, 0.9540000000000001, 0.162, 192.0, 0.0, 0.0, 0.0, 0.0, 0.0, 0.0, 0.0, 0.0, 0.0, 1.700950047767945E9, 0.0, 2023-11-25 17:07:27.767
163.0, 11418.58982069371, 11875.481829104643, -63642.390208529265, -66667.14002694369, -69320.42620425537, 269.8526108089222, -25248.99992334842, 22455.322439112955, -0.20800000000000002, 0.9540000000000001, 0.162, 192.0, 0.0, 0.0, 0.0, 0.0, 0.0, 0.0, 0.0, 0.0, 0.0, 1.700950047771955E9, 0.0, 2023-11-25 17:07:27.771
164.0, 11437.745265691909, 11936.882071123371, -63604.77222261098, -66617.60856123074, -69357.28423086218, 266.4104421628049, -25249.961048359997, 22482.72567781516, -0.20800000000000002, 0.9540000000000001, 0.162, 192.0, 0.0, 0.0, 0.0, 0.0, 0.0, 0.0, 0.0, 0.0, 0.0, 1.700950047775943E9, 0.0, 2023-11-25 17:07:27.775
165.0, 11547.112351311725, 12075.775811168649, -63519.32150355834, -66521.33959786172, -69330.50684100471, 309.0575705835308, -25221.261408479382, 22537.59921045294, -0.20800000000000002, 0.9540000000000001, 0.162, 192.0, 0.0, 0.0, 0.0, 0.0, 0.0, 0.0, 0.0, 0.0, 0.0, 1.700950047779983E9, 0.0, 2023-11-25 17:07:27.779
166.0, 11577.555427259855, 12060.822494128048, -63576.43021064165, -66568.16650249559, -69221.47503155173, 417.64234514741247, -25203.715289081967, 22520.857753855915, -0.20800000000000002, 0.9540000000000001, 0.162, 192.0, 0.0, 0.0, 0.0, 0.0, 0.0, 0.0, 0.0, 0.0, 0.0, 1.70095004778498E9, 0.0, 2023-11-25 17:07:27.784
167.0, 11461.616928770176, 11908.78592834305, -63625.5146414655, -66640.85437546425, -69283.99286079322, 317.28301254308377, -25256.75597867441, 22467.77236077456, -0.21, 0.9540000000000001, 0.16, 192.0, 249.0, 112.0, 29.0, 208.0, 5.0, 0.0, 0.0, 0.0, 0.0, 1.700950047788006E9, 0.0, 2023-11-25 17:07:27.788
168.0, 11451.446885043011, 11937.26205077911, -63592.09878350482, -66602.63289244568, -69335.35716955151, 297.792291378056, -25255.660743196102, 22519.002559066124, -0.21, 0.9540000000000001, 0.16, 192.0, 0.0, 0.0, 0.0, 0.0, 0.0, 0.0, 0.0, 0.0, 0.0, 1.700950047790997E9, 0.0, 2023-11-25 17:07:27.790
169.0, 11540.384476230678, 12071.350165766498, -63515.38759653421, -66511.90716170159, -69326.08119560256, 336.9078441748434, -25231.94554232902, 22581.453333074252, -0.21, 0.9540000000000001, 0.16, 192.0, 0.0, 0.0, 0.0, 0.0, 0.0, 0.0, 0.0, 0.0, 0.0, 1.700950047795996E9, 0.0, 2023-11-25 17:07:27.795
170.0, 11611.328913131823, 12111.1586226414, -63524.35064606079, -66507.92855118854, -69199.74913594117, 467.88906668294277, -25176.82614050223, 22624.1898684728, -0.21, 0.9540000000000001, 0.16, 192.0, 0.0, 0.0, 0.0, 0.0, 0.0, 0.0, 0.0, 0.0, 0.0, 1.700950047800053E9, 0.0, 2023-11-25 17:07:27.800
171.0, 11478.872475489674, 11928.880146608371, -63622.20658328612, -66629.6785032366, -69254.60031683449, 387.53454536611383, -25243.970780845975, 22533.710006917718, -0.21, 0.9540000000000001, 0.16, 192.0, 0.0, 0.0, 0.0, 0.0, 0.0, 0.0, 0.0, 0.0, 0.0, 1.70095004780402E9, 0.0, 2023-11-25 17:07:27.804
172.0, 11448.094123374716, 11917.592515658442, -63582.71105083359, -66601.69411917856, -69325.8129746691, 328.92827140429875, -25254.163176317594, 22554.005390883136, -0.21, 0.9540000000000001, 0.16, 192.0, 0.0, 0.0, 0.0, 0.0, 0.0, 0.0, 0.0, 0.0, 0.0, 1.700950047808096E9, 0.0, 2023-11-25 17:07:27.808
173.0, 11524.872365578696, 12044.706886375772, -63512.12424184373, -66520.8031559948, -69328.1599078369, 369.49668759068106, -25227.072862037763, 22613.0363479896, -0.21, 0.9540000000000001, 0.16, 192.0, 0.0, 0.0, 0.0, 0.0, 0.0, 0.0, 0.0, 0.0, 0.0, 1.700950047812058E9, 0.0, 2023-11-25 17:07:27.812
174.0, 11614.72637828903, 12122.602715802517, -63494.84634337978, -66491.45531552497, -69220.82683096253, 476.5168400426913, -25172.154625911073, 22649.447339707298, -0.21, 0.9540000000000001, 0.16, 192.0, 0.0, 0.0, 0.0, 0.0, 0.0, 0.0, 0.0, 0.0, 0.0, 1.700950047816085E9, 0.0, 2023-11-25 17:07:27.816
175.0, 11505.94043802505, 11962.363059802421, -63611.20952501411, -66618.83790717577, -69236.85303173697, 439.7482204137111, -25231.051472550807, 22547.56808848001, -0.21, 0.9540000000000001, 0.16, 192.0, 0.0, 0.0, 0.0, 0.0, 0.0, 0.0, 0.0, 0.0, 0.0, 1.700950047819086E9, 0.0, 2023-11-25 17:07:27.819
176.0, 11435.621849968655, 11907.042492275536, -63598.267864974485, -66619.79903218735, -69339.4698905313, 330.7611144496339, -25265.987249134454, 22528.569105692997, -0.21, 0.9540000000000001, 0.16, 192.0, 0.0, 0.0, 0.0, 0.0, 0.0, 0.0, 0.0, 0.0, 0.0, 1.700950047824127E9, 0.0, 2023-11-25 17:07:27.824
177.0, 11502.408862401113, 12028.032485012112, -63535.370056077256, -66543.199603939, -69343.31439057761, 376.4704318607369, -25234.761862130388, 22591.42221110132, -0.21, 0.9500000000000001, 0.162, 192.0, 249.0, 112.0, 29.0, 176.0, 5.0, 16.0, 0.0, 0.0, 0.0, 1.700950047828118E9, 0.0, 2023-11-25 17:07:27.828
178.0, 11593.402814078667, 12121.105148924013, -63503.80939290636, -66496.86443768317, -69264.7480088172, 461.96585440228637, -25183.79988477229, 22645.647543149895, -0.21, 0.9500000000000001, 0.162, 192.0, 0.0, 0.0, 0.0, 0.0, 0.0, 0.0, 0.0, 0.0, 0.0, 1.700950047832139E9, 0.0, 2023-11-25 17:07:27.832
179.0, 11505.806327558319, 11974.790629719571, -63627.39218799975, -66623.1741456001, -69241.50219458368, 472.31471208509356, -25229.375091716658, 22566.298850333555, -0.21, 0.9500000000000001, 0.162, 192.0, 0.0, 0.0, 0.0, 0.0, 0.0, 0.0, 0.0, 0.0, 0.0, 1.700950047836164E9, 0.0, 2023-11-25 17:07:27.836
180.0, 11426.658800442077, 11892.312692679488, -63605.21925750009, -66621.81068918832, -69336.87708817447, 348.48604780269244, -25257.38182751916, 22555.391199039364, -0.21, 0.9500000000000001, 0.162, 192.0, 0.0, 0.0, 0.0, 0.0, 0.0, 0.0, 0.0, 0.0, 0.0, 1.700950047839174E9, 0.0, 2023-11-25 17:07:27.839
181.0, 11469.574149796266, 11984.446583324265, -63561.02985871195, -66565.10431350522, -69356.47956806178, 384.11472846445184, -25233.353702229706, 22611.04704273308, -0.21, 0.9500000000000001, 0.162, 192.0, 0.0, 0.0, 0.0, 0.0, 0.0, 0.0, 0.0, 0.0, 0.0, 1.700950047845246E9, 0.0, 2023-11-25 17:07:27.845
182.0, 11579.790601705385, 12110.599829030018, -63491.9853200895, -66484.52627474384, -69289.87136958497, 453.5392467426356, -25183.151684183085, 22674.570700475062, -0.21, 0.9500000000000001, 0.162, 192.0, 0.0, 0.0, 0.0, 0.0, 0.0, 0.0, 0.0, 0.0, 0.0, 1.700950047848223E9, 0.0, 2023-11-25 17:07:27.848
183.0, 11527.174595257593, 12001.679778299305, -63608.549667423926, -66595.86031387572, -69229.5440113001, 516.392352150959, -25200.27312043585, 22611.38231889991, -0.21, 0.9500000000000001, 0.162, 192.0, 0.0, 0.0, 0.0, 0.0, 0.0, 0.0, 0.0, 0.0, 0.0, 1.700950047851271E9, 0.0, 2023-11-25 17:07:27.851
184.0, 11415.527631703333, 11872.173770925257, -63624.8664408763, -66634.43942480558, -69339.89457367595, 373.7435190371894, -25254.31963852878, 22560.018010141615, -0.21, 0.9500000000000001, 0.162, 192.0, 0.0, 0.0, 0.0, 0.0, 0.0, 0.0, 0.0, 0.0, 0.0, 1.700950047856192E9, 0.0, 2023-11-25 17:07:27.856
185.0, 11440.427475026545, 11945.353382271933, -63591.40587942671, -66586.53963643785, -69370.33764962407, 391.8037285570775, -25242.272048267372, 22603.447449618274, -0.21, 0.9500000000000001, 0.162, 192.0, 0.0, 0.0, 0.0, 0.0, 0.0, 0.0, 0.0, 0.0, 0.0, 1.70095004786031E9, 0.0, 2023-11-25 17:07:27.860
186.0, 11554.846054893262, 12085.498820006707, -63506.67041619664, -66491.76823994736, -69323.62250371248, 442.02809834815247, -25191.958271498475, 22663.372476502955, -0.216, 0.9500000000000001, 0.164, 192.0, 249.0, 64.0, 29.0, 176.0, 5.0, 32.0, 0.0, 0.0, 0.0, 1.700950047864191E9, 0.0, 2023-11-25 17:07:27.864
187.0, 11556.209511305036, 12033.687476359306, -63590.26594045949, -66567.42889492857, -69224.96190368675, 535.100762260051, -25179.106018436672, 22623.72048183924, -0.216, 0.9500000000000001, 0.164, 192.0, 0.0, 0.0, 0.0, 0.0, 0.0, 0.0, 0.0, 0.0, 0.0, 1.700950047867258E9, 0.0, 2023-11-25 17:07:27.867
188.0, 11413.11364330216, 11862.20489289819, -63651.21914758911, -66655.8300442493, -69341.54860276563, 376.31396964954973, -25261.15927233211, 22535.565201707508, -0.216, 0.9500000000000001, 0.164, 192.0, 0.0, 0.0, 0.0, 0.0, 0.0, 0.0, 0.0, 0.0, 0.0, 1.700950047871301E9, 0.0, 2023-11-25 17:07:27.871
189.0, 11436.404161024591, 11924.275687250578, -63601.911199320704, -66601.09062207826, -69373.13161768099, 374.7716992821335, -25248.57524020377, 22577.653536516853, -0.216, 0.9500000000000001, 0.164, 192.0, 0.0, 0.0, 0.0, 0.0, 0.0, 0.0, 0.0, 0.0, 0.0, 1.700950047875329E9, 0.0, 2023-11-25 17:07:27.875
190.0, 11539.736275641475, 12064.555235452084, -63514.024140122434, -66504.1958098645, -69346.2201173568, 419.49753993720293, -25207.13510598363, 22649.71556064076, -0.216, 0.9500000000000001, 0.164, 192.0, 0.0, 0.0, 0.0, 0.0, 0.0, 0.0, 0.0, 0.0, 0.0, 1.700950047879381E9, 0.0, 2023-11-25 17:07:27.879
191.0, 11572.347470801767, 12056.15097953689, -63567.13188494824, -66546.26179292939, -69236.71892127025, 531.6138901250232, -25186.191521429006, 22650.25200250769, -0.216, 0.9500000000000001, 0.164, 192.0, 0.0, 0.0, 0.0, 0.0, 0.0, 0.0, 0.0, 0.0, 0.0, 1.700950047883474E9, 0.0, 2023-11-25 17:07:27.883
192.0, 11426.50233823089, 11869.513913335075, -63661.344487827366, -66663.09436119728, -69331.89264916095, 401.2138129727618, -25279.845330696742, 22545.4223210123, -0.216, 0.9500000000000001, 0.164, 192.0, 0.0, 0.0, 0.0, 0.0, 0.0, 0.0, 0.0, 0.0, 0.0, 1.700950047889531E9, 0.0, 2023-11-25 17:07:27.889
193.0, 11431.93381213353, 11905.16494574129, -63611.52244943648, -66609.24900880444, -69377.75842878323, 376.8951150053877, -25277.163121362108, 22582.45916157474, -0.216, 0.9500000000000001, 0.164, 192.0, 0.0, 0.0, 0.0, 0.0, 0.0, 0.0, 0.0, 0.0, 0.0, 1.700950047892945E9, 0.0, 2023-11-25 17:07:27.892
194.0, 11534.304801738836, 12053.491121946709, -63524.52946001643, -66503.41349880857, -69356.21134712832, 434.42850523334806, -25231.230286506452, 22654.029447320634, -0.216, 0.9500000000000001, 0.164, 192.0, 0.0, 0.0, 0.0, 0.0, 0.0, 0.0, 0.0, 0.0, 0.0, 1.700950047895295E9, 0.0, 2023-11-25 17:07:27.895
195.0, 11598.789584492397, 12091.466735776274, -63546.90355621619, -66508.97908317794, -69246.19606091929, 544.8908263314755, -25196.048640733796, 22661.025543335145, -0.216, 0.9500000000000001, 0.164, 192.0, 0.0, 0.0, 0.0, 0.0, 0.0, 0.0, 0.0, 0.0, 0.0, 1.700950047899426E9, 0.0, 2023-11-25 17:07:27.899
196.0, 11467.897768962119, 11915.536155168553, -63651.889699922765, -66631.84662244876, -69294.9005120874, 466.9055899269092, -25269.854100925222, 22552.50782400463, -0.214, 0.9440000000000001, 0.166, 192.0, 249.0, 80.0, 29.0, 128.0, 5.0, 48.0, 0.0, 0.0, 0.0, 1.700950047903328E9, 0.0, 2023-11-25 17:07:27.903
197.0, 11423.484852729423, 11893.720852580173, -63621.267810018995, -66610.14307858265, -69372.70693453634, 396.3858361704155, -25288.160179634117, 22566.41060905583, -0.214, 0.9440000000000001, 0.166, 192.0, 0.0, 0.0, 0.0, 0.0, 0.0, 0.0, 0.0, 0.0, 0.0, 1.70095004790736E9, 0.0, 2023-11-25 17:07:27.907
198.0, 11503.459394390511, 12020.231726197211, -63543.90842245918, -66521.8536879842, -69366.98488795578, 439.97173785826425, -25259.393484520137, 22631.901220309883, -0.214, 0.9440000000000001, 0.166, 192.0, 0.0, 0.0, 0.0, 0.0, 0.0, 0.0, 0.0, 0.0, 0.0, 1.700950047911399E9, 0.0, 2023-11-25 17:07:27.911
199.0, 11609.563125319853, 12111.1586226414, -63509.10675634227, -66477.35136477368, -69253.16980518935, 550.3223002341152, -25199.60256810219, 22684.137247101935, -0.214, 0.9440000000000001, 0.166, 192.0, 0.0, 0.0, 0.0, 0.0, 0.0, 0.0, 0.0, 0.0, 0.0, 1.700950047916437E9, 0.0, 2023-11-25 17:07:27.916
200.0, 11514.411749173612, 11961.871321424404, -63618.36208323981, -66597.62610168768, -69251.00168597719, 531.8150558251209, -25246.250658780416, 22602.37456588442, -0.214, 0.9440000000000001, 0.166, 192.0, 0.0, 0.0, 0.0, 0.0, 0.0, 0.0, 0.0, 0.0, 0.0, 1.700950047921465E9, 0.0, 2023-11-25 17:07:27.921
201.0, 11442.5508907498, 11896.40306191481, -63605.66629238919, -66597.29082552086, -69352.54566103764, 414.11076952347395, -25280.29236558585, 22592.293929135078, -0.214, 0.9440000000000001, 0.166, 192.0, 0.0, 0.0, 0.0, 0.0, 0.0, 0.0, 0.0, 0.0, 0.0, 1.700950047925388E9, 0.0, 2023-11-25 17:07:27.925
202.0, 11491.903542507118, 11995.75656601865, -63560.96280347858, -66535.22003116847, -69373.8245217591, 444.687955938334, -25268.37888579117, 22645.468729194254, -0.214, 0.9440000000000001, 0.166, 192.0, 0.0, 0.0, 0.0, 0.0, 0.0, 0.0, 0.0, 0.0, 0.0, 1.700950047928352E9, 0.0, 2023-11-25 17:07:27.928
203.0, 11580.774078461418, 12088.896285163913, -63527.23402109552, -66486.31441430026, -69305.65170117041, 516.5711661066015, -25230.157402772595, 22688.24996808171, -0.214, 0.9440000000000001, 0.166, 192.0, 0.0, 0.0, 0.0, 0.0, 0.0, 0.0, 0.0, 0.0, 0.0, 1.700950047931472E9, 0.0, 2023-11-25 17:07:27.931
204.0, 11508.957923526517, 11958.675021967296, -63642.92665039619, -66604.59984595774, -69267.54197687411, 544.6896606313778, -25267.887147413156, 22607.873095020426, -0.214, 0.9440000000000001, 0.166, 192.0, 0.0, 0.0, 0.0, 0.0, 0.0, 0.0, 0.0, 0.0, 0.0, 1.700950047935389E9, 0.0, 2023-11-25 17:07:27.935
205.0, 11428.73751267642, 11873.87250350386, -63624.95584785412, -66610.03131986038, -69363.56507105411, 423.63261266143473, -25295.91623496011, 22590.997527956668, -0.214, 0.9440000000000001, 0.166, 192.0, 0.0, 0.0, 0.0, 0.0, 0.0, 0.0, 0.0, 0.0, 0.0, 1.700950047939477E9, 0.0, 2023-11-25 17:07:27.939
206.0, 11467.338975350736, 11965.782876704083, -63581.92873977766, -66553.213185455, -69383.88280676398, 460.24477007922775, -25275.57614750578, 22656.57754618854, -0.212, 0.9500000000000001, 0.168, 192.0, 249.0, 96.0, 29.0, 176.0, 5.0, 64.0, 0.0, 0.0, 0.0, 1.70095004794367E9, 0.0, 2023-11-25 17:07:27.943
207.0, 11578.516552271432, 12094.327759066553, -63506.80452666337, -66466.57782394622, -69321.14146007794, 525.1542359774394, -25225.37412945916, 22727.83490751206, -0.212, 0.9500000000000001, 0.168, 192.0, 0.0, 0.0, 0.0, 0.0, 0.0, 0.0, 0.0, 0.0, 0.0, 1.700950047948472E9, 0.0, 2023-11-25 17:07:27.948
208.0, 11541.412656475622, 11998.729348031206, -63609.175516268675, -66564.47846466047, -69245.83843300802, 596.9927426567963, -25228.391614960627, 22669.38509576143, -0.212, 0.9500000000000001, 0.168, 192.0, 0.0, 0.0, 0.0, 0.0, 0.0, 0.0, 0.0, 0.0, 0.0, 1.700950047952471E9, 0.0, 2023-11-25 17:07:27.952
209.0, 11420.512070716868, 11859.813256241472, -63635.57292647039, -66615.88747690768, -69359.18412914088, 446.4984472392139, -25285.5673772773, 22602.396917628877, -0.212, 0.9500000000000001, 0.168, 192.0, 0.0, 0.0, 0.0, 0.0, 0.0, 0.0, 0.0, 0.0, 0.0, 1.70095004795546E9, 0.0, 2023-11-25 17:07:27.955
210.0, 11452.564472265778, 11936.278574023077, -63596.591484140336, -66562.80208382632, -69384.62041433102, 459.17188634537297, -25276.38081030617, 22635.67866512283, -0.212, 0.9500000000000001, 0.168, 192.0, 0.0, 0.0, 0.0, 0.0, 0.0, 0.0, 0.0, 0.0, 0.0, 1.700950047960496E9, 0.0, 2023-11-25 17:07:27.960
211.0, 11564.926691642606, 12077.385136769431, -63519.16504134716, -66469.68471642552, -69343.78377721117, 506.95991599081947, -25229.08451903874, 22699.559950776096, -0.212, 0.9500000000000001, 0.168, 192.0, 0.0, 0.0, 0.0, 0.0, 0.0, 0.0, 0.0, 0.0, 0.0, 1.700950047963538E9, 0.0, 2023-11-25 17:07:27.963
212.0, 11569.084116111293, 12033.709828103762, -63599.54191440844, -66540.27152541537, -69242.75389227318, 607.5204142952459, -25219.160344500586, 22684.651337224404, -0.212, 0.9500000000000001, 0.168, 192.0, 0.0, 0.0, 0.0, 0.0, 0.0, 0.0, 0.0, 0.0, 0.0, 1.700950047969543E9, 0.0, 2023-11-25 17:07:27.969
213.0, 11424.378922507636, 11859.299166119, -63660.18219711569, -66630.01377940342, -69350.55635578113, 458.5683892450797, -25304.231083897484, 22600.720536794728, -0.212, 0.9500000000000001, 0.168, 192.0, 0.0, 0.0, 0.0, 0.0, 0.0, 0.0, 0.0, 0.0, 0.0, 1.700950047972576E9, 0.0, 2023-11-25 17:07:27.972
214.0, 11433.543137734312, 11909.747053354627, -63615.99279832755, -66582.65043290264, -69387.88376902149, 444.8891216384318, -25304.208732153027, 22620.94886552678, -0.212, 0.9500000000000001, 0.168, 192.0, 0.0, 0.0, 0.0, 0.0, 0.0, 0.0, 0.0, 0.0, 0.0, 1.700950047976611E9, 0.0, 2023-11-25 17:07:27.976
215.0, 11532.673124393597, 12050.920671334348, -63525.93761991712, -66484.28040555482, -69364.45914083233, 487.4021395924258, -25271.19520559254, 22682.52792150115, -0.212, 0.9500000000000001, 0.168, 192.0, 0.0, 0.0, 0.0, 0.0, 0.0, 0.0, 0.0, 0.0, 0.0, 1.700950047979665E9, 0.0, 2023-11-25 17:07:27.979
216.0, 11581.087002883793, 12056.888587103915, -63559.621698811265, -66509.2920076003, -69245.88313649692, 606.7157514948549, -25237.175850531563, 22699.269378098175, -0.21, 0.9500000000000001, 0.162, 192.0, 249.0, 112.0, 29.0, 176.0, 5.0, 16.0, 0.0, 0.0, 0.0, 1.700950047983601E9, 0.0, 2023-11-25 17:07:27.983
217.0, 11462.93568169304, 11895.01725375858, -63628.6662374337, -66600.68829067807, -69307.10456456001, 505.9987909792413, -25296.452676827037, 22622.75935682766, -0.21, 0.9500000000000001, 0.162, 192.0, 0.0, 0.0, 0.0, 0.0, 0.0, 0.0, 0.0, 0.0, 0.0, 1.700950047987606E9, 0.0, 2023-11-25 17:07:27.987
218.0, 11442.707352960988, 11907.556582398009, -63597.79847834093, -66567.42889492857, -69370.2258909018, 465.2739125816718, -25294.6198337817, 22661.62904043544, -0.21, 0.9500000000000001, 0.162, 192.0, 0.0, 0.0, 0.0, 0.0, 0.0, 0.0, 0.0, 0.0, 0.0, 1.700950047991583E9, 0.0, 2023-11-25 17:07:27.991
219.0, 11524.022999289395, 12037.599031638985, -63528.48571878502, -66481.21821656445, -69367.56603331161, 500.72377928778883, -25267.350705546225, 22724.25862839921, -0.21, 0.9500000000000001, 0.162, 192.0, 0.0, 0.0, 0.0, 0.0, 0.0, 0.0, 0.0, 0.0, 0.0, 1.700950047995655E9, 0.0, 2023-11-25 17:07:27.995
220.0, 11597.113203658248, 12084.716508950773, -63542.81318698087, -66477.57488221824, -69260.76939830415, 606.0004956722851, -25226.312902726284, 22737.20028843883, -0.21, 0.9500000000000001, 0.162, 192.0, 0.0, 0.0, 0.0, 0.0, 0.0, 0.0, 0.0, 0.0, 0.0, 1.70095004799967E9, 0.0, 2023-11-25 17:07:27.999
221.0, 11481.5099813354, 11921.101739537924, -63646.234708575575, -66596.93319760957, -69297.7615353777, 539.3475937065595, -25289.031897667875, 22634.985761044714, -0.21, 0.9500000000000001, 0.162, 192.0, 0.0, 0.0, 0.0, 0.0, 0.0, 0.0, 0.0, 0.0, 0.0, 1.700950048005035E9, 0.0, 2023-11-25 17:07:28.005
222.0, 11446.30598381829, 11903.68973060724, -63606.247437745034, -66567.71946760648, -69366.82842574459, 465.6091887485014, -25297.123229160694, 22648.374455973444, -0.21, 0.9500000000000001, 0.162, 192.0, 0.0, 0.0, 0.0, 0.0, 0.0, 0.0, 0.0, 0.0, 0.0, 1.700950048007685E9, 0.0, 2023-11-25 17:07:28.007
223.0, 11517.876269564185, 12025.059702999557, -63535.23594561052, -66488.70605095697, -69365.59907979955, 510.6032503370345, -25270.167025347597, 22712.34514860453, -0.21, 0.9500000000000001, 0.162, 192.0, 0.0, 0.0, 0.0, 0.0, 0.0, 0.0, 0.0, 0.0, 0.0, 1.700950048010651E9, 0.0, 2023-11-25 17:07:28.010
224.0, 11607.283247385412, 12103.715491737783, -63512.86184941076, -66457.70418139746, -69272.01232576517, 603.0947688930952, -25224.211838747484, 22750.767797323206, -0.21, 0.9500000000000001, 0.162, 192.0, 0.0, 0.0, 0.0, 0.0, 0.0, 0.0, 0.0, 0.0, 0.0, 1.700950048015659E9, 0.0, 2023-11-25 17:07:28.015
225.0, 11519.954981798528, 11956.618661477407, -63617.51271695051, -66573.32975546477, -69260.32236341505, 593.6846844774109, -25270.591708492248, 22665.741761415215, -0.21, 0.9500000000000001, 0.162, 192.0, 0.0, 0.0, 0.0, 0.0, 0.0, 0.0, 0.0, 0.0, 0.0, 1.700950048019645E9, 0.0, 2023-11-25 17:07:28.019
226.0, 11447.468274529967, 11887.68588157724, -63599.22898998606, -66571.40750544162, -69361.10637916403, 480.7636714891996, -25308.14263917716, 22652.509528697676, -0.21, 0.9560000000000001, 0.162, 192.0, 249.0, 112.0, 29.0, 224.0, 5.0, 16.0, 0.0, 0.0, 0.0, 1.700950048023672E9, 0.0, 2023-11-25 17:07:28.023
227.0, 11494.51869660839, 11986.99468219217, -63553.72083827506, -66508.33088258874, -69381.02178347371, 515.7217998172998, -25291.423534324593, 22716.949607962324, -0.21, 0.9560000000000001, 0.162, 192.0, 0.0, 0.0, 0.0, 0.0, 0.0, 0.0, 0.0, 0.0, 0.0, 1.700950048027704E9, 0.0, 2023-11-25 17:07:28.027
228.0, 11594.922732701629, 12097.948741668313, -63504.63640745121, -66442.99673354588, -69305.02585232566, 592.5670972546455, -25237.622885420667, 22775.287660990678, -0.21, 0.9560000000000001, 0.162, 192.0, 0.0, 0.0, 0.0, 0.0, 0.0, 0.0, 0.0, 0.0, 0.0, 1.700950048031784E9, 0.0, 2023-11-25 17:07:28.031
229.0, 11515.75285384093, 11962.2736528246, -63635.28235379248, -66572.45803743102, -69271.6546978539, 617.9139754669637, -25273.989173649454, 22690.172218104868, -0.21, 0.9560000000000001, 0.162, 192.0, 0.0, 0.0, 0.0, 0.0, 0.0, 0.0, 0.0, 0.0, 0.0, 1.700950048035734E9, 0.0, 2023-11-25 17:07:28.035
230.0, 11415.795852636797, 11853.085381160425, -63638.92568813869, -66596.86614237621, -69382.40759162993, 478.05911041010745, -25323.38652889568, 22645.91576408336, -0.21, 0.9560000000000001, 0.162, 192.0, 0.0, 0.0, 0.0, 0.0, 0.0, 0.0, 0.0, 0.0, 0.0, 1.700950048038796E9, 0.0, 2023-11-25 17:07:28.038
231.0, 11454.017335655373, 11943.74405667115, -63592.97050153858, -66534.57183057927, -69401.33951918359, 514.6489160834451, -25305.214560653516, 22703.29269210013, -0.21, 0.9560000000000001, 0.162, 192.0, 0.0, 0.0, 0.0, 0.0, 0.0, 0.0, 0.0, 0.0, 0.0, 1.700950048044849E9, 0.0, 2023-11-25 17:07:28.044
232.0, 11574.269720824925, 12085.208247328788, -63510.894895898695, -66438.90636431055, -69334.73132070676, 592.5447455101902, -25246.027141335864, 22783.155475038944, -0.21, 0.9560000000000001, 0.162, 192.0, 0.0, 0.0, 0.0, 0.0, 0.0, 0.0, 0.0, 0.0, 0.0, 1.700950048047832E9, 0.0, 2023-11-25 17:07:28.047
233.0, 11548.945194357062, 12007.67004581333, -63610.091937791345, -66531.95667647799, -69255.11440695697, 667.1548685020052, -25250.117510571185, 22730.159488935413, -0.21, 0.9560000000000001, 0.162, 192.0, 0.0, 0.0, 0.0, 0.0, 0.0, 0.0, 0.0, 0.0, 0.0, 1.700950048051809E9, 0.0, 2023-11-25 17:07:28.051
234.0, 11442.148559349604, 11882.16500069678, -63623.1677082977, -66569.93229030757, -69351.42807381488, 528.685811601378, -25298.95607220603, 22675.33065978654, -0.21, 0.9560000000000001, 0.162, 192.0, 0.0, 0.0, 0.0, 0.0, 0.0, 0.0, 0.0, 0.0, 0.0, 1.700950048055803E9, 0.0, 2023-11-25 17:07:28.055
235.0, 11471.630510286155, 11960.060830123524, -63582.91221653369, -66510.9013332011, -69377.06552470512, 543.5497216641571, -25284.449790054536, 22721.330549875565, -0.21, 0.9560000000000001, 0.162, 192.0, 0.0, 0.0, 0.0, 0.0, 0.0, 0.0, 0.0, 0.0, 0.0, 1.7009500480588E9, 0.0, 2023-11-25 17:07:28.058
236.0, 11571.922787657117, 12089.790354942126, -63514.806451178374, -66424.10950948113, -69352.52330929319, 577.6137802140452, -25251.749187916423, 22772.694858633862, -0.214, 0.9520000000000001, 0.166, 192.0, 249.0, 80.0, 29.0, 192.0, 5.0, 48.0, 0.0, 0.0, 0.0, 1.700950048062861E9, 0.0, 2023-11-25 17:07:28.062
237.0, 11575.163790603137, 12041.756456107672, -63602.82762084337, -66496.57386500524, -69263.71982857226, 663.422127177969, -25253.246754794927, 22735.702721560327, -0.214, 0.9520000000000001, 0.166, 192.0, 0.0, 0.0, 0.0, 0.0, 0.0, 0.0, 0.0, 0.0, 0.0, 1.700950048066856E9, 0.0, 2023-11-25 17:07:28.066
238.0, 11459.493513046922, 11890.368090911878, -63647.3746475428, -66564.83609257176, -69349.39406506946, 533.8937680594645, -25327.566305108823, 22646.474557694743, -0.214, 0.9520000000000001, 0.166, 192.0, 0.0, 0.0, 0.0, 0.0, 0.0, 0.0, 0.0, 0.0, 0.0, 1.700950048070868E9, 0.0, 2023-11-25 17:07:28.070
239.0, 11467.674251517565, 11933.17168154379, -63606.85093484532, -66517.33863560422, -69391.19182720088, 526.6294511114897, -25314.937569491576, 22686.797104692116, -0.214, 0.9520000000000001, 0.166, 192.0, 0.0, 0.0, 0.0, 0.0, 0.0, 0.0, 0.0, 0.0, 0.0, 1.70095004807587E9, 0.0, 2023-11-25 17:07:28.075
240.0, 11559.271700295414, 12062.230654028734, -63531.32439033084, -66427.57402987171, -69377.6243183165, 566.8625911310424, -25271.41872303709, 22751.706570590326, -0.214, 0.9520000000000001, 0.166, 192.0, 0.0, 0.0, 0.0, 0.0, 0.0, 0.0, 0.0, 0.0, 0.0, 1.700950048079952E9, 0.0, 2023-11-25 17:07:28.079
241.0, 11601.002407193471, 12064.756401152183, -63575.96082400809, -66458.64295466458, -69270.15713097539, 669.837077836642, -25247.94939135902, 22739.524869862184, -0.214, 0.9520000000000001, 0.166, 192.0, 0.0, 0.0, 0.0, 0.0, 0.0, 0.0, 0.0, 0.0, 0.0, 1.700950048083892E9, 0.0, 2023-11-25 17:07:28.083
242.0, 11473.105725420204, 11894.324349680466, -63661.7244674831, -66565.03725827186, -69334.88778291795, 569.6118556990452, -25316.502191603446, 22649.67085715185, -0.214, 0.9520000000000001, 0.166, 192.0, 0.0, 0.0, 0.0, 0.0, 0.0, 0.0, 0.0, 0.0, 0.0, 1.700950048086876E9, 0.0, 2023-11-25 17:07:28.086
243.0, 11451.938623421029, 11903.332102695955, -63630.722597923595, -66531.10731018869, -69399.9760627718, 521.9802882647858, -25320.30198816085, 22681.72325870076, -0.214, 0.9520000000000001, 0.166, 192.0, 0.0, 0.0, 0.0, 0.0, 0.0, 0.0, 0.0, 0.0, 0.0, 1.700950048090937E9, 0.0, 2023-11-25 17:07:28.090
244.0, 11529.722694125498, 12034.916822304347, -63564.31556514688, -66447.1318062701, -69401.29481569467, 556.0666985591291, -25293.725764003488, 22732.238201169755, -0.214, 0.9520000000000001, 0.166, 192.0, 0.0, 0.0, 0.0, 0.0, 0.0, 0.0, 0.0, 0.0, 0.0, 1.700950048094899E9, 0.0, 2023-11-25 17:07:28.094
245.0, 11611.127747431725, 12095.266532333677, -63565.254338414, -66430.16683222853, -69290.43016319635, 668.3618627025918, -25237.824051120766, 22761.183710239377, -0.214, 0.9520000000000001, 0.166, 192.0, 0.0, 0.0, 0.0, 0.0, 0.0, 0.0, 0.0, 0.0, 0.0, 1.700950048098988E9, 0.0, 2023-11-25 17:07:28.098
246.0, 11497.692644321043, 11930.60123093143, -63670.10637165384, -66546.21708944048, -69314.14536406343, 620.0373911902179, -25287.48962730046, 22682.863197667983, -0.212, 0.9520000000000001, 0.17, 192.0, 249.0, 96.0, 29.0, 192.0, 5.0, 80.0, 0.0, 0.0, 0.0, 1.700950048103921E9, 0.0, 2023-11-25 17:07:28.103
247.0, 11463.829751471252, 11916.899611580326, -63627.34748451084, -66513.4941355579, -69382.04996371866, 545.3378612205818, -25295.938586704564, 22695.715450729782, -0.212, 0.9520000000000001, 0.17, 192.0, 0.0, 0.0, 0.0, 0.0, 0.0, 0.0, 0.0, 0.0, 0.0, 1.700950048107973E9, 0.0, 2023-11-25 17:07:28.107
248.0, 11527.666333635609, 12033.083979259012, -63568.51769310447, -66443.86845157963, -69389.13546671098, 583.9840273838076, -25274.883243427666, 22748.73378857777, -0.212, 0.9520000000000001, 0.17, 192.0, 0.0, 0.0, 0.0, 0.0, 0.0, 0.0, 0.0, 0.0, 0.0, 1.700950048112143E9, 0.0, 2023-11-25 17:07:28.112
249.0, 11615.039302711404, 12114.623143031973, -63545.4506928266, -66408.75386104034, -69301.1590005349, 670.8876098260415, -25226.581123659747, 22793.280815277198, -0.212, 0.9520000000000001, 0.17, 192.0, 0.0, 0.0, 0.0, 0.0, 0.0, 0.0, 0.0, 0.0, 0.0, 1.700950048115948E9, 0.0, 2023-11-25 17:07:28.115
250.0, 11502.274751934381, 11946.113341583412, -63684.970281716625, -66553.8613860442, -69309.45149772782, 649.7875630602316, -25279.62181325219, 22691.714488472284, -0.212, 0.9520000000000001, 0.17, 192.0, 0.0, 0.0, 0.0, 0.0, 0.0, 0.0, 0.0, 0.0, 0.0, 1.70095004811896E9, 0.0, 2023-11-25 17:07:28.118
251.0, 11447.758847207886, 11895.754861325606, -63646.34646729785, -66531.50964158888, -69388.91194926643, 545.4496199428582, -25295.6703657711, 22687.713526214782, -0.212, 0.9520000000000001, 0.17, 192.0, 0.0, 0.0, 0.0, 0.0, 0.0, 0.0, 0.0, 0.0, 0.0, 1.700950048122964E9, 0.0, 2023-11-25 17:07:28.122
252.0, 11508.600295615232, 12008.13943244689, -63590.33299569285, -66456.29602149678, -69392.24235919028, 596.4563007898689, -25265.204938078517, 22757.898003804446, -0.212, 0.9520000000000001, 0.17, 192.0, 0.0, 0.0, 0.0, 0.0, 0.0, 0.0, 0.0, 0.0, 0.0, 1.700950048127065E9, 0.0, 2023-11-25 17:07:28.127
253.0, 11610.63600905371, 12118.087663422546, -63539.23690786802, -66390.11250616462, -69324.58362872405, 667.7136621133878, -25219.205047989493, 22818.113603367045, -0.212, 0.9520000000000001, 0.17, 192.0, 0.0, 0.0, 0.0, 0.0, 0.0, 0.0, 0.0, 0.0, 0.0, 1.70095004813201E9, 0.0, 2023-11-25 17:07:28.132
254.0, 11546.486502466978, 11994.460164840242, -63657.74585697006, -66507.7497372329, -69276.46032291178, 704.2140608089043, -25247.23413553645, 22748.68908508886, -0.212, 0.9520000000000001, 0.17, 192.0, 0.0, 0.0, 0.0, 0.0, 0.0, 0.0, 0.0, 0.0, 0.0, 1.700950048135998E9, 0.0, 2023-11-25 17:07:28.135
255.0, 11442.59559423871, 11883.439050130732, -63664.07140065091, -66538.08105445874, -69383.81575153062, 564.1580300519503, -25297.793781494354, 22710.579360792563, -0.212, 0.9520000000000001, 0.17, 192.0, 0.0, 0.0, 0.0, 0.0, 0.0, 0.0, 0.0, 0.0, 0.0, 1.700950048140105E9, 0.0, 2023-11-25 17:07:28.140
0.0, 11471.742269008431, 11964.531179014586, -63626.18519379917, -66490.0918591132, -69409.1849814874, 588.0743966191288, -25281.365249319704, 22754.433483413875, -0.202, 0.9460000000000001, 0.168, 192.0, 249.0, 176.0, 29.0, 144.0, 5.0, 64.0, 0.0, 0.0, 0.0, 1.700950048143015E9, 0.0, 2023-11-25 17:07:28.143
1.0, 11590.407680321656, 12101.525020781162, -63542.92494570315, -66400.55077082524, -69350.55635578113, 651.1733712164606, -25224.256542236395, 22823.589780758593, -0.202, 0.9460000000000001, 0.168, 192.0, 0.0, 0.0, 0.0, 0.0, 0.0, 0.0, 0.0, 0.0, 0.0, 1.700950048147075E9, 0.0, 2023-11-25 17:07:28.147
2.0, 11568.480619011, 12023.115101231946, -63645.56415624192, -66498.87609468414, -69271.2523664537, 726.4987500308455, -25232.459632451493, 22767.956288809335, -0.202, 0.9460000000000001, 0.168, 192.0, 0.0, 0.0, 0.0, 0.0, 0.0, 0.0, 0.0, 0.0, 0.0, 1.700950048151034E9, 0.0, 2023-11-25 17:07:28.151
3.0, 11438.684038959032, 11868.77630576805, -63688.70302304066, -66568.83705482924, -69385.60389108704, 566.0132248417408, -25314.177610180093, 22679.130456343944, -0.202, 0.9460000000000001, 0.168, 192.0, 0.0, 0.0, 0.0, 0.0, 0.0, 0.0, 0.0, 0.0, 0.0, 1.700950048155113E9, 0.0, 2023-11-25 17:07:28.155
4.0, 11471.719917263976, 11946.135693327868, -63637.18225207118, -66504.70989998698, -69406.56982738612, 576.9208761359306, -25302.68881353007, 22737.043826227648, -0.202, 0.9460000000000001, 0.168, 192.0, 0.0, 0.0, 0.0, 0.0, 0.0, 0.0, 0.0, 0.0, 0.0, 1.700950048160324E9, 0.0, 2023-11-25 17:07:28.160
5.0, 11594.028662923416, 12103.223753359765, -63541.29326835791, -66394.49344807786, -69359.65351577444, 635.0801152086395, -25246.630638436156, 22831.61405701805, -0.202, 0.9460000000000001, 0.168, 192.0, 0.0, 0.0, 0.0, 0.0, 0.0, 0.0, 0.0, 0.0, 0.0, 1.700950048164109E9, 0.0, 2023-11-25 17:07:28.164
6.0, 11597.828459480817, 12061.895377861903, -63624.82173738739, -66468.20950129147, -69270.2018344643, 722.7213052178986, -25228.011635304887, 22807.1836003284, -0.202, 0.9460000000000001, 0.168, 192.0, 0.0, 0.0, 0.0, 0.0, 0.0, 0.0, 0.0, 0.0, 0.0, 1.700950048168148E9, 0.0, 2023-11-25 17:07:28.168
7.0, 11459.158236880094, 11889.205800200201, -63692.569874831424, -66565.21607222749, -69367.90130947845, 581.2347628158049, -25298.844313483754, 22711.473430570775, -0.202, 0.9460000000000001, 0.168, 192.0, 0.0, 0.0, 0.0, 0.0, 0.0, 0.0, 0.0, 0.0, 0.0, 1.700950048172165E9, 0.0, 2023-11-25 17:07:28.172
8.0, 11457.638318257132, 11923.292210494545, -63657.768208714515, -66528.15687992059, -69419.44443219238, 555.3737944810146, -25298.91136871712, 22742.944686763847, -0.202, 0.9460000000000001, 0.168, 192.0, 0.0, 0.0, 0.0, 0.0, 0.0, 0.0, 0.0, 0.0, 0.0, 1.700950048175212E9, 0.0, 2023-11-25 17:07:28.175
9.0, 11559.092886339771, 12064.644642429907, -63566.170759936664, -66428.11047173863, -69394.99162375828, 600.390207814003, -25256.934792630054, 22815.051414376667, -0.202, 0.9460000000000001, 0.168, 192.0, 0.0, 0.0, 0.0, 0.0, 0.0, 0.0, 0.0, 0.0, 0.0, 1.700950048179406E9, 0.0, 2023-11-25 17:07:28.179
10.0, 11605.115128173247, 12074.05472684559, -63598.44667893013, -66450.97630631641, -69286.60801489449, 712.5512614907339, -25219.540324156325, 22824.32738832562, -0.212, 0.9480000000000001, 0.17, 192.0, 249.0, 96.0, 29.0, 160.0, 5.0, 80.0, 0.0, 0.0, 0.0, 1.700950048183155E9, 0.0, 2023-11-25 17:07:28.183
11.0, 11482.404051113612, 11904.762614341094, -63679.91878746972, -66554.93426977805, -69339.76046320921, 624.8653679925642, -25281.253490597428, 22734.83100352657, -0.212, 0.9480000000000001, 0.17, 192.0, 0.0, 0.0, 0.0, 0.0, 0.0, 0.0, 0.0, 0.0, 0.0, 1.700950048187134E9, 0.0, 2023-11-25 17:07:28.187
12.0, 11436.806492424786, 11886.411832143287, -63662.730295983594, -66540.49504285993, -69419.31032172564, 561.4087654839475, -25298.419630339104, 22758.613259627018, -0.212, 0.9480000000000001, 0.17, 192.0, 0.0, 0.0, 0.0, 0.0, 0.0, 0.0, 0.0, 0.0, 0.0, 1.700950048191244E9, 0.0, 2023-11-25 17:07:28.191
13.0, 11517.406882930623, 12011.916877259837, -63583.672175845175, -66448.71878012644, -69410.01199603225, 604.1900043714052, -25274.70442947202, 22831.703463995873, -0.212, 0.9480000000000001, 0.17, 192.0, 0.0, 0.0, 0.0, 0.0, 0.0, 0.0, 0.0, 0.0, 0.0, 1.70095004819623E9, 0.0, 2023-11-25 17:07:28.196
14.0, 11614.279343399923, 12082.749555438704, -63564.986117480534, -66414.2300384319, -69289.29022422913, 722.7213052178986, -25215.204085731995, 22870.05905748118, -0.212, 0.9480000000000001, 0.17, 192.0, 0.0, 0.0, 0.0, 0.0, 0.0, 0.0, 0.0, 0.0, 0.0, 1.700950048199233E9, 0.0, 2023-11-25 17:07:28.199
15.0, 11510.477842149478, 11929.416588475298, -63670.53105479849, -66532.91780148957, -69304.64587266992, 678.4648511963906, -25272.536310259857, 22766.65988763093, -0.212, 0.9480000000000001, 0.17, 192.0, 0.0, 0.0, 0.0, 0.0, 0.0, 0.0, 0.0, 0.0, 0.0, 1.700950048203258E9, 0.0, 2023-11-25 17:07:28.203
16.0, 11456.185454867536, 11893.676149091263, -63649.45335977714, -66523.28419962933, -69393.47170513532, 583.4699372613355, -25296.609139038224, 22766.279907975186, -0.212, 0.9480000000000001, 0.17, 192.0, 0.0, 0.0, 0.0, 0.0, 0.0, 0.0, 0.0, 0.0, 0.0, 1.700950048207319E9, 0.0, 2023-11-25 17:07:28.207
17.0, 11521.340789954756, 12011.671008070829, -63589.64009161474, -66451.04336154979, -69399.4843243938, 627.681687793933, -25268.267127068895, 22842.90168796798, -0.212, 0.9480000000000001, 0.17, 192.0, 0.0, 0.0, 0.0, 0.0, 0.0, 0.0, 0.0, 0.0, 0.0, 1.70095004821128E9, 0.0, 2023-11-25 17:07:28.211
18.0, 11610.367788120246, 12097.166430612378, -63561.11926568977, -66412.75482329784, -69319.06274784359, 708.6844096999657, -25226.357606215195, 22876.362249417576, -0.212, 0.9480000000000001, 0.17, 192.0, 0.0, 0.0, 0.0, 0.0, 0.0, 0.0, 0.0, 0.0, 0.0, 1.700950048215233E9, 0.0, 2023-11-25 17:07:28.215
19.0, 11531.019095303905, 11956.931585899782, -63667.64767976376, -66527.66514154257, -69291.92773007485, 716.1722440924935, -25264.824958422778, 22788.810466386138, -0.212, 0.9480000000000001, 0.17, 192.0, 0.0, 0.0, 0.0, 0.0, 0.0, 0.0, 0.0, 0.0, 0.0, 1.700950048219265E9, 0.0, 2023-11-25 17:07:28.219
20.0, 11446.529501262845, 11868.195160412211, -63654.39309530176, -66532.85074625621, -69394.94692026937, 593.1929460993941, -25301.973557707497, 22763.530643407186, -0.214, 0.9480000000000001, 0.164, 192.0, 249.0, 80.0, 29.0, 160.0, 5.0, 32.0, 0.0, 0.0, 0.0, 1.700950048224418E9, 0.0, 2023-11-25 17:07:28.224
21.0, 11491.456507618012, 11963.882978425381, -63602.71586212109, -66465.12496055663, -69410.883714066, 628.5981093166005, -25283.19809236504, 22820.594647001584, -0.214, 0.9480000000000001, 0.164, 192.0, 0.0, 0.0, 0.0, 0.0, 0.0, 0.0, 0.0, 0.0, 0.0, 1.700950048227457E9, 0.0, 2023-11-25 17:07:28.227
22.0, 11616.067482956349, 12103.760195226694, -63523.970666405046, -66370.4653227884, -69324.91890489089, 714.0711801136947, -25216.344024699214, 22896.34470896062, -0.214, 0.9480000000000001, 0.164, 192.0, 0.0, 0.0, 0.0, 0.0, 0.0, 0.0, 0.0, 0.0, 0.0, 1.700950048231544E9, 0.0, 2023-11-25 17:07:28.231
23.0, 11558.95877587304, 11991.08505142749, -63643.373685285296, -66483.7439636879, -69268.9054332859, 767.9835877398954, -25233.465460951982, 22841.761749000758, -0.214, 0.9480000000000001, 0.164, 192.0, 0.0, 0.0, 0.0, 0.0, 0.0, 0.0, 0.0, 0.0, 0.0, 1.700950048235521E9, 0.0, 2023-11-25 17:07:28.235
24.0, 11448.541158263823, 11866.2505586446, -63659.39988605975, -66520.37847285015, -69379.83714101758, 622.7196005248547, -25290.261243612917, 22798.108792079543, -0.214, 0.9480000000000001, 0.164, 192.0, 0.0, 0.0, 0.0, 0.0, 0.0, 0.0, 0.0, 0.0, 0.0, 1.700950048239454E9, 0.0, 2023-11-25 17:07:28.239
25.0, 11499.99487399994, 11962.005431891135, -63604.88398133326, -66450.84219584969, -69387.10145796555, 653.6320631065445, -25268.96003114701, 22857.631487564027, -0.214, 0.9480000000000001, 0.164, 192.0, 0.0, 0.0, 0.0, 0.0, 0.0, 0.0, 0.0, 0.0, 0.0, 1.700950048243485E9, 0.0, 2023-11-25 17:07:28.243
26.0, 11615.419282367146, 12103.715491737783, -63525.065901883354, -66362.48575001786, -69335.62539048499, 706.8739183990858, -25228.212801004986, 22920.417537738984, -0.214, 0.9480000000000001, 0.164, 192.0, 0.0, 0.0, 0.0, 0.0, 0.0, 0.0, 0.0, 0.0, 0.0, 1.700950048247401E9, 0.0, 2023-11-25 17:07:28.247
27.0, 11596.420299580133, 12032.52518564763, -63625.469937976595, -66463.89561461158, -69259.80827329258, 773.8173930427305, -25249.42460649307, 22859.799606776192, -0.214, 0.9480000000000001, 0.164, 192.0, 0.0, 0.0, 0.0, 0.0, 0.0, 0.0, 0.0, 0.0, 0.0, 1.700950048252392E9, 0.0, 2023-11-25 17:07:28.252
28.0, 11475.162085910093, 11883.059070474992, -63659.69045873767, -66531.24142065542, -69364.01210594323, 620.0150394457626, -25325.644055085668, 22772.627803400494, -0.214, 0.9480000000000001, 0.164, 192.0, 0.0, 0.0, 0.0, 0.0, 0.0, 0.0, 0.0, 0.0, 0.0, 1.700950048255404E9, 0.0, 2023-11-25 17:07:28.255
29.0, 11490.674196562077, 11937.709085668217, -63623.92766760918, -66489.62247247965, -69403.35117618456, 614.8964899654973, -25325.73346206349, 22801.014518858734, -0.214, 0.9480000000000001, 0.164, 192.0, 0.0, 0.0, 0.0, 0.0, 0.0, 0.0, 0.0, 0.0, 0.0, 1.700950048258448E9, 0.0, 2023-11-25 17:07:28.258
30.0, 11592.799316978373, 12074.725279179249, -63541.27091661345, -66394.49344807786, -69375.21032991532, 658.5047433978013, -25284.896824943644, 22877.301022684696, -0.20800000000000002, 0.9460000000000001, 0.168, 192.0, 249.0, 128.0, 29.0, 144.0, 5.0, 64.0, 0.0, 0.0, 0.0, 1.70095004826346E9, 0.0, 2023-11-25 17:07:28.263
31.0, 11615.4416341116, 12053.111142290967, -63604.19107725514, -66444.65076263556, -69269.97831701975, 764.6531778160546, -25262.343914788238, 22875.736400572827, -0.20800000000000002, 0.9460000000000001, 0.168, 192.0, 0.0, 0.0, 0.0, 0.0, 0.0, 0.0, 0.0, 0.0, 0.0, 1.70095004826745E9, 0.0, 2023-11-25 17:07:28.267
32.0, 11481.822905757774, 11879.080459961946, -63674.55436880045, -66538.99747598142, -69357.68656226237, 639.2822431662373, -25332.48368888899, 22791.671489676417, -0.20800000000000002, 0.9460000000000001, 0.168, 192.0, 0.0, 0.0, 0.0, 0.0, 0.0, 0.0, 0.0, 0.0, 0.0, 1.700950048271546E9, 0.0, 2023-11-25 17:07:28.271
33.0, 11483.901617992118, 11916.899611580326, -63628.37566475578, -66489.6001207352, -69402.30064419516, 618.9645074563632, -25316.837467770278, 22839.638333277504, -0.20800000000000002, 0.9460000000000001, 0.168, 192.0, 0.0, 0.0, 0.0, 0.0, 0.0, 0.0, 0.0, 0.0, 0.0, 1.700950048275494E9, 0.0, 2023-11-25 17:07:28.275
34.0, 11578.71771797153, 12055.323964992043, -63544.377809092744, -66391.0736311762, -69382.85462651904, 667.8030690912091, -25269.205900336015, 22914.740194647336, -0.20800000000000002, 0.9460000000000001, 0.168, 192.0, 0.0, 0.0, 0.0, 0.0, 0.0, 0.0, 0.0, 0.0, 0.0, 1.700950048278472E9, 0.0, 2023-11-25 17:07:28.278
35.0, 11621.364846392256, 12065.270491274654, -63582.84516130033, -66413.53713435378, -69281.33300320304, 770.2634656743367, -25234.828917363753, 22922.473898228873, -0.20800000000000002, 0.9460000000000001, 0.168, 192.0, 0.0, 0.0, 0.0, 0.0, 0.0, 0.0, 0.0, 0.0, 0.0, 1.700950048282516E9, 0.0, 2023-11-25 17:07:28.282
36.0, 11500.88894377815, 11900.918114294782, -63672.31919435492, -66521.18313565054, -69329.99275088224, 686.9585140894072, -25299.224293139494, 22829.647103505984, -0.20800000000000002, 0.9460000000000001, 0.168, 192.0, 0.0, 0.0, 0.0, 0.0, 0.0, 0.0, 0.0, 0.0, 0.0, 1.700950048286494E9, 0.0, 2023-11-25 17:07:28.286
37.0, 11474.290367876336, 11900.985169528149, -63634.36593226981, -66488.75075444588, -69397.1820947149, 629.5815860726341, -25303.20290365254, 22852.602345061583, -0.20800000000000002, 0.9460000000000001, 0.168, 192.0, 0.0, 0.0, 0.0, 0.0, 0.0, 0.0, 0.0, 0.0, 0.0, 1.70095004829254E9, 0.0, 2023-11-25 17:07:28.292
38.0, 11541.99380183146, 12019.739987819194, -63575.08910597434, -66415.68290182149, -69407.91093205345, 662.9527405444074, -25278.258356840415, 22911.253322512308, -0.20800000000000002, 0.9460000000000001, 0.168, 192.0, 0.0, 0.0, 0.0, 0.0, 0.0, 0.0, 0.0, 0.0, 0.0, 1.700950048295522E9, 0.0, 2023-11-25 17:07:28.295
39.0, 11627.355113906278, 12087.175200840855, -63564.96376573608, -66390.29132012026, -69307.99863433822, 761.5686370812223, -25237.66758890958, 22937.15899433601, -0.20800000000000002, 0.9460000000000001, 0.168, 192.0, 0.0, 0.0, 0.0, 0.0, 0.0, 0.0, 0.0, 0.0, 0.0, 1.700950048299572E9, 0.0, 2023-11-25 17:07:28.299
40.0, 11513.383568928668, 11916.229059246667, -63684.70206078316, -66519.03736818282, -69327.9587421368, 720.1061511166276, -25311.271883400907, 22827.09900463808, -0.20600000000000002, 0.9460000000000001, 0.166, 192.0, 249.0, 144.0, 29.0, 144.0, 5.0, 48.0, 0.0, 0.0, 0.0, 1.700950048303661E9, 0.0, 2023-11-25 17:07:28.303
41.0, 11457.705373490498, 11872.084363947435, -63655.398923802255, -66499.01020515087, -69412.60479838906, 621.6243650465448, -25337.244610457972, 22827.814260460647, -0.20600000000000002, 0.9460000000000001, 0.166, 192.0, 0.0, 0.0, 0.0, 0.0, 0.0, 0.0, 0.0, 0.0, 0.0, 1.700950048306601E9, 0.0, 2023-11-25 17:07:28.306
42.0, 11514.121176495693, 11984.066603668523, -63596.12209750678, -66423.9306955255, -69419.08680428109, 665.903170812508, -25308.366156621716, 22896.72468861636, -0.20600000000000002, 0.9460000000000001, 0.166, 192.0, 0.0, 0.0, 0.0, 0.0, 0.0, 0.0, 0.0, 0.0, 0.0, 1.700950048311265E9, 0.0, 2023-11-25 17:07:28.311
43.0, 11622.862413270763, 12086.169372340366, -63546.81414923837, -66362.35163955113, -69326.37176828049, 759.8699045026189, -25247.658818681102, 22950.30182007573, -0.20600000000000002, 0.9460000000000001, 0.166, 192.0, 0.0, 0.0, 0.0, 0.0, 0.0, 0.0, 0.0, 0.0, 0.0, 1.70095004831478E9, 0.0, 2023-11-25 17:07:28.314
44.0, 11554.019040348416, 11954.674059709796, -63657.29882208096, -66477.97721361843, -69293.4029452089, 781.9087245355516, -25279.755923718923, 22873.791798805214, -0.20600000000000002, 0.9460000000000001, 0.166, 192.0, 0.0, 0.0, 0.0, 0.0, 0.0, 0.0, 0.0, 0.0, 0.0, 1.700950048318616E9, 0.0, 2023-11-25 17:07:28.318
45.0, 11465.059097416293, 11864.864750488372, -63646.9723161426, -66492.61760623666, -69397.15974297044, 656.9177695414746, -25318.469145115512, 22852.445882850396, -0.20600000000000002, 0.9460000000000001, 0.166, 192.0, 0.0, 0.0, 0.0, 0.0, 0.0, 0.0, 0.0, 0.0, 0.0, 1.700950048323891E9, 0.0, 2023-11-25 17:07:28.323
46.0, 11518.546821897844, 11969.537969772575, -63590.020071270475, -66426.56820137122, -69406.99451053077, 701.8671276410971, -25292.00467968043, 22918.428232482463, -0.20600000000000002, 0.9460000000000001, 0.166, 192.0, 0.0, 0.0, 0.0, 0.0, 0.0, 0.0, 0.0, 0.0, 0.0, 1.700950048327641E9, 0.0, 2023-11-25 17:07:28.327
47.0, 11620.649590569687, 12085.945854895814, -63529.31273332986, -66357.56836623768, -69349.72934123628, 763.2450179153702, -25248.530536714858, 22972.385343597573, -0.20600000000000002, 0.9460000000000001, 0.166, 192.0, 0.0, 0.0, 0.0, 0.0, 0.0, 0.0, 0.0, 0.0, 0.0, 1.700950048331712E9, 0.0, 2023-11-25 17:07:28.331
48.0, 11565.19491257607, 11976.265844853622, -63648.91691791021, -66470.0870478257, -69292.26300624169, 815.3692859851463, -25276.827845195276, 22912.415613223984, -0.20600000000000002, 0.9460000000000001, 0.166, 192.0, 0.0, 0.0, 0.0, 0.0, 0.0, 0.0, 0.0, 0.0, 0.0, 1.700950048334694E9, 0.0, 2023-11-25 17:07:28.334
49.0, 11457.951242679506, 11855.991107939615, -63657.902319181245, -66501.35713831868, -69397.27150169271, 673.4580604384018, -25331.991950510976, 22866.549833601694, -0.20600000000000002, 0.9460000000000001, 0.166, 192.0, 0.0, 0.0, 0.0, 0.0, 0.0, 0.0, 0.0, 0.0, 0.0, 1.700950048338685E9, 0.0, 2023-11-25 17:07:28.338
50.0, 11502.542972867845, 11948.594385217952, -63606.13567902276, -66436.22415497592, -69409.7884785877, 706.3821800210691, -25307.38267986568, 22924.418499996485, -0.212, 0.9500000000000001, 0.166, 192.0, 249.0, 96.0, 29.0, 176.0, 5.0, 48.0, 0.0, 0.0, 0.0, 1.700950048343128E9, 0.0, 2023-11-25 17:07:28.343
51.0, 11611.06069219836, 12083.710680450284, -63529.78211996343, -66350.19229056744, -69367.6777920339, 753.1196776771162, -25270.703467214524, 22983.82943675869, -0.212, 0.9500000000000001, 0.166, 192.0, 0.0, 0.0, 0.0, 0.0, 0.0, 0.0, 0.0, 0.0, 0.0, 1.700950048346761E9, 0.0, 2023-11-25 17:07:28.346
52.0, 11596.24148562449, 12018.287124429598, -63625.671103676694, -66441.25329747835, -69286.13862826093, 828.5568152137776, -25278.683039985066, 22932.465128000396, -0.212, 0.9500000000000001, 0.166, 192.0, 0.0, 0.0, 0.0, 0.0, 0.0, 0.0, 0.0, 0.0, 0.0, 1.700950048351745E9, 0.0, 2023-11-25 17:07:28.351
53.0, 11471.027013185862, 11864.462419088177, -63668.20647337514, -66511.72834774594, -69386.22973993179, 681.6835023979548, -25349.15809025265, 22846.52267056974, -0.212, 0.9500000000000001, 0.166, 192.0, 0.0, 0.0, 0.0, 0.0, 0.0, 0.0, 0.0, 0.0, 0.0, 1.700950048355697E9, 0.0, 2023-11-25 17:07:28.355
54.0, 11490.249513417426, 11930.578879186975, -63620.19492628514, -66455.24548950738, -69414.99643504577, 692.6135054365999, -25333.221296456017, 22898.75869736179, -0.212, 0.9500000000000001, 0.166, 192.0, 0.0, 0.0, 0.0, 0.0, 0.0, 0.0, 0.0, 0.0, 0.0, 1.70095004835979E9, 0.0, 2023-11-25 17:07:28.359
55.0, 11578.740069715986, 12060.397810983397, -63548.423474839154, -66373.2145873564, -69402.21123721734, 720.7990551947422, -25303.091144930262, 22943.68570371696, -0.212, 0.9500000000000001, 0.166, 192.0, 0.0, 0.0, 0.0, 0.0, 0.0, 0.0, 0.0, 0.0, 0.0, 1.700950048362774E9, 0.0, 2023-11-25 17:07:28.362
56.0, 11612.312389887857, 12049.423104455842, -63602.53704816545, -66415.7723087993, -69295.52636093216, 820.800759887786, -25280.158255119117, 22926.92189537548, -0.212, 0.9500000000000001, 0.166, 192.0, 0.0, 0.0, 0.0, 0.0, 0.0, 0.0, 0.0, 0.0, 0.0, 1.700950048366742E9, 0.0, 2023-11-25 17:07:28.366
57.0, 11486.51677209339, 11886.277721676555, -63669.03348791999, -66503.56996101975, -69365.97905945529, 711.2325085678707, -25343.838375072286, 22846.90265022548, -0.212, 0.9500000000000001, 0.166, 192.0, 0.0, 0.0, 0.0, 0.0, 0.0, 0.0, 0.0, 0.0, 0.0, 1.7009500483708E9, 0.0, 2023-11-25 17:07:28.370
58.0, 11483.588693569744, 11913.256277234112, -63624.620571687294, -66454.440826707, -69410.74960359927, 693.0605403257061, -25330.852011543753, 22896.255301982797, -0.212, 0.9500000000000001, 0.166, 192.0, 0.0, 0.0, 0.0, 0.0, 0.0, 0.0, 0.0, 0.0, 0.0, 1.700950048374828E9, 0.0, 2023-11-25 17:07:28.374
59.0, 11548.609918190232, 12021.751644820171, -63571.33401290584, -66386.53622705177, -69423.78067061672, 716.3287063036807, -25319.989063738474, 22940.467052515396, -0.212, 0.9500000000000001, 0.166, 192.0, 0.0, 0.0, 0.0, 0.0, 0.0, 0.0, 0.0, 0.0, 0.0, 1.700950048378837E9, 0.0, 2023-11-25 17:07:28.378
60.0, 11614.43580561111, 12057.603842926485, -63589.41657417019, -66393.12999166608, -69317.09579433153, 816.3304109967246, -25287.824903467288, 22942.97044789439, -0.212, 0.9520000000000001, 0.17200000000000001, 192.0, 249.0, 96.0, 29.0, 192.0, 5.0, 96.0, 0.0, 0.0, 0.0, 1.700950048383829E9, 0.0, 2023-11-25 17:07:28.383
61.0, 11484.37100462568, 11878.700480306206, -63696.503781855565, -66517.0033594374, -69367.49897807825, 737.0264216692951, -25354.50015717747, 22845.13686241351, -0.212, 0.9520000000000001, 0.17200000000000001, 192.0, 0.0, 0.0, 0.0, 0.0, 0.0, 0.0, 0.0, 0.0, 0.0, 1.700950048387863E9, 0.0, 2023-11-25 17:07:28.387
62.0, 11450.93279492054, 11866.719945278162, -63657.16471161422, -66485.35328928867, -69437.45993822336, 668.384214447047, -25364.625497415724, 22868.874415025046, -0.212, 0.9520000000000001, 0.17200000000000001, 192.0, 0.0, 0.0, 0.0, 0.0, 0.0, 0.0, 0.0, 0.0, 0.0, 1.700950048390876E9, 0.0, 2023-11-25 17:07:28.390
63.0, 11535.623554661699, 12000.830412010004, -63574.35149840731, -66391.81123874322, -69426.0829002956, 722.8330639401751, -25327.812174297833, 22942.121081605088, -0.212, 0.9520000000000001, 0.17200000000000001, 192.0, 0.0, 0.0, 0.0, 0.0, 0.0, 0.0, 0.0, 0.0, 0.0, 1.700950048394873E9, 0.0, 2023-11-25 17:07:28.394
64.0, 11618.235602168514, 12069.584377954528, -63560.314602889375, -66367.5148925203, -69331.9597043943, 818.0514953197832, -25279.44299929655, 22972.340640108665, -0.212, 0.9520000000000001, 0.17200000000000001, 192.0, 0.0, 0.0, 0.0, 0.0, 0.0, 0.0, 0.0, 0.0, 0.0, 1.700950048398888E9, 0.0, 2023-11-25 17:07:28.398
65.0, 11506.745100825441, 11906.617809130885, -63680.99167120358, -66500.84304819621, -69341.63800974346, 789.2177449724371, -25336.082319746296, 22878.217444207366, -0.212, 0.9520000000000001, 0.17200000000000001, 192.0, 0.0, 0.0, 0.0, 0.0, 0.0, 0.0, 0.0, 0.0, 0.0, 1.700950048403008E9, 0.0, 2023-11-25 17:07:28.403
66.0, 11434.973649379452, 11844.479959545131, -63663.08792389488, -66499.65840574008, -69437.57169694564, 680.3423977306363, -25369.855805618266, 22870.953127259392, -0.212, 0.9520000000000001, 0.17200000000000001, 192.0, 0.0, 0.0, 0.0, 0.0, 0.0, 0.0, 0.0, 0.0, 0.0, 1.70095004840691E9, 0.0, 2023-11-25 17:07:28.406
67.0, 11486.69558604903, 11949.756675929628, -63609.935475580154, -66432.55846888524, -69449.23930755131, 717.5804039931779, -25350.49919491997, 22924.552610463215, -0.212, 0.9520000000000001, 0.17200000000000001, 192.0, 0.0, 0.0, 0.0, 0.0, 0.0, 0.0, 0.0, 0.0, 0.0, 1.700950048412556E9, 0.0, 2023-11-25 17:07:28.412
68.0, 11604.042244439393, 12069.360860509976, -63545.629506782236, -66358.39538078253, -69353.41737907141, 811.6141929166547, -25282.52754003138, 22995.519399108816, -0.212, 0.9520000000000001, 0.17200000000000001, 192.0, 0.0, 0.0, 0.0, 0.0, 0.0, 0.0, 0.0, 0.0, 0.0, 1.700950048416421E9, 0.0, 2023-11-25 17:07:28.416
69.0, 11543.536072198876, 11948.259109051121, -63650.48154002208, -66468.83535013621, -69308.1103930605, 850.0591933797829, -25302.6217582967, 22934.879116401567, -0.212, 0.9520000000000001, 0.17200000000000001, 192.0, 0.0, 0.0, 0.0, 0.0, 0.0, 0.0, 0.0, 0.0, 0.0, 1.7009500484189E9, 0.0, 2023-11-25 17:07:28.418
70.0, 11459.001774668906, 11861.02025044206, -63638.45630150513, -66479.9888706194, -69408.22385647582, 718.5191772603008, -25338.943343036575, 22906.33593873214, -0.21, 0.9540000000000001, 0.164, 192.0, 249.0, 112.0, 29.0, 208.0, 5.0, 32.0, 0.0, 0.0, 0.0, 1.700950048422893E9, 0.0, 2023-11-25 17:07:28.422
71.0, 11495.144545453137, 11949.220234062701, -63600.59244639784, -66428.82572756121, -69432.02846432073, 746.771782251809, -25322.715976562024, 22955.39801781154, -0.21, 0.9540000000000001, 0.164, 192.0, 0.0, 0.0, 0.0, 0.0, 0.0, 0.0, 0.0, 0.0, 0.0, 1.700950048427776E9, 0.0, 2023-11-25 17:07:28.427
72.0, 11592.732261745008, 12063.191779040311, -63542.25439336949, -66358.21656682689, -69385.26861492022, 799.2760299773253, -25290.931795946577, 22995.899378764556, -0.21, 0.9540000000000001, 0.164, 192.0, 0.0, 0.0, 0.0, 0.0, 0.0, 0.0, 0.0, 0.0, 0.0, 1.700950048431037E9, 0.0, 2023-11-25 17:07:28.431
73.0, 11558.154113072647, 11971.974309918203, -63643.10546435184, -66454.95491682946, -69309.04916632762, 869.5722662892659, -25302.800572252345, 22947.329038063173, -0.21, 0.9540000000000001, 0.164, 192.0, 0.0, 0.0, 0.0, 0.0, 0.0, 0.0, 0.0, 0.0, 0.0, 1.700950048435039E9, 0.0, 2023-11-25 17:07:28.435
74.0, 11444.27197507286, 11840.635459498819, -63661.38919131627, -66498.60787375068, -69413.47651642282, 731.1479128775493, -25358.903450835165, 22900.88211308505, -0.21, 0.9540000000000001, 0.164, 192.0, 0.0, 0.0, 0.0, 0.0, 0.0, 0.0, 0.0, 0.0, 0.0, 1.700950048439407E9, 0.0, 2023-11-25 17:07:28.439
75.0, 11466.310795105792, 11907.780099842561, -63625.335827509865, -66449.8363673492, -69444.94777261588, 742.6590612720324, -25354.544860666378, 22939.572982737183, -0.21, 0.9540000000000001, 0.164, 192.0, 0.0, 0.0, 0.0, 0.0, 0.0, 0.0, 0.0, 0.0, 0.0, 1.700950048443984E9, 0.0, 2023-11-25 17:07:28.443
76.0, 11586.071441897326, 12055.167502780856, -63531.57025951985, -66344.51494747579, -69391.81767604563, 799.6113061441548, -25305.10280193124, 23015.010120273844, -0.21, 0.9540000000000001, 0.164, 192.0, 0.0, 0.0, 0.0, 0.0, 0.0, 0.0, 0.0, 0.0, 0.0, 1.700950048448518E9, 0.0, 2023-11-25 17:07:28.448
77.0, 11584.976206419016, 12004.920781245326, -63620.03846407396, -66423.66247459203, -69303.14830579142, 885.9337432305507, -25306.57801706529, 22969.010230184824, -0.21, 0.9540000000000001, 0.164, 192.0, 0.0, 0.0, 0.0, 0.0, 0.0, 0.0, 0.0, 0.0, 0.0, 1.700950048450962E9, 0.0, 2023-11-25 17:07:28.450
78.0, 11458.97942292445, 11851.006668926082, -63668.16176988623, -66501.60300750769, -69400.62426336101, 735.1041716461386, -25386.48550349301, 22867.086275468624, -0.21, 0.9540000000000001, 0.164, 192.0, 0.0, 0.0, 0.0, 0.0, 0.0, 0.0, 0.0, 0.0, 0.0, 1.700950048455039E9, 0.0, 2023-11-25 17:07:28.455
79.0, 11476.279673132858, 11910.998751044126, -63618.02680707298, -66447.7353033704, -69430.86617360904, 733.2042733674376, -25369.386418984705, 22913.309683002197, -0.214, 0.9540000000000001, 0.164, 192.0, 249.0, 80.0, 29.0, 208.0, 5.0, 32.0, 0.0, 0.0, 0.0, 1.700950048459063E9, 0.0, 2023-11-25 17:07:28.459
80.0, 11587.77017447593, 12061.33658425052, -63522.16017510417, -66339.48580497334, -69396.73505982579, 786.3567216821577, -25314.91521774712, 23002.627253845603, -0.214, 0.9540000000000001, 0.164, 192.0, 0.0, 0.0, 0.0, 0.0, 0.0, 0.0, 0.0, 0.0, 0.0, 1.700950048463011E9, 0.0, 2023-11-25 17:07:28.463
81.0, 11620.515480102955, 12051.412409712364, -63582.24166420003, -66387.49735206335, -69295.88398884344, 887.2971996423245, -25287.57903427828, 22988.947986238956, -0.214, 0.9540000000000001, 0.164, 192.0, 0.0, 0.0, 0.0, 0.0, 0.0, 0.0, 0.0, 0.0, 0.0, 1.700950048467056E9, 0.0, 2023-11-25 17:07:28.467
82.0, 11497.580885598765, 11881.606207085397, -63656.89649068076, -66487.85668466767, -69369.5776903126, 775.3596634101467, -25358.277601990416, 22888.0522117677, -0.214, 0.9540000000000001, 0.164, 192.0, 0.0, 0.0, 0.0, 0.0, 0.0, 0.0, 0.0, 0.0, 0.0, 1.700950048471031E9, 0.0, 2023-11-25 17:07:28.471
83.0, 11472.055193430806, 11886.30007342101, -63632.041350846455, -66464.49911171188, -69440.05274058017, 728.1974826094488, -25370.25813701846, 22904.637206153537, -0.214, 0.9540000000000001, 0.164, 192.0, 0.0, 0.0, 0.0, 0.0, 0.0, 0.0, 0.0, 0.0, 0.0, 1.700950048474112E9, 0.0, 2023-11-25 17:07:28.474
84.0, 11564.770229431419, 12025.66320009985, -63542.567317791865, -66365.43618028596, -69423.95948457235, 774.286779676292, -25325.62170334121, 22982.68949779147, -0.214, 0.9540000000000001, 0.164, 192.0, 0.0, 0.0, 0.0, 0.0, 0.0, 0.0, 0.0, 0.0, 0.0, 1.700950048479065E9, 0.0, 2023-11-25 17:07:28.479
85.0, 11630.3949511522, 12063.728220907238, -63556.87243424326, -66367.26902333129, -69317.67693968737, 888.1689176760815, -25273.139807360152, 23009.690405093483, -0.214, 0.9540000000000001, 0.164, 192.0, 0.0, 0.0, 0.0, 0.0, 0.0, 0.0, 0.0, 0.0, 0.0, 1.700950048483104E9, 0.0, 2023-11-25 17:07:28.483
86.0, 11502.453565890022, 11885.49541062062, -63668.92172919771, -66496.52916151633, -69362.78275999818, 818.4314749755234, -25343.72661635001, 22911.76741263478, -0.214, 0.9540000000000001, 0.164, 192.0, 0.0, 0.0, 0.0, 0.0, 0.0, 0.0, 0.0, 0.0, 0.0, 1.700950048487082E9, 0.0, 2023-11-25 17:07:28.487
87.0, 11462.153370637105, 11867.904587734294, -63636.087016592865, -66473.2833472828, -69441.7961766477, 739.2168926259152, -25366.860671861254, 22921.78099415076, -0.214, 0.9540000000000001, 0.164, 192.0, 0.0, 0.0, 0.0, 0.0, 0.0, 0.0, 0.0, 0.0, 0.0, 1.700950048491171E9, 0.0, 2023-11-25 17:07:28.491
88.0, 11529.409769703123, 11986.435888580787, -63573.882111773746, -66398.31559637972, -69448.30053428418, 774.7338145653981, -25351.080340275807, 22964.74104699386, -0.214, 0.9540000000000001, 0.164, 192.0, 0.0, 0.0, 0.0, 0.0, 0.0, 0.0, 0.0, 0.0, 0.0, 1.700950048495105E9, 0.0, 2023-11-25 17:07:28.495
89.0, 11622.974171993039, 12065.695174419305, -63547.596460294306, -66363.06689537369, -69350.57870752558, 872.8579727241961, -25296.452676827037, 23002.381384656597, -0.216, 0.9480000000000001, 0.162, 192.0, 249.0, 64.0, 29.0, 160.0, 5.0, 16.0, 0.0, 0.0, 0.0, 1.700950048499153E9, 0.0, 2023-11-25 17:07:28.499
90.0, 11523.553612655833, 11908.093024264936, -63664.764304729026, -66490.78476319132, -69349.46112030282, 853.993100403917, -25346.6323431292, 22917.087127815143, -0.216, 0.9480000000000001, 0.162, 192.0, 0.0, 0.0, 0.0, 0.0, 0.0, 0.0, 0.0, 0.0, 0.0, 1.700950048503124E9, 0.0, 2023-11-25 17:07:28.503
91.0, 11460.432286314046, 11855.700535261696, -63631.616667701805, -66474.13271357212, -69433.48132771031, 750.1021921756497, -25373.11916030874, 22915.410746980997, -0.216, 0.9480000000000001, 0.162, 192.0, 0.0, 0.0, 0.0, 0.0, 0.0, 0.0, 0.0, 0.0, 0.0, 1.700950048508178E9, 0.0, 2023-11-25 17:07:28.508
92.0, 11513.160051484116, 11959.055001623035, -63576.54196936393, -66406.60809357263, -69444.09840632658, 790.2682769618365, -25355.282468233403, 22966.84211097266, -0.216, 0.9480000000000001, 0.162, 192.0, 0.0, 0.0, 0.0, 0.0, 0.0, 0.0, 0.0, 0.0, 0.0, 1.700950048511164E9, 0.0, 2023-11-25 17:07:28.511
93.0, 11624.516442360455, 12072.62421520045, -63516.393425034694, -66336.98240959435, -69361.30754486413, 869.2593418668916, -25305.10280193124, 23029.56110591425, -0.216, 0.9480000000000001, 0.162, 192.0, 0.0, 0.0, 0.0, 0.0, 0.0, 0.0, 0.0, 0.0, 0.0, 1.700950048515185E9, 0.0, 2023-11-25 17:07:28.515
94.0, 11567.76536318843, 11959.055001623035, -63623.59239144235, -66446.52830916981, -69308.53507620515, 911.8170633097964, -25323.34182540677, 22978.912052978525, -0.216, 0.9480000000000001, 0.162, 192.0, 0.0, 0.0, 0.0, 0.0, 0.0, 0.0, 0.0, 0.0, 0.0, 1.700950048519234E9, 0.0, 2023-11-25 17:07:28.519
95.0, 11465.12615264966, 11851.498407304098, -63629.381493256275, -66475.40676300607, -69421.14316477098, 768.4753261179121, -25374.907299865165, 22935.68377920196, -0.216, 0.9480000000000001, 0.162, 192.0, 0.0, 0.0, 0.0, 0.0, 0.0, 0.0, 0.0, 0.0, 0.0, 1.700950048523215E9, 0.0, 2023-11-25 17:07:28.523
96.0, 11513.629438117676, 11951.03072536358, -63577.27957693095, -66408.53034359579, -69435.40357773346, 805.3110009802582, -25353.226107743518, 22985.103486192642, -0.216, 0.9480000000000001, 0.162, 192.0, 0.0, 0.0, 0.0, 0.0, 0.0, 0.0, 0.0, 0.0, 0.0, 1.700950048526196E9, 0.0, 2023-11-25 17:07:28.526
97.0, 11625.231698183024, 12083.084831605534, -63502.51299172795, -66319.07866228565, -69376.88671074947, 873.3497111022128, -25302.86762748571, 23060.540623729306, -0.216, 0.9480000000000001, 0.162, 192.0, 0.0, 0.0, 0.0, 0.0, 0.0, 0.0, 0.0, 0.0, 0.0, 1.700950048530269E9, 0.0, 2023-11-25 17:07:28.530
98.0, 11597.068500169338, 12000.450432354264, -63604.48164993306, -66413.51478260932, -69297.38155572195, 951.1561335511367, -25310.780145022887, 23013.490201650882, -0.216, 0.9480000000000001, 0.162, 192.0, 0.0, 0.0, 0.0, 0.0, 0.0, 0.0, 0.0, 0.0, 0.0, 1.700950048534269E9, 0.0, 2023-11-25 17:07:28.534
99.0, 11449.41287629758, 11833.751122206584, -63657.23176684759, -66491.65648122507, -69430.4861939533, 777.0360442442948, -25400.656509477678, 22920.663406927993, -0.212, 0.9500000000000001, 0.162, 192.0, 249.0, 96.0, 29.0, 176.0, 5.0, 16.0, 0.0, 0.0, 0.0, 1.700950048538565E9, 0.0, 2023-11-25 17:07:28.538
100.0, 11482.51580983589, 11911.244620233134, -63606.672120889685, -66430.4797566509, -69453.88847039801, 785.0826722482053, -25391.06761110635, 22962.75174173734, -0.212, 0.9500000000000001, 0.162, 192.0, 0.0, 0.0, 0.0, 0.0, 0.0, 0.0, 0.0, 0.0, 0.0, 1.700950048543262E9, 0.0, 2023-11-25 17:07:28.543
101.0, 11599.86246822625, 12055.10044754749, -63517.15338434618, -66329.82985136865, -69413.49886816727, 831.0602105927719, -25351.057988531353, 23023.57083840023, -0.212, 0.9500000000000001, 0.162, 192.0, 0.0, 0.0, 0.0, 0.0, 0.0, 0.0, 0.0, 0.0, 0.0, 1.700950048547277E9, 0.0, 2023-11-25 17:07:28.547
102.0, 11614.704026544576, 12018.398883151876, -63591.070603259875, -66395.27575913379, -69311.99959659572, 926.6809733725755, -25338.697473847566, 22990.46790486192, -0.212, 0.9500000000000001, 0.162, 192.0, 0.0, 0.0, 0.0, 0.0, 0.0, 0.0, 0.0, 0.0, 0.0, 1.700950048551249E9, 0.0, 2023-11-25 17:07:28.551
103.0, 11478.783068511853, 11847.944479935704, -63651.44266503366, -66482.84989390969, -69411.04017627718, 786.8708118046299, -25409.038413648417, 22902.759659619293, -0.212, 0.9500000000000001, 0.162, 192.0, 0.0, 0.0, 0.0, 0.0, 0.0, 0.0, 0.0, 0.0, 0.0, 1.700950048554278E9, 0.0, 2023-11-25 17:07:28.554
104.0, 11478.380737111656, 11889.07168973347, -63613.802327370926, -66438.86166082164, -69455.29663029869, 776.1643262105378, -25405.149210113195, 22950.83826194266, -0.212, 0.9500000000000001, 0.162, 192.0, 0.0, 0.0, 0.0, 0.0, 0.0, 0.0, 0.0, 0.0, 0.0, 1.700950048558338E9, 0.0, 2023-11-25 17:07:28.558
105.0, 11574.225017336013, 12028.278354201122, -63527.882221684726, -66340.22341254038, -69435.6941504114, 815.5480999407888, -25370.59341318529, 23019.21224823144, -0.212, 0.9500000000000001, 0.162, 192.0, 0.0, 0.0, 0.0, 0.0, 0.0, 0.0, 0.0, 0.0, 0.0, 1.700950048562328E9, 0.0, 2023-11-25 17:07:28.562
106.0, 11630.372599407745, 12046.047991043091, -63557.028896454445, -66354.79674992523, -69312.9607216073, 938.4603427005223, -25322.648921328655, 23041.60869617566, -0.212, 0.9500000000000001, 0.162, 192.0, 0.0, 0.0, 0.0, 0.0, 0.0, 0.0, 0.0, 0.0, 0.0, 1.700950048566367E9, 0.0, 2023-11-25 17:07:28.566
107.0, 11487.880228505162, 11860.975546953148, -63656.650621491746, -66474.44563799449, -69392.10824872354, 828.73562916942, -25400.522399010944, 22942.97044789439, -0.212, 0.9500000000000001, 0.162, 192.0, 0.0, 0.0, 0.0, 0.0, 0.0, 0.0, 0.0, 0.0, 0.0, 1.700950048571367E9, 0.0, 2023-11-25 17:07:28.571
108.0, 11457.258338601392, 11862.20489289819, -63628.129795566776, -66447.04239929229, -69464.28203156973, 770.2411139298814, -25416.481544552036, 22960.963602180913, -0.212, 0.9500000000000001, 0.162, 192.0, 0.0, 0.0, 0.0, 0.0, 0.0, 0.0, 0.0, 0.0, 0.0, 1.70095004857539E9, 0.0, 2023-11-25 17:07:28.575
109.0, 11543.692534410064, 11994.70603402925, -63548.289364372424, -66354.52852899177, -69456.90595589948, 814.9222510960402, -25373.54384345339, 23030.70104488147, -0.212, 0.9500000000000001, 0.164, 192.0, 249.0, 96.0, 29.0, 176.0, 5.0, 32.0, 0.0, 0.0, 0.0, 1.7009500485794E9, 0.0, 2023-11-25 17:07:28.579
110.0, 11625.030532482926, 12053.580528924529, -63546.501224816, -66340.67044742948, -69346.53304177917, 925.6751448720867, -25318.312682904325, 23051.152891058075, -0.212, 0.9500000000000001, 0.164, 192.0, 0.0, 0.0, 0.0, 0.0, 0.0, 0.0, 0.0, 0.0, 0.0, 1.700950048582443E9, 0.0, 2023-11-25 17:07:28.582
111.0, 11503.057062990316, 11879.706308806695, -63658.37170581481, -66468.54477745829, -69380.9770799848, 864.990158675928, -25381.34460226829, 22938.25422981432, -0.212, 0.9500000000000001, 0.164, 192.0, 0.0, 0.0, 0.0, 0.0, 0.0, 0.0, 0.0, 0.0, 0.0, 1.700950048586397E9, 0.0, 2023-11-25 17:07:28.586
112.0, 11456.386620567635, 11850.693744503707, -63624.82173738739, -66446.19303300299, -69461.37630479054, 777.5948378556774, -25398.331928054326, 22941.182308337964, -0.212, 0.9500000000000001, 0.164, 192.0, 0.0, 0.0, 0.0, 0.0, 0.0, 0.0, 0.0, 0.0, 0.0, 1.700950048590687E9, 0.0, 2023-11-25 17:07:28.590
113.0, 11518.65858062012, 11964.79939994805, -63565.16493143618, -66371.78407571126, -69469.71350547236, 818.476178464434, -25376.20370104357, 23011.187971971987, -0.212, 0.9500000000000001, 0.164, 192.0, 0.0, 0.0, 0.0, 0.0, 0.0, 0.0, 0.0, 0.0, 0.0, 1.700950048594609E9, 0.0, 2023-11-25 17:07:28.594
114.0, 11601.360035104757, 12039.074246773034, -63545.2495271265, -66337.25063052781, -69388.66608007743, 900.0376939818495, -25339.032750014398, 23050.929373613522, -0.212, 0.9500000000000001, 0.164, 192.0, 0.0, 0.0, 0.0, 0.0, 0.0, 0.0, 0.0, 0.0, 0.0, 1.700950048598464E9, 0.0, 2023-11-25 17:07:28.598
115.0, 11513.22710671748, 11894.972550269671, -63659.69045873767, -66460.22992852092, -69374.0256874592, 898.4060166366121, -25380.606994701266, 22972.921785464503, -0.212, 0.9500000000000001, 0.164, 192.0, 0.0, 0.0, 0.0, 0.0, 0.0, 0.0, 0.0, 0.0, 0.0, 1.700950048603477E9, 0.0, 2023-11-25 17:07:28.603
116.0, 11440.874509915651, 11824.430444768721, -63637.96456312711, -66457.05598080826, -69470.22759559484, 785.8426315596857, -25408.70313748159, 22976.475712832897, -0.212, 0.9500000000000001, 0.164, 192.0, 0.0, 0.0, 0.0, 0.0, 0.0, 0.0, 0.0, 0.0, 0.0, 1.70095004860837E9, 0.0, 2023-11-25 17:07:28.608
117.0, 11488.707243050008, 11924.298038995033, -63587.56137938039, -66393.21939864391, -69485.27031961326, 826.9698413574507, -25386.30668953737, 23048.40362649007, -0.212, 0.9500000000000001, 0.164, 192.0, 0.0, 0.0, 0.0, 0.0, 0.0, 0.0, 0.0, 0.0, 0.0, 1.700950048610516E9, 0.0, 2023-11-25 17:07:28.610
118.0, 11599.504840314967, 12040.86238632946, -63526.541117017405, -66322.0067408093, -69410.05669952116, 898.4283683810673, -25340.39620642617, 23098.225664880953, -0.212, 0.9500000000000001, 0.164, 192.0, 0.0, 0.0, 0.0, 0.0, 0.0, 0.0, 0.0, 0.0, 0.0, 1.700950048614483E9, 0.0, 2023-11-25 17:07:28.614
119.0, 11558.779961917397, 11937.597326945941, -63627.861574633316, -66424.42243390351, -69346.46598654581, 950.6867469175753, -25361.719770636533, 23032.332722226707, -0.214, 0.9500000000000001, 0.164, 192.0, 249.0, 80.0, 29.0, 176.0, 5.0, 32.0, 0.0, 0.0, 0.0, 1.700950048618468E9, 0.0, 2023-11-25 17:07:28.618
120.0, 11463.405068326601, 11831.314782060956, -63625.894621121246, -66444.5837074022, -69447.25000229478, 817.2691842638475, -25405.909169424674, 22989.59618682816, -0.214, 0.9500000000000001, 0.164, 192.0, 0.0, 0.0, 0.0, 0.0, 0.0, 0.0, 0.0, 0.0, 0.0, 1.700950048622537E9, 0.0, 2023-11-25 17:07:28.622
121.0, 11498.586714099254, 11913.882126078859, -63579.91708277668, -66385.17277064, -69466.7407234598, 847.8687224231628, -25383.557424969367, 23039.664094408046, -0.214, 0.9500000000000001, 0.164, 192.0, 0.0, 0.0, 0.0, 0.0, 0.0, 0.0, 0.0, 0.0, 0.0, 1.700950048626581E9, 0.0, 2023-11-25 17:07:28.626
122.0, 11603.036415938905, 12036.86142407196, -63509.911419142656, -66305.08647025663, -69419.53383917021, 903.2116416945031, -25335.52352613491, 23102.27133062736, -0.214, 0.9500000000000001, 0.164, 192.0, 0.0, 0.0, 0.0, 0.0, 0.0, 0.0, 0.0, 0.0, 0.0, 1.700950048631517E9, 0.0, 2023-11-25 17:07:28.631
123.0, 11581.936369173094, 11958.205635333734, -63607.78970811245, -66398.78498301328, -69337.74880620824, 978.8275931868069, -25344.061892516842, 23041.02755081982, -0.214, 0.9500000000000001, 0.164, 192.0, 0.0, 0.0, 0.0, 0.0, 0.0, 0.0, 0.0, 0.0, 0.0, 1.70095004863554E9, 0.0, 2023-11-25 17:07:28.635
124.0, 11460.588748525233, 11812.628723696318, -63641.049103861944, -66460.34168724318, -69443.27139178175, 828.3780012581351, -25412.79350671691, 22965.277488860786, -0.214, 0.9500000000000001, 0.164, 192.0, 0.0, 0.0, 0.0, 0.0, 0.0, 0.0, 0.0, 0.0, 0.0, 1.700950048638556E9, 0.0, 2023-11-25 17:07:28.638
125.0, 11490.718900050986, 11887.976454255158, -63589.37187068127, -66399.5225905803, -69466.4501507819, 843.5101322543779, -25399.136590854716, 23015.680672607505, -0.214, 0.9500000000000001, 0.164, 192.0, 0.0, 0.0, 0.0, 0.0, 0.0, 0.0, 0.0, 0.0, 0.0, 1.700950048642592E9, 0.0, 2023-11-25 17:07:28.642
126.0, 11600.980055449016, 12035.497967660185, -63502.065956838844, -66302.18074347744, -69430.70971139785, 888.7500630319195, -25358.881099090708, 23073.817559935756, -0.214, 0.9500000000000001, 0.164, 192.0, 0.0, 0.0, 0.0, 0.0, 0.0, 0.0, 0.0, 0.0, 0.0, 1.700950048646596E9, 0.0, 2023-11-25 17:07:28.646
127.0, 11623.622372582242, 12015.604915094962, -63569.85879777179, -66359.35650579412, -69324.3154077906, 995.0326079169045, -25342.273752960416, 23046.74959740038, -0.214, 0.9500000000000001, 0.164, 192.0, 0.0, 0.0, 0.0, 0.0, 0.0, 0.0, 0.0, 0.0, 0.0, 1.700950048652589E9, 0.0, 2023-11-25 17:07:28.652
128.0, 11480.481801090456, 11836.567442007952, -63643.91012715222, -66457.90534709756, -69424.60768516155, 855.4683155379672, -25427.880934224242, 22946.591430496148, -0.214, 0.9500000000000001, 0.164, 192.0, 0.0, 0.0, 0.0, 0.0, 0.0, 0.0, 0.0, 0.0, 0.0, 1.70095004865576E9, 0.0, 2023-11-25 17:07:28.655
129.0, 11490.204809928515, 11877.918169250272, -63592.07643176037, -66401.19897141444, -69460.1916623344, 842.7948764318081, -25409.50780028198, 22996.905207265045, -0.22, 0.9500000000000001, 0.168, 192.0, 249.0, 32.0, 29.0, 176.0, 5.0, 64.0, 0.0, 0.0, 0.0, 1.70095004865866E9, 0.0, 2023-11-25 17:07:28.658
130.0, 11581.846962195274, 12012.229801682211, -63512.88420115521, -66311.12144125956, -69448.3452377731, 882.1339466731486, -25369.475825962523, 23063.446350508493, -0.22, 0.9500000000000001, 0.168, 192.0, 0.0, 0.0, 0.0, 0.0, 0.0, 0.0, 0.0, 0.0, 0.0, 1.700950048662682E9, 0.0, 2023-11-25 17:07:28.662
131.0, 11633.814768053862, 12029.507700146163, -63545.47304457105, -66333.78611013724, -69339.17931785337, 991.0092939149492, -25329.376796409702, 23067.31320229926, -0.22, 0.9500000000000001, 0.168, 192.0, 0.0, 0.0, 0.0, 0.0, 0.0, 0.0, 0.0, 0.0, 0.0, 1.700950048666617E9, 0.0, 2023-11-25 17:07:28.666
132.0, 11504.621685102187, 11852.861863715872, -63634.38828401426, -66446.37184695862, -69397.58442611509, 894.2262404234697, -25402.891683923208, 22960.65067775854, -0.22, 0.9500000000000001, 0.168, 192.0, 0.0, 0.0, 0.0, 0.0, 0.0, 0.0, 0.0, 0.0, 0.0, 1.70095004867064E9, 0.0, 2023-11-25 17:07:28.670
133.0, 11479.587731312244, 11856.169921895256, -63592.09878350482, -66409.670282563, -69457.6435634665, 843.3983735321013, -25402.914035667665, 22988.188026927477, -0.22, 0.9500000000000001, 0.168, 192.0, 0.0, 0.0, 0.0, 0.0, 0.0, 0.0, 0.0, 0.0, 0.0, 1.700950048677825E9, 0.0, 2023-11-25 17:07:28.677
