%OpenBCI Raw EXG Data
%Number of channels = 8
%Sample Rate = 250 Hz
%Board = OpenBCI_GUI$BoardCytonSerial
Sample Index, EXG Channel 0, EXG Channel 1, EXG Channel 2, EXG Channel 3, EXG Channel 4, EXG Channel 5, EXG Channel 6, EXG Channel 7, Accel Channel 0, Accel Channel 1, Accel Channel 2, Other, Other, Other, Other, Other, Other, Other, Analog Channel 0, Analog Channel 1, Analog Channel 2, Timestamp, Other, Timestamp (Formatted)
179.0, 10149.994212388303, 16823.867478831708, -56407.756377191115, -55505.79643318611, -67829.25192466401, -1069.7768413754513, -34442.8312114276, 21917.695929729456, 0.0, 0.0, 0.0, 192.0, 0.0, 0.0, 0.0, 0.0, 0.0, 0.0, 0.0, 0.0, 0.0, 1.700950149173268E9, 0.0, 2023-11-25 17:09:09.173
180.0, 10158.711392725872, 16871.34258405478, -56388.06449032599, -55470.972415324744, -67839.46667188009, -1053.6388818787195, -34438.18204858089, 21953.77164528032, 0.0, 0.0, 0.0, 192.0, 0.0, 0.0, 0.0, 0.0, 0.0, 0.0, 0.0, 0.0, 0.0, 1.700950149173294E9, 0.0, 2023-11-25 17:09:09.173
181.0, 10229.365256949099, 16977.02163183947, -56340.00823974708, -55409.99685645066, -67808.42009883167, -1021.8770530077283, -34408.38717322197, 21994.183599255517, 0.0, 0.0, 0.0, 192.0, 0.0, 0.0, 0.0, 0.0, 0.0, 0.0, 0.0, 0.0, 0.0, 1.700950149173307E9, 0.0, 2023-11-25 17:09:09.173
0.0, 0.0, 0.0, 0.0, 0.0, 0.0, 0.0, 0.0, 0.0, 0.0, 0.0, 0.0, 192.0, 0.0, 0.0, 0.0, 0.0, 0.0, 0.0, 0.0, 0.0, 0.0, 1.700950149251674E9, 0.0, 2023-11-25 17:09:09.251
1.0, 10619.537308160938, 17074.85521732035, -56042.35005883576, -55071.367927952764, -67651.04146612185, -1379.6837782482837, -34801.39789597963, 21452.712589825704, -0.23, 0.9460000000000001, 0.188, 192.0, 248.0, 208.0, 29.0, 144.0, 5.0, 224.0, 0.0, 0.0, 0.0, 1.700950149268446E9, 0.0, 2023-11-25 17:09:09.268
2.0, 10634.043590312433, 17129.281715069024, -56021.60763998123, -55037.661497314155, -67655.55651850182, -1343.0492690860356, -34787.5621661618, 21493.34806124545, -0.23, 0.9460000000000001, 0.188, 192.0, 0.0, 0.0, 0.0, 0.0, 0.0, 0.0, 0.0, 0.0, 0.0, 1.700950149271489E9, 0.0, 2023-11-25 17:09:09.271
3.0, 10708.31843713742, 17223.3155039925, -55968.92457830007, -54979.16698207462, -67611.16595401359, -1302.7043703442062, -34754.526287856854, 21525.512221516638, -0.23, 0.9460000000000001, 0.188, 192.0, 0.0, 0.0, 0.0, 0.0, 0.0, 0.0, 0.0, 0.0, 0.0, 1.700950149274525E9, 0.0, 2023-11-25 17:09:09.274
4.0, 10704.563344068927, 17177.963814492683, -56021.74175044796, -55032.431189111616, -67578.46535187546, -1236.6549654787739, -34756.31442741328, 21471.6668691238, -0.23, 0.9460000000000001, 0.188, 192.0, 0.0, 0.0, 0.0, 0.0, 0.0, 0.0, 0.0, 0.0, 0.0, 1.700950149278532E9, 0.0, 2023-11-25 17:09:09.278
5.0, 10615.491642414529, 17063.075847992404, -56042.551224535855, -55078.85576234529, -67642.97248637349, -1374.0511386455464, -34803.677773914074, 21412.457098061695, -0.23, 0.9460000000000001, 0.188, 192.0, 0.0, 0.0, 0.0, 0.0, 0.0, 0.0, 0.0, 0.0, 0.0, 1.700950149282523E9, 0.0, 2023-11-25 17:09:09.282
6.0, 10612.518860401971, 17103.24193277859, -56026.256802827935, -55051.00548875397, -67656.3164778133, -1351.9452633792478, -34787.606869650706, 21466.637726621357, -0.23, 0.9460000000000001, 0.188, 192.0, 0.0, 0.0, 0.0, 0.0, 0.0, 0.0, 0.0, 0.0, 0.0, 1.700950149286518E9, 0.0, 2023-11-25 17:09:09.286
7.0, 10676.869532688801, 17199.756765336606, -55978.3123109713, -54993.203877592554, -67630.58961994524, -1316.3165827174882, -34763.31052342779, 21521.06422437003, -0.23, 0.9460000000000001, 0.188, 192.0, 0.0, 0.0, 0.0, 0.0, 0.0, 0.0, 0.0, 0.0, 0.0, 1.700950149290631E9, 0.0, 2023-11-25 17:09:09.290
8.0, 10717.952038997655, 17202.103698504412, -56000.529944959875, -55012.582840035306, -67572.45273261699, -1221.8581106493605, -34739.66237779408, 21507.854343396946, -0.232, 0.9460000000000001, 0.19, 192.0, 248.0, 192.0, 29.0, 144.0, 5.0, 240.0, 0.0, 0.0, 0.0, 1.70095014929455E9, 0.0, 2023-11-25 17:09:09.294
9.0, 10625.572279163871, 17074.18466498669, -56049.32380310581, -55085.22600951505, -67640.20087006103, -1338.4001062393315, -34786.46693068349, 21442.76606354309, -0.232, 0.9460000000000001, 0.19, 192.0, 0.0, 0.0, 0.0, 0.0, 0.0, 0.0, 0.0, 0.0, 0.0, 1.7009501492996E9, 0.0, 2023-11-25 17:09:09.299
10.0, 10617.413892437684, 17089.316795982933, -56026.90500341714, -55055.297023689396, -67658.03756213636, -1351.386469767865, -34775.156947989104, 21484.697936141245, -0.232, 0.9460000000000001, 0.19, 192.0, 0.0, 0.0, 0.0, 0.0, 0.0, 0.0, 0.0, 0.0, 0.0, 1.700950149307595E9, 0.0, 2023-11-25 17:09:09.307
11.0, 10669.918140163201, 17186.658643085797, -55987.20830526451, -55000.28938058489, -67641.51962298389, -1318.2835362295552, -34750.79354653282, 21528.730872718203, -0.232, 0.9460000000000001, 0.19, 192.0, 0.0, 0.0, 0.0, 0.0, 0.0, 0.0, 0.0, 0.0, 0.0, 1.700950149310574E9, 0.0, 2023-11-25 17:09:09.310
12.0, 10728.032675747, 17218.576934167973, -55990.65047391063, -54994.99201714898, -67573.7938372843, -1225.0544101064695, -34717.690612994505, 21534.139994876386, -0.232, 0.9460000000000001, 0.19, 192.0, 0.0, 0.0, 0.0, 0.0, 0.0, 0.0, 0.0, 0.0, 0.0, 1.700950149314802E9, 0.0, 2023-11-25 17:09:09.314
13.0, 10650.405067253718, 17093.965958829638, -56047.49096006047, -55074.787744854424, -67621.73832914095, -1304.4925099006307, -34766.37271241817, 21458.032305006065, -0.232, 0.9460000000000001, 0.19, 192.0, 0.0, 0.0, 0.0, 0.0, 0.0, 0.0, 0.0, 0.0, 0.0, 1.700950149317659E9, 0.0, 2023-11-25 17:09:09.317
14.0, 10618.57618314936, 17074.4305341757, -56026.14504410566, -55057.42043941265, -67652.04729462235, -1359.9695396387028, -34770.97717177596, 21471.376296445884, -0.232, 0.9460000000000001, 0.19, 192.0, 0.0, 0.0, 0.0, 0.0, 0.0, 0.0, 0.0, 0.0, 0.0, 1.700950149320653E9, 0.0, 2023-11-25 17:09:09.320
15.0, 10665.559549994416, 17162.92109047426, -55989.979921576974, -55005.92202018762, -67642.27958229538, -1321.6586496423067, -34754.7051018125, 21513.68814869978, -0.232, 0.9460000000000001, 0.19, 192.0, 0.0, 0.0, 0.0, 0.0, 0.0, 0.0, 0.0, 0.0, 0.0, 1.700950149323636E9, 0.0, 2023-11-25 17:09:09.323
16.0, 10738.783864830002, 17224.74601563764, -55973.99842429143, -54980.99982511996, -67576.43134313004, -1245.1262766273353, -34722.83151421923, 21530.004922152155, -0.232, 0.9460000000000001, 0.19, 192.0, 0.0, 0.0, 0.0, 0.0, 0.0, 0.0, 0.0, 0.0, 0.0, 1.700950149327641E9, 0.0, 2023-11-25 17:09:09.327
17.0, 10676.623663499793, 17117.748214930085, -56045.52400654841, -55067.00933778398, -67608.9084278236, -1279.615018321874, -34769.457253153, 21459.932203284767, -0.232, 0.9460000000000001, 0.19, 192.0, 0.0, 0.0, 0.0, 0.0, 0.0, 0.0, 0.0, 0.0, 0.0, 1.700950149330631E9, 0.0, 2023-11-25 17:09:09.330
18.0, 10617.704465115603, 17069.602557373353, -56042.59592802476, -55071.56909365286, -67665.23482385097, -1377.8732869474038, -34801.2637855129, 21461.7650463301, -0.23600000000000002, 0.9460000000000001, 0.188, 192.0, 248.0, 160.0, 29.0, 144.0, 5.0, 224.0, 0.0, 0.0, 0.0, 1.700950149333631E9, 0.0, 2023-11-25 17:09:09.333
19.0, 10648.77338990848, 17151.655811268785, -56018.925430646595, -55032.38648562271, -67664.9218994286, -1342.2222545411892, -34795.564090676795, 21495.225607779696, -0.23600000000000002, 0.9460000000000001, 0.188, 192.0, 0.0, 0.0, 0.0, 0.0, 0.0, 0.0, 0.0, 0.0, 0.0, 1.700950149337648E9, 0.0, 2023-11-25 17:09:09.337
20.0, 10729.619649603326, 17234.826652386982, -55980.56983716129, -54984.531400743894, -67598.98425328544, -1271.166058917768, -34756.895572769114, 21534.385864065393, -0.23600000000000002, 0.9460000000000001, 0.188, 192.0, 0.0, 0.0, 0.0, 0.0, 0.0, 0.0, 0.0, 0.0, 0.0, 1.700950149342694E9, 0.0, 2023-11-25 17:09:09.342
21.0, 10698.9754079551, 17154.00274443659, -56036.65036399965, -55046.959823007564, -67591.56347412628, -1248.5684452734524, -34767.06561649628, 21491.671680411302, -0.23600000000000002, 0.9460000000000001, 0.188, 192.0, 0.0, 0.0, 0.0, 0.0, 0.0, 0.0, 0.0, 0.0, 0.0, 1.700950149346705E9, 0.0, 2023-11-25 17:09:09.346
22.0, 10620.543136661427, 17073.00002253056, -56043.62410826971, -55070.8985413192, -67658.14932085865, -1380.711958493228, -34799.67681165657, 21464.380200431373, -0.23600000000000002, 0.9460000000000001, 0.188, 192.0, 0.0, 0.0, 0.0, 0.0, 0.0, 0.0, 0.0, 0.0, 0.0, 1.700950149349716E9, 0.0, 2023-11-25 17:09:09.349
23.0, 10651.075619587376, 17150.270003112557, -56011.54935497634, -55024.876299485724, -67650.88500391066, -1340.6352806848622, -34789.4620644405, 21501.193523549264, -0.23600000000000002, 0.9460000000000001, 0.188, 192.0, 0.0, 0.0, 0.0, 0.0, 0.0, 0.0, 0.0, 0.0, 0.0, 1.700950149353736E9, 0.0, 2023-11-25 17:09:09.353
24.0, 10732.726542082613, 17250.204652572233, -55958.732182828455, -54966.292377268364, -67591.54112238182, -1285.4711753691645, -34754.1016047122, 21533.648256498367, -0.23600000000000002, 0.9460000000000001, 0.188, 192.0, 0.0, 0.0, 0.0, 0.0, 0.0, 0.0, 0.0, 0.0, 0.0, 1.70095014935784E9, 0.0, 2023-11-25 17:09:09.357
25.0, 10711.69355055017, 17179.30491916, -56021.20530858103, -55035.9404129911, -67574.95612799599, -1241.2817765810223, -34765.07631123976, 21471.44335167925, -0.23600000000000002, 0.9460000000000001, 0.188, 192.0, 0.0, 0.0, 0.0, 0.0, 0.0, 0.0, 0.0, 0.0, 0.0, 1.700950149361728E9, 0.0, 2023-11-25 17:09:09.361
26.0, 10624.34293321883, 17078.207978988645, -56037.11975063322, -55077.26878848896, -67647.04050386435, -1391.5972580429625, -34807.83519838276, 21417.083909163943, -0.23600000000000002, 0.9460000000000001, 0.188, 192.0, 0.0, 0.0, 0.0, 0.0, 0.0, 0.0, 0.0, 0.0, 0.0, 1.700950149366891E9, 0.0, 2023-11-25 17:09:09.366
27.0, 10641.799645638424, 17142.2457268531, -56010.878802642685, -55036.32039264684, -67647.44283526455, -1357.4437925152533, -34794.938241832046, 21470.906909812322, -0.23600000000000002, 0.9460000000000001, 0.188, 192.0, 0.0, 0.0, 0.0, 0.0, 0.0, 0.0, 0.0, 0.0, 0.0, 1.700950149370754E9, 0.0, 2023-11-25 17:09:09.370
28.0, 10713.9287249957, 17237.955896610725, -55963.67191835307, -54980.30692104184, -67612.08237553625, -1313.16498674929, -34760.56125885979, 21526.02631163911, -0.234, 0.9460000000000001, 0.176, 192.0, 248.0, 176.0, 29.0, 144.0, 5.0, 128.0, 0.0, 0.0, 0.0, 1.700950149374782E9, 0.0, 2023-11-25 17:09:09.374
29.0, 10723.830547789401, 17200.06968975898, -56009.51534623091, -55027.51380533145, -67574.10676170669, -1237.1914073457012, -34741.49522083941, 21497.43843048077, -0.234, 0.9460000000000001, 0.176, 192.0, 0.0, 0.0, 0.0, 0.0, 0.0, 0.0, 0.0, 0.0, 0.0, 1.700950149377801E9, 0.0, 2023-11-25 17:09:09.377
30.0, 10627.561584420393, 17077.626833632807, -56032.627049997696, -55079.03457630093, -67637.09397758174, -1363.8810949183817, -34780.342552702736, 21454.232508448662, -0.234, 0.9460000000000001, 0.176, 192.0, 0.0, 0.0, 0.0, 0.0, 0.0, 0.0, 0.0, 0.0, 0.0, 1.700950149381865E9, 0.0, 2023-11-25 17:09:09.381
31.0, 10627.673343142671, 17108.829868892415, -56002.78747114986, -55038.17558743663, -67637.9656956155, -1345.4409057427533, -34760.002465248406, 21500.835895637978, -0.234, 0.9460000000000001, 0.176, 192.0, 0.0, 0.0, 0.0, 0.0, 0.0, 0.0, 0.0, 0.0, 0.0, 1.700950149385897E9, 0.0, 2023-11-25 17:09:09.385
32.0, 10702.30581787894, 17218.68869289025, -55947.5563106008, -54971.56738895982, -67604.21456148798, -1308.6275826248625, -34731.86161897917, 21537.939791433786, -0.234, 0.9460000000000001, 0.176, 192.0, 0.0, 0.0, 0.0, 0.0, 0.0, 0.0, 0.0, 0.0, 0.0, 1.70095014938995E9, 0.0, 2023-11-25 17:09:09.389
33.0, 10752.50783592556, 17234.826652386982, -55963.53780788634, -54982.96677863202, -67540.19916536799, -1214.5714419569306, -34704.14545585459, 21524.12641336041, -0.234, 0.9460000000000001, 0.176, 192.0, 0.0, 0.0, 0.0, 0.0, 0.0, 0.0, 0.0, 0.0, 0.0, 1.700950149393868E9, 0.0, 2023-11-25 17:09:09.393
34.0, 10656.372983023284, 17104.515982212542, -56017.62902946819, -55060.75084933649, -67607.47791617845, -1330.4875887021528, -34761.83530829374, 21448.421054890285, -0.234, 0.9460000000000001, 0.176, 192.0, 0.0, 0.0, 0.0, 0.0, 0.0, 0.0, 0.0, 0.0, 0.0, 1.700950149398874E9, 0.0, 2023-11-25 17:09:09.398
35.0, 10639.29625025943, 17115.602447462374, -56000.2170205375, -55040.07548571533, -67633.67416068008, -1360.349519294443, -34767.37854091865, 21476.45014243724, -0.234, 0.9460000000000001, 0.176, 192.0, 0.0, 0.0, 0.0, 0.0, 0.0, 0.0, 0.0, 0.0, 0.0, 1.700950149402996E9, 0.0, 2023-11-25 17:09:09.402
36.0, 10691.532277051483, 17207.155192751314, -55965.79533407633, -54992.086290369785, -67624.55464894231, -1332.7227631476835, -34755.7556338019, 21514.895142900365, -0.234, 0.9460000000000001, 0.176, 192.0, 0.0, 0.0, 0.0, 0.0, 0.0, 0.0, 0.0, 0.0, 0.0, 1.700950149406006E9, 0.0, 2023-11-25 17:09:09.406
37.0, 10748.708039368157, 17241.331010023478, -55968.231674221955, -54983.86084841024, -67560.13692142212, -1244.1204481268464, -34723.569121786255, 21527.747395962168, -0.234, 0.9460000000000001, 0.176, 192.0, 0.0, 0.0, 0.0, 0.0, 0.0, 0.0, 0.0, 0.0, 0.0, 1.700950149409968E9, 0.0, 2023-11-25 17:09:09.409
38.0, 10663.234968571063, 17112.987293361104, -56036.248032599455, -55072.999605298, -67612.99879705891, -1320.1387310193456, -34780.07433176927, 21457.406456161316, -0.23, 0.9400000000000001, 0.17200000000000001, 192.0, 248.0, 208.0, 29.0, 96.0, 5.0, 96.0, 0.0, 0.0, 0.0, 1.700950149414001E9, 0.0, 2023-11-25 17:09:09.414
39.0, 10635.094122301833, 17100.693833910685, -56017.9196021461, -55058.13569523522, -67648.38160853166, -1386.0763771625016, -34786.489282427945, 21470.750447601135, -0.23, 0.9400000000000001, 0.17200000000000001, 192.0, 0.0, 0.0, 0.0, 0.0, 0.0, 0.0, 0.0, 0.0, 0.0, 1.700950149418055E9, 0.0, 2023-11-25 17:09:09.418
40.0, 10680.199942612642, 17195.375823423365, -55985.95660757502, -55007.754863232956, -67641.45256775053, -1354.0463273580465, -34775.00048577791, 21508.0778608415, -0.23, 0.9400000000000001, 0.17200000000000001, 192.0, 0.0, 0.0, 0.0, 0.0, 0.0, 0.0, 0.0, 0.0, 0.0, 1.700950149422058E9, 0.0, 2023-11-25 17:09:09.422
41.0, 10761.672051152236, 17268.443676047766, -55955.446476393525, -54965.64417667916, -67565.61309881367, -1262.9182652137597, -34735.236732391924, 21545.44997757077, -0.23, 0.9400000000000001, 0.17200000000000001, 192.0, 0.0, 0.0, 0.0, 0.0, 0.0, 0.0, 0.0, 0.0, 0.0, 1.700950149425991E9, 0.0, 2023-11-25 17:09:09.425
42.0, 10701.791727756468, 17158.562500305474, -56024.312201060326, -55045.39520089569, -67588.12130548016, -1282.677207312251, -34774.55345088881, 21482.485113440172, -0.23, 0.9400000000000001, 0.17200000000000001, 192.0, 0.0, 0.0, 0.0, 0.0, 0.0, 0.0, 0.0, 0.0, 0.0, 1.700950149431001E9, 0.0, 2023-11-25 17:09:09.431
43.0, 10640.615003182293, 17102.124345555825, -56020.98179113648, -55053.01714575495, -67645.18530907456, -1393.8324324884932, -34797.665154655595, 21468.649383622334, -0.23, 0.9400000000000001, 0.17200000000000001, 192.0, 0.0, 0.0, 0.0, 0.0, 0.0, 0.0, 0.0, 0.0, 0.0, 1.700950149434125E9, 0.0, 2023-11-25 17:09:09.434
44.0, 10660.798628425435, 17171.63827081183, -56009.71651193101, -55023.51284307395, -67659.19985284805, -1366.742118208661, -34793.59713716473, 21496.76787814711, -0.23, 0.9400000000000001, 0.17200000000000001, 192.0, 0.0, 0.0, 0.0, 0.0, 0.0, 0.0, 0.0, 0.0, 0.0, 1.700950149438026E9, 0.0, 2023-11-25 17:09:09.438
45.0, 10737.062780506943, 17251.992792128658, -55978.3123109713, -54981.75978443144, -67605.62272138867, -1311.2650884705888, -34765.0539594953, 21523.522916260114, -0.23, 0.9400000000000001, 0.17200000000000001, 192.0, 0.0, 0.0, 0.0, 0.0, 0.0, 0.0, 0.0, 0.0, 0.0, 1.700950149442036E9, 0.0, 2023-11-25 17:09:09.442
46.0, 10723.607030344849, 17183.283529673045, -56023.44048302656, -55035.49337810199, -67584.07563973375, -1278.7656520325725, -34769.077273497256, 21485.033212308077, -0.23, 0.9400000000000001, 0.17200000000000001, 192.0, 0.0, 0.0, 0.0, 0.0, 0.0, 0.0, 0.0, 0.0, 0.0, 1.700950149446024E9, 0.0, 2023-11-25 17:09:09.446
47.0, 10656.216520812097, 17106.974674102625, -56019.70774170253, -55051.49722713199, -67640.20087006103, -1402.2366884036885, -34801.68846865755, 21460.75921782961, -0.23, 0.9420000000000001, 0.182, 192.0, 248.0, 208.0, 29.0, 112.0, 5.0, 176.0, 0.0, 0.0, 0.0, 1.700950149450285E9, 0.0, 2023-11-25 17:09:09.450
48.0, 10664.598424982838, 17166.78794226503, -56011.996389865446, -55027.89378498719, -67655.57887024627, -1376.0180921576134, -34805.0635820703, 21484.742639630156, -0.23, 0.9420000000000001, 0.182, 192.0, 0.0, 0.0, 0.0, 0.0, 0.0, 0.0, 0.0, 0.0, 0.0, 1.700950149454067E9, 0.0, 2023-11-25 17:09:09.454
49.0, 10745.60114688887, 17265.135617868378, -55959.80506656231, -54969.73454591448, -67603.32049170978, -1329.5264636905747, -34768.4067211636, 21526.562753506038, -0.23, 0.9420000000000001, 0.182, 192.0, 0.0, 0.0, 0.0, 0.0, 0.0, 0.0, 0.0, 0.0, 0.0, 1.700950149459251E9, 0.0, 2023-11-25 17:09:09.459
50.0, 10735.766379328536, 17205.478811917164, -56012.66694219911, -55029.70427628807, -67576.0513634743, -1268.9532362166926, -34763.3552269167, 21476.539549415058, -0.23, 0.9420000000000001, 0.182, 192.0, 0.0, 0.0, 0.0, 0.0, 0.0, 0.0, 0.0, 0.0, 0.0, 1.700950149462111E9, 0.0, 2023-11-25 17:09:09.462
51.0, 10642.023163082977, 17088.42272620472, -56025.74271270546, -55072.619625642255, -67642.8607276512, -1409.1433774403786, -34796.59227092174, 21423.61061854489, -0.23, 0.9420000000000001, 0.182, 192.0, 0.0, 0.0, 0.0, 0.0, 0.0, 0.0, 0.0, 0.0, 0.0, 1.700950149466102E9, 0.0, 2023-11-25 17:09:09.466
52.0, 10649.48864573105, 17132.925049415237, -56001.04403508235, -55036.67802055812, -67646.63817246415, -1378.1415078808675, -34783.02476203737, 21456.758255572113, -0.23, 0.9420000000000001, 0.182, 192.0, 0.0, 0.0, 0.0, 0.0, 0.0, 0.0, 0.0, 0.0, 0.0, 1.700950149470118E9, 0.0, 2023-11-25 17:09:09.470
53.0, 10721.707132066147, 17230.758634896116, -55948.808008290296, -54975.4789442395, -67609.44486969053, -1334.8685306153932, -34742.18812491753, 21514.44810801126, -0.23, 0.9420000000000001, 0.182, 192.0, 0.0, 0.0, 0.0, 0.0, 0.0, 0.0, 0.0, 0.0, 0.0, 1.70095014947412E9, 0.0, 2023-11-25 17:09:09.474
54.0, 10735.296992694974, 17205.322349705977, -55990.27049425489, -55013.81218598034, -67566.7977412698, -1248.2108173621675, -34726.094868909706, 21505.19448580676, -0.23, 0.9420000000000001, 0.182, 192.0, 0.0, 0.0, 0.0, 0.0, 0.0, 0.0, 0.0, 0.0, 0.0, 1.700950149478119E9, 0.0, 2023-11-25 17:09:09.478
55.0, 10650.136846320254, 17088.37802271581, -56017.65138121264, -55067.12109650626, -67629.91906761158, -1374.095842134457, -34776.475700911964, 21447.594040345437, -0.23, 0.9420000000000001, 0.182, 192.0, 0.0, 0.0, 0.0, 0.0, 0.0, 0.0, 0.0, 0.0, 0.0, 1.700950149482116E9, 0.0, 2023-11-25 17:09:09.482
56.0, 10656.77531442348, 17126.91243015676, -55994.00323557893, -55033.10174144527, -67638.45743399352, -1370.966597910714, -34769.32314268627, 21480.58521516147, -0.23, 0.9420000000000001, 0.182, 192.0, 0.0, 0.0, 0.0, 0.0, 0.0, 0.0, 0.0, 0.0, 0.0, 1.700950149488143E9, 0.0, 2023-11-25 17:09:09.488
57.0, 10723.651733833758, 17226.22123077169, -55947.466903622975, -54974.94250237256, -67614.4069569596, -1347.8772458883818, -34751.37469188865, 21503.562808461527, -0.228, 0.9460000000000001, 0.186, 192.0, 248.0, 224.0, 29.0, 144.0, 5.0, 208.0, 0.0, 0.0, 0.0, 1.700950149491389E9, 0.0, 2023-11-25 17:09:09.491
58.0, 10765.829475620923, 17233.485547719665, -55960.00623226241, -54982.96677863202, -67548.78223523882, -1249.4178115627542, -34719.63521476212, 21509.55307597555, -0.228, 0.9460000000000001, 0.186, 192.0, 0.0, 0.0, 0.0, 0.0, 0.0, 0.0, 0.0, 0.0, 0.0, 1.700950149495127E9, 0.0, 2023-11-25 17:09:09.495
59.0, 10677.271864088996, 17107.667578180743, -56008.59892470824, -55056.28050044543, -67603.09697426522, -1350.425344756287, -34778.21913697948, 21447.594040345437, -0.228, 0.9460000000000001, 0.186, 192.0, 0.0, 0.0, 0.0, 0.0, 0.0, 0.0, 0.0, 0.0, 0.0, 1.70095014949831E9, 0.0, 2023-11-25 17:09:09.498
60.0, 10659.859855158313, 17113.814307905952, -55990.3151977438, -55034.733418790514, -67628.46620422199, -1382.4777463051971, -34783.06946552628, 21475.82429359249, -0.228, 0.9460000000000001, 0.186, 192.0, 0.0, 0.0, 0.0, 0.0, 0.0, 0.0, 0.0, 0.0, 0.0, 1.700950149503172E9, 0.0, 2023-11-25 17:09:09.503
61.0, 10711.760605783535, 17208.853925329917, -55953.32306067027, -54983.50322049895, -67619.48080295096, -1354.3145482915102, -34767.84792755222, 21506.803811407546, -0.228, 0.9460000000000001, 0.186, 192.0, 0.0, 0.0, 0.0, 0.0, 0.0, 0.0, 0.0, 0.0, 0.0, 1.700950149507192E9, 0.0, 2023-11-25 17:09:09.507
62.0, 10781.90037988429, 17263.883920178883, -55940.31434539728, -54957.84341786426, -67544.35658983668, -1250.5130470410643, -34722.18331363003, 21530.183736107796, -0.228, 0.9460000000000001, 0.186, 192.0, 0.0, 0.0, 0.0, 0.0, 0.0, 0.0, 0.0, 0.0, 0.0, 1.70095014951032E9, 0.0, 2023-11-25 17:09:09.510
63.0, 10706.507945836538, 17149.331229845433, -56005.782604906875, -55031.82769201132, -67583.42743914455, -1300.4691958986755, -34768.11614848568, 21463.44142716425, -0.228, 0.9460000000000001, 0.186, 192.0, 0.0, 0.0, 0.0, 0.0, 0.0, 0.0, 0.0, 0.0, 0.0, 1.700950149513234E9, 0.0, 2023-11-25 17:09:09.513
64.0, 10666.721840706092, 17122.91146789926, -55994.740843145955, -55020.204784894566, -67625.49342220943, -1376.5321822800854, -34789.99850630743, 21458.456988150716, -0.228, 0.9460000000000001, 0.186, 192.0, 0.0, 0.0, 0.0, 0.0, 0.0, 0.0, 0.0, 0.0, 0.0, 1.700950149517249E9, 0.0, 2023-11-25 17:09:09.517
65.0, 10711.380626127795, 17205.769384595085, -55964.677746853566, -54972.59556920476, -67620.710148896, -1335.2708620155886, -34774.28522995535, 21508.50254398615, -0.228, 0.9460000000000001, 0.186, 192.0, 0.0, 0.0, 0.0, 0.0, 0.0, 0.0, 0.0, 0.0, 0.0, 1.700950149521272E9, 0.0, 2023-11-25 17:09:09.521
66.0, 10781.833324650923, 17267.683716736283, -55946.572833844766, -54942.64423163465, -67561.58978481172, -1260.1690006457568, -34733.850924235696, 21548.288649116595, -0.228, 0.9460000000000001, 0.186, 192.0, 0.0, 0.0, 0.0, 0.0, 0.0, 0.0, 0.0, 0.0, 0.0, 1.70095014952629E9, 0.0, 2023-11-25 17:09:09.526
67.0, 10728.323248424918, 17167.79377076552, -56012.73399743247, -55024.42926459662, -67579.06884897576, -1279.3467973884103, -34772.05005550981, 21471.175130745785, -0.23600000000000002, 0.9460000000000001, 0.188, 192.0, 248.0, 160.0, 29.0, 144.0, 5.0, 224.0, 0.0, 0.0, 0.0, 1.700950149530433E9, 0.0, 2023-11-25 17:09:09.530
68.0, 10659.725744691581, 17097.385775731298, -56009.828270653285, -55040.880148515724, -67640.98318111697, -1401.1638046698338, -34808.75161990543, 21445.135348455355, -0.23600000000000002, 0.9460000000000001, 0.188, 192.0, 0.0, 0.0, 0.0, 0.0, 0.0, 0.0, 0.0, 0.0, 0.0, 1.700950149537285E9, 0.0, 2023-11-25 17:09:09.537
69.0, 10689.006529928032, 17171.593567322918, -55980.16750576109, -54998.63535149519, -67637.45160549303, -1356.0579843590242, -34789.21619525149, 21497.17020954731, -0.23600000000000002, 0.9460000000000001, 0.188, 192.0, 0.0, 0.0, 0.0, 0.0, 0.0, 0.0, 0.0, 0.0, 0.0, 1.700950149540362E9, 0.0, 2023-11-25 17:09:09.540
70.0, 10760.330946484917, 17270.32122258201, -55944.047086721315, -54956.65877540813, -67586.89195953512, -1297.16113771929, -34751.88878201113, 21536.26341059964, -0.23600000000000002, 0.9460000000000001, 0.188, 192.0, 0.0, 0.0, 0.0, 0.0, 0.0, 0.0, 0.0, 0.0, 0.0, 1.700950149543316E9, 0.0, 2023-11-25 17:09:09.543
71.0, 10731.385437415294, 17232.144443052344, -56008.151889819135, -55028.7878547654, -67581.1475612101, -1267.6568350382847, -34764.69633158402, 21483.53564542957, -0.23600000000000002, 0.9460000000000001, 0.188, 192.0, 0.0, 0.0, 0.0, 0.0, 0.0, 0.0, 0.0, 0.0, 0.0, 1.700950149548199E9, 0.0, 2023-11-25 17:09:09.548
72.0, 10644.660668928704, 17145.039694910014, -56022.88168941518, -55064.237721471516, -67655.13183535717, -1408.4728251067193, -34803.09662855823, 21434.630028561358, -0.23600000000000002, 0.9460000000000001, 0.188, 192.0, 0.0, 0.0, 0.0, 0.0, 0.0, 0.0, 0.0, 0.0, 0.0, 1.700950149550419E9, 0.0, 2023-11-25 17:09:09.550
73.0, 10652.640241699248, 17203.53421014955, -56011.95168637654, -55036.72272404704, -67668.43112330808, -1384.1094236504346, -34803.811884380804, 21461.7650463301, -0.23600000000000002, 0.9460000000000001, 0.188, 192.0, 0.0, 0.0, 0.0, 0.0, 0.0, 0.0, 0.0, 0.0, 0.0, 1.700950149553371E9, 0.0, 2023-11-25 17:09:09.553
74.0, 10731.698361837669, 17300.406670618853, -55960.27445319587, -54976.574179717805, -67620.75485238491, -1342.803399897027, -34767.87027929667, 21510.44714575376, -0.23600000000000002, 0.9460000000000001, 0.188, 192.0, 0.0, 0.0, 0.0, 0.0, 0.0, 0.0, 0.0, 0.0, 0.0, 1.700950149558323E9, 0.0, 2023-11-25 17:09:09.558
75.0, 10730.714885081636, 17251.433998517277, -56004.28503802837, -55023.22227039603, -67582.48866587742, -1266.8521722378937, -34748.78188953184, 21495.96321534672, -0.23600000000000002, 0.9460000000000001, 0.188, 192.0, 0.0, 0.0, 0.0, 0.0, 0.0, 0.0, 0.0, 0.0, 0.0, 1.700950149562661E9, 0.0, 2023-11-25 17:09:09.562
76.0, 10636.546985691428, 17133.506194771075, -56020.19948008055, -55067.523427906446, -67649.25332656543, -1400.9402872252808, -34791.451369697024, 21454.836005548957, -0.23600000000000002, 0.9460000000000001, 0.188, 192.0, 0.0, 0.0, 0.0, 0.0, 0.0, 0.0, 0.0, 0.0, 0.0, 1.700950149566405E9, 0.0, 2023-11-25 17:09:09.566
77.0, 10645.040648584443, 17180.3554511494, -55994.874953612685, -55034.55460483487, -67652.44962602254, -1380.4437375597643, -34782.19774749252, 21481.367526217407, -0.24, 0.9440000000000001, 0.192, 192.0, 248.0, 128.0, 29.0, 128.0, 6.0, 0.0, 0.0, 0.0, 0.0, 1.700950149569533E9, 0.0, 2023-11-25 17:09:09.569
78.0, 10720.298972165463, 17279.17251338631, -55943.08596170974, -54975.05426109485, -67616.35155872721, -1346.2679202875997, -34754.21336343448, 21516.660930712336, -0.24, 0.9440000000000001, 0.192, 192.0, 0.0, 0.0, 0.0, 0.0, 0.0, 0.0, 0.0, 0.0, 0.0, 1.700950149573367E9, 0.0, 2023-11-25 17:09:09.573
79.0, 10745.779960844513, 17263.54864401205, -55976.25595048141, -55003.195107364074, -67564.31669763527, -1251.9882621751144, -34728.955892199985, 21526.696863972767, -0.24, 0.9440000000000001, 0.192, 192.0, 0.0, 0.0, 0.0, 0.0, 0.0, 0.0, 0.0, 0.0, 0.0, 1.700950149577458E9, 0.0, 2023-11-25 17:09:09.577
80.0, 10654.808360911413, 17140.39053206331, -56017.53962249037, -55067.79164883991, -67632.15424205712, -1373.2688275896105, -34779.001448035415, 21469.834026078468, -0.24, 0.9440000000000001, 0.192, 192.0, 0.0, 0.0, 0.0, 0.0, 0.0, 0.0, 0.0, 0.0, 0.0, 1.700950149582408E9, 0.0, 2023-11-25 17:09:09.582
81.0, 10642.581956694361, 17162.317593373966, -56006.117881073704, -55045.61871834025, -67653.3213440563, -1382.7459672386608, -34782.98005854846, 21500.97000610471, -0.24, 0.9440000000000001, 0.192, 192.0, 0.0, 0.0, 0.0, 0.0, 0.0, 0.0, 0.0, 0.0, 0.0, 1.700950149586422E9, 0.0, 2023-11-25 17:09:09.586
82.0, 10709.190155171174, 17266.208501602236, -55949.92559551306, -54976.59653146226, -67618.54202968384, -1346.64789994334, -34763.01995074987, 21555.79883525358, -0.24, 0.9440000000000001, 0.192, 192.0, 0.0, 0.0, 0.0, 0.0, 0.0, 0.0, 0.0, 0.0, 0.0, 1.700950149590471E9, 0.0, 2023-11-25 17:09:09.590
83.0, 10768.377574488828, 17292.225932148212, -55948.673897823566, -54968.30403426934, -67542.09906364669, -1245.9309394277263, -34726.16192414307, 21562.236137656706, -0.24, 0.9440000000000001, 0.192, 192.0, 0.0, 0.0, 0.0, 0.0, 0.0, 0.0, 0.0, 0.0, 0.0, 1.700950149594433E9, 0.0, 2023-11-25 17:09:09.594
84.0, 10684.35736708133, 17160.887081728826, -56007.593096207755, -55049.642032342206, -67602.13584925364, -1351.3194145344992, -34790.57965166326, 21469.58815688946, -0.24, 0.9440000000000001, 0.192, 192.0, 0.0, 0.0, 0.0, 0.0, 0.0, 0.0, 0.0, 0.0, 0.0, 1.700950149597443E9, 0.0, 2023-11-25 17:09:09.597
85.0, 10656.440038256651, 17161.289413129023, -55998.853564125726, -55039.494340359495, -67639.17268981609, -1407.5564035840516, -34816.59708220924, 21465.9671742877, -0.24, 0.9440000000000001, 0.192, 192.0, 0.0, 0.0, 0.0, 0.0, 0.0, 0.0, 0.0, 0.0, 0.0, 1.700950149604464E9, 0.0, 2023-11-25 17:09:09.604
86.0, 10705.323303380406, 17256.84312067546, -55967.13643874365, -54990.11933685772, -67634.07649208028, -1380.220220115211, -34811.27736702888, 21501.327634015994, -0.24, 0.9440000000000001, 0.192, 192.0, 0.0, 0.0, 0.0, 0.0, 0.0, 0.0, 0.0, 0.0, 0.0, 1.700950149607524E9, 0.0, 2023-11-25 17:09:09.607
87.0, 10776.290092026007, 17307.46982186673, -55955.60293860471, -54964.9736243455, -67566.17189242505, -1289.002750993103, -34768.13850023014, 21532.485965786695, -0.234, 0.9420000000000001, 0.19, 192.0, 248.0, 176.0, 29.0, 112.0, 5.0, 240.0, 0.0, 0.0, 0.0, 1.700950149610498E9, 0.0, 2023-11-25 17:09:09.610
88.0, 10707.022035959011, 17188.446782642222, -56017.874898657195, -55040.991907238, -67597.26316896238, -1328.3865247233541, -34800.72734364597, 21473.63382263587, -0.234, 0.9420000000000001, 0.19, 192.0, 0.0, 0.0, 0.0, 0.0, 0.0, 0.0, 0.0, 0.0, 0.0, 1.700950149614551E9, 0.0, 2023-11-25 17:09:09.614
89.0, 10661.625642970283, 17152.236956624623, -56002.60865719422, -55032.27472690043, -67639.30680028282, -1409.031618718102, -34819.055774099324, 21477.120694770896, -0.234, 0.9420000000000001, 0.19, 192.0, 0.0, 0.0, 0.0, 0.0, 0.0, 0.0, 0.0, 0.0, 0.0, 1.700950149618525E9, 0.0, 2023-11-25 17:09:09.618
90.0, 10702.574038812405, 17240.70516117873, -55971.02564227887, -54982.78796467638, -67631.01430308989, -1363.478763518186, -34804.0130500809, 21523.098233115463, -0.234, 0.9420000000000001, 0.19, 192.0, 0.0, 0.0, 0.0, 0.0, 0.0, 0.0, 0.0, 0.0, 0.0, 1.700950149622543E9, 0.0, 2023-11-25 17:09:09.622
91.0, 10770.523341956537, 17304.698205554272, -55948.69624956802, -54952.456647450526, -67574.75496229589, -1296.5129371300861, -34765.92567752906, 21546.031122926608, -0.234, 0.9420000000000001, 0.19, 192.0, 0.0, 0.0, 0.0, 0.0, 0.0, 0.0, 0.0, 0.0, 0.0, 1.700950149625524E9, 0.0, 2023-11-25 17:09:09.625
92.0, 10723.271754178018, 17205.076480516967, -56011.21407880951, -55029.36900012124, -67583.56154961129, -1297.1164342303794, -34789.12678827367, 21482.127485528887, -0.234, 0.9420000000000001, 0.19, 192.0, 0.0, 0.0, 0.0, 0.0, 0.0, 0.0, 0.0, 0.0, 0.0, 1.7009501496299E9, 0.0, 2023-11-25 17:09:09.629
93.0, 10651.522654476483, 17133.327380815434, -56009.35888401972, -55046.11045671826, -67644.470053252, -1419.6039938454621, -34821.648576456144, 21454.523081126583, -0.234, 0.9420000000000001, 0.19, 192.0, 0.0, 0.0, 0.0, 0.0, 0.0, 0.0, 0.0, 0.0, 0.0, 1.700950149633548E9, 0.0, 2023-11-25 17:09:09.633
94.0, 10675.662538488215, 17204.204762483212, -55988.12472678718, -55009.990037678486, -67648.53807074286, -1377.2474381026552, -34806.09176231525, 21505.59681720696, -0.234, 0.9420000000000001, 0.19, 192.0, 0.0, 0.0, 0.0, 0.0, 0.0, 0.0, 0.0, 0.0, 0.0, 1.700950149637579E9, 0.0, 2023-11-25 17:09:09.637
95.0, 10743.500082910072, 17286.883865223394, -55958.106333983706, -54974.58487446128, -67608.81902084578, -1329.7499811351279, -34771.91594504308, 21537.001018166666, -0.234, 0.9420000000000001, 0.19, 192.0, 0.0, 0.0, 0.0, 0.0, 0.0, 0.0, 0.0, 0.0, 0.0, 1.7009501496416E9, 0.0, 2023-11-25 17:09:09.641
96.0, 10723.539975111482, 17220.65564640232, -56014.90211664464, -55039.069657214844, -67590.33412818125, -1289.382730648843, -34779.850814324716, 21491.694032155756, -0.234, 0.9420000000000001, 0.19, 192.0, 0.0, 0.0, 0.0, 0.0, 0.0, 0.0, 0.0, 0.0, 0.0, 1.700950149645623E9, 0.0, 2023-11-25 17:09:09.645
97.0, 10650.20390155362, 17129.169956346745, -56011.88463114317, -55058.001584768484, -67647.4204835201, -1418.5981653449733, -34807.63403268266, 21462.368543430395, -0.23600000000000002, 0.9460000000000001, 0.188, 192.0, 248.0, 160.0, 29.0, 144.0, 5.0, 224.0, 0.0, 0.0, 0.0, 1.700950149650627E9, 0.0, 2023-11-25 17:09:09.650
98.0, 10665.023108127489, 17187.329195419454, -55993.51149720091, -55022.99875295148, -67654.10365511222, -1381.8295457159932, -34801.53200644637, 21491.738735644667, -0.23600000000000002, 0.9460000000000001, 0.188, 192.0, 0.0, 0.0, 0.0, 0.0, 0.0, 0.0, 0.0, 0.0, 0.0, 1.700950149653632E9, 0.0, 2023-11-25 17:09:09.653
99.0, 10730.245498448074, 17270.388277815375, -55956.005270004905, -54972.26029303793, -67622.85591636371, -1345.3067952760214, -34779.47083466897, 21527.903858173355, -0.23600000000000002, 0.9460000000000001, 0.188, 192.0, 0.0, 0.0, 0.0, 0.0, 0.0, 0.0, 0.0, 0.0, 0.0, 1.700950149657635E9, 0.0, 2023-11-25 17:09:09.657
100.0, 10739.767341586035, 17235.83248088747, -55995.79137513535, -55006.74903473247, -67575.0455349738, -1258.0455849225027, -34753.274590167355, 21519.11962260242, -0.23600000000000002, 0.9460000000000001, 0.188, 192.0, 0.0, 0.0, 0.0, 0.0, 0.0, 0.0, 0.0, 0.0, 0.0, 1.70095014966271E9, 0.0, 2023-11-25 17:09:09.662
101.0, 10648.438113741651, 17125.750139445085, -56016.64555271215, -55052.056020743374, -67639.08328283827, -1385.4952318066637, -34793.86535809819, 21476.58425290397, -0.23600000000000002, 0.9460000000000001, 0.188, 192.0, 0.0, 0.0, 0.0, 0.0, 0.0, 0.0, 0.0, 0.0, 0.0, 1.700950149666713E9, 0.0, 2023-11-25 17:09:09.666
102.0, 10646.53821546295, 17164.798637008505, -55998.5182879589, -55025.09981693028, -67649.47684400999, -1373.067661889513, -34787.249241739424, 21511.229456809695, -0.23600000000000002, 0.9460000000000001, 0.188, 192.0, 0.0, 0.0, 0.0, 0.0, 0.0, 0.0, 0.0, 0.0, 0.0, 1.700950149669708E9, 0.0, 2023-11-25 17:09:09.669
103.0, 10713.995780229066, 17258.69831546525, -55947.3551449007, -54967.43231623559, -67616.86564884969, -1343.384545252865, -34756.426186135555, 21543.08069265851, -0.23600000000000002, 0.9460000000000001, 0.188, 192.0, 0.0, 0.0, 0.0, 0.0, 0.0, 0.0, 0.0, 0.0, 0.0, 1.70095014967372E9, 0.0, 2023-11-25 17:09:09.673
104.0, 10746.495216667083, 17251.545757239553, -55968.298729455324, -54991.192220591576, -67557.72293302095, -1251.742392986106, -34727.145400899106, 21524.998131394164, -0.23600000000000002, 0.9460000000000001, 0.188, 192.0, 0.0, 0.0, 0.0, 0.0, 0.0, 0.0, 0.0, 0.0, 0.0, 1.700950149678799E9, 0.0, 2023-11-25 17:09:09.678
105.0, 10656.618852212294, 17128.700569713186, -56004.732072917475, -55055.38643066722, -67618.25145700591, -1370.8548391884374, -34772.83236656575, 21465.363677187404, -0.23600000000000002, 0.9460000000000001, 0.188, 192.0, 0.0, 0.0, 0.0, 0.0, 0.0, 0.0, 0.0, 0.0, 0.0, 1.700950149681754E9, 0.0, 2023-11-25 17:09:09.681
106.0, 10656.171817323187, 17159.948308461702, -55974.15488650261, -55018.05901742685, -67624.42053847558, -1379.706129992739, -34767.93733453004, 21494.622110679404, -0.23600000000000002, 0.9460000000000001, 0.188, 192.0, 0.0, 0.0, 0.0, 0.0, 0.0, 0.0, 0.0, 0.0, 0.0, 1.700950149685755E9, 0.0, 2023-11-25 17:09:09.685
107.0, 10713.057006961943, 17251.299888050544, -55938.034467462836, -54966.985281346475, -67608.77431735687, -1357.577902981985, -34762.93054377205, 21529.40142505186, -0.222, 0.9460000000000001, 0.182, 192.0, 249.0, 16.0, 29.0, 144.0, 5.0, 176.0, 0.0, 0.0, 0.0, 1.70095014968978E9, 0.0, 2023-11-25 17:09:09.689
108.0, 10767.170580288242, 17272.578748771997, -55948.69624956802, -54969.53338021438, -67546.41295032656, -1271.9260182292485, -34741.02583420585, 21533.35768382045, -0.222, 0.9460000000000001, 0.182, 192.0, 0.0, 0.0, 0.0, 0.0, 0.0, 0.0, 0.0, 0.0, 0.0, 1.700950149693848E9, 0.0, 2023-11-25 17:09:09.693
109.0, 10692.895733463256, 17149.82296822345, -56002.3180845163, -55043.71882006155, -67591.36230842618, -1358.6731384602951, -34795.429980210065, 21453.450197392725, -0.222, 0.9460000000000001, 0.182, 192.0, 0.0, 0.0, 0.0, 0.0, 0.0, 0.0, 0.0, 0.0, 0.0, 1.700950149697767E9, 0.0, 2023-11-25 17:09:09.697
110.0, 10668.979366896077, 17146.090226899414, -55980.59218890574, -55022.775235506924, -67618.11734653919, -1407.6458105618728, -34801.55435819082, 21475.176093003287, -0.222, 0.9460000000000001, 0.182, 192.0, 0.0, 0.0, 0.0, 0.0, 0.0, 0.0, 0.0, 0.0, 0.0, 1.700950149701813E9, 0.0, 2023-11-25 17:09:09.701
111.0, 10715.269829663019, 17242.73916992416, -55944.337659399236, -54971.0756505818, -67607.18734350054, -1367.837353686971, -34791.98781156395, 21521.64536972587, -0.222, 0.9460000000000001, 0.182, 192.0, 0.0, 0.0, 0.0, 0.0, 0.0, 0.0, 0.0, 0.0, 0.0, 1.700950149706806E9, 0.0, 2023-11-25 17:09:09.706
112.0, 10782.660339195769, 17301.4348508638, -55928.803197002795, -54948.43333344857, -67540.80266246828, -1286.2087829361897, -34760.762424559885, 21535.0340646546, -0.222, 0.9460000000000001, 0.182, 192.0, 0.0, 0.0, 0.0, 0.0, 0.0, 0.0, 0.0, 0.0, 0.0, 1.700950149710284E9, 0.0, 2023-11-25 17:09:09.710
113.0, 10725.283411178996, 17194.481753645152, -55989.80110762133, -55028.74315127649, -67566.30600289178, -1321.032800797558, -34797.821616866786, 21454.903060782322, -0.222, 0.9460000000000001, 0.182, 192.0, 0.0, 0.0, 0.0, 0.0, 0.0, 0.0, 0.0, 0.0, 0.0, 1.700950149714427E9, 0.0, 2023-11-25 17:09:09.714
114.0, 10665.984233139066, 17142.62570650884, -55989.80110762133, -55039.002601981476, -67625.24755302042, -1421.8391682909928, -34812.88669262966, 21450.276249680075, -0.222, 0.9460000000000001, 0.182, 192.0, 0.0, 0.0, 0.0, 0.0, 0.0, 0.0, 0.0, 0.0, 0.0, 1.700950149717902E9, 0.0, 2023-11-25 17:09:09.717
115.0, 10701.702320778648, 17223.986056326157, -55967.181142232555, -54998.61299975074, -67627.88505886616, -1382.8577259609374, -34800.03443956786, 21499.07010782601, -0.222, 0.9460000000000001, 0.182, 192.0, 0.0, 0.0, 0.0, 0.0, 0.0, 0.0, 0.0, 0.0, 0.0, 1.700950149722982E9, 0.0, 2023-11-25 17:09:09.722
116.0, 10774.524304214037, 17298.350310128964, -55935.17344417256, -54958.29045275336, -67568.60823257068, -1314.3719809498766, -34767.71381708549, 21536.866907699932, -0.222, 0.9460000000000001, 0.182, 192.0, 0.0, 0.0, 0.0, 0.0, 0.0, 0.0, 0.0, 0.0, 0.0, 1.700950149726867E9, 0.0, 2023-11-25 17:09:09.726
117.0, 10727.675047835713, 17200.382614181355, -55992.30450300033, -55027.87143324273, -67565.54604358031, -1297.2058412082006, -34786.35517196121, 21488.050697809544, -0.23, 0.9520000000000001, 0.188, 192.0, 248.0, 208.0, 29.0, 192.0, 5.0, 224.0, 0.0, 0.0, 0.0, 1.700950149729931E9, 0.0, 2023-11-25 17:09:09.729
118.0, 10642.269032271986, 17107.265246780546, -55998.719453658996, -55053.330070177326, -67634.52352696938, -1423.2026247027666, -34823.5708264793, 21458.658153850814, -0.23, 0.9520000000000001, 0.188, 192.0, 0.0, 0.0, 0.0, 0.0, 0.0, 0.0, 0.0, 0.0, 0.0, 1.700950149733941E9, 0.0, 2023-11-25 17:09:09.733
119.0, 10669.0687738739, 17184.088192473435, -55973.10435451321, -55014.16981389163, -67636.62459094818, -1386.0093219291357, -34813.110210074214, 21494.06331706802, -0.23, 0.9520000000000001, 0.188, 192.0, 0.0, 0.0, 0.0, 0.0, 0.0, 0.0, 0.0, 0.0, 0.0, 1.700950149736958E9, 0.0, 2023-11-25 17:09:09.736
120.0, 10748.372763201329, 17279.686603508784, -55925.04810393431, -54959.0727638093, -67583.87447403366, -1329.0347253125578, -34767.825575807765, 21536.82220421102, -0.23, 0.9520000000000001, 0.188, 192.0, 0.0, 0.0, 0.0, 0.0, 0.0, 0.0, 0.0, 0.0, 0.0, 1.70095014974195E9, 0.0, 2023-11-25 17:09:09.741
121.0, 10722.64590533327, 17209.74799510813, -55990.76223263291, -55029.145482676686, -67570.03874421582, -1280.486736355631, -34772.96647703248, 21496.566712447013, -0.23, 0.9520000000000001, 0.188, 192.0, 0.0, 0.0, 0.0, 0.0, 0.0, 0.0, 0.0, 0.0, 0.0, 1.700950149746083E9, 0.0, 2023-11-25 17:09:09.746
122.0, 10650.069791086888, 17121.3915492763, -55991.96922683349, -55052.503055632485, -67625.98516058746, -1410.998572230169, -34800.257957012414, 21466.48126441017, -0.23, 0.9520000000000001, 0.188, 192.0, 0.0, 0.0, 0.0, 0.0, 0.0, 0.0, 0.0, 0.0, 0.0, 1.70095014975107E9, 0.0, 2023-11-25 17:09:09.751
123.0, 10670.074602374389, 17187.396250652822, -55965.54946488732, -55005.02795040941, -67619.10082329522, -1363.478763518186, -34779.135558502145, 21521.578314492504, -0.23, 0.9520000000000001, 0.188, 192.0, 0.0, 0.0, 0.0, 0.0, 0.0, 0.0, 0.0, 0.0, 0.0, 1.700950149755053E9, 0.0, 2023-11-25 17:09:09.755
124.0, 10731.720713582125, 17275.50682729564, -55923.148205655605, -54948.120409026196, -67581.59459609921, -1319.490530430142, -34748.11133719818, 21568.762847037655, -0.23, 0.9520000000000001, 0.188, 192.0, 0.0, 0.0, 0.0, 0.0, 0.0, 0.0, 0.0, 0.0, 0.0, 1.700950149759075E9, 0.0, 2023-11-25 17:09:09.759
125.0, 10742.538957898494, 17249.020010116103, -55962.53197938585, -54982.855019909744, -67534.05243564278, -1230.5082357535643, -34730.140534656115, 21539.59382052348, -0.23, 0.9520000000000001, 0.188, 192.0, 0.0, 0.0, 0.0, 0.0, 0.0, 0.0, 0.0, 0.0, 0.0, 1.700950149762071E9, 0.0, 2023-11-25 17:09:09.762
126.0, 10655.34480277834, 17139.541165774008, -55990.60577042172, -55032.498244344984, -67601.08531726424, -1361.4224030282978, -34777.325067201265, 21478.43944769376, -0.23, 0.9520000000000001, 0.188, 192.0, 0.0, 0.0, 0.0, 0.0, 0.0, 0.0, 0.0, 0.0, 0.0, 1.700950149765113E9, 0.0, 2023-11-25 17:09:09.765
127.0, 10655.30009928943, 17175.907454002794, -55975.54069465884, -55005.653799254156, -67615.8598203492, -1356.1697430813008, -34772.854718310205, 21510.15657307584, -0.232, 0.9400000000000001, 0.19, 192.0, 248.0, 192.0, 29.0, 96.0, 5.0, 240.0, 0.0, 0.0, 0.0, 1.700950149769114E9, 0.0, 2023-11-25 17:09:09.769
128.0, 10718.220259931119, 17266.90140568035, -55934.949926728004, -54954.31184224032, -67595.87736080616, -1335.6284899268735, -34755.68857856853, 21534.765843721136, -0.232, 0.9400000000000001, 0.19, 192.0, 0.0, 0.0, 0.0, 0.0, 0.0, 0.0, 0.0, 0.0, 0.0, 1.700950149773032E9, 0.0, 2023-11-25 17:09:09.773
129.0, 10753.871292337333, 17267.527254525095, -55963.73897358644, -54977.58000821829, -67544.96008693696, -1252.234131364123, -34736.30961612578, 21514.917494644822, -0.232, 0.9400000000000001, 0.19, 192.0, 0.0, 0.0, 0.0, 0.0, 0.0, 0.0, 0.0, 0.0, 0.0, 1.700950149778068E9, 0.0, 2023-11-25 17:09:09.778
130.0, 10674.58965475436, 17154.02509618105, -56004.575610706284, -55041.70716306057, -67604.37102369918, -1366.0715658750019, -34787.048076039326, 21455.148929971332, -0.232, 0.9400000000000001, 0.19, 192.0, 0.0, 0.0, 0.0, 0.0, 0.0, 0.0, 0.0, 0.0, 0.0, 1.700950149782153E9, 0.0, 2023-11-25 17:09:09.782
131.0, 10661.178608081176, 17171.92884348975, -55989.04114830985, -55019.40012209417, -67627.81800363278, -1396.1123104229343, -34794.82648310977, 21471.979793546176, -0.232, 0.9400000000000001, 0.19, 192.0, 0.0, 0.0, 0.0, 0.0, 0.0, 0.0, 0.0, 0.0, 0.0, 1.700950149786119E9, 0.0, 2023-11-25 17:09:09.786
132.0, 10710.35244588285, 17261.358173055432, -55947.24338617842, -54962.53728419987, -67609.8024976018, -1372.2406473446665, -34786.39987545012, 21503.898084628356, -0.232, 0.9400000000000001, 0.19, 192.0, 0.0, 0.0, 0.0, 0.0, 0.0, 0.0, 0.0, 0.0, 0.0, 1.70095014979212E9, 0.0, 2023-11-25 17:09:09.792
133.0, 10779.195818805198, 17304.787612532094, -55939.97906923045, -54941.481940922975, -67533.51599377584, -1272.0154252070697, -34752.291113411324, 21526.33923606148, -0.232, 0.9400000000000001, 0.19, 192.0, 0.0, 0.0, 0.0, 0.0, 0.0, 0.0, 0.0, 0.0, 0.0, 1.700950149795143E9, 0.0, 2023-11-25 17:09:09.795
134.0, 10706.664408047725, 17190.234922198644, -56002.25102928293, -55020.36124710575, -67580.2534914319, -1345.5303127205746, -34812.70787867402, 21447.571688600983, -0.232, 0.9400000000000001, 0.19, 192.0, 0.0, 0.0, 0.0, 0.0, 0.0, 0.0, 0.0, 0.0, 0.0, 1.700950149798113E9, 0.0, 2023-11-25 17:09:09.798
135.0, 10676.377794310785, 17181.026003483057, -55985.08488954126, -55003.5303835309, -67614.63047440416, -1408.606935573451, -34825.22485556899, 21459.708685840214, -0.232, 0.9400000000000001, 0.19, 192.0, 0.0, 0.0, 0.0, 0.0, 0.0, 0.0, 0.0, 0.0, 0.0, 1.700950149802084E9, 0.0, 2023-11-25 17:09:09.802
136.0, 10721.528318110504, 17279.016051175124, -55954.41829614858, -54955.675298652095, -67608.12611676766, -1368.3737955538984, -34800.14619829014, 21502.579331705492, -0.232, 0.9400000000000001, 0.19, 192.0, 0.0, 0.0, 0.0, 0.0, 0.0, 0.0, 0.0, 0.0, 0.0, 1.700950149806117E9, 0.0, 2023-11-25 17:09:09.806
137.0, 10797.099566113899, 17350.027543309636, -55934.65935405008, -54925.54514712634, -67541.92024969104, -1282.5654485899745, -34756.35913090219, 21538.36447457844, -0.23600000000000002, 0.9400000000000001, 0.19, 192.0, 248.0, 160.0, 29.0, 96.0, 5.0, 240.0, 0.0, 0.0, 0.0, 1.700950149810104E9, 0.0, 2023-11-25 17:09:09.810
138.0, 10736.16871072873, 17243.320315279998, -56003.65918918362, -55009.96768593403, -67568.74234303742, -1311.9803442931586, -34798.17924477807, 21471.24218597915, -0.23600000000000002, 0.9400000000000001, 0.19, 192.0, 0.0, 0.0, 0.0, 0.0, 0.0, 0.0, 0.0, 0.0, 0.0, 1.700950149814118E9, 0.0, 2023-11-25 17:09:09.814
139.0, 10670.387526796761, 17182.76943955057, -56003.055692083326, -55024.89865123018, -67628.64501817763, -1419.2240141897219, -34824.59900672424, 21453.7631218151, -0.23600000000000002, 0.9400000000000001, 0.19, 192.0, 0.0, 0.0, 0.0, 0.0, 0.0, 0.0, 0.0, 0.0, 0.0, 1.70095014981717E9, 0.0, 2023-11-25 17:09:09.817
140.0, 10695.197963142153, 17254.205614829734, -55977.462944681996, -54985.55958098884, -67628.30974201081, -1389.0491591750574, -34813.60194845223, 21484.38501171887, -0.23600000000000002, 0.9400000000000001, 0.19, 192.0, 0.0, 0.0, 0.0, 0.0, 0.0, 0.0, 0.0, 0.0, 0.0, 1.700950149822235E9, 0.0, 2023-11-25 17:09:09.822
141.0, 10775.194856547698, 17339.67868562683, -55936.626307562154, -54935.178748986575, -67563.08735169022, -1316.584803650952, -34765.47864263995, 21532.68713148679, -0.23600000000000002, 0.9400000000000001, 0.19, 192.0, 0.0, 0.0, 0.0, 0.0, 0.0, 0.0, 0.0, 0.0, 0.0, 1.700950149826153E9, 0.0, 2023-11-25 17:09:09.826
142.0, 10747.411638189751, 17260.12882711039, -55995.81372687981, -55000.80347070736, -67553.23023238542, -1287.5722393479634, -34774.75461658891, 21488.654194909835, -0.23600000000000002, 0.9400000000000001, 0.19, 192.0, 0.0, 0.0, 0.0, 0.0, 0.0, 0.0, 0.0, 0.0, 0.0, 1.700950149829151E9, 0.0, 2023-11-25 17:09:09.829
143.0, 10683.440945558661, 17187.418602397276, -55991.857468111215, -55014.102758658264, -67610.0036633019, -1409.836281518493, -34797.91102384461, 21470.214005734208, -0.23600000000000002, 0.9400000000000001, 0.19, 192.0, 0.0, 0.0, 0.0, 0.0, 0.0, 0.0, 0.0, 0.0, 0.0, 1.700950149834208E9, 0.0, 2023-11-25 17:09:09.834
144.0, 10702.21641090112, 17258.36303929842, -55977.73116561546, -54981.804487920344, -67618.8102506173, -1373.380586311887, -34790.13261677416, 21506.15561081834, -0.23600000000000002, 0.9400000000000001, 0.19, 192.0, 0.0, 0.0, 0.0, 0.0, 0.0, 0.0, 0.0, 0.0, 0.0, 1.70095014983922E9, 0.0, 2023-11-25 17:09:09.839
145.0, 10777.452382737683, 17356.330735246032, -55936.44749360651, -54928.78615007236, -67575.0455349738, -1327.7830276230607, -34766.953857774, 21537.24688735567, -0.23600000000000002, 0.9400000000000001, 0.19, 192.0, 0.0, 0.0, 0.0, 0.0, 0.0, 0.0, 0.0, 0.0, 0.0, 1.700950149842218E9, 0.0, 2023-11-25 17:09:09.842
146.0, 10764.868350609346, 17296.405708361355, -55986.40364246412, -54980.70925244204, -67542.5460985358, -1258.8278959784384, -34761.097700726714, 21493.973910090197, -0.23600000000000002, 0.9400000000000001, 0.19, 192.0, 0.0, 0.0, 0.0, 0.0, 0.0, 0.0, 0.0, 0.0, 0.0, 1.700950149848266E9, 0.0, 2023-11-25 17:09:09.848
147.0, 10677.897712933745, 17187.172733208266, -55994.3161600013, -55014.72860750301, -67603.05227077632, -1392.8266039880043, -34798.04513431134, 21451.14796771383, -0.234, 0.9420000000000001, 0.188, 192.0, 248.0, 176.0, 29.0, 112.0, 5.0, 224.0, 0.0, 0.0, 0.0, 1.700950149851258E9, 0.0, 2023-11-25 17:09:09.851
148.0, 10692.359291596329, 17247.008353115125, -55972.65731962411, -54979.32344428581, -67606.1591632556, -1356.9744058816918, -34777.056846267806, 21509.329558530993, -0.234, 0.9420000000000001, 0.188, 192.0, 0.0, 0.0, 0.0, 0.0, 0.0, 0.0, 0.0, 0.0, 0.0, 1.700950149854292E9, 0.0, 2023-11-25 17:09:09.854
149.0, 10757.045240049987, 17338.650505381884, -55937.967412229475, -54933.74823734144, -67584.54502636731, -1332.029859069569, -34757.4543663805, 21548.9368497058, -0.234, 0.9420000000000001, 0.188, 192.0, 0.0, 0.0, 0.0, 0.0, 0.0, 0.0, 0.0, 0.0, 0.0, 1.700950149857256E9, 0.0, 2023-11-25 17:09:09.857
150.0, 10769.249292522585, 17310.129679456913, -55979.072270282784, -54974.09313608326, -67541.92024969104, -1252.39059357531, -34747.619598820165, 21525.445166283273, -0.234, 0.9420000000000001, 0.188, 192.0, 0.0, 0.0, 0.0, 0.0, 0.0, 0.0, 0.0, 0.0, 0.0, 1.700950149862262E9, 0.0, 2023-11-25 17:09:09.862
151.0, 10672.130962864276, 17180.91424476078, -56006.117881073704, -55029.95014547708, -67606.04740453332, -1385.7187492512167, -34794.111227287205, 21464.15668298682, -0.234, 0.9420000000000001, 0.188, 192.0, 0.0, 0.0, 0.0, 0.0, 0.0, 0.0, 0.0, 0.0, 0.0, 1.700950149866274E9, 0.0, 2023-11-25 17:09:09.866
152.0, 10674.433192543172, 17213.950123065726, -55973.77490684688, -54991.12516535821, -67606.09210802223, -1373.6488072453508, -34774.374636933164, 21504.523933473105, -0.234, 0.9420000000000001, 0.188, 192.0, 0.0, 0.0, 0.0, 0.0, 0.0, 0.0, 0.0, 0.0, 0.0, 1.70095014987031E9, 0.0, 2023-11-25 17:09:09.870
153.0, 10738.046257262977, 17311.24726667968, -55928.1996999025, -54936.74337109845, -67583.67330833356, -1350.4700482451974, -34758.01315999188, 21531.860116941945, -0.234, 0.9420000000000001, 0.188, 192.0, 0.0, 0.0, 0.0, 0.0, 0.0, 0.0, 0.0, 0.0, 0.0, 1.700950149873369E9, 0.0, 2023-11-25 17:09:09.873
154.0, 10787.175391575742, 17328.90514479937, -55944.49412161042, -54952.30018523934, -67524.2400198269, -1263.4100035917763, -34733.985034702426, 21515.655102211847, -0.234, 0.9420000000000001, 0.188, 192.0, 0.0, 0.0, 0.0, 0.0, 0.0, 0.0, 0.0, 0.0, 0.0, 1.700950149877312E9, 0.0, 2023-11-25 17:09:09.877
155.0, 10713.504041851049, 17215.604152155418, -55982.44738369553, -55017.85785172676, -67576.23017742994, -1368.1726298538006, -34779.80611083581, 21445.403569388818, -0.234, 0.9420000000000001, 0.188, 192.0, 0.0, 0.0, 0.0, 0.0, 0.0, 0.0, 0.0, 0.0, 0.0, 1.700950149881381E9, 0.0, 2023-11-25 17:09:09.881
156.0, 10692.69456776316, 17219.73922487965, -55966.86821781018, -54998.83651719529, -67603.11932600968, -1399.9568104692473, -34788.366828962186, 21471.935090057264, -0.234, 0.9420000000000001, 0.188, 192.0, 0.0, 0.0, 0.0, 0.0, 0.0, 0.0, 0.0, 0.0, 0.0, 1.700950149885422E9, 0.0, 2023-11-25 17:09:09.885
157.0, 10745.467036422138, 17317.505755127164, -55922.7011707665, -54939.447932177536, -67583.15921821109, -1365.3116065635213, -34772.005352020904, 21520.17015459182, -0.23600000000000002, 0.9460000000000001, 0.186, 192.0, 248.0, 160.0, 29.0, 144.0, 5.0, 208.0, 0.0, 0.0, 0.0, 1.700950149889355E9, 0.0, 2023-11-25 17:09:09.889
158.0, 10803.268647583564, 17359.48233121423, -55921.76239749938, -54925.99218201544, -67517.7356621904, -1268.1709251607567, -34735.30378762529, 21545.94171594879, -0.23600000000000002, 0.9460000000000001, 0.186, 192.0, 0.0, 0.0, 0.0, 0.0, 0.0, 0.0, 0.0, 0.0, 0.0, 1.700950149894389E9, 0.0, 2023-11-25 17:09:09.894
159.0, 10722.623553588815, 17234.35726575342, -55988.97409307648, -55009.5877062783, -67563.33322087923, -1330.2417195131445, -34781.43778818104, 21468.068238266496, -0.23600000000000002, 0.9460000000000001, 0.186, 192.0, 0.0, 0.0, 0.0, 0.0, 0.0, 0.0, 0.0, 0.0, 0.0, 1.700950149897427E9, 0.0, 2023-11-25 17:09:09.897
160.0, 10674.902579176734, 17202.2601607156, -55983.1626395181, -55008.89480220018, -67610.09307027973, -1410.5291855966075, -34804.12480880318, 21447.929316512265, -0.23600000000000002, 0.9460000000000001, 0.186, 192.0, 0.0, 0.0, 0.0, 0.0, 0.0, 0.0, 0.0, 0.0, 0.0, 1.700950149901413E9, 0.0, 2023-11-25 17:09:09.901
161.0, 10722.757664055547, 17296.67392929482, -55947.08692396724, -54955.720002141, -67598.42545967406, -1368.9549409097363, -34793.619488909186, 21488.58713967647, -0.23600000000000002, 0.9460000000000001, 0.186, 192.0, 0.0, 0.0, 0.0, 0.0, 0.0, 0.0, 0.0, 0.0, 0.0, 1.700950149906464E9, 0.0, 2023-11-25 17:09:09.906
162.0, 10805.012083651076, 17372.267529042667, -55920.488348065424, -54917.34205691124, -67528.8891826736, -1275.3681868753656, -34742.366938873165, 21537.537460033593, -0.23600000000000002, 0.9460000000000001, 0.186, 192.0, 0.0, 0.0, 0.0, 0.0, 0.0, 0.0, 0.0, 0.0, 0.0, 1.700950149910451E9, 0.0, 2023-11-25 17:09:09.910
163.0, 10745.914071311245, 17261.045248633058, -55993.80206987883, -55003.0833486418, -67554.32546786375, -1286.1417277028238, -34767.22207870747, 21479.400572705337, -0.23600000000000002, 0.9460000000000001, 0.186, 192.0, 0.0, 0.0, 0.0, 0.0, 0.0, 0.0, 0.0, 0.0, 0.0, 1.700950149926478E9, 0.0, 2023-11-25 17:09:09.926
164.0, 10679.73055597908, 17196.53811413504, -55987.5659331758, -55011.15232839016, -67610.42834644656, -1395.4417580892753, -34790.400837707624, 21463.217909719697, -0.23600000000000002, 0.9460000000000001, 0.186, 192.0, 0.0, 0.0, 0.0, 0.0, 0.0, 0.0, 0.0, 0.0, 0.0, 1.700950149929448E9, 0.0, 2023-11-25 17:09:09.929
165.0, 10709.525431338005, 17268.913062681328, -55958.97805201746, -54965.934749357075, -67607.74613711193, -1354.158086080323, -34779.895517813624, 21496.074974068997, -0.23600000000000002, 0.9460000000000001, 0.186, 192.0, 0.0, 0.0, 0.0, 0.0, 0.0, 0.0, 0.0, 0.0, 0.0, 1.70095014993256E9, 0.0, 2023-11-25 17:09:09.932
166.0, 10792.606865478381, 17354.05085731159, -55917.0461794193, -54916.023303988375, -67550.01158118386, -1292.3108091724885, -34738.74595627141, 21527.21095409524, -0.23600000000000002, 0.9460000000000001, 0.186, 192.0, 0.0, 0.0, 0.0, 0.0, 0.0, 0.0, 0.0, 0.0, 0.0, 1.70095014993677E9, 0.0, 2023-11-25 17:09:09.936
167.0, 10755.234748749108, 17268.28721383658, -55987.521229686885, -54991.7286624585, -67548.73753174991, -1266.2486751376005, -34755.532116357346, 21475.10903776992, -0.24, 0.9440000000000001, 0.186, 192.0, 248.0, 128.0, 29.0, 128.0, 5.0, 208.0, 0.0, 0.0, 0.0, 1.700950149939548E9, 0.0, 2023-11-25 17:09:09.939
168.0, 10676.377794310785, 17179.88606451584, -55993.89147685665, -55014.77331099192, -67611.61298890269, -1397.6322290458954, -34792.59130866424, 21454.38897065985, -0.24, 0.9440000000000001, 0.186, 192.0, 0.0, 0.0, 0.0, 0.0, 0.0, 0.0, 0.0, 0.0, 0.0, 1.700950149942521E9, 0.0, 2023-11-25 17:09:09.942
169.0, 10696.15908815373, 17251.501053750642, -55973.37257544668, -54973.3778802607, -67611.43417494705, -1360.4389262722643, -34773.413511921586, 21500.813543893524, -0.24, 0.9440000000000001, 0.186, 192.0, 0.0, 0.0, 0.0, 0.0, 0.0, 0.0, 0.0, 0.0, 0.0, 1.700950149945483E9, 0.0, 2023-11-25 17:09:09.945
170.0, 10773.56317920246, 17349.71461888726, -55933.09473193822, -54920.73952206845, -67570.17285468255, -1316.897728073326, -34746.837287764225, 21535.8834309439, -0.24, 0.9440000000000001, 0.186, 192.0, 0.0, 0.0, 0.0, 0.0, 0.0, 0.0, 0.0, 0.0, 0.0, 1.700950149958628E9, 0.0, 2023-11-25 17:09:09.958
171.0, 10767.662318666258, 17300.451374107764, -55984.28022674087, -54973.713156427526, -67537.89693568909, -1248.9037214402822, -34740.44468885001, 21496.656119424835, -0.24, 0.9440000000000001, 0.186, 192.0, 0.0, 0.0, 0.0, 0.0, 0.0, 0.0, 0.0, 0.0, 0.0, 1.700950149961691E9, 0.0, 2023-11-25 17:09:09.961
172.0, 10681.78691646897, 17193.230055955657, -55987.63298840916, -55008.3360085888, -67592.7034130935, -1380.9578276822363, -34773.88289855515, 21457.54056662805, -0.24, 0.9440000000000001, 0.186, 192.0, 0.0, 0.0, 0.0, 0.0, 0.0, 0.0, 0.0, 0.0, 0.0, 1.70095014996456E9, 0.0, 2023-11-25 17:09:09.964
173.0, 10687.374852582796, 17236.815957643506, -55964.320118942276, -54977.624711707205, -67597.46433466248, -1358.1366965933678, -34766.55152637381, 21486.128447786385, -0.24, 0.9440000000000001, 0.186, 192.0, 0.0, 0.0, 0.0, 0.0, 0.0, 0.0, 0.0, 0.0, 0.0, 1.70095014996859E9, 0.0, 2023-11-25 17:09:09.968
174.0, 10755.994708060589, 17336.72825535873, -55918.11906315316, -54923.24291744744, -67568.34001163722, -1334.9132341043037, -34745.47383135246, 21509.06133759753, -0.24, 0.9440000000000001, 0.186, 192.0, 0.0, 0.0, 0.0, 0.0, 0.0, 0.0, 0.0, 0.0, 0.0, 1.700950149971602E9, 0.0, 2023-11-25 17:09:09.971
175.0, 10779.8440193944, 17320.590295861995, -55949.79148504633, -54955.317670740806, -67517.37803427911, -1247.5626167729638, -34725.84899972069, 21499.539494459572, -0.24, 0.9440000000000001, 0.186, 192.0, 0.0, 0.0, 0.0, 0.0, 0.0, 0.0, 0.0, 0.0, 0.0, 1.700950149974846E9, 0.0, 2023-11-25 17:09:09.974
176.0, 10687.888942705267, 17199.39913742532, -55990.046976810336, -55022.75288376247, -67589.26124444738, -1380.6896067487726, -34789.8643958407, 21442.408435631805, -0.24, 0.9440000000000001, 0.186, 192.0, 0.0, 0.0, 0.0, 0.0, 0.0, 0.0, 0.0, 0.0, 0.0, 1.700950149977613E9, 0.0, 2023-11-25 17:09:09.977
177.0, 10690.30293110644, 17235.966591354205, -55972.59026439074, -54996.55663926085, -67606.98617780044, -1398.9733337132138, -34795.40762846561, 21459.39576141784, -0.242, 0.9440000000000001, 0.184, 192.0, 248.0, 112.0, 29.0, 128.0, 5.0, 192.0, 0.0, 0.0, 0.0, 1.700950149982504E9, 0.0, 2023-11-25 17:09:09.982
178.0, 10762.834341863912, 17341.444473438798, -55917.73908349742, -54931.84833906274, -67577.12424720815, -1369.357272309932, -34764.98690426194, 21500.768840404613, -0.242, 0.9440000000000001, 0.184, 192.0, 0.0, 0.0, 0.0, 0.0, 0.0, 0.0, 0.0, 0.0, 0.0, 1.700950149984664E9, 0.0, 2023-11-25 17:09:09.984
179.0, 10801.145231860308, 17350.742799132204, -55927.23857489092, -54938.77737984388, -67510.67251094253, -1269.2438088946114, -34732.95685445748, 21503.093421827965, -0.242, 0.9440000000000001, 0.184, 192.0, 0.0, 0.0, 0.0, 0.0, 0.0, 0.0, 0.0, 0.0, 0.0, 1.700950149987638E9, 0.0, 2023-11-25 17:09:09.987
180.0, 10706.664408047725, 17219.091024290447, -55982.24621799544, -55015.510918558946, -67567.37888662564, -1367.4126705423203, -34785.6622678831, 21426.561048812993, -0.242, 0.9440000000000001, 0.184, 192.0, 0.0, 0.0, 0.0, 0.0, 0.0, 0.0, 0.0, 0.0, 0.0, 1.700950149990636E9, 0.0, 2023-11-25 17:09:09.990
181.0, 10680.177590868187, 17214.93359982176, -55972.143229501635, -55001.8316509523, -67603.29813996532, -1414.351333898465, -34795.3629249767, 21435.43469136175, -0.242, 0.9440000000000001, 0.184, 192.0, 0.0, 0.0, 0.0, 0.0, 0.0, 0.0, 0.0, 0.0, 0.0, 1.700950149993655E9, 0.0, 2023-11-25 17:09:09.993
182.0, 10728.211489702642, 17308.296836411577, -55938.526205840855, -54951.83079860578, -67596.0561747618, -1385.0034934286468, -34785.39404694963, 21470.616337134405, -0.242, 0.9440000000000001, 0.184, 192.0, 0.0, 0.0, 0.0, 0.0, 0.0, 0.0, 0.0, 0.0, 0.0, 1.700950149997652E9, 0.0, 2023-11-25 17:09:09.997
183.0, 10804.497993528605, 17363.885624871924, -55920.84597597671, -54921.92416452458, -67518.62973196861, -1282.9677799901701, -34735.86258123667, 21505.462706740225, -0.242, 0.9440000000000001, 0.184, 192.0, 0.0, 0.0, 0.0, 0.0, 0.0, 0.0, 0.0, 0.0, 0.0, 1.700950150000731E9, 0.0, 2023-11-25 17:09:10.000
184.0, 10731.65365834876, 17248.12594033789, -55986.67186339758, -55000.66936024062, -67555.42070334205, -1329.3252979904769, -34776.49805265642, 21446.789377545047, -0.242, 0.9440000000000001, 0.184, 192.0, 0.0, 0.0, 0.0, 0.0, 0.0, 0.0, 0.0, 0.0, 0.0, 1.700950150003715E9, 0.0, 2023-11-25 17:09:10.003
185.0, 10677.853009444834, 17204.49533516113, -55984.101412785225, -55000.17762186261, -67606.27092197788, -1414.8430722764817, -34803.65542216962, 21439.748578041625, -0.242, 0.9440000000000001, 0.184, 192.0, 0.0, 0.0, 0.0, 0.0, 0.0, 0.0, 0.0, 0.0, 0.0, 1.700950150006743E9, 0.0, 2023-11-25 17:09:10.006
186.0, 10720.366027398828, 17296.986853717193, -55949.702078068505, -54945.63936539166, -67595.81030557278, -1373.2688275896105, -34788.165663262094, 21487.178979775785, -0.242, 0.9440000000000001, 0.184, 192.0, 0.0, 0.0, 0.0, 0.0, 0.0, 0.0, 0.0, 0.0, 0.0, 1.700950150010982E9, 0.0, 2023-11-25 17:09:10.010
187.0, 10793.344473045407, 17368.02069759616, -55928.959659213986, -54911.88823126414, -67538.61219151165, -1301.5420796325302, -34756.895572769114, 21508.815468408524, -0.234, 0.9420000000000001, 0.186, 192.0, 248.0, 176.0, 29.0, 112.0, 5.0, 208.0, 0.0, 0.0, 0.0, 1.70095015001376E9, 0.0, 2023-11-25 17:09:10.013
188.0, 10747.79161784549, 17269.918891181816, -55993.55620068982, -54987.23596182299, -67549.40808408357, -1304.5372133895414, -34782.5106719149, 21445.24710717763, -0.234, 0.9420000000000001, 0.186, 192.0, 0.0, 0.0, 0.0, 0.0, 0.0, 0.0, 0.0, 0.0, 0.0, 1.700950150016727E9, 0.0, 2023-11-25 17:09:10.016
189.0, 10693.789803241469, 17212.050224787024, -55978.3123109713, -54986.498354255964, -67594.40214567211, -1406.9529064837584, -34792.52425343088, 21457.09353173894, -0.234, 0.9420000000000001, 0.186, 192.0, 0.0, 0.0, 0.0, 0.0, 0.0, 0.0, 0.0, 0.0, 0.0, 1.700950150019731E9, 0.0, 2023-11-25 17:09:10.019
190.0, 10731.206623459653, 17293.61174030444, -55941.051952964306, -54934.99993503093, -67581.3487269102, -1353.2193128132, -34763.01995074987, 21517.59970397946, -0.234, 0.9420000000000001, 0.186, 192.0, 0.0, 0.0, 0.0, 0.0, 0.0, 0.0, 0.0, 0.0, 0.0, 1.700950150023713E9, 0.0, 2023-11-25 17:09:10.023
191.0, 10808.09662438591, 17379.844770413016, -55902.42813854553, -54890.25174263141, -67529.29151407379, -1295.037721996036, -34730.07347942275, 21547.439282827294, -0.234, 0.9420000000000001, 0.186, 192.0, 0.0, 0.0, 0.0, 0.0, 0.0, 0.0, 0.0, 0.0, 0.0, 1.700950150026709E9, 0.0, 2023-11-25 17:09:10.026
192.0, 10769.025775078033, 17296.04808045007, -55977.686462126556, -54973.86961863871, -67529.58208675172, -1264.840515236916, -34747.77606103135, 21484.116790785407, -0.234, 0.9420000000000001, 0.186, 192.0, 0.0, 0.0, 0.0, 0.0, 0.0, 0.0, 0.0, 0.0, 0.0, 1.700950150029741E9, 0.0, 2023-11-25 17:09:10.029
193.0, 10694.25918987503, 17203.78007933856, -55981.88859008415, -55001.56343001884, -67595.67619510606, -1400.381493613898, -34786.04224753884, 21452.444368892237, -0.234, 0.9420000000000001, 0.186, 192.0, 0.0, 0.0, 0.0, 0.0, 0.0, 0.0, 0.0, 0.0, 0.0, 1.700950150033734E9, 0.0, 2023-11-25 17:09:10.033
194.0, 10713.571097084416, 17264.84504519046, -55959.64860435112, -54967.18644704657, -67600.25830271939, -1365.1774960967894, -34777.10154975671, 21485.86022685292, -0.234, 0.9420000000000001, 0.186, 192.0, 0.0, 0.0, 0.0, 0.0, 0.0, 0.0, 0.0, 0.0, 0.0, 1.700950150036797E9, 0.0, 2023-11-25 17:09:10.036
195.0, 10779.776964161036, 17349.513453187163, -55920.287182365326, -54917.05148423332, -67563.66849704606, -1331.73928639165, -34749.13951744312, 21516.660930712336, -0.234, 0.9420000000000001, 0.186, 192.0, 0.0, 0.0, 0.0, 0.0, 0.0, 0.0, 0.0, 0.0, 0.0, 1.700950150040762E9, 0.0, 2023-11-25 17:09:10.040
196.0, 10776.84888563739, 17302.708900297752, -55969.013985277896, -54963.96779584501, -67526.09521461668, -1255.2963203545, -34732.196895146, 21488.028346065086, -0.234, 0.9420000000000001, 0.186, 192.0, 0.0, 0.0, 0.0, 0.0, 0.0, 0.0, 0.0, 0.0, 0.0, 1.700950150044807E9, 0.0, 2023-11-25 17:09:10.044
197.0, 10686.480782804583, 17190.011404754092, -55985.39781396363, -55008.17954637761, -67590.73645958143, -1391.41844408732, -34776.609811378694, 21434.585325072447, -0.232, 0.9380000000000001, 0.188, 192.0, 248.0, 192.0, 29.0, 80.0, 5.0, 224.0, 0.0, 0.0, 0.0, 1.700950150050876E9, 0.0, 2023-11-25 17:09:10.050
198.0, 10698.64013178827, 17240.32518152299, -55957.16756071658, -54971.45563023754, -67592.7034130935, -1367.5020775201415, -34764.048130994815, 21479.35586921643, -0.232, 0.9380000000000001, 0.188, 192.0, 0.0, 0.0, 0.0, 0.0, 0.0, 0.0, 0.0, 0.0, 0.0, 1.700950150053967E9, 0.0, 2023-11-25 17:09:10.053
199.0, 10765.002461076077, 17334.023694279636, -55912.307609594776, -54920.7618738129, -67567.13301743663, -1347.966652866203, -34755.1521367016, 21505.39565150686, -0.232, 0.9380000000000001, 0.188, 192.0, 0.0, 0.0, 0.0, 0.0, 0.0, 0.0, 0.0, 0.0, 0.0, 1.70095015006084E9, 0.0, 2023-11-25 17:09:10.060
200.0, 10803.022778394554, 17335.1412815024, -55932.714752282474, -54940.073781022285, -67504.36931900613, -1254.6257680208407, -34720.350470584686, 21499.763011904124, -0.232, 0.9380000000000001, 0.188, 192.0, 0.0, 0.0, 0.0, 0.0, 0.0, 0.0, 0.0, 0.0, 0.0, 1.700950150063846E9, 0.0, 2023-11-25 17:09:10.063
201.0, 10704.317474879917, 17206.797564840028, -55980.70394762802, -55012.69459875758, -67574.37498264015, -1380.8237172155043, -34771.40185492061, 21438.832156518958, -0.232, 0.9380000000000001, 0.188, 192.0, 0.0, 0.0, 0.0, 0.0, 0.0, 0.0, 0.0, 0.0, 0.0, 1.700950150067932E9, 0.0, 2023-11-25 17:09:10.067
202.0, 10700.092995177865, 17234.31256226451, -55955.06649673778, -54976.88710414018, -67584.96970951196, -1396.1793656563004, -34778.15208174611, 21464.380200431373, -0.232, 0.9380000000000001, 0.188, 192.0, 0.0, 0.0, 0.0, 0.0, 0.0, 0.0, 0.0, 0.0, 0.0, 1.700950150070983E9, 0.0, 2023-11-25 17:09:10.070
203.0, 10757.000536561078, 17332.727293101227, -55911.815871216764, -54919.465472634496, -67564.83078775773, -1371.5253915220967, -34772.74295958793, 21486.30726174203, -0.232, 0.9380000000000001, 0.188, 192.0, 0.0, 0.0, 0.0, 0.0, 0.0, 0.0, 0.0, 0.0, 0.0, 1.700950150074894E9, 0.0, 2023-11-25 17:09:10.074
204.0, 10802.508688272083, 17351.1451305324, -55929.02671444735, -54925.3663331707, -67507.52091497433, -1282.520745101064, -34747.28432265334, 21489.749430388147, -0.232, 0.9380000000000001, 0.188, 192.0, 0.0, 0.0, 0.0, 0.0, 0.0, 0.0, 0.0, 0.0, 0.0, 1.700950150078058E9, 0.0, 2023-11-25 17:09:10.078
205.0, 10721.193041943676, 17227.137652294357, -55988.68352039856, -55003.21745910853, -67565.16606392457, -1370.8771909328927, -34800.526177945874, 21430.874935492866, -0.232, 0.9380000000000001, 0.188, 192.0, 0.0, 0.0, 0.0, 0.0, 0.0, 0.0, 0.0, 0.0, 0.0, 1.700950150081955E9, 0.0, 2023-11-25 17:09:10.081
206.0, 10699.154221910741, 17231.429187229776, -55967.29290095483, -54982.92207514311, -67593.37396542716, -1419.2687176786326, -34804.594195436744, 21448.421054890285, -0.232, 0.9380000000000001, 0.188, 192.0, 248.0, 192.0, 29.0, 80.0, 5.0, 224.0, 0.0, 0.0, 0.0, 1.700950150086908E9, 0.0, 2023-11-25 17:09:10.086
207.0, 10732.0336380045, 17311.604894590964, -55933.74293252742, -54936.721019353994, -67587.62956710215, -1391.641961531873, -34795.80995986581, 21480.808732606023, -0.232, 0.9380000000000001, 0.188, 192.0, 0.0, 0.0, 0.0, 0.0, 0.0, 0.0, 0.0, 0.0, 0.0, 1.700950150093079E9, 0.0, 2023-11-25 17:09:10.093
208.0, 10798.03833938102, 17362.72333416025, -55918.00730443088, -54912.29056266434, -67519.76967093583, -1304.0901785004353, -34757.968456502975, 21499.383032248385, -0.232, 0.9380000000000001, 0.188, 192.0, 0.0, 0.0, 0.0, 0.0, 0.0, 0.0, 0.0, 0.0, 0.0, 1.700950150095979E9, 0.0, 2023-11-25 17:09:10.095
209.0, 10742.561309642948, 17261.872263177906, -55977.30648247081, -54986.09602285577, -67546.01061892636, -1335.3826207378652, -34791.00433480791, 21430.517307581584, -0.232, 0.9380000000000001, 0.188, 192.0, 0.0, 0.0, 0.0, 0.0, 0.0, 0.0, 0.0, 0.0, 0.0, 1.700950150099998E9, 0.0, 2023-11-25 17:09:10.099
210.0, 10690.682910762182, 17220.320370235488, -55976.68063362606, -54993.136822359185, -67603.90163706562, -1434.6020143749731, -34827.03534686987, 21400.476563033648, -0.232, 0.9380000000000001, 0.188, 192.0, 0.0, 0.0, 0.0, 0.0, 0.0, 0.0, 0.0, 0.0, 0.0, 1.700950150102993E9, 0.0, 2023-11-25 17:09:10.102
211.0, 10733.911184538745, 17308.542705600586, -55943.555348343296, -54946.242862491956, -67598.85014281872, -1400.2920866360769, -34814.89834963064, 21425.398758101317, -0.232, 0.9380000000000001, 0.188, 192.0, 0.0, 0.0, 0.0, 0.0, 0.0, 0.0, 0.0, 0.0, 0.0, 1.700950150106022E9, 0.0, 2023-11-25 17:09:10.106
212.0, 10802.799260950002, 17378.43661051233, -55915.50390905189, -54906.99319922843, -67535.70646473247, -1310.035742525547, -34754.14630820111, 21500.12063981541, -0.232, 0.9380000000000001, 0.188, 192.0, 0.0, 0.0, 0.0, 0.0, 0.0, 0.0, 0.0, 0.0, 0.0, 1.700950150110153E9, 0.0, 2023-11-25 17:09:10.110
213.0, 10752.50783592556, 17281.318280854022, -55986.068366297295, -54984.531400743894, -67543.99896192539, -1294.3001144290108, -34774.73226484445, 21456.333572427462, -0.232, 0.9380000000000001, 0.188, 192.0, 0.0, 0.0, 0.0, 0.0, 0.0, 0.0, 0.0, 0.0, 0.0, 1.700950150114223E9, 0.0, 2023-11-25 17:09:10.114
214.0, 10689.632378772782, 17219.001617312624, -55973.6631481246, -54990.56637174683, -67593.15044798261, -1412.4290838753086, -34806.02470708188, 21433.46773784968, -0.232, 0.9380000000000001, 0.188, 192.0, 0.0, 0.0, 0.0, 0.0, 0.0, 0.0, 0.0, 0.0, 0.0, 1.700950150118181E9, 0.0, 2023-11-25 17:09:10.118
215.0, 10722.869422777823, 17300.31726364103, -55938.727371540954, -54941.52664441188, -67581.5051891214, -1360.5730367389963, -34780.90134631412, 21488.497732698648, -0.232, 0.9380000000000001, 0.188, 192.0, 0.0, 0.0, 0.0, 0.0, 0.0, 0.0, 0.0, 0.0, 0.0, 1.70095015012108E9, 0.0, 2023-11-25 17:09:10.121
216.0, 10787.398909020294, 17374.860331399483, -55909.06660664876, -54907.708455051004, -67542.85902295816, -1311.35449544841, -34742.098717939705, 21528.44030004028, -0.23800000000000002, 0.9400000000000001, 0.184, 192.0, 248.0, 144.0, 29.0, 96.0, 5.0, 192.0, 0.0, 0.0, 0.0, 1.700950150126049E9, 0.0, 2023-11-25 17:09:10.126
217.0, 10773.071440824442, 17307.38041488891, -55963.24723520842, -54970.78507790388, -67522.76480469285, -1266.874523982349, -34744.758575529886, 21484.697936141245, -0.23800000000000002, 0.9400000000000001, 0.184, 192.0, 0.0, 0.0, 0.0, 0.0, 0.0, 0.0, 0.0, 0.0, 0.0, 1.700950150133236E9, 0.0, 2023-11-25 17:09:10.133
218.0, 10695.622646286804, 17212.83253584296, -55967.31525269929, -55000.80347070736, -67584.6567850896, -1407.1317204394009, -34781.14721550312, 21439.703874552713, -0.23800000000000002, 0.9400000000000001, 0.184, 192.0, 0.0, 0.0, 0.0, 0.0, 0.0, 0.0, 0.0, 0.0, 0.0, 1.700950150137247E9, 0.0, 2023-11-25 17:09:10.137
219.0, 10703.892791735267, 17265.89557717986, -55952.853674036705, -54970.628615692694, -67594.8044770723, -1385.6740457623062, -34785.32699171627, 21451.036208991554, -0.23800000000000002, 0.9400000000000001, 0.184, 192.0, 0.0, 0.0, 0.0, 0.0, 0.0, 0.0, 0.0, 0.0, 0.0, 1.700950150140151E9, 0.0, 2023-11-25 17:09:10.140
220.0, 10778.927597871732, 17366.90311037339, -55903.59042925721, -54910.39066438564, -67553.52080506335, -1347.005527854625, -34748.871296509664, 21495.672642668804, -0.23800000000000002, 0.9400000000000001, 0.184, 192.0, 0.0, 0.0, 0.0, 0.0, 0.0, 0.0, 0.0, 0.0, 0.0, 1.700950150153166E9, 0.0, 2023-11-25 17:09:10.153
221.0, 10791.243409066607, 17340.43864493831, -55945.656412322096, -54951.56257767232, -67507.67737718551, -1260.7948494905054, -34726.363089843166, 21484.139142529864, -0.23800000000000002, 0.9400000000000001, 0.184, 192.0, 0.0, 0.0, 0.0, 0.0, 0.0, 0.0, 0.0, 0.0, 0.0, 1.70095015015662E9, 0.0, 2023-11-25 17:09:10.156
222.0, 10703.535163823983, 17223.159041781313, -55969.6621858671, -55003.21745910853, -67573.63737507313, -1396.0676069340238, -34774.955782289006, 21427.455118591206, -0.23800000000000002, 0.9400000000000001, 0.184, 192.0, 0.0, 0.0, 0.0, 0.0, 0.0, 0.0, 0.0, 0.0, 0.0, 1.700950150168229E9, 0.0, 2023-11-25 17:09:10.168
223.0, 10690.235875873075, 17242.448597246243, -55968.54459864433, -54993.695615970566, -67603.76752659888, -1405.1871186717892, -34790.467892940986, 21434.85354600591, -0.23800000000000002, 0.9400000000000001, 0.184, 192.0, 0.0, 0.0, 0.0, 0.0, 0.0, 0.0, 0.0, 0.0, 0.0, 1.700950150173639E9, 0.0, 2023-11-25 17:09:10.173
224.0, 10775.239560036607, 17360.44345622581, -55900.75175771138, -54920.359542412705, -67560.78512201132, -1374.9899119126692, -34768.27261069687, 21476.092514525953, -0.23800000000000002, 0.9400000000000001, 0.184, 192.0, 0.0, 0.0, 0.0, 0.0, 0.0, 0.0, 0.0, 0.0, 0.0, 1.70095015017622E9, 0.0, 2023-11-25 17:09:10.176
225.0, 10822.334685603939, 17371.61932845346, -55911.681760750034, -54928.87555705018, -67489.05837405425, -1267.3215588714552, -34731.816915490264, 21483.0215553071, -0.23800000000000002, 0.9400000000000001, 0.184, 192.0, 0.0, 0.0, 0.0, 0.0, 0.0, 0.0, 0.0, 0.0, 0.0, 1.700950150180237E9, 0.0, 2023-11-25 17:09:10.180
226.0, 10728.300896680463, 17237.754730910627, -55963.3589939307, -55005.653799254156, -67560.65101154459, -1392.5360313100853, -34795.09470404324, 21397.14615310981, -0.244, 0.9380000000000001, 0.184, 192.0, 248.0, 96.0, 29.0, 80.0, 5.0, 192.0, 0.0, 0.0, 0.0, 1.700950150183268E9, 0.0, 2023-11-25 17:09:10.183
227.0, 10723.69643732267, 17264.107437623436, -55940.94019424203, -54977.42354600711, -67578.1524274531, -1416.0724182215235, -34798.62627966717, 21416.61452253038, -0.244, 0.9380000000000001, 0.184, 192.0, 0.0, 0.0, 0.0, 0.0, 0.0, 0.0, 0.0, 0.0, 0.0, 1.700950150186243E9, 0.0, 2023-11-25 17:09:10.186
228.0, 10788.047109609499, 17371.641680197918, -55895.9908361424, -54914.972771998975, -67556.78415975382, -1380.577848026496, -34777.056846267806, 21464.9166422983, -0.244, 0.9380000000000001, 0.184, 192.0, 0.0, 0.0, 0.0, 0.0, 0.0, 0.0, 0.0, 0.0, 0.0, 1.700950150190329E9, 0.0, 2023-11-25 17:09:10.190
229.0, 10828.14613916232, 17395.379232809453, -55911.21237411647, -54918.683161578556, -67499.94367360398, -1291.841422538927, -34749.74301454342, 21463.91081379781, -0.244, 0.9380000000000001, 0.184, 192.0, 0.0, 0.0, 0.0, 0.0, 0.0, 0.0, 0.0, 0.0, 0.0, 1.700950150193248E9, 0.0, 2023-11-25 17:09:10.193
230.0, 10736.772207829024, 17267.90723418084, -55973.14905800213, -55000.71406372954, -67550.1903951395, -1373.6935107342615, -34805.37650649268, 21377.878949389335, -0.244, 0.9380000000000001, 0.184, 192.0, 0.0, 0.0, 0.0, 0.0, 0.0, 0.0, 0.0, 0.0, 0.0, 1.700950150196248E9, 0.0, 2023-11-25 17:09:10.196
231.0, 10708.83252725989, 17258.22892883169, -55950.46203737999, -54979.12227858571, -67578.46535187546, -1427.7847323161045, -34810.76327690641, 21392.362879796372, -0.244, 0.9380000000000001, 0.184, 192.0, 0.0, 0.0, 0.0, 0.0, 0.0, 0.0, 0.0, 0.0, 0.0, 1.700950150200401E9, 0.0, 2023-11-25 17:09:10.200
232.0, 10751.770228358535, 17346.697133385795, -55917.38145558613, -54930.46253090651, -67572.2515669169, -1395.2629441336328, -34797.84396861124, 21426.449290090717, -0.244, 0.9380000000000001, 0.184, 192.0, 0.0, 0.0, 0.0, 0.0, 0.0, 0.0, 0.0, 0.0, 0.0, 1.700950150203374E9, 0.0, 2023-11-25 17:09:10.203
233.0, 10816.053845411998, 17398.664939244383, -55905.15505136908, -54909.27307716288, -67513.15355457706, -1314.9754780501698, -34760.65066583761, 21457.04882825003, -0.244, 0.9380000000000001, 0.184, 192.0, 0.0, 0.0, 0.0, 0.0, 0.0, 0.0, 0.0, 0.0, 0.0, 1.700950150206364E9, 0.0, 2023-11-25 17:09:10.206
234.0, 10746.22699573362, 17281.65355702085, -55977.08296502626, -54995.48375552699, -67546.16708113755, -1349.1959988112449, -34795.854663354716, 21388.8983594058, -0.244, 0.9380000000000001, 0.184, 192.0, 0.0, 0.0, 0.0, 0.0, 0.0, 0.0, 0.0, 0.0, 0.0, 1.700950150210422E9, 0.0, 2023-11-25 17:09:10.210
235.0, 10693.231009630086, 17238.537041966563, -55965.50476139841, -54993.80737469285, -67596.01147127288, -1441.1510755003783, -34814.20544555252, 21400.14128686682, -0.244, 0.9380000000000001, 0.184, 192.0, 0.0, 0.0, 0.0, 0.0, 0.0, 0.0, 0.0, 0.0, 0.0, 1.700950150213366E9, 0.0, 2023-11-25 17:09:10.213
236.0, 10727.563289113437, 17318.824508050027, -55941.20841517549, -54952.63546140617, -67599.76656434138, -1399.42036860232, -34805.24239602595, 21443.34720889893, -0.234, 0.936, 0.182, 192.0, 248.0, 176.0, 29.0, 64.0, 5.0, 176.0, 0.0, 0.0, 0.0, 1.700950150216882E9, 0.0, 2023-11-25 17:09:10.216
237.0, 10793.635045723326, 17388.91957866187, -55919.706037009484, -54920.560708112804, -67551.5985550402, -1340.970556851692, -34764.36105541719, 21473.231491235674, -0.234, 0.936, 0.182, 192.0, 0.0, 0.0, 0.0, 0.0, 0.0, 0.0, 0.0, 0.0, 0.0, 1.700950150220354E9, 0.0, 2023-11-25 17:09:10.220
238.0, 10751.770228358535, 17297.076260695012, -55988.79527912084, -54996.31077007184, -67554.1019504192, -1318.7305711186614, -34772.139462487634, 21435.233525661653, -0.234, 0.936, 0.182, 192.0, 0.0, 0.0, 0.0, 0.0, 0.0, 0.0, 0.0, 0.0, 0.0, 1.700950150223392E9, 0.0, 2023-11-25 17:09:10.223
239.0, 10675.036689643466, 17215.112413777402, -55994.00323557893, -55017.34376160429, -67618.7655471284, -1442.156904000867, -34810.07037282829, 21417.329778352952, -0.234, 0.936, 0.182, 192.0, 0.0, 0.0, 0.0, 0.0, 0.0, 0.0, 0.0, 0.0, 0.0, 1.700950150226375E9, 0.0, 2023-11-25 17:09:10.226
240.0, 10704.943323724667, 17293.276464137612, -55960.810895062794, -54968.460496480526, -67610.47304993548, -1397.8110430015379, -34802.783704135865, 21448.823386290478, -0.234, 0.936, 0.182, 192.0, 0.0, 0.0, 0.0, 0.0, 0.0, 0.0, 0.0, 0.0, 0.0, 1.70095015022938E9, 0.0, 2023-11-25 17:09:10.229
241.0, 10790.036414866021, 17395.759212465193, -55901.891696678606, -54902.47814684846, -67546.10002590419, -1334.6673649152954, -34742.232828406435, 21489.883540854877, -0.234, 0.936, 0.182, 192.0, 0.0, 0.0, 0.0, 0.0, 0.0, 0.0, 0.0, 0.0, 0.0, 1.70095015023359E9, 0.0, 2023-11-25 17:09:10.233
242.0, 10779.866371138856, 17344.014924051156, -55952.47369438097, -54957.08345855278, -67515.65694995606, -1269.7802507615388, -34724.194970631004, 21454.05369449302, -0.234, 0.936, 0.182, 192.0, 0.0, 0.0, 0.0, 0.0, 0.0, 0.0, 0.0, 0.0, 0.0, 1.700950150236515E9, 0.0, 2023-11-25 17:09:10.236
243.0, 10691.97931194059, 17238.581745455474, -55968.857523066705, -54999.68588348459, -67585.5061513789, -1413.2113949312443, -34771.40185492061, 21401.549446767505, -0.234, 0.936, 0.182, 192.0, 0.0, 0.0, 0.0, 0.0, 0.0, 0.0, 0.0, 0.0, 0.0, 1.700950150239517E9, 0.0, 2023-11-25 17:09:10.239
244.0, 10703.333998123884, 17290.057812936047, -55953.412467648086, -54969.73454591448, -67596.65967186209, -1396.961676712236, -34768.63023860815, 21429.936162225746, -0.234, 0.936, 0.182, 192.0, 0.0, 0.0, 0.0, 0.0, 0.0, 0.0, 0.0, 0.0, 0.0, 1.700950150243451E9, 0.0, 2023-11-25 17:09:10.243
245.0, 10782.258007795574, 17391.422974040863, -55899.522411766346, -54908.15548994011, -67554.45957833047, -1362.0482518730464, -34739.05888069378, 21473.276194724585, -0.234, 0.936, 0.182, 192.0, 0.0, 0.0, 0.0, 0.0, 0.0, 0.0, 0.0, 0.0, 0.0, 1.700950150246525E9, 0.0, 2023-11-25 17:09:10.246
246.0, 10805.369711562362, 17367.551310962597, -55927.66325803557, -54935.44696992004, -67498.44610672547, -1274.0494339525026, -34723.61382527516, 21448.801034546024, -0.23, 0.9440000000000001, 0.18, 192.0, 248.0, 208.0, 29.0, 128.0, 5.0, 160.0, 0.0, 0.0, 0.0, 1.700950150249526E9, 0.0, 2023-11-25 17:09:10.249
247.0, 10713.816966273424, 17246.49426299265, -55954.84297929323, -54987.23596182299, -67561.29921213379, -1402.2143366592334, -34772.07240725427, 21390.597091984404, -0.23, 0.9440000000000001, 0.18, 192.0, 0.0, 0.0, 0.0, 0.0, 0.0, 0.0, 0.0, 0.0, 0.0, 1.700950150252567E9, 0.0, 2023-11-25 17:09:10.252
248.0, 10706.798518514457, 17275.819751718016, -55942.92949949855, -54966.69470866856, -67581.92987226605, -1408.4057698733534, -34774.41934042208, 21416.413356830282, -0.23, 0.9440000000000001, 0.18, 192.0, 0.0, 0.0, 0.0, 0.0, 0.0, 0.0, 0.0, 0.0, 0.0, 1.700950150256533E9, 0.0, 2023-11-25 17:09:10.256
249.0, 10765.807123876468, 17366.925462117848, -55903.59042925721, -54917.833795289254, -67565.72485753594, -1396.1793656563004, -34769.54666013082, 21440.28501990855, -0.23, 0.9440000000000001, 0.18, 192.0, 0.0, 0.0, 0.0, 0.0, 0.0, 0.0, 0.0, 0.0, 0.0, 1.700950150259673E9, 0.0, 2023-11-25 17:09:10.259
250.0, 10810.018874409065, 17383.711622203784, -55916.24151661892, -54924.91929828159, -67499.07195557022, -1294.747149318117, -34741.808145261784, 21443.794243788034, -0.23, 0.9440000000000001, 0.18, 192.0, 0.0, 0.0, 0.0, 0.0, 0.0, 0.0, 0.0, 0.0, 0.0, 1.700950150262553E9, 0.0, 2023-11-25 17:09:10.262
251.0, 10717.192079686176, 17252.484530506674, -55964.320118942276, -54996.80250844986, -67560.31573537776, -1399.6885895357836, -34790.02085805188, 21377.61072845587, -0.23, 0.9440000000000001, 0.18, 192.0, 0.0, 0.0, 0.0, 0.0, 0.0, 0.0, 0.0, 0.0, 0.0, 1.700950150266512E9, 0.0, 2023-11-25 17:09:10.266
252.0, 10698.953056210645, 17258.43009453179, -55949.724429812966, -54978.69759544106, -67587.96484326897, -1435.1608079863558, -34792.88188134216, 21388.764248939067, -0.23, 0.9440000000000001, 0.18, 192.0, 0.0, 0.0, 0.0, 0.0, 0.0, 0.0, 0.0, 0.0, 0.0, 1.700950150269574E9, 0.0, 2023-11-25 17:09:10.269
253.0, 10752.284318481008, 17354.363781733966, -55913.40284507309, -54927.981487271965, -67578.91238676458, -1412.2502699196662, -34783.628259137666, 21422.873010977866, -0.23, 0.9440000000000001, 0.18, 192.0, 0.0, 0.0, 0.0, 0.0, 0.0, 0.0, 0.0, 0.0, 0.0, 1.700950150272567E9, 0.0, 2023-11-25 17:09:10.272
254.0, 10805.928505173744, 17390.685366473837, -55916.33092359673, -54921.901812780125, -67516.72983368991, -1320.0493240415244, -34751.08411921074, 21438.318066396485, -0.23, 0.9440000000000001, 0.18, 192.0, 0.0, 0.0, 0.0, 0.0, 0.0, 0.0, 0.0, 0.0, 0.0, 1.70095015028387E9, 0.0, 2023-11-25 17:09:10.283
255.0, 10731.340733926385, 17271.9752516717, -55975.3618807032, -54999.39531080667, -67558.84052024371, -1383.4612230612306, -34794.84883485423, 21375.800237154992, -0.23, 0.9440000000000001, 0.18, 192.0, 0.0, 0.0, 0.0, 0.0, 0.0, 0.0, 0.0, 0.0, 0.0, 1.700950150286608E9, 0.0, 2023-11-25 17:09:10.286
0.0, 10691.867553218312, 17243.476777491185, -55964.186008475546, -54992.712139214535, -67600.66063411959, -1460.060651309568, -34818.40757351012, 21374.570891209947, -0.23600000000000002, 0.9420000000000001, 0.182, 192.0, 248.0, 160.0, 29.0, 112.0, 5.0, 176.0, 0.0, 0.0, 0.0, 1.700950150289598E9, 0.0, 2023-11-25 17:09:10.289
1.0, 10739.45441716366, 17334.38132219092, -55916.91206895257, -54934.77641758638, -67582.13103796614, -1417.190005444289, -34792.50190168642, 21421.53190631055, -0.23600000000000002, 0.9420000000000001, 0.182, 192.0, 0.0, 0.0, 0.0, 0.0, 0.0, 0.0, 0.0, 0.0, 0.0, 1.700950150293425E9, 0.0, 2023-11-25 17:09:10.293
2.0, 10810.264743598074, 17394.127535119955, -55892.41455702956, -54903.72984453796, -67514.5393627333, -1335.6284899268735, -34753.408700634085, 21433.84771750542, -0.23600000000000002, 0.9420000000000001, 0.182, 192.0, 0.0, 0.0, 0.0, 0.0, 0.0, 0.0, 0.0, 0.0, 0.0, 1.700950150296632E9, 0.0, 2023-11-25 17:09:10.296
3.0, 10745.444684677683, 17279.17251338631, -55966.89056955464, -54992.60038049226, -67544.2448311144, -1366.518600764108, -34798.13454128916, 21343.189041994698, -0.23600000000000002, 0.9420000000000001, 0.182, 192.0, 0.0, 0.0, 0.0, 0.0, 0.0, 0.0, 0.0, 0.0, 0.0, 1.700950150299797E9, 0.0, 2023-11-25 17:09:10.299
4.0, 10687.419556071705, 17223.807242370516, -55962.86725555269, -55000.691711985084, -67601.08531726424, -1468.4202037358527, -34817.737021176465, 21356.577736923427, -0.23600000000000002, 0.9420000000000001, 0.182, 192.0, 0.0, 0.0, 0.0, 0.0, 0.0, 0.0, 0.0, 0.0, 0.0, 1.700950150302666E9, 0.0, 2023-11-25 17:09:10.302
5.0, 10725.573983856915, 17306.0840137105, -55932.89356623812, -54952.92603408409, -67594.73742183893, -1418.6652205783394, -34797.48634069996, 21433.71360703869, -0.23600000000000002, 0.9420000000000001, 0.182, 192.0, 0.0, 0.0, 0.0, 0.0, 0.0, 0.0, 0.0, 0.0, 0.0, 1.700950150306653E9, 0.0, 2023-11-25 17:09:10.306
6.0, 10804.341531317417, 17389.232503084244, -55893.95682739697, -54901.271152647874, -67532.59957225318, -1348.1454668218455, -34752.91696225607, 21487.760125131623, -0.23600000000000002, 0.9420000000000001, 0.182, 192.0, 0.0, 0.0, 0.0, 0.0, 0.0, 0.0, 0.0, 0.0, 0.0, 1.700950150309698E9, 0.0, 2023-11-25 17:09:10.309
7.0, 10761.068554051943, 17299.110269440447, -55969.03633702235, -54978.56348497433, -67535.8405751992, -1324.9443560772368, -34777.459177667995, 21425.152888912307, -0.23600000000000002, 0.9420000000000001, 0.182, 192.0, 0.0, 0.0, 0.0, 0.0, 0.0, 0.0, 0.0, 0.0, 0.0, 1.700950150312829E9, 0.0, 2023-11-25 17:09:10.312
8.0, 10687.285445604974, 17210.910285819806, -55971.78560159035, -55000.15527011815, -67601.84527657572, -1457.221979763744, -34810.42800073958, 21388.496028005604, -0.23600000000000002, 0.9420000000000001, 0.182, 192.0, 0.0, 0.0, 0.0, 0.0, 0.0, 0.0, 0.0, 0.0, 0.0, 1.700950150316781E9, 0.0, 2023-11-25 17:09:10.316
9.0, 10717.505004108549, 17285.56511230053, -55944.98585998844, -54958.29045275336, -67599.43128817454, -1413.9937059871802, -34785.39404694963, 21424.057653434, -0.23600000000000002, 0.9420000000000001, 0.182, 192.0, 0.0, 0.0, 0.0, 0.0, 0.0, 0.0, 0.0, 0.0, 0.0, 1.700950150320651E9, 0.0, 2023-11-25 17:09:10.320
10.0, 10791.712795700168, 17374.34624127701, -55900.774109455844, -54907.30612365081, -67554.1019504192, -1372.5535717670407, -34755.88974426863, 21450.47741538017, -0.23600000000000002, 0.9440000000000001, 0.184, 192.0, 248.0, 160.0, 29.0, 128.0, 5.0, 192.0, 0.0, 0.0, 0.0, 1.700950150324699E9, 0.0, 2023-11-25 17:09:10.324
11.0, 10773.60788269137, 17306.016958477136, -55958.21809270598, -54969.77924940339, -67529.20210709597, -1312.8520623269155, -34761.96941876047, 21405.863333447378, -0.23600000000000002, 0.9440000000000001, 0.184, 192.0, 0.0, 0.0, 0.0, 0.0, 0.0, 0.0, 0.0, 0.0, 0.0, 1.7009501503297E9, 0.0, 2023-11-25 17:09:10.329
12.0, 10676.891884433257, 17185.384593651845, -55980.99452030594, -55020.02597093892, -67604.52748591035, -1457.4678489527523, -34819.23458805497, 21345.200698995675, -0.23600000000000002, 0.9440000000000001, 0.184, 192.0, 0.0, 0.0, 0.0, 0.0, 0.0, 0.0, 0.0, 0.0, 0.0, 1.700950150333938E9, 0.0, 2023-11-25 17:09:10.333
13.0, 10674.030861142977, 17216.006483555615, -55971.092697512235, -55000.468194540525, -67622.29712275232, -1445.1967412467889, -34828.37645153719, 21370.681687674725, -0.23600000000000002, 0.9440000000000001, 0.184, 192.0, 0.0, 0.0, 0.0, 0.0, 0.0, 0.0, 0.0, 0.0, 0.0, 1.700950150336819E9, 0.0, 2023-11-25 17:09:10.336
14.0, 10762.186141274708, 17332.302609956576, -55899.29889432179, -54920.73952206845, -67563.13205517913, -1398.3698366129204, -34789.21619525149, 21426.024606946066, -0.23600000000000002, 0.9440000000000001, 0.184, 192.0, 0.0, 0.0, 0.0, 0.0, 0.0, 0.0, 0.0, 0.0, 0.0, 1.700950150343802E9, 0.0, 2023-11-25 17:09:10.343
15.0, 10792.450403267194, 17326.692322098294, -55923.86346147817, -54941.124313011685, -67499.38487999259, -1297.1164342303794, -34757.14144195813, 21425.734034268145, -0.23600000000000002, 0.9440000000000001, 0.184, 192.0, 0.0, 0.0, 0.0, 0.0, 0.0, 0.0, 0.0, 0.0, 0.0, 1.700950150348126E9, 0.0, 2023-11-25 17:09:10.348
16.0, 10706.284428391986, 17203.98124503866, -55959.58154911776, -54999.909400929144, -67567.46829360347, -1426.9130142823476, -34809.24335828345, 21361.919803848246, -0.23600000000000002, 0.9440000000000001, 0.184, 192.0, 0.0, 0.0, 0.0, 0.0, 0.0, 0.0, 0.0, 0.0, 0.0, 1.700950150349788E9, 0.0, 2023-11-25 17:09:10.349
17.0, 10704.518640580016, 17228.07642556148, -55942.92949949855, -54972.372051760205, -67584.72384032296, -1431.7856945736046, -34810.62916643968, 21386.797295427, -0.23600000000000002, 0.9440000000000001, 0.184, 192.0, 0.0, 0.0, 0.0, 0.0, 0.0, 0.0, 0.0, 0.0, 0.0, 1.700950150352799E9, 0.0, 2023-11-25 17:09:10.352
18.0, 10764.264853509052, 17323.33956043, -55901.15408911158, -54917.6102778447, -67564.40610461308, -1412.7867117865935, -34795.161759276605, 21409.41726081577, -0.23600000000000002, 0.9440000000000001, 0.184, 192.0, 0.0, 0.0, 0.0, 0.0, 0.0, 0.0, 0.0, 0.0, 0.0, 1.700950150356774E9, 0.0, 2023-11-25 17:09:10.356
19.0, 10802.553391760992, 17337.555269903572, -55921.85180447719, -54928.29441169434, -67505.59866495118, -1320.4740071861754, -34768.27261069687, 21416.56981904147, -0.23600000000000002, 0.9440000000000001, 0.184, 192.0, 0.0, 0.0, 0.0, 0.0, 0.0, 0.0, 0.0, 0.0, 0.0, 1.700950150361858E9, 0.0, 2023-11-25 17:09:10.361
20.0, 10712.677027306203, 17213.234867243154, -55978.69229062704, -55006.10083414327, -67569.59170932672, -1431.6068806179621, -34828.622320726194, 21341.579716393917, -0.23600000000000002, 0.9440000000000001, 0.182, 192.0, 248.0, 160.0, 29.0, 128.0, 5.0, 176.0, 0.0, 0.0, 0.0, 1.700950150366177E9, 0.0, 2023-11-25 17:09:10.366
21.0, 10700.8753062338, 17224.522498193088, -55950.685554824544, -54977.959987874034, -67587.96484326897, -1471.9964828487018, -34834.05379462884, 21350.140434520297, -0.23600000000000002, 0.9440000000000001, 0.182, 192.0, 0.0, 0.0, 0.0, 0.0, 0.0, 0.0, 0.0, 0.0, 0.0, 1.700950150368898E9, 0.0, 2023-11-25 17:09:10.368
22.0, 10744.818835832935, 17310.62141783493, -55911.01120841637, -54927.33328668276, -67575.22434892945, -1442.0674970230457, -34822.073259600795, 21390.015946628566, -0.23600000000000002, 0.9440000000000001, 0.182, 192.0, 0.0, 0.0, 0.0, 0.0, 0.0, 0.0, 0.0, 0.0, 0.0, 1.700950150373139E9, 0.0, 2023-11-25 17:09:10.373
23.0, 10800.653493482292, 17350.653392154385, -55903.3445600682, -54913.67637082057, -67508.90672313055, -1350.9170831343035, -34782.577727148266, 21410.71366199418, -0.23600000000000002, 0.9440000000000001, 0.182, 192.0, 0.0, 0.0, 0.0, 0.0, 0.0, 0.0, 0.0, 0.0, 0.0, 1.700950150377912E9, 0.0, 2023-11-25 17:09:10.377
24.0, 10730.469015892628, 17236.972419854694, -55965.79533407633, -54992.95800840355, -67547.4411305715, -1407.0870169504901, -34816.77589616489, 21338.830451825914, -0.23600000000000002, 0.9440000000000001, 0.182, 192.0, 0.0, 0.0, 0.0, 0.0, 0.0, 0.0, 0.0, 0.0, 0.0, 1.700950150380955E9, 0.0, 2023-11-25 17:09:10.380
25.0, 10690.079413661888, 17206.909323562304, -55956.206435705004, -54988.35354904575, -67593.70924159398, -1490.928410402347, -34836.244265585454, 21338.249306470076, -0.23600000000000002, 0.9440000000000001, 0.182, 192.0, 0.0, 0.0, 0.0, 0.0, 0.0, 0.0, 0.0, 0.0, 0.0, 1.700950150384899E9, 0.0, 2023-11-25 17:09:10.384
26.0, 10732.279507193507, 17291.734193770193, -55928.71379002497, -54944.94646131354, -67592.9045787936, -1460.798258876593, -34834.3220155623, 21366.591318439405, -0.23600000000000002, 0.9440000000000001, 0.182, 192.0, 0.0, 0.0, 0.0, 0.0, 0.0, 0.0, 0.0, 0.0, 0.0, 1.700950150388868E9, 0.0, 2023-11-25 17:09:10.388
27.0, 10798.75359520359, 17353.357953233477, -55913.134624139624, -54922.4159029026, -67539.1933368675, -1397.833394745993, -34804.8177128813, 21380.18117906823, -0.23600000000000002, 0.9440000000000001, 0.182, 192.0, 0.0, 0.0, 0.0, 0.0, 0.0, 0.0, 0.0, 0.0, 0.0, 1.700950150392962E9, 0.0, 2023-11-25 17:09:10.392
28.0, 10739.856748563856, 17246.427207759287, -55984.0120058074, -55010.21355512304, -67560.87452898914, -1411.7138280527388, -34829.963425393515, 21315.606989336848, -0.23600000000000002, 0.9440000000000001, 0.182, 192.0, 0.0, 0.0, 0.0, 0.0, 0.0, 0.0, 0.0, 0.0, 0.0, 1.700950150396983E9, 0.0, 2023-11-25 17:09:10.396
29.0, 10675.170800110198, 17181.003651738603, -55973.93136905806, -55017.07554067082, -67612.708224381, -1515.9400124478357, -34851.8234314708, 21319.429137638705, -0.23600000000000002, 0.9440000000000001, 0.182, 192.0, 0.0, 0.0, 0.0, 0.0, 0.0, 0.0, 0.0, 0.0, 0.0, 1.700950150402019E9, 0.0, 2023-11-25 17:09:10.402
30.0, 10708.698416793159, 17258.18422534278, -55940.627269819655, -54967.968758102514, -67606.69560512253, -1468.219038035755, -34839.3735098092, 21363.819702126944, -0.242, 0.9420000000000001, 0.186, 192.0, 248.0, 112.0, 29.0, 112.0, 5.0, 208.0, 0.0, 0.0, 0.0, 1.700950150406009E9, 0.0, 2023-11-25 17:09:10.406
31.0, 10786.974225875643, 17340.215127493757, -55904.08216763523, -54921.20890870201, -67553.7443225079, -1402.035522703591, -34795.005297065414, 21412.47944980615, -0.242, 0.9420000000000001, 0.186, 192.0, 0.0, 0.0, 0.0, 0.0, 0.0, 0.0, 0.0, 0.0, 0.0, 1.700950150408986E9, 0.0, 2023-11-25 17:09:10.408
32.0, 10762.387306974806, 17262.878091678394, -55966.53294164335, -54987.99592113447, -67541.80849096876, -1359.388394282865, -34797.32987848877, 21377.297804033497, -0.242, 0.9420000000000001, 0.186, 192.0, 0.0, 0.0, 0.0, 0.0, 0.0, 0.0, 0.0, 0.0, 0.0, 1.700950150416029E9, 0.0, 2023-11-25 17:09:10.416
33.0, 10690.615855528815, 17175.750991791607, -55968.32108119978, -55006.95020043257, -67602.78404984284, -1484.9157911438695, -34823.1684950791, 21359.88579510281, -0.242, 0.9420000000000001, 0.186, 192.0, 0.0, 0.0, 0.0, 0.0, 0.0, 0.0, 0.0, 0.0, 0.0, 1.700950150419134E9, 0.0, 2023-11-25 17:09:10.419
34.0, 10716.655637819247, 17243.16385306881, -55944.42706637706, -54965.08538306777, -67600.81709633078, -1443.900340068381, -34808.95278560553, 21401.460039789683, -0.242, 0.9420000000000001, 0.186, 192.0, 0.0, 0.0, 0.0, 0.0, 0.0, 0.0, 0.0, 0.0, 0.0, 1.700950150422043E9, 0.0, 2023-11-25 17:09:10.422
35.0, 10784.85081015239, 17324.345388930487, -55898.58363849922, -54909.69776030753, -67554.25841263037, -1400.739121525183, -34783.06946552628, 21436.865203006888, -0.242, 0.9420000000000001, 0.186, 192.0, 0.0, 0.0, 0.0, 0.0, 0.0, 0.0, 0.0, 0.0, 0.0, 1.70095015042614E9, 0.0, 2023-11-25 17:09:10.426
36.0, 10788.583551476426, 17282.301757610054, -55936.626307562154, -54949.506217182425, -67508.52674347481, -1315.7801408505609, -34771.46891015398, 21421.33074061045, -0.242, 0.9420000000000001, 0.186, 192.0, 0.0, 0.0, 0.0, 0.0, 0.0, 0.0, 0.0, 0.0, 0.0, 1.700950150429088E9, 0.0, 2023-11-25 17:09:10.429
37.0, 10699.333035866384, 17171.660622556286, -55960.58737761824, -54998.90357242866, -67581.48283737694, -1457.4678489527523, -34822.632053212175, 21363.238556771106, -0.242, 0.9420000000000001, 0.186, 192.0, 0.0, 0.0, 0.0, 0.0, 0.0, 0.0, 0.0, 0.0, 0.0, 1.700950150436118E9, 0.0, 2023-11-25 17:09:10.436
38.0, 10702.439928345673, 17212.094928275936, -55946.52813035585, -54972.863790138224, -67597.17376198457, -1450.225883749233, -34826.476553258486, 21380.963490124166, -0.242, 0.9420000000000001, 0.186, 192.0, 0.0, 0.0, 0.0, 0.0, 0.0, 0.0, 0.0, 0.0, 0.0, 1.700950150440129E9, 0.0, 2023-11-25 17:09:10.440
39.0, 10781.90037988429, 17324.56890637504, -55891.185211084514, -54907.44023411754, -67561.65684004508, -1419.8722147789258, -34811.67969842908, 21407.070327647965, -0.242, 0.9420000000000001, 0.186, 192.0, 0.0, 0.0, 0.0, 0.0, 0.0, 0.0, 0.0, 0.0, 0.0, 1.700950150443139E9, 0.0, 2023-11-25 17:09:10.443
40.0, 10809.683598242236, 17312.1860399468, -55921.00243818789, -54933.368257685695, -67507.20799055195, -1330.576995679974, -34796.212291266005, 21392.362879796372, -0.24, 0.936, 0.186, 192.0, 248.0, 128.0, 29.0, 64.0, 5.0, 208.0, 0.0, 0.0, 0.0, 1.700950150446112E9, 0.0, 2023-11-25 17:09:10.446
41.0, 10714.509870351538, 17177.293262159023, -55958.91099678409, -54997.36130206124, -67572.20686342799, -1453.958625073269, -34841.04989064335, 21339.657466370758, -0.24, 0.936, 0.186, 192.0, 0.0, 0.0, 0.0, 0.0, 0.0, 0.0, 0.0, 0.0, 0.0, 1.700950150450106E9, 0.0, 2023-11-25 17:09:10.450
42.0, 10692.806326485435, 17185.786925052038, -55950.99847924692, -54981.49156349797, -67600.43711667504, -1472.9129043713695, -34840.804021454336, 21369.787617896513, -0.24, 0.936, 0.186, 192.0, 0.0, 0.0, 0.0, 0.0, 0.0, 0.0, 0.0, 0.0, 0.0, 1.700950150453113E9, 0.0, 2023-11-25 17:09:10.453
43.0, 10752.016097547543, 17285.252187878155, -55905.378568813634, -54922.84058604725, -67577.70539256399, -1447.4989709256854, -34824.33078579078, 21416.748632997114, -0.24, 0.936, 0.186, 192.0, 0.0, 0.0, 0.0, 0.0, 0.0, 0.0, 0.0, 0.0, 0.0, 1.700950150457157E9, 0.0, 2023-11-25 17:09:10.457
44.0, 10818.534889046538, 17324.81477556405, -55900.52824026683, -54910.569478341284, -67497.99907183637, -1344.2115597977115, -34788.4115324511, 21427.924505224768, -0.24, 0.936, 0.186, 192.0, 0.0, 0.0, 0.0, 0.0, 0.0, 0.0, 0.0, 0.0, 0.0, 1.700950150461148E9, 0.0, 2023-11-25 17:09:10.461
45.0, 10739.141492741286, 17206.506992162107, -55955.379421160156, -54987.0794996118, -67551.75501725137, -1437.9771277877246, -34837.0712801303, 21341.9373443052, -0.24, 0.936, 0.186, 192.0, 0.0, 0.0, 0.0, 0.0, 0.0, 0.0, 0.0, 0.0, 0.0, 1.700950150464186E9, 0.0, 2023-11-25 17:09:10.464
46.0, 10712.095881950365, 17200.20380022571, -55942.19189193152, -54975.367185517214, -67587.78602931333, -1494.214116837277, -34839.35115806475, 21357.963545079656, -0.24, 0.936, 0.186, 192.0, 0.0, 0.0, 0.0, 0.0, 0.0, 0.0, 0.0, 0.0, 0.0, 1.700950150471182E9, 0.0, 2023-11-25 17:09:10.471
47.0, 10762.052030807976, 17293.052946693057, -55907.99372291491, -54928.94261228354, -67581.41578214357, -1463.8604478669702, -34823.816695668305, 21402.644682245813, -0.24, 0.936, 0.186, 192.0, 0.0, 0.0, 0.0, 0.0, 0.0, 0.0, 0.0, 0.0, 0.0, 1.700950150475206E9, 0.0, 2023-11-25 17:09:10.475
48.0, 10813.304580843995, 17329.32982794402, -55908.44075780401, -54921.968868013486, -67527.41396753956, -1385.8081562290379, -34795.83231161026, 21411.495973050114, -0.24, 0.936, 0.186, 192.0, 0.0, 0.0, 0.0, 0.0, 0.0, 0.0, 0.0, 0.0, 0.0, 1.700950150478185E9, 0.0, 2023-11-25 17:09:10.478
49.0, 10739.633231119304, 17213.704253876716, -55971.13740100115, -55003.59743876427, -67561.07569468924, -1429.99755501718, -34835.059623129324, 21330.26973369953, -0.24, 0.936, 0.186, 192.0, 0.0, 0.0, 0.0, 0.0, 0.0, 0.0, 0.0, 0.0, 0.0, 1.700950150481216E9, 0.0, 2023-11-25 17:09:10.481
50.0, 10696.941399209667, 17179.93076800475, -55956.429953149556, -54999.06003463984, -67605.80153534432, -1511.1790908788553, -34851.5775622818, 21346.027713540523, -0.23600000000000002, 0.9500000000000001, 0.184, 192.0, 248.0, 160.0, 29.0, 176.0, 5.0, 192.0, 0.0, 0.0, 0.0, 1.700950150485391E9, 0.0, 2023-11-25 17:09:10.485
51.0, 10737.085132251399, 17268.577786514496, -55929.361990614176, -54957.93282484208, -67605.04157603283, -1473.2034770492885, -34835.149030107146, 21393.592225741413, -0.23600000000000002, 0.9500000000000001, 0.184, 192.0, 0.0, 0.0, 0.0, 0.0, 0.0, 0.0, 0.0, 0.0, 0.0, 1.700950150488875E9, 0.0, 2023-11-25 17:09:10.488
52.0, 10806.196726107208, 17339.879851326925, -55904.81977520225, -54924.80753955931, -67547.75405499389, -1406.0141332166354, -34800.12384654568, 21412.211228872686, -0.23600000000000002, 0.9500000000000001, 0.184, 192.0, 0.0, 0.0, 0.0, 0.0, 0.0, 0.0, 0.0, 0.0, 0.0, 1.70095015049227E9, 0.0, 2023-11-25 17:09:10.492
53.0, 10746.785789345002, 17232.859698874916, -55973.50668591341, -55004.89383994268, -67557.23119464293, -1393.4748045772083, -34828.37645153719, 21346.56415540745, -0.23600000000000002, 0.9500000000000001, 0.184, 192.0, 0.0, 0.0, 0.0, 0.0, 0.0, 0.0, 0.0, 0.0, 0.0, 1.700950150496336E9, 0.0, 2023-11-25 17:09:10.496
54.0, 10674.58965475436, 17157.020229938058, -55970.69036611204, -55015.19799413657, -67614.38460521515, -1497.2986575721095, -34852.94101869357, 21345.200698995675, -0.23600000000000002, 0.9500000000000001, 0.184, 192.0, 0.0, 0.0, 0.0, 0.0, 0.0, 0.0, 0.0, 0.0, 0.0, 1.700950150502301E9, 0.0, 2023-11-25 17:09:10.502
55.0, 10714.554573840449, 17243.20855655772, -55938.392095374125, -54960.838551621266, -67603.61106438769, -1441.061668522557, -34830.92455040509, 21392.74285945211, -0.23600000000000002, 0.9500000000000001, 0.184, 192.0, 0.0, 0.0, 0.0, 0.0, 0.0, 0.0, 0.0, 0.0, 0.0, 1.700950150505284E9, 0.0, 2023-11-25 17:09:10.505
56.0, 10789.924656143745, 17331.967333789747, -55903.858650190676, -54910.61418183019, -67554.57133705275, -1384.7129207507278, -34803.29779425833, 21412.412394572784, -0.23600000000000002, 0.9500000000000001, 0.184, 192.0, 0.0, 0.0, 0.0, 0.0, 0.0, 0.0, 0.0, 0.0, 0.0, 1.700950150509302E9, 0.0, 2023-11-25 17:09:10.509
57.0, 10773.60788269137, 17272.958728427737, -55961.101467740715, -54967.0746883243, -67534.25360134288, -1329.4594084572088, -34803.27544251388, 21366.65837367277, -0.23600000000000002, 0.9500000000000001, 0.184, 192.0, 0.0, 0.0, 0.0, 0.0, 0.0, 0.0, 0.0, 0.0, 0.0, 1.700950150521067E9, 0.0, 2023-11-25 17:09:10.521
58.0, 10693.767451497013, 17176.913282503283, -55972.8137818353, -54997.607171250245, -67603.54400915433, -1459.3677472314534, -34837.33950106377, 21336.729387847114, -0.23600000000000002, 0.9500000000000001, 0.184, 192.0, 0.0, 0.0, 0.0, 0.0, 0.0, 0.0, 0.0, 0.0, 0.0, 1.700950150523343E9, 0.0, 2023-11-25 17:09:10.523
59.0, 10720.164861698731, 17245.0190478586, -55942.996554731915, -54949.48386543797, -67598.87249456317, -1413.7254850537165, -34821.53681773387, 21387.199626827198, -0.23600000000000002, 0.9500000000000001, 0.184, 192.0, 0.0, 0.0, 0.0, 0.0, 0.0, 0.0, 0.0, 0.0, 0.0, 1.70095015052694E9, 0.0, 2023-11-25 17:09:10.526
60.0, 10790.841077666411, 17335.320095458042, -55894.336807052714, -54889.044748430824, -67552.53732830731, -1368.6643682318174, -34793.753599375916, 21420.637836532336, -0.23800000000000002, 0.9440000000000001, 0.18, 192.0, 248.0, 144.0, 29.0, 128.0, 5.0, 160.0, 0.0, 0.0, 0.0, 1.700950150530355E9, 0.0, 2023-11-25 17:09:10.530
61.0, 10788.091813098408, 17285.028670433603, -55946.572833844766, -54938.8667868217, -67516.81924066774, -1292.7131405726839, -34794.42415170958, 21375.50966447707, -0.23800000000000002, 0.9440000000000001, 0.18, 192.0, 0.0, 0.0, 0.0, 0.0, 0.0, 0.0, 0.0, 0.0, 0.0, 1.700950150533435E9, 0.0, 2023-11-25 17:09:10.533
62.0, 10704.78686151348, 17173.73933479063, -55965.6612236096, -54984.486697254986, -67582.10868622169, -1428.8129125610487, -34849.76707098092, 21306.331015387896, -0.23800000000000002, 0.9440000000000001, 0.18, 192.0, 0.0, 0.0, 0.0, 0.0, 0.0, 0.0, 0.0, 0.0, 0.0, 1.700950150536443E9, 0.0, 2023-11-25 17:09:10.536
63.0, 10712.587620328382, 17216.74409112264, -55947.198682689515, -54954.4236009626, -67594.06686950527, -1418.6652205783394, -34856.31613210632, 21322.737195818092, -0.23800000000000002, 0.9440000000000001, 0.18, 192.0, 0.0, 0.0, 0.0, 0.0, 0.0, 0.0, 0.0, 0.0, 0.0, 1.700950150540378E9, 0.0, 2023-11-25 17:09:10.540
64.0, 10781.967435117655, 17316.76814756014, -55898.58363849922, -54896.44317584553, -67566.01543021387, -1394.7935575000713, -34841.38516681018, 21355.1919287672, -0.23800000000000002, 0.9440000000000001, 0.18, 192.0, 0.0, 0.0, 0.0, 0.0, 0.0, 0.0, 0.0, 0.0, 0.0, 1.700950150543419E9, 0.0, 2023-11-25 17:09:10.543
65.0, 10817.462005312682, 17324.032464508113, -55923.03644693333, -54913.87753652067, -67506.22451379593, -1298.3457801754214, -34816.351213020236, 21351.258021743062, -0.23800000000000002, 0.9440000000000001, 0.18, 192.0, 0.0, 0.0, 0.0, 0.0, 0.0, 0.0, 0.0, 0.0, 0.0, 1.700950150546407E9, 0.0, 2023-11-25 17:09:10.546
66.0, 10739.923803797223, 17217.392291711843, -55962.04024100784, -54977.87058089621, -67569.18937792652, -1419.6039938454621, -34874.219879415024, 21265.9190614127, -0.23800000000000002, 0.9440000000000001, 0.18, 192.0, 0.0, 0.0, 0.0, 0.0, 0.0, 0.0, 0.0, 0.0, 0.0, 1.700950150550455E9, 0.0, 2023-11-25 17:09:10.550
67.0, 10743.589489887892, 17253.579765984985, -55929.0490661918, -54940.61022288921, -67577.48187511944, -1423.2026247027666, -34858.43954782958, 21308.11915494432, -0.23800000000000002, 0.9440000000000001, 0.18, 192.0, 0.0, 0.0, 0.0, 0.0, 0.0, 0.0, 0.0, 0.0, 0.0, 1.700950150553451E9, 0.0, 2023-11-25 17:09:10.553
68.0, 10787.912999142767, 17334.068397768548, -55892.21339132946, -54893.55980081079, -67562.48385458993, -1388.7138830082279, -34818.18405606557, 21375.911995877268, -0.23800000000000002, 0.9440000000000001, 0.18, 192.0, 0.0, 0.0, 0.0, 0.0, 0.0, 0.0, 0.0, 0.0, 0.0, 1.700950150556387E9, 0.0, 2023-11-25 17:09:10.556
69.0, 10828.95080196271, 17351.167482276855, -55911.59235377221, -54906.8590887617, -67512.14772607657, -1305.2971727010217, -34778.442654424034, 21373.90033887629, -0.23800000000000002, 0.9440000000000001, 0.18, 192.0, 0.0, 0.0, 0.0, 0.0, 0.0, 0.0, 0.0, 0.0, 0.0, 1.700950150561397E9, 0.0, 2023-11-25 17:09:10.561
70.0, 10744.841187577389, 17230.356303495922, -55974.400755691626, -54990.968703147024, -67568.4964738484, -1399.3756651134092, -34839.060585386826, 21276.424381306697, -0.23, 0.936, 0.178, 192.0, 248.0, 208.0, 29.0, 64.0, 5.0, 144.0, 0.0, 0.0, 0.0, 1.700950150565495E9, 0.0, 2023-11-25 17:09:10.565
71.0, 10715.515698852027, 17224.522498193088, -55959.11216248419, -54977.04356635136, -67601.71116610899, -1462.2958257550986, -34858.39484434066, 21270.83644519287, -0.23, 0.936, 0.178, 192.0, 0.0, 0.0, 0.0, 0.0, 0.0, 0.0, 0.0, 0.0, 0.0, 1.700950150569462E9, 0.0, 2023-11-25 17:09:10.569
72.0, 10766.678841910225, 17319.495060383684, -55923.21526088897, -54924.04758024783, -67590.62470085916, -1422.420313646831, -34841.80984995483, 21322.781899307003, -0.23, 0.936, 0.178, 192.0, 0.0, 0.0, 0.0, 0.0, 0.0, 0.0, 0.0, 0.0, 0.0, 1.70095015057249E9, 0.0, 2023-11-25 17:09:10.572
73.0, 10832.23650839764, 17371.798142409105, -55911.458243305475, -54900.377082869665, -67526.31873206123, -1333.326260247977, -34801.80022737983, 21359.952850336176, -0.23, 0.936, 0.178, 192.0, 0.0, 0.0, 0.0, 0.0, 0.0, 0.0, 0.0, 0.0, 0.0, 1.70095015057653E9, 0.0, 2023-11-25 17:09:10.576
74.0, 10763.124914541831, 17254.384428785375, -55971.83030507926, -54978.49642974096, -67549.8998224616, -1367.0773943754905, -34831.32688180529, 21294.864570482325, -0.23, 0.936, 0.178, 192.0, 0.0, 0.0, 0.0, 0.0, 0.0, 0.0, 0.0, 0.0, 0.0, 1.700950150580561E9, 0.0, 2023-11-25 17:09:10.580
75.0, 10707.022035959011, 17210.373843952875, -55966.26472070989, -54983.81614492132, -67601.64411087563, -1463.4581164667745, -34847.80011746885, 21295.289253626976, -0.23, 0.936, 0.178, 192.0, 0.0, 0.0, 0.0, 0.0, 0.0, 0.0, 0.0, 0.0, 0.0, 1.700950150584617E9, 0.0, 2023-11-25 17:09:10.584
76.0, 10746.271699222529, 17303.446507864774, -55938.816778518776, -54937.92801355458, -67598.17959048506, -1424.3425636699872, -34832.80209693934, 21346.810024596456, -0.23, 0.936, 0.178, 192.0, 0.0, 0.0, 0.0, 0.0, 0.0, 0.0, 0.0, 0.0, 0.0, 1.700950150595532E9, 0.0, 2023-11-25 17:09:10.595
77.0, 10824.927487960755, 17389.16544785088, -55908.328999081736, -54898.23131540195, -67538.52278453384, -1356.5497227370408, -34797.19576802204, 21374.90616737678, -0.23, 0.936, 0.178, 192.0, 0.0, 0.0, 0.0, 0.0, 0.0, 0.0, 0.0, 0.0, 0.0, 1.700950150598576E9, 0.0, 2023-11-25 17:09:10.598
78.0, 10793.27741781204, 17307.58158058901, -55961.70496484101, -54959.63155742068, -67529.33621756271, -1335.3155655044993, -34811.54558796234, 21311.449564868162, -0.23, 0.936, 0.178, 192.0, 0.0, 0.0, 0.0, 0.0, 0.0, 0.0, 0.0, 0.0, 0.0, 1.700950150602549E9, 0.0, 2023-11-25 17:09:10.602
79.0, 10716.610934330338, 17221.281495247065, -55959.82741830676, -54975.68010993959, -67587.8083810578, -1453.0645552950568, -34838.68060573108, 21292.472933825607, -0.23, 0.936, 0.178, 192.0, 0.0, 0.0, 0.0, 0.0, 0.0, 0.0, 0.0, 0.0, 0.0, 1.70095015060554E9, 0.0, 2023-11-25 17:09:10.605
80.0, 10731.810120559945, 17281.206522131746, -55945.83522627774, -54944.78999910236, -67597.75490734041, -1414.351333898465, -34836.221913841, 21330.336788932895, -0.23, 0.9400000000000001, 0.184, 192.0, 248.0, 208.0, 29.0, 96.0, 5.0, 192.0, 0.0, 0.0, 0.0, 1.700950150608581E9, 0.0, 2023-11-25 17:09:10.608
81.0, 10820.85947046989, 17386.5055902607, -55895.789670442304, -54884.9543791955, -67542.36728458015, -1359.902484405337, -34798.648631411634, 21367.798312639992, -0.23, 0.9400000000000001, 0.184, 192.0, 0.0, 0.0, 0.0, 0.0, 0.0, 0.0, 0.0, 0.0, 0.0, 1.700950150612892E9, 0.0, 2023-11-25 17:09:10.612
82.0, 10809.9518191757, 17332.280258212122, -55950.01500249088, -54942.84539733475, -67517.17686857902, -1303.5760883779633, -34799.3638872342, 21320.524373117016, -0.23, 0.9400000000000001, 0.184, 192.0, 0.0, 0.0, 0.0, 0.0, 0.0, 0.0, 0.0, 0.0, 0.0, 1.700950150615514E9, 0.0, 2023-11-25 17:09:10.615
83.0, 10714.196945929163, 17214.44186144374, -55971.91971205708, -54990.0299298799, -67595.63149161715, -1450.3376424715093, -34857.54547805136, 21268.26599458051, -0.23, 0.9400000000000001, 0.184, 192.0, 0.0, 0.0, 0.0, 0.0, 0.0, 0.0, 0.0, 0.0, 0.0, 1.700950150619643E9, 0.0, 2023-11-25 17:09:10.619
84.0, 10731.161919970742, 17268.75660047014, -55949.635022835144, -54953.30601373983, -67600.77239284187, -1424.253156692166, -34852.47163206001, 21307.470954355118, -0.23, 0.9400000000000001, 0.184, 192.0, 0.0, 0.0, 0.0, 0.0, 0.0, 0.0, 0.0, 0.0, 0.0, 1.700950150623622E9, 0.0, 2023-11-25 17:09:10.623
85.0, 10814.735092489134, 17378.414258767876, -55895.16382159756, -54890.2070391425, -67556.40418009808, -1384.8917347063702, -34816.73119267597, 21342.294972216485, -0.23, 0.9400000000000001, 0.184, 192.0, 0.0, 0.0, 0.0, 0.0, 0.0, 0.0, 0.0, 0.0, 0.0, 1.700950150626583E9, 0.0, 2023-11-25 17:09:10.626
86.0, 10822.222926881663, 17342.115025772455, -55939.88966225263, -54936.7657228429, -67515.56754297824, -1304.7830825785497, -34811.54558796234, 21309.572018333914, -0.23, 0.9400000000000001, 0.184, 192.0, 0.0, 0.0, 0.0, 0.0, 0.0, 0.0, 0.0, 0.0, 0.0, 1.700950150629608E9, 0.0, 2023-11-25 17:09:10.629
87.0, 10725.439873390183, 17212.60901839841, -55967.471714910476, -54994.29911307086, -67585.88613103464, -1445.1743895023335, -34871.76118752494, 21239.923982611177, -0.23, 0.9400000000000001, 0.184, 192.0, 0.0, 0.0, 0.0, 0.0, 0.0, 0.0, 0.0, 0.0, 0.0, 1.700950150632808E9, 0.0, 2023-11-25 17:09:10.632
88.0, 10733.195928716175, 17256.79841718655, -55934.56994707227, -54954.58006317378, -67585.77437231236, -1430.4892933951967, -34847.84482095776, 21281.945262187157, -0.23, 0.9400000000000001, 0.184, 192.0, 0.0, 0.0, 0.0, 0.0, 0.0, 0.0, 0.0, 0.0, 0.0, 1.700950150636631E9, 0.0, 2023-11-25 17:09:10.636
89.0, 10793.657397467781, 17352.1956625218, -55889.55353373928, -54900.89117299214, -67562.01446795637, -1400.3144383805322, -34816.686489187065, 21322.848954540368, -0.232, 0.9480000000000001, 0.19, 192.0, 248.0, 192.0, 29.0, 160.0, 5.0, 240.0, 0.0, 0.0, 0.0, 1.700950150640702E9, 0.0, 2023-11-25 17:09:10.640
90.0, 10822.155871648298, 17346.38420896342, -55919.504871309386, -54926.48392039346, -67512.0359673543, -1315.0872367724464, -34799.67681165657, 21300.474858340607, -0.232, 0.9480000000000001, 0.19, 192.0, 0.0, 0.0, 0.0, 0.0, 0.0, 0.0, 0.0, 0.0, 0.0, 1.700950150644652E9, 0.0, 2023-11-25 17:09:10.644
91.0, 10734.179405472209, 17225.461271460208, -55959.492142139934, -54993.53915375938, -67569.41289537108, -1429.4834648947078, -34859.42302458561, 21223.070767291876, -0.232, 0.9480000000000001, 0.19, 192.0, 0.0, 0.0, 0.0, 0.0, 0.0, 0.0, 0.0, 0.0, 0.0, 1.700950150649671E9, 0.0, 2023-11-25 17:09:10.649
92.0, 10721.64007683278, 17245.287268792068, -55934.033505205334, -54964.59364468976, -67585.43909614552, -1447.7448401146937, -34851.778727981895, 21262.968631144602, -0.232, 0.9480000000000001, 0.19, 192.0, 0.0, 0.0, 0.0, 0.0, 0.0, 0.0, 0.0, 0.0, 0.0, 1.700950150652659E9, 0.0, 2023-11-25 17:09:10.652
93.0, 10774.457248980672, 17347.211223508268, -55895.29793206429, -54911.284734163855, -67571.31279364978, -1410.931516996803, -34824.576654979785, 21315.07054746992, -0.232, 0.9480000000000001, 0.19, 192.0, 0.0, 0.0, 0.0, 0.0, 0.0, 0.0, 0.0, 0.0, 0.0, 1.700950150656633E9, 0.0, 2023-11-25 17:09:10.656
94.0, 10816.970266934666, 17371.753438920194, -55911.3464845832, -54918.39258890064, -67521.78132793681, -1327.3359927339545, -34796.72638138847, 21308.342672388873, -0.232, 0.9480000000000001, 0.19, 192.0, 0.0, 0.0, 0.0, 0.0, 0.0, 0.0, 0.0, 0.0, 0.0, 1.700950150660693E9, 0.0, 2023-11-25 17:09:10.660
95.0, 10729.396132158772, 17236.726550665684, -55976.837095837254, -55004.9832469205, -67574.50909310688, -1408.4057698733534, -34852.24811461545, 21214.621807887772, -0.232, 0.9480000000000001, 0.19, 192.0, 0.0, 0.0, 0.0, 0.0, 0.0, 0.0, 0.0, 0.0, 0.0, 1.700950150664739E9, 0.0, 2023-11-25 17:09:10.664
96.0, 10698.170745154708, 17212.54196316504, -55954.61946184868, -54984.59845597726, -67603.99104404343, -1461.5582181880736, -34853.96919893852, 21243.58966870185, -0.232, 0.9480000000000001, 0.19, 192.0, 0.0, 0.0, 0.0, 0.0, 0.0, 0.0, 0.0, 0.0, 0.0, 1.700950150671706E9, 0.0, 2023-11-25 17:09:10.671
97.0, 10748.46217017915, 17302.32892064201, -55918.78961548682, -54933.01062977441, -67592.36813692667, -1423.0461624915795, -34832.556227750334, 21293.0764309259, -0.232, 0.9480000000000001, 0.19, 192.0, 0.0, 0.0, 0.0, 0.0, 0.0, 0.0, 0.0, 0.0, 0.0, 1.700950150674708E9, 0.0, 2023-11-25 17:09:10.674
98.0, 10816.590287278925, 17352.486235199718, -55905.62443800264, -54911.17297544158, -67532.10783387517, -1352.392298268354, -34799.58740467875, 21287.73436400108, -0.232, 0.9480000000000001, 0.19, 192.0, 0.0, 0.0, 0.0, 0.0, 0.0, 0.0, 0.0, 0.0, 0.0, 1.700950150678762E9, 0.0, 2023-11-25 17:09:10.678
99.0, 10758.408696461762, 17243.499129235643, -55973.99842429143, -54989.51583975743, -67554.43722658601, -1376.0851473909793, -34835.059623129324, 21221.215572502086, -0.232, 0.9420000000000001, 0.19, 192.0, 248.0, 192.0, 29.0, 112.0, 5.0, 240.0, 0.0, 0.0, 0.0, 1.700950150681701E9, 0.0, 2023-11-25 17:09:10.681
100.0, 10708.519602837516, 17202.0589950155, -55965.571816631775, -54984.91138039964, -67600.28065446384, -1466.3861949904199, -34852.829259971295, 21246.182471058666, -0.232, 0.9420000000000001, 0.19, 192.0, 0.0, 0.0, 0.0, 0.0, 0.0, 0.0, 0.0, 0.0, 0.0, 1.700950150684769E9, 0.0, 2023-11-25 17:09:10.684
101.0, 10743.053048020965, 17287.46501057923, -55941.34252564222, -54939.224414732984, -67595.8550090617, -1422.1297409689118, -34840.2228760985, 21289.097820412855, -0.232, 0.9420000000000001, 0.19, 192.0, 0.0, 0.0, 0.0, 0.0, 0.0, 0.0, 0.0, 0.0, 0.0, 1.700950150688799E9, 0.0, 2023-11-25 17:09:10.688
102.0, 10821.485319314637, 17378.078982601044, -55904.21627810196, -54893.22452464396, -67535.17002286554, -1356.773240181594, -34803.83423612526, 21314.757623047546, -0.232, 0.9420000000000001, 0.19, 192.0, 0.0, 0.0, 0.0, 0.0, 0.0, 0.0, 0.0, 0.0, 0.0, 1.700950150694049E9, 0.0, 2023-11-25 17:09:10.694
103.0, 10786.638949708815, 17299.780821774104, -55966.331775943254, -54964.99597608996, -67531.52668851933, -1332.4098387253093, -34820.97802412248, 21244.237869291053, -0.232, 0.9420000000000001, 0.19, 192.0, 0.0, 0.0, 0.0, 0.0, 0.0, 0.0, 0.0, 0.0, 0.0, 1.700950150697932E9, 0.0, 2023-11-25 17:09:10.697
104.0, 10711.894716250268, 17213.63719864335, -55959.82741830676, -54981.84919140926, -67587.67427059106, -1462.966378088758, -34853.119832649216, 21208.81035432939, -0.232, 0.9420000000000001, 0.19, 192.0, 0.0, 0.0, 0.0, 0.0, 0.0, 0.0, 0.0, 0.0, 0.0, 1.700950150702886E9, 0.0, 2023-11-25 17:09:10.702
105.0, 10731.36308567084, 17278.345498841467, -55933.98880171643, -54943.00185954593, -67587.29429093532, -1425.2142817037443, -34841.8769051882, 21245.467215236094, -0.232, 0.9420000000000001, 0.19, 192.0, 0.0, 0.0, 0.0, 0.0, 0.0, 0.0, 0.0, 0.0, 0.0, 1.700950150706849E9, 0.0, 2023-11-25 17:09:10.706
106.0, 10817.484357057137, 17381.275282058155, -55883.25034180288, -54884.79791698432, -67535.79587171029, -1374.095842134457, -34807.41051523811, 21284.49336105506, -0.232, 0.9420000000000001, 0.19, 192.0, 0.0, 0.0, 0.0, 0.0, 0.0, 0.0, 0.0, 0.0, 0.0, 1.700950150710842E9, 0.0, 2023-11-25 17:09:10.710
107.0, 10803.358054561384, 17318.265714438643, -55944.49412161042, -54950.288528238365, -67515.36637727814, -1315.646030383829, -34810.91973911759, 21241.555659956415, -0.232, 0.9420000000000001, 0.19, 192.0, 0.0, 0.0, 0.0, 0.0, 0.0, 0.0, 0.0, 0.0, 0.0, 1.700950150713846E9, 0.0, 2023-11-25 17:09:10.713
108.0, 10716.677989563703, 17208.429242185266, -55959.916825284585, -54993.58385724829, -67587.22723570195, -1458.8089536200707, -34848.82829771379, 21193.52176112196, -0.232, 0.9420000000000001, 0.19, 192.0, 0.0, 0.0, 0.0, 0.0, 0.0, 0.0, 0.0, 0.0, 0.0, 1.700950150718105E9, 0.0, 2023-11-25 17:09:10.718
109.0, 10729.060855991944, 17265.04621089056, -55939.17440643006, -54961.55380744384, -67595.72089859497, -1438.2677004656437, -34837.96534990852, 21216.81227884439, -0.228, 0.9480000000000001, 0.192, 192.0, 248.0, 224.0, 29.0, 160.0, 6.0, 0.0, 0.0, 0.0, 0.0, 1.70095015072186E9, 0.0, 2023-11-25 17:09:10.721
110.0, 10799.692368470713, 17367.841883640514, -55894.35915879717, -54904.288638149344, -67563.95906972398, -1404.2706971491216, -34817.111172331715, 21250.33989552735, -0.228, 0.9480000000000001, 0.192, 192.0, 0.0, 0.0, 0.0, 0.0, 0.0, 0.0, 0.0, 0.0, 0.0, 1.700950150724929E9, 0.0, 2023-11-25 17:09:10.724
111.0, 10807.604886007892, 17335.878889069427, -55942.77303728736, -54946.13110376968, -67524.08355761571, -1325.9278328332703, -34805.37650649268, 21224.411871959197, -0.228, 0.9480000000000001, 0.192, 192.0, 0.0, 0.0, 0.0, 0.0, 0.0, 0.0, 0.0, 0.0, 0.0, 1.70095015072886E9, 0.0, 2023-11-25 17:09:10.728
112.0, 10716.856803519346, 17214.061881788002, -55970.64566262313, -54998.68005498411, -67587.56251186877, -1448.773020359638, -34843.84385870026, 21177.227339414043, -0.228, 0.9480000000000001, 0.192, 192.0, 0.0, 0.0, 0.0, 0.0, 0.0, 0.0, 0.0, 0.0, 0.0, 1.700950150733043E9, 0.0, 2023-11-25 17:09:10.733
113.0, 10711.470033105616, 17239.74403616715, -55951.40081064711, -54970.58391220378, -67602.20290448701, -1447.990709303702, -34837.83123944178, 21207.692767106626, -0.228, 0.9480000000000001, 0.192, 192.0, 0.0, 0.0, 0.0, 0.0, 0.0, 0.0, 0.0, 0.0, 0.0, 1.700950150738938E9, 0.0, 2023-11-25 17:09:10.738
114.0, 10775.664243181258, 17338.114063514957, -55902.651655990085, -54911.485899863954, -67577.97361349745, -1420.7215810682276, -34814.875997886185, 21243.612020446304, -0.228, 0.9480000000000001, 0.192, 192.0, 0.0, 0.0, 0.0, 0.0, 0.0, 0.0, 0.0, 0.0, 0.0, 1.700950150741941E9, 0.0, 2023-11-25 17:09:10.741
115.0, 10815.405644822795, 17349.66991539835, -55920.622458532154, -54922.57236511378, -67517.42273776802, -1320.8539868419155, -34784.34351496023, 21242.15915705671, -0.228, 0.9480000000000001, 0.192, 192.0, 0.0, 0.0, 0.0, 0.0, 0.0, 0.0, 0.0, 0.0, 0.0, 1.700950150745905E9, 0.0, 2023-11-25 17:09:10.745
116.0, 10709.793652271468, 17204.78590783905, -55988.63881690965, -55011.97934293501, -67593.64218636062, -1436.8148370760487, -34853.90214370515, 21153.400379824685, -0.228, 0.9480000000000001, 0.192, 192.0, 0.0, 0.0, 0.0, 0.0, 0.0, 0.0, 0.0, 0.0, 0.0, 1.70095015074891E9, 0.0, 2023-11-25 17:09:10.748
117.0, 10690.794669484458, 17210.88793407535, -55971.65149112362, -54990.052281624354, -67621.15718378511, -1474.2540090386879, -34854.10330940525, 21183.508179605982, -0.228, 0.9480000000000001, 0.192, 192.0, 0.0, 0.0, 0.0, 0.0, 0.0, 0.0, 0.0, 0.0, 0.0, 1.700950150752941E9, 0.0, 2023-11-25 17:09:10.752
118.0, 10750.496178924583, 17309.302664912066, -55923.86346147817, -54930.10490299522, -67601.62175913117, -1438.7594388436603, -34826.45420151403, 21237.062959320898, -0.228, 0.9480000000000001, 0.192, 192.0, 0.0, 0.0, 0.0, 0.0, 0.0, 0.0, 0.0, 0.0, 0.0, 1.70095015075693E9, 0.0, 2023-11-25 17:09:10.756
119.0, 10805.32500807345, 17343.925517073338, -55918.387284086624, -54916.89502202214, -67531.59374375269, -1346.357327265421, -34787.7633318619, 21243.835537890856, -0.228, 0.9400000000000001, 0.188, 192.0, 248.0, 224.0, 29.0, 96.0, 5.0, 224.0, 0.0, 0.0, 0.0, 1.70095015076097E9, 0.0, 2023-11-25 17:09:10.760
120.0, 10731.921879282223, 17225.30480924902, -55976.23359873696, -54996.93661891659, -67569.27878490434, -1413.3231536535209, -34836.28896907437, 21151.813405968358, -0.228, 0.9400000000000001, 0.188, 192.0, 0.0, 0.0, 0.0, 0.0, 0.0, 0.0, 0.0, 0.0, 0.0, 1.700950150765958E9, 0.0, 2023-11-25 17:09:10.765
121.0, 10696.82964048739, 17206.4622886732, -55958.17338921707, -54983.61497922122, -67604.81805858828, -1482.4570992537856, -34841.765146465914, 21173.986336468024, -0.228, 0.9400000000000001, 0.188, 192.0, 0.0, 0.0, 0.0, 0.0, 0.0, 0.0, 0.0, 0.0, 0.0, 1.700950150769035E9, 0.0, 2023-11-25 17:09:10.769
122.0, 10747.970431801134, 17301.926589241815, -55921.69534226601, -54928.80850181681, -67593.64218636062, -1441.1734272448334, -34825.89540790265, 21226.378825471264, -0.228, 0.9400000000000001, 0.188, 192.0, 0.0, 0.0, 0.0, 0.0, 0.0, 0.0, 0.0, 0.0, 0.0, 1.700950150774158E9, 0.0, 2023-11-25 17:09:10.774
123.0, 10810.71177848718, 17357.783598635626, -55915.1462811406, -54911.910583008605, -67544.15542413658, -1376.8227549580045, -34803.543663447344, 21232.570258685384, -0.228, 0.9400000000000001, 0.188, 192.0, 0.0, 0.0, 0.0, 0.0, 0.0, 0.0, 0.0, 0.0, 0.0, 1.70095015077701E9, 0.0, 2023-11-25 17:09:10.777
124.0, 10756.911129583255, 17255.41260903032, -55979.69811912753, -54992.68978747008, -67561.47802608943, -1394.4359295887864, -34838.077108630794, 21166.61026079777, -0.228, 0.9400000000000001, 0.188, 192.0, 0.0, 0.0, 0.0, 0.0, 0.0, 0.0, 0.0, 0.0, 0.0, 1.700950150782196E9, 0.0, 2023-11-25 17:09:10.782
125.0, 10696.49436432056, 17192.78302106655, -55963.31429044179, -54992.35451130325, -67605.66742487758, -1493.5882679925285, -34853.43275707159, 21179.328403392843, -0.228, 0.9400000000000001, 0.188, 192.0, 0.0, 0.0, 0.0, 0.0, 0.0, 0.0, 0.0, 0.0, 0.0, 1.700950150786041E9, 0.0, 2023-11-25 17:09:10.786
126.0, 10731.40778915975, 17269.382449314886, -55929.67491503655, -54943.091266523756, -67597.06200326228, -1448.348337214987, -34841.2734080879, 21226.73645338255, -0.228, 0.9400000000000001, 0.188, 192.0, 0.0, 0.0, 0.0, 0.0, 0.0, 0.0, 0.0, 0.0, 0.0, 1.700950150789039E9, 0.0, 2023-11-25 17:09:10.789
127.0, 10809.549487775505, 17354.520243945153, -55901.01997864485, -54900.71235903649, -67547.70935150496, -1391.4631475762305, -34820.46393400001, 21246.62950594777, -0.228, 0.9400000000000001, 0.188, 192.0, 0.0, 0.0, 0.0, 0.0, 0.0, 0.0, 0.0, 0.0, 0.0, 1.700950150792027E9, 0.0, 2023-11-25 17:09:10.792
128.0, 10775.619539692349, 17272.891673194372, -55975.07130802528, -54977.758822173935, -67547.32937184924, -1362.6070454844291, -34838.41238479762, 21179.41781037066, -0.228, 0.9400000000000001, 0.188, 192.0, 0.0, 0.0, 0.0, 0.0, 0.0, 0.0, 0.0, 0.0, 0.0, 1.700950150796045E9, 0.0, 2023-11-25 17:09:10.796
129.0, 10700.852954489346, 17188.223265197666, -55978.55818016031, -55001.00463640745, -67610.65186389111, -1493.029474381146, -34863.736911265485, 21156.060237414866, -0.232, 0.9380000000000001, 0.182, 192.0, 248.0, 192.0, 29.0, 80.0, 5.0, 176.0, 0.0, 0.0, 0.0, 1.7009501508001E9, 0.0, 2023-11-25 17:09:10.800
