%OpenBCI Raw EXG Data
%Number of channels = 8
%Sample Rate = 250 Hz
%Board = OpenBCI_GUI$BoardCytonSerial
Sample Index, EXG Channel 0, EXG Channel 1, EXG Channel 2, EXG Channel 3, EXG Channel 4, EXG Channel 5, EXG Channel 6, EXG Channel 7, Accel Channel 0, Accel Channel 1, Accel Channel 2, Other, Other, Other, Other, Other, Other, Other, Analog Channel 0, Analog Channel 1, Analog Channel 2, Timestamp, Other, Timestamp (Formatted)
189.0, 69752.99951469892, 82372.23564055392, -17296.47276359472, -16744.339972059726, -9578.974196788573, -5636.104123127952, -19577.35652653653, 187500.0, 0.0, 0.0, 0.0, 192.0, 0.0, 0.0, 0.0, 0.0, 0.0, 0.0, 0.0, 0.0, 0.0, 1.700944850026489E9, 0.0, 2023-11-25 15:40:50.026
190.0, 69729.19490685403, 82402.11992289066, -17782.354984564183, -16998.479306516565, -10196.329378644155, -5767.845304947532, -19620.383634612994, 187500.0, 0.0, 0.0, 0.0, 192.0, 0.0, 0.0, 0.0, 0.0, 0.0, 0.0, 0.0, 0.0, 0.0, 1.700944850026511E9, 0.0, 2023-11-25 15:40:50.026
191.0, 69745.89165996214, 82414.41338234108, -17788.9487491785, -17085.695813381175, -10482.0740797608, -5937.1597691964835, -19580.64223297146, 187500.0, 0.0, 0.0, 0.0, 192.0, 0.0, 0.0, 0.0, 0.0, 0.0, 0.0, 0.0, 0.0, 0.0, 1.700944850026524E9, 0.0, 2023-11-25 15:40:50.026
0.0, 0.0, 0.0, 0.0, 0.0, 0.0, 0.0, 0.0, 0.0, -0.082, 0.976, 0.046, 192.0, 253.0, 112.0, 30.0, 128.0, 1.0, 112.0, 0.0, 0.0, 0.0, 1.700944850106346E9, 0.0, 2023-11-25 15:40:50.106
1.0, 71297.54976004956, 82460.30151370782, -17826.0079414854, -16967.522140445966, -10242.753951877827, -5867.77995440721, -19370.40172462484, 187500.0, -0.082, 0.976, 0.046, 192.0, 0.0, 0.0, 0.0, 0.0, 0.0, 0.0, 0.0, 0.0, 0.0, 1.700944850122479E9, 0.0, 2023-11-25 15:40:50.122
2.0, 71316.14641143638, 82458.9604090405, -17599.741232364326, -16897.5388285564, -10242.55278617773, -5918.250193387294, -19307.86154363889, 187500.0, -0.082, 0.976, 0.046, 192.0, 0.0, 0.0, 0.0, 0.0, 0.0, 0.0, 0.0, 0.0, 0.0, 1.700944850126351E9, 0.0, 2023-11-25 15:40:50.126
3.0, 71339.90631579237, 82423.1529144231, -16940.07419825485, -16268.091352950498, -9228.342381518172, -5421.21445193463, -19272.322269954955, 187500.0, -0.082, 0.976, 0.046, 192.0, 0.0, 0.0, 0.0, 0.0, 0.0, 0.0, 0.0, 0.0, 0.0, 1.70094485012942E9, 0.0, 2023-11-25 15:40:50.129
4.0, 71313.9335887353, 82407.73021074894, -17258.743018954163, -16612.263514073315, -9459.839398841787, -5637.668745239824, -19329.87801192737, 187500.0, -0.082, 0.976, 0.046, 192.0, 0.0, 0.0, 0.0, 0.0, 0.0, 0.0, 0.0, 0.0, 0.0, 1.700944850132331E9, 0.0, 2023-11-25 15:40:50.132
5.0, 71289.68194600129, 82434.99933898442, -17745.765178890848, -16890.29686335288, -10090.180944225902, -5789.459441835814, -19368.92650949079, 187500.0, -0.082, 0.976, 0.046, 192.0, 0.0, 0.0, 0.0, 0.0, 0.0, 0.0, 0.0, 0.0, 0.0, 1.700944850137334E9, 0.0, 2023-11-25 15:40:50.137
6.0, 71307.831562499, 82459.89918230762, -17742.814748622746, -16991.84083841334, -10372.796401118803, -5973.593112658634, -19335.063616641, 187500.0, -0.082, 0.976, 0.046, 192.0, 0.0, 0.0, 0.0, 0.0, 0.0, 0.0, 0.0, 0.0, 0.0, 1.700944850141408E9, 0.0, 2023-11-25 15:40:50.141
7.0, 71336.4417954018, 82425.03046095735, -16973.400649237712, -16295.27107420815, -9307.422853401047, -5442.739181845091, -19264.14153148431, 187500.0, -0.082, 0.976, 0.046, 192.0, 0.0, 0.0, 0.0, 0.0, 0.0, 0.0, 0.0, 0.0, 0.0, 1.700944850145427E9, 0.0, 2023-11-25 15:40:50.145
8.0, 71319.07448996002, 82409.63010902764, -17199.19797172522, -16560.13924600354, -9383.172915360085, -5608.320904770006, -19334.191898607245, 187500.0, -0.074, 0.984, 0.042, 192.0, 253.0, 176.0, 30.0, 192.0, 1.0, 80.0, 0.0, 0.0, 0.0, 1.700944850149563E9, 0.0, 2023-11-25 15:40:50.149
9.0, 71298.19796063876, 82444.58823735574, -17661.16382612751, -16850.510758222434, -9959.892625795917, -5758.502275765214, -19364.746733277647, 187500.0, -0.074, 0.984, 0.042, 192.0, 0.0, 0.0, 0.0, 0.0, 0.0, 0.0, 0.0, 0.0, 0.0, 1.7009448501524E9, 0.0, 2023-11-25 15:40:50.152
10.0, 71304.18822815278, 82472.30440048032, -17845.990401028444, -17060.639507846776, -10457.196588182043, -6013.580383489178, -19359.78464600857, 187500.0, -0.074, 0.984, 0.042, 192.0, 0.0, 0.0, 0.0, 0.0, 0.0, 0.0, 0.0, 0.0, 0.0, 1.700944850156413E9, 0.0, 2023-11-25 15:40:50.156
11.0, 71335.95005702377, 82443.24713268843, -17047.69784780715, -16380.475924071781, -9455.950195306563, -5518.802168226501, -19265.169711729253, 187500.0, -0.074, 0.984, 0.042, 192.0, 0.0, 0.0, 0.0, 0.0, 0.0, 0.0, 0.0, 0.0, 0.0, 1.70094485016046E9, 0.0, 2023-11-25 15:40:50.160
12.0, 71330.56328661005, 82421.34242312223, -17128.857031924374, -16484.947977655887, -9308.31692317926, -5568.847724061933, -19328.805128193515, 187500.0, -0.074, 0.984, 0.042, 192.0, 0.0, 0.0, 0.0, 0.0, 0.0, 0.0, 0.0, 0.0, 0.0, 1.700944850164434E9, 0.0, 2023-11-25 15:40:50.164
13.0, 71302.75771650765, 82435.33461515125, -17561.698563301394, -16782.114420189195, -9818.473138627189, -5714.0446560436085, -19348.899346458835, 187500.0, -0.074, 0.984, 0.042, 192.0, 0.0, 0.0, 0.0, 0.0, 0.0, 0.0, 0.0, 0.0, 0.0, 1.700944850169433E9, 0.0, 2023-11-25 15:40:50.169
14.0, 71307.89861773237, 82473.55609816982, -17904.39550929016, -17078.409144688743, -10470.361765666219, -6006.293714796748, -19372.234567670177, 187500.0, -0.074, 0.984, 0.042, 192.0, 0.0, 0.0, 0.0, 0.0, 0.0, 0.0, 0.0, 0.0, 0.0, 1.700944850173436E9, 0.0, 2023-11-25 15:40:50.173
15.0, 71336.66531284635, 82442.82244954378, -17160.618860795363, -16495.40859406097, -9637.356953305836, -5609.751416415145, -19268.72363909765, 187500.0, -0.074, 0.984, 0.042, 192.0, 0.0, 0.0, 0.0, 0.0, 0.0, 0.0, 0.0, 0.0, 0.0, 1.700944850177508E9, 0.0, 2023-11-25 15:40:50.177
16.0, 71336.28533319061, 82416.91677772008, -17063.14290322577, -16413.645912843458, -9245.26265207084, -5525.395932840816, -19319.19387807773, 187500.0, -0.074, 0.984, 0.042, 192.0, 0.0, 0.0, 0.0, 0.0, 0.0, 0.0, 0.0, 0.0, 0.0, 1.70094485018046E9, 0.0, 2023-11-25 15:40:50.180
17.0, 71304.38939385288, 82424.69518479051, -17469.98935580127, -16742.97651564795, -9703.20519247117, -5696.878516301932, -19334.169546862788, 187500.0, -0.068, 0.988, 0.046, 192.0, 253.0, 224.0, 30.0, 224.0, 1.0, 112.0, 0.0, 0.0, 0.0, 1.700944850184504E9, 0.0, 2023-11-25 15:40:50.184
18.0, 71302.04246068507, 82466.29178122185, -17917.15835537414, -17055.81153104443, -10425.166538377589, -5967.222865488871, -19379.096553217954, 187500.0, -0.068, 0.988, 0.046, 192.0, 0.0, 0.0, 0.0, 0.0, 0.0, 0.0, 0.0, 0.0, 0.0, 1.70094485018844E9, 0.0, 2023-11-25 15:40:50.188
19.0, 71327.52344936412, 82446.59989435672, -17309.772051545628, -16623.70760723443, -9848.580938408488, -5705.059254772575, -19276.412639190276, 187500.0, -0.068, 0.988, 0.046, 192.0, 0.0, 0.0, 0.0, 0.0, 0.0, 0.0, 0.0, 0.0, 0.0, 1.700944850192473E9, 0.0, 2023-11-25 15:40:50.192
20.0, 71340.97919952622, 82418.3025858763, -16998.971044894584, -16317.354597729995, -9191.976093289388, -5447.120123758331, -19300.73133715765, 187500.0, -0.068, 0.988, 0.046, 192.0, 0.0, 0.0, 0.0, 0.0, 0.0, 0.0, 0.0, 0.0, 0.0, 1.700944850197485E9, 0.0, 2023-11-25 15:40:50.197
21.0, 71314.89471374688, 82420.58246381074, -17400.564837523085, -16693.44504993499, -9607.316208757902, -5668.983539221709, -19336.985866664156, 187500.0, -0.068, 0.988, 0.046, 192.0, 0.0, 0.0, 0.0, 0.0, 0.0, 0.0, 0.0, 0.0, 0.0, 1.70094485020151E9, 0.0, 2023-11-25 15:40:50.201
22.0, 71311.34078637848, 82466.85057483322, -17888.145791071154, -17004.22370484158, -10330.2386796759, -5906.157899636973, -19384.148047464856, 187500.0, -0.068, 0.988, 0.046, 192.0, 0.0, 0.0, 0.0, 0.0, 0.0, 0.0, 0.0, 0.0, 0.0, 1.700944850204495E9, 0.0, 2023-11-25 15:40:50.204
23.0, 71326.45056563026, 82449.5056211359, -17470.257576734733, -16758.488626299935, -10049.65723152843, -5811.185337446373, -19299.747860401614, 187500.0, -0.068, 0.988, 0.046, 192.0, 0.0, 0.0, 0.0, 0.0, 0.0, 0.0, 0.0, 0.0, 0.0, 1.700944850208499E9, 0.0, 2023-11-25 15:40:50.208
24.0, 71341.26977220413, 82415.70978351949, -16971.388992236734, -16269.700678551279, -9182.476601895882, -5420.253326923052, -19306.229866293656, 187500.0, -0.068, 0.988, 0.046, 192.0, 0.0, 0.0, 0.0, 0.0, 0.0, 0.0, 0.0, 0.0, 0.0, 1.70094485021254E9, 0.0, 2023-11-25 15:40:50.212
25.0, 71322.74017605069, 82419.3531178657, -17333.978990790725, -16655.871767505618, -9517.126919880739, -5656.98065244921, -19341.45621555522, 187500.0, -0.068, 0.988, 0.046, 192.0, 0.0, 0.0, 0.0, 0.0, 0.0, 0.0, 0.0, 0.0, 0.0, 1.700944850216565E9, 0.0, 2023-11-25 15:40:50.216
26.0, 71307.00454795416, 82458.62513287367, -17834.43454914505, -16964.05762005539, -10210.54508811773, -5858.012242080241, -19387.389050410875, 187500.0, -0.068, 0.988, 0.046, 192.0, 0.0, 0.0, 0.0, 0.0, 0.0, 0.0, 0.0, 0.0, 0.0, 1.700944850220542E9, 0.0, 2023-11-25 15:40:50.220
27.0, 71313.30773989054, 82449.37151066918, -17636.956886882414, -16908.692349039597, -10242.753951877827, -5919.054856187685, -19330.079177627467, 187500.0, -0.064, 0.986, 0.054, 192.0, 254.0, 0.0, 30.0, 208.0, 1.0, 176.0, 0.0, 0.0, 0.0, 1.700944850224546E9, 0.0, 2023-11-25 15:40:50.224
28.0, 71336.41944365733, 82413.83223698524, -16965.868111356274, -16268.828960517521, -9224.20730879394, -5419.694533311669, -19296.708023155694, 187500.0, -0.064, 0.986, 0.054, 192.0, 0.0, 0.0, 0.0, 0.0, 0.0, 0.0, 0.0, 0.0, 0.0, 1.700944850229601E9, 0.0, 2023-11-25 15:40:50.229
29.0, 71321.10849870545, 82406.85849271518, -17276.400897073854, -16614.47633677439, -9448.507064402946, -5643.323736587016, -19356.186015151266, 187500.0, -0.064, 0.986, 0.054, 192.0, 0.0, 0.0, 0.0, 0.0, 0.0, 0.0, 0.0, 0.0, 0.0, 1.700944850232531E9, 0.0, 2023-11-25 15:40:50.232
30.0, 71300.36607985092, 82437.34627215222, -17756.04698134029, -16895.728337255518, -10075.652310329951, -5793.1698314153955, -19387.65727134434, 187500.0, -0.064, 0.986, 0.054, 192.0, 0.0, 0.0, 0.0, 0.0, 0.0, 0.0, 0.0, 0.0, 0.0, 1.700944850237098E9, 0.0, 2023-11-25 15:40:50.237
31.0, 71319.6332835714, 82454.7582810829, -17775.269481571853, -16997.674643716175, -10382.09472681221, -5971.424993446469, -19359.762294264114, 187500.0, -0.064, 0.986, 0.054, 192.0, 0.0, 0.0, 0.0, 0.0, 0.0, 0.0, 0.0, 0.0, 0.0, 1.700944850240583E9, 0.0, 2023-11-25 15:40:50.240
32.0, 71345.82952807302, 82415.5533213083, -17004.514277519498, -16306.849277836, -9326.064208276774, -5450.092905770887, -19293.1540957873, 187500.0, -0.064, 0.986, 0.054, 192.0, 0.0, 0.0, 0.0, 0.0, 0.0, 0.0, 0.0, 0.0, 0.0, 1.700944850244659E9, 0.0, 2023-11-25 15:40:50.244
33.0, 71329.1327749649, 82395.28028908734, -17210.463250930698, -16558.172292491472, -9375.416860034093, -5609.572602459503, -19354.64374478385, 187500.0, -0.064, 0.986, 0.054, 192.0, 0.0, 0.0, 0.0, 0.0, 0.0, 0.0, 0.0, 0.0, 0.0, 1.70094485024862E9, 0.0, 2023-11-25 15:40:50.248
34.0, 71298.06385017202, 82416.2015218975, -17664.58364302917, -16840.94421159556, -9939.954869741783, -5749.673336705368, -19381.845817785957, 187500.0, -0.064, 0.986, 0.054, 192.0, 0.0, 0.0, 0.0, 0.0, 0.0, 0.0, 0.0, 0.0, 0.0, 1.700944850252682E9, 0.0, 2023-11-25 15:40:50.252
35.0, 71308.74798402167, 82451.04789150333, -17878.646299677646, -17071.681269607696, -10469.132419721178, -6016.6202207351, -19383.74571606466, 187500.0, -0.064, 0.986, 0.054, 192.0, 0.0, 0.0, 0.0, 0.0, 0.0, 0.0, 0.0, 0.0, 0.0, 1.700944850257673E9, 0.0, 2023-11-25 15:40:50.257
36.0, 71348.01999902964, 82426.43862085804, -17081.560740656943, -16409.264970930217, -9487.77907941092, -5535.09658993442, -19280.167732258768, 187500.0, -0.064, 0.986, 0.054, 192.0, 0.0, 0.0, 0.0, 0.0, 0.0, 0.0, 0.0, 0.0, 0.0, 1.700944850260716E9, 0.0, 2023-11-25 15:40:50.260
37.0, 71340.53216463712, 82401.73994323492, -17133.752063960084, -16487.719593968344, -9303.801870799289, -5564.444430404238, -19334.39306430734, 187500.0, -0.06, 0.986, 0.058, 192.0, 254.0, 32.0, 30.0, 208.0, 1.0, 208.0, 0.0, 0.0, 0.0, 1.700944850264672E9, 0.0, 2023-11-25 15:40:50.264
38.0, 71306.69162353178, 82413.51931256287, -17568.359383149076, -16777.5099608314, -9804.995036720638, -5703.762853594167, -19357.348305862943, 187500.0, -0.06, 0.986, 0.058, 192.0, 0.0, 0.0, 0.0, 0.0, 0.0, 0.0, 0.0, 0.0, 0.0, 1.700944850268803E9, 0.0, 2023-11-25 15:40:50.268
39.0, 71316.79461202558, 82465.88944982165, -17928.177765390607, -17078.789124344483, -10474.49683839045, -5997.7329966703655, -19379.83416078498, 187500.0, -0.06, 0.986, 0.058, 192.0, 0.0, 0.0, 0.0, 0.0, 0.0, 0.0, 0.0, 0.0, 0.0, 1.700944850272815E9, 0.0, 2023-11-25 15:40:50.272
40.0, 71342.32030419353, 82433.36766163917, -17184.334061662445, -16498.470783051347, -9656.400639581758, -5603.112948311919, -19267.60605187488, 187500.0, -0.06, 0.986, 0.058, 192.0, 0.0, 0.0, 0.0, 0.0, 0.0, 0.0, 0.0, 0.0, 0.0, 1.700944850277237E9, 0.0, 2023-11-25 15:40:50.277
41.0, 71342.02973151562, 82398.34247807771, -17067.836769561385, -16387.248502641738, -9235.338477532683, -5496.2716098155515, -19335.041264896547, 187500.0, -0.06, 0.986, 0.058, 192.0, 0.0, 0.0, 0.0, 0.0, 0.0, 0.0, 0.0, 0.0, 0.0, 1.700944850280727E9, 0.0, 2023-11-25 15:40:50.280
42.0, 71319.92385624933, 82408.1995973825, -17480.762896628727, -16729.58782071922, -9697.773718568531, -5682.953379506276, -19356.20836689572, 187500.0, -0.06, 0.986, 0.058, 192.0, 0.0, 0.0, 0.0, 0.0, 0.0, 0.0, 0.0, 0.0, 0.0, 1.700944850284805E9, 0.0, 2023-11-25 15:40:50.284
43.0, 71323.05310047306, 82456.92640029507, -17930.055311924854, -17047.161405940224, -10420.45032029752, -5953.99063277133, -19396.016823770624, 187500.0, -0.06, 0.986, 0.058, 192.0, 0.0, 0.0, 0.0, 0.0, 0.0, 0.0, 0.0, 0.0, 0.0, 1.700944850288819E9, 0.0, 2023-11-25 15:40:50.288
44.0, 71350.90337406438, 82441.05666173181, -17337.13058675892, -16642.550127810257, -9871.33501426399, -5720.280792746639, -19288.929616085246, 187500.0, -0.06, 0.986, 0.058, 192.0, 0.0, 0.0, 0.0, 0.0, 0.0, 0.0, 0.0, 0.0, 0.0, 1.700944850291755E9, 0.0, 2023-11-25 15:40:50.291
45.0, 71355.21726074425, 82407.32787934874, -17009.69988223313, -16315.633513406936, -9189.919732799499, -5449.489408670594, -19323.328950801962, 187500.0, -0.06, 0.986, 0.058, 192.0, 0.0, 0.0, 0.0, 0.0, 0.0, 0.0, 0.0, 0.0, 0.0, 1.700944850296806E9, 0.0, 2023-11-25 15:40:50.296
46.0, 71327.85872553095, 82411.88763521763, -17405.102241647513, -16693.82502959073, -9595.067452796395, -5671.688100300801, -19353.637916283362, 187500.0, -0.06, 0.986, 0.058, 192.0, 0.0, 0.0, 0.0, 0.0, 0.0, 0.0, 0.0, 0.0, 0.0, 1.700944850301165E9, 0.0, 2023-11-25 15:40:50.301
47.0, 71311.25137940067, 82447.94099902404, -17904.30610231234, -17006.749451965028, -10320.247449904376, -5903.967428680352, -19409.45022218826, 187500.0, -0.058, 0.984, 0.058, 192.0, 254.0, 48.0, 30.0, 192.0, 1.0, 208.0, 0.0, 0.0, 0.0, 1.700944850304805E9, 0.0, 2023-11-25 15:40:50.304
48.0, 71327.29993191957, 82438.10623146371, -17517.710330213347, -16801.180458209572, -10094.025444272214, -5846.746962874766, -19332.470814284185, 187500.0, -0.058, 0.984, 0.058, 192.0, 0.0, 0.0, 0.0, 0.0, 0.0, 0.0, 0.0, 0.0, 0.0, 1.700944850308825E9, 0.0, 2023-11-25 15:40:50.308
49.0, 71350.25517347518, 82416.33563236424, -16981.223759797067, -16276.003870487675, -9191.618465378102, -5431.093922983876, -19323.217192079686, 187500.0, -0.058, 0.984, 0.058, 192.0, 0.0, 0.0, 0.0, 0.0, 0.0, 0.0, 0.0, 0.0, 0.0, 1.700944850312807E9, 0.0, 2023-11-25 15:40:50.312
50.0, 71321.71199580574, 82415.03923118583, -17340.259830982664, -16655.670601805523, -9515.271725090948, -5669.229408410717, -19359.29290763055, 187500.0, -0.058, 0.984, 0.058, 192.0, 0.0, 0.0, 0.0, 0.0, 0.0, 0.0, 0.0, 0.0, 0.0, 1.700944850316833E9, 0.0, 2023-11-25 15:40:50.316
51.0, 71291.3806785799, 82446.957522268, -17840.357761425705, -16936.453215653088, -10189.936779729936, -5846.121114030017, -19406.388033197883, 187500.0, -0.058, 0.984, 0.058, 192.0, 0.0, 0.0, 0.0, 0.0, 0.0, 0.0, 0.0, 0.0, 0.0, 1.700944850319901E9, 0.0, 2023-11-25 15:40:50.319
52.0, 71318.64980681537, 82460.23445847446, -17670.663317521015, -16905.96543621605, -10258.824856141193, -5929.962507481874, -19344.607811523416, 187500.0, -0.058, 0.984, 0.058, 192.0, 0.0, 0.0, 0.0, 0.0, 0.0, 0.0, 0.0, 0.0, 0.0, 1.700944850324835E9, 0.0, 2023-11-25 15:40:50.324
53.0, 71337.58173436901, 82409.22777762744, -16982.74367842003, -16253.74153301019, -9228.945878618464, -5427.271774682018, -19305.961645360192, 187500.0, -0.058, 0.984, 0.058, 192.0, 0.0, 0.0, 0.0, 0.0, 0.0, 0.0, 0.0, 0.0, 0.0, 1.700944850328841E9, 0.0, 2023-11-25 15:40:50.328
54.0, 71323.0307487286, 82395.86143444317, -17285.654519278352, -16597.891342388553, -9439.454607898548, -5650.275129112617, -19365.037305955568, 187500.0, -0.058, 0.984, 0.058, 192.0, 0.0, 0.0, 0.0, 0.0, 0.0, 0.0, 0.0, 0.0, 0.0, 1.700944850332831E9, 0.0, 2023-11-25 15:40:50.332
55.0, 71305.26111188663, 82428.47262960346, -17758.103341830178, -16873.66716547813, -10050.260728628722, -5792.812203504111, -19389.93714927878, 187500.0, -0.058, 0.984, 0.058, 192.0, 0.0, 0.0, 0.0, 0.0, 0.0, 0.0, 0.0, 0.0, 0.0, 1.700944850336841E9, 0.0, 2023-11-25 15:40:50.336
56.0, 71323.41072838435, 82452.94778978203, -17802.002167940398, -17006.727100220574, -10392.778860661849, -5992.905019868019, -19356.722457018193, 187500.0, -0.058, 0.984, 0.058, 192.0, 0.0, 0.0, 0.0, 0.0, 0.0, 0.0, 0.0, 0.0, 0.0, 1.700944850341209E9, 0.0, 2023-11-25 15:40:50.341
57.0, 71345.76247283966, 82412.4017253401, -17019.244077115545, -16310.269094737661, -9338.178853771551, -5469.114240302353, -19280.9500433147, 187500.0, -0.056, 0.986, 0.052000000000000005, 192.0, 254.0, 64.0, 30.0, 208.0, 1.0, 160.0, 0.0, 0.0, 0.0, 1.700944850344874E9, 0.0, 2023-11-25 15:40:50.344
58.0, 71333.9384000228, 82397.60487051068, -17210.55265790852, -16541.922574272463, -9363.056345350307, -5615.719332184713, -19347.133558646867, 187500.0, -0.056, 0.986, 0.052000000000000005, 192.0, 0.0, 0.0, 0.0, 0.0, 0.0, 0.0, 0.0, 0.0, 0.0, 1.700944850347958E9, 0.0, 2023-11-25 15:40:50.347
59.0, 71299.33789960598, 82414.41338234108, -17669.50102680934, -16832.96463882502, -9926.38736085741, -5762.011499644697, -19383.902178275846, 187500.0, -0.056, 0.986, 0.052000000000000005, 192.0, 0.0, 0.0, 0.0, 0.0, 0.0, 0.0, 0.0, 0.0, 0.0, 1.700944850352909E9, 0.0, 2023-11-25 15:40:50.352
60.0, 71305.30581537556, 82443.64946408862, -17907.904733169646, -17079.23615923359, -10478.140172736666, -6034.4792645548905, -19389.73598357868, 187500.0, -0.056, 0.986, 0.052000000000000005, 192.0, 0.0, 0.0, 0.0, 0.0, 0.0, 0.0, 0.0, 0.0, 0.0, 1.700944850356905E9, 0.0, 2023-11-25 15:40:50.356
61.0, 71347.841185074, 82421.67769928905, -17105.588865946396, -16412.01423549822, -9502.531230751423, -5552.5085988651035, -19281.1512090148, 187500.0, -0.056, 0.986, 0.052000000000000005, 192.0, 0.0, 0.0, 0.0, 0.0, 0.0, 0.0, 0.0, 0.0, 0.0, 1.700944850360906E9, 0.0, 2023-11-25 15:40:50.360
62.0, 71351.21629848675, 82409.56305379428, -17142.91627918676, -16472.25218680527, -9295.799946284289, -5572.155782241319, -19344.45134931223, 187500.0, -0.056, 0.986, 0.052000000000000005, 192.0, 0.0, 0.0, 0.0, 0.0, 0.0, 0.0, 0.0, 0.0, 0.0, 1.700944850364854E9, 0.0, 2023-11-25 15:40:50.364
63.0, 71325.75766155215, 82425.11986793517, -17574.70727857438, -16795.74898430693, -9803.60922856441, -5742.364316268482, -19368.144198434853, 187500.0, -0.056, 0.986, 0.052000000000000005, 192.0, 0.0, 0.0, 0.0, 0.0, 0.0, 0.0, 0.0, 0.0, 0.0, 1.700944850370904E9, 0.0, 2023-11-25 15:40:50.370
64.0, 71325.04240572959, 82458.58042938476, -17946.685009799603, -17087.99804306007, -10469.914730777113, -6023.772778960798, -19398.676681360805, 187500.0, -0.056, 0.986, 0.052000000000000005, 192.0, 0.0, 0.0, 0.0, 0.0, 0.0, 0.0, 0.0, 0.0, 0.0, 1.700944850373918E9, 0.0, 2023-11-25 15:40:50.373
65.0, 71355.17255725534, 82428.65144355911, -17223.89664934834, -16536.245231180816, -9689.749442309076, -5657.807666994056, -19284.883950338837, 187500.0, -0.056, 0.986, 0.052000000000000005, 192.0, 0.0, 0.0, 0.0, 0.0, 0.0, 0.0, 0.0, 0.0, 0.0, 1.700944850376948E9, 0.0, 2023-11-25 15:40:50.376
66.0, 71351.93155430933, 82390.98875415191, -17068.57437712841, -16376.43025832537, -9218.06057906873, -5507.8945169323115, -19337.656418997816, 187500.0, -0.056, 0.986, 0.052000000000000005, 192.0, 0.0, 0.0, 0.0, 0.0, 0.0, 0.0, 0.0, 0.0, 0.0, 1.700944850379951E9, 0.0, 2023-11-25 15:40:50.379
67.0, 71332.6419988444, 82412.46878057347, -17483.98154783029, -16739.377884790647, -9681.68046256071, -5708.970810052253, -19365.663154800317, 187500.0, -0.052000000000000005, 0.988, 0.05, 192.0, 254.0, 96.0, 30.0, 224.0, 1.0, 144.0, 0.0, 0.0, 0.0, 1.700944850385024E9, 0.0, 2023-11-25 15:40:50.385
68.0, 71315.78878352509, 82449.34915892473, -17950.06012321235, -17057.711429323128, -10411.979009148958, -5975.828287104165, -19418.70384439276, 187500.0, -0.052000000000000005, 0.988, 0.05, 192.0, 0.0, 0.0, 0.0, 0.0, 0.0, 0.0, 0.0, 0.0, 0.0, 1.700944850388989E9, 0.0, 2023-11-25 15:40:50.388
69.0, 71337.80525181357, 82426.72919353595, -17378.950700634803, -16672.322651424725, -9906.159032125359, -5758.077592620563, -19314.812936164493, 187500.0, -0.052000000000000005, 0.988, 0.05, 192.0, 0.0, 0.0, 0.0, 0.0, 0.0, 0.0, 0.0, 0.0, 0.0, 1.700944850392991E9, 0.0, 2023-11-25 15:40:50.392
70.0, 71351.6409816314, 82397.26959434386, -17011.93505667866, -16303.22829523424, -9181.783697817767, -5454.3620889618505, -19335.44359629674, 187500.0, -0.052000000000000005, 0.988, 0.05, 192.0, 0.0, 0.0, 0.0, 0.0, 0.0, 0.0, 0.0, 0.0, 0.0, 1.70094485039713E9, 0.0, 2023-11-25 15:40:50.397
71.0, 71337.5370308801, 82409.76421949438, -17403.314102091088, -16683.275006207827, -9580.80703983391, -5682.50634461717, -19367.54070133456, 187500.0, -0.052000000000000005, 0.988, 0.05, 192.0, 0.0, 0.0, 0.0, 0.0, 0.0, 0.0, 0.0, 0.0, 0.0, 1.700944850401011E9, 0.0, 2023-11-25 15:40:50.401
72.0, 71330.11625172095, 82450.44439440304, -17903.59084648977, -17001.630902484765, -10308.065749176234, -5913.578678796134, -19413.719405379226, 187500.0, -0.052000000000000005, 0.988, 0.05, 192.0, 0.0, 0.0, 0.0, 0.0, 0.0, 0.0, 0.0, 0.0, 0.0, 1.700944850406037E9, 0.0, 2023-11-25 15:40:50.406
73.0, 71350.56809789754, 82441.50369662092, -17545.672362526937, -16821.05115903034, -10120.2887440072, -5871.646806197979, -19335.912982930302, 187500.0, -0.052000000000000005, 0.988, 0.05, 192.0, 0.0, 0.0, 0.0, 0.0, 0.0, 0.0, 0.0, 0.0, 0.0, 1.700944850409006E9, 0.0, 2023-11-25 15:40:50.409
74.0, 71367.17544402785, 82405.45033281451, -16990.387975023743, -16291.13600148392, -9204.53777367327, -5452.819818594435, -19325.072386869477, 187500.0, -0.052000000000000005, 0.988, 0.05, 192.0, 0.0, 0.0, 0.0, 0.0, 0.0, 0.0, 0.0, 0.0, 0.0, 1.700944850412039E9, 0.0, 2023-11-25 15:40:50.412
75.0, 71336.35238842397, 82398.65540250008, -17343.90316532888, -16670.042773490284, -9515.048207646396, -5693.861030800465, -19369.105323446434, 187500.0, -0.052000000000000005, 0.988, 0.05, 192.0, 0.0, 0.0, 0.0, 0.0, 0.0, 0.0, 0.0, 0.0, 0.0, 1.700944850418063E9, 0.0, 2023-11-25 15:40:50.418
76.0, 71316.01230096964, 82434.55230409531, -17836.602668357216, -16945.59507913531, -10179.431459835943, -5859.487457214291, -19406.343329708976, 187500.0, -0.052000000000000005, 0.988, 0.05, 192.0, 0.0, 0.0, 0.0, 0.0, 0.0, 0.0, 0.0, 0.0, 0.0, 1.700944850422146E9, 0.0, 2023-11-25 15:40:50.422
77.0, 71337.13469947991, 82443.13537396614, -17703.743899314868, -16945.617430879764, -10298.834478716193, -5966.239388732838, -19358.51059657462, 187500.0, -0.056, 0.99, 0.048, 192.0, 254.0, 64.0, 30.0, 240.0, 1.0, 128.0, 0.0, 0.0, 0.0, 1.700944850426085E9, 0.0, 2023-11-25 15:40:50.426
78.0, 71359.86642359095, 82401.09174264572, -16999.373376294778, -16295.60635037498, -9264.59691102468, -5463.995690822088, -19318.478622255163, 187500.0, -0.056, 0.99, 0.048, 192.0, 0.0, 0.0, 0.0, 0.0, 0.0, 0.0, 0.0, 0.0, 0.0, 1.700944850429114E9, 0.0, 2023-11-25 15:40:50.429
79.0, 71333.78193781161, 82375.36488477766, -17287.75558325715, -16624.422863057003, -9446.16013123514, -5673.520943346137, -19379.25301542914, 187500.0, -0.056, 0.99, 0.048, 192.0, 0.0, 0.0, 0.0, 0.0, 0.0, 0.0, 0.0, 0.0, 0.0, 1.700944850432072E9, 0.0, 2023-11-25 15:40:50.432
80.0, 71309.79851601107, 82408.37841133814, -17757.03045809632, -16904.937255971105, -10050.84187398456, -5820.885994539976, -19400.26365521713, 187500.0, -0.056, 0.99, 0.048, 192.0, 0.0, 0.0, 0.0, 0.0, 0.0, 0.0, 0.0, 0.0, 0.0, 1.700944850436107E9, 0.0, 2023-11-25 15:40:50.436
81.0, 71318.71686204874, 82430.14901043761, -17825.09151996273, -17035.203222656637, -10409.54266900333, -6016.150834101539, -19370.044096713555, 187500.0, -0.056, 0.99, 0.048, 192.0, 0.0, 0.0, 0.0, 0.0, 0.0, 0.0, 0.0, 0.0, 0.0, 1.700944850440124E9, 0.0, 2023-11-25 15:40:50.440
82.0, 71355.6866473778, 82404.69037350302, -17030.062321431913, -16332.240859537229, -9355.814380146789, -5488.604961467381, -19289.44370620772, 187500.0, -0.056, 0.99, 0.048, 192.0, 0.0, 0.0, 0.0, 0.0, 0.0, 0.0, 0.0, 0.0, 0.0, 1.700944850445155E9, 0.0, 2023-11-25 15:40:50.445
83.0, 71352.22212698724, 82397.26959434386, -17198.505067647107, -16538.703923070898, -9347.521882953868, -5616.144015329363, -19354.934317461768, 187500.0, -0.056, 0.99, 0.048, 192.0, 0.0, 0.0, 0.0, 0.0, 0.0, 0.0, 0.0, 0.0, 0.0, 1.700944850449169E9, 0.0, 2023-11-25 15:40:50.449
84.0, 71324.66242607385, 82419.50958007689, -17648.95977365491, -16816.022016527895, -9891.33982555149, -5747.3264035375605, -19384.55037886505, 187500.0, -0.056, 0.99, 0.048, 192.0, 0.0, 0.0, 0.0, 0.0, 0.0, 0.0, 0.0, 0.0, 0.0, 1.700944850452196E9, 0.0, 2023-11-25 15:40:50.452
85.0, 71334.340731423, 82449.08093799125, -17915.638436751182, -17077.850351077363, -10473.088678489767, -6029.874805197097, -19396.88854180438, 187500.0, -0.056, 0.99, 0.048, 192.0, 0.0, 0.0, 0.0, 0.0, 0.0, 0.0, 0.0, 0.0, 0.0, 1.700944850456182E9, 0.0, 2023-11-25 15:40:50.456
86.0, 71362.57098467005, 82414.14516140762, -17125.10193885588, -16431.68377061889, -9525.88880370722, -5568.780668828567, -19294.71871789917, 187500.0, -0.056, 0.99, 0.048, 192.0, 0.0, 0.0, 0.0, 0.0, 0.0, 0.0, 0.0, 0.0, 0.0, 1.70094485046018E9, 0.0, 2023-11-25 15:40:50.460
87.0, 71350.3892839419, 82385.93725990501, -17138.222412851144, -16461.791570400186, -9281.181905410518, -5565.494962393637, -19356.141311662355, 187500.0, -0.064, 0.988, 0.052000000000000005, 192.0, 254.0, 0.0, 30.0, 224.0, 1.0, 160.0, 0.0, 0.0, 0.0, 1.700944850464164E9, 0.0, 2023-11-25 15:40:50.464
88.0, 71312.21250441224, 82393.42509429755, -17570.90748201698, -16769.64214678313, -9772.942635171728, -5719.945516579809, -19384.79624805406, 187500.0, -0.064, 0.988, 0.052000000000000005, 192.0, 0.0, 0.0, 0.0, 0.0, 0.0, 0.0, 0.0, 0.0, 0.0, 1.700944850468217E9, 0.0, 2023-11-25 15:40:50.468
89.0, 71325.71295806325, 82445.43760364504, -17961.101884973275, -17091.70843263965, -10468.886550532168, -6019.90592717003, -19409.31611172153, 187500.0, -0.064, 0.988, 0.052000000000000005, 192.0, 0.0, 0.0, 0.0, 0.0, 0.0, 0.0, 0.0, 0.0, 0.0, 1.700944850473185E9, 0.0, 2023-11-25 15:40:50.473
90.0, 71367.89069985041, 82431.42305987157, -17243.119149579903, -16556.495911657323, -9716.325666466435, -5669.45292585527, -19288.370822473862, 187500.0, -0.064, 0.988, 0.052000000000000005, 192.0, 0.0, 0.0, 0.0, 0.0, 0.0, 0.0, 0.0, 0.0, 0.0, 1.700944850477254E9, 0.0, 2023-11-25 15:40:50.477
91.0, 71366.46018820527, 82401.98581242393, -17058.67255433471, -16368.987127421753, -9208.046997552752, -5502.597153496404, -19340.83036671047, 187500.0, -0.064, 0.988, 0.052000000000000005, 192.0, 0.0, 0.0, 0.0, 0.0, 0.0, 0.0, 0.0, 0.0, 0.0, 1.70094485048026E9, 0.0, 2023-11-25 15:40:50.480
92.0, 71336.33003667952, 82408.87014971617, -17470.257576734733, -16708.755994886877, -9652.086752901883, -5690.865897043454, -19373.843893270958, 187500.0, -0.064, 0.988, 0.052000000000000005, 192.0, 0.0, 0.0, 0.0, 0.0, 0.0, 0.0, 0.0, 0.0, 0.0, 1.700944850484213E9, 0.0, 2023-11-25 15:40:50.484
93.0, 71324.9306470073, 82444.36471991119, -17950.529509845914, -17033.593897055853, -10391.571866461261, -5957.768077584276, -19426.45989971875, 187500.0, -0.064, 0.988, 0.052000000000000005, 192.0, 0.0, 0.0, 0.0, 0.0, 0.0, 0.0, 0.0, 0.0, 0.0, 1.700944850488254E9, 0.0, 2023-11-25 15:40:50.488
94.0, 71354.23378398821, 82432.45124011651, -17411.696006261827, -16694.96496855795, -9937.898509251894, -5778.350624841527, -19328.469852026683, 187500.0, -0.064, 0.988, 0.052000000000000005, 192.0, 0.0, 0.0, 0.0, 0.0, 0.0, 0.0, 0.0, 0.0, 0.0, 1.700944850492223E9, 0.0, 2023-11-25 15:40:50.492
95.0, 71365.9460980828, 82398.4542368, -17015.198411369136, -16308.883286581433, -9186.142287986551, -5456.194932007186, -19345.25601211262, 187500.0, -0.064, 0.988, 0.052000000000000005, 192.0, 0.0, 0.0, 0.0, 0.0, 0.0, 0.0, 0.0, 0.0, 0.0, 1.700944850496295E9, 0.0, 2023-11-25 15:40:50.496
96.0, 71332.77610931112, 82390.54171926281, -17407.672692259872, -16683.87850330812, -9571.352251929315, -5675.689062558301, -19385.153875965345, 187500.0, -0.064, 0.988, 0.052000000000000005, 192.0, 0.0, 0.0, 0.0, 0.0, 0.0, 0.0, 0.0, 0.0, 0.0, 1.700944850502274E9, 0.0, 2023-11-25 15:40:50.502
97.0, 71319.92385624933, 82433.2559029169, -17909.20113434805, -16989.382146523258, -10287.815068699727, -5891.159879107461, -19424.761167140146, 187500.0, -0.058, 0.986, 0.054, 192.0, 254.0, 48.0, 30.0, 208.0, 1.0, 176.0, 0.0, 0.0, 0.0, 1.70094485050633E9, 0.0, 2023-11-25 15:40:50.506
98.0, 71340.84508905948, 82430.5066383489, -17586.151371735497, -16839.04431331686, -10147.513168753763, -5874.977216121819, -19345.948916190733, 187500.0, -0.058, 0.986, 0.054, 192.0, 0.0, 0.0, 0.0, 0.0, 0.0, 0.0, 0.0, 0.0, 0.0, 1.700944850509327E9, 0.0, 2023-11-25 15:40:50.509
99.0, 71354.36789445495, 82392.46396928596, -17002.994358896536, -16273.321661153039, -9202.749634116844, -5427.987030504588, -19327.19580259273, 187500.0, -0.058, 0.986, 0.054, 192.0, 0.0, 0.0, 0.0, 0.0, 0.0, 0.0, 0.0, 0.0, 0.0, 1.700944850512294E9, 0.0, 2023-11-25 15:40:50.512
100.0, 71331.47970813271, 82391.86047218567, -17355.838996868017, -16644.91941272252, -9499.513745249957, -5661.07102168453, -19380.83998928547, 187500.0, -0.058, 0.986, 0.054, 192.0, 0.0, 0.0, 0.0, 0.0, 0.0, 0.0, 0.0, 0.0, 0.0, 1.700944850516296E9, 0.0, 2023-11-25 15:40:50.516
101.0, 71315.67702480282, 82435.04404247332, -17848.449092918527, -16943.31520120087, -10168.68027075294, -5842.6565936394445, -19418.793251370582, 187500.0, -0.058, 0.986, 0.054, 192.0, 0.0, 0.0, 0.0, 0.0, 0.0, 0.0, 0.0, 0.0, 0.0, 1.700944850520341E9, 0.0, 2023-11-25 15:40:50.520
102.0, 71330.89856277687, 82437.14510645212, -17736.89153634209, -16956.167454262668, -10313.988961456891, -5959.489161907335, -19371.429904869783, 187500.0, -0.058, 0.986, 0.054, 192.0, 0.0, 0.0, 0.0, 0.0, 0.0, 0.0, 0.0, 0.0, 0.0, 1.700944850524414E9, 0.0, 2023-11-25 15:40:50.524
103.0, 71366.41548471636, 82406.27734735934, -17008.917571177193, -16289.817248561056, -9265.178056380517, -5446.963661547144, -19317.986883877147, 187500.0, -0.058, 0.986, 0.054, 192.0, 0.0, 0.0, 0.0, 0.0, 0.0, 0.0, 0.0, 0.0, 0.0, 1.700944850528858E9, 0.0, 2023-11-25 15:40:50.528
104.0, 71359.30762997956, 82407.84196947122, -17276.33384184049, -16606.60852272612, -9419.919183244609, -5651.21390237974, -19375.028535727088, 187500.0, -0.058, 0.986, 0.054, 192.0, 0.0, 0.0, 0.0, 0.0, 0.0, 0.0, 0.0, 0.0, 0.0, 1.700944850533328E9, 0.0, 2023-11-25 15:40:50.533
105.0, 71323.92481850681, 82430.19371392652, -17743.664114912048, -16878.71865972503, -10013.335646788555, -5790.286456380661, -19406.56684715353, 187500.0, -0.058, 0.986, 0.054, 192.0, 0.0, 0.0, 0.0, 0.0, 0.0, 0.0, 0.0, 0.0, 0.0, 1.700944850536413E9, 0.0, 2023-11-25 15:40:50.536
106.0, 71330.63034184341, 82448.29862693533, -17843.82228181628, -17034.331504622878, -10410.883773670646, -6005.064368851706, -19382.06933523051, 187500.0, -0.058, 0.986, 0.054, 192.0, 0.0, 0.0, 0.0, 0.0, 0.0, 0.0, 0.0, 0.0, 0.0, 1.700944850539343E9, 0.0, 2023-11-25 15:40:50.539
107.0, 71361.02871430264, 82416.26857713088, -17045.485025106078, -16322.56255418808, -9361.268205793882, -5474.769231649546, -19300.48546796864, 187500.0, -0.06, 0.984, 0.052000000000000005, 192.0, 254.0, 32.0, 30.0, 192.0, 1.0, 160.0, 0.0, 0.0, 0.0, 1.700944850544392E9, 0.0, 2023-11-25 15:40:50.544
108.0, 71350.47869091973, 82401.13644613462, -17208.161021251803, -16519.436719350426, -9337.575356671257, -5599.603724432436, -19369.21708216871, 187500.0, -0.06, 0.984, 0.052000000000000005, 192.0, 0.0, 0.0, 0.0, 0.0, 0.0, 0.0, 0.0, 0.0, 0.0, 1.700944850548429E9, 0.0, 2023-11-25 15:40:50.548
109.0, 71326.51762086364, 82416.49209457543, -17659.576852271184, -16812.691606604054, -9881.303892291056, -5747.013479115186, -19391.188846968278, 187500.0, -0.06, 0.984, 0.052000000000000005, 192.0, 0.0, 0.0, 0.0, 0.0, 0.0, 0.0, 0.0, 0.0, 0.0, 1.700944850552404E9, 0.0, 2023-11-25 15:40:50.552
110.0, 71332.35142616647, 82451.83020255926, -17937.677256784114, -17076.643356876775, -10473.133381978678, -6027.505520284834, -19399.682509861294, 187500.0, -0.06, 0.984, 0.052000000000000005, 192.0, 0.0, 0.0, 0.0, 0.0, 0.0, 0.0, 0.0, 0.0, 0.0, 1.700944850556416E9, 0.0, 2023-11-25 15:40:50.556
111.0, 71355.93251656683, 82421.92356847806, -17140.792863463506, -16424.35239843755, -9534.293059622414, -5561.985738514154, -19287.074421295456, 187500.0, -0.06, 0.984, 0.052000000000000005, 192.0, 0.0, 0.0, 0.0, 0.0, 0.0, 0.0, 0.0, 0.0, 0.0, 1.700944850560512E9, 0.0, 2023-11-25 15:40:50.560
112.0, 71348.39997868538, 82397.11313213267, -17133.215622093157, -16432.711950863835, -9260.350079578171, -5543.500845849615, -19353.839081983457, 187500.0, -0.06, 0.984, 0.052000000000000005, 192.0, 0.0, 0.0, 0.0, 0.0, 0.0, 0.0, 0.0, 0.0, 0.0, 1.700944850564433E9, 0.0, 2023-11-25 15:40:50.564
113.0, 71320.7285190497, 82410.99356543942, -17561.251528412286, -16754.130036131148, -9751.552015727999, -5708.769644352155, -19380.817637541015, 187500.0, -0.06, 0.984, 0.052000000000000005, 192.0, 0.0, 0.0, 0.0, 0.0, 0.0, 0.0, 0.0, 0.0, 0.0, 1.700944850567552E9, 0.0, 2023-11-25 15:40:50.567
114.0, 71318.44864111528, 82445.37054841168, -17970.579024622326, -17066.294499193966, -10454.246157913944, -5999.074101337684, -19421.006074071654, 187500.0, -0.06, 0.984, 0.052000000000000005, 192.0, 0.0, 0.0, 0.0, 0.0, 0.0, 0.0, 0.0, 0.0, 0.0, 1.700944850572466E9, 0.0, 2023-11-25 15:40:50.572
115.0, 71351.12689150893, 82421.34242312223, -17284.402821588854, -16551.712638343888, -9743.438332490723, -5665.764888020145, -19311.326064029465, 187500.0, -0.06, 0.984, 0.052000000000000005, 192.0, 0.0, 0.0, 0.0, 0.0, 0.0, 0.0, 0.0, 0.0, 0.0, 1.700944850576503E9, 0.0, 2023-11-25 15:40:50.576
116.0, 71357.31832472305, 82399.32595483375, -17078.677365622207, -16355.911356915398, -9220.407512236538, -5496.562182493471, -19362.332744876476, 187500.0, -0.06, 0.984, 0.052000000000000005, 192.0, 0.0, 0.0, 0.0, 0.0, 0.0, 0.0, 0.0, 0.0, 0.0, 1.700944850580492E9, 0.0, 2023-11-25 15:40:50.580
117.0, 71334.586600612, 82407.03730667083, -17489.815353133126, -16731.532422486835, -9672.024508956018, -5718.738522379223, -19386.249111443653, 187500.0, -0.056, 0.976, 0.05, 192.0, 254.0, 64.0, 30.0, 128.0, 1.0, 144.0, 0.0, 0.0, 0.0, 1.700944850584538E9, 0.0, 2023-11-25 15:40:50.584
118.0, 71320.37089113843, 82439.17911519756, -17962.80061755188, -17047.384923384776, -10396.399843263609, -5971.357938213103, -19422.973027583725, 187500.0, -0.056, 0.976, 0.05, 192.0, 0.0, 0.0, 0.0, 0.0, 0.0, 0.0, 0.0, 0.0, 0.0, 1.700944850588507E9, 0.0, 2023-11-25 15:40:50.588
119.0, 71343.57200188303, 82418.1014201762, -17447.771721812693, -16713.338102500213, -9968.900378811406, -5795.203840160828, -19330.12388111638, 187500.0, -0.056, 0.976, 0.05, 192.0, 0.0, 0.0, 0.0, 0.0, 0.0, 0.0, 0.0, 0.0, 0.0, 1.70094485059255E9, 0.0, 2023-11-25 15:40:50.592
120.0, 71361.095769536, 82385.13259710463, -17033.906821478227, -16295.293425952606, -9190.858506066621, -5457.379574463317, -19353.235584883165, 187500.0, -0.056, 0.976, 0.05, 192.0, 0.0, 0.0, 0.0, 0.0, 0.0, 0.0, 0.0, 0.0, 0.0, 1.700944850595556E9, 0.0, 2023-11-25 15:40:50.595
121.0, 71330.20565869876, 82381.06457961375, -17427.498689591728, -16694.093250524194, -9582.483420668057, -5704.992199539209, -19392.55230338005, 187500.0, -0.056, 0.976, 0.05, 192.0, 0.0, 0.0, 0.0, 0.0, 0.0, 0.0, 0.0, 0.0, 0.0, 1.700944850600577E9, 0.0, 2023-11-25 15:40:50.600
122.0, 71302.53419906308, 82415.86624573068, -17921.204021120553, -17000.60272223982, -10286.697481476962, -5915.702094519388, -19430.729082909715, 187500.0, -0.056, 0.976, 0.05, 192.0, 0.0, 0.0, 0.0, 0.0, 0.0, 0.0, 0.0, 0.0, 0.0, 1.70094485060454E9, 0.0, 2023-11-25 15:40:50.604
123.0, 71330.85385928796, 82422.97410046746, -17609.91127609149, -16868.123932853214, -10174.49172431132, -5916.21618464186, -19345.054846412524, 187500.0, -0.056, 0.976, 0.05, 192.0, 0.0, 0.0, 0.0, 0.0, 0.0, 0.0, 0.0, 0.0, 0.0, 1.700944850608557E9, 0.0, 2023-11-25 15:40:50.608
124.0, 71365.2978974936, 82396.50963503237, -16999.775707694975, -16294.064080007563, -9213.031436566287, -5467.661376912758, -19322.568991490483, 187500.0, -0.056, 0.976, 0.05, 192.0, 0.0, 0.0, 0.0, 0.0, 0.0, 0.0, 0.0, 0.0, 0.0, 1.700944850612546E9, 0.0, 2023-11-25 15:40:50.612
125.0, 71344.46607166124, 82389.22296633995, -17337.979953048223, -16654.30714539375, -9488.360224766759, -5696.878516301932, -19377.889559017367, 187500.0, -0.056, 0.976, 0.05, 192.0, 0.0, 0.0, 0.0, 0.0, 0.0, 0.0, 0.0, 0.0, 0.0, 1.700944850616588E9, 0.0, 2023-11-25 15:40:50.616
126.0, 71325.89177201889, 82423.13056267865, -17830.992380498934, -16928.183070204625, -10138.058380849168, -5852.625471666512, -19418.12269903692, 187500.0, -0.056, 0.976, 0.05, 192.0, 0.0, 0.0, 0.0, 0.0, 0.0, 0.0, 0.0, 0.0, 0.0, 1.700944850619657E9, 0.0, 2023-11-25 15:40:50.619
127.0, 71343.95198153878, 82438.17328669707, -17753.56593770575, -16965.242262511525, -10321.745016782883, -5985.037205819751, -19366.534872834072, 187500.0, -0.056, 0.978, 0.046, 192.0, 254.0, 64.0, 30.0, 144.0, 1.0, 112.0, 0.0, 0.0, 0.0, 1.700944850623658E9, 0.0, 2023-11-25 15:40:50.623
128.0, 71365.67787714934, 82399.32595483375, -17013.879658446273, -16281.927082768332, -9266.295643603284, -5460.8887983428, -19310.052014595512, 187500.0, -0.056, 0.978, 0.046, 192.0, 0.0, 0.0, 0.0, 0.0, 0.0, 0.0, 0.0, 0.0, 0.0, 1.700944850628212E9, 0.0, 2023-11-25 15:40:50.628
129.0, 71354.54670841059, 82394.43092279804, -17275.26095810663, -16582.490990458846, -9405.94934296004, -5653.449076825271, -19372.323974647996, 187500.0, -0.056, 0.978, 0.046, 192.0, 0.0, 0.0, 0.0, 0.0, 0.0, 0.0, 0.0, 0.0, 0.0, 1.700944850632643E9, 0.0, 2023-11-25 15:40:50.632
130.0, 71330.40682439886, 82427.86913250317, -17741.83127186671, -16858.691496693074, -9996.616541935986, -5789.705311024823, -19396.75443133765, 187500.0, -0.056, 0.978, 0.046, 192.0, 0.0, 0.0, 0.0, 0.0, 0.0, 0.0, 0.0, 0.0, 0.0, 1.700944850636648E9, 0.0, 2023-11-25 15:40:50.636
131.0, 71335.32420817902, 82446.711653079, -17868.63271816167, -17035.247926145545, -10426.574698278273, -6016.441406779458, -19380.728230563192, 187500.0, -0.056, 0.978, 0.046, 192.0, 0.0, 0.0, 0.0, 0.0, 0.0, 0.0, 0.0, 0.0, 0.0, 1.700944850640644E9, 0.0, 2023-11-25 15:40:50.640
132.0, 71368.51654869516, 82412.51348406238, -17059.208996201636, -16339.549879974114, -9387.196229362038, -5499.400854039294, -19288.124953284856, 187500.0, -0.056, 0.978, 0.046, 192.0, 0.0, 0.0, 0.0, 0.0, 0.0, 0.0, 0.0, 0.0, 0.0, 1.700944850644722E9, 0.0, 2023-11-25 15:40:50.644
133.0, 71356.11133052246, 82390.96640240746, -17194.794678067527, -16499.431908062925, -9318.531670395336, -5590.1936400167515, -19361.103398931435, 187500.0, -0.056, 0.978, 0.046, 192.0, 0.0, 0.0, 0.0, 0.0, 0.0, 0.0, 0.0, 0.0, 0.0, 1.700944850647992E9, 0.0, 2023-11-25 15:40:50.647
134.0, 71328.35046390897, 82412.15585615109, -17638.566212483194, -16794.117306961693, -9854.459447200234, -5733.647135930913, -19389.69128008977, 187500.0, -0.056, 0.978, 0.046, 192.0, 0.0, 0.0, 0.0, 0.0, 0.0, 0.0, 0.0, 0.0, 0.0, 1.700944850651791E9, 0.0, 2023-11-25 15:40:50.651
135.0, 71335.70418783477, 82444.99056875594, -17940.538280074394, -17071.74832484106, -10472.26166394492, -6023.839834194164, -19407.907951820845, 187500.0, -0.056, 0.978, 0.046, 192.0, 0.0, 0.0, 0.0, 0.0, 0.0, 0.0, 0.0, 0.0, 0.0, 1.700944850655777E9, 0.0, 2023-11-25 15:40:50.655
136.0, 71364.47088294875, 82408.33370784923, -17156.05910492648, -16436.221174743318, -9563.596196603323, -5574.748584598135, -19298.8537906234, 187500.0, -0.056, 0.978, 0.046, 192.0, 0.0, 0.0, 0.0, 0.0, 0.0, 0.0, 0.0, 0.0, 0.0, 1.700944850660037E9, 0.0, 2023-11-25 15:40:50.660
137.0, 71363.82268235955, 82385.35611454918, -17118.284656797012, -16411.29897967565, -9255.522102775825, -5529.866281731878, -19365.864320500412, 187500.0, -0.058, 0.986, 0.046, 192.0, 254.0, 48.0, 30.0, 208.0, 1.0, 112.0, 0.0, 0.0, 0.0, 1.700944850664755E9, 0.0, 2023-11-25 15:40:50.664
138.0, 71337.89465879138, 82400.46589380097, -17539.99501943529, -16733.946410888006, -9738.16332079927, -5696.900868046388, -19389.154838222843, 187500.0, -0.058, 0.986, 0.046, 192.0, 0.0, 0.0, 0.0, 0.0, 0.0, 0.0, 0.0, 0.0, 0.0, 1.700944850668774E9, 0.0, 2023-11-25 15:40:50.668
139.0, 71328.0822429755, 82433.72528955046, -17957.41384713815, -17062.33824042538, -10452.055686957323, -5992.502688467824, -19424.314132251042, 187500.0, -0.058, 0.986, 0.046, 192.0, 0.0, 0.0, 0.0, 0.0, 0.0, 0.0, 0.0, 0.0, 0.0, 1.700944850671761E9, 0.0, 2023-11-25 15:40:50.671
140.0, 71360.84990034699, 82417.2520538869, -17278.99369943067, -16580.121705546582, -9776.049527651016, -5688.943647020298, -19305.69342442673, 187500.0, -0.058, 0.986, 0.046, 192.0, 0.0, 0.0, 0.0, 0.0, 0.0, 0.0, 0.0, 0.0, 0.0, 1.70094485067576E9, 0.0, 2023-11-25 15:40:50.675
141.0, 71369.47767370673, 82393.71566697546, -17038.08659769137, -16349.652868467912, -9209.790433620266, -5493.812917925467, -19340.78566322156, 187500.0, -0.058, 0.986, 0.046, 192.0, 0.0, 0.0, 0.0, 0.0, 0.0, 0.0, 0.0, 0.0, 0.0, 1.700944850679758E9, 0.0, 2023-11-25 15:40:50.679
142.0, 71338.69932159178, 82399.97415542295, -17437.668733318893, -16699.412965704556, -9635.702924216142, -5689.994179009697, -19362.556262321028, 187500.0, -0.058, 0.986, 0.046, 192.0, 0.0, 0.0, 0.0, 0.0, 0.0, 0.0, 0.0, 0.0, 0.0, 1.70094485068389E9, 0.0, 2023-11-25 15:40:50.683
143.0, 71331.16678371035, 82441.70486232101, -17920.600524020258, -17005.60951299781, -10366.984947560424, -5933.292917405715, -19409.293759977074, 187500.0, -0.058, 0.986, 0.046, 192.0, 0.0, 0.0, 0.0, 0.0, 0.0, 0.0, 0.0, 0.0, 0.0, 1.700944850687778E9, 0.0, 2023-11-25 15:40:50.687
144.0, 71366.86251960546, 82438.62032158618, -17431.92433499388, -16711.30409375478, -9994.895457612927, -5792.588686059557, -19305.134630815344, 187500.0, -0.058, 0.986, 0.046, 192.0, 0.0, 0.0, 0.0, 0.0, 0.0, 0.0, 0.0, 0.0, 0.0, 1.700944850693157E9, 0.0, 2023-11-25 15:40:50.693
145.0, 71381.21233954577, 82406.52321654836, -16978.25097778451, -16284.162257213862, -9192.154907245029, -5442.761533589546, -19302.63123543635, 187500.0, -0.058, 0.986, 0.046, 192.0, 0.0, 0.0, 0.0, 0.0, 0.0, 0.0, 0.0, 0.0, 0.0, 1.700944850696934E9, 0.0, 2023-11-25 15:40:50.696
146.0, 71350.05400777508, 82402.41049556858, -17355.19079627881, -16678.983471272408, -9566.345461171326, -5685.926161518832, -19337.29879108653, 187500.0, -0.058, 0.986, 0.046, 192.0, 0.0, 0.0, 0.0, 0.0, 0.0, 0.0, 0.0, 0.0, 0.0, 1.700944850699802E9, 0.0, 2023-11-25 15:40:50.699
147.0, 71329.11042322045, 82436.38514714065, -17849.8125493303, -16967.075105556858, -10266.536207978274, -5877.748832434277, -19379.945919507256, 187500.0, -0.062, 0.984, 0.042, 192.0, 254.0, 16.0, 30.0, 192.0, 1.0, 80.0, 0.0, 0.0, 0.0, 1.700944850703891E9, 0.0, 2023-11-25 15:40:50.703
148.0, 71347.97529554073, 82437.16745819658, -17576.540121619717, -16860.2784705494, -10208.511079372296, -5897.3066088326705, -19309.62733145086, 187500.0, -0.062, 0.984, 0.042, 192.0, 0.0, 0.0, 0.0, 0.0, 0.0, 0.0, 0.0, 0.0, 0.0, 1.700944850707873E9, 0.0, 2023-11-25 15:40:50.707
149.0, 71379.73712441172, 82411.90998696208, -16936.453215653088, -16255.328506866517, -9218.954648846942, -5420.655658323248, -19269.260080964577, 187500.0, -0.062, 0.984, 0.042, 192.0, 0.0, 0.0, 0.0, 0.0, 0.0, 0.0, 0.0, 0.0, 0.0, 1.700944850712372E9, 0.0, 2023-11-25 15:40:50.712
150.0, 71356.78188285613, 82402.7010682465, -17261.13465561088, -16612.911714662518, -9480.470058974035, -5646.2518151106615, -19317.003407121112, 187500.0, -0.062, 0.984, 0.042, 192.0, 0.0, 0.0, 0.0, 0.0, 0.0, 0.0, 0.0, 0.0, 0.0, 1.700944850716172E9, 0.0, 2023-11-25 15:40:50.716
151.0, 71330.67504533232, 82438.57561809727, -17743.75352188987, -16892.420279076134, -10127.2401365328, -5803.898668753943, -19355.135483161866, 187500.0, -0.062, 0.984, 0.042, 192.0, 0.0, 0.0, 0.0, 0.0, 0.0, 0.0, 0.0, 0.0, 0.0, 1.700944850719982E9, 0.0, 2023-11-25 15:40:50.719
152.0, 71345.60601062847, 82455.54059213884, -17692.612730576126, -16957.530910674443, -10354.870302065649, -5958.6397956180335, -19316.422261765274, 187500.0, -0.062, 0.984, 0.042, 192.0, 0.0, 0.0, 0.0, 0.0, 0.0, 0.0, 0.0, 0.0, 0.0, 1.700944850725048E9, 0.0, 2023-11-25 15:40:50.725
153.0, 71372.74102839721, 82416.53679806434, -16942.26466921147, -16275.735649554212, -9296.93988525151, -5437.754742831557, -19259.090037237413, 187500.0, -0.062, 0.984, 0.042, 192.0, 0.0, 0.0, 0.0, 0.0, 0.0, 0.0, 0.0, 0.0, 0.0, 1.700944850727908E9, 0.0, 2023-11-25 15:40:50.727
154.0, 71357.16186251186, 82397.67192574406, -17189.989053009638, -16568.297632729726, -9413.683046541577, -5628.862157924433, -19322.92661940177, 187500.0, -0.062, 0.984, 0.042, 192.0, 0.0, 0.0, 0.0, 0.0, 0.0, 0.0, 0.0, 0.0, 0.0, 1.700944850731923E9, 0.0, 2023-11-25 15:40:50.731
155.0, 71324.8859435184, 82412.73700150693, -17655.665296991505, -16848.834377388284, -9999.209344292802, -5767.66649099189, -19352.87795697188, 187500.0, -0.062, 0.984, 0.042, 192.0, 0.0, 0.0, 0.0, 0.0, 0.0, 0.0, 0.0, 0.0, 0.0, 1.700944850735941E9, 0.0, 2023-11-25 15:40:50.735
156.0, 71335.72653957922, 82437.54743785232, -17809.691168033027, -17051.385885642278, -10468.97595750999, -6017.804863191231, -19346.664172013305, 187500.0, -0.062, 0.984, 0.042, 192.0, 0.0, 0.0, 0.0, 0.0, 0.0, 0.0, 0.0, 0.0, 0.0, 1.700944850740065E9, 0.0, 2023-11-25 15:40:50.740
157.0, 71373.61274643097, 82412.98287069594, -17002.390861796244, -16362.281604085161, -9443.544977133868, -5513.147176879308, -19249.1435109548, 187500.0, -0.07200000000000001, 0.98, 0.048, 192.0, 253.0, 192.0, 30.0, 160.0, 1.0, 128.0, 0.0, 0.0, 0.0, 1.700944850744058E9, 0.0, 2023-11-25 15:40:50.744
158.0, 71369.34356324, 82396.33082107673, -17115.937723629206, -16509.087861667616, -9347.879510865154, -5596.697997653246, -19315.30467454251, 187500.0, -0.07200000000000001, 0.98, 0.048, 192.0, 0.0, 0.0, 0.0, 0.0, 0.0, 0.0, 0.0, 0.0, 0.0, 1.70094485074801E9, 0.0, 2023-11-25 15:40:50.748
159.0, 71334.96658026775, 82407.01495492637, -17556.22238590984, -16799.2135046975, -9872.85493288695, -5738.720981922267, -19345.412474323806, 187500.0, -0.07200000000000001, 0.98, 0.048, 192.0, 0.0, 0.0, 0.0, 0.0, 0.0, 0.0, 0.0, 0.0, 0.0, 1.700944850753019E9, 0.0, 2023-11-25 15:40:50.753
160.0, 71333.06668198905, 82439.24617043092, -17880.099163067243, -17080.353746456356, -10506.169260283621, -6028.3772383185915, -19369.239433913164, 187500.0, -0.07200000000000001, 0.98, 0.048, 192.0, 0.0, 0.0, 0.0, 0.0, 0.0, 0.0, 0.0, 0.0, 0.0, 1.700944850756039E9, 0.0, 2023-11-25 15:40:50.756
161.0, 71367.98010682822, 82413.09462941822, -17122.084453354415, -16491.56409401466, -9641.648488241255, -5623.050704366053, -19266.354354185387, 187500.0, -0.07200000000000001, 0.98, 0.048, 192.0, 0.0, 0.0, 0.0, 0.0, 0.0, 0.0, 0.0, 0.0, 0.0, 1.700944850760032E9, 0.0, 2023-11-25 15:40:50.760
162.0, 71365.56611842706, 82384.68556221553, -17060.639507846776, -16445.430093458905, -9296.917533507054, -5567.439564161249, -19325.40766303631, 187500.0, -0.07200000000000001, 0.98, 0.048, 192.0, 0.0, 0.0, 0.0, 0.0, 0.0, 0.0, 0.0, 0.0, 0.0, 1.700944850764131E9, 0.0, 2023-11-25 15:40:50.764
163.0, 71330.5856383545, 82399.88474844513, -17485.70263215335, -16775.23008289696, -9775.580141017454, -5744.42067675837, -19350.329858103974, 187500.0, -0.07200000000000001, 0.98, 0.048, 192.0, 0.0, 0.0, 0.0, 0.0, 0.0, 0.0, 0.0, 0.0, 0.0, 1.70094485076808E9, 0.0, 2023-11-25 15:40:50.768
164.0, 71323.05310047306, 82440.45316463152, -17905.02135813491, -17085.271130236524, -10480.330643693285, -6020.129444614583, -19377.64368982836, 187500.0, -0.07200000000000001, 0.98, 0.048, 192.0, 0.0, 0.0, 0.0, 0.0, 0.0, 0.0, 0.0, 0.0, 0.0, 1.70094485077218E9, 0.0, 2023-11-25 15:40:50.772
165.0, 71350.76926359764, 82418.32493762075, -17255.814940430515, -16606.76498493731, -9828.486720143166, -5718.850281101499, -19272.00934553258, 187500.0, -0.07200000000000001, 0.98, 0.048, 192.0, 0.0, 0.0, 0.0, 0.0, 0.0, 0.0, 0.0, 0.0, 0.0, 1.700944850776209E9, 0.0, 2023-11-25 15:40:50.776
166.0, 71358.03358054561, 82387.65834422808, -17008.22466709908, -16358.750028461222, -9235.651401955058, -5508.833290199434, -19321.317293800985, 187500.0, -0.07200000000000001, 0.98, 0.048, 192.0, 0.0, 0.0, 0.0, 0.0, 0.0, 0.0, 0.0, 0.0, 0.0, 1.700944850781099E9, 0.0, 2023-11-25 15:40:50.781
167.0, 71331.68087383281, 82395.5485100208, -17413.21592488479, -16733.141748087615, -9666.615386797832, -5729.824987629055, -19352.475625571686, 187500.0, -0.062, 0.976, 0.048, 192.0, 254.0, 16.0, 30.0, 128.0, 1.0, 128.0, 0.0, 0.0, 0.0, 1.700944850784169E9, 0.0, 2023-11-25 15:40:50.784
168.0, 71321.26496091664, 82438.91089426409, -17891.722070184, -17046.04381871746, -10395.39401476312, -5975.828287104165, -19394.74277433667, 187500.0, -0.062, 0.976, 0.048, 192.0, 0.0, 0.0, 0.0, 0.0, 0.0, 0.0, 0.0, 0.0, 0.0, 1.700944850788107E9, 0.0, 2023-11-25 15:40:50.788
169.0, 71348.62349612993, 82428.51733309237, -17426.381102368963, -16771.340879361735, -10055.535740320176, -5857.922835102419, -19298.764383645583, 187500.0, -0.062, 0.976, 0.048, 192.0, 0.0, 0.0, 0.0, 0.0, 0.0, 0.0, 0.0, 0.0, 0.0, 1.700944850792161E9, 0.0, 2023-11-25 15:40:50.792
170.0, 71372.71867665276, 82400.08591414522, -16953.038210038925, -16310.291446482117, -9217.702951157446, -5486.8838771443225, -19297.646796422818, 187500.0, -0.062, 0.976, 0.048, 192.0, 0.0, 0.0, 0.0, 0.0, 0.0, 0.0, 0.0, 0.0, 0.0, 1.700944850796237E9, 0.0, 2023-11-25 15:40:50.796
171.0, 71344.84605131698, 82392.64278324161, -17328.301647699078, -16683.610282374655, -9567.306586182904, -5714.469339188259, -19336.62823875287, 187500.0, -0.062, 0.976, 0.048, 192.0, 0.0, 0.0, 0.0, 0.0, 0.0, 0.0, 0.0, 0.0, 0.0, 1.700944850800153E9, 0.0, 2023-11-25 15:40:50.800
172.0, 71328.95396100926, 82436.8098302853, -17826.454976374505, -16976.97692835056, -10264.189274810467, -5910.561193294668, -19383.79041955357, 187500.0, -0.062, 0.976, 0.048, 192.0, 0.0, 0.0, 0.0, 0.0, 0.0, 0.0, 0.0, 0.0, 0.0, 1.700944850804542E9, 0.0, 2023-11-25 15:40:50.804
173.0, 71353.29501072109, 82448.03040600185, -17578.775296065247, -16895.25895062196, -10239.088265787157, -5952.694231592922, -19316.1093373429, 187500.0, -0.062, 0.976, 0.048, 192.0, 0.0, 0.0, 0.0, 0.0, 0.0, 0.0, 0.0, 0.0, 0.0, 1.700944850808193E9, 0.0, 2023-11-25 15:40:50.808
174.0, 71370.93053709633, 82404.86918745867, -16934.30744818538, -16271.332355896517, -9233.595041465169, -5465.247388511585, -19285.06276429448, 187500.0, -0.062, 0.976, 0.048, 192.0, 0.0, 0.0, 0.0, 0.0, 0.0, 0.0, 0.0, 0.0, 0.0, 1.700944850812208E9, 0.0, 2023-11-25 15:40:50.812
175.0, 71348.46703391874, 82386.16077734956, -17264.75563821264, -16625.786319468774, -9484.672186931633, -5690.865897043454, -19347.53589004706, 187500.0, -0.062, 0.976, 0.048, 192.0, 0.0, 0.0, 0.0, 0.0, 0.0, 0.0, 0.0, 0.0, 0.0, 1.700944850815188E9, 0.0, 2023-11-25 15:40:50.815
176.0, 71327.99283599769, 82423.5999493122, -17752.31424001625, -16917.074253210336, -10133.677438935929, -5853.497189700269, -19387.12082947741, 187500.0, -0.062, 0.978, 0.044, 192.0, 254.0, 16.0, 30.0, 144.0, 1.0, 96.0, 0.0, 0.0, 0.0, 1.700944850820237E9, 0.0, 2023-11-25 15:40:50.820
177.0, 71335.77124306813, 82437.52508610787, -17725.40273969206, -16998.635768727752, -10390.63309319414, -6017.71545621341, -19348.094683658444, 187500.0, -0.062, 0.978, 0.044, 192.0, 0.0, 0.0, 0.0, 0.0, 0.0, 0.0, 0.0, 0.0, 0.0, 1.700944850825248E9, 0.0, 2023-11-25 15:40:50.825
178.0, 71370.21528127376, 82409.58540553873, -16967.36567823478, -16318.382777974937, -9332.590917657724, -5500.585496495426, -19281.598243903907, 187500.0, -0.062, 0.978, 0.044, 192.0, 0.0, 0.0, 0.0, 0.0, 0.0, 0.0, 0.0, 0.0, 0.0, 1.700944850828239E9, 0.0, 2023-11-25 15:40:50.828
179.0, 71355.3960746999, 82398.02955365533, -17197.678053102263, -16597.310197032715, -9424.076607713296, -5680.785260294111, -19343.892555700848, 187500.0, -0.062, 0.978, 0.044, 192.0, 0.0, 0.0, 0.0, 0.0, 0.0, 0.0, 0.0, 0.0, 0.0, 1.700944850832231E9, 0.0, 2023-11-25 15:40:50.832
180.0, 71330.45152788777, 82422.9070452341, -17658.414561559508, -16869.845017176274, -9996.236562280246, -5814.180471203384, -19376.92843400579, 187500.0, -0.062, 0.978, 0.044, 192.0, 0.0, 0.0, 0.0, 0.0, 0.0, 0.0, 0.0, 0.0, 0.0, 1.700944850836245E9, 0.0, 2023-11-25 15:40:50.836
181.0, 71339.36987392543, 82442.19660069903, -17842.414121915594, -17078.275034222013, -10489.092527519766, -6069.727965560909, -19380.03532648508, 187500.0, -0.062, 0.978, 0.044, 192.0, 0.0, 0.0, 0.0, 0.0, 0.0, 0.0, 0.0, 0.0, 0.0, 1.70094485084034E9, 0.0, 2023-11-25 15:40:50.840
182.0, 71367.57777542803, 82403.70689674698, -17043.56277508292, -16390.891836987954, -9473.049279814873, -5564.153857726319, -19286.001537561602, 187500.0, -0.062, 0.978, 0.044, 192.0, 0.0, 0.0, 0.0, 0.0, 0.0, 0.0, 0.0, 0.0, 0.0, 1.700944850843642E9, 0.0, 2023-11-25 15:40:50.843
183.0, 71364.26971724865, 82392.95570766399, -17131.76275870356, -16523.21416416337, -9346.761923642389, -5633.5113207711365, -19340.808014966013, 187500.0, -0.062, 0.978, 0.044, 192.0, 0.0, 0.0, 0.0, 0.0, 0.0, 0.0, 0.0, 0.0, 0.0, 1.700944850847755E9, 0.0, 2023-11-25 15:40:50.847
184.0, 71348.33292345202, 82426.37156562466, -17549.002772450778, -16816.08907176126, -9850.503188431643, -5772.002729416219, -19347.714704002705, 187500.0, -0.062, 0.978, 0.044, 192.0, 0.0, 0.0, 0.0, 0.0, 0.0, 0.0, 0.0, 0.0, 0.0, 1.700944850852314E9, 0.0, 2023-11-25 15:40:50.852
185.0, 71344.89075480589, 82461.62026663069, -17887.117610826208, -17098.391604231787, -10493.942856066567, -6057.747430532865, -19380.46000962973, 187500.0, -0.062, 0.978, 0.044, 192.0, 0.0, 0.0, 0.0, 0.0, 0.0, 0.0, 0.0, 0.0, 0.0, 1.700944850856345E9, 0.0, 2023-11-25 15:40:50.856
186.0, 71372.83043537503, 82433.41236512808, -17134.042636638, -16497.46495455086, -9642.363744063825, -5645.380097076905, -19276.949081057202, 187500.0, -0.06, 0.982, 0.048, 192.0, 254.0, 32.0, 30.0, 176.0, 1.0, 128.0, 0.0, 0.0, 0.0, 1.700944850860341E9, 0.0, 2023-11-25 15:40:50.860
187.0, 71372.71867665276, 82406.5008648039, -17054.023391488005, -16418.563296623623, -9263.904006946565, -5559.48234313516, -19339.53396553206, 187500.0, -0.06, 0.982, 0.048, 192.0, 0.0, 0.0, 0.0, 0.0, 0.0, 0.0, 0.0, 0.0, 0.0, 1.700944850864378E9, 0.0, 2023-11-25 15:40:50.864
188.0, 71348.26586821864, 82417.87790273165, -17480.382916972987, -16756.4546175545, -9739.303259766491, -5740.509121478692, -19365.573747822495, 187500.0, -0.06, 0.982, 0.048, 192.0, 0.0, 0.0, 0.0, 0.0, 0.0, 0.0, 0.0, 0.0, 0.0, 1.700944850867392E9, 0.0, 2023-11-25 15:40:50.867
189.0, 71347.2376879737, 82457.48519390645, -17926.59079153428, -17088.19920876017, -10472.909864534124, -6034.948651188452, -19403.571713396515, 187500.0, -0.06, 0.982, 0.048, 192.0, 0.0, 0.0, 0.0, 0.0, 0.0, 0.0, 0.0, 0.0, 0.0, 1.70094485087134E9, 0.0, 2023-11-25 15:40:50.871
190.0, 71371.3999237299, 82429.83608601525, -17292.33769087049, -16646.551090067755, -9868.13871480688, -5765.543075268635, -19286.850903850904, 187500.0, -0.06, 0.982, 0.048, 192.0, 0.0, 0.0, 0.0, 0.0, 0.0, 0.0, 0.0, 0.0, 0.0, 1.700944850875393E9, 0.0, 2023-11-25 15:40:50.875
191.0, 71377.05491507708, 82397.6495739996, -17003.441393785644, -16364.80735120861, -9235.316125788228, -5527.720514264169, -19319.953837389214, 187500.0, -0.06, 0.982, 0.048, 192.0, 0.0, 0.0, 0.0, 0.0, 0.0, 0.0, 0.0, 0.0, 0.0, 1.700944850880451E9, 0.0, 2023-11-25 15:40:50.880
192.0, 71346.50008040668, 82402.29873684631, -17400.25191310071, -16738.03678012333, -9651.86323545733, -5744.9794703697535, -19351.894480215848, 187500.0, -0.06, 0.982, 0.048, 192.0, 0.0, 0.0, 0.0, 0.0, 0.0, 0.0, 0.0, 0.0, 0.0, 1.700944850884419E9, 0.0, 2023-11-25 15:40:50.884
193.0, 71330.40682439886, 82437.21216168549, -17888.034032348878, -17041.104083192837, -10374.71865114196, -5975.358900470603, -19399.995434283668, 187500.0, -0.06, 0.982, 0.048, 192.0, 0.0, 0.0, 0.0, 0.0, 0.0, 0.0, 0.0, 0.0, 0.0, 1.700944850888452E9, 0.0, 2023-11-25 15:40:50.888
194.0, 71358.61472590145, 82434.93228375106, -17448.196404957343, -16774.403068352112, -10066.443391614364, -5857.475800213314, -19310.879029140357, 187500.0, -0.06, 0.982, 0.048, 192.0, 0.0, 0.0, 0.0, 0.0, 0.0, 0.0, 0.0, 0.0, 0.0, 1.700944850892424E9, 0.0, 2023-11-25 15:40:50.892
195.0, 71373.88096736443, 82401.51642579037, -16959.855492097795, -16286.576245615035, -9208.404625464038, -5464.554484433471, -19312.935389630245, 187500.0, -0.06, 0.982, 0.048, 192.0, 0.0, 0.0, 0.0, 0.0, 0.0, 0.0, 0.0, 0.0, 0.0, 1.700944850895482E9, 0.0, 2023-11-25 15:40:50.895
196.0, 71354.52435666614, 82401.80699846828, -17329.70980759976, -16663.5831193427, -9551.928585997652, -5695.045673256597, -19354.73315176167, 187500.0, -0.062, 0.98, 0.042, 192.0, 254.0, 16.0, 30.0, 160.0, 1.0, 80.0, 0.0, 0.0, 0.0, 1.700944850899508E9, 0.0, 2023-11-25 15:40:50.899
197.0, 71334.5418971231, 82431.87009476067, -17831.752339810413, -16965.018745066973, -10248.207777524922, -5891.271637829738, -19403.303492463052, 187500.0, -0.062, 0.98, 0.042, 192.0, 0.0, 0.0, 0.0, 0.0, 0.0, 0.0, 0.0, 0.0, 0.0, 1.70094485090345E9, 0.0, 2023-11-25 15:40:50.903
198.0, 71356.64777238939, 82437.68154831906, -17612.34761623712, -16893.76138374345, -10252.901643860538, -5937.763266296776, -19339.60102076543, 187500.0, -0.062, 0.98, 0.042, 192.0, 0.0, 0.0, 0.0, 0.0, 0.0, 0.0, 0.0, 0.0, 0.0, 1.700944850907507E9, 0.0, 2023-11-25 15:40:50.907
199.0, 71386.42029600385, 82405.78560898133, -16954.178149006148, -16274.014565231153, -9245.26265207084, -5459.435934953205, -19307.570970960973, 187500.0, -0.062, 0.98, 0.042, 192.0, 0.0, 0.0, 0.0, 0.0, 0.0, 0.0, 0.0, 0.0, 0.0, 1.70094485091263E9, 0.0, 2023-11-25 15:40:50.912
200.0, 71374.97620284274, 82397.89544318861, -17263.973327156702, -16620.131328121584, -9472.490486203491, -5682.931027761821, -19358.48824483016, 187500.0, -0.062, 0.98, 0.042, 192.0, 0.0, 0.0, 0.0, 0.0, 0.0, 0.0, 0.0, 0.0, 0.0, 1.70094485091763E9, 0.0, 2023-11-25 15:40:50.917
201.0, 71355.66429563335, 82432.85357151671, -17742.166548033543, -16901.38332860271, -10102.563810654141, -5838.2532999817495, -19392.64171035787, 187500.0, -0.062, 0.98, 0.042, 192.0, 0.0, 0.0, 0.0, 0.0, 0.0, 0.0, 0.0, 0.0, 0.0, 1.700944850921631E9, 0.0, 2023-11-25 15:40:50.921
202.0, 71367.8012928726, 82449.93030428055, -17738.23264100941, -17000.535667006454, -10388.263808281876, -6016.2849445682705, -19351.179224393276, 187500.0, -0.062, 0.98, 0.042, 192.0, 0.0, 0.0, 0.0, 0.0, 0.0, 0.0, 0.0, 0.0, 0.0, 1.700944850924579E9, 0.0, 2023-11-25 15:40:50.924
203.0, 71391.94117688431, 82407.37258283766, -16969.64555616922, -16291.963016028765, -9318.263449461872, -5478.904304373777, -19284.72748812765, 187500.0, -0.062, 0.98, 0.042, 192.0, 0.0, 0.0, 0.0, 0.0, 0.0, 0.0, 0.0, 0.0, 0.0, 1.700944850927881E9, 0.0, 2023-11-25 15:40:50.927
204.0, 71379.82653138954, 82392.64278324161, -17196.135782734847, -16564.833112339154, -9397.321569600294, -5656.1089344154525, -19360.29873613104, 187500.0, -0.062, 0.98, 0.042, 192.0, 0.0, 0.0, 0.0, 0.0, 0.0, 0.0, 0.0, 0.0, 0.0, 1.700944850931579E9, 0.0, 2023-11-25 15:40:50.931
205.0, 71360.26875499115, 82420.67187078856, -17649.697381221937, -16849.549633210856, -9965.502913654198, -5793.035720948663, -19381.018803241113, 187500.0, -0.062, 0.98, 0.042, 192.0, 0.0, 0.0, 0.0, 0.0, 0.0, 0.0, 0.0, 0.0, 0.0, 1.700944850935672E9, 0.0, 2023-11-25 15:40:50.935
206.0, 71366.9519265833, 82445.61641760069, -17852.539462153847, -17071.681269607696, -10481.06825126031, -6051.108962429638, -19381.152913707843, 187500.0, -0.058, 0.982, 0.046, 192.0, 254.0, 48.0, 30.0, 176.0, 1.0, 112.0, 0.0, 0.0, 0.0, 1.700944850941268E9, 0.0, 2023-11-25 15:40:50.941
207.0, 71393.59520597401, 82413.31814686277, -17057.599670600852, -16404.34758715005, -9489.29899803388, -5572.24518921914, -19293.10939229839, 187500.0, -0.058, 0.982, 0.046, 192.0, 0.0, 0.0, 0.0, 0.0, 0.0, 0.0, 0.0, 0.0, 0.0, 1.700944850945277E9, 0.0, 2023-11-25 15:40:50.945
208.0, 71386.91203438188, 82398.72245773346, -17129.594639491395, -16507.702053511388, -9333.552042669302, -5623.92242239981, -19358.823520996993, 187500.0, -0.058, 0.982, 0.046, 192.0, 0.0, 0.0, 0.0, 0.0, 0.0, 0.0, 0.0, 0.0, 0.0, 1.700944850947671E9, 0.0, 2023-11-25 15:40:50.947
209.0, 71358.21239450126, 82419.50958007689, -17561.072714456644, -16799.66053958661, -9841.718952860709, -5765.207799101806, -19382.091686974967, 187500.0, -0.058, 0.982, 0.046, 192.0, 0.0, 0.0, 0.0, 0.0, 0.0, 0.0, 0.0, 0.0, 0.0, 1.700944850951702E9, 0.0, 2023-11-25 15:40:50.951
210.0, 71367.73423763922, 82461.75437709742, -17908.59763724776, -17088.04274654898, -10495.954513067545, -6047.95736646144, -19403.45995467424, 187500.0, -0.058, 0.982, 0.046, 192.0, 0.0, 0.0, 0.0, 0.0, 0.0, 0.0, 0.0, 0.0, 0.0, 1.70094485095568E9, 0.0, 2023-11-25 15:40:50.955
211.0, 71395.42804901935, 82425.72336503546, -17169.984241722137, -16505.802155232686, -9671.800991511464, -5647.458809311248, -19298.272645267563, 187500.0, -0.058, 0.982, 0.046, 192.0, 0.0, 0.0, 0.0, 0.0, 0.0, 0.0, 0.0, 0.0, 0.0, 1.700944850959873E9, 0.0, 2023-11-25 15:40:50.959
212.0, 71402.5582555006, 82404.48920780292, -17061.779446813995, -16403.453517371836, -9263.166399379541, -5541.109209192898, -19355.180186650778, 187500.0, -0.058, 0.982, 0.046, 192.0, 0.0, 0.0, 0.0, 0.0, 0.0, 0.0, 0.0, 0.0, 0.0, 1.700944850963682E9, 0.0, 2023-11-25 15:40:50.963
213.0, 71378.93246161133, 82421.34242312223, -17475.21966400381, -16749.391466306624, -9731.5472044405, -5729.936746351332, -19371.0722769585, 187500.0, -0.058, 0.982, 0.046, 192.0, 0.0, 0.0, 0.0, 0.0, 0.0, 0.0, 0.0, 0.0, 0.0, 1.700944850967754E9, 0.0, 2023-11-25 15:40:50.967
214.0, 71367.71188589477, 82458.35691194021, -17916.867782696223, -17063.791103814972, -10452.703887546526, -5998.023569348285, -19406.678605875804, 187500.0, -0.058, 0.982, 0.046, 192.0, 0.0, 0.0, 0.0, 0.0, 0.0, 0.0, 0.0, 0.0, 0.0, 1.700944850972764E9, 0.0, 2023-11-25 15:40:50.972
215.0, 71395.6515664639, 82438.93324600856, -17306.732214299707, -16644.71824702242, -9884.209619070247, -5748.958080882798, -19294.450496965706, 187500.0, -0.058, 0.982, 0.046, 192.0, 0.0, 0.0, 0.0, 0.0, 0.0, 0.0, 0.0, 0.0, 0.0, 1.700944850975727E9, 0.0, 2023-11-25 15:40:50.975
216.0, 71401.44066827782, 82402.81282696877, -16989.762126178997, -16321.512022198682, -9212.651456910546, -5480.178353807731, -19325.228849080664, 187500.0, -0.062, 0.98, 0.046, 192.0, 254.0, 16.0, 30.0, 160.0, 1.0, 112.0, 0.0, 0.0, 0.0, 1.700944850979836E9, 0.0, 2023-11-25 15:40:50.979
217.0, 71373.67980166433, 82401.42701881255, -17393.233465341746, -16703.83861110671, -9632.618383481311, -5707.607353640479, -19364.41145711082, 187500.0, -0.062, 0.98, 0.046, 192.0, 0.0, 0.0, 0.0, 0.0, 0.0, 0.0, 0.0, 0.0, 0.0, 1.700944850983822E9, 0.0, 2023-11-25 15:40:50.983
218.0, 71369.05299056208, 82447.96335076849, -17882.73666891297, -17020.495774805044, -10362.089915524712, -5941.250138431805, -19405.896294819868, 187500.0, -0.062, 0.98, 0.046, 192.0, 0.0, 0.0, 0.0, 0.0, 0.0, 0.0, 0.0, 0.0, 0.0, 1.700944850987761E9, 0.0, 2023-11-25 15:40:50.987
219.0, 71392.38821177343, 82442.48717337694, -17474.1244285255, -16799.258208186413, -10105.402482199965, -5865.991814850786, -19317.651607710315, 187500.0, -0.062, 0.98, 0.046, 192.0, 0.0, 0.0, 0.0, 0.0, 0.0, 0.0, 0.0, 0.0, 0.0, 1.700944850991917E9, 0.0, 2023-11-25 15:40:50.991
220.0, 71400.18897058832, 82403.7516002359, -16960.816617109373, -16296.478068408736, -9219.558145947236, -5467.817839123945, -19316.176392576264, 187500.0, -0.062, 0.98, 0.046, 192.0, 0.0, 0.0, 0.0, 0.0, 0.0, 0.0, 0.0, 0.0, 0.0, 1.700944850995919E9, 0.0, 2023-11-25 15:40:50.995
221.0, 71376.56317669907, 82402.11992289066, -17328.435758165808, -16676.16715147104, -9552.241510420026, -5704.813385583567, -19362.086875687466, 187500.0, -0.062, 0.98, 0.046, 192.0, 0.0, 0.0, 0.0, 0.0, 0.0, 0.0, 0.0, 0.0, 0.0, 1.700944851000965E9, 0.0, 2023-11-25 15:40:51.000
222.0, 71365.9013945939, 82443.58240885525, -17826.454976374505, -16972.148951548214, -10238.328306475676, -5894.892620431498, -19404.59989364146, 187500.0, -0.062, 0.98, 0.046, 192.0, 0.0, 0.0, 0.0, 0.0, 0.0, 0.0, 0.0, 0.0, 0.0, 1.700944851003985E9, 0.0, 2023-11-25 15:40:51.003
223.0, 71380.76530465667, 82443.80592629981, -17639.236764816855, -16934.06157899637, -10290.094946634168, -5972.743746369332, -19348.87699471438, 187500.0, -0.062, 0.98, 0.046, 192.0, 0.0, 0.0, 0.0, 0.0, 0.0, 0.0, 0.0, 0.0, 0.0, 1.700944851008262E9, 0.0, 2023-11-25 15:40:51.008
224.0, 71406.29099682462, 82409.04896367181, -16949.12665475925, -16270.12536169593, -9247.475474771914, -5455.03264129551, -19301.53599995804, 187500.0, -0.062, 0.98, 0.046, 192.0, 0.0, 0.0, 0.0, 0.0, 0.0, 0.0, 0.0, 0.0, 0.0, 1.700944851011928E9, 0.0, 2023-11-25 15:40:51.011
225.0, 71385.30270878109, 82395.79437920981, -17258.385391042877, -16616.57740075319, -9466.477866945013, -5678.661844570857, -19363.673849543793, 187500.0, -0.062, 0.98, 0.046, 192.0, 0.0, 0.0, 0.0, 0.0, 0.0, 0.0, 0.0, 0.0, 0.0, 1.700944851015914E9, 0.0, 2023-11-25 15:40:51.015
226.0, 71367.04133356111, 82437.43567913004, -17739.283172998807, -16915.48727935401, -10100.865078075538, -5848.892730342475, -19394.8768848034, 187500.0, -0.052000000000000005, 0.984, 0.05, 192.0, 254.0, 96.0, 30.0, 192.0, 1.0, 144.0, 0.0, 0.0, 0.0, 1.700944851020013E9, 0.0, 2023-11-25 15:40:51.020
227.0, 71369.92470859585, 82450.08676649175, -17768.273385557342, -17029.883507476272, -10419.466843541484, -6041.520064058312, -19363.45033209924, 187500.0, -0.052000000000000005, 0.984, 0.05, 192.0, 0.0, 0.0, 0.0, 0.0, 0.0, 0.0, 0.0, 0.0, 0.0, 1.700944851023886E9, 0.0, 2023-11-25 15:40:51.023
228.0, 71393.81872341856, 82408.64663227162, -16992.421983769178, -16325.200060033807, -9357.870740636676, -5510.777891967045, -19296.551560944506, 187500.0, -0.052000000000000005, 0.984, 0.05, 192.0, 0.0, 0.0, 0.0, 0.0, 0.0, 0.0, 0.0, 0.0, 0.0, 1.700944851028968E9, 0.0, 2023-11-25 15:40:51.028
229.0, 71381.25704303468, 82393.71566697546, -17190.77136406557, -16552.897280800018, -9388.447927051537, -5649.984556434698, -19357.97415470769, 187500.0, -0.052000000000000005, 0.984, 0.05, 192.0, 0.0, 0.0, 0.0, 0.0, 0.0, 0.0, 0.0, 0.0, 0.0, 1.700944851031875E9, 0.0, 2023-11-25 15:40:51.031
230.0, 71351.21629848675, 82415.73213526394, -17649.54091901075, -16829.99185681246, -9947.979146001238, -5782.888028965954, -19388.50663763364, 187500.0, -0.052000000000000005, 0.984, 0.05, 192.0, 0.0, 0.0, 0.0, 0.0, 0.0, 0.0, 0.0, 0.0, 0.0, 1.700944851034939E9, 0.0, 2023-11-25 15:40:51.034
231.0, 71359.46409219076, 82444.32001642228, -17880.993232845456, -17067.747362583563, -10492.154716510144, -6048.717325772921, -19396.30739644854, 187500.0, -0.052000000000000005, 0.984, 0.05, 192.0, 0.0, 0.0, 0.0, 0.0, 0.0, 0.0, 0.0, 0.0, 0.0, 1.700944851039938E9, 0.0, 2023-11-25 15:40:51.039
232.0, 71400.34543279951, 82418.68256553204, -17082.030127290505, -16405.331063906084, -9512.678922734132, -5565.539665882548, -19293.802296376503, 187500.0, -0.052000000000000005, 0.984, 0.05, 192.0, 0.0, 0.0, 0.0, 0.0, 0.0, 0.0, 0.0, 0.0, 0.0, 1.700944851044398E9, 0.0, 2023-11-25 15:40:51.044
233.0, 71394.64573796341, 82391.65930648557, -17134.377912804834, -16495.855628950078, -9330.668667634567, -5608.432663492282, -19358.823520996993, 187500.0, -0.052000000000000005, 0.984, 0.05, 192.0, 0.0, 0.0, 0.0, 0.0, 0.0, 0.0, 0.0, 0.0, 0.0, 1.70094485104797E9, 0.0, 2023-11-25 15:40:51.047
234.0, 71362.32511548104, 82403.01399266887, -17554.546005075696, -16788.149391192128, -9818.98722874966, -5746.789961670633, -19372.793361281558, 187500.0, -0.052000000000000005, 0.984, 0.05, 192.0, 0.0, 0.0, 0.0, 0.0, 0.0, 0.0, 0.0, 0.0, 0.0, 1.700944851052571E9, 0.0, 2023-11-25 15:40:51.052
235.0, 71366.46018820527, 82446.17521121207, -17924.17680313311, -17081.739554612584, -10489.919542064614, -6028.578404018689, -19405.024576786112, 187500.0, -0.052000000000000005, 0.984, 0.05, 192.0, 0.0, 0.0, 0.0, 0.0, 0.0, 0.0, 0.0, 0.0, 0.0, 1.700944851056158E9, 0.0, 2023-11-25 15:40:51.056
236.0, 71402.62531073396, 82427.44444935852, -17196.627521112863, -16526.186946175927, -9699.24893370258, -5654.030222181109, -19297.892665611824, 187500.0, -0.062, 0.982, 0.05, 192.0, 254.0, 16.0, 30.0, 176.0, 1.0, 144.0, 0.0, 0.0, 0.0, 1.700944851059963E9, 0.0, 2023-11-25 15:40:51.059
237.0, 71406.55921775808, 82401.98581242393, -17051.542347853465, -16384.320424118094, -9241.708724702445, -5521.037342672032, -19345.79245397955, 187500.0, -0.062, 0.982, 0.05, 192.0, 0.0, 0.0, 0.0, 0.0, 0.0, 0.0, 0.0, 0.0, 0.0, 1.700944851063016E9, 0.0, 2023-11-25 15:40:51.063
238.0, 71376.89845286589, 82414.88276897464, -17466.83775983307, -16737.79091093432, -9702.959323282163, -5717.173900267351, -19366.55722457853, 187500.0, -0.062, 0.982, 0.05, 192.0, 0.0, 0.0, 0.0, 0.0, 0.0, 0.0, 0.0, 0.0, 0.0, 1.700944851068025E9, 0.0, 2023-11-25 15:40:51.068
239.0, 71358.81589160155, 82445.88463853415, -17930.703512514057, -17064.707525337642, -10438.309364117309, -5994.089662324151, -19412.534762923093, 187500.0, -0.062, 0.982, 0.05, 192.0, 0.0, 0.0, 0.0, 0.0, 0.0, 0.0, 0.0, 0.0, 0.0, 1.700944851072098E9, 0.0, 2023-11-25 15:40:51.072
240.0, 71393.88577865194, 82431.28894940483, -17344.126682773433, -16672.81438980274, -9908.573020526532, -5770.438107304348, -19303.793526148027, 187500.0, -0.062, 0.982, 0.05, 192.0, 0.0, 0.0, 0.0, 0.0, 0.0, 0.0, 0.0, 0.0, 0.0, 1.700944851076019E9, 0.0, 2023-11-25 15:40:51.076
241.0, 71408.36970905897, 82397.82838795525, -16997.69699546063, -16328.597525191013, -9208.516384186314, -5490.795432424001, -19331.9120206728, 187500.0, -0.062, 0.982, 0.05, 192.0, 0.0, 0.0, 0.0, 0.0, 0.0, 0.0, 0.0, 0.0, 0.0, 1.700944851080046E9, 0.0, 2023-11-25 15:40:51.080
242.0, 71380.27356627864, 82396.68844898802, -17399.313139833586, -16709.314788498257, -9622.068360098405, -5721.46543520277, -19370.73700079167, 187500.0, -0.062, 0.982, 0.05, 192.0, 0.0, 0.0, 0.0, 0.0, 0.0, 0.0, 0.0, 0.0, 0.0, 1.700944851084072E9, 0.0, 2023-11-25 15:40:51.084
243.0, 71353.9432113103, 82429.38905112614, -17897.8240964203, -17010.12456537778, -10343.694429837995, -5940.736048309333, -19421.542515938585, 187500.0, -0.062, 0.982, 0.05, 192.0, 0.0, 0.0, 0.0, 0.0, 0.0, 0.0, 0.0, 0.0, 0.0, 1.700944851087264E9, 0.0, 2023-11-25 15:40:51.087
244.0, 71379.13362731143, 82430.2607691599, -17515.653969723462, -16802.007472754416, -10119.61819167354, -5871.959730620352, -19338.617544009394, 187500.0, -0.062, 0.982, 0.05, 192.0, 0.0, 0.0, 0.0, 0.0, 0.0, 0.0, 0.0, 0.0, 0.0, 1.700944851091041E9, 0.0, 2023-11-25 15:40:51.091
245.0, 71403.51938051217, 82394.31916407576, -16968.41621022418, -16276.69677456579, -9209.835137109178, -5456.776077363023, -19326.078215369966, 187500.0, -0.062, 0.982, 0.05, 192.0, 0.0, 0.0, 0.0, 0.0, 0.0, 0.0, 0.0, 0.0, 0.0, 1.700944851096022E9, 0.0, 2023-11-25 15:40:51.096
246.0, 71374.61857493146, 82381.86924241415, -17340.975086805236, -16665.751238554865, -9540.752713769998, -5707.607353640479, -19380.30354741854, 187500.0, -0.054, 0.984, 0.048, 192.0, 254.0, 80.0, 30.0, 192.0, 1.0, 128.0, 0.0, 0.0, 0.0, 1.700944851100064E9, 0.0, 2023-11-25 15:40:51.100
247.0, 71348.17646124083, 82414.1004579187, -17839.66485734759, -16957.329744974344, -10217.45177715442, -5889.2599808287605, -19421.36370198294, 187500.0, -0.054, 0.984, 0.048, 192.0, 0.0, 0.0, 0.0, 0.0, 0.0, 0.0, 0.0, 0.0, 0.0, 1.700944851104101E9, 0.0, 2023-11-25 15:40:51.104
248.0, 71373.43393247532, 82430.52899009336, -17680.989823459367, -16952.054733282894, -10312.737263767394, -5987.786470387754, -19360.29873613104, 187500.0, -0.054, 0.984, 0.048, 192.0, 0.0, 0.0, 0.0, 0.0, 0.0, 0.0, 0.0, 0.0, 0.0, 1.700944851108306E9, 0.0, 2023-11-25 15:40:51.108
249.0, 71400.36778454397, 82394.83325419822, -16970.584329436344, -16283.469353135748, -9263.032288912807, -5470.991786836599, -19309.58262796195, 187500.0, -0.054, 0.984, 0.048, 192.0, 0.0, 0.0, 0.0, 0.0, 0.0, 0.0, 0.0, 0.0, 0.0, 1.700944851113694E9, 0.0, 2023-11-25 15:40:51.113
250.0, 71382.64285119092, 82388.32889656174, -17263.682754478785, -16605.33447329217, -9453.15622724965, -5677.499553859181, -19366.8701490009, 187500.0, -0.054, 0.984, 0.048, 192.0, 0.0, 0.0, 0.0, 0.0, 0.0, 0.0, 0.0, 0.0, 0.0, 1.700944851116902E9, 0.0, 2023-11-25 15:40:51.116
251.0, 71353.25030723219, 82418.72726902095, -17748.22387078093, -16891.637968020197, -10074.1770951959, -5830.653706866945, -19403.214085485233, 187500.0, -0.054, 0.984, 0.048, 192.0, 0.0, 0.0, 0.0, 0.0, 0.0, 0.0, 0.0, 0.0, 0.0, 1.70094485111911E9, 0.0, 2023-11-25 15:40:51.119
252.0, 71364.02384805965, 82436.47455411847, -17821.314075149785, -17049.75420829704, -10448.144131677644, -6051.980680463395, -19385.533855621085, 187500.0, -0.054, 0.984, 0.048, 192.0, 0.0, 0.0, 0.0, 0.0, 0.0, 0.0, 0.0, 0.0, 0.0, 1.700944851123271E9, 0.0, 2023-11-25 15:40:51.123
253.0, 71381.99465060171, 82385.6466872271, -17032.811585999916, -16344.959002132298, -9385.966883416997, -5520.635011271836, -19313.270665797078, 187500.0, -0.054, 0.984, 0.048, 192.0, 0.0, 0.0, 0.0, 0.0, 0.0, 0.0, 0.0, 0.0, 0.0, 1.700944851127375E9, 0.0, 2023-11-25 15:40:51.127
254.0, 71369.05299056208, 82369.441672497, -17216.25235274462, -16559.736914603345, -9393.365310831703, -5652.3538413469605, -19377.531931106085, 187500.0, -0.054, 0.984, 0.048, 192.0, 0.0, 0.0, 0.0, 0.0, 0.0, 0.0, 0.0, 0.0, 0.0, 1.700944851132177E9, 0.0, 2023-11-25 15:40:51.132
255.0, 71343.03556001611, 82391.68165823004, -17664.78480872927, -16839.625458672697, -9942.25709942068, -5787.738357512755, -19396.709727848738, 187500.0, -0.054, 0.984, 0.048, 192.0, 0.0, 0.0, 0.0, 0.0, 0.0, 0.0, 0.0, 0.0, 0.0, 1.700944851136688E9, 0.0, 2023-11-25 15:40:51.136
0.0, 71353.7867490991, 82425.6563098021, -17920.220544364518, -17102.727842656117, -10514.953495854557, -6075.24884644137, -19410.74662336667, 187500.0, -0.05, 0.978, 0.044, 192.0, 254.0, 112.0, 30.0, 144.0, 1.0, 96.0, 0.0, 0.0, 0.0, 1.7009448511402E9, 0.0, 2023-11-25 15:40:51.140
1.0, 71391.0024036172, 82402.05286765729, -17116.116537584847, -16434.477738675803, -9540.976231214552, -5594.284009252073, -19305.022872093068, 187500.0, -0.05, 0.978, 0.044, 192.0, 0.0, 0.0, 0.0, 0.0, 0.0, 0.0, 0.0, 0.0, 0.0, 1.700944851144162E9, 0.0, 2023-11-25 15:40:51.144
2.0, 71389.03545010513, 82387.05484712779, -17148.68302925623, -16480.65644272047, -9318.08463550623, -5603.403520989838, -19374.0227072266, 187500.0, -0.05, 0.978, 0.044, 192.0, 0.0, 0.0, 0.0, 0.0, 0.0, 0.0, 0.0, 0.0, 0.0, 1.700944851147221E9, 0.0, 2023-11-25 15:40:51.147
3.0, 71364.56028992657, 82403.86335895817, -17574.684926829927, -16795.27959767337, -9820.596554350443, -5765.945406668831, -19390.585349867983, 187500.0, -0.05, 0.978, 0.044, 192.0, 0.0, 0.0, 0.0, 0.0, 0.0, 0.0, 0.0, 0.0, 0.0, 1.700944851151232E9, 0.0, 2023-11-25 15:40:51.151
4.0, 71359.77701661314, 82432.71946104997, -17961.101884973275, -17095.530580941508, -10504.068196304823, -6044.515197815323, -19423.151841539366, 187500.0, -0.05, 0.978, 0.044, 192.0, 0.0, 0.0, 0.0, 0.0, 0.0, 0.0, 0.0, 0.0, 0.0, 1.700944851155318E9, 0.0, 2023-11-25 15:40:51.155
5.0, 71397.64087172042, 82416.51444631988, -17244.21438505821, -16558.865196569586, -9741.471378978657, -5683.758042306667, -19306.587494204938, 187500.0, -0.05, 0.978, 0.044, 192.0, 0.0, 0.0, 0.0, 0.0, 0.0, 0.0, 0.0, 0.0, 0.0, 1.700944851160277E9, 0.0, 2023-11-25 15:40:51.160
6.0, 71404.83813343503, 82394.47562628695, -17070.027240518004, -16387.069688686097, -9249.7330009619, -5528.815749742478, -19352.028590682577, 187500.0, -0.05, 0.978, 0.044, 192.0, 0.0, 0.0, 0.0, 0.0, 0.0, 0.0, 0.0, 0.0, 0.0, 1.700944851164244E9, 0.0, 2023-11-25 15:40:51.164
7.0, 71378.55248195559, 82408.98190843844, -17485.94850134236, -16737.902669656596, -9705.06038726096, -5725.533452693636, -19383.49984687565, 187500.0, -0.05, 0.978, 0.044, 192.0, 0.0, 0.0, 0.0, 0.0, 0.0, 0.0, 0.0, 0.0, 0.0, 1.700944851167357E9, 0.0, 2023-11-25 15:40:51.167
8.0, 71363.35329572599, 82444.23060944446, -17955.17867269262, -17066.160388727236, -10441.68447753006, -5998.738825170854, -19434.14889981138, 187500.0, -0.05, 0.978, 0.044, 192.0, 0.0, 0.0, 0.0, 0.0, 0.0, 0.0, 0.0, 0.0, 0.0, 1.700944851171355E9, 0.0, 2023-11-25 15:40:51.171
9.0, 71398.601996732, 82436.56396109628, -17388.74076470623, -16697.26719823685, -9949.119084968459, -5793.281590137672, -19328.179279348766, 187500.0, -0.05, 0.978, 0.044, 192.0, 0.0, 0.0, 0.0, 0.0, 0.0, 0.0, 0.0, 0.0, 0.0, 1.700944851175274E9, 0.0, 2023-11-25 15:40:51.175
10.0, 71410.26960733767, 82404.26569035837, -17004.581332752863, -16305.575228402047, -9198.100471270141, -5469.136592046809, -19347.245317369143, 187500.0, -0.052000000000000005, 0.978, 0.038, 192.0, 254.0, 96.0, 30.0, 144.0, 1.0, 48.0, 0.0, 0.0, 0.0, 1.700944851179319E9, 0.0, 2023-11-25 15:40:51.179
11.0, 71391.91882513986, 82409.18307413853, -17405.996311425723, -16703.50333493988, -9606.846822124342, -5712.949420565298, -19383.879826531393, 187500.0, -0.052000000000000005, 0.978, 0.038, 192.0, 0.0, 0.0, 0.0, 0.0, 0.0, 0.0, 0.0, 0.0, 0.0, 1.700944851183331E9, 0.0, 2023-11-25 15:40:51.183
12.0, 71374.66327842037, 82440.40846114261, -17909.692872726067, -17024.429681829177, -10336.206595445467, -5943.574719855156, -19432.89720212188, 187500.0, -0.052000000000000005, 0.978, 0.038, 192.0, 0.0, 0.0, 0.0, 0.0, 0.0, 0.0, 0.0, 0.0, 0.0, 1.700944851188344E9, 0.0, 2023-11-25 15:40:51.188
13.0, 71391.78471467314, 82430.88661800465, -17559.463388855864, -16848.543804710367, -10163.874645695048, -5906.426120570436, -19356.40953259582, 187500.0, -0.052000000000000005, 0.978, 0.038, 192.0, 0.0, 0.0, 0.0, 0.0, 0.0, 0.0, 0.0, 0.0, 0.0, 1.700944851192338E9, 0.0, 2023-11-25 15:40:51.192
14.0, 71408.16854335887, 82393.46979778646, -16990.320919790378, -16279.043707733597, -9220.698084914457, -5456.172580262731, -19344.563108034505, 187500.0, -0.052000000000000005, 0.978, 0.038, 192.0, 0.0, 0.0, 0.0, 0.0, 0.0, 0.0, 0.0, 0.0, 0.0, 1.700944851195355E9, 0.0, 2023-11-25 15:40:51.195
15.0, 71387.18025531534, 82393.46979778646, -17351.078075299036, -16667.24880543337, -9537.779931757443, -5708.300257718594, -19391.859399301935, 187500.0, -0.052000000000000005, 0.978, 0.038, 192.0, 0.0, 0.0, 0.0, 0.0, 0.0, 0.0, 0.0, 0.0, 0.0, 1.700944851199379E9, 0.0, 2023-11-25 15:40:51.199
16.0, 71368.58360392852, 82435.08874596223, -17846.191566728543, -16956.189806007125, -10207.751120060817, -5880.118117346539, -19429.343274753486, 187500.0, -0.052000000000000005, 0.978, 0.038, 192.0, 0.0, 0.0, 0.0, 0.0, 0.0, 0.0, 0.0, 0.0, 0.0, 1.700944851203562E9, 0.0, 2023-11-25 15:40:51.203
17.0, 71394.8469036635, 82452.210182215, -17719.74774834487, -16978.809771395896, -10341.928642026025, -6002.516269983801, -19375.587329338472, 187500.0, -0.052000000000000005, 0.978, 0.038, 192.0, 0.0, 0.0, 0.0, 0.0, 0.0, 0.0, 0.0, 0.0, 0.0, 1.700944851207439E9, 0.0, 2023-11-25 15:40:51.207
18.0, 71409.71081372628, 82403.03634441333, -16994.94773089263, -16292.946492784798, -9279.304358876272, -5474.590417693904, -19325.653532225315, 187500.0, -0.052000000000000005, 0.978, 0.038, 192.0, 0.0, 0.0, 0.0, 0.0, 0.0, 0.0, 0.0, 0.0, 0.0, 1.700944851211747E9, 0.0, 2023-11-25 15:40:51.211
19.0, 71393.39404027391, 82393.0451146418, -17277.496132552165, -16604.52981049178, -9446.718924846522, -5672.448059612282, -19383.186922453275, 187500.0, -0.052000000000000005, 0.978, 0.038, 192.0, 0.0, 0.0, 0.0, 0.0, 0.0, 0.0, 0.0, 0.0, 0.0, 1.700944851215543E9, 0.0, 2023-11-25 15:40:51.215
20.0, 71370.23763301822, 82424.53872257934, -17753.342420261197, -16892.241465120493, -10058.307356632633, -5825.557509131135, -19414.65817864635, 187500.0, -0.058, 0.984, 0.044, 192.0, 254.0, 48.0, 30.0, 192.0, 1.0, 96.0, 0.0, 0.0, 0.0, 1.70094485122042E9, 0.0, 2023-11-25 15:40:51.220
21.0, 71385.07919133654, 82445.86228678969, -17846.90682255111, -17055.76682755552, -10453.665012558105, -6050.103133929149, -19399.54839939456, 187500.0, -0.058, 0.984, 0.044, 192.0, 0.0, 0.0, 0.0, 0.0, 0.0, 0.0, 0.0, 0.0, 0.0, 1.700944851224425E9, 0.0, 2023-11-25 15:40:51.224
22.0, 71420.7078719983, 82415.08393467474, -17049.75420829704, -16367.109580887507, -9405.211735393017, -5536.437694601738, -19311.728395429658, 187500.0, -0.058, 0.984, 0.044, 192.0, 0.0, 0.0, 0.0, 0.0, 0.0, 0.0, 0.0, 0.0, 0.0, 1.700944851227528E9, 0.0, 2023-11-25 15:40:51.227
23.0, 71400.7030607108, 82385.98196339393, -17213.816012598993, -16548.02460050876, -9372.28761581035, -5641.826169708511, -19374.91677700481, 187500.0, -0.058, 0.984, 0.044, 192.0, 0.0, 0.0, 0.0, 0.0, 0.0, 0.0, 0.0, 0.0, 0.0, 1.700944851231422E9, 0.0, 2023-11-25 15:40:51.231
24.0, 71374.55151969809, 82410.05479217229, -17670.395096587552, -16827.466109689012, -9917.312552608557, -5774.28260735066, -19403.191733740776, 187500.0, -0.058, 0.984, 0.044, 192.0, 0.0, 0.0, 0.0, 0.0, 0.0, 0.0, 0.0, 0.0, 0.0, 1.700944851235529E9, 0.0, 2023-11-25 15:40:51.235
25.0, 71375.28912726512, 82435.1110977067, -17939.823024251822, -17096.782278631006, -10508.024455073411, -6060.608453823144, -19411.68539663379, 187500.0, -0.058, 0.984, 0.044, 192.0, 0.0, 0.0, 0.0, 0.0, 0.0, 0.0, 0.0, 0.0, 0.0, 1.700944851239449E9, 0.0, 2023-11-25 15:40:51.239
26.0, 71408.74968871471, 82406.65732701508, -17142.71511348666, -16449.6322214165, -9559.32701341236, -5597.480308709181, -19303.882933125846, 187500.0, -0.058, 0.984, 0.044, 192.0, 0.0, 0.0, 0.0, 0.0, 0.0, 0.0, 0.0, 0.0, 0.0, 1.700944851244101E9, 0.0, 2023-11-25 15:40:51.244
27.0, 71409.39788930392, 82387.43482678352, -17147.05135191099, -16468.83236990361, -9299.376225397138, -5587.578485915481, -19368.010087968123, 187500.0, -0.058, 0.984, 0.044, 192.0, 0.0, 0.0, 0.0, 0.0, 0.0, 0.0, 0.0, 0.0, 0.0, 1.700944851248496E9, 0.0, 2023-11-25 15:40:51.248
28.0, 71393.88577865194, 82414.97217595245, -17562.749095290794, -16787.188266180547, -9788.678263268264, -5749.628633216457, -19381.599948596948, 187500.0, -0.058, 0.984, 0.044, 192.0, 0.0, 0.0, 0.0, 0.0, 0.0, 0.0, 0.0, 0.0, 0.0, 1.700944851251596E9, 0.0, 2023-11-25 15:40:51.251
29.0, 71390.98005187274, 82452.63486535965, -17959.581966350313, -17105.27594152402, -10482.096431505255, -6044.738715259876, -19415.194620513277, 187500.0, -0.058, 0.984, 0.044, 192.0, 0.0, 0.0, 0.0, 0.0, 0.0, 0.0, 0.0, 0.0, 0.0, 1.700944851255502E9, 0.0, 2023-11-25 15:40:51.255
30.0, 71419.7020434978, 82432.25007441641, -17255.032629374582, -16574.064382799195, -9739.415018488768, -5699.94070529231, -19304.955816859703, 187500.0, -0.06, 0.984, 0.042, 192.0, 254.0, 32.0, 30.0, 192.0, 1.0, 80.0, 0.0, 0.0, 0.0, 1.700944851259476E9, 0.0, 2023-11-25 15:40:51.259
31.0, 71416.19281961833, 82396.93431817702, -17060.61715610232, -16368.71890648829, -9213.478471455392, -5522.177281639252, -19357.25889888512, 187500.0, -0.06, 0.984, 0.042, 192.0, 0.0, 0.0, 0.0, 0.0, 0.0, 0.0, 0.0, 0.0, 0.0, 1.700944851264469E9, 0.0, 2023-11-25 15:40:51.264
32.0, 71392.72348794025, 82405.87501595916, -17474.906739581435, -16729.006675363384, -9663.709660018643, -5723.65590615939, -19381.242320685666, 187500.0, -0.06, 0.984, 0.042, 192.0, 0.0, 0.0, 0.0, 0.0, 0.0, 0.0, 0.0, 0.0, 0.0, 1.700944851267515E9, 0.0, 2023-11-25 15:40:51.267
33.0, 71394.33281354104, 82456.05468226131, -17941.678219041612, -17051.05060947545, -10393.71763392897, -5980.902133095519, -19416.669835647328, 187500.0, -0.06, 0.984, 0.042, 192.0, 0.0, 0.0, 0.0, 0.0, 0.0, 0.0, 0.0, 0.0, 0.0, 1.700944851271529E9, 0.0, 2023-11-25 15:40:51.271
34.0, 71426.94400870134, 82447.65042634612, -17408.07502366007, -16713.047529822295, -9951.466018136265, -5803.205764675828, -19316.623427465373, 187500.0, -0.06, 0.984, 0.042, 192.0, 0.0, 0.0, 0.0, 0.0, 0.0, 0.0, 0.0, 0.0, 0.0, 1.700944851275522E9, 0.0, 2023-11-25 15:40:51.275
35.0, 71436.48820358375, 82409.04896367181, -17002.904951918717, -16297.282731209129, -9177.648625093536, -5467.2143420236525, -19332.716683473194, 187500.0, -0.06, 0.984, 0.042, 192.0, 0.0, 0.0, 0.0, 0.0, 0.0, 0.0, 0.0, 0.0, 0.0, 1.700944851279814E9, 0.0, 2023-11-25 15:40:51.279
36.0, 71403.6534909789, 82401.73994323492, -17395.91567467638, -16662.06320071974, -9559.371716901269, -5684.294484173594, -19372.614547325917, 187500.0, -0.06, 0.984, 0.042, 192.0, 0.0, 0.0, 0.0, 0.0, 0.0, 0.0, 0.0, 0.0, 0.0, 1.700944851283546E9, 0.0, 2023-11-25 15:40:51.283
37.0, 71395.15982808589, 82447.44926064603, -17906.16129710213, -16986.297605788423, -10290.854905945649, -5912.192870639905, -19419.88848684889, 187500.0, -0.06, 0.984, 0.042, 192.0, 0.0, 0.0, 0.0, 0.0, 0.0, 0.0, 0.0, 0.0, 0.0, 1.700944851288556E9, 0.0, 2023-11-25 15:40:51.288
38.0, 71412.68359573884, 82442.55422861032, -17583.42445891195, -16845.973354098005, -10161.259491593777, -5904.213297869361, -19344.563108034505, 187500.0, -0.06, 0.984, 0.042, 192.0, 0.0, 0.0, 0.0, 0.0, 0.0, 0.0, 0.0, 0.0, 0.0, 1.700944851291538E9, 0.0, 2023-11-25 15:40:51.291
39.0, 71423.41243307739, 82394.6544402426, -16997.965216394095, -16265.140922682396, -9206.214154507417, -5449.17648424822, -19337.768177720092, 187500.0, -0.06, 0.984, 0.042, 192.0, 0.0, 0.0, 0.0, 0.0, 0.0, 0.0, 0.0, 0.0, 0.0, 1.700944851294572E9, 0.0, 2023-11-25 15:40:51.294
40.0, 71397.64087172042, 82382.78566393683, -17350.34046773201, -16639.309124864238, -9506.129861608728, -5689.725958076234, -19395.145105736865, 187500.0, -0.06, 0.988, 0.044, 192.0, 254.0, 32.0, 30.0, 224.0, 1.0, 96.0, 0.0, 0.0, 0.0, 1.700944851299583E9, 0.0, 2023-11-25 15:40:51.299
41.0, 71379.40184824489, 82418.21317889848, -17849.14199699664, -16937.39198892021, -10177.240988879323, -5865.410669494948, -19437.389902757397, 187500.0, -0.06, 0.988, 0.044, 192.0, 0.0, 0.0, 0.0, 0.0, 0.0, 0.0, 0.0, 0.0, 0.0, 1.70094485130365E9, 0.0, 2023-11-25 15:40:51.303
42.0, 71398.53494149864, 82433.211199428, -17749.162644048054, -16969.712611402585, -10346.041363005801, -5994.42493849098, -19387.590216110973, 187500.0, -0.06, 0.988, 0.044, 192.0, 0.0, 0.0, 0.0, 0.0, 0.0, 0.0, 0.0, 0.0, 0.0, 1.700944851308833E9, 0.0, 2023-11-25 15:40:51.308
43.0, 71424.99940693371, 82397.82838795525, -17018.037082914958, -16292.03007126213, -9293.140088694106, -5474.813935138457, -19334.2142503517, 187500.0, -0.06, 0.988, 0.044, 192.0, 0.0, 0.0, 0.0, 0.0, 0.0, 0.0, 0.0, 0.0, 0.0, 1.700944851312658E9, 0.0, 2023-11-25 15:40:51.312
44.0, 71413.22003760577, 82388.73122796194, -17283.75462099965, -16598.271322044293, -9437.53235787539, -5669.497629344181, -19386.092649232465, 187500.0, -0.06, 0.988, 0.044, 192.0, 0.0, 0.0, 0.0, 0.0, 0.0, 0.0, 0.0, 0.0, 0.0, 1.700944851315688E9, 0.0, 2023-11-25 15:40:51.315
45.0, 71393.57285422955, 82422.92939697855, -17747.59802193618, -16878.852770191763, -10028.534833018164, -5809.866584523509, -19405.717480864227, 187500.0, -0.06, 0.988, 0.044, 192.0, 0.0, 0.0, 0.0, 0.0, 0.0, 0.0, 0.0, 0.0, 0.0, 1.700944851319722E9, 0.0, 2023-11-25 15:40:51.319
46.0, 71401.5077235112, 82442.3083594213, -17859.20028200153, -17041.95344948214, -10439.605765295717, -6031.640593009066, -19386.27146318811, 187500.0, -0.06, 0.988, 0.044, 192.0, 0.0, 0.0, 0.0, 0.0, 0.0, 0.0, 0.0, 0.0, 0.0, 1.700944851322841E9, 0.0, 2023-11-25 15:40:51.322
47.0, 71430.5649913031, 82407.77491423785, -17055.476254877598, -16329.782167647145, -9390.347825330236, -5502.70891221868, -19300.77604064656, 187500.0, -0.06, 0.988, 0.044, 192.0, 0.0, 0.0, 0.0, 0.0, 0.0, 0.0, 0.0, 0.0, 0.0, 1.700944851327668E9, 0.0, 2023-11-25 15:40:51.327
48.0, 71426.42991857885, 82391.23462334092, -17206.864620073393, -16520.777824017743, -9355.009717346396, -5622.268393310117, -19372.50278860364, 187500.0, -0.06, 0.988, 0.044, 192.0, 0.0, 0.0, 0.0, 0.0, 0.0, 0.0, 0.0, 0.0, 0.0, 1.700944851331756E9, 0.0, 2023-11-25 15:40:51.331
49.0, 71401.82064793356, 82415.7544870084, -17648.512738765807, -16819.777109596387, -9891.608046484953, -5771.0416044046415, -19394.74277433667, 187500.0, -0.06, 0.988, 0.044, 192.0, 0.0, 0.0, 0.0, 0.0, 0.0, 0.0, 0.0, 0.0, 0.0, 1.700944851336419E9, 0.0, 2023-11-25 15:40:51.336
50.0, 71397.46205776479, 82442.57658035477, -17937.16316666164, -17080.174932500715, -10482.096431505255, -6045.744543760365, -19410.634864644395, 187500.0, -0.06, 0.984, 0.048, 192.0, 254.0, 32.0, 30.0, 192.0, 1.0, 128.0, 0.0, 0.0, 0.0, 1.700944851339755E9, 0.0, 2023-11-25 15:40:51.339
51.0, 71421.28901735414, 82411.57471079525, -17157.06493342697, -16433.382503197492, -9558.857626778798, -5587.0196923040985, -19304.955816859703, 187500.0, -0.06, 0.984, 0.048, 192.0, 0.0, 0.0, 0.0, 0.0, 0.0, 0.0, 0.0, 0.0, 0.0, 1.700944851343827E9, 0.0, 2023-11-25 15:40:51.343
52.0, 71413.66707249488, 82383.63503022613, -17139.407055307278, -16412.975360509798, -9267.234416870406, -5544.037287716543, -19368.635936812872, 187500.0, -0.06, 0.984, 0.048, 192.0, 0.0, 0.0, 0.0, 0.0, 0.0, 0.0, 0.0, 0.0, 0.0, 1.700944851347755E9, 0.0, 2023-11-25 15:40:51.347
53.0, 71391.94117688431, 82403.19280662452, -17569.834598283123, -16746.083408127237, -9766.482981024144, -5720.057275302086, -19394.69807084776, 187500.0, -0.06, 0.984, 0.048, 192.0, 0.0, 0.0, 0.0, 0.0, 0.0, 0.0, 0.0, 0.0, 0.0, 1.700944851350845E9, 0.0, 2023-11-25 15:40:51.350
54.0, 71391.13651408393, 82439.44733613102, -17977.575120636837, -17068.864949806328, -10473.513361634417, -6017.00020039084, -19428.203335786264, 187500.0, -0.06, 0.984, 0.048, 192.0, 0.0, 0.0, 0.0, 0.0, 0.0, 0.0, 0.0, 0.0, 0.0, 1.700944851354806E9, 0.0, 2023-11-25 15:40:51.354
55.0, 71418.78562197514, 82416.17917015305, -17292.225932148212, -16562.329716960157, -9772.406193304801, -5689.725958076234, -19322.948971146223, 187500.0, -0.06, 0.984, 0.048, 192.0, 0.0, 0.0, 0.0, 0.0, 0.0, 0.0, 0.0, 0.0, 0.0, 1.700944851359744E9, 0.0, 2023-11-25 15:40:51.359
56.0, 71424.61942727798, 82388.06067562827, -17074.072906264413, -16347.462397511292, -9224.654343683045, -5501.188993595719, -19370.558186836028, 187500.0, -0.06, 0.984, 0.048, 192.0, 0.0, 0.0, 0.0, 0.0, 0.0, 0.0, 0.0, 0.0, 0.0, 1.700944851363727E9, 0.0, 2023-11-25 15:40:51.363
57.0, 71397.90909265389, 82393.46979778646, -17482.41692571842, -16711.50525945488, -9666.324814119913, -5708.009685040675, -19400.151896494855, 187500.0, -0.06, 0.984, 0.048, 192.0, 0.0, 0.0, 0.0, 0.0, 0.0, 0.0, 0.0, 0.0, 0.0, 1.700944851367751E9, 0.0, 2023-11-25 15:40:51.367
58.0, 71394.3998687744, 82436.31809190728, -17965.236957697507, -17037.818376757907, -10404.781747434348, -5971.581455657656, -19446.64352496189, 187500.0, -0.06, 0.984, 0.048, 192.0, 0.0, 0.0, 0.0, 0.0, 0.0, 0.0, 0.0, 0.0, 0.0, 1.700944851371873E9, 0.0, 2023-11-25 15:40:51.371
59.0, 71424.5076685557, 82426.14804818011, -17450.565689869607, -16717.249657779892, -9992.92850410086, -5815.856852037532, -19339.310448087508, 187500.0, -0.06, 0.984, 0.048, 192.0, 0.0, 0.0, 0.0, 0.0, 0.0, 0.0, 0.0, 0.0, 0.0, 1.700944851374845E9, 0.0, 2023-11-25 15:40:51.374
60.0, 71428.59803779102, 82383.36680929265, -17018.97585618208, -16276.69677456579, -9190.523229899793, -5461.805219865468, -19355.291945373054, 187500.0, -0.064, 0.976, 0.042, 192.0, 254.0, 0.0, 30.0, 128.0, 1.0, 80.0, 0.0, 0.0, 0.0, 1.700944851378842E9, 0.0, 2023-11-25 15:40:51.378
61.0, 71407.49799102522, 82388.12773086164, -17413.59590454053, -16668.411096145046, -9576.582560131856, -5703.025246027141, -19397.64850111586, 187500.0, -0.064, 0.976, 0.042, 192.0, 0.0, 0.0, 0.0, 0.0, 0.0, 0.0, 0.0, 0.0, 0.0, 1.700944851382867E9, 0.0, 2023-11-25 15:40:51.382
62.0, 71398.356127543, 82430.14901043761, -17915.057291395344, -16989.270387800978, -10294.766461225327, -5929.135492937028, -19440.742664425692, 187500.0, -0.064, 0.976, 0.042, 192.0, 0.0, 0.0, 0.0, 0.0, 0.0, 0.0, 0.0, 0.0, 0.0, 1.700944851387883E9, 0.0, 2023-11-25 15:40:51.387
63.0, 71414.38232831744, 82423.66700454557, -17623.05410183121, -16854.489368735478, -10200.263285668289, -5930.118969693061, -19378.113076461923, 187500.0, -0.064, 0.976, 0.042, 192.0, 0.0, 0.0, 0.0, 0.0, 0.0, 0.0, 0.0, 0.0, 0.0, 1.700944851391796E9, 0.0, 2023-11-25 15:40:51.391
64.0, 71442.83609900906, 82400.22002461196, -17007.21883859859, -16270.639451818402, -9232.052771097753, -5470.343586247395, -19354.867262228403, 187500.0, -0.064, 0.976, 0.042, 192.0, 0.0, 0.0, 0.0, 0.0, 0.0, 0.0, 0.0, 0.0, 0.0, 1.700944851395994E9, 0.0, 2023-11-25 15:40:51.395
65.0, 71415.2540463512, 82391.83812044121, -17337.488214670208, -16638.392703341568, -9502.240658073504, -5701.7959000821, -19395.63684411488, 187500.0, -0.064, 0.976, 0.042, 192.0, 0.0, 0.0, 0.0, 0.0, 0.0, 0.0, 0.0, 0.0, 0.0, 1.700944851400326E9, 0.0, 2023-11-25 15:40:51.400
66.0, 71391.36003152849, 82420.4036498551, -17831.707636321502, -16923.15392770218, -10153.883415923527, -5867.77995440721, -19432.09253932149, 187500.0, -0.064, 0.976, 0.042, 192.0, 0.0, 0.0, 0.0, 0.0, 0.0, 0.0, 0.0, 0.0, 0.0, 1.700944851402892E9, 0.0, 2023-11-25 15:40:51.402
67.0, 71404.74872645721, 82425.99158596892, -17765.501769244882, -16964.951689833604, -10350.712877596961, -6002.717435683899, -19393.669890602814, 187500.0, -0.064, 0.976, 0.042, 192.0, 0.0, 0.0, 0.0, 0.0, 0.0, 0.0, 0.0, 0.0, 0.0, 1.700944851406917E9, 0.0, 2023-11-25 15:40:51.406
68.0, 71433.7612907602, 82392.24045184141, -17019.154670137726, -16275.758001298667, -9289.69792004799, -5471.304711258974, -19337.477605042175, 187500.0, -0.064, 0.976, 0.042, 192.0, 0.0, 0.0, 0.0, 0.0, 0.0, 0.0, 0.0, 0.0, 0.0, 1.700944851410922E9, 0.0, 2023-11-25 15:40:51.410
69.0, 71414.4046800619, 82377.08596910072, -17273.673984250305, -16570.957490319906, -9418.376912877193, -5659.729917017212, -19394.519256892116, 187500.0, -0.064, 0.976, 0.042, 192.0, 0.0, 0.0, 0.0, 0.0, 0.0, 0.0, 0.0, 0.0, 0.0, 1.700944851415955E9, 0.0, 2023-11-25 15:40:51.415
70.0, 71386.88968263743, 82405.42798107004, -17740.64662941058, -16842.5758889408, -10004.55141121762, -5798.020159962197, -19417.541553681083, 187500.0, -0.066, 0.978, 0.044, 192.0, 253.0, 240.0, 30.0, 144.0, 1.0, 96.0, 0.0, 0.0, 0.0, 1.700944851420038E9, 0.0, 2023-11-25 15:40:51.420
71.0, 71400.94892989981, 82430.39487962662, -17888.414012004618, -17039.382998869776, -10459.096486460745, -6045.565729804723, -19399.906027305846, 187500.0, -0.066, 0.978, 0.044, 192.0, 0.0, 0.0, 0.0, 0.0, 0.0, 0.0, 0.0, 0.0, 0.0, 1.70094485142391E9, 0.0, 2023-11-25 15:40:51.423
72.0, 71435.08004368306, 82388.66417272856, -17078.543255155477, -16336.018304350175, -9415.404130864636, -5521.327915349951, -19307.10158432741, 187500.0, -0.066, 0.978, 0.044, 192.0, 0.0, 0.0, 0.0, 0.0, 0.0, 0.0, 0.0, 0.0, 0.0, 1.70094485142793E9, 0.0, 2023-11-25 15:40:51.427
73.0, 71427.12282265698, 82366.26772478435, -17199.622654869872, -16482.31047181016, -9329.618135645167, -5600.609552932925, -19372.480436859183, 187500.0, -0.066, 0.978, 0.044, 192.0, 0.0, 0.0, 0.0, 0.0, 0.0, 0.0, 0.0, 0.0, 0.0, 1.700944851431042E9, 0.0, 2023-11-25 15:40:51.431
74.0, 71399.76428744367, 82392.57572800825, -17644.377666041575, -16784.975443479474, -9867.490514217678, -5752.6684704623785, -19399.570751139017, 187500.0, -0.066, 0.978, 0.044, 192.0, 0.0, 0.0, 0.0, 0.0, 0.0, 0.0, 0.0, 0.0, 0.0, 1.700944851434946E9, 0.0, 2023-11-25 15:40:51.434
75.0, 71408.10148812551, 82435.71459480698, -17950.26128891245, -17071.32364169641, -10491.1265362652, -6047.443276338969, -19416.066338547033, 187500.0, -0.066, 0.978, 0.044, 192.0, 0.0, 0.0, 0.0, 0.0, 0.0, 0.0, 0.0, 0.0, 0.0, 1.700944851438965E9, 0.0, 2023-11-25 15:40:51.438
76.0, 71441.29382864163, 82411.68646951753, -17173.694631301718, -16451.755637139755, -9591.915856828196, -5613.39475076136, -19312.041319852033, 187500.0, -0.066, 0.978, 0.044, 192.0, 0.0, 0.0, 0.0, 0.0, 0.0, 0.0, 0.0, 0.0, 0.0, 1.700944851442926E9, 0.0, 2023-11-25 15:40:51.442
77.0, 71430.5649913031, 82374.80609116628, -17130.39930229179, -16414.45057564385, -9267.770858737333, -5560.599930357925, -19385.064468987523, 187500.0, -0.066, 0.978, 0.044, 192.0, 0.0, 0.0, 0.0, 0.0, 0.0, 0.0, 0.0, 0.0, 0.0, 1.700944851448001E9, 0.0, 2023-11-25 15:40:51.448
78.0, 71411.67776723836, 82395.59321350971, -17550.52269107374, -16744.295268570815, -9745.74056216962, -5731.389609740926, -19408.869076832423, 187500.0, -0.066, 0.978, 0.044, 192.0, 0.0, 0.0, 0.0, 0.0, 0.0, 0.0, 0.0, 0.0, 0.0, 1.700944851452886E9, 0.0, 2023-11-25 15:40:51.452
79.0, 71406.71567996927, 82429.4561063595, -17972.07659150083, -17065.087504993382, -10454.626137569683, -6019.838871936664, -19447.068208106542, 187500.0, -0.062, 0.98, 0.044, 192.0, 254.0, 16.0, 30.0, 160.0, 1.0, 96.0, 0.0, 0.0, 0.0, 1.700944851456004E9, 0.0, 2023-11-25 15:40:51.456
80.0, 71431.2131918923, 82405.78560898133, -17316.56698186004, -16588.503609717325, -9796.680187783264, -5720.079627046541, -19340.718607988194, 187500.0, -0.062, 0.98, 0.044, 192.0, 0.0, 0.0, 0.0, 0.0, 0.0, 0.0, 0.0, 0.0, 0.0, 1.700944851459006E9, 0.0, 2023-11-25 15:40:51.459
81.0, 71431.34730235902, 82375.58840222222, -17062.986441014582, -16340.488653241237, -9209.67867489799, -5506.151080864797, -19371.295794403053, 187500.0, -0.062, 0.98, 0.044, 192.0, 0.0, 0.0, 0.0, 0.0, 0.0, 0.0, 0.0, 0.0, 0.0, 1.700944851462993E9, 0.0, 2023-11-25 15:40:51.462
82.0, 71408.7049852258, 82382.0480563698, -17465.764876099216, -16714.455689722978, -9644.733028976087, -5724.997010826709, -19391.233550457186, 187500.0, -0.062, 0.98, 0.044, 192.0, 0.0, 0.0, 0.0, 0.0, 0.0, 0.0, 0.0, 0.0, 0.0, 1.700944851467016E9, 0.0, 2023-11-25 15:40:51.467
83.0, 71408.86144743698, 82428.83025751475, -17940.27005914093, -17034.309152878424, -10372.975215074446, -5977.549371427223, -19427.89041136389, 187500.0, -0.062, 0.98, 0.044, 192.0, 0.0, 0.0, 0.0, 0.0, 0.0, 0.0, 0.0, 0.0, 0.0, 1.700944851471018E9, 0.0, 2023-11-25 15:40:51.471
84.0, 71437.42697685087, 82419.71074577699, -17460.8698440635, -16732.761768431876, -10003.679693183863, -5834.6770208689, -19336.15885211931, 187500.0, -0.062, 0.98, 0.044, 192.0, 0.0, 0.0, 0.0, 0.0, 0.0, 0.0, 0.0, 0.0, 0.0, 1.700944851476093E9, 0.0, 2023-11-25 15:40:51.476
85.0, 71453.47552936978, 82388.32889656174, -17001.87677167377, -16267.063172705553, -9175.256988436817, -5458.228940752619, -19343.065541156, 187500.0, -0.062, 0.98, 0.044, 192.0, 0.0, 0.0, 0.0, 0.0, 0.0, 0.0, 0.0, 0.0, 0.0, 1.700944851480106E9, 0.0, 2023-11-25 15:40:51.480
86.0, 71432.21902039279, 82387.77010295035, -17386.5055902607, -16653.10015119316, -9541.535024825935, -5693.212830211262, -19383.455143386742, 187500.0, -0.062, 0.98, 0.044, 192.0, 0.0, 0.0, 0.0, 0.0, 0.0, 0.0, 0.0, 0.0, 0.0, 1.700944851484076E9, 0.0, 2023-11-25 15:40:51.484
87.0, 71413.91294168388, 82419.73309752144, -17896.05830860833, -16963.610585166287, -10249.325364747687, -5904.727387991833, -19433.99243760019, 187500.0, -0.062, 0.98, 0.044, 192.0, 0.0, 0.0, 0.0, 0.0, 0.0, 0.0, 0.0, 0.0, 0.0, 1.700944851487057E9, 0.0, 2023-11-25 15:40:51.487
88.0, 71428.57568604656, 82412.24526312892, -17633.067683347188, -16865.106447351747, -10198.25162866731, -5931.88475750503, -19366.73603853417, 187500.0, -0.062, 0.98, 0.044, 192.0, 0.0, 0.0, 0.0, 0.0, 0.0, 0.0, 0.0, 0.0, 0.0, 1.70094485149108E9, 0.0, 2023-11-25 15:40:51.491
89.0, 71442.8137472646, 82371.16275682006, -17001.765012951495, -16244.040875916586, -9201.542639916259, -5439.36406843234, -19343.49022430065, 187500.0, -0.052000000000000005, 0.978, 0.042, 192.0, 254.0, 96.0, 30.0, 144.0, 1.0, 80.0, 0.0, 0.0, 0.0, 1.700944851495116E9, 0.0, 2023-11-25 15:40:51.495
90.0, 71432.55429655961, 82379.63406796863, -17333.263734968154, -16613.984598396375, -9466.097887289274, -5675.912580002854, -19388.596044611462, 187500.0, -0.052000000000000005, 0.978, 0.042, 192.0, 0.0, 0.0, 0.0, 0.0, 0.0, 0.0, 0.0, 0.0, 0.0, 1.700944851499082E9, 0.0, 2023-11-25 15:40:51.499
91.0, 71410.42606954886, 82413.40755384059, -17816.821374514268, -16895.460116322054, -10104.910743821949, -5836.241642980772, -19419.486155448696, 187500.0, -0.052000000000000005, 0.978, 0.042, 192.0, 0.0, 0.0, 0.0, 0.0, 0.0, 0.0, 0.0, 0.0, 0.0, 1.700944851503129E9, 0.0, 2023-11-25 15:40:51.503
92.0, 71427.30163661261, 82423.97992896795, -17777.03526938382, -16971.366640492277, -10344.789665316304, -6000.795185660742, -19377.151951450345, 187500.0, -0.052000000000000005, 0.978, 0.042, 192.0, 0.0, 0.0, 0.0, 0.0, 0.0, 0.0, 0.0, 0.0, 0.0, 1.700944851508131E9, 0.0, 2023-11-25 15:40:51.508
93.0, 71448.49109035624, 82380.21521332445, -17015.332521835866, -16272.919329752844, -9277.449164086482, -5464.353318733373, -19311.81780240748, 187500.0, -0.052000000000000005, 0.978, 0.042, 192.0, 0.0, 0.0, 0.0, 0.0, 0.0, 0.0, 0.0, 0.0, 0.0, 1.70094485151122E9, 0.0, 2023-11-25 15:40:51.511
94.0, 71436.75642451721, 82371.63214345362, -17256.686658464274, -16541.90022252801, -9379.261360080405, -5635.724143472212, -19378.247186928653, 187500.0, -0.052000000000000005, 0.978, 0.042, 192.0, 0.0, 0.0, 0.0, 0.0, 0.0, 0.0, 0.0, 0.0, 0.0, 1.700944851515139E9, 0.0, 2023-11-25 15:40:51.515
95.0, 71415.74578472922, 82407.19376888202, -17720.775928589814, -16827.086130033273, -9965.145285742914, -5785.369072600493, -19409.718443121725, 187500.0, -0.052000000000000005, 0.978, 0.042, 192.0, 0.0, 0.0, 0.0, 0.0, 0.0, 0.0, 0.0, 0.0, 0.0, 1.700944851519278E9, 0.0, 2023-11-25 15:40:51.519
96.0, 71418.91973244188, 82426.84095225822, -17887.363480015218, -17026.709559763618, -10438.39877109513, -6036.490921555868, -19402.163553495833, 187500.0, -0.052000000000000005, 0.978, 0.042, 192.0, 0.0, 0.0, 0.0, 0.0, 0.0, 0.0, 0.0, 0.0, 0.0, 1.700944851523133E9, 0.0, 2023-11-25 15:40:51.523
97.0, 71449.89925025693, 82392.5533762638, -17084.15354301376, -16329.871574624965, -9413.794805263855, -5521.819653727967, -19310.72256692917, 187500.0, -0.052000000000000005, 0.978, 0.042, 192.0, 0.0, 0.0, 0.0, 0.0, 0.0, 0.0, 0.0, 0.0, 0.0, 1.700944851527166E9, 0.0, 2023-11-25 15:40:51.527
98.0, 71445.09362519904, 82374.40375976608, -17190.324329176467, -16465.25609079076, -9308.629847601635, -5592.719387140201, -19376.012012483123, 187500.0, -0.052000000000000005, 0.978, 0.042, 192.0, 0.0, 0.0, 0.0, 0.0, 0.0, 0.0, 0.0, 0.0, 0.0, 1.70094485153118E9, 0.0, 2023-11-25 15:40:51.531
99.0, 71426.09464241203, 82401.49407404591, -17630.027846101268, -16779.633376554655, -9841.115455760415, -5755.6636042193895, -19398.49786740516, 187500.0, -0.062, 0.982, 0.05, 192.0, 254.0, 16.0, 30.0, 176.0, 1.0, 144.0, 0.0, 0.0, 0.0, 1.700944851536242E9, 0.0, 2023-11-25 15:40:51.536
100.0, 71423.7030057553, 82431.66892906057, -17955.89392851519, -17077.738592355086, -10481.60469312724, -6059.334404389192, -19422.302475250064, 187500.0, -0.062, 0.982, 0.05, 192.0, 0.0, 0.0, 0.0, 0.0, 0.0, 0.0, 0.0, 0.0, 0.0, 1.700944851539409E9, 0.0, 2023-11-25 15:40:51.539
101.0, 71450.32393340158, 82398.96832692246, -17190.860771043393, -16465.16668381294, -9608.545554702945, -5632.773713204112, -19322.92661940177, 187500.0, -0.062, 0.982, 0.05, 192.0, 0.0, 0.0, 0.0, 0.0, 0.0, 0.0, 0.0, 0.0, 0.0, 1.700944851543269E9, 0.0, 2023-11-25 15:40:51.543
102.0, 71449.78749153465, 82373.10735858767, -17116.898848640783, -16403.29705516065, -9249.867111428632, -5556.800133800523, -19379.007146240136, 187500.0, -0.062, 0.982, 0.05, 192.0, 0.0, 0.0, 0.0, 0.0, 0.0, 0.0, 0.0, 0.0, 0.0, 1.700944851547306E9, 0.0, 2023-11-25 15:40:51.547
103.0, 71416.14811612942, 82377.8459284122, -17539.43622582391, -16739.377884790647, -9730.4966724511, -5733.825949886555, -19409.60668439945, 187500.0, -0.062, 0.982, 0.05, 192.0, 0.0, 0.0, 0.0, 0.0, 0.0, 0.0, 0.0, 0.0, 0.0, 1.700944851551281E9, 0.0, 2023-11-25 15:40:51.551
104.0, 71419.03149116415, 82424.91870223507, -17970.713135089056, -17061.734743325083, -10449.038201455856, -6016.687275968466, -19447.738760440203, 187500.0, -0.062, 0.982, 0.05, 192.0, 0.0, 0.0, 0.0, 0.0, 0.0, 0.0, 0.0, 0.0, 0.0, 1.700944851555273E9, 0.0, 2023-11-25 15:40:51.555
105.0, 71453.22966018078, 82407.05965841528, -17324.81477556405, -16610.7212437059, -9823.815205552008, -5739.235072044739, -19332.671979984283, 187500.0, -0.062, 0.982, 0.05, 192.0, 0.0, 0.0, 0.0, 0.0, 0.0, 0.0, 0.0, 0.0, 0.0, 1.700944851559283E9, 0.0, 2023-11-25 15:40:51.559
106.0, 71452.08972121355, 82367.5417742183, -17045.060341961427, -16321.735539643234, -9195.753538102334, -5497.143327849309, -19369.21708216871, 187500.0, -0.062, 0.982, 0.05, 192.0, 0.0, 0.0, 0.0, 0.0, 0.0, 0.0, 0.0, 0.0, 0.0, 1.700944851564342E9, 0.0, 2023-11-25 15:40:51.564
107.0, 71418.2044766193, 82373.91202138807, -17448.10699797952, -16680.39163117309, -9615.519298973, -5703.092301260508, -19401.60475988445, 187500.0, -0.062, 0.982, 0.05, 192.0, 0.0, 0.0, 0.0, 0.0, 0.0, 0.0, 0.0, 0.0, 0.0, 1.700944851567351E9, 0.0, 2023-11-25 15:40:51.567
108.0, 71408.30265382561, 82419.73309752144, -17939.331285873806, -17004.000187397025, -10353.260976464866, -5953.342432182126, -19447.13526333991, 187500.0, -0.062, 0.982, 0.05, 192.0, 0.0, 0.0, 0.0, 0.0, 0.0, 0.0, 0.0, 0.0, 0.0, 1.700944851571333E9, 0.0, 2023-11-25 15:40:51.571
109.0, 71439.79626176313, 82412.6475945291, -17482.46162920733, -16739.64610572411, -10031.03822839716, -5841.382544205492, -19348.02762842508, 187500.0, -0.058, 0.99, 0.05, 192.0, 254.0, 48.0, 30.0, 240.0, 1.0, 144.0, 0.0, 0.0, 0.0, 1.700944851575353E9, 0.0, 2023-11-25 15:40:51.575
110.0, 71450.50274735723, 82376.25895455587, -16991.147934335226, -16252.26631787614, -9175.502857625826, -5446.114295257842, -19346.93239294677, 187500.0, -0.058, 0.99, 0.05, 192.0, 0.0, 0.0, 0.0, 0.0, 0.0, 0.0, 0.0, 0.0, 0.0, 1.700944851579456E9, 0.0, 2023-11-25 15:40:51.579
111.0, 71424.01593017769, 82369.93341087502, -17368.981822607737, -16646.551090067755, -9538.226966646549, -5689.547144120592, -19386.427925399297, 187500.0, -0.058, 0.99, 0.05, 192.0, 0.0, 0.0, 0.0, 0.0, 0.0, 0.0, 0.0, 0.0, 0.0, 1.700944851583351E9, 0.0, 2023-11-25 15:40:51.583
112.0, 71408.7049852258, 82408.95955669398, -17867.58218617227, -16960.079009542347, -10244.184463522966, -5897.820698955143, -19427.55513519706, 187500.0, -0.058, 0.99, 0.05, 192.0, 0.0, 0.0, 0.0, 0.0, 0.0, 0.0, 0.0, 0.0, 0.0, 1.700944851587401E9, 0.0, 2023-11-25 15:40:51.587
113.0, 71427.74867150171, 82411.37354509515, -17626.742139666338, -16886.13943888419, -10235.2661174853, -5945.452266389402, -19354.77785525058, 187500.0, -0.058, 0.99, 0.05, 192.0, 0.0, 0.0, 0.0, 0.0, 0.0, 0.0, 0.0, 0.0, 0.0, 1.700944851592341E9, 0.0, 2023-11-25 15:40:51.592
114.0, 71447.10528220002, 82371.45332949798, -16962.113018287782, -16237.491814791181, -9215.065445311719, -5434.066704996432, -19318.322160043976, 187500.0, -0.058, 0.99, 0.05, 192.0, 0.0, 0.0, 0.0, 0.0, 0.0, 0.0, 0.0, 0.0, 0.0, 1.700944851595419E9, 0.0, 2023-11-25 15:40:51.595
115.0, 71430.83321223655, 82367.87705038513, -17276.445600562765, -16590.917598118496, -9457.514817418434, -5659.3946408503825, -19363.249166399142, 187500.0, -0.058, 0.99, 0.05, 192.0, 0.0, 0.0, 0.0, 0.0, 0.0, 0.0, 0.0, 0.0, 0.0, 1.700944851598411E9, 0.0, 2023-11-25 15:40:51.598
116.0, 71421.26666560968, 82417.72144052046, -17752.51540571635, -16885.804162717362, -10102.85438333206, -5823.210575963328, -19383.231625942186, 187500.0, -0.058, 0.99, 0.05, 192.0, 0.0, 0.0, 0.0, 0.0, 0.0, 0.0, 0.0, 0.0, 0.0, 1.700944851603508E9, 0.0, 2023-11-25 15:40:51.603
117.0, 71433.04603493762, 82425.03046095735, -17734.097568285175, -16983.101306331315, -10378.317281999265, -5997.889458881553, -19346.910041202314, 187500.0, -0.058, 0.99, 0.05, 192.0, 0.0, 0.0, 0.0, 0.0, 0.0, 0.0, 0.0, 0.0, 0.0, 1.700944851607527E9, 0.0, 2023-11-25 15:40:51.607
118.0, 71455.97892474878, 82387.88186167263, -16955.563957162376, -16278.015527488653, -9303.287780676816, -5456.306690729462, -19279.117200269367, 187500.0, -0.058, 0.99, 0.05, 192.0, 0.0, 0.0, 0.0, 0.0, 0.0, 0.0, 0.0, 0.0, 0.0, 1.700944851611498E9, 0.0, 2023-11-25 15:40:51.611
119.0, 71437.94106697335, 82376.54952723379, -17170.185407422236, -16531.506661356292, -9374.120458855685, -5613.774730417101, -19337.187032364254, 187500.0, -0.056, 0.988, 0.056, 192.0, 254.0, 64.0, 30.0, 224.0, 1.0, 192.0, 0.0, 0.0, 0.0, 1.700944851615645E9, 0.0, 2023-11-25 15:40:51.615
120.0, 71423.94887494433, 82411.39589683962, -17628.127947822566, -16821.945228808552, -9955.77990481614, -5764.783115957155, -19363.427980354783, 187500.0, -0.056, 0.988, 0.056, 192.0, 0.0, 0.0, 0.0, 0.0, 0.0, 0.0, 0.0, 0.0, 0.0, 1.70094485161947E9, 0.0, 2023-11-25 15:40:51.619
121.0, 71431.36965410349, 82434.7087663065, -17814.876772746655, -17055.543310110967, -10467.299576675841, -6044.045811181762, -19362.109227431924, 187500.0, -0.056, 0.988, 0.056, 192.0, 0.0, 0.0, 0.0, 0.0, 0.0, 0.0, 0.0, 0.0, 0.0, 1.700944851623492E9, 0.0, 2023-11-25 15:40:51.623
122.0, 71460.67279108439, 82398.78951296682, -17005.60951299781, -16356.47015052678, -9448.372953936214, -5528.167549153274, -19266.354354185387, 187500.0, -0.056, 0.988, 0.056, 192.0, 0.0, 0.0, 0.0, 0.0, 0.0, 0.0, 0.0, 0.0, 0.0, 1.700944851626579E9, 0.0, 2023-11-25 15:40:51.626
123.0, 71450.74861654623, 82373.68850394351, -17097.564589686943, -16461.523349466723, -9312.474347647947, -5577.654311377324, -19336.941163175245, 187500.0, -0.056, 0.988, 0.056, 192.0, 0.0, 0.0, 0.0, 0.0, 0.0, 0.0, 0.0, 0.0, 0.0, 1.700944851631534E9, 0.0, 2023-11-25 15:40:51.631
124.0, 71425.46879356728, 82395.39204780961, -17537.268106611744, -16767.921062460075, -9834.544042890555, -5732.060162074586, -19361.684544287273, 187500.0, -0.056, 0.988, 0.056, 192.0, 0.0, 0.0, 0.0, 0.0, 0.0, 0.0, 0.0, 0.0, 0.0, 1.700944851635725E9, 0.0, 2023-11-25 15:40:51.635
125.0, 71428.44157557984, 82433.27825466136, -17878.623947933193, -17069.244929462067, -10490.053652531346, -6033.115808143117, -19383.9245300203, 187500.0, -0.056, 0.988, 0.056, 192.0, 0.0, 0.0, 0.0, 0.0, 0.0, 0.0, 0.0, 0.0, 0.0, 1.700944851639639E9, 0.0, 2023-11-25 15:40:51.639
126.0, 71460.04694223964, 82412.69229801802, -17125.23604932261, -16469.59232921509, -9638.34043006187, -5617.082788596486, -19274.937424056225, 187500.0, -0.056, 0.988, 0.056, 192.0, 0.0, 0.0, 0.0, 0.0, 0.0, 0.0, 0.0, 0.0, 0.0, 1.700944851643517E9, 0.0, 2023-11-25 15:40:51.643
127.0, 71458.83994803905, 82379.63406796863, -17028.18477489767, -16373.680993757367, -9241.105227602153, -5515.225889113652, -19326.860526425902, 187500.0, -0.056, 0.988, 0.056, 192.0, 0.0, 0.0, 0.0, 0.0, 0.0, 0.0, 0.0, 0.0, 0.0, 1.700944851647571E9, 0.0, 2023-11-25 15:40:51.647
128.0, 71421.73605224324, 82373.30852428777, -17450.78920731416, -16714.008654833873, -9721.667733391254, -5698.152565735885, -19354.97902095068, 187500.0, -0.056, 0.988, 0.056, 192.0, 0.0, 0.0, 0.0, 0.0, 0.0, 0.0, 0.0, 0.0, 0.0, 1.700944851651496E9, 0.0, 2023-11-25 15:40:51.651
129.0, 71417.66803475238, 82417.43086784254, -17889.39748876065, -17048.971897241103, -10457.174236437588, -5992.770909401287, -19388.1266579779, 187500.0, -0.062, 0.98, 0.05, 192.0, 254.0, 16.0, 30.0, 160.0, 1.0, 144.0, 0.0, 0.0, 0.0, 1.70094485165453E9, 0.0, 2023-11-25 15:40:51.654
130.0, 71448.04405546714, 82400.91292869007, -17268.197806858756, -16609.29073206076, -9860.717935647719, -5726.785150383133, -19281.888816581824, 187500.0, -0.062, 0.98, 0.05, 192.0, 0.0, 0.0, 0.0, 0.0, 0.0, 0.0, 0.0, 0.0, 0.0, 1.700944851658543E9, 0.0, 2023-11-25 15:40:51.658
131.0, 71463.89144228595, 82380.12580634664, -16974.048849826915, -16309.978522059742, -9209.566916175714, -5470.611807180859, -19309.58262796195, 187500.0, -0.062, 0.98, 0.05, 192.0, 0.0, 0.0, 0.0, 0.0, 0.0, 0.0, 0.0, 0.0, 0.0, 1.700944851663623E9, 0.0, 2023-11-25 15:40:51.663
132.0, 71428.08394766855, 82371.29686728679, -17381.655261713895, -16702.87748609513, -9639.927403918196, -5705.103958261485, -19345.814805724003, 187500.0, -0.062, 0.98, 0.05, 192.0, 0.0, 0.0, 0.0, 0.0, 0.0, 0.0, 0.0, 0.0, 0.0, 1.700944851667576E9, 0.0, 2023-11-25 15:40:51.667
133.0, 71417.31040684109, 82408.28900436033, -17872.365459485707, -17018.104138148326, -10370.561226673273, -5947.933310023941, -19394.40749816984, 187500.0, -0.062, 0.98, 0.05, 192.0, 0.0, 0.0, 0.0, 0.0, 0.0, 0.0, 0.0, 0.0, 0.0, 1.70094485167161E9, 0.0, 2023-11-25 15:40:51.671
134.0, 71449.45221536783, 82405.45033281451, -17445.536547367163, -16780.616853310687, -10092.2820082047, -5864.583654950101, -19300.083136568446, 187500.0, -0.062, 0.98, 0.05, 192.0, 0.0, 0.0, 0.0, 0.0, 0.0, 0.0, 0.0, 0.0, 0.0, 1.700944851675643E9, 0.0, 2023-11-25 15:40:51.675
135.0, 71467.0653899986, 82373.59909696569, -16938.464872654065, -16279.915425767354, -9210.840965609666, -5458.139533774797, -19297.266816767074, 187500.0, -0.062, 0.98, 0.05, 192.0, 0.0, 0.0, 0.0, 0.0, 0.0, 0.0, 0.0, 0.0, 0.0, 1.700944851678651E9, 0.0, 2023-11-25 15:40:51.678
136.0, 71442.16554667539, 82373.30852428777, -17305.838144521495, -16673.887273536595, -9554.186112187637, -5700.521850648147, -19339.489262043153, 187500.0, -0.062, 0.98, 0.05, 192.0, 0.0, 0.0, 0.0, 0.0, 0.0, 0.0, 0.0, 0.0, 0.0, 1.700944851682589E9, 0.0, 2023-11-25 15:40:51.682
137.0, 71422.96539818829, 82411.03826892833, -17802.873885974157, -16975.278195771956, -10249.437123469965, -5901.799309468188, -19383.477495131196, 187500.0, -0.062, 0.98, 0.05, 192.0, 0.0, 0.0, 0.0, 0.0, 0.0, 0.0, 0.0, 0.0, 0.0, 1.700944851686618E9, 0.0, 2023-11-25 15:40:51.686
138.0, 71443.23843040926, 82418.16847540958, -17593.795668339215, -16908.290017639403, -10267.519684734307, -5956.739897339332, -19318.791546677538, 187500.0, -0.062, 0.98, 0.05, 192.0, 0.0, 0.0, 0.0, 0.0, 0.0, 0.0, 0.0, 0.0, 0.0, 1.700944851690644E9, 0.0, 2023-11-25 15:40:51.690
139.0, 71468.78647432166, 82384.12676860414, -16923.310389913368, -16252.936870209798, -9235.182015321496, -5439.609937621348, -19284.548674172005, 187500.0, -0.062, 0.98, 0.054, 192.0, 254.0, 16.0, 30.0, 160.0, 1.0, 176.0, 0.0, 0.0, 0.0, 1.700944851696353E9, 0.0, 2023-11-25 15:40:51.696
140.0, 71449.85454676802, 82380.3940272801, -17236.45832973222, -16602.205229068426, -9465.717907633532, -5664.088507185997, -19341.657381255314, 187500.0, -0.062, 0.98, 0.054, 192.0, 0.0, 0.0, 0.0, 0.0, 0.0, 0.0, 0.0, 0.0, 0.0, 1.700944851700734E9, 0.0, 2023-11-25 15:40:51.700
141.0, 71429.73797675825, 82418.5037515764, -17719.680693111502, -16886.899398195674, -10099.99336004178, -5828.016201021219, -19381.51054161913, 187500.0, -0.062, 0.98, 0.054, 192.0, 0.0, 0.0, 0.0, 0.0, 0.0, 0.0, 0.0, 0.0, 0.0, 1.700944851703671E9, 0.0, 2023-11-25 15:40:51.703
142.0, 71451.79914853563, 82445.88463853415, -17732.018856050832, -17004.760146708508, -10406.860459668691, -6029.405418563535, -19344.831328967968, 187500.0, -0.062, 0.98, 0.054, 192.0, 0.0, 0.0, 0.0, 0.0, 0.0, 0.0, 0.0, 0.0, 0.0, 1.7009448517067E9, 0.0, 2023-11-25 15:40:51.706
143.0, 71470.03817201116, 82402.34344033521, -16950.73598036003, -16286.50919038167, -9321.549155896802, -5480.178353807731, -19273.730429855637, 187500.0, -0.062, 0.98, 0.054, 192.0, 0.0, 0.0, 0.0, 0.0, 0.0, 0.0, 0.0, 0.0, 0.0, 1.700944851710719E9, 0.0, 2023-11-25 15:40:51.710
144.0, 71449.42986362337, 82378.78470167932, -17169.24663415511, -16527.483347354337, -9373.919293155586, -5628.191605590774, -19350.776892993083, 187500.0, -0.062, 0.98, 0.054, 192.0, 0.0, 0.0, 0.0, 0.0, 0.0, 0.0, 0.0, 0.0, 0.0, 1.700944851714803E9, 0.0, 2023-11-25 15:40:51.714
145.0, 71419.32206384208, 82398.52129203336, -17629.82668040117, -16812.4680891595, -9949.387305901922, -5776.115450395996, -19383.79041955357, 187500.0, -0.062, 0.98, 0.054, 192.0, 0.0, 0.0, 0.0, 0.0, 0.0, 0.0, 0.0, 0.0, 0.0, 1.700944851718799E9, 0.0, 2023-11-25 15:40:51.718
146.0, 71428.53098255766, 82427.73502203645, -17849.8125493303, -17060.013659002027, -10492.244123487964, -6063.067145713228, -19392.64171035787, 187500.0, -0.062, 0.98, 0.054, 192.0, 0.0, 0.0, 0.0, 0.0, 0.0, 0.0, 0.0, 0.0, 0.0, 1.700944851723775E9, 0.0, 2023-11-25 15:40:51.723
147.0, 71461.29863992914, 82397.6495739996, -17050.938850753173, -16394.982206223274, -9500.83249817282, -5578.123698010886, -19291.164790530776, 187500.0, -0.062, 0.98, 0.054, 192.0, 0.0, 0.0, 0.0, 0.0, 0.0, 0.0, 0.0, 0.0, 0.0, 1.700944851727814E9, 0.0, 2023-11-25 15:40:51.727
148.0, 71458.70583757233, 82383.18799533701, -17113.501383483577, -16478.085992108106, -9326.399484443604, -5611.874832138399, -19354.64374478385, 187500.0, -0.062, 0.98, 0.054, 192.0, 0.0, 0.0, 0.0, 0.0, 0.0, 0.0, 0.0, 0.0, 0.0, 1.700944851730746E9, 0.0, 2023-11-25 15:40:51.730
149.0, 71427.68161626835, 82396.46493154347, -17550.23211839582, -16785.064850457293, -9838.65676387033, -5770.169886370884, -19385.533855621085, 187500.0, -0.06, 0.984, 0.054, 192.0, 254.0, 32.0, 30.0, 192.0, 1.0, 176.0, 0.0, 0.0, 0.0, 1.700944851734806E9, 0.0, 2023-11-25 15:40:51.734
150.0, 71430.2073633918, 82431.57952208276, -17909.60346574825, -17082.4324586907, -10503.218830015521, -6064.117677702628, -19411.30541697805, 187500.0, -0.06, 0.984, 0.054, 192.0, 0.0, 0.0, 0.0, 0.0, 0.0, 0.0, 0.0, 0.0, 0.0, 1.700944851738814E9, 0.0, 2023-11-25 15:40:51.738
151.0, 71459.77872130618, 82399.3483065782, -17171.548863834007, -16515.16753615946, -9689.056538230961, -5677.164277692352, -19299.546694701516, 187500.0, -0.06, 0.984, 0.054, 192.0, 0.0, 0.0, 0.0, 0.0, 0.0, 0.0, 0.0, 0.0, 0.0, 1.700944851744861E9, 0.0, 2023-11-25 15:40:51.744
152.0, 71459.53285211716, 82372.88384114312, -17049.955373997138, -16399.85488651453, -9260.730059233912, -5556.598968100425, -19348.184090636267, 187500.0, -0.06, 0.984, 0.054, 192.0, 0.0, 0.0, 0.0, 0.0, 0.0, 0.0, 0.0, 0.0, 0.0, 1.70094485174784E9, 0.0, 2023-11-25 15:40:51.747
153.0, 71426.3628633455, 82383.9926581374, -17464.446123176353, -16744.898765671107, -9721.377160713335, -5744.152455824907, -19369.59706182445, 187500.0, -0.06, 0.984, 0.054, 192.0, 0.0, 0.0, 0.0, 0.0, 0.0, 0.0, 0.0, 0.0, 0.0, 1.700944851750887E9, 0.0, 2023-11-25 15:40:51.750
154.0, 71416.14811612942, 82423.19761791201, -17923.886230455188, -17088.355670971356, -10462.985689995969, -6042.771761747809, -19409.092594276975, 187500.0, -0.06, 0.984, 0.054, 192.0, 0.0, 0.0, 0.0, 0.0, 0.0, 0.0, 0.0, 0.0, 0.0, 1.700944851755815E9, 0.0, 2023-11-25 15:40:51.755
155.0, 71447.73113104477, 82407.57374853776, -17320.612647606453, -16678.737602083398, -9904.48265129121, -5801.261162908217, -19296.260988266586, 187500.0, -0.06, 0.984, 0.054, 192.0, 0.0, 0.0, 0.0, 0.0, 0.0, 0.0, 0.0, 0.0, 0.0, 1.700944851759024E9, 0.0, 2023-11-25 15:40:51.759
156.0, 71451.79914853563, 82371.52038473134, -16987.4598965001, -16317.376949474448, -9203.308427728227, -5493.589400480914, -19323.77598569107, 187500.0, -0.06, 0.984, 0.054, 192.0, 0.0, 0.0, 0.0, 0.0, 0.0, 0.0, 0.0, 0.0, 0.0, 1.700944851762915E9, 0.0, 2023-11-25 15:40:51.762
157.0, 71419.858505709, 82378.02474236784, -17392.02647114116, -16686.001919031372, -9617.352142018335, -5707.428539684837, -19362.243337898653, 187500.0, -0.06, 0.984, 0.054, 192.0, 0.0, 0.0, 0.0, 0.0, 0.0, 0.0, 0.0, 0.0, 0.0, 1.700944851766883E9, 0.0, 2023-11-25 15:40:51.766
158.0, 71419.79145047563, 82432.78651628335, -17888.25754979343, -17016.807736969917, -10357.284290466821, -5958.103353751106, -19407.21504774273, 187500.0, -0.06, 0.984, 0.054, 192.0, 0.0, 0.0, 0.0, 0.0, 0.0, 0.0, 0.0, 0.0, 0.0, 1.700944851770872E9, 0.0, 2023-11-25 15:40:51.770
159.0, 71446.05475021062, 82426.5056760914, -17483.51216119673, -16811.104632747727, -10117.137148039003, -5892.948018663886, -19309.604979706404, 187500.0, -0.054, 0.984, 0.058, 192.0, 254.0, 80.0, 30.0, 192.0, 1.0, 208.0, 0.0, 0.0, 0.0, 1.700944851774945E9, 0.0, 2023-11-25 15:40:51.774
160.0, 71457.43178813838, 82389.22296633995, -16945.617430879764, -16275.467428620748, -9205.610657407124, -5459.950025075677, -19294.070517309967, 187500.0, -0.054, 0.984, 0.058, 192.0, 0.0, 0.0, 0.0, 0.0, 0.0, 0.0, 0.0, 0.0, 0.0, 1.700944851778925E9, 0.0, 2023-11-25 15:40:51.778
161.0, 71430.11795641399, 82385.33376280473, -17312.43190913581, -16652.898985493062, -9536.930565468141, -5696.297370946094, -19341.38916032185, 187500.0, -0.054, 0.984, 0.058, 192.0, 0.0, 0.0, 0.0, 0.0, 0.0, 0.0, 0.0, 0.0, 0.0, 1.700944851783967E9, 0.0, 2023-11-25 15:40:51.783
162.0, 71411.72247072727, 82420.448353344, -17817.11194719219, -16950.244241982015, -10229.07468427118, -5892.389225052503, -19393.871056302913, 187500.0, -0.054, 0.984, 0.058, 192.0, 0.0, 0.0, 0.0, 0.0, 0.0, 0.0, 0.0, 0.0, 0.0, 1.700944851786964E9, 0.0, 2023-11-25 15:40:51.786
