%OpenBCI Raw EXG Data
%Number of channels = 8
%Sample Rate = 250 Hz
%Board = OpenBCI_GUI$BoardCytonSerial
Sample Index, EXG Channel 0, EXG Channel 1, EXG Channel 2, EXG Channel 3, EXG Channel 4, EXG Channel 5, EXG Channel 6, EXG Channel 7, Accel Channel 0, Accel Channel 1, Accel Channel 2, Other, Other, Other, Other, Other, Other, Other, Analog Channel 0, Analog Channel 1, Analog Channel 2, Timestamp, Other, Timestamp (Formatted)
237.0, 72979.92086171161, 81812.8608838154, -14316.40408234645, -11270.531865421757, -1743.1901983249425, -3586.3597495984736, -14929.043046121962, 187500.0, 0.0, 0.0, 0.0, 192.0, 0.0, 0.0, 0.0, 0.0, 0.0, 0.0, 0.0, 0.0, 0.0, 1.700945236096649E9, 0.0, 2023-11-25 15:47:16.096
238.0, 72977.08219016579, 81783.69185730122, -14476.19670345744, -11332.647363263055, -1726.3816864945516, -3586.985598443222, -14991.180895707716, 187500.0, 0.0, 0.0, 0.0, 192.0, 0.0, 0.0, 0.0, 0.0, 0.0, 0.0, 0.0, 0.0, 0.0, 1.700945236096675E9, 0.0, 2023-11-25 15:47:16.096
239.0, 72977.41746633261, 81802.89200578834, -14843.122940435762, -11825.972715136137, -2351.537627165035, -3864.706023300412, -14985.637663082798, 187500.0, 0.0, 0.0, 0.0, 192.0, 0.0, 0.0, 0.0, 0.0, 0.0, 0.0, 0.0, 0.0, 0.0, 1.7009452360967E9, 0.0, 2023-11-25 15:47:16.096
240.0, 72989.88973973868, 81827.45657294472, -15076.788076971541, -12368.740125744358, -3020.7488561569285, -4364.848657232364, -14997.886419044307, 187500.0, 0.0, 0.0, 0.0, 192.0, 0.0, 0.0, 0.0, 0.0, 0.0, 0.0, 0.0, 0.0, 0.0, 1.700945236096713E9, 0.0, 2023-11-25 15:47:16.096
0.0, 0.0, 0.0, 0.0, 0.0, 0.0, 0.0, 0.0, 0.0, -0.07, 0.98, 0.034, 192.0, 253.0, 208.0, 30.0, 160.0, 1.0, 16.0, 0.0, 0.0, 0.0, 1.70094523619202E9, 0.0, 2023-11-25 15:47:16.192
1.0, 67302.3319008746, 79430.5449045354, -14302.143669383964, -11093.550752824636, -1665.629645065027, -3485.665140827315, -15020.931067577729, 187500.0, -0.07, 0.98, 0.034, 192.0, 0.0, 0.0, 0.0, 0.0, 0.0, 0.0, 0.0, 0.0, 0.0, 1.700945236209018E9, 0.0, 2023-11-25 15:47:16.209
2.0, 67298.19682815038, 79426.05220389989, -14642.22546127146, -11571.743973701476, -2142.1017816188078, -3775.0308245457204, -15031.369332238357, 187500.0, -0.07, 0.98, 0.034, 192.0, 0.0, 0.0, 0.0, 0.0, 0.0, 0.0, 0.0, 0.0, 0.0, 1.700945236212047E9, 0.0, 2023-11-25 15:47:16.212
3.0, 67305.0364619537, 79441.81018374088, -15065.969832655173, -12207.695806943872, -2968.177553198046, -4244.685679040633, -15056.157416839293, 187500.0, -0.07, 0.98, 0.034, 192.0, 0.0, 0.0, 0.0, 0.0, 0.0, 0.0, 0.0, 0.0, 0.0, 1.700945236216257E9, 0.0, 2023-11-25 15:47:16.216
4.0, 67313.35131089107, 79443.24069538602, -14723.786976788877, -12016.543688362086, -2698.0567214556604, -4201.256239563971, -14979.356822890857, 187500.0, -0.07, 0.98, 0.034, 192.0, 0.0, 0.0, 0.0, 0.0, 0.0, 0.0, 0.0, 0.0, 0.0, 1.700945236219173E9, 0.0, 2023-11-25 15:47:16.219
5.0, 67312.97133123533, 79430.25433185749, -14240.184633753854, -11073.14361013694, -1638.405220318463, -3487.5203356171055, -14990.622102096333, 187500.0, -0.07, 0.98, 0.034, 192.0, 0.0, 0.0, 0.0, 0.0, 0.0, 0.0, 0.0, 0.0, 0.0, 1.700945236223196E9, 0.0, 2023-11-25 15:47:16.223
6.0, 67298.7779735062, 79405.91328214566, -14566.40834407906, -11479.65478654561, -2023.3693150722165, -3731.489626346782, -15031.302277004992, 187500.0, -0.07, 0.98, 0.034, 192.0, 0.0, 0.0, 0.0, 0.0, 0.0, 0.0, 0.0, 0.0, 0.0, 1.70094523622712E9, 0.0, 2023-11-25 15:47:16.227
7.0, 67306.42227010994, 79426.72275623355, -14998.981654522617, -12084.358881039487, -2815.448083334933, -4136.905567277142, -15050.79299817002, 187500.0, -0.07, 0.98, 0.034, 192.0, 0.0, 0.0, 0.0, 0.0, 0.0, 0.0, 0.0, 0.0, 0.0, 1.700945236231125E9, 0.0, 2023-11-25 15:47:16.231
8.0, 67312.70311030187, 79440.26791337346, -14859.395010399225, -12187.981568334291, -2898.6189244531306, -4318.401732254235, -15005.038977270005, 187500.0, -0.07200000000000001, 0.982, 0.034, 192.0, 253.0, 192.0, 30.0, 176.0, 1.0, 16.0, 0.0, 0.0, 0.0, 1.70094523623515E9, 0.0, 2023-11-25 15:47:16.235
9.0, 67300.74492701828, 79422.7441457205, -14248.052447802122, -11115.00842750173, -1694.3963401790072, -3506.519318404117, -14994.243084698091, 187500.0, -0.07200000000000001, 0.982, 0.034, 192.0, 0.0, 0.0, 0.0, 0.0, 0.0, 0.0, 0.0, 0.0, 0.0, 1.700945236238343E9, 0.0, 2023-11-25 15:47:16.238
10.0, 67292.49713331427, 79409.13193334722, -14515.580477187692, -11401.758957118864, -1933.7835232953457, -3670.1564395614196, -15043.193405055215, 187500.0, -0.07200000000000001, 0.982, 0.034, 192.0, 0.0, 0.0, 0.0, 0.0, 0.0, 0.0, 0.0, 0.0, 0.0, 1.700945236242191E9, 0.0, 2023-11-25 15:47:16.242
11.0, 67296.34163336059, 79429.78494522393, -14916.19079306016, -11933.059922821514, -2641.8867876394734, -3997.810661531766, -15043.97571611115, 187500.0, -0.07200000000000001, 0.982, 0.034, 192.0, 0.0, 0.0, 0.0, 0.0, 0.0, 0.0, 0.0, 0.0, 0.0, 1.700945236246208E9, 0.0, 2023-11-25 15:47:16.246
12.0, 67313.86540101355, 79449.61094255578, -14970.796104764475, -12307.384587214541, -3055.1258391291904, -4380.383119628802, -15012.459756429167, 187500.0, -0.07200000000000001, 0.982, 0.034, 192.0, 0.0, 0.0, 0.0, 0.0, 0.0, 0.0, 0.0, 0.0, 0.0, 1.700945236250382E9, 0.0, 2023-11-25 15:47:16.250
13.0, 67311.22789516782, 79434.3447010928, -14265.419753243894, -11211.657370526478, -1815.945126526967, -3572.635778502915, -14956.043953423972, 187500.0, -0.07200000000000001, 0.982, 0.034, 192.0, 0.0, 0.0, 0.0, 0.0, 0.0, 0.0, 0.0, 0.0, 0.0, 1.700945236255281E9, 0.0, 2023-11-25 15:47:16.255
14.0, 67300.2308368958, 79405.55565423437, -14440.09863616212, -11306.115842594605, -1846.0529263082656, -3607.1021684529983, -15016.952457064684, 187500.0, -0.07200000000000001, 0.982, 0.034, 192.0, 0.0, 0.0, 0.0, 0.0, 0.0, 0.0, 0.0, 0.0, 0.0, 1.700945236259223E9, 0.0, 2023-11-25 15:47:16.259
15.0, 67281.79064772018, 79402.62757571072, -14821.039416913918, -11812.762834163052, -2487.950323575774, -3894.098567259141, -15017.131271020327, 187500.0, -0.07200000000000001, 0.982, 0.034, 192.0, 0.0, 0.0, 0.0, 0.0, 0.0, 0.0, 0.0, 0.0, 0.0, 1.700945236263285E9, 0.0, 2023-11-25 15:47:16.263
16.0, 67293.34649960358, 79423.86173294327, -15046.948498123706, -12366.661413510015, -3145.628052428729, -4394.420015146735, -15026.988390325118, 187500.0, -0.07200000000000001, 0.982, 0.034, 192.0, 0.0, 0.0, 0.0, 0.0, 0.0, 0.0, 0.0, 0.0, 0.0, 1.700945236266557E9, 0.0, 2023-11-25 15:47:16.266
17.0, 67295.00052869327, 79420.50897127498, -14343.650858837469, -11391.320692458235, -2022.9446319275658, -3702.477062043794, -14961.833055237897, 187500.0, -0.07200000000000001, 0.982, 0.034, 192.0, 0.0, 0.0, 0.0, 0.0, 0.0, 0.0, 0.0, 0.0, 0.0, 1.700945236270279E9, 0.0, 2023-11-25 15:47:16.270
18.0, 67297.39216534999, 79405.66741295665, -14380.978272077833, -11232.332734147636, -1785.1220709230986, -3559.7164702077475, -15023.859146101375, 187500.0, -0.074, 0.982, 0.034, 192.0, 253.0, 176.0, 30.0, 176.0, 1.0, 16.0, 0.0, 0.0, 0.0, 1.700945236274287E9, 0.0, 2023-11-25 15:47:16.274
19.0, 67284.8304849661, 79409.31074730286, -14735.119311227718, -11729.882565722772, -2368.2343802731493, -3835.693458997424, -15009.531677905523, 187500.0, -0.074, 0.982, 0.034, 192.0, 0.0, 0.0, 0.0, 0.0, 0.0, 0.0, 0.0, 0.0, 0.0, 1.700945236278293E9, 0.0, 2023-11-25 15:47:16.278
20.0, 67292.78770599219, 79439.06091917287, -15065.992184399627, -12367.801352477236, -3154.144067066201, -4367.732032267098, -15026.40724496928, 187500.0, -0.074, 0.982, 0.034, 192.0, 0.0, 0.0, 0.0, 0.0, 0.0, 0.0, 0.0, 0.0, 0.0, 1.700945236282355E9, 0.0, 2023-11-25 15:47:16.282
21.0, 67303.5835985641, 79452.11433793478, -14428.81100521219, -11607.283247385412, -2255.402774262759, -3854.7594970178006, -14928.886583910775, 187500.0, -0.074, 0.982, 0.034, 192.0, 0.0, 0.0, 0.0, 0.0, 0.0, 0.0, 0.0, 0.0, 0.0, 1.70094523628634E9, 0.0, 2023-11-25 15:47:16.286
22.0, 67298.84502873958, 79432.6012650253, -14297.673320492902, -11158.996660589775, -1712.1212735320657, -3505.222917225709, -14996.567666121444, 187500.0, -0.074, 0.982, 0.034, 192.0, 0.0, 0.0, 0.0, 0.0, 0.0, 0.0, 0.0, 0.0, 0.0, 1.700945236290362E9, 0.0, 2023-11-25 15:47:16.290
23.0, 67282.46120005383, 79426.36512832227, -14645.377057239659, -11636.362866921767, -2236.895529853765, -3775.120231523542, -14996.366500421347, 187500.0, -0.074, 0.982, 0.034, 192.0, 0.0, 0.0, 0.0, 0.0, 0.0, 0.0, 0.0, 0.0, 0.0, 1.700945236294369E9, 0.0, 2023-11-25 15:47:16.294
24.0, 67291.51365655824, 79460.11626244978, -15043.774550411053, -12301.304912722697, -3083.266685398422, -4296.049987798928, -15017.623009398343, 187500.0, -0.074, 0.982, 0.034, 192.0, 0.0, 0.0, 0.0, 0.0, 0.0, 0.0, 0.0, 0.0, 0.0, 1.700945236299347E9, 0.0, 2023-11-25 15:47:16.299
25.0, 67297.99566245028, 79476.72360858007, -14547.990506647886, -11834.622840240341, -2507.8880796299077, -4030.935946814531, -14936.66499098122, 187500.0, -0.074, 0.982, 0.034, 192.0, 0.0, 0.0, 0.0, 0.0, 0.0, 0.0, 0.0, 0.0, 0.0, 1.700945236303315E9, 0.0, 2023-11-25 15:47:16.303
26.0, 67300.633168296, 79460.58564908334, -14226.14773823592, -11100.748014539244, -1666.501363098784, -3468.8119255080137, -14968.87385474132, 187500.0, -0.074, 0.982, 0.034, 192.0, 0.0, 0.0, 0.0, 0.0, 0.0, 0.0, 0.0, 0.0, 0.0, 1.700945236306334E9, 0.0, 2023-11-25 15:47:16.306
27.0, 67298.35329036156, 79460.13861419423, -14555.366582318138, -11550.062781579827, -2122.320487775861, -3734.5071118482488, -14978.82038102393, 187500.0, -0.066, 0.986, 0.036000000000000004, 192.0, 253.0, 240.0, 30.0, 208.0, 1.0, 32.0, 0.0, 0.0, 0.0, 1.700945236310374E9, 0.0, 2023-11-25 15:47:16.310
28.0, 67301.95192121886, 79479.40581791471, -14986.643491583287, -12183.041832809668, -2951.6149105566637, -4192.650817948677, -15008.659959871766, 187500.0, -0.066, 0.986, 0.036000000000000004, 192.0, 0.0, 0.0, 0.0, 0.0, 0.0, 0.0, 0.0, 0.0, 0.0, 1.700945236314394E9, 0.0, 2023-11-25 15:47:16.314
29.0, 67304.54472357569, 79489.15117849722, -14682.927987924575, -12033.598069381485, -2743.319003977657, -4182.391367243692, -14946.142130630271, 187500.0, -0.066, 0.986, 0.036000000000000004, 192.0, 0.0, 0.0, 0.0, 0.0, 0.0, 0.0, 0.0, 0.0, 0.0, 1.700945236318453E9, 0.0, 2023-11-25 15:47:16.318
30.0, 67293.86058972604, 79470.3533614103, -14190.76492676317, -11080.05029917363, -1666.4119561209627, -3459.6253585368827, -14954.43462782319, 187500.0, -0.066, 0.986, 0.036000000000000004, 192.0, 0.0, 0.0, 0.0, 0.0, 0.0, 0.0, 0.0, 0.0, 0.0, 1.700945236322477E9, 0.0, 2023-11-25 15:47:16.322
31.0, 67284.62931926601, 79456.09294844783, -14497.676729878991, -11484.818039514785, -2033.4946553104705, -3705.2263266117966, -14983.357785148357, 187500.0, -0.066, 0.986, 0.036000000000000004, 192.0, 0.0, 0.0, 0.0, 0.0, 0.0, 0.0, 0.0, 0.0, 0.0, 1.700945236326455E9, 0.0, 2023-11-25 15:47:16.326
32.0, 67289.56905479063, 79475.1142829793, -14916.52606922699, -12082.727203694249, -2812.475301322377, -4103.467357572003, -15001.73091909062, 187500.0, -0.066, 0.986, 0.036000000000000004, 192.0, 0.0, 0.0, 0.0, 0.0, 0.0, 0.0, 0.0, 0.0, 0.0, 1.700945236331544E9, 0.0, 2023-11-25 15:47:16.331
33.0, 67301.34842411858, 79491.1628354982, -14811.361111564769, -12223.36437980704, -2953.0901256907136, -4323.497929990045, -14965.208168650648, 187500.0, -0.066, 0.986, 0.036000000000000004, 192.0, 0.0, 0.0, 0.0, 0.0, 0.0, 0.0, 0.0, 0.0, 0.0, 1.700945236334471E9, 0.0, 2023-11-25 15:47:16.334
34.0, 67295.24639788228, 79474.86841379027, -14193.067156442066, -11145.116227283028, -1746.4759047598727, -3525.5183011911276, -14949.204319620649, 187500.0, -0.066, 0.986, 0.036000000000000004, 192.0, 0.0, 0.0, 0.0, 0.0, 0.0, 0.0, 0.0, 0.0, 0.0, 1.700945236338444E9, 0.0, 2023-11-25 15:47:16.338
35.0, 67288.25030186777, 79453.94718098012, -14446.29006937624, -11405.40229146508, -1956.1799712395634, -3680.1700210773975, -15002.267360957547, 187500.0, -0.066, 0.986, 0.036000000000000004, 192.0, 0.0, 0.0, 0.0, 0.0, 0.0, 0.0, 0.0, 0.0, 0.0, 1.700945236342497E9, 0.0, 2023-11-25 15:47:16.342
36.0, 67286.01512742223, 79467.46998637558, -14842.98882996903, -11944.414609004809, -2657.421250035912, -4000.783443544322, -15004.413128425256, 187500.0, -0.066, 0.986, 0.036000000000000004, 192.0, 0.0, 0.0, 0.0, 0.0, 0.0, 0.0, 0.0, 0.0, 0.0, 1.70094523634652E9, 0.0, 2023-11-25 15:47:16.346
37.0, 67297.61568279454, 79488.74884709703, -14927.746644943554, -12355.284375582263, -3114.983810780503, -4413.329590955924, -14989.705680573665, 187500.0, -0.068, 0.982, 0.044, 192.0, 253.0, 224.0, 30.0, 176.0, 1.0, 96.0, 0.0, 0.0, 0.0, 1.700945236351113E9, 0.0, 2023-11-25 15:47:16.351
38.0, 67288.54087454568, 79477.23769870255, -14224.650171357414, -11261.568815895178, -1874.03731036631, -3607.8397760200237, -14928.707769955132, 187500.0, -0.068, 0.982, 0.044, 192.0, 0.0, 0.0, 0.0, 0.0, 0.0, 0.0, 0.0, 0.0, 0.0, 1.700945236355537E9, 0.0, 2023-11-25 15:47:16.355
39.0, 67288.58557803459, 79460.94327699463, -14395.03751934022, -11332.043866162761, -1870.4386795090056, -3628.1128082409873, -14997.059404499461, 187500.0, -0.068, 0.982, 0.044, 192.0, 0.0, 0.0, 0.0, 0.0, 0.0, 0.0, 0.0, 0.0, 0.0, 1.700945236359566E9, 0.0, 2023-11-25 15:47:16.359
40.0, 67286.10453440006, 79468.02877998695, -14765.025945308918, -11833.371142550845, -2498.232126025215, -3917.2773262592946, -14995.137154476304, 187500.0, -0.068, 0.982, 0.044, 192.0, 0.0, 0.0, 0.0, 0.0, 0.0, 0.0, 0.0, 0.0, 0.0, 1.700945236362505E9, 0.0, 2023-11-25 15:47:16.362
41.0, 67294.15116240397, 79481.86450980479, -15010.001064539083, -12406.179297706998, -3182.039044146424, -4436.30718425598, -15008.995236038594, 187500.0, -0.068, 0.982, 0.044, 192.0, 0.0, 0.0, 0.0, 0.0, 0.0, 0.0, 0.0, 0.0, 0.0, 1.700945236366683E9, 0.0, 2023-11-25 15:47:16.366
42.0, 67296.74396476078, 79478.57880336986, -14318.035759691687, -11462.22042587047, -2086.6918071141013, -3765.419574429938, -14931.009999634029, 187500.0, -0.068, 0.982, 0.044, 192.0, 0.0, 0.0, 0.0, 0.0, 0.0, 0.0, 0.0, 0.0, 0.0, 1.700945236370834E9, 0.0, 2023-11-25 15:47:16.370
43.0, 67303.04715669718, 79454.59538156932, -14331.916192998433, -11242.480426130347, -1787.8936872355566, -3576.5920372715045, -14996.232389954614, 187500.0, -0.068, 0.982, 0.044, 192.0, 0.0, 0.0, 0.0, 0.0, 0.0, 0.0, 0.0, 0.0, 0.0, 1.700945236375608E9, 0.0, 2023-11-25 15:47:16.375
44.0, 67298.95678746185, 79460.80916652789, -14687.353633326726, -11726.507452310021, -2356.075031289462, -3844.075363168164, -14991.560875363455, 187500.0, -0.068, 0.982, 0.044, 192.0, 0.0, 0.0, 0.0, 0.0, 0.0, 0.0, 0.0, 0.0, 0.0, 1.700945236379677E9, 0.0, 2023-11-25 15:47:16.379
45.0, 67308.4339271109, 79485.68665810664, -15029.245916515103, -12371.556445545728, -3158.05562234588, -4378.550276583466, -15009.554029649977, 187500.0, -0.068, 0.982, 0.044, 192.0, 0.0, 0.0, 0.0, 0.0, 0.0, 0.0, 0.0, 0.0, 0.0, 1.700945236382883E9, 0.0, 2023-11-25 15:47:16.382
46.0, 67308.54568583319, 79490.3134692089, -14416.04815912821, -11643.001335024994, -2301.961457963164, -3897.7195498609008, -14928.707769955132, 187500.0, -0.068, 0.982, 0.044, 192.0, 0.0, 0.0, 0.0, 0.0, 0.0, 0.0, 0.0, 0.0, 0.0, 1.700945236387888E9, 0.0, 2023-11-25 15:47:16.387
47.0, 67311.11613644555, 79469.12401546526, -14258.222491529286, -11127.81597707462, -1700.2301454818423, -3493.6894170867704, -14992.007910252561, 187500.0, -0.068, 0.982, 0.042, 192.0, 253.0, 224.0, 30.0, 176.0, 1.0, 80.0, 0.0, 0.0, 0.0, 1.70094523639068E9, 0.0, 2023-11-25 15:47:16.390
48.0, 67300.5884648071, 79457.61286707078, -14612.005902767885, -11614.927543989128, -2226.278451237494, -3775.433155945916, -15002.267360957547, 187500.0, -0.068, 0.982, 0.042, 192.0, 0.0, 0.0, 0.0, 0.0, 0.0, 0.0, 0.0, 0.0, 0.0, 1.700945236393692E9, 0.0, 2023-11-25 15:47:16.393
49.0, 67322.06849122864, 79493.93445181065, -15028.68712290372, -12303.048348790211, -3090.4192436241206, -4311.316229261903, -15034.587983439922, 187500.0, -0.068, 0.982, 0.042, 192.0, 0.0, 0.0, 0.0, 0.0, 0.0, 0.0, 0.0, 0.0, 0.0, 1.700945236398677E9, 0.0, 2023-11-25 15:47:16.398
50.0, 67324.61659009654, 79494.38148669977, -14562.988527177398, -11888.378785655355, -2569.4447838598235, -4081.540296261346, -14952.177101633204, 187500.0, -0.068, 0.982, 0.042, 192.0, 0.0, 0.0, 0.0, 0.0, 0.0, 0.0, 0.0, 0.0, 0.0, 1.700945236402745E9, 0.0, 2023-11-25 15:47:16.402
51.0, 67328.05875874267, 79478.1094167363, -14218.034054998643, -11094.042491202652, -1675.2185434363537, -3469.728347030681, -14993.01373875305, 187500.0, -0.068, 0.982, 0.042, 192.0, 0.0, 0.0, 0.0, 0.0, 0.0, 0.0, 0.0, 0.0, 0.0, 1.700945236406681E9, 0.0, 2023-11-25 15:47:16.406
52.0, 67328.88577328752, 79470.7556928105, -14559.88163469811, -11569.508799255944, -2139.464275773081, -3755.7412690807905, -15009.263456972058, 187500.0, -0.068, 0.982, 0.042, 192.0, 0.0, 0.0, 0.0, 0.0, 0.0, 0.0, 0.0, 0.0, 0.0, 1.700945236411149E9, 0.0, 2023-11-25 15:47:16.411
53.0, 67328.4387383984, 79479.87520454827, -14980.452058369168, -12186.595760178061, -2951.4584483454764, -4197.970533129041, -15033.045713072504, 187500.0, -0.068, 0.982, 0.042, 192.0, 0.0, 0.0, 0.0, 0.0, 0.0, 0.0, 0.0, 0.0, 0.0, 1.700945236415726E9, 0.0, 2023-11-25 15:47:16.415
54.0, 67335.65835185748, 79487.63125987427, -14711.962903972018, -12083.420107772365, -2801.455891305911, -4221.082236895828, -14974.305328643959, 187500.0, -0.068, 0.982, 0.042, 192.0, 0.0, 0.0, 0.0, 0.0, 0.0, 0.0, 0.0, 0.0, 0.0, 1.700945236418765E9, 0.0, 2023-11-25 15:47:16.418
55.0, 67334.22784021233, 79476.52244287997, -14194.408261109384, -11091.67320629039, -1688.8307558096358, -3472.5893703209604, -14978.172180434727, 187500.0, -0.068, 0.982, 0.042, 192.0, 0.0, 0.0, 0.0, 0.0, 0.0, 0.0, 0.0, 0.0, 0.0, 1.700945236421742E9, 0.0, 2023-11-25 15:47:16.421
56.0, 67326.76235756426, 79468.83344278735, -14506.595075916657, -11470.088239918738, -2035.1710361446187, -3703.5499457776486, -15019.612314654865, 187500.0, -0.068, 0.982, 0.042, 192.0, 0.0, 0.0, 0.0, 0.0, 0.0, 0.0, 0.0, 0.0, 0.0, 1.70094523642678E9, 0.0, 2023-11-25 15:47:16.426
57.0, 67330.42804365493, 79495.70023962263, -14925.980857131584, -12058.184988282323, -2803.780472729263, -4090.771566721388, -15033.470396217155, 187500.0, -0.076, 0.982, 0.038, 192.0, 253.0, 160.0, 30.0, 176.0, 1.0, 48.0, 0.0, 0.0, 0.0, 1.700945236430799E9, 0.0, 2023-11-25 15:47:16.430
58.0, 67344.04025602821, 79511.79349563045, -14853.672963818666, -12268.76077279577, -3009.4835769514534, -4354.723316994109, -14996.522962632533, 187500.0, -0.076, 0.982, 0.038, 192.0, 0.0, 0.0, 0.0, 0.0, 0.0, 0.0, 0.0, 0.0, 0.0, 1.700945236434737E9, 0.0, 2023-11-25 15:47:16.434
59.0, 67328.08111048712, 79479.38346617026, -14209.093357216521, -11156.269747766228, -1766.1454398805429, -3523.1043127899547, -14974.931177488706, 187500.0, -0.076, 0.982, 0.038, 192.0, 0.0, 0.0, 0.0, 0.0, 0.0, 0.0, 0.0, 0.0, 0.0, 1.700945236438735E9, 0.0, 2023-11-25 15:47:16.438
60.0, 67329.10929073207, 79467.2017654421, -14456.795389270233, -11400.216686751448, -1951.3519944372172, -3665.4849249702606, -15030.788186882519, 187500.0, -0.076, 0.982, 0.038, 192.0, 0.0, 0.0, 0.0, 0.0, 0.0, 0.0, 0.0, 0.0, 0.0, 1.70094523644289E9, 0.0, 2023-11-25 15:47:16.442
61.0, 67320.28035167222, 79476.74596032452, -14847.682696304644, -11934.848062377938, -2641.327994028091, -3989.764033527855, -15032.64338167231, 187500.0, -0.076, 0.982, 0.038, 192.0, 0.0, 0.0, 0.0, 0.0, 0.0, 0.0, 0.0, 0.0, 0.0, 1.700945236445889E9, 0.0, 2023-11-25 15:47:16.445
62.0, 67330.89743028849, 79493.37565819928, -14956.53569180199, -12343.505006254318, -3125.8691103302376, -4396.454023892167, -15015.29842797499, 187500.0, -0.076, 0.982, 0.038, 192.0, 0.0, 0.0, 0.0, 0.0, 0.0, 0.0, 0.0, 0.0, 0.0, 1.700945236449815E9, 0.0, 2023-11-25 15:47:16.449
63.0, 67320.36975865003, 79470.28630617695, -14260.100038063532, -11276.365670724592, -1918.6737440435584, -3610.7455027992137, -14952.065342910928, 187500.0, -0.076, 0.982, 0.038, 192.0, 0.0, 0.0, 0.0, 0.0, 0.0, 0.0, 0.0, 0.0, 0.0, 1.700945236454804E9, 0.0, 2023-11-25 15:47:16.454
64.0, 67319.94507550538, 79455.62356181427, -14409.029711369243, -11311.614371730611, -1878.4182522795502, -3604.2634969071746, -15025.334361235424, 187500.0, -0.076, 0.982, 0.038, 192.0, 0.0, 0.0, 0.0, 0.0, 0.0, 0.0, 0.0, 0.0, 0.0, 1.700945236458823E9, 0.0, 2023-11-25 15:47:16.458
65.0, 67332.26088670027, 79476.76831206898, -14774.68189891361, -11822.932877890216, -2498.522698703134, -3899.5076894173253, -15015.633704141821, 187500.0, -0.076, 0.982, 0.038, 192.0, 0.0, 0.0, 0.0, 0.0, 0.0, 0.0, 0.0, 0.0, 0.0, 1.700945236462822E9, 0.0, 2023-11-25 15:47:16.462
66.0, 67349.51643341976, 79505.8702833498, -15028.217736270159, -12397.104489458143, -3191.650294262206, -4414.514233412056, -15024.73086413513, 187500.0, -0.076, 0.982, 0.038, 192.0, 0.0, 0.0, 0.0, 0.0, 0.0, 0.0, 0.0, 0.0, 0.0, 1.700945236466833E9, 0.0, 2023-11-25 15:47:16.466
67.0, 67354.0985410331, 79507.59136767285, -14343.762617559745, -11480.347690623725, -2128.355458778794, -3772.952112311377, -14947.10325564185, 187500.0, -0.076, 0.976, 0.038, 192.0, 253.0, 160.0, 30.0, 128.0, 1.0, 48.0, 0.0, 0.0, 0.0, 1.700945236470839E9, 0.0, 2023-11-25 15:47:16.470
68.0, 67353.85267184408, 79484.2114429726, -14327.378788874006, -11206.628228024034, -1772.3592248391183, -3536.7835803966022, -15013.219715740648, 187500.0, -0.076, 0.976, 0.038, 192.0, 0.0, 0.0, 0.0, 0.0, 0.0, 0.0, 0.0, 0.0, 0.0, 1.700945236474923E9, 0.0, 2023-11-25 15:47:16.474
69.0, 67346.56600315166, 79483.63029761676, -14691.131078139673, -11685.804925656907, -2331.599871110901, -3803.2834295372286, -15019.165279765759, 187500.0, -0.076, 0.976, 0.038, 192.0, 0.0, 0.0, 0.0, 0.0, 0.0, 0.0, 0.0, 0.0, 0.0, 1.700945236477839E9, 0.0, 2023-11-25 15:47:16.477
70.0, 67365.38617198303, 79510.78766712996, -15063.891120420829, -12369.790657733758, -3165.141125338212, -4361.808819986441, -15045.875614389852, 187500.0, -0.076, 0.976, 0.038, 192.0, 0.0, 0.0, 0.0, 0.0, 0.0, 0.0, 0.0, 0.0, 0.0, 1.700945236483881E9, 0.0, 2023-11-25 15:47:16.483
71.0, 67365.9449655944, 79507.59136767285, -14469.066496976197, -11699.84182117484, -2359.8301243579535, -3924.1616635515293, -14954.188758634182, 187500.0, -0.076, 0.976, 0.038, 192.0, 0.0, 0.0, 0.0, 0.0, 0.0, 0.0, 0.0, 0.0, 0.0, 1.700945236486906E9, 0.0, 2023-11-25 15:47:16.486
72.0, 67367.50958770628, 79486.02193427348, -14284.508143008727, -11146.390276716982, -1713.1941572659205, -3496.729254332692, -15016.572477408943, 187500.0, -0.076, 0.976, 0.038, 192.0, 0.0, 0.0, 0.0, 0.0, 0.0, 0.0, 0.0, 0.0, 0.0, 1.700945236490894E9, 0.0, 2023-11-25 15:47:16.490
73.0, 67363.88860510453, 79480.2104807151, -14622.690036617523, -11611.910058487661, -2211.0122097745193, -3768.1017837645754, -15014.203192496681, 187500.0, -0.076, 0.976, 0.038, 192.0, 0.0, 0.0, 0.0, 0.0, 0.0, 0.0, 0.0, 0.0, 0.0, 1.700945236494966E9, 0.0, 2023-11-25 15:47:16.494
74.0, 67370.16944529646, 79504.32801298237, -15040.578250953944, -12261.988194225813, -3056.3104815853217, -4263.46114438309, -15044.467454489168, 187500.0, -0.076, 0.976, 0.038, 192.0, 0.0, 0.0, 0.0, 0.0, 0.0, 0.0, 0.0, 0.0, 0.0, 1.700945236497904E9, 0.0, 2023-11-25 15:47:16.497
75.0, 67374.37157325406, 79509.0665828069, -14614.50929814688, -11926.2649925071, -2618.819787361597, -4104.137909905661, -14965.297575628469, 187500.0, -0.076, 0.976, 0.038, 192.0, 0.0, 0.0, 0.0, 0.0, 0.0, 0.0, 0.0, 0.0, 0.0, 1.700945236501889E9, 0.0, 2023-11-25 15:47:16.501
76.0, 67370.77294239675, 79488.19005348564, -14234.015552284189, -11106.447709375348, -1682.2816946842308, -3475.83037326698, -14992.142020719293, 187500.0, -0.076, 0.976, 0.038, 192.0, 0.0, 0.0, 0.0, 0.0, 0.0, 0.0, 0.0, 0.0, 0.0, 1.700945236505946E9, 0.0, 2023-11-25 15:47:16.505
77.0, 67366.9507940949, 79474.62254460127, -14560.73100098741, -11540.250365763946, -2109.535289947425, -3731.109646691042, -15012.392701195802, 187500.0, -0.076, 0.98, 0.044, 192.0, 253.0, 160.0, 30.0, 160.0, 1.0, 96.0, 0.0, 0.0, 0.0, 1.700945236509923E9, 0.0, 2023-11-25 15:47:16.509
78.0, 67378.41723900047, 79502.45046644814, -14987.716375317143, -12160.824198821092, -2924.8151689547503, -4167.6839193921, -15039.035980586528, 187500.0, -0.076, 0.98, 0.044, 192.0, 0.0, 0.0, 0.0, 0.0, 0.0, 0.0, 0.0, 0.0, 0.0, 1.700945236514925E9, 0.0, 2023-11-25 15:47:16.514
79.0, 67389.12372459457, 79520.19775154564, -14744.194119476571, -12117.484166322252, -2832.9494992434384, -4237.801341748398, -14972.24896815407, 187500.0, -0.076, 0.98, 0.044, 192.0, 0.0, 0.0, 0.0, 0.0, 0.0, 0.0, 0.0, 0.0, 0.0, 1.700945236518954E9, 0.0, 2023-11-25 15:47:16.518
80.0, 67385.01100361478, 79504.19390251565, -14198.744499533714, -11099.406909871926, -1690.5518401326945, -3465.861495239913, -14968.225654152115, 187500.0, -0.076, 0.98, 0.044, 192.0, 0.0, 0.0, 0.0, 0.0, 0.0, 0.0, 0.0, 0.0, 0.0, 1.700945236522976E9, 0.0, 2023-11-25 15:47:16.522
81.0, 67379.06543958967, 79488.83825407484, -14501.275360736296, -11464.880283460652, -2014.9427074125658, -3688.9319049038777, -15010.112823261361, 187500.0, -0.076, 0.98, 0.044, 192.0, 0.0, 0.0, 0.0, 0.0, 0.0, 0.0, 0.0, 0.0, 0.0, 1.700945236525971E9, 0.0, 2023-11-25 15:47:16.525
82.0, 67373.2986895202, 79500.8187891029, -14922.225764063092, -12036.436740927309, -2769.0458618457155, -4061.6025402072123, -15030.005875826584, 187500.0, -0.076, 0.98, 0.044, 192.0, 0.0, 0.0, 0.0, 0.0, 0.0, 0.0, 0.0, 0.0, 0.0, 1.70094523653E9, 0.0, 2023-11-25 15:47:16.530
83.0, 67392.38707928504, 79526.3668330153, -14881.657347876711, -12287.133906738032, -3029.6448504501404, -4360.914750208229, -14992.343186419392, 187500.0, -0.076, 0.98, 0.044, 192.0, 0.0, 0.0, 0.0, 0.0, 0.0, 0.0, 0.0, 0.0, 0.0, 1.700945236534104E9, 0.0, 2023-11-25 15:47:16.534
84.0, 67393.39290778553, 79518.43196373367, -14223.510232390194, -11186.198733591884, -1791.0229314592996, -3542.863254888446, -14960.827226737409, 187500.0, -0.076, 0.98, 0.044, 192.0, 0.0, 0.0, 0.0, 0.0, 0.0, 0.0, 0.0, 0.0, 0.0, 1.700945236538009E9, 0.0, 2023-11-25 15:47:16.538
85.0, 67391.89534090702, 79496.259033234, -14453.688496790946, -11397.690939627999, -1937.225691941463, -3659.181733033864, -15019.522907677045, 187500.0, -0.076, 0.98, 0.044, 192.0, 0.0, 0.0, 0.0, 0.0, 0.0, 0.0, 0.0, 0.0, 0.0, 1.700945236542994E9, 0.0, 2023-11-25 15:47:16.542
86.0, 67391.98474788484, 79507.52431243949, -14834.204594398094, -11922.733416883162, -2609.9014413239292, -3974.520143809336, -15018.941762321207, 187500.0, -0.076, 0.98, 0.044, 192.0, 0.0, 0.0, 0.0, 0.0, 0.0, 0.0, 0.0, 0.0, 0.0, 1.700945236547049E9, 0.0, 2023-11-25 15:47:16.547
87.0, 67414.67176850697, 79534.01112961903, -14968.516226830034, -12390.331910888186, -3144.108133805768, -4423.410227705268, -15004.994273781094, 187500.0, -0.076, 0.982, 0.04, 192.0, 253.0, 160.0, 30.0, 176.0, 1.0, 64.0, 0.0, 0.0, 0.0, 1.700945236551132E9, 0.0, 2023-11-25 15:47:16.551
88.0, 67415.67759700747, 79525.47276323709, -14256.948442095334, -11318.521060767302, -1931.1460174496196, -3643.311994470596, -14939.704828227143, 187500.0, -0.076, 0.982, 0.04, 192.0, 0.0, 0.0, 0.0, 0.0, 0.0, 0.0, 0.0, 0.0, 0.0, 1.700945236554344E9, 0.0, 2023-11-25 15:47:16.554
89.0, 67408.0109486593, 79502.98690831506, -14375.03270805272, -11282.46769696089, -1829.1997109889642, -3581.2635518626635, -15014.180840752226, 187500.0, -0.076, 0.982, 0.04, 192.0, 0.0, 0.0, 0.0, 0.0, 0.0, 0.0, 0.0, 0.0, 0.0, 1.700945236558115E9, 0.0, 2023-11-25 15:47:16.558
90.0, 67399.13730611054, 79510.89942585223, -14745.714038099533, -11791.863953097338, -2451.8299045359977, -3873.423203637982, -15010.112823261361, 187500.0, -0.076, 0.982, 0.04, 192.0, 0.0, 0.0, 0.0, 0.0, 0.0, 0.0, 0.0, 0.0, 0.0, 1.700945236562108E9, 0.0, 2023-11-25 15:47:16.562
91.0, 67416.07992840766, 79534.92755114169, -15025.423768213246, -12400.233733681885, -3183.804831958393, -4408.1216344978375, -15024.26147750157, 187500.0, -0.076, 0.982, 0.04, 192.0, 0.0, 0.0, 0.0, 0.0, 0.0, 0.0, 0.0, 0.0, 0.0, 1.700945236566134E9, 0.0, 2023-11-25 15:47:16.566
92.0, 67424.48418432286, 79536.40276627574, -14348.8364635511, -11504.129946724172, -2150.2378166005396, -3782.4516037048825, -14941.269450339014, 187500.0, -0.076, 0.982, 0.04, 192.0, 0.0, 0.0, 0.0, 0.0, 0.0, 0.0, 0.0, 0.0, 0.0, 1.700945236570158E9, 0.0, 2023-11-25 15:47:16.570
93.0, 67428.52985006927, 79514.27453926498, -14307.59749503106, -11192.680739483922, -1756.690651975948, -3522.6349261563932, -15004.144907491793, 187500.0, -0.076, 0.982, 0.04, 192.0, 0.0, 0.0, 0.0, 0.0, 0.0, 0.0, 0.0, 0.0, 0.0, 1.700945236575116E9, 0.0, 2023-11-25 15:47:16.575
94.0, 67423.43365233346, 79522.43292599118, -14655.591804455735, -11672.729155150551, -2300.396835851292, -3782.1833827714186, -14995.695948087687, 187500.0, -0.076, 0.982, 0.04, 192.0, 0.0, 0.0, 0.0, 0.0, 0.0, 0.0, 0.0, 0.0, 0.0, 1.700945236579184E9, 0.0, 2023-11-25 15:47:16.579
95.0, 67431.92731522648, 79537.8779814098, -15042.433445743734, -12351.0151923913, -3141.5823866823184, -4333.2209388281035, -15033.02336132805, 187500.0, -0.076, 0.982, 0.04, 192.0, 0.0, 0.0, 0.0, 0.0, 0.0, 0.0, 0.0, 0.0, 0.0, 1.700945236582208E9, 0.0, 2023-11-25 15:47:16.582
96.0, 67438.34226588515, 79536.96155988712, -14469.535883609758, -11724.65225752023, -2393.7377206966544, -3939.919643392521, -14942.297630583958, 187500.0, -0.076, 0.982, 0.04, 192.0, 0.0, 0.0, 0.0, 0.0, 0.0, 0.0, 0.0, 0.0, 0.0, 1.700945236586246E9, 0.0, 2023-11-25 15:47:16.586
97.0, 67437.4705478514, 79520.64478643474, -14251.852244359523, -11113.734378067778, -1694.9327820459346, -3467.7837452630697, -15001.708567346164, 187500.0, -0.07, 0.982, 0.044, 192.0, 253.0, 208.0, 30.0, 176.0, 1.0, 96.0, 0.0, 0.0, 0.0, 1.700945236590209E9, 0.0, 2023-11-25 15:47:16.590
98.0, 67439.75042578584, 79525.49511498155, -14595.689129315511, -11597.739052502997, -2197.109424723318, -3753.5507981241703, -15002.647340613288, 187500.0, -0.07, 0.982, 0.044, 192.0, 0.0, 0.0, 0.0, 0.0, 0.0, 0.0, 0.0, 0.0, 0.0, 1.700945236594273E9, 0.0, 2023-11-25 15:47:16.594
99.0, 67449.80871079072, 79548.65152223725, -15015.365483208358, -12253.338069121608, -3040.0384116218584, -4249.625414565256, -15032.866899116863, 187500.0, -0.07, 0.982, 0.044, 192.0, 0.0, 0.0, 0.0, 0.0, 0.0, 0.0, 0.0, 0.0, 0.0, 1.700945236598274E9, 0.0, 2023-11-25 15:47:16.598
100.0, 67457.18478646097, 79550.50671702703, -14623.405292440093, -11957.713896955716, -2653.576749989599, -4123.628631070689, -14961.96716570463, 187500.0, -0.07, 0.982, 0.044, 192.0, 0.0, 0.0, 0.0, 0.0, 0.0, 0.0, 0.0, 0.0, 0.0, 1.700945236602326E9, 0.0, 2023-11-25 15:47:16.602
101.0, 67455.75427481583, 79533.94407438565, -14211.105014217499, -11077.792772983645, -1670.4799736118287, -3452.472800311184, -14980.295596157981, 187500.0, -0.07, 0.982, 0.044, 192.0, 0.0, 0.0, 0.0, 0.0, 0.0, 0.0, 0.0, 0.0, 0.0, 1.700945236607773E9, 0.0, 2023-11-25 15:47:16.607
102.0, 67453.22852769238, 79530.14427782825, -14536.278192553305, -11510.23197296047, -2088.122318759241, -3705.7404167342684, -14997.215866710649, 187500.0, -0.07, 0.982, 0.044, 192.0, 0.0, 0.0, 0.0, 0.0, 0.0, 0.0, 0.0, 0.0, 0.0, 1.700945236610376E9, 0.0, 2023-11-25 15:47:16.610
103.0, 67454.48022538188, 79546.90808616973, -14970.10320068636, -12148.64249809295, -2909.1018926026695, -4145.667451103622, -15024.842622857408, 187500.0, -0.07, 0.982, 0.044, 192.0, 0.0, 0.0, 0.0, 0.0, 0.0, 0.0, 0.0, 0.0, 0.0, 1.700945236614259E9, 0.0, 2023-11-25 15:47:16.614
104.0, 67455.24018469336, 79548.98679840408, -14767.35052673227, -12166.948576801846, -2883.956180090449, -4260.108382714794, -14973.120686187827, 187500.0, -0.07, 0.982, 0.044, 192.0, 0.0, 0.0, 0.0, 0.0, 0.0, 0.0, 0.0, 0.0, 0.0, 1.700945236618458E9, 0.0, 2023-11-25 15:47:16.618
105.0, 67442.94672524295, 79527.4173650047, -14199.482107100739, -11102.156174439928, -1702.4876716718284, -3464.095707427944, -14973.880645499308, 187500.0, -0.07, 0.982, 0.044, 192.0, 0.0, 0.0, 0.0, 0.0, 0.0, 0.0, 0.0, 0.0, 0.0, 1.70094523662243E9, 0.0, 2023-11-25 15:47:16.622
106.0, 67449.58519334617, 79518.83429513387, -14493.608712388124, -11444.69665821751, -1998.447120004549, -3670.9163988729, -15021.40045421129, 187500.0, -0.07, 0.982, 0.044, 192.0, 0.0, 0.0, 0.0, 0.0, 0.0, 0.0, 0.0, 0.0, 0.0, 1.700945236627384E9, 0.0, 2023-11-25 15:47:16.627
107.0, 67465.85726330963, 79542.3259785564, -14902.712691153609, -12015.917839517337, -2738.893358575506, -4037.5297114288464, -15031.570497938455, 187500.0, -0.062, 0.982, 0.042, 192.0, 254.0, 16.0, 30.0, 176.0, 1.0, 80.0, 0.0, 0.0, 0.0, 1.700945236630315E9, 0.0, 2023-11-25 15:47:16.630
108.0, 67482.3304989732, 79566.91289745724, -14898.75643238502, -12302.333092967641, -3046.118086113702, -4358.031375173495, -15004.390776680802, 187500.0, -0.062, 0.982, 0.042, 192.0, 0.0, 0.0, 0.0, 0.0, 0.0, 0.0, 0.0, 0.0, 0.0, 1.700945236635309E9, 0.0, 2023-11-25 15:47:16.635
109.0, 67476.56374890373, 79544.3823390463, -14230.483976660249, -11197.039329652707, -1805.462158377428, -3547.378307268418, -14965.386982606291, 187500.0, -0.062, 0.982, 0.042, 192.0, 0.0, 0.0, 0.0, 0.0, 0.0, 0.0, 0.0, 0.0, 0.0, 1.700945236638326E9, 0.0, 2023-11-25 15:47:16.638
110.0, 67465.74550458735, 79511.8158473749, -14444.81485424219, -11358.731849042399, -1908.1460724051087, -3626.6152413624814, -15021.512212933567, 187500.0, -0.062, 0.982, 0.042, 192.0, 0.0, 0.0, 0.0, 0.0, 0.0, 0.0, 0.0, 0.0, 0.0, 1.700945236641344E9, 0.0, 2023-11-25 15:47:16.641
111.0, 67461.54337662976, 79529.36196677233, -14826.31442860537, -11871.212645913678, -2564.683862290843, -3918.685486159979, -15015.276076230537, 187500.0, -0.062, 0.982, 0.042, 192.0, 0.0, 0.0, 0.0, 0.0, 0.0, 0.0, 0.0, 0.0, 0.0, 1.700945236646346E9, 0.0, 2023-11-25 15:47:16.646
112.0, 67475.8261413367, 79552.54072577247, -14999.138116733804, -12377.278492126286, -3151.0148228424578, -4394.375311657824, -15019.388797210313, 187500.0, -0.062, 0.982, 0.042, 192.0, 0.0, 0.0, 0.0, 0.0, 0.0, 0.0, 0.0, 0.0, 0.0, 1.700945236650342E9, 0.0, 2023-11-25 15:47:16.650
113.0, 67472.51808315731, 79542.68360646768, -14292.107736123531, -11342.705648267944, -1970.7533086244237, -3649.2352067512525, -14959.262604625537, 187500.0, -0.062, 0.982, 0.042, 192.0, 0.0, 0.0, 0.0, 0.0, 0.0, 0.0, 0.0, 0.0, 0.0, 1.700945236654351E9, 0.0, 2023-11-25 15:47:16.654
114.0, 67473.61331863563, 79524.77985915898, -14375.479742941827, -11257.813722826688, -1811.363018913629, -3553.078002104521, -15019.947590821695, 187500.0, -0.062, 0.982, 0.042, 192.0, 0.0, 0.0, 0.0, 0.0, 0.0, 0.0, 0.0, 0.0, 0.0, 1.700945236658403E9, 0.0, 2023-11-25 15:47:16.658
115.0, 67471.0205162788, 79536.6709872092, -14742.182462475594, -11753.75422880104, -2413.295497095048, -3837.168674131474, -15020.126404777338, 187500.0, -0.062, 0.982, 0.042, 192.0, 0.0, 0.0, 0.0, 0.0, 0.0, 0.0, 0.0, 0.0, 0.0, 1.700945236663337E9, 0.0, 2023-11-25 15:47:16.663
116.0, 67485.21387400792, 79559.26860085352, -15050.144797580815, -12376.49618107035, -3172.360738797276, -4374.392852114779, -15037.672524174754, 187500.0, -0.062, 0.982, 0.042, 192.0, 0.0, 0.0, 0.0, 0.0, 0.0, 0.0, 0.0, 0.0, 0.0, 1.700945236666355E9, 0.0, 2023-11-25 15:47:16.666
117.0, 67497.44027822498, 79560.54265028748, -14389.091955315109, -11546.061819322327, -2197.0423694899523, -3801.294124280706, -14944.465749796123, 187500.0, -0.066, 0.984, 0.048, 192.0, 253.0, 240.0, 30.0, 192.0, 1.0, 128.0, 0.0, 0.0, 0.0, 1.700945236669356E9, 0.0, 2023-11-25 15:47:16.669
118.0, 67491.22649326641, 79536.20160057564, -14322.796681260668, -11180.45433526687, -1750.5215705062833, -3506.9887050376783, -15013.800861096486, 187500.0, -0.066, 0.984, 0.048, 192.0, 0.0, 0.0, 0.0, 0.0, 0.0, 0.0, 0.0, 0.0, 0.0, 1.700945236674393E9, 0.0, 2023-11-25 15:47:16.674
119.0, 67478.03896403778, 79525.76333591502, -14681.18455185706, -11665.420134713666, -2297.0664259274517, -3781.065795548653, -15016.885401831318, 187500.0, -0.066, 0.984, 0.048, 192.0, 0.0, 0.0, 0.0, 0.0, 0.0, 0.0, 0.0, 0.0, 0.0, 1.700945236678437E9, 0.0, 2023-11-25 15:47:16.678
120.0, 67492.38878397808, 79547.26571408102, -15073.301204836513, -12339.884023652558, -3140.688316904106, -4327.901223647741, -15047.775512668553, 187500.0, -0.066, 0.984, 0.048, 192.0, 0.0, 0.0, 0.0, 0.0, 0.0, 0.0, 0.0, 0.0, 0.0, 1.700945236682474E9, 0.0, 2023-11-25 15:47:16.682
121.0, 67499.98837709289, 79549.74675771556, -14527.985695360387, -11773.557874388442, -2451.7404975581762, -3983.4608415914586, -14958.524997058512, 187500.0, -0.066, 0.984, 0.048, 192.0, 0.0, 0.0, 0.0, 0.0, 0.0, 0.0, 0.0, 0.0, 0.0, 1.700945236686485E9, 0.0, 2023-11-25 15:47:16.686
122.0, 67504.6822434285, 79535.2181238196, -14270.314785279606, -11104.659569818923, -1689.8812877990351, -3458.373660847385, -15008.101166260383, 187500.0, -0.066, 0.984, 0.048, 192.0, 0.0, 0.0, 0.0, 0.0, 0.0, 0.0, 0.0, 0.0, 0.0, 1.700945236690429E9, 0.0, 2023-11-25 15:47:16.690
123.0, 67500.12248755962, 79527.73028942708, -14624.701693618501, -11596.107375157759, -2190.67212232019, -3742.7325538078017, -15030.274096760048, 187500.0, -0.066, 0.984, 0.048, 192.0, 0.0, 0.0, 0.0, 0.0, 0.0, 0.0, 0.0, 0.0, 0.0, 1.700945236694477E9, 0.0, 2023-11-25 15:47:16.694
124.0, 67517.0874616012, 79561.81669972143, -15049.720114436164, -12260.80355176968, -3040.0160598774028, -4248.2843098979365, -15054.615146471877, 187500.0, -0.066, 0.984, 0.048, 192.0, 0.0, 0.0, 0.0, 0.0, 0.0, 0.0, 0.0, 0.0, 0.0, 1.70094523669743E9, 0.0, 2023-11-25 15:47:16.697
125.0, 67524.01650238235, 79569.25983062504, -14676.110705865707, -12000.092804442978, -2704.091692458593, -4147.410887171136, -14973.05363095446, 187500.0, -0.066, 0.984, 0.048, 192.0, 0.0, 0.0, 0.0, 0.0, 0.0, 0.0, 0.0, 0.0, 0.0, 1.700945236702433E9, 0.0, 2023-11-25 15:47:16.702
126.0, 67534.72298797643, 79562.84487996637, -14238.642363386436, -11105.777157041688, -1694.7539680902921, -3470.1306784308767, -14991.24795094108, 187500.0, -0.066, 0.984, 0.048, 192.0, 0.0, 0.0, 0.0, 0.0, 0.0, 0.0, 0.0, 0.0, 0.0, 1.70094523670643E9, 0.0, 2023-11-25 15:47:16.706
127.0, 67529.93971466299, 79550.55142051596, -14554.807788706756, -11521.452548677034, -2087.407062936671, -3718.2573936292406, -15011.565686650954, 187500.0, -0.066, 0.982, 0.044, 192.0, 253.0, 240.0, 30.0, 176.0, 1.0, 96.0, 0.0, 0.0, 0.0, 1.700945236710459E9, 0.0, 2023-11-25 15:47:16.710
128.0, 67528.57625825123, 79566.80113873495, -14981.748459547576, -12108.834041218048, -2872.735604373885, -4119.0241717128965, -15041.360562009879, 187500.0, -0.066, 0.982, 0.044, 192.0, 0.0, 0.0, 0.0, 0.0, 0.0, 0.0, 0.0, 0.0, 0.0, 1.700945236714446E9, 0.0, 2023-11-25 15:47:16.714
129.0, 67537.58401126672, 79577.5299760735, -14822.60403902579, -12179.93494033038, -2920.4565787859656, -4280.94020854714, -15001.708567346164, 187500.0, -0.066, 0.982, 0.044, 192.0, 0.0, 0.0, 0.0, 0.0, 0.0, 0.0, 0.0, 0.0, 0.0, 1.700945236717608E9, 0.0, 2023-11-25 15:47:16.717
130.0, 67534.9912089099, 79562.10727239934, -14233.635572628447, -11120.641067104467, -1735.5906052101382, -3491.5883531079717, -14998.713433589153, 187500.0, -0.066, 0.982, 0.044, 192.0, 0.0, 0.0, 0.0, 0.0, 0.0, 0.0, 0.0, 0.0, 0.0, 1.700945236721492E9, 0.0, 2023-11-25 15:47:16.721
131.0, 67538.45572930048, 79552.89835368376, -14510.528982940792, -11439.868681415162, -2000.838756661267, -3681.1982013223414, -15041.248803287603, 187500.0, -0.066, 0.982, 0.044, 192.0, 0.0, 0.0, 0.0, 0.0, 0.0, 0.0, 0.0, 0.0, 0.0, 1.700945236725521E9, 0.0, 2023-11-25 15:47:16.725
132.0, 67536.37701706613, 79572.0314469375, -14911.787499402464, -11992.403804350353, -2720.6319833555203, -4028.5666619022686, -15048.893099891318, 187500.0, -0.066, 0.982, 0.044, 192.0, 0.0, 0.0, 0.0, 0.0, 0.0, 0.0, 0.0, 0.0, 0.0, 1.700945236729502E9, 0.0, 2023-11-25 15:47:16.729
133.0, 67545.42947357053, 79588.16940643423, -14935.368589802812, -12309.083319793144, -3073.6107317937294, -4370.324834623913, -15019.142928021305, 187500.0, -0.066, 0.982, 0.044, 192.0, 0.0, 0.0, 0.0, 0.0, 0.0, 0.0, 0.0, 0.0, 0.0, 1.700945236734521E9, 0.0, 2023-11-25 15:47:16.734
134.0, 67551.53149980682, 79585.80012152197, -14252.902776348923, -11211.433853081924, -1833.357135457651, -3566.1314208664207, -14972.025450709518, 187500.0, -0.066, 0.982, 0.044, 192.0, 0.0, 0.0, 0.0, 0.0, 0.0, 0.0, 0.0, 0.0, 0.0, 1.700945236738575E9, 0.0, 2023-11-25 15:47:16.738
135.0, 67558.28172663233, 79570.84680448136, -14445.798330998223, -11352.428657106002, -1900.2559066123852, -3636.1594362448977, -15031.346980493901, 187500.0, -0.066, 0.982, 0.044, 192.0, 0.0, 0.0, 0.0, 0.0, 0.0, 0.0, 0.0, 0.0, 0.0, 1.700945236742577E9, 0.0, 2023-11-25 15:47:16.742
136.0, 67552.02323818485, 79573.61842079382, -14821.240582614015, -11855.298203861501, -2539.627556756444, -3922.9323176064872, -15030.475262460144, 187500.0, -0.066, 0.982, 0.044, 192.0, 0.0, 0.0, 0.0, 0.0, 0.0, 0.0, 0.0, 0.0, 0.0, 1.700945236745575E9, 0.0, 2023-11-25 15:47:16.745
137.0, 67563.91436623507, 79596.46190362715, -15030.475262460144, -12393.036471967278, -3166.7057474500834, -4415.721227612642, -15040.891175376319, 187500.0, -0.07, 0.982, 0.04, 192.0, 253.0, 208.0, 30.0, 176.0, 1.0, 64.0, 0.0, 0.0, 0.0, 1.700945236749625E9, 0.0, 2023-11-25 15:47:16.749
138.0, 67573.52561635085, 79596.57366234943, -14323.690751038881, -11391.812430836253, -2014.0262858898982, -3693.715178217313, -14967.44334309618, 187500.0, -0.07, 0.982, 0.04, 192.0, 0.0, 0.0, 0.0, 0.0, 0.0, 0.0, 0.0, 0.0, 0.0, 1.700945236753677E9, 0.0, 2023-11-25 15:47:16.753
139.0, 67576.31958440776, 79574.51249057204, -14381.358251733573, -11257.567853637678, -1806.9373735114782, -3573.887476192412, -15034.20800378418, 187500.0, -0.07, 0.982, 0.04, 192.0, 0.0, 0.0, 0.0, 0.0, 0.0, 0.0, 0.0, 0.0, 0.0, 1.700945236757655E9, 0.0, 2023-11-25 15:47:16.757
140.0, 67570.23990991592, 79578.289935385, -14743.456511909548, -11738.152711171237, -2392.5754299849787, -3848.009270192298, -15031.950477594195, 187500.0, -0.07, 0.982, 0.04, 192.0, 0.0, 0.0, 0.0, 0.0, 0.0, 0.0, 0.0, 0.0, 0.0, 1.700945236762747E9, 0.0, 2023-11-25 15:47:16.762
141.0, 67596.32439569526, 79616.10908700337, -15065.276928577057, -12380.02775669429, -3174.2829888204324, -4397.996294259584, -15046.88144289034, 187500.0, -0.07, 0.982, 0.04, 192.0, 0.0, 0.0, 0.0, 0.0, 0.0, 0.0, 0.0, 0.0, 0.0, 1.700945236766704E9, 0.0, 2023-11-25 15:47:16.766
142.0, 67583.449790889, 79599.65820308425, -14422.843089442622, -11583.702156985064, -2236.2696810090165, -3858.7381075308454, -14965.744610517575, 187500.0, -0.07, 0.982, 0.04, 192.0, 0.0, 0.0, 0.0, 0.0, 0.0, 0.0, 0.0, 0.0, 0.0, 1.700945236770668E9, 0.0, 2023-11-25 15:47:16.770
143.0, 67571.37984888314, 79565.25886836754, -14326.618829562525, -11160.471875723824, -1730.3826487520516, -3518.3210394765188, -15035.414997984768, 187500.0, -0.07, 0.982, 0.04, 192.0, 0.0, 0.0, 0.0, 0.0, 0.0, 0.0, 0.0, 0.0, 0.0, 1.700945236773715E9, 0.0, 2023-11-25 15:47:16.773
144.0, 67572.2515669169, 79576.25592663955, -14674.054345375818, -11651.87497757375, -2266.9809778906083, -3795.013284088765, -15026.384893224824, 187500.0, -0.07, 0.982, 0.04, 192.0, 0.0, 0.0, 0.0, 0.0, 0.0, 0.0, 0.0, 0.0, 0.0, 1.700945236777716E9, 0.0, 2023-11-25 15:47:16.777
145.0, 67589.52946538085, 79605.42495315374, -15066.662736733288, -12307.876325592557, -3100.455176884553, -4311.003304839529, -15052.156454581793, 187500.0, -0.07, 0.982, 0.04, 192.0, 0.0, 0.0, 0.0, 0.0, 0.0, 0.0, 0.0, 0.0, 0.0, 1.700945236781678E9, 0.0, 2023-11-25 15:47:16.781
146.0, 67599.56539864128, 79609.60472936687, -14557.31118408575, -11786.410127450245, -2476.2603612256485, -4005.03027499083, -14973.858293754853, 187500.0, -0.07, 0.982, 0.04, 192.0, 0.0, 0.0, 0.0, 0.0, 0.0, 0.0, 0.0, 0.0, 0.0, 1.700945236785745E9, 0.0, 2023-11-25 15:47:16.785
147.0, 67603.58871264324, 79591.00807798006, -14269.621881201492, -11086.353491110027, -1675.6655783254598, -3464.7215562726924, -15018.450023943189, 187500.0, -0.07, 0.984, 0.038, 192.0, 253.0, 208.0, 30.0, 192.0, 1.0, 48.0, 0.0, 0.0, 0.0, 1.700945236790762E9, 0.0, 2023-11-25 15:47:16.790
148.0, 67607.27675047836, 79593.31030765895, -14612.721158590455, -11580.192933105582, -2165.0123196854975, -3761.2621499612515, -15028.284791503525, 187500.0, -0.07, 0.984, 0.038, 192.0, 0.0, 0.0, 0.0, 0.0, 0.0, 0.0, 0.0, 0.0, 0.0, 1.7009452367951E9, 0.0, 2023-11-25 15:47:16.795
149.0, 67609.19900050153, 79604.12855197531, -15036.040846829517, -12213.84253666908, -2992.1609749985905, -4231.878129467742, -15053.318745293469, 187500.0, -0.07, 0.984, 0.038, 192.0, 0.0, 0.0, 0.0, 0.0, 0.0, 0.0, 0.0, 0.0, 0.0, 1.700945236799706E9, 0.0, 2023-11-25 15:47:16.799
150.0, 67623.37000648618, 79612.35399393487, -14698.775374743389, -12004.652560311863, -2717.7262565763303, -4172.78011712791, -14984.765945049043, 187500.0, -0.07, 0.984, 0.038, 192.0, 0.0, 0.0, 0.0, 0.0, 0.0, 0.0, 0.0, 0.0, 0.0, 1.70094523680231E9, 0.0, 2023-11-25 15:47:16.802
151.0, 67619.48080295096, 79590.58339483541, -14227.980581281256, -11051.842397671033, -1657.404203105474, -3446.706050241715, -15003.809631324964, 187500.0, -0.07, 0.984, 0.038, 192.0, 0.0, 0.0, 0.0, 0.0, 0.0, 0.0, 0.0, 0.0, 0.0, 1.700945236805762E9, 0.0, 2023-11-25 15:47:16.805
152.0, 67615.54689592682, 79576.14416791727, -14554.271346839829, -11473.016318442384, -2050.638443307691, -3695.5033177737378, -15036.152605551793, 187500.0, -0.07, 0.984, 0.038, 192.0, 0.0, 0.0, 0.0, 0.0, 0.0, 0.0, 0.0, 0.0, 0.0, 1.700945236809788E9, 0.0, 2023-11-25 15:47:16.809
153.0, 67621.58186692976, 79595.12079895983, -14975.311157144448, -12074.43470650133, -2835.095266711148, -4101.47805231548, -15053.050524360006, 187500.0, -0.07, 0.984, 0.038, 192.0, 0.0, 0.0, 0.0, 0.0, 0.0, 0.0, 0.0, 0.0, 0.0, 1.700945236813875E9, 0.0, 2023-11-25 15:47:16.813
154.0, 67644.49240499645, 79617.62900562632, -14843.860548002785, -12208.344007533075, -2943.2553581303787, -4313.886679874263, -15001.373291179336, 187500.0, -0.07, 0.984, 0.038, 192.0, 0.0, 0.0, 0.0, 0.0, 0.0, 0.0, 0.0, 0.0, 0.0, 1.70094523681781E9, 0.0, 2023-11-25 15:47:16.817
155.0, 67644.715922441, 79606.1402089763, -14227.53354639215, -11135.572032400612, -1733.4224859979734, -3511.1014260174547, -14974.551197832967, 187500.0, -0.07, 0.984, 0.038, 192.0, 0.0, 0.0, 0.0, 0.0, 0.0, 0.0, 0.0, 0.0, 0.0, 1.700945236822881E9, 0.0, 2023-11-25 15:47:16.822
156.0, 67639.75383517193, 79588.34822038987, -14491.619407131602, -11412.376035735135, -1958.4598491740048, -3672.436317495861, -15024.060311801471, 187500.0, -0.07, 0.984, 0.038, 192.0, 0.0, 0.0, 0.0, 0.0, 0.0, 0.0, 0.0, 0.0, 0.0, 1.700945236827002E9, 0.0, 2023-11-25 15:47:16.827
157.0, 67637.13868107065, 79605.26849094254, -14899.024653318484, -11957.043344622058, -2667.7701077187194, -4011.7581500718775, -15040.131216064838, 187500.0, -0.06, 0.984, 0.038, 192.0, 254.0, 32.0, 30.0, 192.0, 1.0, 48.0, 0.0, 0.0, 0.0, 1.700945236829824E9, 0.0, 2023-11-25 15:47:16.829
158.0, 67654.30482081232, 79629.27426448754, -14953.786427233987, -12314.403034973508, -3072.850772482249, -4387.2227534321255, -15019.880535588329, 187500.0, -0.06, 0.984, 0.038, 192.0, 0.0, 0.0, 0.0, 0.0, 0.0, 0.0, 0.0, 0.0, 0.0, 1.700945236833884E9, 0.0, 2023-11-25 15:47:16.833
159.0, 67647.80046317584, 79611.1917032232, -14269.890102134956, -11225.291934644216, -1847.7963623757796, -3578.0672524055544, -14977.635738567798, 187500.0, -0.06, 0.984, 0.038, 192.0, 0.0, 0.0, 0.0, 0.0, 0.0, 0.0, 0.0, 0.0, 0.0, 1.700945236837879E9, 0.0, 2023-11-25 15:47:16.837
160.0, 67651.89083241115, 79596.4395518827, -14448.8605199886, -11340.090494166672, -1884.6096854936702, -3626.592889618026, -15043.036942844028, 187500.0, -0.06, 0.984, 0.038, 192.0, 0.0, 0.0, 0.0, 0.0, 0.0, 0.0, 0.0, 0.0, 0.0, 1.700945236841876E9, 0.0, 2023-11-25 15:47:16.841
161.0, 67647.17461433109, 79610.38704042281, -14812.5457540209, -11838.065008886459, -2505.87642262893, -3910.325933733694, -15036.420826485257, 187500.0, -0.06, 0.984, 0.038, 192.0, 0.0, 0.0, 0.0, 0.0, 0.0, 0.0, 0.0, 0.0, 0.0, 1.700945236845898E9, 0.0, 2023-11-25 15:47:16.845
162.0, 67657.5234720139, 79628.29078773152, -15035.616163684865, -12373.456343824428, -3148.556130952374, -4400.052654749472, -15040.019457342562, 187500.0, -0.06, 0.984, 0.038, 192.0, 0.0, 0.0, 0.0, 0.0, 0.0, 0.0, 0.0, 0.0, 0.0, 1.700945236850036E9, 0.0, 2023-11-25 15:47:16.850
163.0, 67665.36893431771, 79632.53761917802, -14336.721818056325, -11382.782326076309, -2023.995163916965, -3698.7443207197575, -14950.6795347547, 187500.0, -0.06, 0.984, 0.038, 192.0, 0.0, 0.0, 0.0, 0.0, 0.0, 0.0, 0.0, 0.0, 0.0, 1.700945236854996E9, 0.0, 2023-11-25 15:47:16.854
164.0, 67661.54678601585, 79607.12368573234, -14377.670213898447, -11213.356103105081, -1780.8305359876797, -3551.6474904593815, -15024.663808901765, 187500.0, -0.06, 0.984, 0.038, 192.0, 0.0, 0.0, 0.0, 0.0, 0.0, 0.0, 0.0, 0.0, 0.0, 1.700945236857951E9, 0.0, 2023-11-25 15:47:16.857
165.0, 67650.63913472166, 79599.76996180654, -14744.574099132313, -11714.281048092967, -2368.2567320176045, -3836.14049388653, -15031.905774105284, 187500.0, -0.06, 0.984, 0.038, 192.0, 0.0, 0.0, 0.0, 0.0, 0.0, 0.0, 0.0, 0.0, 0.0, 1.700945236861913E9, 0.0, 2023-11-25 15:47:16.861
166.0, 67660.67506798208, 79616.71258410366, -15086.041699176038, -12358.570082017193, -3163.1071165927788, -4379.220828917126, -15056.112713350381, 187500.0, -0.06, 0.984, 0.038, 192.0, 0.0, 0.0, 0.0, 0.0, 0.0, 0.0, 0.0, 0.0, 0.0, 1.70094523686613E9, 0.0, 2023-11-25 15:47:16.866
167.0, 67668.29701284134, 79621.13822950581, -14458.605880571115, -11604.936314217606, -2275.11701287234, -3873.400851893527, -14964.492912828078, 187500.0, -0.056, 0.982, 0.046, 192.0, 254.0, 64.0, 30.0, 176.0, 1.0, 112.0, 0.0, 0.0, 0.0, 1.700945236870034E9, 0.0, 2023-11-25 15:47:16.870
168.0, 67663.91607092811, 79598.92059551724, -14325.367131873028, -11142.098741781563, -1721.0396195697333, -3496.997475266156, -15022.987428067618, 187500.0, -0.056, 0.982, 0.046, 192.0, 0.0, 0.0, 0.0, 0.0, 0.0, 0.0, 0.0, 0.0, 0.0, 1.700945236874E9, 0.0, 2023-11-25 15:47:16.874
169.0, 67659.84805343725, 79600.4852176291, -14675.61896748769, -11627.690390073109, -2247.3561462588486, -3776.483687935315, -15024.105015290383, 187500.0, -0.056, 0.982, 0.046, 192.0, 0.0, 0.0, 0.0, 0.0, 0.0, 0.0, 0.0, 0.0, 0.0, 1.700945236877997E9, 0.0, 2023-11-25 15:47:16.877
170.0, 67678.53411180188, 79628.02256679804, -15080.587873528943, -12288.944398038913, -3091.715644802528, -4298.598086666833, -15050.480073747645, 187500.0, -0.056, 0.982, 0.046, 192.0, 0.0, 0.0, 0.0, 0.0, 0.0, 0.0, 0.0, 0.0, 0.0, 1.700945236883093E9, 0.0, 2023-11-25 15:47:16.883
171.0, 67681.03750718088, 79625.07213652994, -14592.98456823642, -11825.212755824658, -2520.0250768691394, -4031.5617956592796, -14963.665898283232, 187500.0, -0.056, 0.982, 0.046, 192.0, 0.0, 0.0, 0.0, 0.0, 0.0, 0.0, 0.0, 0.0, 0.0, 1.700945236886174E9, 0.0, 2023-11-25 15:47:16.886
172.0, 67676.20953037853, 79597.31126991645, -14281.334195296073, -11082.084307919064, -1673.5421626022057, -3455.9149689573014, -15017.26538148706, 187500.0, -0.056, 0.982, 0.046, 192.0, 0.0, 0.0, 0.0, 0.0, 0.0, 0.0, 0.0, 0.0, 0.0, 1.700945236890092E9, 0.0, 2023-11-25 15:47:16.890
173.0, 67686.75955376144, 79610.27528170052, -14618.242039470917, -11561.350412529757, -2145.2980810759163, -3739.0892194615867, -15033.917431106262, 187500.0, -0.056, 0.982, 0.046, 192.0, 0.0, 0.0, 0.0, 0.0, 0.0, 0.0, 0.0, 0.0, 0.0, 1.700945236893984E9, 0.0, 2023-11-25 15:47:16.893
174.0, 67696.12493468821, 79641.9030001048, -15041.695838176709, -12202.532553974695, -2974.1007654787027, -4207.537079755912, -15061.588890741932, 187500.0, -0.056, 0.982, 0.046, 192.0, 0.0, 0.0, 0.0, 0.0, 0.0, 0.0, 0.0, 0.0, 0.0, 1.700945236898E9, 0.0, 2023-11-25 15:47:16.898
175.0, 67701.89168475768, 79647.04390132951, -14739.880232796697, -12053.960508580269, -2767.7271089228525, -4201.189184330605, -14985.235331682603, 187500.0, -0.056, 0.982, 0.046, 192.0, 0.0, 0.0, 0.0, 0.0, 0.0, 0.0, 0.0, 0.0, 0.0, 1.700945236902296E9, 0.0, 2023-11-25 15:47:16.902
176.0, 67711.56999010683, 79633.43168895623, -14235.66958137388, -11082.62074978599, -1679.7782993052363, -3463.6710242832933, -14984.810648537952, 187500.0, -0.056, 0.986, 0.042, 192.0, 254.0, 64.0, 30.0, 208.0, 1.0, 80.0, 0.0, 0.0, 0.0, 1.700945236906128E9, 0.0, 2023-11-25 15:47:16.906
177.0, 67707.77019354943, 79619.77477309403, -14552.706724727956, -11479.565379567788, -2043.4411815930823, -3707.1262248904977, -15030.989352582617, 187500.0, -0.056, 0.986, 0.042, 192.0, 0.0, 0.0, 0.0, 0.0, 0.0, 0.0, 0.0, 0.0, 0.0, 1.700945236911081E9, 0.0, 2023-11-25 15:47:16.911
178.0, 67714.11808897473, 79636.42682271324, -14972.897168743273, -12064.376421496443, -2810.664810021497, -4092.2467818554383, -15052.31291679298, 187500.0, -0.056, 0.986, 0.042, 192.0, 0.0, 0.0, 0.0, 0.0, 0.0, 0.0, 0.0, 0.0, 0.0, 1.700945236914092E9, 0.0, 2023-11-25 15:47:16.914
179.0, 67740.89547883219, 79666.62402947235, -14868.626280859267, -12229.332295576609, -2963.975425240448, -4320.681610188676, -15003.854334813874, 187500.0, -0.056, 0.986, 0.042, 192.0, 0.0, 0.0, 0.0, 0.0, 0.0, 0.0, 0.0, 0.0, 0.0, 1.700945236918102E9, 0.0, 2023-11-25 15:47:16.918
180.0, 67743.06359804435, 79661.37136952537, -14232.070950516576, -11135.504977167247, -1741.1338378350542, -3510.3638184504293, -14976.316985644937, 187500.0, -0.056, 0.986, 0.042, 192.0, 0.0, 0.0, 0.0, 0.0, 0.0, 0.0, 0.0, 0.0, 0.0, 1.700945236922097E9, 0.0, 2023-11-25 15:47:16.922
181.0, 67728.89259205968, 79629.07309878744, -14491.77586934279, -11378.200218462971, -1939.9302530205553, -3654.4878666982495, -15036.68904741872, 187500.0, -0.056, 0.986, 0.042, 192.0, 0.0, 0.0, 0.0, 0.0, 0.0, 0.0, 0.0, 0.0, 0.0, 1.70094523692612E9, 0.0, 2023-11-25 15:47:16.926
182.0, 67736.93922006359, 79650.66488393127, -14886.686490379154, -11910.372902199377, -2635.3377265140684, -3980.4880595789027, -15043.282812033036, 187500.0, -0.056, 0.986, 0.042, 192.0, 0.0, 0.0, 0.0, 0.0, 0.0, 0.0, 0.0, 0.0, 0.0, 1.700945236930093E9, 0.0, 2023-11-25 15:47:16.930
183.0, 67755.02178132795, 79674.42478828726, -14974.372383877324, -12308.457470948395, -3090.1286709462015, -4387.0439394764835, -15031.369332238357, 187500.0, -0.056, 0.986, 0.042, 192.0, 0.0, 0.0, 0.0, 0.0, 0.0, 0.0, 0.0, 0.0, 0.0, 1.700945236934188E9, 0.0, 2023-11-25 15:47:16.934
184.0, 67756.47464471754, 79666.48991900563, -14276.752087682735, -11242.569833108168, -1877.2336098234189, -3611.5054621106938, -14974.528846088511, 187500.0, -0.056, 0.986, 0.042, 192.0, 0.0, 0.0, 0.0, 0.0, 0.0, 0.0, 0.0, 0.0, 0.0, 1.700945236939172E9, 0.0, 2023-11-25 15:47:16.939
185.0, 67753.23364177151, 79641.9477035937, -14431.873194202566, -11300.036168102763, -1858.0334613363102, -3619.373276158962, -15042.075817832449, 187500.0, -0.056, 0.986, 0.042, 192.0, 0.0, 0.0, 0.0, 0.0, 0.0, 0.0, 0.0, 0.0, 0.0, 1.700945236942203E9, 0.0, 2023-11-25 15:47:16.942
186.0, 67753.77008363845, 79655.26934328907, -14807.36014930727, -11809.81240389495, -2484.2846374851033, -3912.8293291126884, -15037.31489626347, 187500.0, -0.062, 0.988, 0.042, 192.0, 254.0, 16.0, 30.0, 224.0, 1.0, 80.0, 0.0, 0.0, 0.0, 1.700945236945225E9, 0.0, 2023-11-25 15:47:16.945
187.0, 67761.66024943117, 79669.57445974046, -15046.724980679153, -12362.325175085685, -3150.1878082976114, -4408.1216344978375, -15038.968925353161, 187500.0, -0.062, 0.988, 0.042, 192.0, 0.0, 0.0, 0.0, 0.0, 0.0, 0.0, 0.0, 0.0, 0.0, 1.700945236950355E9, 0.0, 2023-11-25 15:47:16.950
188.0, 67765.25888028847, 79665.01470387158, -14356.011373521254, -11410.610247923167, -2060.652024823669, -3735.043553715176, -14960.089619170383, 187500.0, -0.062, 0.988, 0.042, 192.0, 0.0, 0.0, 0.0, 0.0, 0.0, 0.0, 0.0, 0.0, 0.0, 1.700945236954293E9, 0.0, 2023-11-25 15:47:16.954
189.0, 67766.33176402232, 79640.94187509321, -14376.12794353103, -11223.302629387694, -1782.462213332917, -3566.712566222259, -15034.83385262893, 187500.0, -0.062, 0.988, 0.042, 192.0, 0.0, 0.0, 0.0, 0.0, 0.0, 0.0, 0.0, 0.0, 0.0, 1.7009452369583E9, 0.0, 2023-11-25 15:47:16.958
190.0, 67763.6942581766, 79646.61921818486, -14726.782110545888, -11717.946734183639, -2346.7320021071437, -3844.812970735189, -15022.272172245048, 187500.0, -0.062, 0.988, 0.042, 192.0, 0.0, 0.0, 0.0, 0.0, 0.0, 0.0, 0.0, 0.0, 0.0, 1.700945236962301E9, 0.0, 2023-11-25 15:47:16.962
191.0, 67767.65051694518, 79663.89711664882, -15085.4605538202, -12360.49233204035, -3152.0877065763125, -4389.077948221916, -15056.671506961764, 187500.0, -0.062, 0.988, 0.042, 192.0, 0.0, 0.0, 0.0, 0.0, 0.0, 0.0, 0.0, 0.0, 0.0, 1.700945236965638E9, 0.0, 2023-11-25 15:47:16.965
192.0, 67765.92943262213, 79663.38302652634, -14486.67967160698, -11663.520236434966, -2325.117865218862, -3930.1519310655513, -14971.779581520508, 187500.0, -0.062, 0.988, 0.042, 192.0, 0.0, 0.0, 0.0, 0.0, 0.0, 0.0, 0.0, 0.0, 0.0, 1.700945236969248E9, 0.0, 2023-11-25 15:47:16.969
193.0, 67762.75548490947, 79649.07791007495, -14317.432262591394, -11136.220232989817, -1711.853052598602, -3508.3298097049965, -15024.97673332414, 187500.0, -0.062, 0.988, 0.042, 192.0, 0.0, 0.0, 0.0, 0.0, 0.0, 0.0, 0.0, 0.0, 0.0, 1.700945236973273E9, 0.0, 2023-11-25 15:47:16.973
194.0, 67766.59998495578, 79658.28682879053, -14659.883339391154, -11615.86631725625, -2225.9431750706644, -3779.9035048369774, -15029.06710255946, 187500.0, -0.062, 0.988, 0.042, 192.0, 0.0, 0.0, 0.0, 0.0, 0.0, 0.0, 0.0, 0.0, 0.0, 1.700945236977291E9, 0.0, 2023-11-25 15:47:16.977
195.0, 67780.12279035125, 79679.25276508961, -15067.690916978232, -12276.829752544136, -3069.430955580587, -4291.80315635242, -15050.189501069726, 187500.0, -0.062, 0.988, 0.042, 192.0, 0.0, 0.0, 0.0, 0.0, 0.0, 0.0, 0.0, 0.0, 0.0, 1.700945236982366E9, 0.0, 2023-11-25 15:47:16.982
196.0, 67777.86526416127, 79673.84364293143, -14619.091405760219, -11879.438087873232, -2570.875295504963, -4084.446023040536, -14971.44430535368, 187500.0, -0.06, 0.986, 0.044, 192.0, 254.0, 32.0, 30.0, 208.0, 1.0, 96.0, 0.0, 0.0, 0.0, 1.700945236986367E9, 0.0, 2023-11-25 15:47:16.986
197.0, 67775.20540657108, 79655.26934328907, -14268.191369556353, -11079.469153817792, -1673.8103835356694, -3467.671986540793, -15012.593866895899, 187500.0, -0.06, 0.986, 0.044, 192.0, 0.0, 0.0, 0.0, 0.0, 0.0, 0.0, 0.0, 0.0, 0.0, 1.700945236990381E9, 0.0, 2023-11-25 15:47:16.990
198.0, 67781.28508106293, 79660.9019828918, -14594.169210692551, -11524.80531034533, -2114.8550051277884, -3729.4779693458045, -15024.887326346317, 187500.0, -0.06, 0.986, 0.044, 192.0, 0.0, 0.0, 0.0, 0.0, 0.0, 0.0, 0.0, 0.0, 0.0, 1.700945236993347E9, 0.0, 2023-11-25 15:47:16.993
199.0, 67779.34047929532, 79674.87182317636, -15029.491785704111, -12155.348021429541, -2940.863721473661, -4188.091062079795, -15064.002879143105, 187500.0, -0.06, 0.986, 0.044, 192.0, 0.0, 0.0, 0.0, 0.0, 0.0, 0.0, 0.0, 0.0, 0.0, 1.700945236997416E9, 0.0, 2023-11-25 15:47:16.997
200.0, 67794.53966552492, 79687.18763437124, -14767.439933710091, -12088.136325852434, -2811.2683071217907, -4238.293080126415, -14999.406337667268, 187500.0, -0.06, 0.986, 0.044, 192.0, 0.0, 0.0, 0.0, 0.0, 0.0, 0.0, 0.0, 0.0, 0.0, 1.700945237002122E9, 0.0, 2023-11-25 15:47:17.002
201.0, 67801.20048537261, 79676.21292784369, -14241.77160761018, -11110.091043721563, -1702.24180248282, -3493.823527553502, -15000.5909801234, 187500.0, -0.06, 0.986, 0.044, 192.0, 0.0, 0.0, 0.0, 0.0, 0.0, 0.0, 0.0, 0.0, 0.0, 1.70094523700538E9, 0.0, 2023-11-25 15:47:17.005
202.0, 67800.46287780558, 79671.34024755243, -14536.389951275582, -11471.429344586057, -2027.3702773297166, -3709.8754894585004, -15038.20896604168, 187500.0, -0.06, 0.986, 0.044, 192.0, 0.0, 0.0, 0.0, 0.0, 0.0, 0.0, 0.0, 0.0, 0.0, 1.700945237010384E9, 0.0, 2023-11-25 15:47:17.010
203.0, 67799.16647662717, 79683.14196862483, -14958.927328458707, -12030.982915280214, -2781.249914318313, -4079.2380665824494, -15064.896948921318, 187500.0, -0.06, 0.986, 0.044, 192.0, 0.0, 0.0, 0.0, 0.0, 0.0, 0.0, 0.0, 0.0, 0.0, 1.700945237014404E9, 0.0, 2023-11-25 15:47:17.014
204.0, 67816.84670649133, 79708.37708811487, -14896.633016661766, -12244.710295761859, -2996.631323889652, -4349.738877980576, -15021.109881533372, 187500.0, -0.06, 0.986, 0.044, 192.0, 0.0, 0.0, 0.0, 0.0, 0.0, 0.0, 0.0, 0.0, 0.0, 1.700945237018421E9, 0.0, 2023-11-25 15:47:17.018
205.0, 67827.48613685205, 79704.42082934629, -14239.603488398016, -11133.403913188447, -1757.9423496654451, -3521.539690678083, -14980.16148569125, 187500.0, -0.06, 0.986, 0.044, 192.0, 0.0, 0.0, 0.0, 0.0, 0.0, 0.0, 0.0, 0.0, 0.0, 1.700945237021558E9, 0.0, 2023-11-25 15:47:17.021
206.0, 67834.39282588873, 79689.13223613886, -14480.48823839286, -11370.06418348124, -1932.6659360725805, -3664.6355586809586, -15040.868823631863, 187500.0, -0.062, 0.972, 0.044, 192.0, 254.0, 16.0, 30.0, 96.0, 1.0, 96.0, 0.0, 0.0, 0.0, 1.700945237025487E9, 0.0, 2023-11-25 15:47:17.025
207.0, 67829.09546245282, 79701.60450954492, -14868.961557026096, -11905.656684119307, -2612.4495401918343, -3974.229571131417, -15041.695838176709, 187500.0, -0.062, 0.972, 0.044, 192.0, 0.0, 0.0, 0.0, 0.0, 0.0, 0.0, 0.0, 0.0, 0.0, 1.700945237029653E9, 0.0, 2023-11-25 15:47:17.029
208.0, 67843.37822715977, 79721.20698943222, -14985.637663082798, -12324.416616489485, -3102.779758307905, -4389.05559647746, -15023.12153853435, 187500.0, -0.062, 0.972, 0.044, 192.0, 0.0, 0.0, 0.0, 0.0, 0.0, 0.0, 0.0, 0.0, 0.0, 1.700945237033456E9, 0.0, 2023-11-25 15:47:17.033
209.0, 67845.88162253877, 79714.00972771761, -14281.803581929635, -11249.23065295585, -1891.2705053413517, -3608.823252776057, -14959.217901136626, 187500.0, -0.062, 0.972, 0.044, 192.0, 0.0, 0.0, 0.0, 0.0, 0.0, 0.0, 0.0, 0.0, 0.0, 1.700945237037506E9, 0.0, 2023-11-25 15:47:17.037
210.0, 67843.98172426007, 79692.88732920734, -14413.99179863832, -11253.924519291464, -1824.0588097642435, -3581.1294413959317, -15028.620067670354, 187500.0, -0.062, 0.972, 0.044, 192.0, 0.0, 0.0, 0.0, 0.0, 0.0, 0.0, 0.0, 0.0, 0.0, 1.700945237042511E9, 0.0, 2023-11-25 15:47:17.042
211.0, 67836.27037242298, 79694.56371004149, -14791.848038655287, -11757.464618380622, -2441.749267786654, -3869.332834402661, -15031.63755317182, 187500.0, -0.062, 0.972, 0.044, 192.0, 0.0, 0.0, 0.0, 0.0, 0.0, 0.0, 0.0, 0.0, 0.0, 1.700945237046515E9, 0.0, 2023-11-25 15:47:17.046
212.0, 67846.59687836134, 79713.0709544505, -15070.88721643534, -12357.094866883144, -3159.8884653912146, -4400.499689638578, -15048.513120235577, 187500.0, -0.062, 0.972, 0.044, 192.0, 0.0, 0.0, 0.0, 0.0, 0.0, 0.0, 0.0, 0.0, 0.0, 1.70094523704952E9, 0.0, 2023-11-25 15:47:17.049
213.0, 67855.67168661019, 79723.10688771092, -14382.274673256241, -11463.785047982341, -2110.027028325442, -3772.0803942776197, -14951.215976621626, 187500.0, -0.062, 0.972, 0.044, 192.0, 0.0, 0.0, 0.0, 0.0, 0.0, 0.0, 0.0, 0.0, 0.0, 1.700945237053544E9, 0.0, 2023-11-25 15:47:17.053
214.0, 67853.39180867575, 79703.2585386346, -14349.12703622902, -11177.6380154655, -1737.5575587222052, -3526.1441500358765, -15017.77947160953, 187500.0, -0.062, 0.972, 0.044, 192.0, 0.0, 0.0, 0.0, 0.0, 0.0, 0.0, 0.0, 0.0, 0.0, 1.700945237057542E9, 0.0, 2023-11-25 15:47:17.057
215.0, 67855.4705209101, 79712.78038177257, -14704.497421323947, -11669.01876557097, -2298.675751528234, -3803.3057812816837, -15023.523869934545, 187500.0, -0.062, 0.972, 0.044, 192.0, 0.0, 0.0, 0.0, 0.0, 0.0, 0.0, 0.0, 0.0, 0.0, 1.700945237061584E9, 0.0, 2023-11-25 15:47:17.061
216.0, 67863.56185240291, 79728.00191974663, -15077.36922232738, -12334.877232894569, -3121.6446306281846, -4348.777752968997, -15056.917376150774, 187500.0, -0.066, 0.98, 0.044, 192.0, 253.0, 240.0, 30.0, 160.0, 1.0, 96.0, 0.0, 0.0, 0.0, 1.700945237065534E9, 0.0, 2023-11-25 15:47:17.065
217.0, 67868.05455303843, 79726.59375984594, -14501.789450858767, -11685.827277401362, -2348.5871968969345, -3933.325878778205, -14970.863159997842, 187500.0, -0.066, 0.98, 0.044, 192.0, 0.0, 0.0, 0.0, 0.0, 0.0, 0.0, 0.0, 0.0, 0.0, 1.700945237069588E9, 0.0, 2023-11-25 15:47:17.069
218.0, 67866.44522743765, 79697.08945716494, -14301.8754484505, -11119.568183370613, -1692.854069811591, -3491.2307251966868, -15023.948553079195, 187500.0, -0.066, 0.98, 0.044, 192.0, 0.0, 0.0, 0.0, 0.0, 0.0, 0.0, 0.0, 0.0, 0.0, 1.700945237074581E9, 0.0, 2023-11-25 15:47:17.074
219.0, 67859.35972444531, 79691.09918965092, -14646.13701655114, -11596.666168769141, -2198.6293433462793, -3769.1970192428853, -15026.429596713735, 187500.0, -0.066, 0.98, 0.044, 192.0, 0.0, 0.0, 0.0, 0.0, 0.0, 0.0, 0.0, 0.0, 0.0, 1.700945237077636E9, 0.0, 2023-11-25 15:47:17.077
220.0, 67885.08658231338, 79734.10394598293, -15058.750219196108, -12263.865740760059, -3041.6253854781853, -4278.995606779528, -15044.6015649559, 187500.0, -0.066, 0.98, 0.044, 192.0, 0.0, 0.0, 0.0, 0.0, 0.0, 0.0, 0.0, 0.0, 0.0, 1.700945237081669E9, 0.0, 2023-11-25 15:47:17.081
221.0, 67893.021451595, 79747.24677172265, -14630.736664621434, -11917.190184258245, -2596.5350981396555, -4114.486767588469, -14960.00021219256, 187500.0, -0.066, 0.98, 0.044, 192.0, 0.0, 0.0, 0.0, 0.0, 0.0, 0.0, 0.0, 0.0, 0.0, 1.700945237085694E9, 0.0, 2023-11-25 15:47:17.085
222.0, 67887.67938467019, 79722.43633537726, -14246.599584412526, -11074.931749693365, -1656.0854501826109, -3467.5602278185165, -14995.763003321053, 187500.0, -0.066, 0.98, 0.044, 192.0, 0.0, 0.0, 0.0, 0.0, 0.0, 0.0, 0.0, 0.0, 0.0, 1.700945237089712E9, 0.0, 2023-11-25 15:47:17.089
223.0, 67888.43934398166, 79720.93876849876, -14578.7912105073, -11530.5720604148, -2094.0678827843526, -3735.132960692997, -15019.58996291041, 187500.0, -0.066, 0.98, 0.044, 192.0, 0.0, 0.0, 0.0, 0.0, 0.0, 0.0, 0.0, 0.0, 0.0, 1.700945237093724E9, 0.0, 2023-11-25 15:47:17.093
224.0, 67889.35576550434, 79734.88625703887, -15002.692044102198, -12150.542396371651, -2898.7753866643175, -4169.092079292784, -15049.876576647352, 187500.0, -0.066, 0.98, 0.044, 192.0, 0.0, 0.0, 0.0, 0.0, 0.0, 0.0, 0.0, 0.0, 0.0, 1.700945237098727E9, 0.0, 2023-11-25 15:47:17.098
225.0, 67899.83873365387, 79744.63161762139, -14779.420468738135, -12111.605657530507, -2822.1983101604355, -4250.541836087923, -14992.20907595266, 187500.0, -0.066, 0.98, 0.044, 192.0, 0.0, 0.0, 0.0, 0.0, 0.0, 0.0, 0.0, 0.0, 0.0, 1.700945237102761E9, 0.0, 2023-11-25 15:47:17.102
226.0, 67910.25464657004, 79741.99411177565, -14230.551031893616, -11084.587703298057, -1677.4537178818844, -3473.63990231036, -14978.529808346011, 187500.0, -0.066, 0.982, 0.04, 192.0, 253.0, 240.0, 30.0, 176.0, 1.0, 64.0, 0.0, 0.0, 0.0, 1.70094523710626E9, 0.0, 2023-11-25 15:47:17.106
227.0, 67904.7784691785, 79725.52087611209, -14515.960456843432, -11436.202995324493, -1985.7289774094795, -3679.767689677202, -15008.190573238204, 187500.0, -0.066, 0.982, 0.04, 192.0, 0.0, 0.0, 0.0, 0.0, 0.0, 0.0, 0.0, 0.0, 0.0, 1.700945237109722E9, 0.0, 2023-11-25 15:47:17.109
228.0, 67897.02241385251, 79736.16030647283, -14929.557136244433, -12010.978103992713, -2732.746628850297, -4047.8785691116536, -15027.435425214224, 187500.0, -0.066, 0.982, 0.04, 192.0, 0.0, 0.0, 0.0, 0.0, 0.0, 0.0, 0.0, 0.0, 0.0, 1.700945237113697E9, 0.0, 2023-11-25 15:47:17.113
229.0, 67911.28282681499, 79752.45472818075, -14906.28897026646, -12270.86183677457, -3007.7624926283947, -4354.656261760743, -15001.39564292379, 187500.0, -0.066, 0.982, 0.04, 192.0, 0.0, 0.0, 0.0, 0.0, 0.0, 0.0, 0.0, 0.0, 0.0, 1.70094523711773E9, 0.0, 2023-11-25 15:47:17.117
230.0, 67920.7823182085, 79755.47221368221, -14243.112712277498, -11169.814904906143, -1771.4204515719953, -3533.609632683949, -14968.24800589657, 187500.0, -0.066, 0.982, 0.04, 192.0, 0.0, 0.0, 0.0, 0.0, 0.0, 0.0, 0.0, 0.0, 0.0, 1.700945237121764E9, 0.0, 2023-11-25 15:47:17.121
231.0, 67912.7803936935, 79732.00288200413, -14458.04708695973, -11352.428657106002, -1898.5571740337818, -3628.559843130093, -15026.384893224824, 187500.0, -0.066, 0.982, 0.04, 192.0, 0.0, 0.0, 0.0, 0.0, 0.0, 0.0, 0.0, 0.0, 0.0, 1.700945237125716E9, 0.0, 2023-11-25 15:47:17.125
232.0, 67916.93781816219, 79753.7287776147, -14836.50682407699, -11866.898759233805, -2563.6109785569884, -3932.1188845776182, -15021.69102688921, 187500.0, -0.066, 0.982, 0.04, 192.0, 0.0, 0.0, 0.0, 0.0, 0.0, 0.0, 0.0, 0.0, 0.0, 1.700945237130734E9, 0.0, 2023-11-25 15:47:17.130
233.0, 67938.70841726166, 79788.26222279815, -14979.5356368465, -12346.120160355587, -3113.374485179721, -4390.799032544975, -15012.795032595997, 187500.0, -0.066, 0.982, 0.04, 192.0, 0.0, 0.0, 0.0, 0.0, 0.0, 0.0, 0.0, 0.0, 0.0, 1.70094523713378E9, 0.0, 2023-11-25 15:47:17.133
234.0, 67935.42271082672, 79775.54408020306, -14274.651023703937, -11294.314121522204, -1925.2898604023292, -3628.4480844078166, -14950.14309288777, 187500.0, -0.066, 0.982, 0.04, 192.0, 0.0, 0.0, 0.0, 0.0, 0.0, 0.0, 0.0, 0.0, 0.0, 1.700945237137764E9, 0.0, 2023-11-25 15:47:17.137
235.0, 67939.26721087303, 79757.41681544982, -14381.134734289019, -11248.26952794427, -1808.949030512456, -3556.028432372622, -15021.802785611486, 187500.0, -0.066, 0.982, 0.04, 192.0, 0.0, 0.0, 0.0, 0.0, 0.0, 0.0, 0.0, 0.0, 0.0, 1.700945237141899E9, 0.0, 2023-11-25 15:47:17.141
236.0, 67934.95332419316, 79765.91047834283, -14744.037657265384, -11755.095333468358, -2419.2857646090706, -3846.71286901389, -15016.01368379756, 187500.0, -0.066, 0.978, 0.042, 192.0, 253.0, 240.0, 30.0, 144.0, 1.0, 80.0, 0.0, 0.0, 0.0, 1.700945237145802E9, 0.0, 2023-11-25 15:47:17.145
237.0, 67942.17293765223, 79784.12715007391, -15028.888288603817, -12359.531207028773, -3153.227645543533, -4378.192648672181, -15025.848451357897, 187500.0, -0.066, 0.978, 0.042, 192.0, 0.0, 0.0, 0.0, 0.0, 0.0, 0.0, 0.0, 0.0, 0.0, 1.70094523714983E9, 0.0, 2023-11-25 15:47:17.149
238.0, 67949.8395860004, 79785.5800134635, -14359.565300889648, -11498.720824565986, -2150.863665445288, -3781.1552025264746, -14933.021656635006, 187500.0, -0.066, 0.978, 0.042, 192.0, 0.0, 0.0, 0.0, 0.0, 0.0, 0.0, 0.0, 0.0, 0.0, 1.700945237153851E9, 0.0, 2023-11-25 15:47:17.153
239.0, 67946.91150747675, 79763.49648994167, -14304.758823485236, -11181.214294578349, -1747.6158437270933, -3517.628135398404, -14996.947645777183, 187500.0, -0.066, 0.978, 0.042, 192.0, 0.0, 0.0, 0.0, 0.0, 0.0, 0.0, 0.0, 0.0, 0.0, 1.700945237158912E9, 0.0, 2023-11-25 15:47:17.158
240.0, 67936.42853932721, 79760.21078350673, -14653.222519543473, -11669.219931271069, -2297.468757327647, -3793.4710137213488, -14993.840753297896, 187500.0, -0.066, 0.978, 0.042, 192.0, 0.0, 0.0, 0.0, 0.0, 0.0, 0.0, 0.0, 0.0, 0.0, 1.700945237161813E9, 0.0, 2023-11-25 15:47:17.161
241.0, 67958.10973144886, 79795.34772579047, -15025.379064724335, -12334.184328816455, -3129.3112789763545, -4336.28312781848, -15015.097262274894, 187500.0, -0.066, 0.978, 0.042, 192.0, 0.0, 0.0, 0.0, 0.0, 0.0, 0.0, 0.0, 0.0, 0.0, 1.700945237164871E9, 0.0, 2023-11-25 15:47:17.164
242.0, 67955.38281862531, 79792.68786820029, -14466.406639386016, -11722.730007497074, -2397.5822207429674, -3949.2850243192943, -14927.321961798903, 187500.0, -0.066, 0.978, 0.042, 192.0, 0.0, 0.0, 0.0, 0.0, 0.0, 0.0, 0.0, 0.0, 0.0, 1.700945237169919E9, 0.0, 2023-11-25 15:47:17.169
243.0, 67945.70451327617, 79769.41970222232, -14244.252651244718, -11108.235848931772, -1692.0941105001107, -3463.44750683874, -14987.425802639224, 187500.0, -0.066, 0.978, 0.042, 192.0, 0.0, 0.0, 0.0, 0.0, 0.0, 0.0, 0.0, 0.0, 0.0, 1.700945237173927E9, 0.0, 2023-11-25 15:47:17.173
244.0, 67944.47516733113, 79767.20687952124, -14584.446201854493, -11589.066575654339, -2194.4272153886814, -3746.8676265320337, -14992.812573052952, 187500.0, -0.066, 0.978, 0.042, 192.0, 0.0, 0.0, 0.0, 0.0, 0.0, 0.0, 0.0, 0.0, 0.0, 1.700945237177922E9, 0.0, 2023-11-25 15:47:17.177
245.0, 67951.44891160118, 79785.5353099746, -14998.691081844698, -12241.648106771483, -3036.216263320001, -4245.803266263398, -15021.802785611486, 187500.0, -0.066, 0.978, 0.042, 192.0, 0.0, 0.0, 0.0, 0.0, 0.0, 0.0, 0.0, 0.0, 0.0, 1.700945237181925E9, 0.0, 2023-11-25 15:47:17.181
246.0, 67953.61703081334, 79785.91528963033, -14606.954408520987, -11936.926774612282, -2651.5203894997107, -4109.703494275033, -14947.974973675606, 187500.0, -0.06, 0.972, 0.038, 192.0, 254.0, 32.0, 30.0, 96.0, 1.0, 48.0, 0.0, 0.0, 0.0, 1.700945237186944E9, 0.0, 2023-11-25 15:47:17.186
247.0, 67952.74531277959, 79777.08635057049, -14193.245970397707, -11053.630537227456, -1671.0611189676665, -3435.0384396360446, -14972.651299554265, 187500.0, -0.06, 0.972, 0.038, 192.0, 0.0, 0.0, 0.0, 0.0, 0.0, 0.0, 0.0, 0.0, 0.0, 1.700945237189981E9, 0.0, 2023-11-25 15:47:17.189
248.0, 67949.34784762238, 79771.76663539013, -14522.73303541339, -11496.37389139818, -2096.2807054854284, -3704.846346956056, -15000.278055701025, 187500.0, -0.06, 0.972, 0.038, 192.0, 0.0, 0.0, 0.0, 0.0, 0.0, 0.0, 0.0, 0.0, 0.0, 1.700945237192936E9, 0.0, 2023-11-25 15:47:17.192
249.0, 67963.87648151832, 79801.15917934885, -14939.593069504866, -12120.434596590352, -2899.736511675896, -4141.621785357212, -15014.314951218958, 187500.0, -0.06, 0.972, 0.038, 192.0, 0.0, 0.0, 0.0, 0.0, 0.0, 0.0, 0.0, 0.0, 0.0, 1.700945237197923E9, 0.0, 2023-11-25 15:47:17.197
250.0, 67971.87840603333, 79807.21650209624, -14737.019209506418, -12129.934087983858, -2875.417813708522, -4250.228911665548, -14951.685363255188, 187500.0, -0.06, 0.972, 0.038, 192.0, 0.0, 0.0, 0.0, 0.0, 0.0, 0.0, 0.0, 0.0, 0.0, 1.700945237201957E9, 0.0, 2023-11-25 15:47:17.201
251.0, 67975.29822293499, 79794.07367635652, -14173.487028299216, -11085.615883543001, -1710.2213752533646, -3467.8508004964356, -14952.512377800034, 187500.0, -0.06, 0.972, 0.038, 192.0, 0.0, 0.0, 0.0, 0.0, 0.0, 0.0, 0.0, 0.0, 0.0, 1.700945237205999E9, 0.0, 2023-11-25 15:47:17.205
252.0, 67976.23699620212, 79783.8812808849, -14461.489255605848, -11425.340047519214, -2004.5938497297586, -3677.7783844206792, -15006.11186100386, 187500.0, -0.06, 0.972, 0.038, 192.0, 0.0, 0.0, 0.0, 0.0, 0.0, 0.0, 0.0, 0.0, 0.0, 1.700945237210021E9, 0.0, 2023-11-25 15:47:17.210
253.0, 67981.71317359367, 79802.29911831608, -14862.27838543396, -11978.2775018546, -2731.6513933719866, -4023.5598711442794, -15014.426709941234, 187500.0, -0.06, 0.972, 0.038, 192.0, 0.0, 0.0, 0.0, 0.0, 0.0, 0.0, 0.0, 0.0, 0.0, 1.700945237213073E9, 0.0, 2023-11-25 15:47:17.213
254.0, 68000.1533627693, 79816.91715918985, -14867.08401049185, -12282.261226446775, -3059.2385601089672, -4362.859351975841, -14985.078869471416, 187500.0, -0.06, 0.972, 0.038, 192.0, 0.0, 0.0, 0.0, 0.0, 0.0, 0.0, 0.0, 0.0, 0.0, 1.700945237217021E9, 0.0, 2023-11-25 15:47:17.217
255.0, 67999.5051621801, 79801.1368276044, -14195.57055182106, -11201.509678543769, -1829.7361528558915, -3561.571664997538, -14937.961392159628, 187500.0, -0.06, 0.972, 0.038, 192.0, 0.0, 0.0, 0.0, 0.0, 0.0, 0.0, 0.0, 0.0, 0.0, 1.700945237221031E9, 0.0, 2023-11-25 15:47:17.221
0.0, 67995.37008945586, 79775.4770249697, -14403.151202577497, -11367.896064269074, -1924.9545842354996, -3639.1545700019087, -15001.954436535174, 187500.0, -0.06, 0.978, 0.044, 192.0, 254.0, 32.0, 30.0, 144.0, 1.0, 96.0, 0.0, 0.0, 0.0, 1.700945237226027E9, 0.0, 2023-11-25 15:47:17.226
1.0, 67997.51585692356, 79794.92304264582, -14782.527361217424, -11883.841381530927, -2580.486545620745, -3945.5746347397135, -15003.094375502395, 187500.0, -0.06, 0.978, 0.044, 192.0, 0.0, 0.0, 0.0, 0.0, 0.0, 0.0, 0.0, 0.0, 0.0, 1.70094523723E9, 0.0, 2023-11-25 15:47:17.230
2.0, 68014.59258968743, 79823.71208950426, -14957.295651113469, -12387.940274231467, -3170.5055440074857, -4429.40049521929, -14999.473392900634, 187500.0, -0.06, 0.978, 0.044, 192.0, 0.0, 0.0, 0.0, 0.0, 0.0, 0.0, 0.0, 0.0, 0.0, 1.700945237234089E9, 0.0, 2023-11-25 15:47:17.234
3.0, 68008.64702566231, 79813.69850798829, -14260.569424697092, -11369.415982892035, -2005.3314572967838, -3695.7715387072017, -14932.529918256989, 187500.0, -0.06, 0.978, 0.044, 192.0, 0.0, 0.0, 0.0, 0.0, 0.0, 0.0, 0.0, 0.0, 0.0, 1.700945237238117E9, 0.0, 2023-11-25 15:47:17.238
4.0, 67996.3982697008, 79791.65968795535, -14343.9861350043, -11264.429839185457, -1830.6302226341038, -3590.5842293005267, -15002.177953979726, 187500.0, -0.06, 0.978, 0.044, 192.0, 0.0, 0.0, 0.0, 0.0, 0.0, 0.0, 0.0, 0.0, 0.0, 1.700945237241129E9, 0.0, 2023-11-25 15:47:17.241
5.0, 67984.06010676148, 79801.7850281936, -14713.415767361614, -11752.748400300552, -2425.5219013121014, -3871.7915262927445, -15010.313988961458, 187500.0, -0.06, 0.978, 0.044, 192.0, 0.0, 0.0, 0.0, 0.0, 0.0, 0.0, 0.0, 0.0, 0.0, 1.700945237245286E9, 0.0, 2023-11-25 15:47:17.245
6.0, 67996.44297318971, 79827.84716222849, -15016.371311708846, -12363.68863149746, -3175.0876516208236, -4391.871916278829, -15024.239125757114, 187500.0, -0.06, 0.978, 0.044, 192.0, 0.0, 0.0, 0.0, 0.0, 0.0, 0.0, 0.0, 0.0, 0.0, 1.700945237249265E9, 0.0, 2023-11-25 15:47:17.249
7.0, 68007.50708669508, 79836.36317686597, -14365.17558874793, -11531.399074959645, -2205.58073587188, -3815.174557587452, -14933.647505479754, 187500.0, -0.06, 0.978, 0.044, 192.0, 0.0, 0.0, 0.0, 0.0, 0.0, 0.0, 0.0, 0.0, 0.0, 1.700945237253223E9, 0.0, 2023-11-25 15:47:17.253
8.0, 68005.51778143857, 79814.90550218886, -14292.68888147937, -11172.54181772969, -1753.404945541018, -3524.758341879647, -15000.233352212115, 187500.0, -0.06, 0.978, 0.044, 192.0, 0.0, 0.0, 0.0, 0.0, 0.0, 0.0, 0.0, 0.0, 0.0, 1.700945237258135E9, 0.0, 2023-11-25 15:47:17.258
9.0, 67994.54307491101, 79809.1387521194, -14648.036914829841, -11672.438582472632, -2303.637838797312, -3811.8664994080664, -15009.486974416612, 187500.0, -0.06, 0.978, 0.044, 192.0, 0.0, 0.0, 0.0, 0.0, 0.0, 0.0, 0.0, 0.0, 0.0, 1.700945237262135E9, 0.0, 2023-11-25 15:47:17.262
10.0, 68008.35645298439, 79833.23393264222, -15030.587021182422, -12340.599279475127, -3139.235453514511, -4349.5377122804775, -15031.950477594195, 187500.0, -0.062, 0.984, 0.044, 192.0, 254.0, 16.0, 30.0, 192.0, 1.0, 96.0, 0.0, 0.0, 0.0, 1.700945237266211E9, 0.0, 2023-11-25 15:47:17.266
11.0, 68016.0007495881, 79831.62460704143, -14495.642721133558, -11783.52675241551, -2463.363404674936, -4006.2149174469614, -14940.95652591664, 187500.0, -0.062, 0.984, 0.044, 192.0, 0.0, 0.0, 0.0, 0.0, 0.0, 0.0, 0.0, 0.0, 0.0, 1.700945237269216E9, 0.0, 2023-11-25 15:47:17.269
12.0, 68014.7043484097, 79803.86374042794, -14239.938764564844, -11111.76742455571, -1695.8492035686022, -3477.64086456786, -14993.416070153246, 187500.0, -0.062, 0.984, 0.044, 192.0, 0.0, 0.0, 0.0, 0.0, 0.0, 0.0, 0.0, 0.0, 0.0, 1.700945237273206E9, 0.0, 2023-11-25 15:47:17.273
13.0, 68017.14068855533, 79809.87635968643, -14581.540475075302, -11590.474735555023, -2185.9782559845753, -3756.9035597924662, -15003.429651669223, 187500.0, -0.062, 0.984, 0.044, 192.0, 0.0, 0.0, 0.0, 0.0, 0.0, 0.0, 0.0, 0.0, 0.0, 1.700945237277214E9, 0.0, 2023-11-25 15:47:17.277
14.0, 68029.83647940595, 79838.79951701159, -14994.578360864922, -12227.678266486915, -3018.603088689219, -4236.035553936428, -15024.417939712757, 187500.0, -0.062, 0.984, 0.044, 192.0, 0.0, 0.0, 0.0, 0.0, 0.0, 0.0, 0.0, 0.0, 0.0, 1.700945237281173E9, 0.0, 2023-11-25 15:47:17.281
15.0, 68035.60322947541, 79844.92389499235, -14635.698751890512, -11994.303702629055, -2709.612573339054, -4159.592587899278, -14946.678572497198, 187500.0, -0.062, 0.984, 0.044, 192.0, 0.0, 0.0, 0.0, 0.0, 0.0, 0.0, 0.0, 0.0, 0.0, 1.700945237285696E9, 0.0, 2023-11-25 15:47:17.285
16.0, 68027.66836019378, 79828.40595583987, -14195.414089609872, -11080.072650918086, -1686.0591394971777, -3460.92175971529, -14972.114857687338, 187500.0, -0.062, 0.984, 0.044, 192.0, 0.0, 0.0, 0.0, 0.0, 0.0, 0.0, 0.0, 0.0, 0.0, 1.700945237290216E9, 0.0, 2023-11-25 15:47:17.290
17.0, 68028.45067124971, 79831.55755180807, -14520.386102245582, -11512.936534039562, -2090.581010649325, -3717.273916873207, -15007.855297071374, 187500.0, -0.062, 0.984, 0.044, 192.0, 0.0, 0.0, 0.0, 0.0, 0.0, 0.0, 0.0, 0.0, 0.0, 1.700945237294264E9, 0.0, 2023-11-25 15:47:17.294
18.0, 68032.65279920731, 79855.0492352306, -14936.933211914686, -12104.944837682824, -2873.3391014741783, -4129.529491606891, -15033.850375872897, 187500.0, -0.062, 0.984, 0.044, 192.0, 0.0, 0.0, 0.0, 0.0, 0.0, 0.0, 0.0, 0.0, 0.0, 1.700945237297259E9, 0.0, 2023-11-25 15:47:17.297
19.0, 68038.53130799906, 79862.29120043412, -14781.052146083373, -12177.02921355119, -2927.0279916558256, -4291.624342396777, -14991.359709663358, 187500.0, -0.062, 0.984, 0.044, 192.0, 0.0, 0.0, 0.0, 0.0, 0.0, 0.0, 0.0, 0.0, 0.0, 1.700945237301344E9, 0.0, 2023-11-25 15:47:17.301
20.0, 68038.21838357668, 79846.6002758265, -14186.205170894287, -11106.894744264453, -1730.9637941078895, -3478.132602945877, -14973.523017588022, 187500.0, -0.066, 0.978, 0.044, 192.0, 253.0, 240.0, 30.0, 144.0, 1.0, 96.0, 0.0, 0.0, 0.0, 1.700945237305294E9, 0.0, 2023-11-25 15:47:17.305
21.0, 68044.76744470208, 79833.05511868658, -14461.377496883571, -11429.609230710177, -1994.6249717026917, -3673.3303872740735, -15016.527773920034, 187500.0, -0.066, 0.978, 0.044, 192.0, 0.0, 0.0, 0.0, 0.0, 0.0, 0.0, 0.0, 0.0, 0.0, 1.700945237309332E9, 0.0, 2023-11-25 15:47:17.309
22.0, 68051.07063663848, 79849.90833400587, -14855.908138264196, -11985.497115313663, -2710.8866227730064, -4024.7221618559556, -15016.818346597953, 187500.0, -0.066, 0.978, 0.044, 192.0, 0.0, 0.0, 0.0, 0.0, 0.0, 0.0, 0.0, 0.0, 0.0, 1.700945237313288E9, 0.0, 2023-11-25 15:47:17.313
23.0, 68053.55168027303, 79860.39130215542, -14890.195714258638, -12315.744139640825, -3077.432880095587, -4376.002177715562, -14997.573494621933, 187500.0, -0.066, 0.978, 0.044, 192.0, 0.0, 0.0, 0.0, 0.0, 0.0, 0.0, 0.0, 0.0, 0.0, 1.700945237318335E9, 0.0, 2023-11-25 15:47:17.318
24.0, 68049.72953197117, 79856.16682245336, -14204.511249603183, -11216.731216517832, -1836.1511035145645, -3556.766039939647, -14942.185871861682, 187500.0, -0.066, 0.978, 0.044, 192.0, 0.0, 0.0, 0.0, 0.0, 0.0, 0.0, 0.0, 0.0, 0.0, 1.70094523732231E9, 0.0, 2023-11-25 15:47:17.322
25.0, 68043.98513364616, 79830.28350237412, -14406.056929356686, -11357.234282163892, -1904.3015723587957, -3620.2226424482637, -15012.996198296094, 187500.0, -0.066, 0.978, 0.044, 192.0, 0.0, 0.0, 0.0, 0.0, 0.0, 0.0, 0.0, 0.0, 0.0, 1.700945237325282E9, 0.0, 2023-11-25 15:47:17.325
26.0, 68049.99775290463, 79847.80727002709, -14781.454477483569, -11857.958061451682, -2544.254367858692, -3917.232622770384, -15013.465584929656, 187500.0, -0.066, 0.978, 0.044, 192.0, 0.0, 0.0, 0.0, 0.0, 0.0, 0.0, 0.0, 0.0, 0.0, 1.700945237329306E9, 0.0, 2023-11-25 15:47:17.329
27.0, 68062.33591584396, 79860.43600564433, -14987.269340428036, -12378.440782837963, -3170.729061452039, -4410.803843832475, -15023.680332145732, 187500.0, -0.066, 0.978, 0.044, 192.0, 0.0, 0.0, 0.0, 0.0, 0.0, 0.0, 0.0, 0.0, 0.0, 1.700945237333353E9, 0.0, 2023-11-25 15:47:17.333
28.0, 68063.69937225574, 79851.8529357735, -14285.759840698223, -11373.506352127357, -2025.9174139401216, -3688.082538614576, -14944.085770140384, 187500.0, -0.066, 0.978, 0.044, 192.0, 0.0, 0.0, 0.0, 0.0, 0.0, 0.0, 0.0, 0.0, 0.0, 1.700945237337332E9, 0.0, 2023-11-25 15:47:17.337
29.0, 68057.79851171953, 79823.37681333743, -14351.473969396828, -11235.551385349201, -1813.844062548168, -3553.2344643157085, -15022.272172245048, 187500.0, -0.066, 0.978, 0.044, 192.0, 0.0, 0.0, 0.0, 0.0, 0.0, 0.0, 0.0, 0.0, 0.0, 1.700945237341321E9, 0.0, 2023-11-25 15:47:17.341
30.0, 68053.2611075951, 79832.80924949757, -14715.315665640315, -11735.671667536697, -2406.1876423582607, -3838.621537521069, -15022.473337945145, 187500.0, -0.06, 0.972, 0.042, 192.0, 254.0, 32.0, 30.0, 96.0, 1.0, 80.0, 0.0, 0.0, 0.0, 1.700945237346389E9, 0.0, 2023-11-25 15:47:17.346
31.0, 68074.42820959428, 79869.75668308219, -15043.238108544125, -12388.9237509875, -3191.873811706759, -4394.330608168913, -15044.981544611639, 187500.0, -0.06, 0.972, 0.042, 192.0, 0.0, 0.0, 0.0, 0.0, 0.0, 0.0, 0.0, 0.0, 0.0, 1.700945237350397E9, 0.0, 2023-11-25 15:47:17.350
32.0, 68073.53413981607, 79858.4019968989, -14401.430118254439, -11596.442651324589, -2259.1131638423403, -3853.3513371171166, -14946.43270330819, 187500.0, -0.06, 0.972, 0.042, 192.0, 0.0, 0.0, 0.0, 0.0, 0.0, 0.0, 0.0, 0.0, 0.0, 1.700945237353459E9, 0.0, 2023-11-25 15:47:17.353
33.0, 68078.80915150752, 79837.95015072229, -14288.01736688821, -11161.25418677976, -1737.9375383779454, -3502.987742780178, -15008.034111027016, 187500.0, -0.06, 0.972, 0.042, 192.0, 0.0, 0.0, 0.0, 0.0, 0.0, 0.0, 0.0, 0.0, 0.0, 1.700945237357368E9, 0.0, 2023-11-25 15:47:17.357
34.0, 68076.12694217288, 79836.00554895468, -14642.650144416111, -11661.463875945077, -2279.185030363206, -3795.013284088765, -15012.72797736263, 187500.0, -0.06, 0.972, 0.042, 192.0, 0.0, 0.0, 0.0, 0.0, 0.0, 0.0, 0.0, 0.0, 0.0, 1.700945237361356E9, 0.0, 2023-11-25 15:47:17.361
35.0, 68093.44954412575, 79867.34269468102, -15035.996143340606, -12319.901564109512, -3113.240374712989, -4318.7817119099755, -15037.672524174754, 187500.0, -0.06, 0.972, 0.042, 192.0, 0.0, 0.0, 0.0, 0.0, 0.0, 0.0, 0.0, 0.0, 0.0, 1.700945237365346E9, 0.0, 2023-11-25 15:47:17.365
36.0, 68090.14148594635, 79861.28537193363, -14538.44631176547, -11807.063139326947, -2495.952248090774, -4010.84172854921, -14961.453075582156, 187500.0, -0.06, 0.972, 0.042, 192.0, 0.0, 0.0, 0.0, 0.0, 0.0, 0.0, 0.0, 0.0, 0.0, 1.700945237369401E9, 0.0, 2023-11-25 15:47:17.369
37.0, 68090.25324466864, 79843.22516241374, -14244.207947755809, -11104.793680285655, -1690.8200610661581, -3471.8741144983906, -15001.060366756961, 187500.0, -0.06, 0.972, 0.042, 192.0, 0.0, 0.0, 0.0, 0.0, 0.0, 0.0, 0.0, 0.0, 0.0, 1.700945237374383E9, 0.0, 2023-11-25 15:47:17.374
38.0, 68096.2211604382, 79841.97346472424, -14570.208140636461, -11559.897549140162, -2155.110496891796, -3737.2563764162514, -15005.240142970104, 187500.0, -0.06, 0.972, 0.042, 192.0, 0.0, 0.0, 0.0, 0.0, 0.0, 0.0, 0.0, 0.0, 0.0, 1.700945237379384E9, 0.0, 2023-11-25 15:47:17.379
39.0, 68106.90529428783, 79863.76641556817, -14996.29944518798, -12199.291551028677, -2991.691588365029, -4205.704236710577, -15034.431521228735, 187500.0, -0.06, 0.972, 0.042, 192.0, 0.0, 0.0, 0.0, 0.0, 0.0, 0.0, 0.0, 0.0, 0.0, 1.700945237382438E9, 0.0, 2023-11-25 15:47:17.382
40.0, 68116.18126823679, 79878.92089830886, -14676.021298887885, -12043.030505541625, -2757.244140773313, -4186.481736479012, -14961.587186048888, 187500.0, -0.064, 0.982, 0.042, 192.0, 254.0, 0.0, 30.0, 176.0, 1.0, 80.0, 0.0, 0.0, 0.0, 1.700945237386497E9, 0.0, 2023-11-25 15:47:17.386
41.0, 68105.54183787607, 79857.82085154306, -14190.027319196144, -11080.832610229565, -1680.4488516388956, -3453.053945667022, -14966.683383784699, 187500.0, -0.064, 0.982, 0.042, 192.0, 0.0, 0.0, 0.0, 0.0, 0.0, 0.0, 0.0, 0.0, 0.0, 1.700945237389502E9, 0.0, 2023-11-25 15:47:17.389
42.0, 68091.99668073615, 79833.7927262536, -14508.651436406546, -11473.016318442384, -2052.963024731043, -3687.926076403389, -15007.788241838009, 187500.0, -0.064, 0.982, 0.042, 192.0, 0.0, 0.0, 0.0, 0.0, 0.0, 0.0, 0.0, 0.0, 0.0, 1.700945237394426E9, 0.0, 2023-11-25 15:47:17.394
43.0, 68108.40286116635, 79871.76834008317, -14929.512432755522, -12068.645604687406, -2837.08457196767, -4088.9387236760526, -15025.155547279783, 187500.0, -0.064, 0.982, 0.042, 192.0, 0.0, 0.0, 0.0, 0.0, 0.0, 0.0, 0.0, 0.0, 0.0, 1.700945237398591E9, 0.0, 2023-11-25 15:47:17.398
44.0, 68126.86540208643, 79890.87908159246, -14806.488431273512, -12205.326522031608, -2957.3146053927667, -4305.817700125897, -14982.173142692227, 187500.0, -0.064, 0.982, 0.042, 192.0, 0.0, 0.0, 0.0, 0.0, 0.0, 0.0, 0.0, 0.0, 0.0, 1.700945237401536E9, 0.0, 2023-11-25 15:47:17.401
45.0, 68121.65744562834, 79876.41750292988, -14195.749365776703, -11125.022009017708, -1750.2533495728196, -3499.478518900695, -14967.711564029643, 187500.0, -0.064, 0.982, 0.042, 192.0, 0.0, 0.0, 0.0, 0.0, 0.0, 0.0, 0.0, 0.0, 0.0, 1.700945237407205E9, 0.0, 2023-11-25 15:47:17.407
46.0, 68120.36104444994, 79859.36312191047, -14454.224938657873, -11410.140861289605, -1978.1070325502196, -3656.655985910414, -15010.44809942819, 187500.0, -0.064, 0.982, 0.042, 192.0, 0.0, 0.0, 0.0, 0.0, 0.0, 0.0, 0.0, 0.0, 0.0, 1.700945237409474E9, 0.0, 2023-11-25 15:47:17.409
47.0, 68120.69632061677, 79877.31157270809, -14848.465007360579, -11939.65368743583, -2676.129660145004, -3983.7290625249225, -15020.104053032883, 187500.0, -0.064, 0.982, 0.042, 192.0, 0.0, 0.0, 0.0, 0.0, 0.0, 0.0, 0.0, 0.0, 0.0, 1.700945237413684E9, 0.0, 2023-11-25 15:47:17.413
48.0, 68142.64573367187, 79904.5583491991, -14921.33169428488, -12334.206680560908, -3109.820557811327, -4383.132384196804, -15004.21196272516, 187500.0, -0.064, 0.982, 0.042, 192.0, 0.0, 0.0, 0.0, 0.0, 0.0, 0.0, 0.0, 0.0, 0.0, 1.700945237417547E9, 0.0, 2023-11-25 15:47:17.417
49.0, 68139.56119293705, 79891.19200601483, -14221.655037600403, -11238.390056895025, -1869.3434440306955, -3569.9759209127333, -14944.845729451863, 187500.0, -0.064, 0.982, 0.042, 192.0, 0.0, 0.0, 0.0, 0.0, 0.0, 0.0, 0.0, 0.0, 0.0, 1.700945237421565E9, 0.0, 2023-11-25 15:47:17.421
50.0, 68136.34254173547, 79870.29312494912, -14394.009339095277, -11319.437482289968, -1883.9391331600111, -3594.7193020247582, -15011.677445373232, 187500.0, -0.062, 0.986, 0.048, 192.0, 254.0, 16.0, 30.0, 208.0, 1.0, 128.0, 0.0, 0.0, 0.0, 1.700945237425504E9, 0.0, 2023-11-25 15:47:17.425
51.0, 68134.95673357925, 79881.5584041546, -14764.154227275161, -11814.998008608582, -2513.967754121751, -3887.9518375339317, -15009.889305816807, 187500.0, -0.062, 0.986, 0.048, 192.0, 0.0, 0.0, 0.0, 0.0, 0.0, 0.0, 0.0, 0.0, 0.0, 1.700945237429578E9, 0.0, 2023-11-25 15:47:17.429
52.0, 68150.46884423123, 79900.02094507468, -14994.980692265117, -12368.762477488814, -3173.455974275586, -4397.571611114933, -15018.271209987548, 187500.0, -0.062, 0.986, 0.048, 192.0, 0.0, 0.0, 0.0, 0.0, 0.0, 0.0, 0.0, 0.0, 0.0, 1.700945237435142E9, 0.0, 2023-11-25 15:47:17.435
53.0, 68148.30072501907, 79898.34456424053, -14296.779250714691, -11395.656930882566, -2056.6287108217134, -3701.4265300543943, -14941.895299183763, 187500.0, -0.062, 0.986, 0.048, 192.0, 0.0, 0.0, 0.0, 0.0, 0.0, 0.0, 0.0, 0.0, 0.0, 1.700945237438554E9, 0.0, 2023-11-25 15:47:17.438
54.0, 68143.7856726391, 79882.47482567726, -14335.201899433363, -11212.059701926673, -1796.5661640842159, -3531.866196616435, -15016.818346597953, 187500.0, -0.062, 0.986, 0.048, 192.0, 0.0, 0.0, 0.0, 0.0, 0.0, 0.0, 0.0, 0.0, 0.0, 1.70094523744155E9, 0.0, 2023-11-25 15:47:17.441
55.0, 68139.47178595922, 79891.79550311512, -14692.159258384618, -11718.170251628191, -2381.04192984604, -3820.5166245122705, -15007.005930782072, 187500.0, -0.062, 0.986, 0.048, 192.0, 0.0, 0.0, 0.0, 0.0, 0.0, 0.0, 0.0, 0.0, 0.0, 1.70094523744562E9, 0.0, 2023-11-25 15:47:17.445
56.0, 68143.71861740573, 79908.84988413453, -15027.502480447589, -12346.075456866678, -3163.0847648483236, -4349.649471002755, -15026.317837991457, 187500.0, -0.062, 0.986, 0.048, 192.0, 0.0, 0.0, 0.0, 0.0, 0.0, 0.0, 0.0, 0.0, 0.0, 1.700945237449614E9, 0.0, 2023-11-25 15:47:17.449
57.0, 68145.50675696216, 79904.02190733218, -14421.99372315332, -11614.01112246646, -2297.8487369833874, -3864.1248779445746, -14952.5794330334, 187500.0, -0.062, 0.986, 0.048, 192.0, 0.0, 0.0, 0.0, 0.0, 0.0, 0.0, 0.0, 0.0, 0.0, 1.700945237453669E9, 0.0, 2023-11-25 15:47:17.453
58.0, 68156.36970476744, 79889.78384611415, -14276.215645815808, -11142.657535392946, -1734.3612592650961, -3494.0023415091446, -15010.291637217002, 187500.0, -0.062, 0.986, 0.048, 192.0, 0.0, 0.0, 0.0, 0.0, 0.0, 0.0, 0.0, 0.0, 0.0, 1.700945237457832E9, 0.0, 2023-11-25 15:47:17.457
59.0, 68147.42900698532, 79881.02196228766, -14619.158460993584, -11631.624297097242, -2258.1296870863066, -3768.593522142592, -15006.938875548707, 187500.0, -0.062, 0.986, 0.048, 192.0, 0.0, 0.0, 0.0, 0.0, 0.0, 0.0, 0.0, 0.0, 0.0, 1.700945237461623E9, 0.0, 2023-11-25 15:47:17.461
60.0, 68159.11896933544, 79901.74202939773, -15031.346980493901, -12305.57409591366, -3108.166528721634, -4290.462051685101, -15041.472320732157, 187500.0, -0.064, 0.98, 0.044, 192.0, 254.0, 0.0, 30.0, 160.0, 1.0, 96.0, 0.0, 0.0, 0.0, 1.7009452374657E9, 0.0, 2023-11-25 15:47:17.465
61.0, 68167.97026013974, 79912.33675626955, -14546.537643258293, -11845.977526423638, -2544.969623681262, -4032.187644504028, -14950.120741143315, 187500.0, -0.064, 0.98, 0.044, 192.0, 0.0, 0.0, 0.0, 0.0, 0.0, 0.0, 0.0, 0.0, 0.0, 1.700945237468657E9, 0.0, 2023-11-25 15:47:17.468
62.0, 68170.78657994111, 79892.08607579305, -14222.571459123072, -11080.787906740656, -1683.3545784180856, -3440.5593205165055, -14992.63375909731, 187500.0, -0.064, 0.98, 0.044, 192.0, 0.0, 0.0, 0.0, 0.0, 0.0, 0.0, 0.0, 0.0, 0.0, 1.700945237473714E9, 0.0, 2023-11-25 15:47:17.473
63.0, 68174.49696952068, 79889.29210773612, -14557.132370130108, -11554.42137174861, -2152.025956156964, -3727.4216088559165, -15003.362596435858, 187500.0, -0.064, 0.98, 0.044, 192.0, 0.0, 0.0, 0.0, 0.0, 0.0, 0.0, 0.0, 0.0, 0.0, 1.70094523747768E9, 0.0, 2023-11-25 15:47:17.477
64.0, 68180.75545796817, 79910.50391322421, -14980.63087232481, -12193.323635259108, -2979.308721936789, -4194.885992394208, -15026.943686836206, 187500.0, -0.064, 0.98, 0.044, 192.0, 0.0, 0.0, 0.0, 0.0, 0.0, 0.0, 0.0, 0.0, 0.0, 1.700945237481696E9, 0.0, 2023-11-25 15:47:17.481
65.0, 68189.65145226139, 79924.00436687522, -14688.605331016224, -12063.504703462686, -2787.284885321246, -4197.747015684487, -14964.358802361347, 187500.0, -0.064, 0.98, 0.044, 192.0, 0.0, 0.0, 0.0, 0.0, 0.0, 0.0, 0.0, 0.0, 0.0, 1.700945237485779E9, 0.0, 2023-11-25 15:47:17.485
66.0, 68182.83417020252, 79912.5602737141, -14186.361633105475, -11071.780153725167, -1681.275866183742, -3446.7954572195363, -14977.367517634335, 187500.0, -0.064, 0.98, 0.044, 192.0, 0.0, 0.0, 0.0, 0.0, 0.0, 0.0, 0.0, 0.0, 0.0, 1.700945237489657E9, 0.0, 2023-11-25 15:47:17.489
67.0, 68175.48044627672, 79899.79742763012, -14505.589247416168, -11481.912312735596, -2052.873617753222, -3696.330332318584, -15018.651189643288, 187500.0, -0.064, 0.98, 0.044, 192.0, 0.0, 0.0, 0.0, 0.0, 0.0, 0.0, 0.0, 0.0, 0.0, 1.700945237493711E9, 0.0, 2023-11-25 15:47:17.493
68.0, 68183.57177776954, 79922.19387557435, -14916.816641904908, -12056.106276047978, -2815.3586763571116, -4074.991235135941, -15030.251745015592, 187500.0, -0.064, 0.98, 0.044, 192.0, 0.0, 0.0, 0.0, 0.0, 0.0, 0.0, 0.0, 0.0, 0.0, 1.700945237496708E9, 0.0, 2023-11-25 15:47:17.496
69.0, 68191.93133019583, 79935.18023910288, -14828.236678628527, -12227.834728698102, -2982.3262074382556, -4314.75839790802, -14992.92433177523, 187500.0, -0.064, 0.98, 0.044, 192.0, 0.0, 0.0, 0.0, 0.0, 0.0, 0.0, 0.0, 0.0, 0.0, 1.700945237501733E9, 0.0, 2023-11-25 15:47:17.501
70.0, 68191.28312960663, 79925.94896864283, -14193.402432608895, -11128.911212552932, -1753.1143728630989, -3495.9022397878457, -14963.241215138582, 187500.0, -0.07, 0.982, 0.04, 192.0, 253.0, 208.0, 30.0, 176.0, 1.0, 64.0, 0.0, 0.0, 0.0, 1.700945237505722E9, 0.0, 2023-11-25 15:47:17.505
71.0, 68188.66797550535, 79905.38536374395, -14440.299801862217, -11375.786230061798, -1946.3005001903177, -3632.896081554423, -15011.58803839541, 187500.0, -0.07, 0.982, 0.04, 192.0, 0.0, 0.0, 0.0, 0.0, 0.0, 0.0, 0.0, 0.0, 0.0, 1.700945237509714E9, 0.0, 2023-11-25 15:47:17.509
72.0, 68183.72823998073, 79915.80127666012, -14838.674943289156, -11897.744166582128, -2635.6282991919875, -3949.910873164043, -15026.384893224824, 187500.0, -0.07, 0.982, 0.04, 192.0, 0.0, 0.0, 0.0, 0.0, 0.0, 0.0, 0.0, 0.0, 0.0, 1.700945237513735E9, 0.0, 2023-11-25 15:47:17.513
73.0, 68205.56589431356, 79941.97516941729, -14940.889470683274, -12331.099788081621, -3119.1188835047346, -4378.349110883369, -15009.01758778305, 187500.0, -0.07, 0.982, 0.04, 192.0, 0.0, 0.0, 0.0, 0.0, 0.0, 0.0, 0.0, 0.0, 0.0, 1.700945237516737E9, 0.0, 2023-11-25 15:47:17.516
74.0, 68205.40943210237, 79930.57577974508, -14236.29543021863, -11266.150923508516, -1895.8079094657792, -3594.2499153911967, -14939.43660729368, 187500.0, -0.07, 0.982, 0.04, 192.0, 0.0, 0.0, 0.0, 0.0, 0.0, 0.0, 0.0, 0.0, 0.0, 1.700945237520756E9, 0.0, 2023-11-25 15:47:17.520
75.0, 68198.50274306569, 79902.74785789823, -14391.863571627568, -11306.004083872329, -1863.46493523895, -3585.1080519089764, -15014.382006452324, 187500.0, -0.07, 0.982, 0.04, 192.0, 0.0, 0.0, 0.0, 0.0, 0.0, 0.0, 0.0, 0.0, 0.0, 1.700945237524796E9, 0.0, 2023-11-25 15:47:17.524
76.0, 68206.25879839167, 79925.85956166501, -14759.01332605044, -11802.52573520252, -2482.8094223510534, -3868.550523346725, -15008.503497660578, 187500.0, -0.07, 0.982, 0.04, 192.0, 0.0, 0.0, 0.0, 0.0, 0.0, 0.0, 0.0, 0.0, 0.0, 1.700945237528787E9, 0.0, 2023-11-25 15:47:17.528
77.0, 68229.07992948055, 79953.10633815604, -15006.469488915145, -12372.383460090574, -3165.811677671871, -4380.204305673159, -15015.052558785983, 187500.0, -0.07, 0.982, 0.04, 192.0, 0.0, 0.0, 0.0, 0.0, 0.0, 0.0, 0.0, 0.0, 0.0, 1.700945237533782E9, 0.0, 2023-11-25 15:47:17.533
78.0, 68225.01191198968, 79936.40958504792, -14328.250506907763, -11441.45565527149, -2089.8210513378444, -3726.326373377606, -14948.332601586892, 187500.0, -0.07, 0.982, 0.04, 192.0, 0.0, 0.0, 0.0, 0.0, 0.0, 0.0, 0.0, 0.0, 0.0, 1.700945237537822E9, 0.0, 2023-11-25 15:47:17.537
79.0, 68222.50851661069, 79921.59037847405, -14333.145538943476, -11212.529088560235, -1778.30478886423, -3533.7884466395913, -15020.55108792199, 187500.0, -0.068, 0.974, 0.042, 192.0, 253.0, 224.0, 30.0, 112.0, 1.0, 80.0, 0.0, 0.0, 0.0, 1.700945237541848E9, 0.0, 2023-11-25 15:47:17.541
80.0, 68207.26462689217, 79923.7137941973, -14678.032955888862, -11679.814658142885, -2330.526987377046, -3794.387435244016, -15008.235276727115, 187500.0, -0.068, 0.974, 0.042, 192.0, 0.0, 0.0, 0.0, 0.0, 0.0, 0.0, 0.0, 0.0, 0.0, 1.700945237546392E9, 0.0, 2023-11-25 15:47:17.546
81.0, 68217.21115317478, 79943.3162740846, -15041.472320732157, -12346.254270822319, -3150.0536978308796, -4339.47942727559, -15030.430558971235, 187500.0, -0.068, 0.974, 0.042, 192.0, 0.0, 0.0, 0.0, 0.0, 0.0, 0.0, 0.0, 0.0, 0.0, 1.700945237548835E9, 0.0, 2023-11-25 15:47:17.548
82.0, 68224.94485675632, 79949.79827997665, -14438.891641961533, -11651.137370006725, -2320.558109349979, -3885.3366834326607, -14947.14795913076, 187500.0, -0.068, 0.974, 0.042, 192.0, 0.0, 0.0, 0.0, 0.0, 0.0, 0.0, 0.0, 0.0, 0.0, 1.700945237552831E9, 0.0, 2023-11-25 15:47:17.552
83.0, 68223.8049177891, 79921.09864009602, -14269.510122479216, -11116.170718213407, -1703.113520516577, -3472.678777298782, -15015.387834952813, 187500.0, -0.068, 0.974, 0.042, 192.0, 0.0, 0.0, 0.0, 0.0, 0.0, 0.0, 0.0, 0.0, 0.0, 1.700945237556824E9, 0.0, 2023-11-25 15:47:17.556
84.0, 68217.36761538597, 79913.6108057035, -14619.292571460317, -11614.167584677647, -2227.44074194917, -3761.5974261280808, -15017.175974509237, 187500.0, -0.068, 0.974, 0.042, 192.0, 0.0, 0.0, 0.0, 0.0, 0.0, 0.0, 0.0, 0.0, 0.0, 1.700945237561818E9, 0.0, 2023-11-25 15:47:17.561
85.0, 68225.43659513434, 79940.52230602769, -15032.822195627952, -12267.553778595184, -3068.3133683578217, -4266.36687116228, -15049.720114436164, 187500.0, -0.068, 0.974, 0.042, 192.0, 0.0, 0.0, 0.0, 0.0, 0.0, 0.0, 0.0, 0.0, 0.0, 1.70094523756593E9, 0.0, 2023-11-25 15:47:17.565
86.0, 68225.99538874572, 79948.74774798725, -14583.306262887272, -11863.098962676402, -2573.4010426284126, -4047.319775500271, -14968.96326171914, 187500.0, -0.068, 0.974, 0.042, 192.0, 0.0, 0.0, 0.0, 0.0, 0.0, 0.0, 0.0, 0.0, 0.0, 1.700945237569864E9, 0.0, 2023-11-25 15:47:17.569
87.0, 68223.71551081128, 79932.18510534587, -14217.81053755409, -11052.691763960334, -1660.9581304738679, -3420.9568406292015, -14995.315968431947, 187500.0, -0.068, 0.974, 0.042, 192.0, 0.0, 0.0, 0.0, 0.0, 0.0, 0.0, 0.0, 0.0, 0.0, 1.700945237572996E9, 0.0, 2023-11-25 15:47:17.572
88.0, 68227.71647306878, 79925.47958200927, -14554.69602998448, -11517.429234675079, -2112.8880516157215, -3694.341027062062, -15011.990369795605, 187500.0, -0.068, 0.974, 0.042, 192.0, 0.0, 0.0, 0.0, 0.0, 0.0, 0.0, 0.0, 0.0, 0.0, 1.700945237576911E9, 0.0, 2023-11-25 15:47:17.576
89.0, 68246.38017968896, 79957.53198355818, -14989.996253251584, -12172.782382104682, -2947.01045119887, -4165.381689713203, -15043.081646332937, 187500.0, -0.062, 0.976, 0.044, 192.0, 254.0, 16.0, 30.0, 128.0, 1.0, 96.0, 0.0, 0.0, 0.0, 1.700945237580923E9, 0.0, 2023-11-25 15:47:17.580
90.0, 68260.08179904005, 79967.63497205198, -14729.06198848033, -12106.911791194892, -2824.835816006162, -4228.637126521722, -14977.30046240097, 187500.0, -0.062, 0.976, 0.044, 192.0, 0.0, 0.0, 0.0, 0.0, 0.0, 0.0, 0.0, 0.0, 0.0, 1.700945237585013E9, 0.0, 2023-11-25 15:47:17.585
91.0, 68256.81844434958, 79955.5203265572, -14192.888342486423, -11092.299055135138, -1688.7189970873592, -3455.5573410460165, -14972.472485598622, 187500.0, -0.062, 0.976, 0.044, 192.0, 0.0, 0.0, 0.0, 0.0, 0.0, 0.0, 0.0, 0.0, 0.0, 1.700945237589955E9, 0.0, 2023-11-25 15:47:17.589
92.0, 68252.23633673624, 79943.49508804025, -14497.833192090178, -11456.006640911895, -2020.8435679487668, -3668.949445360833, -15012.795032595997, 187500.0, -0.062, 0.976, 0.044, 192.0, 0.0, 0.0, 0.0, 0.0, 0.0, 0.0, 0.0, 0.0, 0.0, 1.700945237593952E9, 0.0, 2023-11-25 15:47:17.593
93.0, 68255.03030479317, 79959.63304753698, -14914.134432570272, -12022.533955876108, -2771.705719435897, -4041.575377175257, -15027.21190776967, 187500.0, -0.062, 0.976, 0.044, 192.0, 0.0, 0.0, 0.0, 0.0, 0.0, 0.0, 0.0, 0.0, 0.0, 1.700945237597945E9, 0.0, 2023-11-25 15:47:17.597
94.0, 68268.9107380999, 79969.6242773085, -14869.520350637478, -12257.51784533475, -3011.4281787190653, -4329.734066693076, -14997.372328921836, 187500.0, -0.062, 0.976, 0.044, 192.0, 0.0, 0.0, 0.0, 0.0, 0.0, 0.0, 0.0, 0.0, 0.0, 1.700945237601016E9, 0.0, 2023-11-25 15:47:17.601
95.0, 68268.9107380999, 79951.45230906634, -14216.402377653407, -11152.87228260902, -1772.4039283280288, -3513.336600462985, -14967.555101818456, 187500.0, -0.062, 0.976, 0.044, 192.0, 0.0, 0.0, 0.0, 0.0, 0.0, 0.0, 0.0, 0.0, 0.0, 1.700945237605056E9, 0.0, 2023-11-25 15:47:17.605
96.0, 68259.34419147304, 79926.84303842105, -14458.650584060024, -11370.131238714604, -1935.8175320407788, -3634.572462388571, -15030.810538626974, 187500.0, -0.062, 0.976, 0.044, 192.0, 0.0, 0.0, 0.0, 0.0, 0.0, 0.0, 0.0, 0.0, 0.0, 1.700945237608971E9, 0.0, 2023-11-25 15:47:17.608
97.0, 68253.86801408148, 79937.99655890424, -14857.383353398247, -11908.78592834305, -2623.647764163943, -3959.2091988574507, -15037.985448597128, 187500.0, -0.062, 0.976, 0.044, 192.0, 0.0, 0.0, 0.0, 0.0, 0.0, 0.0, 0.0, 0.0, 0.0, 1.700945237612979E9, 0.0, 2023-11-25 15:47:17.612
98.0, 68268.0166683217, 79955.74384400176, -14979.11095370185, -12336.799482917724, -3125.9585173080586, -4377.566799827433, -15025.312009490968, 187500.0, -0.062, 0.976, 0.044, 192.0, 0.0, 0.0, 0.0, 0.0, 0.0, 0.0, 0.0, 0.0, 0.0, 1.700945237616991E9, 0.0, 2023-11-25 15:47:17.616
99.0, 68271.28002301216, 79952.59224803356, -14277.221474316297, -11286.267493518293, -1929.0449534708207, -3617.4286743913503, -14964.872892483818, 187500.0, -0.062, 0.982, 0.042, 192.0, 254.0, 16.0, 30.0, 176.0, 1.0, 80.0, 0.0, 0.0, 0.0, 1.700945237622016E9, 0.0, 2023-11-25 15:47:17.622
100.0, 68270.85533986751, 79934.53203851367, -14400.759565920778, -11288.480316219368, -1851.976138588922, -3586.0691769205546, -15030.072931059949, 187500.0, -0.062, 0.982, 0.042, 192.0, 0.0, 0.0, 0.0, 0.0, 0.0, 0.0, 0.0, 0.0, 0.0, 1.700945237626014E9, 0.0, 2023-11-25 15:47:17.626
101.0, 68275.2139300363, 79949.5747625321, -14766.791733120888, -11778.47525816861, -2457.7978203055645, -3861.688537798946, -15030.028227571038, 187500.0, -0.062, 0.982, 0.042, 192.0, 0.0, 0.0, 0.0, 0.0, 0.0, 0.0, 0.0, 0.0, 0.0, 1.700945237629108E9, 0.0, 2023-11-25 15:47:17.629
102.0, 68296.55984599113, 79967.85848949653, -15050.860053403385, -12385.21336140792, -3186.464689548575, -4404.254782707069, -15050.904756892296, 187500.0, -0.062, 0.982, 0.042, 192.0, 0.0, 0.0, 0.0, 0.0, 0.0, 0.0, 0.0, 0.0, 0.0, 1.700945237633529E9, 0.0, 2023-11-25 15:47:17.633
103.0, 68291.64246221095, 79961.15296615993, -14366.27082422624, -11487.924931994074, -2141.3641740517824, -3782.719824638346, -14962.235386638093, 187500.0, -0.062, 0.982, 0.042, 192.0, 0.0, 0.0, 0.0, 0.0, 0.0, 0.0, 0.0, 0.0, 0.0, 1.700945237637058E9, 0.0, 2023-11-25 15:47:17.637
104.0, 68279.75133416073, 79933.10152686853, -14332.340876143084, -11186.086974869606, -1762.3232915786853, -3528.2675657591303, -15024.35088447939, 187500.0, -0.062, 0.982, 0.042, 192.0, 0.0, 0.0, 0.0, 0.0, 0.0, 0.0, 0.0, 0.0, 0.0, 1.700945237641076E9, 0.0, 2023-11-25 15:47:17.641
105.0, 68277.3149940151, 79945.59615201905, -14689.499400794435, -11679.769954653973, -2324.335554162926, -3809.4972144958037, -15023.30035248999, 187500.0, -0.062, 0.982, 0.042, 192.0, 0.0, 0.0, 0.0, 0.0, 0.0, 0.0, 0.0, 0.0, 0.0, 1.700945237645075E9, 0.0, 2023-11-25 15:47:17.645
106.0, 68296.89512215795, 79974.18403317739, -15060.068972118972, -12336.620668962083, -3145.1586657951675, -4355.684442005688, -15048.110788835382, 187500.0, -0.062, 0.982, 0.042, 192.0, 0.0, 0.0, 0.0, 0.0, 0.0, 0.0, 0.0, 0.0, 0.0, 1.700945237649114E9, 0.0, 2023-11-25 15:47:17.649
107.0, 68301.87956117149, 79978.98965823528, -14484.176276227985, -11701.942885153638, -2377.0633193329954, -3952.1907510984843, -14965.543444817478, 187500.0, -0.062, 0.982, 0.042, 192.0, 0.0, 0.0, 0.0, 0.0, 0.0, 0.0, 0.0, 0.0, 0.0, 1.700945237654072E9, 0.0, 2023-11-25 15:47:17.654
108.0, 68307.06516588511, 79958.96249520332, -14269.82304690159, -11115.254296690739, -1694.0834157566328, -3492.3259606749966, -15020.819308855453, 187500.0, -0.062, 0.982, 0.042, 192.0, 0.0, 0.0, 0.0, 0.0, 0.0, 0.0, 0.0, 0.0, 0.0, 1.700945237657076E9, 0.0, 2023-11-25 15:47:17.657
109.0, 68304.49471527275, 79957.26376262472, -14620.23134472744, -11592.888723956195, -2197.8693840347987, -3767.5206384087373, -15027.770701381052, 187500.0, -0.062, 0.982, 0.044, 192.0, 254.0, 16.0, 30.0, 176.0, 1.0, 96.0, 0.0, 0.0, 0.0, 1.700945237661075E9, 0.0, 2023-11-25 15:47:17.661
110.0, 68310.70850023133, 79979.50374835775, -15043.081646332937, -12262.368173881552, -3048.1297431146795, -4272.804173565409, -15047.619050457366, 187500.0, -0.062, 0.982, 0.044, 192.0, 0.0, 0.0, 0.0, 0.0, 0.0, 0.0, 0.0, 0.0, 0.0, 1.700945237665103E9, 0.0, 2023-11-25 15:47:17.665
111.0, 68311.0214246537, 79976.53096634519, -14617.03504527033, -11912.49631792263, -2611.1754907578816, -4103.3555988497255, -14957.295651113469, 187500.0, -0.062, 0.982, 0.044, 192.0, 0.0, 0.0, 0.0, 0.0, 0.0, 0.0, 0.0, 0.0, 0.0, 1.700945237669742E9, 0.0, 2023-11-25 15:47:17.669
112.0, 68308.875657186, 79961.42118709341, -14219.218697454775, -11050.61305172599, -1649.759906501759, -3441.609852505905, -14982.620177581333, 187500.0, -0.062, 0.982, 0.044, 192.0, 0.0, 0.0, 0.0, 0.0, 0.0, 0.0, 0.0, 0.0, 0.0, 1.700945237673159E9, 0.0, 2023-11-25 15:47:17.673
113.0, 68311.46845954281, 79957.21905913581, -14558.764047475344, -11506.745100825441, -2092.480908928026, -3712.691809259869, -15010.626913383832, 187500.0, -0.062, 0.982, 0.044, 192.0, 0.0, 0.0, 0.0, 0.0, 0.0, 0.0, 0.0, 0.0, 0.0, 1.700945237677206E9, 0.0, 2023-11-25 15:47:17.677
114.0, 68318.37514857951, 79979.16847219093, -14991.694985830187, -12137.488977609752, -2909.7724449363286, -4154.384631441192, -15039.795939898007, 187500.0, -0.062, 0.982, 0.044, 192.0, 0.0, 0.0, 0.0, 0.0, 0.0, 0.0, 0.0, 0.0, 0.0, 1.700945237682243E9, 0.0, 2023-11-25 15:47:17.682
115.0, 68325.68416901639, 79988.82442579561, -14772.491427956991, -12118.981733200757, -2852.216702963913, -4247.591405819822, -14983.313081659448, 187500.0, -0.062, 0.982, 0.044, 192.0, 0.0, 0.0, 0.0, 0.0, 0.0, 0.0, 0.0, 0.0, 0.0, 1.700945237686203E9, 0.0, 2023-11-25 15:47:17.686
116.0, 68323.44899457085, 79975.70395180034, -14213.161374707386, -11082.084307919064, -1697.883212314035, -3467.962559218712, -14978.261587412548, 187500.0, -0.062, 0.982, 0.044, 192.0, 0.0, 0.0, 0.0, 0.0, 0.0, 0.0, 0.0, 0.0, 0.0, 1.700945237689258E9, 0.0, 2023-11-25 15:47:17.689
117.0, 68319.58214278008, 79963.7234167723, -14513.25589576434, -11443.333201805735, -2016.5296812688925, -3687.9931316367547, -15024.26147750157, 187500.0, -0.062, 0.982, 0.044, 192.0, 0.0, 0.0, 0.0, 0.0, 0.0, 0.0, 0.0, 0.0, 0.0, 1.700945237693244E9, 0.0, 2023-11-25 15:47:17.693
118.0, 68327.78523299519, 79989.69614382937, -14929.043046121962, -12028.211298967755, -2769.0682135901707, -4067.1457728321284, -15037.270192774558, 187500.0, -0.062, 0.982, 0.044, 192.0, 0.0, 0.0, 0.0, 0.0, 0.0, 0.0, 0.0, 0.0, 0.0, 1.700945237697293E9, 0.0, 2023-11-25 15:47:17.697
119.0, 68333.99901795376, 79990.32199267411, -14899.158763785215, -12282.9988340138, -3039.7701906883945, -4366.122706666316, -14999.540448134, 187500.0, -0.058, 0.978, 0.034, 192.0, 254.0, 48.0, 30.0, 144.0, 1.0, 16.0, 0.0, 0.0, 0.0, 1.700945237701969E9, 0.0, 2023-11-25 15:47:17.701
120.0, 68326.53353530569, 79972.10532094304, -14224.560764379594, -11155.241567521283, -1785.7479197678472, -3526.07709480251, -14960.91663371523, 187500.0, -0.058, 0.978, 0.034, 192.0, 0.0, 0.0, 0.0, 0.0, 0.0, 0.0, 0.0, 0.0, 0.0, 1.700945237705273E9, 0.0, 2023-11-25 15:47:17.705
121.0, 68325.57241029412, 79959.14130915896, -14455.119008436086, -11341.29748836726, -1917.9361364765332, -3631.1079419979983, -15033.604506683889, 187500.0, -0.058, 0.978, 0.034, 192.0, 0.0, 0.0, 0.0, 0.0, 0.0, 0.0, 0.0, 0.0, 0.0, 1.700945237710297E9, 0.0, 2023-11-25 15:47:17.710
122.0, 68330.89212547448, 79977.46973961231, -14852.287155662438, -11894.614922358385, -2608.940316312351, -3967.7699169838334, -15038.790111397519, 187500.0, -0.058, 0.978, 0.034, 192.0, 0.0, 0.0, 0.0, 0.0, 0.0, 0.0, 0.0, 0.0, 0.0, 1.700945237713289E9, 0.0, 2023-11-25 15:47:17.713
123.0, 68343.61026806955, 79992.3336496751, -14998.892247544796, -12373.344585102152, -3160.111982835768, -4429.959288830672, -15028.35184673689, 187500.0, -0.058, 0.978, 0.034, 192.0, 0.0, 0.0, 0.0, 0.0, 0.0, 0.0, 0.0, 0.0, 0.0, 1.700945237717653E9, 0.0, 2023-11-25 15:47:17.717
124.0, 68345.10783494805, 79985.67282982741, -14285.849247676046, -11316.19647934395, -1961.4996864199265, -3664.501448214227, -14966.05753493995, 187500.0, -0.058, 0.978, 0.034, 192.0, 0.0, 0.0, 0.0, 0.0, 0.0, 0.0, 0.0, 0.0, 0.0, 1.700945237722333E9, 0.0, 2023-11-25 15:47:17.722
125.0, 68346.69480880437, 79966.36092261803, -14390.075432071142, -11274.75634512381, -1840.8226181057237, -3594.47343283575, -15036.733750907631, 187500.0, -0.058, 0.978, 0.034, 192.0, 0.0, 0.0, 0.0, 0.0, 0.0, 0.0, 0.0, 0.0, 0.0, 1.70094523772534E9, 0.0, 2023-11-25 15:47:17.725
126.0, 68339.40814011195, 79971.77004477622, -14759.996802806474, -11777.268263968022, -2444.431477121291, -3875.881895528066, -15036.577288696444, 187500.0, -0.058, 0.978, 0.034, 192.0, 0.0, 0.0, 0.0, 0.0, 0.0, 0.0, 0.0, 0.0, 0.0, 1.700945237729328E9, 0.0, 2023-11-25 15:47:17.729
127.0, 68352.88624201849, 79992.89244328647, -15059.97956514115, -12398.423242381006, -3190.1750791281556, -4416.97292530214, -15054.391629027323, 187500.0, -0.058, 0.978, 0.034, 192.0, 0.0, 0.0, 0.0, 0.0, 0.0, 0.0, 0.0, 0.0, 0.0, 1.700945237734164E9, 0.0, 2023-11-25 15:47:17.734
128.0, 68361.04462874468, 79997.76512357773, -14379.078373799131, -11522.123101010693, -2170.8237732438774, -3808.8937173955105, -14961.073095926416, 187500.0, -0.058, 0.978, 0.034, 192.0, 0.0, 0.0, 0.0, 0.0, 0.0, 0.0, 0.0, 0.0, 0.0, 1.700945237738479E9, 0.0, 2023-11-25 15:47:17.738
129.0, 68358.74239906578, 79973.8264052661, -14321.857907993544, -11181.013128878252, -1744.0172128697889, -3524.512472690639, -15026.429596713735, 187500.0, -0.056, 0.982, 0.04, 192.0, 254.0, 64.0, 30.0, 176.0, 1.0, 64.0, 0.0, 0.0, 0.0, 1.700945237741368E9, 0.0, 2023-11-25 15:47:17.741
130.0, 68348.6841140609, 79971.36771337602, -14679.15054311163, -11660.547454422409, -2291.791414235999, -3799.7965574022005, -15031.771663638552, 187500.0, -0.056, 0.982, 0.04, 192.0, 0.0, 0.0, 0.0, 0.0, 0.0, 0.0, 0.0, 0.0, 0.0, 1.700945237744419E9, 0.0, 2023-11-25 15:47:17.744
131.0, 68368.64422185949, 80007.86811207153, -15065.634556488343, -12315.185346029442, -3121.555223650363, -4334.986726640073, -15065.656908232799, 187500.0, -0.056, 0.982, 0.04, 192.0, 0.0, 0.0, 0.0, 0.0, 0.0, 0.0, 0.0, 0.0, 0.0, 1.70094523774943E9, 0.0, 2023-11-25 15:47:17.749
132.0, 68372.891053306, 80005.58823413709, -14513.099433553152, -11727.155652899224, -2412.624944761389, -3967.5016960503694, -14980.228540924614, 187500.0, -0.056, 0.982, 0.04, 192.0, 0.0, 0.0, 0.0, 0.0, 0.0, 0.0, 0.0, 0.0, 0.0, 1.700945237753389E9, 0.0, 2023-11-25 15:47:17.753
133.0, 68377.5402161527, 79990.6796205854, -14267.051430589132, -11093.796622013644, -1681.8570115395798, -3472.768184276603, -15027.234259514125, 187500.0, -0.056, 0.982, 0.04, 192.0, 0.0, 0.0, 0.0, 0.0, 0.0, 0.0, 0.0, 0.0, 0.0, 1.700945237757693E9, 0.0, 2023-11-25 15:47:17.757
134.0, 68374.03099227321, 79986.45514088335, -14609.547210877803, -11568.793543433374, -2174.355348867816, -3744.878321275511, -15026.541355436011, 187500.0, -0.056, 0.982, 0.04, 192.0, 0.0, 0.0, 0.0, 0.0, 0.0, 0.0, 0.0, 0.0, 0.0, 1.700945237761392E9, 0.0, 2023-11-25 15:47:17.761
135.0, 68383.39637319998, 80015.9370918199, -15040.35473350939, -12238.831786970113, -3026.9626411155036, -4251.502961099501, -15053.944594138216, 187500.0, -0.056, 0.982, 0.04, 192.0, 0.0, 0.0, 0.0, 0.0, 0.0, 0.0, 0.0, 0.0, 0.0, 1.700945237765726E9, 0.0, 2023-11-25 15:47:17.765
136.0, 68381.83175108812, 80016.02649879771, -14650.987345097941, -11944.481664238176, -2653.0179563782167, -4124.366238637715, -14972.986575721096, 187500.0, -0.056, 0.982, 0.04, 192.0, 0.0, 0.0, 0.0, 0.0, 0.0, 0.0, 0.0, 0.0, 0.0, 1.700945237770473E9, 0.0, 2023-11-25 15:47:17.770
137.0, 68375.52855915172, 79988.91383277343, -14234.172014495376, -11051.529473248658, -1660.5557990736722, -3446.1472566303323, -15003.697872602686, 187500.0, -0.056, 0.982, 0.04, 192.0, 0.0, 0.0, 0.0, 0.0, 0.0, 0.0, 0.0, 0.0, 0.0, 1.700945237773454E9, 0.0, 2023-11-25 15:47:17.773
138.0, 68376.42262892994, 79975.25691691124, -14563.524969044325, -11495.859801275707, -2084.389577435205, -3712.2000708818523, -15025.222602513148, 187500.0, -0.056, 0.982, 0.04, 192.0, 0.0, 0.0, 0.0, 0.0, 0.0, 0.0, 0.0, 0.0, 0.0, 1.700945237777417E9, 0.0, 2023-11-25 15:47:17.777
139.0, 68386.14563776799, 80001.60962362404, -14994.332491675914, -12135.074989208579, -2902.9775146219154, -4155.770439597421, -15041.584079454433, 187500.0, -0.062, 0.982, 0.042, 192.0, 254.0, 16.0, 30.0, 176.0, 1.0, 80.0, 0.0, 0.0, 0.0, 1.700945237781514E9, 0.0, 2023-11-25 15:47:17.781
140.0, 68396.47214370634, 80016.83116159811, -14803.538001005412, -12173.229416993789, -2903.022218110826, -4292.697226130632, -14989.34805266238, 187500.0, -0.062, 0.982, 0.042, 192.0, 0.0, 0.0, 0.0, 0.0, 0.0, 0.0, 0.0, 0.0, 0.0, 1.700945237785486E9, 0.0, 2023-11-25 15:47:17.785
141.0, 68389.78897211421, 79998.30156544466, -14214.52483111916, -11099.33985463856, -1707.6509246410042, -3478.7137483017145, -14988.655148584265, 187500.0, -0.062, 0.982, 0.042, 192.0, 0.0, 0.0, 0.0, 0.0, 0.0, 0.0, 0.0, 0.0, 0.0, 1.700945237789536E9, 0.0, 2023-11-25 15:47:17.789
142.0, 68382.23408248831, 79978.31910590161, -14501.364767714116, -11416.39934973709, -1986.6901024210576, -3661.372203990484, -15036.219660785158, 187500.0, -0.062, 0.982, 0.042, 192.0, 0.0, 0.0, 0.0, 0.0, 0.0, 0.0, 0.0, 0.0, 0.0, 1.700945237792557E9, 0.0, 2023-11-25 15:47:17.792
143.0, 68388.78314361372, 80002.79426608018, -14915.09555758185, -11964.061792381024, -2717.480387387322, -4014.6862285955226, -15052.827006915451, 187500.0, -0.062, 0.982, 0.042, 192.0, 0.0, 0.0, 0.0, 0.0, 0.0, 0.0, 0.0, 0.0, 0.0, 1.700945237796499E9, 0.0, 2023-11-25 15:47:17.796
144.0, 68401.36717574205, 80015.42300169743, -14937.536709014978, -12295.940494053424, -3072.6719585266064, -4376.002177715562, -15031.034056071527, 187500.0, -0.062, 0.982, 0.042, 192.0, 0.0, 0.0, 0.0, 0.0, 0.0, 0.0, 0.0, 0.0, 0.0, 1.700945237800528E9, 0.0, 2023-11-25 15:47:17.800
145.0, 68402.12713505354, 80003.12954224701, -14240.877537831968, -11188.07628012613, -1819.4543504064502, -3550.485199747706, -14976.093468200383, 187500.0, -0.062, 0.982, 0.042, 192.0, 0.0, 0.0, 0.0, 0.0, 0.0, 0.0, 0.0, 0.0, 0.0, 1.7009452378046E9, 0.0, 2023-11-25 15:47:17.804
146.0, 68404.71993741035, 79987.50567287275, -14440.948002451421, -11327.774682971798, -1898.780691478335, -3614.008857489688, -15037.806634641485, 187500.0, -0.062, 0.982, 0.042, 192.0, 0.0, 0.0, 0.0, 0.0, 0.0, 0.0, 0.0, 0.0, 0.0, 1.700945237809574E9, 0.0, 2023-11-25 15:47:17.809
147.0, 68408.6985479234, 79999.97794627881, -14831.701199019099, -11853.733581749628, -2561.6663767893765, -3925.0557333297415, -15037.359599752379, 187500.0, -0.062, 0.982, 0.042, 192.0, 0.0, 0.0, 0.0, 0.0, 0.0, 0.0, 0.0, 0.0, 0.0, 1.700945237813584E9, 0.0, 2023-11-25 15:47:17.813
148.0, 68410.12905956854, 80011.91377781794, -15028.64241941481, -12379.044279938254, -3172.8077736863825, -4415.229489234625, -15041.919355621261, 187500.0, -0.062, 0.982, 0.042, 192.0, 0.0, 0.0, 0.0, 0.0, 0.0, 0.0, 0.0, 0.0, 0.0, 1.700945237817615E9, 0.0, 2023-11-25 15:47:17.817
149.0, 68407.58096070064, 80006.01291728174, -14316.135861412986, -11356.29550889677, -2005.0855881077753, -3683.1875065788636, -14973.120686187827, 187500.0, -0.068, 0.978, 0.048, 192.0, 253.0, 224.0, 30.0, 144.0, 1.0, 128.0, 0.0, 0.0, 0.0, 1.700945237820597E9, 0.0, 2023-11-25 15:47:17.820
150.0, 68405.5916554441, 79979.5261001022, -14392.08708907212, -11248.649507600012, -1825.399914431562, -3570.937045924312, -15041.78524515453, 187500.0, -0.068, 0.978, 0.048, 192.0, 0.0, 0.0, 0.0, 0.0, 0.0, 0.0, 0.0, 0.0, 0.0, 1.700945237824598E9, 0.0, 2023-11-25 15:47:17.824
151.0, 68419.49444049531, 80003.57657713612, -14750.117331757228, -11742.377190873289, -2414.9048226958303, -3848.5680638036806, -15023.59092516791, 187500.0, -0.068, 0.978, 0.048, 192.0, 0.0, 0.0, 0.0, 0.0, 0.0, 0.0, 0.0, 0.0, 0.0, 1.700945237828593E9, 0.0, 2023-11-25 15:47:17.828
152.0, 68435.54299301423, 80027.82821987012, -15070.373126312868, -12388.9237509875, -3190.197430872611, -4405.77470133003, -15042.366390510368, 187500.0, -0.068, 0.978, 0.048, 192.0, 0.0, 0.0, 0.0, 0.0, 0.0, 0.0, 0.0, 0.0, 0.0, 1.700945237832804E9, 0.0, 2023-11-25 15:47:17.832
153.0, 68433.91131566899, 80020.7874203667, -14409.65556021399, -11557.61767120572, -2216.5330906549802, -3832.7653804737784, -14954.076999911906, 187500.0, -0.068, 0.978, 0.048, 192.0, 0.0, 0.0, 0.0, 0.0, 0.0, 0.0, 0.0, 0.0, 0.0, 1.700945237836658E9, 0.0, 2023-11-25 15:47:17.836
154.0, 68433.82190869116, 80000.29087070118, -14317.45461433585, -11144.579785416101, -1727.8345498841466, -3504.59706838096, -15020.618143155354, 187500.0, -0.068, 0.978, 0.048, 192.0, 0.0, 0.0, 0.0, 0.0, 0.0, 0.0, 0.0, 0.0, 0.0, 1.700945237841661E9, 0.0, 2023-11-25 15:47:17.841
155.0, 68434.13483311354, 80004.9847370368, -14677.854141933221, -11632.272497686447, -2275.273475083527, -3784.038577561209, -15021.266343744559, 187500.0, -0.068, 0.978, 0.048, 192.0, 0.0, 0.0, 0.0, 0.0, 0.0, 0.0, 0.0, 0.0, 0.0, 1.700945237845634E9, 0.0, 2023-11-25 15:47:17.845
156.0, 68447.99291467582, 80024.43075471291, -15083.001861930117, -12333.111445082599, -3138.520197691941, -4346.05084014545, -15050.077742347448, 187500.0, -0.068, 0.978, 0.048, 192.0, 0.0, 0.0, 0.0, 0.0, 0.0, 0.0, 0.0, 0.0, 0.0, 1.70094523784871E9, 0.0, 2023-11-25 15:47:17.848
157.0, 68441.5556122727, 80019.71453663285, -14547.342306058683, -11778.944644802172, -2469.599541377967, -4008.4277401480367, -14968.829151252408, 187500.0, -0.068, 0.978, 0.048, 192.0, 0.0, 0.0, 0.0, 0.0, 0.0, 0.0, 0.0, 0.0, 0.0, 1.700945237852648E9, 0.0, 2023-11-25 15:47:17.852
158.0, 68438.4487197934, 80003.33070794711, -14277.288529549664, -11084.498296320236, -1683.4439853959068, -3467.11319292941, -15021.467509444656, 187500.0, -0.068, 0.978, 0.048, 192.0, 0.0, 0.0, 0.0, 0.0, 0.0, 0.0, 0.0, 0.0, 0.0, 1.700945237856708E9, 0.0, 2023-11-25 15:47:17.856
159.0, 68437.50994652629, 79997.89923404447, -14621.930077306042, -11552.923804870106, -2167.9403982091426, -3747.0240887432205, -15030.676428160243, 187500.0, -0.064, 0.98, 0.044, 192.0, 254.0, 0.0, 30.0, 160.0, 1.0, 96.0, 0.0, 0.0, 0.0, 1.700945237860659E9, 0.0, 2023-11-25 15:47:17.860
160.0, 68450.0045716768, 80020.42979245541, -15057.811445928985, -12223.945525162879, -3023.1628445581014, -4248.574882575856, -15057.40911452879, 187500.0, -0.064, 0.98, 0.044, 192.0, 0.0, 0.0, 0.0, 0.0, 0.0, 0.0, 0.0, 0.0, 0.0, 1.700945237864723E9, 0.0, 2023-11-25 15:47:17.864
161.0, 68464.15322591702, 80026.71063264736, -14694.90852295262, -12002.909124244348, -2719.290878688202, -4180.804393387365, -14970.39377336428, 187500.0, -0.064, 0.98, 0.044, 192.0, 0.0, 0.0, 0.0, 0.0, 0.0, 0.0, 0.0, 0.0, 0.0, 1.7009452378698E9, 0.0, 2023-11-25 15:47:17.869
162.0, 68462.47684508287, 80012.45021968488, -14233.188537739343, -11060.671336730878, -1668.7141857998595, -3466.3085301290193, -15002.557933635466, 187500.0, -0.064, 0.98, 0.044, 192.0, 0.0, 0.0, 0.0, 0.0, 0.0, 0.0, 0.0, 0.0, 0.0, 1.700945237873768E9, 0.0, 2023-11-25 15:47:17.873
