%OpenBCI Raw EXG Data
%Number of channels = 8
%Sample Rate = 250 Hz
%Board = OpenBCI_GUI$BoardCytonSerial
Sample Index, EXG Channel 0, EXG Channel 1, EXG Channel 2, EXG Channel 3, EXG Channel 4, EXG Channel 5, EXG Channel 6, EXG Channel 7, Accel Channel 0, Accel Channel 1, Accel Channel 2, Other, Other, Other, Other, Other, Other, Other, Analog Channel 0, Analog Channel 1, Analog Channel 2, Timestamp, Other, Timestamp (Formatted)
245.0, 17100.224447277124, 35575.10353030009, -45450.75243124395, -47862.393899249306, -36390.78574070761, -45642.418639948206, -28777.870986207843, -8756.094724666444, 0.0, 0.0, 0.0, 192.0, 0.0, 0.0, 0.0, 0.0, 0.0, 0.0, 0.0, 0.0, 0.0, 1.700947234309773E9, 0.0, 2023-11-25 16:20:34.309
246.0, 17137.507157028576, 35644.058661944706, -45460.40838484864, -47842.679660639726, -36424.40276436839, -45428.780666444385, -28788.13043691283, -8761.727364269182, 0.0, 0.0, 0.0, 192.0, 0.0, 0.0, 0.0, 0.0, 0.0, 0.0, 0.0, 0.0, 0.0, 1.700947234309787E9, 0.0, 2023-11-25 16:20:34.309
247.0, 17315.158821959358, 35697.0769997927, -45459.111983670235, -47833.98483204661, -36316.19796946025, -45245.67517586651, -28811.219788935163, -8775.808963276026, 0.0, 0.0, 0.0, 192.0, 0.0, 0.0, 0.0, 0.0, 0.0, 0.0, 0.0, 0.0, 0.0, 1.700947234309795E9, 0.0, 2023-11-25 16:20:34.309
0.0, 0.0, 0.0, 0.0, 0.0, 0.0, 0.0, 0.0, 0.0, -0.098, 0.9460000000000001, 0.296, 192.0, 252.0, 240.0, 29.0, 144.0, 9.0, 64.0, 0.0, 0.0, 0.0, 1.700947234405598E9, 0.0, 2023-11-25 16:20:34.405
1.0, 17279.41838257532, 35828.39349846762, -45403.679657421075, -47806.71570381114, -36380.86156616945, -45357.4562498875, -28719.86820934632, -8694.538020436528, -0.098, 0.9460000000000001, 0.296, 192.0, 0.0, 0.0, 0.0, 0.0, 0.0, 0.0, 0.0, 0.0, 0.0, 1.700947234422611E9, 0.0, 2023-11-25 16:20:34.422
2.0, 17435.992352484747, 35900.65668829164, -45414.855529648725, -47801.03836071949, -36312.97931825868, -45160.91736089198, -28742.26465729054, -8717.068578847478, -0.098, 0.9460000000000001, 0.296, 192.0, 0.0, 0.0, 0.0, 0.0, 0.0, 0.0, 0.0, 0.0, 0.0, 1.700947234426593E9, 0.0, 2023-11-25 16:20:34.426
3.0, 17631.43600600195, 35858.94833313803, -45359.423203399565, -47823.14423598579, -36018.27156761546, -45154.43535499994, -28762.090654622396, -8741.029648903566, -0.098, 0.9460000000000001, 0.296, 192.0, 0.0, 0.0, 0.0, 0.0, 0.0, 0.0, 0.0, 0.0, 0.0, 1.700947234429583E9, 0.0, 2023-11-25 16:20:34.429
4.0, 17386.48323851624, 35798.196291708504, -45374.42122392908, -47820.32791618442, -36201.086485515414, -45479.34031240229, -28747.74083468209, -8719.884898648847, -0.098, 0.9460000000000001, 0.296, 192.0, 0.0, 0.0, 0.0, 0.0, 0.0, 0.0, 0.0, 0.0, 0.0, 1.700947234433626E9, 0.0, 2023-11-25 16:20:34.433
5.0, 17278.61371977493, 35845.06789983129, -45382.55725891081, -47793.79639551597, -36380.86156616945, -45429.048887377845, -28746.578543970412, -8712.687636934237, -0.098, 0.9460000000000001, 0.296, 192.0, 0.0, 0.0, 0.0, 0.0, 0.0, 0.0, 0.0, 0.0, 0.0, 1.700947234437666E9, 0.0, 2023-11-25 16:20:34.437
6.0, 17423.87770698997, 35927.881113038195, -45386.1111862792, -47774.14921213975, -36303.07749546498, -45183.5149745363, -28758.06734062044, -8712.9558578677, -0.098, 0.9460000000000001, 0.296, 192.0, 0.0, 0.0, 0.0, 0.0, 0.0, 0.0, 0.0, 0.0, 0.0, 1.700947234441133E9, 0.0, 2023-11-25 16:20:34.441
7.0, 17631.90539263551, 35904.054153448844, -45328.82366524025, -47787.582610557394, -36026.005271197, -45120.37129645006, -28774.11589313935, -8738.280384335565, -0.098, 0.9460000000000001, 0.296, 192.0, 0.0, 0.0, 0.0, 0.0, 0.0, 0.0, 0.0, 0.0, 0.0, 1.70094723444467E9, 0.0, 2023-11-25 16:20:34.444
8.0, 17474.79498085916, 35839.032928828354, -45315.50202554489, -47777.97136044161, -36079.13536776726, -45389.93333458106, -28743.203430557664, -8711.860622389391, -0.094, 0.9460000000000001, 0.29, 192.0, 253.0, 16.0, 29.0, 144.0, 9.0, 16.0, 0.0, 0.0, 0.0, 1.700947234449701E9, 0.0, 2023-11-25 16:20:34.449
9.0, 17280.04423142007, 35861.36232153921, -45330.16476990757, -47751.28337756197, -36341.701309883756, -45432.80398044634, -28716.78366861149, -8693.912171591779, -0.094, 0.9460000000000001, 0.29, 192.0, 0.0, 0.0, 0.0, 0.0, 0.0, 0.0, 0.0, 0.0, 0.0, 1.700947234453691E9, 0.0, 2023-11-25 16:20:34.453
10.0, 17408.186782382345, 35937.604121876255, -45349.38727013913, -47738.095848333345, -36283.67618127778, -45170.685073218956, -28733.25690427505, -8708.194936298722, -0.094, 0.9460000000000001, 0.29, 192.0, 0.0, 0.0, 0.0, 0.0, 0.0, 0.0, 0.0, 0.0, 0.0, 1.700947234457678E9, 0.0, 2023-11-25 16:20:34.457
11.0, 17613.420499970973, 35925.10949672574, -45315.9937639229, -47752.24450257355, -36057.65534134571, -45077.97003721834, -28757.396788286784, -8735.039381389544, -0.094, 0.9460000000000001, 0.29, 192.0, 0.0, 0.0, 0.0, 0.0, 0.0, 0.0, 0.0, 0.0, 0.0, 1.700947234462089E9, 0.0, 2023-11-25 16:20:34.462
12.0, 17540.196185135388, 35844.57616145327, -45303.32032481675, -47762.45924978963, -35990.28718355742, -45301.08515037122, -28743.82927940241, -8720.15311958231, -0.094, 0.9460000000000001, 0.29, 192.0, 0.0, 0.0, 0.0, 0.0, 0.0, 0.0, 0.0, 0.0, 0.0, 1.700947234465775E9, 0.0, 2023-11-25 16:20:34.465
13.0, 17271.259995849134, 35850.32055977828, -45319.659450013576, -47732.66437443071, -36326.07744050949, -45455.535704557384, -28703.283214960484, -8679.271778973554, -0.094, 0.9460000000000001, 0.29, 192.0, 0.0, 0.0, 0.0, 0.0, 0.0, 0.0, 0.0, 0.0, 0.0, 1.700947234468775E9, 0.0, 2023-11-25 16:20:34.468
14.0, 17380.001232624203, 35916.97346174401, -45334.948043221004, -47726.428237727676, -36280.65869577631, -45187.739454238355, -28711.508656920036, -8689.53122967854, -0.094, 0.9460000000000001, 0.29, 192.0, 0.0, 0.0, 0.0, 0.0, 0.0, 0.0, 0.0, 0.0, 0.0, 1.700947234472736E9, 0.0, 2023-11-25 16:20:34.472
15.0, 17575.020202996755, 35938.56524688783, -45305.041409139805, -47732.26204303051, -36100.61539418881, -45068.00115919127, -28716.806020355943, -8700.617694928373, -0.094, 0.9460000000000001, 0.29, 192.0, 0.0, 0.0, 0.0, 0.0, 0.0, 0.0, 0.0, 0.0, 0.0, 1.700947234477814E9, 0.0, 2023-11-25 16:20:34.477
16.0, 17590.39820318201, 35851.214629556496, -45282.4884989844, -47768.158944625735, -35923.142543213675, -45222.541120355265, -28720.471706446613, -8710.0054275996, -0.094, 0.9460000000000001, 0.29, 192.0, 0.0, 0.0, 0.0, 0.0, 0.0, 0.0, 0.0, 0.0, 0.0, 1.700947234481761E9, 0.0, 2023-11-25 16:20:34.481
17.0, 17281.56415004303, 35840.75401315141, -45308.43887429701, -47747.394174026755, -36285.553727812025, -45468.94675123057, -28671.074351200386, -8662.329156676431, -0.094, 0.9460000000000001, 0.29, 192.0, 0.0, 0.0, 0.0, 0.0, 0.0, 0.0, 0.0, 0.0, 0.0, 1.700947234485721E9, 0.0, 2023-11-25 16:20:34.485
18.0, 17348.597031664496, 35896.7227812675, -45346.39213638212, -47759.24059858806, -36292.59452731544, -45232.48764663788, -28684.954784507132, -8679.651758629294, -0.09, 0.9480000000000001, 0.28800000000000003, 192.0, 253.0, 48.0, 29.0, 160.0, 9.0, 0.0, 0.0, 0.0, 0.0, 1.700947234490605E9, 0.0, 2023-11-25 16:20:34.490
19.0, 17532.149557131477, 35938.76641258793, -45345.07338345926, -47764.448555046154, -36177.59480209289, -45091.78341529172, -28696.57769162389, -8691.788755868525, -0.09, 0.9480000000000001, 0.28800000000000003, 192.0, 0.0, 0.0, 0.0, 0.0, 0.0, 0.0, 0.0, 0.0, 0.0, 1.700947234493742E9, 0.0, 2023-11-25 16:20:34.493
20.0, 17625.222221043376, 35851.125222578674, -45325.62736578314, -47809.956706757155, -35943.125002756715, -45195.60726828662, -28722.416308214226, -8720.466044004685, -0.09, 0.9480000000000001, 0.28800000000000003, 192.0, 0.0, 0.0, 0.0, 0.0, 0.0, 0.0, 0.0, 0.0, 0.0, 1.700947234496813E9, 0.0, 2023-11-25 16:20:34.496
21.0, 17301.501906097164, 35825.51012343289, -45356.53982836483, -47790.868316992324, -36295.3661436279, -45511.81739709585, -28688.44165664216, -8671.180447480732, -0.09, 0.9480000000000001, 0.28800000000000003, 192.0, 0.0, 0.0, 0.0, 0.0, 0.0, 0.0, 0.0, 0.0, 0.0, 1.70094723450082E9, 0.0, 2023-11-25 16:20:34.500
22.0, 17313.393034147386, 35876.159176368616, -45387.251125246425, -47795.204555416654, -36359.06861532553, -45325.56031054978, -28706.367755695315, -8686.849020343903, -0.09, 0.9480000000000001, 0.28800000000000003, 192.0, 0.0, 0.0, 0.0, 0.0, 0.0, 0.0, 0.0, 0.0, 0.0, 1.700947234505802E9, 0.0, 2023-11-25 16:20:34.505
23.0, 17471.084591279578, 35929.155162472154, -45394.738959638955, -47797.59619207337, -36271.159204382806, -45149.339157264134, -28721.611645413836, -8703.076386818455, -0.09, 0.9480000000000001, 0.28800000000000003, 192.0, 0.0, 0.0, 0.0, 0.0, 0.0, 0.0, 0.0, 0.0, 0.0, 1.700947234509824E9, 0.0, 2023-11-25 16:20:34.509
24.0, 17618.181421539954, 35853.919190635585, -45355.28813067533, -47835.191826247195, -35986.37562827774, -45181.2127448574, -28745.058625347454, -8732.088951121445, -0.09, 0.9480000000000001, 0.28800000000000003, 192.0, 0.0, 0.0, 0.0, 0.0, 0.0, 0.0, 0.0, 0.0, 0.0, 1.700947234513807E9, 0.0, 2023-11-25 16:20:34.513
25.0, 17323.294856941087, 35803.69482084451, -45374.801203584815, -47817.735113827606, -36253.27780881856, -45513.717295374554, -28721.16461052473, -8698.606037927395, -0.09, 0.9480000000000001, 0.28800000000000003, 192.0, 0.0, 0.0, 0.0, 0.0, 0.0, 0.0, 0.0, 0.0, 0.0, 1.700947234517782E9, 0.0, 2023-11-25 16:20:34.517
26.0, 17276.71382149623, 35853.18158306856, -45391.296790992834, -47806.872166022324, -36373.10551084346, -45393.10728229371, -28735.670892676222, -8715.705122435704, -0.09, 0.9480000000000001, 0.28800000000000003, 192.0, 0.0, 0.0, 0.0, 0.0, 0.0, 0.0, 0.0, 0.0, 0.0, 1.700947234522012E9, 0.0, 2023-11-25 16:20:34.522
27.0, 17430.27030590419, 35931.457392151045, -45399.32106725229, -47794.37754087181, -36300.55174834153, -45183.35851232511, -28758.06734062044, -8735.173491856276, -0.09, 0.9480000000000001, 0.28800000000000003, 192.0, 0.0, 0.0, 0.0, 0.0, 0.0, 0.0, 0.0, 0.0, 0.0, 1.700947234525803E9, 0.0, 2023-11-25 16:20:34.525
28.0, 17633.20179381392, 35900.567281313815, -45333.60693855369, -47797.97617172911, -36000.01019239547, -45148.869770630576, -28768.684419236713, -8752.406686831318, -0.098, 0.9480000000000001, 0.29, 192.0, 252.0, 240.0, 29.0, 160.0, 9.0, 16.0, 0.0, 0.0, 0.0, 1.700947234529812E9, 0.0, 2023-11-25 16:20:34.529
29.0, 17408.0079684267, 35828.684071145544, -45345.63217707064, -47786.84500299037, -36148.51518255653, -45448.561960287334, -28749.774843427524, -8727.104512107911, -0.098, 0.9480000000000001, 0.29, 192.0, 0.0, 0.0, 0.0, 0.0, 0.0, 0.0, 0.0, 0.0, 0.0, 1.700947234532834E9, 0.0, 2023-11-25 16:20:34.532
30.0, 17275.573882529006, 35863.95512389602, -45355.73516556444, -47752.4680200181, -36354.754728645654, -45411.927451125084, -28735.20150604266, -8708.664322932282, -0.098, 0.9480000000000001, 0.29, 192.0, 0.0, 0.0, 0.0, 0.0, 0.0, 0.0, 0.0, 0.0, 0.0, 1.700947234536884E9, 0.0, 2023-11-25 16:20:34.536
31.0, 17424.369445367985, 35950.21050574905, -45356.003386497905, -47724.953022593625, -36282.24566963263, -45153.49658173282, -28728.719500150622, -8694.918000092268, -0.098, 0.9480000000000001, 0.29, 192.0, 0.0, 0.0, 0.0, 0.0, 0.0, 0.0, 0.0, 0.0, 0.0, 1.700947234540851E9, 0.0, 2023-11-25 16:20:34.540
32.0, 17631.145433324033, 35924.14837171416, -45310.986973164916, -47748.82468567189, -36016.17050363666, -45082.373330876035, -28743.35989276885, -8716.9568201252, -0.098, 0.9480000000000001, 0.29, 192.0, 0.0, 0.0, 0.0, 0.0, 0.0, 0.0, 0.0, 0.0, 0.0, 1.700947234544977E9, 0.0, 2023-11-25 16:20:34.544
33.0, 17484.629748419495, 35834.8084491263, -45314.98793542242, -47765.074403890896, -36044.914847006185, -45348.15792419409, -28728.74185189508, -8707.367921753874, -0.098, 0.9480000000000001, 0.29, 192.0, 0.0, 0.0, 0.0, 0.0, 0.0, 0.0, 0.0, 0.0, 0.0, 1.700947234549896E9, 0.0, 2023-11-25 16:20:34.549
34.0, 17271.684678993784, 35846.587818454245, -45330.79061875232, -47743.25910130252, -36334.63815863588, -45422.969212886004, -28701.807999826433, -8677.081308016934, -0.098, 0.9480000000000001, 0.29, 192.0, 0.0, 0.0, 0.0, 0.0, 0.0, 0.0, 0.0, 0.0, 0.0, 1.700947234553887E9, 0.0, 2023-11-25 16:20:34.553
35.0, 17393.2558170862, 35921.466162379525, -45348.42614512755, -47737.55940646642, -36280.457530076215, -45160.7608986808, -28710.234607486083, -8689.419470956263, -0.098, 0.9480000000000001, 0.29, 192.0, 0.0, 0.0, 0.0, 0.0, 0.0, 0.0, 0.0, 0.0, 0.0, 1.700947234557911E9, 0.0, 2023-11-25 16:20:34.557
36.0, 17604.09982253311, 35927.29996768236, -45308.70709523047, -47748.712926949614, -36062.57272512588, -45055.84181020759, -28715.48726743308, -8707.658494431793, -0.098, 0.9480000000000001, 0.29, 192.0, 0.0, 0.0, 0.0, 0.0, 0.0, 0.0, 0.0, 0.0, 0.0, 1.700947234560898E9, 0.0, 2023-11-25 16:20:34.560
37.0, 17548.913365472956, 35834.204952026004, -45297.419464280545, -47776.40673832974, -35967.84603212429, -45256.06873703823, -28713.408555198737, -8711.01125610009, -0.098, 0.9480000000000001, 0.29, 192.0, 0.0, 0.0, 0.0, 0.0, 0.0, 0.0, 0.0, 0.0, 0.0, 1.700947234564881E9, 0.0, 2023-11-25 16:20:34.564
38.0, 17264.889748679372, 35835.8589811157, -45315.233804611424, -47745.20370307013, -36313.35929791442, -45432.91573916862, -28671.566089578402, -8660.295147930998, -0.11, 0.9480000000000001, 0.29, 192.0, 252.0, 144.0, 29.0, 160.0, 9.0, 16.0, 0.0, 0.0, 0.0, 1.700947234568963E9, 0.0, 2023-11-25 16:20:34.568
39.0, 17365.427895239343, 35903.18243541508, -45336.8032380108, -47742.700307691135, -36281.50806206561, -45171.33327380816, -28685.401819396237, -8675.248464971599, -0.11, 0.9480000000000001, 0.29, 192.0, 0.0, 0.0, 0.0, 0.0, 0.0, 0.0, 0.0, 0.0, 0.0, 1.700947234573341E9, 0.0, 2023-11-25 16:20:34.573
40.0, 17562.525577846238, 35925.53417987039, -45317.40192382359, -47755.59726424185, -36120.79901943195, -45051.14794387197, -28707.239473729074, -8704.641008930326, -0.11, 0.9480000000000001, 0.29, 192.0, 0.0, 0.0, 0.0, 0.0, 0.0, 0.0, 0.0, 0.0, 0.0, 1.700947234577933E9, 0.0, 2023-11-25 16:20:34.577
41.0, 17600.970578309367, 35832.28270200285, -45296.90537415807, -47797.21621241763, -35932.932607285096, -45204.88324223557, -28729.54651469547, -8733.63122148886, -0.11, 0.9480000000000001, 0.29, 192.0, 0.0, 0.0, 0.0, 0.0, 0.0, 0.0, 0.0, 0.0, 0.0, 1.700947234582025E9, 0.0, 2023-11-25 16:20:34.582
42.0, 17277.496132552165, 35813.21666398247, -45324.44272332701, -47777.233752874585, -36303.50217860963, -45488.973914262526, -28696.756505579535, -8696.370863481863, -0.11, 0.9480000000000001, 0.29, 192.0, 0.0, 0.0, 0.0, 0.0, 0.0, 0.0, 0.0, 0.0, 0.0, 1.700947234586016E9, 0.0, 2023-11-25 16:20:34.586
43.0, 17339.05283678208, 35878.43905430306, -45348.15792419409, -47778.641912775274, -36318.29903343905, -45266.43994646549, -28712.358023209337, -8719.504918993107, -0.11, 0.9480000000000001, 0.29, 192.0, 0.0, 0.0, 0.0, 0.0, 0.0, 0.0, 0.0, 0.0, 0.0, 1.70094723458894E9, 0.0, 2023-11-25 16:20:34.588
44.0, 17522.068920382135, 35931.56915087332, -45340.24540665691, -47778.23958137508, -36208.75313386359, -45116.146816748005, -28723.220971014616, -8732.424227288273, -0.11, 0.9480000000000001, 0.29, 192.0, 0.0, 0.0, 0.0, 0.0, 0.0, 0.0, 0.0, 0.0, 0.0, 1.700947234592939E9, 0.0, 2023-11-25 16:20:34.592
45.0, 17635.884003148556, 35846.319597520785, -45314.965583677964, -47824.2394714641, -35959.352369231274, -45200.90463172253, -28757.799119686977, -8773.819658019502, -0.11, 0.9480000000000001, 0.29, 192.0, 0.0, 0.0, 0.0, 0.0, 0.0, 0.0, 0.0, 0.0, 0.0, 1.700947234596922E9, 0.0, 2023-11-25 16:20:34.596
46.0, 17318.489231883195, 35808.43339066904, -45345.87804625965, -47806.112206710844, -36302.49635010915, -45526.12251354725, -28712.961520309633, -8728.333858052953, -0.11, 0.9480000000000001, 0.29, 192.0, 0.0, 0.0, 0.0, 0.0, 0.0, 0.0, 0.0, 0.0, 0.0, 1.700947234600911E9, 0.0, 2023-11-25 16:20:34.600
47.0, 17323.361912174452, 35864.692731463045, -45368.162735481594, -47793.41641586023, -36377.24058356769, -45339.06076420078, -28713.788534854477, -8724.645820217827, -0.10400000000000001, 0.9380000000000001, 0.292, 192.0, 252.0, 192.0, 29.0, 80.0, 9.0, 32.0, 0.0, 0.0, 0.0, 1.70094723460506E9, 0.0, 2023-11-25 16:20:34.605
48.0, 17480.069992550612, 35915.83352277679, -45383.98777055595, -47790.35422686985, -36295.567309328, -45145.02527058426, -28729.859439117845, -8737.833349446459, -0.10400000000000001, 0.9380000000000001, 0.292, 192.0, 0.0, 0.0, 0.0, 0.0, 0.0, 0.0, 0.0, 0.0, 0.0, 1.700947234610002E9, 0.0, 2023-11-25 16:20:34.610
49.0, 17635.235802559353, 35837.66947241658, -45351.46598237348, -47826.36288718735, -36011.83426521233, -45163.063128359696, -28753.753453940568, -8771.763297529615, -0.10400000000000001, 0.9380000000000001, 0.292, 192.0, 0.0, 0.0, 0.0, 0.0, 0.0, 0.0, 0.0, 0.0, 0.0, 1.70094723461407E9, 0.0, 2023-11-25 16:20:34.614
50.0, 17340.505700171674, 35780.8960415001, -45368.83328781525, -47805.46400612164, -36256.45175653121, -45480.301437413866, -28716.850723844855, -8723.707046950703, -0.10400000000000001, 0.9380000000000001, 0.292, 192.0, 0.0, 0.0, 0.0, 0.0, 0.0, 0.0, 0.0, 0.0, 0.0, 1.700947234617063E9, 0.0, 2023-11-25 16:20:34.617
51.0, 17269.717725481718, 35823.83374259874, -45380.322084465275, -47780.11712790932, -36390.22694709623, -45360.183162711044, -28701.450371915147, -8702.852869373903, -0.10400000000000001, 0.9380000000000001, 0.292, 192.0, 0.0, 0.0, 0.0, 0.0, 0.0, 0.0, 0.0, 0.0, 0.0, 1.700947234621075E9, 0.0, 2023-11-25 16:20:34.621
52.0, 17422.380140111465, 35894.688772522066, -45383.3619217112, -47759.35235731034, -36305.267966421605, -45121.6006423951, -28691.325031676894, -8692.839287857925, -0.10400000000000001, 0.9380000000000001, 0.292, 192.0, 0.0, 0.0, 0.0, 0.0, 0.0, 0.0, 0.0, 0.0, 0.0, 1.700947234625E9, 0.0, 2023-11-25 16:20:34.625
53.0, 17616.125061050065, 35853.06982434628, -45331.617633297166, -47785.50389832305, -36010.91784368966, -45080.428729108426, -28705.808962083935, -8715.571011968972, -0.10400000000000001, 0.9380000000000001, 0.292, 192.0, 0.0, 0.0, 0.0, 0.0, 0.0, 0.0, 0.0, 0.0, 0.0, 1.700947234629231E9, 0.0, 2023-11-25 16:20:34.629
54.0, 17397.860276443993, 35781.65600081158, -45342.569988080264, -47790.95772397015, -36139.95446443015, -45382.69136937754, -28683.747790306545, -8695.610904170384, -0.10400000000000001, 0.9380000000000001, 0.292, 192.0, 0.0, 0.0, 0.0, 0.0, 0.0, 0.0, 0.0, 0.0, 0.0, 1.7009472346331E9, 0.0, 2023-11-25 16:20:34.633
55.0, 17251.501053750642, 35819.810428596786, -45351.68949981803, -47765.05205214644, -36368.00931310765, -45375.96349429649, -28657.75271150502, -8670.353432935886, -0.10400000000000001, 0.9380000000000001, 0.292, 192.0, 0.0, 0.0, 0.0, 0.0, 0.0, 0.0, 0.0, 0.0, 0.0, 1.700947234638024E9, 0.0, 2023-11-25 16:20:34.638
56.0, 17391.110049618488, 35899.807322002336, -45364.58645636874, -47752.8703514183, -36310.40886764632, -45121.175959250446, -28660.993714451044, -8663.849075299391, -0.10400000000000001, 0.9380000000000001, 0.292, 192.0, 0.0, 0.0, 0.0, 0.0, 0.0, 0.0, 0.0, 0.0, 0.0, 1.700947234642114E9, 0.0, 2023-11-25 16:20:34.642
57.0, 17593.572150894663, 35876.42739730208, -45327.549615806296, -47776.2279243741, -36065.254934460514, -45046.05174613616, -28674.80709252442, -8682.445726686206, -0.092, 0.934, 0.296, 192.0, 253.0, 32.0, 29.0, 48.0, 9.0, 64.0, 0.0, 0.0, 0.0, 1.700947234645073E9, 0.0, 2023-11-25 16:20:34.645
58.0, 17465.496655165753, 35788.80855903728, -45337.473790344455, -47797.12680543981, -36068.80886182891, -45307.18717660751, -28665.44171159765, -8677.483639417129, -0.092, 0.934, 0.296, 192.0, 0.0, 0.0, 0.0, 0.0, 0.0, 0.0, 0.0, 0.0, 0.0, 1.70094723464984E9, 0.0, 2023-11-25 16:20:34.649
59.0, 17237.821786143995, 35815.18361749454, -45350.326043406254, -47763.889761434766, -36371.07150209803, -45414.587308715265, -28630.885914669743, -8641.1397029328, -0.092, 0.934, 0.296, 192.0, 0.0, 0.0, 0.0, 0.0, 0.0, 0.0, 0.0, 0.0, 0.0, 1.700947234653113E9, 0.0, 2023-11-25 16:20:34.653
60.0, 17351.05572355458, 35878.41670255861, -45386.24529674593, -47778.46309881963, -36329.56431264452, -45165.924151649975, -28667.63218255427, -8675.717851605159, -0.092, 0.934, 0.296, 192.0, 0.0, 0.0, 0.0, 0.0, 0.0, 0.0, 0.0, 0.0, 0.0, 1.700947234657058E9, 0.0, 2023-11-25 16:20:34.657
61.0, 17557.0941039436, 35885.457502062025, -45359.11027897719, -47797.90911649574, -36135.48411553909, -45078.48412734081, -28698.34347943586, -8707.43497698724, -0.092, 0.934, 0.296, 192.0, 0.0, 0.0, 0.0, 0.0, 0.0, 0.0, 0.0, 0.0, 0.0, 1.700947234661076E9, 0.0, 2023-11-25 16:20:34.661
62.0, 17535.27880135522, 35806.868768557164, -45335.84211299922, -47820.305564439965, -36020.03735542743, -45284.45545249647, -28705.69720336166, -8715.034570102045, -0.092, 0.934, 0.296, 192.0, 0.0, 0.0, 0.0, 0.0, 0.0, 0.0, 0.0, 0.0, 0.0, 1.700947234666081E9, 0.0, 2023-11-25 16:20:34.666
63.0, 17241.576879212487, 35798.46451264197, -45357.97034000997, -47797.88676475129, -36371.33972303149, -45495.90295504367, -28679.277441415485, -8688.458345944684, -0.092, 0.934, 0.296, 192.0, 0.0, 0.0, 0.0, 0.0, 0.0, 0.0, 0.0, 0.0, 0.0, 1.700947234670127E9, 0.0, 2023-11-25 16:20:34.670
64.0, 17333.48725241271, 35869.81128094331, -45375.225886729466, -47792.09766293737, -36341.16486801683, -45243.19413223197, -28703.864360316322, -8715.302791035509, -0.092, 0.934, 0.296, 192.0, 0.0, 0.0, 0.0, 0.0, 0.0, 0.0, 0.0, 0.0, 0.0, 1.700947234673149E9, 0.0, 2023-11-25 16:20:34.673
65.0, 17531.076673397623, 35907.98806047298, -45354.461116130486, -47794.534003083, -36184.523842874034, -45115.02922952524, -28734.732119409102, -8748.338669340452, -0.092, 0.934, 0.296, 192.0, 0.0, 0.0, 0.0, 0.0, 0.0, 0.0, 0.0, 0.0, 0.0, 1.700947234677165E9, 0.0, 2023-11-25 16:20:34.677
66.0, 17593.639206128028, 35826.51595193338, -45320.1958918805, -47821.84783480738, -35970.34942750328, -45247.150391000556, -28762.537689511504, -8779.631111577883, -0.092, 0.934, 0.296, 192.0, 0.0, 0.0, 0.0, 0.0, 0.0, 0.0, 0.0, 0.0, 0.0, 1.700947234681184E9, 0.0, 2023-11-25 16:20:34.681
67.0, 17277.920815696816, 35812.70257386, -45334.322194376255, -47785.36978785632, -36324.31165269752, -45526.748362392, -28728.384223983794, -8734.77116045608, -0.092, 0.9420000000000001, 0.296, 192.0, 253.0, 32.0, 29.0, 112.0, 9.0, 64.0, 0.0, 0.0, 0.0, 1.700947234686189E9, 0.0, 2023-11-25 16:20:34.686
68.0, 17329.598048877484, 35878.394350814146, -45350.21428468398, -47774.28332260648, -36342.5283244286, -45303.92382191704, -28748.344331782384, -8754.150122898833, -0.092, 0.9420000000000001, 0.296, 192.0, 0.0, 0.0, 0.0, 0.0, 0.0, 0.0, 0.0, 0.0, 0.0, 1.700947234690156E9, 0.0, 2023-11-25 16:20:34.690
69.0, 17504.83572540709, 35929.66925259462, -45343.21818866947, -47769.29888359295, -36225.80751488299, -45135.68224140194, -28760.280163321517, -8769.081088194978, -0.092, 0.9420000000000001, 0.296, 192.0, 0.0, 0.0, 0.0, 0.0, 0.0, 0.0, 0.0, 0.0, 0.0, 1.70094723469316E9, 0.0, 2023-11-25 16:20:34.693
70.0, 17628.910258878503, 35847.90657137711, -45303.38738005011, -47807.05097997797, -35951.663369138645, -45200.5693555557, -28771.143111126796, -8794.204448962742, -0.092, 0.9420000000000001, 0.296, 192.0, 0.0, 0.0, 0.0, 0.0, 0.0, 0.0, 0.0, 0.0, 0.0, 1.700947234698181E9, 0.0, 2023-11-25 16:20:34.698
71.0, 17311.42608063532, 35801.52670163235, -45325.62736578314, -47787.56025881294, -36260.2068495997, -45516.33244947582, -28725.143221037775, -8745.54470128354, -0.092, 0.9420000000000001, 0.296, 192.0, 0.0, 0.0, 0.0, 0.0, 0.0, 0.0, 0.0, 0.0, 0.0, 1.700947234701208E9, 0.0, 2023-11-25 16:20:34.701
72.0, 17300.719595041228, 35864.558620996315, -45333.47282808695, -47769.67886324869, -36340.47196393871, -45342.83820901373, -28717.096593033864, -8737.609832001905, -0.092, 0.9420000000000001, 0.296, 192.0, 0.0, 0.0, 0.0, 0.0, 0.0, 0.0, 0.0, 0.0, 0.0, 1.700947234705209E9, 0.0, 2023-11-25 16:20:34.705
73.0, 17466.234262732778, 35939.66048236615, -45329.20364489599, -47755.75372645304, -36254.864782674886, -45135.65988965749, -28712.536837164982, -8733.117131366389, -0.092, 0.9420000000000001, 0.296, 192.0, 0.0, 0.0, 0.0, 0.0, 0.0, 0.0, 0.0, 0.0, 0.0, 1.700947234709218E9, 0.0, 2023-11-25 16:20:34.709
74.0, 17640.197889828432, 35870.705350721524, -45293.19498457849, -47797.283267651, -35968.851860624774, -45137.112753047084, -28732.02755833001, -8762.979061958678, -0.092, 0.9420000000000001, 0.296, 192.0, 0.0, 0.0, 0.0, 0.0, 0.0, 0.0, 0.0, 0.0, 0.0, 1.700947234713533E9, 0.0, 2023-11-25 16:20:34.713
75.0, 17362.61157543797, 35796.60931785218, -45329.0471826848, -47803.094721209374, -36199.49951165909, -45465.21400990654, -28702.187979482173, -8727.43978827474, -0.092, 0.9420000000000001, 0.296, 192.0, 0.0, 0.0, 0.0, 0.0, 0.0, 0.0, 0.0, 0.0, 0.0, 1.700947234717221E9, 0.0, 2023-11-25 16:20:34.717
76.0, 17276.46795230722, 35837.53536194985, -45345.095735203715, -47780.675921520706, -36363.20368804976, -45374.5106309069, -28677.95868849262, -8693.800412869503, -0.092, 0.9420000000000001, 0.296, 192.0, 0.0, 0.0, 0.0, 0.0, 0.0, 0.0, 0.0, 0.0, 0.0, 1.700947234721434E9, 0.0, 2023-11-25 16:20:34.721
77.0, 17421.553125566617, 35910.8267320188, -45364.050014501816, -47771.98109292759, -36293.68976279375, -45135.79400012422, -28682.29492691695, -8689.1512500228, -0.088, 0.9380000000000001, 0.298, 192.0, 253.0, 64.0, 29.0, 80.0, 9.0, 80.0, 0.0, 0.0, 0.0, 1.700947234726264E9, 0.0, 2023-11-25 16:20:34.726
78.0, 17622.271790775274, 35887.08917940726, -45311.054028398285, -47784.587476800385, -36008.302689588396, -45084.407339621466, -28683.457217628627, -8692.124032035355, -0.088, 0.9380000000000001, 0.298, 192.0, 0.0, 0.0, 0.0, 0.0, 0.0, 0.0, 0.0, 0.0, 0.0, 1.700947234729278E9, 0.0, 2023-11-25 16:20:34.729
79.0, 17436.506442607217, 35820.14570476362, -45310.24936559789, -47778.55250579745, -36096.21210053111, -45361.233694700444, -28647.828536966867, -8648.940461747701, -0.088, 0.9380000000000001, 0.298, 192.0, 0.0, 0.0, 0.0, 0.0, 0.0, 0.0, 0.0, 0.0, 0.0, 1.70094723473227E9, 0.0, 2023-11-25 16:20:34.732
80.0, 17265.40383880184, 35847.10190857672, -45325.11327566067, -47754.21145608562, -36338.14738251536, -45372.96836053948, -28623.755708188502, -8625.068798669434, -0.088, 0.9380000000000001, 0.298, 192.0, 0.0, 0.0, 0.0, 0.0, 0.0, 0.0, 0.0, 0.0, 0.0, 1.700947234737378E9, 0.0, 2023-11-25 16:20:34.737
81.0, 17398.508477033196, 35928.596368860766, -45343.32994739174, -47742.856769902326, -36276.6130300299, -45119.45487492739, -28639.9607229186, -8634.903566229768, -0.088, 0.9380000000000001, 0.298, 192.0, 0.0, 0.0, 0.0, 0.0, 0.0, 0.0, 0.0, 0.0, 0.0, 1.700947234741291E9, 0.0, 2023-11-25 16:20:34.741
82.0, 17610.58182842515, 35922.6284530912, -45304.66142948406, -47757.98890089857, -36035.79533526842, -45041.64845247847, -28667.87805174328, -8658.931691519225, -0.088, 0.9380000000000001, 0.298, 192.0, 0.0, 0.0, 0.0, 0.0, 0.0, 0.0, 0.0, 0.0, 0.0, 1.70094723474527E9, 0.0, 2023-11-25 16:20:34.745
83.0, 17499.13603057099, 35832.03683281384, -45317.82660696824, -47788.05199719095, -36018.31627110437, -45293.79848167879, -28688.19578745315, -8672.454496914685, -0.088, 0.9380000000000001, 0.298, 192.0, 0.0, 0.0, 0.0, 0.0, 0.0, 0.0, 0.0, 0.0, 0.0, 1.700947234749322E9, 0.0, 2023-11-25 16:20:34.749
84.0, 17250.383466527877, 35853.85213540222, -45338.74783977841, -47758.79356369896, -36343.19887676226, -45433.116904868715, -28665.464063342104, -8641.56438607745, -0.088, 0.9380000000000001, 0.298, 192.0, 0.0, 0.0, 0.0, 0.0, 0.0, 0.0, 0.0, 0.0, 0.0, 1.700947234753303E9, 0.0, 2023-11-25 16:20:34.753
85.0, 17362.231595782232, 35916.5264268549, -45373.41539542859, -47769.58945627087, -36307.637251333865, -45182.53149778026, -28705.361927194826, -8674.62261612685, -0.088, 0.9380000000000001, 0.298, 192.0, 0.0, 0.0, 0.0, 0.0, 0.0, 0.0, 0.0, 0.0, 0.0, 1.700947234756281E9, 0.0, 2023-11-25 16:20:34.756
86.0, 17569.365211649565, 35932.373813673716, -45344.26872065887, -47781.03354943199, -36124.3752985448, -45086.79897627819, -28732.34048275238, -8705.691540919726, -0.088, 0.9380000000000001, 0.298, 192.0, 0.0, 0.0, 0.0, 0.0, 0.0, 0.0, 0.0, 0.0, 0.0, 1.700947234761295E9, 0.0, 2023-11-25 16:20:34.761
87.0, 17567.040630226213, 35852.891010390646, -45321.26877561436, -47802.55827934245, -35985.88388989972, -45273.994836091384, -28738.39780549977, -8718.789663170537, -0.098, 0.936, 0.296, 192.0, 252.0, 240.0, 29.0, 64.0, 9.0, 64.0, 0.0, 0.0, 0.0, 1.700947234765321E9, 0.0, 2023-11-25 16:20:34.765
88.0, 17262.94514691176, 35834.24965551492, -45356.87510453166, -47786.01798844552, -36352.29603675557, -45504.30721095887, -28714.906122077242, -8696.214401270676, -0.098, 0.936, 0.296, 192.0, 0.0, 0.0, 0.0, 0.0, 0.0, 0.0, 0.0, 0.0, 0.0, 1.700947234769567E9, 0.0, 2023-11-25 16:20:34.769
89.0, 17342.91968857285, 35900.544929569354, -45378.89157282014, -47781.12295640981, -36340.33785347198, -45255.599350404664, -28729.97119784012, -8711.637104944839, -0.098, 0.936, 0.296, 192.0, 0.0, 0.0, 0.0, 0.0, 0.0, 0.0, 0.0, 0.0, 0.0, 1.700947234773377E9, 0.0, 2023-11-25 16:20:34.773
90.0, 17526.315751828643, 35923.54487461387, -45371.582552383254, -47793.61758156033, -36199.92419480374, -45115.364505692065, -28754.692227207688, -8740.672020992282, -0.098, 0.936, 0.296, 192.0, 0.0, 0.0, 0.0, 0.0, 0.0, 0.0, 0.0, 0.0, 0.0, 1.700947234777407E9, 0.0, 2023-11-25 16:20:34.777
91.0, 17590.711127604383, 35830.94159733553, -45342.16765668007, -47829.91681455575, -35973.1433955602, -45237.33797518468, -28775.568756528948, -8770.288082395564, -0.098, 0.936, 0.296, 192.0, 0.0, 0.0, 0.0, 0.0, 0.0, 0.0, 0.0, 0.0, 0.0, 1.700947234781441E9, 0.0, 2023-11-25 16:20:34.781
92.0, 17262.095780622458, 35800.18559696503, -45368.18508722605, -47809.532023612504, -36325.92097829831, -45538.885359631226, -28739.694206678178, -8731.083122620956, -0.098, 0.936, 0.296, 192.0, 0.0, 0.0, 0.0, 0.0, 0.0, 0.0, 0.0, 0.0, 0.0, 1.700947234784507E9, 0.0, 2023-11-25 16:20:34.784
93.0, 17301.2336851637, 35864.60332448522, -45384.07717753377, -47797.26091590654, -36353.41362397833, -45325.47090357196, -28743.851631146867, -8740.962593670201, -0.098, 0.936, 0.296, 192.0, 0.0, 0.0, 0.0, 0.0, 0.0, 0.0, 0.0, 0.0, 0.0, 1.700947234788442E9, 0.0, 2023-11-25 16:20:34.788
94.0, 17481.254635006742, 35926.361194415236, -45374.398872184625, -47787.04616869047, -36241.76666042407, -45145.092325817626, -28747.83024165991, -8744.82944546097, -0.098, 0.936, 0.296, 192.0, 0.0, 0.0, 0.0, 0.0, 0.0, 0.0, 0.0, 0.0, 0.0, 1.700947234792397E9, 0.0, 2023-11-25 16:20:34.792
95.0, 17628.57498271167, 35860.82587967228, -45319.502987802385, -47810.42609339072, -35957.87715409722, -45187.09125364915, -28756.949753397676, -8757.525236311583, -0.098, 0.936, 0.296, 192.0, 0.0, 0.0, 0.0, 0.0, 0.0, 0.0, 0.0, 0.0, 0.0, 1.70094723479751E9, 0.0, 2023-11-25 16:20:34.797
96.0, 17321.685531340307, 35805.57236737876, -45345.81099102629, -47802.58063108691, -36252.808422185, -45505.55890864837, -28716.180171511194, -8715.235735802144, -0.098, 0.936, 0.296, 192.0, 0.0, 0.0, 0.0, 0.0, 0.0, 0.0, 0.0, 0.0, 0.0, 1.700947234801561E9, 0.0, 2023-11-25 16:20:34.801
97.0, 17294.41640310483, 35850.365263267195, -45364.0053110129, -47796.545660083975, -36358.599228691965, -45357.053918487305, -28710.614587141823, -8714.29696253502, -0.10200000000000001, 0.9380000000000001, 0.292, 192.0, 252.0, 208.0, 29.0, 80.0, 9.0, 32.0, 0.0, 0.0, 0.0, 1.700947234805446E9, 0.0, 2023-11-25 16:20:34.805
98.0, 17458.724076595794, 35925.35536591475, -45360.29492143332, -47781.569991298915, -36274.89194570684, -45138.27504375876, -28704.26669171652, -8700.617694928373, -0.10200000000000001, 0.9380000000000001, 0.292, 192.0, 0.0, 0.0, 0.0, 0.0, 0.0, 0.0, 0.0, 0.0, 0.0, 1.700947234808524E9, 0.0, 2023-11-25 16:20:34.808
99.0, 17638.96854388339, 35865.98913264145, -45309.712923730964, -47814.494110881584, -35979.02190435194, -45124.90870057449, -28721.857514602845, -8722.768273683581, -0.10200000000000001, 0.9380000000000001, 0.292, 192.0, 0.0, 0.0, 0.0, 0.0, 0.0, 0.0, 0.0, 0.0, 0.0, 1.70094723481253E9, 0.0, 2023-11-25 16:20:34.812
100.0, 17386.3044245606, 35806.93582379053, -45314.6973627445, -47802.15594794226, -36169.65993281126, -45440.26946309441, -28687.547586863948, -8677.416584183764, -0.10200000000000001, 0.9380000000000001, 0.292, 192.0, 0.0, 0.0, 0.0, 0.0, 0.0, 0.0, 0.0, 0.0, 0.0, 1.700947234816546E9, 0.0, 2023-11-25 16:20:34.816
101.0, 17280.04423142007, 35844.88908587564, -45322.05108667029, -47780.45240407615, -36346.39517621937, -45370.7108343495, -28675.87997625828, -8661.077458986934, -0.10200000000000001, 0.9380000000000001, 0.292, 192.0, 0.0, 0.0, 0.0, 0.0, 0.0, 0.0, 0.0, 0.0, 0.0, 1.700947234821514E9, 0.0, 2023-11-25 16:20:34.821
102.0, 17423.67654128987, 35914.760639042936, -45336.289147888325, -47771.511706294026, -36278.7140940087, -45131.234244255334, -28690.67683108769, -8674.756726593581, -0.10200000000000001, 0.9380000000000001, 0.292, 192.0, 0.0, 0.0, 0.0, 0.0, 0.0, 0.0, 0.0, 0.0, 0.0, 1.700947234825551E9, 0.0, 2023-11-25 16:20:34.825
103.0, 17627.2115262999, 35886.23981311796, -45289.57400197673, -47794.89163099428, -36006.31338433187, -45082.39568262049, -28712.648595887258, -8707.502032220607, -0.10200000000000001, 0.9380000000000001, 0.292, 192.0, 0.0, 0.0, 0.0, 0.0, 0.0, 0.0, 0.0, 0.0, 0.0, 1.700947234829545E9, 0.0, 2023-11-25 16:20:34.829
104.0, 17457.204157972832, 35820.726850119456, -45291.540955488796, -47793.70698853815, -36075.961420054606, -45369.146212237625, -28692.68848808867, -8683.026872042044, -0.10200000000000001, 0.9380000000000001, 0.292, 192.0, 0.0, 0.0, 0.0, 0.0, 0.0, 0.0, 0.0, 0.0, 0.0, 1.700947234833526E9, 0.0, 2023-11-25 16:20:34.833
105.0, 17274.679812750794, 35855.729681936464, -45306.27075508484, -47760.06761313291, -36337.566237159524, -45408.66409643461, -28666.42518835368, -8655.981261251123, -0.10200000000000001, 0.9380000000000001, 0.292, 192.0, 0.0, 0.0, 0.0, 0.0, 0.0, 0.0, 0.0, 0.0, 0.0, 1.700947234837534E9, 0.0, 2023-11-25 16:20:34.837
106.0, 17409.036148671647, 35937.00062477597, -45330.85767398569, -47748.19883682714, -36282.15626265482, -45152.5578084657, -28684.463046129116, -8676.611921383372, -0.10200000000000001, 0.9380000000000001, 0.292, 192.0, 0.0, 0.0, 0.0, 0.0, 0.0, 0.0, 0.0, 0.0, 0.0, 1.700947234840574E9, 0.0, 2023-11-25 16:20:34.840
107.0, 17621.06479657469, 35935.70422359755, -45297.6429817251, -47757.58656949837, -36048.781698796956, -45062.01089167725, -28706.50186616205, -8707.233811287142, -0.10200000000000001, 0.9400000000000001, 0.294, 192.0, 252.0, 208.0, 29.0, 96.0, 9.0, 48.0, 0.0, 0.0, 0.0, 1.700947234844807E9, 0.0, 2023-11-25 16:20:34.844
108.0, 17536.105815900068, 35847.41483299909, -45300.66046722657, -47778.3289883529, -35998.73614296152, -45292.70324620047, -28716.806020355943, -8714.922811379769, -0.10200000000000001, 0.9400000000000001, 0.294, 192.0, 0.0, 0.0, 0.0, 0.0, 0.0, 0.0, 0.0, 0.0, 0.0, 1.700947234848601E9, 0.0, 2023-11-25 16:20:34.848
109.0, 17270.99177491567, 35850.655835945116, -45330.343583863214, -47755.26198807502, -36336.60511214795, -45451.646501022165, -28693.984889267074, -8685.932598821235, -0.10200000000000001, 0.9400000000000001, 0.294, 192.0, 0.0, 0.0, 0.0, 0.0, 0.0, 0.0, 0.0, 0.0, 0.0, 1.700947234853623E9, 0.0, 2023-11-25 16:20:34.853
110.0, 17378.3025000456, 35924.036612991884, -45358.35031966571, -47752.26685431801, -36299.70238205223, -45195.16023339752, -28717.54362792297, -8706.496203720119, -0.10200000000000001, 0.9400000000000001, 0.294, 192.0, 0.0, 0.0, 0.0, 0.0, 0.0, 0.0, 0.0, 0.0, 0.0, 1.700947234857578E9, 0.0, 2023-11-25 16:20:34.857
111.0, 17583.2009414674, 35951.64101739419, -45329.360107107175, -47753.339738051865, -36115.99339437406, -45072.47150808234, -28727.959540839143, -8722.701218450215, -0.10200000000000001, 0.9400000000000001, 0.294, 192.0, 0.0, 0.0, 0.0, 0.0, 0.0, 0.0, 0.0, 0.0, 0.0, 1.700947234861583E9, 0.0, 2023-11-25 16:20:34.861
112.0, 17592.588674138628, 35856.53434473686, -45319.01124942437, -47790.22011640312, -35953.5856191618, -45234.94633852796, -28740.11888982283, -8733.810035444503, -0.10200000000000001, 0.9400000000000001, 0.294, 192.0, 0.0, 0.0, 0.0, 0.0, 0.0, 0.0, 0.0, 0.0, 0.0, 1.70094723486464E9, 0.0, 2023-11-25 16:20:34.864
113.0, 17279.530141297597, 35843.27976027486, -45349.58843583923, -47769.00831091504, -36323.641100363864, -45485.50939387195, -28707.91002606273, -8688.860677344881, -0.10200000000000001, 0.9400000000000001, 0.294, 192.0, 0.0, 0.0, 0.0, 0.0, 0.0, 0.0, 0.0, 0.0, 0.0, 1.700947234868665E9, 0.0, 2023-11-25 16:20:34.868
114.0, 17350.96631657676, 35909.083295951285, -45372.11899425018, -47767.62250275881, -36318.63430960588, -45240.46721940842, -28723.220971014616, -8704.86452637488, -0.10200000000000001, 0.9400000000000001, 0.294, 192.0, 0.0, 0.0, 0.0, 0.0, 0.0, 0.0, 0.0, 0.0, 0.0, 1.700947234872727E9, 0.0, 2023-11-25 16:20:34.872
115.0, 17528.550926274173, 35939.05698526585, -45368.11803199268, -47780.07242442041, -36194.44801741219, -45094.55503160418, -28737.704901421657, -8724.15408183981, -0.10200000000000001, 0.9400000000000001, 0.294, 192.0, 0.0, 0.0, 0.0, 0.0, 0.0, 0.0, 0.0, 0.0, 0.0, 1.700947234876682E9, 0.0, 2023-11-25 16:20:34.876
116.0, 17614.82865987166, 35853.89683889113, -45331.93055771954, -47813.108302725355, -35956.96073257455, -45193.79677698574, -28738.286046777495, -8734.704105222716, -0.10200000000000001, 0.9400000000000001, 0.294, 192.0, 0.0, 0.0, 0.0, 0.0, 0.0, 0.0, 0.0, 0.0, 0.0, 1.700947234880728E9, 0.0, 2023-11-25 16:20:34.880
117.0, 17286.57094080102, 35824.95132982151, -45349.364918394676, -47786.50972682354, -36302.00461173113, -45499.00984752296, -28687.43582814167, -8680.411717940775, -0.094, 0.9440000000000001, 0.296, 192.0, 253.0, 16.0, 29.0, 128.0, 9.0, 64.0, 0.0, 0.0, 0.0, 1.70094723488569E9, 0.0, 2023-11-25 16:20:34.885
118.0, 17310.66612132384, 35879.35547582572, -45366.151078480616, -47781.83821223238, -36348.09390879797, -45292.92676364503, -28694.856607300833, -8684.055052286989, -0.094, 0.9440000000000001, 0.296, 192.0, 0.0, 0.0, 0.0, 0.0, 0.0, 0.0, 0.0, 0.0, 0.0, 1.700947234889706E9, 0.0, 2023-11-25 16:20:34.889
119.0, 17467.307146466632, 35924.79657230336, -45372.96836053948, -47789.750729769556, -36257.41288154279, -45119.41017143848, -28712.49213367607, -8703.970456596668, -0.094, 0.9440000000000001, 0.296, 192.0, 0.0, 0.0, 0.0, 0.0, 0.0, 0.0, 0.0, 0.0, 0.0, 1.70094723489267E9, 0.0, 2023-11-25 16:20:34.892
120.0, 17608.570171424173, 35846.00667309841, -45328.041354184315, -47828.195730232685, -35972.87517462673, -45159.84447715813, -28723.757412881543, -8732.178358099265, -0.094, 0.9440000000000001, 0.296, 192.0, 0.0, 0.0, 0.0, 0.0, 0.0, 0.0, 0.0, 0.0, 0.0, 1.700947234897064E9, 0.0, 2023-11-25 16:20:34.897
121.0, 17308.676816067316, 35793.79299805081, -45348.06851721627, -47809.37556140132, -36243.97948312515, -45482.536611859396, -28681.311450160916, -8682.378671452841, -0.094, 0.9440000000000001, 0.296, 192.0, 0.0, 0.0, 0.0, 0.0, 0.0, 0.0, 0.0, 0.0, 0.0, 1.700947234900903E9, 0.0, 2023-11-25 16:20:34.900
122.0, 17262.76633295612, 35843.726795163966, -45359.60201735521, -47786.666189034724, -36356.989903091184, -45341.54180783532, -28676.327011147383, -8671.42631666974, -0.094, 0.9440000000000001, 0.296, 192.0, 0.0, 0.0, 0.0, 0.0, 0.0, 0.0, 0.0, 0.0, 0.0, 1.700947234904747E9, 0.0, 2023-11-25 16:20:34.904
123.0, 17416.389872597443, 35908.949185484555, -45373.39304368413, -47779.02189243101, -36272.94734393923, -45119.991316794316, -28689.603947353837, -8678.154191750788, -0.094, 0.9440000000000001, 0.296, 192.0, 0.0, 0.0, 0.0, 0.0, 0.0, 0.0, 0.0, 0.0, 0.0, 1.700947234909895E9, 0.0, 2023-11-25 16:20:34.909
124.0, 17610.514773191782, 35864.133937851664, -45324.48742681592, -47802.37946538681, -35978.39605550719, -45098.4442351394, -28706.837142328877, -8700.282418761542, -0.094, 0.9440000000000001, 0.296, 192.0, 0.0, 0.0, 0.0, 0.0, 0.0, 0.0, 0.0, 0.0, 0.0, 1.700947234913855E9, 0.0, 2023-11-25 16:20:34.913
125.0, 17377.319023289565, 35805.840588312225, -45335.1492089211, -47793.43876760468, -36145.20712437715, -45415.43667500457, -28678.428075126183, -8664.921959033247, -0.094, 0.9440000000000001, 0.296, 192.0, 0.0, 0.0, 0.0, 0.0, 0.0, 0.0, 0.0, 0.0, 0.0, 1.700947234917859E9, 0.0, 2023-11-25 16:20:34.917
126.0, 17265.023859146102, 35853.74037667995, -45346.45919161549, -47767.13076438079, -36346.082251796994, -45382.24433448844, -28670.11322618881, -8652.382630393819, -0.094, 0.9440000000000001, 0.296, 192.0, 0.0, 0.0, 0.0, 0.0, 0.0, 0.0, 0.0, 0.0, 0.0, 1.700947234920757E9, 0.0, 2023-11-25 16:20:34.920
127.0, 17409.952570194313, 35921.734383312985, -45380.83617458775, -47778.150174397255, -36288.92884122477, -45148.04275608573, -28709.318185963417, -8683.920941820257, -0.096, 0.9420000000000001, 0.294, 192.0, 253.0, 0.0, 29.0, 112.0, 9.0, 48.0, 0.0, 0.0, 0.0, 1.700947234924768E9, 0.0, 2023-11-25 16:20:34.924
128.0, 17618.270828517776, 35896.70042952304, -45343.30759564729, -47805.285192166, -36037.8069922694, -45098.60069735059, -28736.341445009883, -8715.928639880258, -0.096, 0.9420000000000001, 0.294, 192.0, 0.0, 0.0, 0.0, 0.0, 0.0, 0.0, 0.0, 0.0, 0.0, 1.700947234928941E9, 0.0, 2023-11-25 16:20:34.928
129.0, 17466.524835410695, 35821.68797513103, -45347.01798522687, -47814.449407392676, -36086.33262948187, -45384.591267656244, -28722.393956469772, -8702.070558317966, -0.096, 0.9420000000000001, 0.294, 192.0, 0.0, 0.0, 0.0, 0.0, 0.0, 0.0, 0.0, 0.0, 0.0, 1.700947234932822E9, 0.0, 2023-11-25 16:20:34.932
130.0, 17259.972364899204, 35852.80160341282, -45357.52330512086, -47784.00633144454, -36371.00444686466, -45462.24122789398, -28692.73319157758, -8678.221246984154, -0.096, 0.9420000000000001, 0.294, 192.0, 0.0, 0.0, 0.0, 0.0, 0.0, 0.0, 0.0, 0.0, 0.0, 1.700947234936926E9, 0.0, 2023-11-25 16:20:34.936
131.0, 17393.591093253028, 35928.90929328314, -45374.98001754046, -47778.66426451973, -36316.55559737153, -45200.01056194431, -28715.06258428843, -8703.188145540733, -0.096, 0.9420000000000001, 0.294, 192.0, 0.0, 0.0, 0.0, 0.0, 0.0, 0.0, 0.0, 0.0, 0.0, 1.700947234941847E9, 0.0, 2023-11-25 16:20:34.941
132.0, 17608.033729557246, 35930.67508109511, -45335.90916823258, -47790.868316992324, -36095.250975519535, -45105.84266255411, -28739.9847793561, -8731.239584832143, -0.096, 0.9420000000000001, 0.294, 192.0, 0.0, 0.0, 0.0, 0.0, 0.0, 0.0, 0.0, 0.0, 0.0, 1.700947234945854E9, 0.0, 2023-11-25 16:20:34.945
133.0, 17555.104798687076, 35846.05137658732, -45321.671107014554, -47808.772064301025, -36010.02377391145, -45326.566139050265, -28748.07611084892, -8736.559300012506, -0.096, 0.9420000000000001, 0.294, 192.0, 0.0, 0.0, 0.0, 0.0, 0.0, 0.0, 0.0, 0.0, 0.0, 1.700947234948838E9, 0.0, 2023-11-25 16:20:34.948
134.0, 17284.84985647796, 35857.24960055943, -45335.529188576846, -47773.389252828274, -36347.19983901976, -45498.45105391158, -28714.995529055064, -8700.461232717185, -0.096, 0.9420000000000001, 0.294, 192.0, 0.0, 0.0, 0.0, 0.0, 0.0, 0.0, 0.0, 0.0, 0.0, 1.700947234952847E9, 0.0, 2023-11-25 16:20:34.952
135.0, 17390.01481414018, 35931.61385436224, -45359.89259003313, -47764.247389346056, -36310.028887990586, -45231.81709430422, -28736.788479898987, -8720.421340515773, -0.096, 0.9420000000000001, 0.294, 192.0, 0.0, 0.0, 0.0, 0.0, 0.0, 0.0, 0.0, 0.0, 0.0, 1.70094723495687E9, 0.0, 2023-11-25 16:20:34.956
136.0, 17587.380717680542, 35966.92961060162, -45331.05883968578, -47759.01708114351, -36139.14980162976, -45096.45492988288, -28743.583410213403, -8726.165738840788, -0.096, 0.9420000000000001, 0.294, 192.0, 0.0, 0.0, 0.0, 0.0, 0.0, 0.0, 0.0, 0.0, 0.0, 1.700947234961083E9, 0.0, 2023-11-25 16:20:34.961
137.0, 17613.755776137805, 35873.499318778435, -45309.377647564135, -47792.477642593105, -35948.869401081734, -45237.82971356269, -28755.675703963723, -8742.124884381878, -0.098, 0.9440000000000001, 0.3, 192.0, 252.0, 240.0, 29.0, 128.0, 9.0, 96.0, 0.0, 0.0, 0.0, 1.700947234965279E9, 0.0, 2023-11-25 16:20:34.965
138.0, 17284.022841933114, 35851.03581560085, -45333.87515948715, -47766.77313646951, -36309.537149612566, -45497.53463238891, -28714.593197654867, -8694.649779158804, -0.098, 0.9440000000000001, 0.3, 192.0, 0.0, 0.0, 0.0, 0.0, 0.0, 0.0, 0.0, 0.0, 0.0, 1.700947234968854E9, 0.0, 2023-11-25 16:20:34.968
139.0, 17346.831243852528, 35918.53808385588, -45342.68174680254, -47750.79163918396, -36303.54688209854, -45248.96088230144, -28714.459087188137, -8691.38642446833, -0.098, 0.9440000000000001, 0.3, 192.0, 0.0, 0.0, 0.0, 0.0, 0.0, 0.0, 0.0, 0.0, 0.0, 1.70094723497289E9, 0.0, 2023-11-25 16:20:34.972
140.0, 17520.996036648277, 35951.84218309429, -45336.847941499705, -47752.35626129583, -36180.277011427526, -45086.418996622444, -28729.702976906658, -8705.646837430815, -0.098, 0.9440000000000001, 0.3, 192.0, 0.0, 0.0, 0.0, 0.0, 0.0, 0.0, 0.0, 0.0, 0.0, 1.700947234975948E9, 0.0, 2023-11-25 16:20:34.975
141.0, 17628.463223989394, 35870.48183327697, -45290.713940943955, -47776.339683096376, -35920.34857515676, -45157.810468412696, -28729.188886784184, -8708.373750254363, -0.098, 0.9440000000000001, 0.3, 192.0, 0.0, 0.0, 0.0, 0.0, 0.0, 0.0, 0.0, 0.0, 0.0, 1.700947234981005E9, 0.0, 2023-11-25 16:20:34.981
142.0, 17303.692377053783, 35834.33906249274, -45310.36112432017, -47749.003499627535, -36246.08054710395, -45452.65232952265, -28669.04034245495, -8642.726676789127, -0.098, 0.9440000000000001, 0.3, 192.0, 0.0, 0.0, 0.0, 0.0, 0.0, 0.0, 0.0, 0.0, 0.0, 1.70094723498491E9, 0.0, 2023-11-25 16:20:34.984
143.0, 17309.034443978602, 35887.29034510736, -45333.562235064775, -47743.14734258025, -36305.13385595487, -45260.13675452909, -28676.550528591935, -8648.538130347506, -0.098, 0.9440000000000001, 0.3, 192.0, 0.0, 0.0, 0.0, 0.0, 0.0, 0.0, 0.0, 0.0, 0.0, 1.700947234988968E9, 0.0, 2023-11-25 16:20:34.988
144.0, 17475.621995404006, 35956.0890145408, -45334.38924960962, -47733.02200234199, -36214.72104963315, -45072.806784249166, -28683.747790306545, -8656.025964740034, -0.098, 0.9440000000000001, 0.3, 192.0, 0.0, 0.0, 0.0, 0.0, 0.0, 0.0, 0.0, 0.0, 0.0, 1.700947234992944E9, 0.0, 2023-11-25 16:20:34.992
145.0, 17640.510814250807, 35887.402103829634, -45292.99381887839, -47772.18225862769, -35921.86849377972, -45095.806729293676, -28705.138409750274, -8691.118203534867, -0.098, 0.9440000000000001, 0.3, 192.0, 0.0, 0.0, 0.0, 0.0, 0.0, 0.0, 0.0, 0.0, 0.0, 1.700947234996942E9, 0.0, 2023-11-25 16:20:34.996
146.0, 17352.508586944175, 35825.21955075497, -45320.24059536941, -47769.65651150424, -36178.84649978238, -45434.56976825831, -28677.399894881237, -8661.278624687031, -0.098, 0.9440000000000001, 0.3, 192.0, 0.0, 0.0, 0.0, 0.0, 0.0, 0.0, 0.0, 0.0, 0.0, 1.700947235000978E9, 0.0, 2023-11-25 16:20:35.000
147.0, 17279.708955253238, 35869.319542565296, -45339.418392112064, -47759.195895099154, -36324.848094564455, -45340.35716537919, -28675.969383236097, -8654.796618794993, -0.092, 0.9460000000000001, 0.298, 192.0, 253.0, 32.0, 29.0, 144.0, 9.0, 80.0, 0.0, 0.0, 0.0, 1.700947235003973E9, 0.0, 2023-11-25 16:20:35.003
148.0, 17428.996256470236, 35941.02393877792, -45355.31048241979, -47757.11718286481, -36258.95515191021, -45128.26146224278, -28684.10541821783, -8658.417601396752, -0.092, 0.9460000000000001, 0.298, 192.0, 0.0, 0.0, 0.0, 0.0, 0.0, 0.0, 0.0, 0.0, 0.0, 1.700947235008994E9, 0.0, 2023-11-25 16:20:35.008
149.0, 17618.516697706782, 35886.798606729346, -45326.297918116805, -47803.13942469829, -35986.28622129992, -45116.86207257058, -28722.528066936502, -8699.567162938973, -0.092, 0.9460000000000001, 0.298, 192.0, 0.0, 0.0, 0.0, 0.0, 0.0, 0.0, 0.0, 0.0, 0.0, 1.700947235014036E9, 0.0, 2023-11-25 16:20:35.014
150.0, 17406.26453235919, 35822.537341420335, -45344.02285146986, -47806.671000322225, -36140.64736850827, -45440.738849727975, -28707.06065977343, -8674.354395193386, -0.092, 0.9460000000000001, 0.298, 192.0, 0.0, 0.0, 0.0, 0.0, 0.0, 0.0, 0.0, 0.0, 0.0, 1.700947235017065E9, 0.0, 2023-11-25 16:20:35.017
151.0, 17258.295984065055, 35846.23019054296, -45377.43870943054, -47799.63020081881, -36376.927659145316, -45439.80007646085, -28712.06745053142, -8674.779078338037, -0.092, 0.9460000000000001, 0.298, 192.0, 0.0, 0.0, 0.0, 0.0, 0.0, 0.0, 0.0, 0.0, 0.0, 1.700947235021005E9, 0.0, 2023-11-25 16:20:35.021
152.0, 17390.305386818098, 35916.369964643716, -45405.95953535551, -47797.283267651, -36323.305824197036, -45202.201032900935, -28736.229686287606, -8698.136651293833, -0.092, 0.9460000000000001, 0.298, 192.0, 0.0, 0.0, 0.0, 0.0, 0.0, 0.0, 0.0, 0.0, 0.0, 1.700947235025037E9, 0.0, 2023-11-25 16:20:35.025
153.0, 17593.594502639116, 35893.48177832148, -45366.82163081427, -47817.69041033869, -36075.7155508656, -45138.49856120331, -28764.01290464555, -8736.15696861231, -0.092, 0.9460000000000001, 0.298, 192.0, 0.0, 0.0, 0.0, 0.0, 0.0, 0.0, 0.0, 0.0, 0.0, 1.700947235029029E9, 0.0, 2023-11-25 16:20:35.029
154.0, 17468.111809267022, 35819.36339370768, -45351.01894748437, -47817.04220974949, -36082.48812943556, -45397.62233467369, -28747.20439281516, -8722.611811472394, -0.092, 0.9460000000000001, 0.298, 192.0, 0.0, 0.0, 0.0, 0.0, 0.0, 0.0, 0.0, 0.0, 0.0, 1.700947235032039E9, 0.0, 2023-11-25 16:20:35.032
155.0, 17247.857719404426, 35843.27976027486, -45351.89066551813, -47777.993712186064, -36372.367903276434, -45486.179946205615, -28713.654424387747, -8691.632293657338, -0.092, 0.9460000000000001, 0.298, 192.0, 0.0, 0.0, 0.0, 0.0, 0.0, 0.0, 0.0, 0.0, 0.0, 1.700947235037088E9, 0.0, 2023-11-25 16:20:35.037
156.0, 17367.551310962597, 35919.25333967845, -45362.5077441344, -47762.81687770091, -36314.99097525966, -45214.85212026264, -28725.702014649156, -8706.026817086557, -0.092, 0.9460000000000001, 0.298, 192.0, 0.0, 0.0, 0.0, 0.0, 0.0, 0.0, 0.0, 0.0, 0.0, 1.700947235041455E9, 0.0, 2023-11-25 16:20:35.041
157.0, 17573.9473192629, 35924.30483392535, -45325.73912450542, -47769.902380693246, -36095.7203621531, -45098.33247641713, -28741.01295960104, -8724.332895795453, -0.09, 0.9480000000000001, 0.292, 192.0, 253.0, 48.0, 29.0, 160.0, 9.0, 32.0, 0.0, 0.0, 0.0, 1.700947235045092E9, 0.0, 2023-11-25 16:20:35.045
158.0, 17543.884222970515, 35842.13982130764, -45306.18134810703, -47784.60982854484, -35981.01120960846, -45292.166804333545, -28734.173325797718, -8718.521442237074, -0.09, 0.9480000000000001, 0.292, 192.0, 0.0, 0.0, 0.0, 0.0, 0.0, 0.0, 0.0, 0.0, 0.0, 1.700947235049125E9, 0.0, 2023-11-25 16:20:35.049
159.0, 17265.18032135729, 35856.48964124795, -45318.36304883517, -47741.9179966352, -36327.32913819899, -45476.881620512206, -28683.63603158427, -8663.379688665831, -0.09, 0.9480000000000001, 0.292, 192.0, 0.0, 0.0, 0.0, 0.0, 0.0, 0.0, 0.0, 0.0, 0.0, 1.700947235053124E9, 0.0, 2023-11-25 16:20:35.053
160.0, 17368.110104573978, 35929.222217705516, -45343.24054041392, -47734.27370003149, -36294.65088780533, -45206.00082945834, -28699.550473636446, -8676.030776027534, -0.09, 0.9480000000000001, 0.292, 192.0, 0.0, 0.0, 0.0, 0.0, 0.0, 0.0, 0.0, 0.0, 0.0, 1.700947235056272E9, 0.0, 2023-11-25 16:20:35.056
161.0, 17567.219444181854, 35966.99666583499, -45323.95098494899, -47734.22899654257, -36130.18675210318, -45066.503592312765, -28713.05092728745, -8688.614808155871, -0.09, 0.9480000000000001, 0.292, 192.0, 0.0, 0.0, 0.0, 0.0, 0.0, 0.0, 0.0, 0.0, 0.0, 1.700947235060131E9, 0.0, 2023-11-25 16:20:35.060
162.0, 17627.099767577623, 35886.84331021825, -45297.06183636926, -47764.850886446344, -35914.38065938719, -45193.48385256337, -28726.149049538264, -8703.72458740766, -0.09, 0.9480000000000001, 0.292, 192.0, 0.0, 0.0, 0.0, 0.0, 0.0, 0.0, 0.0, 0.0, 0.0, 1.700947235064152E9, 0.0, 2023-11-25 16:20:35.064
163.0, 17308.050967222567, 35864.17864134057, -45327.01317393937, -47744.60020596984, -36270.868631704885, -45472.76889953243, -28697.650575357748, -8670.688709102717, -0.09, 0.9480000000000001, 0.292, 192.0, 0.0, 0.0, 0.0, 0.0, 0.0, 0.0, 0.0, 0.0, 0.0, 1.700947235069177E9, 0.0, 2023-11-25 16:20:35.069
164.0, 17363.30447951609, 35938.788764332385, -45339.217226411965, -47728.797522639936, -36284.19027140025, -45244.53523689929, -28706.814790584423, -8674.28733996002, -0.09, 0.9480000000000001, 0.292, 192.0, 0.0, 0.0, 0.0, 0.0, 0.0, 0.0, 0.0, 0.0, 0.0, 1.700947235073192E9, 0.0, 2023-11-25 16:20:35.073
165.0, 17543.638353781505, 35997.01505863846, -45322.60988028168, -47715.8111591114, -36158.50641232805, -45063.86608646704, -28706.9265493067, -8675.67314811625, -0.09, 0.9480000000000001, 0.292, 192.0, 0.0, 0.0, 0.0, 0.0, 0.0, 0.0, 0.0, 0.0, 0.0, 1.700947235077237E9, 0.0, 2023-11-25 16:20:35.077
166.0, 17669.67984076498, 35912.97249948651, -45283.20375480697, -47749.96462463911, -35884.831653217276, -45124.48401742984, -28723.06450880343, -8702.361130995885, -0.09, 0.9480000000000001, 0.292, 192.0, 0.0, 0.0, 0.0, 0.0, 0.0, 0.0, 0.0, 0.0, 0.0, 1.700947235081222E9, 0.0, 2023-11-25 16:20:35.081
167.0, 17352.709752644274, 35874.281629834375, -45308.595336508195, -47730.51860696299, -36197.35374419138, -45446.28208235289, -28682.25022342804, -8654.57310135044, -0.094, 0.9460000000000001, 0.292, 192.0, 253.0, 16.0, 29.0, 144.0, 9.0, 32.0, 0.0, 0.0, 0.0, 1.700947235084162E9, 0.0, 2023-11-25 16:20:35.084
168.0, 17346.56302291906, 35939.638130621686, -45316.12787438964, -47707.272792729476, -36272.32149509448, -45271.02205407883, -28671.230813411574, -8646.101790201878, -0.094, 0.9460000000000001, 0.292, 192.0, 0.0, 0.0, 0.0, 0.0, 0.0, 0.0, 0.0, 0.0, 0.0, 1.700947235088156E9, 0.0, 2023-11-25 16:20:35.088
169.0, 17506.914437641437, 36003.2958988304, -45322.54282504831, -47703.405940938705, -36188.18952896471, -45072.091528426594, -28684.798322295945, -8658.976395008134, -0.094, 0.9460000000000001, 0.292, 192.0, 0.0, 0.0, 0.0, 0.0, 0.0, 0.0, 0.0, 0.0, 0.0, 1.700947235092172E9, 0.0, 2023-11-25 16:20:35.092
170.0, 17679.64871879205, 35931.41268866214, -45289.68576069901, -47754.099697363345, -35905.26114764943, -45098.243069439304, -28725.21027627114, -8702.405834484796, -0.094, 0.9460000000000001, 0.292, 192.0, 0.0, 0.0, 0.0, 0.0, 0.0, 0.0, 0.0, 0.0, 0.0, 1.70094723509618E9, 0.0, 2023-11-25 16:20:35.096
171.0, 17408.946741693824, 35880.33895258176, -45307.477749285434, -47748.17648508269, -36141.8320109644, -45442.66109975113, -28695.996546268052, -8660.339851419909, -0.094, 0.9460000000000001, 0.292, 192.0, 0.0, 0.0, 0.0, 0.0, 0.0, 0.0, 0.0, 0.0, 0.0, 1.700947235101218E9, 0.0, 2023-11-25 16:20:35.101
172.0, 17331.117967500446, 35931.90442704015, -45315.97141217845, -47728.97633659558, -36298.629498318376, -45354.01408124138, -28673.287173901463, -8643.129008189322, -0.094, 0.9460000000000001, 0.292, 192.0, 0.0, 0.0, 0.0, 0.0, 0.0, 0.0, 0.0, 0.0, 0.0, 1.700947235105253E9, 0.0, 2023-11-25 16:20:35.105
173.0, 17472.31393722462, 35990.71186670207, -45342.65939505809, -47736.6653366882, -36240.93964587923, -45129.982546565836, -28699.237549214075, -8671.783944581026, -0.094, 0.9460000000000001, 0.292, 192.0, 0.0, 0.0, 0.0, 0.0, 0.0, 0.0, 0.0, 0.0, 0.0, 1.700947235109294E9, 0.0, 2023-11-25 16:20:35.109
174.0, 17663.041372661755, 35939.0346335214, -45304.124987617135, -47777.01023543003, -35977.27846828443, -45103.78630206422, -28734.285084519994, -8713.447596245718, -0.094, 0.9460000000000001, 0.292, 192.0, 0.0, 0.0, 0.0, 0.0, 0.0, 0.0, 0.0, 0.0, 0.0, 1.70094723511228E9, 0.0, 2023-11-25 16:20:35.112
175.0, 17455.50542539423, 35848.21949579949, -45324.50977856038, -47799.183165929695, -36099.54251045496, -45412.12861682518, -28724.047985559464, -8704.976285097157, -0.094, 0.9460000000000001, 0.292, 192.0, 0.0, 0.0, 0.0, 0.0, 0.0, 0.0, 0.0, 0.0, 0.0, 1.70094723511627E9, 0.0, 2023-11-25 16:20:35.116
176.0, 17283.37464134391, 35871.77823445538, -45341.16182817958, -47779.69244476467, -36352.11722279993, -45434.301547324845, -28702.702069604646, -8685.038529043022, -0.094, 0.9460000000000001, 0.292, 192.0, 0.0, 0.0, 0.0, 0.0, 0.0, 0.0, 0.0, 0.0, 0.0, 1.700947235120249E9, 0.0, 2023-11-25 16:20:35.120
177.0, 17413.97588419627, 35943.70614811256, -45356.31631092028, -47767.57779926989, -36296.4166756173, -45179.93869542345, -28713.8779418323, -8690.626465156849, -0.10200000000000001, 0.9440000000000001, 0.294, 192.0, 252.0, 208.0, 29.0, 128.0, 9.0, 48.0, 0.0, 0.0, 0.0, 1.700947235124337E9, 0.0, 2023-11-25 16:20:35.124
178.0, 17620.327189007665, 35928.86458979423, -45316.284336600824, -47780.40770058724, -36047.35118715181, -45091.42578738044, -28734.843878131378, -8712.978209612156, -0.10200000000000001, 0.9440000000000001, 0.294, 192.0, 0.0, 0.0, 0.0, 0.0, 0.0, 0.0, 0.0, 0.0, 0.0, 1.700947235130407E9, 0.0, 2023-11-25 16:20:35.130
179.0, 17517.576219746617, 35854.74620518043, -45307.00836265187, -47782.911095966236, -36021.713736261576, -45331.41646759707, -28725.702014649156, -8701.444709473219, -0.10200000000000001, 0.9440000000000001, 0.294, 192.0, 0.0, 0.0, 0.0, 0.0, 0.0, 0.0, 0.0, 0.0, 0.0, 1.700947235133297E9, 0.0, 2023-11-25 16:20:35.133
180.0, 17269.60596675944, 35861.831708172766, -45335.41742985457, -47760.49229627756, -36340.29314998307, -45448.629015520695, -28709.899331319255, -8686.804316854992, -0.10200000000000001, 0.9440000000000001, 0.294, 192.0, 0.0, 0.0, 0.0, 0.0, 0.0, 0.0, 0.0, 0.0, 0.0, 1.700947235137308E9, 0.0, 2023-11-25 16:20:35.137
181.0, 17374.435648254832, 35919.096877467266, -45369.280322704355, -47763.10745037883, -36299.07653320748, -45187.18066062697, -28733.34631125287, -8707.859660131891, -0.10200000000000001, 0.9440000000000001, 0.294, 192.0, 0.0, 0.0, 0.0, 0.0, 0.0, 0.0, 0.0, 0.0, 0.0, 1.700947235140341E9, 0.0, 2023-11-25 16:20:35.140
182.0, 17579.579958865637, 35936.66534860913, -45322.2969558593, -47754.83730493037, -36097.86612962081, -45064.000196933775, -28722.081032047397, -8701.109433306388, -0.10200000000000001, 0.9440000000000001, 0.294, 192.0, 0.0, 0.0, 0.0, 0.0, 0.0, 0.0, 0.0, 0.0, 0.0, 1.70094723514437E9, 0.0, 2023-11-25 16:20:35.144
183.0, 17558.546967333194, 35840.642254429134, -45308.036542896814, -47787.26968613502, -35962.61572392174, -45239.953129285954, -28724.629130915302, -8712.307657278498, -0.10200000000000001, 0.9440000000000001, 0.294, 192.0, 0.0, 0.0, 0.0, 0.0, 0.0, 0.0, 0.0, 0.0, 0.0, 1.700947235148336E9, 0.0, 2023-11-25 16:20:35.148
184.0, 17254.026800874093, 35835.90368460461, -45329.851845485195, -47758.45828753213, -36325.71981259821, -45457.480306325, -28677.15402569223, -8666.24071195611, -0.10200000000000001, 0.9440000000000001, 0.294, 192.0, 0.0, 0.0, 0.0, 0.0, 0.0, 0.0, 0.0, 0.0, 0.0, 1.700947235152352E9, 0.0, 2023-11-25 16:20:35.152
185.0, 17343.70199962878, 35905.35055462725, -45348.806124783296, -47747.61769147131, -36306.36320189991, -45198.60240204363, -28683.568976350904, -8675.226113227143, -0.10200000000000001, 0.9440000000000001, 0.294, 192.0, 0.0, 0.0, 0.0, 0.0, 0.0, 0.0, 0.0, 0.0, 0.0, 1.700947235157332E9, 0.0, 2023-11-25 16:20:35.157
186.0, 17527.813318707147, 35931.41268866214, -45337.898473489106, -47752.26685431801, -36163.7367205306, -45054.67951949591, -28699.885749803278, -8697.667264660271, -0.10200000000000001, 0.9440000000000001, 0.294, 192.0, 0.0, 0.0, 0.0, 0.0, 0.0, 0.0, 0.0, 0.0, 0.0, 1.700947235161361E9, 0.0, 2023-11-25 16:20:35.161
187.0, 17598.288368974732, 35838.98822533944, -45308.05889464127, -47784.05103493346, -35939.414613177134, -45168.65106447352, -28713.54266566547, -8719.415512015285, -0.094, 0.9380000000000001, 0.3, 192.0, 253.0, 16.0, 29.0, 80.0, 9.0, 96.0, 0.0, 0.0, 0.0, 1.70094723516541E9, 0.0, 2023-11-25 16:20:35.165
188.0, 17273.383411572388, 35812.36729769317, -45331.48352283043, -47752.64683397375, -36293.734466282665, -45453.63580627868, -28667.81099650991, -8666.844209056402, -0.094, 0.9380000000000001, 0.3, 192.0, 0.0, 0.0, 0.0, 0.0, 0.0, 0.0, 0.0, 0.0, 0.0, 1.700947235168411E9, 0.0, 2023-11-25 16:20:35.168
189.0, 17304.452336365262, 35863.95512389602, -45365.2570087024, -47755.68667121967, -36325.98803353167, -45234.43224840549, -28685.71474381861, -8685.418508698764, -0.094, 0.9380000000000001, 0.3, 192.0, 0.0, 0.0, 0.0, 0.0, 0.0, 0.0, 0.0, 0.0, 0.0, 1.7009472351724E9, 0.0, 2023-11-25 16:20:35.172
190.0, 17477.36543147152, 35921.15323795715, -45362.68655809004, -47747.90826414922, -36225.494590460614, -45069.31991211414, -28695.01306951202, -8692.548715180006, -0.094, 0.9380000000000001, 0.3, 192.0, 0.0, 0.0, 0.0, 0.0, 0.0, 0.0, 0.0, 0.0, 0.0, 1.700947235176431E9, 0.0, 2023-11-25 16:20:35.176
191.0, 17620.930686107957, 35847.12426032117, -45322.229900625935, -47783.827517488906, -35947.26007548095, -45118.69491561591, -28717.990662812077, -8729.20557608671, -0.094, 0.9380000000000001, 0.3, 192.0, 0.0, 0.0, 0.0, 0.0, 0.0, 0.0, 0.0, 0.0, 0.0, 1.700947235180494E9, 0.0, 2023-11-25 16:20:35.180
192.0, 17309.280313167612, 35797.97277426395, -45355.712813819984, -47780.11712790932, -36257.14466060932, -45456.78740224688, -28691.05681074343, -8702.964628096179, -0.094, 0.9380000000000001, 0.3, 192.0, 0.0, 0.0, 0.0, 0.0, 0.0, 0.0, 0.0, 0.0, 0.0, 1.700947235184438E9, 0.0, 2023-11-25 16:20:35.184
193.0, 17291.95771121475, 35870.52653676588, -45358.68559583254, -47755.75372645304, -36352.586609433485, -45308.57298476374, -28677.556357092424, -8689.754747123092, -0.094, 0.9380000000000001, 0.3, 192.0, 0.0, 0.0, 0.0, 0.0, 0.0, 0.0, 0.0, 0.0, 0.0, 1.700947235189532E9, 0.0, 2023-11-25 16:20:35.189
194.0, 17454.49959689374, 35945.76250860244, -45367.536886636844, -47750.43401127267, -36275.58484978496, -45110.648287612, -28692.509674133027, -8699.164831538777, -0.094, 0.9380000000000001, 0.3, 192.0, 0.0, 0.0, 0.0, 0.0, 0.0, 0.0, 0.0, 0.0, 0.0, 1.700947235192516E9, 0.0, 2023-11-25 16:20:35.192
195.0, 17642.030732873765, 35886.642144518155, -45326.297918116805, -47789.59426755837, -35984.98982012151, -45117.01853478176, -28723.82446811491, -8738.705067480216, -0.094, 0.9380000000000001, 0.3, 192.0, 0.0, 0.0, 0.0, 0.0, 0.0, 0.0, 0.0, 0.0, 0.0, 1.700947235195611E9, 0.0, 2023-11-25 16:20:35.195
196.0, 17385.43270652684, 35822.44793444251, -45349.20845618349, -47791.96355247063, -36186.73666557511, -45447.42202132011, -28705.49603766156, -8716.554488725005, -0.094, 0.9380000000000001, 0.3, 192.0, 0.0, 0.0, 0.0, 0.0, 0.0, 0.0, 0.0, 0.0, 0.0, 1.700947235200549E9, 0.0, 2023-11-25 16:20:35.200
197.0, 17288.582597801997, 35866.68203671957, -45365.59228486923, -47773.70217725065, -36364.4330339948, -45386.915849079596, -28697.762334080024, -8709.424282243763, -0.088, 0.932, 0.304, 192.0, 253.0, 64.0, 29.0, 32.0, 9.0, 128.0, 0.0, 0.0, 0.0, 1.700947235204563E9, 0.0, 2023-11-25 16:20:35.204
198.0, 17437.176994940877, 35943.0355957789, -45378.66805537559, -47760.15702011073, -36302.00461173113, -45156.759936423296, -28705.652499872747, -8712.128843322855, -0.088, 0.932, 0.304, 192.0, 0.0, 0.0, 0.0, 0.0, 0.0, 0.0, 0.0, 0.0, 0.0, 1.700947235208933E9, 0.0, 2023-11-25 16:20:35.208
199.0, 17637.06864560469, 35901.79662725885, -45340.64773805711, -47793.12584318231, -36031.54850382191, -45108.658982355475, -28732.899276363765, -8738.68271573576, -0.088, 0.932, 0.304, 192.0, 0.0, 0.0, 0.0, 0.0, 0.0, 0.0, 0.0, 0.0, 0.0, 1.700947235212555E9, 0.0, 2023-11-25 16:20:35.212
200.0, 17455.572480627594, 35819.09517277422, -45352.0024242404, -47808.2356224341, -36113.26648155051, -45402.53971845385, -28725.143221037775, -8726.478663263162, -0.088, 0.932, 0.304, 192.0, 0.0, 0.0, 0.0, 0.0, 0.0, 0.0, 0.0, 0.0, 0.0, 1.700947235217583E9, 0.0, 2023-11-25 16:20:35.217
201.0, 17272.1764173718, 35841.78219339636, -45363.96060752399, -47785.280380878496, -36373.82076666603, -45442.23641660648, -28706.50186616205, -8706.183279297744, -0.088, 0.932, 0.304, 192.0, 0.0, 0.0, 0.0, 0.0, 0.0, 0.0, 0.0, 0.0, 0.0, 1.700947235220555E9, 0.0, 2023-11-25 16:20:35.220
202.0, 17403.35880558, 35920.34857515676, -45378.26572397539, -47773.63512201728, -36318.38844041687, -45188.34295133864, -28724.092689048375, -8713.358189267898, -0.088, 0.932, 0.304, 192.0, 0.0, 0.0, 0.0, 0.0, 0.0, 0.0, 0.0, 0.0, 0.0, 1.700947235223581E9, 0.0, 2023-11-25 16:20:35.223
203.0, 17619.63428492955, 35924.48364788099, -45326.92376696155, -47780.0277209315, -36081.12467302378, -45096.96902000535, -28738.040177588486, -8734.43588428925, -0.088, 0.932, 0.304, 192.0, 0.0, 0.0, 0.0, 0.0, 0.0, 0.0, 0.0, 0.0, 0.0, 1.700947235228582E9, 0.0, 2023-11-25 16:20:35.228
204.0, 17541.872565969537, 35848.35360626622, -45309.86938594215, -47794.19872691616, -36018.6515472712, -45323.146322148605, -28726.618436171822, -8732.960669155202, -0.088, 0.932, 0.304, 192.0, 0.0, 0.0, 0.0, 0.0, 0.0, 0.0, 0.0, 0.0, 0.0, 1.700947235232614E9, 0.0, 2023-11-25 16:20:35.232
205.0, 17289.364908857933, 35866.45851927502, -45318.22893836843, -47757.54186600946, -36336.76157435913, -45462.71061452754, -28690.162740965217, -8694.739186136627, -0.088, 0.932, 0.304, 192.0, 0.0, 0.0, 0.0, 0.0, 0.0, 0.0, 0.0, 0.0, 0.0, 1.70094723523661E9, 0.0, 2023-11-25 16:20:35.236
206.0, 17396.429764798853, 35932.440868907084, -45339.19487466751, -47752.624482229294, -36289.666448791795, -45196.23311713137, -28713.58736915438, -8714.855756146402, -0.088, 0.932, 0.304, 192.0, 0.0, 0.0, 0.0, 0.0, 0.0, 0.0, 0.0, 0.0, 0.0, 1.700947235240662E9, 0.0, 2023-11-25 16:20:35.240
207.0, 17598.8024590972, 35958.1900785196, -45289.46224325446, -47736.44181924365, -36093.32872549638, -45064.17901088941, -28703.082049260385, -8717.269744547575, -0.094, 0.9380000000000001, 0.3, 192.0, 253.0, 16.0, 29.0, 80.0, 9.0, 96.0, 0.0, 0.0, 0.0, 1.700947235244638E9, 0.0, 2023-11-25 16:20:35.244
208.0, 17617.66733141748, 35877.47792929148, -45250.83842883568, -47744.33198503638, -35914.179493687094, -45209.01831495981, -28693.895482289256, -8711.77121541157, -0.094, 0.9380000000000001, 0.3, 192.0, 0.0, 0.0, 0.0, 0.0, 0.0, 0.0, 0.0, 0.0, 0.0, 1.700947235248619E9, 0.0, 2023-11-25 16:20:35.248
209.0, 17309.056795723056, 35864.692731463045, -45268.742176144384, -47707.541013662936, -36262.53143102305, -45433.9215676691, -28648.43203406716, -8655.087191472912, -0.094, 0.9380000000000001, 0.3, 192.0, 0.0, 0.0, 0.0, 0.0, 0.0, 0.0, 0.0, 0.0, 0.0, 1.70094723525166E9, 0.0, 2023-11-25 16:20:35.251
210.0, 17375.53088373314, 35918.940415256075, -45294.37962703462, -47706.356371206806, -36250.79676518402, -45178.776404711774, -28666.402836609228, -8673.61678762636, -0.094, 0.9380000000000001, 0.3, 192.0, 0.0, 0.0, 0.0, 0.0, 0.0, 0.0, 0.0, 0.0, 0.0, 1.700947235256684E9, 0.0, 2023-11-25 16:20:35.256
211.0, 17550.18741490691, 35951.953941816566, -45278.21931579344, -47707.85393808531, -36122.20717933264, -45031.63487096249, -28675.47764485808, -8685.463212187673, -0.094, 0.9380000000000001, 0.3, 192.0, 0.0, 0.0, 0.0, 0.0, 0.0, 0.0, 0.0, 0.0, 0.0, 1.700947235260701E9, 0.0, 2023-11-25 16:20:35.260
212.0, 17643.43889277445, 35873.83459494526, -45234.58871061668, -47742.58854896886, -35880.74128398196, -45131.949500077906, -28682.853720528332, -8698.717796649671, -0.094, 0.9380000000000001, 0.3, 192.0, 0.0, 0.0, 0.0, 0.0, 0.0, 0.0, 0.0, 0.0, 0.0, 1.700947235264855E9, 0.0, 2023-11-25 16:20:35.264
213.0, 17321.037330751104, 35848.17479231057, -45254.79468760428, -47725.15418829372, -36227.796820139505, -45428.71361121102, -28638.41845255118, -8652.986127494112, -0.094, 0.9380000000000001, 0.3, 192.0, 0.0, 0.0, 0.0, 0.0, 0.0, 0.0, 0.0, 0.0, 0.0, 1.700947235268659E9, 0.0, 2023-11-25 16:20:35.268
214.0, 17342.182081005823, 35909.798551773856, -45279.58277220521, -47726.3164790054, -36275.74131199614, -45231.10183848165, -28651.516574801994, -8665.972491022647, -0.094, 0.9380000000000001, 0.3, 192.0, 0.0, 0.0, 0.0, 0.0, 0.0, 0.0, 0.0, 0.0, 0.0, 1.700947235272723E9, 0.0, 2023-11-25 16:20:35.272
215.0, 17510.446013265373, 35969.54476470289, -45293.574964234234, -47732.59731919734, -36188.994191765094, -45063.59786553358, -28673.24247041255, -8686.044357543511, -0.094, 0.9380000000000001, 0.3, 192.0, 0.0, 0.0, 0.0, 0.0, 0.0, 0.0, 0.0, 0.0, 0.0, 1.700947235275709E9, 0.0, 2023-11-25 16:20:35.275
216.0, 17663.041372661755, 35901.327240625295, -45259.75677487335, -47773.90334295075, -35908.36804012871, -45114.58219463613, -28700.221025970106, -8723.192956828232, -0.094, 0.9380000000000001, 0.3, 192.0, 0.0, 0.0, 0.0, 0.0, 0.0, 0.0, 0.0, 0.0, 0.0, 1.700947235279694E9, 0.0, 2023-11-25 16:20:35.279
217.0, 17366.97016560676, 35860.31178954981, -45285.77420541933, -47758.90532242123, -36188.3906946648, -45451.646501022165, -28668.23567965456, -8686.066709287967, -0.094, 0.9380000000000001, 0.296, 192.0, 253.0, 16.0, 29.0, 80.0, 9.0, 64.0, 0.0, 0.0, 0.0, 1.7009472352847E9, 0.0, 2023-11-25 16:20:35.284
218.0, 17331.877926811925, 35915.11826695422, -45307.03071439633, -47743.25910130252, -36302.56340534251, -45321.08996165871, -28676.52817684748, -8692.369901224363, -0.094, 0.9380000000000001, 0.296, 192.0, 0.0, 0.0, 0.0, 0.0, 0.0, 0.0, 0.0, 0.0, 0.0, 1.700947235288688E9, 0.0, 2023-11-25 16:20:35.288
219.0, 17482.796905374158, 35981.92763113113, -45331.93055771954, -47742.23092105758, -36237.63158769984, -45119.18665399393, -28705.898369061753, -8717.96264862569, -0.094, 0.9380000000000001, 0.296, 192.0, 0.0, 0.0, 0.0, 0.0, 0.0, 0.0, 0.0, 0.0, 0.0, 1.700947235292753E9, 0.0, 2023-11-25 16:20:35.292
220.0, 17667.288204108263, 35931.50209563996, -45295.09488285719, -47777.859601719334, -35954.72555812902, -45115.78918883672, -28735.536782209492, -8757.279367122575, -0.094, 0.9380000000000001, 0.296, 192.0, 0.0, 0.0, 0.0, 0.0, 0.0, 0.0, 0.0, 0.0, 0.0, 1.70094723529671E9, 0.0, 2023-11-25 16:20:35.296
221.0, 17427.275172147176, 35857.18254532606, -45325.806179738785, -47787.06852043492, -36133.89714168276, -45435.32972756979, -28720.53876167998, -8728.892651664335, -0.094, 0.9380000000000001, 0.296, 192.0, 0.0, 0.0, 0.0, 0.0, 0.0, 0.0, 0.0, 0.0, 0.0, 1.700947235300746E9, 0.0, 2023-11-25 16:20:35.300
222.0, 17300.831353763504, 35896.18633940057, -45346.19097068202, -47764.98499691308, -36339.33202497149, -45400.90804110862, -28712.425078442706, -8706.518555464572, -0.094, 0.9380000000000001, 0.296, 192.0, 0.0, 0.0, 0.0, 0.0, 0.0, 0.0, 0.0, 0.0, 0.0, 1.700947235303787E9, 0.0, 2023-11-25 16:20:35.303
223.0, 17437.534622852163, 35973.27750602693, -45361.63602610064, -47749.80816242792, -36282.268021377095, -45162.638445215045, -28720.650520402258, -8705.378616497352, -0.094, 0.9380000000000001, 0.296, 192.0, 0.0, 0.0, 0.0, 0.0, 0.0, 0.0, 0.0, 0.0, 0.0, 1.700947235307896E9, 0.0, 2023-11-25 16:20:35.307
224.0, 17640.220241572886, 35939.12404049922, -45322.386362837125, -47777.099642407855, -36019.99265193852, -45098.91362177296, -28746.824413159422, -8729.742017953637, -0.094, 0.9380000000000001, 0.296, 192.0, 0.0, 0.0, 0.0, 0.0, 0.0, 0.0, 0.0, 0.0, 0.0, 1.70094723531178E9, 0.0, 2023-11-25 16:20:35.311
225.0, 17489.41302173293, 35858.43424301556, -45327.460208828474, -47786.062691934436, -36063.77971932646, -45368.69917734852, -28736.408500243248, -8707.703197920704, -0.094, 0.9380000000000001, 0.296, 192.0, 0.0, 0.0, 0.0, 0.0, 0.0, 0.0, 0.0, 0.0, 0.0, 1.70094723531679E9, 0.0, 2023-11-25 16:20:35.316
226.0, 17278.501961052654, 35870.52653676588, -45351.1530579511, -47767.33193008089, -36351.9831123332, -45435.68735548107, -28713.07327903191, -8673.885008559824, -0.094, 0.9380000000000001, 0.296, 192.0, 0.0, 0.0, 0.0, 0.0, 0.0, 0.0, 0.0, 0.0, 0.0, 1.700947235320816E9, 0.0, 2023-11-25 16:20:35.320
227.0, 17392.808782197095, 35942.856781823255, -45368.49801164842, -47758.48063927658, -36304.93269025478, -45175.5130500213, -28719.890561090775, -8679.897627818302, -0.10400000000000001, 0.9440000000000001, 0.28800000000000003, 192.0, 252.0, 192.0, 29.0, 128.0, 9.0, 0.0, 0.0, 0.0, 0.0, 1.700947235324842E9, 0.0, 2023-11-25 16:20:35.324
228.0, 17594.46622067287, 35937.11238349824, -45327.70607801749, -47771.288188849474, -36089.305411494424, -45072.56091506015, -28733.368662997327, -8699.365997238874, -0.10400000000000001, 0.9440000000000001, 0.28800000000000003, 192.0, 0.0, 0.0, 0.0, 0.0, 0.0, 0.0, 0.0, 0.0, 0.0, 1.700947235328803E9, 0.0, 2023-11-25 16:20:35.328
229.0, 17529.17677511892, 35838.6082456837, -45320.128836647134, -47798.780834529505, -36007.520378532456, -45285.66244669705, -28735.760299654045, -8703.232849029642, -0.10400000000000001, 0.9440000000000001, 0.28800000000000003, 192.0, 0.0, 0.0, 0.0, 0.0, 0.0, 0.0, 0.0, 0.0, 0.0, 1.700947235332856E9, 0.0, 2023-11-25 16:20:35.332
230.0, 17249.37763802739, 35837.46830671648, -45340.42422061256, -47772.897514450255, -36346.81985936402, -45460.587198804285, -28698.34347943586, -8665.972491022647, -0.10400000000000001, 0.9440000000000001, 0.28800000000000003, 192.0, 0.0, 0.0, 0.0, 0.0, 0.0, 0.0, 0.0, 0.0, 0.0, 1.700947235335901E9, 0.0, 2023-11-25 16:20:35.335
231.0, 17345.53484267412, 35913.10660995324, -45356.78569755384, -47761.11814512231, -36316.46619039371, -45202.625716045586, -28708.446467929658, -8679.38353769583, -0.10400000000000001, 0.9440000000000001, 0.28800000000000003, 192.0, 0.0, 0.0, 0.0, 0.0, 0.0, 0.0, 0.0, 0.0, 0.0, 1.700947235340925E9, 0.0, 2023-11-25 16:20:35.340
232.0, 17554.00956320877, 35947.17066850313, -45314.473845299945, -47752.17744734019, -36135.64057775028, -45067.35295860207, -28707.261825473528, -8687.050186044, -0.10400000000000001, 0.9440000000000001, 0.28800000000000003, 192.0, 0.0, 0.0, 0.0, 0.0, 0.0, 0.0, 0.0, 0.0, 0.0, 1.700947235344955E9, 0.0, 2023-11-25 16:20:35.344
233.0, 17595.76262185128, 35865.3632837967, -45282.332036773216, -47779.51363080903, -35934.29606369687, -45211.9687452279, -28708.334709207382, -8702.472889718163, -0.10400000000000001, 0.9440000000000001, 0.28800000000000003, 192.0, 0.0, 0.0, 0.0, 0.0, 0.0, 0.0, 0.0, 0.0, 0.0, 1.700947235348859E9, 0.0, 2023-11-25 16:20:35.348
234.0, 17287.42030709032, 35857.80839417081, -45296.234821824415, -47746.72362169309, -36285.956059212214, -45467.42683260761, -28657.417435338193, -8655.243653684098, -0.10400000000000001, 0.9440000000000001, 0.28800000000000003, 192.0, 0.0, 0.0, 0.0, 0.0, 0.0, 0.0, 0.0, 0.0, 0.0, 1.700947235352849E9, 0.0, 2023-11-25 16:20:35.352
235.0, 17345.691304885306, 35915.27472916541, -45320.26294711387, -47749.38347928327, -36284.4137888448, -45227.99494600236, -28673.24247041255, -8678.265950473065, -0.10400000000000001, 0.9440000000000001, 0.28800000000000003, 192.0, 0.0, 0.0, 0.0, 0.0, 0.0, 0.0, 0.0, 0.0, 0.0, 1.700947235356901E9, 0.0, 2023-11-25 16:20:35.356
236.0, 17523.052397138166, 35961.16286053215, -45309.75762721987, -47752.80329618494, -36160.74158677359, -45079.35584537457, -28687.413476397214, -8703.188145540733, -0.10400000000000001, 0.9520000000000001, 0.28800000000000003, 192.0, 252.0, 192.0, 29.0, 192.0, 9.0, 0.0, 0.0, 0.0, 0.0, 1.700947235359959E9, 0.0, 2023-11-25 16:20:35.359
237.0, 17642.813043929702, 35888.34087709676, -45265.56822843173, -47785.9285814677, -35895.98517370047, -45164.739509193845, -28701.58448238188, -8731.172529598776, -0.10400000000000001, 0.9520000000000001, 0.28800000000000003, 192.0, 0.0, 0.0, 0.0, 0.0, 0.0, 0.0, 0.0, 0.0, 0.0, 1.700947235363947E9, 0.0, 2023-11-25 16:20:35.363
238.0, 17325.57473487553, 35853.04747260183, -45292.23385956691, -47765.432031802186, -36223.08060205944, -45477.2839519124, -28660.43492083966, -8687.452517444197, -0.10400000000000001, 0.9520000000000001, 0.28800000000000003, 192.0, 0.0, 0.0, 0.0, 0.0, 0.0, 0.0, 0.0, 0.0, 0.0, 1.700947235367986E9, 0.0, 2023-11-25 16:20:35.367
239.0, 17343.97022056225, 35923.18724670258, -45301.889813171605, -47741.023926856986, -36277.12712015237, -45285.01424610785, -28660.501976073025, -8682.62454064185, -0.10400000000000001, 0.9520000000000001, 0.28800000000000003, 192.0, 0.0, 0.0, 0.0, 0.0, 0.0, 0.0, 0.0, 0.0, 0.0, 1.70094723537195E9, 0.0, 2023-11-25 16:20:35.371
240.0, 17513.239981322287, 35988.96843063455, -45308.21535685246, -47731.59149069685, -36184.34502891839, -45093.012761236765, -28678.852758270834, -8693.107508791389, -0.10400000000000001, 0.9520000000000001, 0.28800000000000003, 192.0, 0.0, 0.0, 0.0, 0.0, 0.0, 0.0, 0.0, 0.0, 0.0, 1.700947235376968E9, 0.0, 2023-11-25 16:20:35.376
241.0, 17679.291090880764, 35925.936511270585, -45267.937513344, -47763.68859573467, -35894.95699345553, -45116.97383129285, -28708.938206307677, -8723.483529506151, -0.10400000000000001, 0.9520000000000001, 0.28800000000000003, 192.0, 0.0, 0.0, 0.0, 0.0, 0.0, 0.0, 0.0, 0.0, 0.0, 1.700947235380934E9, 0.0, 2023-11-25 16:20:35.380
242.0, 17389.411317039885, 35861.38467328366, -45311.813987709764, -47765.297921335456, -36156.91943847173, -45447.39966957566, -28699.885749803278, -8702.450537973707, -0.10400000000000001, 0.9520000000000001, 0.28800000000000003, 192.0, 0.0, 0.0, 0.0, 0.0, 0.0, 0.0, 0.0, 0.0, 0.0, 1.700947235384002E9, 0.0, 2023-11-25 16:20:35.384
243.0, 17325.4406244088, 35913.419534375615, -45333.986918209426, -47745.002537370034, -36302.63046057588, -45342.88291250264, -28698.097610246852, -8695.923828592757, -0.10400000000000001, 0.9520000000000001, 0.28800000000000003, 192.0, 0.0, 0.0, 0.0, 0.0, 0.0, 0.0, 0.0, 0.0, 0.0, 1.700947235387956E9, 0.0, 2023-11-25 16:20:35.387
244.0, 17475.71140238183, 35981.860575897765, -45350.549560850806, -47734.944252365145, -36237.74334642212, -45122.74058136232, -28712.40272669825, -8696.884953604336, -0.10400000000000001, 0.9520000000000001, 0.28800000000000003, 192.0, 0.0, 0.0, 0.0, 0.0, 0.0, 0.0, 0.0, 0.0, 0.0, 1.700947235391985E9, 0.0, 2023-11-25 16:20:35.391
245.0, 17668.294032608752, 35925.46712463703, -45307.79067370781, -47768.04718590346, -35954.59144766229, -45097.52781361673, -28743.046968346476, -8732.088951121445, -0.10400000000000001, 0.9520000000000001, 0.28800000000000003, 192.0, 0.0, 0.0, 0.0, 0.0, 0.0, 0.0, 0.0, 0.0, 0.0, 1.700947235396127E9, 0.0, 2023-11-25 16:20:35.396
246.0, 17448.37521891299, 35857.964856382, -45309.13177837512, -47760.469944533106, -36089.93126033917, -45401.04215157535, -28713.363851709826, -8696.460270459685, -0.092, 0.9480000000000001, 0.28800000000000003, 192.0, 253.0, 32.0, 29.0, 160.0, 9.0, 0.0, 0.0, 0.0, 0.0, 1.700947235400045E9, 0.0, 2023-11-25 16:20:35.400
247.0, 17311.09080446849, 35895.20286264454, -45314.2950313443, -47733.469037231094, -36301.42346637529, -45377.394005941635, -28688.374601408792, -8669.682880602228, -0.092, 0.9480000000000001, 0.28800000000000003, 192.0, 0.0, 0.0, 0.0, 0.0, 0.0, 0.0, 0.0, 0.0, 0.0, 1.700947235405033E9, 0.0, 2023-11-25 16:20:35.405
248.0, 17438.786320541658, 35956.267828496435, -45339.373688623156, -47736.30770877692, -36249.813288427984, -45138.11858154757, -28711.240435986572, -8683.652720886794, -0.092, 0.9480000000000001, 0.28800000000000003, 192.0, 0.0, 0.0, 0.0, 0.0, 0.0, 0.0, 0.0, 0.0, 0.0, 1.700947235409054E9, 0.0, 2023-11-25 16:20:35.409
249.0, 17639.080302605667, 35932.217351462525, -45288.72463568743, -47754.233807830075, -35995.71865746006, -45071.10805167056, -28728.786555383987, -8701.288247262031, -0.092, 0.9480000000000001, 0.28800000000000003, 192.0, 0.0, 0.0, 0.0, 0.0, 0.0, 0.0, 0.0, 0.0, 0.0, 1.700947235412115E9, 0.0, 2023-11-25 16:20:35.412
250.0, 17496.78909740318, 35838.51883870588, -45293.977295634424, -47773.813935972925, -36009.73320123353, -45327.50491231739, -28728.272465261518, -8695.09681404791, -0.092, 0.9480000000000001, 0.28800000000000003, 192.0, 0.0, 0.0, 0.0, 0.0, 0.0, 0.0, 0.0, 0.0, 0.0, 1.700947235416049E9, 0.0, 2023-11-25 16:20:35.416
251.0, 17268.823655703505, 35862.390501784146, -45308.036542896814, -47739.19108381165, -36308.486617623166, -45416.66602094961, -28694.856607300833, -8654.595453094895, -0.092, 0.9480000000000001, 0.28800000000000003, 192.0, 0.0, 0.0, 0.0, 0.0, 0.0, 0.0, 0.0, 0.0, 0.0, 1.700947235420046E9, 0.0, 2023-11-25 16:20:35.420
252.0, 17381.811723925082, 35939.54872364387, -45333.294014131316, -47731.01034534101, -36265.2583438466, -45154.234189299845, -28708.312357462928, -8667.827685812437, -0.092, 0.9480000000000001, 0.28800000000000003, 192.0, 0.0, 0.0, 0.0, 0.0, 0.0, 0.0, 0.0, 0.0, 0.0, 1.700947235424058E9, 0.0, 2023-11-25 16:20:35.424
253.0, 17582.75390657829, 35932.865552051735, -45309.17648186404, -47751.90922640672, -36063.84677455983, -45056.91469394144, -28723.712709392636, -8698.181354782744, -0.092, 0.9480000000000001, 0.28800000000000003, 192.0, 0.0, 0.0, 0.0, 0.0, 0.0, 0.0, 0.0, 0.0, 0.0, 1.700947235428132E9, 0.0, 2023-11-25 16:20:35.428
254.0, 17559.28457490022, 35846.25254228742, -45291.272734555336, -47772.85281096135, -35953.87619183972, -45257.05221379426, -28709.072316774407, -8685.351453465397, -0.092, 0.9480000000000001, 0.28800000000000003, 192.0, 0.0, 0.0, 0.0, 0.0, 0.0, 0.0, 0.0, 0.0, 0.0, 1.700947235433175E9, 0.0, 2023-11-25 16:20:35.433
255.0, 17273.383411572388, 35848.37595801067, -45312.55159527679, -47749.18231358317, -36302.675164064785, -45450.3277480993, -28666.87222324279, -8649.029868725524, -0.092, 0.9480000000000001, 0.28800000000000003, 192.0, 0.0, 0.0, 0.0, 0.0, 0.0, 0.0, 0.0, 0.0, 0.0, 1.700947235437119E9, 0.0, 2023-11-25 16:20:35.437
0.0, 17359.795255636604, 35916.369964643716, -45339.79837176781, -47755.12787760829, -36284.05616093351, -45205.66555329151, -28681.937299005665, -8675.606092882883, -0.094, 0.9540000000000001, 0.28600000000000003, 192.0, 253.0, 16.0, 29.0, 208.0, 8.0, 240.0, 0.0, 0.0, 0.0, 1.70094723544016E9, 0.0, 2023-11-25 16:20:35.440
1.0, 17546.633487538515, 35944.30964521285, -45317.200758123494, -47765.94612192466, -36133.18188586019, -45085.05554021067, -28692.509674133027, -8696.43791871523, -0.094, 0.9540000000000001, 0.28600000000000003, 192.0, 0.0, 0.0, 0.0, 0.0, 0.0, 0.0, 0.0, 0.0, 0.0, 1.700947235444147E9, 0.0, 2023-11-25 16:20:35.444
2.0, 17603.96571206638, 35862.27874306187, -45281.750891417374, -47798.51261359604, -35926.003566503954, -45221.15531219904, -28700.95863353713, -8719.169642826277, -0.094, 0.9540000000000001, 0.28600000000000003, 192.0, 0.0, 0.0, 0.0, 0.0, 0.0, 0.0, 0.0, 0.0, 0.0, 1.700947235448118E9, 0.0, 2023-11-25 16:20:35.448
3.0, 17285.56511230053, 35847.928923121566, -45304.32615331723, -47773.88099120629, -36281.59746904343, -45495.09829224328, -28664.52529007498, -8686.424337199252, -0.094, 0.9540000000000001, 0.28600000000000003, 192.0, 0.0, 0.0, 0.0, 0.0, 0.0, 0.0, 0.0, 0.0, 0.0, 1.700947235452149E9, 0.0, 2023-11-25 16:20:35.452
4.0, 17341.891508327903, 35920.7285548125, -45320.66527851406, -47759.46411603262, -36291.16401567031, -45267.3340162437, -28674.851796013332, -8701.891744362325, -0.094, 0.9540000000000001, 0.28600000000000003, 192.0, 0.0, 0.0, 0.0, 0.0, 0.0, 0.0, 0.0, 0.0, 0.0, 1.700947235456143E9, 0.0, 2023-11-25 16:20:35.456
5.0, 17523.857059938557, 35973.72454091603, -45314.138569133116, -47749.80816242792, -36171.89510725679, -45101.17114796295, -28688.39695315325, -8707.39027349833, -0.094, 0.9540000000000001, 0.28600000000000003, 192.0, 0.0, 0.0, 0.0, 0.0, 0.0, 0.0, 0.0, 0.0, 0.0, 1.700947235460204E9, 0.0, 2023-11-25 16:20:35.460
6.0, 17652.580756256673, 35903.40595285963, -45271.51379245684, -47775.33385459588, -35893.504130065936, -45159.59860796912, -28704.44550567216, -8724.981096384656, -0.094, 0.9540000000000001, 0.28600000000000003, 192.0, 0.0, 0.0, 0.0, 0.0, 0.0, 0.0, 0.0, 0.0, 0.0, 1.700947235465201E9, 0.0, 2023-11-25 16:20:35.465
7.0, 17339.879851326925, 35859.99886512743, -45308.23770859691, -47760.671110233205, -36208.17198850775, -45471.696015798574, -28678.562185592913, -8687.050186044, -0.094, 0.9540000000000001, 0.28600000000000003, 192.0, 0.0, 0.0, 0.0, 0.0, 0.0, 0.0, 0.0, 0.0, 0.0, 1.700947235468186E9, 0.0, 2023-11-25 16:20:35.468
8.0, 17339.656333882373, 35924.66246183663, -45327.79548499531, -47743.70613619163, -36286.00076270113, -45302.15803410507, -28686.318240918907, -8688.614808155871, -0.094, 0.9540000000000001, 0.28600000000000003, 192.0, 0.0, 0.0, 0.0, 0.0, 0.0, 0.0, 0.0, 0.0, 0.0, 1.700947235472202E9, 0.0, 2023-11-25 16:20:35.472
9.0, 17499.404251504453, 35994.109331859276, -45340.625386312655, -47739.86163614532, -36208.17198850775, -45108.05548525519, -28713.8779418323, -8702.338779251431, -0.094, 0.9540000000000001, 0.28600000000000003, 192.0, 0.0, 0.0, 0.0, 0.0, 0.0, 0.0, 0.0, 0.0, 0.0, 1.700947235476308E9, 0.0, 2023-11-25 16:20:35.476
10.0, 17662.147302883543, 35914.67123206511, -45313.289202843815, -47791.918848981724, -35923.768392058424, -45126.205101752894, -28758.380265042815, -8751.02087867509, -0.092, 0.9540000000000001, 0.28400000000000003, 192.0, 253.0, 32.0, 29.0, 208.0, 8.0, 224.0, 0.0, 0.0, 0.0, 1.700947235480279E9, 0.0, 2023-11-25 16:20:35.480
11.0, 17380.87295065796, 35851.75107142342, -45336.914996733074, -47785.39213960077, -36163.692017041685, -45459.33550111479, -28723.042157058975, -8710.63127644435, -0.092, 0.9540000000000001, 0.28400000000000003, 192.0, 0.0, 0.0, 0.0, 0.0, 0.0, 0.0, 0.0, 0.0, 0.0, 1.700947235484296E9, 0.0, 2023-11-25 16:20:35.484
12.0, 17300.31726364103, 35893.74999925494, -45352.24829342941, -47768.53892428147, -36323.03760326357, -45368.92269479307, -28712.49213367607, -8691.878162846348, -0.092, 0.9540000000000001, 0.28400000000000003, 192.0, 0.0, 0.0, 0.0, 0.0, 0.0, 0.0, 0.0, 0.0, 0.0, 1.700947235488235E9, 0.0, 2023-11-25 16:20:35.488
13.0, 17440.954439753823, 35960.24643900948, -45365.68169184705, -47760.69346197766, -36268.141718881336, -45146.8581136296, -28725.299683248963, -8696.639084415327, -0.092, 0.9540000000000001, 0.28400000000000003, 192.0, 0.0, 0.0, 0.0, 0.0, 0.0, 0.0, 0.0, 0.0, 0.0, 1.700947235493244E9, 0.0, 2023-11-25 16:20:35.493
14.0, 17642.902450907524, 35919.54391235637, -45308.93061267503, -47781.41352908773, -35982.88875614271, -45100.45589214038, -28739.02365434452, -8712.844099145424, -0.092, 0.9540000000000001, 0.28400000000000003, 192.0, 0.0, 0.0, 0.0, 0.0, 0.0, 0.0, 0.0, 0.0, 0.0, 1.700947235496253E9, 0.0, 2023-11-25 16:20:35.496
15.0, 17441.289715920655, 35842.65391143011, -45319.59239478021, -47785.57095355642, -36092.5687661849, -45395.856546861716, -28713.386203454284, -8682.468078430662, -0.092, 0.9540000000000001, 0.28400000000000003, 192.0, 0.0, 0.0, 0.0, 0.0, 0.0, 0.0, 0.0, 0.0, 0.0, 1.700947235499254E9, 0.0, 2023-11-25 16:20:35.499
16.0, 17285.252187878155, 35883.24467936095, -45325.29208961631, -47748.42235427169, -36327.03856552107, -45398.65051491863, -28681.311450160916, -8645.967679735146, -0.092, 0.9540000000000001, 0.28400000000000003, 192.0, 0.0, 0.0, 0.0, 0.0, 0.0, 0.0, 0.0, 0.0, 0.0, 1.700947235504258E9, 0.0, 2023-11-25 16:20:35.504
17.0, 17422.64836104493, 35966.59433443479, -45343.06172645828, -47733.133761064266, -36267.64998050332, -45140.666680415474, -28692.15204622174, -8648.940461747701, -0.092, 0.9540000000000001, 0.28400000000000003, 192.0, 0.0, 0.0, 0.0, 0.0, 0.0, 0.0, 0.0, 0.0, 0.0, 1.700947235508292E9, 0.0, 2023-11-25 16:20:35.508
18.0, 17626.54097396624, 35941.5827323893, -45313.51272028837, -47761.4757730336, -36019.2997478604, -45059.59690327608, -28724.047985559464, -8681.506953419084, -0.092, 0.9540000000000001, 0.28400000000000003, 192.0, 0.0, 0.0, 0.0, 0.0, 0.0, 0.0, 0.0, 0.0, 0.0, 1.700947235512271E9, 0.0, 2023-11-25 16:20:35.512
19.0, 17507.070899852624, 35854.500335991426, -45317.58073777923, -47781.05590117644, -36003.8993959307, -45314.049162155294, -28720.24818900206, -8674.95789229368, -0.092, 0.9540000000000001, 0.28400000000000003, 192.0, 0.0, 0.0, 0.0, 0.0, 0.0, 0.0, 0.0, 0.0, 0.0, 1.700947235516274E9, 0.0, 2023-11-25 16:20:35.516
20.0, 17269.31539408152, 35878.41670255861, -45330.03065944084, -47745.851903659335, -36312.33111766948, -45431.79815194585, -28681.356153649827, -8638.412790109252, -0.10400000000000001, 0.9540000000000001, 0.29, 192.0, 252.0, 192.0, 29.0, 208.0, 9.0, 16.0, 0.0, 0.0, 0.0, 1.700947235521281E9, 0.0, 2023-11-25 16:20:35.521
21.0, 17383.77867743715, 35952.9374185726, -45349.0519939723, -47738.20760705562, -36266.62180025838, -45169.50043076282, -28693.20257821114, -8656.629461840328, -0.10400000000000001, 0.9540000000000001, 0.29, 192.0, 0.0, 0.0, 0.0, 0.0, 0.0, 0.0, 0.0, 0.0, 0.0, 1.700947235524388E9, 0.0, 2023-11-25 16:20:35.524
22.0, 17585.52552289075, 35959.0394448089, -45316.53020578983, -47750.65752871722, -36066.97601878357, -45060.915656198944, -28706.524217906503, -8683.116279019867, -0.10400000000000001, 0.9540000000000001, 0.29, 192.0, 0.0, 0.0, 0.0, 0.0, 0.0, 0.0, 0.0, 0.0, 0.0, 1.700947235527348E9, 0.0, 2023-11-25 16:20:35.527
23.0, 17572.807380295682, 35869.5654117543, -45294.78195843482, -47776.94318019667, -35927.56818861583, -45245.71987935542, -28709.11702026332, -8695.76736638157, -0.10400000000000001, 0.9540000000000001, 0.29, 192.0, 0.0, 0.0, 0.0, 0.0, 0.0, 0.0, 0.0, 0.0, 0.0, 1.700947235532359E9, 0.0, 2023-11-25 16:20:35.532
24.0, 17272.534045283086, 35873.72283622299, -45304.66142948406, -47739.30284253393, -36277.10476840792, -45463.47057383902, -28664.59234530835, -8655.42246763974, -0.10400000000000001, 0.9540000000000001, 0.29, 192.0, 0.0, 0.0, 0.0, 0.0, 0.0, 0.0, 0.0, 0.0, 0.0, 1.700947235536318E9, 0.0, 2023-11-25 16:20:35.536
25.0, 17355.25785151218, 35936.553589886855, -45323.92863320454, -47736.10654307682, -36251.66848321778, -45206.58197481418, -28677.645764070247, -8675.986072538624, -0.10400000000000001, 0.9540000000000001, 0.29, 192.0, 0.0, 0.0, 0.0, 0.0, 0.0, 0.0, 0.0, 0.0, 0.0, 1.700947235540372E9, 0.0, 2023-11-25 16:20:35.540
26.0, 17539.704446757372, 35969.008322835965, -45302.78388294982, -47740.35337452333, -36105.48807448007, -45072.315045871146, -28688.978098509087, -8698.449575716208, -0.10400000000000001, 0.9540000000000001, 0.29, 192.0, 0.0, 0.0, 0.0, 0.0, 0.0, 0.0, 0.0, 0.0, 0.0, 1.700947235544411E9, 0.0, 2023-11-25 16:20:35.544
27.0, 17608.279598746252, 35883.065865405304, -45265.79174587628, -47777.90430520825, -35883.512900294416, -45199.45176833293, -28713.319148220915, -8730.278459820564, -0.10400000000000001, 0.9540000000000001, 0.29, 192.0, 0.0, 0.0, 0.0, 0.0, 0.0, 0.0, 0.0, 0.0, 0.0, 1.700947235548415E9, 0.0, 2023-11-25 16:20:35.548
28.0, 17287.62147279042, 35857.16019358161, -45291.02686536633, -47760.179371855185, -36237.20690455519, -45488.839803795796, -28677.556357092424, -8689.799450612003, -0.10400000000000001, 0.9540000000000001, 0.29, 192.0, 0.0, 0.0, 0.0, 0.0, 0.0, 0.0, 0.0, 0.0, 0.0, 1.700947235552406E9, 0.0, 2023-11-25 16:20:35.552
29.0, 17336.437682680807, 35928.88694153869, -45301.465130026954, -47745.13664783676, -36262.17380311177, -45267.557533688254, -28676.975211736586, -8688.927732578246, -0.10400000000000001, 0.9540000000000001, 0.29, 192.0, 0.0, 0.0, 0.0, 0.0, 0.0, 0.0, 0.0, 0.0, 0.0, 1.700947235555393E9, 0.0, 2023-11-25 16:20:35.555
30.0, 17508.635521964494, 35981.94998287559, -45297.86649916965, -47742.29797629094, -36157.85821173885, -45097.08077872763, -28693.023764255497, -8698.986017583135, -0.10400000000000001, 0.9480000000000001, 0.28600000000000003, 192.0, 252.0, 192.0, 29.0, 160.0, 8.0, 240.0, 0.0, 0.0, 0.0, 1.700947235560371E9, 0.0, 2023-11-25 16:20:35.560
31.0, 17647.73042770987, 35898.890900479666, -45269.25626626686, -47789.01312220253, -35883.73641773897, -45155.06120384469, -28733.480421719603, -8738.77212271358, -0.10400000000000001, 0.9480000000000001, 0.28600000000000003, 192.0, 0.0, 0.0, 0.0, 0.0, 0.0, 0.0, 0.0, 0.0, 0.0, 1.700947235564402E9, 0.0, 2023-11-25 16:20:35.564
32.0, 17338.67285712634, 35856.020254614385, -45305.957830662475, -47778.440747075176, -36195.67736335723, -45491.969048019535, -28707.91002606273, -8700.796508884014, -0.10400000000000001, 0.9480000000000001, 0.28600000000000003, 192.0, 0.0, 0.0, 0.0, 0.0, 0.0, 0.0, 0.0, 0.0, 0.0, 1.700947235569081E9, 0.0, 2023-11-25 16:20:35.569
33.0, 17326.71467384275, 35912.97249948651, -45328.533092562335, -47762.19102885616, -36293.35448662692, -45334.053973442795, -28714.660252888236, -8704.797471141514, -0.10400000000000001, 0.9480000000000001, 0.28600000000000003, 192.0, 0.0, 0.0, 0.0, 0.0, 0.0, 0.0, 0.0, 0.0, 0.0, 1.700947235572528E9, 0.0, 2023-11-25 16:20:35.572
34.0, 17479.84647510606, 35978.48546248501, -45345.47571485946, -47758.03360438748, -36228.020337584065, -45142.83479962764, -28737.34727351037, -8721.136596338343, -0.10400000000000001, 0.9480000000000001, 0.28600000000000003, 192.0, 0.0, 0.0, 0.0, 0.0, 0.0, 0.0, 0.0, 0.0, 0.0, 1.700947235575451E9, 0.0, 2023-11-25 16:20:35.575
35.0, 17658.25809934832, 35925.82475254831, -45299.27465907033, -47789.7283780251, -35934.49722939697, -45142.20895078289, -28755.60864873036, -8748.49513155164, -0.10400000000000001, 0.9480000000000001, 0.28600000000000003, 192.0, 0.0, 0.0, 0.0, 0.0, 0.0, 0.0, 0.0, 0.0, 0.0, 1.700947235579861E9, 0.0, 2023-11-25 16:20:35.579
36.0, 17403.001177668713, 35859.99886512743, -45318.8994907021, -47783.31342736643, -36136.33348182839, -45459.670777281615, -28726.171401282718, -8708.77608165456, -0.10400000000000001, 0.9480000000000001, 0.28600000000000003, 192.0, 0.0, 0.0, 0.0, 0.0, 0.0, 0.0, 0.0, 0.0, 0.0, 1.700947235583424E9, 0.0, 2023-11-25 16:20:35.583
37.0, 17312.118984713434, 35905.68583079408, -45327.415505339566, -47755.59726424185, -36305.402076888335, -45382.73607286645, -28709.496999919058, -8687.228999999643, -0.10400000000000001, 0.9480000000000001, 0.28600000000000003, 192.0, 0.0, 0.0, 0.0, 0.0, 0.0, 0.0, 0.0, 0.0, 0.0, 1.700947235587442E9, 0.0, 2023-11-25 16:20:35.587
38.0, 17457.271213206197, 35978.440758996105, -45344.51458984787, -47745.24840655904, -36239.01739585607, -45142.0524885717, -28723.39978497026, -8689.598284911906, -0.10400000000000001, 0.9480000000000001, 0.28600000000000003, 192.0, 0.0, 0.0, 0.0, 0.0, 0.0, 0.0, 0.0, 0.0, 0.0, 1.70094723559246E9, 0.0, 2023-11-25 16:20:35.592
39.0, 17656.134683625067, 35939.77224108842, -45300.66046722657, -47767.8236684589, -35964.35915998926, -45087.2907146562, -28742.354064268362, -8708.552564210006, -0.10400000000000001, 0.9480000000000001, 0.28600000000000003, 192.0, 0.0, 0.0, 0.0, 0.0, 0.0, 0.0, 0.0, 0.0, 0.0, 1.700947235596525E9, 0.0, 2023-11-25 16:20:35.596
40.0, 17463.619108631505, 35848.554771966315, -45322.945156448506, -47785.81682274542, -36049.49695461952, -45373.057767517304, -28728.473630961613, -8695.879125103847, -0.096, 0.9460000000000001, 0.29, 192.0, 253.0, 0.0, 29.0, 144.0, 9.0, 16.0, 0.0, 0.0, 0.0, 1.700947235600557E9, 0.0, 2023-11-25 16:20:35.600
41.0, 17278.725478497206, 35882.26120260492, -45337.183217666534, -47753.58560724087, -36310.498274624144, -45408.97702085698, -28701.048040514954, -8662.798543309993, -0.096, 0.9460000000000001, 0.29, 192.0, 0.0, 0.0, 0.0, 0.0, 0.0, 0.0, 0.0, 0.0, 0.0, 1.700947235603622E9, 0.0, 2023-11-25 16:20:35.603
42.0, 17412.97005569578, 35970.6400001812, -45349.87900851715, -47734.47486573159, -36256.541163509035, -45146.16520955148, -28695.549511378947, -8658.082325229923, -0.096, 0.9460000000000001, 0.29, 192.0, 0.0, 0.0, 0.0, 0.0, 0.0, 0.0, 0.0, 0.0, 0.0, 1.700947235607554E9, 0.0, 2023-11-25 16:20:35.607
43.0, 17623.0093983423, 35964.78384313391, -45308.01419115236, -47750.45636301713, -36024.06066942938, -45054.903036940465, -28701.78564808198, -8673.482677159629, -0.096, 0.9460000000000001, 0.29, 192.0, 0.0, 0.0, 0.0, 0.0, 0.0, 0.0, 0.0, 0.0, 0.0, 1.700947235611628E9, 0.0, 2023-11-25 16:20:35.611
44.0, 17526.874545440023, 35866.39146404165, -45313.93740343302, -47785.012159945036, -35986.73325618902, -45298.58175499222, -28703.551435893947, -8676.746031850103, -0.096, 0.9460000000000001, 0.29, 192.0, 0.0, 0.0, 0.0, 0.0, 0.0, 0.0, 0.0, 0.0, 0.0, 1.700947235616528E9, 0.0, 2023-11-25 16:20:35.616
45.0, 17268.600138258953, 35875.35451356823, -45338.25610140039, -47764.582665512884, -36317.71788808321, -45448.204332376044, -28674.158891935218, -8650.750953048582, -0.096, 0.9460000000000001, 0.29, 192.0, 0.0, 0.0, 0.0, 0.0, 0.0, 0.0, 0.0, 0.0, 0.0, 1.700947235620823E9, 0.0, 2023-11-25 16:20:35.620
46.0, 17368.57949120754, 35937.80528757635, -45370.21909597148, -47770.86350570482, -36286.20192840123, -45199.60823054412, -28695.370697423306, -8676.209589983177, -0.096, 0.9460000000000001, 0.29, 192.0, 0.0, 0.0, 0.0, 0.0, 0.0, 0.0, 0.0, 0.0, 0.0, 1.700947235624553E9, 0.0, 2023-11-25 16:20:35.624
47.0, 17568.314679660165, 35959.59823842028, -45330.03065944084, -47771.80227897195, -36106.04686809145, -45090.77758679123, -28695.370697423306, -8691.967569824168, -0.096, 0.9460000000000001, 0.29, 192.0, 0.0, 0.0, 0.0, 0.0, 0.0, 0.0, 0.0, 0.0, 0.0, 1.700947235629593E9, 0.0, 2023-11-25 16:20:35.629
48.0, 17584.095011245612, 35880.00367641493, -45293.77612993433, -47791.784738514994, -35939.81694457733, -45259.35444347316, -28684.641860084757, -8695.633255914838, -0.096, 0.9460000000000001, 0.29, 192.0, 0.0, 0.0, 0.0, 0.0, 0.0, 0.0, 0.0, 0.0, 0.0, 1.700947235631607E9, 0.0, 2023-11-25 16:20:35.631
49.0, 17282.70408901025, 35876.919135680095, -45313.13274063262, -47761.96751141161, -36293.77916977157, -45490.918516030135, -28642.7099874866, -8654.394287394796, -0.096, 0.9460000000000001, 0.29, 192.0, 0.0, 0.0, 0.0, 0.0, 0.0, 0.0, 0.0, 0.0, 0.0, 1.700947235635587E9, 0.0, 2023-11-25 16:20:35.635
50.0, 17361.069305070556, 35946.23189523601, -45336.982051966435, -47759.24059858806, -36286.26898363459, -45242.76944908732, -28662.96066796311, -8675.404927182786, -0.10400000000000001, 0.9480000000000001, 0.28400000000000003, 192.0, 252.0, 192.0, 29.0, 160.0, 8.0, 224.0, 0.0, 0.0, 0.0, 1.700947235639621E9, 0.0, 2023-11-25 16:20:35.639
51.0, 17540.687923513404, 35974.93153511662, -45332.98108970894, -47765.81201145792, -36153.32080761442, -45099.83004329563, -28693.35904042233, -8698.67309316076, -0.10400000000000001, 0.9480000000000001, 0.28400000000000003, 192.0, 0.0, 0.0, 0.0, 0.0, 0.0, 0.0, 0.0, 0.0, 0.0, 1.700947235644198E9, 0.0, 2023-11-25 16:20:35.644
52.0, 17621.57888669716, 35889.7713887419, -45302.22508933843, -47791.24829664807, -35914.15714194264, -45203.65389629053, -28715.53197092199, -8714.252259046109, -0.10400000000000001, 0.9480000000000001, 0.28400000000000003, 192.0, 0.0, 0.0, 0.0, 0.0, 0.0, 0.0, 0.0, 0.0, 0.0, 1.70094723564855E9, 0.0, 2023-11-25 16:20:35.648
53.0, 17303.915894498336, 35866.45851927502, -45330.58945305222, -47763.196857356656, -36256.541163509035, -45495.79119632139, -28684.91008101822, -8665.927787533736, -0.10400000000000001, 0.9480000000000001, 0.28400000000000003, 192.0, 0.0, 0.0, 0.0, 0.0, 0.0, 0.0, 0.0, 0.0, 0.0, 1.700947235652585E9, 0.0, 2023-11-25 16:20:35.652
54.0, 17337.309400714566, 35926.361194415236, -45358.19385745453, -47755.10552586383, -36300.97643148618, -45289.19402232099, -28713.49796217656, -8687.430165699741, -0.10400000000000001, 0.9480000000000001, 0.28400000000000003, 192.0, 0.0, 0.0, 0.0, 0.0, 0.0, 0.0, 0.0, 0.0, 0.0, 1.700947235656649E9, 0.0, 2023-11-25 16:20:35.656
55.0, 17504.791021918183, 35989.191948079104, -45356.07044173127, -47744.39904026974, -36203.41106693877, -45112.61524112407, -28729.6806251622, -8700.125956550355, -0.10400000000000001, 0.9480000000000001, 0.28400000000000003, 192.0, 0.0, 0.0, 0.0, 0.0, 0.0, 0.0, 0.0, 0.0, 0.0, 1.700947235659604E9, 0.0, 2023-11-25 16:20:35.659
56.0, 17659.44274180445, 35923.81309554733, -45308.05889464127, -47775.26679936252, -35909.664441307126, -45147.5063142188, -28752.07707310642, -8725.696352207226, -0.10400000000000001, 0.9480000000000001, 0.28400000000000003, 192.0, 0.0, 0.0, 0.0, 0.0, 0.0, 0.0, 0.0, 0.0, 0.0, 1.700947235663774E9, 0.0, 2023-11-25 16:20:35.663
57.0, 17364.57852895004, 35877.47792929148, -45326.096752416706, -47758.1230113653, -36187.92130803124, -45467.73975702999, -28721.991625069575, -8680.38936619632, -0.10400000000000001, 0.9480000000000001, 0.28400000000000003, 192.0, 0.0, 0.0, 0.0, 0.0, 0.0, 0.0, 0.0, 0.0, 0.0, 1.700947235668203E9, 0.0, 2023-11-25 16:20:35.668
58.0, 17334.806005335573, 35933.290235196386, -45331.48352283043, -47739.45930474512, -36294.002687216125, -45325.47090357196, -28719.82350585741, -8680.568180151962, -0.10400000000000001, 0.9480000000000001, 0.28400000000000003, 192.0, 0.0, 0.0, 0.0, 0.0, 0.0, 0.0, 0.0, 0.0, 0.0, 1.700947235671869E9, 0.0, 2023-11-25 16:20:35.671
59.0, 17487.490771709774, 36000.47957902904, -45335.05980194328, -47732.23969128606, -36221.73949739212, -45115.18569173643, -28726.797250127467, -8689.173601767254, -0.10400000000000001, 0.9480000000000001, 0.28400000000000003, 192.0, 0.0, 0.0, 0.0, 0.0, 0.0, 0.0, 0.0, 0.0, 0.0, 1.700947235676732E9, 0.0, 2023-11-25 16:20:35.676
60.0, 17669.791599487256, 35944.98019754651, -45286.2882955418, -47767.55544752544, -35932.82084856282, -45100.88057528503, -28753.328770795917, -8721.382465527353, -0.108, 0.9460000000000001, 0.29, 192.0, 252.0, 160.0, 29.0, 144.0, 9.0, 16.0, 0.0, 0.0, 0.0, 1.700947235680725E9, 0.0, 2023-11-25 16:20:35.680
61.0, 17424.436500601354, 35867.4643477755, -45312.26102259887, -47778.418395330715, -36119.726135698096, -45422.56688148581, -28742.39876775727, -8705.57978219745, -0.108, 0.9460000000000001, 0.29, 192.0, 0.0, 0.0, 0.0, 0.0, 0.0, 0.0, 0.0, 0.0, 0.0, 1.700947235684649E9, 0.0, 2023-11-25 16:20:35.684
62.0, 17305.61462707694, 35907.138694183675, -45322.028734925836, -47753.65266247424, -36313.873388036896, -45378.42218618658, -28720.02467155751, -8688.1007180334, -0.108, 0.9460000000000001, 0.29, 192.0, 0.0, 0.0, 0.0, 0.0, 0.0, 0.0, 0.0, 0.0, 0.0, 1.700947235687726E9, 0.0, 2023-11-25 16:20:35.687
63.0, 17435.38885538445, 35971.01997983694, -45344.58164508124, -47750.85869441732, -36252.71901520718, -45137.470380958366, -28734.486250220092, -8704.931581608245, -0.108, 0.9460000000000001, 0.29, 192.0, 0.0, 0.0, 0.0, 0.0, 0.0, 0.0, 0.0, 0.0, 0.0, 1.700947235691727E9, 0.0, 2023-11-25 16:20:35.691
64.0, 17632.86651764709, 35941.47097366703, -45294.06670261225, -47767.89072369227, -35985.34744803279, -45078.48412734081, -28744.25396254706, -8725.83046267396, -0.108, 0.9460000000000001, 0.29, 192.0, 0.0, 0.0, 0.0, 0.0, 0.0, 0.0, 0.0, 0.0, 0.0, 1.70094723569578E9, 0.0, 2023-11-25 16:20:35.695
65.0, 17476.13608552648, 35869.69952222103, -45285.70715018596, -47762.9733399121, -36036.64470155772, -45346.21332242648, -28711.39689819776, -8693.688654147227, -0.108, 0.9460000000000001, 0.29, 192.0, 0.0, 0.0, 0.0, 0.0, 0.0, 0.0, 0.0, 0.0, 0.0, 1.700947235699734E9, 0.0, 2023-11-25 16:20:35.699
66.0, 17273.070487150013, 35875.175699612584, -45314.65265925559, -47748.288243804964, -36313.582815358975, -45397.97996258497, -28689.96157526512, -8678.489467917618, -0.108, 0.9460000000000001, 0.29, 192.0, 0.0, 0.0, 0.0, 0.0, 0.0, 0.0, 0.0, 0.0, 0.0, 1.70094723570377E9, 0.0, 2023-11-25 16:20:35.703
67.0, 17391.40062229641, 35939.95105504406, -45344.73810729243, -47750.09873510584, -36267.04648340303, -45147.238093285334, -28708.848799329855, -8694.850944858903, -0.108, 0.9460000000000001, 0.29, 192.0, 0.0, 0.0, 0.0, 0.0, 0.0, 0.0, 0.0, 0.0, 0.0, 1.700947235708813E9, 0.0, 2023-11-25 16:20:35.708
68.0, 17601.015281798278, 35939.012281776944, -45298.38058929212, -47753.943235152154, -36044.780736539455, -45046.61053974755, -28707.574749895903, -8691.989921568624, -0.108, 0.9460000000000001, 0.29, 192.0, 0.0, 0.0, 0.0, 0.0, 0.0, 0.0, 0.0, 0.0, 0.0, 1.70094723571294E9, 0.0, 2023-11-25 16:20:35.712
69.0, 17535.07763565512, 35847.57129521028, -45286.91414438655, -47775.22209587361, -35970.59529669229, -45258.974463817416, -28698.410534669227, -8683.786831353525, -0.108, 0.9460000000000001, 0.29, 192.0, 0.0, 0.0, 0.0, 0.0, 0.0, 0.0, 0.0, 0.0, 0.0, 1.700947235715807E9, 0.0, 2023-11-25 16:20:35.715
70.0, 17263.99567890116, 35845.738452164944, -45313.60212726619, -47754.83730493037, -36311.25823393562, -45421.73986694096, -28660.211403395107, -8648.538130347506, -0.10400000000000001, 0.9420000000000001, 0.294, 192.0, 252.0, 192.0, 29.0, 112.0, 9.0, 48.0, 0.0, 0.0, 0.0, 1.700947235719818E9, 0.0, 2023-11-25 16:20:35.719
71.0, 17354.922575345347, 35903.92004298211, -45348.247331171915, -47763.532133523484, -36288.88413773586, -45167.22055282838, -28676.05879021392, -8673.013290526067, -0.10400000000000001, 0.9420000000000001, 0.294, 192.0, 0.0, 0.0, 0.0, 0.0, 0.0, 0.0, 0.0, 0.0, 0.0, 1.700947235724564E9, 0.0, 2023-11-25 16:20:35.724
72.0, 17544.95710670437, 35929.40103166116, -45320.709982002976, -47766.683729491684, -36122.34128979937, -45052.22082760582, -28683.613679839815, -8691.632293657338, -0.10400000000000001, 0.9420000000000001, 0.294, 192.0, 0.0, 0.0, 0.0, 0.0, 0.0, 0.0, 0.0, 0.0, 0.0, 1.700947235727805E9, 0.0, 2023-11-25 16:20:35.727
73.0, 17567.778237793238, 35845.04554808683, -45295.452510768475, -47791.94120072618, -35940.42044167763, -45211.16408242752, -28694.29781368945, -8710.0054275996, -0.10400000000000001, 0.9420000000000001, 0.294, 192.0, 0.0, 0.0, 0.0, 0.0, 0.0, 0.0, 0.0, 0.0, 0.0, 1.70094723573187E9, 0.0, 2023-11-25 16:20:35.731
74.0, 17250.584632227976, 35829.868713601674, -45326.78965649482, -47763.24156084556, -36303.50217860963, -45457.97204470301, -28662.223060396085, -8675.963720794169, -0.10400000000000001, 0.9420000000000001, 0.294, 192.0, 0.0, 0.0, 0.0, 0.0, 0.0, 0.0, 0.0, 0.0, 0.0, 1.700947235737904E9, 0.0, 2023-11-25 16:20:35.737
75.0, 17317.103423726967, 35890.93367945358, -45357.90328477661, -47761.67693873369, -36308.73248681217, -45220.99884998785, -28683.09958971734, -8702.942276351723, -0.10400000000000001, 0.9420000000000001, 0.294, 192.0, 0.0, 0.0, 0.0, 0.0, 0.0, 0.0, 0.0, 0.0, 0.0, 1.700947235740868E9, 0.0, 2023-11-25 16:20:35.740
76.0, 17504.925132384913, 35943.6837963681, -45345.29690090381, -47754.770249697, -36186.15552021927, -45075.35488311707, -28690.29685143195, -8721.740093438637, -0.10400000000000001, 0.9420000000000001, 0.294, 192.0, 0.0, 0.0, 0.0, 0.0, 0.0, 0.0, 0.0, 0.0, 0.0, 1.700947235744818E9, 0.0, 2023-11-25 16:20:35.744
77.0, 17624.73048266536, 35875.98036241298, -45297.2406503249, -47776.965531941125, -35923.16489495813, -45157.58695096814, -28699.237549214075, -8734.793512200536, -0.10400000000000001, 0.9420000000000001, 0.294, 192.0, 0.0, 0.0, 0.0, 0.0, 0.0, 0.0, 0.0, 0.0, 0.0, 1.700947235747812E9, 0.0, 2023-11-25 16:20:35.747
78.0, 17308.09567071148, 35836.97656833846, -45326.11910416116, -47756.37957529778, -36253.47897451866, -45461.66008253814, -28669.174452921685, -8690.58176166794, -0.10400000000000001, 0.9420000000000001, 0.294, 192.0, 0.0, 0.0, 0.0, 0.0, 0.0, 0.0, 0.0, 0.0, 0.0, 1.700947235751841E9, 0.0, 2023-11-25 16:20:35.751
79.0, 17324.278333697122, 35895.06875217781, -45338.74783977841, -47744.91313039221, -36305.31266991051, -45267.02109182133, -28678.606889081824, -8696.706139648693, -0.10400000000000001, 0.9420000000000001, 0.294, 192.0, 0.0, 0.0, 0.0, 0.0, 0.0, 0.0, 0.0, 0.0, 0.0, 1.700947235755854E9, 0.0, 2023-11-25 16:20:35.755
80.0, 17491.26821652272, 35964.314456500346, -45328.26487162887, -47733.40198199773, -36213.71522113267, -45084.899077999486, -28688.95574676463, -8701.288247262031, -0.09, 0.9480000000000001, 0.294, 192.0, 253.0, 48.0, 29.0, 160.0, 9.0, 48.0, 0.0, 0.0, 0.0, 1.700947235759934E9, 0.0, 2023-11-25 16:20:35.759
81.0, 17651.418465544997, 35893.90646146613, -45279.023978593825, -47768.62833125929, -35917.331089655294, -45110.55888063418, -28713.20738949864, -8732.960669155202, -0.09, 0.9480000000000001, 0.294, 192.0, 0.0, 0.0, 0.0, 0.0, 0.0, 0.0, 0.0, 0.0, 0.0, 1.700947235764913E9, 0.0, 2023-11-25 16:20:35.764
82.0, 17364.10914231648, 35835.680167160055, -45301.599240493684, -47759.01708114351, -36175.717255558644, -45435.01680314742, -28688.732229320078, -8701.645875173315, -0.09, 0.9480000000000001, 0.294, 192.0, 0.0, 0.0, 0.0, 0.0, 0.0, 0.0, 0.0, 0.0, 0.0, 1.700947235768991E9, 0.0, 2023-11-25 16:20:35.768
83.0, 17308.833278278504, 35883.848176461244, -45318.251290112894, -47744.376688525284, -36307.369030400405, -45318.54186279081, -28690.363906665316, -8698.628389671849, -0.09, 0.9480000000000001, 0.294, 192.0, 0.0, 0.0, 0.0, 0.0, 0.0, 0.0, 0.0, 0.0, 0.0, 1.700947235771929E9, 0.0, 2023-11-25 16:20:35.771
84.0, 17465.764876099216, 35966.4378722236, -45324.174502393544, -47728.59635693984, -36239.553837723, -45103.83100555313, -28694.409572411725, -8693.62159891386, -0.09, 0.9480000000000001, 0.294, 192.0, 0.0, 0.0, 0.0, 0.0, 0.0, 0.0, 0.0, 0.0, 0.0, 1.700947235775961E9, 0.0, 2023-11-25 16:20:35.775
85.0, 17657.185215614463, 35913.419534375615, -45284.43310075201, -47769.65651150424, -35948.91410457064, -45077.1877261624, -28721.902218091753, -8729.451445275718, -0.09, 0.9480000000000001, 0.294, 192.0, 0.0, 0.0, 0.0, 0.0, 0.0, 0.0, 0.0, 0.0, 0.0, 1.700947235780002E9, 0.0, 2023-11-25 16:20:35.780
86.0, 17428.705683792316, 35849.00180685542, -45295.89954565759, -47769.12006963731, -36102.112961067316, -45390.805052614814, -28691.43679039917, -8698.874258860858, -0.09, 0.9480000000000001, 0.294, 192.0, 0.0, 0.0, 0.0, 0.0, 0.0, 0.0, 0.0, 0.0, 0.0, 1.700947235783949E9, 0.0, 2023-11-25 16:20:35.783
87.0, 17295.22106590522, 35880.204842115025, -45314.85382495569, -47752.915054907215, -36319.729545084185, -45368.520363392876, -28681.087932716364, -8685.507915676584, -0.09, 0.9480000000000001, 0.294, 192.0, 0.0, 0.0, 0.0, 0.0, 0.0, 0.0, 0.0, 0.0, 0.0, 1.700947235787939E9, 0.0, 2023-11-25 16:20:35.787
88.0, 17425.2635151462, 35944.801383590864, -45341.184179924036, -47749.24936881654, -36266.93472468075, -45127.948537820404, -28694.655441600735, -8693.19691576921, -0.09, 0.9480000000000001, 0.294, 192.0, 0.0, 0.0, 0.0, 0.0, 0.0, 0.0, 0.0, 0.0, 0.0, 1.700947235792018E9, 0.0, 2023-11-25 16:20:35.792
89.0, 17629.513755978795, 35928.41755490513, -45290.713940943955, -47756.625444486795, -36006.469846543056, -45051.483220038805, -28703.5737876384, -8702.405834484796, -0.09, 0.9480000000000001, 0.294, 192.0, 0.0, 0.0, 0.0, 0.0, 0.0, 0.0, 0.0, 0.0, 0.0, 1.700947235796983E9, 0.0, 2023-11-25 16:20:35.796
90.0, 17486.99903333176, 35844.844382386735, -45294.4913857569, -47767.734261481084, -36022.71956476207, -45305.86842368465, -28683.032534483977, -8683.585665653429, -0.09, 0.9560000000000001, 0.302, 192.0, 253.0, 48.0, 29.0, 224.0, 9.0, 112.0, 0.0, 0.0, 0.0, 1.700947235799975E9, 0.0, 2023-11-25 16:20:35.799
91.0, 17260.26293757712, 35858.63540871566, -45320.1958918805, -47746.053069359434, -36321.271815451604, -45393.86724160519, -28651.33776084635, -8649.990993737101, -0.09, 0.9560000000000001, 0.302, 192.0, 0.0, 0.0, 0.0, 0.0, 0.0, 0.0, 0.0, 0.0, 0.0, 1.700947235804025E9, 0.0, 2023-11-25 16:20:35.804
92.0, 17374.837979655025, 35920.05800247884, -45355.3551859087, -47745.82955191488, -36279.384646342354, -45133.8046948677, -28674.851796013332, -8666.866560800858, -0.09, 0.9560000000000001, 0.302, 192.0, 0.0, 0.0, 0.0, 0.0, 0.0, 0.0, 0.0, 0.0, 0.0, 1.70094723580798E9, 0.0, 2023-11-25 16:20:35.807
93.0, 17579.825828054647, 35922.96372925803, -45319.88296745813, -47752.73624095157, -36074.62031538729, -45036.99928963176, -28678.942165248653, -8673.482677159629, -0.09, 0.9560000000000001, 0.302, 192.0, 0.0, 0.0, 0.0, 0.0, 0.0, 0.0, 0.0, 0.0, 0.0, 1.700947235811974E9, 0.0, 2023-11-25 16:20:35.811
94.0, 17538.095121156588, 35835.59076018223, -45307.142473118605, -47778.61956103081, -35974.953886861076, -45240.60132987516, -28676.125845447285, -8673.437973670718, -0.09, 0.9560000000000001, 0.302, 192.0, 0.0, 0.0, 0.0, 0.0, 0.0, 0.0, 0.0, 0.0, 0.0, 1.700947235816485E9, 0.0, 2023-11-25 16:20:35.816
95.0, 17252.618640973407, 35832.57327468077, -45332.243482141916, -47758.90532242123, -36331.3748039454, -45434.860340936226, -28644.587534020848, -8640.536205832506, -0.09, 0.9560000000000001, 0.302, 192.0, 0.0, 0.0, 0.0, 0.0, 0.0, 0.0, 0.0, 0.0, 0.0, 1.700947235819986E9, 0.0, 2023-11-25 16:20:35.819
96.0, 17345.2442699962, 35897.59449930126, -45360.36197666669, -47766.63902600277, -36313.33694616997, -45192.343913596145, -28672.52721458998, -8667.827685812437, -0.09, 0.9560000000000001, 0.302, 192.0, 0.0, 0.0, 0.0, 0.0, 0.0, 0.0, 0.0, 0.0, 0.0, 1.700947235824032E9, 0.0, 2023-11-25 16:20:35.824
97.0, 17544.174795648432, 35938.095860254274, -45330.701211774496, -47765.990825413566, -36154.192525648185, -45067.08473766861, -28685.20065369614, -8683.67507263125, -0.09, 0.9560000000000001, 0.302, 192.0, 0.0, 0.0, 0.0, 0.0, 0.0, 0.0, 0.0, 0.0, 0.0, 1.700947235827089E9, 0.0, 2023-11-25 16:20:35.827
98.0, 17590.018223526266, 35850.164097567096, -45305.35433356218, -47801.016008975035, -35950.52343017142, -45208.705390537434, -28702.679717860192, -8712.374712511863, -0.09, 0.9560000000000001, 0.302, 192.0, 0.0, 0.0, 0.0, 0.0, 0.0, 0.0, 0.0, 0.0, 0.0, 1.700947235832039E9, 0.0, 2023-11-25 16:20:35.832
99.0, 17266.744943469163, 35828.9075885901, -45340.84890375721, -47783.15696515524, -36311.99584150265, -45487.632809595205, -28680.10445596033, -8687.944255822213, -0.09, 0.9560000000000001, 0.302, 192.0, 0.0, 0.0, 0.0, 0.0, 0.0, 0.0, 0.0, 0.0, 0.0, 1.700947235836122E9, 0.0, 2023-11-25 16:20:35.836
100.0, 17326.66997035384, 35897.482740578984, -45361.30074993381, -47777.12199415231, -36326.07744050949, -45266.8869813546, -28696.331822434884, -8709.133709565844, -0.098, 0.9460000000000001, 0.296, 192.0, 252.0, 240.0, 29.0, 144.0, 9.0, 64.0, 0.0, 0.0, 0.0, 1.700947235840064E9, 0.0, 2023-11-25 16:20:35.840
101.0, 17503.092289339576, 35949.11527027074, -45349.49902886141, -47772.83045921689, -36211.92708157624, -45109.865976556066, -28714.213217999128, -8726.322201051975, -0.098, 0.9460000000000001, 0.296, 192.0, 0.0, 0.0, 0.0, 0.0, 0.0, 0.0, 0.0, 0.0, 0.0, 1.700947235844058E9, 0.0, 2023-11-25 16:20:35.844
102.0, 17622.42825298646, 35862.09992910623, -45311.16578712056, -47813.801206803466, -35939.861648066246, -45181.436262301955, -28743.24813404657, -8760.54272181305, -0.098, 0.9460000000000001, 0.296, 192.0, 0.0, 0.0, 0.0, 0.0, 0.0, 0.0, 0.0, 0.0, 0.0, 1.700947235848059E9, 0.0, 2023-11-25 16:20:35.848
103.0, 17305.748737543672, 35827.83470485624, -45326.34262160571, -47786.17445065671, -36254.730672208156, -45493.73483583151, -28696.15300847924, -8708.06082583199, -0.098, 0.9460000000000001, 0.296, 192.0, 0.0, 0.0, 0.0, 0.0, 0.0, 0.0, 0.0, 0.0, 0.0, 1.700947235851133E9, 0.0, 2023-11-25 16:20:35.851
104.0, 17310.599066090475, 35896.074580678294, -45330.99178445242, -47761.0734416334, -36311.45939963572, -45301.755702704875, -28691.34738342135, -8696.236753015131, -0.098, 0.9460000000000001, 0.296, 192.0, 0.0, 0.0, 0.0, 0.0, 0.0, 0.0, 0.0, 0.0, 0.0, 1.700947235857129E9, 0.0, 2023-11-25 16:20:35.857
105.0, 17468.64825113395, 35952.155107516664, -45335.84211299922, -47755.30669156393, -36224.75698289359, -45108.591927122114, -28717.051889544953, -8708.999599099112, -0.098, 0.9460000000000001, 0.296, 192.0, 0.0, 0.0, 0.0, 0.0, 0.0, 0.0, 0.0, 0.0, 0.0, 1.700947235860179E9, 0.0, 2023-11-25 16:20:35.860
106.0, 17643.14832009653, 35892.788874243364, -45280.700359427974, -47781.03354943199, -35928.84223804978, -45117.35381094859, -28736.25203803206, -8736.604003501416, -0.098, 0.9460000000000001, 0.296, 192.0, 0.0, 0.0, 0.0, 0.0, 0.0, 0.0, 0.0, 0.0, 0.0, 1.700947235864186E9, 0.0, 2023-11-25 16:20:35.864
107.0, 17371.596976709006, 35839.77053639538, -45295.944249146494, -47765.700252735645, -36164.07199669743, -45437.76606771542, -28697.82938931339, -8698.024892571557, -0.098, 0.9460000000000001, 0.296, 192.0, 0.0, 0.0, 0.0, 0.0, 0.0, 0.0, 0.0, 0.0, 0.0, 1.70094723586813E9, 0.0, 2023-11-25 16:20:35.868
108.0, 17298.0820891955, 35889.83844397526, -45309.020019652846, -47745.091944347856, -36311.03471649107, -45334.121028676156, -28690.43096189868, -8688.391290711319, -0.098, 0.9460000000000001, 0.296, 192.0, 0.0, 0.0, 0.0, 0.0, 0.0, 0.0, 0.0, 0.0, 0.0, 1.700947235872121E9, 0.0, 2023-11-25 16:20:35.872
109.0, 17446.564727612105, 35963.86742161124, -45324.956813449484, -47733.17846455317, -36245.924084892766, -45109.53070038923, -28702.523255649005, -8686.714909877172, -0.098, 0.9460000000000001, 0.296, 192.0, 0.0, 0.0, 0.0, 0.0, 0.0, 0.0, 0.0, 0.0, 0.0, 1.700947235876145E9, 0.0, 2023-11-25 16:20:35.876
110.0, 17647.97629689888, 35923.142543213675, -45277.16878380404, -47759.01708114351, -35956.82662210782, -45067.30825511316, -28719.39882271276, -8710.72068342217, -0.1, 0.936, 0.292, 192.0, 252.0, 224.0, 29.0, 64.0, 9.0, 32.0, 0.0, 0.0, 0.0, 1.700947235879135E9, 0.0, 2023-11-25 16:20:35.879
111.0, 17440.641515331452, 35850.8122981563, -45289.97633337693, -47761.9228079227, -36077.637800888755, -45364.74291857993, -28691.34738342135, -8681.752822608092, -0.1, 0.936, 0.292, 192.0, 0.0, 0.0, 0.0, 0.0, 0.0, 0.0, 0.0, 0.0, 0.0, 1.700947235883169E9, 0.0, 2023-11-25 16:20:35.883
112.0, 17286.637996034384, 35894.10762716623, -45298.62645848113, -47728.35048775083, -36305.960870499715, -45360.56314236679, -28664.033551696964, -8647.845226269392, -0.1, 0.936, 0.292, 192.0, 0.0, 0.0, 0.0, 0.0, 0.0, 0.0, 0.0, 0.0, 0.0, 1.700947235887161E9, 0.0, 2023-11-25 16:20:35.887
113.0, 17414.601733041018, 35968.7401019025, -45323.012211681875, -47721.60026092533, -36248.4051285273, -45109.24012771132, -28682.719610061602, -8659.110505474866, -0.1, 0.936, 0.292, 192.0, 0.0, 0.0, 0.0, 0.0, 0.0, 0.0, 0.0, 0.0, 0.0, 1.700947235891293E9, 0.0, 2023-11-25 16:20:35.891
114.0, 17625.33397976565, 35957.318360485835, -45277.25819078186, -47731.54678720794, -35999.898433673196, -45031.38900177348, -28696.890616046265, -8673.706194604183, -0.1, 0.936, 0.292, 192.0, 0.0, 0.0, 0.0, 0.0, 0.0, 0.0, 0.0, 0.0, 0.0, 1.700947235896165E9, 0.0, 2023-11-25 16:20:35.896
115.0, 17516.011597634744, 35875.64508624614, -45276.29706577028, -47746.20953157062, -35990.13072134623, -45278.24166753789, -28682.04905772794, -8659.311671174964, -0.1, 0.936, 0.292, 192.0, 0.0, 0.0, 0.0, 0.0, 0.0, 0.0, 0.0, 0.0, 0.0, 1.700947235901505E9, 0.0, 2023-11-25 16:20:35.901
116.0, 17278.457257563743, 35888.09500790775, -45305.108464373174, -47723.03077257047, -36302.965736742706, -45388.301657235825, -28655.584592292857, -8630.589679549896, -0.1, 0.936, 0.292, 192.0, 0.0, 0.0, 0.0, 0.0, 0.0, 0.0, 0.0, 0.0, 0.0, 1.700947235904185E9, 0.0, 2023-11-25 16:20:35.904
117.0, 17389.053689128603, 35956.290180240896, -45337.78671476683, -47719.52154869099, -36262.7102449787, -45132.3518314781, -28674.024781468488, -8645.90062450178, -0.1, 0.936, 0.292, 192.0, 0.0, 0.0, 0.0, 0.0, 0.0, 0.0, 0.0, 0.0, 0.0, 1.700947235908196E9, 0.0, 2023-11-25 16:20:35.908
118.0, 17584.452639156894, 35960.22408726503, -45315.56908077825, -47734.9666041096, -36074.53090840947, -45034.45119076386, -28690.542720620957, -8667.42535441224, -0.1, 0.936, 0.292, 192.0, 0.0, 0.0, 0.0, 0.0, 0.0, 0.0, 0.0, 0.0, 0.0, 1.700947235911204E9, 0.0, 2023-11-25 16:20:35.911
119.0, 17561.676211556936, 35868.42547278708, -45304.32615331723, -47767.44368880316, -35954.14441277318, -45232.532350126785, -28696.376525923795, -8674.510857404573, -0.1, 0.936, 0.292, 192.0, 0.0, 0.0, 0.0, 0.0, 0.0, 0.0, 0.0, 0.0, 0.0, 1.700947235915296E9, 0.0, 2023-11-25 16:20:35.915
120.0, 17268.71189698123, 35858.09896684873, -45334.14338042062, -47754.993767141554, -36312.84520779195, -45449.187809132076, -28668.25803139902, -8643.218415167143, -0.1, 0.9380000000000001, 0.292, 192.0, 252.0, 224.0, 29.0, 80.0, 9.0, 32.0, 0.0, 0.0, 0.0, 1.700947235920241E9, 0.0, 2023-11-25 16:20:35.920
121.0, 17355.593127679007, 35924.05896473634, -45359.557313866295, -47763.86740969031, -36299.92589949678, -45212.66164930602, -28688.598118853348, -8669.61582536886, -0.1, 0.9380000000000001, 0.292, 192.0, 0.0, 0.0, 0.0, 0.0, 0.0, 0.0, 0.0, 0.0, 0.0, 1.700947235924242E9, 0.0, 2023-11-25 16:20:35.924
122.0, 17543.258374125766, 35955.083186040305, -45342.21236016898, -47776.11616565182, -36156.45005183817, -45093.280982170225, -28706.47951441759, -8701.511764706584, -0.1, 0.9380000000000001, 0.292, 192.0, 0.0, 0.0, 0.0, 0.0, 0.0, 0.0, 0.0, 0.0, 0.0, 1.700947235928269E9, 0.0, 2023-11-25 16:20:35.928
123.0, 17608.659578401992, 35866.52557450838, -45313.847996455195, -47816.461064393654, -35941.046290522376, -45229.35840241413, -28736.520258965524, -8745.410590816808, -0.1, 0.9380000000000001, 0.292, 192.0, 0.0, 0.0, 0.0, 0.0, 0.0, 0.0, 0.0, 0.0, 0.0, 1.700947235932308E9, 0.0, 2023-11-25 16:20:35.932
124.0, 17283.95578669975, 35846.520763220884, -45336.73618277743, -47792.00825595955, -36298.9200709963, -45521.696868145096, -28706.837142328877, -8715.593363713428, -0.1, 0.9380000000000001, 0.292, 192.0, 0.0, 0.0, 0.0, 0.0, 0.0, 0.0, 0.0, 0.0, 0.0, 1.700947235935324E9, 0.0, 2023-11-25 16:20:35.935
125.0, 17329.28512445511, 35911.117304696716, -45349.47667711695, -47778.46309881963, -36314.499236881646, -45294.53608924581, -28717.40951745624, -8727.260974319099, -0.1, 0.9380000000000001, 0.292, 192.0, 0.0, 0.0, 0.0, 0.0, 0.0, 0.0, 0.0, 0.0, 0.0, 1.700947235939261E9, 0.0, 2023-11-25 16:20:35.939
126.0, 17500.924170127415, 35962.48161345501, -45340.67008980156, -47768.20364811464, -36201.868796571354, -45118.13612200453, -28735.49207872058, -8744.91885243879, -0.1, 0.9380000000000001, 0.292, 192.0, 0.0, 0.0, 0.0, 0.0, 0.0, 0.0, 0.0, 0.0, 0.0, 1.700947235943276E9, 0.0, 2023-11-25 16:20:35.943
127.0, 17636.107520593112, 35887.826786974285, -45289.26107755436, -47788.275514635505, -35915.83352277679, -45166.59470398363, -28748.813718415942, -8762.375564858385, -0.1, 0.9380000000000001, 0.292, 192.0, 0.0, 0.0, 0.0, 0.0, 0.0, 0.0, 0.0, 0.0, 0.0, 1.700947235947312E9, 0.0, 2023-11-25 16:20:35.947
128.0, 17333.643714623897, 35854.1650598246, -45297.82179568074, -47752.557426995925, -36207.255566985084, -45469.86317275324, -28691.23562469907, -8695.610904170384, -0.1, 0.9380000000000001, 0.292, 192.0, 0.0, 0.0, 0.0, 0.0, 0.0, 0.0, 0.0, 0.0, 0.0, 1.700947235952294E9, 0.0, 2023-11-25 16:20:35.952
