%OpenBCI Raw EXG Data
%Number of channels = 8
%Sample Rate = 250 Hz
%Board = OpenBCI_GUI$BoardCytonSerial
Sample Index, EXG Channel 0, EXG Channel 1, EXG Channel 2, EXG Channel 3, EXG Channel 4, EXG Channel 5, EXG Channel 6, EXG Channel 7, Accel Channel 0, Accel Channel 1, Accel Channel 2, Other, Other, Other, Other, Other, Other, Other, Analog Channel 0, Analog Channel 1, Analog Channel 2, Timestamp, Other, Timestamp (Formatted)
36.0, 18143.805044150955, 37332.9117694988, -44646.69312795319, -47066.24711349572, -35223.59999699593, -44426.640203790696, -28205.129886285056, -8051.098352801604, 0.0, 0.0, 0.0, 192.0, 0.0, 0.0, 0.0, 0.0, 0.0, 0.0, 0.0, 0.0, 0.0, 1.700947279212391E9, 0.0, 2023-11-25 16:21:19.212
37.0, 18334.778348777098, 37377.525851431594, -44635.226683047615, -47073.109099043504, -35095.72566696712, -44274.223658349954, -28222.20661904891, -8076.177010080459, 0.0, 0.0, 0.0, 192.0, 0.0, 0.0, 0.0, 0.0, 0.0, 0.0, 0.0, 0.0, 0.0, 1.700947279212411E9, 0.0, 2023-11-25 16:21:19.212
38.0, 18428.767434211666, 37292.0527806345, -44604.58244139939, -47118.639602498966, -34866.1285479222, -44378.516897978414, -28242.949037903436, -8114.487900076855, 0.0, 0.0, 0.0, 192.0, 0.0, 0.0, 0.0, 0.0, 0.0, 0.0, 0.0, 0.0, 0.0, 1.70094727921242E9, 0.0, 2023-11-25 16:21:19.212
0.0, 0.0, 0.0, 0.0, 0.0, 0.0, 0.0, 0.0, 0.0, -0.10400000000000001, 0.9420000000000001, 0.304, 192.0, 252.0, 192.0, 29.0, 112.0, 9.0, 128.0, 0.0, 0.0, 0.0, 1.700947279281412E9, 0.0, 2023-11-25 16:21:19.281
1.0, 18559.033400897195, 37618.58941538208, -44485.648809152706, -46995.079159150024, -34657.09503377617, -44192.68449457699, -28187.33789769863, -8005.411387134956, -0.10400000000000001, 0.9420000000000001, 0.304, 192.0, 0.0, 0.0, 0.0, 0.0, 0.0, 0.0, 0.0, 0.0, 0.0, 1.700947279298292E9, 0.0, 2023-11-25 16:21:19.298
2.0, 18230.105129492895, 37577.193984650854, -44517.790617679435, -46979.00825488666, -34982.93876444564, -44524.27262357147, -28150.43516760292, -7965.178247115404, -0.10400000000000001, 0.9420000000000001, 0.304, 192.0, 0.0, 0.0, 0.0, 0.0, 0.0, 0.0, 0.0, 0.0, 0.0, 1.700947279301319E9, 0.0, 2023-11-25 16:21:19.301
3.0, 18243.337362210437, 37642.55048543817, -44524.54084450494, -46958.601112198965, -35031.866733058305, -44330.95238577752, -28140.533344809217, -7957.533950511689, -0.10400000000000001, 0.9420000000000001, 0.304, 192.0, 0.0, 0.0, 0.0, 0.0, 0.0, 0.0, 0.0, 0.0, 0.0, 1.70094727930434E9, 0.0, 2023-11-25 16:21:19.304
4.0, 18414.574076482546, 37697.60283203159, -44526.95483290611, -46959.584588955, -34934.56958944435, -44126.63508971156, -28152.983266470823, -7973.515447797233, -0.10400000000000001, 0.9420000000000001, 0.304, 192.0, 0.0, 0.0, 0.0, 0.0, 0.0, 0.0, 0.0, 0.0, 0.0, 1.700947279309362E9, 0.0, 2023-11-25 16:21:19.309
5.0, 18577.987680195296, 37636.3814039685, -44474.13766075822, -46988.48539453571, -34656.13390876459, -44153.05485165773, -28161.454577619385, -7993.788480018196, -0.10400000000000001, 0.9420000000000001, 0.304, 192.0, 0.0, 0.0, 0.0, 0.0, 0.0, 0.0, 0.0, 0.0, 0.0, 1.700947279312391E9, 0.0, 2023-11-25 16:21:19.312
6.0, 18288.510237754614, 37585.39707486595, -44497.718751158565, -46979.03060663112, -34905.62408037473, -44493.62838192325, -28130.922094693437, -7948.5261974961995, -0.10400000000000001, 0.9420000000000001, 0.304, 192.0, 0.0, 0.0, 0.0, 0.0, 0.0, 0.0, 0.0, 0.0, 0.0, 1.700947279316387E9, 0.0, 2023-11-25 16:21:19.316
7.0, 18226.908830035787, 37633.475677189315, -44515.35427753381, -46963.11616457894, -35033.543113892454, -44383.61309571422, -28128.552809781173, -7943.072371849105, -0.10400000000000001, 0.9420000000000001, 0.304, 192.0, 0.0, 0.0, 0.0, 0.0, 0.0, 0.0, 0.0, 0.0, 0.0, 1.700947279320335E9, 0.0, 2023-11-25 16:21:19.320
8.0, 18384.555683679067, 37708.979869959345, -44527.44657128413, -46949.727469650206, -34959.514136256475, -44152.56311327971, -28133.917228450446, -7944.5252352387, -0.1, 0.9420000000000001, 0.292, 192.0, 252.0, 224.0, 29.0, 112.0, 9.0, 32.0, 0.0, 0.0, 0.0, 1.700947279324392E9, 0.0, 2023-11-25 16:21:19.324
9.0, 18579.552302307166, 37661.8400409031, -44483.34657947381, -46977.60009498597, -34687.89573763558, -44117.64968844053, -28155.598420572096, -7970.0732791511155, -0.1, 0.9420000000000001, 0.292, 192.0, 0.0, 0.0, 0.0, 0.0, 0.0, 0.0, 0.0, 0.0, 0.0, 1.700947279328403E9, 0.0, 2023-11-25 16:21:19.328
10.0, 18348.30115417256, 37586.425255110895, -44506.65944894069, -46984.99852240068, -34839.261751086924, -44439.201884174574, -28140.086309920112, -7950.649613219454, -0.1, 0.9420000000000001, 0.292, 192.0, 0.0, 0.0, 0.0, 0.0, 0.0, 0.0, 0.0, 0.0, 0.0, 1.700947279332417E9, 0.0, 2023-11-25 16:21:19.332
11.0, 18202.590132068413, 37628.513589920236, -44521.076324114365, -46958.467001732235, -35052.273875746, -44437.79372427389, -28127.748146980783, -7937.596194457555, -0.1, 0.9420000000000001, 0.292, 192.0, 0.0, 0.0, 0.0, 0.0, 0.0, 0.0, 0.0, 0.0, 0.0, 1.700947279337431E9, 0.0, 2023-11-25 16:21:19.337
12.0, 18349.06111348404, 37704.24130013482, -44544.836228470354, -46952.76730689613, -34985.17393889117, -44181.17334618251, -28156.783063028226, -7959.545607512666, -0.1, 0.9420000000000001, 0.292, 192.0, 0.0, 0.0, 0.0, 0.0, 0.0, 0.0, 0.0, 0.0, 0.0, 1.700947279340422E9, 0.0, 2023-11-25 16:21:19.340
13.0, 18552.81961593862, 37679.184994600415, -44508.38053326375, -46977.24246707469, -34743.68569179603, -44116.0627145842, -28188.72370585486, -7990.279256138713, -0.1, 0.9420000000000001, 0.292, 192.0, 0.0, 0.0, 0.0, 0.0, 0.0, 0.0, 0.0, 0.0, 0.0, 1.70094727934447E9, 0.0, 2023-11-25 16:21:19.344
14.0, 18423.492422520212, 37608.68759258838, -44500.75858840449, -46979.29882756458, -34759.93541001504, -44384.753034681446, -28169.9482405124, -7971.213218118337, -0.1, 0.9420000000000001, 0.292, 192.0, 0.0, 0.0, 0.0, 0.0, 0.0, 0.0, 0.0, 0.0, 0.0, 1.700947279348508E9, 0.0, 2023-11-25 16:21:19.348
15.0, 18201.494896590102, 37629.78763935419, -44518.75174269101, -46952.789658640584, -35044.31665471991, -44486.118195786265, -28148.37880711303, -7949.196749829859, -0.1, 0.9420000000000001, 0.292, 192.0, 0.0, 0.0, 0.0, 0.0, 0.0, 0.0, 0.0, 0.0, 0.0, 1.7009472793525E9, 0.0, 2023-11-25 16:21:19.352
16.0, 18327.894011484863, 37706.47647458035, -44536.85665569981, -46944.18423702529, -34990.69481977163, -44212.286974464296, -28161.99101948631, -7959.5009040237555, -0.1, 0.9420000000000001, 0.292, 192.0, 0.0, 0.0, 0.0, 0.0, 0.0, 0.0, 0.0, 0.0, 0.0, 1.70094727935655E9, 0.0, 2023-11-25 16:21:19.356
17.0, 18538.782720420688, 37715.28306189574, -44492.75666388949, -46949.86158011694, -34777.07919801226, -44101.757598132805, -28173.546871369705, -7977.4046513324565, -0.1, 0.9420000000000001, 0.292, 192.0, 0.0, 0.0, 0.0, 0.0, 0.0, 0.0, 0.0, 0.0, 0.0, 1.7009472793609E9, 0.0, 2023-11-25 16:21:19.360
18.0, 18499.28718796816, 37623.43974392888, -44474.450585180595, -46971.051033860575, -34675.66933341853, -44306.56663257678, -28178.397199916508, -7983.059642679649, -0.1, 0.9460000000000001, 0.296, 192.0, 252.0, 224.0, 29.0, 144.0, 9.0, 64.0, 0.0, 0.0, 0.0, 1.700947279365845E9, 0.0, 2023-11-25 16:21:19.365
19.0, 18208.93802749372, 37624.91495906293, -44493.89660285671, -46939.177446267306, -35010.29729965893, -44508.31347803038, -28138.633446530515, -7943.899386393951, -0.1, 0.9460000000000001, 0.296, 192.0, 0.0, 0.0, 0.0, 0.0, 0.0, 0.0, 0.0, 0.0, 0.0, 1.700947279368565E9, 0.0, 2023-11-25 16:21:19.368
20.0, 18308.604456019933, 37690.80790171718, -44517.67885895716, -46938.37278346691, -34976.61322076478, -44237.20916953196, -28158.794720029204, -7964.753563970753, -0.1, 0.9460000000000001, 0.296, 192.0, 0.0, 0.0, 0.0, 0.0, 0.0, 0.0, 0.0, 0.0, 0.0, 1.700947279372564E9, 0.0, 2023-11-25 16:21:19.372
21.0, 18499.398946690435, 37708.08580018113, -44507.173539063166, -46954.756612152654, -34824.97898637998, -44099.54477543173, -28176.72081908236, -7986.568866559132, -0.1, 0.9460000000000001, 0.296, 192.0, 0.0, 0.0, 0.0, 0.0, 0.0, 0.0, 0.0, 0.0, 0.0, 1.700947279376536E9, 0.0, 2023-11-25 16:21:19.376
22.0, 18547.097569358062, 37622.2327497283, -44478.09391952681, -46986.18316485681, -34639.70537658994, -44240.51722771135, -28183.24752846331, -7999.555230087666, -0.1, 0.9460000000000001, 0.296, 192.0, 0.0, 0.0, 0.0, 0.0, 0.0, 0.0, 0.0, 0.0, 0.0, 1.700947279380554E9, 0.0, 2023-11-25 16:21:19.380
23.0, 18218.102242720397, 37604.3737059085, -44498.41165523668, -46957.43882148729, -34986.291526113935, -44523.5573677489, -28132.307902849665, -7947.743886440264, -0.1, 0.9460000000000001, 0.296, 192.0, 0.0, 0.0, 0.0, 0.0, 0.0, 0.0, 0.0, 0.0, 0.0, 1.700947279384531E9, 0.0, 2023-11-25 16:21:19.384
24.0, 18286.31976679799, 37679.31910506715, -44502.546727960915, -46939.24450150067, -34987.49852031452, -44281.8008997203, -28128.642216758995, -7944.659345705431, -0.1, 0.9460000000000001, 0.296, 192.0, 0.0, 0.0, 0.0, 0.0, 0.0, 0.0, 0.0, 0.0, 0.0, 1.700947279388607E9, 0.0, 2023-11-25 16:21:19.388
25.0, 18484.736202327753, 37734.72907957186, -44487.32518998685, -46932.13664676388, -34864.295704876866, -44100.81882486568, -28142.52265006574, -7953.801209187653, -0.1, 0.9460000000000001, 0.296, 192.0, 0.0, 0.0, 0.0, 0.0, 0.0, 0.0, 0.0, 0.0, 0.0, 1.700947279393569E9, 0.0, 2023-11-25 16:21:19.393
26.0, 18599.64652057249, 37645.45621221736, -44457.82088730585, -46978.11418510845, -34611.13984717606, -44169.41632859902, -28168.58478410063, -7988.334654371101, -0.1, 0.9460000000000001, 0.296, 192.0, 0.0, 0.0, 0.0, 0.0, 0.0, 0.0, 0.0, 0.0, 0.0, 1.700947279396541E9, 0.0, 2023-11-25 16:21:19.396
27.0, 18269.645365434335, 37603.0773047301, -44487.07932079784, -46959.24931278817, -34927.1935137741, -44501.33973376033, -28126.295283591186, -7934.399895000446, -0.1, 0.9460000000000001, 0.296, 192.0, 0.0, 0.0, 0.0, 0.0, 0.0, 0.0, 0.0, 0.0, 0.0, 1.700947279400545E9, 0.0, 2023-11-25 16:21:19.400
28.0, 18258.156568784307, 37651.155907053464, -44512.87323389926, -46952.789658640584, -35004.21762516709, -44325.67737408607, -28133.60430402807, -7934.176377555893, -0.108, 0.9440000000000001, 0.302, 192.0, 252.0, 160.0, 29.0, 128.0, 9.0, 112.0, 0.0, 0.0, 0.0, 1.700947279404579E9, 0.0, 2023-11-25 16:21:19.404
29.0, 18434.35537032549, 37724.983718989344, -44512.694419943626, -46935.15413226535, -34918.476333436534, -44111.8605866266, -28124.104812634567, -7927.113226308015, -0.108, 0.9440000000000001, 0.302, 192.0, 0.0, 0.0, 0.0, 0.0, 0.0, 0.0, 0.0, 0.0, 0.0, 1.700947279408584E9, 0.0, 2023-11-25 16:21:19.408
30.0, 18606.508506120266, 37660.29777053568, -44471.41074793467, -46970.29107454909, -34646.52265864881, -44120.577766964176, -28138.029949430223, -7952.750677198253, -0.108, 0.9440000000000001, 0.302, 192.0, 0.0, 0.0, 0.0, 0.0, 0.0, 0.0, 0.0, 0.0, 0.0, 1.700947279412664E9, 0.0, 2023-11-25 16:21:19.412
31.0, 18313.43243282228, 37599.29985991715, -44503.23963203903, -46968.748804181676, -34895.23051920301, -44466.87334381024, -28110.246731072275, -7922.9334500948735, -0.108, 0.9440000000000001, 0.302, 192.0, 0.0, 0.0, 0.0, 0.0, 0.0, 0.0, 0.0, 0.0, 0.0, 1.70094727941669E9, 0.0, 2023-11-25 16:21:19.416
32.0, 18226.30533293549, 37634.2803399897, -44534.39796380973, -46964.39021401289, -35046.26125648752, -44378.53924972287, -28119.790925954694, -7935.76335141222, -0.108, 0.9440000000000001, 0.302, 192.0, 0.0, 0.0, 0.0, 0.0, 0.0, 0.0, 0.0, 0.0, 0.0, 1.700947279421709E9, 0.0, 2023-11-25 16:21:19.421
33.0, 18381.31468073305, 37702.207291389386, -44551.206475640116, -46959.584588955, -34976.76968297597, -44152.31724409071, -28139.125184908535, -7958.3833168009905, -0.108, 0.9440000000000001, 0.302, 192.0, 0.0, 0.0, 0.0, 0.0, 0.0, 0.0, 0.0, 0.0, 0.0, 1.700947279424652E9, 0.0, 2023-11-25 16:21:19.424
34.0, 18585.34140412109, 37661.728282180826, -44504.088998328334, -46989.781795714116, -34709.26400533486, -44118.52140647428, -28172.183414957934, -7998.549401587177, -0.108, 0.9440000000000001, 0.302, 192.0, 0.0, 0.0, 0.0, 0.0, 0.0, 0.0, 0.0, 0.0, 0.0, 1.700947279427748E9, 0.0, 2023-11-25 16:21:19.427
35.0, 18374.318584718538, 37588.28044990068, -44517.231824068054, -46994.20744111627, -34836.668948730105, -44434.19509341659, -28158.77236828475, -7980.1092124115485, -0.108, 0.9440000000000001, 0.302, 192.0, 0.0, 0.0, 0.0, 0.0, 0.0, 0.0, 0.0, 0.0, 0.0, 1.7009472794327E9, 0.0, 2023-11-25 16:21:19.432
36.0, 18218.99631249861, 37626.70309861936, -44520.651640969714, -46959.83045814401, -35057.61594267082, -44446.01916623344, -28135.973588940335, -7955.030555132695, -0.108, 0.9440000000000001, 0.302, 192.0, 0.0, 0.0, 0.0, 0.0, 0.0, 0.0, 0.0, 0.0, 0.0, 1.700947279436682E9, 0.0, 2023-11-25 16:21:19.436
37.0, 18361.01929676763, 37696.19467213091, -44536.454324299615, -46952.20851328475, -34992.55001456142, -44180.5251455933, -28156.783063028226, -7977.248189121269, -0.108, 0.9440000000000001, 0.302, 192.0, 0.0, 0.0, 0.0, 0.0, 0.0, 0.0, 0.0, 0.0, 0.0, 1.700947279440856E9, 0.0, 2023-11-25 16:21:19.440
38.0, 18572.802075481664, 37669.73020669582, -44498.970448848064, -46974.91788565134, -34757.2532006804, -44098.62835390906, -28183.4039906745, -8013.30155292768, -0.11, 0.936, 0.302, 192.0, 252.0, 144.0, 29.0, 64.0, 9.0, 112.0, 0.0, 0.0, 0.0, 1.700947279444699E9, 0.0, 2023-11-25 16:21:19.444
39.0, 18453.64492579042, 37583.58658356507, -44496.48940521353, -46992.665170748856, -34756.694407069015, -44358.28856924636, -28176.63141210454, -8008.25005868078, -0.11, 0.936, 0.302, 192.0, 0.0, 0.0, 0.0, 0.0, 0.0, 0.0, 0.0, 0.0, 0.0, 1.70094727944876E9, 0.0, 2023-11-25 16:21:19.448
40.0, 18203.573608824445, 37594.22601392579, -44518.12589384626, -46969.82168791553, -35054.59845716935, -44480.01616954996, -28148.736435024315, -7977.538761799188, -0.11, 0.936, 0.302, 192.0, 0.0, 0.0, 0.0, 0.0, 0.0, 0.0, 0.0, 0.0, 0.0, 1.700947279452701E9, 0.0, 2023-11-25 16:21:19.452
41.0, 18323.423662593803, 37669.77491018473, -44534.55442602091, -46958.26583603214, -35006.430447868166, -44211.32584945272, -28155.24079266081, -7987.529991570711, -0.11, 0.936, 0.302, 192.0, 0.0, 0.0, 0.0, 0.0, 0.0, 0.0, 0.0, 0.0, 0.0, 1.700947279455746E9, 0.0, 2023-11-25 16:21:19.455
42.0, 18537.732188431288, 37680.369637056545, -44497.69639941411, -46964.14434482388, -34808.05871582731, -44088.52536541526, -28163.019199731258, -8001.902163255473, -0.11, 0.936, 0.302, 192.0, 0.0, 0.0, 0.0, 0.0, 0.0, 0.0, 0.0, 0.0, 0.0, 1.700947279460773E9, 0.0, 2023-11-25 16:21:19.460
43.0, 18512.407661963425, 37580.01030445222, -44483.815966107366, -46994.58742077201, -34690.06385684775, -44274.55893451678, -28166.371961399553, -8009.546459859188, -0.11, 0.936, 0.302, 192.0, 0.0, 0.0, 0.0, 0.0, 0.0, 0.0, 0.0, 0.0, 0.0, 1.700947279464762E9, 0.0, 2023-11-25 16:21:19.464
44.0, 18199.706757033677, 37571.941324703854, -44505.25128904001, -46965.53015298011, -35035.59947438234, -44496.824681380356, -28123.098984134078, -7965.602930260055, -0.11, 0.936, 0.302, 192.0, 0.0, 0.0, 0.0, 0.0, 0.0, 0.0, 0.0, 0.0, 0.0, 1.700947279468834E9, 0.0, 2023-11-25 16:21:19.468
45.0, 18286.99031913165, 37634.950892323366, -44521.90333865921, -46959.96456861074, -35011.593700837344, -44231.33066074022, -28130.74328073779, -7977.918741454929, -0.11, 0.936, 0.302, 192.0, 0.0, 0.0, 0.0, 0.0, 0.0, 0.0, 0.0, 0.0, 0.0, 1.700947279472773E9, 0.0, 2023-11-25 16:21:19.472
46.0, 18490.190027974848, 37668.97024738434, -44500.28920177093, -46957.75174590966, -34859.60183854125, -44073.59440011912, -28135.370091840043, -7980.511543811745, -0.11, 0.936, 0.302, 192.0, 0.0, 0.0, 0.0, 0.0, 0.0, 0.0, 0.0, 0.0, 0.0, 1.700947279475805E9, 0.0, 2023-11-25 16:21:19.475
47.0, 18552.216118838325, 37579.60797305202, -44471.12017525675, -46990.45234804778, -34649.540144150276, -44188.102386963656, -28141.829745987627, -7992.179154417415, -0.1, 0.934, 0.304, 192.0, 252.0, 224.0, 29.0, 48.0, 9.0, 128.0, 0.0, 0.0, 0.0, 1.700947279479844E9, 0.0, 2023-11-25 16:21:19.479
48.0, 18214.23539092963, 37555.08810938455, -44497.875213369756, -46964.16669656834, -34994.65107854022, -44488.912163843175, -28097.305071032653, -7944.94991838335, -0.1, 0.934, 0.304, 192.0, 0.0, 0.0, 0.0, 0.0, 0.0, 0.0, 0.0, 0.0, 0.0, 1.700947279484105E9, 0.0, 2023-11-25 16:21:19.484
49.0, 18265.80086538802, 37626.345470708075, -44509.49812048652, -46942.75372538015, -35007.6597938132, -44259.56091398727, -28091.22539654081, -7943.407648015935, -0.1, 0.934, 0.304, 192.0, 0.0, 0.0, 0.0, 0.0, 0.0, 0.0, 0.0, 0.0, 0.0, 1.700947279487834E9, 0.0, 2023-11-25 16:21:19.487
50.0, 18457.93646072584, 37687.03045690423, -44500.35625700429, -46935.176484009804, -34892.0342197459, -44078.400025177005, -28099.875521645015, -7954.650575476954, -0.1, 0.934, 0.304, 192.0, 0.0, 0.0, 0.0, 0.0, 0.0, 0.0, 0.0, 0.0, 0.0, 1.700947279492889E9, 0.0, 2023-11-25 16:21:19.492
51.0, 18593.20921816936, 37603.63609834148, -44467.588599632814, -46979.76821419814, -34632.44105964197, -44137.74390670585, -28127.770498725236, -7981.8079449901525, -0.1, 0.934, 0.304, 192.0, 0.0, 0.0, 0.0, 0.0, 0.0, 0.0, 0.0, 0.0, 0.0, 1.700947279496906E9, 0.0, 2023-11-25 16:21:19.496
52.0, 18269.66771717879, 37553.143507616944, -44507.84409139682, -46974.56025774006, -34945.36548201626, -44483.90537308519, -28099.920225133923, -7941.731267181786, -0.1, 0.934, 0.304, 192.0, 0.0, 0.0, 0.0, 0.0, 0.0, 0.0, 0.0, 0.0, 0.0, 1.700947279500916E9, 0.0, 2023-11-25 16:21:19.500
53.0, 18246.913641323288, 37608.48642688828, -44535.35908882131, -46968.54763848158, -35037.00763428302, -44332.472304400486, -28109.442068271885, -7949.755543441242, -0.1, 0.934, 0.304, 192.0, 0.0, 0.0, 0.0, 0.0, 0.0, 0.0, 0.0, 0.0, 0.0, 1.700947279503892E9, 0.0, 2023-11-25 16:21:19.503
54.0, 18407.376814767937, 37672.345360797095, -44552.324062862885, -46966.9383128808, -34965.41499679268, -44131.28425255827, -28128.485754547808, -7965.200598859859, -0.1, 0.934, 0.304, 192.0, 0.0, 0.0, 0.0, 0.0, 0.0, 0.0, 0.0, 0.0, 0.0, 1.70094727950786E9, 0.0, 2023-11-25 16:21:19.507
55.0, 18584.089706431594, 37617.89651130397, -44505.60891695129, -46995.97322892824, -34693.796598171786, -44136.916892161, -28149.22817340233, -7993.699073040376, -0.1, 0.934, 0.304, 192.0, 0.0, 0.0, 0.0, 0.0, 0.0, 0.0, 0.0, 0.0, 0.0, 1.700947279511948E9, 0.0, 2023-11-25 16:21:19.511
56.0, 18313.968874689206, 37552.785879705654, -44528.273585828974, -46993.53688878261, -34906.92048155314, -44475.03173053643, -28127.345815580586, -7970.743831484775, -0.1, 0.934, 0.304, 192.0, 0.0, 0.0, 0.0, 0.0, 0.0, 0.0, 0.0, 0.0, 0.0, 1.700947279516002E9, 0.0, 2023-11-25 16:21:19.516
57.0, 18212.044919973006, 37588.63807781197, -44548.479562816574, -46980.975208398726, -35069.819995143414, -44412.89388095068, -28131.056205160166, -7979.796287989175, -0.094, 0.9440000000000001, 0.304, 192.0, 253.0, 16.0, 29.0, 128.0, 9.0, 128.0, 0.0, 0.0, 0.0, 1.700947279519975E9, 0.0, 2023-11-25 16:21:19.519
58.0, 18364.550872391566, 37666.668017705444, -44552.56993205189, -46961.93152212281, -34998.31676463089, -44176.74770078036, -28140.689807020404, -7987.529991570711, -0.094, 0.9440000000000001, 0.304, 192.0, 0.0, 0.0, 0.0, 0.0, 0.0, 0.0, 0.0, 0.0, 0.0, 1.700947279524932E9, 0.0, 2023-11-25 16:21:19.524
59.0, 18574.210235382347, 37634.034470800696, -44492.399035978204, -46978.471813019736, -34721.401002574086, -44119.97426986388, -28159.420568873953, -8014.687361083908, -0.094, 0.9440000000000001, 0.304, 192.0, 0.0, 0.0, 0.0, 0.0, 0.0, 0.0, 0.0, 0.0, 0.0, 1.700947279529005E9, 0.0, 2023-11-25 16:21:19.529
60.0, 18386.947320335785, 37563.17944087737, -44491.504966199995, -46979.14236535339, -34810.875035628684, -44416.067828663334, -28139.929847708925, -7992.112099184049, -0.094, 0.9440000000000001, 0.304, 192.0, 0.0, 0.0, 0.0, 0.0, 0.0, 0.0, 0.0, 0.0, 0.0, 1.700947279531984E9, 0.0, 2023-11-25 16:21:19.531
61.0, 18203.394794868804, 37592.124949947, -44502.18910004963, -46953.706080163254, -35050.93277107868, -44447.89671276769, -28128.396347569986, -7969.268616350725, -0.094, 0.9440000000000001, 0.304, 192.0, 0.0, 0.0, 0.0, 0.0, 0.0, 0.0, 0.0, 0.0, 0.0, 1.700947279536001E9, 0.0, 2023-11-25 16:21:19.536
62.0, 18337.34879938946, 37666.91388689445, -44523.04327762643, -46945.34652773697, -34988.7055145151, -44175.294837390764, -28146.56831581215, -7983.909008968951, -0.094, 0.9440000000000001, 0.304, 192.0, 0.0, 0.0, 0.0, 0.0, 0.0, 0.0, 0.0, 0.0, 0.0, 1.70094727953999E9, 0.0, 2023-11-25 16:21:19.539
63.0, 18554.920679917417, 37666.802128172174, -44475.36700670326, -46949.12397254992, -34756.15796520209, -44076.5001268983, -28152.75974902627, -7995.978950974817, -0.094, 0.9440000000000001, 0.304, 192.0, 0.0, 0.0, 0.0, 0.0, 0.0, 0.0, 0.0, 0.0, 0.0, 1.700947279543994E9, 0.0, 2023-11-25 16:21:19.543
64.0, 18462.250347405716, 37589.73331329028, -44467.81211707737, -46961.81976340053, -34724.01615667536, -44309.33824888924, -28143.886106477512, -7982.590256046088, -0.094, 0.9440000000000001, 0.304, 192.0, 0.0, 0.0, 0.0, 0.0, 0.0, 0.0, 0.0, 0.0, 0.0, 1.700947279549303E9, 0.0, 2023-11-25 16:21:19.549
65.0, 18202.165448923763, 37603.18906345237, -44484.53122192994, -46927.39807693936, -35031.08442200237, -44449.72955581302, -28104.41292576944, -7941.105418337038, -0.094, 0.9440000000000001, 0.304, 192.0, 0.0, 0.0, 0.0, 0.0, 0.0, 0.0, 0.0, 0.0, 0.0, 1.700947279553014E9, 0.0, 2023-11-25 16:21:19.553
66.0, 18317.656912524333, 37681.286058579215, -44496.04237032442, -46911.52833837609, -34976.32264808687, -44172.45616584494, -28105.21758856983, -7940.5242729812, -0.094, 0.9440000000000001, 0.304, 192.0, 0.0, 0.0, 0.0, 0.0, 0.0, 0.0, 0.0, 0.0, 0.0, 1.70094727955705E9, 0.0, 2023-11-25 16:21:19.557
67.0, 18518.777909133187, 37688.639782505015, -44472.058948523874, -46926.19108273877, -34787.45040743952, -44046.3476236281, -28122.3390248226, -7958.942110412373, -0.098, 0.9440000000000001, 0.298, 192.0, 252.0, 240.0, 29.0, 128.0, 9.0, 80.0, 0.0, 0.0, 0.0, 1.700947279560038E9, 0.0, 2023-11-25 16:21:19.560
68.0, 18510.016025306704, 37592.840205769564, -44456.52448612744, -46961.462135489244, -34654.79280409728, -44227.21793976044, -28126.67526324693, -7963.457162792345, -0.098, 0.9440000000000001, 0.298, 192.0, 0.0, 0.0, 0.0, 0.0, 0.0, 0.0, 0.0, 0.0, 0.0, 1.700947279564072E9, 0.0, 2023-11-25 16:21:19.564
69.0, 18194.45409708668, 37580.72556027479, -44487.63811440922, -46943.580739925, -35012.35366014882, -44474.98702704752, -28092.49944597476, -7917.367865725502, -0.098, 0.9440000000000001, 0.298, 192.0, 0.0, 0.0, 0.0, 0.0, 0.0, 0.0, 0.0, 0.0, 0.0, 1.700947279568019E9, 0.0, 2023-11-25 16:21:19.568
70.0, 18274.272176536582, 37646.84202037359, -44514.59431822233, -46950.219208028226, -34997.623860552776, -44220.44536119048, -28113.89006541849, -7939.384334013979, -0.098, 0.9440000000000001, 0.298, 192.0, 0.0, 0.0, 0.0, 0.0, 0.0, 0.0, 0.0, 0.0, 0.0, 1.700947279572016E9, 0.0, 2023-11-25 16:21:19.572
71.0, 18468.106504453004, 37689.15387262748, -44499.30572501489, -46953.6837284188, -34858.55130655185, -44072.23094370734, -28124.32833007912, -7953.510636509734, -0.098, 0.9440000000000001, 0.298, 192.0, 0.0, 0.0, 0.0, 0.0, 0.0, 0.0, 0.0, 0.0, 0.0, 1.700947279576057E9, 0.0, 2023-11-25 16:21:19.576
72.0, 18553.177243849903, 37606.78769430968, -44465.17461123164, -46986.29492357909, -34641.64997835756, -44182.447395616466, -28137.269990118744, -7962.71955522532, -0.098, 0.9440000000000001, 0.298, 192.0, 0.0, 0.0, 0.0, 0.0, 0.0, 0.0, 0.0, 0.0, 0.0, 1.700947279581222E9, 0.0, 2023-11-25 16:21:19.581
73.0, 18230.596867870914, 37582.40194110894, -44490.63324816624, -46960.36690001094, -34985.28569761344, -44489.22508826555, -28092.588852952584, -7909.656513888421, -0.098, 0.9440000000000001, 0.298, 192.0, 0.0, 0.0, 0.0, 0.0, 0.0, 0.0, 0.0, 0.0, 0.0, 1.700947279585098E9, 0.0, 2023-11-25 16:21:19.585
74.0, 18264.929147354265, 37637.47663944682, -44518.17059733517, -46962.08798433399, -35014.90175901673, -44277.375254318154, -28098.377954766507, -7928.0967030640495, -0.098, 0.9440000000000001, 0.298, 192.0, 0.0, 0.0, 0.0, 0.0, 0.0, 0.0, 0.0, 0.0, 0.0, 1.700947279588081E9, 0.0, 2023-11-25 16:21:19.588
75.0, 18441.440873317824, 37693.28894535171, -44520.74104794754, -46961.10450757796, -34912.62017638924, -44101.198804521424, -28113.644196229485, -7940.613679959021, -0.098, 0.9440000000000001, 0.298, 192.0, 0.0, 0.0, 0.0, 0.0, 0.0, 0.0, 0.0, 0.0, 0.0, 1.700947279592108E9, 0.0, 2023-11-25 16:21:19.592
76.0, 18580.558130807654, 37617.181255481395, -44484.866498096766, -46998.29781035159, -34646.20973422644, -44150.39499406755, -28142.388539599007, -7972.643729763477, -0.098, 0.9440000000000001, 0.298, 192.0, 0.0, 0.0, 0.0, 0.0, 0.0, 0.0, 0.0, 0.0, 0.0, 1.700947279596177E9, 0.0, 2023-11-25 16:21:19.596
77.0, 18263.632746175856, 37567.64978976844, -44514.81783566688, -46982.226906088224, -34933.89903711069, -44493.56132668988, -28110.157324094456, -7929.840139131563, -0.10200000000000001, 0.9380000000000001, 0.294, 192.0, 252.0, 208.0, 29.0, 80.0, 9.0, 48.0, 0.0, 0.0, 0.0, 1.700947279600341E9, 0.0, 2023-11-25 16:21:19.600
78.0, 18232.51911789407, 37625.8313805856, -44529.68174572966, -46963.496144234676, -35034.861866815314, -44354.287606988866, -28109.933806649904, -7931.762389154719, -0.10200000000000001, 0.9380000000000001, 0.294, 192.0, 0.0, 0.0, 0.0, 0.0, 0.0, 0.0, 0.0, 0.0, 0.0, 1.700947279604538E9, 0.0, 2023-11-25 16:21:19.604
79.0, 18399.8442768865, 37691.32199183965, -44544.92563544818, -46964.479620990714, -34962.46456652458, -44145.61172075412, -28136.197106384887, -7960.462029035334, -0.10200000000000001, 0.9380000000000001, 0.294, 192.0, 0.0, 0.0, 0.0, 0.0, 0.0, 0.0, 0.0, 0.0, 0.0, 1.700947279609202E9, 0.0, 2023-11-25 16:21:19.609
80.0, 18581.47455233032, 37631.866351588535, -44499.46218722608, -46999.81772897455, -34686.91226087955, -44139.59910149564, -28164.360304398575, -8000.628113821521, -0.10200000000000001, 0.9380000000000001, 0.294, 192.0, 0.0, 0.0, 0.0, 0.0, 0.0, 0.0, 0.0, 0.0, 0.0, 1.700947279613203E9, 0.0, 2023-11-25 16:21:19.613
81.0, 18316.00288343464, 37565.86165021201, -44518.66233571319, -46998.789548729605, -34880.41131262914, -44475.52346891445, -28147.350626868087, -7978.701052510864, -0.10200000000000001, 0.9380000000000001, 0.294, 192.0, 0.0, 0.0, 0.0, 0.0, 0.0, 0.0, 0.0, 0.0, 0.0, 1.700947279616173E9, 0.0, 2023-11-25 16:21:19.616
82.0, 18197.471582588147, 37608.26290944373, -44531.78280970846, -46977.82361243053, -35060.43226247219, -44432.89869223818, -28149.630504802528, -7973.202523374859, -0.10200000000000001, 0.9380000000000001, 0.294, 192.0, 0.0, 0.0, 0.0, 0.0, 0.0, 0.0, 0.0, 0.0, 0.0, 1.700947279620186E9, 0.0, 2023-11-25 16:21:19.620
83.0, 18357.510072888144, 37689.57855577213, -44539.874141201275, -46962.11033607845, -34988.68316277065, -44180.9274769935, -28169.56826085666, -7989.3181311271355, -0.10200000000000001, 0.9380000000000001, 0.294, 192.0, 0.0, 0.0, 0.0, 0.0, 0.0, 0.0, 0.0, 0.0, 0.0, 1.700947279624209E9, 0.0, 2023-11-25 16:21:19.624
84.0, 18570.142217891484, 37655.06746233314, -44491.9520010891, -46984.752653211675, -34722.07155490775, -44118.744923918835, -28191.24945297831, -8020.230593708825, -0.10200000000000001, 0.9380000000000001, 0.294, 192.0, 0.0, 0.0, 0.0, 0.0, 0.0, 0.0, 0.0, 0.0, 0.0, 1.700947279628205E9, 0.0, 2023-11-25 16:21:19.628
85.0, 18389.674233159334, 37566.82277522359, -44502.07734132736, -46998.946010940796, -34793.37361972018, -44414.12322689572, -28184.946261041914, -8009.099424970082, -0.10200000000000001, 0.9380000000000001, 0.294, 192.0, 0.0, 0.0, 0.0, 0.0, 0.0, 0.0, 0.0, 0.0, 0.0, 1.70094727963226E9, 0.0, 2023-11-25 16:21:19.632
86.0, 18186.07219291594, 37594.76245579272, -44512.3591437768, -46967.92178963683, -35050.28457048948, -44473.400053191195, -28159.50997585177, -7981.942055456884, -0.10200000000000001, 0.9380000000000001, 0.294, 192.0, 0.0, 0.0, 0.0, 0.0, 0.0, 0.0, 0.0, 0.0, 0.0, 1.700947279637787E9, 0.0, 2023-11-25 16:21:19.637
87.0, 18321.546116059555, 37669.55139274018, -44524.362030549295, -46952.47673421821, -34983.58696503484, -44200.395846414074, -28166.617830588562, -7985.630093292009, -0.10400000000000001, 0.9380000000000001, 0.298, 192.0, 252.0, 192.0, 29.0, 80.0, 9.0, 80.0, 0.0, 0.0, 0.0, 1.700947279642206E9, 0.0, 2023-11-25 16:21:19.642
88.0, 18534.178261062894, 37661.77298566973, -44477.98216080453, -46960.38925175539, -34754.54863960131, -44095.29794398522, -28173.837444047625, -7999.331712643113, -0.10400000000000001, 0.9380000000000001, 0.298, 192.0, 0.0, 0.0, 0.0, 0.0, 0.0, 0.0, 0.0, 0.0, 0.0, 1.70094727964522E9, 0.0, 2023-11-25 16:21:19.645
89.0, 18459.03169620415, 37583.94421147635, -44454.6916430821, -46967.832382659006, -34695.182406328015, -44318.56951934928, -28149.161118168966, -7979.393956588979, -0.10400000000000001, 0.9380000000000001, 0.298, 192.0, 0.0, 0.0, 0.0, 0.0, 0.0, 0.0, 0.0, 0.0, 0.0, 1.700947279648241E9, 0.0, 2023-11-25 16:21:19.648
90.0, 18186.630986527325, 37586.40290336644, -44474.20471599158, -46939.82564685651, -35011.034907225956, -44473.243590980004, -28115.56644625264, -7941.194825314859, -0.10400000000000001, 0.9380000000000001, 0.298, 192.0, 0.0, 0.0, 0.0, 0.0, 0.0, 0.0, 0.0, 0.0, 0.0, 1.700947279652231E9, 0.0, 2023-11-25 16:21:19.652
91.0, 18292.15357210083, 37647.95960759636, -44502.52437621646, -46937.23284449969, -34972.366389318275, -44196.618401601125, -28132.66553076095, -7953.331822554091, -0.10400000000000001, 0.9380000000000001, 0.298, 192.0, 0.0, 0.0, 0.0, 0.0, 0.0, 0.0, 0.0, 0.0, 0.0, 1.70094727965623E9, 0.0, 2023-11-25 16:21:19.656
92.0, 18492.13462974246, 37666.28803804971, -44483.65950389618, -46946.508818448645, -34803.27544251388, -44066.598304104606, -28146.970647212347, -7967.256959349747, -0.10400000000000001, 0.9380000000000001, 0.298, 192.0, 0.0, 0.0, 0.0, 0.0, 0.0, 0.0, 0.0, 0.0, 0.0, 1.700947279660234E9, 0.0, 2023-11-25 16:21:19.660
93.0, 18507.13265027197, 37586.849938255546, -44456.25626519397, -46963.89847563487, -34642.65580685804, -44223.70871588096, -28138.09700466359, -7957.131619111493, -0.10400000000000001, 0.9380000000000001, 0.298, 192.0, 0.0, 0.0, 0.0, 0.0, 0.0, 0.0, 0.0, 0.0, 0.0, 1.700947279664269E9, 0.0, 2023-11-25 16:21:19.664
94.0, 18192.822419741442, 37582.58075506458, -44480.239686994515, -46930.88494907438, -34988.660811026195, -44474.2494194805, -28089.45960872884, -7898.771214338686, -0.10400000000000001, 0.9380000000000001, 0.298, 192.0, 0.0, 0.0, 0.0, 0.0, 0.0, 0.0, 0.0, 0.0, 0.0, 1.700947279669231E9, 0.0, 2023-11-25 16:21:19.669
95.0, 18274.294528281036, 37648.18312504091, -44512.1579780767, -46930.25910022964, -34978.311953343386, -44221.63000364661, -28108.883274660504, -7913.903345334929, -0.10400000000000001, 0.9380000000000001, 0.298, 192.0, 0.0, 0.0, 0.0, 0.0, 0.0, 0.0, 0.0, 0.0, 0.0, 1.700947279672241E9, 0.0, 2023-11-25 16:21:19.672
96.0, 18470.31932715408, 37696.64170702001, -44508.000553608006, -46931.15317000785, -34849.99058842547, -44068.49820238331, -28124.864771946046, -7928.85666237553, -0.10400000000000001, 0.9380000000000001, 0.298, 192.0, 0.0, 0.0, 0.0, 0.0, 0.0, 0.0, 0.0, 0.0, 0.0, 1.700947279676255E9, 0.0, 2023-11-25 16:21:19.676
97.0, 18562.162645120938, 37619.39407818247, -44478.40684394918, -46967.541809981085, -34625.44496362746, -44173.84197400117, -28140.823917487138, -7955.365831299524, -0.10400000000000001, 0.934, 0.296, 192.0, 252.0, 192.0, 29.0, 48.0, 9.0, 64.0, 0.0, 0.0, 0.0, 1.700947279680274E9, 0.0, 2023-11-25 16:21:19.680
98.0, 18228.205231214193, 37578.043350940156, -44517.09771360132, -46958.37759475441, -34966.37612180426, -44501.09386457132, -28105.686975203393, -7921.480586705278, -0.10400000000000001, 0.934, 0.296, 192.0, 0.0, 0.0, 0.0, 0.0, 0.0, 0.0, 0.0, 0.0, 0.0, 1.700947279684291E9, 0.0, 2023-11-25 16:21:19.684
99.0, 18249.394684957824, 37630.97228181032, -44542.08696390235, -46959.025795343616, -35011.526645603975, -44311.95340299051, -28121.66847248894, -7940.971307870306, -0.10400000000000001, 0.934, 0.296, 192.0, 0.0, 0.0, 0.0, 0.0, 0.0, 0.0, 0.0, 0.0, 0.0, 1.700947279688341E9, 0.0, 2023-11-25 16:21:19.688
100.0, 18434.444777303313, 37703.90602396799, -44531.04520214143, -46945.54769343707, -34915.79412410189, -44128.0656013567, -28128.195181869887, -7947.028630617694, -0.10400000000000001, 0.934, 0.296, 192.0, 0.0, 0.0, 0.0, 0.0, 0.0, 0.0, 0.0, 0.0, 0.0, 1.700947279692328E9, 0.0, 2023-11-25 16:21:19.692
101.0, 18589.610587312054, 37631.374613210515, -44489.672123154654, -46985.020874145135, -34645.74034759287, -44159.49215406086, -28152.625638559537, -7977.158782143449, -0.10400000000000001, 0.934, 0.296, 192.0, 0.0, 0.0, 0.0, 0.0, 0.0, 0.0, 0.0, 0.0, 0.0, 1.700947279696331E9, 0.0, 2023-11-25 16:21:19.696
102.0, 18275.65798469281, 37568.655618268924, -44524.27262357147, -46987.188993357304, -34920.91267358216, -44507.441759996625, -28130.497411548786, -7951.4766277643, -0.10400000000000001, 0.934, 0.296, 192.0, 0.0, 0.0, 0.0, 0.0, 0.0, 0.0, 0.0, 0.0, 0.0, 1.700947279699538E9, 0.0, 2023-11-25 16:21:19.699
103.0, 18220.762100310578, 37616.39894442546, -44536.38726906625, -46967.25123730317, -35035.33125344888, -44380.39444451266, -28126.00471091327, -7951.297813808658, -0.10400000000000001, 0.934, 0.296, 192.0, 0.0, 0.0, 0.0, 0.0, 0.0, 0.0, 0.0, 0.0, 0.0, 1.700947279703305E9, 0.0, 2023-11-25 16:21:19.703
104.0, 18383.885131345407, 37686.56107027067, -44541.8634464578, -46955.56127495304, -34958.62006647827, -44153.79245922476, -28141.315655865154, -7963.323052325613, -0.10400000000000001, 0.934, 0.296, 192.0, 0.0, 0.0, 0.0, 0.0, 0.0, 0.0, 0.0, 0.0, 0.0, 1.700947279708307E9, 0.0, 2023-11-25 16:21:19.708
105.0, 18581.876883730518, 37638.39306096948, -44487.436948709124, -46978.9859031422, -34675.44581597398, -44123.05881059871, -28160.58285958563, -7986.993549703783, -0.10400000000000001, 0.934, 0.296, 192.0, 0.0, 0.0, 0.0, 0.0, 0.0, 0.0, 0.0, 0.0, 0.0, 1.700947279712329E9, 0.0, 2023-11-25 16:21:19.712
106.0, 18338.064055212028, 37569.88496421397, -44504.021943094966, -46980.72933920972, -34840.71461447652, -44448.03082323442, -28140.108661664566, -7960.462029035334, -0.10400000000000001, 0.934, 0.296, 192.0, 0.0, 0.0, 0.0, 0.0, 0.0, 0.0, 0.0, 0.0, 0.0, 1.700947279716372E9, 0.0, 2023-11-25 16:21:19.716
107.0, 18211.93316125073, 37613.98495602429, -44512.113274587784, -46951.9849958402, -35033.811334825914, -44420.11349440974, -28121.199085855376, -7939.719610180809, -0.10200000000000001, 0.9380000000000001, 0.294, 192.0, 252.0, 208.0, 29.0, 80.0, 9.0, 48.0, 0.0, 0.0, 0.0, 1.700947279720349E9, 0.0, 2023-11-25 16:21:19.720
108.0, 18360.929889789808, 37681.48722427931, -44532.31925157538, -46950.219208028226, -34969.75123521701, -44165.81769774172, -28138.924019208436, -7957.645709233965, -0.10200000000000001, 0.9380000000000001, 0.294, 192.0, 0.0, 0.0, 0.0, 0.0, 0.0, 0.0, 0.0, 0.0, 0.0, 1.700947279724365E9, 0.0, 2023-11-25 16:21:19.724
109.0, 18569.605776024553, 37654.21809604384, -44484.97825681904, -46973.73324319521, -34717.265929849855, -44102.875185355566, -28163.220365431353, -7988.58052356011, -0.10200000000000001, 0.9380000000000001, 0.294, 192.0, 0.0, 0.0, 0.0, 0.0, 0.0, 0.0, 0.0, 0.0, 0.0, 1.700947279727406E9, 0.0, 2023-11-25 16:21:19.727
110.0, 18406.7956694121, 37578.28922012916, -44484.642980652214, -46986.429034045825, -34758.527250114355, -44380.95323812404, -28144.57901055563, -7971.906122196451, -0.10200000000000001, 0.9380000000000001, 0.294, 192.0, 0.0, 0.0, 0.0, 0.0, 0.0, 0.0, 0.0, 0.0, 0.0, 1.700947279731372E9, 0.0, 2023-11-25 16:21:19.731
111.0, 18178.494951545592, 37602.96554600782, -44497.62934418075, -46957.05884183155, -35034.28072145948, -44465.75575658748, -28108.637405471494, -7934.578708956088, -0.10200000000000001, 0.9380000000000001, 0.294, 192.0, 0.0, 0.0, 0.0, 0.0, 0.0, 0.0, 0.0, 0.0, 0.0, 1.700947279736388E9, 0.0, 2023-11-25 16:21:19.736
112.0, 18311.107851398927, 37684.571765014145, -44508.8052164084, -46942.172580024315, -34973.64043875223, -44187.49888986336, -28112.86188517355, -7936.456255490334, -0.10200000000000001, 0.9380000000000001, 0.294, 192.0, 0.0, 0.0, 0.0, 0.0, 0.0, 0.0, 0.0, 0.0, 0.0, 1.700947279740373E9, 0.0, 2023-11-25 16:21:19.740
113.0, 18526.86924062601, 37683.454177791384, -44468.147393244195, -46951.336795250994, -34756.38148264665, -44078.44472866592, -28128.10577489207, -7951.789552186675, -0.10200000000000001, 0.9380000000000001, 0.294, 192.0, 0.0, 0.0, 0.0, 0.0, 0.0, 0.0, 0.0, 0.0, 0.0, 1.700947279744384E9, 0.0, 2023-11-25 16:21:19.744
114.0, 18464.686687551344, 37584.815929510114, -44457.46325939456, -46975.588437984996, -34677.92685960852, -44292.64149578113, -28129.491583048297, -7953.600043487555, -0.10200000000000001, 0.9380000000000001, 0.294, 192.0, 0.0, 0.0, 0.0, 0.0, 0.0, 0.0, 0.0, 0.0, 0.0, 1.700947279748415E9, 0.0, 2023-11-25 16:21:19.748
115.0, 18173.957547421163, 37587.878118500485, -44472.95301830209, -46940.60795791244, -35005.55872983441, -44477.42336719315, -28084.94455634887, -7906.840194087053, -0.10200000000000001, 0.9380000000000001, 0.294, 192.0, 0.0, 0.0, 0.0, 0.0, 0.0, 0.0, 0.0, 0.0, 0.0, 1.700947279751418E9, 0.0, 2023-11-25 16:21:19.751
116.0, 18281.17886557327, 37657.4367472454, -44492.17551853365, -46935.15413226535, -34960.63172347924, -44205.022657516325, -28104.591739725085, -7926.420322229901, -0.10200000000000001, 0.9380000000000001, 0.294, 192.0, 0.0, 0.0, 0.0, 0.0, 0.0, 0.0, 0.0, 0.0, 0.0, 1.700947279755457E9, 0.0, 2023-11-25 16:21:19.755
117.0, 18490.055917508118, 37688.57272727165, -44465.44283216511, -46934.61769039842, -34794.98294532096, -44077.79652807672, -28115.789963697192, -7939.540796225167, -0.10400000000000001, 0.9400000000000001, 0.29, 192.0, 252.0, 192.0, 29.0, 96.0, 9.0, 16.0, 0.0, 0.0, 0.0, 1.700947279759512E9, 0.0, 2023-11-25 16:21:19.759
118.0, 18533.038322095672, 37610.00634551124, -44439.26893940794, -46961.93152212281, -34617.06305945671, -44228.648451405585, -28125.13299287951, -7954.583520243588, -0.10400000000000001, 0.9400000000000001, 0.29, 192.0, 0.0, 0.0, 0.0, 0.0, 0.0, 0.0, 0.0, 0.0, 0.0, 1.700947279763488E9, 0.0, 2023-11-25 16:21:19.763
119.0, 18206.36757688136, 37592.19200518036, -44480.06087303888, -46948.4310684718, -34973.88630794124, -44511.93446063215, -28102.55773097965, -7927.180281541381, -0.10400000000000001, 0.9400000000000001, 0.29, 192.0, 0.0, 0.0, 0.0, 0.0, 0.0, 0.0, 0.0, 0.0, 0.0, 1.700947279772258E9, 0.0, 2023-11-25 16:21:19.772
120.0, 18273.221644547182, 37659.02372110173, -44512.18032982115, -46950.219208028226, -34975.942668431126, -44276.05650139529, -28125.75884172426, -7942.602985215543, -0.10400000000000001, 0.9400000000000001, 0.29, 192.0, 0.0, 0.0, 0.0, 0.0, 0.0, 0.0, 0.0, 0.0, 0.0, 1.700947279772344E9, 0.0, 2023-11-25 16:21:19.772
121.0, 18463.50204509521, 37711.1032856826, -44509.22989955305, -46947.31348124904, -34861.68055077559, -44115.12394131708, -28140.823917487138, -7946.112209095027, -0.10400000000000001, 0.9400000000000001, 0.29, 192.0, 0.0, 0.0, 0.0, 0.0, 0.0, 0.0, 0.0, 0.0, 0.0, 1.700947279776519E9, 0.0, 2023-11-25 16:21:19.776
122.0, 18573.316165604134, 37624.75849685175, -44482.273695739954, -46987.30075207958, -34626.58490259467, -44200.59701211417, -28167.1989759444, -7976.130601898504, -0.10400000000000001, 0.9400000000000001, 0.29, 192.0, 0.0, 0.0, 0.0, 0.0, 0.0, 0.0, 0.0, 0.0, 0.0, 1.700947279779493E9, 0.0, 2023-11-25 16:21:19.779
123.0, 18241.5045191651, 37582.11136843102, -44520.85280666981, -46976.34839729648, -34958.798880433904, -44531.559292263904, -28136.733548251814, -7939.965479369817, -0.10400000000000001, 0.9400000000000001, 0.29, 192.0, 0.0, 0.0, 0.0, 0.0, 0.0, 0.0, 0.0, 0.0, 0.0, 1.700947279783508E9, 0.0, 2023-11-25 16:21:19.783
124.0, 18245.259612233593, 37640.06944180363, -44541.706984246615, -46966.69244369178, -35019.59562535234, -44343.02232778339, -28141.47211807634, -7944.659345705431, -0.10400000000000001, 0.9400000000000001, 0.29, 192.0, 0.0, 0.0, 0.0, 0.0, 0.0, 0.0, 0.0, 0.0, 0.0, 1.70094727978755E9, 0.0, 2023-11-25 16:21:19.787
125.0, 18414.88700090492, 37701.782608244735, -44547.40667908271, -46963.76436516814, -34934.3460719998, -44147.64572949955, -28160.448749118896, -7965.155895370948, -0.10400000000000001, 0.9400000000000001, 0.29, 192.0, 0.0, 0.0, 0.0, 0.0, 0.0, 0.0, 0.0, 0.0, 0.0, 1.700947279791541E9, 0.0, 2023-11-25 16:21:19.791
126.0, 18582.30156687517, 37641.25408425976, -44494.09776855681, -46991.36876957044, -34660.82777510021, -44170.77978501079, -28177.525481882753, -7998.504698098266, -0.10400000000000001, 0.9400000000000001, 0.29, 192.0, 0.0, 0.0, 0.0, 0.0, 0.0, 0.0, 0.0, 0.0, 0.0, 1.70094727979654E9, 0.0, 2023-11-25 16:21:19.796
127.0, 18294.880484924375, 37587.67695280039, -44511.710943187594, -46978.740033953196, -34902.740705339995, -44508.04525709692, -28152.178603670432, -7971.324976840613, -0.10400000000000001, 0.9420000000000001, 0.292, 192.0, 252.0, 192.0, 29.0, 112.0, 9.0, 32.0, 0.0, 0.0, 0.0, 1.700947279800497E9, 0.0, 2023-11-25 16:21:19.800
128.0, 18229.23341145914, 37643.042223816185, -44519.35523979131, -46953.773135396616, -35026.770535322496, -44400.890994178175, -28150.770443769747, -7968.978043672806, -0.10400000000000001, 0.9420000000000001, 0.292, 192.0, 0.0, 0.0, 0.0, 0.0, 0.0, 0.0, 0.0, 0.0, 0.0, 1.700947279804521E9, 0.0, 2023-11-25 16:21:19.804
129.0, 18389.763640137153, 37718.12173344156, -44518.01413512399, -46932.315460719525, -34938.68231042413, -44156.80994472623, -28159.10764445158, -7975.147125142471, -0.10400000000000001, 0.9420000000000001, 0.292, 192.0, 0.0, 0.0, 0.0, 0.0, 0.0, 0.0, 0.0, 0.0, 0.0, 1.700947279807509E9, 0.0, 2023-11-25 16:21:19.807
130.0, 18590.370546623533, 37675.0946253651, -44456.94916927209, -46945.86061785944, -34653.38464419659, -44112.97817384937, -28169.076522478645, -7993.699073040376, -0.10400000000000001, 0.9420000000000001, 0.292, 192.0, 0.0, 0.0, 0.0, 0.0, 0.0, 0.0, 0.0, 0.0, 0.0, 1.700947279811531E9, 0.0, 2023-11-25 16:21:19.811
131.0, 18366.36136369245, 37596.52824360469, -44472.72950085754, -46950.77800163961, -34791.78664586385, -44422.303965366365, -28156.403083372486, -7971.749659985264, -0.10400000000000001, 0.9420000000000001, 0.292, 192.0, 0.0, 0.0, 0.0, 0.0, 0.0, 0.0, 0.0, 0.0, 0.0, 1.700947279815577E9, 0.0, 2023-11-25 16:21:19.815
132.0, 18208.870972260353, 37622.858598573046, -44490.34267548832, -46934.50593167615, -35005.13404668976, -44421.231081632504, -28144.57901055563, -7957.824523189608, -0.10400000000000001, 0.9420000000000001, 0.292, 192.0, 0.0, 0.0, 0.0, 0.0, 0.0, 0.0, 0.0, 0.0, 0.0, 1.700947279819743E9, 0.0, 2023-11-25 16:21:19.819
133.0, 18349.284630928592, 37696.820520975656, -44506.48063498505, -46929.923824062804, -34943.68910118212, -44168.29874137625, -28150.636333303017, -7965.737040726786, -0.10400000000000001, 0.9420000000000001, 0.292, 192.0, 0.0, 0.0, 0.0, 0.0, 0.0, 0.0, 0.0, 0.0, 0.0, 1.700947279824589E9, 0.0, 2023-11-25 16:21:19.824
134.0, 18564.420171310925, 37687.1422156265, -44448.70137556808, -46938.596300911464, -34696.54586273979, -44090.76053986079, -28143.260257632766, -7968.91098843944, -0.10400000000000001, 0.9420000000000001, 0.292, 192.0, 0.0, 0.0, 0.0, 0.0, 0.0, 0.0, 0.0, 0.0, 0.0, 1.700947279828736E9, 0.0, 2023-11-25 16:21:19.828
135.0, 18432.07549239105, 37605.60305185355, -44445.97446274453, -46952.789658640584, -34711.543883269296, -44349.90666507562, -28121.221437599834, -7944.234662560781, -0.10400000000000001, 0.9420000000000001, 0.292, 192.0, 0.0, 0.0, 0.0, 0.0, 0.0, 0.0, 0.0, 0.0, 0.0, 1.700947279832594E9, 0.0, 2023-11-25 16:21:19.832
136.0, 18196.577512809934, 37614.36493568002, -44471.857782823776, -46936.56229216603, -35005.156398434214, -44454.35636691527, -28098.46736174433, -7917.434920958868, -0.10400000000000001, 0.9420000000000001, 0.292, 192.0, 0.0, 0.0, 0.0, 0.0, 0.0, 0.0, 0.0, 0.0, 0.0, 1.700947279835595E9, 0.0, 2023-11-25 16:21:19.835
137.0, 18323.78129050509, 37682.22483184634, -44502.18910004963, -46939.89270208987, -34960.207040334586, -44186.78363404079, -28119.23213234331, -7936.836235146075, -0.106, 0.9420000000000001, 0.28800000000000003, 192.0, 252.0, 176.0, 29.0, 112.0, 9.0, 0.0, 0.0, 0.0, 0.0, 1.700947279839602E9, 0.0, 2023-11-25 16:21:19.839
138.0, 18532.43482499538, 37694.160663385475, -44466.91804729916, -46943.714850391734, -34764.338703672736, -44083.31740895718, -28124.060109145656, -7946.1792643283925, -0.106, 0.9420000000000001, 0.28800000000000003, 192.0, 0.0, 0.0, 0.0, 0.0, 0.0, 0.0, 0.0, 0.0, 0.0, 1.700947279843612E9, 0.0, 2023-11-25 16:21:19.843
139.0, 18492.179333231372, 37601.69149657387, -44456.815058805354, -46968.033548359104, -34660.87247858912, -44279.56572527477, -28125.66943474644, -7944.614642216521, -0.106, 0.9420000000000001, 0.28800000000000003, 192.0, 0.0, 0.0, 0.0, 0.0, 0.0, 0.0, 0.0, 0.0, 0.0, 1.700947279847647E9, 0.0, 2023-11-25 16:21:19.847
140.0, 18194.69996627569, 37603.03260124118, -44480.06087303888, -46935.06472528753, -34994.82989249586, -44483.70420738509, -28089.906643617946, -7895.731377092765, -0.106, 0.9420000000000001, 0.28800000000000003, 192.0, 0.0, 0.0, 0.0, 0.0, 0.0, 0.0, 0.0, 0.0, 0.0, 1.700947279851634E9, 0.0, 2023-11-25 16:21:19.851
141.0, 18295.66279598031, 37674.93816315391, -44504.42427449516, -46931.46609443022, -34966.53258401544, -44221.38413445761, -28107.005728126256, -7913.053979045628, -0.106, 0.9420000000000001, 0.28800000000000003, 192.0, 0.0, 0.0, 0.0, 0.0, 0.0, 0.0, 0.0, 0.0, 0.0, 1.700947279856691E9, 0.0, 2023-11-25 16:21:19.856
142.0, 18502.058804280616, 37710.32097462666, -44481.13375677273, -46934.7294491207, -34807.14229430465, -44078.690597854926, -28118.315710820643, -7925.660362918421, -0.106, 0.9420000000000001, 0.28800000000000003, 192.0, 0.0, 0.0, 0.0, 0.0, 0.0, 0.0, 0.0, 0.0, 0.0, 1.700947279860696E9, 0.0, 2023-11-25 16:21:19.860
143.0, 18548.505729258744, 37621.24927297226, -44457.55266637238, -46970.60399897146, -34617.308928645725, -44216.46675067744, -28131.771460982738, -7936.120979323505, -0.106, 0.9420000000000001, 0.28800000000000003, 192.0, 0.0, 0.0, 0.0, 0.0, 0.0, 0.0, 0.0, 0.0, 0.0, 1.700947279863672E9, 0.0, 2023-11-25 16:21:19.863
144.0, 18217.87872527584, 37597.86934827201, -44493.114291800775, -46950.219208028226, -34971.606430006796, -44508.559347219394, -28094.46639948683, -7889.4728886452785, -0.106, 0.9420000000000001, 0.28800000000000003, 192.0, 0.0, 0.0, 0.0, 0.0, 0.0, 0.0, 0.0, 0.0, 0.0, 1.700947279867768E9, 0.0, 2023-11-25 16:21:19.867
145.0, 18275.501522481623, 37663.33760778161, -44519.77992293596, -46945.01125157014, -34983.65402026821, -44282.2032311205, -28113.487734018297, -7898.905324805418, -0.106, 0.9420000000000001, 0.28800000000000003, 192.0, 0.0, 0.0, 0.0, 0.0, 0.0, 0.0, 0.0, 0.0, 0.0, 1.700947279871677E9, 0.0, 2023-11-25 16:21:19.871
146.0, 18460.328097382557, 37709.42690484845, -44529.54763526293, -46952.99082434068, -34874.018713714926, -44114.43103723897, -28149.85402224708, -7931.047133332149, -0.106, 0.9420000000000001, 0.28800000000000003, 192.0, 0.0, 0.0, 0.0, 0.0, 0.0, 0.0, 0.0, 0.0, 0.0, 1.700947279875707E9, 0.0, 2023-11-25 16:21:19.875
147.0, 18582.81565699764, 37637.186066768896, -44495.43887322413, -46988.15011836888, -34629.93766426297, -44191.857480032144, -28171.266993435263, -7960.4396772908785, -0.10400000000000001, 0.9460000000000001, 0.29, 192.0, 252.0, 192.0, 29.0, 144.0, 9.0, 16.0, 0.0, 0.0, 0.0, 1.700947279879808E9, 0.0, 2023-11-25 16:21:19.879
148.0, 18261.643440919335, 37606.564176865126, -44515.66720195618, -46962.445612245276, -34937.743537157, -44519.08701885784, -28114.94059740789, -7908.740092365753, -0.10400000000000001, 0.9460000000000001, 0.29, 192.0, 0.0, 0.0, 0.0, 0.0, 0.0, 0.0, 0.0, 0.0, 0.0, 1.700947279884756E9, 0.0, 2023-11-25 16:21:19.884
149.0, 18259.140045540338, 37663.31525603715, -44528.11712361778, -46946.86644635993, -35001.73658153255, -44342.37412719418, -28123.74718472328, -7921.458234960823, -0.10400000000000001, 0.9460000000000001, 0.29, 192.0, 0.0, 0.0, 0.0, 0.0, 0.0, 0.0, 0.0, 0.0, 0.0, 1.700947279887822E9, 0.0, 2023-11-25 16:21:19.887
150.0, 18430.779091212644, 37728.38118414655, -44527.84890268432, -46937.74693462216, -34911.03320253291, -44136.53691250526, -28145.294266378198, -7941.574804970599, -0.10400000000000001, 0.9460000000000001, 0.29, 192.0, 0.0, 0.0, 0.0, 0.0, 0.0, 0.0, 0.0, 0.0, 0.0, 1.700947279891776E9, 0.0, 2023-11-25 16:21:19.891
151.0, 18599.735927550308, 37660.02954960222, -44480.97729456154, -46973.46502226174, -34631.54698986375, -44147.31045333272, -28170.9987725018, -7983.797250246675, -0.10400000000000001, 0.9460000000000001, 0.29, 192.0, 0.0, 0.0, 0.0, 0.0, 0.0, 0.0, 0.0, 0.0, 0.0, 1.700947279895815E9, 0.0, 2023-11-25 16:21:19.895
152.0, 18305.586970518467, 37588.459263856326, -44508.4028850082, -46976.90719090786, -34863.35693160974, -44485.000608563496, -28147.484737334817, -7962.339575569579, -0.10400000000000001, 0.9460000000000001, 0.29, 192.0, 0.0, 0.0, 0.0, 0.0, 0.0, 0.0, 0.0, 0.0, 0.0, 1.700947279900222E9, 0.0, 2023-11-25 16:21:19.900
153.0, 18211.150850194794, 37628.96062480934, -44517.231824068054, -46957.19295229828, -35007.391572879744, -44398.253488332455, -28135.213629628855, -7948.414438773923, -0.10400000000000001, 0.9460000000000001, 0.29, 192.0, 0.0, 0.0, 0.0, 0.0, 0.0, 0.0, 0.0, 0.0, 0.0, 1.70094727990372E9, 0.0, 2023-11-25 16:21:19.903
154.0, 18363.835616569, 37699.21215763237, -44521.6574694702, -46946.55352193755, -34935.038976077914, -44164.610703541126, -28141.60622854307, -7952.348345798057, -0.10400000000000001, 0.9460000000000001, 0.29, 192.0, 0.0, 0.0, 0.0, 0.0, 0.0, 0.0, 0.0, 0.0, 0.0, 1.700947279907791E9, 0.0, 2023-11-25 16:21:19.907
155.0, 18566.320069589623, 37658.844907146085, -44467.14156474371, -46970.29107454909, -34665.8345658582, -44124.690487943946, -28158.392388629007, -7979.818639733629, -0.10400000000000001, 0.9460000000000001, 0.29, 192.0, 0.0, 0.0, 0.0, 0.0, 0.0, 0.0, 0.0, 0.0, 0.0, 1.70094727991284E9, 0.0, 2023-11-25 16:21:19.912
156.0, 18358.180625221805, 37588.63807781197, -44472.10365201279, -46970.71575769374, -34782.913003315094, -44432.80928526036, -28136.107699407068, -7955.254072577247, -0.10400000000000001, 0.9460000000000001, 0.29, 192.0, 0.0, 0.0, 0.0, 0.0, 0.0, 0.0, 0.0, 0.0, 0.0, 1.700947279916064E9, 0.0, 2023-11-25 16:21:19.916
157.0, 18185.46869581565, 37618.56706363762, -44486.833451608836, -46944.49716144767, -35010.02907872547, -44446.689718567104, -28120.52853352172, -7935.472778734301, -0.096, 0.9460000000000001, 0.298, 192.0, 253.0, 0.0, 29.0, 144.0, 9.0, 80.0, 0.0, 0.0, 0.0, 1.700947279919808E9, 0.0, 2023-11-25 16:21:19.919
158.0, 18327.514031829123, 37695.680582008434, -44506.03360009594, -46933.500103175655, -34945.14196457171, -44179.80988977074, -28135.772423240236, -7948.079162607094, -0.096, 0.9460000000000001, 0.298, 192.0, 0.0, 0.0, 0.0, 0.0, 0.0, 0.0, 0.0, 0.0, 0.0, 1.700947279923782E9, 0.0, 2023-11-25 16:21:19.923
159.0, 18543.878918156497, 37682.11307312406, -44463.47587865304, -46948.252254516156, -34703.988993643405, -44097.37665621957, -28145.696597778395, -7970.207389617848, -0.096, 0.9460000000000001, 0.298, 192.0, 0.0, 0.0, 0.0, 0.0, 0.0, 0.0, 0.0, 0.0, 0.0, 1.700947279927804E9, 0.0, 2023-11-25 16:21:19.927
160.0, 18432.94721042481, 37602.362048907526, -44464.7946315759, -46961.70800467825, -34698.78103718532, -44354.39936571114, -28135.012463928757, -7959.120924368015, -0.096, 0.9460000000000001, 0.298, 192.0, 0.0, 0.0, 0.0, 0.0, 0.0, 0.0, 0.0, 0.0, 0.0, 1.700947279932138E9, 0.0, 2023-11-25 16:21:19.932
161.0, 18192.39773659679, 37622.6797846174, -44486.76639637547, -46930.326155463, -35000.17195942068, -44478.65271313819, -28106.066954859136, -7921.726455894287, -0.096, 0.9460000000000001, 0.298, 192.0, 0.0, 0.0, 0.0, 0.0, 0.0, 0.0, 0.0, 0.0, 0.0, 1.700947279935922E9, 0.0, 2023-11-25 16:21:19.935
162.0, 18326.709369028733, 37704.017782690265, -44505.407751251194, -46921.38545768088, -34949.45585125159, -44210.118855252134, -28121.176734110923, -7931.918851365906, -0.096, 0.9460000000000001, 0.298, 192.0, 0.0, 0.0, 0.0, 0.0, 0.0, 0.0, 0.0, 0.0, 0.0, 1.700947279940938E9, 0.0, 2023-11-25 16:21:19.940
163.0, 18540.5261564882, 37720.55807358719, -44475.076434025344, -46938.50689393364, -34757.49906986941, -44098.62835390906, -28137.448804074385, -7955.678755721898, -0.096, 0.9460000000000001, 0.298, 192.0, 0.0, 0.0, 0.0, 0.0, 0.0, 0.0, 0.0, 0.0, 0.0, 1.700947279943881E9, 0.0, 2023-11-25 16:21:19.943
164.0, 18519.269647511202, 37631.75459286626, -44458.20086696158, -46968.592341970485, -34632.28459743078, -44289.44519632402, -28136.241809873798, -7958.2715580787135, -0.096, 0.9460000000000001, 0.298, 192.0, 0.0, 0.0, 0.0, 0.0, 0.0, 0.0, 0.0, 0.0, 0.0, 1.700947279946901E9, 0.0, 2023-11-25 16:21:19.946
165.0, 18213.31896940696, 37635.26381674574, -44474.0482537804, -46935.80233285455, -34974.13217713025, -44518.14824559072, -28090.979527351803, -7903.018045785195, -0.096, 0.9460000000000001, 0.298, 192.0, 0.0, 0.0, 0.0, 0.0, 0.0, 0.0, 0.0, 0.0, 0.0, 1.70094727995188E9, 0.0, 2023-11-25 16:21:19.951
166.0, 18302.48007803918, 37705.2471286353, -44494.18717553463, -46932.00253629715, -34951.176935574644, -44257.70571919748, -28104.61409146954, -7915.289153491159, -0.096, 0.9460000000000001, 0.298, 192.0, 0.0, 0.0, 0.0, 0.0, 0.0, 0.0, 0.0, 0.0, 0.0, 1.700947279955905E9, 0.0, 2023-11-25 16:21:19.955
167.0, 18502.304673469625, 37737.344233673124, -44478.362140460275, -46938.17161776681, -34805.912948359604, -44108.15019704702, -28108.14566709348, -7924.274554762192, -0.10200000000000001, 0.9440000000000001, 0.296, 192.0, 252.0, 208.0, 29.0, 128.0, 9.0, 64.0, 0.0, 0.0, 0.0, 1.700947279960002E9, 0.0, 2023-11-25 16:21:19.960
168.0, 18565.805979467154, 37648.40664248546, -44453.46229713706, -46974.403795528866, -34601.17096914899, -44227.06147754926, -28117.62280674253, -7937.61854620201, -0.10200000000000001, 0.9440000000000001, 0.296, 192.0, 0.0, 0.0, 0.0, 0.0, 0.0, 0.0, 0.0, 0.0, 0.0, 1.700947279964096E9, 0.0, 2023-11-25 16:21:19.964
169.0, 18224.673655590257, 37615.7283920918, -44491.46026271108, -46954.689556919286, -34955.42376702115, -44529.05589688491, -28081.815312125127, -7887.70710083331, -0.10200000000000001, 0.9440000000000001, 0.296, 192.0, 0.0, 0.0, 0.0, 0.0, 0.0, 0.0, 0.0, 0.0, 0.0, 1.700947279967914E9, 0.0, 2023-11-25 16:21:19.967
170.0, 18266.47141772168, 37675.38519804301, -44513.96846937758, -46945.12301029242, -34977.73080798755, -44303.07976044175, -28093.16999830842, -7892.311560191102, -0.10200000000000001, 0.9440000000000001, 0.296, 192.0, 0.0, 0.0, 0.0, 0.0, 0.0, 0.0, 0.0, 0.0, 0.0, 1.700947279971911E9, 0.0, 2023-11-25 16:21:19.971
171.0, 18446.64882977591, 37723.91083525548, -44518.349411290816, -46946.84409461547, -34873.99636197047, -44123.17056932099, -28114.247693329777, -7917.010237814216, -0.10200000000000001, 0.9440000000000001, 0.296, 192.0, 0.0, 0.0, 0.0, 0.0, 0.0, 0.0, 0.0, 0.0, 0.0, 1.700947279974929E9, 0.0, 2023-11-25 16:21:19.974
172.0, 18592.24809315778, 37655.559200711155, -44474.98702704752, -46972.45919376126, -34612.88328324357, -44179.38520662609, -28136.867658718547, -7946.201616072848, -0.10200000000000001, 0.9440000000000001, 0.296, 192.0, 0.0, 0.0, 0.0, 0.0, 0.0, 0.0, 0.0, 0.0, 0.0, 1.700947279979982E9, 0.0, 2023-11-25 16:21:19.979
173.0, 18284.017537119096, 37612.06270600113, -44501.09386457132, -46952.789658640584, -34903.27714720692, -44509.34165827533, -28110.447896772373, -7911.7799296116755, -0.10200000000000001, 0.9440000000000001, 0.296, 192.0, 0.0, 0.0, 0.0, 0.0, 0.0, 0.0, 0.0, 0.0, 0.0, 1.700947279983951E9, 0.0, 2023-11-25 16:21:19.983
174.0, 18260.391743229837, 37666.55625898317, -44514.32609728886, -46934.50593167615, -34982.55878478989, -44351.136011020666, -28117.19812359788, -7925.816825129608, -0.10200000000000001, 0.9440000000000001, 0.296, 192.0, 0.0, 0.0, 0.0, 0.0, 0.0, 0.0, 0.0, 0.0, 0.0, 1.70094727998802E9, 0.0, 2023-11-25 16:21:19.988
175.0, 18429.482690034234, 37744.56384713219, -44512.537957732435, -46918.21150996823, -34898.24800470448, -44139.48734277336, -28131.905571449468, -7939.361982269524, -0.10200000000000001, 0.9440000000000001, 0.296, 192.0, 0.0, 0.0, 0.0, 0.0, 0.0, 0.0, 0.0, 0.0, 0.0, 1.700947279991968E9, 0.0, 2023-11-25 16:21:19.991
176.0, 18613.459898645866, 37689.824424961145, -44463.00649201948, -46951.44855397327, -34613.44207685495, -44131.44071476945, -28158.66060956247, -7976.577636787611, -0.10200000000000001, 0.9440000000000001, 0.296, 192.0, 0.0, 0.0, 0.0, 0.0, 0.0, 0.0, 0.0, 0.0, 0.0, 1.700947279996014E9, 0.0, 2023-11-25 16:21:19.996
177.0, 18341.305058158046, 37620.69047936088, -44483.92772482964, -46949.83922837248, -34819.70397468853, -44464.32524494234, -28138.61109478606, -7951.901310908951, -0.106, 0.9460000000000001, 0.296, 192.0, 252.0, 176.0, 29.0, 144.0, 9.0, 64.0, 0.0, 0.0, 0.0, 1.700947280000003E9, 0.0, 2023-11-25 16:21:20.000
178.0, 18228.696969592213, 37649.188953541394, -44505.988896607036, -46936.785809610585, -34987.319706358874, -44398.05232263236, -28141.270952376242, -7952.638918475976, -0.106, 0.9460000000000001, 0.296, 192.0, 0.0, 0.0, 0.0, 0.0, 0.0, 0.0, 0.0, 0.0, 0.0, 1.700947280003023E9, 0.0, 2023-11-25 16:21:20.003
179.0, 18379.6382998989, 37721.72036429887, -44519.06466711339, -46927.75570485064, -34922.96903407205, -44158.70984300492, -28152.29036239271, -7966.8993314384625, -0.106, 0.9460000000000001, 0.296, 192.0, 0.0, 0.0, 0.0, 0.0, 0.0, 0.0, 0.0, 0.0, 0.0, 1.70094728000705E9, 0.0, 2023-11-25 16:21:20.007
180.0, 18584.20146515387, 37680.30258182318, -44471.63426537922, -46954.555446452556, -34661.341865222676, -44104.752731889814, -28170.395275401508, -7992.916761984439, -0.106, 0.9460000000000001, 0.296, 192.0, 0.0, 0.0, 0.0, 0.0, 0.0, 0.0, 0.0, 0.0, 0.0, 1.700947280012053E9, 0.0, 2023-11-25 16:21:20.012
181.0, 18392.311739005057, 37601.84795878505, -44475.88109682573, -46960.47865873321, -34757.38731114713, -44404.199052357566, -28147.641199546004, -7967.1899041163815, -0.106, 0.9460000000000001, 0.296, 192.0, 0.0, 0.0, 0.0, 0.0, 0.0, 0.0, 0.0, 0.0, 0.0, 1.700947280016168E9, 0.0, 2023-11-25 16:21:20.016
182.0, 18206.188762925718, 37629.02768004271, -44489.895640599214, -46938.43983870028, -35004.329383889366, -44443.11343945425, -28123.1883911119, -7948.570900985111, -0.106, 0.9460000000000001, 0.296, 192.0, 0.0, 0.0, 0.0, 0.0, 0.0, 0.0, 0.0, 0.0, 0.0, 1.700947280020137E9, 0.0, 2023-11-25 16:21:20.020
183.0, 18347.943526261275, 37704.24130013482, -44503.91018437269, -46929.70030661825, -34943.1973628041, -44176.52418333581, -28129.0892516481, -7957.712764467331, -0.106, 0.9460000000000001, 0.296, 192.0, 0.0, 0.0, 0.0, 0.0, 0.0, 0.0, 0.0, 0.0, 0.0, 1.700947280024041E9, 0.0, 2023-11-25 16:21:20.024
184.0, 18562.34145907658, 37686.58342201512, -44466.202791476586, -46952.96847259623, -34714.762534470865, -44086.69252236993, -28146.031873945223, -7980.332729856102, -0.106, 0.9460000000000001, 0.296, 192.0, 0.0, 0.0, 0.0, 0.0, 0.0, 0.0, 0.0, 0.0, 0.0, 1.700947280028113E9, 0.0, 2023-11-25 16:21:20.028
185.0, 18464.910204995896, 37595.41065638193, -44463.118250741754, -46976.10252810747, -34687.47105449093, -44331.712345089, -28135.61596102905, -7973.560151286144, -0.106, 0.9460000000000001, 0.296, 192.0, 0.0, 0.0, 0.0, 0.0, 0.0, 0.0, 0.0, 0.0, 0.0, 1.700947280031098E9, 0.0, 2023-11-25 16:21:20.031
186.0, 18196.912788976766, 37594.740104048265, -44488.19690802061, -46957.4835249762, -35005.93870949015, -44483.592448662814, -28106.22341707032, -7945.732229439286, -0.106, 0.9460000000000001, 0.296, 192.0, 0.0, 0.0, 0.0, 0.0, 0.0, 0.0, 0.0, 0.0, 0.0, 1.700947280035095E9, 0.0, 2023-11-25 16:21:20.035
187.0, 18314.125336900393, 37668.25499156177, -44509.78869316443, -46953.46021097425, -34971.69583698462, -44222.59112865819, -28122.786059711703, -7961.2666918357245, -0.10200000000000001, 0.9380000000000001, 0.298, 192.0, 252.0, 208.0, 29.0, 80.0, 9.0, 80.0, 0.0, 0.0, 0.0, 1.700947280040089E9, 0.0, 2023-11-25 16:21:20.040
188.0, 18523.04709232415, 37686.00227665929, -44482.072530039855, -46962.333853523, -34794.670020898586, -44102.29403999973, -28134.23015287282, -7974.498924553267, -0.10200000000000001, 0.9380000000000001, 0.298, 192.0, 0.0, 0.0, 0.0, 0.0, 0.0, 0.0, 0.0, 0.0, 0.0, 1.700947280044213E9, 0.0, 2023-11-25 16:21:20.044
189.0, 18515.827478865085, 37587.14051093346, -44475.009378791976, -47001.58351678652, -34660.67131288902, -44280.05746365279, -28146.635371045515, -7987.686453781897, -0.10200000000000001, 0.9380000000000001, 0.298, 192.0, 0.0, 0.0, 0.0, 0.0, 0.0, 0.0, 0.0, 0.0, 0.0, 1.700947280048759E9, 0.0, 2023-11-25 16:21:20.048
190.0, 18194.431745342226, 37573.908278215924, -44510.99568736502, -46978.85179267547, -35021.9649102646, -44528.541806762434, -28114.47121077433, -7948.101514351549, -0.10200000000000001, 0.9380000000000001, 0.298, 192.0, 0.0, 0.0, 0.0, 0.0, 0.0, 0.0, 0.0, 0.0, 0.0, 1.700947280052145E9, 0.0, 2023-11-25 16:21:20.052
191.0, 18284.48692375266, 37652.273494276225, -44528.1618271067, -46963.853772145965, -35008.0621252134, -44270.06623388127, -28119.1874288544, -7951.409572530934, -0.10200000000000001, 0.9380000000000001, 0.298, 192.0, 0.0, 0.0, 0.0, 0.0, 0.0, 0.0, 0.0, 0.0, 0.0, 1.700947280055135E9, 0.0, 2023-11-25 16:21:20.055
192.0, 18474.879083022963, 37684.77293071424, -44522.395077037225, -46970.089908849, -34876.455053860554, -44114.87807212807, -28131.927923193925, -7969.782706473197, -0.10200000000000001, 0.9380000000000001, 0.298, 192.0, 0.0, 0.0, 0.0, 0.0, 0.0, 0.0, 0.0, 0.0, 0.0, 1.700947280059206E9, 0.0, 2023-11-25 16:21:20.059
193.0, 18543.029551867196, 37590.6720865574, -44497.98697209203, -47012.17824365834, -34661.274809989314, -44227.664974649546, -28150.591629814106, -7992.447375350878, -0.10200000000000001, 0.9380000000000001, 0.298, 192.0, 0.0, 0.0, 0.0, 0.0, 0.0, 0.0, 0.0, 0.0, 0.0, 1.700947280063152E9, 0.0, 2023-11-25 16:21:20.063
194.0, 18205.965245481166, 37565.25815311172, -44521.72452470357, -46987.52426952413, -35005.67048855669, -44540.09765864583, -28104.0329461137, -7940.501921236744, -0.10200000000000001, 0.9380000000000001, 0.298, 192.0, 0.0, 0.0, 0.0, 0.0, 0.0, 0.0, 0.0, 0.0, 0.0, 1.700947280068167E9, 0.0, 2023-11-25 16:21:20.068
195.0, 18245.9078128228, 37631.75459286626, -44533.88387368726, -46976.81778393004, -35034.727756348584, -44319.463589127496, -28106.446934514875, -7946.693354450865, -0.10200000000000001, 0.9380000000000001, 0.298, 192.0, 0.0, 0.0, 0.0, 0.0, 0.0, 0.0, 0.0, 0.0, 0.0, 1.700947280072166E9, 0.0, 2023-11-25 16:21:20.072
196.0, 18428.052178389094, 37685.73405572582, -44534.10739113181, -46976.34839729648, -34929.0934120528, -44130.3678310356, -28124.685957990405, -7962.898369180963, -0.10200000000000001, 0.9380000000000001, 0.298, 192.0, 0.0, 0.0, 0.0, 0.0, 0.0, 0.0, 0.0, 0.0, 0.0, 1.70094728007635E9, 0.0, 2023-11-25 16:21:20.076
197.0, 18570.20927312485, 37609.38049666649, -44490.34267548832, -47007.752598256186, -34655.128080264105, -44169.81865999921, -28146.076577434134, -7992.983817217806, -0.092, 0.936, 0.298, 192.0, 253.0, 32.0, 29.0, 64.0, 9.0, 80.0, 0.0, 0.0, 0.0, 1.700947280080288E9, 0.0, 2023-11-25 16:21:20.080
198.0, 18255.429655960757, 37560.60899026501, -44510.459245498096, -46981.51165026565, -34927.75230738548, -44499.17161454816, -28109.03973687169, -7949.397915529957, -0.092, 0.936, 0.298, 192.0, 0.0, 0.0, 0.0, 0.0, 0.0, 0.0, 0.0, 0.0, 0.0, 1.700947280084202E9, 0.0, 2023-11-25 16:21:20.084
199.0, 18216.26939967506, 37614.320232191116, -44522.395077037225, -46953.79548714108, -35018.45568638512, -44352.74533662145, -28109.75499269426, -7949.733191696787, -0.092, 0.936, 0.298, 192.0, 0.0, 0.0, 0.0, 0.0, 0.0, 0.0, 0.0, 0.0, 0.0, 1.700947280087218E9, 0.0, 2023-11-25 16:21:20.087
200.0, 18388.802515125575, 37687.00810515977, -44525.77019044998, -46930.86259732993, -34924.33249048382, -44118.99079310785, -28116.2369985863, -7946.4698370063115, -0.092, 0.936, 0.298, 192.0, 0.0, 0.0, 0.0, 0.0, 0.0, 0.0, 0.0, 0.0, 0.0, 1.700947280091183E9, 0.0, 2023-11-25 16:21:20.091
201.0, 18580.96046220785, 37644.942122094886, -44468.37091068875, -46941.256158501645, -34640.19711496796, -44097.555470175204, -28126.47409754683, -7959.657366234943, -0.092, 0.936, 0.298, 192.0, 0.0, 0.0, 0.0, 0.0, 0.0, 0.0, 0.0, 0.0, 0.0, 1.700947280095272E9, 0.0, 2023-11-25 16:21:20.095
202.0, 18331.38088361989, 37578.71390327381, -44485.492346941515, -46937.545768922064, -34820.530989233375, -44414.86083446274, -28100.881350145504, -7931.650630432443, -0.092, 0.936, 0.298, 192.0, 0.0, 0.0, 0.0, 0.0, 0.0, 0.0, 0.0, 0.0, 0.0, 1.700947280100184E9, 0.0, 2023-11-25 16:21:20.100
203.0, 18211.843754272908, 37616.10837174754, -44502.680838427645, -46920.58079488049, -35008.12918044677, -44374.270066531906, -28090.331326762596, -7922.374656483491, -0.092, 0.936, 0.298, 192.0, 0.0, 0.0, 0.0, 0.0, 0.0, 0.0, 0.0, 0.0, 0.0, 1.700947280104257E9, 0.0, 2023-11-25 16:21:20.104
204.0, 18361.846311312474, 37686.672828992945, -44524.83141718285, -46921.05018151405, -34947.22067680606, -44129.093781601645, -28108.235074071297, -7938.9596508693285, -0.092, 0.936, 0.298, 192.0, 0.0, 0.0, 0.0, 0.0, 0.0, 0.0, 0.0, 0.0, 0.0, 1.700947280107231E9, 0.0, 2023-11-25 16:21:20.107
205.0, 18575.52898830521, 37664.790471171196, -44473.243590980004, -46944.29599574757, -34691.36025802616, -44072.29799894071, -28117.242827086786, -7960.059697635138, -0.092, 0.936, 0.298, 192.0, 0.0, 0.0, 0.0, 0.0, 0.0, 0.0, 0.0, 0.0, 0.0, 1.700947280111337E9, 0.0, 2023-11-25 16:21:20.111
206.0, 18406.862724645463, 37587.319324889104, -44479.211506749576, -46960.6351209444, -34760.38244490414, -44361.954255337034, -28099.495541989272, -7942.513578237722, -0.092, 0.936, 0.298, 192.0, 0.0, 0.0, 0.0, 0.0, 0.0, 0.0, 0.0, 0.0, 0.0, 1.70094728011531E9, 0.0, 2023-11-25 16:21:20.115
207.0, 18205.249989658594, 37605.40188615345, -44502.256155282994, -46944.76538238113, -35028.849247556835, -44428.20482590256, -28080.764780135727, -7921.726455894287, -0.098, 0.9400000000000001, 0.3, 192.0, 252.0, 240.0, 29.0, 96.0, 9.0, 96.0, 0.0, 0.0, 0.0, 1.700947280119336E9, 0.0, 2023-11-25 16:21:20.119
208.0, 18340.947430246764, 37682.493052779806, -44523.870292171276, -46940.27268174561, -34969.9524009171, -44164.968331452415, -28098.109733833044, -7934.288136278169, -0.098, 0.9400000000000001, 0.3, 192.0, 0.0, 0.0, 0.0, 0.0, 0.0, 0.0, 0.0, 0.0, 0.0, 1.700947280123424E9, 0.0, 2023-11-25 16:21:20.123
209.0, 18547.410493780433, 37675.98869514331, -44488.71099814308, -46960.38925175539, -34749.854773265695, -44071.135708229034, -28116.102888119567, -7960.730249968798, -0.098, 0.9400000000000001, 0.3, 192.0, 0.0, 0.0, 0.0, 0.0, 0.0, 0.0, 0.0, 0.0, 0.0, 1.700947280128348E9, 0.0, 2023-11-25 16:21:20.128
210.0, 18462.965603228284, 37589.39803712345, -44480.239686994515, -46981.39989154338, -34696.501159250874, -44307.974792477464, -28113.733603207304, -7961.5572645136435, -0.098, 0.9400000000000001, 0.3, 192.0, 0.0, 0.0, 0.0, 0.0, 0.0, 0.0, 0.0, 0.0, 0.0, 1.700947280132338E9, 0.0, 2023-11-25 16:21:20.132
211.0, 18177.578530022925, 37590.06858945711, -44507.84409139682, -46959.96456861074, -35022.92603527618, -44488.353370231795, -28093.527626219708, -7933.304659522136, -0.098, 0.9400000000000001, 0.3, 192.0, 0.0, 0.0, 0.0, 0.0, 0.0, 0.0, 0.0, 0.0, 0.0, 1.700947280135337E9, 0.0, 2023-11-25 16:21:20.135
212.0, 18295.104002368927, 37672.81474743065, -44518.81879792438, -46942.77607712461, -34978.71428474358, -44217.20435824447, -28106.55869323715, -7938.579671213588, -0.098, 0.9400000000000001, 0.3, 192.0, 0.0, 0.0, 0.0, 0.0, 0.0, 0.0, 0.0, 0.0, 0.0, 1.700947280139324E9, 0.0, 2023-11-25 16:21:20.139
213.0, 18511.24537125175, 37695.7476372418, -44493.874251112255, -46951.605016184454, -34806.00235533743, -44087.31837121468, -28132.889048205503, -7961.333747069091, -0.098, 0.9400000000000001, 0.3, 192.0, 0.0, 0.0, 0.0, 0.0, 0.0, 0.0, 0.0, 0.0, 0.0, 1.70094728014334E9, 0.0, 2023-11-25 16:21:20.143
214.0, 18537.10633958654, 37614.49904614676, -44466.538067643414, -46978.40475778637, -34641.60527486864, -44247.110992325666, -28145.540135567207, -7969.983872173295, -0.098, 0.9400000000000001, 0.3, 192.0, 0.0, 0.0, 0.0, 0.0, 0.0, 0.0, 0.0, 0.0, 0.0, 1.70094728014739E9, 0.0, 2023-11-25 16:21:20.147
215.0, 18212.916638006765, 37594.024848225694, -44499.57394594836, -46958.93638836579, -34995.16516866269, -44507.70998093009, -28120.863809688548, -7934.243432789259, -0.098, 0.9400000000000001, 0.3, 192.0, 0.0, 0.0, 0.0, 0.0, 0.0, 0.0, 0.0, 0.0, 0.0, 1.700947280151466E9, 0.0, 2023-11-25 16:21:20.151
216.0, 18289.337252299458, 37670.55722124067, -44510.39219026473, -46938.395135211365, -34983.2069853791, -44254.576474973735, -28122.115507378043, -7933.014086844217, -0.098, 0.9400000000000001, 0.3, 192.0, 0.0, 0.0, 0.0, 0.0, 0.0, 0.0, 0.0, 0.0, 0.0, 1.700947280156397E9, 0.0, 2023-11-25 16:21:20.156
217.0, 18483.573911616077, 37717.69705029691, -44497.517585458474, -46932.71779211972, -34844.04502440036, -44081.57397288966, -28132.821992972138, -7944.614642216521, -0.096, 0.936, 0.294, 192.0, 253.0, 0.0, 29.0, 64.0, 9.0, 48.0, 0.0, 0.0, 0.0, 1.700947280160405E9, 0.0, 2023-11-25 16:21:20.160
218.0, 18575.4842848163, 37630.97228181032, -44468.32620719984, -46966.7371471807, -34604.88135872858, -44168.030520442786, -28152.357417626074, -7961.95959591384, -0.096, 0.936, 0.294, 192.0, 0.0, 0.0, 0.0, 0.0, 0.0, 0.0, 0.0, 0.0, 0.0, 1.700947280163354E9, 0.0, 2023-11-25 16:21:20.163
219.0, 18249.729961124656, 37606.54182512067, -44490.27562025495, -46933.72362062021, -34935.86599062276, -44482.13958527322, -28102.781248424202, -7908.2036504988255, -0.096, 0.936, 0.294, 192.0, 0.0, 0.0, 0.0, 0.0, 0.0, 0.0, 0.0, 0.0, 0.0, 1.700947280167389E9, 0.0, 2023-11-25 16:21:20.167
220.0, 18269.265385778595, 37662.60000021458, -44512.73912343253, -46927.24161472817, -34978.78133997695, -44275.09537638371, -28117.019309642234, -7920.497109949245, -0.096, 0.936, 0.294, 192.0, 0.0, 0.0, 0.0, 0.0, 0.0, 0.0, 0.0, 0.0, 0.0, 1.700947280171404E9, 0.0, 2023-11-25 16:21:20.171
221.0, 18439.473919805758, 37718.09938169711, -44515.60014672281, -46923.66533561532, -34884.47933012001, -44081.3057519562, -28126.09411789109, -7916.093816291549, -0.096, 0.936, 0.294, 192.0, 0.0, 0.0, 0.0, 0.0, 0.0, 0.0, 0.0, 0.0, 0.0, 1.700947280175397E9, 0.0, 2023-11-25 16:21:20.175
222.0, 18597.54545659369, 37647.15494479596, -44468.59442813331, -46957.08119357601, -34610.78221926477, -44106.58557493515, -28143.774347755236, -7940.613679959021, -0.096, 0.936, 0.294, 192.0, 0.0, 0.0, 0.0, 0.0, 0.0, 0.0, 0.0, 0.0, 0.0, 1.700947280179483E9, 0.0, 2023-11-25 16:21:20.179
223.0, 18300.15549661583, 37600.50685411774, -44486.16289927517, -46941.971414324216, -34872.94582998107, -44447.62849183423, -28104.45762925835, -7901.207554484315, -0.096, 0.936, 0.294, 192.0, 0.0, 0.0, 0.0, 0.0, 0.0, 0.0, 0.0, 0.0, 0.0, 1.700947280183563E9, 0.0, 2023-11-25 16:21:20.183
224.0, 18244.142025010828, 37645.38915698399, -44504.62544019526, -46933.790675853576, -34989.97956394906, -44328.53839737635, -28112.28073981771, -7914.260973246214, -0.096, 0.936, 0.294, 192.0, 0.0, 0.0, 0.0, 0.0, 0.0, 0.0, 0.0, 0.0, 0.0, 1.700947280188521E9, 0.0, 2023-11-25 16:21:20.188
225.0, 18401.83358214302, 37711.88559673853, -44516.114236845286, -46927.82276008401, -34918.58809215881, -44109.7595226478, -28127.99401616979, -7932.477644977289, -0.096, 0.936, 0.294, 192.0, 0.0, 0.0, 0.0, 0.0, 0.0, 0.0, 0.0, 0.0, 0.0, 1.700947280191489E9, 0.0, 2023-11-25 16:21:20.191
226.0, 18602.50754386277, 37671.160718340965, -44455.58571286032, -46946.799391126566, -34634.4750683874, -44079.4058536775, -28133.17962088342, -7949.375563785502, -0.096, 0.936, 0.294, 192.0, 0.0, 0.0, 0.0, 0.0, 0.0, 0.0, 0.0, 0.0, 0.0, 1.700947280195454E9, 0.0, 2023-11-25 16:21:20.195
227.0, 18367.881282315408, 37607.01121175423, -44470.539029900916, -46950.64389117288, -34795.20646276551, -44402.76854071242, -28112.2360363288, -7923.42518847289, -0.1, 0.932, 0.294, 192.0, 252.0, 224.0, 29.0, 32.0, 9.0, 48.0, 0.0, 0.0, 0.0, 1.700947280199458E9, 0.0, 2023-11-25 16:21:20.199
228.0, 18227.489975391625, 37637.16371502444, -44491.59437317782, -46940.38444046789, -34993.82406399537, -44386.31765679332, -28107.09513510408, -7920.698275649343, -0.1, 0.932, 0.294, 192.0, 0.0, 0.0, 0.0, 0.0, 0.0, 0.0, 0.0, 0.0, 0.0, 1.700947280204531E9, 0.0, 2023-11-25 16:21:20.204
229.0, 18375.72674461922, 37717.80880901919, -44501.02680933796, -46930.504969418645, -34933.80963013287, -44145.34349982065, -28110.760821194748, -7929.191938542359, -0.1, 0.932, 0.294, 192.0, 0.0, 0.0, 0.0, 0.0, 0.0, 0.0, 0.0, 0.0, 0.0, 1.700947280207529E9, 0.0, 2023-11-25 16:21:20.207
230.0, 18586.77191576623, 37681.80014870169, -44457.12798322773, -46963.071461090025, -34681.681952677005, -44078.22121122137, -28138.74520525279, -7969.000395417261, -0.1, 0.932, 0.294, 192.0, 0.0, 0.0, 0.0, 0.0, 0.0, 0.0, 0.0, 0.0, 0.0, 1.700947280211573E9, 0.0, 2023-11-25 16:21:20.211
231.0, 18429.303876078593, 37589.57685107909, -44462.17947747463, -46986.40668230137, -34727.99476718841, -44366.91634260611, -28133.894876705992, -7967.927511683406, -0.1, 0.932, 0.294, 192.0, 0.0, 0.0, 0.0, 0.0, 0.0, 0.0, 0.0, 0.0, 0.0, 1.700947280215533E9, 0.0, 2023-11-25 16:21:20.215
232.0, 18207.306350148483, 37613.71673509082, -44472.81890783535, -46957.75174590966, -35007.011593224, -44460.257227451475, -28105.552864736663, -7940.591328214566, -0.1, 0.932, 0.294, 192.0, 0.0, 0.0, 0.0, 0.0, 0.0, 0.0, 0.0, 0.0, 0.0, 1.700947280219553E9, 0.0, 2023-11-25 16:21:20.219
233.0, 18336.4770813557, 37690.67379125045, -44493.2036987786, -46949.8839318614, -34950.93106638564, -44196.66310509004, -28121.176734110923, -7955.119962110515, -0.1, 0.932, 0.294, 192.0, 0.0, 0.0, 0.0, 0.0, 0.0, 0.0, 0.0, 0.0, 0.0, 1.700947280223587E9, 0.0, 2023-11-25 16:21:20.223
234.0, 18551.322049060112, 37695.14414014151, -44459.92195128465, -46962.71383317874, -34741.338758628226, -44095.946144574424, -28139.125184908535, -7976.577636787611, -0.1, 0.932, 0.294, 192.0, 0.0, 0.0, 0.0, 0.0, 0.0, 0.0, 0.0, 0.0, 0.0, 1.700947280227567E9, 0.0, 2023-11-25 16:21:20.227
235.0, 18496.18029548887, 37608.48642688828, -44458.714957084056, -46990.22883060323, -34666.37100772512, -44316.20023443702, -28146.00952220077, -7980.779764745208, -0.1, 0.932, 0.294, 192.0, 0.0, 0.0, 0.0, 0.0, 0.0, 0.0, 0.0, 0.0, 0.0, 1.700947280231636E9, 0.0, 2023-11-25 16:21:20.231
236.0, 18211.620236828356, 37616.17542698091, -44488.10750104279, -46959.49518197718, -35000.060200698405, -44506.726504174054, -28113.2865683182, -7937.149159568448, -0.10200000000000001, 0.9380000000000001, 0.3, 192.0, 252.0, 208.0, 29.0, 80.0, 9.0, 96.0, 0.0, 0.0, 0.0, 1.70094728023455E9, 0.0, 2023-11-25 16:21:20.234
237.0, 18315.33233110098, 37689.13152088303, -44519.93638514714, -46953.504914463156, -34971.807595706894, -44238.080887565724, -28129.84921095958, -7948.101514351549, -0.10200000000000001, 0.9380000000000001, 0.3, 192.0, 0.0, 0.0, 0.0, 0.0, 0.0, 0.0, 0.0, 0.0, 0.0, 1.700947280239574E9, 0.0, 2023-11-25 16:21:20.239
238.0, 18513.05586255263, 37711.1032856826, -44511.42037050967, -46962.06563258954, -34819.10047758824, -44103.54573768923, -28155.509013594274, -7969.268616350725, -0.10200000000000001, 0.9380000000000001, 0.3, 192.0, 0.0, 0.0, 0.0, 0.0, 0.0, 0.0, 0.0, 0.0, 0.0, 1.700947280243649E9, 0.0, 2023-11-25 16:21:20.243
239.0, 18556.15002586246, 37626.72545036381, -44489.001570821, -46988.68656023581, -34638.11840273361, -44245.59107370271, -28167.91423176697, -7982.500849068267, -0.10200000000000001, 0.9380000000000001, 0.3, 192.0, 0.0, 0.0, 0.0, 0.0, 0.0, 0.0, 0.0, 0.0, 0.0, 1.700947280247621E9, 0.0, 2023-11-25 16:21:20.247
240.0, 18229.903963792796, 37607.65941234343, -44524.00440263801, -46963.11616457894, -34986.02330518047, -44521.8586351703, -28132.33025459412, -7940.323107281102, -0.10200000000000001, 0.9380000000000001, 0.3, 192.0, 0.0, 0.0, 0.0, 0.0, 0.0, 0.0, 0.0, 0.0, 0.0, 1.700947280251648E9, 0.0, 2023-11-25 16:21:20.251
241.0, 18297.38388030337, 37682.336590568615, -44536.85665569981, -46944.541864936575, -34980.278906855456, -44277.91169618508, -28146.791833256702, -7947.140389339971, -0.10200000000000001, 0.9380000000000001, 0.3, 192.0, 0.0, 0.0, 0.0, 0.0, 0.0, 0.0, 0.0, 0.0, 0.0, 1.700947280255671E9, 0.0, 2023-11-25 16:21:20.255
242.0, 18483.730373827264, 37733.34327141563, -44522.79740843742, -46934.841207842976, -34852.76220473793, -44101.66819115498, -28155.95604848338, -7956.416363288923, -0.10200000000000001, 0.9380000000000001, 0.3, 192.0, 0.0, 0.0, 0.0, 0.0, 0.0, 0.0, 0.0, 0.0, 0.0, 1.700947280259635E9, 0.0, 2023-11-25 16:21:20.259
243.0, 18592.650424557974, 37655.9391803669, -44475.344654958804, -46953.72843190771, -34597.4158760805, -44167.56113380923, -28163.175661942445, -7966.988738416284, -0.10200000000000001, 0.9380000000000001, 0.3, 192.0, 0.0, 0.0, 0.0, 0.0, 0.0, 0.0, 0.0, 0.0, 0.0, 1.700947280262882E9, 0.0, 2023-11-25 16:21:20.262
244.0, 18261.397571730326, 37608.508778632735, -44505.25128904001, -46931.15317000785, -34914.3412607123, -44485.693512641614, -28129.916266192948, -7924.721589651298, -0.10200000000000001, 0.9380000000000001, 0.3, 192.0, 0.0, 0.0, 0.0, 0.0, 0.0, 0.0, 0.0, 0.0, 0.0, 1.700947280268121E9, 0.0, 2023-11-25 16:21:20.268
245.0, 18271.008821846106, 37675.78752944321, -44512.44855075461, -46905.962754006716, -34966.30906657089, -44294.206117892994, -28128.172830125433, -7924.028685573183, -0.10200000000000001, 0.9380000000000001, 0.3, 192.0, 0.0, 0.0, 0.0, 0.0, 0.0, 0.0, 0.0, 0.0, 0.0, 1.700947280271657E9, 0.0, 2023-11-25 16:21:20.271
246.0, 18448.5040245657, 37741.16638197498, -44509.81104490889, -46898.1172917029, -34876.231536416, -44093.28628698424, -28142.120318665544, -7939.85372064754, -0.094, 0.9420000000000001, 0.3, 192.0, 253.0, 16.0, 29.0, 112.0, 9.0, 96.0, 0.0, 0.0, 0.0, 1.700947280275682E9, 0.0, 2023-11-25 16:21:20.275
247.0, 18624.948695295894, 37682.24718359079, -44454.244608192996, -46929.18621649578, -34597.52763480278, -44111.99469709334, -28158.414740373464, -7966.631110504999, -0.094, 0.9420000000000001, 0.3, 192.0, 0.0, 0.0, 0.0, 0.0, 0.0, 0.0, 0.0, 0.0, 0.0, 1.7009472802797E9, 0.0, 2023-11-25 16:21:20.279
248.0, 18339.00282847915, 37623.260929973236, -44473.31064621337, -46925.05114377155, -34835.75252720744, -44445.95211100008, -28126.027062657722, -7934.5563572116325, -0.094, 0.9420000000000001, 0.3, 192.0, 0.0, 0.0, 0.0, 0.0, 0.0, 0.0, 0.0, 0.0, 0.0, 1.700947280283896E9, 0.0, 2023-11-25 16:21:20.283
249.0, 18264.906795609808, 37669.819613673644, -44483.815966107366, -46909.69549533075, -34965.68321772614, -44341.39065043815, -28117.712213720348, -7928.566089697611, -0.094, 0.9420000000000001, 0.3, 192.0, 0.0, 0.0, 0.0, 0.0, 0.0, 0.0, 0.0, 0.0, 0.0, 1.700947280287745E9, 0.0, 2023-11-25 16:21:20.287
250.0, 18419.044425373606, 37745.03323376575, -44489.001570821, -46901.76062604912, -34892.79417905738, -44111.480606970865, -28123.791888212192, -7930.555394954133, -0.094, 0.9420000000000001, 0.3, 192.0, 0.0, 0.0, 0.0, 0.0, 0.0, 0.0, 0.0, 0.0, 0.0, 1.70094728029067E9, 0.0, 2023-11-25 16:21:20.290
251.0, 18617.952599281383, 37696.84287272011, -44440.990023731, -46935.91409157683, -34619.65586181353, -44076.164850731475, -28144.199030899887, -7959.657366234943, -0.094, 0.9420000000000001, 0.3, 192.0, 0.0, 0.0, 0.0, 0.0, 0.0, 0.0, 0.0, 0.0, 0.0, 1.700947280294772E9, 0.0, 2023-11-25 16:21:20.294
252.0, 18395.48568671771, 37612.152112978954, -44463.69939609759, -46951.67207141782, -34758.236677436435, -44396.62181098721, -28128.977492925824, -7945.016973616716, -0.094, 0.9420000000000001, 0.3, 192.0, 0.0, 0.0, 0.0, 0.0, 0.0, 0.0, 0.0, 0.0, 0.0, 1.700947280299758E9, 0.0, 2023-11-25 16:21:20.299
253.0, 18228.764024825578, 37633.25215974476, -44488.33101848734, -46938.86452184493, -34977.41788356518, -44405.026066902414, -28121.109678877554, -7935.696296178854, -0.094, 0.9420000000000001, 0.3, 192.0, 0.0, 0.0, 0.0, 0.0, 0.0, 0.0, 0.0, 0.0, 0.0, 1.700947280303763E9, 0.0, 2023-11-25 16:21:20.303
254.0, 18363.857968313452, 37711.72913452734, -44503.79842565041, -46929.0744577735, -34918.543388669896, -44153.47953480238, -28137.13587965201, -7952.840084176074, -0.094, 0.9420000000000001, 0.3, 192.0, 0.0, 0.0, 0.0, 0.0, 0.0, 0.0, 0.0, 0.0, 0.0, 1.700947280307761E9, 0.0, 2023-11-25 16:21:20.307
255.0, 18581.027517441216, 37703.235471634325, -44451.160067458164, -46941.613786412934, -34672.09305430568, -44074.37671117505, -28147.32827512363, -7974.141296641982, -0.094, 0.9420000000000001, 0.3, 192.0, 0.0, 0.0, 0.0, 0.0, 0.0, 0.0, 0.0, 0.0, 0.0, 1.700947280311874E9, 0.0, 2023-11-25 16:21:20.311
0.0, 18462.786789272643, 37625.8313805856, -44448.25434067898, -46953.8848941189, -34676.3845892411, -44331.84645555574, -28130.9891499268, -7955.164665599426, -0.098, 0.9420000000000001, 0.292, 192.0, 252.0, 240.0, 29.0, 112.0, 9.0, 32.0, 0.0, 0.0, 0.0, 1.700947280314801E9, 0.0, 2023-11-25 16:21:20.314
1.0, 18230.954495782196, 37641.365842982035, -44475.925800314646, -46930.7284868632, -34966.510232270986, -44445.41566913315, -28117.60045499807, -7930.801264143141, -0.098, 0.9420000000000001, 0.292, 192.0, 0.0, 0.0, 0.0, 0.0, 0.0, 0.0, 0.0, 0.0, 0.0, 1.700947280318813E9, 0.0, 2023-11-25 16:21:20.318
2.0, 18349.664610584332, 37715.41717236247, -44508.26877454147, -46928.06862927302, -34926.63472016272, -44189.55525035325, -28139.75103375328, -7948.213273073826, -0.098, 0.9420000000000001, 0.292, 192.0, 0.0, 0.0, 0.0, 0.0, 0.0, 0.0, 0.0, 0.0, 0.0, 1.700947280322798E9, 0.0, 2023-11-25 16:21:20.322
3.0, 18560.508616031246, 37719.7534107868, -44483.458338196084, -46946.48646670419, -34735.28143588083, -44080.41168217798, -28150.23400190282, -7975.303587353657, -0.098, 0.9420000000000001, 0.292, 192.0, 0.0, 0.0, 0.0, 0.0, 0.0, 0.0, 0.0, 0.0, 0.0, 1.700947280327811E9, 0.0, 2023-11-25 16:21:20.327
4.0, 18533.19478430686, 37629.22884574281, -44478.160974760176, -46976.34839729648, -34640.33122543469, -44290.74159750243, -28164.784987543226, -7987.306474126158, -0.098, 0.9420000000000001, 0.292, 192.0, 0.0, 0.0, 0.0, 0.0, 0.0, 0.0, 0.0, 0.0, 0.0, 1.700947280331817E9, 0.0, 2023-11-25 16:21:20.331
5.0, 18233.56964988347, 37633.050994044665, -44504.13370181724, -46946.48646670419, -34984.056351668405, -44509.90045188671, -28133.80546972817, -7945.843988161563, -0.098, 0.9420000000000001, 0.292, 192.0, 0.0, 0.0, 0.0, 0.0, 0.0, 0.0, 0.0, 0.0, 0.0, 1.700947280335791E9, 0.0, 2023-11-25 16:21:20.335
6.0, 18320.808508492533, 37702.02847743374, -44534.509722532006, -46946.5311701931, -34959.715301956574, -44249.30146328229, -28153.922039737947, -7961.110229624538, -0.098, 0.9420000000000001, 0.292, 192.0, 0.0, 0.0, 0.0, 0.0, 0.0, 0.0, 0.0, 0.0, 0.0, 1.700947280339815E9, 0.0, 2023-11-25 16:21:20.339
7.0, 18518.17441203289, 37736.293701683724, -44514.30374554441, -46947.53699869359, -34813.42313449659, -44113.44756048293, -28160.694618307905, -7967.748697727764, -0.098, 0.9420000000000001, 0.292, 192.0, 0.0, 0.0, 0.0, 0.0, 0.0, 0.0, 0.0, 0.0, 0.0, 1.700947280342925E9, 0.0, 2023-11-25 16:21:20.342
8.0, 18577.518293561734, 37644.53979069469, -44485.15707077469, -46979.924676409326, -34613.95616697743, -44237.27622476533, -28171.1999382019, -7983.685491524398, -0.098, 0.9420000000000001, 0.292, 192.0, 0.0, 0.0, 0.0, 0.0, 0.0, 0.0, 0.0, 0.0, 0.0, 1.700947280347001E9, 0.0, 2023-11-25 16:21:20.347
9.0, 18239.068179019472, 37612.44268565687, -44517.231824068054, -46959.76340291064, -34966.979618904545, -44526.306632316904, -28135.973588940335, -7942.401819515446, -0.098, 0.9420000000000001, 0.292, 192.0, 0.0, 0.0, 0.0, 0.0, 0.0, 0.0, 0.0, 0.0, 0.0, 1.700947280350903E9, 0.0, 2023-11-25 16:21:20.350
10.0, 18289.00197613263, 37682.56010801317, -44527.513626517495, -46939.803295112055, -34976.412055064684, -44293.1555859036, -28141.874449476534, -7944.569938727611, -0.10400000000000001, 0.9400000000000001, 0.294, 192.0, 252.0, 192.0, 29.0, 96.0, 9.0, 48.0, 0.0, 0.0, 0.0, 1.700947280354878E9, 0.0, 2023-11-25 16:21:20.354
11.0, 18469.537016098144, 37736.316053428185, -44514.32609728886, -46929.38738219588, -34862.41815834262, -44113.380505249566, -28155.62077231655, -7951.0519446196495, -0.10400000000000001, 0.9400000000000001, 0.294, 192.0, 0.0, 0.0, 0.0, 0.0, 0.0, 0.0, 0.0, 0.0, 0.0, 1.700947280359941E9, 0.0, 2023-11-25 16:21:20.359
12.0, 18594.706785047863, 37649.68069191941, -44476.17166950365, -46968.77115592613, -34600.85804472662, -44173.417290856516, -28183.0016592743, -7983.43962233539, -0.10400000000000001, 0.9400000000000001, 0.294, 192.0, 0.0, 0.0, 0.0, 0.0, 0.0, 0.0, 0.0, 0.0, 0.0, 1.700947280365361E9, 0.0, 2023-11-25 16:21:20.365
13.0, 18272.551092213525, 37611.928595534395, -44495.03654182393, -46944.78773412559, -34902.94187104009, -44497.718751158565, -28142.343836110096, -7936.702124679342, -0.10400000000000001, 0.9400000000000001, 0.294, 192.0, 0.0, 0.0, 0.0, 0.0, 0.0, 0.0, 0.0, 0.0, 0.0, 1.700947280367905E9, 0.0, 2023-11-25 16:21:20.367
14.0, 18262.179882786262, 37675.07227362064, -44504.357219261794, -46926.19108273877, -34966.86786018227, -44316.22258618147, -28136.420623829443, -7933.349363011046, -0.10400000000000001, 0.9400000000000001, 0.294, 192.0, 0.0, 0.0, 0.0, 0.0, 0.0, 0.0, 0.0, 0.0, 0.0, 1.700947280370901E9, 0.0, 2023-11-25 16:21:20.370
15.0, 18425.12409986545, 37739.601759863115, -44510.168672820175, -46921.16194023633, -34881.551251596364, -44108.261955769296, -28147.350626868087, -7942.960613126828, -0.10400000000000001, 0.9400000000000001, 0.294, 192.0, 0.0, 0.0, 0.0, 0.0, 0.0, 0.0, 0.0, 0.0, 0.0, 1.700947280374909E9, 0.0, 2023-11-25 16:21:20.374
16.0, 18613.77282306824, 37680.70491322338, -44451.160067458164, -46949.99569058367, -34594.733666745866, -44111.055923826214, -28165.05320847669, -7968.888636694985, -0.10400000000000001, 0.9400000000000001, 0.294, 192.0, 0.0, 0.0, 0.0, 0.0, 0.0, 0.0, 0.0, 0.0, 0.0, 1.700947280378949E9, 0.0, 2023-11-25 16:21:20.378
17.0, 18348.547023361567, 37621.025755527706, -44466.471012410046, -46943.29016724708, -34809.757448405915, -44444.67806156613, -28134.721891250836, -7934.690467678365, -0.10400000000000001, 0.9400000000000001, 0.294, 192.0, 0.0, 0.0, 0.0, 0.0, 0.0, 0.0, 0.0, 0.0, 0.0, 1.700947280383443E9, 0.0, 2023-11-25 16:21:20.383
18.0, 18262.559862442, 37665.908058393965, -44478.71976837156, -46923.777094337594, -34958.664769967174, -44360.54609543635, -28123.12133587853, -7928.163758297415, -0.10400000000000001, 0.9400000000000001, 0.294, 192.0, 0.0, 0.0, 0.0, 0.0, 0.0, 0.0, 0.0, 0.0, 0.0, 1.700947280387947E9, 0.0, 2023-11-25 16:21:20.387
19.0, 18410.148431080393, 37747.24605646683, -44487.593410920315, -46907.61678309641, -34890.42489414512, -44123.17056932099, -28126.742318480294, -7931.874147876996, -0.10400000000000001, 0.9400000000000001, 0.294, 192.0, 0.0, 0.0, 0.0, 0.0, 0.0, 0.0, 0.0, 0.0, 0.0, 1.700947280392043E9, 0.0, 2023-11-25 16:21:20.392
20.0, 18618.01965451475, 37702.207291389386, -44441.68292780912, -46937.568120666525, -34616.48191410088, -44076.27660945375, -28146.90359197898, -7962.116058125027, -0.11, 0.9420000000000001, 0.296, 192.0, 252.0, 144.0, 29.0, 112.0, 9.0, 64.0, 0.0, 0.0, 0.0, 1.700947280396125E9, 0.0, 2023-11-25 16:21:20.396
21.0, 18419.804384685085, 37622.36686019503, -44455.87628553823, -46948.92280684982, -34725.75959274287, -44384.84244165927, -28126.51880103574, -7939.04905784715, -0.11, 0.9420000000000001, 0.296, 192.0, 0.0, 0.0, 0.0, 0.0, 0.0, 0.0, 0.0, 0.0, 0.0, 1.700947280398953E9, 0.0, 2023-11-25 16:21:20.398
22.0, 18243.739693610634, 37651.7370524093, -44472.3942246907, -46925.96756529422, -34959.82706067885, -44411.70923849455, -28103.94353913588, -7912.405778456424, -0.11, 0.9420000000000001, 0.296, 192.0, 0.0, 0.0, 0.0, 0.0, 0.0, 0.0, 0.0, 0.0, 0.0, 1.700947280402936E9, 0.0, 2023-11-25 16:21:20.402
23.0, 18367.6354131264, 37721.4521433654, -44497.38347499174, -46925.65464087184, -34907.211054231055, -44155.62530227009, -28123.098984134078, -7927.850833875041, -0.11, 0.9420000000000001, 0.296, 192.0, 0.0, 0.0, 0.0, 0.0, 0.0, 0.0, 0.0, 0.0, 0.0, 1.700947280409057E9, 0.0, 2023-11-25 16:21:20.409
24.0, 18578.971156951327, 37709.873939737554, -44455.47395413804, -46947.1793707823, -34678.66446717554, -44077.32714144315, -28138.007597685766, -7951.118999853015, -0.11, 0.9420000000000001, 0.296, 192.0, 0.0, 0.0, 0.0, 0.0, 0.0, 0.0, 0.0, 0.0, 0.0, 1.70094728041216E9, 0.0, 2023-11-25 16:21:20.412
25.0, 18480.735240070255, 37628.69240387588, -44453.194076203596, -46966.781850669606, -34665.8345658582, -44333.500484645425, -28134.90070520648, -7949.688488207876, -0.11, 0.9420000000000001, 0.296, 192.0, 0.0, 0.0, 0.0, 0.0, 0.0, 0.0, 0.0, 0.0, 0.0, 1.700947280416025E9, 0.0, 2023-11-25 16:21:20.416
26.0, 18224.673655590257, 37644.60684592806, -44479.85970733878, -46943.11135329144, -34979.27307835496, -44477.95980906008, -28111.297263061675, -7923.335781495069, -0.11, 0.9420000000000001, 0.296, 192.0, 0.0, 0.0, 0.0, 0.0, 0.0, 0.0, 0.0, 0.0, 0.0, 1.700947280420038E9, 0.0, 2023-11-25 16:21:20.420
27.0, 18337.237040667183, 37715.84185550712, -44513.05204785491, -46943.80425736955, -34945.79016516091, -44218.12077976713, -28137.538211052208, -7947.743886440264, -0.11, 0.9420000000000001, 0.296, 192.0, 0.0, 0.0, 0.0, 0.0, 0.0, 0.0, 0.0, 0.0, 0.0, 1.700947280423027E9, 0.0, 2023-11-25 16:21:20.423
28.0, 18546.15879609094, 37732.51625687078, -44485.02296030796, -46955.605978441956, -34761.92471527156, -44109.13367380306, -28159.644086318505, -7979.773936244719, -0.11, 0.9420000000000001, 0.296, 192.0, 0.0, 0.0, 0.0, 0.0, 0.0, 0.0, 0.0, 0.0, 0.0, 1.700947280427034E9, 0.0, 2023-11-25 16:21:20.427
29.0, 18536.94987737535, 37641.701119148864, -44470.6954921121, -46981.62340898793, -34637.87253354461, -44301.58219356325, -28171.557566113184, -7990.301607883169, -0.11, 0.9420000000000001, 0.296, 192.0, 0.0, 0.0, 0.0, 0.0, 0.0, 0.0, 0.0, 0.0, 0.0, 1.700947280432041E9, 0.0, 2023-11-25 16:21:20.432
30.0, 18226.730016080146, 37635.152058023465, -44496.17648079115, -46947.76051613814, -34981.70941850059, -44533.168617864685, -28136.51003080726, -7948.0568108626385, -0.10400000000000001, 0.9440000000000001, 0.292, 192.0, 252.0, 192.0, 29.0, 128.0, 9.0, 32.0, 0.0, 0.0, 0.0, 1.700947280436011E9, 0.0, 2023-11-25 16:21:20.436
31.0, 18311.353720587937, 37698.98864018782, -44522.193911337126, -46942.19493176877, -34957.79305193342, -44271.228524592945, -28159.599382829594, -7966.362889571535, -0.10400000000000001, 0.9440000000000001, 0.292, 192.0, 0.0, 0.0, 0.0, 0.0, 0.0, 0.0, 0.0, 0.0, 0.0, 1.700947280439029E9, 0.0, 2023-11-25 16:21:20.439
32.0, 18506.685615382867, 37734.483210382845, -44502.61378319428, -46939.60212941196, -34817.804076409826, -44122.812941409706, -28164.00267648729, -7978.209314132848, -0.10400000000000001, 0.9440000000000001, 0.292, 192.0, 0.0, 0.0, 0.0, 0.0, 0.0, 0.0, 0.0, 0.0, 0.0, 1.700947280444075E9, 0.0, 2023-11-25 16:21:20.444
33.0, 18594.952654236873, 37648.49604946328, -44464.235837964516, -46968.190010570295, -34596.74532374684, -44231.82239911824, -28164.33795265412, -7991.173325916926, -0.10400000000000001, 0.9440000000000001, 0.292, 192.0, 0.0, 0.0, 0.0, 0.0, 0.0, 0.0, 0.0, 0.0, 0.0, 1.700947280448113E9, 0.0, 2023-11-25 16:21:20.448
34.0, 18265.7114584102, 37619.86346481603, -44490.14150978822, -46944.38540272539, -34937.9447028571, -44525.4572660276, -28121.26614108874, -7939.160816569426, -0.10400000000000001, 0.9440000000000001, 0.292, 192.0, 0.0, 0.0, 0.0, 0.0, 0.0, 0.0, 0.0, 0.0, 0.0, 1.700947280451124E9, 0.0, 2023-11-25 16:21:20.451
35.0, 18299.686109982267, 37682.31423882416, -44508.984030364045, -46936.40582995485, -34959.73765370103, -44298.274135383865, -28133.85017321708, -7945.285194550181, -0.10400000000000001, 0.9440000000000001, 0.292, 192.0, 0.0, 0.0, 0.0, 0.0, 0.0, 0.0, 0.0, 0.0, 0.0, 1.700947280455204E9, 0.0, 2023-11-25 16:21:20.455
36.0, 18468.64294631993, 37734.058527238194, -44511.46507399858, -46938.05985904454, -34857.36666409572, -44117.91790937399, -28152.80445251518, -7958.316261567625, -0.10400000000000001, 0.9440000000000001, 0.292, 192.0, 0.0, 0.0, 0.0, 0.0, 0.0, 0.0, 0.0, 0.0, 0.0, 1.700947280459225E9, 0.0, 2023-11-25 16:21:20.459
37.0, 18612.5434771232, 37658.73314842381, -44468.080338010834, -46972.34743503898, -34592.833768467164, -44171.71855827791, -28173.390409158517, -7979.885694966995, -0.10400000000000001, 0.9440000000000001, 0.292, 192.0, 0.0, 0.0, 0.0, 0.0, 0.0, 0.0, 0.0, 0.0, 0.0, 1.700947280463106E9, 0.0, 2023-11-25 16:21:20.463
38.0, 18302.793002461553, 37618.56706363762, -44485.201774263594, -46947.24642601567, -34876.29859164936, -44501.071512826864, -28126.85407720257, -7924.85570011803, -0.10400000000000001, 0.9440000000000001, 0.292, 192.0, 0.0, 0.0, 0.0, 0.0, 0.0, 0.0, 0.0, 0.0, 0.0, 1.700947280467138E9, 0.0, 2023-11-25 16:21:20.467
39.0, 18275.635632948357, 37668.25499156177, -44501.96558260508, -46932.20370199725, -34953.635627464726, -44333.56753987879, -28126.250580102278, -7920.586516927066, -0.10400000000000001, 0.9440000000000001, 0.292, 192.0, 0.0, 0.0, 0.0, 0.0, 0.0, 0.0, 0.0, 0.0, 0.0, 1.700947280471122E9, 0.0, 2023-11-25 16:21:20.471
40.0, 18440.725617495253, 37745.59202737713, -44501.51854771597, -46909.02494299709, -34872.38703636969, -44112.464083726896, -28128.373995825532, -7916.1832232693705, -0.098, 0.9440000000000001, 0.294, 192.0, 252.0, 240.0, 29.0, 128.0, 9.0, 48.0, 0.0, 0.0, 0.0, 1.700947280476231E9, 0.0, 2023-11-25 16:21:20.476
41.0, 18638.69501813591, 37695.16649188596, -44443.0910877098, -46932.2260537417, -34584.876547441076, -44096.7061038859, -28143.46142333286, -7937.3726770130015, -0.098, 0.9440000000000001, 0.294, 192.0, 0.0, 0.0, 0.0, 0.0, 0.0, 0.0, 0.0, 0.0, 0.0, 1.700947280479582E9, 0.0, 2023-11-25 16:21:20.479
42.0, 18379.124209776426, 37631.799296355166, -44456.65859659417, -46926.74987635015, -34779.3590759467, -44426.52844506841, -28111.43137352841, -7904.605019641522, -0.098, 0.9440000000000001, 0.294, 192.0, 0.0, 0.0, 0.0, 0.0, 0.0, 0.0, 0.0, 0.0, 0.0, 1.700947280483107E9, 0.0, 2023-11-25 16:21:20.483
43.0, 18270.494731723637, 37674.11114860906, -44465.26401820946, -46906.655658084834, -34944.2478947935, -44358.57914192428, -28092.27592853021, -7893.5632578806, -0.098, 0.9440000000000001, 0.294, 192.0, 0.0, 0.0, 0.0, 0.0, 0.0, 0.0, 0.0, 0.0, 0.0, 1.70094728048717E9, 0.0, 2023-11-25 16:21:20.487
44.0, 18407.801497912587, 37744.966178532384, -44485.358236474785, -46909.874309286395, -34884.18875744209, -44122.76823792079, -28114.404155540964, -7918.2395837592585, -0.098, 0.9440000000000001, 0.294, 192.0, 0.0, 0.0, 0.0, 0.0, 0.0, 0.0, 0.0, 0.0, 0.0, 1.700947280491216E9, 0.0, 2023-11-25 16:21:20.491
45.0, 18617.34910218109, 37707.97404145885, -44441.660576064656, -46944.47480970321, -34627.25545492834, -44087.54188865923, -28142.29913262119, -7956.170494099915, -0.098, 0.9440000000000001, 0.294, 192.0, 0.0, 0.0, 0.0, 0.0, 0.0, 0.0, 0.0, 0.0, 0.0, 1.700947280495183E9, 0.0, 2023-11-25 16:21:20.495
46.0, 18453.22024264577, 37633.65449114496, -44448.94724475709, -46955.56127495304, -34713.75670597037, -44393.73843595248, -28123.501315534275, -7941.3065840371355, -0.098, 0.9440000000000001, 0.294, 192.0, 0.0, 0.0, 0.0, 0.0, 0.0, 0.0, 0.0, 0.0, 0.0, 1.700947280499213E9, 0.0, 2023-11-25 16:21:20.499
47.0, 18258.670658906776, 37657.05676758966, -44477.78099510443, -46940.496199190165, -34970.17591836166, -44450.73538431351, -28108.838571171593, -7929.303697264636, -0.098, 0.9440000000000001, 0.294, 192.0, 0.0, 0.0, 0.0, 0.0, 0.0, 0.0, 0.0, 0.0, 0.0, 1.700947280504238E9, 0.0, 2023-11-25 16:21:20.504
48.0, 18374.273881229627, 37721.6533090655, -44514.39315252223, -46944.78773412559, -34926.88058935173, -44198.3841894131, -28134.67718776193, -7947.520368995711, -0.098, 0.9440000000000001, 0.294, 192.0, 0.0, 0.0, 0.0, 0.0, 0.0, 0.0, 0.0, 0.0, 0.0, 1.700947280507204E9, 0.0, 2023-11-25 16:21:20.507
49.0, 18584.424982598423, 37717.45118110791, -44474.160012502674, -46957.684690676295, -34706.55944425576, -44114.72160991688, -28150.502222836283, -7964.284177337191, -0.098, 0.9440000000000001, 0.294, 192.0, 0.0, 0.0, 0.0, 0.0, 0.0, 0.0, 0.0, 0.0, 0.0, 1.70094728051132E9, 0.0, 2023-11-25 16:21:20.511
50.0, 18510.440708451355, 37638.54952318067, -44466.202791476586, -46972.660359461355, -34662.66061814554, -44355.382842467174, -28145.853059989582, -7959.255034834748, -0.098, 0.9480000000000001, 0.298, 192.0, 252.0, 240.0, 29.0, 160.0, 9.0, 80.0, 0.0, 0.0, 0.0, 1.700947280515257E9, 0.0, 2023-11-25 16:21:20.515
51.0, 18242.689161621234, 37647.78079364071, -44495.3047627574, -46946.46411495974, -34977.887270198735, -44512.537957732435, -28127.05524290267, -7934.534005467178, -0.098, 0.9480000000000001, 0.298, 192.0, 0.0, 0.0, 0.0, 0.0, 0.0, 0.0, 0.0, 0.0, 0.0, 1.700947280519227E9, 0.0, 2023-11-25 16:21:20.519
52.0, 18344.501357615158, 37714.05371595069, -44525.09963811632, -46941.59143466848, -34940.40339474719, -44242.75240215688, -28148.75878676877, -7952.795380687164, -0.098, 0.9480000000000001, 0.298, 192.0, 0.0, 0.0, 0.0, 0.0, 0.0, 0.0, 0.0, 0.0, 0.0, 1.70094728052327E9, 0.0, 2023-11-25 16:21:20.523
53.0, 18547.38814203598, 37728.49294286883, -44497.22701278055, -46945.2794725036, -34763.17641296106, -44117.560281462705, -28165.81316778817, -7966.072316893616, -0.098, 0.9480000000000001, 0.298, 192.0, 0.0, 0.0, 0.0, 0.0, 0.0, 0.0, 0.0, 0.0, 0.0, 1.700947280527268E9, 0.0, 2023-11-25 16:21:20.527
54.0, 18566.163607378436, 37645.32210175063, -44474.47293692505, -46969.084080348504, -34612.23508265437, -44287.2547253674, -28175.491473137317, -7974.789497231186, -0.098, 0.9480000000000001, 0.298, 192.0, 0.0, 0.0, 0.0, 0.0, 0.0, 0.0, 0.0, 0.0, 0.0, 1.700947280532284E9, 0.0, 2023-11-25 16:21:20.532
55.0, 18254.200310015716, 37639.912979592445, -44494.96948659056, -46936.04820204356, -34953.47916525354, -44525.99370789453, -28127.1893533694, -7926.554432696633, -0.098, 0.9480000000000001, 0.298, 192.0, 0.0, 0.0, 0.0, 0.0, 0.0, 0.0, 0.0, 0.0, 0.0, 1.700947280535297E9, 0.0, 2023-11-25 16:21:20.535
56.0, 18332.364360375926, 37720.93805324293, -44503.19492855012, -46915.73046633368, -34933.54140919941, -44263.6959867115, -28133.80546972817, -7928.9237176088955, -0.098, 0.9480000000000001, 0.298, 192.0, 0.0, 0.0, 0.0, 0.0, 0.0, 0.0, 0.0, 0.0, 0.0, 1.700947280539341E9, 0.0, 2023-11-25 16:21:20.539
57.0, 18521.14719404545, 37765.97681832038, -44479.9491143166, -46909.40492265284, -34792.434846453056, -44098.29307774223, -28143.48377507732, -7936.389200256968, -0.098, 0.9480000000000001, 0.298, 192.0, 0.0, 0.0, 0.0, 0.0, 0.0, 0.0, 0.0, 0.0, 0.0, 1.700947280543341E9, 0.0, 2023-11-25 16:21:20.543
58.0, 18620.992436527307, 37680.28023007873, -44439.04542196339, -46943.513684691636, -34557.27214303877, -44191.16457595403, -28156.760711283772, -7951.901310908951, -0.098, 0.9480000000000001, 0.298, 192.0, 0.0, 0.0, 0.0, 0.0, 0.0, 0.0, 0.0, 0.0, 0.0, 1.700947280547353E9, 0.0, 2023-11-25 16:21:20.547
59.0, 18283.27992955207, 37638.54952318067, -44473.8470880803, -46931.264928730125, -34899.63381286071, -44508.984030364045, -28122.964873667348, -7909.812976099608, -0.098, 0.9480000000000001, 0.298, 192.0, 0.0, 0.0, 0.0, 0.0, 0.0, 0.0, 0.0, 0.0, 0.0, 1.700947280551344E9, 0.0, 2023-11-25 16:21:20.551
60.0, 18300.244903593648, 37698.54160529871, -44490.9014690997, -46918.90441404634, -34938.07881332384, -44298.02826619486, -28124.462440545853, -7915.512670935711, -0.106, 0.9440000000000001, 0.296, 192.0, 252.0, 176.0, 29.0, 128.0, 9.0, 64.0, 0.0, 0.0, 0.0, 1.700947280555364E9, 0.0, 2023-11-25 16:21:20.555
61.0, 18468.821760275576, 37756.52203041578, -44487.61576266477, -46909.02494299709, -34842.815678455314, -44104.21629002289, -28127.502277791773, -7917.189051769859, -0.106, 0.9440000000000001, 0.296, 192.0, 0.0, 0.0, 0.0, 0.0, 0.0, 0.0, 0.0, 0.0, 0.0, 1.700947280560333E9, 0.0, 2023-11-25 16:21:20.560
62.0, 18626.893297063507, 37672.65828521947, -44445.572131344336, -46949.25808301665, -34570.258506567305, -44139.085011373165, -28139.75103375328, -7943.273537549203, -0.106, 0.9440000000000001, 0.296, 192.0, 0.0, 0.0, 0.0, 0.0, 0.0, 0.0, 0.0, 0.0, 0.0, 1.700947280563344E9, 0.0, 2023-11-25 16:21:20.563
63.0, 18319.467403825212, 37614.811970569135, -44473.06477702437, -46940.25033000116, -34844.33559707828, -44472.68479736862, -28092.387687252485, -7897.720682349287, -0.106, 0.9440000000000001, 0.296, 192.0, 0.0, 0.0, 0.0, 0.0, 0.0, 0.0, 0.0, 0.0, 0.0, 1.700947280566351E9, 0.0, 2023-11-25 16:21:20.566
64.0, 18270.002993345617, 37668.18793632841, -44482.072530039855, -46921.31840244751, -34945.320778527355, -44328.471342142984, -28081.100056302555, -7890.635179356955, -0.106, 0.9440000000000001, 0.296, 192.0, 0.0, 0.0, 0.0, 0.0, 0.0, 0.0, 0.0, 0.0, 0.0, 1.700947280571359E9, 0.0, 2023-11-25 16:21:20.571
65.0, 18426.286390577126, 37744.25092270981, -44477.311608470874, -46901.42534988229, -34865.681513033094, -44100.79647312123, -28087.00091683876, -7892.646836357932, -0.106, 0.9440000000000001, 0.296, 192.0, 0.0, 0.0, 0.0, 0.0, 0.0, 0.0, 0.0, 0.0, 0.0, 1.70094728057539E9, 0.0, 2023-11-25 16:21:20.575
66.0, 18632.615343644065, 37689.28798309422, -44420.60523278776, -46932.56132990853, -34572.71719845739, -44074.19789721941, -28111.40902178395, -7929.437807731368, -0.106, 0.9440000000000001, 0.296, 192.0, 0.0, 0.0, 0.0, 0.0, 0.0, 0.0, 0.0, 0.0, 0.0, 1.700947280579408E9, 0.0, 2023-11-25 16:21:20.579
67.0, 18399.35253850848, 37627.61952014203, -44434.26214864995, -46929.0744577735, -34750.346511643715, -44406.568337269826, -28090.756009907247, -7906.504917920222, -0.106, 0.9440000000000001, 0.296, 192.0, 0.0, 0.0, 0.0, 0.0, 0.0, 0.0, 0.0, 0.0, 0.0, 1.70094728058341E9, 0.0, 2023-11-25 16:21:20.583
68.0, 18275.85915039291, 37667.78560492821, -44455.65276809368, -46915.19402446676, -34940.87278138075, -44374.225363043, -28093.147646563968, -7910.260010988714, -0.106, 0.9440000000000001, 0.296, 192.0, 0.0, 0.0, 0.0, 0.0, 0.0, 0.0, 0.0, 0.0, 0.0, 1.700947280586395E9, 0.0, 2023-11-25 16:21:20.586
69.0, 18407.130945578927, 37739.28883544074, -44489.828585365845, -46921.76543733662, -34891.47542613452, -44140.135543362565, -28128.84338245909, -7943.832331160585, -0.106, 0.9440000000000001, 0.296, 192.0, 0.0, 0.0, 0.0, 0.0, 0.0, 0.0, 0.0, 0.0, 0.0, 1.700947280590415E9, 0.0, 2023-11-25 16:21:20.590
70.0, 18616.231514958326, 37708.37637285905, -44450.78008780242, -46950.66624291733, -34645.56153363723, -44086.40194969201, -28151.91038273697, -7973.738965241786, -0.108, 0.9400000000000001, 0.298, 192.0, 252.0, 160.0, 29.0, 96.0, 9.0, 80.0, 0.0, 0.0, 0.0, 1.700947280594599E9, 0.0, 2023-11-25 16:21:20.594
71.0, 18460.775132271665, 37629.25119748726, -44461.75479432998, -46963.63025470141, -34710.269833835344, -44379.54507822336, -28144.266086133255, -7959.836180190585, -0.108, 0.9400000000000001, 0.298, 192.0, 0.0, 0.0, 0.0, 0.0, 0.0, 0.0, 0.0, 0.0, 0.0, 1.700947280598619E9, 0.0, 2023-11-25 16:21:20.598
72.0, 18251.56280416999, 37655.46979373333, -44489.403902221195, -46939.311556734036, -34978.84839521031, -44450.51186686896, -28129.983321426313, -7939.1384648249705, -0.108, 0.9400000000000001, 0.298, 192.0, 0.0, 0.0, 0.0, 0.0, 0.0, 0.0, 0.0, 0.0, 0.0, 1.700947280604435E9, 0.0, 2023-11-25 16:21:20.604
73.0, 18377.961919064754, 37739.311187185194, -44509.36401001978, -46923.26300421513, -34927.61819691875, -44183.006189227846, -28137.0911761631, -7947.609775973532, -0.108, 0.9400000000000001, 0.298, 192.0, 0.0, 0.0, 0.0, 0.0, 0.0, 0.0, 0.0, 0.0, 0.0, 1.700947280607483E9, 0.0, 2023-11-25 16:21:20.607
74.0, 18592.80688676916, 37737.54539937322, -44471.3436927013, -46935.24353924317, -34710.51570302436, -44084.703217113405, -28154.413778115962, -7970.632072762499, -0.108, 0.9400000000000001, 0.298, 192.0, 0.0, 0.0, 0.0, 0.0, 0.0, 0.0, 0.0, 0.0, 0.0, 1.700947280611547E9, 0.0, 2023-11-25 16:21:20.611
75.0, 18533.463005240323, 37639.04126155868, -44469.26498046696, -46962.49031573419, -34652.49057441838, -44313.89800475812, -28159.934658996423, -7977.181133887903, -0.108, 0.9400000000000001, 0.298, 192.0, 0.0, 0.0, 0.0, 0.0, 0.0, 0.0, 0.0, 0.0, 0.0, 1.700947280614954E9, 0.0, 2023-11-25 16:21:20.614
76.0, 18245.818405844977, 37629.02768004271, -44502.85965238329, -46942.28433874659, -34988.48199707055, -44494.56715519037, -28137.024120929735, -7951.387220786479, -0.108, 0.9400000000000001, 0.298, 192.0, 0.0, 0.0, 0.0, 0.0, 0.0, 0.0, 0.0, 0.0, 0.0, 1.700947280618482E9, 0.0, 2023-11-25 16:21:20.618
77.0, 18343.272011670117, 37692.10430289558, -44527.82655093987, -46940.71971663472, -34956.071967610354, -44222.54642516928, -28157.72183629535, -7970.967348929328, -0.108, 0.9400000000000001, 0.298, 192.0, 0.0, 0.0, 0.0, 0.0, 0.0, 0.0, 0.0, 0.0, 0.0, 1.700947280622471E9, 0.0, 2023-11-25 16:21:20.622
78.0, 18547.902232158453, 37720.87099800957, -44488.82275686535, -46934.841207842976, -34786.82455859477, -44087.18426074794, -28154.681999049426, -7969.089802395082, -0.108, 0.9400000000000001, 0.298, 192.0, 0.0, 0.0, 0.0, 0.0, 0.0, 0.0, 0.0, 0.0, 0.0, 1.70094728062649E9, 0.0, 2023-11-25 16:21:20.626
79.0, 18583.57561630912, 37630.480543432306, -44458.35732917277, -46965.038414602095, -34615.38667862257, -44236.22569277593, -28155.732531038826, -7975.571808287122, -0.108, 0.9400000000000001, 0.298, 192.0, 0.0, 0.0, 0.0, 0.0, 0.0, 0.0, 0.0, 0.0, 0.0, 1.700947280631537E9, 0.0, 2023-11-25 16:21:20.631
80.0, 18255.69787689422, 37611.14628447846, -44485.492346941515, -46936.89756833286, -34960.67642696815, -44494.96948659056, -28110.939635150393, -7928.253165275236, -0.096, 0.9440000000000001, 0.298, 192.0, 253.0, 0.0, 29.0, 128.0, 9.0, 80.0, 0.0, 0.0, 0.0, 1.700947280635579E9, 0.0, 2023-11-25 16:21:20.635
81.0, 18308.71621474221, 37663.605828715066, -44514.86253915579, -46934.81885609852, -34953.233296064536, -44241.41129748956, -28132.442013316395, -7949.107342852038, -0.096, 0.9440000000000001, 0.298, 192.0, 0.0, 0.0, 0.0, 0.0, 0.0, 0.0, 0.0, 0.0, 0.0, 1.700947280639576E9, 0.0, 2023-11-25 16:21:20.639
82.0, 18487.55252212912, 37713.0031839613, -44494.14247204572, -46922.70421060374, -34825.94011139156, -44075.82957456465, -28134.721891250836, -7947.989755629273, -0.096, 0.9440000000000001, 0.298, 192.0, 0.0, 0.0, 0.0, 0.0, 0.0, 0.0, 0.0, 0.0, 0.0, 1.700947280642531E9, 0.0, 2023-11-25 16:21:20.642
83.0, 18600.45118337288, 37628.35712770905, -44448.76843080144, -46951.24738827317, -34581.568489261685, -44154.41830806951, -28132.57612378313, -7958.04804063416, -0.096, 0.9440000000000001, 0.298, 192.0, 0.0, 0.0, 0.0, 0.0, 0.0, 0.0, 0.0, 0.0, 0.0, 1.700947280646754E9, 0.0, 2023-11-25 16:21:20.646
84.0, 18271.791132902043, 37584.458301598825, -44478.76447186047, -46933.991841553674, -34909.64739437668, -44470.42727117864, -28078.529605690197, -7908.4942231767445, -0.096, 0.9440000000000001, 0.298, 192.0, 0.0, 0.0, 0.0, 0.0, 0.0, 0.0, 0.0, 0.0, 0.0, 1.700947280652569E9, 0.0, 2023-11-25 16:21:20.652
85.0, 18279.86011265041, 37635.01794755673, -44501.02680933796, -46929.85676882944, -34953.79208967592, -44270.55797225928, -28078.55195743465, -7912.741054623253, -0.096, 0.9440000000000001, 0.298, 192.0, 0.0, 0.0, 0.0, 0.0, 0.0, 0.0, 0.0, 0.0, 0.0, 1.700947280655593E9, 0.0, 2023-11-25 16:21:20.655
86.0, 18433.818928458564, 37688.81859646065, -44505.05012333991, -46928.538015906575, -34868.58723981229, -44080.27757171125, -28081.502387702752, -7918.0607698036165, -0.096, 0.9440000000000001, 0.298, 192.0, 0.0, 0.0, 0.0, 0.0, 0.0, 0.0, 0.0, 0.0, 0.0, 1.700947280659602E9, 0.0, 2023-11-25 16:21:20.659
87.0, 18600.093555461593, 37617.44947641486, -44452.61293084776, -46963.1832198123, -34593.28080335627, -44101.265859754785, -28083.08936155908, -7933.706990922331, -0.096, 0.9440000000000001, 0.298, 192.0, 0.0, 0.0, 0.0, 0.0, 0.0, 0.0, 0.0, 0.0, 0.0, 1.700947280663639E9, 0.0, 2023-11-25 16:21:20.663
88.0, 18301.451897794235, 37553.635245994956, -44484.37475971875, -46963.227923301216, -34854.84091697227, -44439.02307021893, -28061.095245015058, -7899.598228883533, -0.096, 0.9440000000000001, 0.298, 192.0, 0.0, 0.0, 0.0, 0.0, 0.0, 0.0, 0.0, 0.0, 0.0, 1.700947280667658E9, 0.0, 2023-11-25 16:21:20.667
89.0, 18242.443292432225, 37608.62053735501, -44492.17551853365, -46942.55255968006, -34973.88630794124, -44321.63170833966, -28056.960172290823, -7890.813993312597, -0.096, 0.9440000000000001, 0.298, 192.0, 0.0, 0.0, 0.0, 0.0, 0.0, 0.0, 0.0, 0.0, 0.0, 1.700947280670603E9, 0.0, 2023-11-25 16:21:20.670
90.0, 18399.35253850848, 37690.20440461688, -44496.51175695798, -46930.41556244082, -34899.879682049715, -44096.43788295244, -28074.50629168824, -7902.459252173812, -0.092, 0.9480000000000001, 0.298, 192.0, 253.0, 32.0, 29.0, 160.0, 9.0, 80.0, 0.0, 0.0, 0.0, 1.700947280674629E9, 0.0, 2023-11-25 16:21:20.674
91.0, 18613.437546901412, 37654.73218616631, -44443.60517783227, -46957.59528369848, -34619.924082747, -44070.152231473, -28107.005728126256, -7937.059752590627, -0.092, 0.9480000000000001, 0.298, 192.0, 0.0, 0.0, 0.0, 0.0, 0.0, 0.0, 0.0, 0.0, 0.0, 1.700947280678855E9, 0.0, 2023-11-25 16:21:20.678
92.0, 18393.898712861384, 37589.95683073483, -44465.97927403203, -46963.40673725685, -34784.92466031607, -44404.35551456875, -28102.60243446856, -7922.955801839328, -0.092, 0.9480000000000001, 0.298, 192.0, 0.0, 0.0, 0.0, 0.0, 0.0, 0.0, 0.0, 0.0, 0.0, 1.700947280682761E9, 0.0, 2023-11-25 16:21:20.682
93.0, 18249.841719846932, 37622.90330206195, -44497.33877150283, -46952.49908596266, -34997.199177408125, -44396.66651447613, -28117.019309642234, -7932.477644977289, -0.092, 0.9480000000000001, 0.298, 192.0, 0.0, 0.0, 0.0, 0.0, 0.0, 0.0, 0.0, 0.0, 0.0, 1.700947280686705E9, 0.0, 2023-11-25 16:21:20.686
94.0, 18384.108648789963, 37697.20050063139, -44525.47961777206, -46950.9344638508, -34945.0972610828, -44160.38622383907, -28152.51387983726, -7964.395936059468, -0.092, 0.9480000000000001, 0.298, 192.0, 0.0, 0.0, 0.0, 0.0, 0.0, 0.0, 0.0, 0.0, 0.0, 1.700947280691677E9, 0.0, 2023-11-25 16:21:20.691
95.0, 18598.059546716162, 37676.97217189934, -44483.14541377371, -46974.51555425114, -34697.93167089602, -44103.501034200315, -28184.789798830727, -8000.426948121423, -0.092, 0.9480000000000001, 0.298, 192.0, 0.0, 0.0, 0.0, 0.0, 0.0, 0.0, 0.0, 0.0, 0.0, 1.700947280695786E9, 0.0, 2023-11-25 16:21:20.695
96.0, 18457.98116421475, 37591.54380459116, -44489.895640599214, -46990.340589325504, -34734.320310869254, -44385.84827015975, -28181.884072051536, -7993.944942229384, -0.092, 0.9480000000000001, 0.298, 192.0, 0.0, 0.0, 0.0, 0.0, 0.0, 0.0, 0.0, 0.0, 0.0, 1.700947280698728E9, 0.0, 2023-11-25 16:21:20.698
97.0, 18228.13817598083, 37606.78769430968, -44511.04039085393, -46963.16086806785, -35007.816256024395, -44473.13183225773, -28158.52649909574, -7966.876979694007, -0.092, 0.9480000000000001, 0.298, 192.0, 0.0, 0.0, 0.0, 0.0, 0.0, 0.0, 0.0, 0.0, 0.0, 1.700947280702801E9, 0.0, 2023-11-25 16:21:20.702
98.0, 18348.81524429503, 37680.21317484536, -44533.302728331415, -46947.000556826664, -34953.38975827572, -44200.99934351437, -28176.63141210454, -7981.115040912037, -0.092, 0.9480000000000001, 0.298, 192.0, 0.0, 0.0, 0.0, 0.0, 0.0, 0.0, 0.0, 0.0, 0.0, 1.700947280706686E9, 0.0, 2023-11-25 16:21:20.706
99.0, 18560.39685730897, 37686.739884226314, -44493.606030178795, -46953.080231318505, -34747.485488353435, -44094.67209514047, -28186.600290131606, -8000.158727187959, -0.092, 0.9480000000000001, 0.298, 192.0, 0.0, 0.0, 0.0, 0.0, 0.0, 0.0, 0.0, 0.0, 0.0, 1.700947280710784E9, 0.0, 2023-11-25 16:21:20.710
100.0, 18524.81288013612, 37604.7760373087, -44472.08130026833, -46970.089908849, -34658.10086227666, -44304.1079406867, -28162.01337123077, -7994.235514907303, -0.098, 0.9460000000000001, 0.296, 192.0, 252.0, 240.0, 29.0, 144.0, 9.0, 64.0, 0.0, 0.0, 0.0, 1.700947280714792E9, 0.0, 2023-11-25 16:21:20.714
101.0, 18235.693065606723, 37610.185159466884, -44493.181347034144, -46940.429143956804, -34987.8561482258, -44489.62741966575, -28123.724832978827, -7949.979060885795, -0.098, 0.9460000000000001, 0.296, 192.0, 0.0, 0.0, 0.0, 0.0, 0.0, 0.0, 0.0, 0.0, 0.0, 1.700947280719757E9, 0.0, 2023-11-25 16:21:20.719
102.0, 18332.029084209094, 37684.05767489167, -44507.28529778544, -46927.53218740609, -34953.210944320075, -44216.42204718853, -28128.351644081074, -7950.895482408462, -0.098, 0.9460000000000001, 0.296, 192.0, 0.0, 0.0, 0.0, 0.0, 0.0, 0.0, 0.0, 0.0, 0.0, 1.700947280723747E9, 0.0, 2023-11-25 16:21:20.723
103.0, 18527.89742087095, 37708.24226239232, -44480.75377711699, -46932.49427467517, -34787.29394522833, -44068.49820238331, -28134.945408695392, -7962.451334291856, -0.098, 0.9460000000000001, 0.296, 192.0, 0.0, 0.0, 0.0, 0.0, 0.0, 0.0, 0.0, 0.0, 0.0, 1.700947280726768E9, 0.0, 2023-11-25 16:21:20.726
104.0, 18568.555244035157, 37618.41060142644, -44454.60223610428, -46968.10060359247, -34603.78612325026, -44216.31028846625, -28144.37784485553, -7977.717575754831, -0.098, 0.9460000000000001, 0.296, 192.0, 0.0, 0.0, 0.0, 0.0, 0.0, 0.0, 0.0, 0.0, 0.0, 1.700947280730807E9, 0.0, 2023-11-25 16:21:20.730
105.0, 18232.116786493872, 37596.125912204494, -44484.53122192994, -46950.10744930595, -34952.47333675305, -44489.895640599214, -28107.877446160015, -7933.684639177876, -0.098, 0.9460000000000001, 0.296, 192.0, 0.0, 0.0, 0.0, 0.0, 0.0, 0.0, 0.0, 0.0, 0.0, 1.7009472807348E9, 0.0, 2023-11-25 16:21:20.734
106.0, 18279.56953997249, 37657.1908780564, -44503.91018437269, -46944.2289405142, -34954.462642009574, -44248.206227803974, -28119.969739910335, -7941.217177059314, -0.098, 0.9460000000000001, 0.296, 192.0, 0.0, 0.0, 0.0, 0.0, 0.0, 0.0, 0.0, 0.0, 0.0, 1.700947280738844E9, 0.0, 2023-11-25 16:21:20.738
107.0, 18457.35531537, 37698.832177976634, -44498.72457965906, -46947.02290857112, -34831.438640527565, -44075.337836186634, -28133.537248794706, -7953.845912676563, -0.098, 0.9460000000000001, 0.296, 192.0, 0.0, 0.0, 0.0, 0.0, 0.0, 0.0, 0.0, 0.0, 0.0, 1.700947280742888E9, 0.0, 2023-11-25 16:21:20.742
108.0, 18585.564921565645, 37628.89356957598, -44446.063869722355, -46969.15113558187, -34582.39550380653, -44154.328901091685, -28137.359397096563, -7962.227816847303, -0.098, 0.9460000000000001, 0.296, 192.0, 0.0, 0.0, 0.0, 0.0, 0.0, 0.0, 0.0, 0.0, 0.0, 1.700947280746906E9, 0.0, 2023-11-25 16:21:20.746
109.0, 18260.682315907754, 37594.13660694798, -44467.78976533291, -46943.24546375817, -34898.00213551547, -44473.80238459139, -28085.615108682527, -7897.541868393644, -0.098, 0.9460000000000001, 0.296, 192.0, 0.0, 0.0, 0.0, 0.0, 0.0, 0.0, 0.0, 0.0, 0.0, 1.700947280751944E9, 0.0, 2023-11-25 16:21:20.751
110.0, 18260.27998450756, 37648.54075295219, -44488.934515587636, -46936.651699143855, -34953.68033095364, -44277.643475251614, -28084.09519005957, -7895.351397437024, -0.106, 0.9460000000000001, 0.296, 192.0, 252.0, 176.0, 29.0, 144.0, 9.0, 64.0, 0.0, 0.0, 0.0, 1.700947280754921E9, 0.0, 2023-11-25 16:21:20.754
111.0, 18416.473974761248, 37702.22964313384, -44504.31251577289, -46943.62544341391, -34867.49200433397, -44076.56718213167, -28098.46736174433, -7907.0860632760605, -0.106, 0.9460000000000001, 0.296, 192.0, 0.0, 0.0, 0.0, 0.0, 0.0, 0.0, 0.0, 0.0, 0.0, 1.700947280758983E9, 0.0, 2023-11-25 16:21:20.758
112.0, 18590.929340234918, 37639.66711040343, -44455.40689890467, -46972.369786783434, -34592.09616090014, -44102.316391744185, -28105.32934729211, -7920.944144838351, -0.106, 0.9460000000000001, 0.296, 192.0, 0.0, 0.0, 0.0, 0.0, 0.0, 0.0, 0.0, 0.0, 0.0, 1.700947280762907E9, 0.0, 2023-11-25 16:21:20.762
113.0, 18313.655950266835, 37576.25521138373, -44490.07445455485, -46969.32994953751, -34835.014919640416, -44441.61587257575, -28077.300259745152, -7883.616731597988, -0.106, 0.9460000000000001, 0.296, 192.0, 0.0, 0.0, 0.0, 0.0, 0.0, 0.0, 0.0, 0.0, 0.0, 1.70094728076693E9, 0.0, 2023-11-25 16:21:20.766
114.0, 18238.934068552742, 37625.76432535223, -44515.35427753381, -46954.80131564156, -34978.11078764329, -44348.69967087504, -28078.641364412473, -7881.403908896913, -0.106, 0.9460000000000001, 0.296, 192.0, 0.0, 0.0, 0.0, 0.0, 0.0, 0.0, 0.0, 0.0, 0.0, 1.700947280770917E9, 0.0, 2023-11-25 16:21:20.770
115.0, 18398.078489074527, 37705.671811779954, -44531.64869924173, -46945.19006552578, -34906.80872283086, -44114.900423872525, -28098.802637911158, -7895.776080581675, -0.106, 0.9460000000000001, 0.296, 192.0, 0.0, 0.0, 0.0, 0.0, 0.0, 0.0, 0.0, 0.0, 0.0, 1.700947280775942E9, 0.0, 2023-11-25 16:21:20.775
116.0, 18617.907895792472, 37678.760311455764, -44471.7460241015, -46960.769231411134, -34634.11744047611, -44084.63616188004, -28117.42164104243, -7919.714798893309, -0.106, 0.9460000000000001, 0.296, 192.0, 0.0, 0.0, 0.0, 0.0, 0.0, 0.0, 0.0, 0.0, 0.0, 1.700947280778953E9, 0.0, 2023-11-25 16:21:20.778
117.0, 18414.77524218264, 37607.63706059898, -44485.358236474785, -46967.139478580895, -34763.757558316895, -44398.76757845492, -28115.1864665969, -7914.32802847958, -0.106, 0.9460000000000001, 0.296, 192.0, 0.0, 0.0, 0.0, 0.0, 0.0, 0.0, 0.0, 0.0, 0.0, 1.700947280782046E9, 0.0, 2023-11-25 16:21:20.782
118.0, 18256.100208294418, 37650.597113442076, -44494.83537612383, -46937.4787136887, -34978.69193299913, -44406.45657854755, -28111.252559572764, -7912.2493162452365, -0.106, 0.9460000000000001, 0.296, 192.0, 0.0, 0.0, 0.0, 0.0, 0.0, 0.0, 0.0, 0.0, 0.0, 1.700947280786937E9, 0.0, 2023-11-25 16:21:20.786
119.0, 18394.54691345059, 37737.05366099521, -44504.82660589536, -46920.60314662494, -34911.05555427737, -44150.03736615627, -28133.492545305795, -7936.791531657163, -0.106, 0.9460000000000001, 0.296, 192.0, 0.0, 0.0, 0.0, 0.0, 0.0, 0.0, 0.0, 0.0, 0.0, 1.700947280791023E9, 0.0, 2023-11-25 16:21:20.791
120.0, 18612.074090489637, 37725.29664341172, -44448.52256161244, -46930.147341507356, -34662.99589431237, -44074.980208275345, -28146.635371045515, -7955.075258621605, -0.1, 0.9500000000000001, 0.294, 192.0, 252.0, 224.0, 29.0, 176.0, 9.0, 48.0, 0.0, 0.0, 0.0, 1.700947280794931E9, 0.0, 2023-11-25 16:21:20.794
121.0, 18501.61176939151, 37642.751651138264, -44440.69945105308, -46942.95489108025, -34662.95119082346, -44332.472304400486, -28135.683016262417, -7943.251185804747, -0.1, 0.9500000000000001, 0.294, 192.0, 0.0, 0.0, 0.0, 0.0, 0.0, 0.0, 0.0, 0.0, 0.0, 1.70094728079897E9, 0.0, 2023-11-25 16:21:20.798
122.0, 18257.977754828662, 37657.861430390054, -44461.79949781889, -46916.84805355645, -34953.47916525354, -44446.957939500564, -28115.924074163926, -7924.609830929021, -0.1, 0.9500000000000001, 0.294, 192.0, 0.0, 0.0, 0.0, 0.0, 0.0, 0.0, 0.0, 0.0, 0.0, 1.700947280802966E9, 0.0, 2023-11-25 16:21:20.802
123.0, 18373.82684634052, 37727.93414925744, -44485.33588473033, -46911.10365523144, -34900.28201344991, -44172.79144201177, -28133.17962088342, -7943.899386393951, -0.1, 0.9500000000000001, 0.294, 192.0, 0.0, 0.0, 0.0, 0.0, 0.0, 0.0, 0.0, 0.0, 0.0, 1.700947280806986E9, 0.0, 2023-11-25 16:21:20.806
124.0, 18573.852607471064, 37724.6037393336, -44455.58571286032, -46926.28048971659, -34703.31844130975, -44059.80337379019, -28152.08919669261, -7965.737040726786, -0.1, 0.9500000000000001, 0.294, 192.0, 0.0, 0.0, 0.0, 0.0, 0.0, 0.0, 0.0, 0.0, 0.0, 1.7009472808101E9, 0.0, 2023-11-25 16:21:20.810
125.0, 18539.408569265433, 37628.223017242315, -44448.38845114571, -46957.59528369848, -34603.45084708343, -44267.60754199118, -28158.548850840194, -7974.186000130892, -0.1, 0.9500000000000001, 0.294, 192.0, 0.0, 0.0, 0.0, 0.0, 0.0, 0.0, 0.0, 0.0, 0.0, 1.700947280815115E9, 0.0, 2023-11-25 16:21:20.815
126.0, 18232.340303938425, 37622.411563683934, -44478.60800964928, -46933.634213642385, -34945.946627372105, -44475.43406193663, -28123.657777745462, -7931.203595543337, -0.1, 0.9500000000000001, 0.294, 192.0, 0.0, 0.0, 0.0, 0.0, 0.0, 0.0, 0.0, 0.0, 0.0, 1.70094728081902E9, 0.0, 2023-11-25 16:21:20.819
127.0, 18319.892086969863, 37691.52315753975, -44502.61378319428, -46927.15220775035, -34917.73872586951, -44200.59701211417, -28129.625693515027, -7938.199691557848, -0.1, 0.9500000000000001, 0.294, 192.0, 0.0, 0.0, 0.0, 0.0, 0.0, 0.0, 0.0, 0.0, 0.0, 1.700947280822998E9, 0.0, 2023-11-25 16:21:20.822
128.0, 18516.878010854485, 37733.07505048216, -44477.110442770776, -46920.290222202566, -34771.58066887625, -44056.450612121895, -28130.76563248225, -7942.133598581982, -0.1, 0.9500000000000001, 0.294, 192.0, 0.0, 0.0, 0.0, 0.0, 0.0, 0.0, 0.0, 0.0, 0.0, 1.700947280827022E9, 0.0, 2023-11-25 16:21:20.827
129.0, 18586.4366395994, 37642.10345054906, -44450.17659070213, -46954.19781854127, -34577.29930607072, -44185.19666018447, -28140.935676209414, -7957.869226678518, -0.1, 0.9500000000000001, 0.294, 192.0, 0.0, 0.0, 0.0, 0.0, 0.0, 0.0, 0.0, 0.0, 0.0, 1.700947280831057E9, 0.0, 2023-11-25 16:21:20.831
130.0, 18255.407304216304, 37615.28135720269, -44486.386416719724, -46935.735277621185, -34934.30136851089, -44476.73046311503, -28106.782210681704, -7908.628333643477, -0.10200000000000001, 0.9480000000000001, 0.3, 192.0, 252.0, 208.0, 29.0, 160.0, 9.0, 96.0, 0.0, 0.0, 0.0, 1.700947280835094E9, 0.0, 2023-11-25 16:21:20.835
