%OpenBCI Raw EXG Data
%Number of channels = 8
%Sample Rate = 250 Hz
%Board = OpenBCI_GUI$BoardCytonSerial
Sample Index, EXG Channel 0, EXG Channel 1, EXG Channel 2, EXG Channel 3, EXG Channel 4, EXG Channel 5, EXG Channel 6, EXG Channel 7, Accel Channel 0, Accel Channel 1, Accel Channel 2, Other, Other, Other, Other, Other, Other, Other, Analog Channel 0, Analog Channel 1, Analog Channel 2, Timestamp, Other, Timestamp (Formatted)
85.0, 52863.37320367971, 67500.8824468711, 9172.53007561327, -6725.9528310242695, 23488.956509704174, -30408.341337244674, 19909.525800886848, 17317.058720238056, 0.0, 0.0, 0.0, 192.0, 0.0, 0.0, 0.0, 0.0, 0.0, 0.0, 0.0, 0.0, 0.0, 1.700951129769665E9, 0.0, 2023-11-25 17:25:29.769
86.0, 52884.02621555641, 67509.1302405751, 9190.545581644248, -6714.70990356325, 23540.589039395934, -30346.38230161456, 19922.020426037365, 17343.29966822859, 0.0, 0.0, 0.0, 192.0, 0.0, 0.0, 0.0, 0.0, 0.0, 0.0, 0.0, 0.0, 0.0, 1.700951129769688E9, 0.0, 2023-11-25 17:25:29.769
87.0, 52844.754200548436, 67460.33638242917, 9170.049031978731, -6751.053840047579, 23561.33145825046, -30130.397394942927, 19904.742527573413, 17385.43270652684, 0.0, 0.0, 0.0, 192.0, 0.0, 0.0, 0.0, 0.0, 0.0, 0.0, 0.0, 0.0, 0.0, 1.700951129769701E9, 0.0, 2023-11-25 17:25:29.769
88.0, 52826.13519741717, 67461.56572837422, 9162.62825281957, -6755.077154049534, 23481.93806194521, -30407.20139827745, 19889.27512041034, 17314.13064171441, -0.002, 0.982, 0.132, 192.0, 255.0, 240.0, 30.0, 176.0, 4.0, 32.0, 0.0, 0.0, 0.0, 1.700951129769731E9, 0.0, 2023-11-25 17:25:29.769
0.0, 0.0, 0.0, 0.0, 0.0, 0.0, 0.0, 0.0, 0.0, -0.002, 0.982, 0.132, 192.0, 0.0, 0.0, 0.0, 0.0, 0.0, 0.0, 0.0, 0.0, 0.0, 1.700951129831546E9, 0.0, 2023-11-25 17:25:29.831
1.0, 53141.33949772591, 66750.48968201753, 9165.869255765589, -6604.962838287693, 23714.284445558125, -29760.297210251956, 19955.480987486957, 17742.926507345022, -0.002, 0.982, 0.132, 192.0, 0.0, 0.0, 30.0, 144.0, 4.0, 224.0, 0.0, 0.0, 0.0, 1.700951129848586E9, 0.0, 2023-11-25 17:25:29.848
2.0, 53132.19763424369, 66754.6024029973, 9159.655470807013, -6610.349608701421, 23649.19616570427, -30017.99047207719, 19937.37607447816, 17670.529207054282, -0.002, 0.982, 0.132, 192.0, 0.0, 0.0, 0.0, 0.0, 0.0, 0.0, 0.0, 0.0, 0.0, 1.700951129851597E9, 0.0, 2023-11-25 17:25:29.851
3.0, 53174.1518585863, 66792.0639267044, 9170.361956401106, -6587.7743468015615, 23653.308886684048, -29987.21211996223, 19943.791025136834, 17680.96747171491, -0.002, 0.982, 0.132, 192.0, 0.0, 0.0, 0.0, 0.0, 0.0, 0.0, 0.0, 0.0, 0.0, 1.700951129855671E9, 0.0, 2023-11-25 17:25:29.855
4.0, 53198.358797831395, 66804.62560708828, 9190.299712455238, -6571.34581462691, 23705.679023942834, -29933.567933269496, 19968.95908939351, 17716.730262843404, -0.002, 0.982, 0.132, 192.0, 0.0, 0.0, 0.0, 0.0, 0.0, 0.0, 0.0, 0.0, 0.0, 1.700951129858688E9, 0.0, 2023-11-25 17:25:29.858
5.0, 53151.1966170307, 66750.66849597318, 9167.411526133004, -6612.920059313782, 23724.4991927742, -29738.88423906377, 19953.37992350816, 17762.976022121435, -0.002, 0.982, 0.132, 192.0, 0.0, 0.0, 0.0, 0.0, 0.0, 0.0, 0.0, 0.0, 0.0, 1.700951129862699E9, 0.0, 2023-11-25 17:25:29.862
6.0, 53133.47168367764, 66749.5509087504, 9161.600072574625, -6619.670286139284, 23646.715122069734, -30007.954538816757, 19939.030103567853, 17690.757535786335, -0.002, 0.982, 0.132, 192.0, 0.0, 0.0, 0.0, 0.0, 0.0, 0.0, 0.0, 0.0, 0.0, 1.700951129867086E9, 0.0, 2023-11-25 17:25:29.867
7.0, 53164.47355323715, 66779.16697015369, 9166.025717976776, -6602.571201630974, 23649.173813959816, -29973.488148866672, 19932.481042442447, 17690.355204386142, -0.002, 0.982, 0.132, 192.0, 0.0, 0.0, 0.0, 0.0, 0.0, 0.0, 0.0, 0.0, 0.0, 1.700951129870759E9, 0.0, 2023-11-25 17:25:29.870
8.0, 53204.930210701255, 66810.68292983568, 9192.311369456216, -6576.352605384899, 23684.310756243558, -29978.807864047038, 19942.89695535862, 17693.663262565526, -0.006, 0.98, 0.162, 192.0, 255.0, 208.0, 30.0, 160.0, 5.0, 16.0, 0.0, 0.0, 0.0, 1.700951129874738E9, 0.0, 2023-11-25 17:25:29.874
9.0, 53168.4521637502, 66758.6033652548, 9174.899360525533, -6609.813166834494, 23731.31647483307, -29724.60147435683, 19932.503394186904, 17763.870091899647, -0.006, 0.98, 0.162, 192.0, 0.0, 0.0, 0.0, 0.0, 0.0, 0.0, 0.0, 0.0, 0.0, 1.700951129878688E9, 0.0, 2023-11-25 17:25:29.878
10.0, 53143.351154726886, 66755.98821115354, 9169.713755811901, -6617.703332627218, 23655.16408147384, -29977.511462868628, 19921.28281847034, 17693.707966054437, -0.006, 0.98, 0.162, 192.0, 0.0, 0.0, 0.0, 0.0, 0.0, 0.0, 0.0, 0.0, 0.0, 1.700951129882713E9, 0.0, 2023-11-25 17:25:29.882
11.0, 53169.90502713979, 66785.20194115663, 9176.709851826412, -6595.68686433874, 23662.24958446617, -29965.88855575187, 19928.725949373955, 17697.731280056392, -0.006, 0.98, 0.162, 192.0, 0.0, 0.0, 0.0, 0.0, 0.0, 0.0, 0.0, 0.0, 0.0, 1.70095112988571E9, 0.0, 2023-11-25 17:25:29.885
12.0, 53207.97004794718, 66819.84714506235, 9198.368692203605, -6570.407041359787, 23680.86858759744, -29993.78353283209, 19941.24292626893, 17687.06949795121, -0.006, 0.98, 0.162, 192.0, 0.0, 0.0, 0.0, 0.0, 0.0, 0.0, 0.0, 0.0, 0.0, 1.700951129889811E9, 0.0, 2023-11-25 17:25:29.889
13.0, 53181.7514517011, 66779.12226666478, 9191.350244444639, -6590.635370091841, 23754.584640811045, -29727.373090669287, 19943.6569146701, 17767.200501823485, -0.006, 0.98, 0.162, 192.0, 0.0, 0.0, 0.0, 0.0, 0.0, 0.0, 0.0, 0.0, 0.0, 1.70095112989479E9, 0.0, 2023-11-25 17:25:29.894
14.0, 53155.82342813295, 66766.09119964733, 9185.62819786408, -6601.7441870861285, 23686.233006266717, -29914.07721210447, 19930.111757530183, 17709.93533252899, -0.006, 0.98, 0.162, 192.0, 0.0, 0.0, 0.0, 0.0, 0.0, 0.0, 0.0, 0.0, 0.0, 1.700951129898841E9, 0.0, 2023-11-25 17:25:29.898
15.0, 53178.55515224399, 66791.43807785965, 9195.977055546888, -6577.649006563307, 23682.7908376206, -29952.83513698997, 19943.008714080897, 17712.997521519366, -0.006, 0.98, 0.162, 192.0, 0.0, 0.0, 0.0, 0.0, 0.0, 0.0, 0.0, 0.0, 0.0, 1.700951129901828E9, 0.0, 2023-11-25 17:25:29.901
16.0, 53222.3645713764, 66832.25236323505, 9217.613544179625, -6549.083477149425, 23693.609081936967, -29977.73498031318, 19957.067961343284, 17698.625349834605, -0.006, 0.98, 0.162, 192.0, 0.0, 0.0, 0.0, 0.0, 0.0, 0.0, 0.0, 0.0, 0.0, 1.700951129905813E9, 0.0, 2023-11-25 17:25:29.905
17.0, 53207.38890259134, 66798.72474655208, 9213.143195288563, -6561.287529622023, 23772.488388119746, -29742.393462943255, 19963.684077702055, 17775.962385649967, -0.006, 0.98, 0.162, 192.0, 0.0, 0.0, 0.0, 0.0, 0.0, 0.0, 0.0, 0.0, 0.0, 1.700951129909848E9, 0.0, 2023-11-25 17:25:29.909
18.0, 53164.85353289289, 66769.80158922692, 9194.099509012642, -6585.405061889299, 23713.703300202287, -29834.639112310306, 19944.863908870688, 17740.825443366222, -0.002, 0.974, 0.164, 192.0, 255.0, 240.0, 30.0, 112.0, 5.0, 32.0, 0.0, 0.0, 0.0, 1.700951129913857E9, 0.0, 2023-11-25 17:25:29.913
19.0, 53171.53670448503, 66784.7102027786, 9195.641779380057, -6569.378861114844, 23689.40695397937, -29954.332703868477, 19948.954278106008, 17720.84298382318, -0.002, 0.974, 0.164, 192.0, 0.0, 0.0, 0.0, 0.0, 0.0, 0.0, 0.0, 0.0, 0.0, 1.700951129918176E9, 0.0, 2023-11-25 17:25:29.918
20.0, 53207.590068291436, 66821.50117415204, 9206.750596374344, -6550.648099261296, 23685.16012253286, -29971.320029654507, 19952.731722918954, 17700.771117302313, -0.002, 0.974, 0.164, 192.0, 0.0, 0.0, 0.0, 0.0, 0.0, 0.0, 0.0, 0.0, 0.0, 1.700951129922982E9, 0.0, 2023-11-25 17:25:29.922
21.0, 53202.806794978, 66804.08916522136, 9211.10918654313, -6557.979471442637, 23756.261021645194, -29803.212559606145, 19963.929946891065, 17756.0916848292, -0.002, 0.974, 0.164, 192.0, 0.0, 0.0, 0.0, 0.0, 0.0, 0.0, 0.0, 0.0, 0.0, 1.700951129926934E9, 0.0, 2023-11-25 17:25:29.926
22.0, 53152.80594263148, 66758.71512397709, 9185.851715308632, -6597.251486450611, 23717.793669437608, -29785.018239619523, 19941.46644371348, 17741.920678844534, -0.002, 0.974, 0.164, 192.0, 0.0, 0.0, 0.0, 0.0, 0.0, 0.0, 0.0, 0.0, 0.0, 1.700951129929887E9, 0.0, 2023-11-25 17:25:29.929
23.0, 53155.89048336631, 66773.66844101768, 9190.411471177516, -6585.963855500681, 23673.984250305206, -29982.406494904342, 19942.382865236148, 17701.30755916924, -0.002, 0.974, 0.164, 192.0, 0.0, 0.0, 0.0, 0.0, 0.0, 0.0, 0.0, 0.0, 0.0, 1.700951129933959E9, 0.0, 2023-11-25 17:25:29.933
24.0, 53197.28591409754, 66811.82286880289, 9199.866259082111, -6566.808410502483, 23672.754904360165, -29964.905078995835, 19946.652048427113, 17693.640910821072, -0.002, 0.974, 0.164, 192.0, 0.0, 0.0, 0.0, 0.0, 0.0, 0.0, 0.0, 0.0, 0.0, 1.700951129937936E9, 0.0, 2023-11-25 17:25:29.937
25.0, 53214.20618465021, 66816.18145897168, 9213.411416222027, -6560.751087755095, 23734.468070801267, -29868.345542948908, 19962.18651082355, 17732.84587059568, -0.002, 0.974, 0.164, 192.0, 0.0, 0.0, 0.0, 0.0, 0.0, 0.0, 0.0, 0.0, 0.0, 1.700951129941921E9, 0.0, 2023-11-25 17:25:29.941
26.0, 53162.75246891409, 66762.69373449012, 9183.683596096469, -6603.644085364829, 23727.248457342204, -29737.92311405219, 19941.399388480117, 17757.253975540876, -0.002, 0.974, 0.164, 192.0, 0.0, 0.0, 0.0, 0.0, 0.0, 0.0, 0.0, 0.0, 0.0, 1.70095112994592E9, 0.0, 2023-11-25 17:25:29.945
27.0, 53154.1470472988, 66767.4099525702, 9182.096622240142, -6597.586762617441, 23663.769503089134, -29986.966250773225, 19939.834766368243, 17709.26478019533, -0.002, 0.974, 0.164, 192.0, 0.0, 0.0, 0.0, 0.0, 0.0, 0.0, 0.0, 0.0, 0.0, 1.700951129949979E9, 0.0, 2023-11-25 17:25:29.949
28.0, 53183.606646490894, 66793.02505171599, 9182.074270495687, -6586.96968400117, 23653.755921573153, -29956.79139575856, 19937.688998900532, 17709.085966239687, -0.004, 0.982, 0.16, 192.0, 255.0, 224.0, 30.0, 176.0, 5.0, 0.0, 0.0, 0.0, 0.0, 1.700951129955017E9, 0.0, 2023-11-25 17:25:29.955
29.0, 53211.367513104386, 66816.5167351385, 9202.414357950016, -6570.787021015528, 23701.767468663154, -29927.175334355277, 19956.911499132097, 17725.89447807008, -0.004, 0.982, 0.16, 192.0, 0.0, 0.0, 0.0, 0.0, 0.0, 0.0, 0.0, 0.0, 0.0, 1.700951129957944E9, 0.0, 2023-11-25 17:25:29.957
30.0, 53167.55809397198, 66771.50032180552, 9181.783697817767, -6607.443881922231, 23729.237762598725, -29713.3138434069, 19945.154481548605, 17782.466743286463, -0.004, 0.982, 0.16, 192.0, 0.0, 0.0, 0.0, 0.0, 0.0, 0.0, 0.0, 0.0, 0.0, 1.700951129961979E9, 0.0, 2023-11-25 17:25:29.961
31.0, 53143.552320426985, 66764.6606880022, 9170.272549423284, -6618.038608794047, 23646.96099125874, -29983.278212938098, 19925.082615027743, 17708.54952437276, -0.004, 0.982, 0.16, 192.0, 0.0, 0.0, 0.0, 0.0, 0.0, 0.0, 0.0, 0.0, 0.0, 1.700951129966069E9, 0.0, 2023-11-25 17:25:29.966
32.0, 53172.52018124106, 66793.53914183845, 9174.80995354771, -6598.59259111793, 23650.269049438128, -29960.770006271603, 19922.243943481917, 17710.672940096014, -0.004, 0.982, 0.16, 192.0, 0.0, 0.0, 0.0, 0.0, 0.0, 0.0, 0.0, 0.0, 0.0, 1.700951129970034E9, 0.0, 2023-11-25 17:25:29.970
33.0, 53213.06624568299, 66826.21739223211, 9197.564029403215, -6572.821029760961, 23684.288404499104, -29972.951706999746, 19935.27501049936, 17710.427070907008, -0.004, 0.982, 0.16, 192.0, 0.0, 0.0, 0.0, 0.0, 0.0, 0.0, 0.0, 0.0, 0.0, 1.70095112997401E9, 0.0, 2023-11-25 17:25:29.974
34.0, 53179.963312144675, 66779.72576376508, 9181.515476884304, -6601.855945808405, 23739.184288881337, -29709.91637824969, 19930.75995811939, 17785.46187704347, -0.004, 0.982, 0.16, 192.0, 0.0, 0.0, 0.0, 0.0, 0.0, 0.0, 0.0, 0.0, 0.0, 1.700951129978028E9, 0.0, 2023-11-25 17:25:29.978
35.0, 53151.75541064208, 66775.47893231857, 9174.407622147515, -6611.802472091016, 23659.74618908718, -29952.008122445124, 19918.84647832471, 17716.685559354493, -0.004, 0.982, 0.16, 192.0, 0.0, 0.0, 0.0, 0.0, 0.0, 0.0, 0.0, 0.0, 0.0, 1.700951129983035E9, 0.0, 2023-11-25 17:25:29.983
36.0, 53171.11202134038, 66794.00852847201, 9176.978072759875, -6595.977437016659, 23655.320543685026, -29959.31714288201, 19921.394577192616, 17715.813841320734, -0.004, 0.982, 0.16, 192.0, 0.0, 0.0, 0.0, 0.0, 0.0, 0.0, 0.0, 0.0, 0.0, 1.700951129986019E9, 0.0, 2023-11-25 17:25:29.986
37.0, 53214.6085160504, 66830.01718878951, 9200.514459671314, -6569.736489026129, 23670.564433403546, -29999.706745112748, 19939.454786712504, 17703.0286434923, -0.004, 0.982, 0.16, 192.0, 0.0, 0.0, 0.0, 0.0, 0.0, 0.0, 0.0, 0.0, 0.0, 1.700951129990043E9, 0.0, 2023-11-25 17:25:29.990
38.0, 53185.1042133694, 66786.02895570148, 9190.72439559989, -6593.898724782315, 23737.932591191842, -29739.13010825278, 19943.99219083693, 17780.410382796574, -0.002, 0.978, 0.158, 192.0, 255.0, 240.0, 30.0, 144.0, 4.0, 240.0, 0.0, 0.0, 0.0, 1.700951129994114E9, 0.0, 2023-11-25 17:25:29.994
39.0, 53142.18886401521, 66761.01735365597, 9172.753593057823, -6618.865623338893, 23657.041628008086, -29910.098601591424, 19922.355702204193, 17718.049015766264, -0.002, 0.978, 0.158, 192.0, 0.0, 0.0, 0.0, 0.0, 0.0, 0.0, 0.0, 0.0, 0.0, 1.700951129998076E9, 0.0, 2023-11-25 17:25:29.998
40.0, 53161.81369564697, 66789.94051098115, 9182.72247108489, -6595.642160849829, 23650.581973860502, -29970.135387198377, 19932.034007553342, 17713.64572210857, -0.002, 0.978, 0.158, 192.0, 0.0, 0.0, 0.0, 0.0, 0.0, 0.0, 0.0, 0.0, 0.0, 1.700951130004266E9, 0.0, 2023-11-25 17:25:30.004
41.0, 53203.38794033384, 66828.69843586665, 9199.843907337656, -6570.429393104243, 23652.861851794944, -30000.64551837987, 19941.578202435758, 17696.099602711154, -0.002, 0.978, 0.158, 192.0, 0.0, 0.0, 0.0, 0.0, 0.0, 0.0, 0.0, 0.0, 0.0, 1.700951130007076E9, 0.0, 2023-11-25 17:25:30.007
42.0, 53185.9535796587, 66795.19317092815, 9197.00523579183, -6586.097965967413, 23724.678006729842, -29778.93856512768, 19949.893051373132, 17768.698068701993, -0.002, 0.978, 0.158, 192.0, 0.0, 0.0, 0.0, 0.0, 0.0, 0.0, 0.0, 0.0, 0.0, 1.70095113001111E9, 0.0, 2023-11-25 17:25:30.011
43.0, 53141.250090748086, 66765.0630194024, 9179.816744305701, -6614.350570958922, 23671.6373171374, -29844.0939002149, 19934.738568632434, 17738.23264100941, -0.002, 0.978, 0.158, 192.0, 0.0, 0.0, 0.0, 0.0, 0.0, 0.0, 0.0, 0.0, 0.0, 1.700951130014134E9, 0.0, 2023-11-25 17:25:30.014
44.0, 53157.320995011454, 66793.9191214942, 9194.85946832412, -6589.271913680067, 23657.376904174915, -29977.55616635754, 19952.7093711745, 17721.446480923474, -0.002, 0.978, 0.158, 192.0, 0.0, 0.0, 0.0, 0.0, 0.0, 0.0, 0.0, 0.0, 0.0, 1.700951130017196E9, 0.0, 2023-11-25 17:25:30.017
45.0, 53192.077957639456, 66826.99970328805, 9204.470718439903, -6569.982358215137, 23653.800625062064, -29978.964326258225, 19960.46542650049, 17708.460117394938, -0.002, 0.978, 0.158, 192.0, 0.0, 0.0, 0.0, 0.0, 0.0, 0.0, 0.0, 0.0, 0.0, 1.700951130022149E9, 0.0, 2023-11-25 17:25:30.022
46.0, 53186.400614547805, 66805.29615942194, 9207.689369641468, -6575.771460029061, 23722.487535773223, -29821.51863831504, 19971.708353961512, 17762.104304087676, -0.002, 0.978, 0.158, 192.0, 0.0, 0.0, 0.0, 0.0, 0.0, 0.0, 0.0, 0.0, 0.0, 1.700951130026295E9, 0.0, 2023-11-25 17:25:30.026
47.0, 53134.119884266845, 66757.84340594332, 9184.644721108047, -6614.328219214466, 23694.793724393097, -29778.245661049565, 19951.591783951735, 17756.806940651768, -0.002, 0.978, 0.158, 192.0, 0.0, 0.0, 0.0, 0.0, 0.0, 0.0, 0.0, 0.0, 0.0, 1.700951130030202E9, 0.0, 2023-11-25 17:25:30.030
48.0, 53135.52804416753, 66770.89682470523, 9189.427994421481, -6602.235925464145, 23651.990133761185, -29988.106189740443, 19953.245813041427, 17715.523268642817, -0.008, 0.978, 0.154, 192.0, 255.0, 192.0, 30.0, 144.0, 4.0, 208.0, 0.0, 0.0, 0.0, 1.700951130034187E9, 0.0, 2023-11-25 17:25:30.034
49.0, 53174.28596905303, 66810.30295017993, 9197.921657314499, -6578.610131574886, 23653.15242447286, -29968.146081941853, 19953.42462699707, 17709.488297639884, -0.008, 0.978, 0.154, 192.0, 0.0, 0.0, 0.0, 0.0, 0.0, 0.0, 0.0, 0.0, 0.0, 1.700951130039201E9, 0.0, 2023-11-25 17:25:30.039
50.0, 53190.62509424986, 66812.85104904784, 9208.225811508395, -6571.0999454379025, 23710.26113155617, -29882.114217533377, 19963.482912001957, 17741.65245791107, -0.008, 0.978, 0.154, 192.0, 0.0, 0.0, 0.0, 0.0, 0.0, 0.0, 0.0, 0.0, 0.0, 1.700951130042567E9, 0.0, 2023-11-25 17:25:30.042
51.0, 53146.5921576729, 66761.77731296746, 9180.219075705896, -6611.511899413097, 23710.909332145373, -29731.485811649065, 19942.18169953605, 17764.361830277663, -0.008, 0.978, 0.154, 192.0, 0.0, 0.0, 0.0, 0.0, 0.0, 0.0, 0.0, 0.0, 0.0, 1.700951130045223E9, 0.0, 2023-11-25 17:25:30.045
52.0, 53142.70295413768, 66770.65095551622, 9182.34249142915, -6603.174698731268, 23651.811319805543, -29987.21211996223, 19942.09229255823, 17708.683634839494, -0.008, 0.978, 0.154, 192.0, 0.0, 0.0, 0.0, 0.0, 0.0, 0.0, 0.0, 0.0, 0.0, 1.700951130049237E9, 0.0, 2023-11-25 17:25:30.049
53.0, 53173.59306497491, 66800.37877564177, 9189.226828721385, -6580.487678109131, 23657.44395940828, -29950.30938986652, 19949.580126950757, 17719.099547755664, -0.008, 0.978, 0.154, 192.0, 0.0, 0.0, 0.0, 0.0, 0.0, 0.0, 0.0, 0.0, 0.0, 1.700951130054374E9, 0.0, 2023-11-25 17:25:30.054
54.0, 53199.76695773208, 66817.58961887236, 9207.465852196914, -6562.20395114469, 23702.035689596618, -29925.677767476773, 19959.95133637802, 17731.057731039255, -0.008, 0.978, 0.154, 192.0, 0.0, 0.0, 0.0, 0.0, 0.0, 0.0, 0.0, 0.0, 0.0, 1.700951130058217E9, 0.0, 2023-11-25 17:25:30.058
55.0, 53162.66306193627, 66773.28846136194, 9187.304578698227, -6595.910381783293, 23737.753777236197, -29694.87365423127, 19942.248754769418, 17786.51240903287, -0.008, 0.978, 0.154, 192.0, 0.0, 0.0, 0.0, 0.0, 0.0, 0.0, 0.0, 0.0, 0.0, 1.700951130062286E9, 0.0, 2023-11-25 17:25:30.062
56.0, 53146.65921290627, 66778.29525211993, 9185.784660075267, -6597.519707384075, 23664.551814145067, -29963.45221560624, 19935.05149305481, 17717.691387854982, -0.008, 0.978, 0.154, 192.0, 0.0, 0.0, 0.0, 0.0, 0.0, 0.0, 0.0, 0.0, 0.0, 1.70095113006633E9, 0.0, 2023-11-25 17:25:30.066
57.0, 53173.86128590838, 66801.87634252028, 9188.399814176539, -6581.895838009816, 23661.288459454594, -29941.703968251226, 19936.057321555298, 17716.46204190994, -0.006, 0.968, 0.164, 192.0, 255.0, 208.0, 30.0, 64.0, 5.0, 32.0, 0.0, 0.0, 0.0, 1.700951130070341E9, 0.0, 2023-11-25 17:25:30.070
58.0, 53212.39569334933, 66829.70426436714, 9209.499860942347, -6563.209779645179, 23685.048363810583, -29970.694180809758, 19947.61317343869, 17708.080137739198, -0.006, 0.968, 0.164, 192.0, 0.0, 0.0, 0.0, 0.0, 0.0, 0.0, 0.0, 0.0, 0.0, 1.700951130073392E9, 0.0, 2023-11-25 17:25:30.073
59.0, 53176.45408826519, 66780.59748179883, 9192.959570045421, -6597.787928317539, 23745.21925988427, -29707.904721248713, 19939.074807056764, 17781.885597930624, -0.006, 0.968, 0.164, 192.0, 0.0, 0.0, 0.0, 0.0, 0.0, 0.0, 0.0, 0.0, 0.0, 1.700951130077324E9, 0.0, 2023-11-25 17:25:30.077
60.0, 53145.586329172416, 66770.04745841592, 9180.129668728074, -6614.484681425653, 23664.01537227814, -29942.59803802944, 19920.724024858955, 17712.103451741154, -0.006, 0.968, 0.164, 192.0, 0.0, 0.0, 0.0, 0.0, 0.0, 0.0, 0.0, 0.0, 0.0, 1.700951130082495E9, 0.0, 2023-11-25 17:25:30.082
61.0, 53173.77187893056, 66799.03767097446, 9188.221000220896, -6589.137803213335, 23667.50224441317, -29959.652419048838, 19926.200202250508, 17715.232695964896, -0.006, 0.968, 0.164, 192.0, 0.0, 0.0, 0.0, 0.0, 0.0, 0.0, 0.0, 0.0, 0.0, 1.700951130086413E9, 0.0, 2023-11-25 17:25:30.086
62.0, 53216.35195211792, 66838.5779069159, 9207.331741730182, -6563.63446278983, 23679.773352119133, -29997.717439856227, 19937.554888433802, 17697.664224823027, -0.006, 0.968, 0.164, 192.0, 0.0, 0.0, 0.0, 0.0, 0.0, 0.0, 0.0, 0.0, 0.0, 1.700951130090356E9, 0.0, 2023-11-25 17:25:30.090
63.0, 53195.45307105221, 66803.95505475462, 9201.833212594178, -6580.822954275961, 23756.775111767663, -29732.491640149554, 19947.009676338395, 17779.94099616301, -0.006, 0.968, 0.164, 192.0, 0.0, 0.0, 0.0, 0.0, 0.0, 0.0, 0.0, 0.0, 0.0, 1.700951130094368E9, 0.0, 2023-11-25 17:25:30.094
64.0, 53152.649480420296, 66774.89778696273, 9182.297787940239, -6606.818033077483, 23683.416686465345, -29879.47671168765, 19924.590876649723, 17726.386216448096, -0.006, 0.968, 0.164, 192.0, 0.0, 0.0, 0.0, 0.0, 0.0, 0.0, 0.0, 0.0, 0.0, 1.700951130098414E9, 0.0, 2023-11-25 17:25:30.098
65.0, 53166.552265471495, 66789.9181592367, 9187.572799631691, -6589.450727635709, 23670.676192125822, -29965.575631329495, 19931.38580696414, 17713.042225008277, -0.006, 0.968, 0.164, 192.0, 0.0, 0.0, 0.0, 0.0, 0.0, 0.0, 0.0, 0.0, 0.0, 1.700951130101767E9, 0.0, 2023-11-25 17:25:30.101
66.0, 53210.518146815084, 66829.50309866705, 9208.181108019484, -6562.0027854445925, 23677.381715462416, -29999.97496604621, 19946.786158893843, 17693.529152098796, -0.006, 0.968, 0.164, 192.0, 0.0, 0.0, 0.0, 0.0, 0.0, 0.0, 0.0, 0.0, 0.0, 1.7009511301066E9, 0.0, 2023-11-25 17:25:30.106
67.0, 53196.548306530516, 66801.27284541998, 9207.421148708005, -6574.430355361743, 23751.433044842845, -29779.47500699461, 19958.833749155256, 17761.9925453654, -0.006, 0.976, 0.164, 192.0, 255.0, 208.0, 30.0, 128.0, 5.0, 32.0, 0.0, 0.0, 0.0, 1.700951130110394E9, 0.0, 2023-11-25 17:25:30.110
68.0, 53149.40847747427, 66765.24183335803, 9184.756479830323, -6607.198012733223, 23698.057079083574, -29819.596388291884, 19936.794929122323, 17731.16948976153, -0.006, 0.976, 0.164, 192.0, 0.0, 0.0, 0.0, 0.0, 0.0, 0.0, 0.0, 0.0, 0.0, 1.700951130114468E9, 0.0, 2023-11-25 17:25:30.114
69.0, 53156.65044267779, 66782.85500798882, 9188.690386854458, -6591.350625914411, 23669.223328736225, -29973.711666311225, 19943.27693501436, 17702.22398069191, -0.006, 0.976, 0.164, 192.0, 0.0, 0.0, 0.0, 0.0, 0.0, 0.0, 0.0, 0.0, 0.0, 1.70095113011845E9, 0.0, 2023-11-25 17:25:30.118
70.0, 53201.353931588405, 66822.64111311926, 9203.844869595156, -6566.048451191003, 23668.128093257917, -29981.31125942603, 19956.889147387643, 17689.327024141196, -0.006, 0.976, 0.164, 192.0, 0.0, 0.0, 0.0, 0.0, 0.0, 0.0, 0.0, 0.0, 0.0, 1.700951130122782E9, 0.0, 2023-11-25 17:25:30.122
71.0, 53207.098329913424, 66811.06290949142, 9211.44446270996, -6565.512009324076, 23735.16097487938, -29834.549705332483, 19975.798723196833, 17747.575670191727, -0.006, 0.976, 0.164, 192.0, 0.0, 0.0, 0.0, 0.0, 0.0, 0.0, 0.0, 0.0, 0.0, 1.700951130126491E9, 0.0, 2023-11-25 17:25:30.126
72.0, 53160.249073535095, 66765.86768220278, 9185.896418797543, -6604.001713276114, 23710.68581470082, -29753.859907848826, 19959.14667357763, 17763.266594799352, -0.006, 0.976, 0.164, 192.0, 0.0, 0.0, 0.0, 0.0, 0.0, 0.0, 0.0, 0.0, 0.0, 1.700951130131564E9, 0.0, 2023-11-25 17:25:30.131
73.0, 53157.05277407799, 66775.16600789619, 9183.974168774386, -6596.983265517148, 23657.600421619467, -29974.69514306726, 19957.649106699122, 17721.424129179017, -0.006, 0.976, 0.164, 192.0, 0.0, 0.0, 0.0, 0.0, 0.0, 0.0, 0.0, 0.0, 0.0, 1.700951130134613E9, 0.0, 2023-11-25 17:25:30.134
74.0, 53199.78930947654, 66813.81217405942, 9193.697177612446, -6572.955140227693, 23658.561546631045, -29957.618410303407, 19959.392542766636, 17723.636951880093, -0.006, 0.976, 0.164, 192.0, 0.0, 0.0, 0.0, 0.0, 0.0, 0.0, 0.0, 0.0, 0.0, 1.700951130137639E9, 0.0, 2023-11-25 17:25:30.137
75.0, 53215.94962071772, 66816.5167351385, 9203.531945172781, -6569.892951237315, 23707.154239076885, -29890.92080484877, 19969.38377253816, 17753.632992939114, -0.006, 0.976, 0.164, 192.0, 0.0, 0.0, 0.0, 0.0, 0.0, 0.0, 0.0, 0.0, 0.0, 1.70095113014252E9, 0.0, 2023-11-25 17:25:30.142
76.0, 53166.060527093476, 66763.38663856825, 9177.58156986017, -6612.629486635863, 23714.060928113573, -29718.342985909345, 19949.17779555056, 17789.216970111964, -0.006, 0.976, 0.164, 192.0, 0.0, 0.0, 0.0, 0.0, 0.0, 0.0, 0.0, 0.0, 0.0, 1.700951130146599E9, 0.0, 2023-11-25 17:25:30.146
77.0, 53153.834122876426, 66771.88030146126, 9179.034433249764, -6609.097911011924, 23646.49160462518, -29984.909890283336, 19942.964010591986, 17726.140347259086, -0.008, 0.98, 0.162, 192.0, 255.0, 192.0, 30.0, 160.0, 5.0, 16.0, 0.0, 0.0, 0.0, 1.700951130152122E9, 0.0, 2023-11-25 17:25:30.152
78.0, 53180.65621622279, 66800.62464483078, 9182.789526318256, -6591.775309059061, 23643.854098779455, -29961.35115162744, 19937.443129711526, 17725.380387947607, -0.008, 0.98, 0.162, 192.0, 0.0, 0.0, 0.0, 0.0, 0.0, 0.0, 0.0, 0.0, 0.0, 1.700951130153828E9, 0.0, 2023-11-25 17:25:30.153
79.0, 53208.350027602915, 66817.768432828, 9199.218058492906, -6576.173791429257, 23681.5391399311, -29954.64562829085, 19948.23902228344, 17733.22585025142, -0.008, 0.98, 0.162, 192.0, 0.0, 0.0, 0.0, 0.0, 0.0, 0.0, 0.0, 0.0, 0.0, 1.70095113015808E9, 0.0, 2023-11-25 17:25:30.158
80.0, 53168.161591072276, 66765.62181301377, 9179.213247205407, -6611.0201610350805, 23722.487535773223, -29706.585968325853, 19935.05149305481, 17790.938054435024, -0.008, 0.98, 0.162, 192.0, 0.0, 0.0, 0.0, 0.0, 0.0, 0.0, 0.0, 0.0, 0.0, 1.700951130161578E9, 0.0, 2023-11-25 17:25:30.161
81.0, 53145.586329172416, 66761.21851935607, 9175.05582273672, -6616.8316145934605, 23643.742340057175, -29972.01293373262, 19922.534516159834, 17716.640855865582, -0.008, 0.98, 0.162, 192.0, 0.0, 0.0, 0.0, 0.0, 0.0, 0.0, 0.0, 0.0, 0.0, 1.700951130165606E9, 0.0, 2023-11-25 17:25:30.165
82.0, 53172.52018124106, 66790.20873191461, 9182.029567006775, -6595.820974805471, 23649.218517448728, -29954.086834679467, 19924.74733886091, 17719.434823922496, -0.008, 0.98, 0.162, 192.0, 0.0, 0.0, 0.0, 0.0, 0.0, 0.0, 0.0, 0.0, 0.0, 1.700951130170573E9, 0.0, 2023-11-25 17:25:30.170
83.0, 53215.61434455089, 66828.7207876111, 9208.471680697403, -6567.970701214159, 23677.40406720687, -29986.072180995012, 19936.48200469995, 17707.186067960985, -0.008, 0.98, 0.162, 192.0, 0.0, 0.0, 0.0, 0.0, 0.0, 0.0, 0.0, 0.0, 0.0, 1.700951130174898E9, 0.0, 2023-11-25 17:25:30.174
84.0, 53180.745623200615, 66779.92692946517, 9193.33954970116, -6600.06780625198, 23740.592448782023, -29710.072840460878, 19930.245867996917, 17784.165475865066, -0.008, 0.98, 0.162, 192.0, 0.0, 0.0, 0.0, 0.0, 0.0, 0.0, 0.0, 0.0, 0.0, 1.700951130177629E9, 0.0, 2023-11-25 17:25:30.177
85.0, 53143.03823030451, 66760.81618795589, 9177.62627334908, -6622.441902451743, 23658.270973953127, -29933.858505947414, 19908.877600297645, 17708.75069007286, -0.008, 0.98, 0.162, 192.0, 0.0, 0.0, 0.0, 0.0, 0.0, 0.0, 0.0, 0.0, 0.0, 1.700951130181567E9, 0.0, 2023-11-25 17:25:30.181
86.0, 53161.32195726895, 66782.51973182199, 9180.397889661537, -6606.303942955011, 23652.10189248346, -29968.526061597597, 19912.6997485995, 17706.403756905052, -0.008, 0.98, 0.162, 192.0, 0.0, 0.0, 0.0, 0.0, 0.0, 0.0, 0.0, 0.0, 0.0, 1.700951130185654E9, 0.0, 2023-11-25 17:25:30.185
87.0, 53211.32280961547, 66828.49727016655, 9204.403663206538, -6576.531419340542, 23665.06590426754, -30011.150838273865, 19928.61419065168, 17694.333814899186, -0.008, 0.974, 0.166, 192.0, 255.0, 192.0, 30.0, 112.0, 5.0, 48.0, 0.0, 0.0, 0.0, 1.700951130189651E9, 0.0, 2023-11-25 17:25:30.189
88.0, 53185.19362034722, 66787.2583016465, 9196.692311369457, -6596.268009694578, 23741.039483671128, -29749.83659384687, 19936.727873888954, 17773.056658870777, -0.008, 0.974, 0.166, 192.0, 0.0, 0.0, 0.0, 0.0, 0.0, 0.0, 0.0, 0.0, 0.0, 1.700951130193659E9, 0.0, 2023-11-25 17:25:30.193
89.0, 53140.57953841443, 66756.16702510919, 9176.776907059779, -6625.794664120039, 23671.21263399275, -29877.375647708854, 19919.740548102924, 17721.26766696783, -0.008, 0.974, 0.166, 192.0, 0.0, 0.0, 0.0, 0.0, 0.0, 0.0, 0.0, 0.0, 0.0, 1.700951130197832E9, 0.0, 2023-11-25 17:25:30.197
90.0, 53154.303509509984, 66775.92596720767, 9184.063575752209, -6604.06876850948, 23656.81811056353, -29971.096512209955, 19932.81631860928, 17711.2317337074, -0.008, 0.974, 0.166, 192.0, 0.0, 0.0, 0.0, 0.0, 0.0, 0.0, 0.0, 0.0, 0.0, 1.700951130202753E9, 0.0, 2023-11-25 17:25:30.202
91.0, 53198.11292864239, 66811.95697926963, 9201.117956771608, -6576.710233296184, 23657.421607663826, -29994.565843888027, 19948.440187983535, 17698.602998090148, -0.008, 0.974, 0.166, 192.0, 0.0, 0.0, 0.0, 0.0, 0.0, 0.0, 0.0, 0.0, 0.0, 1.700951130205718E9, 0.0, 2023-11-25 17:25:30.205
92.0, 53192.74850997311, 66789.3146621364, 9205.431843451483, -6580.666492064774, 23737.016169669172, -29786.64991696476, 19971.015449883398, 17777.214083339462, -0.008, 0.974, 0.166, 192.0, 0.0, 0.0, 0.0, 0.0, 0.0, 0.0, 0.0, 0.0, 0.0, 1.700951130209695E9, 0.0, 2023-11-25 17:25:30.209
93.0, 53146.61450941736, 66748.2992110609, 9182.67776759598, -6614.484681425653, 23694.21257903726, -29797.870492681326, 19957.202071810018, 17761.389048265108, -0.008, 0.974, 0.166, 192.0, 0.0, 0.0, 0.0, 0.0, 0.0, 0.0, 0.0, 0.0, 0.0, 1.700951130213726E9, 0.0, 2023-11-25 17:25:30.213
94.0, 53156.15870429978, 66763.27487984597, 9189.562104888213, -6597.720873084173, 23660.52850014311, -29969.80011103155, 19970.36724929419, 17731.258896739353, -0.008, 0.974, 0.166, 192.0, 0.0, 0.0, 0.0, 0.0, 0.0, 0.0, 0.0, 0.0, 0.0, 1.700951130217708E9, 0.0, 2023-11-25 17:25:30.217
95.0, 53205.220783379176, 66806.10082222233, 9206.884706841076, -6568.797715759006, 23662.62956412191, -29966.849680763447, 19984.828827956775, 17724.911001314045, -0.008, 0.974, 0.166, 192.0, 0.0, 0.0, 0.0, 0.0, 0.0, 0.0, 0.0, 0.0, 0.0, 1.700951130221743E9, 0.0, 2023-11-25 17:25:30.221
96.0, 53215.94962071772, 66802.41278438721, 9217.390026735071, -6566.853113991394, 23729.46128004328, -29834.728519288128, 19996.787011240365, 17774.241301326907, -0.008, 0.974, 0.166, 192.0, 0.0, 0.0, 0.0, 0.0, 0.0, 0.0, 0.0, 0.0, 0.0, 1.700951130225758E9, 0.0, 2023-11-25 17:25:30.225
97.0, 53167.80396316099, 66760.79383621142, 9192.691349111958, -6605.298114454522, 23712.630416468433, -29734.726814595084, 19973.272976073382, 17784.344289820707, -0.004, 0.98, 0.166, 192.0, 255.0, 224.0, 30.0, 160.0, 5.0, 48.0, 0.0, 0.0, 0.0, 1.70095113023076E9, 0.0, 2023-11-25 17:25:30.230
98.0, 53165.077050337444, 66773.55668229541, 9196.044110780253, -6595.217477705179, 23657.779235575108, -29967.676695308295, 19971.48483651696, 17734.991638063388, -0.004, 0.98, 0.166, 192.0, 0.0, 0.0, 0.0, 0.0, 0.0, 0.0, 0.0, 0.0, 0.0, 1.700951130233768E9, 0.0, 2023-11-25 17:25:30.233
99.0, 53203.76791998958, 66808.55951411242, 9203.844869595156, -6573.513933839075, 23656.996924519175, -29952.030474189578, 19970.747228949935, 17729.26959148283, -0.004, 0.98, 0.166, 192.0, 0.0, 0.0, 0.0, 0.0, 0.0, 0.0, 0.0, 0.0, 0.0, 1.700951130237766E9, 0.0, 2023-11-25 17:25:30.237
100.0, 53228.15367319032, 66817.83548806138, 9219.87107036961, -6559.432334832231, 23711.51282924567, -29892.06074381599, 19983.77829596738, 17763.735981432914, -0.004, 0.98, 0.166, 192.0, 0.0, 0.0, 0.0, 0.0, 0.0, 0.0, 0.0, 0.0, 0.0, 1.700951130241806E9, 0.0, 2023-11-25 17:25:30.241
101.0, 53176.31997779846, 66758.1116268768, 9187.48339265387, -6606.97449528867, 23723.78393695163, -29693.97958445306, 19961.627717212166, 17801.309263862284, -0.004, 0.98, 0.166, 192.0, 0.0, 0.0, 0.0, 0.0, 0.0, 0.0, 0.0, 0.0, 0.0, 1.700951130245873E9, 0.0, 2023-11-25 17:25:30.245
102.0, 53157.723326411644, 66760.32444957786, 9180.330834428172, -6613.88118432536, 23644.25643017965, -29974.538680856072, 19948.730760661456, 17727.302637970763, -0.004, 0.98, 0.166, 192.0, 0.0, 0.0, 0.0, 0.0, 0.0, 0.0, 0.0, 0.0, 0.0, 1.700951130249813E9, 0.0, 2023-11-25 17:25:30.249
103.0, 53183.472536024165, 66786.3642318683, 9181.023738506286, -6599.039626007036, 23640.38957838888, -29954.243296890654, 19944.23806002594, 17727.83907983769, -0.004, 0.98, 0.166, 192.0, 0.0, 0.0, 0.0, 0.0, 0.0, 0.0, 0.0, 0.0, 0.0, 1.700951130253779E9, 0.0, 2023-11-25 17:25:30.253
104.0, 53223.50451034361, 66817.47786015009, 9208.046997552752, -6573.424526861254, 23682.410857964856, -29959.764177771114, 19959.303135788818, 17732.242373495385, -0.004, 0.98, 0.166, 192.0, 0.0, 0.0, 0.0, 0.0, 0.0, 0.0, 0.0, 0.0, 0.0, 1.70095113025889E9, 0.0, 2023-11-25 17:25:30.258
105.0, 53185.23832383613, 66767.72287699257, 9191.327892700183, -6607.3097714555, 23729.573038765557, -29696.103000176314, 19946.003847837907, 17797.934150449535, -0.004, 0.98, 0.166, 192.0, 0.0, 0.0, 0.0, 0.0, 0.0, 0.0, 0.0, 0.0, 0.0, 1.700951130261839E9, 0.0, 2023-11-25 17:25:30.261
106.0, 53161.61252994687, 66760.9055949337, 9185.583494375169, -6617.390408204843, 23649.06205523754, -29954.265648635108, 19930.625847652656, 17721.535887901293, -0.004, 0.98, 0.166, 192.0, 0.0, 0.0, 0.0, 0.0, 0.0, 0.0, 0.0, 0.0, 0.0, 1.700951130265823E9, 0.0, 2023-11-25 17:25:30.265
107.0, 53194.89427744082, 66791.77335402649, 9196.759366602822, -6591.328274169955, 23655.432302407302, -29948.007160187623, 19937.28666750034, 17726.050940281268, -0.004, 0.98, 0.166, 192.0, 0.0, 0.0, 30.0, 128.0, 5.0, 48.0, 0.0, 0.0, 0.0, 1.70095113026985E9, 0.0, 2023-11-25 17:25:30.269
108.0, 53231.72995230317, 66826.35150269885, 9218.664076169023, -6568.440087847721, 23673.82778809402, -29986.16158797283, 19947.724932160967, 17710.427070907008, -0.004, 0.98, 0.166, 192.0, 0.0, 0.0, 0.0, 0.0, 0.0, 0.0, 0.0, 0.0, 0.0, 1.700951130273902E9, 0.0, 2023-11-25 17:25:30.273
109.0, 53195.67658849676, 66777.82586548637, 9204.96245681792, -6596.670341094773, 23742.715864505277, -29708.709384049107, 19947.81433913879, 17792.077993402243, -0.004, 0.98, 0.166, 192.0, 0.0, 0.0, 0.0, 0.0, 0.0, 0.0, 0.0, 0.0, 0.0, 1.700951130277939E9, 0.0, 2023-11-25 17:25:30.277
110.0, 53154.83995137691, 66752.88131867425, 9185.24821820834, -6621.816053606994, 23658.360380930946, -29916.602959227916, 19922.020426037365, 17719.680693111502, -0.004, 0.98, 0.166, 192.0, 0.0, 0.0, 0.0, 0.0, 0.0, 0.0, 0.0, 0.0, 0.0, 1.700951130281904E9, 0.0, 2023-11-25 17:25:30.281
111.0, 53178.68926271072, 66782.69854577763, 9193.451308423437, -6595.217477705179, 23655.097026240473, -29964.323933639997, 19933.822147109764, 17719.32306520022, -0.004, 0.98, 0.166, 192.0, 0.0, 0.0, 0.0, 0.0, 0.0, 0.0, 0.0, 0.0, 0.0, 1.700951130285954E9, 0.0, 2023-11-25 17:25:30.285
112.0, 53218.38596086335, 66821.18824972966, 9208.471680697403, -6570.317634381966, 23659.72383734272, -30003.21596899223, 19946.51793796038, 17703.967416759424, -0.004, 0.98, 0.166, 192.0, 0.0, 0.0, 0.0, 0.0, 0.0, 0.0, 0.0, 0.0, 0.0, 1.700951130289906E9, 0.0, 2023-11-25 17:25:30.289
113.0, 53201.53274554405, 66788.82292375839, 9207.19763126345, -6582.074651965458, 23741.575925538054, -29745.1203757668, 19961.18068232306, 17786.24418809941, -0.004, 0.98, 0.166, 192.0, 0.0, 0.0, 0.0, 0.0, 0.0, 0.0, 0.0, 0.0, 0.0, 1.700951130292921E9, 0.0, 2023-11-25 17:25:30.292
114.0, 53158.438582234216, 66756.77052220947, 9187.8186688207, -6609.634352878851, 23678.45459919627, -29844.228010681632, 19941.42174022457, 17742.054789311267, -0.004, 0.98, 0.166, 192.0, 0.0, 0.0, 0.0, 0.0, 0.0, 0.0, 0.0, 0.0, 0.0, 1.700951130297969E9, 0.0, 2023-11-25 17:25:30.297
115.0, 53175.89529465381, 66779.6587085317, 9198.614561392613, -6586.522649112064, 23663.166005988838, -29959.40654985983, 19956.218595053982, 17731.907097328556, -0.004, 0.98, 0.166, 192.0, 0.0, 0.0, 0.0, 0.0, 0.0, 0.0, 0.0, 0.0, 0.0, 1.700951130302001E9, 0.0, 2023-11-25 17:25:30.302
116.0, 53217.40248410732, 66819.2659997065, 9217.322971501706, -6557.86771272036, 23665.401180434368, -29978.874919280403, 19973.272976073382, 17724.79924259177, -0.004, 0.98, 0.166, 192.0, 0.0, 0.0, 0.0, 0.0, 0.0, 0.0, 0.0, 0.0, 0.0, 1.70095113030651E9, 0.0, 2023-11-25 17:25:30.306
117.0, 53211.211050893195, 66799.84233377485, 9222.620334937614, -6558.113581909369, 23743.878155216953, -29775.56345171493, 19996.205865884527, 17806.316054620274, -0.006, 0.974, 0.166, 192.0, 255.0, 208.0, 30.0, 112.0, 5.0, 48.0, 0.0, 0.0, 0.0, 1.700951130310155E9, 0.0, 2023-11-25 17:25:30.310
118.0, 53162.43954449172, 66764.39246706873, 9201.430881193983, -6587.7743468015615, 23710.752869934186, -29753.88225959328, 19981.47606628848, 17799.945807450513, -0.006, 0.974, 0.166, 192.0, 0.0, 0.0, 0.0, 0.0, 0.0, 0.0, 0.0, 0.0, 0.0, 1.700951130314097E9, 0.0, 2023-11-25 17:25:30.314
119.0, 53167.26752129407, 66783.72672602258, 9203.464889939414, -6574.363300128377, 23668.441017680292, -29942.59803802944, 19982.616005255702, 17763.400705266085, -0.006, 0.974, 0.166, 192.0, 0.0, 0.0, 0.0, 0.0, 0.0, 0.0, 0.0, 0.0, 0.0, 1.700951130318126E9, 0.0, 2023-11-25 17:25:30.318
120.0, 53210.652257281814, 66826.88794456577, 9218.597020935658, -6549.955195183182, 23666.943450801784, -29946.53194505357, 19987.06400240231, 17751.8895568716, -0.006, 0.974, 0.166, 192.0, 0.0, 0.0, 0.0, 0.0, 0.0, 0.0, 0.0, 0.0, 0.0, 1.700951130321087E9, 0.0, 2023-11-25 17:25:30.321
121.0, 53224.80091152203, 66827.53614515497, 9234.82438741021, -6543.562596268964, 23733.84222195652, -29828.872362240836, 20007.471145090003, 17803.253865629897, -0.006, 0.974, 0.166, 192.0, 0.0, 0.0, 0.0, 0.0, 0.0, 0.0, 0.0, 0.0, 0.0, 1.700951130325048E9, 0.0, 2023-11-25 17:25:30.325
122.0, 53172.833105663434, 66771.85794971681, 9202.570820161203, -6590.411852647288, 23722.196963095306, -29704.149628180225, 19980.514941276902, 17820.352950138207, -0.006, 0.974, 0.166, 192.0, 0.0, 0.0, 0.0, 0.0, 0.0, 0.0, 0.0, 0.0, 0.0, 1.700951130330094E9, 0.0, 2023-11-25 17:25:30.330
123.0, 53167.178114316244, 66784.01729870049, 9204.761291117822, -6585.293303167022, 23662.96484028874, -29960.904116738337, 19968.467351015493, 17756.9410511185, -0.006, 0.974, 0.166, 192.0, 0.0, 0.0, 0.0, 0.0, 0.0, 0.0, 0.0, 0.0, 0.0, 1.700951130334097E9, 0.0, 2023-11-25 17:25:30.334
124.0, 53203.14207114483, 66821.14354624075, 9214.417244722516, -6566.339023868922, 23663.30011645557, -29942.44157581825, 19964.66755445809, 17749.386161492606, -0.006, 0.974, 0.166, 192.0, 0.0, 0.0, 0.0, 0.0, 0.0, 0.0, 0.0, 0.0, 0.0, 1.700951130338078E9, 0.0, 2023-11-25 17:25:30.338
125.0, 53224.04095221054, 66826.32915095439, 9227.604773951147, -6557.197160386701, 23709.12119258895, -29903.057802088002, 19972.982403395465, 17764.808865166768, -0.006, 0.974, 0.166, 192.0, 0.0, 0.0, 0.0, 0.0, 0.0, 0.0, 0.0, 0.0, 0.0, 1.70095113034209E9, 0.0, 2023-11-25 17:25:30.342
126.0, 53177.57167548796, 66772.84142647283, 9201.564991660714, -6599.061977751491, 23731.22706785525, -29691.54324430743, 19952.9105368746, 17807.590104054227, -0.006, 0.974, 0.166, 192.0, 0.0, 0.0, 0.0, 0.0, 0.0, 0.0, 0.0, 0.0, 0.0, 1.700951130345118E9, 0.0, 2023-11-25 17:25:30.345
127.0, 53157.27629152254, 66773.24375787303, 9195.351206702138, -6605.611038876897, 23653.554755873058, -29971.36473314342, 19941.824071624767, 17733.85169909617, -0.012, 0.978, 0.166, 192.0, 255.0, 160.0, 30.0, 144.0, 5.0, 48.0, 0.0, 0.0, 0.0, 1.700951130349149E9, 0.0, 2023-11-25 17:25:30.349
128.0, 53190.58039076095, 66804.55855185492, 9203.040206794763, -6586.2544281786, 23655.320543685026, -29955.78556725807, 19946.115606560186, 17730.94597231698, -0.012, 0.978, 0.166, 192.0, 0.0, 0.0, 0.0, 0.0, 0.0, 0.0, 0.0, 0.0, 0.0, 1.700951130353198E9, 0.0, 2023-11-25 17:25:30.353
129.0, 53228.690115057245, 66828.13964225526, 9225.950744861453, -6564.0591459344805, 23687.104724300472, -29969.35307614244, 19963.728781190966, 17730.722454872426, -0.012, 0.978, 0.166, 192.0, 0.0, 0.0, 0.0, 0.0, 0.0, 0.0, 0.0, 0.0, 0.0, 1.700951130358174E9, 0.0, 2023-11-25 17:25:30.358
130.0, 53182.824335434954, 66770.06981016038, 9203.241372494862, -6603.308809198, 23734.602181268, -29701.087439189847, 19949.401312995116, 17794.804906225792, -0.012, 0.978, 0.166, 192.0, 0.0, 0.0, 0.0, 0.0, 0.0, 0.0, 0.0, 0.0, 0.0, 1.700951130362184E9, 0.0, 2023-11-25 17:25:30.362
131.0, 53152.73888739811, 66759.98917341104, 9193.071328767697, -6618.329181471966, 23651.073712238518, -29955.942029469257, 19934.67151339907, 17715.389158176084, -0.012, 0.978, 0.166, 192.0, 0.0, 0.0, 0.0, 0.0, 0.0, 0.0, 0.0, 0.0, 0.0, 1.700951130366243E9, 0.0, 2023-11-25 17:25:30.366
132.0, 53180.03036737804, 66788.75586852501, 9203.286075983773, -6595.150422471813, 23652.817148306032, -29961.68642779427, 19947.32260076077, 17717.84785006617, -0.012, 0.978, 0.166, 192.0, 0.0, 0.0, 0.0, 0.0, 0.0, 0.0, 0.0, 0.0, 0.0, 1.700951130370239E9, 0.0, 2023-11-25 17:25:30.370
133.0, 53227.46076911221, 66828.65373237774, 9230.421093752515, -6565.8249337464495, 23671.81613109304, -29999.99731779067, 19968.802627182322, 17710.36001567364, -0.012, 0.978, 0.166, 192.0, 0.0, 0.0, 0.0, 0.0, 0.0, 0.0, 0.0, 0.0, 0.0, 1.700951130373177E9, 0.0, 2023-11-25 17:25:30.373
134.0, 53191.854440194904, 66775.47893231857, 9214.372541233604, -6593.205820704201, 23738.08905340303, -29715.101982963322, 19971.41778128359, 17795.542513792814, -0.012, 0.978, 0.166, 192.0, 0.0, 0.0, 0.0, 0.0, 0.0, 0.0, 0.0, 0.0, 0.0, 1.700951130377208E9, 0.0, 2023-11-25 17:25:30.377
135.0, 53143.351154726886, 66743.56064123638, 9190.456174666426, -6622.419550707287, 23653.219479706226, -29897.514569463085, 19944.416873981583, 17727.74967285987, -0.012, 0.978, 0.166, 192.0, 0.0, 0.0, 0.0, 0.0, 0.0, 0.0, 0.0, 0.0, 0.0, 1.70095113038125E9, 0.0, 2023-11-25 17:25:30.381
136.0, 53161.63488169132, 66763.25252810151, 9194.412433435016, -6602.146518486324, 23645.329313913502, -29956.523174825095, 19949.22249903947, 17719.993617533877, -0.012, 0.978, 0.166, 192.0, 0.0, 0.0, 0.0, 0.0, 0.0, 0.0, 0.0, 0.0, 0.0, 1.700951130385928E9, 0.0, 2023-11-25 17:25:30.385
137.0, 53209.758187503605, 66805.81024954442, 9218.239393024372, -6568.842419247916, 23656.34872392997, -29992.956518287247, 19966.008659125408, 17709.287131939785, -0.01, 0.984, 0.164, 192.0, 255.0, 176.0, 30.0, 192.0, 5.0, 32.0, 0.0, 0.0, 0.0, 1.700951130390566E9, 0.0, 2023-11-25 17:25:30.390
138.0, 53200.929248443754, 66780.08339167635, 9220.116939558618, -6573.1563059277905, 23739.87719295945, -29742.102890265334, 19990.72968849298, 17803.9020662191, -0.01, 0.984, 0.164, 192.0, 0.0, 0.0, 0.0, 0.0, 0.0, 0.0, 0.0, 0.0, 0.0, 1.700951130394351E9, 0.0, 2023-11-25 17:25:30.394
139.0, 53157.61156768937, 66751.09317911783, 9196.871125325099, -6602.280628953055, 23677.180549762317, -29817.361213846354, 19974.90465341862, 17776.18590309452, -0.01, 0.984, 0.164, 192.0, 0.0, 0.0, 0.0, 0.0, 0.0, 0.0, 0.0, 0.0, 0.0, 1.70095113039729E9, 0.0, 2023-11-25 17:25:30.397
140.0, 53172.74369868561, 66773.64608927323, 9203.509593428325, -6584.354529899899, 23655.432302407302, -29950.0188171886, 19985.85700820172, 17759.75737091987, -0.01, 0.984, 0.164, 192.0, 0.0, 0.0, 0.0, 0.0, 0.0, 0.0, 0.0, 0.0, 0.0, 1.700951130401281E9, 0.0, 2023-11-25 17:25:30.401
141.0, 53212.976838705166, 66809.1183077238, 9216.33949474567, -6562.092192422413, 23653.934735528797, -29967.83315751948, 19991.422592571093, 17749.47556847043, -0.01, 0.984, 0.164, 192.0, 0.0, 0.0, 0.0, 0.0, 0.0, 0.0, 0.0, 0.0, 0.0, 1.700951130405313E9, 0.0, 2023-11-25 17:25:30.405
142.0, 53215.122606172874, 66793.67325230519, 9224.028494838298, -6561.645157533308, 23734.11044288998, -29789.980326888603, 20005.191267155562, 17817.648389059115, -0.01, 0.984, 0.164, 192.0, 0.0, 0.0, 0.0, 0.0, 0.0, 0.0, 0.0, 0.0, 0.0, 1.700951130409289E9, 0.0, 2023-11-25 17:25:30.409
143.0, 53164.47355323715, 66752.5013390185, 9196.491145669359, -6599.129032984857, 23703.68971868631, -29754.396349715753, 19976.37986855267, 17808.86415348818, -0.01, 0.984, 0.164, 192.0, 0.0, 0.0, 0.0, 0.0, 0.0, 0.0, 0.0, 0.0, 0.0, 1.700951130413382E9, 0.0, 2023-11-25 17:25:30.413
144.0, 53162.01486134707, 66765.42064731367, 9195.038282279764, -6590.747128814117, 23655.186433218292, -29961.909945238825, 19968.243833570938, 17762.99837386589, -0.01, 0.984, 0.164, 192.0, 0.0, 0.0, 0.0, 0.0, 0.0, 0.0, 0.0, 0.0, 0.0, 1.700951130418557E9, 0.0, 2023-11-25 17:25:30.418
145.0, 53200.459861810195, 66801.65282507573, 9203.509593428325, -6573.3351198834325, 23650.224345949217, -29960.434730104775, 19964.019353868887, 17747.97800159192, -0.01, 0.984, 0.164, 192.0, 0.0, 0.0, 0.0, 0.0, 0.0, 0.0, 0.0, 0.0, 0.0, 1.700951130422388E9, 0.0, 2023-11-25 17:25:30.422
146.0, 53212.46274858269, 66794.63437731676, 9212.472642954903, -6573.022195461059, 23706.282521043126, -29869.68664761623, 19969.830807427265, 17772.386106537117, -0.01, 0.984, 0.164, 192.0, 0.0, 0.0, 0.0, 0.0, 0.0, 0.0, 0.0, 0.0, 0.0, 1.700951130425375E9, 0.0, 2023-11-25 17:25:30.425
147.0, 53165.72525092665, 66743.42653076965, 9189.427994421481, -6613.635315136352, 23704.4943814867, -29722.612169100306, 19947.635525183145, 17797.442412071516, -0.006, 0.98, 0.158, 192.0, 255.0, 208.0, 30.0, 160.0, 4.0, 240.0, 0.0, 0.0, 0.0, 1.700951130429456E9, 0.0, 2023-11-25 17:25:30.429
148.0, 53160.62905319084, 66756.36819080928, 9192.512535156315, -6609.589649389941, 23639.316694655026, -29985.580442616996, 19941.198222780018, 17726.922658315023, -0.006, 0.98, 0.158, 192.0, 0.0, 0.0, 0.0, 0.0, 0.0, 0.0, 0.0, 0.0, 0.0, 1.700951130433425E9, 0.0, 2023-11-25 17:25:30.433
149.0, 53200.526917043564, 66797.0707174624, 9202.168488761006, -6588.377843901854, 23642.043607478572, -29963.094587694955, 19943.835728625745, 17718.183126232998, -0.006, 0.98, 0.158, 192.0, 0.0, 0.0, 0.0, 0.0, 0.0, 0.0, 0.0, 0.0, 0.0, 1.700951130437474E9, 0.0, 2023-11-25 17:25:30.437
150.0, 53226.812568523004, 66814.92976128218, 9222.039189581776, -6570.787021015528, 23686.83650336701, -29933.232657102664, 19959.839577655745, 17732.935277573502, -0.006, 0.98, 0.158, 192.0, 0.0, 0.0, 0.0, 0.0, 0.0, 0.0, 0.0, 0.0, 0.0, 1.700951130441471E9, 0.0, 2023-11-25 17:25:30.441
151.0, 53181.46087902319, 66761.754961223, 9201.497936427348, -6605.834556321449, 23718.73244270473, -29698.24876764402, 19948.507243216904, 17789.909874190078, -0.006, 0.98, 0.158, 192.0, 0.0, 0.0, 0.0, 0.0, 0.0, 0.0, 0.0, 0.0, 0.0, 1.700951130445477E9, 0.0, 2023-11-25 17:25:30.445
152.0, 53165.211160804174, 66761.84436820082, 9204.358959717627, -6603.577030131463, 23648.123281970416, -29968.414302875317, 19947.702580416513, 17720.440652422985, -0.006, 0.98, 0.158, 192.0, 0.0, 0.0, 0.0, 0.0, 0.0, 0.0, 0.0, 0.0, 0.0, 1.700951130450476E9, 0.0, 2023-11-25 17:25:30.450
153.0, 53198.694073998224, 66788.77822026947, 9214.461948211427, -6580.219457175667, 23654.582936118, -29942.083947906965, 19960.57718522277, 17731.147138017077, -0.006, 0.98, 0.158, 192.0, 0.0, 0.0, 0.0, 0.0, 0.0, 0.0, 0.0, 0.0, 0.0, 1.700951130453818E9, 0.0, 2023-11-25 17:25:30.453
154.0, 53230.366495891394, 66810.14648796874, 9226.196614050463, -6568.77536401455, 23674.833616594507, -29968.011971475124, 19966.746266692433, 17723.458137924452, -0.006, 0.98, 0.158, 192.0, 0.0, 0.0, 0.0, 0.0, 0.0, 0.0, 0.0, 0.0, 0.0, 1.700951130457475E9, 0.0, 2023-11-25 17:25:30.457
155.0, 53190.870963438865, 66762.89490019022, 9207.711721385924, -6603.085291753447, 23730.087128888026, -29696.125351920768, 19962.00769686791, 17794.71549924797, -0.006, 0.98, 0.158, 192.0, 0.0, 0.0, 0.0, 0.0, 0.0, 0.0, 0.0, 0.0, 0.0, 1.700951130461496E9, 0.0, 2023-11-25 17:25:30.461
156.0, 53160.18201830173, 66755.31765881988, 9198.994541048354, -6614.887012825849, 23648.950296515264, -29939.625256016883, 19951.05534208481, 17722.161736746042, -0.006, 0.98, 0.158, 192.0, 0.0, 0.0, 0.0, 0.0, 0.0, 0.0, 0.0, 0.0, 0.0, 1.700951130465497E9, 0.0, 2023-11-25 17:25:30.465
157.0, 53181.997320890114, 66779.94928120963, 9204.604828906635, -6594.7033875827065, 23648.8832412819, -29952.052825934035, 19959.258432299906, 17724.642780380582, -0.004, 0.982, 0.16, 192.0, 255.0, 224.0, 30.0, 176.0, 5.0, 0.0, 0.0, 0.0, 0.0, 1.700951130469529E9, 0.0, 2023-11-25 17:25:30.469
158.0, 53220.08469344195, 66817.83548806138, 9226.82246289521, -6565.9366924687265, 23661.288459454594, -29995.974003788713, 19979.531464520867, 17716.238524465385, -0.004, 0.982, 0.16, 192.0, 0.0, 0.0, 0.0, 0.0, 0.0, 0.0, 0.0, 0.0, 0.0, 1.700951130473497E9, 0.0, 2023-11-25 17:25:30.473
159.0, 53194.089614640434, 66775.05424917392, 9217.188861034974, -6586.1873729452345, 23735.965637679772, -29714.789058540948, 19987.57809252478, 17807.120717420665, -0.004, 0.982, 0.16, 192.0, 0.0, 0.0, 0.0, 0.0, 0.0, 0.0, 0.0, 0.0, 0.0, 1.700951130478553E9, 0.0, 2023-11-25 17:25:30.478
160.0, 53154.32586125444, 66748.99211513903, 9201.095605027152, -6607.376826688866, 23664.663572867343, -29873.844072084914, 19970.881339416665, 17751.0401905823, -0.004, 0.982, 0.16, 192.0, 0.0, 0.0, 0.0, 0.0, 0.0, 0.0, 0.0, 0.0, 0.0, 1.700951130481516E9, 0.0, 2023-11-25 17:25:30.481
161.0, 53174.55418998649, 66769.35455433781, 9211.690331898968, -6580.979416487148, 23659.16504373134, -29938.820593216493, 19988.203941369527, 17751.487225471406, -0.004, 0.982, 0.16, 192.0, 0.0, 0.0, 0.0, 0.0, 0.0, 0.0, 0.0, 0.0, 0.0, 1.700951130485724E9, 0.0, 2023-11-25 17:25:30.485
162.0, 53222.43162660976, 66812.9181042812, 9231.851605397655, -6546.445971303699, 23663.97066878923, -29969.59894533145, 20003.783107254876, 17739.79726312128, -0.004, 0.982, 0.16, 192.0, 0.0, 0.0, 0.0, 0.0, 0.0, 0.0, 0.0, 0.0, 0.0, 1.700951130489547E9, 0.0, 2023-11-25 17:25:30.489
163.0, 53211.367513104386, 66790.38754587025, 9230.555204219247, -6551.005727172581, 23744.883983717442, -29733.765689583506, 20018.49055510647, 17817.938961737033, -0.004, 0.982, 0.16, 192.0, 0.0, 0.0, 0.0, 0.0, 0.0, 0.0, 0.0, 0.0, 0.0, 1.700951130493559E9, 0.0, 2023-11-25 17:25:30.493
164.0, 53163.75829741458, 66752.99307739653, 9203.800166106244, -6585.002730489103, 23688.132904545415, -29787.298117553964, 19995.91529320661, 17786.91474043307, -0.004, 0.982, 0.16, 192.0, 0.0, 0.0, 0.0, 0.0, 0.0, 0.0, 0.0, 0.0, 0.0, 1.700951130497641E9, 0.0, 2023-11-25 17:25:30.497
165.0, 53175.649425464806, 66772.01441192799, 9206.415320207516, -6570.719965782162, 23658.092159997483, -29938.239447860655, 19995.088278661762, 17755.59994645118, -0.004, 0.982, 0.16, 192.0, 0.0, 0.0, 0.0, 0.0, 0.0, 0.0, 0.0, 0.0, 0.0, 1.700951130501566E9, 0.0, 2023-11-25 17:25:30.501
166.0, 53221.492853342635, 66815.91323803822, 9219.356980247137, -6546.758895726072, 23656.147558229874, -29957.864279492413, 19996.00470018443, 17736.958591575454, -0.004, 0.982, 0.16, 192.0, 0.0, 0.0, 0.0, 0.0, 0.0, 0.0, 0.0, 0.0, 0.0, 1.700951130506581E9, 0.0, 2023-11-25 17:25:30.506
167.0, 53225.136187688855, 66804.42444138818, 9222.061541326231, -6551.475113806143, 23726.68966373082, -29799.546873515475, 20006.219447400505, 17795.184885881532, -0.008, 0.984, 0.158, 192.0, 255.0, 192.0, 30.0, 192.0, 4.0, 240.0, 0.0, 0.0, 0.0, 1.700951130510645E9, 0.0, 2023-11-25 17:25:30.510
168.0, 53181.438527278726, 66761.68790598965, 9195.418261935505, -6592.468213137176, 23701.745116918697, -29742.773442598995, 19982.817170955797, 17788.546417778303, -0.008, 0.984, 0.158, 192.0, 0.0, 0.0, 0.0, 0.0, 0.0, 0.0, 0.0, 0.0, 0.0, 1.700951130513606E9, 0.0, 2023-11-25 17:25:30.513
169.0, 53191.87679193936, 66782.94441496664, 9203.19666900595, -6579.6159600753745, 23661.02023852113, -29963.78749177307, 19985.745249479445, 17740.691332899492, -0.008, 0.984, 0.158, 192.0, 0.0, 0.0, 0.0, 0.0, 0.0, 0.0, 0.0, 0.0, 0.0, 1.700951130518641E9, 0.0, 2023-11-25 17:25:30.518
170.0, 53237.47435062818, 66828.54197365546, 9216.093625556663, -6556.3477940974, 23663.6353926224, -29955.74086376916, 19990.70733674852, 17730.297771727775, -0.008, 0.984, 0.158, 192.0, 0.0, 0.0, 0.0, 0.0, 0.0, 0.0, 0.0, 0.0, 0.0, 1.700951130521636E9, 0.0, 2023-11-25 17:25:30.521
171.0, 53263.715298618714, 66836.76741561502, 9230.890480386077, -6544.0990381358915, 23725.572076508055, -29868.367894693365, 20008.85695324623, 17769.949766391488, -0.008, 0.984, 0.158, 192.0, 0.0, 0.0, 0.0, 0.0, 0.0, 0.0, 0.0, 0.0, 0.0, 1.700951130524707E9, 0.0, 2023-11-25 17:25:30.524
172.0, 53215.279068384065, 66777.26707187499, 9195.239447979862, -6590.724777069661, 23726.488498030725, -29697.77938101046, 19984.448848301035, 17799.0517376723, -0.008, 0.984, 0.158, 192.0, 0.0, 0.0, 0.0, 0.0, 0.0, 0.0, 0.0, 0.0, 0.0, 1.700951130529713E9, 0.0, 2023-11-25 17:25:30.529
173.0, 53213.28976312754, 66789.53817958095, 9194.367729946105, -6585.941503756226, 23663.6353926224, -29965.240355162667, 19979.844388943242, 17727.12382401512, -0.008, 0.984, 0.158, 192.0, 0.0, 0.0, 0.0, 0.0, 0.0, 0.0, 0.0, 0.0, 0.0, 1.70095113053368E9, 0.0, 2023-11-25 17:25:30.533
174.0, 53250.14778973434, 66822.66346486371, 9199.173355003995, -6569.602378559396, 23666.205843234762, -29941.726319995683, 19981.47606628848, 17726.31916121473, -0.008, 0.984, 0.158, 192.0, 0.0, 0.0, 0.0, 0.0, 0.0, 0.0, 0.0, 0.0, 0.0, 1.700951130537673E9, 0.0, 2023-11-25 17:25:30.537
175.0, 53280.367348237916, 66841.01424706152, 9215.691294156468, -6553.889102207316, 23708.02595711064, -29926.996520399636, 19996.04940367334, 17738.56791717624, -0.008, 0.984, 0.158, 192.0, 0.0, 0.0, 0.0, 0.0, 0.0, 0.0, 0.0, 0.0, 0.0, 1.700951130541708E9, 0.0, 2023-11-25 17:25:30.541
176.0, 53244.67161234279, 66793.38267962726, 9197.429918936483, -6582.834611276939, 23752.505928576702, -29676.120540633267, 19993.99304318345, 17806.494868575915, -0.008, 0.984, 0.158, 192.0, 0.0, 0.0, 0.0, 0.0, 0.0, 0.0, 0.0, 0.0, 0.0, 1.700951130545706E9, 0.0, 2023-11-25 17:25:30.545
177.0, 53220.643487053334, 66784.5090370785, 9183.974168774386, -6594.0551869935025, 23671.6373171374, -29947.18014564278, 19978.23506334246, 17729.806033349756, -0.008, 0.974, 0.164, 192.0, 255.0, 192.0, 30.0, 112.0, 5.0, 32.0, 0.0, 0.0, 0.0, 1.700951130550307E9, 0.0, 2023-11-25 17:25:30.550
178.0, 53255.333394447975, 66816.80730781643, 9190.098546755142, -6573.290416394522, 23677.381715462416, -29937.21126761571, 19975.61990924119, 17726.47562342592, -0.008, 0.974, 0.164, 192.0, 0.0, 0.0, 0.0, 0.0, 0.0, 0.0, 0.0, 0.0, 0.0, 1.700951130553729E9, 0.0, 2023-11-25 17:25:30.553
179.0, 53301.065063603535, 66852.45834022264, 9214.551355189247, -6546.736543981618, 23707.757736177176, -29960.74765452715, 19992.920159449597, 17723.681655369004, -0.008, 0.974, 0.164, 192.0, 0.0, 0.0, 0.0, 0.0, 0.0, 0.0, 0.0, 0.0, 0.0, 1.700951130556816E9, 0.0, 2023-11-25 17:25:30.556
180.0, 53263.13415326287, 66795.93077849517, 9191.953741544932, -6582.745204299117, 23765.022905471673, -29680.92616569116, 19987.8686652027, 17801.756298751392, -0.008, 0.974, 0.164, 192.0, 0.0, 0.0, 0.0, 0.0, 0.0, 0.0, 0.0, 0.0, 0.0, 1.700951130562836E9, 0.0, 2023-11-25 17:25:30.562
181.0, 53233.20516743722, 66779.94928120963, 9179.615578605602, -6597.005617261603, 23686.63533766691, -29911.372651025376, 19972.37890629517, 17735.237507252397, -0.008, 0.974, 0.164, 192.0, 0.0, 0.0, 0.0, 0.0, 0.0, 0.0, 0.0, 0.0, 0.0, 1.700951130565804E9, 0.0, 2023-11-25 17:25:30.565
182.0, 53260.9213305618, 66804.58090359937, 9183.39302341855, -6576.419660618265, 23684.310756243558, -29932.048014646534, 19979.06207788731, 17737.964420075943, -0.008, 0.974, 0.164, 192.0, 0.0, 0.0, 0.0, 0.0, 0.0, 0.0, 0.0, 0.0, 0.0, 1.700951130569854E9, 0.0, 2023-11-25 17:25:30.569
183.0, 53302.8308514155, 66842.22124126212, 9199.441575937459, -6551.899796950794, 23692.513846458656, -29975.94684075676, 19983.934758178566, 17719.434823922496, -0.008, 0.974, 0.164, 192.0, 0.0, 0.0, 0.0, 0.0, 0.0, 0.0, 0.0, 0.0, 0.0, 1.700951130573818E9, 0.0, 2023-11-25 17:25:30.573
184.0, 53284.86004887344, 66810.01237750202, 9192.221962478396, -6565.802582001995, 23772.577795097568, -29704.2613869025, 19987.175761124585, 17808.327711621252, -0.008, 0.974, 0.164, 192.0, 0.0, 0.0, 0.0, 0.0, 0.0, 0.0, 0.0, 0.0, 0.0, 1.700951130577837E9, 0.0, 2023-11-25 17:25:30.577
185.0, 53246.28093794357, 66786.74421152404, 9173.29003492475, -6590.098928224913, 23700.739288418208, -29847.267847927553, 19964.019353868887, 17760.830254653723, -0.008, 0.974, 0.164, 192.0, 0.0, 0.0, 0.0, 0.0, 0.0, 0.0, 0.0, 0.0, 0.0, 1.700951130580879E9, 0.0, 2023-11-25 17:25:30.580
186.0, 53272.00779581163, 66817.25434270554, 9186.544619386748, -6564.819105245961, 23694.50315171518, -29931.891552435347, 19971.686002217055, 17757.119865074143, -0.008, 0.974, 0.164, 192.0, 0.0, 0.0, 0.0, 0.0, 0.0, 0.0, 0.0, 0.0, 0.0, 1.700951130584884E9, 0.0, 2023-11-25 17:25:30.584
187.0, 53316.912450422344, 66856.2804885245, 9203.554296917237, -6543.182616613223, 23695.173704048837, -29964.569802829006, 19972.155388850617, 17736.0868735417, -0.012, 0.976, 0.162, 192.0, 255.0, 160.0, 30.0, 128.0, 5.0, 16.0, 0.0, 0.0, 0.0, 1.700951130588881E9, 0.0, 2023-11-25 17:25:30.588
188.0, 53304.30606654955, 66825.65859862074, 9200.782680604778, -6560.527570310542, 23765.17936768286, -29756.899745094746, 19971.171912094585, 17799.923455706055, -0.012, 0.976, 0.162, 192.0, 0.0, 0.0, 0.0, 0.0, 0.0, 0.0, 0.0, 0.0, 0.0, 1.700951130593976E9, 0.0, 2023-11-25 17:25:30.593
189.0, 53260.89897881734, 66792.08627844886, 9181.068441995198, -6597.117375983879, 23714.440907769313, -29794.51773101303, 19947.680228672056, 17772.162589092564, -0.012, 0.976, 0.162, 192.0, 0.0, 0.0, 0.0, 0.0, 0.0, 0.0, 0.0, 0.0, 0.0, 1.700951130597905E9, 0.0, 2023-11-25 17:25:30.597
190.0, 53271.09137428897, 66813.90158103724, 9190.143250244051, -6582.298169410011, 23683.841369609996, -29960.591192315962, 19950.787121151345, 17736.712722386448, -0.012, 0.976, 0.162, 192.0, 0.0, 0.0, 0.0, 0.0, 0.0, 0.0, 0.0, 0.0, 0.0, 1.70095113060187E9, 0.0, 2023-11-25 17:25:30.601
191.0, 53313.93966840979, 66854.04531407898, 9206.258857996329, -6560.907549966282, 23682.656727153866, -29975.075122723, 19953.58108920826, 17719.367768689128, -0.012, 0.976, 0.162, 192.0, 0.0, 0.0, 0.0, 0.0, 0.0, 0.0, 0.0, 0.0, 0.0, 1.700951130604885E9, 0.0, 2023-11-25 17:25:30.604
192.0, 53324.690857492795, 66848.30091575395, 9222.30741051524, -6555.833703974928, 23758.65265830191, -29834.214429165655, 19969.5625864938, 17776.476475772437, -0.012, 0.976, 0.162, 192.0, 0.0, 0.0, 0.0, 0.0, 0.0, 0.0, 0.0, 0.0, 0.0, 1.700951130608949E9, 0.0, 2023-11-25 17:25:30.608
193.0, 53272.7230516342, 66794.63437731676, 9191.797279333745, -6602.235925464145, 23734.289256845626, -29753.591686915363, 19939.678304157056, 17775.247129827396, -0.012, 0.976, 0.162, 192.0, 0.0, 0.0, 0.0, 0.0, 0.0, 0.0, 0.0, 0.0, 0.0, 1.700951130614907E9, 0.0, 2023-11-25 17:25:30.614
194.0, 53271.24783650015, 66805.81024954442, 9193.33954970116, -6599.173736473767, 23679.68394514131, -29988.1285414849, 19933.933905832044, 17714.49508839787, -0.012, 0.976, 0.162, 192.0, 0.0, 0.0, 0.0, 0.0, 0.0, 0.0, 0.0, 0.0, 0.0, 1.700951130617944E9, 0.0, 2023-11-25 17:25:30.617
195.0, 53308.37408404042, 66842.69062789567, 9199.083948026175, -6581.15823044279, 23673.67132588283, -29975.768026801114, 19931.74343487542, 17702.760422558837, -0.012, 0.976, 0.162, 192.0, 0.0, 0.0, 0.0, 0.0, 0.0, 0.0, 0.0, 0.0, 0.0, 1.700951130622037E9, 0.0, 2023-11-25 17:25:30.622
196.0, 53328.84828196148, 66851.51956695553, 9212.137366788074, -6570.228227404145, 23727.874306186954, -29906.67878468976, 19949.289554272837, 17735.08104504121, -0.012, 0.976, 0.162, 192.0, 0.0, 0.0, 0.0, 0.0, 0.0, 0.0, 0.0, 0.0, 0.0, 1.70095113062597E9, 0.0, 2023-11-25 17:25:30.625
197.0, 53279.54033369307, 66798.43417387416, 9185.695253097445, -6609.88022206786, 23740.905373204398, -29716.666605075196, 19937.71135064499, 17781.729135719437, -0.01, 0.972, 0.17, 192.0, 255.0, 176.0, 30.0, 96.0, 5.0, 80.0, 0.0, 0.0, 0.0, 1.700951130631956E9, 0.0, 2023-11-25 17:25:30.631
198.0, 53265.324624219495, 66799.77527854148, 9181.604883862125, -6611.668361624284, 23668.10574151346, -29983.36761991592, 19933.41981570957, 17715.232695964896, -0.01, 0.972, 0.17, 192.0, 0.0, 0.0, 0.0, 0.0, 0.0, 0.0, 0.0, 0.0, 0.0, 1.70095113063499E9, 0.0, 2023-11-25 17:25:30.634
199.0, 53301.065063603535, 66833.9287440692, 9191.663168867013, -6585.315654911477, 23671.749075859676, -29956.50082308064, 19946.115606560186, 17719.524230900315, -0.01, 0.972, 0.17, 192.0, 0.0, 0.0, 0.0, 0.0, 0.0, 0.0, 0.0, 0.0, 0.0, 1.700951130638009E9, 0.0, 2023-11-25 17:25:30.638
200.0, 53327.64128776089, 66847.8762326093, 9210.595096420659, -6565.802582001995, 23711.021090867653, -29943.223886874188, 19969.00379288242, 17736.399797964074, -0.01, 0.972, 0.17, 192.0, 0.0, 0.0, 0.0, 0.0, 0.0, 0.0, 0.0, 0.0, 0.0, 1.70095113064106E9, 0.0, 2023-11-25 17:25:30.641
201.0, 53281.17201103831, 66791.12515343729, 9186.544619386748, -6603.733492342651, 23751.120120420474, -29680.747351735517, 19964.19816782453, 17807.52304882086, -0.01, 0.972, 0.17, 192.0, 0.0, 0.0, 0.0, 0.0, 0.0, 0.0, 0.0, 0.0, 0.0, 1.700951130645042E9, 0.0, 2023-11-25 17:25:30.645
202.0, 53258.484990416175, 66786.78891501295, 9182.118973984596, -6610.908402312804, 23669.7374188587, -29947.35895959842, 19958.386714266147, 17739.864318354645, -0.01, 0.972, 0.17, 192.0, 0.0, 0.0, 0.0, 0.0, 0.0, 0.0, 0.0, 0.0, 0.0, 1.700951130649083E9, 0.0, 2023-11-25 17:25:30.649
203.0, 53287.74342390817, 66816.60614211633, 9193.361901445616, -6587.327311912455, 23672.553738660066, -29931.757441968613, 19970.747228949935, 17750.995487093387, -0.01, 0.972, 0.17, 192.0, 0.0, 0.0, 0.0, 0.0, 0.0, 0.0, 0.0, 0.0, 0.0, 1.700951130654161E9, 0.0, 2023-11-25 17:25:30.654
204.0, 53328.20008137228, 66853.7770931455, 9217.367674990615, -6561.555750555486, 23693.094991814494, -29961.529965583082, 19984.650014001134, 17739.864318354645, -0.01, 0.972, 0.17, 192.0, 0.0, 0.0, 0.0, 0.0, 0.0, 0.0, 0.0, 0.0, 0.0, 1.700951130658083E9, 0.0, 2023-11-25 17:25:30.658
205.0, 53293.845450144465, 66804.58090359937, 9200.603866649135, -6590.7694805585725, 23755.970448967273, -29682.44608431412, 19981.47606628848, 17824.599781584715, -0.01, 0.972, 0.17, 192.0, 0.0, 0.0, 0.0, 0.0, 0.0, 0.0, 0.0, 0.0, 0.0, 1.700951130661097E9, 0.0, 2023-11-25 17:25:30.661
206.0, 53254.66284211432, 66783.2126359001, 9181.023738506286, -6613.344742458433, 23671.346744459483, -29900.174427053265, 19957.38088576566, 17756.22579529593, -0.01, 0.972, 0.17, 192.0, 0.0, 0.0, 0.0, 0.0, 0.0, 0.0, 0.0, 0.0, 0.0, 1.700951130665061E9, 0.0, 2023-11-25 17:25:30.665
207.0, 53281.127307549395, 66814.59448511535, 9188.556276387724, -6587.863753779382, 23671.92788981532, -29939.044110661045, 19961.851234656722, 17747.486263213905, -0.012, 0.972, 0.17, 192.0, 255.0, 160.0, 30.0, 96.0, 5.0, 80.0, 0.0, 0.0, 0.0, 1.700951130669097E9, 0.0, 2023-11-25 17:25:30.669
208.0, 53322.656848747356, 66853.35241000085, 9204.649532395546, -6566.048451191003, 23678.566357918546, -29985.111055983434, 19965.00283062492, 17723.391082691083, -0.012, 0.972, 0.17, 192.0, 0.0, 0.0, 0.0, 0.0, 0.0, 0.0, 0.0, 0.0, 0.0, 1.700951130673102E9, 0.0, 2023-11-25 17:25:30.673
209.0, 53303.277886304604, 66816.20381071614, 9199.039244537264, -6585.49446886712, 23756.79746351212, -29729.004768014525, 19966.120417847684, 17807.14306916512, -0.012, 0.972, 0.17, 192.0, 0.0, 0.0, 0.0, 0.0, 0.0, 0.0, 0.0, 0.0, 0.0, 1.700951130677133E9, 0.0, 2023-11-25 17:25:30.677
210.0, 53264.51996141911, 66790.8122290149, 9182.498953640337, -6609.88022206786, 23691.999756336183, -29854.129833475334, 19944.685094915047, 17760.047943597787, -0.012, 0.972, 0.17, 192.0, 0.0, 0.0, 0.0, 0.0, 0.0, 0.0, 0.0, 0.0, 0.0, 1.700951130682146E9, 0.0, 2023-11-25 17:25:30.682
211.0, 53275.36055747993, 66806.50315362253, 9185.359976930617, -6597.251486450611, 23672.710200871254, -29959.473605093197, 19944.930964104053, 17741.384236977607, -0.012, 0.972, 0.17, 192.0, 0.0, 0.0, 0.0, 0.0, 0.0, 0.0, 0.0, 0.0, 0.0, 1.700951130686151E9, 0.0, 2023-11-25 17:25:30.686
212.0, 53320.66754349084, 66847.02686632, 9203.889573084065, -6569.781192515039, 23673.67132588283, -29990.587233374983, 19952.396446752125, 17724.9333530585, -0.012, 0.972, 0.17, 192.0, 0.0, 0.0, 0.0, 0.0, 0.0, 0.0, 0.0, 0.0, 0.0, 1.700951130689208E9, 0.0, 2023-11-25 17:25:30.689
213.0, 53317.583002756, 66827.53614515497, 9209.186936519973, -6573.625692561352, 23755.679876289356, -29786.85108266486, 19964.511092246903, 17796.928321949046, -0.012, 0.972, 0.17, 192.0, 0.0, 0.0, 0.0, 0.0, 0.0, 0.0, 0.0, 0.0, 0.0, 1.700951130693388E9, 0.0, 2023-11-25 17:25:30.693
214.0, 53263.49178117416, 66782.2068073996, 9178.028604749275, -6616.07165528198, 23707.087183843516, -29799.32335607092, 19934.962086076986, 17770.41915302505, -0.012, 0.972, 0.17, 192.0, 0.0, 0.0, 0.0, 0.0, 0.0, 0.0, 0.0, 0.0, 0.0, 1.700951130697135E9, 0.0, 2023-11-25 17:25:30.697
215.0, 53265.5704934085, 66795.6178540728, 9178.140363471552, -6606.460405166198, 23664.8870903119, -29983.79230306057, 19929.485908685438, 17725.7827193478, -0.012, 0.972, 0.17, 192.0, 0.0, 0.0, 0.0, 0.0, 0.0, 0.0, 0.0, 0.0, 0.0, 1.700951130701225E9, 0.0, 2023-11-25 17:25:30.701
216.0, 53302.383816526395, 66834.88986908077, 9188.019834520797, -6586.321483411966, 23659.321505942527, -29989.603756618948, 19928.390673207126, 17705.21911444892, -0.012, 0.972, 0.17, 192.0, 0.0, 0.0, 0.0, 0.0, 0.0, 0.0, 0.0, 0.0, 0.0, 1.700951130705178E9, 0.0, 2023-11-25 17:25:30.705
217.0, 53314.36435155444, 66833.81698534692, 9207.264686496817, -6576.620826318363, 23734.646884756912, -29858.3990166663, 19949.24485078393, 17759.355039519673, -0.01, 0.972, 0.168, 192.0, 255.0, 176.0, 30.0, 96.0, 5.0, 64.0, 0.0, 0.0, 0.0, 1.700951130710725E9, 0.0, 2023-11-25 17:25:30.710
218.0, 53262.91063581832, 66780.15044690973, 9182.208380962418, -6618.2621262386, 23720.721747961255, -29749.83659384687, 19929.798833107812, 17770.79913268079, -0.01, 0.972, 0.168, 192.0, 0.0, 0.0, 0.0, 0.0, 0.0, 0.0, 0.0, 0.0, 0.0, 1.700951130714212E9, 0.0, 2023-11-25 17:25:30.714
219.0, 53258.59674913845, 66790.99104297055, 9186.388157175561, -6609.991980790136, 23665.602346134467, -29990.94486128627, 19935.6549901551, 17720.418300678528, -0.01, 0.972, 0.168, 192.0, 0.0, 0.0, 0.0, 0.0, 0.0, 0.0, 0.0, 0.0, 0.0, 1.700951130717243E9, 0.0, 2023-11-25 17:25:30.717
220.0, 53293.62193269991, 66829.05606377794, 9197.273456725296, -6585.270951422567, 23665.043552523086, -29969.196613931254, 19944.305115259303, 17725.35803620315, -0.01, 0.972, 0.168, 192.0, 0.0, 0.0, 0.0, 0.0, 0.0, 0.0, 0.0, 0.0, 0.0, 1.700951130721301E9, 0.0, 2023-11-25 17:25:30.721
221.0, 53318.76764521214, 66844.14349128527, 9220.742788403368, -6564.72969826814, 23721.079375872538, -29909.71862193568, 19970.791932438842, 17757.812769152257, -0.01, 0.972, 0.168, 192.0, 0.0, 0.0, 0.0, 0.0, 0.0, 0.0, 0.0, 0.0, 0.0, 1.70095113072524E9, 0.0, 2023-11-25 17:25:30.725
222.0, 53261.88245557338, 66783.50320857803, 9193.00427353433, -6610.863698823893, 23737.239687113728, -29702.74146827954, 19954.877490386665, 17803.9020662191, -0.01, 0.972, 0.168, 192.0, 0.0, 0.0, 0.0, 0.0, 0.0, 0.0, 0.0, 0.0, 0.0, 1.700951130729262E9, 0.0, 2023-11-25 17:25:30.729
223.0, 53236.89320527235, 66778.25054863103, 9184.622369363591, -6618.2621262386, 23656.326372185515, -29976.952669257247, 19943.321638503272, 17727.74967285987, -0.01, 0.972, 0.168, 192.0, 0.0, 0.0, 0.0, 0.0, 0.0, 0.0, 0.0, 0.0, 0.0, 1.700951130733388E9, 0.0, 2023-11-25 17:25:30.733
224.0, 53269.28088298808, 66808.80538330143, 9194.300674712738, -6594.636332349341, 23658.516843142133, -29953.93037246828, 19948.19431879453, 17734.32108572973, -0.01, 0.972, 0.168, 192.0, 0.0, 0.0, 0.0, 0.0, 0.0, 0.0, 0.0, 0.0, 0.0, 1.700951130738287E9, 0.0, 2023-11-25 17:25:30.738
225.0, 53309.60342998546, 66838.60025866036, 9223.581459949191, -6566.629596546841, 23700.940454118307, -29955.763215513616, 19970.411952783103, 17746.256917268864, -0.01, 0.972, 0.168, 192.0, 0.0, 0.0, 0.0, 0.0, 0.0, 0.0, 0.0, 0.0, 0.0, 1.700951130741392E9, 0.0, 2023-11-25 17:25:30.741
226.0, 53275.896999346856, 66789.87345574779, 9207.979942319387, -6595.262181194089, 23754.94226872233, -29684.368334337276, 19968.802627182322, 17824.46567111798, -0.018000000000000002, 0.978, 0.168, 192.0, 255.0, 112.0, 30.0, 144.0, 5.0, 64.0, 0.0, 0.0, 0.0, 1.700951130745265E9, 0.0, 2023-11-25 17:25:30.745
227.0, 53250.48306590117, 66783.16793241119, 9198.815727092711, -6604.247582465123, 23671.21263399275, -29942.933314196267, 19955.771560164878, 17750.257879526365, -0.018000000000000002, 0.978, 0.168, 192.0, 0.0, 0.0, 0.0, 0.0, 0.0, 0.0, 0.0, 0.0, 0.0, 1.700951130749301E9, 0.0, 2023-11-25 17:25:30.749
228.0, 53272.43247895628, 66809.58769435737, 9201.386177705072, -6587.528477612553, 23667.25637522416, -29940.474622306185, 19954.028124097364, 17745.51930970184, -0.018000000000000002, 0.978, 0.168, 192.0, 0.0, 0.0, 0.0, 0.0, 0.0, 0.0, 0.0, 0.0, 0.0, 1.700951130753297E9, 0.0, 2023-11-25 17:25:30.753
229.0, 53310.899831163864, 66842.69062789567, 9221.793320392766, -6561.466343577665, 23686.948262089285, -29977.39970414635, 19964.779313180366, 17737.539736931292, -0.018000000000000002, 0.978, 0.168, 192.0, 0.0, 0.0, 0.0, 0.0, 0.0, 0.0, 0.0, 0.0, 0.0, 1.700951130757325E9, 0.0, 2023-11-25 17:25:30.757
230.0, 53284.144793050866, 66798.70239480762, 9210.528041187292, -6585.606227589396, 23759.74789378022, -29695.901834476215, 19965.89690040313, 17820.688226305036, -0.018000000000000002, 0.978, 0.168, 192.0, 0.0, 0.0, 0.0, 0.0, 0.0, 0.0, 0.0, 0.0, 0.0, 1.700951130761354E9, 0.0, 2023-11-25 17:25:30.761
231.0, 53247.577339121985, 66778.58582479785, 9192.28901771176, -6607.2650679665885, 23680.622718408435, -29894.76530489508, 19943.791025136834, 17749.69908591498, -0.018000000000000002, 0.978, 0.168, 192.0, 0.0, 0.0, 0.0, 0.0, 0.0, 0.0, 0.0, 0.0, 0.0, 1.700951130766324E9, 0.0, 2023-11-25 17:25:30.766
232.0, 53267.291577731565, 66802.61395008731, 9194.881820068576, -6588.3554921574, 23674.766561361143, -29946.844869475946, 19946.719103660478, 17739.99842882138, -0.018000000000000002, 0.978, 0.168, 192.0, 0.0, 0.0, 0.0, 0.0, 0.0, 0.0, 0.0, 0.0, 0.0, 1.700951130769326E9, 0.0, 2023-11-25 17:25:30.769
233.0, 53310.74336895268, 66843.18236627369, 9210.863317354122, -6566.026099446547, 23677.82875035152, -29993.448256665262, 19956.687981687544, 17716.618504121125, -0.018000000000000002, 0.978, 0.168, 192.0, 0.0, 0.0, 0.0, 0.0, 0.0, 0.0, 0.0, 0.0, 0.0, 1.70095113077238E9, 0.0, 2023-11-25 17:25:30.772
234.0, 53295.655941445344, 66808.51481062351, 9205.63300915158, -6584.533343855542, 23756.08220768955, -29744.181602499677, 19967.394467281636, 17799.029385927843, -0.018000000000000002, 0.978, 0.168, 192.0, 0.0, 0.0, 0.0, 0.0, 0.0, 0.0, 0.0, 0.0, 0.0, 1.700951130778768E9, 0.0, 2023-11-25 17:25:30.778
235.0, 53245.38686816536, 66768.95222293762, 9178.475639638382, -6621.793701862539, 23685.718916144244, -29846.887868271813, 19940.79589137982, 17755.018801095342, -0.018000000000000002, 0.978, 0.168, 192.0, 0.0, 0.0, 0.0, 0.0, 0.0, 0.0, 0.0, 0.0, 0.0, 1.700951130781385E9, 0.0, 2023-11-25 17:25:30.781
236.0, 53256.182760737276, 66790.34284238135, 9185.024700763786, -6601.945352786226, 23666.71993335723, -29965.64268656286, 19951.882356629652, 17739.08200729871, -0.014, 0.978, 0.166, 192.0, 255.0, 144.0, 30.0, 144.0, 5.0, 48.0, 0.0, 0.0, 0.0, 1.70095113078556E9, 0.0, 2023-11-25 17:25:30.785
237.0, 53293.10784257744, 66828.56432539992, 9197.049939280741, -6579.034814719536, 23663.00954377765, -29992.576538631507, 19956.732685176456, 17717.378463432608, -0.014, 0.978, 0.166, 192.0, 0.0, 0.0, 0.0, 0.0, 0.0, 0.0, 0.0, 0.0, 0.0, 1.700951130789443E9, 0.0, 2023-11-25 17:25:30.789
238.0, 53288.078700075, 66807.77720305648, 9199.8215555932, -6583.505163610597, 23739.921896448363, -29801.1338473718, 19972.535368506356, 17786.71357473297, -0.014, 0.978, 0.166, 192.0, 0.0, 0.0, 0.0, 0.0, 0.0, 0.0, 0.0, 0.0, 0.0, 1.700951130793532E9, 0.0, 2023-11-25 17:25:30.793
239.0, 53244.001060009134, 66769.44396131563, 9177.67097683799, -6617.7703878605835, 23704.98611986472, -29782.581899473895, 19957.60440321021, 17780.924472919043, -0.014, 0.978, 0.166, 192.0, 0.0, 0.0, 0.0, 0.0, 0.0, 0.0, 0.0, 0.0, 0.0, 1.700951130797441E9, 0.0, 2023-11-25 17:25:30.797
240.0, 53246.795028066044, 66782.43032484417, 9180.040261750253, -6606.728626099662, 23662.96484028874, -29975.388047145374, 19960.13015033366, 17743.641763167594, -0.014, 0.978, 0.166, 192.0, 0.0, 0.0, 0.0, 0.0, 0.0, 0.0, 0.0, 0.0, 0.0, 1.700951130800824E9, 0.0, 2023-11-25 17:25:30.800
241.0, 53285.01651108462, 66820.96473228511, 9191.730224100378, -6583.236942677134, 23659.857947809454, -29970.045980220555, 19965.67338295858, 17735.572783419226, -0.014, 0.978, 0.166, 192.0, 0.0, 0.0, 0.0, 0.0, 0.0, 0.0, 0.0, 0.0, 0.0, 1.700951130804502E9, 0.0, 2023-11-25 17:25:30.804
242.0, 53297.35467402395, 66823.71399685311, 9207.421148708005, -6574.519762339564, 23728.075471887052, -29854.152185219787, 19984.58295876777, 17780.164513607564, -0.014, 0.978, 0.166, 192.0, 0.0, 0.0, 0.0, 0.0, 0.0, 0.0, 0.0, 0.0, 0.0, 1.700951130809517E9, 0.0, 2023-11-25 17:25:30.809
243.0, 53250.39365892335, 66769.55572003791, 9179.660282094514, -6617.055132038014, 23717.994835137706, -29722.388651655754, 19961.985345123452, 17797.934150449535, -0.014, 0.978, 0.166, 192.0, 0.0, 0.0, 0.0, 0.0, 0.0, 0.0, 0.0, 0.0, 0.0, 1.700951130813489E9, 0.0, 2023-11-25 17:25:30.813
244.0, 53248.761981578115, 66784.8666649898, 9186.455212408926, -6605.655742365807, 23663.076599011016, -29975.186881445276, 19962.164159079097, 17745.631068424114, -0.014, 0.978, 0.166, 192.0, 0.0, 0.0, 0.0, 0.0, 0.0, 0.0, 0.0, 0.0, 0.0, 1.700951130818404E9, 0.0, 2023-11-25 17:25:30.818
245.0, 53284.30125526205, 66823.91516255321, 9196.714663113913, -6582.745204299117, 23665.02120077863, -29950.845831733448, 19964.33227829126, 17744.155853290064, -0.014, 0.978, 0.166, 192.0, 0.0, 0.0, 0.0, 0.0, 0.0, 0.0, 0.0, 0.0, 0.0, 1.70095113082153E9, 0.0, 2023-11-25 17:25:30.821
246.0, 53312.01741838663, 66840.63426740578, 9216.026570323298, -6567.188390158223, 23716.609026981478, -29909.003366113113, 19978.749153464934, 17760.539681975806, -0.012, 0.976, 0.168, 192.0, 255.0, 160.0, 30.0, 128.0, 5.0, 64.0, 0.0, 0.0, 0.0, 1.700951130825594E9, 0.0, 2023-11-25 17:25:30.825
247.0, 53268.78914461007, 66786.25247314603, 9191.462003166915, -6606.818033077483, 23744.705169761797, -29689.64334602873, 19958.72199043298, 17806.092537175722, -0.012, 0.976, 0.168, 192.0, 0.0, 0.0, 0.0, 0.0, 0.0, 0.0, 0.0, 0.0, 0.0, 1.700951130828629E9, 0.0, 2023-11-25 17:25:30.828
248.0, 53253.83582756947, 66788.04061270245, 9188.19864847644, -6609.321428456477, 23671.860834581952, -29967.9225644973, 19947.255545527405, 17729.090777527188, -0.012, 0.976, 0.168, 192.0, 0.0, 0.0, 0.0, 0.0, 0.0, 0.0, 0.0, 0.0, 0.0, 1.700951130832665E9, 0.0, 2023-11-25 17:25:30.832
249.0, 53279.74149939317, 66813.5216013815, 9189.115069999109, -6591.64119859233, 23670.7879508481, -29944.900267708337, 19947.926097861066, 17729.18018450501, -0.012, 0.976, 0.168, 192.0, 0.0, 0.0, 0.0, 0.0, 0.0, 0.0, 0.0, 0.0, 0.0, 1.700951130837736E9, 0.0, 2023-11-25 17:25:30.837
250.0, 53314.09613062098, 66840.67897089469, 9207.957590574932, -6566.987224458126, 23704.226160553237, -29955.874974235892, 19961.985345123452, 17728.800204849267, -0.012, 0.976, 0.168, 192.0, 0.0, 0.0, 0.0, 0.0, 0.0, 0.0, 0.0, 0.0, 0.0, 1.700951130841607E9, 0.0, 2023-11-25 17:25:30.841
251.0, 53276.05346155804, 66790.38754587025, 9189.316235699205, -6599.665474851785, 23759.36791412448, -29686.134122149244, 19955.52569097587, 17802.695072018512, -0.012, 0.976, 0.168, 192.0, 0.0, 0.0, 0.0, 0.0, 0.0, 0.0, 0.0, 0.0, 0.0, 1.700951130845626E9, 0.0, 2023-11-25 17:25:30.845
252.0, 53250.77363857909, 66781.67036553269, 9179.839096050155, -6612.025989535569, 23676.040610795095, -29941.01106417311, 19940.550022190815, 17724.97805654741, -0.012, 0.976, 0.168, 192.0, 0.0, 0.0, 0.0, 0.0, 0.0, 0.0, 0.0, 0.0, 0.0, 1.700951130849712E9, 0.0, 2023-11-25 17:25:30.849
253.0, 53275.51701969111, 66807.28546467847, 9186.030529264275, -6591.395329403321, 23676.934680573308, -29942.64274151835, 19943.768673392377, 17727.0344170373, -0.012, 0.976, 0.168, 192.0, 0.0, 0.0, 0.0, 0.0, 0.0, 0.0, 0.0, 0.0, 0.0, 1.700951130852708E9, 0.0, 2023-11-25 17:25:30.852
254.0, 53320.086398135, 66847.85388086484, 9213.120843544108, -6556.459552819676, 23700.985157607218, -29978.070256480012, 19965.271051558382, 17723.83811758019, -0.012, 0.976, 0.168, 192.0, 0.0, 0.0, 0.0, 0.0, 0.0, 0.0, 0.0, 0.0, 0.0, 1.700951130856962E9, 0.0, 2023-11-25 17:25:30.856
255.0, 53288.14575530837, 66797.42834537367, 9200.156831760029, -6583.013425232581, 23771.661373574898, -29696.55003506542, 19967.886205659655, 17808.685339532538, -0.012, 0.976, 0.168, 192.0, 0.0, 0.0, 0.0, 0.0, 0.0, 0.0, 0.0, 0.0, 0.0, 1.700951130861401E9, 0.0, 2023-11-25 17:25:30.861
0.0, 53239.93304251826, 66765.73357173605, 9175.748726814834, -6616.094007026435, 23684.556625432568, -29884.25998500109, 19936.996094822418, 17737.56208867575, -0.014, 0.976, 0.162, 192.0, 255.0, 144.0, 30.0, 128.0, 5.0, 16.0, 0.0, 0.0, 0.0, 1.700951130864787E9, 0.0, 2023-11-25 17:25:30.864
1.0, 53257.009775282124, 66789.73934528105, 9181.336662928661, -6597.072672494969, 23671.570261904035, -29948.49889856564, 19939.74535939042, 17728.867260082636, -0.014, 0.976, 0.162, 192.0, 0.0, 0.0, 0.0, 0.0, 0.0, 0.0, 0.0, 0.0, 0.0, 1.700951130870373E9, 0.0, 2023-11-25 17:25:30.870
2.0, 53299.992179869674, 66831.51475566802, 9199.709796870924, -6572.06107044948, 23669.715067114244, -29985.93807052828, 19950.585955451246, 17714.78566107579, -0.014, 0.976, 0.162, 192.0, 0.0, 0.0, 0.0, 0.0, 0.0, 0.0, 0.0, 0.0, 0.0, 1.700951130873721E9, 0.0, 2023-11-25 17:25:30.873
3.0, 53298.76283392464, 66809.92297052419, 9208.15875627503, -6579.101869952902, 23754.22701289976, -29743.488698421563, 19971.931871406065, 17808.215952898976, -0.014, 0.976, 0.162, 192.0, 0.0, 0.0, 0.0, 0.0, 0.0, 0.0, 0.0, 0.0, 0.0, 1.700951130877726E9, 0.0, 2023-11-25 17:25:30.877
4.0, 53257.30034796004, 66779.47989457607, 9191.014968277808, -6608.807338334005, 23695.93366336032, -29819.439926080697, 19951.48002522946, 17777.951690906488, -0.014, 0.976, 0.162, 192.0, 0.0, 0.0, 0.0, 0.0, 0.0, 0.0, 0.0, 0.0, 0.0, 1.700951130880727E9, 0.0, 2023-11-25 17:25:30.880
5.0, 53268.319757976504, 66795.34963313934, 9199.218058492906, -6591.194163703223, 23674.475988683225, -29951.87401197839, 19955.36922876468, 17756.628126696127, -0.014, 0.976, 0.162, 192.0, 0.0, 0.0, 0.0, 0.0, 0.0, 0.0, 0.0, 0.0, 0.0, 1.700951130884728E9, 0.0, 2023-11-25 17:25:30.884
6.0, 53308.26232531814, 66832.11825276831, 9217.099454057152, -6563.746221512106, 23676.800570106578, -29974.65043957835, 19963.907595146607, 17740.154891032566, -0.014, 0.976, 0.162, 192.0, 0.0, 0.0, 0.0, 0.0, 0.0, 0.0, 0.0, 0.0, 0.0, 1.700951130888726E9, 0.0, 2023-11-25 17:25:30.888
7.0, 53314.58786899899, 66820.74121484056, 9233.483282742893, -6556.772477242051, 23760.753722280708, -29793.9812891461, 19987.779258224877, 17813.982702968446, -0.014, 0.976, 0.162, 192.0, 0.0, 0.0, 0.0, 0.0, 0.0, 0.0, 0.0, 0.0, 0.0, 1.700951130892758E9, 0.0, 2023-11-25 17:25:30.892
8.0, 53257.74738284915, 66768.70635374861, 9202.995503305854, -6600.3360271854435, 23723.78393695163, -29753.055245048436, 19961.00186836742, 17804.058528430287, -0.014, 0.976, 0.162, 192.0, 0.0, 0.0, 0.0, 0.0, 0.0, 0.0, 0.0, 0.0, 0.0, 1.700951130897747E9, 0.0, 2023-11-25 17:25:30.897
9.0, 53250.1701414788, 66780.262205632, 9201.788509105267, -6594.569277115975, 23671.033820037108, -29968.146081941853, 19956.911499132097, 17750.548452204283, -0.014, 0.976, 0.162, 192.0, 0.0, 0.0, 0.0, 0.0, 0.0, 0.0, 0.0, 0.0, 0.0, 1.70095113090182E9, 0.0, 2023-11-25 17:25:30.901
10.0, 53291.4314617433, 66822.6187613748, 9214.126672044596, -6568.887122736826, 23669.715067114244, -29964.50274759564, 19962.410028268103, 17740.04313231029, -0.012, 0.976, 0.166, 192.0, 255.0, 160.0, 30.0, 128.0, 5.0, 48.0, 0.0, 0.0, 0.0, 1.700951130905811E9, 0.0, 2023-11-25 17:25:30.905
11.0, 53304.7307496942, 66821.27765670749, 9226.867166384121, -6561.175770899746, 23734.155146378893, -29860.61183936737, 19980.47023778799, 17780.678603730037, -0.012, 0.976, 0.166, 192.0, 0.0, 0.0, 0.0, 0.0, 0.0, 0.0, 0.0, 0.0, 0.0, 1.700951130908813E9, 0.0, 2023-11-25 17:25:30.908
12.0, 53252.78529558007, 66765.80062696942, 9195.530020657781, -6604.538155143042, 23729.908314932385, -29706.69772704813, 19959.52665323337, 17807.768918009868, -0.012, 0.976, 0.166, 192.0, 0.0, 0.0, 0.0, 0.0, 0.0, 0.0, 0.0, 0.0, 0.0, 1.700951130912952E9, 0.0, 2023-11-25 17:25:30.912
13.0, 53239.038972740054, 66770.27097586048, 9188.668035110002, -6604.940486543237, 23659.74618908718, -29969.55424184254, 19951.70354267401, 17741.540699188794, -0.012, 0.976, 0.166, 192.0, 0.0, 0.0, 0.0, 0.0, 0.0, 0.0, 0.0, 0.0, 0.0, 1.700951130916828E9, 0.0, 2023-11-25 17:25:30.916
14.0, 53272.655996400834, 66805.85495303333, 9195.48531716887, -6582.454631621198, 23661.131997243407, -29945.88374446437, 19956.41976075408, 17738.925545087524, -0.012, 0.976, 0.166, 192.0, 0.0, 0.0, 0.0, 0.0, 0.0, 0.0, 0.0, 0.0, 0.0, 1.700951130920858E9, 0.0, 2023-11-25 17:25:30.920
15.0, 53297.66759844632, 66823.31166545291, 9211.8244423657, -6566.830762246938, 23708.338881533015, -29915.86535166089, 19972.42360978408, 17759.869129642146, -0.012, 0.976, 0.166, 192.0, 0.0, 0.0, 0.0, 0.0, 0.0, 0.0, 0.0, 0.0, 0.0, 1.70095113092484E9, 0.0, 2023-11-25 17:25:30.924
16.0, 53255.71337410371, 66774.09312416233, 9186.701081597934, -6605.991018532636, 23742.112367404985, -29681.73082849155, 19958.6102317107, 17815.01088321339, -0.012, 0.976, 0.166, 192.0, 0.0, 0.0, 0.0, 0.0, 0.0, 0.0, 0.0, 0.0, 0.0, 1.700951130929853E9, 0.0, 2023-11-25 17:25:30.929
17.0, 53236.40146689433, 66775.25541487402, 9176.978072759875, -6611.578954646463, 23661.5343286436, -29957.864279492413, 19945.981496093453, 17738.65732415406, -0.012, 0.976, 0.166, 192.0, 0.0, 0.0, 0.0, 0.0, 0.0, 0.0, 0.0, 0.0, 0.0, 1.700951130933871E9, 0.0, 2023-11-25 17:25:30.933
18.0, 53267.69390913176, 66808.93949376816, 9183.370671674094, -6588.489602624131, 23666.31760195704, -29940.295808350544, 19949.021333339373, 17743.619411423137, -0.012, 0.976, 0.166, 192.0, 0.0, 0.0, 0.0, 0.0, 0.0, 0.0, 0.0, 0.0, 0.0, 1.700951130936874E9, 0.0, 2023-11-25 17:25:30.936
19.0, 53306.094206105976, 66840.74602612806, 9209.701026642446, -6558.270044120556, 23699.68875642881, -29952.768081756603, 19969.897862660633, 17750.816673137746, -0.012, 0.976, 0.166, 192.0, 0.0, 0.0, 0.0, 0.0, 0.0, 0.0, 0.0, 0.0, 0.0, 1.700951130940971E9, 0.0, 2023-11-25 17:25:30.940
20.0, 53272.14190627837, 66788.62175805829, 9197.385215447572, -6585.717986311673, 23760.88783274744, -29672.991296409524, 19968.95908939351, 17832.04291248833, -0.008, 0.976, 0.162, 192.0, 255.0, 192.0, 30.0, 128.0, 5.0, 16.0, 0.0, 0.0, 0.0, 1.700951130946834E9, 0.0, 2023-11-25 17:25:30.946
21.0, 53242.1682169638, 66778.63052828677, 9191.126727000086, -6596.804451561506, 23680.466256197247, -29913.138438837344, 19954.94454562003, 17758.52802497483, -0.008, 0.976, 0.162, 192.0, 0.0, 0.0, 0.0, 0.0, 0.0, 0.0, 0.0, 0.0, 0.0, 1.700951130949031E9, 0.0, 2023-11-25 17:25:30.949
22.0, 53269.370289965904, 66807.48663037857, 9198.7710236038, -6573.8045065169945, 23679.05809629656, -29927.421203544287, 19960.308964289306, 17759.779722664323, -0.008, 0.976, 0.162, 192.0, 0.0, 0.0, 0.0, 0.0, 0.0, 0.0, 0.0, 0.0, 0.0, 1.700951130952965E9, 0.0, 2023-11-25 17:25:30.952
23.0, 53310.40809278585, 66840.16488077222, 9215.423073223004, -6553.82204697395, 23684.377811476927, -29974.046942478057, 19969.58493823826, 17739.707856143457, -0.008, 0.976, 0.162, 192.0, 0.0, 0.0, 0.0, 0.0, 0.0, 0.0, 0.0, 0.0, 0.0, 1.700951130956988E9, 0.0, 2023-11-25 17:25:30.956
24.0, 53291.65497918785, 66798.21065642961, 9210.48333769838, -6575.190314673223, 23759.770245524676, -29700.148665922723, 19981.252548843928, 17832.28878167734, -0.008, 0.976, 0.162, 192.0, 0.0, 0.0, 0.0, 0.0, 0.0, 0.0, 0.0, 0.0, 0.0, 1.700951130961947E9, 0.0, 2023-11-25 17:25:30.961
25.0, 53247.35382167743, 66770.44978981612, 9190.72439559989, -6604.359341187399, 23683.55079693208, -29861.05887425648, 19960.28661254485, 17781.393859552605, -0.008, 0.976, 0.162, 192.0, 0.0, 0.0, 0.0, 0.0, 0.0, 0.0, 0.0, 0.0, 0.0, 1.700951130964958E9, 0.0, 2023-11-25 17:25:30.964
26.0, 53263.29061547406, 66794.52261859449, 9199.039244537264, -6583.393404888321, 23675.34770671698, -29936.987750171156, 19967.461522515005, 17775.917682161056, -0.008, 0.976, 0.162, 192.0, 0.0, 0.0, 0.0, 0.0, 0.0, 0.0, 0.0, 0.0, 0.0, 1.700951130969024E9, 0.0, 2023-11-25 17:25:30.969
27.0, 53305.244839816674, 66832.78880510197, 9216.764177890323, -6558.694727265207, 23674.475988683225, -29972.21409943272, 19976.916310419598, 17758.684487186016, -0.008, 0.976, 0.162, 192.0, 0.0, 0.0, 0.0, 0.0, 0.0, 0.0, 0.0, 0.0, 0.0, 1.700951130976567E9, 0.0, 2023-11-25 17:25:30.976
28.0, 53296.19238331228, 66801.56341809791, 9214.752520889346, -6574.028023961548, 23750.158995408892, -29745.343893211353, 19985.879359946175, 17831.707636321502, -0.008, 0.976, 0.162, 192.0, 0.0, 0.0, 0.0, 0.0, 0.0, 0.0, 0.0, 0.0, 0.0, 1.700951130977044E9, 0.0, 2023-11-25 17:25:30.977
29.0, 53249.54429263405, 66760.81618795589, 9187.997482776342, -6613.009466291603, 23693.229102281228, -29802.56435901694, 19955.838615398243, 17792.837952713722, -0.008, 0.976, 0.162, 192.0, 0.0, 0.0, 0.0, 0.0, 0.0, 0.0, 0.0, 0.0, 0.0, 1.700951130981042E9, 0.0, 2023-11-25 17:25:30.981
30.0, 53254.79695258105, 66779.27872887597, 9193.071328767697, -6596.357416672399, 23666.5858228905, -29951.426977089286, 19959.23608055545, 17766.060562856266, -0.002, 0.978, 0.154, 192.0, 255.0, 240.0, 30.0, 144.0, 4.0, 208.0, 0.0, 0.0, 0.0, 1.70095113098504E9, 0.0, 2023-11-25 17:25:30.985
31.0, 53288.749252408656, 66815.95794152713, 9202.168488761006, -6577.134916440835, 23661.7354943437, -29966.246183663156, 19964.220519568982, 17748.492091714394, -0.002, 0.978, 0.154, 192.0, 0.0, 0.0, 0.0, 0.0, 0.0, 0.0, 0.0, 0.0, 0.0, 1.700951130990088E9, 0.0, 2023-11-25 17:25:30.990
32.0, 53299.589848469484, 66807.44192688966, 9216.026570323298, -6574.117430939368, 23737.865535958474, -29813.56141728895, 19984.985290167962, 17805.19846739751, -0.002, 0.978, 0.154, 192.0, 0.0, 0.0, 0.0, 0.0, 0.0, 0.0, 0.0, 0.0, 0.0, 1.700951130993053E9, 0.0, 2023-11-25 17:25:30.993
33.0, 53249.521940889594, 66758.64806874371, 9190.612636877613, -6617.390408204843, 23713.345672291, -29751.155346769734, 19963.23704281295, 17801.555133051294, -0.002, 0.978, 0.154, 192.0, 0.0, 0.0, 0.0, 0.0, 0.0, 0.0, 0.0, 0.0, 0.0, 1.700951130997096E9, 0.0, 2023-11-25 17:25:30.997
34.0, 53240.13420821836, 66761.73260947855, 9186.812840320212, -6616.585745404452, 23659.008581520153, -29973.108169210933, 19956.732685176456, 17745.452254468473, -0.002, 0.978, 0.154, 192.0, 0.0, 0.0, 0.0, 0.0, 0.0, 0.0, 0.0, 0.0, 0.0, 1.700951131001125E9, 0.0, 2023-11-25 17:25:31.001
35.0, 53277.59573192546, 66800.04349947495, 9196.58055264718, -6593.384634659843, 23656.281668696603, -29963.78749177307, 19957.403237510116, 17734.23167875191, -0.002, 0.978, 0.154, 192.0, 0.0, 0.0, 0.0, 0.0, 0.0, 0.0, 0.0, 0.0, 0.0, 1.700951131005073E9, 0.0, 2023-11-25 17:25:31.005
36.0, 53305.08837760548, 66812.24755194754, 9220.854547125644, -6575.257369906589, 23723.493364273712, -29876.81685409747, 19982.72776397798, 17779.985699651923, -0.002, 0.978, 0.154, 192.0, 0.0, 0.0, 0.0, 0.0, 0.0, 0.0, 0.0, 0.0, 0.0, 1.700951131009102E9, 0.0, 2023-11-25 17:25:31.009
37.0, 53260.16137125032, 66757.01639139849, 9198.614561392613, -6612.473024424676, 23734.51277429018, -29695.007764698003, 19970.702525461023, 17822.744586794925, -0.002, 0.978, 0.154, 192.0, 0.0, 0.0, 0.0, 0.0, 0.0, 0.0, 0.0, 0.0, 0.0, 1.700951131014109E9, 0.0, 2023-11-25 17:25:31.014
38.0, 53253.50055140264, 66764.54892927992, 9203.531945172781, -6602.794719075528, 23671.68202062631, -29959.987695215666, 19970.23313882746, 17760.070295342244, -0.002, 0.978, 0.154, 192.0, 0.0, 0.0, 0.0, 0.0, 0.0, 0.0, 0.0, 0.0, 0.0, 1.700951131017643E9, 0.0, 2023-11-25 17:25:31.017
39.0, 53283.27307501711, 66792.08627844886, 9213.411416222027, -6580.7335472981395, 23669.849177580974, -29934.663168747804, 19973.608252240214, 17761.36669652065, -0.002, 0.978, 0.154, 192.0, 0.0, 0.0, 0.0, 0.0, 0.0, 0.0, 0.0, 0.0, 0.0, 1.70095113102012E9, 0.0, 2023-11-25 17:25:31.020
40.0, 53307.81529042903, 66808.33599666787, 9235.293774043772, -6563.030965689536, 23709.992910622706, -29916.29003480554, 19991.400240826635, 17778.08580137322, -0.008, 0.984, 0.156, 192.0, 255.0, 192.0, 30.0, 192.0, 4.0, 224.0, 0.0, 0.0, 0.0, 1.700951131025109E9, 0.0, 2023-11-25 17:25:31.025
41.0, 53268.87855158789, 66755.36236230879, 9215.691294156468, -6600.403082418809, 23746.51566106268, -29670.68906673063, 19980.358479065715, 17835.976819512467, -0.008, 0.984, 0.156, 192.0, 0.0, 0.0, 0.0, 0.0, 0.0, 0.0, 0.0, 0.0, 0.0, 1.700951131029098E9, 0.0, 2023-11-25 17:25:31.029
42.0, 53246.660917599314, 66750.33321980634, 9207.331741730182, -6612.003637791114, 23661.19905247677, -29941.502802551127, 19962.834711412754, 17755.711705173457, -0.008, 0.984, 0.156, 192.0, 0.0, 0.0, 0.0, 0.0, 0.0, 0.0, 0.0, 0.0, 0.0, 1.700951131033293E9, 0.0, 2023-11-25 17:25:31.033
43.0, 53272.20896151173, 66778.49641782003, 9213.67963715549, -6591.752957314606, 23658.74036058669, -29926.437726788252, 19969.406124282614, 17763.66892619955, -0.008, 0.984, 0.156, 192.0, 0.0, 0.0, 0.0, 0.0, 0.0, 0.0, 0.0, 0.0, 0.0, 1.700951131037156E9, 0.0, 2023-11-25 17:25:31.037
44.0, 53315.37018005493, 66814.43802290417, 9241.216986324429, -6564.036794190025, 23687.842331867498, -29953.773910257092, 19991.891979204654, 17766.99933612339, -0.008, 0.984, 0.156, 192.0, 0.0, 0.0, 0.0, 0.0, 0.0, 0.0, 0.0, 0.0, 0.0, 1.700951131041169E9, 0.0, 2023-11-25 17:25:31.041
45.0, 53283.63070292839, 66765.44299905813, 9223.134425060085, -6598.480832395653, 23750.203698897803, -29678.1545493787, 19988.04747915834, 17841.922383537578, -0.008, 0.984, 0.156, 192.0, 0.0, 0.0, 0.0, 0.0, 0.0, 0.0, 0.0, 0.0, 0.0, 1.700951131045166E9, 0.0, 2023-11-25 17:25:31.045
46.0, 53248.0690775, 66749.79677793942, 9203.420186450505, -6621.2349082511555, 23662.897785055375, -29908.645738201827, 19964.66755445809, 17763.959498877466, -0.008, 0.984, 0.156, 192.0, 0.0, 0.0, 0.0, 0.0, 0.0, 0.0, 0.0, 0.0, 0.0, 1.700951131048283E9, 0.0, 2023-11-25 17:25:31.048
47.0, 53277.081641802986, 66782.11740042179, 9212.942029588465, -6594.032835249047, 23666.898747312876, -29937.010101915614, 19971.261319072404, 17762.79720816579, -0.008, 0.984, 0.156, 192.0, 0.0, 0.0, 0.0, 0.0, 0.0, 0.0, 0.0, 0.0, 0.0, 1.70095113105322E9, 0.0, 2023-11-25 17:25:31.053
48.0, 53328.15537788336, 66827.75966259952, 9237.372486278116, -6562.069840677958, 23681.44973295328, -29981.043038492568, 19983.040688400353, 17745.005219579365, -0.008, 0.984, 0.156, 192.0, 0.0, 0.0, 0.0, 0.0, 0.0, 0.0, 0.0, 0.0, 0.0, 1.700951131057229E9, 0.0, 2023-11-25 17:25:31.057
49.0, 53302.71909269322, 66787.70533653561, 9225.63782043908, -6585.338006655933, 23755.165786166883, -29712.4644771176, 19984.448848301035, 17828.734854308947, -0.008, 0.984, 0.156, 192.0, 0.0, 0.0, 0.0, 0.0, 0.0, 0.0, 0.0, 0.0, 0.0, 1.700951131061205E9, 0.0, 2023-11-25 17:25:31.061
50.0, 53257.18858923776, 66757.7092954766, 9201.63204689408, -6615.02112329258, 23680.198035263784, -29856.38735966532, 19963.0135253684, 17775.582405994228, -0.01, 0.978, 0.156, 192.0, 255.0, 176.0, 30.0, 144.0, 4.0, 224.0, 0.0, 0.0, 0.0, 1.700951131065196E9, 0.0, 2023-11-25 17:25:31.065
51.0, 53271.82898185599, 66774.47310381808, 9204.24720099535, -6599.173736473767, 23663.00954377765, -29949.124747410387, 19967.57328123728, 17760.651440698082, -0.01, 0.978, 0.156, 192.0, 0.0, 0.0, 0.0, 0.0, 0.0, 0.0, 0.0, 0.0, 0.0, 1.700951131070371E9, 0.0, 2023-11-25 17:25:31.070
52.0, 53317.94063066729, 66814.30391243743, 9220.96630584792, -6572.8657332498715, 23662.495453655178, -29983.41232340483, 19976.558682508312, 17742.50182420037, -0.01, 0.978, 0.156, 192.0, 0.0, 0.0, 0.0, 0.0, 0.0, 0.0, 0.0, 0.0, 0.0, 1.700951131073213E9, 0.0, 2023-11-25 17:25:31.073
53.0, 53306.80946192855, 66784.19611265614, 9218.954648846942, -6584.868620022371, 23739.921896448363, -29762.040646319467, 19987.779258224877, 17816.24022915843, -0.01, 0.978, 0.156, 192.0, 0.0, 0.0, 0.0, 0.0, 0.0, 0.0, 0.0, 0.0, 0.0, 1.700951131076228E9, 0.0, 2023-11-25 17:25:31.076
54.0, 53255.333394447975, 66745.12526334825, 9194.568895646202, -6619.156196016812, 23688.669346412345, -29786.60521347585, 19964.086409102252, 17795.833086470735, -0.01, 0.978, 0.156, 192.0, 0.0, 0.0, 0.0, 0.0, 0.0, 0.0, 0.0, 0.0, 0.0, 1.700951131080305E9, 0.0, 2023-11-25 17:25:31.080
55.0, 53267.93977832077, 66772.99788868403, 9207.957590574932, -6593.608152104396, 23665.66940136783, -29948.342436354455, 19975.217577840995, 17775.649461227593, -0.01, 0.978, 0.156, 192.0, 0.0, 0.0, 0.0, 0.0, 0.0, 0.0, 0.0, 0.0, 0.0, 1.700951131085344E9, 0.0, 2023-11-25 17:25:31.085
56.0, 53305.62481947242, 66812.24755194754, 9216.652419168046, -6574.20683791719, 23658.44978790877, -29954.332703868477, 19977.43040054207, 17761.679620943025, -0.01, 0.978, 0.156, 192.0, 0.0, 0.0, 0.0, 0.0, 0.0, 0.0, 0.0, 0.0, 0.0, 1.700951131089336E9, 0.0, 2023-11-25 17:25:31.089
57.0, 53315.21371784374, 66807.33016816738, 9228.610602451636, -6570.608207059885, 23729.953018421296, -29813.89669345578, 19994.10480190573, 17809.49000233293, -0.01, 0.978, 0.156, 192.0, 0.0, 0.0, 0.0, 0.0, 0.0, 0.0, 0.0, 0.0, 0.0, 1.700951131093676E9, 0.0, 2023-11-25 17:25:31.093
58.0, 53268.11859227641, 66760.6597257447, 9205.007160306832, -6607.153309244312, 23712.6974717018, -29723.93092202317, 19972.33420280626, 17810.451127344506, -0.01, 0.978, 0.156, 192.0, 0.0, 0.0, 0.0, 0.0, 0.0, 0.0, 0.0, 0.0, 0.0, 1.700951131097341E9, 0.0, 2023-11-25 17:25:31.097
59.0, 53263.00004279614, 66770.11451364929, 9206.884706841076, -6599.173736473767, 23658.852119308965, -29957.439596347762, 19969.94256614954, 17754.1917865505, -0.01, 0.978, 0.156, 192.0, 0.0, 0.0, 0.0, 0.0, 0.0, 0.0, 0.0, 0.0, 0.0, 1.700951131101368E9, 0.0, 2023-11-25 17:25:31.101
60.0, 53296.304142034554, 66804.29033092146, 9214.327837744695, -6579.1465734418125, 23655.58876461849, -29945.034378175067, 19973.272976073382, 17749.632030681616, -0.01, 0.984, 0.158, 192.0, 255.0, 176.0, 30.0, 192.0, 4.0, 240.0, 0.0, 0.0, 0.0, 1.700951131104439E9, 0.0, 2023-11-25 17:25:31.104
61.0, 53318.70058997877, 66813.70041533714, 9236.232547310896, -6563.276834878545, 23715.379681036437, -29879.72258087666, 19997.569322296302, 17789.08285964523, -0.01, 0.984, 0.158, 192.0, 0.0, 0.0, 0.0, 0.0, 0.0, 0.0, 0.0, 0.0, 0.0, 1.700951131108393E9, 0.0, 2023-11-25 17:25:31.108
62.0, 53274.60059816845, 66762.04553390092, 9212.96438133292, -6601.945352786226, 23731.115309132972, -29687.385819838742, 19986.035822157362, 17830.38888339864, -0.01, 0.984, 0.158, 192.0, 0.0, 0.0, 0.0, 0.0, 0.0, 0.0, 0.0, 0.0, 0.0, 1.700951131112341E9, 0.0, 2023-11-25 17:25:31.112
63.0, 53263.69294687426, 66773.19905438412, 9212.003256321343, -6598.503184140109, 23661.064942010038, -29957.84192774796, 19986.728726235477, 17764.27242329984, -0.01, 0.984, 0.158, 192.0, 0.0, 0.0, 0.0, 0.0, 0.0, 0.0, 0.0, 0.0, 0.0, 1.700951131117407E9, 0.0, 2023-11-25 17:25:31.117
64.0, 53294.001912355656, 66805.02793848848, 9215.423073223004, -6580.331215897944, 23658.896822797877, -29932.271532091087, 19990.52852279288, 17769.502731502384, -0.01, 0.984, 0.158, 192.0, 0.0, 0.0, 0.0, 0.0, 0.0, 0.0, 0.0, 0.0, 0.0, 1.70095113112138E9, 0.0, 2023-11-25 17:25:31.121
65.0, 53331.86576746294, 66830.03954053397, 9238.847701412165, -6558.717079009662, 23700.6945849293, -29929.902247178823, 20009.080470690784, 17776.878807172634, -0.01, 0.984, 0.158, 192.0, 0.0, 0.0, 0.0, 0.0, 0.0, 0.0, 0.0, 0.0, 0.0, 1.700951131125456E9, 0.0, 2023-11-25 17:25:31.125
66.0, 53283.228371528196, 66766.69469674763, 9210.371578976105, -6601.900649297315, 23740.480690059747, -29668.275078329454, 19996.96582519601, 17844.761055083403, -0.01, 0.984, 0.158, 192.0, 0.0, 0.0, 0.0, 0.0, 0.0, 0.0, 0.0, 0.0, 0.0, 1.700951131128565E9, 0.0, 2023-11-25 17:25:31.128
67.0, 53250.75128683464, 66753.68598147464, 9196.155869502529, -6616.630448893363, 23653.219479706226, -29933.299712336033, 19976.402220297125, 17769.502731502384, -0.01, 0.984, 0.158, 192.0, 0.0, 0.0, 0.0, 0.0, 0.0, 0.0, 0.0, 0.0, 0.0, 1.700951131132405E9, 0.0, 2023-11-25 17:25:31.132
68.0, 53283.295426761564, 66784.21846440059, 9207.465852196914, -6590.277742180556, 23660.17087223183, -29921.87797091937, 19982.70541223352, 17776.320013561253, -0.01, 0.984, 0.158, 192.0, 0.0, 0.0, 0.0, 0.0, 0.0, 0.0, 0.0, 0.0, 0.0, 1.700951131136433E9, 0.0, 2023-11-25 17:25:31.136
69.0, 53328.15537788336, 66822.19407823015, 9237.573651978213, -6555.297262108, 23690.12220980194, -29948.141270654356, 20000.407993842127, 17773.883673415625, -0.01, 0.984, 0.158, 192.0, 0.0, 0.0, 0.0, 0.0, 0.0, 0.0, 0.0, 0.0, 0.0, 1.700951131140467E9, 0.0, 2023-11-25 17:25:31.140
70.0, 53296.862935645935, 66773.69079276214, 9224.475529727404, -6581.068823464969, 23759.03263795765, -29661.346037548312, 19997.94930195204, 17852.405351687117, -0.01, 0.984, 0.158, 192.0, 0.0, 0.0, 30.0, 176.0, 4.0, 240.0, 0.0, 0.0, 0.0, 1.700951131145454E9, 0.0, 2023-11-25 17:25:31.145
71.0, 53258.30617646053, 66752.63544948524, 9204.470718439903, -6603.018236520081, 23672.93371831581, -29876.168653508266, 19974.681135974068, 17781.438563041516, -0.01, 0.984, 0.158, 192.0, 0.0, 0.0, 0.0, 0.0, 0.0, 0.0, 0.0, 0.0, 0.0, 1.7009511311495E9, 0.0, 2023-11-25 17:25:31.149
72.0, 53278.10982204793, 66779.14461840923, 9206.370616718605, -6584.756861300095, 23664.954145545264, -29919.57574124047, 19977.05042088633, 17778.264615328862, -0.01, 0.984, 0.158, 192.0, 0.0, 0.0, 0.0, 0.0, 0.0, 0.0, 0.0, 0.0, 0.0, 1.700951131153482E9, 0.0, 2023-11-25 17:25:31.153
73.0, 53322.92506968082, 66822.19407823015, 9224.944916360964, -6560.0134801880695, 23669.290383969594, -29964.770968529105, 19987.6674995026, 17759.55620521977, -0.01, 0.984, 0.158, 192.0, 0.0, 0.0, 0.0, 0.0, 0.0, 0.0, 0.0, 0.0, 0.0, 1.70095113115648E9, 0.0, 2023-11-25 17:25:31.156
74.0, 53302.4285200153, 66783.90553997822, 9218.954648846942, -6579.750070542106, 23745.196908139817, -29709.581102082862, 19996.76465949591, 17840.849499803724, -0.01, 0.984, 0.158, 192.0, 0.0, 0.0, 0.0, 0.0, 0.0, 0.0, 0.0, 0.0, 0.0, 1.700951131160514E9, 0.0, 2023-11-25 17:25:31.160
75.0, 53254.05934501402, 66748.52272850547, 9195.15004100204, -6613.680018625262, 23671.793779348587, -29833.253304154077, 19970.031973127363, 17788.881693945135, -0.01, 0.984, 0.158, 192.0, 0.0, 0.0, 0.0, 0.0, 0.0, 0.0, 0.0, 0.0, 0.0, 1.700951131164517E9, 0.0, 2023-11-25 17:25:31.164
76.0, 53260.83192358398, 66761.93377517865, 9195.86529682461, -6602.59355337543, 23649.039703493083, -29942.486279307162, 19970.791932438842, 17767.356964034672, -0.01, 0.984, 0.158, 192.0, 0.0, 0.0, 0.0, 0.0, 0.0, 0.0, 0.0, 0.0, 0.0, 1.700951131168602E9, 0.0, 2023-11-25 17:25:31.168
77.0, 53297.7793571686, 66796.40016512873, 9210.885669098578, -6582.655797321296, 23645.329313913502, -29972.996410488657, 19975.6646127301, 17746.815710880248, -0.01, 0.984, 0.158, 192.0, 0.0, 0.0, 0.0, 0.0, 0.0, 0.0, 0.0, 0.0, 0.0, 1.700951131173588E9, 0.0, 2023-11-25 17:25:31.173
78.0, 53296.75117692366, 66777.35647885282, 9220.429863980993, -6586.410890389788, 23727.851954442496, -29769.483777223086, 19988.270996602892, 17818.76597628188, -0.01, 0.984, 0.158, 192.0, 0.0, 0.0, 0.0, 0.0, 0.0, 0.0, 0.0, 0.0, 0.0, 1.700951131177572E9, 0.0, 2023-11-25 17:25:31.177
79.0, 53253.54525489155, 66738.46444350058, 9199.10629977063, -6619.804396606016, 23685.987137077707, -29772.03187609099, 19966.23217656996, 17802.225685384954, -0.01, 0.984, 0.158, 192.0, 0.0, 0.0, 0.0, 0.0, 0.0, 0.0, 0.0, 0.0, 0.0, 1.700951131181606E9, 0.0, 2023-11-25 17:25:31.181
80.0, 53259.49081891666, 66756.81522569839, 9206.080044040686, -6602.481794653153, 23650.29140118258, -29953.840965490457, 19971.753057450424, 17767.200501823485, -0.004, 0.982, 0.156, 192.0, 255.0, 224.0, 30.0, 176.0, 4.0, 224.0, 0.0, 0.0, 0.0, 1.700951131184644E9, 0.0, 2023-11-25 17:25:31.184
81.0, 53303.05436886005, 66804.40208964373, 9221.703913414945, -6572.552808827497, 23652.146595972372, -29950.756424755626, 19982.10191513323, 17759.109170330667, -0.004, 0.982, 0.156, 192.0, 0.0, 0.0, 0.0, 0.0, 0.0, 0.0, 0.0, 0.0, 0.0, 1.700951131190899E9, 0.0, 2023-11-25 17:25:31.190
82.0, 53314.49846202117, 66806.07847047788, 9237.439541511481, -6562.695689522707, 23723.06868112906, -29818.590559791395, 20002.889037476663, 17809.95938896649, -0.004, 0.982, 0.156, 192.0, 0.0, 0.0, 0.0, 0.0, 0.0, 0.0, 0.0, 0.0, 0.0, 1.700951131193743E9, 0.0, 2023-11-25 17:25:31.193
83.0, 53266.48691493117, 66756.4575977871, 9211.86914585461, -6601.073634752469, 23714.26209381367, -29701.69093629014, 19987.086354146762, 17824.398615884616, -0.004, 0.982, 0.156, 192.0, 0.0, 0.0, 0.0, 0.0, 0.0, 0.0, 0.0, 0.0, 0.0, 1.700951131196627E9, 0.0, 2023-11-25 17:25:31.196
84.0, 53255.758077592625, 66761.62085075627, 9208.315218486217, -6597.005617261603, 23652.705389583756, -29946.576648542483, 19984.672365745588, 17768.42984776853, -0.004, 0.982, 0.156, 192.0, 0.0, 0.0, 0.0, 0.0, 0.0, 0.0, 0.0, 0.0, 0.0, 1.700951131200703E9, 0.0, 2023-11-25 17:25:31.200
85.0, 53286.1788017963, 66792.28744414895, 9216.16068079003, -6575.458535606687, 23650.581973860502, -29930.05870939001, 19989.72385999249, 17763.66892619955, -0.004, 0.982, 0.156, 192.0, 0.0, 0.0, 0.0, 0.0, 0.0, 0.0, 0.0, 0.0, 0.0, 1.700951131205264E9, 0.0, 2023-11-25 17:25:31.205
86.0, 53306.720054950725, 66800.6693483197, 9235.651401955058, -6560.795791244005, 23705.58961696501, -29879.9013948323, 20008.63343580168, 17792.837952713722, -0.004, 0.982, 0.156, 192.0, 0.0, 0.0, 0.0, 0.0, 0.0, 0.0, 0.0, 0.0, 0.0, 1.70095113120968E9, 0.0, 2023-11-25 17:25:31.209
87.0, 53258.619100882905, 66748.47802501655, 9210.103358042641, -6602.325332441966, 23726.376739308445, -29673.97477316556, 19992.987214682962, 17832.71346482199, -0.004, 0.982, 0.156, 192.0, 0.0, 0.0, 0.0, 0.0, 0.0, 0.0, 0.0, 0.0, 0.0, 1.700951131212683E9, 0.0, 2023-11-25 17:25:31.212
88.0, 53241.72118207469, 66750.46733027308, 9207.354093474638, -6605.745149343628, 23652.54892737257, -29953.21511664571, 19989.455639059026, 17757.410437752063, -0.004, 0.982, 0.156, 192.0, 0.0, 0.0, 0.0, 0.0, 0.0, 0.0, 0.0, 0.0, 0.0, 1.700951131216735E9, 0.0, 2023-11-25 17:25:31.216
89.0, 53276.366385980415, 66785.514865579, 9214.439596466971, -6583.594570588419, 23655.25348845166, -29925.54365701004, 20004.408956099625, 17769.681545458025, -0.004, 0.982, 0.156, 192.0, 0.0, 0.0, 0.0, 0.0, 0.0, 0.0, 0.0, 0.0, 0.0, 1.700951131220702E9, 0.0, 2023-11-25 17:25:31.220
90.0, 53309.7822439411, 66809.54299086845, 9232.298640286761, -6560.460515077176, 23689.898692357387, -29927.667072733293, 20026.425424388104, 17779.873940929647, -0.006, 0.982, 0.16, 192.0, 255.0, 208.0, 30.0, 176.0, 5.0, 0.0, 0.0, 0.0, 0.0, 1.700951131224685E9, 0.0, 2023-11-25 17:25:31.224
91.0, 53272.11955453391, 66762.78314146795, 9218.30644825774, -6586.656759578796, 23744.280486617146, -29656.048674112404, 20030.38168315669, 17858.507377923415, -0.006, 0.982, 0.16, 192.0, 0.0, 0.0, 0.0, 0.0, 0.0, 0.0, 0.0, 0.0, 0.0, 1.700951131228741E9, 0.0, 2023-11-25 17:25:31.228
92.0, 53242.21292045271, 66755.49647277551, 9208.494032441859, -6595.731567827651, 23661.467273410235, -29909.025717857567, 20021.508040607936, 17789.95457767899, -0.006, 0.982, 0.16, 192.0, 0.0, 0.0, 0.0, 0.0, 0.0, 0.0, 0.0, 0.0, 0.0, 1.700951131232723E9, 0.0, 2023-11-25 17:25:31.232
93.0, 53264.96699630821, 66780.95510971012, 9209.96924757591, -6574.720928039662, 23661.131997243407, -29905.605900955907, 20028.794709300364, 17795.028423670345, -0.006, 0.982, 0.16, 192.0, 0.0, 0.0, 0.0, 0.0, 0.0, 0.0, 0.0, 0.0, 0.0, 1.700951131237772E9, 0.0, 2023-11-25 17:25:31.237
94.0, 53299.32162753602, 66809.05125249043, 9225.704875672445, -6550.715154494662, 23676.845273595485, -29938.015930416102, 20040.887003050688, 17786.42300205505, -0.006, 0.982, 0.16, 192.0, 0.0, 0.0, 0.0, 0.0, 0.0, 0.0, 0.0, 0.0, 0.0, 1.700951131240782E9, 0.0, 2023-11-25 17:25:31.240
95.0, 53271.73957487817, 66764.43717055765, 9212.115015043619, -6574.966797228671, 23753.735274521743, -29657.121557846258, 20038.00362801595, 17867.850407105732, -0.006, 0.982, 0.16, 192.0, 0.0, 0.0, 0.0, 0.0, 0.0, 0.0, 0.0, 0.0, 0.0, 1.700951131244776E9, 0.0, 2023-11-25 17:25:31.244
96.0, 53245.29746118754, 66753.88714717474, 9201.117956771608, -6586.813221789983, 23684.288404499104, -29846.932571760724, 20019.183459184584, 17807.65715928759, -0.006, 0.982, 0.16, 192.0, 0.0, 0.0, 0.0, 0.0, 0.0, 0.0, 0.0, 0.0, 0.0, 1.70095113124881E9, 0.0, 2023-11-25 17:25:31.248
97.0, 53269.526752177095, 66782.07269693288, 9204.403663206538, -6564.684994779229, 23678.141674773895, -29895.659374673294, 20019.96577024052, 17802.113926662674, -0.006, 0.982, 0.16, 192.0, 0.0, 0.0, 0.0, 0.0, 0.0, 0.0, 0.0, 0.0, 0.0, 1.700951131252805E9, 0.0, 2023-11-25 17:25:31.252
98.0, 53320.39932255737, 66832.63234289078, 9225.995448350364, -6531.939689152204, 23690.636299924412, -29939.222924616686, 20032.25922969094, 17784.545455520805, -0.006, 0.982, 0.16, 192.0, 0.0, 0.0, 0.0, 0.0, 0.0, 0.0, 0.0, 0.0, 0.0, 1.700951131256829E9, 0.0, 2023-11-25 17:25:31.256
99.0, 53298.40520601335, 66792.37685112677, 9213.791395877766, -6554.783171985528, 23765.5593473386, -29691.83381698535, 20033.801500058355, 17857.076866278276, -0.006, 0.982, 0.16, 192.0, 0.0, 0.0, 0.0, 0.0, 0.0, 0.0, 0.0, 0.0, 0.0, 1.700951131260818E9, 0.0, 2023-11-25 17:25:31.260
100.0, 53255.06517351451, 66751.42845528465, 9183.929465285477, -6593.228172448657, 23695.821904638044, -29795.83648393589, 20003.380775854683, 17806.204295898, -0.006, 0.978, 0.158, 192.0, 255.0, 208.0, 30.0, 144.0, 4.0, 240.0, 0.0, 0.0, 0.0, 1.700951131265805E9, 0.0, 2023-11-25 17:25:31.265
101.0, 53266.71043237572, 66765.2641851025, 9180.129668728074, -6582.611093832385, 23669.983288047708, -29921.54269475254, 20000.653863031133, 17776.476475772437, -0.006, 0.978, 0.158, 192.0, 0.0, 0.0, 0.0, 0.0, 0.0, 0.0, 0.0, 0.0, 0.0, 1.700951131268874E9, 0.0, 2023-11-25 17:25:31.268
102.0, 53317.761816711645, 66807.50898212302, 9192.959570045421, -6557.331270853433, 23668.686886869298, -29950.197631144245, 20009.147525924152, 17756.42696099603, -0.006, 0.978, 0.158, 192.0, 0.0, 0.0, 0.0, 0.0, 0.0, 0.0, 0.0, 0.0, 0.0, 1.700951131272961E9, 0.0, 2023-11-25 17:25:31.272
103.0, 53327.64128776089, 66796.0648889619, 9201.497936427348, -6558.091230164913, 23752.103597176505, -29760.31956199641, 20026.96186625503, 17821.00115072741, -0.006, 0.978, 0.158, 192.0, 0.0, 0.0, 0.0, 0.0, 0.0, 0.0, 0.0, 0.0, 0.0, 1.700951131276838E9, 0.0, 2023-11-25 17:25:31.276
104.0, 53282.28959826107, 66753.84244368583, 9174.877008781077, -6596.268009694578, 23718.397166537903, -29741.65585537623, 19997.837543229765, 17805.42198484206, -0.006, 0.978, 0.158, 192.0, 0.0, 0.0, 0.0, 0.0, 0.0, 0.0, 0.0, 0.0, 0.0, 1.70095113128085E9, 0.0, 2023-11-25 17:25:31.280
105.0, 53288.10105181945, 66768.4604845596, 9176.843962293144, -6586.20972468969, 23679.549834674577, -29944.721453752692, 19992.651938516134, 17755.510539473362, -0.006, 0.978, 0.158, 192.0, 0.0, 0.0, 0.0, 0.0, 0.0, 0.0, 0.0, 0.0, 0.0, 1.700951131284858E9, 0.0, 2023-11-25 17:25:31.284
106.0, 53336.60433728747, 66811.19701995814, 9190.612636877613, -6563.232131389634, 23680.51095968616, -29945.392006086353, 19996.563493795813, 17742.36771373364, -0.006, 0.978, 0.158, 192.0, 0.0, 0.0, 0.0, 0.0, 0.0, 0.0, 0.0, 0.0, 0.0, 1.700951131288919E9, 0.0, 2023-11-25 17:25:31.288
107.0, 53358.62080557595, 66814.46037464862, 9207.309389985729, -6556.705422008685, 23750.382512853448, -29833.47682159863, 20013.640226559666, 17787.607644511183, -0.006, 0.978, 0.158, 192.0, 0.0, 0.0, 0.0, 0.0, 0.0, 0.0, 0.0, 0.0, 0.0, 1.700951131292894E9, 0.0, 2023-11-25 17:25:31.292
108.0, 53312.59856374247, 66760.12328387777, 9178.162715216007, -6601.073634752469, 23745.21925988427, -29702.205026412612, 19987.935720436064, 17805.37728135315, -0.006, 0.978, 0.158, 192.0, 0.0, 0.0, 0.0, 0.0, 0.0, 0.0, 0.0, 0.0, 0.0, 1.700951131296254E9, 0.0, 2023-11-25 17:25:31.296
109.0, 53303.859031660446, 66767.36524908128, 9175.681671581468, -6597.1620794727905, 23681.852064353476, -29957.417244603308, 19983.487723289458, 17748.000353336378, -0.006, 0.978, 0.158, 192.0, 0.0, 0.0, 0.0, 0.0, 0.0, 0.0, 0.0, 0.0, 0.0, 1.700951131299914E9, 0.0, 2023-11-25 17:25:31.299
110.0, 53342.34873561248, 66805.56438035541, 9185.7176048419, -6572.977491972148, 23682.992003320694, -29936.183087370766, 19988.42745881408, 17747.59802193618, -0.008, 0.976, 0.16, 192.0, 255.0, 192.0, 30.0, 128.0, 5.0, 0.0, 0.0, 0.0, 0.0, 1.700951131304996E9, 0.0, 2023-11-25 17:25:31.304
111.0, 53373.685881338824, 66817.90254329474, 9205.320084729205, -6554.269081863056, 23735.071567901563, -29895.055877573002, 20004.76658401091, 17772.22964432593, -0.008, 0.976, 0.16, 192.0, 0.0, 0.0, 0.0, 0.0, 0.0, 0.0, 0.0, 0.0, 0.0, 1.700951131309306E9, 0.0, 2023-11-25 17:25:31.309
112.0, 53333.81036923056, 66768.0581531594, 9186.142287986551, -6587.439070634731, 23773.04718173113, -29667.895098673715, 19993.747173994445, 17832.73581656645, -0.008, 0.976, 0.16, 192.0, 0.0, 0.0, 0.0, 0.0, 0.0, 0.0, 0.0, 0.0, 0.0, 1.700951131312936E9, 0.0, 2023-11-25 17:25:31.312
113.0, 53312.06212187554, 66768.0581531594, 9178.542694871747, -6593.697559082218, 23692.938529603307, -29935.937218181756, 19980.22436859898, 17758.88565288611, -0.008, 0.976, 0.16, 192.0, 0.0, 0.0, 0.0, 0.0, 0.0, 0.0, 0.0, 0.0, 0.0, 1.700951131316946E9, 0.0, 2023-11-25 17:25:31.316
114.0, 53343.51102632416, 66799.66351981921, 9185.918770541999, -6572.932788483237, 23692.73736390321, -29913.943101637735, 19988.025127413886, 17769.7933041803, -0.008, 0.976, 0.16, 192.0, 0.0, 0.0, 0.0, 0.0, 0.0, 0.0, 0.0, 0.0, 0.0, 1.700951131321143E9, 0.0, 2023-11-25 17:25:31.321
115.0, 53379.0503000081, 66824.8762875648, 9206.7729481188, -6553.464419062665, 23720.945265405808, -29926.34831981043, 20003.24666538795, 17773.034307126323, -0.008, 0.976, 0.16, 192.0, 0.0, 0.0, 0.0, 0.0, 0.0, 0.0, 0.0, 0.0, 0.0, 1.700951131323995E9, 0.0, 2023-11-25 17:25:31.323
116.0, 53334.01153493065, 66765.19712986912, 9184.398851919039, -6592.803489304005, 23768.80035028462, -29656.09337760131, 19992.62958677168, 17838.10023523572, -0.008, 0.976, 0.16, 192.0, 0.0, 0.0, 0.0, 0.0, 0.0, 0.0, 0.0, 0.0, 0.0, 1.700951131328021E9, 0.0, 2023-11-25 17:25:31.328
117.0, 53303.859031660446, 66755.92115592016, 9173.558255858214, -6607.756806344606, 23684.22134926574, -29908.53397947955, 19975.217577840995, 17764.875920400133, -0.008, 0.976, 0.16, 192.0, 0.0, 0.0, 0.0, 0.0, 0.0, 0.0, 0.0, 0.0, 0.0, 1.700951131333078E9, 0.0, 2023-11-25 17:25:31.333
118.0, 53332.22339537423, 66784.5090370785, 9179.43676464996, -6584.354529899899, 23683.327279487527, -29915.328909793963, 19980.693755232543, 17773.973080393444, -0.008, 0.976, 0.16, 192.0, 0.0, 0.0, 0.0, 0.0, 0.0, 0.0, 0.0, 0.0, 0.0, 1.700951131337105E9, 0.0, 2023-11-25 17:25:31.337
119.0, 53379.16205873038, 66824.00456953104, 9202.839041094667, -6553.509122551575, 23701.141619818405, -29948.700064265737, 19993.47895306098, 17769.949766391488, -0.008, 0.976, 0.16, 192.0, 0.0, 0.0, 0.0, 0.0, 0.0, 0.0, 0.0, 0.0, 0.0, 1.700951131341064E9, 0.0, 2023-11-25 17:25:31.341
120.0, 53355.42450611884, 66777.57999629737, 9188.600979876635, -6580.487678109131, 23773.695382320333, -29666.174014350658, 19986.840484957753, 17852.561813898305, -0.006, 0.976, 0.162, 192.0, 255.0, 208.0, 30.0, 128.0, 5.0, 16.0, 0.0, 0.0, 0.0, 1.700951131345228E9, 0.0, 2023-11-25 17:25:31.345
121.0, 53324.57909877051, 66756.16702510919, 9172.91005526901, -6601.7441870861285, 23697.49828547219, -29848.988932250613, 19964.75696143591, 17790.066336401265, -0.006, 0.976, 0.162, 192.0, 0.0, 0.0, 0.0, 0.0, 0.0, 0.0, 0.0, 0.0, 0.0, 1.700951131348145E9, 0.0, 2023-11-25 17:25:31.348
122.0, 53338.41482858835, 66773.57903403987, 9173.58060760267, -6585.628579333852, 23683.59550042099, -29914.792467927036, 19965.65103121412, 17784.679565987535, -0.006, 0.976, 0.162, 192.0, 0.0, 0.0, 0.0, 0.0, 0.0, 0.0, 0.0, 0.0, 0.0, 1.700951131352092E9, 0.0, 2023-11-25 17:25:31.352
123.0, 53378.62561686345, 66813.90158103724, 9192.378424689583, -6557.800657486994, 23689.049326068085, -29957.573706814495, 19972.222444083982, 17761.634917454114, -0.006, 0.976, 0.162, 192.0, 0.0, 0.0, 0.0, 0.0, 0.0, 0.0, 0.0, 0.0, 0.0, 1.70095113135605E9, 0.0, 2023-11-25 17:25:31.356
124.0, 53369.014366747666, 66787.8617987468, 9193.33954970116, -6569.2223989036565, 23771.92959450836, -29722.768631311494, 19980.447886043537, 17840.469520147984, -0.006, 0.976, 0.162, 192.0, 0.0, 0.0, 0.0, 0.0, 0.0, 0.0, 0.0, 0.0, 0.0, 1.700951131361112E9, 0.0, 2023-11-25 17:25:31.361
125.0, 53325.04848540408, 66755.92115592016, 9171.457191879415, -6606.750977844117, 23712.138678090418, -29800.709164227148, 19956.263298542894, 17801.063394673278, -0.006, 0.976, 0.162, 192.0, 0.0, 0.0, 0.0, 0.0, 0.0, 0.0, 0.0, 0.0, 0.0, 1.700951131365109E9, 0.0, 2023-11-25 17:25:31.365
126.0, 53332.17869188532, 66771.00858342751, 9172.552427357725, -6598.816108562482, 23680.533311430612, -29949.951761955235, 19955.637449698144, 17763.065429099253, -0.006, 0.976, 0.162, 192.0, 0.0, 0.0, 0.0, 0.0, 0.0, 0.0, 0.0, 0.0, 0.0, 1.700951131369783E9, 0.0, 2023-11-25 17:25:31.369
127.0, 53376.72571858475, 66811.55464786943, 9190.880857811077, -6574.0950791949135, 23682.097933542485, -29970.671829065304, 19962.99117362394, 17747.37450449163, -0.006, 0.976, 0.162, 192.0, 0.0, 0.0, 0.0, 0.0, 0.0, 0.0, 0.0, 0.0, 0.0, 1.700951131375145E9, 0.0, 2023-11-25 17:25:31.375
128.0, 53378.022119763154, 66792.5109615935, 9198.167526503506, -6579.325387397455, 23756.41748385638, -29798.965728159637, 19974.591728996245, 17808.394766854617, -0.006, 0.976, 0.162, 192.0, 0.0, 0.0, 0.0, 0.0, 0.0, 0.0, 0.0, 0.0, 0.0, 1.70095113137822E9, 0.0, 2023-11-25 17:25:31.378
129.0, 53329.56353778405, 66749.1485773502, 9172.127744213074, -6620.631411150863, 23725.393262552414, -29754.50810843803, 19949.066036828284, 17799.208199883487, -0.004, 0.972, 0.166, 192.0, 255.0, 224.0, 30.0, 96.0, 5.0, 48.0, 0.0, 0.0, 0.0, 1.700951131381178E9, 0.0, 2023-11-25 17:25:31.381
130.0, 53334.480921564216, 66772.81907472838, 9182.141325729051, -6603.018236520081, 23686.21065452226, -29962.200517916743, 19955.056304342306, 17758.304507530273, -0.004, 0.972, 0.166, 192.0, 0.0, 0.0, 0.0, 0.0, 0.0, 0.0, 0.0, 0.0, 0.0, 1.700951131384208E9, 0.0, 2023-11-25 17:25:31.384
131.0, 53378.60326511899, 66818.014302017, 9201.609695149624, -6569.602378559396, 23692.60325343648, -29949.080043921476, 19969.71904870499, 17756.60577495167, -0.004, 0.972, 0.166, 192.0, 0.0, 0.0, 0.0, 0.0, 0.0, 0.0, 0.0, 0.0, 0.0, 1.700951131388191E9, 0.0, 2023-11-25 17:25:31.388
132.0, 53391.52257341416, 66814.03569150397, 9217.479433712893, -6560.684032521729, 23753.757626266197, -29847.603124094385, 19988.89684544764, 17797.934150449535, -0.004, 0.972, 0.166, 192.0, 0.0, 0.0, 0.0, 0.0, 0.0, 0.0, 0.0, 0.0, 0.0, 1.700951131393202E9, 0.0, 2023-11-25 17:25:31.393
133.0, 53340.11356116695, 66757.23990884304, 9188.802145576734, -6604.627562120862, 23751.589507054032, -29690.850340229317, 19968.892034160144, 17825.89618276312, -0.004, 0.972, 0.166, 192.0, 0.0, 0.0, 0.0, 0.0, 0.0, 0.0, 0.0, 0.0, 0.0, 1.700951131397235E9, 0.0, 2023-11-25 17:25:31.397
134.0, 53329.94351743979, 66765.24183335803, 9186.946950786943, -6601.118338241379, 23686.367116733447, -29953.639799790362, 19968.109723104208, 17764.89827214459, -0.004, 0.972, 0.166, 192.0, 0.0, 0.0, 0.0, 0.0, 0.0, 0.0, 0.0, 0.0, 0.0, 1.70095113140127E9, 0.0, 2023-11-25 17:25:31.401
135.0, 53357.88319800892, 66794.14263893875, 9186.611674620113, -6586.165021200779, 23680.220387008238, -29934.77492747008, 19967.059191114808, 17752.38129524962, -0.004, 0.972, 0.166, 192.0, 0.0, 0.0, 0.0, 0.0, 0.0, 0.0, 0.0, 0.0, 0.0, 1.700951131404223E9, 0.0, 2023-11-25 17:25:31.404
136.0, 53398.87629733996, 66824.63041837579, 9217.032398823787, -6553.978509185137, 23736.61383826898, -29904.15303756631, 19999.312758363816, 17777.012917639368, -0.004, 0.972, 0.166, 192.0, 0.0, 0.0, 0.0, 0.0, 0.0, 0.0, 0.0, 0.0, 0.0, 1.700951131408264E9, 0.0, 2023-11-25 17:25:31.408
137.0, 53353.636366562416, 66769.19809212662, 9195.708834613424, -6589.428375891254, 23772.019001486184, -29653.947610133604, 19994.01539492791, 17847.510319651403, -0.004, 0.972, 0.166, 192.0, 0.0, 0.0, 0.0, 0.0, 0.0, 0.0, 0.0, 0.0, 0.0, 1.700951131412278E9, 0.0, 2023-11-25 17:25:31.412
138.0, 53326.70251449377, 66765.84533045832, 9188.735090343367, -6597.363245172888, 23688.579939434523, -29925.945988410236, 19982.504246533426, 17772.85549317068, -0.004, 0.972, 0.166, 192.0, 0.0, 0.0, 0.0, 0.0, 0.0, 0.0, 0.0, 0.0, 0.0, 1.700951131416237E9, 0.0, 2023-11-25 17:25:31.416
139.0, 53367.8967795249, 66807.48663037857, 9205.878878340589, -6563.63446278983, 23700.6945849293, -29902.476656732164, 19996.85406647373, 17783.36081306467, -0.01, 0.972, 0.162, 192.0, 255.0, 176.0, 30.0, 96.0, 5.0, 16.0, 0.0, 0.0, 0.0, 1.700951131421319E9, 0.0, 2023-11-25 17:25:31.421
140.0, 53407.21349802178, 66838.06381679342, 9227.090683828674, -6539.7627997115615, 23728.008416653684, -29916.82647667247, 20009.035767201873, 17785.61833925466, -0.01, 0.972, 0.162, 192.0, 0.0, 0.0, 0.0, 0.0, 0.0, 0.0, 0.0, 0.0, 0.0, 1.700951131425276E9, 0.0, 2023-11-25 17:25:31.425
141.0, 53369.97549175924, 66782.8103044999, 9205.811823107222, -6575.458535606687, 23780.37855391247, -29638.659016926173, 19996.11645890671, 17863.82709310378, -0.01, 0.972, 0.162, 192.0, 0.0, 0.0, 0.0, 0.0, 0.0, 0.0, 0.0, 0.0, 0.0, 1.700951131429374E9, 0.0, 2023-11-25 17:25:31.429
142.0, 53331.73165699621, 66761.1067606338, 9183.77300307429, -6598.324370184466, 23688.177608034326, -29878.09090353142, 19969.495531260436, 17791.80977246878, -0.01, 0.972, 0.162, 192.0, 0.0, 0.0, 0.0, 0.0, 0.0, 0.0, 0.0, 0.0, 0.0, 1.700951131432764E9, 0.0, 2023-11-25 17:25:31.432
143.0, 53355.0445264631, 66783.4138016002, 9183.48243039637, -6580.241808920123, 23680.846235852987, -29901.046145087024, 19970.121380105185, 17792.748545735903, -0.01, 0.972, 0.162, 192.0, 0.0, 0.0, 0.0, 0.0, 0.0, 0.0, 0.0, 0.0, 0.0, 1.700951131436341E9, 0.0, 2023-11-25 17:25:31.436
144.0, 53402.698445641814, 66825.36802594281, 9201.900267827543, -6555.051392918992, 23690.36807899095, -29948.565953799007, 19977.5645110088, 17776.834103683723, -0.01, 0.972, 0.162, 192.0, 0.0, 0.0, 0.0, 0.0, 0.0, 0.0, 0.0, 0.0, 0.0, 1.700951131440395E9, 0.0, 2023-11-25 17:25:31.440
145.0, 53376.92688428485, 66781.64801378823, 9189.62916012158, -6583.706329310695, 23762.98889672624, -29682.379029080756, 19975.977537152474, 17858.887357579155, -0.01, 0.972, 0.162, 192.0, 0.0, 0.0, 0.0, 0.0, 0.0, 0.0, 0.0, 0.0, 0.0, 1.700951131444389E9, 0.0, 2023-11-25 17:25:31.444
146.0, 53334.03388667511, 66753.3507053078, 9169.24436917834, -6616.07165528198, 23685.473046955234, -29846.887868271813, 19948.954278106008, 17800.884580717633, -0.01, 0.972, 0.162, 192.0, 0.0, 0.0, 0.0, 0.0, 0.0, 0.0, 0.0, 0.0, 0.0, 1.70095113144838E9, 0.0, 2023-11-25 17:25:31.448
147.0, 53355.98329973022, 66783.07852543338, 9178.855619294121, -6595.262181194089, 23675.034782294606, -29932.718566980195, 19951.345914762725, 17780.32097581875, -0.01, 0.972, 0.162, 192.0, 0.0, 0.0, 0.0, 0.0, 0.0, 0.0, 0.0, 0.0, 0.0, 1.700951131453397E9, 0.0, 2023-11-25 17:25:31.453
148.0, 53398.98805606223, 66823.73634859757, 9195.86529682461, -6573.223361161156, 23673.49251192719, -29974.181052944787, 19956.553871220814, 17752.31424001625, -0.01, 0.972, 0.162, 192.0, 0.0, 0.0, 0.0, 0.0, 0.0, 0.0, 0.0, 0.0, 0.0, 1.700951131457431E9, 0.0, 2023-11-25 17:25:31.457
149.0, 53392.930733314846, 66802.90452276522, 9204.850698095644, -6576.598474573908, 23758.518547835178, -29744.405119944233, 19970.56841499429, 17831.61822934368, -0.012, 0.976, 0.162, 192.0, 255.0, 160.0, 30.0, 128.0, 5.0, 16.0, 0.0, 0.0, 0.0, 1.700951131460422E9, 0.0, 2023-11-25 17:25:31.460
150.0, 53348.78603801561, 66771.25445261651, 9188.91390429901, -6605.87925981036, 23709.054137355582, -29791.70141121166, 19948.41783623908, 17798.649406272103, -0.012, 0.976, 0.162, 192.0, 0.0, 0.0, 0.0, 0.0, 0.0, 0.0, 0.0, 0.0, 0.0, 1.700951131464422E9, 0.0, 2023-11-25 17:25:31.464
151.0, 53355.64802356339, 66792.62272031579, 9197.809898592222, -6591.820012547972, 23680.041573052597, -29950.68936952226, 19951.189452551538, 17761.590213965203, -0.012, 0.976, 0.162, 192.0, 0.0, 0.0, 0.0, 0.0, 0.0, 0.0, 0.0, 0.0, 0.0, 1.700951131468435E9, 0.0, 2023-11-25 17:25:31.468
152.0, 53395.791756605126, 66829.65956087822, 9212.003256321343, -6569.2223989036565, 23675.6382793949, -29963.049884206044, 19958.632583455157, 17749.60967893716, -0.012, 0.976, 0.162, 192.0, 0.0, 0.0, 0.0, 0.0, 0.0, 0.0, 0.0, 0.0, 0.0, 1.700951131472561E9, 0.0, 2023-11-25 17:25:31.472
153.0, 53401.916134585874, 66818.50604039503, 9223.134425060085, -6565.400250601799, 23750.829547742553, -29798.496341526075, 19980.85021744373, 17819.704749549004, -0.012, 0.976, 0.162, 192.0, 0.0, 0.0, 0.0, 0.0, 0.0, 0.0, 0.0, 0.0, 0.0, 1.700951131476443E9, 0.0, 2023-11-25 17:25:31.476
154.0, 53350.73063978322, 66769.82394097137, 9196.401738691538, -6605.700445854717, 23726.220277097258, -29725.942579024148, 19957.582051465757, 17825.91853450758, -0.012, 0.976, 0.162, 192.0, 0.0, 0.0, 0.0, 0.0, 0.0, 0.0, 0.0, 0.0, 0.0, 1.700951131481501E9, 0.0, 2023-11-25 17:25:31.481
155.0, 53353.345793884495, 66786.63245280176, 9204.984808562376, -6591.68590208124, 23681.36032597546, -29948.58830554346, 19961.672420701077, 17774.822446682745, -0.012, 0.976, 0.162, 192.0, 0.0, 0.0, 0.0, 0.0, 0.0, 0.0, 0.0, 0.0, 0.0, 1.700951131484613E9, 0.0, 2023-11-25 17:25:31.484
