%OpenBCI Raw EXG Data
%Number of channels = 8
%Sample Rate = 250 Hz
%Board = OpenBCI_GUI$BoardCytonSerial
Sample Index, EXG Channel 0, EXG Channel 1, EXG Channel 2, EXG Channel 3, EXG Channel 4, EXG Channel 5, EXG Channel 6, EXG Channel 7, Accel Channel 0, Accel Channel 1, Accel Channel 2, Other, Other, Other, Other, Other, Other, Other, Analog Channel 0, Analog Channel 1, Analog Channel 2, Timestamp, Other, Timestamp (Formatted)
235.0, 47536.23724415746, 67063.70467706975, 9375.439211778548, -8672.007462025578, 22397.498476207074, -32848.525982919455, 18873.76831457237, 13529.846194964195, 0.0, 0.0, 0.0, 192.0, 0.0, 0.0, 0.0, 0.0, 0.0, 0.0, 0.0, 0.0, 0.0, 1.700951081270959E9, 0.0, 2023-11-25 17:24:41.270
236.0, 47548.55305535234, 67080.24496796668, 9385.18457236106, -8652.33792690491, 22372.531577650498, -32947.723024812105, 18892.052041536816, 13533.087197910214, 0.0, 0.0, 0.0, 192.0, 0.0, 0.0, 0.0, 0.0, 0.0, 0.0, 0.0, 0.0, 0.0, 1.700951081270982E9, 0.0, 2023-11-25 17:24:41.270
237.0, 47583.7794046139, 67115.11368931696, 9392.448889309037, -8639.262156398554, 22365.691943847174, -32847.631913141246, 18896.96942531698, 13537.19991888999, 0.0, 0.0, 0.0, 192.0, 0.0, 0.0, 0.0, 0.0, 0.0, 0.0, 0.0, 0.0, 0.0, 1.700951081270994E9, 0.0, 2023-11-25 17:24:41.270
0.0, 0.0, 0.0, 0.0, 0.0, 0.0, 0.0, 0.0, 0.0, 0.012, 0.968, 0.154, 192.0, 0.0, 96.0, 30.0, 64.0, 4.0, 208.0, 0.0, 0.0, 0.0, 1.700951081373001E9, 0.0, 2023-11-25 17:24:41.373
1.0, 48540.009384156394, 66053.56228990106, 9104.536068980226, -8183.890066610583, 23046.839004378202, -32326.411584187936, 18539.34151403207, 14740.751950830454, 0.012, 0.968, 0.154, 192.0, 0.0, 0.0, 0.0, 0.0, 0.0, 0.0, 0.0, 0.0, 0.0, 1.700951081387052E9, 0.0, 2023-11-25 17:24:41.387
2.0, 48573.49229735044, 66090.71088918578, 9114.66140921848, -8161.650080877553, 23044.156795043564, -32287.25132790224, 18543.655400711945, 14744.171767732118, 0.012, 0.968, 0.154, 192.0, 0.0, 0.0, 0.0, 0.0, 0.0, 0.0, 0.0, 0.0, 0.0, 1.700951081391092E9, 0.0, 2023-11-25 17:24:41.391
3.0, 48597.9227540401, 66107.76527020517, 9138.086037407642, -8143.902795780039, 23109.937978975533, -32212.70826014379, 18566.118903889528, 14778.839323382297, 0.012, 0.968, 0.154, 192.0, 0.0, 0.0, 0.0, 0.0, 0.0, 0.0, 0.0, 0.0, 0.0, 1.700951081395112E9, 0.0, 2023-11-25 17:24:41.395
4.0, 48547.38545982665, 66047.70613285377, 9107.687664948424, -8190.439127735988, 23122.410252381596, -32060.604639125424, 18540.63791521048, 14796.050166612884, 0.012, 0.968, 0.154, 192.0, 0.0, 0.0, 0.0, 0.0, 0.0, 0.0, 0.0, 0.0, 0.0, 1.700951081400114E9, 0.0, 2023-11-25 17:24:41.400
5.0, 48534.712020720486, 66052.26588872264, 9105.631304458537, -8187.779270145807, 23043.307428754262, -32329.294959222672, 18533.99944710725, 14738.20385196255, 0.012, 0.968, 0.154, 192.0, 0.0, 0.0, 0.0, 0.0, 0.0, 0.0, 0.0, 0.0, 0.0, 1.700951081403072E9, 0.0, 2023-11-25 17:24:41.403
6.0, 48575.883934007164, 66093.9965956207, 9118.595316242614, -8158.18556048698, 23048.40362649007, -32276.969525452798, 18544.77298793471, 14752.218395736027, 0.012, 0.968, 0.154, 192.0, 0.0, 0.0, 0.0, 0.0, 0.0, 0.0, 0.0, 0.0, 0.0, 1.700951081406143E9, 0.0, 2023-11-25 17:24:41.406
7.0, 48609.99269604596, 66120.68457850034, 9139.158921141496, -8135.6550020760305, 23089.977871176943, -32255.020112397688, 18565.00131666676, 14763.327212730315, 0.012, 0.968, 0.154, 192.0, 0.0, 0.0, 0.0, 0.0, 0.0, 0.0, 0.0, 0.0, 0.0, 1.700951081412129E9, 0.0, 2023-11-25 17:24:41.412
8.0, 48565.669186791085, 66059.4407986928, 9105.340731780618, -8182.168982287524, 23134.97193276548, -32041.71741506069, 18538.045112853662, 14785.902474630175, -0.016, 0.97, 0.18, 192.0, 255.0, 128.0, 30.0, 80.0, 5.0, 160.0, 0.0, 0.0, 0.0, 1.700951081416134E9, 0.0, 2023-11-25 17:24:41.416
9.0, 48548.413640071594, 66055.95392655778, 9098.36698751056, -8184.448860221966, 23051.868146880646, -32314.341642182073, 18529.752615660742, 14721.7753197879, -0.016, 0.97, 0.18, 192.0, 0.0, 0.0, 0.0, 0.0, 0.0, 0.0, 0.0, 0.0, 0.0, 1.700951081420204E9, 0.0, 2023-11-25 17:24:41.420
10.0, 48579.6166753312, 66087.24636879521, 9100.602161956092, -8162.342984955667, 23053.32101027024, -32282.043371444153, 18537.5757262201, 14734.20288970505, -0.016, 0.97, 0.18, 192.0, 0.0, 0.0, 0.0, 0.0, 0.0, 0.0, 0.0, 0.0, 0.0, 1.700951081424226E9, 0.0, 2023-11-25 17:24:41.424
11.0, 48621.392085718166, 66125.1549273914, 9120.38345579904, -8134.492711364354, 23078.980812904934, -32290.089999448064, 18555.56888050662, 14730.380741403193, -0.016, 0.97, 0.18, 192.0, 0.0, 0.0, 0.0, 0.0, 0.0, 0.0, 0.0, 0.0, 0.0, 1.700951081429199E9, 0.0, 2023-11-25 17:24:41.429
12.0, 48590.39021615866, 66075.2434820227, 9098.791670655211, -8168.713232125429, 23149.612325383703, -32041.583304593958, 18547.63401122499, 14781.633291439211, -0.016, 0.97, 0.18, 192.0, 0.0, 0.0, 0.0, 0.0, 0.0, 0.0, 0.0, 0.0, 0.0, 1.700951081432176E9, 0.0, 2023-11-25 17:24:41.432
13.0, 48553.576893040765, 66053.91991781234, 9080.686757646414, -8188.405118990555, 23061.32293478524, -32265.30191484713, 18532.01014185073, 14714.734520284477, -0.016, 0.97, 0.18, 192.0, 0.0, 0.0, 0.0, 0.0, 0.0, 0.0, 0.0, 0.0, 0.0, 1.700951081435262E9, 0.0, 2023-11-25 17:24:41.435
14.0, 48581.85184977673, 66085.99467110571, 9091.482650218326, -8161.605377388642, 23064.116902842154, -32280.85872898802, 18549.44450252587, 14725.977447745498, -0.016, 0.97, 0.18, 192.0, 0.0, 0.0, 0.0, 0.0, 0.0, 0.0, 0.0, 0.0, 0.0, 1.700951081439204E9, 0.0, 2023-11-25 17:24:41.439
15.0, 48615.178300759595, 66118.35999707699, 9100.8480311451, -8144.640403347064, 23064.85451040918, -32301.891720520467, 18556.10532237355, 14711.426462105092, -0.016, 0.97, 0.18, 192.0, 0.0, 0.0, 0.0, 0.0, 0.0, 0.0, 0.0, 0.0, 0.0, 1.700951081443224E9, 0.0, 2023-11-25 17:24:41.443
16.0, 48606.5728791443, 66087.08990658402, 9095.70712992038, -8160.04075527677, 23157.055456287322, -32072.339304964462, 18562.76614222123, 14773.854884368764, -0.016, 0.97, 0.18, 192.0, 0.0, 0.0, 0.0, 0.0, 0.0, 0.0, 0.0, 0.0, 0.0, 1.700951081447254E9, 0.0, 2023-11-25 17:24:41.447
17.0, 48565.535076324355, 66058.68083938133, 9073.310681976162, -8188.539229457288, 23083.965251918467, -32210.249568253705, 18541.174357077405, 14724.502232611447, -0.016, 0.97, 0.18, 192.0, 0.0, 0.0, 0.0, 0.0, 0.0, 0.0, 0.0, 0.0, 0.0, 1.700951081451377E9, 0.0, 2023-11-25 17:24:41.451
18.0, 48582.880030021675, 66081.32315651455, 9076.685795388914, -8171.127220526603, 23062.70874294147, -32299.81300828612, 18549.265688570224, 14723.049369221852, -0.03, 0.97, 0.184, 192.0, 255.0, 16.0, 30.0, 80.0, 5.0, 192.0, 0.0, 0.0, 0.0, 1.700951081455292E9, 0.0, 2023-11-25 17:24:41.455
19.0, 48631.27155676742, 66126.607790781, 9092.063795574164, -8144.685106835975, 23063.289888297306, -32302.942252509863, 18562.296755587668, 14722.6246860772, -0.03, 0.97, 0.184, 192.0, 0.0, 0.0, 0.0, 0.0, 0.0, 0.0, 0.0, 0.0, 0.0, 1.700951081459263E9, 0.0, 2023-11-25 17:24:41.459
20.0, 48635.92071961412, 66104.01017713669, 9093.784879897223, -8152.217644717413, 23152.04866552933, -32114.338232795984, 18569.292851602182, 14778.906378615664, -0.03, 0.97, 0.184, 192.0, 0.0, 0.0, 0.0, 0.0, 0.0, 0.0, 0.0, 0.0, 0.0, 1.70095108146229E9, 0.0, 2023-11-25 17:24:41.462
21.0, 48588.51266962441, 66056.42331319134, 9062.872417315533, -8193.300151026267, 23103.746545761413, -32151.55388731407, 18532.032493595183, 14740.282564196894, -0.03, 0.97, 0.184, 192.0, 0.0, 0.0, 0.0, 0.0, 0.0, 0.0, 0.0, 0.0, 0.0, 1.700951081468301E9, 0.0, 2023-11-25 17:24:41.468
22.0, 48595.888745294666, 66074.17059828885, 9065.442867927894, -8176.581046173698, 23065.860338909668, -32321.807124830142, 18530.95960986133, 14716.880287752187, -0.03, 0.97, 0.184, 192.0, 0.0, 0.0, 0.0, 0.0, 0.0, 0.0, 0.0, 0.0, 0.0, 1.700951081471325E9, 0.0, 2023-11-25 17:24:41.471
23.0, 48633.61848993522, 66109.77692720616, 9071.053155786176, -8159.034926776282, 23061.345286529697, -32304.52922636619, 18530.557278461132, 14706.531430069379, -0.03, 0.97, 0.184, 192.0, 0.0, 0.0, 0.0, 0.0, 0.0, 0.0, 0.0, 0.0, 0.0, 1.700951081475335E9, 0.0, 2023-11-25 17:24:41.475
24.0, 48646.358984274746, 66105.93242715985, 9078.026900056231, -8158.297319209257, 23135.57542986577, -32184.36624817446, 18537.508670986732, 14741.668372353122, -0.03, 0.97, 0.184, 192.0, 0.0, 0.0, 0.0, 0.0, 0.0, 0.0, 0.0, 0.0, 0.0, 1.700951081479413E9, 0.0, 2023-11-25 17:24:41.479
25.0, 48603.10835875373, 66059.32903997053, 9052.590614866092, -8194.730662671407, 23128.33346466225, -32108.795000171067, 18515.55925793162, 14739.276735696405, -0.03, 0.97, 0.184, 192.0, 0.0, 0.0, 0.0, 0.0, 0.0, 0.0, 0.0, 0.0, 0.0, 1.700951081483369E9, 0.0, 2023-11-25 17:24:41.483
26.0, 48602.70602735353, 66069.56613893106, 9056.301004445673, -8183.398328232566, 23068.9448796445, -32342.504840195757, 18517.481507954777, 14698.551857298835, -0.03, 0.97, 0.184, 192.0, 0.0, 0.0, 0.0, 0.0, 0.0, 0.0, 0.0, 0.0, 0.0, 1.700951081486371E9, 0.0, 2023-11-25 17:24:41.486
27.0, 48647.94595813107, 66107.2511800827, 9067.275710973228, -8159.638423876575, 23065.972097631944, -32303.836322288076, 18527.00335109274, 14703.71511026801, -0.032, 0.966, 0.188, 192.0, 255.0, 0.0, 30.0, 48.0, 5.0, 224.0, 0.0, 0.0, 0.0, 1.700951081493453E9, 0.0, 2023-11-25 17:24:41.493
28.0, 48674.99156892199, 66121.91392444538, 9085.738251893312, -8148.484903393377, 23124.62307508267, -32241.8102314246, 18539.81090066563, 14724.85986052273, -0.032, 0.966, 0.188, 192.0, 0.0, 0.0, 0.0, 0.0, 0.0, 0.0, 0.0, 0.0, 0.0, 1.700951081499507E9, 0.0, 2023-11-25 17:24:41.499
29.0, 48627.270594509915, 66063.73233362823, 9055.451638156372, -8196.898781883572, 23142.19154622454, -32079.022476556598, 18507.177353760882, 14734.20288970505, -0.032, 0.966, 0.188, 192.0, 0.0, 0.0, 0.0, 0.0, 0.0, 0.0, 0.0, 0.0, 0.0, 1.700951081503491E9, 0.0, 2023-11-25 17:24:41.503
30.0, 48610.707951868535, 66061.67597313834, 9053.104704988564, -8197.949313872972, 23056.338495771706, -32351.557296700157, 18494.928597799375, 14676.177761099072, -0.032, 0.966, 0.188, 192.0, 0.0, 0.0, 0.0, 0.0, 0.0, 0.0, 0.0, 0.0, 0.0, 1.700951081506473E9, 0.0, 2023-11-25 17:24:41.506
31.0, 48647.81184766434, 66098.24342706721, 9061.710126603857, -8173.943540327971, 23054.61741144865, -32308.172560712406, 18499.935388557362, 14685.163162370107, -0.032, 0.966, 0.188, 192.0, 0.0, 0.0, 0.0, 0.0, 0.0, 0.0, 0.0, 0.0, 0.0, 1.700951081509481E9, 0.0, 2023-11-25 17:24:41.509
32.0, 48689.09551967329, 66128.48533731524, 9086.162935037963, -8145.176845213991, 23096.973967191454, -32291.29699364865, 18518.17441203289, 14699.088299165762, -0.032, 0.966, 0.188, 192.0, 0.0, 0.0, 0.0, 0.0, 0.0, 0.0, 0.0, 0.0, 0.0, 1.700951081513481E9, 0.0, 2023-11-25 17:24:41.513
33.0, 48648.6835656981, 66069.05204880859, 9062.961824293354, -8181.341967742678, 23153.210956241008, -32053.496784388637, 18503.131688014473, 14750.050276523862, -0.032, 0.966, 0.188, 192.0, 0.0, 0.0, 0.0, 0.0, 0.0, 0.0, 0.0, 0.0, 0.0, 1.700951081516536E9, 0.0, 2023-11-25 17:24:41.516
34.0, 48616.29588798236, 66052.86938582294, 9050.020164253732, -8192.853116137161, 23061.1441208296, -32316.174485227406, 18487.060783751105, 14688.962958927508, -0.032, 0.966, 0.188, 192.0, 0.0, 0.0, 0.0, 0.0, 0.0, 0.0, 0.0, 0.0, 0.0, 1.700951081520509E9, 0.0, 2023-11-25 17:24:41.520
35.0, 48652.19278957758, 66085.30176702759, 9063.073583015632, -8164.444048934466, 23064.72039994245, -32291.699325048845, 18497.454344922822, 14706.374967858192, -0.032, 0.966, 0.188, 192.0, 0.0, 0.0, 0.0, 0.0, 0.0, 0.0, 0.0, 0.0, 0.0, 1.700951081524673E9, 0.0, 2023-11-25 17:24:41.524
36.0, 48697.36566512176, 66120.90809594489, 9087.74990889429, -8138.493673621854, 23085.19459786351, -32301.556444353635, 18515.223981764793, 14713.728691783988, -0.032, 0.966, 0.188, 192.0, 0.0, 0.0, 0.0, 0.0, 0.0, 0.0, 0.0, 0.0, 0.0, 1.700951081527499E9, 0.0, 2023-11-25 17:24:41.527
37.0, 48669.38128106371, 66077.21043553477, 9072.617777898047, -8171.708365882441, 23160.363514466706, -32048.467641886193, 18510.686577640365, 14778.034660581907, -0.034, 0.968, 0.184, 192.0, 254.0, 240.0, 30.0, 64.0, 5.0, 192.0, 0.0, 0.0, 0.0, 1.700951081531538E9, 0.0, 2023-11-25 17:24:41.531
38.0, 48628.030553821394, 66054.83633933502, 9055.384582923005, -8198.597514462175, 23065.636821465116, -32264.027865413176, 18491.441725664346, 14715.472127851503, -0.034, 0.968, 0.184, 192.0, 0.0, 0.0, 0.0, 0.0, 0.0, 0.0, 0.0, 0.0, 0.0, 1.700951081535649E9, 0.0, 2023-11-25 17:24:41.535
39.0, 48649.59998722077, 66076.20460703428, 9059.564359136148, -8183.443031721477, 23052.292830025297, -32299.991822241765, 18497.387289689457, 14716.232087162984, -0.034, 0.968, 0.184, 192.0, 0.0, 0.0, 0.0, 0.0, 0.0, 0.0, 0.0, 0.0, 0.0, 1.700951081539582E9, 0.0, 2023-11-25 17:24:41.539
40.0, 48685.31807486035, 66109.93338941735, 9071.12021101954, -8165.941615812972, 23050.549393957783, -32324.86931382052, 18502.461135680813, 14699.91531371061, -0.034, 0.968, 0.184, 192.0, 0.0, 0.0, 0.0, 0.0, 0.0, 0.0, 0.0, 0.0, 0.0, 1.700951081543578E9, 0.0, 2023-11-25 17:24:41.543
41.0, 48672.37641482073, 66078.37272624645, 9065.50992316126, -8185.588799189187, 23140.872793301678, -32097.932052365788, 18503.913999070406, 14760.220320251026, -0.034, 0.968, 0.184, 192.0, 0.0, 0.0, 0.0, 0.0, 0.0, 0.0, 0.0, 0.0, 0.0, 1.700951081546699E9, 0.0, 2023-11-25 17:24:41.546
42.0, 48626.5776904318, 66047.05793226456, 9043.113475217042, -8216.970648404438, 23071.71649595696, -32221.648957925914, 18483.685670338353, 14717.595543574756, -0.034, 0.968, 0.184, 192.0, 0.0, 0.0, 0.0, 0.0, 0.0, 0.0, 0.0, 0.0, 0.0, 1.700951081550648E9, 0.0, 2023-11-25 17:24:41.550
43.0, 48643.38620226219, 66073.18712153281, 9053.752905577769, -8191.444956236477, 23052.963382358957, -32322.030642274698, 18502.058804280616, 14715.785052273877, -0.034, 0.968, 0.184, 192.0, 0.0, 0.0, 0.0, 0.0, 0.0, 0.0, 0.0, 0.0, 0.0, 1.700951081554585E9, 0.0, 2023-11-25 17:24:41.554
44.0, 48688.96140920656, 66119.11995638847, 9069.913216818955, -8162.946482055961, 23051.577574202725, -32319.14726723996, 18510.99950206274, 14706.352616113738, -0.034, 0.968, 0.184, 192.0, 0.0, 0.0, 0.0, 0.0, 0.0, 0.0, 0.0, 0.0, 0.0, 1.700951081558554E9, 0.0, 2023-11-25 17:24:41.558
45.0, 48690.72719701853, 66101.32796780205, 9075.188228510407, -8168.601473403153, 23140.33635143475, -32135.080651650507, 18520.23077252278, 14761.96375631854, -0.034, 0.968, 0.184, 192.0, 0.0, 0.0, 0.0, 0.0, 0.0, 0.0, 0.0, 0.0, 0.0, 1.700951081563616E9, 0.0, 2023-11-25 17:24:41.563
46.0, 48643.29679528437, 66059.37374345944, 9053.216463710842, -8206.040645365792, 23100.103211415197, -32150.011616946653, 18491.732298342264, 14734.515814127424, -0.034, 0.968, 0.184, 192.0, 0.0, 0.0, 0.0, 0.0, 0.0, 0.0, 0.0, 0.0, 0.0, 1.700951081567741E9, 0.0, 2023-11-25 17:24:41.567
47.0, 48648.929434887104, 66079.89264486941, 9060.972519036832, -8191.020273091826, 23056.629068449627, -32331.776002857212, 18492.671071609388, 14701.122307911195, -0.038, 0.974, 0.188, 192.0, 254.0, 208.0, 30.0, 112.0, 5.0, 224.0, 0.0, 0.0, 0.0, 1.70095108157169E9, 0.0, 2023-11-25 17:24:41.571
48.0, 48692.15770866367, 66121.53394478964, 9075.881132588522, -8164.756973356841, 23052.98573410341, -32314.609863115536, 18500.740051357752, 14693.992101429953, -0.038, 0.974, 0.188, 192.0, 0.0, 0.0, 0.0, 0.0, 0.0, 0.0, 0.0, 0.0, 0.0, 1.700951081575686E9, 0.0, 2023-11-25 17:24:41.575
49.0, 48708.988572238515, 66123.56795353508, 9088.286350761218, -8157.246787219858, 23129.071072229275, -32196.927928558343, 18515.358092231523, 14734.448758894057, -0.038, 0.974, 0.188, 192.0, 0.0, 0.0, 0.0, 0.0, 0.0, 0.0, 0.0, 0.0, 0.0, 1.700951081578698E9, 0.0, 2023-11-25 17:24:41.578
50.0, 48653.82446692282, 66069.25321450869, 9052.635318355004, -8204.85600290966, 23118.163420935085, -32103.408229757337, 18480.712888325797, 14729.218450691516, -0.038, 0.974, 0.188, 192.0, 0.0, 0.0, 0.0, 0.0, 0.0, 0.0, 0.0, 0.0, 0.0, 1.700951081582675E9, 0.0, 2023-11-25 17:24:41.582
51.0, 48648.728269187006, 66083.29011002662, 9055.898673045478, -8195.960008616448, 23052.38223700312, -32349.702101910367, 18479.19296970284, 14687.465392049002, -0.038, 0.974, 0.188, 192.0, 0.0, 0.0, 0.0, 0.0, 0.0, 0.0, 0.0, 0.0, 0.0, 1.70095108158876E9, 0.0, 2023-11-25 17:24:41.588
52.0, 48688.33556036181, 66121.66805525638, 9065.442867927894, -8175.374051973111, 23048.98477184591, -32308.574892112603, 18483.171580215883, 14692.762755484911, -0.038, 0.974, 0.188, 192.0, 0.0, 0.0, 0.0, 0.0, 0.0, 0.0, 0.0, 0.0, 0.0, 1.700951081592638E9, 0.0, 2023-11-25 17:24:41.592
53.0, 48715.26941243046, 66132.84392748403, 9082.363138480561, -8162.745316355863, 23104.32769111725, -32256.89765893193, 18497.700214111832, 14714.555706328834, -0.038, 0.974, 0.188, 192.0, 0.0, 0.0, 0.0, 0.0, 0.0, 0.0, 0.0, 0.0, 0.0, 1.700951081596689E9, 0.0, 2023-11-25 17:24:41.596
54.0, 48676.82441196733, 66080.98788034772, 9062.134809748508, -8197.815203406239, 23139.174060723075, -32067.53367990657, 18484.75855407221, 14748.619764878722, -0.038, 0.974, 0.188, 192.0, 0.0, 0.0, 0.0, 0.0, 0.0, 0.0, 0.0, 0.0, 0.0, 1.700951081600658E9, 0.0, 2023-11-25 17:24:41.600
55.0, 48655.34438554578, 66080.94317685881, 9062.045402770687, -8196.921133628028, 23056.629068449627, -32333.765308113732, 18481.294033681635, 14693.321549096294, -0.038, 0.974, 0.188, 192.0, 0.0, 0.0, 0.0, 0.0, 0.0, 0.0, 0.0, 0.0, 0.0, 1.700951081603736E9, 0.0, 2023-11-25 17:24:41.603
56.0, 48689.631961540224, 66113.97905516376, 9071.477838930827, -8173.272987994313, 23055.66794343805, -32287.47484534679, 18489.541827385645, 14706.19615390255, -0.038, 0.974, 0.188, 192.0, 0.0, 0.0, 0.0, 0.0, 0.0, 0.0, 0.0, 0.0, 0.0, 1.700951081606706E9, 0.0, 2023-11-25 17:24:41.606
57.0, 48729.619232370766, 66142.70104678882, 9095.461260731372, -8146.674412092497, 23090.93899618852, -32275.270792874195, 18512.67588289689, 14725.664523323123, -0.04, 0.982, 0.18, 192.0, 254.0, 192.0, 30.0, 176.0, 5.0, 160.0, 0.0, 0.0, 0.0, 1.700951081610772E9, 0.0, 2023-11-25 17:24:41.610
58.0, 48692.58239180832, 66090.15209557439, 9074.003586054276, -8180.894932853572, 23152.160424251608, -32028.127554431863, 18503.60107464803, 14781.320367016837, -0.04, 0.982, 0.18, 192.0, 0.0, 0.0, 0.0, 0.0, 0.0, 0.0, 0.0, 0.0, 0.0, 1.70095108161477E9, 0.0, 2023-11-25 17:24:41.614
59.0, 48662.34048156029, 66081.23374953672, 9066.113420261552, -8189.14272655758, 23065.167434831554, -32285.57494706809, 18496.493219911245, 14725.195136689561, -0.04, 0.982, 0.18, 192.0, 0.0, 0.0, 0.0, 0.0, 0.0, 0.0, 0.0, 0.0, 0.0, 1.700951081621779E9, 0.0, 2023-11-25 17:24:41.621
60.0, 48690.72719701853, 66113.5096685302, 9076.127001777531, -8164.444048934466, 23065.10037959819, -32267.894717203944, 18506.95383631633, 14742.24951770896, -0.04, 0.982, 0.18, 192.0, 0.0, 0.0, 0.0, 0.0, 0.0, 0.0, 0.0, 0.0, 0.0, 1.700951081625776E9, 0.0, 2023-11-25 17:24:41.625
61.0, 48728.501645148, 66149.40657012541, 9098.679911932935, -8137.75606605483, 23082.043001895312, -32287.29603139115, 18520.119013800504, 14738.025038006906, -0.04, 0.982, 0.18, 192.0, 0.0, 0.0, 0.0, 0.0, 0.0, 0.0, 0.0, 0.0, 0.0, 1.700951081628763E9, 0.0, 2023-11-25 17:24:41.628
62.0, 48697.25390639948, 66098.1540200894, 9083.816001870156, -8169.674357137008, 23160.318810977795, -32036.442403369238, 18514.88870559796, 14800.632274226222, -0.04, 0.982, 0.18, 192.0, 0.0, 0.0, 0.0, 0.0, 0.0, 0.0, 0.0, 0.0, 0.0, 1.700951081633751E9, 0.0, 2023-11-25 17:24:41.633
63.0, 48661.91579841564, 66081.23374953672, 9072.506019175771, -8190.61794169163, 23079.316089071763, -32239.060966856596, 18498.594283890045, 14744.954078788052, -0.04, 0.982, 0.18, 192.0, 0.0, 0.0, 0.0, 0.0, 0.0, 0.0, 0.0, 0.0, 0.0, 1.700951081635758E9, 0.0, 2023-11-25 17:24:41.635
64.0, 48682.412348081154, 66106.49122077122, 9080.08326054612, -8171.66366239353, 23068.296679055296, -32282.132778421972, 18507.602036905533, 14745.82579682181, -0.04, 0.982, 0.18, 192.0, 0.0, 0.0, 0.0, 0.0, 0.0, 0.0, 0.0, 0.0, 0.0, 1.700951081638834E9, 0.0, 2023-11-25 17:24:41.638
65.0, 48727.54052013642, 66151.97702073777, 9101.496231734303, -8145.959156269927, 23070.62126047865, -32311.14534272496, 18518.17441203289, 14730.492500125469, -0.04, 0.982, 0.18, 192.0, 0.0, 0.0, 0.0, 0.0, 0.0, 0.0, 0.0, 0.0, 0.0, 1.700951081642939E9, 0.0, 2023-11-25 17:24:41.642
66.0, 48714.46474963007, 66119.67874999986, 9099.350464266594, -8164.354641956645, 23160.609383655716, -32083.470473703204, 18523.069444068606, 14791.937445633108, -0.04, 0.982, 0.18, 192.0, 0.0, 0.0, 0.0, 0.0, 0.0, 0.0, 0.0, 0.0, 0.0, 1.700951081646885E9, 0.0, 2023-11-25 17:24:41.646
67.0, 48669.068356641335, 66083.51362747117, 9077.84808610059, -8200.519764485332, 23092.01187992238, -32193.597518634502, 18498.013138534207, 14744.462340410037, -0.038, 0.974, 0.178, 192.0, 254.0, 208.0, 30.0, 112.0, 5.0, 144.0, 0.0, 0.0, 0.0, 1.70095108165188E9, 0.0, 2023-11-25 17:24:41.651
68.0, 48685.40748183817, 66109.5534097616, 9087.615798427558, -8182.101927054158, 23063.446350508493, -32315.01219451573, 18501.857638580517, 14729.263154180428, -0.038, 0.974, 0.178, 192.0, 0.0, 0.0, 0.0, 0.0, 0.0, 0.0, 0.0, 0.0, 0.0, 1.700951081655166E9, 0.0, 2023-11-25 17:24:41.655
69.0, 48725.908842791185, 66153.20636668282, 9101.339769523116, -8160.912473310527, 23056.696123682992, -32322.723546352812, 18500.293016468648, 14714.354540628738, -0.038, 0.974, 0.178, 192.0, 0.0, 0.0, 0.0, 0.0, 0.0, 0.0, 0.0, 0.0, 0.0, 1.700951081658846E9, 0.0, 2023-11-25 17:24:41.658
70.0, 48732.3014417054, 66141.5611078216, 9109.587563227125, -8163.348813456156, 23145.25373521492, -32149.36341635745, 18509.434879950866, 14767.439933710091, -0.038, 0.974, 0.178, 192.0, 0.0, 0.0, 0.0, 0.0, 0.0, 0.0, 0.0, 0.0, 0.0, 1.700951081663921E9, 0.0, 2023-11-25 17:24:41.663
71.0, 48679.08193815732, 66093.01311886468, 9083.145449536498, -8203.447843008977, 23107.211066151987, -32138.6345790189, 18484.065649994096, 14746.518700899924, -0.038, 0.974, 0.178, 192.0, 0.0, 0.0, 0.0, 0.0, 0.0, 0.0, 0.0, 0.0, 0.0, 1.70095108166806E9, 0.0, 2023-11-25 17:24:41.668
72.0, 48675.81858346684, 66110.29101732862, 9088.554571694682, -8185.3205782557225, 23059.668905695547, -32330.323139467615, 18484.69149883884, 14715.561534829323, -0.038, 0.974, 0.178, 192.0, 0.0, 0.0, 0.0, 0.0, 0.0, 0.0, 0.0, 0.0, 0.0, 1.700951081671993E9, 0.0, 2023-11-25 17:24:41.671
73.0, 48720.387961910725, 66154.01102948321, 9104.446662002405, -8154.095191251659, 23059.244222550897, -32305.91503452242, 18492.93929254285, 14713.929857484087, -0.038, 0.974, 0.178, 192.0, 0.0, 0.0, 0.0, 0.0, 0.0, 0.0, 0.0, 0.0, 0.0, 1.700951081675455E9, 0.0, 2023-11-25 17:24:41.675
74.0, 48736.28005221845, 66150.34534339253, 9118.528261009247, -8145.288603936268, 23134.413139154094, -32196.123265757953, 18512.988807319263, 14757.716924872033, -0.038, 0.974, 0.178, 192.0, 0.0, 0.0, 0.0, 0.0, 0.0, 0.0, 0.0, 0.0, 0.0, 1.700951081678945E9, 0.0, 2023-11-25 17:24:41.678
75.0, 48680.22187712454, 66090.5991304635, 9086.56526643816, -8189.299188768768, 23134.52489787637, -32074.797996854544, 18489.65358610792, 14764.35539297526, -0.038, 0.974, 0.178, 192.0, 0.0, 0.0, 0.0, 0.0, 0.0, 0.0, 0.0, 0.0, 0.0, 1.700951081681974E9, 0.0, 2023-11-25 17:24:41.681
76.0, 48662.47459202702, 66091.94023513082, 9080.440888457404, -8186.236999778391, 23057.746655672392, -32327.01508128823, 18484.825609305575, 14714.511002839925, -0.038, 0.974, 0.178, 192.0, 0.0, 0.0, 0.0, 0.0, 0.0, 0.0, 0.0, 0.0, 0.0, 1.700951081685918E9, 0.0, 2023-11-25 17:24:41.685
77.0, 48700.00317096748, 66128.59709603753, 9086.788783882712, -8163.460572178433, 23053.455120736973, -32289.35239188104, 18494.70508035482, 14721.507098854436, -0.038, 0.972, 0.178, 192.0, 254.0, 208.0, 30.0, 96.0, 5.0, 144.0, 0.0, 0.0, 0.0, 1.700951081690946E9, 0.0, 2023-11-25 17:24:41.690
78.0, 48734.022526028464, 66153.56399459411, 9110.839260916622, -8140.035943989271, 23113.603665066203, -32242.6595977139, 18523.18120279088, 14747.59158463378, -0.038, 0.972, 0.178, 192.0, 0.0, 0.0, 0.0, 0.0, 0.0, 0.0, 0.0, 0.0, 0.0, 1.700951081695101E9, 0.0, 2023-11-25 17:24:41.695
79.0, 48684.53576380441, 66091.13557233043, 9078.451583200882, -8186.862848623139, 23144.538479392348, -32035.794202780035, 18504.696310126343, 14780.40394549417, -0.038, 0.972, 0.178, 192.0, 0.0, 0.0, 0.0, 0.0, 0.0, 0.0, 0.0, 0.0, 0.0, 1.700951081699054E9, 0.0, 2023-11-25 17:24:41.699
80.0, 48656.79724893538, 66084.02771759364, 9067.879208073522, -8196.027063849815, 23052.98573410341, -32317.470886405816, 18494.481562910267, 14712.901677239142, -0.038, 0.972, 0.178, 192.0, 0.0, 0.0, 0.0, 0.0, 0.0, 0.0, 0.0, 0.0, 0.0, 1.700951081703117E9, 0.0, 2023-11-25 17:24:41.703
81.0, 48697.27625814394, 66129.357055349, 9081.491420446804, -8167.61799664712, 23060.786492918312, -32285.23967090126, 18507.155002016425, 14725.128081456196, -0.038, 0.972, 0.178, 192.0, 0.0, 0.0, 0.0, 0.0, 0.0, 0.0, 0.0, 0.0, 0.0, 1.70095108170701E9, 0.0, 2023-11-25 17:24:41.707
82.0, 48732.86023531679, 66156.89440451794, 9099.37281601105, -8147.1661504705135, 23091.38603107763, -32288.458322102826, 18522.242429523758, 14726.20096519005, -0.038, 0.972, 0.178, 192.0, 0.0, 0.0, 0.0, 0.0, 0.0, 0.0, 0.0, 0.0, 0.0, 1.700951081710054E9, 0.0, 2023-11-25 17:24:41.710
83.0, 48701.05370295688, 66102.02087188016, 9080.060908801664, -8183.130107299103, 23157.837767343255, -32038.543467348038, 18508.630217150476, 14776.402983236669, -0.038, 0.972, 0.178, 192.0, 0.0, 0.0, 0.0, 0.0, 0.0, 0.0, 0.0, 0.0, 0.0, 1.700951081714103E9, 0.0, 2023-11-25 17:24:41.714
84.0, 48665.849705439774, 66081.92665361484, 9066.448696428382, -8200.67622669652, 23062.23935630791, -32290.33586863707, 18492.80518207612, 14714.57805807329, -0.038, 0.972, 0.178, 192.0, 0.0, 0.0, 0.0, 0.0, 0.0, 0.0, 0.0, 0.0, 0.0, 1.700951081719282E9, 0.0, 2023-11-25 17:24:41.719
85.0, 48685.362778349256, 66104.7030812148, 9072.774240109235, -8179.754993886351, 23058.75248417288, -32286.6701825464, 18500.427126935378, 14726.402130890148, -0.038, 0.972, 0.178, 192.0, 0.0, 0.0, 0.0, 0.0, 0.0, 0.0, 0.0, 0.0, 0.0, 1.700951081723066E9, 0.0, 2023-11-25 17:24:41.723
86.0, 48728.702810848095, 66141.69521828834, 9095.170688053453, -8150.653022605542, 23072.543510501804, -32312.687613092377, 18516.85565911003, 14725.195136689561, -0.038, 0.972, 0.178, 192.0, 0.0, 0.0, 0.0, 0.0, 0.0, 0.0, 0.0, 0.0, 0.0, 1.700951081727075E9, 0.0, 2023-11-25 17:24:41.727
87.0, 48708.11685420476, 66100.99269163521, 9085.85001061559, -8176.223418262413, 23155.58024115327, -32056.96130477921, 18517.459156210323, 14800.229942826027, -0.034, 0.974, 0.17200000000000001, 192.0, 254.0, 240.0, 30.0, 112.0, 5.0, 96.0, 0.0, 0.0, 0.0, 1.700951081731094E9, 0.0, 2023-11-25 17:24:41.731
88.0, 48669.64950199718, 66078.7974093911, 9067.74509760679, -8201.90557264156, 23069.03428662232, -32243.307798303107, 18494.928597799375, 14740.215508963527, -0.034, 0.974, 0.17200000000000001, 192.0, 0.0, 0.0, 0.0, 0.0, 0.0, 0.0, 0.0, 0.0, 0.0, 1.7009510817351E9, 0.0, 2023-11-25 17:24:41.735
89.0, 48693.16353716416, 66102.51261025819, 9072.8412953426, -8182.884238110094, 23054.706818426468, -32303.858674032534, 18492.872237309486, 14735.745160072465, -0.034, 0.974, 0.17200000000000001, 192.0, 0.0, 0.0, 0.0, 0.0, 0.0, 0.0, 0.0, 0.0, 0.0, 1.700951081738503E9, 0.0, 2023-11-25 17:24:41.738
90.0, 48734.89424406222, 66143.12572993347, 9089.962731595366, -8159.23609247638, 23054.215080048452, -32328.244427233272, 18494.66037686591, 14718.713130797521, -0.034, 0.974, 0.17200000000000001, 192.0, 0.0, 0.0, 0.0, 0.0, 0.0, 0.0, 0.0, 0.0, 0.0, 1.700951081742139E9, 0.0, 2023-11-25 17:24:41.742
91.0, 48723.8524823013, 66114.89547668642, 9086.453507715882, -8175.709328139941, 23144.091444503243, -32106.87275014791, 18494.012176276705, 14775.866541369742, -0.034, 0.974, 0.17200000000000001, 192.0, 0.0, 0.0, 0.0, 0.0, 0.0, 0.0, 0.0, 0.0, 0.0, 1.70095108174807E9, 0.0, 2023-11-25 17:24:41.748
92.0, 48673.44929855458, 66078.46213322427, 9060.570187636637, -8213.282610569311, 23080.388972805617, -32196.45854192478, 18462.809141017096, 14728.525546613402, -0.034, 0.974, 0.17200000000000001, 192.0, 0.0, 0.0, 0.0, 0.0, 0.0, 0.0, 0.0, 0.0, 0.0, 1.700951081751087E9, 0.0, 2023-11-25 17:24:41.751
93.0, 48684.46870857105, 66100.23273232374, 9065.97930979482, -8195.132994071602, 23048.314219512253, -32333.29592148017, 18468.46413236429, 14711.828793505287, -0.034, 0.974, 0.17200000000000001, 192.0, 0.0, 0.0, 0.0, 0.0, 0.0, 0.0, 0.0, 0.0, 0.0, 1.700951081755147E9, 0.0, 2023-11-25 17:24:41.755
94.0, 48726.31117419138, 66138.72243627578, 9077.17753376693, -8173.541208927776, 23039.79820487478, -32334.25704649175, 18474.588510345046, 14703.648055034644, -0.034, 0.974, 0.17200000000000001, 192.0, 0.0, 0.0, 0.0, 0.0, 0.0, 0.0, 0.0, 0.0, 0.0, 1.700951081761207E9, 0.0, 2023-11-25 17:24:41.761
95.0, 48733.30727020589, 66127.39010183694, 9084.106574548076, -8174.85996185064, 23127.238229183942, -32168.675323566837, 18486.859618051007, 14753.626555636713, -0.034, 0.974, 0.17200000000000001, 192.0, 0.0, 0.0, 0.0, 0.0, 0.0, 0.0, 0.0, 0.0, 0.0, 1.700951081764152E9, 0.0, 2023-11-25 17:24:41.764
96.0, 48676.53383928941, 66074.32706050004, 9051.137751476497, -8219.76461646135, 23091.497789799905, -32135.080651650507, 18456.260079891694, 14732.325343170804, -0.034, 0.974, 0.17200000000000001, 192.0, 0.0, 0.0, 0.0, 0.0, 0.0, 0.0, 0.0, 0.0, 0.0, 1.700951081767178E9, 0.0, 2023-11-25 17:24:41.767
97.0, 48674.879810199716, 66087.31342402857, 9057.373888179527, -8202.442014508488, 23040.334646741707, -32344.65060766347, 18463.099713695017, 14698.797726487843, -0.03, 0.97, 0.178, 192.0, 255.0, 16.0, 30.0, 80.0, 5.0, 144.0, 0.0, 0.0, 0.0, 1.700951081771192E9, 0.0, 2023-11-25 17:24:41.771
98.0, 48713.749493807496, 66130.69816001633, 9070.539065663705, -8174.032947305793, 23041.161661286555, -32314.118124737517, 18476.93544351285, 14705.346787613249, -0.03, 0.97, 0.178, 192.0, 0.0, 0.0, 0.0, 0.0, 0.0, 0.0, 0.0, 0.0, 0.0, 1.700951081774264E9, 0.0, 2023-11-25 17:24:41.774
99.0, 48728.23342421454, 66131.10049141652, 9081.491420446804, -8168.199142002958, 23109.826220253257, -32214.362289233482, 18492.291091953648, 14743.970602032019, -0.03, 0.97, 0.178, 192.0, 0.0, 0.0, 0.0, 0.0, 0.0, 0.0, 0.0, 0.0, 0.0, 1.700951081782241E9, 0.0, 2023-11-25 17:24:41.782
100.0, 48678.67960675712, 66072.36010698797, 9052.07652474362, -8213.930811158516, 23111.793173765323, -32081.011781813122, 18466.877158507963, 14753.626555636713, -0.03, 0.97, 0.178, 192.0, 0.0, 0.0, 0.0, 0.0, 0.0, 0.0, 0.0, 0.0, 0.0, 1.700951081785262E9, 0.0, 2023-11-25 17:24:41.785
101.0, 48671.70586248706, 66080.60790069198, 9056.949205034876, -8206.95706688846, 23038.300637996275, -32341.16373552844, 18472.55450159961, 14705.123270168695, -0.03, 0.97, 0.178, 192.0, 0.0, 0.0, 0.0, 0.0, 0.0, 0.0, 0.0, 0.0, 0.0, 1.700951081788454E9, 0.0, 2023-11-25 17:24:41.788
102.0, 48710.88847051722, 66119.34347383303, 9067.678042373425, -8183.510086954843, 23035.618428661637, -32298.874235019, 18486.434934906356, 14721.551802343345, -0.03, 0.97, 0.178, 192.0, 0.0, 0.0, 0.0, 0.0, 0.0, 0.0, 0.0, 0.0, 0.0, 1.700951081792552E9, 0.0, 2023-11-25 17:24:41.792
103.0, 48743.879645333254, 66141.42699735487, 9092.309664763174, -8163.169999500514, 23085.7980949638, -32262.418539812392, 18512.251199752238, 14749.11150325674, -0.03, 0.97, 0.178, 192.0, 0.0, 0.0, 0.0, 0.0, 0.0, 0.0, 0.0, 0.0, 0.0, 1.700951081795826E9, 0.0, 2023-11-25 17:24:41.795
104.0, 48692.40357785268, 66078.21626403526, 9063.02887952672, -8211.315657057245, 23119.795098280323, -32047.662979085802, 18493.5651413876, 14789.389346765203, -0.03, 0.97, 0.178, 192.0, 0.0, 0.0, 0.0, 0.0, 0.0, 0.0, 0.0, 0.0, 0.0, 1.700951081798249E9, 0.0, 2023-11-25 17:24:41.798
105.0, 48666.63201649571, 66075.17642678934, 9062.134809748508, -8212.612058235653, 23033.495012938383, -32321.6283108745, 18491.777001831175, 14733.219412949016, -0.03, 0.97, 0.178, 192.0, 0.0, 0.0, 0.0, 0.0, 0.0, 0.0, 0.0, 0.0, 0.0, 1.700951081802338E9, 0.0, 2023-11-25 17:24:41.802
106.0, 48693.52116507544, 66106.04418588211, 9065.778144094724, -8191.959046358949, 23028.599980902673, -32291.162883181918, 18492.46990590929, 14739.366142674226, -0.03, 0.97, 0.178, 192.0, 0.0, 0.0, 0.0, 0.0, 0.0, 0.0, 0.0, 0.0, 0.0, 1.700951081807267E9, 0.0, 2023-11-25 17:24:41.807
107.0, 48734.715430106575, 66143.52806133367, 9088.688682161413, -8168.556769914243, 23057.52313822784, -32303.9257292659, 18505.769193860197, 14737.935631029086, -0.042, 0.98, 0.176, 192.0, 254.0, 176.0, 30.0, 160.0, 5.0, 128.0, 0.0, 0.0, 0.0, 1.700951081811317E9, 0.0, 2023-11-25 17:24:41.811
108.0, 48706.127548948236, 66099.15984858989, 9076.775202366734, -8195.62473244962, 23135.53072637686, -32044.869011028888, 18499.734222857263, 14800.7440329485, -0.042, 0.98, 0.176, 192.0, 0.0, 0.0, 0.0, 0.0, 0.0, 0.0, 0.0, 0.0, 0.0, 1.700951081815265E9, 0.0, 2023-11-25 17:24:41.815
109.0, 48670.610627008755, 66078.73035415773, 9063.967652793843, -8213.997866391881, 23041.27342000883, -32284.949098223344, 18478.902397024918, 14736.415712406126, -0.042, 0.98, 0.176, 192.0, 0.0, 0.0, 0.0, 0.0, 0.0, 0.0, 0.0, 0.0, 0.0, 1.700951081818306E9, 0.0, 2023-11-25 17:24:41.818
110.0, 48702.350104135294, 66112.4591365408, 9076.931664577922, -8189.992092846882, 23039.015893818843, -32294.11331345002, 18483.70802208281, 14738.092093240273, -0.042, 0.98, 0.176, 192.0, 0.0, 0.0, 0.0, 0.0, 0.0, 0.0, 0.0, 0.0, 0.0, 1.700951081822308E9, 0.0, 2023-11-25 17:24:41.822
111.0, 48745.42191570067, 66156.20150043983, 9098.903429377488, -8164.622862890109, 23050.303524768773, -32317.06855500562, 18489.541827385645, 14728.68200882459, -0.042, 0.98, 0.176, 192.0, 0.0, 0.0, 0.0, 0.0, 0.0, 0.0, 0.0, 0.0, 0.0, 1.700951081828341E9, 0.0, 2023-11-25 17:24:41.828
112.0, 48730.75917133799, 66128.48533731524, 9095.125984564542, -8182.4372032209885, 23144.29261020334, -32061.699874603735, 18490.27943495267, 14795.6925387016, -0.042, 0.98, 0.176, 192.0, 0.0, 0.0, 0.0, 0.0, 0.0, 0.0, 0.0, 0.0, 0.0, 1.700951081831356E9, 0.0, 2023-11-25 17:24:41.831
113.0, 48687.35208360578, 66101.93146490234, 9072.46131568686, -8212.075616368726, 23063.938088886513, -32231.170801063872, 18461.959774727795, 14731.118348970218, -0.042, 0.98, 0.176, 192.0, 0.0, 0.0, 0.0, 0.0, 0.0, 0.0, 0.0, 0.0, 0.0, 1.700951081834409E9, 0.0, 2023-11-25 17:24:41.834
114.0, 48708.988572238515, 66130.34053210504, 9081.759641380268, -8189.09802306867, 23050.594097446694, -32305.467999633314, 18468.575891086566, 14725.351598900748, -0.042, 0.98, 0.176, 192.0, 0.0, 0.0, 0.0, 0.0, 0.0, 0.0, 0.0, 0.0, 0.0, 1.70095108183948E9, 0.0, 2023-11-25 17:24:41.839
115.0, 48751.143962281225, 66170.95365178034, 9099.305760777685, -8162.007708788838, 23051.666981180548, -32325.696328365368, 18480.04233599214, 14715.181555173584, -0.042, 0.98, 0.176, 192.0, 0.0, 0.0, 0.0, 0.0, 0.0, 0.0, 0.0, 0.0, 0.0, 1.700951081844429E9, 0.0, 2023-11-25 17:24:41.844
116.0, 48739.185778997635, 66135.36967460749, 9099.171650310953, -8174.077650794703, 23142.95150553602, -32108.325613537505, 18490.547655886134, 14773.631366924212, -0.042, 0.98, 0.176, 192.0, 0.0, 0.0, 0.0, 0.0, 0.0, 0.0, 0.0, 0.0, 0.0, 1.700951081847373E9, 0.0, 2023-11-25 17:24:41.847
117.0, 48680.11011840226, 66085.14530481641, 9066.716917361846, -8218.19999434948, 23079.584310005226, -32174.397370147395, 18462.965603228284, 14730.023113491907, -0.044, 0.974, 0.184, 192.0, 254.0, 160.0, 30.0, 112.0, 5.0, 192.0, 0.0, 0.0, 0.0, 1.700951081851451E9, 0.0, 2023-11-25 17:24:41.851
118.0, 48684.13343240422, 66102.64672072491, 9069.242664485297, -8202.598476719675, 23043.665056665548, -32329.093793522574, 18464.150245684417, 14707.045520191852, -0.044, 0.974, 0.184, 192.0, 0.0, 0.0, 0.0, 0.0, 0.0, 0.0, 0.0, 0.0, 0.0, 1.70095108185444E9, 0.0, 2023-11-25 17:24:41.854
119.0, 48730.22272947106, 66149.29481140313, 9088.129888550031, -8169.070860036714, 23044.9391060995, -32324.73520335379, 18476.84603653503, 14704.944456213052, -0.044, 0.974, 0.184, 192.0, 0.0, 0.0, 0.0, 0.0, 0.0, 0.0, 0.0, 0.0, 0.0, 1.700951081858452E9, 0.0, 2023-11-25 17:24:41.858
120.0, 48731.563834138375, 66137.33662811955, 9095.03657758672, -8171.104868782148, 23126.858249528203, -32168.384750888916, 18492.581664631565, 14760.309727228849, -0.044, 0.974, 0.184, 192.0, 0.0, 0.0, 0.0, 0.0, 0.0, 0.0, 0.0, 0.0, 0.0, 1.700951081862431E9, 0.0, 2023-11-25 17:24:41.862
121.0, 48681.96531319205, 66088.56512171807, 9065.308757461162, -8216.747130959884, 23102.47249632746, -32121.513142766136, 18467.21243467479, 14748.30684045635, -0.044, 0.974, 0.184, 192.0, 0.0, 0.0, 0.0, 0.0, 0.0, 0.0, 0.0, 0.0, 0.0, 1.700951081867519E9, 0.0, 2023-11-25 17:24:41.867
122.0, 48680.78067073592, 66099.58453173454, 9067.40982143996, -8207.202936077469, 23042.770986887335, -32341.54371518418, 18466.43012361886, 14710.554744071334, -0.044, 0.974, 0.184, 192.0, 0.0, 0.0, 0.0, 0.0, 0.0, 0.0, 0.0, 0.0, 0.0, 1.700951081870473E9, 0.0, 2023-11-25 17:24:41.870
123.0, 48723.71837183456, 66143.19278516684, 9083.927760592433, -8176.916322340528, 23037.495975195885, -32309.983052013285, 18483.015118004696, 14719.808366275833, -0.044, 0.974, 0.184, 192.0, 0.0, 0.0, 0.0, 0.0, 0.0, 0.0, 0.0, 0.0, 0.0, 1.700951081873534E9, 0.0, 2023-11-25 17:24:41.873
124.0, 48748.148828524216, 66158.21315744081, 9109.207583571386, -8157.09032500867, 23108.149839419108, -32218.385603235438, 18513.90522884193, 14769.675108155621, -0.044, 0.974, 0.184, 192.0, 0.0, 0.0, 0.0, 0.0, 0.0, 0.0, 0.0, 0.0, 0.0, 1.700951081878468E9, 0.0, 2023-11-25 17:24:41.878
125.0, 48698.3938453667, 66105.32893005955, 9086.922894349444, -8198.396348762077, 23125.740662305434, -32057.520098390592, 18497.923731556384, 14795.469021257046, -0.044, 0.974, 0.184, 192.0, 0.0, 0.0, 0.0, 0.0, 0.0, 0.0, 0.0, 0.0, 0.0, 1.700951081882497E9, 0.0, 2023-11-25 17:24:41.882
126.0, 48678.500792801475, 66104.16663934787, 9086.386452482517, -8196.563505716742, 23047.75542590087, -32318.186142228384, 18495.509743155213, 14741.891889797675, -0.044, 0.974, 0.184, 192.0, 0.0, 0.0, 0.0, 0.0, 0.0, 0.0, 0.0, 0.0, 0.0, 1.700951081886515E9, 0.0, 2023-11-25 17:24:41.886
127.0, 48708.65329607169, 66130.54169780514, 9090.521525206748, -8177.877447352105, 23040.0887775527, -32282.646868544445, 18499.71187111281, 14749.11150325674, -0.044, 0.972, 0.186, 192.0, 254.0, 160.0, 30.0, 96.0, 5.0, 208.0, 0.0, 0.0, 0.0, 1.700951081890531E9, 0.0, 2023-11-25 17:24:41.890
128.0, 48749.333470980346, 66161.00712549772, 9118.304743564695, -8151.100057494647, 23093.509446800883, -32261.882097945465, 18523.538830702168, 14769.630404666712, -0.044, 0.972, 0.186, 192.0, 0.0, 0.0, 0.0, 0.0, 0.0, 0.0, 0.0, 0.0, 0.0, 1.700951081895496E9, 0.0, 2023-11-25 17:24:41.895
129.0, 48709.279144916436, 66110.31336907308, 9094.32132176415, -8190.014444591337, 23140.649275857126, -32031.52501958907, 18509.81485960661, 14810.154117364184, -0.044, 0.972, 0.186, 192.0, 0.0, 0.0, 0.0, 0.0, 0.0, 0.0, 0.0, 0.0, 0.0, 1.700951081898536E9, 0.0, 2023-11-25 17:24:41.898
130.0, 48679.39486257969, 66103.02670038065, 9083.100746047587, -8198.4857557399, 23046.950763100478, -32304.17159845491, 18497.588455389556, 14744.685857854589, -0.044, 0.972, 0.186, 192.0, 0.0, 0.0, 0.0, 0.0, 0.0, 0.0, 0.0, 0.0, 0.0, 1.7009510819016E9, 0.0, 2023-11-25 17:24:41.901
131.0, 48704.07118845835, 66128.1053576595, 9083.637187914514, -8180.336139242189, 23042.770986887335, -32281.842205744055, 18502.505839169724, 14754.6323841372, -0.044, 0.972, 0.186, 192.0, 0.0, 0.0, 0.0, 0.0, 0.0, 0.0, 0.0, 0.0, 0.0, 1.700951081906619E9, 0.0, 2023-11-25 17:24:41.906
132.0, 48741.577415654356, 66155.24037542824, 9097.919952621454, -8161.046583777259, 23062.395818519097, -32298.76247629672, 18506.842077594054, 14747.010439277941, -0.044, 0.972, 0.186, 192.0, 0.0, 0.0, 0.0, 0.0, 0.0, 0.0, 0.0, 0.0, 0.0, 1.700951081910634E9, 0.0, 2023-11-25 17:24:41.910
133.0, 48708.921517005154, 66105.5077440152, 9075.277635488228, -8198.753976673363, 23133.206144953507, -32049.361711664405, 18488.84892330753, 14798.084175358317, -0.044, 0.972, 0.186, 192.0, 0.0, 0.0, 0.0, 0.0, 0.0, 0.0, 0.0, 0.0, 0.0, 1.700951081914563E9, 0.0, 2023-11-25 17:24:41.914
134.0, 48679.841897468796, 66096.85761891099, 9064.727612105324, -8213.774348947329, 23049.431806735018, -32288.033638958175, 18471.12398995447, 14729.86665128072, -0.044, 0.972, 0.186, 192.0, 0.0, 0.0, 0.0, 0.0, 0.0, 0.0, 0.0, 0.0, 0.0, 1.700951081920593E9, 0.0, 2023-11-25 17:24:41.920
135.0, 48705.88167975923, 66125.60196228052, 9071.187266252908, -8192.04845333677, 23045.788472388802, -32303.188121698873, 18471.95100449932, 14730.671314081112, -0.044, 0.972, 0.186, 192.0, 0.0, 0.0, 0.0, 0.0, 0.0, 0.0, 0.0, 0.0, 0.0, 1.700951081923607E9, 0.0, 2023-11-25 17:24:41.923
136.0, 48754.11674429378, 66169.92547153539, 9094.56719095316, -8161.85124657765, 23057.433731250017, -32331.26191273474, 18477.31542316859, 14716.612066818723, -0.044, 0.972, 0.186, 192.0, 0.0, 0.0, 0.0, 0.0, 0.0, 0.0, 0.0, 0.0, 0.0, 1.700951081926646E9, 0.0, 2023-11-25 17:24:41.926
137.0, 48742.49383717702, 66141.44934909932, 9091.70616766288, -8179.039738063781, 23148.606496883214, -32078.910717834322, 18476.600167346023, 14777.431163481613, -0.036000000000000004, 0.964, 0.182, 192.0, 254.0, 224.0, 30.0, 32.0, 5.0, 176.0, 0.0, 0.0, 0.0, 1.700951081929624E9, 0.0, 2023-11-25 17:24:41.929
138.0, 48698.840880255804, 66109.48635452824, 9070.963748808355, -8206.331218043711, 23073.057600624277, -32231.595484208523, 18452.683800778843, 14719.763662786921, -0.036000000000000004, 0.964, 0.182, 192.0, 0.0, 0.0, 0.0, 0.0, 0.0, 0.0, 0.0, 0.0, 0.0, 1.700951081934679E9, 0.0, 2023-11-25 17:24:41.934
139.0, 48715.82820604184, 66129.04413092663, 9077.803382611679, -8186.393461989577, 23053.119844570145, -32311.54767412516, 18462.183292172347, 14719.607200575734, -0.036000000000000004, 0.964, 0.182, 192.0, 0.0, 0.0, 0.0, 0.0, 0.0, 0.0, 0.0, 0.0, 0.0, 1.700951081938642E9, 0.0, 2023-11-25 17:24:41.938
140.0, 48760.732860652555, 66173.99348902625, 9100.490403233815, -8155.704516852441, 23053.23160329242, -32326.76921209922, 18481.674013337375, 14717.997874974952, -0.036000000000000004, 0.964, 0.182, 192.0, 0.0, 0.0, 0.0, 0.0, 0.0, 0.0, 0.0, 0.0, 0.0, 1.700951081942658E9, 0.0, 2023-11-25 17:24:41.942
141.0, 48759.16823854068, 66155.86622427299, 9110.32517079415, -8158.878464565095, 23150.282877717364, -32114.181770584797, 18502.595246147543, 14794.239675312005, -0.036000000000000004, 0.964, 0.182, 192.0, 0.0, 0.0, 0.0, 0.0, 0.0, 0.0, 0.0, 0.0, 0.0, 1.700951081946693E9, 0.0, 2023-11-25 17:24:41.946
142.0, 48704.47351985855, 66105.7089097153, 9079.770336123745, -8200.72093018543, 23091.341327588718, -32156.717140283246, 18474.141475455937, 14761.002631306963, -0.036000000000000004, 0.964, 0.182, 192.0, 0.0, 0.0, 0.0, 0.0, 0.0, 0.0, 0.0, 0.0, 0.0, 1.700951081950657E9, 0.0, 2023-11-25 17:24:41.950
143.0, 48713.1459967072, 66121.89157270093, 9086.02882457123, -8184.694729410974, 23051.421111991538, -32319.63900561798, 18475.48258012326, 14731.051293736851, -0.036000000000000004, 0.964, 0.182, 192.0, 0.0, 0.0, 0.0, 0.0, 0.0, 0.0, 0.0, 0.0, 0.0, 1.700951081953668E9, 0.0, 2023-11-25 17:24:41.953
144.0, 48761.64928217522, 66169.03140175718, 9105.407787013983, -8152.687031350974, 23053.499824225884, -32310.944177024863, 18488.312481440604, 14724.39047388917, -0.036000000000000004, 0.964, 0.182, 192.0, 0.0, 0.0, 0.0, 0.0, 0.0, 0.0, 0.0, 0.0, 0.0, 1.700951081957646E9, 0.0, 2023-11-25 17:24:41.957
145.0, 48773.80863115891, 66165.1645499664, 9120.226993587852, -8145.46741789191, 23137.274162444373, -32160.9416199853, 18512.988807319263, 14782.527361217424, -0.036000000000000004, 0.964, 0.182, 192.0, 0.0, 0.0, 0.0, 0.0, 0.0, 0.0, 0.0, 0.0, 0.0, 1.700951081961736E9, 0.0, 2023-11-25 17:24:41.961
146.0, 48716.72227582005, 66110.46983128427, 9087.235818771818, -8192.3837295036, 23113.178981921552, -32092.053543574042, 18486.256120950715, 14777.811143137355, -0.036000000000000004, 0.964, 0.182, 192.0, 0.0, 0.0, 0.0, 0.0, 0.0, 0.0, 0.0, 0.0, 0.0, 1.700951081966665E9, 0.0, 2023-11-25 17:24:41.966
147.0, 48709.39090363871, 66121.35513083401, 9093.471955474848, -8179.397365975066, 23054.32683877073, -32317.73910733928, 18495.576798388578, 14745.401113677159, -0.04, 0.966, 0.186, 192.0, 254.0, 192.0, 30.0, 48.0, 5.0, 208.0, 0.0, 0.0, 0.0, 1.700951081970744E9, 0.0, 2023-11-25 17:24:41.970
148.0, 48744.66195638919, 66155.35213415053, 9106.525374236748, -8155.525702896799, 23049.878841624122, -32281.551633066138, 18515.112223042517, 14758.074552783317, -0.04, 0.966, 0.186, 192.0, 0.0, 0.0, 0.0, 0.0, 0.0, 0.0, 0.0, 0.0, 0.0, 1.700951081974716E9, 0.0, 2023-11-25 17:24:41.974
149.0, 48759.6599769187, 66156.08974171754, 9118.528261009247, -8148.797827815752, 23106.607569051692, -32207.343841474518, 18536.65930469743, 14790.149306076682, -0.04, 0.966, 0.186, 192.0, 0.0, 0.0, 0.0, 0.0, 0.0, 0.0, 0.0, 0.0, 0.0, 1.700951081978726E9, 0.0, 2023-11-25 17:24:41.978
150.0, 48707.08867395981, 66098.22107532276, 9087.36992923855, -8194.395386504577, 23123.706653560002, -32046.21011569621, 18518.017949821708, 14813.26100984347, -0.04, 0.966, 0.186, 192.0, 0.0, 0.0, 0.0, 0.0, 0.0, 0.0, 0.0, 0.0, 0.0, 1.700951081982758E9, 0.0, 2023-11-25 17:24:41.982
151.0, 48680.73596724701, 66095.96354913278, 9076.350519222084, -8200.519764485332, 23035.439614705996, -32319.661357362435, 18512.966455574806, 14760.287375484393, -0.04, 0.966, 0.186, 192.0, 0.0, 0.0, 0.0, 0.0, 0.0, 0.0, 0.0, 0.0, 0.0, 1.700951081986702E9, 0.0, 2023-11-25 17:24:41.986
152.0, 48710.50849086148, 66130.63110478295, 9080.977330324333, -8176.536342684787, 23029.851678592167, -32281.998667955242, 18520.94602834535, 14772.44672446808, -0.04, 0.966, 0.186, 192.0, 0.0, 0.0, 0.0, 0.0, 0.0, 0.0, 0.0, 0.0, 0.0, 1.700951081991789E9, 0.0, 2023-11-25 17:24:41.991
153.0, 48744.572549411365, 66155.53094810617, 9102.256191045784, -8152.530569139787, 23074.108132613677, -32264.00551366872, 18539.877955898995, 14786.26010254146, -0.04, 0.966, 0.186, 192.0, 0.0, 0.0, 0.0, 0.0, 0.0, 0.0, 0.0, 0.0, 0.0, 1.700951081994827E9, 0.0, 2023-11-25 17:24:41.994
154.0, 48707.73687454902, 66103.80901143659, 9082.31843499165, -8188.539229457288, 23130.836860041247, -32028.462830598695, 18521.504821956732, 14833.26582113097, -0.04, 0.966, 0.186, 192.0, 0.0, 0.0, 0.0, 0.0, 0.0, 0.0, 0.0, 0.0, 0.0, 1.700951081998858E9, 0.0, 2023-11-25 17:24:41.998
155.0, 48676.422080567136, 66094.04129910962, 9069.846161585589, -8201.05620635226, 23037.384216473605, -32298.40484838544, 18498.504876912222, 14761.740238873988, -0.04, 0.966, 0.186, 192.0, 0.0, 0.0, 0.0, 0.0, 0.0, 0.0, 0.0, 0.0, 0.0, 1.700951082003907E9, 0.0, 2023-11-25 17:24:42.003
156.0, 48704.62998206973, 66124.08204365755, 9074.718841876846, -8180.157325286547, 23034.41143446105, -32282.088074933064, 18495.085060010562, 14758.767456861433, -0.04, 0.966, 0.186, 192.0, 0.0, 0.0, 0.0, 0.0, 0.0, 0.0, 0.0, 0.0, 0.0, 1.700951082007905E9, 0.0, 2023-11-25 17:24:42.007
157.0, 48757.447154217625, 66170.97600352479, 9110.593391727614, -8142.18171145698, 23071.314164556763, -32302.11523796502, 18514.642836408955, 14757.53811091639, -0.038, 0.97, 0.192, 192.0, 254.0, 208.0, 30.0, 80.0, 6.0, 0.0, 0.0, 0.0, 0.0, 1.700951082010936E9, 0.0, 2023-11-25 17:24:42.010
158.0, 48724.433627657134, 66117.64474125442, 9092.756699652278, -8178.995034574871, 23147.24304047144, -32035.883609757857, 18498.259007723216, 14811.674035987144, -0.038, 0.97, 0.192, 192.0, 0.0, 0.0, 0.0, 0.0, 0.0, 0.0, 0.0, 0.0, 0.0, 1.700951082014485E9, 0.0, 2023-11-25 17:24:42.014
159.0, 48686.63682778321, 66094.57774097654, 9077.803382611679, -8201.57029647473, 23055.8914608826, -32263.267906101693, 18473.917958011385, 14740.506081641446, -0.038, 0.97, 0.192, 192.0, 0.0, 0.0, 0.0, 0.0, 0.0, 0.0, 0.0, 0.0, 0.0, 1.700951082017969E9, 0.0, 2023-11-25 17:24:42.017
160.0, 48717.70575257609, 66127.72537800377, 9093.583714197126, -8175.6869763954855, 23054.23743179291, -32287.787769769166, 18484.445629649836, 14749.82675907931, -0.038, 0.97, 0.192, 192.0, 0.0, 0.0, 0.0, 0.0, 0.0, 0.0, 0.0, 0.0, 0.0, 1.700951082021871E9, 0.0, 2023-11-25 17:24:42.021
161.0, 48772.62398870278, 66183.09064901956, 9130.24057510383, -8137.174920698992, 23073.124655857642, -32309.983052013285, 18507.982016561273, 14750.87729106871, -0.038, 0.97, 0.192, 192.0, 0.0, 0.0, 0.0, 0.0, 0.0, 0.0, 0.0, 0.0, 0.0, 1.700951082026918E9, 0.0, 2023-11-25 17:24:42.026
162.0, 48750.18283726965, 66144.55624157861, 9123.959734911889, -8162.968833800416, 23159.715313877503, -32061.58811588146, 18504.539847915155, 14810.221172597549, -0.038, 0.97, 0.192, 192.0, 0.0, 0.0, 0.0, 0.0, 0.0, 0.0, 0.0, 0.0, 0.0, 1.700951082030915E9, 0.0, 2023-11-25 17:24:42.030
163.0, 48702.32775239083, 66111.2521423402, 9101.18330731193, -8197.815203406239, 23077.7961704488, -32204.66163213988, 18473.068591722084, 14747.546881144868, -0.038, 0.97, 0.192, 192.0, 0.0, 0.0, 0.0, 0.0, 0.0, 0.0, 0.0, 0.0, 0.0, 1.700951082034995E9, 0.0, 2023-11-25 17:24:42.034
164.0, 48717.3481246648, 66132.7545205062, 9107.598257970603, -8177.341005485178, 23055.62323994914, -32301.86936877601, 18483.75272557172, 14743.635325865189, -0.038, 0.97, 0.192, 192.0, 0.0, 0.0, 0.0, 0.0, 0.0, 0.0, 0.0, 0.0, 0.0, 1.700951082038131E9, 0.0, 2023-11-25 17:24:42.038
165.0, 48754.34026173833, 66169.85841630201, 9117.969467397865, -8156.933862797483, 23046.391969489094, -32319.54959864016, 18492.000519275727, 14734.471110638513, -0.038, 0.97, 0.192, 192.0, 0.0, 0.0, 0.0, 0.0, 0.0, 0.0, 0.0, 0.0, 0.0, 1.700951082042014E9, 0.0, 2023-11-25 17:24:42.042
166.0, 48756.88836060624, 66151.35117189302, 9126.686647735434, -8160.756011099341, 23141.655104357615, -32119.903817165356, 18510.463060195812, 14799.805259681376, -0.038, 0.97, 0.192, 192.0, 0.0, 0.0, 0.0, 0.0, 0.0, 0.0, 0.0, 0.0, 0.0, 1.70095108204591E9, 0.0, 2023-11-25 17:24:42.045
167.0, 48706.44047337061, 66108.92756091685, 9099.462222988872, -8198.530459228808, 23095.29758635731, -32143.730776754714, 18487.910150040407, 14773.363145990748, -0.048, 0.968, 0.196, 192.0, 254.0, 128.0, 30.0, 64.0, 6.0, 32.0, 0.0, 0.0, 0.0, 1.700951082049984E9, 0.0, 2023-11-25 17:24:42.049
168.0, 48711.849595528794, 66124.86435471349, 9100.289237533718, -8185.365281744634, 23051.8904986251, -32318.96845328432, 18493.922769298886, 14745.289354954883, -0.048, 0.968, 0.196, 192.0, 0.0, 0.0, 0.0, 0.0, 0.0, 0.0, 0.0, 0.0, 0.0, 1.700951082055028E9, 0.0, 2023-11-25 17:24:42.055
169.0, 48749.400526213714, 66161.90119527593, 9108.961714382376, -8161.895950066561, 23043.41918747654, -32306.25031068925, 18501.164734502403, 14738.96381127403, -0.048, 0.968, 0.196, 192.0, 0.0, 0.0, 0.0, 0.0, 0.0, 0.0, 0.0, 0.0, 0.0, 1.700951082058977E9, 0.0, 2023-11-25 17:24:42.058
170.0, 48757.76007864, 66158.36961965199, 9117.298915064206, -8158.029098275793, 23120.39859538062, -32175.872585281442, 18520.67780741189, 14787.847076397788, -0.048, 0.968, 0.196, 192.0, 0.0, 0.0, 0.0, 0.0, 0.0, 0.0, 0.0, 0.0, 0.0, 1.70095108206304E9, 0.0, 2023-11-25 17:24:42.063
171.0, 48697.49977558849, 66106.1559446044, 9080.217371012852, -8206.241811065891, 23102.941882961022, -32090.10894180643, 18496.04618502214, 14786.841247897299, -0.048, 0.968, 0.196, 192.0, 0.0, 0.0, 0.0, 0.0, 0.0, 0.0, 0.0, 0.0, 0.0, 1.700951082066447E9, 0.0, 2023-11-25 17:24:42.066
172.0, 48685.742758005, 66116.84007845403, 9081.42436521344, -8197.926962128517, 23037.719492640437, -32327.439764432882, 18505.03158629317, 14747.949212545063, -0.048, 0.968, 0.196, 192.0, 0.0, 0.0, 0.0, 0.0, 0.0, 0.0, 0.0, 0.0, 0.0, 1.700951082070486E9, 0.0, 2023-11-25 17:24:42.070
173.0, 48721.3490869223, 66155.10626496152, 9094.388376997516, -8171.931883326994, 23035.0372833058, -32292.235766915772, 18517.257990510225, 14755.079419026306, -0.048, 0.968, 0.196, 192.0, 0.0, 0.0, 0.0, 0.0, 0.0, 0.0, 0.0, 0.0, 0.0, 1.700951082074042E9, 0.0, 2023-11-25 17:24:42.074
174.0, 48745.757191867495, 66165.65628834443, 9112.023903372754, -8156.620938375108, 23095.811676479778, -32224.979367849755, 18536.70400818634, 14787.377689764226, -0.048, 0.968, 0.196, 192.0, 0.0, 0.0, 0.0, 0.0, 0.0, 0.0, 0.0, 0.0, 0.0, 1.700951082078086E9, 0.0, 2023-11-25 17:24:42.078
175.0, 48700.56196457887, 66111.0062731512, 9085.805307126679, -8199.245715051378, 23120.130374447155, -32040.689234815745, 18516.453327709834, 14815.02679765544, -0.048, 0.968, 0.196, 192.0, 0.0, 0.0, 0.0, 0.0, 0.0, 0.0, 0.0, 0.0, 0.0, 1.700951082082119E9, 0.0, 2023-11-25 17:24:42.082
176.0, 48687.6426562837, 66119.16465987738, 9090.02978682873, -8191.66847368103, 23043.061559565256, -32310.58654911358, 18515.223981764793, 14760.041506295385, -0.048, 0.968, 0.196, 192.0, 0.0, 0.0, 0.0, 0.0, 0.0, 0.0, 0.0, 0.0, 0.0, 1.70095108209053E9, 0.0, 2023-11-25 17:24:42.090
177.0, 48722.98076426754, 66154.03338122767, 9100.222182300351, -8168.087383280681, 23041.45223396447, -32272.499176561738, 18518.353225988536, 14767.328174987815, -0.044, 0.97, 0.19, 192.0, 254.0, 160.0, 30.0, 80.0, 5.0, 240.0, 0.0, 0.0, 0.0, 1.700951082093073E9, 0.0, 2023-11-25 17:24:42.093
178.0, 48763.862104876294, 66187.29277697716, 9124.227955845352, -8143.276946935291, 23081.28304258383, -32266.799481725633, 18531.607810450532, 14778.21347453755, -0.044, 0.97, 0.19, 192.0, 0.0, 0.0, 0.0, 0.0, 0.0, 0.0, 0.0, 0.0, 0.0, 1.700951082096073E9, 0.0, 2023-11-25 17:24:42.096
179.0, 48722.31021193388, 66132.9556862063, 9098.098766577097, -8185.789964889284, 23136.42479615507, -32024.215999152184, 18505.322158971092, 14819.139518635217, -0.044, 0.97, 0.19, 192.0, 0.0, 0.0, 0.0, 0.0, 0.0, 0.0, 0.0, 0.0, 0.0, 1.700951082100196E9, 0.0, 2023-11-25 17:24:42.100
180.0, 48697.43272035512, 66127.23363962575, 9094.455432230883, -8191.221438791924, 23051.689332925005, -32291.58756632657, 18491.106449497514, 14749.782055590398, -0.044, 0.97, 0.19, 192.0, 0.0, 0.0, 0.0, 0.0, 0.0, 0.0, 0.0, 0.0, 0.0, 1.70095108210315E9, 0.0, 2023-11-25 17:24:42.103
181.0, 48722.73489507853, 66152.35700039352, 9098.635208444024, -8172.669490894019, 23045.52025145534, -32276.00840044122, 18490.122972741483, 14753.894776570176, -0.044, 0.97, 0.19, 192.0, 0.0, 0.0, 0.0, 0.0, 0.0, 0.0, 0.0, 0.0, 0.0, 1.700951082108152E9, 0.0, 2023-11-25 17:24:42.108
182.0, 48767.84071538934, 66192.38897471297, 9125.412598301482, -8143.388705657567, 23066.307373798772, -32299.477732119292, 18503.936350814864, 14748.865634067732, -0.044, 0.97, 0.19, 192.0, 0.0, 0.0, 0.0, 0.0, 0.0, 0.0, 0.0, 0.0, 0.0, 1.700951082111167E9, 0.0, 2023-11-25 17:24:42.111
183.0, 48740.728049365054, 66147.52902359117, 9115.019037129765, -8169.2943774812675, 23150.305229461817, -32028.52988583206, 18507.80320260563, 14821.464100058569, -0.044, 0.97, 0.19, 192.0, 0.0, 0.0, 0.0, 0.0, 0.0, 0.0, 0.0, 0.0, 0.0, 1.700951082115217E9, 0.0, 2023-11-25 17:24:42.115
184.0, 48687.82147023934, 66111.76623246267, 9085.402975726483, -8205.504203498866, 23047.643667178592, -32242.860763414, 18480.779943559166, 14751.838416080287, -0.044, 0.97, 0.19, 192.0, 0.0, 0.0, 0.0, 0.0, 0.0, 0.0, 0.0, 0.0, 0.0, 1.700951082123515E9, 0.0, 2023-11-25 17:24:42.123
185.0, 48706.37341813725, 66136.48726183025, 9092.779051396734, -8185.3205782557225, 23036.043111806288, -32285.10556043453, 18493.74395534324, 14756.532282415901, -0.044, 0.97, 0.19, 192.0, 0.0, 0.0, 0.0, 0.0, 0.0, 0.0, 0.0, 0.0, 0.0, 1.700951082126167E9, 0.0, 2023-11-25 17:24:42.126
186.0, 48755.770773383476, 66182.73302110827, 9118.930592409444, -8152.239996461868, 23043.106263054164, -32310.74301132477, 18520.409586478425, 14755.749971359966, -0.048, 0.974, 0.186, 192.0, 254.0, 128.0, 30.0, 112.0, 5.0, 208.0, 0.0, 0.0, 0.0, 1.700951082129186E9, 0.0, 2023-11-25 17:24:42.129
187.0, 48742.73970636603, 66142.8128055111, 9109.65461846049, -8173.496505438866, 23131.10508097471, -32067.77954909558, 18528.210345293326, 14823.02872217044, -0.048, 0.974, 0.186, 192.0, 0.0, 0.0, 0.0, 0.0, 0.0, 0.0, 0.0, 0.0, 0.0, 1.700951082132263E9, 0.0, 2023-11-25 17:24:42.132
188.0, 48691.665970285656, 66101.88676141344, 9076.216408755352, -8213.215555335946, 23052.583402703214, -32191.630565122436, 18502.684653125365, 14768.11048604375, -0.048, 0.974, 0.186, 192.0, 0.0, 0.0, 0.0, 0.0, 0.0, 0.0, 0.0, 0.0, 0.0, 1.700951082136266E9, 0.0, 2023-11-25 17:24:42.136
189.0, 48700.249040156494, 66117.71179648778, 9073.824772098635, -8200.00567436286, 23018.675806364514, -32306.563235111626, 18507.423222949892, 14750.318497457327, -0.048, 0.974, 0.186, 192.0, 0.0, 0.0, 0.0, 0.0, 0.0, 0.0, 0.0, 0.0, 0.0, 1.70095108213924E9, 0.0, 2023-11-25 17:24:42.139
190.0, 48748.39469771322, 66159.17428245238, 9087.638150172013, -8171.887179838083, 23013.490201650882, -32320.510723651736, 18514.08404279757, 14737.130968228696, -0.048, 0.974, 0.186, 192.0, 0.0, 0.0, 0.0, 0.0, 0.0, 0.0, 0.0, 0.0, 0.0, 1.70095108214218E9, 0.0, 2023-11-25 17:24:42.142
191.0, 48751.278072747955, 66138.90125023141, 9083.592484425602, -8182.414851476533, 23096.929263702546, -32136.511163295647, 18520.029606822685, 14790.931617132619, -0.048, 0.974, 0.186, 192.0, 0.0, 0.0, 0.0, 0.0, 0.0, 0.0, 0.0, 0.0, 0.0, 1.70095108214624E9, 0.0, 2023-11-25 17:24:42.146
192.0, 48702.126586690734, 66094.28716829863, 9048.79081830869, -8225.598421764185, 23052.225774791932, -32149.072843679533, 18495.263873966203, 14757.828683594309, -0.048, 0.974, 0.186, 192.0, 0.0, 0.0, 0.0, 0.0, 0.0, 0.0, 0.0, 0.0, 0.0, 1.700951082150236E9, 0.0, 2023-11-25 17:24:42.150
193.0, 48705.7475692925, 66114.98488366423, 9047.047382241177, -8211.360360546156, 23005.957663769444, -32336.849848848564, 18501.61176939151, 14727.519718112913, -0.048, 0.974, 0.186, 192.0, 0.0, 0.0, 0.0, 0.0, 0.0, 0.0, 0.0, 0.0, 0.0, 1.70095108215447E9, 0.0, 2023-11-25 17:24:42.154
194.0, 48746.89713083472, 66158.07904697408, 9054.870492800534, -8185.09706081117, 23003.342509668175, -32321.561255641136, 18510.954798573828, 14721.507098854436, -0.048, 0.974, 0.186, 192.0, 0.0, 0.0, 0.0, 0.0, 0.0, 0.0, 0.0, 0.0, 0.0, 1.700951082159236E9, 0.0, 2023-11-25 17:24:42.159
195.0, 48767.84071538934, 66160.85066328653, 9070.404955196971, -8173.608264161142, 23088.70382174299, -32196.36913494696, 18534.87116514101, 14773.832532624308, -0.048, 0.974, 0.186, 192.0, 0.0, 0.0, 0.0, 0.0, 0.0, 0.0, 0.0, 0.0, 0.0, 1.700951082162229E9, 0.0, 2023-11-25 17:24:42.162
196.0, 48717.59399385381, 66106.87120042696, 9039.179568192909, -8216.456558281965, 23087.76504847587, -32084.230433014684, 18514.91105734242, 14782.30384377287, -0.048, 0.974, 0.184, 192.0, 254.0, 128.0, 30.0, 112.0, 5.0, 192.0, 0.0, 0.0, 0.0, 1.700951082165496E9, 0.0, 2023-11-25 17:24:42.165
197.0, 48710.97787749504, 66116.72831973176, 9041.146521704975, -8204.252505809369, 23025.001350045368, -32327.864447577533, 18521.817746379107, 14743.188290976082, -0.048, 0.974, 0.184, 192.0, 0.0, 0.0, 0.0, 0.0, 0.0, 0.0, 0.0, 0.0, 0.0, 1.700951082170261E9, 0.0, 2023-11-25 17:24:42.170
198.0, 48756.64249141723, 66162.25882318722, 9058.335013191107, -8173.5188571833205, 23029.76227161435, -32290.514682592715, 18531.786624406173, 14751.123160257717, -0.048, 0.974, 0.184, 192.0, 0.0, 0.0, 0.0, 0.0, 0.0, 0.0, 0.0, 0.0, 0.0, 1.700951082174345E9, 0.0, 2023-11-25 17:24:42.174
199.0, 48789.65601797772, 66182.93418680837, 9081.692586146903, -8155.302185452246, 23092.213045622477, -32236.736385433243, 18547.61165948053, 14774.30191925787, -0.048, 0.974, 0.184, 192.0, 0.0, 0.0, 0.0, 0.0, 0.0, 0.0, 0.0, 0.0, 0.0, 1.700951082178318E9, 0.0, 2023-11-25 17:24:42.178
200.0, 48746.87477909026, 66125.42314832487, 9050.26603344274, -8201.86086915265, 23122.834935526247, -32038.8116882815, 18515.402795720434, 14799.425280025636, -0.048, 0.974, 0.184, 192.0, 0.0, 0.0, 0.0, 0.0, 0.0, 0.0, 0.0, 0.0, 0.0, 1.700951082182351E9, 0.0, 2023-11-25 17:24:42.182
201.0, 48735.29657546242, 66130.04995942712, 9048.45554214186, -8198.597514462175, 23044.69323691049, -32319.661357362435, 18504.42808919288, 14735.409883905637, -0.048, 0.974, 0.184, 192.0, 0.0, 0.0, 0.0, 0.0, 0.0, 0.0, 0.0, 0.0, 0.0, 1.700951082187367E9, 0.0, 2023-11-25 17:24:42.187
202.0, 48778.88247715026, 66170.48426514676, 9060.860760314556, -8169.920226326017, 23050.08000732422, -32284.300897634137, 18508.652568894933, 14744.06000900984, -0.048, 0.974, 0.184, 192.0, 0.0, 0.0, 0.0, 0.0, 0.0, 0.0, 0.0, 0.0, 0.0, 1.700951082190454E9, 0.0, 2023-11-25 17:24:42.190
203.0, 48820.5237770705, 66196.50169569274, 9077.065775044653, -8151.368278428112, 23081.886539684125, -32282.78097901118, 18512.89940034144, 14741.690724097578, -0.048, 0.974, 0.184, 192.0, 0.0, 0.0, 0.0, 0.0, 0.0, 0.0, 0.0, 0.0, 0.0, 1.700951082194744E9, 0.0, 2023-11-25 17:24:42.194
204.0, 48786.77264294298, 66143.4610061003, 9054.468161400338, -8188.159249801547, 23146.751302093424, -32032.82142076748, 18495.867371066495, 14789.50110548748, -0.048, 0.974, 0.184, 192.0, 0.0, 0.0, 0.0, 0.0, 0.0, 0.0, 0.0, 0.0, 0.0, 1.700951082198473E9, 0.0, 2023-11-25 17:24:42.198
205.0, 48760.107011807806, 66136.62137229698, 9047.829693297112, -8198.441052250988, 23058.148987072585, -32292.101656449042, 18486.077306995074, 14729.330209413793, -0.048, 0.974, 0.184, 192.0, 0.0, 0.0, 0.0, 0.0, 0.0, 0.0, 0.0, 0.0, 0.0, 1.700951082202477E9, 0.0, 2023-11-25 17:24:42.202
206.0, 48785.386834786754, 66162.05765748712, 9051.249510198773, -8181.274912509312, 23051.622277691637, -32282.71392377781, 18491.106449497514, 14739.723770585511, -0.04, 0.97, 0.186, 192.0, 254.0, 192.0, 30.0, 80.0, 5.0, 208.0, 0.0, 0.0, 0.0, 1.7009510822055E9, 0.0, 2023-11-25 17:24:42.205
207.0, 48830.29148939747, 66195.13823928098, 9070.427306941427, -8155.570406385709, 23065.52506274284, -32310.430086902394, 18503.064632781105, 14732.77237805991, -0.04, 0.97, 0.186, 192.0, 0.0, 0.0, 0.0, 0.0, 0.0, 0.0, 0.0, 0.0, 0.0, 1.700951082209548E9, 0.0, 2023-11-25 17:24:42.209
208.0, 48804.81050071842, 66145.7632357792, 9054.669327100435, -8184.985302088893, 23147.66772361609, -32046.277170929574, 18497.588455389556, 14799.514687003457, -0.04, 0.97, 0.186, 192.0, 0.0, 0.0, 0.0, 0.0, 0.0, 0.0, 0.0, 0.0, 0.0, 1.700951082214473E9, 0.0, 2023-11-25 17:24:42.214
209.0, 48758.274168762466, 66112.83911619653, 9030.887070999988, -8216.076578626225, 23057.09845508319, -32244.93947564834, 18476.175484201372, 14737.935631029086, -0.04, 0.97, 0.186, 192.0, 0.0, 0.0, 0.0, 0.0, 0.0, 0.0, 0.0, 0.0, 0.0, 1.700951082218463E9, 0.0, 2023-11-25 17:24:42.218
210.0, 48784.04573011944, 66141.04701769912, 9040.811245538145, -8191.936694614494, 23046.280210766818, -32296.9743367403, 18482.90335928242, 14737.153319973151, -0.04, 0.97, 0.186, 192.0, 0.0, 0.0, 0.0, 0.0, 0.0, 0.0, 0.0, 0.0, 0.0, 1.700951082222493E9, 0.0, 2023-11-25 17:24:42.222
211.0, 48836.25940516704, 66190.08674503407, 9064.705260360868, -8159.839589576673, 23052.114016069656, -32317.761459083733, 18498.795449590143, 14731.274811181405, -0.04, 0.97, 0.186, 192.0, 0.0, 0.0, 0.0, 0.0, 0.0, 0.0, 0.0, 0.0, 0.0, 1.700951082226485E9, 0.0, 2023-11-25 17:24:42.226
212.0, 48827.09518994036, 66159.30839291912, 9061.687774859402, -8176.312825240234, 23145.521956148383, -32080.58709866847, 18502.148211258438, 14795.491373001501, -0.04, 0.97, 0.186, 192.0, 0.0, 0.0, 0.0, 0.0, 0.0, 0.0, 0.0, 0.0, 0.0, 1.700951082230497E9, 0.0, 2023-11-25 17:24:42.230
213.0, 48777.362558527304, 66124.46202331329, 9040.118341460031, -8208.275819811322, 23079.09257162721, -32175.671419581347, 18477.874216779976, 14757.269889982927, -0.04, 0.97, 0.186, 192.0, 0.0, 0.0, 0.0, 0.0, 0.0, 0.0, 0.0, 0.0, 0.0, 1.70095108223354E9, 0.0, 2023-11-25 17:24:42.233
214.0, 48782.07877660737, 66144.42213111187, 9046.64505084098, -8190.7744039028175, 23051.37640850263, -32291.498159348746, 18485.786734317153, 14752.665430625133, -0.04, 0.97, 0.186, 192.0, 0.0, 0.0, 0.0, 0.0, 0.0, 0.0, 0.0, 0.0, 0.0, 1.700951082237533E9, 0.0, 2023-11-25 17:24:42.237
215.0, 48815.51698631251, 66176.45218091634, 9054.89284454499, -8173.161229272036, 23037.093643795688, -32303.858674032534, 18486.099658739528, 14735.588697861278, -0.04, 0.97, 0.186, 192.0, 0.0, 0.0, 0.0, 0.0, 0.0, 0.0, 0.0, 0.0, 0.0, 1.70095108224353E9, 0.0, 2023-11-25 17:24:42.243
216.0, 48825.01647770601, 66166.4609511448, 9070.784934852712, -8169.4061362035445, 23131.03802574134, -32128.330424825006, 18503.355205459025, 14796.45249801308, -0.042, 0.97, 0.188, 192.0, 254.0, 176.0, 30.0, 80.0, 5.0, 224.0, 0.0, 0.0, 0.0, 1.700951082246557E9, 0.0, 2023-11-25 17:24:42.246
217.0, 48777.720186438586, 66120.50576454471, 9042.398219394472, -8212.410892535556, 23095.52110380186, -32111.097229849966, 18477.98597550225, 14780.49335247199, -0.042, 0.97, 0.188, 192.0, 0.0, 0.0, 0.0, 0.0, 0.0, 0.0, 0.0, 0.0, 0.0, 1.700951082250541E9, 0.0, 2023-11-25 17:24:42.250
218.0, 48787.24202957655, 66147.64078231345, 9055.272824200729, -8189.053319579759, 23054.080969581722, -32304.52922636619, 18487.32900468457, 14754.25240448146, -0.042, 0.97, 0.188, 192.0, 0.0, 0.0, 0.0, 0.0, 0.0, 0.0, 0.0, 0.0, 0.0, 1.700951082254519E9, 0.0, 2023-11-25 17:24:42.254
219.0, 48823.921242227705, 66187.29277697716, 9062.26892021524, -8168.579121658698, 23042.88274560961, -32285.127912178985, 18486.166713972892, 14746.451645666559, -0.042, 0.97, 0.188, 192.0, 0.0, 0.0, 0.0, 0.0, 0.0, 0.0, 0.0, 0.0, 0.0, 1.700951082257538E9, 0.0, 2023-11-25 17:24:42.257
220.0, 48845.06599248243, 66195.36175672553, 9077.043423300198, -8160.063107021226, 23117.649330812616, -32184.36624817446, 18500.404775190924, 14781.298015272381, -0.042, 0.97, 0.188, 192.0, 0.0, 0.0, 0.0, 0.0, 0.0, 0.0, 0.0, 0.0, 0.0, 1.700951082261558E9, 0.0, 2023-11-25 17:24:42.261
221.0, 48803.96113442912, 66144.4668346008, 9050.154274720464, -8202.799642419774, 23121.38207213665, -32061.43165367027, 18472.80037078862, 14780.716869916543, -0.042, 0.97, 0.188, 192.0, 0.0, 0.0, 0.0, 0.0, 0.0, 0.0, 0.0, 0.0, 0.0, 1.700951082265693E9, 0.0, 2023-11-25 17:24:42.265
222.0, 48797.12150062579, 66151.30646840412, 9052.367097421538, -8196.295284783278, 23052.449292236484, -32312.95583402584, 18470.252271920715, 14732.213584448527, -0.042, 0.97, 0.188, 192.0, 0.0, 0.0, 0.0, 0.0, 0.0, 0.0, 0.0, 0.0, 0.0, 1.700951082269593E9, 0.0, 2023-11-25 17:24:42.269
223.0, 48832.50431209854, 66184.0741257756, 9060.45842891436, -8175.441107206477, 23048.98477184591, -32273.505005062227, 18474.70026906732, 14738.606183362745, -0.042, 0.97, 0.188, 192.0, 0.0, 0.0, 0.0, 0.0, 0.0, 0.0, 0.0, 0.0, 0.0, 1.700951082274668E9, 0.0, 2023-11-25 17:24:42.274
224.0, 48876.04551029748, 66214.94188486837, 9092.488478718815, -8148.306089437734, 23110.496772586917, -32229.226199296263, 18500.80710659112, 14769.183369777606, -0.042, 0.97, 0.188, 192.0, 0.0, 0.0, 0.0, 0.0, 0.0, 0.0, 0.0, 0.0, 0.0, 1.700951082278647E9, 0.0, 2023-11-25 17:24:42.278
225.0, 48834.60537607734, 66159.04017198565, 9066.202827239375, -8192.607246948153, 23143.912630547602, -32015.454115325705, 18480.93640577035, 14804.521477761446, -0.042, 0.97, 0.188, 192.0, 0.0, 0.0, 0.0, 0.0, 0.0, 0.0, 0.0, 0.0, 0.0, 1.700951082282653E9, 0.0, 2023-11-25 17:24:42.282
226.0, 48804.67639025168, 66152.33464864906, 9055.988080023299, -8201.369130774634, 23049.02947533482, -32296.14732219545, 18466.65364106341, 14738.427369407103, -0.048, 0.974, 0.184, 192.0, 254.0, 128.0, 30.0, 112.0, 5.0, 192.0, 0.0, 0.0, 0.0, 1.700951082285641E9, 0.0, 2023-11-25 17:24:42.285
227.0, 48828.86097775233, 66181.81659958561, 9058.625585869026, -8181.766650887329, 23040.938143842002, -32273.214432384306, 18468.195911430827, 14741.511910141935, -0.048, 0.974, 0.184, 192.0, 0.0, 0.0, 0.0, 0.0, 0.0, 0.0, 0.0, 0.0, 0.0, 1.700951082292753E9, 0.0, 2023-11-25 17:24:42.292
228.0, 48876.62665565332, 66221.46859424932, 9089.716862406358, -8148.820179560206, 23081.70772572848, -32280.366990610004, 18496.67203386689, 14755.34763995977, -0.048, 0.974, 0.184, 192.0, 0.0, 0.0, 0.0, 0.0, 0.0, 0.0, 0.0, 0.0, 0.0, 1.700951082295655E9, 0.0, 2023-11-25 17:24:42.295
229.0, 48834.2253964216, 66161.34240166454, 9060.74900159228, -8193.970703359926, 23143.666761358592, -32019.343318860927, 18485.809086061607, 14813.350416821291, -0.048, 0.974, 0.184, 192.0, 0.0, 0.0, 0.0, 0.0, 0.0, 0.0, 0.0, 0.0, 0.0, 1.700951082298717E9, 0.0, 2023-11-25 17:24:42.298
230.0, 48791.15358485623, 66140.37646536547, 9040.341858904583, -8216.925944915527, 23041.47458570893, -32275.76253125221, 18468.978222486763, 14742.405979920148, -0.048, 0.974, 0.184, 192.0, 0.0, 0.0, 0.0, 0.0, 0.0, 0.0, 0.0, 0.0, 0.0, 1.700951082302741E9, 0.0, 2023-11-25 17:24:42.302
231.0, 48817.55099505794, 66171.49009364725, 9046.935623518899, -8193.85894463765, 23037.093643795688, -32280.47874933228, 18475.639042334442, 14751.011401535441, -0.048, 0.974, 0.184, 192.0, 0.0, 0.0, 0.0, 0.0, 0.0, 0.0, 0.0, 0.0, 0.0, 1.70095108230681E9, 0.0, 2023-11-25 17:24:42.306
232.0, 48862.94738804667, 66212.9302278674, 9069.08620227411, -8164.511104167832, 23053.164548059052, -32302.271700176207, 18489.18419947436, 14749.20091023456, -0.048, 0.974, 0.184, 192.0, 0.0, 0.0, 0.0, 0.0, 0.0, 0.0, 0.0, 0.0, 0.0, 1.700951082311837E9, 0.0, 2023-11-25 17:24:42.311
233.0, 48841.109733713834, 66173.70291634834, 9061.8889405595, -8186.281703267301, 23145.29843870383, -32036.9117900028, 18494.28039721017, 14818.625428512745, -0.048, 0.974, 0.184, 192.0, 0.0, 0.0, 0.0, 0.0, 0.0, 0.0, 0.0, 0.0, 0.0, 1.700951082315787E9, 0.0, 2023-11-25 17:24:42.315
234.0, 48801.63655300577, 66150.12182594798, 9049.237853197796, -8207.359398288656, 23062.395818519097, -32216.463353212283, 18481.092867981537, 14762.343735974282, -0.048, 0.974, 0.184, 192.0, 0.0, 0.0, 0.0, 0.0, 0.0, 0.0, 0.0, 0.0, 0.0, 1.700951082318709E9, 0.0, 2023-11-25 17:24:42.318
235.0, 48814.488806067566, 66166.99739301174, 9053.775257322224, -8189.992092846882, 23043.061559565256, -32274.600240540534, 18487.41841166239, 14763.30486098586, -0.048, 0.974, 0.184, 192.0, 0.0, 0.0, 0.0, 0.0, 0.0, 0.0, 0.0, 0.0, 0.0, 1.700951082321716E9, 0.0, 2023-11-25 17:24:42.321
236.0, 48854.409021664746, 66201.84376261756, 9067.186303995408, -8168.132086769592, 23036.445443206485, -32298.516607107715, 18493.654548365423, 14750.229090479505, -0.042, 0.978, 0.182, 192.0, 254.0, 176.0, 30.0, 144.0, 5.0, 176.0, 0.0, 0.0, 0.0, 1.700951082325907E9, 0.0, 2023-11-25 17:24:42.325
237.0, 48840.9309197582, 66167.4667796453, 9057.418591668438, -8188.874505624117, 23120.264484913885, -32076.742598622157, 18491.240559964248, 14807.31544581836, -0.042, 0.978, 0.182, 192.0, 0.0, 0.0, 0.0, 0.0, 0.0, 0.0, 0.0, 0.0, 0.0, 1.700951082329817E9, 0.0, 2023-11-25 17:24:42.329
238.0, 48795.266305836005, 66131.4581193278, 9035.625640824514, -8218.445863538487, 23064.295716797795, -32154.817242004545, 18468.75470504221, 14773.631366924212, -0.042, 0.978, 0.182, 192.0, 0.0, 0.0, 0.0, 0.0, 0.0, 0.0, 0.0, 0.0, 0.0, 1.700951082334782E9, 0.0, 2023-11-25 17:24:42.334
239.0, 48806.77745423048, 66151.82055852658, 9046.622699096526, -8196.228229549914, 23034.679655394513, -32286.558423824124, 18481.60695810401, 14764.802427864364, -0.042, 0.978, 0.182, 192.0, 0.0, 0.0, 0.0, 0.0, 0.0, 0.0, 0.0, 0.0, 0.0, 1.700951082337783E9, 0.0, 2023-11-25 17:24:42.337
240.0, 48849.3798791623, 66194.13241078048, 9066.627510384025, -8164.2428832343685, 23032.757405371358, -32284.68087728988, 18492.402850675924, 14759.616823150734, -0.042, 0.978, 0.182, 192.0, 0.0, 0.0, 0.0, 0.0, 0.0, 0.0, 0.0, 0.0, 0.0, 1.700951082341856E9, 0.0, 2023-11-25 17:24:42.341
241.0, 48856.845361810374, 66179.33555595107, 9075.344690721595, -8164.444048934466, 23118.498697101917, -32115.00878512964, 18503.80224034813, 14813.88685868822, -0.042, 0.978, 0.182, 192.0, 0.0, 0.0, 0.0, 0.0, 0.0, 0.0, 0.0, 0.0, 0.0, 1.700951082345834E9, 0.0, 2023-11-25 17:24:42.345
242.0, 48805.07872165188, 66131.12284316098, 9046.376829907516, -8209.326351800722, 23086.200426363997, -32084.990392326166, 18471.95100449932, 14788.49527698699, -0.042, 0.978, 0.182, 192.0, 0.0, 0.0, 0.0, 0.0, 0.0, 0.0, 0.0, 0.0, 0.0, 1.700951082349835E9, 0.0, 2023-11-25 17:24:42.349
243.0, 48813.03594267797, 66155.75446555072, 9059.609062625059, -8189.90268586906, 23036.221925761933, -32301.53409260918, 18474.85673127851, 14751.525491657912, -0.042, 0.978, 0.182, 192.0, 0.0, 0.0, 0.0, 0.0, 0.0, 0.0, 0.0, 0.0, 0.0, 1.700951082353816E9, 0.0, 2023-11-25 17:24:42.353
244.0, 48853.827876308904, 66199.29566374965, 9072.327205220128, -8166.232188490891, 23029.382291958605, -32274.77905449618, 18478.65652783591, 14753.738314358989, -0.042, 0.978, 0.182, 192.0, 0.0, 0.0, 0.0, 0.0, 0.0, 0.0, 0.0, 0.0, 0.0, 1.700951082358E9, 0.0, 2023-11-25 17:24:42.358
245.0, 48878.25833299856, 66208.77280339871, 9091.996740340799, -8156.062144763726, 23102.360737605184, -32179.046532994096, 18498.884856567962, 14793.814992167354, -0.042, 0.978, 0.182, 192.0, 0.0, 0.0, 0.0, 0.0, 0.0, 0.0, 0.0, 0.0, 0.0, 1.700951082362917E9, 0.0, 2023-11-25 17:24:42.362
246.0, 48831.02909696449, 66155.53094810617, 9064.973481294332, -8202.330255786212, 23111.659063298594, -32038.96815049269, 18470.98987948774, 14802.755689949476, -0.038, 0.976, 0.182, 192.0, 254.0, 208.0, 30.0, 128.0, 5.0, 176.0, 0.0, 0.0, 0.0, 1.700951082367004E9, 0.0, 2023-11-25 17:24:42.367
247.0, 48816.031076434985, 66164.89632903294, 9066.716917361846, -8194.305979526756, 23038.16652752954, -32303.657508332435, 18462.74208578373, 14747.479825911501, -0.038, 0.976, 0.182, 192.0, 0.0, 0.0, 0.0, 0.0, 0.0, 0.0, 0.0, 0.0, 0.0, 1.700951082369871E9, 0.0, 2023-11-25 17:24:42.369
248.0, 48850.85509429635, 66204.0789370631, 9079.323301234639, -8167.327423969201, 23037.473623451428, -32263.647885757437, 18474.074420222572, 14759.594471406279, -0.038, 0.976, 0.182, 192.0, 0.0, 0.0, 0.0, 0.0, 0.0, 0.0, 0.0, 0.0, 0.0, 1.700951082373921E9, 0.0, 2023-11-25 17:24:42.373
249.0, 48879.33121673241, 66225.06722510663, 9097.070586332153, -8152.396458673055, 23084.300528085296, -32229.248551040717, 18490.570007630587, 14778.660509426656, -0.038, 0.976, 0.182, 192.0, 0.0, 0.0, 0.0, 0.0, 0.0, 0.0, 0.0, 0.0, 0.0, 1.700951082377891E9, 0.0, 2023-11-25 17:24:42.377
250.0, 48843.993108748575, 66171.7136110918, 9073.914179076455, -8190.7744039028175, 23133.13908972014, -32011.09552515692, 18473.292109166636, 14812.41164355417, -0.038, 0.976, 0.182, 192.0, 0.0, 0.0, 0.0, 0.0, 0.0, 0.0, 0.0, 0.0, 0.0, 1.700951082381903E9, 0.0, 2023-11-25 17:24:42.381
251.0, 48819.13796891427, 66163.57757611008, 9066.918083061944, -8194.507145226855, 23046.280210766818, -32278.221223142296, 18468.7100015533, 14753.023058536419, -0.038, 0.976, 0.182, 192.0, 0.0, 0.0, 0.0, 0.0, 0.0, 0.0, 0.0, 0.0, 0.0, 1.700951082385894E9, 0.0, 2023-11-25 17:24:42.385
252.0, 48845.177751204705, 66188.72328862229, 9068.8403330851, -8174.345871728167, 23042.994504331888, -32251.935571662852, 18474.007364989207, 14760.332078973304, -0.038, 0.976, 0.182, 192.0, 0.0, 0.0, 0.0, 0.0, 0.0, 0.0, 0.0, 0.0, 0.0, 1.700951082390927E9, 0.0, 2023-11-25 17:24:42.390
253.0, 48885.00855982406, 66221.55800122714, 9093.181382796929, -8147.389667915067, 23075.739809958915, -32262.99968516823, 18497.811972834108, 14766.568215676334, -0.038, 0.976, 0.182, 192.0, 0.0, 0.0, 0.0, 0.0, 0.0, 0.0, 0.0, 0.0, 0.0, 1.700951082393983E9, 0.0, 2023-11-25 17:24:42.393
254.0, 48846.00476574955, 66167.53383487866, 9069.913216818955, -8186.885200367595, 23144.896107303633, -31999.629080251347, 18490.726469841775, 14822.22405937005, -0.038, 0.976, 0.182, 192.0, 0.0, 0.0, 0.0, 0.0, 0.0, 0.0, 0.0, 0.0, 0.0, 1.70095108239701E9, 0.0, 2023-11-25 17:24:42.397
255.0, 48812.20892813313, 66157.07321847358, 9059.340841691595, -8199.759805173851, 23052.225774791932, -32245.051234370618, 18478.164789457893, 14755.817026593331, -0.038, 0.976, 0.182, 192.0, 0.0, 0.0, 0.0, 0.0, 0.0, 0.0, 0.0, 0.0, 0.0, 1.700951082401949E9, 0.0, 2023-11-25 17:24:42.401
0.0, 48830.649117308756, 66179.17909373988, 9057.776219579724, -8183.3759764881115, 23039.261763007853, -32253.500193774726, 18481.919882526385, 14757.53811091639, -0.036000000000000004, 0.968, 0.17400000000000002, 192.0, 254.0, 224.0, 30.0, 64.0, 5.0, 112.0, 0.0, 0.0, 0.0, 1.700951082405994E9, 0.0, 2023-11-25 17:24:42.405
1.0, 48875.35260621937, 66223.36849252802, 9078.786859367712, -8152.955252284438, 23052.98573410341, -32278.91412722041, 18502.304673469625, 14751.078456768806, -0.036000000000000004, 0.968, 0.17400000000000002, 192.0, 0.0, 0.0, 0.0, 0.0, 0.0, 0.0, 0.0, 0.0, 0.0, 1.70095108240997E9, 0.0, 2023-11-25 17:24:42.409
2.0, 48854.610187364844, 66185.25876823172, 9069.26501622975, -8175.798735117762, 23145.43254917056, -32019.142153160832, 18506.484449682768, 14823.542812292912, -0.036000000000000004, 0.968, 0.17400000000000002, 192.0, 0.0, 0.0, 0.0, 0.0, 0.0, 0.0, 0.0, 0.0, 0.0, 1.700951082414029E9, 0.0, 2023-11-25 17:24:42.414
3.0, 48806.97861993058, 66154.65923007242, 9046.086257229597, -8203.090215097693, 23062.932260386024, -32180.119416727954, 18483.864484293998, 14769.96568083354, -0.036000000000000004, 0.968, 0.17400000000000002, 192.0, 0.0, 0.0, 0.0, 0.0, 0.0, 0.0, 0.0, 0.0, 0.0, 1.700951082418988E9, 0.0, 2023-11-25 17:24:42.418
4.0, 48823.31774512741, 66178.70970710632, 9051.182454965408, -8178.995034574871, 23045.654361922072, -32246.347635549027, 18491.598187875534, 14769.228073266517, -0.036000000000000004, 0.968, 0.17400000000000002, 192.0, 0.0, 0.0, 0.0, 0.0, 0.0, 0.0, 0.0, 0.0, 0.0, 1.700951082421984E9, 0.0, 2023-11-25 17:24:42.421
5.0, 48869.3846904498, 66226.49773675177, 9069.309719718662, -8147.054391748237, 23045.94493459999, -32257.85878394351, 18501.969397302797, 14762.522549929923, -0.036000000000000004, 0.968, 0.17400000000000002, 192.0, 0.0, 0.0, 0.0, 0.0, 0.0, 0.0, 0.0, 0.0, 0.0, 1.700951082425013E9, 0.0, 2023-11-25 17:24:42.425
6.0, 48870.36816720584, 66207.94578885386, 9077.17753376693, -8151.122409239103, 23145.611363126205, -32026.29471138653, 18514.75459513123, 14839.07727468935, -0.036000000000000004, 0.968, 0.17400000000000002, 192.0, 0.0, 0.0, 0.0, 0.0, 0.0, 0.0, 0.0, 0.0, 0.0, 1.700951082431026E9, 0.0, 2023-11-25 17:24:42.431
7.0, 48825.93289922868, 66170.0148785132, 9059.117324247041, -8180.783174131296, 23096.370470091162, -32085.63859291537, 18492.112277998003, 14806.779003951431, -0.036000000000000004, 0.968, 0.17400000000000002, 192.0, 0.0, 0.0, 0.0, 0.0, 0.0, 0.0, 0.0, 0.0, 0.0, 1.700951082434057E9, 0.0, 2023-11-25 17:24:42.434
8.0, 48829.26330915253, 66188.18684675537, 9066.51575166175, -8162.745316355863, 23061.300583040786, -32234.568266221082, 18497.074365267083, 14787.109468830762, -0.036000000000000004, 0.968, 0.17400000000000002, 192.0, 0.0, 0.0, 0.0, 0.0, 0.0, 0.0, 0.0, 0.0, 0.0, 1.700951082438103E9, 0.0, 2023-11-25 17:24:42.438
9.0, 48876.40313820876, 66236.35485605655, 9087.839315872112, -8134.604470086631, 23059.42303650654, -32230.14262081893, 18508.89843808394, 14778.727564660021, -0.036000000000000004, 0.968, 0.17400000000000002, 192.0, 0.0, 0.0, 0.0, 0.0, 0.0, 0.0, 0.0, 0.0, 0.0, 1.700951082442139E9, 0.0, 2023-11-25 17:24:42.442
10.0, 48887.0872720584, 66224.73194893979, 9096.13181306503, -8142.1146562236145, 23137.832956055758, -32074.552127665538, 18517.705025399333, 14821.620562269756, -0.04, 0.972, 0.176, 192.0, 254.0, 192.0, 30.0, 96.0, 5.0, 128.0, 0.0, 0.0, 0.0, 1.700951082446097E9, 0.0, 2023-11-25 17:24:42.446
11.0, 48833.487788854574, 66171.4230384139, 9063.140638248997, -8190.997921347371, 23109.379185364152, -32033.00023472312, 18480.17644645887, 14795.580779979324, -0.04, 0.972, 0.176, 192.0, 0.0, 0.0, 0.0, 0.0, 0.0, 0.0, 0.0, 0.0, 0.0, 1.700951082450074E9, 0.0, 2023-11-25 17:24:42.450
12.0, 48834.560672588435, 66186.28694847667, 9069.421478440938, -8178.100964796658, 23054.393894004097, -32262.887926445954, 18480.42231564788, 14751.033753279897, -0.04, 0.972, 0.176, 192.0, 0.0, 0.0, 0.0, 0.0, 0.0, 0.0, 0.0, 0.0, 0.0, 1.700951082453155E9, 0.0, 2023-11-25 17:24:42.453
13.0, 48871.79867885097, 66219.18871631488, 9076.127001777531, -8157.4256011755, 23046.302562511275, -32236.57992322206, 18480.60112960352, 14743.30004969836, -0.04, 0.972, 0.176, 192.0, 0.0, 0.0, 0.0, 0.0, 0.0, 0.0, 0.0, 0.0, 0.0, 1.700951082458126E9, 0.0, 2023-11-25 17:24:42.458
14.0, 48896.25148728508, 66231.41512053194, 9094.410728741972, -8141.980545756883, 23114.587141822238, -32151.710349525256, 18496.023833277683, 14776.805314636866, -0.04, 0.972, 0.176, 192.0, 0.0, 0.0, 0.0, 0.0, 0.0, 0.0, 0.0, 0.0, 0.0, 1.700951082462151E9, 0.0, 2023-11-25 17:24:42.462
15.0, 48845.5800826049, 66172.42886691439, 9062.961824293354, -8187.086366067692, 23125.96417974999, -31991.51539701407, 18466.89951025242, 14788.361166520259, -0.04, 0.972, 0.176, 192.0, 0.0, 0.0, 0.0, 0.0, 0.0, 0.0, 0.0, 0.0, 0.0, 1.700951082466417E9, 0.0, 2023-11-25 17:24:42.466
16.0, 48830.76087603103, 66173.34528843705, 9060.74900159228, -8184.918246855527, 23045.833175877713, -32257.568211265592, 18466.072495707573, 14735.700456583556, -0.04, 0.972, 0.176, 192.0, 0.0, 0.0, 0.0, 0.0, 0.0, 0.0, 0.0, 0.0, 0.0, 1.700951082470208E9, 0.0, 2023-11-25 17:24:42.470
17.0, 48869.76467010554, 66209.75628015475, 9074.048289543187, -8157.693822108963, 23046.950763100478, -32214.56345493358, 18482.45632439331, 14753.11246551424, -0.04, 0.972, 0.176, 192.0, 0.0, 0.0, 0.0, 0.0, 0.0, 0.0, 0.0, 0.0, 0.0, 1.70095108247475E9, 0.0, 2023-11-25 17:24:42.474
18.0, 48905.1921850672, 66232.71152171034, 9098.679911932935, -8133.03984797476, 23094.872903212658, -32185.439131908315, 18510.507763684724, 14780.225131538527, -0.04, 0.972, 0.176, 192.0, 0.0, 0.0, 0.0, 0.0, 0.0, 0.0, 0.0, 0.0, 0.0, 1.700951082478205E9, 0.0, 2023-11-25 17:24:42.478
19.0, 48867.01540553754, 66177.14508499445, 9078.898618089988, -8168.892046081072, 23148.67355211658, -31946.342521469895, 18502.349376958537, 14835.210422898583, -0.04, 0.972, 0.176, 192.0, 0.0, 0.0, 0.0, 0.0, 0.0, 0.0, 0.0, 0.0, 0.0, 1.700951082483923E9, 0.0, 2023-11-25 17:24:42.483
20.0, 48837.10877145634, 66169.23256745728, 9072.237798242308, -8173.965892072427, 23058.797187661792, -32214.161123533384, 18496.649682122432, 14777.095887314785, -0.042, 0.968, 0.178, 192.0, 254.0, 176.0, 30.0, 64.0, 5.0, 144.0, 0.0, 0.0, 0.0, 1.70095108248618E9, 0.0, 2023-11-25 17:24:42.486
21.0, 48862.81327757994, 66198.11102129353, 9079.144487278996, -8151.6812028504855, 23053.678638181525, -32184.12037898545, 18505.568028160098, 14791.73627993301, -0.042, 0.968, 0.178, 192.0, 0.0, 0.0, 0.0, 0.0, 0.0, 0.0, 0.0, 0.0, 0.0, 1.700951082491203E9, 0.0, 2023-11-25 17:24:42.491
22.0, 48901.70531293217, 66236.39955954548, 9103.7984614132, -8124.009743214816, 23080.947766417, -32193.105780256486, 18526.511612714723, 14800.296998059393, -0.042, 0.968, 0.178, 192.0, 0.0, 0.0, 0.0, 0.0, 0.0, 0.0, 0.0, 0.0, 0.0, 1.70095108249422E9, 0.0, 2023-11-25 17:24:42.494
23.0, 48870.50227767257, 66192.00899505723, 9087.28052226073, -8154.877502307595, 23158.82124409929, -31926.1365444823, 18522.354188246034, 14866.838141302842, -0.042, 0.968, 0.178, 192.0, 0.0, 0.0, 0.0, 0.0, 0.0, 0.0, 0.0, 0.0, 0.0, 1.700951082498265E9, 0.0, 2023-11-25 17:24:42.498
24.0, 48832.101980698346, 66174.39582042645, 9070.024975541231, -8173.295339738767, 23067.737885443912, -32157.812375761558, 18504.47279268179, 14804.588532994812, -0.042, 0.968, 0.178, 192.0, 0.0, 0.0, 0.0, 0.0, 0.0, 0.0, 0.0, 0.0, 0.0, 1.700951082502272E9, 0.0, 2023-11-25 17:24:42.502
25.0, 48852.62088210832, 66204.61537893003, 9075.545856421693, -8150.809484816728, 23059.199519061985, -32175.492605625703, 18510.775984618187, 14812.322236576349, -0.042, 0.968, 0.178, 192.0, 0.0, 0.0, 0.0, 0.0, 0.0, 0.0, 0.0, 0.0, 0.0, 1.700951082506395E9, 0.0, 2023-11-25 17:24:42.506
26.0, 48895.98326635161, 66250.86113820806, 9096.757661909778, -8123.495653092344, 23067.402609277084, -32205.779219362645, 18522.28713301267, 14803.605056238779, -0.042, 0.968, 0.178, 192.0, 0.0, 0.0, 0.0, 0.0, 0.0, 0.0, 0.0, 0.0, 0.0, 1.700951082511326E9, 0.0, 2023-11-25 17:24:42.511
27.0, 48880.15823127726, 66212.8855243785, 9089.51569670626, -8147.791999315263, 23157.189566754052, -31959.395940231796, 18519.00142657774, 14866.569920369378, -0.042, 0.968, 0.178, 192.0, 0.0, 0.0, 0.0, 0.0, 0.0, 0.0, 0.0, 0.0, 0.0, 1.700951082514328E9, 0.0, 2023-11-25 17:24:42.514
28.0, 48835.275928411, 66177.10038150554, 9064.03470802721, -8182.526610198809, 23073.482283768928, -32114.15941884034, 18485.071478494585, 14799.514687003457, -0.042, 0.968, 0.178, 192.0, 0.0, 0.0, 0.0, 0.0, 0.0, 0.0, 0.0, 0.0, 0.0, 1.700951082517344E9, 0.0, 2023-11-25 17:24:42.517
29.0, 48853.73846933109, 66201.30732075064, 9071.857818586566, -8161.672432622008, 23053.589231203703, -32205.958033318286, 18489.206551218816, 14786.148343819183, -0.042, 0.968, 0.178, 192.0, 0.0, 0.0, 0.0, 0.0, 0.0, 0.0, 0.0, 0.0, 0.0, 1.700951082522361E9, 0.0, 2023-11-25 17:24:42.522
30.0, 48893.34576050589, 66242.76980671524, 9087.638150172013, -8136.861996276617, 23048.291867767795, -32225.784030650146, 18494.12393499898, 14768.35635523276, -0.034, 0.968, 0.178, 192.0, 254.0, 240.0, 30.0, 64.0, 5.0, 144.0, 0.0, 0.0, 0.0, 1.7009510825264E9, 0.0, 2023-11-25 17:24:42.526
31.0, 48896.74322566309, 66226.05070186267, 9094.075452575142, -8143.56751961321, 23143.845575314233, -32023.72426077417, 18501.298844969137, 14822.916963448164, -0.034, 0.968, 0.178, 192.0, 0.0, 0.0, 0.0, 0.0, 0.0, 0.0, 0.0, 0.0, 0.0, 1.700951082530394E9, 0.0, 2023-11-25 17:24:42.530
32.0, 48848.41875415072, 66184.47645717578, 9068.058022029165, -8181.47607820941, 23092.90594970059, -32064.985581038665, 18472.17452194387, 14786.193047308094, -0.034, 0.968, 0.178, 192.0, 0.0, 0.0, 0.0, 0.0, 0.0, 0.0, 0.0, 0.0, 0.0, 1.700951082533361E9, 0.0, 2023-11-25 17:24:42.533
33.0, 48846.45180063866, 66197.06048930413, 9067.901559817978, -8171.954235071449, 23046.54843170028, -32232.087222586542, 18464.865501506985, 14753.850073081265, -0.034, 0.968, 0.178, 192.0, 0.0, 0.0, 0.0, 0.0, 0.0, 0.0, 0.0, 0.0, 0.0, 1.700951082537422E9, 0.0, 2023-11-25 17:24:42.537
34.0, 48888.29426625899, 66239.4841002803, 9083.100746047587, -8149.311917938223, 23042.055731064767, -32223.638263182434, 18470.341678898534, 14744.39528517667, -0.034, 0.968, 0.178, 192.0, 0.0, 0.0, 0.0, 0.0, 0.0, 0.0, 0.0, 0.0, 0.0, 1.700951082541458E9, 0.0, 2023-11-25 17:24:42.541
35.0, 48903.560507721966, 66234.8349374336, 9098.143470066008, -8145.132141725081, 23125.360682649694, -32086.91264234932, 18486.814914562096, 14792.429184011125, -0.034, 0.968, 0.178, 192.0, 0.0, 0.0, 0.0, 0.0, 0.0, 0.0, 0.0, 0.0, 0.0, 1.70095108254566E9, 0.0, 2023-11-25 17:24:42.545
36.0, 48852.21855070812, 66178.39678268395, 9069.80145809668, -8190.550886458264, 23106.56286556278, -32011.967243190677, 18461.758609027696, 14790.73045143252, -0.034, 0.968, 0.178, 192.0, 0.0, 0.0, 0.0, 0.0, 0.0, 0.0, 0.0, 0.0, 0.0, 1.700951082550438E9, 0.0, 2023-11-25 17:24:42.550
37.0, 48849.42458265121, 66189.01386130022, 9072.774240109235, -8179.218552019424, 23044.626181677126, -32243.553667492113, 18462.876196250465, 14756.219357993527, -0.034, 0.968, 0.178, 192.0, 0.0, 0.0, 0.0, 0.0, 0.0, 0.0, 0.0, 0.0, 0.0, 1.700951082554473E9, 0.0, 2023-11-25 17:24:42.554
38.0, 48897.72670241913, 66241.94279217039, 9093.002568841288, -8142.986374257372, 23047.710722411957, -32206.047440296108, 18479.70705982531, 14769.54099768889, -0.034, 0.968, 0.178, 192.0, 0.0, 0.0, 0.0, 0.0, 0.0, 0.0, 0.0, 0.0, 0.0, 1.700951082558493E9, 0.0, 2023-11-25 17:24:42.558
39.0, 48917.887975917816, 66255.17502488793, 9109.18523182693, -8130.469397362399, 23107.00990045189, -32125.31293932354, 18502.282321725168, 14804.40971903917, -0.034, 0.968, 0.178, 192.0, 0.0, 0.0, 0.0, 0.0, 0.0, 0.0, 0.0, 0.0, 0.0, 1.700951082561456E9, 0.0, 2023-11-25 17:24:42.561
40.0, 48869.27293172752, 66199.85445736104, 9077.155182022474, -8178.816220619228, 23121.270313414374, -31958.65833266477, 18476.42135339038, 14821.017065169463, -0.036000000000000004, 0.976, 0.168, 192.0, 254.0, 224.0, 30.0, 128.0, 5.0, 64.0, 0.0, 0.0, 0.0, 1.700951082565471E9, 0.0, 2023-11-25 17:24:42.565
41.0, 48854.6325391093, 66205.1741725414, 9080.37383322404, -8173.183581016491, 23044.17914678802, -32229.181495807352, 18480.75759181471, 14771.239730267494, -0.036000000000000004, 0.976, 0.168, 192.0, 0.0, 0.0, 0.0, 0.0, 0.0, 0.0, 0.0, 0.0, 0.0, 1.700951082569469E9, 0.0, 2023-11-25 17:24:42.569
42.0, 48882.795737122986, 66234.25379207775, 9087.504039705282, -8153.737563340374, 23038.233582762907, -32186.22144296425, 18486.300824439626, 14781.83445713931, -0.036000000000000004, 0.976, 0.168, 192.0, 0.0, 0.0, 0.0, 0.0, 0.0, 0.0, 0.0, 0.0, 0.0, 1.700951082573494E9, 0.0, 2023-11-25 17:24:42.573
43.0, 48909.5954787249, 66249.02829516272, 9103.32907477964, -8137.84547303265, 23076.119789614655, -32172.072788724043, 18502.19291474735, 14794.239675312005, -0.036000000000000004, 0.976, 0.168, 192.0, 0.0, 0.0, 0.0, 0.0, 0.0, 0.0, 0.0, 0.0, 0.0, 1.700951082579532E9, 0.0, 2023-11-25 17:24:42.579
44.0, 48862.56740839093, 66182.4200966859, 9073.467144187349, -8184.895895111072, 23125.47244137197, -31940.93339931171, 18482.366917415493, 14834.204594398094, -0.036000000000000004, 0.976, 0.168, 192.0, 0.0, 0.0, 0.0, 0.0, 0.0, 0.0, 0.0, 0.0, 0.0, 1.70095108258253E9, 0.0, 2023-11-25 17:24:42.582
45.0, 48831.92316674271, 66170.95365178034, 9062.60419638207, -8195.132994071602, 23033.27149549383, -32216.865684612476, 18468.33002189756, 14764.690669142088, -0.036000000000000004, 0.976, 0.168, 192.0, 0.0, 0.0, 0.0, 0.0, 0.0, 0.0, 0.0, 0.0, 0.0, 1.700951082587547E9, 0.0, 2023-11-25 17:24:42.587
46.0, 48867.03775728199, 66207.0740708201, 9072.595426153592, -8164.466400678922, 23038.524155440828, -32189.529501143636, 18481.674013337375, 14780.314538516348, -0.036000000000000004, 0.976, 0.168, 192.0, 0.0, 0.0, 0.0, 0.0, 0.0, 0.0, 0.0, 0.0, 0.0, 1.70095108259185E9, 0.0, 2023-11-25 17:24:42.591
47.0, 48906.0415513565, 66239.6852659804, 9096.265923531762, -8135.744409053852, 23063.781626675325, -32200.61596639347, 18506.88678108296, 14788.584683964811, -0.036000000000000004, 0.976, 0.168, 192.0, 0.0, 0.0, 0.0, 0.0, 0.0, 0.0, 0.0, 0.0, 0.0, 1.700951082596637E9, 0.0, 2023-11-25 17:24:42.596
48.0, 48881.387577222304, 66195.94290208137, 9087.168763538451, -8161.4265634329995, 23147.77948233837, -31937.245361476587, 18511.17831601838, 14860.467894133079, -0.036000000000000004, 0.976, 0.168, 192.0, 0.0, 0.0, 0.0, 0.0, 0.0, 0.0, 0.0, 0.0, 0.0, 1.700951082599635E9, 0.0, 2023-11-25 17:24:42.599
49.0, 48842.2273209366, 66180.14021875146, 9071.209617997363, -8181.096098553669, 23054.885632382113, -32156.98536121671, 18490.547655886134, 14794.597303223289, -0.036000000000000004, 0.976, 0.168, 192.0, 0.0, 0.0, 0.0, 0.0, 0.0, 0.0, 0.0, 0.0, 0.0, 1.700951082603609E9, 0.0, 2023-11-25 17:24:42.603
50.0, 48864.400251436266, 66211.09738482206, 9079.144487278996, -8158.386726187078, 23043.441539220996, -32181.996963262198, 18494.682728610365, 14799.246466069993, -0.038, 0.976, 0.17200000000000001, 192.0, 254.0, 208.0, 30.0, 128.0, 5.0, 96.0, 0.0, 0.0, 0.0, 1.700951082606616E9, 0.0, 2023-11-25 17:24:42.606
51.0, 48912.3447432929, 66260.11476041254, 9106.570077725659, -8121.662810047008, 23056.316144027252, -32206.47212344076, 18510.105432284527, 14793.166791578149, -0.038, 0.976, 0.17200000000000001, 192.0, 0.0, 0.0, 0.0, 0.0, 0.0, 0.0, 0.0, 0.0, 0.0, 1.700951082611641E9, 0.0, 2023-11-25 17:24:42.611
52.0, 48899.224269297636, 66225.5813152291, 9101.026845100743, -8143.299298679745, 23149.053531772322, -31961.47465246614, 18511.558295674124, 14857.964498754085, -0.038, 0.976, 0.17200000000000001, 192.0, 0.0, 0.0, 0.0, 0.0, 0.0, 0.0, 0.0, 0.0, 0.0, 1.700951082614668E9, 0.0, 2023-11-25 17:24:42.614
53.0, 48847.412925650235, 66188.38801245547, 9071.701356375379, -8182.124278798614, 23066.553242987782, -32100.144875066864, 18476.980147001763, 14789.12112583174, -0.038, 0.976, 0.17200000000000001, 192.0, 0.0, 0.0, 0.0, 0.0, 0.0, 0.0, 0.0, 0.0, 0.0, 1.700951082618619E9, 0.0, 2023-11-25 17:24:42.618
54.0, 48865.942521803685, 66215.85830639105, 9082.832525114123, -8156.419772675011, 23045.073216566234, -32203.141713516918, 18482.389269159947, 14775.195989036083, -0.038, 0.976, 0.17200000000000001, 192.0, 0.0, 0.0, 0.0, 0.0, 0.0, 0.0, 0.0, 0.0, 0.0, 1.700951082621647E9, 0.0, 2023-11-25 17:24:42.621
55.0, 48907.4944147461, 66260.60649879057, 9099.551629966692, -8130.000010728838, 23042.793338631793, -32212.149466532406, 18491.28526345316, 14770.457419211558, -0.038, 0.976, 0.17200000000000001, 192.0, 0.0, 0.0, 0.0, 0.0, 0.0, 0.0, 0.0, 0.0, 0.0, 1.700951082626662E9, 0.0, 2023-11-25 17:24:42.626
56.0, 48911.74124619261, 66246.90487943946, 9108.872307404556, -8133.553938097231, 23140.515165390392, -32017.890455471334, 18509.278417739682, 14839.814882256376, -0.038, 0.976, 0.17200000000000001, 192.0, 0.0, 0.0, 0.0, 0.0, 0.0, 0.0, 0.0, 0.0, 0.0, 1.700951082630734E9, 0.0, 2023-11-25 17:24:42.630
57.0, 48861.56157989044, 66200.81558237263, 9082.050214058187, -8173.898836839061, 23095.968138690965, -32039.973978993177, 18483.75272557172, 14814.736224977521, -0.038, 0.976, 0.17200000000000001, 192.0, 0.0, 0.0, 0.0, 0.0, 0.0, 0.0, 0.0, 0.0, 0.0, 1.700951082633785E9, 0.0, 2023-11-25 17:24:42.633
58.0, 48861.5839316349, 66213.3325592676, 9085.112403048564, -8159.526665154299, 23051.46581548045, -32218.40795497989, 18484.982071516763, 14784.360204262759, -0.038, 0.976, 0.17200000000000001, 192.0, 0.0, 0.0, 0.0, 0.0, 0.0, 0.0, 0.0, 0.0, 0.0, 1.70095108263777E9, 0.0, 2023-11-25 17:24:42.637
59.0, 48890.14946104878, 66247.12839688401, 9090.879153118034, -8140.259461433824, 23040.111129297155, -32206.71799262977, 18484.69149883884, 14773.296090757382, -0.038, 0.976, 0.17200000000000001, 192.0, 0.0, 0.0, 0.0, 0.0, 0.0, 0.0, 0.0, 0.0, 0.0, 1.700951082641698E9, 0.0, 2023-11-25 17:24:42.641
60.0, 48902.33116177692, 66244.55794627166, 9105.050159102699, -8134.582118342176, 23123.86311577119, -32079.558918423525, 18503.578722903578, 14820.391216324713, -0.042, 0.972, 0.178, 192.0, 254.0, 176.0, 30.0, 96.0, 5.0, 144.0, 0.0, 0.0, 0.0, 1.700951082644763E9, 0.0, 2023-11-25 17:24:42.644
61.0, 48853.51495188653, 66194.26652124722, 9079.569170423647, -8173.898836839061, 23122.924342504066, -31984.742818444112, 18489.005385518718, 14827.007332683484, -0.042, 0.972, 0.178, 192.0, 0.0, 0.0, 0.0, 0.0, 0.0, 0.0, 0.0, 0.0, 0.0, 1.700951082649694E9, 0.0, 2023-11-25 17:24:42.649
62.0, 48841.75793430304, 66200.50265795024, 9079.345652979095, -8164.7122698679295, 23060.272402795843, -32224.644091682923, 18490.27943495267, 14784.337852518303, -0.042, 0.972, 0.178, 192.0, 0.0, 0.0, 0.0, 0.0, 0.0, 0.0, 0.0, 0.0, 0.0, 1.700951082653755E9, 0.0, 2023-11-25 17:24:42.653
63.0, 48879.19710626568, 66238.61238224655, 9090.186249039918, -8139.320688166701, 23058.12663532813, -32186.780236575632, 18499.778926346175, 14787.534151975413, -0.042, 0.972, 0.178, 192.0, 0.0, 0.0, 0.0, 0.0, 0.0, 0.0, 0.0, 0.0, 0.0, 1.700951082660804E9, 0.0, 2023-11-25 17:24:42.660
64.0, 48907.941449635204, 66254.30330685417, 9106.61478121457, -8125.529661837776, 23114.900066244612, -32127.79398295808, 18513.346435230545, 14804.40971903917, -0.042, 0.972, 0.178, 192.0, 0.0, 0.0, 0.0, 0.0, 0.0, 0.0, 0.0, 0.0, 0.0, 1.700951082663862E9, 0.0, 2023-11-25 17:24:42.663
65.0, 48854.09609724237, 66190.73494562328, 9070.963748808355, -8177.251598507357, 23133.004979253412, -31943.347387712885, 18487.55252212912, 14824.816861726864, -0.042, 0.972, 0.178, 192.0, 0.0, 0.0, 0.0, 0.0, 0.0, 0.0, 0.0, 0.0, 0.0, 1.700951082667815E9, 0.0, 2023-11-25 17:24:42.667
66.0, 48835.09711445536, 66191.07022179011, 9068.12507726253, -8175.418755462022, 23049.297696268284, -32215.077545056054, 18489.832400063562, 14781.812105394854, -0.042, 0.972, 0.178, 192.0, 0.0, 0.0, 0.0, 0.0, 0.0, 0.0, 0.0, 0.0, 0.0, 1.700951082670786E9, 0.0, 2023-11-25 17:24:42.670
67.0, 48868.37886194931, 66223.81552741713, 9076.283463988717, -8152.217644717413, 23048.962420101456, -32169.100006711487, 18504.539847915155, 14804.387367294714, -0.042, 0.972, 0.178, 192.0, 0.0, 0.0, 0.0, 0.0, 0.0, 0.0, 0.0, 0.0, 0.0, 1.700951082674395E9, 0.0, 2023-11-25 17:24:42.674
68.0, 48902.33116177692, 66251.0399521637, 9097.338807265616, -8130.469397362399, 23085.70868798598, -32160.807509518567, 18523.94116210236, 14816.703178489588, -0.042, 0.972, 0.178, 192.0, 0.0, 0.0, 0.0, 0.0, 0.0, 0.0, 0.0, 0.0, 0.0, 1.700951082678058E9, 0.0, 2023-11-25 17:24:42.678
69.0, 48869.8317253389, 66203.05075681815, 9080.37383322404, -8162.499447166854, 23145.38784568165, -31918.447544389674, 18512.698234641342, 14870.190902971139, -0.042, 0.972, 0.178, 192.0, 0.0, 0.0, 0.0, 0.0, 0.0, 0.0, 0.0, 0.0, 0.0, 1.70095108268178E9, 0.0, 2023-11-25 17:24:42.681
70.0, 48838.20400693465, 66192.38897471297, 9066.828676084122, -8175.977549073405, 23047.308391011764, -32183.338067929515, 18493.81101057661, 14801.369881793247, -0.044, 0.968, 0.19, 192.0, 254.0, 160.0, 30.0, 64.0, 5.0, 240.0, 0.0, 0.0, 0.0, 1.70095108268583E9, 0.0, 2023-11-25 17:24:42.685
71.0, 48865.875466570316, 66222.83205066109, 9072.953054064878, -8155.123371496603, 23042.793338631793, -32170.99990499019, 18499.08602226806, 14808.254219085482, -0.044, 0.968, 0.19, 192.0, 0.0, 0.0, 0.0, 0.0, 0.0, 0.0, 0.0, 0.0, 0.0, 1.700951082689869E9, 0.0, 2023-11-25 17:24:42.689
72.0, 48904.29811528899, 66256.13614989951, 9096.735310165324, -8129.105940950626, 23061.725266185436, -32191.76467558917, 18511.915923585406, 14804.387367294714, -0.044, 0.968, 0.19, 192.0, 0.0, 0.0, 0.0, 0.0, 0.0, 0.0, 0.0, 0.0, 0.0, 1.700951082693891E9, 0.0, 2023-11-25 17:24:42.693
73.0, 48874.05620504096, 66207.00701558674, 9084.17362978144, -8161.225397732902, 23140.850441557224, -31936.17247774273, 18503.288150225657, 14863.217158701082, -0.044, 0.968, 0.19, 192.0, 0.0, 0.0, 0.0, 0.0, 0.0, 0.0, 0.0, 0.0, 0.0, 1.700951082697891E9, 0.0, 2023-11-25 17:24:42.697
74.0, 48834.29245165497, 66187.47159093281, 9072.03663254221, -8182.057223565248, 23053.432768992516, -32149.519878568637, 18482.724545326775, 14800.162887592662, -0.044, 0.968, 0.19, 192.0, 0.0, 0.0, 0.0, 0.0, 0.0, 0.0, 0.0, 0.0, 0.0, 1.700951082700856E9, 0.0, 2023-11-25 17:24:42.700
75.0, 48859.4828676561, 66218.11583258102, 9086.118231549053, -8155.346888941156, 23046.61548693365, -32186.266146453163, 18493.855714065518, 14805.437899284114, -0.044, 0.968, 0.19, 192.0, 0.0, 0.0, 0.0, 0.0, 0.0, 0.0, 0.0, 0.0, 0.0, 1.700951082704911E9, 0.0, 2023-11-25 17:24:42.704
76.0, 48906.555641478975, 66261.74643775779, 9108.693493448913, -8125.954344982428, 23053.18689980351, -32206.33801297403, 18505.65743513792, 14794.463192756557, -0.044, 0.968, 0.19, 192.0, 0.0, 0.0, 0.0, 0.0, 0.0, 0.0, 0.0, 0.0, 0.0, 1.700951082710121E9, 0.0, 2023-11-25 17:24:42.710
77.0, 48896.564411707455, 66227.16828908543, 9103.887868391022, -8145.1097899806255, 23144.270258458884, -31972.583469460427, 18505.635083393467, 14855.438751630636, -0.044, 0.968, 0.19, 192.0, 0.0, 0.0, 0.0, 0.0, 0.0, 0.0, 0.0, 0.0, 0.0, 1.70095108271389E9, 0.0, 2023-11-25 17:24:42.713
78.0, 48846.87648378331, 66189.19267525586, 9073.757716865268, -8185.566447444731, 23067.492016254906, -32098.22262504371, 18472.08511496605, 14794.865524156754, -0.044, 0.968, 0.19, 192.0, 0.0, 0.0, 0.0, 0.0, 0.0, 0.0, 0.0, 0.0, 0.0, 1.70095108271798E9, 0.0, 2023-11-25 17:24:42.717
79.0, 48864.22143748062, 66216.35004476906, 9077.333995978117, -8168.042679791771, 23039.0382455633, -32216.932739845844, 18477.65069933542, 14776.78296289241, -0.044, 0.968, 0.19, 192.0, 0.0, 0.0, 0.0, 0.0, 0.0, 0.0, 0.0, 0.0, 0.0, 1.700951082721932E9, 0.0, 2023-11-25 17:24:42.721
80.0, 48907.44971125719, 66263.04283893619, 9093.539010708215, -8139.432446888977, 23036.13251878411, -32225.67227192787, 18485.071478494585, 14764.869483097731, -0.04, 0.968, 0.188, 192.0, 254.0, 192.0, 30.0, 64.0, 5.0, 224.0, 0.0, 0.0, 0.0, 1.700951082725019E9, 0.0, 2023-11-25 17:24:42.725
81.0, 48901.28062978752, 66241.00401890326, 9093.159031052475, -8152.284699950779, 23119.99626398042, -32041.20332493822, 18484.28916743865, 14811.472870287047, -0.04, 0.968, 0.188, 192.0, 0.0, 0.0, 0.0, 0.0, 0.0, 0.0, 0.0, 0.0, 0.0, 1.700951082728967E9, 0.0, 2023-11-25 17:24:42.728
82.0, 48845.98241400509, 66191.53960842367, 9061.106629503563, -8196.943485372483, 23074.46576052496, -32048.847621541932, 18457.154149669906, 14782.795582150888, -0.04, 0.968, 0.188, 192.0, 0.0, 0.0, 0.0, 0.0, 0.0, 0.0, 0.0, 0.0, 0.0, 1.700951082735012E9, 0.0, 2023-11-25 17:24:42.735
83.0, 48849.312823928936, 66211.41030924444, 9070.919045319444, -8176.469287451421, 23034.65730365006, -32235.060004599098, 18478.589472602544, 14767.998727321474, -0.04, 0.968, 0.188, 192.0, 0.0, 0.0, 0.0, 0.0, 0.0, 0.0, 0.0, 0.0, 0.0, 1.7009510827391E9, 0.0, 2023-11-25 17:24:42.739
84.0, 48890.8423651269, 66255.28678361021, 9087.146411793998, -8148.417848160011, 23032.98092281591, -32211.121286287464, 18489.586530874556, 14767.708154643555, -0.04, 0.968, 0.188, 192.0, 0.0, 0.0, 0.0, 0.0, 0.0, 0.0, 0.0, 0.0, 0.0, 1.700951082741998E9, 0.0, 2023-11-25 17:24:42.741
85.0, 48903.336990277414, 66253.27512660922, 9099.126946822042, -8144.260423691324, 23108.99920570841, -32095.07102907551, 18501.18708624686, 14802.845096927298, -0.04, 0.968, 0.188, 192.0, 0.0, 0.0, 0.0, 0.0, 0.0, 0.0, 0.0, 0.0, 0.0, 1.700951082745968E9, 0.0, 2023-11-25 17:24:42.745
86.0, 48853.60435886435, 66197.12754453749, 9068.303891218173, -8188.874505624117, 23102.137220160632, -31990.04018188002, 18477.360126657502, 14804.096794616795, -0.04, 0.968, 0.188, 192.0, 0.0, 0.0, 0.0, 0.0, 0.0, 0.0, 0.0, 0.0, 0.0, 1.700951082751999E9, 0.0, 2023-11-25 17:24:42.751
87.0, 48842.60730059234, 66202.89429460696, 9070.561417408158, -8179.129145041603, 23035.774890872824, -32232.71307143129, 18485.026775005674, 14769.026907566418, -0.04, 0.968, 0.188, 192.0, 0.0, 0.0, 0.0, 0.0, 0.0, 0.0, 0.0, 0.0, 0.0, 1.700951082754984E9, 0.0, 2023-11-25 17:24:42.754
88.0, 48882.214591767144, 66243.06037939315, 9084.933589092921, -8152.4411621619665, 23036.84777460668, -32192.815207578566, 18497.09671701154, 14781.007442594462, -0.04, 0.968, 0.188, 192.0, 0.0, 0.0, 0.0, 0.0, 0.0, 0.0, 0.0, 0.0, 0.0, 1.700951082757995E9, 0.0, 2023-11-25 17:24:42.757
89.0, 48918.06678987346, 66263.17694940293, 9109.855784160589, -8130.938783995961, 23095.923435202058, -32136.488811551193, 18525.125804558495, 14818.200745368094, -0.048, 0.974, 0.186, 192.0, 254.0, 128.0, 30.0, 112.0, 5.0, 208.0, 0.0, 0.0, 0.0, 1.700951082761053E9, 0.0, 2023-11-25 17:24:42.761
90.0, 48868.244751482576, 66197.1722480264, 9077.468106444849, -8177.631578163097, 23119.9068570026, -31935.99366378709, 18505.791545604654, 14856.17635919766, -0.048, 0.974, 0.186, 192.0, 0.0, 0.0, 0.0, 0.0, 0.0, 0.0, 0.0, 0.0, 0.0, 1.700951082766013E9, 0.0, 2023-11-25 17:24:42.766
91.0, 48848.55286461746, 66200.23443701678, 9079.010376812264, -8172.691842638475, 23038.54650718528, -32209.37785021995, 18509.032548550673, 14805.326140561838, -0.048, 0.974, 0.186, 192.0, 0.0, 0.0, 0.0, 0.0, 0.0, 0.0, 0.0, 0.0, 0.0, 1.700951082770029E9, 0.0, 2023-11-25 17:24:42.770
92.0, 48875.307902730456, 66232.35389379905, 9088.129888550031, -8150.720077838908, 23040.17818453052, -32159.8910879959, 18521.72833940129, 14825.442710571613, -0.048, 0.974, 0.186, 192.0, 0.0, 0.0, 0.0, 0.0, 0.0, 0.0, 0.0, 0.0, 0.0, 1.700951082774047E9, 0.0, 2023-11-25 17:24:42.774
93.0, 48910.28838280301, 66260.45003657938, 9110.66044696098, -8126.356676382623, 23075.538644258817, -32157.45474785027, 18542.33664778908, 14836.864451988275, -0.048, 0.974, 0.186, 192.0, 0.0, 0.0, 0.0, 0.0, 0.0, 0.0, 0.0, 0.0, 0.0, 1.700951082778072E9, 0.0, 2023-11-25 17:24:42.778
94.0, 48876.17962076421, 66207.18582954239, 9090.208600784374, -8162.164171000025, 23139.19641246753, -31912.79255304248, 18529.462042982825, 14889.145182269238, -0.048, 0.974, 0.186, 192.0, 0.0, 0.0, 0.0, 0.0, 0.0, 0.0, 0.0, 0.0, 0.0, 1.700951082781076E9, 0.0, 2023-11-25 17:24:42.781
95.0, 48836.90760575624, 66188.58917815557, 9074.830600599123, -8178.324482241212, 23039.820556619234, -32170.195242189795, 18509.926618328886, 14820.145347135705, -0.048, 0.974, 0.186, 192.0, 0.0, 0.0, 0.0, 0.0, 0.0, 0.0, 0.0, 0.0, 0.0, 1.700951082785082E9, 0.0, 2023-11-25 17:24:42.785
96.0, 48855.50425714305, 66212.5278964672, 9076.350519222084, -8161.068935521715, 23028.55527741376, -32167.065997966052, 18511.781813118676, 14823.766329737466, -0.048, 0.974, 0.186, 192.0, 0.0, 0.0, 0.0, 0.0, 0.0, 0.0, 0.0, 0.0, 0.0, 1.700951082789237E9, 0.0, 2023-11-25 17:24:42.789
97.0, 48900.185394309214, 66253.72216149833, 9098.210525299373, -8135.1856154424695, 23044.290905510297, -32198.26903322566, 18521.415414978914, 14810.31057957537, -0.048, 0.974, 0.186, 192.0, 0.0, 0.0, 0.0, 0.0, 0.0, 0.0, 0.0, 0.0, 0.0, 1.700951082793107E9, 0.0, 2023-11-25 17:24:42.793
98.0, 48875.53142017501, 66204.45891671884, 9083.301911747683, -8169.5849501591865, 23126.411214639094, -31943.012111546053, 18511.021853807193, 14868.402763414713, -0.048, 0.974, 0.186, 192.0, 0.0, 0.0, 0.0, 0.0, 0.0, 0.0, 0.0, 0.0, 0.0, 1.700951082798136E9, 0.0, 2023-11-25 17:24:42.798
99.0, 48833.26427141002, 66178.88852106196, 9062.425382426427, -8197.390520261588, 23037.786547873802, -32141.629712775914, 18480.891702281442, 14795.826649168332, -0.044, 0.97, 0.192, 192.0, 254.0, 160.0, 30.0, 80.0, 6.0, 0.0, 0.0, 0.0, 0.0, 1.700951082802165E9, 0.0, 2023-11-25 17:24:42.802
100.0, 48862.05331826846, 66215.56773371312, 9075.970539566344, -8168.33325246969, 23031.50570768186, -32191.18353023333, 18487.37370817348, 14792.049204355384, -0.044, 0.97, 0.192, 192.0, 0.0, 0.0, 0.0, 0.0, 0.0, 0.0, 0.0, 0.0, 0.0, 1.700951082806186E9, 0.0, 2023-11-25 17:24:42.806
101.0, 48915.67515321674, 66267.4908360828, 9102.837336401622, -8131.60933632962, 23042.167489787043, -32206.539178674124, 18506.059766538117, 14788.338814775803, -0.044, 0.97, 0.192, 192.0, 0.0, 0.0, 0.0, 0.0, 0.0, 0.0, 0.0, 0.0, 0.0, 1.700951082809154E9, 0.0, 2023-11-25 17:24:42.809
102.0, 48907.472063001645, 66236.80189094566, 9099.194002055407, -8147.479074892888, 23134.748415320926, -31974.081036338932, 18510.127784028984, 14850.789588783931, -0.044, 0.97, 0.192, 192.0, 0.0, 0.0, 0.0, 0.0, 0.0, 0.0, 0.0, 0.0, 0.0, 1.700951082813172E9, 0.0, 2023-11-25 17:24:42.813
103.0, 48854.38666992029, 66194.98177706978, 9069.019147040743, -8187.1981247899685, 23062.217004563452, -32076.83200559998, 18480.690536581344, 14804.253256827982, -0.044, 0.97, 0.192, 192.0, 0.0, 0.0, 0.0, 0.0, 0.0, 0.0, 0.0, 0.0, 0.0, 1.700951082819149E9, 0.0, 2023-11-25 17:24:42.819
104.0, 48871.97749280662, 66220.19454481537, 9080.932626835422, -8161.292452966268, 23038.479451951916, -32198.917233814867, 18496.85084782253, 14798.039471869406, -0.044, 0.97, 0.192, 192.0, 0.0, 0.0, 0.0, 0.0, 0.0, 0.0, 0.0, 0.0, 0.0, 1.700951082822164E9, 0.0, 2023-11-25 17:24:42.822
105.0, 48918.82674918494, 66265.41212384845, 9100.8480311451, -8129.463568861911, 23039.37352173013, -32197.442018680817, 18517.347397488047, 14797.391271280203, -0.044, 0.97, 0.192, 192.0, 0.0, 0.0, 0.0, 0.0, 0.0, 0.0, 0.0, 0.0, 0.0, 1.700951082826366E9, 0.0, 2023-11-25 17:24:42.826
106.0, 48923.6994294762, 66253.18571963141, 9110.99572312781, -8133.620993330597, 23129.831031540758, -32020.595016550425, 18535.586420963577, 14860.825522044364, -0.044, 0.97, 0.192, 192.0, 0.0, 0.0, 0.0, 0.0, 0.0, 0.0, 0.0, 0.0, 0.0, 1.700951082830614E9, 0.0, 2023-11-25 17:24:42.830
107.0, 48871.99984455107, 66206.381166742, 9083.70424314788, -8180.872581109117, 23089.12850488764, -32010.62613852336, 18507.71379562781, 14839.636068300733, -0.044, 0.97, 0.192, 192.0, 0.0, 0.0, 0.0, 0.0, 0.0, 0.0, 0.0, 0.0, 0.0, 1.700951082834834E9, 0.0, 2023-11-25 17:24:42.834
108.0, 48872.089251528894, 66225.40250127346, 9090.543876951204, -8167.081554780192, 23037.719492640437, -32213.736440388733, 18512.452365452333, 14807.047224884895, -0.044, 0.97, 0.192, 192.0, 0.0, 0.0, 0.0, 0.0, 0.0, 0.0, 0.0, 0.0, 0.0, 1.70095108283722E9, 0.0, 2023-11-25 17:24:42.837
109.0, 48913.08235085993, 66269.10016168359, 9109.22993531584, -8134.336249153167, 23037.920658340536, -32187.160216231376, 18529.439691238367, 14815.764405222466, -0.044, 0.976, 0.19, 192.0, 254.0, 160.0, 30.0, 128.0, 5.0, 240.0, 0.0, 0.0, 0.0, 1.70095108284136E9, 0.0, 2023-11-25 17:24:42.841
110.0, 48927.72274347815, 66269.1448651725, 9125.703170979401, -8124.881461248573, 23111.614359809682, -32075.334438721475, 18549.44450252587, 14861.920757522674, -0.044, 0.976, 0.19, 192.0, 0.0, 0.0, 0.0, 0.0, 0.0, 0.0, 0.0, 0.0, 0.0, 1.700951082845224E9, 0.0, 2023-11-25 17:24:42.845
111.0, 48876.559600419954, 66213.3325592676, 9096.221220042851, -8169.09321178117, 23111.52495283186, -31951.37166397234, 18526.66807492591, 14870.481475649058, -0.044, 0.976, 0.19, 192.0, 0.0, 0.0, 0.0, 0.0, 0.0, 0.0, 0.0, 0.0, 0.0, 1.700951082849239E9, 0.0, 2023-11-25 17:24:42.849
112.0, 48863.684995613694, 66221.42389076042, 9096.154164809486, -8162.119467511114, 23038.457100207463, -32207.23208275224, 18527.04805458165, 14823.431053570635, -0.044, 0.976, 0.19, 192.0, 0.0, 0.0, 0.0, 0.0, 0.0, 0.0, 0.0, 0.0, 0.0, 1.700951082853324E9, 0.0, 2023-11-25 17:24:42.853
113.0, 48889.03187382602, 66249.29651609618, 9094.500135719793, -8144.483941135877, 23025.738957612393, -32166.66366656586, 18530.95960986133, 14829.287210617926, -0.044, 0.976, 0.19, 192.0, 0.0, 0.0, 0.0, 0.0, 0.0, 0.0, 0.0, 0.0, 0.0, 1.70095108285838E9, 0.0, 2023-11-25 17:24:42.858
114.0, 48915.853967172385, 66267.6920017829, 9109.252287060295, -8126.580193827176, 23073.23641457992, -32127.525762024616, 18548.5280810032, 14852.622431829266, -0.044, 0.976, 0.19, 192.0, 0.0, 0.0, 0.0, 0.0, 0.0, 0.0, 0.0, 0.0, 0.0, 1.700951082861309E9, 0.0, 2023-11-25 17:24:42.861
115.0, 48872.7374521181, 66212.4831929783, 9077.781030867223, -8169.4061362035445, 23107.635749296638, -31920.682718835204, 18530.08789182757, 14886.03828978995, -0.044, 0.976, 0.19, 192.0, 0.0, 0.0, 0.0, 0.0, 0.0, 0.0, 0.0, 0.0, 0.0, 1.700951082865336E9, 0.0, 2023-11-25 17:24:42.865
116.0, 48853.492600142075, 66215.72419592431, 9076.752850622279, -8164.913435568027, 23026.85654483516, -32196.972632047255, 18528.925601115894, 14823.74397799301, -0.044, 0.976, 0.19, 192.0, 0.0, 0.0, 0.0, 0.0, 0.0, 0.0, 0.0, 0.0, 0.0, 1.700951082869323E9, 0.0, 2023-11-25 17:24:42.869
117.0, 48884.42741446822, 66250.03412366321, 9085.268865259752, -8138.963060255416, 23029.426995447517, -32156.761843772158, 18536.70400818634, 14832.036475185929, -0.044, 0.976, 0.19, 192.0, 0.0, 0.0, 0.0, 0.0, 0.0, 0.0, 0.0, 0.0, 0.0, 1.700951082873324E9, 0.0, 2023-11-25 17:24:42.873
118.0, 48926.49339753311, 66285.97572874733, 9107.642961459513, -8112.5880017981535, 23061.166472574052, -32162.618000819446, 18549.28804031468, 14829.063693173373, -0.044, 0.976, 0.19, 192.0, 0.0, 0.0, 0.0, 0.0, 0.0, 0.0, 0.0, 0.0, 0.0, 1.700951082877312E9, 0.0, 2023-11-25 17:24:42.877
119.0, 48890.77530989353, 66229.22464957532, 9082.698414647391, -8154.944557540961, 23122.164383192587, -31910.31150940794, 18529.48439472728, 14872.51548439449, -0.038, 0.972, 0.188, 192.0, 254.0, 208.0, 30.0, 96.0, 5.0, 224.0, 0.0, 0.0, 0.0, 1.700951082884375E9, 0.0, 2023-11-25 17:24:42.884
120.0, 48856.353623432355, 66216.39474825797, 9070.60612089707, -8166.56746465772, 23028.398815202574, -32162.50624209717, 18516.542734687657, 14805.348492306292, -0.038, 0.972, 0.188, 192.0, 0.0, 0.0, 0.0, 0.0, 0.0, 0.0, 0.0, 0.0, 0.0, 1.700951082890451E9, 0.0, 2023-11-25 17:24:42.890
121.0, 48887.82487962543, 66251.64344926398, 9080.597350668591, -8136.5937753431535, 23032.824460604723, -32156.717140283246, 18527.09275807056, 14817.329027334337, -0.038, 0.972, 0.188, 192.0, 0.0, 0.0, 0.0, 0.0, 0.0, 0.0, 0.0, 0.0, 0.0, 1.700951082893397E9, 0.0, 2023-11-25 17:24:42.893
122.0, 48940.1503133953, 66300.39260392102, 9107.508850992781, -8101.456833059411, 23054.8409288932, -32181.7957975621, 18540.347342532557, 14806.823707440342, -0.038, 0.972, 0.188, 192.0, 0.0, 0.0, 0.0, 0.0, 0.0, 0.0, 0.0, 0.0, 0.0, 1.700951082896656E9, 0.0, 2023-11-25 17:24:42.896
123.0, 48920.056095129985, 66255.04091442119, 9092.376719996539, -8129.307106650724, 23138.838784556247, -31927.522352638527, 18531.80897615063, 14864.5582633684, -0.038, 0.972, 0.188, 192.0, 0.0, 0.0, 0.0, 0.0, 0.0, 0.0, 0.0, 0.0, 0.0, 1.700951082900432E9, 0.0, 2023-11-25 17:24:42.900
124.0, 48880.49350744409, 66228.57644898612, 9068.482705173816, -8157.783229086785, 23050.28117302432, -32115.25465431865, 18507.222057249794, 14803.046262627395, -0.038, 0.972, 0.188, 192.0, 0.0, 0.0, 0.0, 0.0, 0.0, 0.0, 0.0, 0.0, 0.0, 1.700951082903481E9, 0.0, 2023-11-25 17:24:42.903
125.0, 48899.60424895337, 66256.06909466613, 9072.8412953426, -8138.068990477203, 23034.098510038675, -32179.158291716376, 18515.246333509247, 14805.147326606195, -0.038, 0.972, 0.188, 192.0, 0.0, 0.0, 0.0, 0.0, 0.0, 0.0, 0.0, 0.0, 0.0, 1.700951082907507E9, 0.0, 2023-11-25 17:24:42.907
126.0, 48950.92385422276, 66307.99219703581, 9099.529278222237, -8101.590943526143, 23044.402664232573, -32191.76467558917, 18540.749673932754, 14807.874239429742, -0.038, 0.972, 0.188, 192.0, 0.0, 0.0, 0.0, 0.0, 0.0, 0.0, 0.0, 0.0, 0.0, 1.700951082910454E9, 0.0, 2023-11-25 17:24:42.910
127.0, 48947.59344429892, 66279.11374319956, 9097.56232471017, -8114.599658799131, 23138.771729322878, -31966.973181602145, 18554.56305200613, 14873.99069952854, -0.038, 0.972, 0.188, 192.0, 0.0, 0.0, 0.0, 0.0, 0.0, 0.0, 0.0, 0.0, 0.0, 1.700951082914445E9, 0.0, 2023-11-25 17:24:42.914
128.0, 48894.12807156183, 66234.00792288875, 9062.917120804444, -8155.816275574717, 23073.66109772457, -32047.528868619072, 18527.360979004025, 14827.45436757259, -0.038, 0.972, 0.188, 192.0, 0.0, 0.0, 0.0, 0.0, 0.0, 0.0, 0.0, 0.0, 0.0, 1.700951082917454E9, 0.0, 2023-11-25 17:24:42.917
129.0, 48899.38073150882, 66249.69884749637, 9060.212559725353, -8141.4217521455, 23039.37352173013, -32188.23309996523, 18528.05388308214, 14799.738204448011, -0.036000000000000004, 0.97, 0.194, 192.0, 254.0, 224.0, 30.0, 80.0, 6.0, 16.0, 0.0, 0.0, 0.0, 1.700951082920478E9, 0.0, 2023-11-25 17:24:42.920
130.0, 48942.36313609638, 66296.16812421897, 9071.343728464095, -8115.4043215995225, 23035.216097261444, -32187.78606507612, 18532.01014185073, 14785.366032763248, -0.036000000000000004, 0.97, 0.194, 192.0, 0.0, 0.0, 0.0, 0.0, 0.0, 0.0, 0.0, 0.0, 0.0, 1.700951082925521E9, 0.0, 2023-11-25 17:24:42.925
131.0, 48964.53606659604, 66298.33624343113, 9088.308702505672, -8108.519984307288, 23127.640560584136, -32026.49587708663, 18553.19959559436, 14844.106417191795, -0.036000000000000004, 0.97, 0.194, 192.0, 0.0, 0.0, 0.0, 0.0, 0.0, 0.0, 0.0, 0.0, 0.0, 1.700951082929548E9, 0.0, 2023-11-25 17:24:42.929
132.0, 48921.12897886384, 66250.68232425241, 9058.580882380114, -8149.378973171589, 23101.08668817123, -31988.542615001516, 18532.256011039735, 14833.288172875426, -0.036000000000000004, 0.97, 0.194, 192.0, 0.0, 0.0, 0.0, 0.0, 0.0, 0.0, 0.0, 0.0, 0.0, 1.70095108293364E9, 0.0, 2023-11-25 17:24:42.933
133.0, 48920.9948683971, 66263.73574301432, 9059.072620758132, -8135.319725909201, 23049.02947533482, -32201.487684427226, 18531.473699983802, 14793.569122978346, -0.036000000000000004, 0.97, 0.194, 192.0, 0.0, 0.0, 0.0, 0.0, 0.0, 0.0, 0.0, 0.0, 0.0, 1.700951082937551E9, 0.0, 2023-11-25 17:24:42.937
134.0, 48958.23287465965, 66300.88434229903, 9067.678042373425, -8112.856222731617, 23043.821518876735, -32173.145672457897, 18535.42995875239, 14787.44474499759, -0.036000000000000004, 0.97, 0.194, 192.0, 0.0, 0.0, 0.0, 0.0, 0.0, 0.0, 0.0, 0.0, 0.0, 1.700951082942601E9, 0.0, 2023-11-25 17:24:42.942
135.0, 48983.803270316515, 66308.05925226919, 9083.547780936693, -8101.769757481785, 23119.19160118003, -32078.083703289474, 18554.25012758376, 14822.000541925496, -0.036000000000000004, 0.97, 0.194, 192.0, 0.0, 0.0, 0.0, 0.0, 0.0, 0.0, 0.0, 0.0, 0.0, 1.700951082945631E9, 0.0, 2023-11-25 17:24:42.945
136.0, 48934.942356937216, 66246.74841722827, 9048.41083865295, -8151.234167961379, 23127.059415228297, -31937.155954498765, 18527.606848193034, 14835.165719409672, -0.036000000000000004, 0.97, 0.194, 192.0, 0.0, 0.0, 0.0, 0.0, 0.0, 0.0, 0.0, 0.0, 0.0, 1.700951082950753E9, 0.0, 2023-11-25 17:24:42.950
137.0, 48922.33597306442, 66248.1342253845, 9047.114437474542, -8145.668583592008, 23052.60575444767, -32193.08342851203, 18525.930467358885, 14789.478753743024, -0.036000000000000004, 0.97, 0.194, 192.0, 0.0, 0.0, 0.0, 0.0, 0.0, 0.0, 0.0, 0.0, 0.0, 1.700951082953579E9, 0.0, 2023-11-25 17:24:42.953
138.0, 48961.11624969438, 66282.62296707905, 9053.618795111037, -8124.277964148279, 23049.23064103492, -32152.000922203177, 18529.28322902718, 14795.513724745957, -0.036000000000000004, 0.97, 0.194, 192.0, 0.0, 0.0, 0.0, 0.0, 0.0, 0.0, 0.0, 0.0, 0.0, 1.700951082957559E9, 0.0, 2023-11-25 17:24:42.957
139.0, 49002.17640425878, 66311.36731044856, 9082.9442838364, -8098.08171964666, 23108.686281286038, -32117.847456675467, 18552.77491244971, 14826.60500128329, -0.04, 0.974, 0.192, 192.0, 254.0, 192.0, 30.0, 112.0, 6.0, 0.0, 0.0, 0.0, 0.0, 1.700951082961581E9, 0.0, 2023-11-25 17:24:42.961
140.0, 48960.78097352755, 66254.32565859862, 9058.849103313578, -8143.411057402022, 23152.49570041844, -31896.028744701, 18530.08789182757, 14872.13550473875, -0.04, 0.974, 0.192, 192.0, 0.0, 0.0, 0.0, 0.0, 0.0, 0.0, 0.0, 0.0, 0.0, 1.700951082965672E9, 0.0, 2023-11-25 17:24:42.965
141.0, 48937.15517963829, 66251.55404228617, 9052.098876488075, -8154.3857639295775, 23059.42303650654, -32176.297268426097, 18505.120993270993, 14797.815954424854, -0.04, 0.974, 0.192, 192.0, 0.0, 0.0, 0.0, 0.0, 0.0, 0.0, 0.0, 0.0, 0.0, 1.700951082969562E9, 0.0, 2023-11-25 17:24:42.969
142.0, 48971.46510737719, 66285.46163862487, 9062.335975448606, -8133.375124141589, 23056.539661471805, -32145.83184073351, 18501.477658924778, 14801.347530048792, -0.04, 0.974, 0.192, 192.0, 0.0, 0.0, 0.0, 0.0, 0.0, 0.0, 0.0, 0.0, 0.0, 1.700951082974607E9, 0.0, 2023-11-25 17:24:42.974
143.0, 49017.93438409977, 66321.33618847563, 9090.946208351399, -8105.614257528098, 23087.65328975359, -32160.22636416273, 18511.357129974025, 14798.106527102773, -0.04, 0.974, 0.192, 192.0, 0.0, 0.0, 0.0, 0.0, 0.0, 0.0, 0.0, 0.0, 0.0, 1.700951082977599E9, 0.0, 2023-11-25 17:24:42.977
144.0, 48993.36981694339, 66272.16235067396, 9077.736327378312, -8137.80076954374, 23164.319773235296, -31902.9801372266, 18497.387289689457, 14852.533024851446, -0.04, 0.974, 0.192, 192.0, 0.0, 0.0, 0.0, 0.0, 0.0, 0.0, 0.0, 0.0, 0.0, 1.700951082980648E9, 0.0, 2023-11-25 17:24:42.980
145.0, 48957.227046159154, 66255.4879493103, 9064.392335938493, -8155.503351152343, 23070.71066745647, -32146.435337833806, 18470.922824254372, 14781.521532716935, -0.04, 0.974, 0.192, 192.0, 0.0, 0.0, 0.0, 0.0, 0.0, 0.0, 0.0, 0.0, 0.0, 1.700951082985623E9, 0.0, 2023-11-25 17:24:42.985
146.0, 48984.585581372456, 66290.91546427197, 9076.216408755352, -8129.329458395178, 23072.118827357153, -32152.202087903275, 18480.60112960352, 14792.563294477857, -0.04, 0.974, 0.192, 192.0, 0.0, 0.0, 0.0, 0.0, 0.0, 0.0, 0.0, 0.0, 0.0, 1.700951082989639E9, 0.0, 2023-11-25 17:24:42.989
147.0, 49028.28324178258, 66335.57424969367, 9099.037539844221, -8100.786280725752, 23084.322879829753, -32175.760826559166, 18494.638025121454, 14786.55067521938, -0.04, 0.974, 0.192, 192.0, 0.0, 0.0, 0.0, 0.0, 0.0, 0.0, 0.0, 0.0, 0.0, 1.700951082993724E9, 0.0, 2023-11-25 17:24:42.993
148.0, 49008.94898282874, 66293.06123173967, 9088.912199605966, -8127.697781049941, 23172.63462217267, -31919.945111268178, 18499.734222857263, 14856.243414431026, -0.04, 0.974, 0.192, 192.0, 0.0, 0.0, 0.0, 0.0, 0.0, 0.0, 0.0, 0.0, 0.0, 1.700951082997867E9, 0.0, 2023-11-25 17:24:42.997
149.0, 48959.28340664905, 66255.84557722158, 9059.899635302978, -8164.354641956645, 23086.356888575185, -32091.338287751474, 18473.18035044436, 14790.909265388163, -0.046, 0.97, 0.188, 192.0, 254.0, 144.0, 30.0, 80.0, 5.0, 224.0, 0.0, 0.0, 0.0, 1.700951083000701E9, 0.0, 2023-11-25 17:24:43.000
150.0, 48967.95588349771, 66272.72114428534, 9055.988080023299, -8153.201121473447, 23062.105245841176, -32175.626716092436, 18467.860635263998, 14770.166846533639, -0.046, 0.97, 0.188, 192.0, 0.0, 0.0, 0.0, 0.0, 0.0, 0.0, 0.0, 0.0, 0.0, 1.700951083004706E9, 0.0, 2023-11-25 17:24:43.004
151.0, 49003.49515718164, 66313.28956047172, 9069.577940652125, -8127.27309790529, 23058.931298128522, -32194.60334713499, 18479.930577269864, 14759.192140006084, -0.046, 0.97, 0.188, 192.0, 0.0, 0.0, 0.0, 0.0, 0.0, 0.0, 0.0, 0.0, 0.0, 1.700951083008717E9, 0.0, 2023-11-25 17:24:43.008
152.0, 48997.95192455673, 66287.36153690357, 9069.354423207573, -8139.253632933335, 23152.339238207252, -31979.42310326375, 18496.24735072224, 14823.073425659351, -0.046, 0.97, 0.188, 192.0, 0.0, 0.0, 0.0, 0.0, 0.0, 0.0, 0.0, 0.0, 0.0, 1.70095108301375E9, 0.0, 2023-11-25 17:24:43.013
153.0, 48947.45933383219, 66246.45784455036, 9043.873434528523, -8175.508162439843, 23099.075031170254, -32044.869011028888, 18470.721658554277, 14781.92386411713, -0.046, 0.97, 0.188, 192.0, 0.0, 0.0, 0.0, 0.0, 0.0, 0.0, 0.0, 0.0, 0.0, 1.700951083020783E9, 0.0, 2023-11-25 17:24:43.020
