%OpenBCI Raw EXG Data
%Number of channels = 8
%Sample Rate = 250 Hz
%Board = OpenBCI_GUI$BoardCytonSerial
Sample Index, EXG Channel 0, EXG Channel 1, EXG Channel 2, EXG Channel 3, EXG Channel 4, EXG Channel 5, EXG Channel 6, EXG Channel 7, Accel Channel 0, Accel Channel 1, Accel Channel 2, Other, Other, Other, Other, Other, Other, Other, Analog Channel 0, Analog Channel 1, Analog Channel 2, Timestamp, Other, Timestamp (Formatted)
14.0, 75870.40375118301, 81953.02867329463, -11310.13915659656, -9476.558503694356, -4609.801424718074, -2953.827733257739, -15745.820492007791, 187500.0, 0.0, 0.0, 0.0, 192.0, 0.0, 0.0, 0.0, 0.0, 0.0, 0.0, 0.0, 0.0, 0.0, 1.700945663037099E9, 0.0, 2023-11-25 15:54:23.037
15.0, 75884.68651588995, 82009.28801408864, -12040.080075273523, -10177.620968535062, -5444.1473417457755, -3661.6404249239476, -15854.494673549496, 187500.0, 0.0, 0.0, 0.0, 192.0, 0.0, 0.0, 0.0, 0.0, 0.0, 0.0, 0.0, 0.0, 0.0, 1.700945663037125E9, 0.0, 2023-11-25 15:54:23.037
16.0, 75897.9634520964, 81999.14032210593, -11521.743121354953, -10001.578629205063, -5030.125979200123, -3689.915381659911, -15695.529066983352, 187500.0, 0.0, 0.0, 0.0, 192.0, 0.0, 0.0, 0.0, 0.0, 0.0, 0.0, 0.0, 0.0, 0.0, 1.700945663037138E9, 0.0, 2023-11-25 15:54:23.037
17.0, 75883.63598390055, 81943.6409406234, -10681.362233324318, -8908.891249762923, -3967.255826861361, -2656.0801453685935, -15647.47281640444, 187500.0, -0.126, 0.964, 0.19, 192.0, 252.0, 16.0, 30.0, 32.0, 5.0, 240.0, 0.0, 0.0, 0.0, 1.70094566303715E9, 0.0, 2023-11-25 15:54:23.037
0.0, 0.0, 0.0, 0.0, 0.0, 0.0, 0.0, 0.0, 0.0, -0.146, 0.962, 0.12, 192.0, 251.0, 112.0, 30.0, 16.0, 3.0, 192.0, 0.0, 0.0, 0.0, 1.700945663098606E9, 0.0, 2023-11-25 15:54:23.098
1.0, 75532.55713374104, 81459.63626618819, -11605.003369450971, -9668.112953676338, -4724.711742962807, -3154.6805089331283, -15732.320038356787, 187500.0, -0.146, 0.962, 0.12, 192.0, 0.0, 0.0, 0.0, 0.0, 0.0, 0.0, 0.0, 0.0, 0.0, 1.700945663115727E9, 0.0, 2023-11-25 15:54:23.115
2.0, 75533.51825875262, 81479.28344956439, -12101.770889970172, -10396.377491519153, -5411.446739607661, -3890.5669916352026, -15756.012887479412, 187500.0, -0.146, 0.962, 0.12, 192.0, 0.0, 0.0, 0.0, 0.0, 0.0, 0.0, 0.0, 0.0, 0.0, 1.700945663118688E9, 0.0, 2023-11-25 15:54:23.118
3.0, 75564.83305273451, 81444.77235612541, -10911.048759347053, -9356.619042947179, -4164.733489123999, -3100.432825140098, -15552.477902469385, 187500.0, -0.146, 0.962, 0.12, 192.0, 0.0, 0.0, 0.0, 0.0, 0.0, 0.0, 0.0, 0.0, 0.0, 1.700945663121632E9, 0.0, 2023-11-25 15:54:23.121
4.0, 75553.59012527349, 81429.88609431816, -10862.411363412306, -9072.8412953426, -3961.8690564476324, -2776.9583793828942, -15651.339668195209, 187500.0, -0.146, 0.962, 0.12, 192.0, 0.0, 0.0, 0.0, 0.0, 0.0, 0.0, 0.0, 0.0, 0.0, 1.70094566312569E9, 0.0, 2023-11-25 15:54:23.125
5.0, 75527.68445344978, 81446.35932998173, -11472.569283553277, -9570.748754829021, -4581.012377859638, -3081.0985661862574, -15710.0577008793, 187500.0, -0.146, 0.962, 0.12, 192.0, 0.0, 0.0, 0.0, 0.0, 0.0, 0.0, 0.0, 0.0, 0.0, 1.700945663129627E9, 0.0, 2023-11-25 15:54:23.129
6.0, 75525.6280929599, 81480.42338853162, -12135.522024097685, -10349.595290374195, -5404.070663937409, -3819.4437407784158, -15775.749477833448, 187500.0, -0.146, 0.962, 0.12, 192.0, 0.0, 0.0, 0.0, 0.0, 0.0, 0.0, 0.0, 0.0, 0.0, 1.700945663133653E9, 0.0, 2023-11-25 15:54:23.133
7.0, 75560.29564861007, 81456.93170510909, -11128.82180557511, -9632.350162547848, -4422.225585249136, -3331.2369383855985, -15577.310690559232, 187500.0, -0.146, 0.962, 0.12, 192.0, 0.0, 0.0, 0.0, 0.0, 0.0, 0.0, 0.0, 0.0, 0.0, 1.700945663137734E9, 0.0, 2023-11-25 15:54:23.137
8.0, 75549.96914267173, 81420.02897501338, -10758.386344717306, -8979.16513433041, -3854.267758639784, -2717.770960065241, -15633.391217397597, 187500.0, -0.168, 0.974, 0.074, 192.0, 250.0, 192.0, 30.0, 112.0, 2.0, 80.0, 0.0, 0.0, 0.0, 1.700945663143733E9, 0.0, 2023-11-25 15:54:23.143
9.0, 75529.85257266196, 81432.94828330855, -11353.590947817678, -9465.427334955613, -4451.036983852027, -3006.5107949388976, -15703.240418820433, 187500.0, -0.168, 0.974, 0.074, 192.0, 0.0, 0.0, 0.0, 0.0, 0.0, 0.0, 0.0, 0.0, 0.0, 1.70094566314675E9, 0.0, 2023-11-25 15:54:23.146
10.0, 75525.73985168217, 81473.69551345057, -12094.663035233383, -10223.106768501613, -5321.011581541488, -3689.3565880485285, -15785.964225049524, 187500.0, -0.168, 0.974, 0.074, 192.0, 0.0, 0.0, 0.0, 0.0, 0.0, 0.0, 0.0, 0.0, 0.0, 1.700945663149725E9, 0.0, 2023-11-25 15:54:23.149
11.0, 75552.91957293983, 81458.49632722096, -11365.01268923434, -9882.510886491644, -4698.73901590574, -3533.6766879173147, -15605.965626950936, 187500.0, -0.168, 0.974, 0.074, 192.0, 0.0, 0.0, 0.0, 0.0, 0.0, 0.0, 0.0, 0.0, 0.0, 1.700945663152807E9, 0.0, 2023-11-25 15:54:23.152
12.0, 75550.66204674984, 81416.85502730073, -10676.243683844052, -8943.9611368133, -3792.5769439431365, -2701.1189104460373, -15601.60703678215, 187500.0, -0.168, 0.974, 0.074, 192.0, 0.0, 0.0, 0.0, 0.0, 0.0, 0.0, 0.0, 0.0, 0.0, 1.700945663156801E9, 0.0, 2023-11-25 15:54:23.156
13.0, 75526.43275576028, 81426.35451869424, -11240.334658662638, -9402.104842913728, -4340.9099389207295, -2965.607102585686, -15685.761354656383, 187500.0, -0.168, 0.974, 0.074, 192.0, 0.0, 0.0, 0.0, 0.0, 0.0, 0.0, 0.0, 0.0, 0.0, 1.70094566316178E9, 0.0, 2023-11-25 15:54:23.161
14.0, 75516.70974692224, 81460.3738737552, -11989.006339193147, -10065.929301491893, -5179.368576928208, -3522.1655395228318, -15774.855408055237, 187500.0, -0.168, 0.974, 0.074, 192.0, 0.0, 0.0, 0.0, 0.0, 0.0, 0.0, 0.0, 0.0, 0.0, 1.700945663165751E9, 0.0, 2023-11-25 15:54:23.165
15.0, 75548.00218915966, 81460.1280045662, -11594.095718156781, -10071.51723760572, -4950.665527661506, -3678.5159919877046, -15638.53211862232, 187500.0, -0.168, 0.974, 0.074, 192.0, 0.0, 0.0, 0.0, 0.0, 0.0, 0.0, 0.0, 0.0, 0.0, 1.700945663169821E9, 0.0, 2023-11-25 15:54:23.169
16.0, 75559.75920674315, 81419.20196046853, -10629.48383444355, -8924.246898203719, -3784.7091298948685, -2699.5319365897103, -15580.529341760797, 187500.0, -0.168, 0.974, 0.074, 192.0, 0.0, 0.0, 0.0, 0.0, 0.0, 0.0, 0.0, 0.0, 0.0, 1.700945663172785E9, 0.0, 2023-11-25 15:54:23.172
17.0, 75529.33848253948, 81408.62958534117, -11134.20857598884, -9302.326655665238, -4248.12784768675, -2886.9960173363706, -15688.53297096884, 187500.0, -0.176, 0.974, 0.062, 192.0, 250.0, 128.0, 30.0, 112.0, 1.0, 240.0, 0.0, 0.0, 0.0, 1.700945663176799E9, 0.0, 2023-11-25 15:54:23.176
18.0, 75515.30158702155, 81451.29906550635, -11857.354564351388, -9891.920970907328, -5031.5564908452625, -3349.7888862835034, -15768.93219577458, 187500.0, -0.176, 0.974, 0.062, 192.0, 0.0, 0.0, 0.0, 0.0, 0.0, 0.0, 0.0, 0.0, 0.0, 1.700945663180842E9, 0.0, 2023-11-25 15:54:23.180
19.0, 75537.74273845468, 81461.46910923351, -11823.111691845857, -10256.433219484476, -5200.714492883026, -3811.03948486322, -15692.48922973743, 187500.0, -0.176, 0.974, 0.062, 192.0, 0.0, 0.0, 0.0, 0.0, 0.0, 0.0, 0.0, 0.0, 0.0, 1.70094566318485E9, 0.0, 2023-11-25 15:54:23.184
20.0, 75567.85053823597, 81431.69658561905, -10654.786009166957, -9020.269992383719, -3863.4096221220047, -2787.3742922990673, -15552.254385024833, 187500.0, -0.176, 0.974, 0.062, 192.0, 0.0, 0.0, 0.0, 0.0, 0.0, 0.0, 0.0, 0.0, 0.0, 1.700945663189857E9, 0.0, 2023-11-25 15:54:23.189
21.0, 75535.19463958677, 81409.09897197473, -11033.17869105085, -9251.87876842961, -4169.673224648622, -2849.959176773927, -15656.324107208742, 187500.0, -0.176, 0.974, 0.062, 192.0, 0.0, 0.0, 0.0, 0.0, 0.0, 0.0, 0.0, 0.0, 0.0, 1.700945663193976E9, 0.0, 2023-11-25 15:54:23.193
22.0, 75523.99641561466, 81445.46526020352, -11700.691187464141, -9777.815315462985, -4876.636550025529, -3222.0486667214236, -15721.814718462792, 187500.0, -0.176, 0.974, 0.062, 192.0, 0.0, 0.0, 0.0, 0.0, 0.0, 0.0, 0.0, 0.0, 0.0, 1.700945663197856E9, 0.0, 2023-11-25 15:54:23.197
23.0, 75538.94973265527, 81469.6274959597, -11963.570054003008, -10354.311508454264, -5351.9910993565445, -3858.0004999638204, -15691.86338089268, 187500.0, -0.176, 0.974, 0.062, 192.0, 0.0, 0.0, 0.0, 0.0, 0.0, 0.0, 0.0, 0.0, 0.0, 1.700945663201843E9, 0.0, 2023-11-25 15:54:23.201
24.0, 75571.40446560437, 81436.27869323238, -10736.79455957348, -9185.471735652893, -4015.4685396514583, -2931.6771545025294, -15526.393416690044, 187500.0, -0.176, 0.974, 0.062, 192.0, 0.0, 0.0, 0.0, 0.0, 0.0, 0.0, 0.0, 0.0, 0.0, 1.700945663204896E9, 0.0, 2023-11-25 15:54:23.204
25.0, 75548.3821688154, 81415.42451565558, -10914.960314626733, -9168.417354633493, -4076.5335055033574, -2805.9038884525166, -15639.85087154518, 187500.0, -0.176, 0.974, 0.062, 192.0, 0.0, 0.0, 0.0, 0.0, 0.0, 0.0, 0.0, 0.0, 0.0, 1.70094566320894E9, 0.0, 2023-11-25 15:54:23.208
26.0, 75529.74081393967, 81441.64311190166, -11546.687668167075, -9672.5833025674, -4735.5970425125415, -3123.0527905288686, -15705.877924666158, 187500.0, -0.176, 0.974, 0.062, 192.0, 0.0, 0.0, 0.0, 0.0, 0.0, 0.0, 0.0, 0.0, 0.0, 1.700945663213037E9, 0.0, 2023-11-25 15:54:23.213
27.0, 75532.46772676322, 81470.90154539366, -12058.34145049351, -10408.91682015858, -5445.868426068834, -3860.459191853904, -15742.579489061773, 187500.0, -0.18, 0.96, 0.06, 192.0, 250.0, 96.0, 30.0, 0.0, 1.0, 224.0, 0.0, 0.0, 0.0, 1.700945663217875E9, 0.0, 2023-11-25 15:54:23.217
28.0, 75573.95256447227, 81440.3243589788, -10878.079936275475, -9400.62962777968, -4218.7576554724765, -3103.9644007640363, -15532.78601560426, 187500.0, -0.18, 0.96, 0.06, 192.0, 0.0, 0.0, 0.0, 0.0, 0.0, 0.0, 0.0, 0.0, 0.0, 1.700945663222015E9, 0.0, 2023-11-25 15:54:23.222
29.0, 75565.52595681262, 81423.56055063731, -10791.086946855421, -9062.60419638207, -3968.1051931506627, -2738.736896364319, -15618.415548612542, 187500.0, -0.18, 0.96, 0.06, 192.0, 0.0, 0.0, 0.0, 0.0, 0.0, 0.0, 0.0, 0.0, 0.0, 1.700945663224876E9, 0.0, 2023-11-25 15:54:23.224
30.0, 75543.95652341325, 81441.88898109067, -11390.136050002106, -9535.008315444984, -4578.553685969554, -3027.566138215797, -15675.636014418127, 187500.0, -0.18, 0.96, 0.06, 192.0, 0.0, 0.0, 0.0, 0.0, 0.0, 0.0, 0.0, 0.0, 0.0, 1.700945663228893E9, 0.0, 2023-11-25 15:54:23.228
31.0, 75534.16645934182, 81468.3310947813, -12063.214130784767, -10308.602191043163, -5419.068684466921, -3761.2174464723407, -15748.390942620152, 187500.0, -0.18, 0.96, 0.06, 192.0, 0.0, 0.0, 0.0, 0.0, 0.0, 0.0, 0.0, 0.0, 0.0, 1.700945663232896E9, 0.0, 2023-11-25 15:54:23.232
32.0, 75571.9856109602, 81451.0755480618, -11073.76945898169, -9619.699075186143, -4466.102059614904, -3298.8492606698587, -15542.59843142014, 187500.0, -0.18, 0.96, 0.06, 192.0, 0.0, 0.0, 0.0, 0.0, 0.0, 0.0, 0.0, 0.0, 0.0, 1.70094566323701E9, 0.0, 2023-11-25 15:54:23.237
33.0, 75563.60370678946, 81416.20682671152, -10676.623663499793, -8953.34886948453, -3863.7001947999233, -2665.423174550912, -15589.402984309554, 187500.0, -0.18, 0.96, 0.06, 192.0, 0.0, 0.0, 0.0, 0.0, 0.0, 0.0, 0.0, 0.0, 0.0, 1.700945663241617E9, 0.0, 2023-11-25 15:54:23.241
34.0, 75546.63873274789, 81436.70337637703, -11272.52117067828, -9456.643099384679, -4463.911588658284, -2959.6838903050293, -15661.934395067025, 187500.0, -0.18, 0.96, 0.06, 192.0, 0.0, 0.0, 0.0, 0.0, 0.0, 0.0, 0.0, 0.0, 0.0, 1.700945663244961E9, 0.0, 2023-11-25 15:54:23.244
35.0, 75544.67177923582, 81480.7810164429, -12020.321133175032, -10221.78801557875, -5343.743305652536, -3655.113715542998, -15744.21116640701, 187500.0, -0.18, 0.96, 0.06, 192.0, 0.0, 0.0, 0.0, 0.0, 0.0, 0.0, 0.0, 0.0, 0.0, 1.700945663249971E9, 0.0, 2023-11-25 15:54:23.249
36.0, 75567.29174462458, 81460.55268771085, -11317.71639796691, -9912.350465339478, -4752.472609576298, -3534.3919437398845, -15559.071667083701, 187500.0, -0.18, 0.96, 0.06, 192.0, 0.0, 0.0, 0.0, 0.0, 0.0, 0.0, 0.0, 0.0, 0.0, 1.700945663252969E9, 0.0, 2023-11-25 15:54:23.252
37.0, 75561.77086374412, 81419.0678500018, -10603.645217853214, -8932.584098885549, -3806.524432483248, -2670.519372286722, -15551.740294902362, 187500.0, -0.17400000000000002, 0.964, 0.054, 192.0, 250.0, 144.0, 30.0, 32.0, 1.0, 176.0, 0.0, 0.0, 0.0, 1.700945663256943E9, 0.0, 2023-11-25 15:54:23.256
38.0, 75543.50948852414, 81431.7189373635, -11167.557378716157, -9388.09029914025, -4349.33654658038, -2922.8482154426833, -15641.929583779525, 187500.0, -0.17400000000000002, 0.964, 0.054, 192.0, 0.0, 0.0, 0.0, 0.0, 0.0, 0.0, 0.0, 0.0, 0.0, 1.700945663261105E9, 0.0, 2023-11-25 15:54:23.261
39.0, 75543.68830247979, 81479.39520828667, -11919.447710448232, -10066.845723014561, -5192.198478245554, -3495.991646765667, -15733.77290174638, 187500.0, -0.17400000000000002, 0.964, 0.054, 192.0, 0.0, 0.0, 0.0, 0.0, 0.0, 0.0, 0.0, 0.0, 0.0, 1.700945663265014E9, 0.0, 2023-11-25 15:54:23.265
40.0, 75564.11779691193, 81470.78978667138, -11560.612804962731, -10107.794118856684, -4996.061920650234, -3685.623846724492, -15599.170696636522, 187500.0, -0.17400000000000002, 0.964, 0.054, 192.0, 0.0, 0.0, 0.0, 0.0, 0.0, 0.0, 0.0, 0.0, 0.0, 1.700945663269028E9, 0.0, 2023-11-25 15:54:23.269
41.0, 75581.6862680538, 81433.5741321533, -10576.733717529025, -8932.047657018622, -3795.1920980444074, -2688.19960215087, -15531.690780125951, 187500.0, -0.17400000000000002, 0.964, 0.054, 192.0, 0.0, 0.0, 0.0, 0.0, 0.0, 0.0, 0.0, 0.0, 0.0, 1.700945663273128E9, 0.0, 2023-11-25 15:54:23.273
42.0, 75551.37730257241, 81426.84625707225, -11070.170828124385, -9291.664873560057, -4243.970423218063, -2867.549999660254, -15640.1414442231, 187500.0, -0.17400000000000002, 0.964, 0.054, 192.0, 0.0, 0.0, 0.0, 0.0, 0.0, 0.0, 0.0, 0.0, 0.0, 1.7009456632781E9, 0.0, 2023-11-25 15:54:23.278
43.0, 75542.77188095712, 81469.6274959597, -11794.724976387619, -9891.228066829213, -5029.142502444089, -3330.700496518671, -15733.929363957568, 187500.0, -0.17400000000000002, 0.964, 0.054, 192.0, 0.0, 0.0, 0.0, 0.0, 0.0, 0.0, 0.0, 0.0, 0.0, 1.700945663281102E9, 0.0, 2023-11-25 15:54:23.281
44.0, 75562.6872852668, 81481.20569958755, -11798.055386311458, -10309.920943966024, -5242.467551525539, -3826.529243770748, -15667.38822071412, 187500.0, -0.17400000000000002, 0.964, 0.054, 192.0, 0.0, 0.0, 0.0, 0.0, 0.0, 0.0, 0.0, 0.0, 0.0, 1.700945663285095E9, 0.0, 2023-11-25 15:54:23.285
45.0, 75587.49772161219, 81442.40307121314, -10612.63061912425, -9049.148446219975, -3871.1209739590854, -2788.380120799556, -15520.291390453744, 187500.0, -0.17400000000000002, 0.964, 0.054, 192.0, 0.0, 0.0, 0.0, 0.0, 0.0, 0.0, 0.0, 0.0, 0.0, 1.700945663289116E9, 0.0, 2023-11-25 15:54:23.289
46.0, 75558.73102649821, 81425.79572508285, -10974.371251388939, -9230.845776897166, -4146.002727270452, -2832.9494992434384, -15631.37956039662, 187500.0, -0.17400000000000002, 0.964, 0.054, 192.0, 0.0, 0.0, 0.0, 0.0, 0.0, 0.0, 0.0, 0.0, 0.0, 1.700945663293107E9, 0.0, 2023-11-25 15:54:23.293
47.0, 75534.16645934182, 81454.2718475189, -11649.908024061684, -9748.914509882274, -4855.447096281898, -3200.725102511061, -15705.989683388434, 187500.0, -0.17400000000000002, 0.97, 0.052000000000000005, 192.0, 250.0, 144.0, 30.0, 80.0, 1.0, 160.0, 0.0, 0.0, 0.0, 1.70094566329712E9, 0.0, 2023-11-25 15:54:23.297
48.0, 75544.00122690215, 81478.90346990866, -11957.669193466807, -10363.699241125494, -5368.710204209114, -3860.3474331316274, -15697.2054478175, 187500.0, -0.17400000000000002, 0.97, 0.052000000000000005, 192.0, 0.0, 0.0, 0.0, 0.0, 0.0, 0.0, 0.0, 0.0, 0.0, 1.700945663301141E9, 0.0, 2023-11-25 15:54:23.301
49.0, 75577.41708486284, 81445.48761194797, -10719.382550642795, -9185.359976930617, -4014.820339062255, -2924.4351892990103, -15515.038730506747, 187500.0, -0.17400000000000002, 0.97, 0.052000000000000005, 192.0, 0.0, 0.0, 0.0, 0.0, 0.0, 0.0, 0.0, 0.0, 0.0, 1.70094566330613E9, 0.0, 2023-11-25 15:54:23.306
50.0, 75545.11881412493, 81409.83657954176, -10880.739793865658, -9127.156034368996, -4052.0806970692515, -2769.0682135901707, -15631.401912141075, 187500.0, -0.17400000000000002, 0.97, 0.052000000000000005, 192.0, 0.0, 0.0, 0.0, 0.0, 0.0, 0.0, 0.0, 0.0, 0.0, 1.70094566330919E9, 0.0, 2023-11-25 15:54:23.309
51.0, 75520.53189522409, 81429.1708384956, -11528.448644691545, -9640.441494040668, -4724.063542373603, -3104.590249608785, -15709.230686334455, 187500.0, -0.17400000000000002, 0.97, 0.052000000000000005, 192.0, 0.0, 0.0, 0.0, 0.0, 0.0, 0.0, 0.0, 0.0, 0.0, 1.700945663313446E9, 0.0, 2023-11-25 15:54:23.313
52.0, 75531.99834012966, 81470.00747561545, -12068.310328520576, -10391.191886805522, -5449.377649948317, -3847.9869184478425, -15745.105236185222, 187500.0, -0.17400000000000002, 0.97, 0.052000000000000005, 192.0, 0.0, 0.0, 0.0, 0.0, 0.0, 0.0, 0.0, 0.0, 0.0, 1.700945663317161E9, 0.0, 2023-11-25 15:54:23.317
53.0, 75571.67268653783, 81446.44873695954, -10896.117794050908, -9416.812290765321, -4232.816902734864, -3118.6047933822624, -15530.081454525169, 187500.0, -0.17400000000000002, 0.97, 0.052000000000000005, 192.0, 0.0, 0.0, 0.0, 0.0, 0.0, 0.0, 0.0, 0.0, 0.0, 1.700945663321202E9, 0.0, 2023-11-25 15:54:23.321
54.0, 75554.2383258627, 81423.49349540395, -10780.715737428158, -9031.378809378006, -3939.964346881431, -2718.575622865632, -15618.929638735013, 187500.0, -0.17400000000000002, 0.97, 0.052000000000000005, 192.0, 0.0, 0.0, 0.0, 0.0, 0.0, 0.0, 0.0, 0.0, 0.0, 1.700945663325166E9, 0.0, 2023-11-25 15:54:23.325
55.0, 75532.66889246332, 81439.67615838959, -11394.628750637621, -9529.822710731354, -4564.114459051426, -3018.401922989121, -15682.810924388281, 187500.0, -0.17400000000000002, 0.97, 0.052000000000000005, 192.0, 0.0, 0.0, 0.0, 0.0, 0.0, 0.0, 0.0, 0.0, 0.0, 1.700945663329194E9, 0.0, 2023-11-25 15:54:23.329
56.0, 75531.35013954046, 81475.52835649591, -12083.375404283453, -10328.651705819573, -5420.007457734044, -3769.7781645987234, -15756.437570624063, 187500.0, -0.17400000000000002, 0.97, 0.052000000000000005, 192.0, 0.0, 0.0, 0.0, 0.0, 0.0, 0.0, 0.0, 0.0, 0.0, 1.700945663333253E9, 0.0, 2023-11-25 15:54:23.333
57.0, 75570.10806442596, 81455.65765567514, -11115.76838681321, -9672.404488611757, -4491.851269227418, -3333.8520924868694, -15553.75195190334, 187500.0, -0.17, 0.97, 0.05, 192.0, 250.0, 176.0, 30.0, 80.0, 1.0, 144.0, 0.0, 0.0, 0.0, 1.700945663337227E9, 0.0, 2023-11-25 15:54:23.337
58.0, 75565.90593646836, 81424.27580645989, -10681.026957157488, -8954.086477051555, -3847.6069387921025, -2666.4960582847666, -15592.956911677948, 187500.0, -0.17, 0.97, 0.05, 192.0, 0.0, 0.0, 0.0, 0.0, 0.0, 0.0, 0.0, 0.0, 0.0, 1.700945663340585E9, 0.0, 2023-11-25 15:54:23.340
59.0, 75538.23447683269, 81431.2719024744, -11278.399679470025, -9434.716038074022, -4444.35381225989, -2949.7150122779626, -15677.647671419105, 187500.0, -0.17, 0.97, 0.05, 192.0, 0.0, 0.0, 0.0, 0.0, 0.0, 0.0, 0.0, 0.0, 0.0, 1.700945663345277E9, 0.0, 2023-11-25 15:54:23.345
60.0, 75532.64654071887, 81464.75481566845, -12038.068418272545, -10198.363387389587, -5335.2049392706085, -3626.0340960066437, -15771.972033020502, 187500.0, -0.17, 0.97, 0.05, 192.0, 0.0, 0.0, 0.0, 0.0, 0.0, 0.0, 0.0, 0.0, 0.0, 1.700945663349254E9, 0.0, 2023-11-25 15:54:23.349
61.0, 75568.56579405854, 81452.70722540704, -11358.463628108935, -9911.322285094535, -4771.717461552317, -3519.438626699284, -15586.27374008581, 187500.0, -0.17, 0.97, 0.05, 192.0, 0.0, 0.0, 0.0, 0.0, 0.0, 0.0, 0.0, 0.0, 0.0, 1.700945663353305E9, 0.0, 2023-11-25 15:54:23.353
62.0, 75575.62894530642, 81420.38660292466, -10613.994075536022, -8913.38395039844, -3799.953019613388, -2639.316337027113, -15566.917129387515, 187500.0, -0.17, 0.97, 0.05, 192.0, 0.0, 0.0, 0.0, 0.0, 0.0, 0.0, 0.0, 0.0, 0.0, 1.700945663357251E9, 0.0, 2023-11-25 15:54:23.357
63.0, 75547.48809903719, 81422.51001864791, -11173.860570652554, -9359.681231937557, -4336.126665607294, -2883.1738690345132, -15653.463083918463, 187500.0, -0.17, 0.97, 0.05, 192.0, 0.0, 0.0, 0.0, 0.0, 0.0, 0.0, 0.0, 0.0, 0.0, 1.700945663361263E9, 0.0, 2023-11-25 15:54:23.361
64.0, 75531.03721511808, 81454.45066147455, -11939.474873480187, -10039.263670356711, -5189.650379377649, -3456.2278933796756, -15752.660125811117, 187500.0, -0.17, 0.97, 0.05, 192.0, 0.0, 0.0, 0.0, 0.0, 0.0, 0.0, 0.0, 0.0, 0.0, 1.700945663365518E9, 0.0, 2023-11-25 15:54:23.365
65.0, 75562.93315445581, 81464.15131856815, -11618.995561479995, -10153.034049634225, -5043.805246806771, -3707.394445823961, -15632.497147619386, 187500.0, -0.17, 0.97, 0.05, 192.0, 0.0, 0.0, 0.0, 0.0, 0.0, 0.0, 0.0, 0.0, 0.0, 1.700945663368257E9, 0.0, 2023-11-25 15:54:23.368
66.0, 75573.12554992743, 81423.2699779594, -10602.974665519556, -8956.858093364011, -3808.491385995315, -2688.9595614623504, -15561.709172929428, 187500.0, -0.17, 0.97, 0.05, 192.0, 0.0, 0.0, 0.0, 0.0, 0.0, 0.0, 0.0, 0.0, 0.0, 1.700945663374104E9, 0.0, 2023-11-25 15:54:23.374
67.0, 75541.58723850099, 81412.94347202104, -11089.728604522777, -9300.516164364359, -4242.405801106191, -2856.284720454779, -15668.43875270352, 187500.0, -0.176, 0.968, 0.05, 192.0, 250.0, 128.0, 30.0, 64.0, 1.0, 144.0, 0.0, 0.0, 0.0, 1.700945663377335E9, 0.0, 2023-11-25 15:54:23.377
68.0, 75529.31613079502, 81453.24366727397, -11814.685084186207, -9890.848087173474, -5023.912194241548, -3316.03775215599, -15756.1693496906, 187500.0, -0.176, 0.968, 0.05, 192.0, 0.0, 0.0, 0.0, 0.0, 0.0, 0.0, 0.0, 0.0, 0.0, 1.700945663381385E9, 0.0, 2023-11-25 15:54:23.381
69.0, 75547.46574729274, 81465.80534765785, -11840.590756009908, -10315.486528335397, -5258.493752299995, -3826.529243770748, -15683.77204939986, 187500.0, -0.176, 0.968, 0.05, 192.0, 0.0, 0.0, 0.0, 0.0, 0.0, 0.0, 0.0, 0.0, 0.0, 1.700945663385458E9, 0.0, 2023-11-25 15:54:23.385
70.0, 75576.34420112899, 81438.37975721118, -10643.856006128313, -9065.956958050367, -3892.19866898044, -2797.1196528815813, -15540.385608719065, 187500.0, -0.176, 0.968, 0.05, 192.0, 0.0, 0.0, 0.0, 0.0, 0.0, 0.0, 0.0, 0.0, 0.0, 1.700945663390092E9, 0.0, 2023-11-25 15:54:23.390
71.0, 75547.44339554828, 81414.8657220442, -10988.206981206773, -9226.241317539372, -4145.175712725605, -2815.4927868238437, -15655.295926963798, 187500.0, -0.176, 0.968, 0.05, 192.0, 0.0, 0.0, 0.0, 0.0, 0.0, 0.0, 0.0, 0.0, 0.0, 1.700945663393489E9, 0.0, 2023-11-25 15:54:23.393
72.0, 75535.23934307568, 81448.54980093834, -11658.848721843806, -9738.900928366296, -4847.154599088979, -3172.137221352723, -15722.887602196646, 187500.0, -0.176, 0.968, 0.05, 192.0, 0.0, 0.0, 0.0, 0.0, 0.0, 0.0, 0.0, 0.0, 0.0, 1.700945663396408E9, 0.0, 2023-11-25 15:54:23.396
73.0, 75549.96914267173, 81474.29901055087, -11990.950940960758, -10389.895485627114, -5391.39722483125, -3861.710889543401, -15717.724349227472, 187500.0, -0.176, 0.968, 0.05, 192.0, 0.0, 0.0, 0.0, 0.0, 0.0, 0.0, 0.0, 0.0, 0.0, 1.700945663401197E9, 0.0, 2023-11-25 15:54:23.401
74.0, 75584.34612564399, 81439.89967583415, -10743.522434654527, -9221.927430859498, -4033.5063974268915, -2939.4108580840657, -15523.085358510658, 187500.0, -0.176, 0.968, 0.05, 192.0, 0.0, 0.0, 0.0, 0.0, 0.0, 0.0, 0.0, 0.0, 0.0, 1.700945663405434E9, 0.0, 2023-11-25 15:54:23.405
75.0, 75553.99245667369, 81413.63637609917, -10880.15864850982, -9118.729426709346, -4027.4714264239583, -2751.097411048104, -15631.938354008003, 187500.0, -0.176, 0.968, 0.05, 192.0, 0.0, 0.0, 0.0, 0.0, 0.0, 0.0, 0.0, 0.0, 0.0, 1.700945663409551E9, 0.0, 2023-11-25 15:54:23.409
76.0, 75537.69803496577, 81439.38558571167, -11529.610935403221, -9634.138302104271, -4699.767196150684, -3087.2899994003774, -15712.181116602555, 187500.0, -0.176, 0.968, 0.05, 192.0, 0.0, 0.0, 0.0, 0.0, 0.0, 0.0, 0.0, 0.0, 0.0, 1.700945663413468E9, 0.0, 2023-11-25 15:54:23.413
77.0, 75548.13629962639, 81474.94721114007, -12080.424974015354, -10406.703997457505, -5448.707097614658, -3849.0598021816973, -15751.743704288448, 187500.0, -0.18, 0.962, 0.048, 192.0, 250.0, 96.0, 30.0, 16.0, 1.0, 128.0, 0.0, 0.0, 0.0, 1.700945663417574E9, 0.0, 2023-11-25 15:54:23.417
78.0, 75582.91561399885, 81446.29227474837, -10919.877698406899, -9446.093076001773, -4252.955824489096, -3130.3171074768434, -15541.771416875294, 187500.0, -0.18, 0.962, 0.048, 192.0, 0.0, 0.0, 0.0, 0.0, 0.0, 0.0, 0.0, 0.0, 0.0, 1.700945663420446E9, 0.0, 2023-11-25 15:54:23.420
79.0, 75561.92732595532, 81409.88128303067, -10784.761403174569, -9035.335068146594, -3941.0148788708307, -2702.258849413258, -15631.33485690771, 187500.0, -0.18, 0.962, 0.048, 192.0, 0.0, 0.0, 0.0, 0.0, 0.0, 0.0, 0.0, 0.0, 0.0, 1.700945663424467E9, 0.0, 2023-11-25 15:54:23.424
80.0, 75547.91278218184, 81439.34088222276, -11394.673454126532, -9523.944201939608, -4559.800572371551, -2992.943286054526, -15695.037328605335, 187500.0, -0.18, 0.962, 0.048, 192.0, 0.0, 0.0, 0.0, 0.0, 0.0, 0.0, 0.0, 0.0, 0.0, 1.700945663428493E9, 0.0, 2023-11-25 15:54:23.428
81.0, 75549.32094208253, 81482.12212111022, -12093.232523588244, -10322.348513883177, -5421.683838568192, -3743.470161374827, -15770.921501031102, 187500.0, -0.18, 0.962, 0.048, 192.0, 0.0, 0.0, 0.0, 0.0, 0.0, 0.0, 0.0, 0.0, 0.0, 1.700945663432462E9, 0.0, 2023-11-25 15:54:23.432
82.0, 75587.65418382337, 81464.03955984587, -11149.966555829831, -9722.628858402832, -4534.364287181412, -3359.355432910375, -15567.654736954539, 187500.0, -0.18, 0.962, 0.048, 192.0, 0.0, 0.0, 0.0, 0.0, 0.0, 0.0, 0.0, 0.0, 0.0, 1.700945663437502E9, 0.0, 2023-11-25 15:54:23.437
83.0, 75578.86994825244, 81433.26120773092, -10679.708204234625, -8967.676337680381, -3845.6176335355804, -2666.943093173873, -15599.394214081076, 187500.0, -0.18, 0.962, 0.048, 192.0, 0.0, 0.0, 0.0, 0.0, 0.0, 0.0, 0.0, 0.0, 0.0, 1.700945663441489E9, 0.0, 2023-11-25 15:54:23.441
84.0, 75546.12464262541, 81435.96576881001, -11270.151885766016, -9426.602354836745, -4426.003030062083, -2931.6100992691636, -15680.732212153938, 187500.0, -0.18, 0.962, 0.048, 192.0, 0.0, 0.0, 0.0, 0.0, 0.0, 0.0, 0.0, 0.0, 0.0, 1.70094566344552E9, 0.0, 2023-11-25 15:54:23.445
85.0, 75543.21891584623, 81481.47392052102, -12041.130607262923, -10190.339111130132, -5324.0067152985, -3611.371351643962, -15779.303405201843, 187500.0, -0.18, 0.962, 0.048, 192.0, 0.0, 0.0, 0.0, 0.0, 0.0, 0.0, 0.0, 0.0, 0.0, 1.700945663448549E9, 0.0, 2023-11-25 15:54:23.448
86.0, 75583.3402971435, 81480.17751934261, -11394.248770981882, -9957.612747861474, -4804.932153812904, -3554.4638102607505, -15597.09198440218, 187500.0, -0.18, 0.962, 0.048, 192.0, 0.0, 0.0, 0.0, 0.0, 0.0, 0.0, 0.0, 0.0, 0.0, 1.700945663452562E9, 0.0, 2023-11-25 15:54:23.452
87.0, 75586.58130008951, 81446.22521951499, -10612.876488313257, -8925.409188915395, -3794.4544904773825, -2655.1413721014706, -15574.494370757864, 187500.0, -0.186, 0.9580000000000001, 0.048, 192.0, 250.0, 48.0, 29.0, 240.0, 1.0, 128.0, 0.0, 0.0, 0.0, 1.70094566345655E9, 0.0, 2023-11-25 15:54:23.456
88.0, 75550.84086070549, 81441.86662934622, -11177.34744278758, -9369.694813453534, -4333.690325461665, -2904.3633227781443, -15680.709860409483, 187500.0, -0.186, 0.9580000000000001, 0.048, 192.0, 0.0, 0.0, 0.0, 0.0, 0.0, 0.0, 0.0, 0.0, 0.0, 1.700945663460776E9, 0.0, 2023-11-25 15:54:23.460
89.0, 75541.0284448896, 81479.95400189806, -11935.965649600703, -10034.435693554366, -5177.111050738222, -3454.2385881231535, -15774.833056310781, 187500.0, -0.186, 0.9580000000000001, 0.048, 192.0, 0.0, 0.0, 0.0, 0.0, 0.0, 0.0, 0.0, 0.0, 0.0, 1.700945663465607E9, 0.0, 2023-11-25 15:54:23.465
90.0, 75563.71546551173, 81477.33884779678, -11636.005239010483, -10152.475256022843, -5054.109401000667, -3701.471233543305, -15642.846005302192, 187500.0, -0.186, 0.9580000000000001, 0.048, 192.0, 0.0, 0.0, 0.0, 0.0, 0.0, 0.0, 0.0, 0.0, 0.0, 1.700945663469829E9, 0.0, 2023-11-25 15:54:23.469
91.0, 75569.57162255903, 81427.98619603946, -10603.645217853214, -8950.174921771875, -3811.955906385888, -2693.2510963977693, -15566.693611942961, 187500.0, -0.186, 0.9580000000000001, 0.048, 192.0, 0.0, 0.0, 0.0, 0.0, 0.0, 0.0, 0.0, 0.0, 0.0, 1.700945663473675E9, 0.0, 2023-11-25 15:54:23.473
92.0, 75541.72134896772, 81425.12517274919, -11083.023081186186, -9294.660007317068, -4243.366926117769, -2861.760897846329, -15680.06165982028, 187500.0, -0.186, 0.9580000000000001, 0.048, 192.0, 0.0, 0.0, 0.0, 0.0, 0.0, 0.0, 0.0, 0.0, 0.0, 1.700945663476658E9, 0.0, 2023-11-25 15:54:23.476
93.0, 75535.88754366488, 81463.41371100114, -11801.139927046292, -9884.902523148361, -5016.781987760304, -3307.521737518518, -15759.477407869985, 187500.0, -0.186, 0.9580000000000001, 0.048, 192.0, 0.0, 0.0, 0.0, 0.0, 0.0, 0.0, 0.0, 0.0, 0.0, 1.700945663480642E9, 0.0, 2023-11-25 15:54:23.480
94.0, 75561.0332561771, 81490.36991481423, -11845.77636072354, -10323.399045872575, -5269.379051849729, -3823.690572224924, -15685.202561045, 187500.0, -0.186, 0.9580000000000001, 0.048, 192.0, 0.0, 0.0, 0.0, 0.0, 0.0, 0.0, 0.0, 0.0, 0.0, 1.700945663484629E9, 0.0, 2023-11-25 15:54:23.484
95.0, 75580.07694245303, 81449.60033292774, -10637.48575895855, -9060.637242870003, -3890.7011021019343, -2795.309161580701, -15534.395341205043, 187500.0, -0.186, 0.9580000000000001, 0.048, 192.0, 0.0, 0.0, 0.0, 0.0, 0.0, 0.0, 0.0, 0.0, 0.0, 1.700945663488674E9, 0.0, 2023-11-25 15:54:23.488
96.0, 75544.1800408578, 81419.20196046853, -10970.683213553813, -9200.089776526664, -4128.233090428483, -2797.6784464929638, -15651.965517039958, 187500.0, -0.186, 0.9580000000000001, 0.048, 192.0, 0.0, 0.0, 0.0, 0.0, 0.0, 0.0, 0.0, 0.0, 0.0, 1.700945663494125E9, 0.0, 2023-11-25 15:54:23.494
97.0, 75529.69611045076, 81453.4224812296, -11656.68060263164, -9741.091399322915, -4845.299404299189, -3173.590084742318, -15735.82926223627, 187500.0, -0.186, 0.9580000000000001, 0.048, 192.0, 250.0, 48.0, 29.0, 240.0, 1.0, 128.0, 0.0, 0.0, 0.0, 1.700945663497703E9, 0.0, 2023-11-25 15:54:23.497
98.0, 75546.16934611433, 81483.91026066664, -12009.569944092029, -10415.041198139334, -5414.307762897941, -3876.0607094837083, -15732.320038356787, 187500.0, -0.186, 0.9580000000000001, 0.048, 192.0, 0.0, 0.0, 0.0, 0.0, 0.0, 0.0, 0.0, 0.0, 0.0, 1.700945663502427E9, 0.0, 2023-11-25 15:54:23.502
99.0, 75588.43649487931, 81460.84326038876, -10757.089943538898, -9244.59209973718, -4055.1428860596284, -2952.4642768459653, -15529.008570791313, 187500.0, -0.186, 0.9580000000000001, 0.048, 192.0, 0.0, 0.0, 0.0, 0.0, 0.0, 0.0, 0.0, 0.0, 0.0, 1.700945663504804E9, 0.0, 2023-11-25 15:54:23.504
100.0, 75556.3840933304, 81423.7170128485, -10870.793267583045, -9115.890755163522, -4027.6502403796007, -2743.9448528224057, -15639.716761078449, 187500.0, -0.186, 0.9580000000000001, 0.048, 192.0, 0.0, 0.0, 0.0, 0.0, 0.0, 0.0, 0.0, 0.0, 0.0, 1.700945663508738E9, 0.0, 2023-11-25 15:54:23.508
101.0, 75538.4803460217, 81445.26409450342, -11512.08716775026, -9628.729179946087, -4689.999483823715, -3069.2744933694, -15713.611628247694, 187500.0, -0.186, 0.9580000000000001, 0.048, 192.0, 0.0, 0.0, 0.0, 0.0, 0.0, 0.0, 0.0, 0.0, 0.0, 1.700945663512715E9, 0.0, 2023-11-25 15:54:23.512
102.0, 75542.25779083464, 81477.89764140817, -12085.007081628692, -10405.117023601179, -5456.038469795999, -3835.2240723638624, -15760.796160792848, 187500.0, -0.186, 0.9580000000000001, 0.048, 192.0, 0.0, 0.0, 0.0, 0.0, 0.0, 0.0, 0.0, 0.0, 0.0, 1.700945663516914E9, 0.0, 2023-11-25 15:54:23.516
103.0, 75581.17217793134, 81451.20965852853, -10943.615251018437, -9476.223227527527, -4286.885772572252, -3157.2509595454885, -15550.041562323757, 187500.0, -0.186, 0.9580000000000001, 0.048, 192.0, 0.0, 0.0, 0.0, 0.0, 0.0, 0.0, 0.0, 0.0, 0.0, 1.700945663520809E9, 0.0, 2023-11-25 15:54:23.520
104.0, 75565.61536379044, 81423.35938493721, -10763.504894197571, -9008.647085266959, -3914.840986113666, -2686.098538172071, -15623.221173670432, 187500.0, -0.186, 0.9580000000000001, 0.048, 192.0, 0.0, 0.0, 0.0, 0.0, 0.0, 0.0, 0.0, 0.0, 0.0, 1.700945663525854E9, 0.0, 2023-11-25 15:54:23.525
105.0, 75546.01288390314, 81446.64990265964, -11380.770669075331, -9497.300922548882, -4536.75592383813, -2973.6760823340514, -15695.797287916816, 187500.0, -0.186, 0.9580000000000001, 0.048, 192.0, 0.0, 0.0, 0.0, 0.0, 0.0, 0.0, 0.0, 0.0, 0.0, 1.700945663529798E9, 0.0, 2023-11-25 15:54:23.529
106.0, 75546.57167751453, 81489.29703108038, -12093.724261966261, -10312.536098067296, -5414.68774255368, -3729.1203414345196, -15774.095448743756, 187500.0, -0.186, 0.9580000000000001, 0.048, 192.0, 0.0, 0.0, 0.0, 0.0, 0.0, 0.0, 0.0, 0.0, 0.0, 1.700945663532802E9, 0.0, 2023-11-25 15:54:23.532
107.0, 75579.96518373075, 81463.9278011236, -11171.178361317918, -9723.478224692133, -4547.820037343507, -3356.8743892758357, -15574.583777735685, 187500.0, -0.184, 0.96, 0.05, 192.0, 250.0, 64.0, 30.0, 0.0, 1.0, 144.0, 0.0, 0.0, 0.0, 1.70094566353702E9, 0.0, 2023-11-25 15:54:23.537
108.0, 75579.339334886, 81438.58092291128, -10680.177590868187, -8959.182674787364, -3842.1307614005523, -2658.963520403328, -15607.03851068479, 187500.0, -0.184, 0.96, 0.05, 192.0, 0.0, 0.0, 0.0, 0.0, 0.0, 0.0, 0.0, 0.0, 0.0, 1.700945663540899E9, 0.0, 2023-11-25 15:54:23.540
109.0, 75547.64456124838, 81442.82775435779, -11267.201455497916, -9429.239860682472, -4420.2139282481585, -2930.4925120463986, -15686.878941879148, 187500.0, -0.184, 0.96, 0.05, 192.0, 0.0, 0.0, 0.0, 0.0, 0.0, 0.0, 0.0, 0.0, 0.0, 1.700945663544913E9, 0.0, 2023-11-25 15:54:23.544
110.0, 75548.1810031153, 81492.62744100421, -12033.419255425842, -10176.413974334477, -5304.963029022579, -3593.1323281684317, -15784.801934337847, 187500.0, -0.184, 0.96, 0.05, 192.0, 0.0, 0.0, 0.0, 0.0, 0.0, 0.0, 0.0, 0.0, 0.0, 1.700945663548914E9, 0.0, 2023-11-25 15:54:23.548
111.0, 75582.62504132093, 81486.01132464544, -11419.483890471924, -9976.857599837494, -4825.898090111982, -3569.8194587015464, -15608.580781052207, 187500.0, -0.184, 0.96, 0.05, 192.0, 0.0, 0.0, 0.0, 0.0, 0.0, 0.0, 0.0, 0.0, 0.0, 1.700945663553881E9, 0.0, 2023-11-25 15:54:23.553
112.0, 75578.71348604125, 81439.89967583415, -10612.116529001776, -8914.18861319883, -3790.162955541963, -2644.1443138294594, -15580.305824316243, 187500.0, -0.184, 0.96, 0.05, 192.0, 0.0, 0.0, 0.0, 0.0, 0.0, 0.0, 0.0, 0.0, 0.0, 1.700945663557209E9, 0.0, 2023-11-25 15:54:23.557
113.0, 75548.60568625995, 81437.93272232208, -11169.859608395054, -9361.603481960712, -4325.107255590828, -2883.0844620566922, -15675.323089995754, 187500.0, -0.184, 0.96, 0.05, 192.0, 0.0, 0.0, 0.0, 0.0, 0.0, 0.0, 0.0, 0.0, 0.0, 1.700945663560135E9, 0.0, 2023-11-25 15:54:23.560
114.0, 75536.46868902072, 81474.29901055087, -11935.786835645062, -10040.582423279575, -5171.746632068948, -3434.278480324564, -15772.016736509411, 187500.0, -0.184, 0.96, 0.05, 192.0, 0.0, 0.0, 0.0, 0.0, 0.0, 0.0, 0.0, 0.0, 0.0, 1.700945663564914E9, 0.0, 2023-11-25 15:54:23.564
115.0, 75566.93411671331, 81478.94817339757, -11679.233512787046, -10210.54508811773, -5097.382378266141, -3736.049382215665, -15654.983002541425, 187500.0, -0.184, 0.96, 0.05, 192.0, 0.0, 0.0, 0.0, 0.0, 0.0, 0.0, 0.0, 0.0, 0.0, 1.700945663569675E9, 0.0, 2023-11-25 15:54:23.569
116.0, 75587.76594254565, 81446.73930963747, -10620.0066947945, -8979.411003519417, -3822.2600605797843, -2713.479425129822, -15566.492446242864, 187500.0, -0.184, 0.96, 0.05, 192.0, 0.0, 0.0, 0.0, 0.0, 0.0, 0.0, 0.0, 0.0, 0.0, 1.700945663573451E9, 0.0, 2023-11-25 15:54:23.573
117.0, 75555.7358927412, 81432.47889667499, -11082.129011407973, -9275.415155341048, -4220.299925839892, -2855.7482785878515, -15679.949901098002, 187500.0, -0.186, 0.97, 0.054, 192.0, 250.0, 48.0, 30.0, 80.0, 1.0, 176.0, 0.0, 0.0, 0.0, 1.700945663577064E9, 0.0, 2023-11-25 15:54:23.577
118.0, 75544.1800408578, 81469.26986804842, -11800.804650879461, -9858.99685132466, -4992.999731659857, -3293.104862344845, -15767.389925407164, 187500.0, -0.186, 0.97, 0.054, 192.0, 0.0, 0.0, 0.0, 0.0, 0.0, 0.0, 0.0, 0.0, 0.0, 1.700945663581988E9, 0.0, 2023-11-25 15:54:23.581
119.0, 75563.22372713372, 81481.58567924329, -11884.556637353497, -10339.738171069404, -5290.546153848905, -3843.8071422347, -15710.102404368212, 187500.0, -0.186, 0.97, 0.054, 192.0, 0.0, 0.0, 0.0, 0.0, 0.0, 0.0, 0.0, 0.0, 0.0, 1.700945663584966E9, 0.0, 2023-11-25 15:54:23.584
120.0, 75588.07886696802, 81443.36419622472, -10666.073640116887, -9078.071603545142, -3905.1179772756077, -2812.8105774892065, -15550.93563210197, 187500.0, -0.186, 0.97, 0.054, 192.0, 0.0, 0.0, 0.0, 0.0, 0.0, 0.0, 0.0, 0.0, 0.0, 1.700945663588371E9, 0.0, 2023-11-25 15:54:23.588
121.0, 75558.86513696495, 81424.67813786009, -10977.589902590502, -9185.24821820834, -4110.19523265305, -2792.090510379137, -15658.626336887639, 187500.0, -0.186, 0.97, 0.054, 192.0, 0.0, 0.0, 0.0, 0.0, 0.0, 0.0, 0.0, 0.0, 0.0, 1.700945663592008E9, 0.0, 2023-11-25 15:54:23.592
122.0, 75544.11298562444, 81461.11148132224, -11649.93037580614, -9715.006913543571, -4814.006962061759, -3159.1955613131004, -15729.369608088686, 187500.0, -0.186, 0.97, 0.054, 192.0, 0.0, 0.0, 0.0, 0.0, 0.0, 0.0, 0.0, 0.0, 0.0, 1.700945663597043E9, 0.0, 2023-11-25 15:54:23.597
123.0, 75555.84765146347, 81484.15612985565, -12029.418293168343, -10403.552401489307, -5405.679989538192, -3878.295883929239, -15730.934230200557, 187500.0, -0.186, 0.97, 0.054, 192.0, 0.0, 0.0, 0.0, 0.0, 0.0, 0.0, 0.0, 0.0, 0.0, 1.700945663601069E9, 0.0, 2023-11-25 15:54:23.601
124.0, 75585.06138146656, 81445.68877764807, -10784.694347941202, -9254.337460319693, -4061.289615784838, -2982.3038556938, -15536.831681350672, 187500.0, -0.186, 0.97, 0.054, 192.0, 0.0, 0.0, 0.0, 0.0, 0.0, 0.0, 0.0, 0.0, 0.0, 1.700945663605105E9, 0.0, 2023-11-25 15:54:23.605
125.0, 75554.35008458496, 81415.9162540336, -10871.128543749875, -9079.613873912558, -3996.223687675439, -2730.2655852157577, -15647.942203038003, 187500.0, -0.186, 0.97, 0.054, 192.0, 0.0, 0.0, 0.0, 0.0, 0.0, 0.0, 0.0, 0.0, 0.0, 1.700945663609021E9, 0.0, 2023-11-25 15:54:23.609
126.0, 75534.99347388667, 81434.37879495368, -11519.686760865065, -9583.80217359092, -4663.2220939662575, -3046.6098244917184, -15730.956581945013, 187500.0, -0.186, 0.97, 0.054, 192.0, 0.0, 0.0, 0.0, 0.0, 0.0, 0.0, 0.0, 0.0, 0.0, 1.700945663613044E9, 0.0, 2023-11-25 15:54:23.613
127.0, 75549.4327008048, 81475.19308032907, -12120.993390201735, -10393.985854862434, -5463.74982163308, -3836.4757700533596, -15781.203303480543, 187500.0, -0.182, 0.966, 0.054, 192.0, 250.0, 80.0, 30.0, 48.0, 1.0, 176.0, 0.0, 0.0, 0.0, 1.700945663616058E9, 0.0, 2023-11-25 15:54:23.616
128.0, 75582.22270992074, 81450.15912653913, -10988.27403644014, -9516.322257080348, -4321.441569500157, -3193.7737099854603, -15560.926861873491, 187500.0, -0.182, 0.966, 0.054, 192.0, 0.0, 0.0, 0.0, 0.0, 0.0, 0.0, 0.0, 0.0, 0.0, 1.700945663621092E9, 0.0, 2023-11-25 15:54:23.621
129.0, 75562.97785794472, 81411.55766386482, -10787.309502042473, -9036.117379202531, -3930.6213176991128, -2717.5921461095986, -15637.973325010935, 187500.0, -0.182, 0.966, 0.054, 192.0, 0.0, 0.0, 0.0, 0.0, 0.0, 0.0, 0.0, 0.0, 0.0, 1.700945663625104E9, 0.0, 2023-11-25 15:54:23.625
130.0, 75542.43660479029, 81430.48959141846, -11399.747300117886, -9526.782873485432, -4549.18349375528, -3017.820777633283, -15703.285122309342, 187500.0, -0.182, 0.966, 0.054, 192.0, 0.0, 0.0, 0.0, 0.0, 0.0, 0.0, 0.0, 0.0, 0.0, 1.700945663629114E9, 0.0, 2023-11-25 15:54:23.629
131.0, 75543.39772980187, 81475.50600475146, -12116.724207010771, -10314.234830645899, -5418.018152477522, -3754.0872399910977, -15781.158599991633, 187500.0, -0.182, 0.966, 0.054, 192.0, 0.0, 0.0, 0.0, 0.0, 0.0, 0.0, 0.0, 0.0, 0.0, 1.700945663633175E9, 0.0, 2023-11-25 15:54:23.633
132.0, 75579.20522441927, 81456.26115277543, -11212.17146064895, -9757.274062308557, -4573.993930100672, -3409.3339335124415, -15573.13091434609, 187500.0, -0.182, 0.966, 0.054, 192.0, 0.0, 0.0, 0.0, 0.0, 0.0, 0.0, 0.0, 0.0, 0.0, 1.700945663637525E9, 0.0, 2023-11-25 15:54:23.637
133.0, 75564.96716320123, 81418.88903604615, -10696.44966083165, -8958.936805598356, -3842.778961989756, -2682.7904799926855, -15618.19203116799, 187500.0, -0.182, 0.966, 0.054, 192.0, 0.0, 0.0, 0.0, 0.0, 0.0, 0.0, 0.0, 0.0, 0.0, 1.700945663641157E9, 0.0, 2023-11-25 15:54:23.641
134.0, 75545.2752763361, 81434.93758856507, -11284.99344408434, -9442.24857595546, -4425.935974828717, -2954.833561758228, -15691.01401460338, 187500.0, -0.182, 0.966, 0.054, 192.0, 0.0, 0.0, 0.0, 0.0, 0.0, 0.0, 0.0, 0.0, 0.0, 1.700945663644122E9, 0.0, 2023-11-25 15:54:23.644
135.0, 75545.8340699475, 81484.17848160012, -12043.969278808747, -10171.496590554309, -5295.709406818081, -3598.7202642822585, -15783.371422692708, 187500.0, -0.182, 0.966, 0.054, 192.0, 0.0, 0.0, 0.0, 0.0, 0.0, 0.0, 0.0, 0.0, 0.0, 1.700945663648196E9, 0.0, 2023-11-25 15:54:23.648
136.0, 75571.82914874902, 81464.7771674129, -11470.155295152104, -9987.295864498123, -4850.4179537794535, -3598.049711948599, -15631.491319118897, 187500.0, -0.182, 0.966, 0.054, 192.0, 0.0, 0.0, 0.0, 0.0, 0.0, 0.0, 0.0, 0.0, 0.0, 1.700945663655082E9, 0.0, 2023-11-25 15:54:23.655
137.0, 75574.95839297277, 81419.60429186873, -10645.174759051175, -8918.770720812168, -3800.5118132247703, -2673.1121746435374, -15596.42143206852, 187500.0, -0.18, 0.964, 0.052000000000000005, 192.0, 250.0, 96.0, 30.0, 32.0, 1.0, 160.0, 0.0, 0.0, 0.0, 1.700945663657247E9, 0.0, 2023-11-25 15:54:23.657
138.0, 75549.8797356939, 81419.78310582438, -11196.569943019145, -9352.95335685651, -4322.134473578271, -2909.1242443471247, -15694.478534993952, 187500.0, -0.18, 0.964, 0.052000000000000005, 192.0, 0.0, 0.0, 0.0, 0.0, 0.0, 0.0, 0.0, 0.0, 0.0, 1.700945663661195E9, 0.0, 2023-11-25 15:54:23.661
139.0, 75542.25779083464, 81466.96763836952, -11951.209539319223, -10006.875992640971, -5149.596053313739, -3446.549588030528, -15787.774716350403, 187500.0, -0.18, 0.964, 0.052000000000000005, 192.0, 0.0, 0.0, 0.0, 0.0, 0.0, 0.0, 0.0, 0.0, 0.0, 1.700945663665256E9, 0.0, 2023-11-25 15:54:23.665
140.0, 75571.11389292644, 81475.03661811788, -11726.37334184329, -10203.727806058861, -5110.0334656278455, -3767.207713986363, -15677.781781885837, 187500.0, -0.18, 0.964, 0.052000000000000005, 192.0, 0.0, 0.0, 0.0, 0.0, 0.0, 0.0, 0.0, 0.0, 0.0, 1.70094566367028E9, 0.0, 2023-11-25 15:54:23.670
141.0, 75593.53269261512, 81440.50317293443, -10647.96872710809, -8988.463460023817, -3833.4806362963486, -2749.9127685919725, -15584.664414485029, 187500.0, -0.18, 0.964, 0.052000000000000005, 192.0, 0.0, 0.0, 0.0, 0.0, 0.0, 0.0, 0.0, 0.0, 0.0, 1.700945663673565E9, 0.0, 2023-11-25 15:54:23.673
142.0, 75578.42291336333, 81439.89967583415, -11095.473002847792, -9299.733853308422, -4220.054056650884, -2889.119433059625, -15682.229779032443, 187500.0, -0.18, 0.964, 0.052000000000000005, 192.0, 0.0, 0.0, 0.0, 0.0, 0.0, 0.0, 0.0, 0.0, 0.0, 1.700945663676286E9, 0.0, 2023-11-25 15:54:23.676
143.0, 75558.0381224201, 81469.04635060386, -11804.269171270034, -9864.025993827105, -4973.397251772553, -3317.200042867666, -15763.88070152768, 187500.0, -0.18, 0.964, 0.052000000000000005, 192.0, 0.0, 0.0, 0.0, 0.0, 0.0, 0.0, 0.0, 0.0, 0.0, 1.700945663681324E9, 0.0, 2023-11-25 15:54:23.681
144.0, 75576.12068368444, 81487.17361535713, -11919.045379048035, -10342.845063548692, -5294.614171339771, -3873.4455553824373, -15722.529974285362, 187500.0, -0.18, 0.964, 0.052000000000000005, 192.0, 0.0, 0.0, 0.0, 0.0, 0.0, 0.0, 0.0, 0.0, 0.0, 1.700945663685334E9, 0.0, 2023-11-25 15:54:23.685
145.0, 75607.32371894404, 81461.91614412262, -10694.885038719778, -9094.924818864443, -3912.136425034574, -2857.4246594219994, -15565.352507275644, 187500.0, -0.18, 0.964, 0.052000000000000005, 192.0, 0.0, 0.0, 0.0, 0.0, 0.0, 0.0, 0.0, 0.0, 0.0, 1.700945663689321E9, 0.0, 2023-11-25 15:54:23.689
146.0, 75573.61728830544, 81441.1737252681, -10990.442155652305, -9204.91775332901, -4108.34003786326, -2837.509255112321, -15681.469819720964, 187500.0, -0.18, 0.964, 0.052000000000000005, 192.0, 0.0, 0.0, 0.0, 0.0, 0.0, 0.0, 0.0, 0.0, 0.0, 1.700945663693293E9, 0.0, 2023-11-25 15:54:23.693
147.0, 75556.29468635257, 81469.89571689317, -11650.846797328806, -9709.307218707469, -4793.197487973868, -3182.3296168243432, -15753.487140355963, 187500.0, -0.182, 0.97, 0.046, 192.0, 250.0, 80.0, 30.0, 80.0, 1.0, 112.0, 0.0, 0.0, 0.0, 1.70094566369647E9, 0.0, 2023-11-25 15:54:23.696
148.0, 75564.45307307877, 81493.96854567154, -12057.179159781834, -10386.676834425549, -5402.327227869896, -3886.901305544532, -15768.84278879676, 187500.0, -0.182, 0.97, 0.046, 192.0, 0.0, 0.0, 0.0, 0.0, 0.0, 0.0, 0.0, 0.0, 0.0, 1.700945663700367E9, 0.0, 2023-11-25 15:54:23.700
149.0, 75604.41799216486, 81466.16297556912, -10816.053845411998, -9269.201370382472, -4079.908618916109, -3010.3105914963, -15563.98905086387, 187500.0, -0.182, 0.97, 0.046, 192.0, 0.0, 0.0, 0.0, 0.0, 0.0, 0.0, 0.0, 0.0, 0.0, 1.700945663704361E9, 0.0, 2023-11-25 15:54:23.704
150.0, 75581.26158490915, 81431.5177716634, -10876.96234905271, -9104.75958642478, -3997.520088853847, -2764.9778443548494, -15651.451426917485, 187500.0, -0.182, 0.97, 0.046, 192.0, 0.0, 0.0, 0.0, 0.0, 0.0, 0.0, 0.0, 0.0, 0.0, 1.700945663708401E9, 0.0, 2023-11-25 15:54:23.708
151.0, 75548.69509323778, 81443.58771366927, -11521.161975999115, -9610.892487870751, -4654.080230484036, -3084.2501621544557, -15731.135395900656, 187500.0, -0.182, 0.97, 0.046, 192.0, 0.0, 0.0, 0.0, 0.0, 0.0, 0.0, 0.0, 0.0, 0.0, 1.70094566371239E9, 0.0, 2023-11-25 15:54:23.712
152.0, 75557.05464566406, 81480.57985074281, -12129.129425183466, -10391.571866461261, -5447.567158647437, -3852.077287683164, -15781.091544758267, 187500.0, -0.182, 0.97, 0.046, 192.0, 0.0, 0.0, 0.0, 0.0, 0.0, 0.0, 0.0, 0.0, 0.0, 1.700945663717366E9, 0.0, 2023-11-25 15:54:23.717
153.0, 75597.22073045025, 81458.4292719876, -11015.923144331355, -9525.88880370722, -4328.728238192587, -3229.737666814049, -15563.542015974763, 187500.0, -0.182, 0.97, 0.046, 192.0, 0.0, 0.0, 0.0, 0.0, 0.0, 0.0, 0.0, 0.0, 0.0, 1.700945663721396E9, 0.0, 2023-11-25 15:54:23.721
154.0, 75577.57354707403, 81419.716050591, -10782.41447000676, -9010.703445756846, -3905.9002883315434, -2719.8273205551295, -15632.56420285275, 187500.0, -0.182, 0.97, 0.046, 192.0, 0.0, 0.0, 0.0, 0.0, 0.0, 0.0, 0.0, 0.0, 0.0, 1.700945663724412E9, 0.0, 2023-11-25 15:54:23.724
155.0, 75556.60761077495, 81442.82775435779, -11388.794945334786, -9494.305788791871, -4516.5946503394425, -3004.141510026635, -15705.028558376856, 187500.0, -0.182, 0.97, 0.046, 192.0, 0.0, 0.0, 0.0, 0.0, 0.0, 0.0, 0.0, 0.0, 0.0, 1.700945663728435E9, 0.0, 2023-11-25 15:54:23.728
156.0, 75555.80294797456, 81489.09586538028, -12114.77960524316, -10295.839344959182, -5396.806346989435, -3746.532350365204, -15787.84177158377, 187500.0, -0.182, 0.97, 0.046, 192.0, 0.0, 0.0, 0.0, 0.0, 0.0, 0.0, 0.0, 0.0, 0.0, 1.700945663732524E9, 0.0, 2023-11-25 15:54:23.732
157.0, 75587.07303846754, 81465.53712672439, -11239.909975517987, -9768.472286280667, -4584.320436039024, -3426.2095005761985, -15584.507952273842, 187500.0, -0.178, 0.976, 0.052000000000000005, 192.0, 250.0, 112.0, 30.0, 128.0, 1.0, 160.0, 0.0, 0.0, 0.0, 1.700945663736471E9, 0.0, 2023-11-25 15:54:23.736
158.0, 75582.78150353211, 81429.39435594015, -10681.54104727996, -8919.195403956819, -3800.7129789248684, -2650.2686918102136, -15606.457365328952, 187500.0, -0.178, 0.976, 0.052000000000000005, 192.0, 0.0, 0.0, 0.0, 0.0, 0.0, 0.0, 0.0, 0.0, 0.0, 1.700945663740506E9, 0.0, 2023-11-25 15:54:23.740
159.0, 75563.69311376728, 81440.10084153424, -11275.940987579941, -9402.350712102738, -4387.021587732028, -2929.8443114571946, -15695.529066983352, 187500.0, -0.178, 0.976, 0.052000000000000005, 192.0, 0.0, 0.0, 0.0, 0.0, 0.0, 0.0, 0.0, 0.0, 0.0, 1.700945663745476E9, 0.0, 2023-11-25 15:54:23.745
160.0, 75562.10613991096, 81480.51279550944, -12057.246215015199, -10166.065116651669, -5284.891162501713, -3594.741653769214, -15800.157582778644, 187500.0, -0.178, 0.976, 0.052000000000000005, 192.0, 0.0, 0.0, 0.0, 0.0, 0.0, 0.0, 0.0, 0.0, 0.0, 1.700945663749451E9, 0.0, 2023-11-25 15:54:23.749
161.0, 75597.08661998351, 81483.5302810109, -11498.206734443515, -10027.350190562032, -4867.2488173543, -3621.787264560135, -15625.165775438045, 187500.0, -0.178, 0.976, 0.052000000000000005, 192.0, 0.0, 0.0, 0.0, 0.0, 0.0, 0.0, 0.0, 0.0, 0.0, 1.700945663752465E9, 0.0, 2023-11-25 15:54:23.752
162.0, 75593.46563738176, 81440.68198689008, -10629.86381409929, -8917.653133589403, -3771.0745657771313, -2659.9917006482724, -15581.423411539008, 187500.0, -0.178, 0.976, 0.052000000000000005, 192.0, 0.0, 0.0, 0.0, 0.0, 0.0, 0.0, 0.0, 0.0, 0.0, 1.700945663756502E9, 0.0, 2023-11-25 15:54:23.756
163.0, 75563.51429981165, 81430.55664665182, -11171.871265396032, -9331.383923457137, -4278.816792823886, -2880.5140114443316, -15674.943110340013, 187500.0, -0.178, 0.976, 0.052000000000000005, 192.0, 0.0, 0.0, 0.0, 0.0, 0.0, 0.0, 0.0, 0.0, 0.0, 1.700945663760773E9, 0.0, 2023-11-25 15:54:23.760
164.0, 75552.94192468429, 81475.70717045155, -11930.623582675886, -9983.652530151909, -5113.788558696337, -3416.8888231383353, -15771.636756853672, 187500.0, -0.178, 0.976, 0.052000000000000005, 192.0, 0.0, 0.0, 0.0, 0.0, 0.0, 0.0, 0.0, 0.0, 0.0, 1.700945663764498E9, 0.0, 2023-11-25 15:54:23.764
165.0, 75574.37724761693, 81481.78684494339, -11736.27516463699, -10207.505250871809, -5110.882831917147, -3763.050289517676, -15668.61756665916, 187500.0, -0.178, 0.976, 0.052000000000000005, 192.0, 0.0, 0.0, 0.0, 0.0, 0.0, 0.0, 0.0, 0.0, 0.0, 1.700945663768512E9, 0.0, 2023-11-25 15:54:23.768
166.0, 75592.16923620335, 81449.24270501647, -10641.620831682781, -8976.594683718049, -3819.3543338005943, -2717.547442620688, -15569.308766044232, 187500.0, -0.178, 0.976, 0.052000000000000005, 192.0, 0.0, 0.0, 0.0, 0.0, 0.0, 0.0, 0.0, 0.0, 0.0, 1.700945663774561E9, 0.0, 2023-11-25 15:54:23.774
167.0, 75565.50360506817, 81433.55178040884, -11086.107621921019, -9264.708669746957, -4196.852945906276, -2837.352792901134, -15675.72542139595, 187500.0, -0.178, 0.976, 0.048, 192.0, 250.0, 112.0, 30.0, 128.0, 1.0, 128.0, 0.0, 0.0, 0.0, 1.700945663777519E9, 0.0, 2023-11-25 15:54:23.777
168.0, 75553.90304969586, 81465.00068485746, -11795.931970588204, -9822.295286929046, -4947.111600293112, -3266.863914354314, -15754.82824502328, 187500.0, -0.178, 0.976, 0.048, 192.0, 0.0, 0.0, 0.0, 0.0, 0.0, 0.0, 0.0, 0.0, 0.0, 1.700945663781568E9, 0.0, 2023-11-25 15:54:23.781
169.0, 75573.39377086089, 81487.21831884603, -11937.396161245842, -10337.793569301793, -5299.375092908752, -3857.173485418974, -15705.095613610223, 187500.0, -0.178, 0.976, 0.048, 192.0, 0.0, 0.0, 0.0, 0.0, 0.0, 0.0, 0.0, 0.0, 0.0, 1.700945663784618E9, 0.0, 2023-11-25 15:54:23.784
170.0, 75596.12549497193, 81445.39820497014, -10711.827661016901, -9106.033635858732, -3928.810826398233, -2861.2915112127675, -15547.918146600503, 187500.0, -0.178, 0.976, 0.048, 192.0, 0.0, 0.0, 0.0, 0.0, 0.0, 0.0, 0.0, 0.0, 0.0, 1.700945663788615E9, 0.0, 2023-11-25 15:54:23.788
171.0, 75564.69894226777, 81425.28163496038, -10990.285693441117, -9189.383290932572, -4104.0037994389295, -2817.6832577804635, -15659.0957235212, 187500.0, -0.178, 0.976, 0.048, 192.0, 0.0, 0.0, 0.0, 0.0, 0.0, 0.0, 0.0, 0.0, 0.0, 1.700945663792685E9, 0.0, 2023-11-25 15:54:23.792
172.0, 75543.95652341325, 81449.55562943884, -11653.461951430078, -9692.565762110444, -4788.771842571717, -3158.6144159572623, -15730.39778833363, 187500.0, -0.178, 0.976, 0.048, 192.0, 0.0, 0.0, 0.0, 0.0, 0.0, 0.0, 0.0, 0.0, 0.0, 1.700945663798623E9, 0.0, 2023-11-25 15:54:23.798
173.0, 75555.60178227446, 81478.27762106391, -12079.48620074823, -10400.043177609823, -5421.16974844572, -3892.131613747074, -15741.663067539104, 187500.0, -0.178, 0.976, 0.048, 192.0, 0.0, 0.0, 0.0, 0.0, 0.0, 0.0, 0.0, 0.0, 0.0, 1.700945663801699E9, 0.0, 2023-11-25 15:54:23.801
174.0, 75587.36361114545, 81443.69947239154, -10842.875938758367, -9281.941864721997, -4098.52762204738, -3017.060818321803, -15541.190271519456, 187500.0, -0.178, 0.976, 0.048, 192.0, 0.0, 0.0, 0.0, 0.0, 0.0, 0.0, 0.0, 0.0, 0.0, 1.700945663805639E9, 0.0, 2023-11-25 15:54:23.805
175.0, 75570.21982314823, 81424.70048960454, -10883.82433460049, -9077.13283027802, -3988.9146672385536, -2744.794219111707, -15646.019953014846, 187500.0, -0.178, 0.976, 0.048, 192.0, 0.0, 0.0, 0.0, 0.0, 0.0, 0.0, 0.0, 0.0, 0.0, 1.700945663808686E9, 0.0, 2023-11-25 15:54:23.808
176.0, 75545.34233156948, 81440.90550433463, -11515.931667796573, -9572.380432174257, -4633.941308729805, -3052.622443750196, -15717.903163183113, 187500.0, -0.18, 0.964, 0.044, 192.0, 250.0, 96.0, 30.0, 32.0, 1.0, 96.0, 0.0, 0.0, 0.0, 1.700945663812651E9, 0.0, 2023-11-25 15:54:23.812
177.0, 75550.39382581638, 81485.51958626743, -12146.720248069794, -10367.208465004976, -5445.9354813022, -3824.0929036251196, -15784.1760854931, 187500.0, -0.18, 0.964, 0.044, 192.0, 0.0, 0.0, 0.0, 0.0, 0.0, 0.0, 0.0, 0.0, 0.0, 1.700945663816686E9, 0.0, 2023-11-25 15:54:23.816
178.0, 75592.12453271444, 81468.71107443704, -11044.622784211968, -9534.896556722708, -4346.319061078913, -3232.5316348709625, -15572.214492823423, 187500.0, -0.18, 0.964, 0.044, 192.0, 0.0, 0.0, 0.0, 0.0, 0.0, 0.0, 0.0, 0.0, 0.0, 1.700945663820681E9, 0.0, 2023-11-25 15:54:23.820
179.0, 75581.4403988648, 81435.13875426516, -10780.112240327864, -9004.266143353718, -3892.5786486361803, -2704.829300025618, -15639.42618840053, 187500.0, -0.18, 0.964, 0.044, 192.0, 0.0, 0.0, 0.0, 0.0, 0.0, 0.0, 0.0, 0.0, 0.0, 1.700945663824766E9, 0.0, 2023-11-25 15:54:23.824
180.0, 75553.45601480675, 81444.75000438094, -11390.001939535374, -9495.669245203644, -4505.105853689415, -2993.8150040882833, -15715.086843381745, 187500.0, -0.18, 0.964, 0.044, 192.0, 0.0, 0.0, 0.0, 0.0, 0.0, 0.0, 0.0, 0.0, 0.0, 1.700945663828709E9, 0.0, 2023-11-25 15:54:23.828
181.0, 75551.5337647836, 81489.96758341404, -12128.59298331654, -10281.869504674614, -5386.837468962368, -3729.299155390162, -15802.660978157637, 187500.0, -0.18, 0.964, 0.044, 192.0, 0.0, 0.0, 0.0, 0.0, 0.0, 0.0, 0.0, 0.0, 0.0, 1.700945663832802E9, 0.0, 2023-11-25 15:54:23.832
182.0, 75576.67947729582, 81460.91031562214, -11284.792278384242, -9797.976588961672, -4621.714904512752, -3455.9820241906673, -15610.95006596447, 187500.0, -0.18, 0.964, 0.044, 192.0, 0.0, 0.0, 0.0, 0.0, 0.0, 0.0, 0.0, 0.0, 0.0, 1.700945663835751E9, 0.0, 2023-11-25 15:54:23.835
183.0, 75568.76695975864, 81423.24762621494, -10699.154221910741, -8947.872692092978, -3823.8693861805664, -2690.4347765964003, -15631.245449929887, 187500.0, -0.18, 0.964, 0.044, 192.0, 0.0, 0.0, 0.0, 0.0, 0.0, 0.0, 0.0, 0.0, 0.0, 1.700945663839791E9, 0.0, 2023-11-25 15:54:23.839
184.0, 75547.19752635926, 81431.22719898549, -11275.717470135389, -9410.28558138437, -4388.96618949964, -2951.7043175344847, -15704.1568403431, 187500.0, -0.18, 0.964, 0.044, 192.0, 0.0, 0.0, 0.0, 0.0, 0.0, 0.0, 0.0, 0.0, 0.0, 1.700945663844797E9, 0.0, 2023-11-25 15:54:23.844
185.0, 75550.0361979051, 81484.26788857793, -12049.758380622672, -10154.933947912927, -5274.9222844746455, -3595.5686683140602, -15795.866047843225, 187500.0, -0.18, 0.964, 0.044, 192.0, 0.0, 0.0, 0.0, 0.0, 0.0, 0.0, 0.0, 0.0, 0.0, 1.700945663848749E9, 0.0, 2023-11-25 15:54:23.848
186.0, 75580.00988721965, 81478.45643501956, -11518.815042831307, -10027.685466728863, -4881.330416361144, -3636.472360667272, -15625.791624282792, 187500.0, -0.184, 0.966, 0.048, 192.0, 250.0, 64.0, 30.0, 48.0, 1.0, 128.0, 0.0, 0.0, 0.0, 1.700945663852795E9, 0.0, 2023-11-25 15:54:23.852
187.0, 75584.6366983219, 81437.5750944108, -10628.299191987418, -8900.777566525647, -3768.7946878426897, -2666.4290030514007, -15579.590568493673, 187500.0, -0.184, 0.966, 0.048, 192.0, 0.0, 0.0, 0.0, 0.0, 0.0, 0.0, 0.0, 0.0, 0.0, 1.700945663857254E9, 0.0, 2023-11-25 15:54:23.857
188.0, 75566.75530275767, 81440.50317293443, -11161.276538524216, -9309.233344701928, -4269.741984575032, -2885.543153946776, -15675.43484871803, 187500.0, -0.184, 0.966, 0.048, 192.0, 0.0, 0.0, 0.0, 0.0, 0.0, 0.0, 0.0, 0.0, 0.0, 1.700945663861463E9, 0.0, 2023-11-25 15:54:23.861
189.0, 75557.07699740851, 81479.17169084212, -11911.535192911053, -9952.20362570329, -5090.587447951728, -3406.6293724333495, -15765.400620150642, 187500.0, -0.184, 0.966, 0.048, 192.0, 0.0, 0.0, 0.0, 0.0, 0.0, 0.0, 0.0, 0.0, 0.0, 1.700945663863865E9, 0.0, 2023-11-25 15:54:23.863
190.0, 75574.086674939, 81475.55070824036, -11752.99426948956, -10208.712245072395, -5127.736047236449, -3773.622664645036, -15666.136523024623, 187500.0, -0.184, 0.966, 0.048, 192.0, 0.0, 0.0, 0.0, 0.0, 0.0, 0.0, 0.0, 0.0, 0.0, 1.700945663867807E9, 0.0, 2023-11-25 15:54:23.867
191.0, 75591.31986991405, 81437.66450138862, -10634.982363579556, -8977.332291285073, -3822.818854191167, -2745.151847022992, -15562.312670029722, 187500.0, -0.184, 0.966, 0.048, 192.0, 0.0, 0.0, 0.0, 0.0, 0.0, 0.0, 0.0, 0.0, 0.0, 1.700945663872981E9, 0.0, 2023-11-25 15:54:23.872
192.0, 75565.19068064578, 81425.08046926028, -11060.894854175433, -9243.608622981146, -4179.373881742225, -2851.635557608075, -15673.57965392824, 187500.0, -0.184, 0.966, 0.048, 192.0, 0.0, 0.0, 0.0, 0.0, 0.0, 0.0, 0.0, 0.0, 0.0, 1.700945663877013E9, 0.0, 2023-11-25 15:54:23.877
193.0, 75551.75728222815, 81464.0842633348, -11770.406278420243, -9802.111661685904, -4930.727771607372, -3260.8289433513814, -15756.1693496906, 187500.0, -0.184, 0.966, 0.048, 192.0, 0.0, 0.0, 0.0, 0.0, 0.0, 0.0, 0.0, 0.0, 0.0, 1.700945663880871E9, 0.0, 2023-11-25 15:54:23.880
194.0, 75562.70963701126, 81478.99287688648, -11951.1201323414, -10356.926662555536, -5325.750151366014, -3864.9071890005102, -15715.377416059664, 187500.0, -0.184, 0.966, 0.048, 192.0, 0.0, 0.0, 0.0, 0.0, 0.0, 0.0, 0.0, 0.0, 0.0, 1.700945663884887E9, 0.0, 2023-11-25 15:54:23.884
195.0, 75583.42970412131, 81434.44585018705, -10714.26400116253, -9126.150205868507, -3952.4142685430375, -2870.3439677171673, -15555.718905415406, 187500.0, -0.184, 0.966, 0.048, 192.0, 0.0, 0.0, 0.0, 0.0, 0.0, 0.0, 0.0, 0.0, 0.0, 1.70094566388886E9, 0.0, 2023-11-25 15:54:23.888
196.0, 75564.22955563421, 81419.55958837982, -10968.828018764021, -9176.374575659584, -4099.466395314503, -2804.965115185394, -15666.985889313924, 187500.0, -0.186, 0.97, 0.048, 192.0, 250.0, 48.0, 30.0, 80.0, 1.0, 128.0, 0.0, 0.0, 0.0, 1.700945663891873E9, 0.0, 2023-11-25 15:54:23.891
197.0, 75558.84278522048, 81455.50119346395, -11626.237526683513, -9689.481221375612, -4781.976912257303, -3155.172247311145, -15733.25881162391, 187500.0, -0.186, 0.97, 0.048, 192.0, 0.0, 0.0, 0.0, 0.0, 0.0, 0.0, 0.0, 0.0, 0.0, 1.700945663895908E9, 0.0, 2023-11-25 15:54:23.895
198.0, 75563.76016900066, 81476.02009487392, -12070.456095988286, -10398.366796775676, -5432.50208288456, -3885.649607855035, -15753.777713033882, 187500.0, -0.186, 0.97, 0.048, 192.0, 0.0, 0.0, 0.0, 0.0, 0.0, 0.0, 0.0, 0.0, 0.0, 1.700945663901277E9, 0.0, 2023-11-25 15:54:23.901
199.0, 75593.33152691502, 81443.49830669146, -10847.77097079408, -9323.091426264218, -4142.58291036879, -3053.829437950783, -15557.976431605392, 187500.0, -0.186, 0.97, 0.048, 192.0, 0.0, 0.0, 0.0, 0.0, 0.0, 0.0, 0.0, 0.0, 0.0, 1.700945663904938E9, 0.0, 2023-11-25 15:54:23.904
200.0, 75561.14501489938, 81407.69081207406, -10854.34238366394, -9081.200847768885, -3997.520088853847, -2740.3685737095566, -15653.194862985, 187500.0, -0.186, 0.97, 0.048, 192.0, 0.0, 0.0, 0.0, 0.0, 0.0, 0.0, 0.0, 0.0, 0.0, 1.700945663908995E9, 0.0, 2023-11-25 15:54:23.908
201.0, 75550.39382581638, 81438.46916418901, -11483.789859269842, -9578.683624110654, -4647.352355402989, -3043.5699872457967, -15721.34533182923, 187500.0, -0.186, 0.97, 0.048, 192.0, 0.0, 0.0, 0.0, 0.0, 0.0, 0.0, 0.0, 0.0, 0.0, 1.700945663912962E9, 0.0, 2023-11-25 15:54:23.912
202.0, 75571.15859641536, 81486.97244965703, -12111.471547063775, -10378.764316888371, -5463.459248955161, -3825.590470503625, -15768.105181229734, 187500.0, -0.186, 0.97, 0.048, 192.0, 0.0, 0.0, 0.0, 0.0, 0.0, 0.0, 0.0, 0.0, 0.0, 1.700945663916116E9, 0.0, 2023-11-25 15:54:23.916
203.0, 75608.37425093344, 81462.96667611202, -11016.839565854021, -9571.08403099585, -4384.317026652936, -3254.6151583928063, -15542.576079675686, 187500.0, -0.186, 0.97, 0.048, 192.0, 0.0, 0.0, 0.0, 0.0, 0.0, 0.0, 0.0, 0.0, 0.0, 1.700945663919977E9, 0.0, 2023-11-25 15:54:23.919
204.0, 75594.06913448205, 81433.68589087557, -10719.382550642795, -8987.211762334318, -3891.125785246585, -2684.4445090823783, -15608.491374074385, 187500.0, -0.186, 0.97, 0.048, 192.0, 0.0, 0.0, 0.0, 0.0, 0.0, 0.0, 0.0, 0.0, 0.0, 1.700945663924248E9, 0.0, 2023-11-25 15:54:23.924
205.0, 75575.07015169504, 81455.83646963078, -11314.721264209898, -9451.032811526396, -4492.320655860979, -2956.174666425546, -15680.86632262067, 187500.0, -0.186, 0.97, 0.048, 192.0, 0.0, 0.0, 0.0, 0.0, 0.0, 0.0, 0.0, 0.0, 0.0, 1.700945663928002E9, 0.0, 2023-11-25 15:54:23.928
206.0, 75563.38018934491, 81483.23970833299, -12065.29284301911, -10254.689783416961, -5396.582829544882, -3688.7083874593245, -15776.397678422652, 187500.0, -0.184, 0.966, 0.042, 192.0, 250.0, 64.0, 30.0, 48.0, 1.0, 80.0, 0.0, 0.0, 0.0, 1.700945663934061E9, 0.0, 2023-11-25 15:54:23.934
207.0, 75598.27126243965, 81468.0852255923, -11242.838054041631, -9813.734568802663, -4660.942216031815, -3437.7206489706814, -15574.047335868758, 187500.0, -0.184, 0.966, 0.042, 192.0, 0.0, 0.0, 0.0, 0.0, 0.0, 0.0, 0.0, 0.0, 0.0, 1.700945663937196E9, 0.0, 2023-11-25 15:54:23.937
208.0, 75595.16436996036, 81430.37783269619, -10636.099950802321, -8938.999049544222, -3831.3572205730943, -2650.738078443775, -15586.117277874624, 187500.0, -0.184, 0.966, 0.042, 192.0, 0.0, 0.0, 0.0, 0.0, 0.0, 0.0, 0.0, 0.0, 0.0, 1.700945663941098E9, 0.0, 2023-11-25 15:54:23.941
209.0, 75576.70182904028, 81437.93272232208, -11215.300704872692, -9413.81715700831, -4406.758178086064, -2920.9036136750715, -15672.126790538645, 187500.0, -0.184, 0.966, 0.042, 192.0, 0.0, 0.0, 0.0, 0.0, 0.0, 0.0, 0.0, 0.0, 0.0, 1.700945663944148E9, 0.0, 2023-11-25 15:54:23.944
210.0, 75575.62894530642, 81490.39226655869, -11983.37369959041, -10140.114741339057, -5287.796889280902, -3558.08479286251, -15769.178064963588, 187500.0, -0.184, 0.966, 0.042, 192.0, 0.0, 0.0, 0.0, 0.0, 0.0, 0.0, 0.0, 0.0, 0.0, 1.700945663948512E9, 0.0, 2023-11-25 15:54:23.948
211.0, 75603.72508808674, 81481.04923737637, -11484.013376714394, -10054.909891475427, -4935.30987922071, -3638.685183368347, -15597.583722780195, 187500.0, -0.184, 0.966, 0.042, 192.0, 0.0, 0.0, 0.0, 0.0, 0.0, 0.0, 0.0, 0.0, 0.0, 1.700945663952098E9, 0.0, 2023-11-25 15:54:23.952
212.0, 75612.37521319094, 81445.42055671461, -10574.677357039138, -8926.012686015689, -3797.4049207454827, -2671.167572875926, -15539.64800115204, 187500.0, -0.184, 0.966, 0.042, 192.0, 0.0, 0.0, 0.0, 0.0, 0.0, 0.0, 0.0, 0.0, 0.0, 1.700945663956144E9, 0.0, 2023-11-25 15:54:23.956
213.0, 75577.59589881849, 81431.42836468559, -11104.033720974174, -9328.500548422402, -4292.965447064095, -2883.2632760123347, -15646.534043137319, 187500.0, -0.184, 0.966, 0.042, 192.0, 0.0, 0.0, 0.0, 0.0, 0.0, 0.0, 0.0, 0.0, 0.0, 1.700945663960176E9, 0.0, 2023-11-25 15:54:23.960
214.0, 75564.16250040085, 81468.21933605902, -11853.286546860523, -9967.78279158864, -5118.303611076309, -3396.0793490504443, -15747.899204242136, 187500.0, -0.184, 0.966, 0.042, 192.0, 0.0, 0.0, 0.0, 0.0, 0.0, 0.0, 0.0, 0.0, 0.0, 1.700945663965292E9, 0.0, 2023-11-25 15:54:23.965
215.0, 75579.27227965264, 81469.40397851515, -11727.647391277242, -10257.684917173972, -5192.556106156839, -3798.969542857354, -15657.933432809525, 187500.0, -0.184, 0.966, 0.042, 192.0, 0.0, 0.0, 0.0, 0.0, 0.0, 0.0, 0.0, 0.0, 0.0, 1.700945663969147E9, 0.0, 2023-11-25 15:54:23.969
216.0, 75597.82422755053, 81430.0202047849, -10595.308017171386, -8987.34587280105, -3854.33481387315, -2737.68636437492, -15528.628591135574, 187500.0, -0.178, 0.962, 0.048, 192.0, 250.0, 112.0, 30.0, 16.0, 1.0, 128.0, 0.0, 0.0, 0.0, 1.700945663972205E9, 0.0, 2023-11-25 15:54:23.972
217.0, 75576.590070318, 81422.35355643673, -11015.65492339789, -9250.87293992912, -4204.340780298803, -2840.884368525072, -15633.748845308883, 187500.0, -0.178, 0.962, 0.048, 192.0, 0.0, 0.0, 0.0, 0.0, 0.0, 0.0, 0.0, 0.0, 0.0, 1.70094566397618E9, 0.0, 2023-11-25 15:54:23.976
218.0, 75549.99149441619, 81438.29035023336, -11722.171213885691, -9810.135937945359, -4953.817123629704, -3253.810495592415, -15722.574677774273, 187500.0, -0.178, 0.962, 0.048, 192.0, 0.0, 0.0, 0.0, 0.0, 0.0, 0.0, 0.0, 0.0, 0.0, 1.700945663980193E9, 0.0, 2023-11-25 15:54:23.980
219.0, 75562.10613991096, 81459.34569351026, -11928.567222185997, -10369.555398172784, -5371.705337966125, -3867.231770423862, -15691.282235536843, 187500.0, -0.178, 0.962, 0.048, 192.0, 0.0, 0.0, 0.0, 0.0, 0.0, 0.0, 0.0, 0.0, 0.0, 1.700945663984182E9, 0.0, 2023-11-25 15:54:23.984
220.0, 75587.9447565013, 81430.04255652936, -10691.64403577376, -9154.7604387713, -3997.318923153749, -2881.0951568001697, -15519.68789335345, 187500.0, -0.178, 0.962, 0.048, 192.0, 0.0, 0.0, 0.0, 0.0, 0.0, 0.0, 0.0, 0.0, 0.0, 1.700945663988209E9, 0.0, 2023-11-25 15:54:23.988
221.0, 75553.34425608449, 81397.05138171332, -10928.281954322096, -9165.24340692084, -4110.686971031067, -2781.942818396428, -15629.65847607356, 187500.0, -0.178, 0.962, 0.048, 192.0, 0.0, 0.0, 0.0, 0.0, 0.0, 0.0, 0.0, 0.0, 0.0, 1.700945663993231E9, 0.0, 2023-11-25 15:54:23.993
222.0, 75546.16934611433, 81435.65284438763, -11581.377575561712, -9674.773773524019, -4791.632865861996, -3125.042095785391, -15697.563075728784, 187500.0, -0.178, 0.962, 0.048, 192.0, 0.0, 0.0, 0.0, 0.0, 0.0, 0.0, 0.0, 0.0, 0.0, 1.700945663997221E9, 0.0, 2023-11-25 15:54:23.997
223.0, 75563.62605853392, 81476.75770244094, -12045.109217775967, -10423.937192432546, -5468.935426346711, -3895.4396719264596, -15725.569811531284, 187500.0, -0.178, 0.962, 0.048, 192.0, 0.0, 0.0, 0.0, 0.0, 0.0, 0.0, 0.0, 0.0, 0.0, 1.700945664000233E9, 0.0, 2023-11-25 15:54:24.000
224.0, 75595.11966647145, 81438.75973686692, -10825.776854250056, -9364.978595373464, -4179.128012553217, -3076.5835138062853, -15524.895849811537, 187500.0, -0.178, 0.962, 0.048, 192.0, 0.0, 0.0, 0.0, 0.0, 0.0, 0.0, 0.0, 0.0, 0.0, 1.700945664004258E9, 0.0, 2023-11-25 15:54:24.004
225.0, 75573.95256447227, 81412.42938189858, -10813.14811863281, -9098.858725888578, -3999.867022021654, -2747.2305592573357, -15621.94712423648, 187500.0, -0.178, 0.962, 0.048, 192.0, 0.0, 0.0, 0.0, 0.0, 0.0, 0.0, 0.0, 0.0, 0.0, 1.700945664008321E9, 0.0, 2023-11-25 15:54:24.008
226.0, 75554.19362237379, 81439.00560605593, -11436.202995324493, -9580.427060178168, -4631.795541262096, -3040.6195569776964, -15699.44062226303, 187500.0, -0.17200000000000001, 0.962, 0.048, 192.0, 250.0, 160.0, 30.0, 16.0, 1.0, 128.0, 0.0, 0.0, 0.0, 1.700945664012275E9, 0.0, 2023-11-25 15:54:24.012
227.0, 75561.2344218772, 81474.41076927313, -12089.008043886191, -10387.637959437128, -5465.60501642287, -3817.2756215662507, -15768.507512629929, 187500.0, -0.17200000000000001, 0.962, 0.048, 192.0, 0.0, 0.0, 0.0, 0.0, 0.0, 0.0, 0.0, 0.0, 0.0, 1.700945664016295E9, 0.0, 2023-11-25 15:54:24.016
228.0, 75593.17506470383, 81445.46526020352, -11027.523699703659, -9597.414385964203, -4412.748445600087, -3262.55002767444, -15559.026963594792, 187500.0, -0.17200000000000001, 0.962, 0.048, 192.0, 0.0, 0.0, 0.0, 0.0, 0.0, 0.0, 0.0, 0.0, 0.0, 1.700945664021324E9, 0.0, 2023-11-25 15:54:24.021
229.0, 75582.22270992074, 81414.03870749935, -10715.31453315193, -8987.547038501149, -3893.986808536865, -2680.2200293803253, -15619.756653279861, 187500.0, -0.17200000000000001, 0.962, 0.048, 192.0, 0.0, 0.0, 0.0, 0.0, 0.0, 0.0, 0.0, 0.0, 0.0, 1.700945664025334E9, 0.0, 2023-11-25 15:54:24.025
230.0, 75563.1343201559, 81431.0707367743, -11316.487052021868, -9476.87142811673, -4502.267182143591, -2979.375777170155, -15688.57767445775, 187500.0, -0.17200000000000001, 0.962, 0.048, 192.0, 0.0, 0.0, 0.0, 0.0, 0.0, 0.0, 0.0, 0.0, 0.0, 1.700945664028359E9, 0.0, 2023-11-25 15:54:24.028
231.0, 75566.50943356866, 81476.86946116322, -12059.52609294964, -10260.344774764155, -5387.843297462857, -3691.792928194157, -15776.688251100572, 187500.0, -0.17200000000000001, 0.962, 0.048, 192.0, 0.0, 0.0, 0.0, 0.0, 0.0, 0.0, 0.0, 0.0, 0.0, 1.700945664032415E9, 0.0, 2023-11-25 15:54:24.032
232.0, 75600.77465781863, 81465.1794988131, -11275.60571141311, -9867.311700262035, -4697.59907693852, -3482.7817657925807, -15588.017176153324, 187500.0, -0.17200000000000001, 0.962, 0.048, 192.0, 0.0, 0.0, 0.0, 0.0, 0.0, 0.0, 0.0, 0.0, 0.0, 1.700945664036443E9, 0.0, 2023-11-25 15:54:24.036
233.0, 75593.86796878195, 81417.45852440102, -10637.172834536175, -8955.092305552043, -3831.4466275509153, -2670.452317053356, -15603.886914716591, 187500.0, -0.17200000000000001, 0.962, 0.048, 192.0, 0.0, 0.0, 0.0, 0.0, 0.0, 0.0, 0.0, 0.0, 0.0, 1.700945664040436E9, 0.0, 2023-11-25 15:54:24.040
234.0, 75568.40933184736, 81414.48574238847, -11213.914896716464, -9414.420654108602, -4392.318951167936, -2920.858910186161, -15688.77884015785, 187500.0, -0.17200000000000001, 0.962, 0.048, 192.0, 0.0, 0.0, 0.0, 0.0, 0.0, 0.0, 0.0, 0.0, 0.0, 1.700945664045414E9, 0.0, 2023-11-25 15:54:24.045
235.0, 75573.8855092389, 81475.55070824036, -11979.104516399446, -10128.916517366948, -5261.511237801461, -3539.7787141536137, -15781.493876158462, 187500.0, -0.17200000000000001, 0.962, 0.048, 192.0, 0.0, 0.0, 0.0, 0.0, 0.0, 0.0, 0.0, 0.0, 0.0, 1.700945664048696E9, 0.0, 2023-11-25 15:54:24.048
236.0, 75608.48600965572, 81475.19308032907, -11515.886964307663, -10077.418098141921, -4947.625690415584, -3651.9621195747995, -15615.733339277906, 187500.0, -0.176, 0.962, 0.048, 192.0, 250.0, 128.0, 30.0, 16.0, 1.0, 128.0, 0.0, 0.0, 0.0, 1.700945664052427E9, 0.0, 2023-11-25 15:54:24.052
237.0, 75608.15073348889, 81429.79668734035, -10587.373147889752, -8930.773607584668, -3796.3767405005387, -2666.71957572932, -15553.483730969874, 187500.0, -0.176, 0.962, 0.048, 192.0, 0.0, 0.0, 0.0, 0.0, 0.0, 0.0, 0.0, 0.0, 0.0, 1.700945664056522E9, 0.0, 2023-11-25 15:54:24.056
238.0, 75574.7348755282, 81422.77823958138, -11112.661494333923, -9328.61230714468, -4287.332807461358, -2865.046604281259, -15653.843063574204, 187500.0, -0.176, 0.962, 0.048, 192.0, 0.0, 0.0, 0.0, 0.0, 0.0, 0.0, 0.0, 0.0, 0.0, 1.700945664060446E9, 0.0, 2023-11-25 15:54:24.060
239.0, 75563.15667190036, 81462.78786215639, -11858.405096340788, -9962.127800241447, -5099.572849222762, -3366.485639391618, -15743.1159309287, 187500.0, -0.176, 0.962, 0.048, 192.0, 0.0, 0.0, 0.0, 0.0, 0.0, 0.0, 0.0, 0.0, 0.0, 1.700945664065542E9, 0.0, 2023-11-25 15:54:24.065
240.0, 75588.68236406831, 81470.74508318247, -11761.577339360398, -10270.2242458134, -5194.344245713263, -3781.266961248751, -15653.843063574204, 187500.0, -0.176, 0.962, 0.048, 192.0, 0.0, 0.0, 0.0, 0.0, 0.0, 0.0, 0.0, 0.0, 0.0, 1.700945664068495E9, 0.0, 2023-11-25 15:54:24.068
241.0, 75614.67744286984, 81437.88801883317, -10614.977552292055, -9007.350684088551, -3856.4358778519486, -2744.101315033593, -15530.93082081447, 187500.0, -0.176, 0.962, 0.048, 192.0, 0.0, 0.0, 0.0, 0.0, 0.0, 0.0, 0.0, 0.0, 0.0, 1.700945664071496E9, 0.0, 2023-11-25 15:54:24.071
242.0, 75577.08180869602, 81410.73064931997, -11024.37210373546, -9236.456064755448, -4189.812146402854, -2814.0846269231592, -15652.501958906885, 187500.0, -0.176, 0.962, 0.048, 192.0, 0.0, 0.0, 0.0, 0.0, 0.0, 0.0, 0.0, 0.0, 0.0, 1.700945664076543E9, 0.0, 2023-11-25 15:54:24.076
243.0, 75576.4336081068, 81458.89865862115, -11724.004056931026, -9783.492658554633, -4927.397361683531, -3215.1866811736445, -15737.393884348141, 187500.0, -0.176, 0.962, 0.048, 192.0, 0.0, 0.0, 0.0, 0.0, 0.0, 0.0, 0.0, 0.0, 0.0, 1.70094566408154E9, 0.0, 2023-11-25 15:54:24.081
244.0, 75580.14399768639, 81467.77230116991, -11957.691545211263, -10368.013127805369, -5374.879285678779, -3857.6652237969906, -15717.858459694204, 187500.0, -0.176, 0.962, 0.048, 192.0, 0.0, 0.0, 0.0, 0.0, 0.0, 0.0, 0.0, 0.0, 0.0, 1.700945664085517E9, 0.0, 2023-11-25 15:54:24.085
245.0, 75606.51905614365, 81433.19415249756, -10718.577887842404, -9151.966470714387, -3999.9787807439307, -2881.542191689276, -15555.160111804023, 187500.0, -0.176, 0.962, 0.048, 192.0, 0.0, 0.0, 0.0, 0.0, 0.0, 0.0, 0.0, 0.0, 0.0, 1.700945664088555E9, 0.0, 2023-11-25 15:54:24.088
246.0, 75572.70086678278, 81405.63445158416, -10933.758131713645, -9157.107371939108, -4092.7608719779105, -2761.9156553644725, -15663.409610201075, 187500.0, -0.182, 0.964, 0.044, 192.0, 250.0, 80.0, 30.0, 32.0, 1.0, 96.0, 0.0, 0.0, 0.0, 1.700945664092894E9, 0.0, 2023-11-25 15:54:24.092
247.0, 75558.01577067564, 81436.7704316104, -11587.569008775832, -9658.457000071645, -4764.050813204148, -3090.620409324218, -15734.82343373578, 187500.0, -0.182, 0.964, 0.044, 192.0, 0.0, 0.0, 0.0, 0.0, 0.0, 0.0, 0.0, 0.0, 0.0, 1.700945664096579E9, 0.0, 2023-11-25 15:54:24.096
248.0, 75567.42585509132, 81472.24265006097, -12082.503686249696, -10416.494061528929, -5469.494219958094, -3859.4757150978703, -15765.937062017569, 187500.0, -0.182, 0.964, 0.044, 192.0, 0.0, 0.0, 0.0, 0.0, 0.0, 0.0, 0.0, 0.0, 0.0, 1.700945664099588E9, 0.0, 2023-11-25 15:54:24.099
249.0, 75605.37911717643, 81444.01239681392, -10875.755354852123, -9380.71422347, -4200.540983741401, -3070.8391154812716, -15560.099847328645, 187500.0, -0.182, 0.964, 0.044, 192.0, 0.0, 0.0, 0.0, 0.0, 0.0, 0.0, 0.0, 0.0, 0.0, 1.700945664104641E9, 0.0, 2023-11-25 15:54:24.104
250.0, 75581.86508200945, 81407.13201846267, -10827.274421128563, -9059.206731224864, -3982.007978201864, -2712.607707096065, -15650.2444327169, 187500.0, -0.182, 0.964, 0.044, 192.0, 0.0, 0.0, 0.0, 0.0, 0.0, 0.0, 0.0, 0.0, 0.0, 1.700945664108713E9, 0.0, 2023-11-25 15:54:24.108
251.0, 75565.30243936807, 81434.13292576467, -11443.601422739199, -9540.529196325446, -4612.260116608157, -3008.0754170507694, -15718.529012027862, 187500.0, -0.182, 0.964, 0.044, 192.0, 0.0, 0.0, 0.0, 0.0, 0.0, 0.0, 0.0, 0.0, 0.0, 1.700945664112638E9, 0.0, 2023-11-25 15:54:24.112
252.0, 75570.15276791487, 81470.85684190475, -12115.87484072147, -10356.390220688609, -5463.816876866445, -3787.011359573765, -15795.620178654217, 187500.0, -0.182, 0.964, 0.044, 192.0, 0.0, 0.0, 0.0, 0.0, 0.0, 0.0, 0.0, 0.0, 0.0, 1.700945664116626E9, 0.0, 2023-11-25 15:54:24.116
253.0, 75605.17795147633, 81448.05806256033, -11081.413755585403, -9621.66602869821, -4452.73571643063, -3275.916370858714, -15586.541961019275, 187500.0, -0.182, 0.964, 0.044, 192.0, 0.0, 0.0, 0.0, 0.0, 0.0, 0.0, 0.0, 0.0, 0.0, 1.700945664120605E9, 0.0, 2023-11-25 15:54:24.120
254.0, 75597.62306185043, 81419.2690157019, -10726.199832701664, -8997.940599672866, -3895.5290789042806, -2677.738985745786, -15628.317371406243, 187500.0, -0.182, 0.964, 0.044, 192.0, 0.0, 0.0, 0.0, 0.0, 0.0, 0.0, 0.0, 0.0, 0.0, 1.700945664124863E9, 0.0, 2023-11-25 15:54:24.124
255.0, 75575.1372069284, 81438.75973686692, -11314.654208976533, -9470.344718735781, -4484.430490068256, -2952.866608246161, -15691.14812507011, 187500.0, -0.182, 0.964, 0.044, 192.0, 0.0, 0.0, 0.0, 0.0, 0.0, 0.0, 0.0, 0.0, 0.0, 1.700945664127657E9, 0.0, 2023-11-25 15:54:24.127
0.0, 75564.27425912312, 81472.73438843898, -12070.076116332546, -10242.776303622282, -5377.807364202424, -3656.00778532121, -15782.0750215143, 187500.0, -0.184, 0.968, 0.042, 192.0, 250.0, 64.0, 30.0, 64.0, 1.0, 80.0, 0.0, 0.0, 0.0, 1.700945664131647E9, 0.0, 2023-11-25 15:54:24.131
1.0, 75597.93598627282, 81460.3291702663, -11313.938953153964, -9866.596444439465, -4718.140330092947, -3474.73513778867, -15588.37480406461, 187500.0, -0.184, 0.968, 0.042, 192.0, 0.0, 0.0, 0.0, 0.0, 0.0, 0.0, 0.0, 0.0, 0.0, 1.700945664136683E9, 0.0, 2023-11-25 15:54:24.136
2.0, 75594.06913448205, 81415.69273658904, -10641.084389815855, -8921.788206313635, -3821.433046034938, -2641.1715318169036, -15591.995786666368, 187500.0, -0.184, 0.968, 0.042, 192.0, 0.0, 0.0, 0.0, 0.0, 0.0, 0.0, 0.0, 0.0, 0.0, 1.700945664140699E9, 0.0, 2023-11-25 15:54:24.140
3.0, 75573.4384743498, 81422.19709422554, -11216.93238221793, -9388.492630540446, -4387.0439394764835, -2896.8754883856163, -15679.301700508799, 187500.0, -0.184, 0.968, 0.042, 192.0, 0.0, 0.0, 0.0, 0.0, 0.0, 0.0, 0.0, 0.0, 0.0, 1.700945664144686E9, 0.0, 2023-11-25 15:54:24.144
4.0, 75576.90299474038, 81475.99774312947, -11980.020937922114, -10090.76208958174, -5250.000089406978, -3492.7282920751923, -15766.272338184399, 187500.0, -0.184, 0.968, 0.042, 192.0, 0.0, 0.0, 0.0, 0.0, 0.0, 0.0, 0.0, 0.0, 0.0, 1.700945664148685E9, 0.0, 2023-11-25 15:54:24.148
5.0, 75599.3441461735, 81461.24559178896, -11570.24640682297, -10115.661932904952, -5006.142557399578, -3662.109811557509, -15622.99765622588, 187500.0, -0.184, 0.968, 0.042, 192.0, 0.0, 0.0, 0.0, 0.0, 0.0, 0.0, 0.0, 0.0, 0.0, 1.700945664151722E9, 0.0, 2023-11-25 15:54:24.151
6.0, 75602.2945764416, 81411.87058828719, -10614.86579356978, -8951.985413072754, -3827.1550926154964, -2673.849782210563, -15563.60907120813, 187500.0, -0.184, 0.968, 0.042, 192.0, 0.0, 0.0, 0.0, 0.0, 0.0, 0.0, 0.0, 0.0, 0.0, 1.700945664155739E9, 0.0, 2023-11-25 15:54:24.155
7.0, 75585.01667797765, 81422.30885294783, -11119.702293837345, -9327.584126899736, -4289.612685395799, -2864.308996714234, -15666.985889313924, 187500.0, -0.184, 0.968, 0.042, 192.0, 0.0, 0.0, 0.0, 0.0, 0.0, 0.0, 0.0, 0.0, 0.0, 1.700945664159802E9, 0.0, 2023-11-25 15:54:24.159
8.0, 75571.60563130447, 81460.28446677739, -11857.891006218315, -9939.35137264149, -5089.849840384703, -3349.163037438755, -15763.254852682932, 187500.0, -0.184, 0.968, 0.042, 192.0, 0.0, 0.0, 0.0, 0.0, 0.0, 0.0, 0.0, 0.0, 0.0, 1.700945664164755E9, 0.0, 2023-11-25 15:54:24.164
9.0, 75592.68332632582, 81468.9345918816, -11793.272112998024, -10276.885065661081, -5223.0885890827885, -3783.971522327843, -15667.499979436396, 187500.0, -0.184, 0.968, 0.042, 192.0, 0.0, 0.0, 0.0, 0.0, 0.0, 0.0, 0.0, 0.0, 0.0, 1.700945664168822E9, 0.0, 2023-11-25 15:54:24.168
10.0, 75606.31789044356, 81422.30885294783, -10628.455654198606, -9016.134919659486, -3873.2443896823397, -2743.5872249111208, -15536.764626117305, 187500.0, -0.186, 0.97, 0.046, 192.0, 250.0, 48.0, 30.0, 80.0, 1.0, 112.0, 0.0, 0.0, 0.0, 1.700945664173077E9, 0.0, 2023-11-25 15:54:24.173
11.0, 75577.52884358513, 81406.90850101812, -11022.80748162359, -9240.524082246315, -4191.443823748091, -2813.1682054004914, -15657.62050838715, 187500.0, -0.186, 0.97, 0.046, 192.0, 0.0, 0.0, 0.0, 0.0, 0.0, 0.0, 0.0, 0.0, 0.0, 1.700945664176832E9, 0.0, 2023-11-25 15:54:24.176
12.0, 75577.95352672978, 81462.2737720339, -11710.324789324379, -9797.864830239396, -4923.575213381674, -3215.007867218002, -15735.203413391522, 187500.0, -0.186, 0.97, 0.046, 192.0, 0.0, 0.0, 0.0, 0.0, 0.0, 0.0, 0.0, 0.0, 0.0, 1.700945664179837E9, 0.0, 2023-11-25 15:54:24.179
13.0, 75586.6930588118, 81474.76839718442, -11963.525350514097, -10387.660311181584, -5386.681006751181, -3857.0617266966974, -15710.43768053504, 187500.0, -0.186, 0.97, 0.046, 192.0, 0.0, 0.0, 0.0, 0.0, 0.0, 0.0, 0.0, 0.0, 0.0, 1.700945664183786E9, 0.0, 2023-11-25 15:54:24.183
14.0, 75614.61038763648, 81438.17859151108, -10706.843222003368, -9169.959625000909, -3998.7494347988886, -2883.218572523424, -15525.365236445099, 187500.0, -0.186, 0.97, 0.046, 192.0, 0.0, 0.0, 0.0, 0.0, 0.0, 0.0, 0.0, 0.0, 0.0, 1.700945664189825E9, 0.0, 2023-11-25 15:54:24.189
15.0, 75581.26158490915, 81407.02025974038, -10907.785404656579, -9136.499063551315, -4070.9902728784414, -2745.420067956456, -15649.886804805614, 187500.0, -0.186, 0.97, 0.046, 192.0, 0.0, 0.0, 0.0, 0.0, 0.0, 0.0, 0.0, 0.0, 0.0, 1.700945664193011E9, 0.0, 2023-11-25 15:54:24.193
16.0, 75564.83305273451, 81433.90940832012, -11558.288223539379, -9643.48133128659, -4746.7505629957395, -3076.985845206481, -15723.44639580803, 187500.0, -0.186, 0.97, 0.046, 192.0, 0.0, 0.0, 0.0, 0.0, 0.0, 0.0, 0.0, 0.0, 0.0, 1.700945664196782E9, 0.0, 2023-11-25 15:54:24.196
17.0, 75574.51135808365, 81467.16880406962, -12068.28797677612, -10410.079110870256, -5463.07926929942, -3835.3134793416834, -15752.548367088839, 187500.0, -0.186, 0.97, 0.046, 192.0, 0.0, 0.0, 0.0, 0.0, 0.0, 0.0, 0.0, 0.0, 0.0, 1.700945664200872E9, 0.0, 2023-11-25 15:54:24.200
18.0, 75602.07105899704, 81430.19901874055, -10877.878770575378, -9399.489688812459, -4217.975344416541, -3075.7788510058945, -15541.659658153018, 187500.0, -0.186, 0.97, 0.046, 192.0, 0.0, 0.0, 0.0, 0.0, 0.0, 0.0, 0.0, 0.0, 0.0, 1.70094566420486E9, 0.0, 2023-11-25 15:54:24.204
19.0, 75571.96325921574, 81394.59268982324, -10807.001388907598, -9049.260204942251, -3973.1790391420177, -2694.2122214093474, -15631.446615629986, 187500.0, -0.186, 0.97, 0.046, 192.0, 0.0, 0.0, 0.0, 0.0, 0.0, 0.0, 0.0, 0.0, 0.0, 1.700945664207883E9, 0.0, 2023-11-25 15:54:24.207
20.0, 75565.07892192352, 81432.18832399706, -11425.07182658575, -9535.902385223197, -4602.58181125901, -2990.9092773090933, -15701.429927519552, 187500.0, -0.182, 0.964, 0.052000000000000005, 192.0, 250.0, 80.0, 30.0, 32.0, 1.0, 160.0, 0.0, 0.0, 0.0, 1.700945664212026E9, 0.0, 2023-11-25 15:54:24.212
21.0, 75576.1877389178, 81481.98801064349, -12099.82628820256, -10356.367868944153, -5459.167714019742, -3765.8442575745894, -15772.352012676241, 187500.0, -0.182, 0.964, 0.052000000000000005, 192.0, 0.0, 0.0, 0.0, 0.0, 0.0, 0.0, 0.0, 0.0, 0.0, 1.700945664215828E9, 0.0, 2023-11-25 15:54:24.215
22.0, 75608.03897476662, 81447.76748988242, -11087.895761477443, -9647.10231388835, -4474.796888208019, -3282.6889494286715, -15566.313632287221, 187500.0, -0.182, 0.964, 0.052000000000000005, 192.0, 0.0, 0.0, 0.0, 0.0, 0.0, 0.0, 0.0, 0.0, 0.0, 1.700945664219906E9, 0.0, 2023-11-25 15:54:24.219
23.0, 75597.19837870578, 81406.61792834019, -10706.865573747824, -8960.412020732407, -3875.2560466833174, -2642.356174273035, -15618.013217212347, 187500.0, -0.182, 0.964, 0.052000000000000005, 192.0, 0.0, 0.0, 0.0, 0.0, 0.0, 0.0, 0.0, 0.0, 0.0, 1.70094566422496E9, 0.0, 2023-11-25 15:54:24.224
24.0, 75575.45013135078, 81423.02410877039, -11308.99921762934, -9433.732561317987, -4475.422737052767, -2919.2272328409235, -15702.301645553309, 187500.0, -0.182, 0.964, 0.052000000000000005, 192.0, 0.0, 0.0, 0.0, 0.0, 0.0, 0.0, 0.0, 0.0, 0.0, 1.700945664228956E9, 0.0, 2023-11-25 15:54:24.228
25.0, 75575.67364879533, 81474.76839718442, -12070.67961343284, -10232.315687217199, -5379.997835159044, -3638.5063694127048, -15799.732899633993, 187500.0, -0.182, 0.964, 0.052000000000000005, 192.0, 0.0, 0.0, 0.0, 0.0, 0.0, 0.0, 0.0, 0.0, 0.0, 1.700945664232974E9, 0.0, 2023-11-25 15:54:24.232
26.0, 75611.70466085729, 81460.99972259995, -11331.149796384549, -9889.886962161894, -4745.677679261885, -3485.329864660486, -15596.153211135055, 187500.0, -0.182, 0.964, 0.052000000000000005, 192.0, 0.0, 0.0, 0.0, 0.0, 0.0, 0.0, 0.0, 0.0, 0.0, 1.700945664235935E9, 0.0, 2023-11-25 15:54:24.235
27.0, 75612.48697191323, 81426.8239053278, -10624.34293321883, -8912.780453298146, -3806.725598183346, -2622.776046130186, -15576.349565547654, 187500.0, -0.182, 0.964, 0.052000000000000005, 192.0, 0.0, 0.0, 0.0, 0.0, 0.0, 0.0, 0.0, 0.0, 0.0, 1.700945664240132E9, 0.0, 2023-11-25 15:54:24.240
28.0, 75581.08277095351, 81426.75685009443, -11196.681701741421, -9364.486856995447, -4360.065383918927, -2869.561656661231, -15668.461104447975, 187500.0, -0.182, 0.964, 0.052000000000000005, 192.0, 0.0, 0.0, 0.0, 0.0, 0.0, 0.0, 0.0, 0.0, 0.0, 1.700945664243931E9, 0.0, 2023-11-25 15:54:24.243
29.0, 75578.71348604125, 81475.2824873069, -11967.146333115857, -10075.249978929756, -5228.251842051965, -3473.282274399075, -15766.004117250934, 187500.0, -0.182, 0.964, 0.052000000000000005, 192.0, 0.0, 0.0, 0.0, 0.0, 0.0, 0.0, 0.0, 0.0, 0.0, 1.700945664247939E9, 0.0, 2023-11-25 15:54:24.247
30.0, 75600.12645722943, 81464.79951915736, -11594.00631117896, -10140.2935552947, -5028.047266965779, -3681.8911054004557, -15632.117167963645, 187500.0, -0.178, 0.962, 0.054, 192.0, 250.0, 112.0, 30.0, 16.0, 1.0, 176.0, 0.0, 0.0, 0.0, 1.700945664252955E9, 0.0, 2023-11-25 15:54:24.252
31.0, 75601.22169270774, 81409.12132371918, -10614.977552292055, -8956.992203830743, -3828.7644182162785, -2676.487288056289, -15566.581853220685, 187500.0, -0.178, 0.962, 0.054, 192.0, 0.0, 0.0, 0.0, 0.0, 0.0, 0.0, 0.0, 0.0, 0.0, 1.700945664258048E9, 0.0, 2023-11-25 15:54:24.258
32.0, 75579.31698314154, 81407.46729462949, -11123.993828772764, -9339.788179372332, -4295.647656398733, -2869.4946014278653, -15677.267691763365, 187500.0, -0.178, 0.962, 0.054, 192.0, 0.0, 0.0, 0.0, 0.0, 0.0, 0.0, 0.0, 0.0, 0.0, 1.700945664262179E9, 0.0, 2023-11-25 15:54:24.262
33.0, 75569.05753243656, 81447.94630383806, -11850.313764847966, -9929.673067292342, -5076.774069878348, -3333.3380023643977, -15766.004117250934, 187500.0, -0.178, 0.962, 0.054, 192.0, 0.0, 0.0, 0.0, 0.0, 0.0, 0.0, 0.0, 0.0, 0.0, 1.700945664265031E9, 0.0, 2023-11-25 15:54:24.265
34.0, 75588.36943964595, 81460.46328073303, -11822.284677301011, -10292.397176313065, -5244.166284104143, -3791.302894509184, -15685.359023256187, 187500.0, -0.178, 0.962, 0.054, 192.0, 0.0, 0.0, 0.0, 0.0, 0.0, 0.0, 0.0, 0.0, 0.0, 1.700945664268007E9, 0.0, 2023-11-25 15:54:24.268
35.0, 75613.22457948024, 81431.60717864122, -10633.082465300855, -9013.743283002768, -3871.5680088481918, -2739.92153882045, -15542.263155253311, 187500.0, -0.178, 0.962, 0.054, 192.0, 0.0, 0.0, 0.0, 0.0, 0.0, 0.0, 0.0, 0.0, 0.0, 1.70094566427209E9, 0.0, 2023-11-25 15:54:24.272
36.0, 75585.12843669993, 81418.53140813488, -11013.799728608099, -9224.810805894233, -4172.377785727714, -2794.4821470358547, -15662.515540422863, 187500.0, -0.178, 0.962, 0.054, 192.0, 0.0, 0.0, 0.0, 0.0, 0.0, 0.0, 0.0, 0.0, 0.0, 1.700945664276084E9, 0.0, 2023-11-25 15:54:24.276
37.0, 75575.85246275098, 81460.15035631065, -11697.07020486238, -9762.258501322092, -4892.103957188601, -3182.6425412467174, -15740.411369849608, 187500.0, -0.178, 0.962, 0.054, 192.0, 0.0, 0.0, 0.0, 0.0, 0.0, 0.0, 0.0, 0.0, 0.0, 1.700945664280133E9, 0.0, 2023-11-25 15:54:24.280
38.0, 75586.91657625635, 81479.23874607548, -11981.004414678147, -10390.968369360968, -5391.710149253625, -3856.748802274323, -15721.457090551507, 187500.0, -0.178, 0.962, 0.054, 192.0, 0.0, 0.0, 0.0, 0.0, 0.0, 0.0, 0.0, 0.0, 0.0, 1.700945664285101E9, 0.0, 2023-11-25 15:54:24.285
39.0, 75612.68813761332, 81444.92881833659, -10728.412655402739, -9181.29195943975, -4012.004019260886, -2895.4896802293874, -15541.302030241732, 187500.0, -0.178, 0.962, 0.054, 192.0, 0.0, 0.0, 0.0, 0.0, 0.0, 0.0, 0.0, 0.0, 0.0, 1.700945664288093E9, 0.0, 2023-11-25 15:54:24.288
40.0, 75586.11191345596, 81420.94539653604, -10909.797061657557, -9126.753702968801, -4061.3343192737484, -2734.0430300287044, -15655.921775808547, 187500.0, -0.17200000000000001, 0.968, 0.054, 192.0, 250.0, 160.0, 30.0, 64.0, 1.0, 176.0, 0.0, 0.0, 0.0, 1.700945664292113E9, 0.0, 2023-11-25 15:54:24.292
41.0, 75568.31992486953, 81446.35932998173, -11561.976261374506, -9641.648488241255, -4737.496940791242, -3075.2871126278774, -15737.930326215068, 187500.0, -0.17200000000000001, 0.968, 0.054, 192.0, 0.0, 0.0, 0.0, 0.0, 0.0, 0.0, 0.0, 0.0, 0.0, 1.700945664296155E9, 0.0, 2023-11-25 15:54:24.296
42.0, 75576.70182904028, 81480.40103678717, -12088.069270619068, -10405.072320112267, -5463.347490232884, -3842.33192710065, -15769.893320786157, 187500.0, -0.17200000000000001, 0.968, 0.054, 192.0, 0.0, 0.0, 0.0, 0.0, 0.0, 0.0, 0.0, 0.0, 0.0, 1.700945664300116E9, 0.0, 2023-11-25 15:54:24.300
43.0, 75612.4422684243, 81452.23783877348, -10899.604666185936, -9411.224354651495, -4229.106513155283, -3089.949856990559, -15554.154283303535, 187500.0, -0.17200000000000001, 0.968, 0.054, 192.0, 0.0, 0.0, 0.0, 0.0, 0.0, 0.0, 0.0, 0.0, 0.0, 1.700945664304254E9, 0.0, 2023-11-25 15:54:24.304
44.0, 75593.57739610402, 81423.73936459296, -10808.409548808284, -9054.043478255688, -3964.4618588044477, -2700.805986023663, -15642.577784368728, 187500.0, -0.17200000000000001, 0.968, 0.054, 192.0, 0.0, 0.0, 0.0, 0.0, 0.0, 0.0, 0.0, 0.0, 0.0, 1.700945664308158E9, 0.0, 2023-11-25 15:54:24.308
45.0, 75564.1848521453, 81436.34574846576, -11425.965896363961, -9535.008315444984, -4589.57309598602, -2993.300913965811, -15717.143203871634, 187500.0, -0.17200000000000001, 0.968, 0.054, 192.0, 0.0, 0.0, 0.0, 0.0, 0.0, 0.0, 0.0, 0.0, 0.0, 1.700945664313151E9, 0.0, 2023-11-25 15:54:24.313
46.0, 75565.4365498348, 81478.43408327509, -12123.049750691624, -10361.397011446597, -5461.0005570650765, -3772.4156704444495, -15790.658091385138, 187500.0, -0.17200000000000001, 0.968, 0.054, 192.0, 0.0, 0.0, 0.0, 0.0, 0.0, 0.0, 0.0, 0.0, 0.0, 1.700945664316122E9, 0.0, 2023-11-25 15:54:24.316
47.0, 75603.61332936447, 81462.00555110045, -11129.15708174194, -9685.189686440193, -4502.714217032697, -3328.264156373043, -15570.493408500364, 187500.0, -0.17200000000000001, 0.968, 0.054, 192.0, 0.0, 0.0, 0.0, 0.0, 0.0, 0.0, 0.0, 0.0, 0.0, 1.700945664320145E9, 0.0, 2023-11-25 15:54:24.320
48.0, 75598.27126243965, 81430.6237018852, -10709.368969126817, -8963.340099256051, -3864.9518924894205, -2664.730270472797, -15607.060862429245, 187500.0, -0.17200000000000001, 0.968, 0.054, 192.0, 0.0, 0.0, 0.0, 0.0, 0.0, 0.0, 0.0, 0.0, 0.0, 1.700945664324232E9, 0.0, 2023-11-25 15:54:24.324
49.0, 75569.77278825913, 81434.08822227576, -11307.546354239745, -9422.981372234986, -4457.228417066147, -2931.5877475247084, -15691.125773325655, 187500.0, -0.17200000000000001, 0.968, 0.054, 192.0, 0.0, 0.0, 0.0, 0.0, 0.0, 0.0, 0.0, 0.0, 0.0, 1.700945664328187E9, 0.0, 2023-11-25 15:54:24.328
50.0, 75558.82043347602, 81467.727597681, -12077.183971069333, -10195.837640266138, -5359.970672127089, -3628.403380918906, -15790.658091385138, 187500.0, -0.182, 0.964, 0.05, 192.0, 250.0, 80.0, 30.0, 32.0, 1.0, 144.0, 0.0, 0.0, 0.0, 1.700945664332219E9, 0.0, 2023-11-25 15:54:24.332
51.0, 75586.80481753407, 81444.48178344748, -11383.877561554618, -9910.24940136068, -4785.910819281437, -3524.2219000127197, -15607.507897318352, 187500.0, -0.182, 0.964, 0.05, 192.0, 0.0, 0.0, 0.0, 0.0, 0.0, 0.0, 0.0, 0.0, 0.0, 1.700945664336185E9, 0.0, 2023-11-25 15:54:24.336
52.0, 75591.7892565476, 81407.13201846267, -10658.63050921327, -8938.395552443928, -3838.5097787987925, -2663.2327035942917, -15602.545810049274, 187500.0, -0.182, 0.964, 0.05, 192.0, 0.0, 0.0, 0.0, 0.0, 0.0, 0.0, 0.0, 0.0, 0.0, 1.700945664341261E9, 0.0, 2023-11-25 15:54:24.341
53.0, 75575.96422147324, 81424.40991692661, -11218.876983985541, -9387.106822384218, -4372.872933491818, -2909.3924652805886, -15691.706918681493, 187500.0, -0.182, 0.964, 0.05, 192.0, 0.0, 0.0, 0.0, 0.0, 0.0, 0.0, 0.0, 0.0, 0.0, 1.700945664344202E9, 0.0, 2023-11-25 15:54:24.344
54.0, 75567.02352369112, 81466.20767905805, -11984.804211235549, -10073.908874262437, -5225.703743184059, -3487.6544460838377, -15786.210094238531, 187500.0, -0.182, 0.964, 0.05, 192.0, 0.0, 0.0, 0.0, 0.0, 0.0, 0.0, 0.0, 0.0, 0.0, 1.700945664347336E9, 0.0, 2023-11-25 15:54:24.347
55.0, 75597.77952406163, 81475.26013556244, -11633.501843631488, -10153.369325801055, -5044.788723562804, -3707.5062045462378, -15649.305659449776, 187500.0, -0.182, 0.964, 0.05, 192.0, 0.0, 0.0, 0.0, 0.0, 0.0, 0.0, 0.0, 0.0, 0.0, 1.700945664352269E9, 0.0, 2023-11-25 15:54:24.352
56.0, 75613.2469312247, 81437.08335603277, -10616.832747081846, -8942.128293767964, -3807.9996476172983, -2687.774919006219, -15566.537149731774, 187500.0, -0.182, 0.964, 0.05, 192.0, 0.0, 0.0, 0.0, 0.0, 0.0, 0.0, 0.0, 0.0, 0.0, 1.700945664356263E9, 0.0, 2023-11-25 15:54:24.356
57.0, 75597.51130312817, 81441.84427760176, -11106.604171586534, -9284.445260100993, -4251.41355412168, -2850.607377363131, -15675.077220806745, 187500.0, -0.182, 0.964, 0.05, 192.0, 0.0, 0.0, 0.0, 0.0, 0.0, 0.0, 0.0, 0.0, 0.0, 1.700945664360217E9, 0.0, 2023-11-25 15:54:24.360
58.0, 75594.27030018215, 81489.85582469175, -11836.187462352213, -9896.637188987397, -5046.375697419131, -3331.549862807973, -15769.803913808337, 187500.0, -0.182, 0.964, 0.05, 192.0, 0.0, 0.0, 0.0, 0.0, 0.0, 0.0, 0.0, 0.0, 0.0, 1.700945664364292E9, 0.0, 2023-11-25 15:54:24.364
59.0, 75607.74840208869, 81491.24163284799, -11838.065008886459, -10305.51765030833, -5255.7891912209025, -3829.5690810166698, -15700.982892630445, 187500.0, -0.182, 0.964, 0.05, 192.0, 0.0, 0.0, 0.0, 0.0, 0.0, 0.0, 0.0, 0.0, 0.0, 1.700945664369286E9, 0.0, 2023-11-25 15:54:24.369
60.0, 75629.11666978797, 81448.54980093834, -10641.710238660604, -9037.54789084767, -3881.1345554750633, -2780.087623606637, -15559.026963594792, 187500.0, -0.184, 0.968, 0.048, 192.0, 250.0, 64.0, 30.0, 64.0, 1.0, 128.0, 0.0, 0.0, 0.0, 1.700945664372293E9, 0.0, 2023-11-25 15:54:24.372
61.0, 75590.60461409147, 81418.15142847913, -11005.7978040931, -9208.605791164135, -4154.362279696737, -2800.2712488497796, -15684.48730522243, 187500.0, -0.184, 0.968, 0.048, 192.0, 0.0, 0.0, 0.0, 0.0, 0.0, 0.0, 0.0, 0.0, 0.0, 1.700945664375288E9, 0.0, 2023-11-25 15:54:24.375
62.0, 75583.60851807696, 81463.99485635696, -11692.353986782311, -9736.621050431855, -4869.349881333099, -3184.4083290586864, -15762.517245115907, 187500.0, -0.184, 0.968, 0.048, 192.0, 0.0, 0.0, 0.0, 0.0, 0.0, 0.0, 0.0, 0.0, 0.0, 1.700945664380301E9, 0.0, 2023-11-25 15:54:24.380
63.0, 75601.04287875211, 81492.49333053749, -12003.065586455536, -10380.887732611625, -5391.531335297983, -3878.050014740231, -15743.16063441761, 187500.0, -0.184, 0.968, 0.048, 192.0, 0.0, 0.0, 0.0, 0.0, 0.0, 0.0, 0.0, 0.0, 0.0, 1.700945664384369E9, 0.0, 2023-11-25 15:54:24.384
64.0, 75634.19051577932, 81455.65765567514, -10754.139513270798, -9211.8244423657, -4033.8640253381764, -2951.257282645379, -15556.098885071146, 187500.0, -0.184, 0.968, 0.048, 192.0, 0.0, 0.0, 0.0, 0.0, 0.0, 0.0, 0.0, 0.0, 0.0, 1.700945664388406E9, 0.0, 2023-11-25 15:54:24.388
65.0, 75608.73187884473, 81438.53621942237, -10900.074052819498, -9122.797444200212, -4042.51415044238, -2764.2625885322796, -15661.397953200098, 187500.0, -0.184, 0.968, 0.048, 192.0, 0.0, 0.0, 0.0, 0.0, 0.0, 0.0, 0.0, 0.0, 0.0, 1.700945664392429E9, 0.0, 2023-11-25 15:54:24.392
66.0, 75583.11677969895, 81457.3787399982, -11549.57104320181, -9598.71078714261, -4702.3152950185895, -3074.147173660657, -15737.148015159133, 187500.0, -0.184, 0.968, 0.048, 192.0, 0.0, 0.0, 0.0, 0.0, 0.0, 0.0, 0.0, 0.0, 0.0, 1.700945664396371E9, 0.0, 2023-11-25 15:54:24.396
67.0, 75594.78439030462, 81495.0861328943, -12108.275247606665, -10388.062642581779, -5462.453420454672, -3854.8265522511665, -15775.905940044635, 187500.0, -0.184, 0.968, 0.048, 192.0, 0.0, 0.0, 0.0, 0.0, 0.0, 0.0, 0.0, 0.0, 0.0, 1.700945664400675E9, 0.0, 2023-11-25 15:54:24.400
68.0, 75627.88732384292, 81464.0842633348, -10939.8825096944, -9442.15916897764, -4261.404783893202, -3142.208235527067, -15562.916167130015, 187500.0, -0.184, 0.968, 0.048, 192.0, 0.0, 0.0, 0.0, 0.0, 0.0, 0.0, 0.0, 0.0, 0.0, 1.700945664403415E9, 0.0, 2023-11-25 15:54:24.403
69.0, 75606.13907648792, 81434.08822227576, -10810.577668020447, -9034.55275709066, -3951.7660679538335, -2711.7583408067635, -15640.05203724528, 187500.0, -0.182, 0.964, 0.052000000000000005, 192.0, 250.0, 80.0, 30.0, 32.0, 1.0, 160.0, 0.0, 0.0, 0.0, 1.700945664407406E9, 0.0, 2023-11-25 15:54:24.407
70.0, 75588.97293674624, 81460.44092898857, -11423.015466095861, -9513.528289023434, -4568.629511431398, -2997.480690178954, -15699.239456562933, 187500.0, -0.182, 0.964, 0.052000000000000005, 192.0, 0.0, 0.0, 0.0, 0.0, 0.0, 0.0, 0.0, 0.0, 0.0, 1.700945664412419E9, 0.0, 2023-11-25 15:54:24.412
71.0, 75584.23436692171, 81494.54969102737, -12127.140119926944, -10327.198842429978, -5436.45834165315, -3767.4088796864608, -15776.911768545124, 187500.0, -0.182, 0.964, 0.052000000000000005, 192.0, 0.0, 0.0, 0.0, 0.0, 0.0, 0.0, 0.0, 0.0, 0.0, 1.700945664416447E9, 0.0, 2023-11-25 15:54:24.416
72.0, 75617.31494871556, 81470.65567620465, -11159.86837862353, -9679.95937823765, -4514.627696827376, -3344.7597437810596, -15573.108562601634, 187500.0, -0.182, 0.964, 0.052000000000000005, 192.0, 0.0, 0.0, 0.0, 0.0, 0.0, 0.0, 0.0, 0.0, 0.0, 1.70094566442042E9, 0.0, 2023-11-25 15:54:24.420
73.0, 75612.6434341244, 81439.36323396722, -10719.02492273151, -8957.550997442127, -3864.102526200119, -2673.425099065912, -15619.443728857486, 187500.0, -0.182, 0.964, 0.052000000000000005, 192.0, 0.0, 0.0, 0.0, 0.0, 0.0, 0.0, 0.0, 0.0, 0.0, 1.700945664424443E9, 0.0, 2023-11-25 15:54:24.424
74.0, 75591.85631178097, 81454.4283097301, -11316.598810744144, -9438.605241609244, -4456.759030432586, -2955.817038514261, -15702.502811253407, 187500.0, -0.182, 0.964, 0.052000000000000005, 192.0, 0.0, 0.0, 0.0, 0.0, 0.0, 0.0, 0.0, 0.0, 0.0, 1.700945664428479E9, 0.0, 2023-11-25 15:54:24.428
75.0, 75586.60365183397, 81493.87913869371, -12089.119802608468, -10213.942553274937, -5358.294291292941, -3657.617110921992, -15809.433556727596, 187500.0, -0.182, 0.964, 0.052000000000000005, 192.0, 0.0, 0.0, 0.0, 0.0, 0.0, 0.0, 0.0, 0.0, 0.0, 1.700945664431483E9, 0.0, 2023-11-25 15:54:24.431
76.0, 75615.68327137033, 81483.86555717773, -11411.660779912565, -9936.512701095666, -4799.098348510069, -3564.6562057323704, -15626.752749294372, 187500.0, -0.182, 0.964, 0.052000000000000005, 192.0, 0.0, 0.0, 0.0, 0.0, 0.0, 0.0, 0.0, 0.0, 0.0, 1.700945664435466E9, 0.0, 2023-11-25 15:54:24.435
77.0, 75613.17987599134, 81440.01143455642, -10648.236948041553, -8910.724092808257, -3810.1230633405526, -2668.0830321410936, -15606.390310095587, 187500.0, -0.182, 0.964, 0.052000000000000005, 192.0, 0.0, 0.0, 0.0, 0.0, 0.0, 0.0, 0.0, 0.0, 0.0, 1.700945664440469E9, 0.0, 2023-11-25 15:54:24.440
78.0, 75595.25377693817, 81452.1707835401, -11202.515507044258, -9350.673478922066, -4343.681555233187, -2911.0017908813707, -15691.751622170405, 187500.0, -0.182, 0.964, 0.052000000000000005, 192.0, 0.0, 0.0, 0.0, 0.0, 0.0, 0.0, 0.0, 0.0, 0.0, 1.700945664444657E9, 0.0, 2023-11-25 15:54:24.444
79.0, 75598.4947798842, 81510.57589180183, -11964.531179014586, -10041.27532735769, -5197.384082959185, -3492.3930159083625, -15791.55216116335, 187500.0, -0.18, 0.972, 0.048, 192.0, 250.0, 96.0, 30.0, 96.0, 1.0, 128.0, 0.0, 0.0, 0.0, 1.700945664448498E9, 0.0, 2023-11-25 15:54:24.448
80.0, 75614.52098065865, 81493.32034508233, -11649.63980312822, -10153.883415923527, -5057.506866157873, -3730.4167426129275, -15664.370735212653, 187500.0, -0.18, 0.972, 0.048, 192.0, 0.0, 0.0, 0.0, 0.0, 0.0, 0.0, 0.0, 0.0, 0.0, 1.700945664452511E9, 0.0, 2023-11-25 15:54:24.452
81.0, 75625.13805927492, 81444.52648693639, -10626.421645453172, -8956.031078819165, -3822.66239197998, -2713.188852451903, -15585.80435345225, 187500.0, -0.18, 0.972, 0.048, 192.0, 0.0, 0.0, 0.0, 0.0, 0.0, 0.0, 0.0, 0.0, 0.0, 1.700945664455573E9, 0.0, 2023-11-25 15:54:24.455
82.0, 75597.4442478948, 81438.46916418901, -11104.212534929817, -9286.367510124148, -4246.965556975074, -2865.6501013815528, -15692.399822759608, 187500.0, -0.18, 0.972, 0.048, 192.0, 0.0, 0.0, 0.0, 0.0, 0.0, 0.0, 0.0, 0.0, 0.0, 1.700945664459596E9, 0.0, 2023-11-25 15:54:24.459
83.0, 75591.25281468067, 81491.5322055259, -11831.493596016599, -9877.057060844549, -5028.293136154787, -3321.938612692191, -15786.523018660906, 187500.0, -0.18, 0.972, 0.048, 192.0, 0.0, 0.0, 0.0, 0.0, 0.0, 0.0, 0.0, 0.0, 0.0, 1.700945664463727E9, 0.0, 2023-11-25 15:54:24.463
84.0, 75604.64150960941, 81499.8917579522, -11870.2515209021, -10305.85292647516, -5269.222589638543, -3839.940290443932, -15718.305494583308, 187500.0, -0.18, 0.972, 0.048, 192.0, 0.0, 0.0, 0.0, 0.0, 0.0, 0.0, 0.0, 0.0, 0.0, 1.700945664467638E9, 0.0, 2023-11-25 15:54:24.467
85.0, 75628.46846919876, 81460.46328073303, -10670.342823307852, -9044.566338606637, -3894.00916028132, -2805.0098186743044, -15567.475922998898, 187500.0, -0.18, 0.972, 0.048, 192.0, 0.0, 0.0, 0.0, 0.0, 0.0, 0.0, 0.0, 0.0, 0.0, 1.700945664472607E9, 0.0, 2023-11-25 15:54:24.472
86.0, 75598.15950371737, 81439.85497234523, -11007.429481438337, -9199.933314315476, -4140.794770812366, -2815.157510657014, -15673.311432994777, 187500.0, -0.18, 0.972, 0.048, 192.0, 0.0, 0.0, 0.0, 0.0, 0.0, 0.0, 0.0, 0.0, 0.0, 1.700945664476688E9, 0.0, 2023-11-25 15:54:24.476
87.0, 75585.79898903359, 81475.84128091828, -11692.286931548946, -9732.083646307427, -4854.508323014775, -3191.8067564733933, -15749.64264030965, 187500.0, -0.18, 0.972, 0.048, 192.0, 0.0, 0.0, 0.0, 0.0, 0.0, 0.0, 0.0, 0.0, 0.0, 1.700945664480688E9, 0.0, 2023-11-25 15:54:24.480
88.0, 75601.89224504141, 81505.01030743246, -12028.792444323593, -10396.556305474794, -5403.377759859295, -3890.4775846573816, -15737.058608181313, 187500.0, -0.18, 0.972, 0.048, 192.0, 0.0, 0.0, 0.0, 0.0, 0.0, 0.0, 0.0, 0.0, 0.0, 1.700945664483616E9, 0.0, 2023-11-25 15:54:24.483
89.0, 75633.02822506765, 81464.64305694617, -10773.138496057809, -9215.467776711916, -4038.4461329515143, -2957.2251984149457, -15544.967716332403, 187500.0, -0.178, 0.964, 0.054, 192.0, 250.0, 112.0, 30.0, 32.0, 1.0, 176.0, 0.0, 0.0, 0.0, 1.700945664487637E9, 0.0, 2023-11-25 15:54:24.487
90.0, 75607.03314626613, 81437.59744615525, -10904.454994732738, -9093.181382796929, -4027.538481657324, -2748.2140360133694, -15654.804188585782, 187500.0, -0.178, 0.964, 0.054, 192.0, 0.0, 0.0, 0.0, 0.0, 0.0, 0.0, 0.0, 0.0, 0.0, 1.700945664491769E9, 0.0, 2023-11-25 15:54:24.491
91.0, 75585.75428554467, 81456.93170510909, -11550.018078090916, -9591.669987639189, -4685.797355866117, -3065.564103789819, -15719.020750405878, 187500.0, -0.178, 0.964, 0.054, 192.0, 0.0, 0.0, 0.0, 0.0, 0.0, 0.0, 0.0, 0.0, 0.0, 1.700945664495686E9, 0.0, 2023-11-25 15:54:24.495
92.0, 75593.17506470383, 81496.9413276841, -12116.768910499683, -10375.500962197895, -5447.701269114169, -3841.169636388974, -15756.437570624063, 187500.0, -0.178, 0.964, 0.054, 192.0, 0.0, 0.0, 0.0, 0.0, 0.0, 0.0, 0.0, 0.0, 0.0, 1.70094566450171E9, 0.0, 2023-11-25 15:54:24.501
93.0, 75628.2002482653, 81470.34275178227, -10955.729896513212, -9437.53235787539, -4259.616644336777, -3143.9293198501255, -15544.118350043102, 187500.0, -0.178, 0.964, 0.054, 192.0, 0.0, 0.0, 0.0, 0.0, 0.0, 0.0, 0.0, 0.0, 0.0, 1.700945664504681E9, 0.0, 2023-11-25 15:54:24.504
94.0, 75606.85433231048, 81432.45654493052, -10805.414415051273, -9024.338009874584, -3936.3433642796713, -2710.640753583998, -15627.512708605851, 187500.0, -0.178, 0.964, 0.054, 192.0, 0.0, 0.0, 0.0, 0.0, 0.0, 0.0, 0.0, 0.0, 0.0, 1.700945664508697E9, 0.0, 2023-11-25 15:54:24.508
95.0, 75583.45205586578, 81447.05223405984, -11421.942582362008, -9511.471928533547, -4557.990081070671, -2999.693512880029, -15698.792421673827, 187500.0, -0.178, 0.964, 0.054, 192.0, 0.0, 0.0, 0.0, 0.0, 0.0, 0.0, 0.0, 0.0, 0.0, 1.700945664511688E9, 0.0, 2023-11-25 15:54:24.511
96.0, 75583.89909075489, 81490.2805078364, -12139.433579377364, -10325.120130195633, -5436.592452119881, -3769.6440541319917, -15782.142076747667, 187500.0, -0.178, 0.964, 0.054, 192.0, 0.0, 0.0, 0.0, 0.0, 0.0, 0.0, 0.0, 0.0, 0.0, 1.70094566451571E9, 0.0, 2023-11-25 15:54:24.515
97.0, 75620.46654468376, 81467.21350755852, -11196.927570930431, -9726.048675304493, -4548.9376245662725, -3391.229020503643, -15574.539074246773, 187500.0, -0.178, 0.964, 0.054, 192.0, 0.0, 0.0, 0.0, 0.0, 0.0, 0.0, 0.0, 0.0, 0.0, 1.70094566451975E9, 0.0, 2023-11-25 15:54:24.519
98.0, 75610.02828002314, 81428.99202453996, -10728.233841447096, -8990.810393191623, -3869.6904623139458, -2707.1985849378807, -15619.533135835307, 187500.0, -0.178, 0.964, 0.054, 192.0, 0.0, 0.0, 0.0, 0.0, 0.0, 0.0, 0.0, 0.0, 0.0, 1.700945664523808E9, 0.0, 2023-11-25 15:54:24.523
99.0, 75589.71054431326, 81441.88898109067, -11319.28102007878, -9468.02013731243, -4455.1944083207145, -2981.990931271426, -15708.806003189804, 187500.0, -0.182, 0.964, 0.054, 192.0, 250.0, 80.0, 30.0, 32.0, 1.0, 176.0, 0.0, 0.0, 0.0, 1.700945664527853E9, 0.0, 2023-11-25 15:54:24.527
100.0, 75597.69011708381, 81500.11527539675, -12079.217979814766, -10222.458567912408, -5337.574224182871, -3656.5442271881375, -15799.665844400626, 187500.0, -0.182, 0.964, 0.054, 192.0, 0.0, 0.0, 0.0, 0.0, 0.0, 0.0, 0.0, 0.0, 0.0, 1.700945664532843E9, 0.0, 2023-11-25 15:54:24.532
101.0, 75623.97576856325, 81485.20666184505, -11429.273954543347, -9968.11806775547, -4808.553136414664, -3582.5376012966162, -15618.795528268281, 187500.0, -0.182, 0.964, 0.054, 192.0, 0.0, 0.0, 0.0, 0.0, 0.0, 0.0, 0.0, 0.0, 0.0, 1.70094566453577E9, 0.0, 2023-11-25 15:54:24.535
102.0, 75626.36740521996, 81446.91812359312, -10654.696602189137, -8943.022363546177, -3809.8995458959994, -2680.734119502797, -15607.932580463003, 187500.0, -0.182, 0.964, 0.054, 192.0, 0.0, 0.0, 0.0, 0.0, 0.0, 0.0, 0.0, 0.0, 0.0, 1.700945664539992E9, 0.0, 2023-11-25 15:54:24.539
103.0, 75602.76396307517, 81448.72861489399, -11207.924629202442, -9377.495572268435, -4336.841921429864, -2921.8423869421945, -15698.68066295155, 187500.0, -0.182, 0.964, 0.054, 192.0, 0.0, 0.0, 0.0, 0.0, 0.0, 0.0, 0.0, 0.0, 0.0, 1.700945664544291E9, 0.0, 2023-11-25 15:54:24.544
104.0, 75595.49964612718, 81490.10169388076, -11962.966556902715, -10035.285059843667, -5171.344300668753, -3475.673911055793, -15789.093469273266, 187500.0, -0.182, 0.964, 0.054, 192.0, 0.0, 0.0, 0.0, 0.0, 0.0, 0.0, 0.0, 0.0, 0.0, 1.700945664547839E9, 0.0, 2023-11-25 15:54:24.547
105.0, 75624.51221043017, 81498.61770851824, -11685.916684379183, -10186.047576194713, -5072.683700643027, -3759.7198795938352, -15675.188979529023, 187500.0, -0.182, 0.964, 0.054, 192.0, 0.0, 0.0, 0.0, 0.0, 0.0, 0.0, 0.0, 0.0, 0.0, 1.700945664551909E9, 0.0, 2023-11-25 15:54:24.551
106.0, 75641.56659144958, 81462.85491738975, -10632.367209478285, -8969.82210514809, -3816.560365743681, -2732.6572218724755, -15587.74895521986, 187500.0, -0.182, 0.964, 0.054, 192.0, 0.0, 0.0, 0.0, 0.0, 0.0, 0.0, 0.0, 0.0, 0.0, 1.700945664555874E9, 0.0, 2023-11-25 15:54:24.555
107.0, 75610.02828002314, 81447.25339975994, -11105.933619252875, -9291.731928793422, -4233.8450829798085, -2877.5188776873206, -15696.601950717206, 187500.0, -0.182, 0.964, 0.054, 192.0, 0.0, 0.0, 0.0, 0.0, 0.0, 0.0, 0.0, 0.0, 0.0, 1.700945664560899E9, 0.0, 2023-11-25 15:54:24.560
108.0, 75601.82518980803, 81493.40975206015, -11829.52664250453, -9868.026956084605, -5005.427301577009, -3321.424522569719, -15784.354899448741, 187500.0, -0.182, 0.964, 0.054, 192.0, 0.0, 0.0, 0.0, 0.0, 0.0, 0.0, 0.0, 0.0, 0.0, 1.700945664563847E9, 0.0, 2023-11-25 15:54:24.563
109.0, 75624.1545825189, 81513.14634241418, -11897.945332282226, -10316.782929513804, -5278.051528698388, -3857.844037752633, -15722.865250452192, 187500.0, -0.184, 0.964, 0.048, 192.0, 250.0, 64.0, 30.0, 32.0, 1.0, 128.0, 0.0, 0.0, 0.0, 1.700945664567973E9, 0.0, 2023-11-25 15:54:24.567
110.0, 75642.19244029433, 81470.96860062702, -10687.64307351626, -9065.912254561455, -3906.5484889207473, -2831.1390079425587, -15580.618748738618, 187500.0, -0.184, 0.964, 0.048, 192.0, 0.0, 0.0, 0.0, 0.0, 0.0, 0.0, 0.0, 0.0, 0.0, 1.700945664571904E9, 0.0, 2023-11-25 15:54:24.571
111.0, 75608.70952710028, 81441.06196654582, -11008.949400061298, -9202.928448072487, -4137.084381232784, -2819.091417681148, -15684.1520290556, 187500.0, -0.184, 0.964, 0.048, 192.0, 0.0, 0.0, 0.0, 0.0, 0.0, 0.0, 0.0, 0.0, 0.0, 1.700945664575865E9, 0.0, 2023-11-25 15:54:24.575
112.0, 75599.36649791796, 81480.22222283152, -11672.885617361739, -9712.615276886854, -4831.329564014622, -3172.5172010084634, -15744.099407684733, 187500.0, -0.184, 0.964, 0.048, 192.0, 0.0, 0.0, 0.0, 0.0, 0.0, 0.0, 0.0, 0.0, 0.0, 1.700945664579863E9, 0.0, 2023-11-25 15:54:24.579
113.0, 75605.42382066534, 81502.26104286445, -12041.912918318858, -10389.046119337812, -5410.2173936626195, -3888.108299745119, -15746.267526896898, 187500.0, -0.184, 0.964, 0.048, 192.0, 0.0, 0.0, 0.0, 0.0, 0.0, 0.0, 0.0, 0.0, 0.0, 1.700945664583891E9, 0.0, 2023-11-25 15:54:24.583
114.0, 75644.74053916223, 81477.16003384114, -10794.640874223815, -9233.818558909721, -4062.027223351863, -2974.8383730457276, -15549.683934412473, 187500.0, -0.184, 0.964, 0.048, 192.0, 0.0, 0.0, 0.0, 0.0, 0.0, 0.0, 0.0, 0.0, 0.0, 1.700945664588925E9, 0.0, 2023-11-25 15:54:24.588
115.0, 75617.38200394894, 81446.47108870401, -10904.320884266006, -9110.056949860687, -4033.685211382534, -2763.5473327097097, -15653.060752518268, 187500.0, -0.184, 0.964, 0.048, 192.0, 0.0, 0.0, 0.0, 0.0, 0.0, 0.0, 0.0, 0.0, 0.0, 1.700945664591975E9, 0.0, 2023-11-25 15:54:24.591
116.0, 75601.15463747438, 81470.38745527118, -11541.032676819883, -9604.61164767881, -4687.719605889274, -3086.1947639220675, -15719.043102150334, 187500.0, -0.184, 0.964, 0.048, 192.0, 0.0, 0.0, 0.0, 0.0, 0.0, 0.0, 0.0, 0.0, 0.0, 1.700945664594928E9, 0.0, 2023-11-25 15:54:24.594
117.0, 75611.5481986461, 81509.72652551252, -12112.991465686735, -10371.142372029111, -5446.158998746753, -3845.751744002312, -15753.2189194225, 187500.0, -0.184, 0.964, 0.048, 192.0, 0.0, 0.0, 0.0, 0.0, 0.0, 0.0, 0.0, 0.0, 0.0, 1.700945664599934E9, 0.0, 2023-11-25 15:54:24.599
118.0, 75642.12538506096, 81478.85876641974, -10968.760963530656, -9446.67422135761, -4276.89454280073, -3160.402555513687, -15545.347695988143, 187500.0, -0.184, 0.964, 0.048, 192.0, 0.0, 0.0, 0.0, 0.0, 0.0, 0.0, 0.0, 0.0, 0.0, 1.700945664603951E9, 0.0, 2023-11-25 15:54:24.603
119.0, 75616.26441672616, 81443.52065843591, -10792.98684513412, -8993.157326359431, -3917.9702303374092, -2690.837107996596, -15628.496185361886, 187500.0, -0.186, 0.97, 0.054, 192.0, 250.0, 48.0, 30.0, 80.0, 1.0, 176.0, 0.0, 0.0, 0.0, 1.7009456646081E9, 0.0, 2023-11-25 15:54:24.608
120.0, 75585.77663728913, 81453.4224812296, -11409.582067678222, -9482.705233419567, -4541.338031451468, -2984.3378644392333, -15702.927494398058, 187500.0, -0.186, 0.97, 0.054, 192.0, 0.0, 0.0, 0.0, 0.0, 0.0, 0.0, 0.0, 0.0, 0.0, 1.700945664611994E9, 0.0, 2023-11-25 15:54:24.611
121.0, 75591.07400072504, 81497.7906939734, -12123.563840814095, -10290.832554201193, -5420.7897687899795, -3744.297175919673, -15783.796105837358, 187500.0, -0.186, 0.97, 0.054, 192.0, 0.0, 0.0, 0.0, 0.0, 0.0, 0.0, 0.0, 0.0, 0.0, 1.700945664617034E9, 0.0, 2023-11-25 15:54:24.617
122.0, 75625.74155637521, 81484.02201938893, -11205.488289056813, -9728.172091027749, -4568.562456198032, -3394.3582647273856, -15589.760612220838, 187500.0, -0.186, 0.97, 0.054, 192.0, 0.0, 0.0, 0.0, 0.0, 0.0, 0.0, 0.0, 0.0, 0.0, 1.700945664620002E9, 0.0, 2023-11-25 15:54:24.620
123.0, 75622.07587028455, 81449.86855386122, -10706.954980725644, -8960.412020732407, -3856.5029330853145, -2684.846840482574, -15625.56810683824, 187500.0, -0.186, 0.97, 0.054, 192.0, 0.0, 0.0, 0.0, 0.0, 0.0, 0.0, 0.0, 0.0, 0.0, 1.700945664623048E9, 0.0, 2023-11-25 15:54:24.623
124.0, 75593.8456170375, 81447.14164103767, -11287.787412141253, -9428.926936260097, -4430.942765586707, -2948.1727419105464, -15695.082032094246, 187500.0, -0.186, 0.97, 0.054, 192.0, 0.0, 0.0, 0.0, 0.0, 0.0, 0.0, 0.0, 0.0, 0.0, 1.700945664628065E9, 0.0, 2023-11-25 15:54:24.628
125.0, 75593.08565772601, 81493.32034508233, -12052.641755657407, -10194.11655594308, -5324.096122276321, -3630.52679664216, -15785.60659713824, 187500.0, -0.186, 0.97, 0.054, 192.0, 0.0, 0.0, 0.0, 0.0, 0.0, 0.0, 0.0, 0.0, 0.0, 1.700945664632069E9, 0.0, 2023-11-25 15:54:24.632
126.0, 75618.0525562826, 81481.22805133201, -11441.83563492723, -10001.712739671795, -4849.412125278965, -3614.0312092341437, -15620.09192944669, 187500.0, -0.186, 0.97, 0.054, 192.0, 0.0, 0.0, 0.0, 0.0, 0.0, 0.0, 0.0, 0.0, 0.0, 1.700945664636125E9, 0.0, 2023-11-25 15:54:24.636
127.0, 75622.34409121801, 81445.37585322569, -10628.43330245415, -8926.52677613816, -3808.3796272730387, -2683.4610323263446, -15597.293150102276, 187500.0, -0.186, 0.97, 0.054, 192.0, 0.0, 0.0, 0.0, 0.0, 0.0, 0.0, 0.0, 0.0, 0.0, 1.700945664640072E9, 0.0, 2023-11-25 15:54:24.640
128.0, 75602.83101830853, 81449.1756497831, -11165.88099788201, -9330.176929256551, -4321.687438689165, -2888.2253632814127, -15679.279348764343, 187500.0, -0.186, 0.97, 0.054, 192.0, 0.0, 0.0, 0.0, 0.0, 0.0, 0.0, 0.0, 0.0, 0.0, 1.700945664644069E9, 0.0, 2023-11-25 15:54:24.644
129.0, 75601.71343108577, 81496.89662419519, -11917.525460425075, -9995.521306457676, -5163.945873254046, -3437.0724483814774, -15769.26747194141, 187500.0, -0.182, 0.974, 0.058, 192.0, 250.0, 80.0, 30.0, 112.0, 1.0, 208.0, 0.0, 0.0, 0.0, 1.700945664648155E9, 0.0, 2023-11-25 15:54:24.648
130.0, 75620.04186153911, 81483.26206007744, -11657.082934031838, -10167.607387019085, -5093.761395664382, -3739.1562746949526, -15645.349400681187, 187500.0, -0.182, 0.974, 0.058, 192.0, 0.0, 0.0, 0.0, 0.0, 0.0, 0.0, 0.0, 0.0, 0.0, 1.700945664651083E9, 0.0, 2023-11-25 15:54:24.651
131.0, 75633.56466693457, 81442.00073981294, -10586.836706022825, -8944.363468213496, -3820.404865789994, -2702.1470906909813, -15552.008515835825, 187500.0, -0.182, 0.974, 0.058, 192.0, 0.0, 0.0, 0.0, 0.0, 0.0, 0.0, 0.0, 0.0, 0.0, 1.700945664655132E9, 0.0, 2023-11-25 15:54:24.655
132.0, 75610.76588759017, 81440.54787642336, -11047.506159246703, -9256.63968999859, -4225.194957875605, -2829.3732201305893, -15662.448485189498, 187500.0, -0.182, 0.974, 0.058, 192.0, 0.0, 0.0, 0.0, 0.0, 0.0, 0.0, 0.0, 0.0, 0.0, 1.700945664660036E9, 0.0, 2023-11-25 15:54:24.660
133.0, 75603.59097762001, 81483.77615019992, -11763.588996361375, -9838.835577825974, -4999.258220107344, -3275.335225502876, -15746.155768174622, 187500.0, -0.182, 0.974, 0.058, 192.0, 0.0, 0.0, 0.0, 0.0, 0.0, 0.0, 0.0, 0.0, 0.0, 1.700945664664147E9, 0.0, 2023-11-25 15:54:24.664
134.0, 75619.46071618328, 81498.8859294517, -11851.543110793009, -10314.793624257281, -5303.018427254967, -3830.6419647505245, -15684.666119178071, 187500.0, -0.182, 0.974, 0.058, 192.0, 0.0, 0.0, 0.0, 0.0, 0.0, 0.0, 0.0, 0.0, 0.0, 1.700945664668183E9, 0.0, 2023-11-25 15:54:24.668
135.0, 75645.52285021817, 81463.63722844569, -10634.53532869045, -9074.540027921204, -3925.011029840831, -2815.872766479584, -15526.393416690044, 187500.0, -0.182, 0.974, 0.058, 192.0, 0.0, 0.0, 0.0, 0.0, 0.0, 0.0, 0.0, 0.0, 0.0, 1.700945664672138E9, 0.0, 2023-11-25 15:54:24.672
136.0, 75614.9456638033, 81437.91037057762, -10938.809625960545, -9191.618465378102, -4132.166997452617, -2793.476318535366, -15634.955839509468, 187500.0, -0.182, 0.974, 0.058, 192.0, 0.0, 0.0, 0.0, 0.0, 0.0, 0.0, 0.0, 0.0, 0.0, 1.700945664676177E9, 0.0, 2023-11-25 15:54:24.676
137.0, 75608.88834105592, 81484.93844091159, -11598.3872530922, -9693.549238866477, -4819.907822597959, -3139.90600584817, -15699.127697840655, 187500.0, -0.182, 0.974, 0.058, 192.0, 0.0, 0.0, 0.0, 0.0, 0.0, 0.0, 0.0, 0.0, 0.0, 1.700945664679185E9, 0.0, 2023-11-25 15:54:24.679
138.0, 75617.8960940714, 81503.37863008722, -11982.70314725675, -10385.24632278041, -5423.4272746357055, -3859.3863081200493, -15689.851723891703, 187500.0, -0.182, 0.974, 0.058, 192.0, 0.0, 0.0, 0.0, 0.0, 0.0, 0.0, 0.0, 0.0, 0.0, 1.700945664683179E9, 0.0, 2023-11-25 15:54:24.683
139.0, 75643.86882112848, 81462.76551041192, -10753.290146981495, -9277.270350130839, -4106.283677373371, -2990.596352886719, -15498.945474498925, 187500.0, -0.186, 0.964, 0.064, 192.0, 250.0, 48.0, 30.0, 32.0, 2.0, 0.0, 0.0, 0.0, 0.0, 1.700945664688221E9, 0.0, 2023-11-25 15:54:24.688
140.0, 75619.28190222764, 81439.98908281197, -10840.283136401551, -9120.13758661003, -4045.129304543651, -2758.3393762516234, -15615.129842177612, 187500.0, -0.186, 0.964, 0.064, 192.0, 0.0, 0.0, 0.0, 0.0, 0.0, 0.0, 0.0, 0.0, 0.0, 1.700945664692226E9, 0.0, 2023-11-25 15:54:24.692
141.0, 75610.4976666567, 81471.41563551612, -11458.442981057524, -9577.051946765418, -4672.989806293226, -3039.3678592881993, -15675.859531862681, 187500.0, -0.186, 0.964, 0.064, 192.0, 0.0, 0.0, 0.0, 0.0, 0.0, 0.0, 0.0, 0.0, 0.0, 1.700945664696335E9, 0.0, 2023-11-25 15:54:24.696
142.0, 75613.67161436935, 81505.01030743246, -12050.026601556136, -10354.33386019872, -5461.60405416537, -3806.9938191168094, -15725.59216327574, 187500.0, -0.186, 0.964, 0.064, 192.0, 0.0, 0.0, 0.0, 0.0, 0.0, 0.0, 0.0, 0.0, 0.0, 1.700945664700247E9, 0.0, 2023-11-25 15:54:24.700
143.0, 75641.49953621622, 81471.66150470513, -10930.919460167821, -9488.851963144776, -4332.639793472265, -3174.4170992871645, -15515.105785740112, 187500.0, -0.186, 0.964, 0.064, 192.0, 0.0, 0.0, 0.0, 0.0, 0.0, 0.0, 0.0, 0.0, 0.0, 1.700945664704292E9, 0.0, 2023-11-25 15:54:24.704
144.0, 75618.20901849378, 81438.58092291128, -10728.613821102837, -9016.06786442612, -3940.1878643259843, -2692.8487649975737, -15594.521533789819, 187500.0, -0.186, 0.964, 0.064, 192.0, 0.0, 0.0, 0.0, 0.0, 0.0, 0.0, 0.0, 0.0, 0.0, 1.700945664707353E9, 0.0, 2023-11-25 15:54:24.707
145.0, 75594.60557634897, 81450.56145793933, -11335.10605515314, -9496.160983581662, -4550.457543189233, -2968.4234223870544, -15663.655479390083, 187500.0, -0.186, 0.964, 0.064, 192.0, 0.0, 0.0, 0.0, 0.0, 0.0, 0.0, 0.0, 0.0, 0.0, 1.700945664711294E9, 0.0, 2023-11-25 15:54:24.711
146.0, 75593.13036121492, 81487.2853740794, -12056.061572559069, -10283.121202364113, -5426.780036304001, -3707.953239435344, -15749.016791464901, 187500.0, -0.186, 0.964, 0.064, 192.0, 0.0, 0.0, 0.0, 0.0, 0.0, 0.0, 0.0, 0.0, 0.0, 1.700945664716276E9, 0.0, 2023-11-25 15:54:24.716
147.0, 75625.76390811967, 81471.90737389415, -11166.6856606824, -9736.889271365319, -4600.570154258032, -3379.9860930426235, -15551.65088792454, 187500.0, -0.186, 0.964, 0.064, 192.0, 0.0, 0.0, 0.0, 0.0, 0.0, 0.0, 0.0, 0.0, 0.0, 1.700945664720287E9, 0.0, 2023-11-25 15:54:24.720
148.0, 75622.61231215147, 81442.64894040216, -10644.571261950883, -8941.368334456485, -3858.0452034527307, -2651.609796477532, -15575.030812624791, 187500.0, -0.186, 0.964, 0.064, 192.0, 0.0, 0.0, 0.0, 0.0, 0.0, 0.0, 0.0, 0.0, 0.0, 1.700945664724485E9, 0.0, 2023-11-25 15:54:24.724
149.0, 75602.16046597487, 81454.22714403, -11222.565021820668, -9406.329322615782, -4429.065219052461, -2919.1601776075577, -15654.133636252123, 187500.0, -0.18, 0.9540000000000001, 0.062, 192.0, 250.0, 96.0, 29.0, 208.0, 1.0, 240.0, 0.0, 0.0, 0.0, 1.700945664728356E9, 0.0, 2023-11-25 15:54:24.728
150.0, 75594.96320426026, 81493.92384218263, -11991.80030725006, -10146.395581530998, -5316.943564050623, -3569.059499390066, -15757.845730524747, 187500.0, -0.18, 0.9540000000000001, 0.062, 192.0, 0.0, 0.0, 0.0, 0.0, 0.0, 0.0, 0.0, 0.0, 0.0, 1.70094566473139E9, 0.0, 2023-11-25 15:54:24.731
151.0, 75623.70754762979, 81480.37868504271, -11424.557736463277, -10008.798242664128, -4892.036901955235, -3591.277133378641, -15594.163905878533, 187500.0, -0.18, 0.9540000000000001, 0.062, 192.0, 0.0, 0.0, 0.0, 0.0, 0.0, 0.0, 0.0, 0.0, 0.0, 1.700945664735381E9, 0.0, 2023-11-25 15:54:24.735
152.0, 75621.96411156227, 81434.57996065378, -10591.307054913887, -8925.364485426484, -3822.9082611689882, -2654.962558145828, -15562.2232630519, 187500.0, -0.18, 0.9540000000000001, 0.062, 192.0, 0.0, 0.0, 0.0, 0.0, 0.0, 0.0, 0.0, 0.0, 0.0, 1.700945664739429E9, 0.0, 2023-11-25 15:54:24.739
153.0, 75593.46563738176, 81433.6188356422, -11141.137616769984, -9345.599632930713, -4340.284090075981, -2881.989226578382, -15665.354211968686, 187500.0, -0.18, 0.9540000000000001, 0.062, 192.0, 0.0, 0.0, 0.0, 0.0, 0.0, 0.0, 0.0, 0.0, 0.0, 1.700945664743364E9, 0.0, 2023-11-25 15:54:24.743
154.0, 75586.51424485615, 81477.49531000797, -11900.336968938944, -10007.4124345079, -5182.296655451853, -3431.1268843563657, -15768.172236463099, 187500.0, -0.18, 0.9540000000000001, 0.062, 192.0, 0.0, 0.0, 0.0, 0.0, 0.0, 0.0, 0.0, 0.0, 0.0, 1.700945664748396E9, 0.0, 2023-11-25 15:54:24.748
155.0, 75610.22944572323, 81482.92678391062, -11681.558094210399, -10212.936724774449, -5148.433762602063, -3752.433210901405, -15656.212348486466, 187500.0, -0.18, 0.9540000000000001, 0.062, 192.0, 0.0, 0.0, 0.0, 0.0, 0.0, 0.0, 0.0, 0.0, 0.0, 1.700945664752794E9, 0.0, 2023-11-25 15:54:24.752
156.0, 75634.3022745016, 81455.65765567514, -10600.515973629472, -8983.59077973256, -3855.2512353958173, -2717.033352498216, -15552.3214402582, 187500.0, -0.18, 0.9540000000000001, 0.062, 192.0, 0.0, 0.0, 0.0, 0.0, 0.0, 0.0, 0.0, 0.0, 0.0, 1.700945664756385E9, 0.0, 2023-11-25 15:54:24.756
157.0, 75609.80476257858, 81445.71112939253, -11041.851167899511, -9274.901065218577, -4233.375696346247, -2838.6938975684525, -15654.424208930042, 187500.0, -0.18, 0.9540000000000001, 0.062, 192.0, 0.0, 0.0, 0.0, 0.0, 0.0, 0.0, 0.0, 0.0, 0.0, 1.70094566475946E9, 0.0, 2023-11-25 15:54:24.759
158.0, 75596.30430892757, 81480.19987108707, -11755.385906146277, -9840.80253133804, -4994.676112494006, -3277.7492139040487, -15745.775788518882, 187500.0, -0.18, 0.9540000000000001, 0.062, 192.0, 0.0, 0.0, 0.0, 0.0, 0.0, 0.0, 0.0, 0.0, 0.0, 1.700945664763537E9, 0.0, 2023-11-25 15:54:24.763
159.0, 75607.97191953324, 81488.93940316909, -11885.920093765271, -10356.077296266234, -5340.614061428793, -3871.9926919928425, -15704.425061276563, 187500.0, -0.176, 0.962, 0.062, 192.0, 250.0, 128.0, 30.0, 16.0, 1.0, 240.0, 0.0, 0.0, 0.0, 1.700945664767449E9, 0.0, 2023-11-25 15:54:24.767
