%OpenBCI Raw EXG Data
%Number of channels = 8
%Sample Rate = 250 Hz
%Board = OpenBCI_GUI$BoardCytonSerial
Sample Index, EXG Channel 0, EXG Channel 1, EXG Channel 2, EXG Channel 3, EXG Channel 4, EXG Channel 5, EXG Channel 6, EXG Channel 7, Accel Channel 0, Accel Channel 1, Accel Channel 2, Other, Other, Other, Other, Other, Other, Other, Analog Channel 0, Analog Channel 1, Analog Channel 2, Timestamp, Other, Timestamp (Formatted)
64.0, 27026.365938945528, 36399.27940360062, -47313.43505542696, -42744.7384887622, -60477.36084191333, -16551.17619647696, -6684.110365403934, -26235.896496283593, 0.0, 0.0, 0.0, 192.0, 0.0, 0.0, 0.0, 0.0, 0.0, 0.0, 0.0, 0.0, 0.0, 1.700950492818983E9, 0.0, 2023-11-25 17:14:52.818
65.0, 27006.137610213475, 36338.549713915556, -47348.214369799425, -42793.88997481942, -60477.450248891146, -16555.199510478917, -6412.022580149482, -26299.643671470127, 0.0, 0.0, 0.0, 192.0, 0.0, 0.0, 0.0, 0.0, 0.0, 0.0, 0.0, 0.0, 0.0, 1.700950492819012E9, 0.0, 2023-11-25 17:14:52.819
66.0, 26952.94045840984, 36283.586774299954, -47364.03940487378, -42829.09397233653, -60521.72905465711, -16630.05550265974, -6480.7094908606405, -26322.39774732563, 0.0, 0.0, 0.0, 192.0, 0.0, 0.0, 0.0, 0.0, 0.0, 0.0, 0.0, 0.0, 0.0, 1.700950492819026E9, 0.0, 2023-11-25 17:14:52.819
0.0, 36355.64879842386, -47346.26976803181, -42789.196108483804, -60515.09058655389, -16613.29169431826, -6622.084274540458, -26315.424003055574, 0.0, 0.0, 0.0, 0.0, 192.0, 0.0, 0.0, 0.0, 0.0, 0.0, 0.0, 0.0, 0.0, 0.0, 1.700950492888816E9, 0.0, 2023-11-25 17:14:52.888
1.0, 27356.858832461698, 36970.05355001135, -47250.06785989617, -42625.93896698224, -60341.32812515833, -16791.32333890478, -6658.852894169438, -26316.943921678536, -0.182, 0.934, 0.262, 192.0, 250.0, 80.0, 29.0, 48.0, 8.0, 48.0, 0.0, 0.0, 0.0, 1.700950492905856E9, 0.0, 2023-11-25 17:14:52.905
2.0, 27317.40800349808, 36877.87495587766, -47308.04828501324, -42698.805653906544, -60370.832427839334, -16830.349484723745, -6436.676554283686, -26395.9796900725, -0.182, 0.934, 0.262, 192.0, 0.0, 0.0, 0.0, 0.0, 0.0, 0.0, 0.0, 0.0, 0.0, 1.700950492908933E9, 0.0, 2023-11-25 17:14:52.908
3.0, 27270.7375610754, 36829.32696692073, -47335.92091034901, -42731.48390430021, -60422.57671625337, -16896.15302040017, -6538.131122366324, -26407.89316986718, -0.182, 0.934, 0.262, 192.0, 0.0, 0.0, 0.0, 0.0, 0.0, 0.0, 0.0, 0.0, 0.0, 1.700950492912869E9, 0.0, 2023-11-25 17:14:52.912
4.0, 27299.392497467103, 36903.28888932335, -47322.04047704226, -42695.45289223825, -60419.648637729726, -16878.15986611365, -6672.2415890981665, -26373.829111317293, -0.182, 0.934, 0.262, 192.0, 0.0, 0.0, 0.0, 0.0, 0.0, 0.0, 0.0, 0.0, 0.0, 1.700950492916925E9, 0.0, 2023-11-25 17:14:52.916
5.0, 27359.94337319653, 36965.53849763137, -47278.8122032657, -42648.02249050409, -60370.0501167834, -16835.71390339302, -6727.09276999149, -26342.11198593521, -0.182, 0.934, 0.262, 192.0, 0.0, 0.0, 0.0, 0.0, 0.0, 0.0, 0.0, 0.0, 0.0, 1.700950492919974E9, 0.0, 2023-11-25 17:14:52.919
6.0, 27340.676169476053, 36898.2597468209, -47316.49724441734, -42698.35861901744, -60371.815904595365, -16839.558403439332, -6479.748365849062, -26391.732858625994, -0.182, 0.934, 0.262, 192.0, 0.0, 0.0, 0.0, 0.0, 0.0, 0.0, 0.0, 0.0, 0.0, 1.700950492924894E9, 0.0, 2023-11-25 17:14:52.924
7.0, 27276.97369777843, 36828.94698726499, -47345.66627093152, -42748.06889868604, -60429.48340529006, -16924.427977136133, -6537.326459565933, -26427.450946265573, -0.182, 0.934, 0.262, 192.0, 0.0, 0.0, 0.0, 0.0, 0.0, 0.0, 0.0, 0.0, 0.0, 1.700950492929926E9, 0.0, 2023-11-25 17:14:52.929
8.0, 27290.049468284782, 36878.88078437815, -47335.94326209346, -42715.8823866704, -60430.04219890144, -16906.635988549708, -6660.529275003586, -26402.595806431273, -0.184, 0.9400000000000001, 0.264, 192.0, 250.0, 64.0, 29.0, 96.0, 8.0, 64.0, 0.0, 0.0, 0.0, 1.700950492933943E9, 0.0, 2023-11-25 17:14:52.933
9.0, 27351.047378903317, 36951.5239538579, -47282.72375854538, -42651.82228706149, -60379.12492503225, -16861.57487172781, -6759.592206429506, -26344.034235958366, -0.184, 0.9400000000000001, 0.264, 192.0, 0.0, 0.0, 0.0, 0.0, 0.0, 0.0, 0.0, 0.0, 0.0, 1.700950492938399E9, 0.0, 2023-11-25 17:14:52.938
10.0, 27346.107643378695, 36894.661115963594, -47312.29511645975, -42683.69587465476, -60366.31737545936, -16841.39124648467, -6516.896965133783, -26400.248873263467, -0.184, 0.9400000000000001, 0.264, 192.0, 0.0, 0.0, 0.0, 0.0, 0.0, 0.0, 0.0, 0.0, 0.0, 1.700950492941062E9, 0.0, 2023-11-25 17:14:52.941
11.0, 27272.860976798653, 36802.05783868526, -47350.47189598941, -42745.61020679596, -60428.47757678957, -16931.133500472726, -6527.894023405794, -26440.1914406051, -0.184, 0.9400000000000001, 0.264, 192.0, 0.0, 0.0, 0.0, 0.0, 0.0, 0.0, 0.0, 0.0, 0.0, 1.700950492944659E9, 0.0, 2023-11-25 17:14:52.944
12.0, 27282.852206570176, 36852.43867068752, -47337.35142199414, -42711.99318313518, -60427.42704480017, -16907.373596116733, -6644.659536440317, -26421.21480956254, -0.184, 0.9400000000000001, 0.264, 192.0, 0.0, 0.0, 0.0, 0.0, 0.0, 0.0, 0.0, 0.0, 0.0, 1.700950492948074E9, 0.0, 2023-11-25 17:14:52.948
13.0, 27335.915247907073, 36933.10611642672, -47288.37874989257, -42655.756194085625, -60392.20069553861, -16874.85180793426, -6769.449325734297, -26378.32181195281, -0.184, 0.9400000000000001, 0.264, 192.0, 0.0, 0.0, 0.0, 0.0, 0.0, 0.0, 0.0, 0.0, 0.0, 1.700950492952284E9, 0.0, 2023-11-25 17:14:52.952
14.0, 27360.74803599692, 36908.13921787014, -47287.48468011435, -42661.92527555529, -60352.034610752424, -16820.201792741038, -6552.1456661398015, -26379.3276404533, -0.184, 0.9400000000000001, 0.264, 192.0, 0.0, 0.0, 0.0, 0.0, 0.0, 0.0, 0.0, 0.0, 0.0, 1.700950492957449E9, 0.0, 2023-11-25 17:14:52.957
15.0, 27286.316726960747, 36800.493216573384, -47335.80915162673, -42741.20691313826, -60417.90520166221, -16904.87020073774, -6485.179839751701, -26409.50249546796, -0.184, 0.9400000000000001, 0.264, 192.0, 0.0, 0.0, 0.0, 0.0, 0.0, 0.0, 0.0, 0.0, 0.0, 1.700950492960022E9, 0.0, 2023-11-25 17:14:52.960
16.0, 27283.656869370567, 36829.438725643005, -47326.823750355696, -42719.19044484979, -60426.555326766415, -16895.169543644137, -6601.408910919298, -26383.932099811092, -0.184, 0.9400000000000001, 0.264, 192.0, 0.0, 0.0, 0.0, 0.0, 0.0, 0.0, 0.0, 0.0, 0.0, 1.700950492964086E9, 0.0, 2023-11-25 17:14:52.964
17.0, 27330.21555307097, 36913.97302317298, -47278.67809279896, -42661.25472322163, -60393.72061416157, -16865.82170317432, -6741.576700398529, -26339.45212834503, -0.184, 0.9400000000000001, 0.264, 192.0, 0.0, 0.0, 0.0, 0.0, 0.0, 0.0, 0.0, 0.0, 0.0, 1.700950492968021E9, 0.0, 2023-11-25 17:14:52.968
18.0, 27360.16689064108, 36906.86516843619, -47267.882200227046, -42652.9175225398, -60345.820825793846, -16809.964693780505, -6581.784079287539, -26349.35395113873, -0.19, 0.9380000000000001, 0.266, 192.0, 250.0, 16.0, 29.0, 80.0, 8.0, 80.0, 0.0, 0.0, 0.0, 1.700950492972079E9, 0.0, 2023-11-25 17:14:52.972
19.0, 27288.39543919509, 36796.46990257143, -47321.504035175334, -42738.681166014816, -60404.44945150011, -16891.928540698118, -6455.60848183733, -26421.79595491838, -0.19, 0.9380000000000001, 0.266, 192.0, 0.0, 0.0, 0.0, 0.0, 0.0, 0.0, 0.0, 0.0, 0.0, 1.70095049297621E9, 0.0, 2023-11-25 17:14:52.976
20.0, 27265.864880784142, 36798.77213225033, -47324.49916893234, -42737.74239274769, -60427.65056224472, -16909.76523277345, -6577.537247841031, -26428.702643955072, -0.19, 0.9380000000000001, 0.266, 192.0, 0.0, 0.0, 0.0, 0.0, 0.0, 0.0, 0.0, 0.0, 0.0, 1.700950492980102E9, 0.0, 2023-11-25 17:14:52.980
21.0, 27302.275872501836, 36872.75640639739, -47290.323351660176, -42689.55203170205, -60408.316303290885, -16881.87025569323, -6722.1977379557775, -26386.36843995672, -0.19, 0.9380000000000001, 0.266, 192.0, 0.0, 0.0, 0.0, 0.0, 0.0, 0.0, 0.0, 0.0, 0.0, 1.700950492985151E9, 0.0, 2023-11-25 17:14:52.985
22.0, 27354.46719580498, 36894.2587845634, -47258.8073919782, -42655.04093826305, -60349.33004967333, -16806.299007689835, -6629.88503335536, -26347.051721459833, -0.19, 0.9380000000000001, 0.266, 192.0, 0.0, 0.0, 0.0, 0.0, 0.0, 0.0, 0.0, 0.0, 0.0, 1.700950492988176E9, 0.0, 2023-11-25 17:14:52.988
23.0, 27300.73360213442, 36796.35814384915, -47310.864604814604, -42729.69576474378, -60388.8032303814, -16851.918918123116, -6432.764999004006, -26385.45201843405, -0.19, 0.9380000000000001, 0.266, 192.0, 0.0, 0.0, 0.0, 0.0, 0.0, 0.0, 0.0, 0.0, 0.0, 1.700950492993132E9, 0.0, 2023-11-25 17:14:52.993
24.0, 27268.457683140958, 36773.69347497147, -47319.402971196534, -42738.36824159244, -60420.09567261883, -16881.602034759766, -6543.070857890947, -26366.654201347137, -0.19, 0.9380000000000001, 0.266, 192.0, 0.0, 0.0, 0.0, 0.0, 0.0, 0.0, 0.0, 0.0, 0.0, 1.700950492997282E9, 0.0, 2023-11-25 17:14:52.997
25.0, 27309.83076212773, 36859.16654576857, -47287.61879058109, -42683.651171165846, -60402.035463098946, -16852.924746623605, -6686.412595082831, -26330.332616607266, -0.19, 0.9380000000000001, 0.266, 192.0, 0.0, 0.0, 0.0, 0.0, 0.0, 0.0, 0.0, 0.0, 0.0, 1.700950493001162E9, 0.0, 2023-11-25 17:14:53.001
26.0, 27365.352495354713, 36905.88169168016, -47254.76172623179, -42643.88741777986, -60350.782913062925, -16800.50990587591, -6670.006414652636, -26315.40165131112, -0.19, 0.9380000000000001, 0.266, 192.0, 0.0, 0.0, 0.0, 0.0, 0.0, 0.0, 0.0, 0.0, 0.0, 1.700950493004179E9, 0.0, 2023-11-25 17:14:53.004
27.0, 27332.74130019442, 36823.69432731799, -47303.22030821089, -42707.36637203293, -60372.21823599556, -16836.18329002658, -6447.964185233615, -26390.0788295363, -0.19, 0.9380000000000001, 0.266, 192.0, 0.0, 0.0, 0.0, 0.0, 0.0, 0.0, 0.0, 0.0, 0.0, 1.700950493008197E9, 0.0, 2023-11-25 17:14:53.008
28.0, 27285.579119393722, 36776.50979477284, -47323.2698229873, -42736.580102036016, -60419.13454760725, -16904.11024142626, -6542.445009046199, -26407.066155322333, -0.194, 0.9380000000000001, 0.268, 192.0, 249.0, 240.0, 29.0, 80.0, 8.0, 96.0, 0.0, 0.0, 0.0, 1.700950493012165E9, 0.0, 2023-11-25 17:14:53.012
29.0, 27310.45661097248, 36845.12965025064, -47305.008447767315, -42691.74250265867, -60410.08209110286, -16879.21039810305, -6672.532161776086, -26366.49773913595, -0.194, 0.9380000000000001, 0.268, 192.0, 0.0, 0.0, 0.0, 0.0, 0.0, 0.0, 0.0, 0.0, 0.0, 1.70095049301622E9, 0.0, 2023-11-25 17:14:53.016
30.0, 27367.967649455983, 36907.84864519223, -47263.79183099173, -42644.15563871332, -60362.450523668595, -16843.492310463465, -6733.61947937244, -26340.055625445322, -0.194, 0.9380000000000001, 0.268, 192.0, 0.0, 0.0, 0.0, 0.0, 0.0, 0.0, 0.0, 0.0, 0.0, 1.700950493022238E9, 0.0, 2023-11-25 17:14:53.022
31.0, 27359.205765629504, 36845.68844386202, -47298.302924430725, -42690.826081136, -60360.26005271197, -16848.700266921554, -6491.103052032358, -26403.288710509387, -0.194, 0.9380000000000001, 0.268, 192.0, 0.0, 0.0, 0.0, 0.0, 0.0, 0.0, 0.0, 0.0, 0.0, 1.700950493026249E9, 0.0, 2023-11-25 17:14:53.026
32.0, 27300.130105034128, 36770.36306504763, -47321.52638691979, -42735.21664562424, -60412.518431248485, -16920.67288406764, -6535.895947920793, -26411.290635024387, -0.194, 0.9380000000000001, 0.268, 192.0, 0.0, 0.0, 0.0, 0.0, 0.0, 0.0, 0.0, 0.0, 0.0, 1.700950493029221E9, 0.0, 2023-11-25 17:14:53.029
33.0, 27316.78215465333, 36828.745821564895, -47305.142558234045, -42696.77164516111, -60407.91397189069, -16898.187029145603, -6657.1541615908345, -26392.98455631549, -0.194, 0.9380000000000001, 0.268, 192.0, 0.0, 0.0, 0.0, 0.0, 0.0, 0.0, 0.0, 0.0, 0.0, 1.700950493032237E9, 0.0, 2023-11-25 17:14:53.032
34.0, 27373.26501289189, 36906.23931959144, -47259.142668145025, -42640.445249133736, -60364.484532414026, -16862.245424061468, -6765.448363476797, -26361.60270710024, -0.194, 0.9380000000000001, 0.268, 192.0, 0.0, 0.0, 0.0, 0.0, 0.0, 0.0, 0.0, 0.0, 0.0, 1.700950493036252E9, 0.0, 2023-11-25 17:14:53.036
35.0, 27375.544890826335, 36860.59705741371, -47283.90840100151, -42666.797955846545, -60345.77612230494, -16833.210508014025, -6521.523776236031, -26385.966108556524, -0.194, 0.9380000000000001, 0.268, 192.0, 0.0, 0.0, 0.0, 0.0, 0.0, 0.0, 0.0, 0.0, 0.0, 1.70095049304034E9, 0.0, 2023-11-25 17:14:53.040
36.0, 27304.242826013902, 36767.12206210161, -47326.264956744315, -42731.93093918931, -60410.64088471424, -16923.556259102377, -6518.0369041010035, -26423.27117005243, -0.194, 0.9380000000000001, 0.268, 192.0, 0.0, 0.0, 0.0, 0.0, 0.0, 0.0, 0.0, 0.0, 0.0, 1.700950493044324E9, 0.0, 2023-11-25 17:14:53.044
37.0, 27307.327366748737, 36810.149170178076, -47319.80530259673, -42701.66667719682, -60415.33475104985, -16906.16660191615, -6636.836425880961, -26401.433515719596, -0.194, 0.9380000000000001, 0.268, 192.0, 0.0, 0.0, 0.0, 0.0, 0.0, 0.0, 0.0, 0.0, 0.0, 1.700950493047466E9, 0.0, 2023-11-25 17:14:53.047
38.0, 27357.708198751, 36890.03430486134, -47272.88899098504, -42641.227560189676, -60378.00733780949, -16867.878063664208, -6762.609691930973, -26338.692169033548, -0.19, 0.934, 0.262, 192.0, 250.0, 16.0, 29.0, 48.0, 8.0, 48.0, 0.0, 0.0, 0.0, 1.700950493051326E9, 0.0, 2023-11-25 17:14:53.051
39.0, 27380.4622746065, 36867.324932494754, -47277.42639510947, -42648.44717364874, -60341.32812515833, -16818.14543225115, -6557.934767953726, -26365.73777982447, -0.19, 0.934, 0.262, 192.0, 0.0, 0.0, 0.0, 0.0, 0.0, 0.0, 0.0, 0.0, 0.0, 1.700950493056338E9, 0.0, 2023-11-25 17:14:53.056
40.0, 27306.902683604087, 36760.148317831554, -47328.83540735667, -42730.612186266444, -60409.18802132464, -16907.97709321703, -6487.012682797037, -26426.9368561431, -0.19, 0.934, 0.262, 192.0, 0.0, 0.0, 0.0, 0.0, 0.0, 0.0, 0.0, 0.0, 0.0, 1.700950493060415E9, 0.0, 2023-11-25 17:14:53.060
41.0, 27300.152456778582, 36786.36691407763, -47325.281479988276, -42715.949441903766, -60423.04610288693, -16903.216171648048, -6606.63921912184, -26403.9816145875, -0.19, 0.934, 0.262, 192.0, 0.0, 0.0, 0.0, 0.0, 0.0, 0.0, 0.0, 0.0, 0.0, 1.700950493064422E9, 0.0, 2023-11-25 17:14:53.064
42.0, 27348.87925969115, 36869.02366507336, -47276.621732309075, -42658.43840342026, -60390.74783214901, -16863.787694428884, -6745.689421378305, -26335.92055272109, -0.19, 0.934, 0.262, 192.0, 0.0, 0.0, 0.0, 0.0, 0.0, 0.0, 0.0, 0.0, 0.0, 1.700950493068394E9, 0.0, 2023-11-25 17:14:53.068
43.0, 27376.818940260287, 36865.805013871795, -47269.58093280565, -42654.05746150702, -60349.41945665115, -16805.583751867267, -6589.964817758181, -26342.559020824316, -0.19, 0.934, 0.262, 192.0, 0.0, 0.0, 0.0, 0.0, 0.0, 0.0, 0.0, 0.0, 0.0, 1.700950493071415E9, 0.0, 2023-11-25 17:14:53.071
44.0, 27306.7462213929, 36758.762509675325, -47326.19790151095, -42739.731698004216, -60409.81387016939, -16880.90913068165, -6451.853388768839, -26410.441268735085, -0.19, 0.934, 0.262, 192.0, 0.0, 0.0, 0.0, 0.0, 0.0, 0.0, 0.0, 0.0, 0.0, 1.700950493075768E9, 0.0, 2023-11-25 17:14:53.075
45.0, 27279.030058268316, 36753.800422406246, -47334.89273010406, -42744.44791608428, -60440.50281530653, -16900.802183246873, -6572.01636696057, -26405.725050655015, -0.19, 0.934, 0.262, 192.0, 0.0, 0.0, 0.0, 0.0, 0.0, 0.0, 0.0, 0.0, 0.0, 1.70095049308222E9, 0.0, 2023-11-25 17:14:53.082
46.0, 27320.291378532813, 36840.279321703834, -47295.59836335163, -42688.99323809067, -60416.78761443945, -16863.854749662252, -6716.743912308683, -26333.50656431992, -0.19, 0.934, 0.262, 192.0, 0.0, 0.0, 0.0, 0.0, 0.0, 0.0, 0.0, 0.0, 0.0, 1.700950493084451E9, 0.0, 2023-11-25 17:14:53.084
47.0, 27365.307791865802, 36872.04115057483, -47267.748089760316, -42660.33830169896, -60363.366945191265, -16798.498248874934, -6634.981231091169, -26310.283101830853, -0.188, 0.934, 0.264, 192.0, 250.0, 32.0, 29.0, 48.0, 8.0, 64.0, 0.0, 0.0, 0.0, 1.700950493088514E9, 0.0, 2023-11-25 17:14:53.088
48.0, 27300.443029456503, 36767.926724902005, -47332.545796936254, -42749.94644522029, -60416.698207461624, -16869.91207240964, -6445.661955554719, -26416.69975718257, -0.188, 0.934, 0.264, 192.0, 0.0, 0.0, 0.0, 0.0, 0.0, 0.0, 0.0, 0.0, 0.0, 1.700950493093147E9, 0.0, 2023-11-25 17:14:53.093
49.0, 27264.188499949993, 36749.28537002628, -47338.916044106016, -42761.70346280378, -60450.67285903369, -16913.900305497686, -6560.929901710738, -26408.94370185658, -0.188, 0.934, 0.264, 192.0, 0.0, 0.0, 0.0, 0.0, 0.0, 0.0, 0.0, 0.0, 0.0, 1.700950493098776E9, 0.0, 2023-11-25 17:14:53.098
50.0, 27297.31378523276, 36833.3949844116, -47313.43505542696, -42713.06606686903, -60437.261812360506, -16890.67684300862, -6702.103519690457, -26339.83210800077, -0.188, 0.934, 0.264, 192.0, 0.0, 0.0, 0.0, 0.0, 0.0, 0.0, 0.0, 0.0, 0.0, 1.70095049310156E9, 0.0, 2023-11-25 17:14:53.101
51.0, 27360.077483663263, 36893.208252574, -47272.9560462184, -42667.6696738803, -60380.33191923284, -16845.772188397907, -6708.227897671211, -26326.622227027685, -0.188, 0.934, 0.264, 192.0, 0.0, 0.0, 0.0, 0.0, 0.0, 0.0, 0.0, 0.0, 0.0, 1.700950493104486E9, 0.0, 2023-11-25 17:14:53.104
52.0, 27328.449765259, 36811.266757400845, -47321.012296797315, -42731.41684906684, -60399.3085502754, -16884.32894758331, -6477.490839659076, -26417.683233938606, -0.188, 0.934, 0.264, 192.0, 0.0, 0.0, 0.0, 0.0, 0.0, 0.0, 0.0, 0.0, 0.0, 1.700950493107474E9, 0.0, 2023-11-25 17:14:53.107
53.0, 27274.984392521907, 36763.12109984411, -47340.5253697068, -42761.390538381405, -60446.47073107609, -16951.71945711606, -6559.387631343321, -26429.350844544275, -0.188, 0.934, 0.264, 192.0, 0.0, 0.0, 0.0, 0.0, 0.0, 0.0, 0.0, 0.0, 0.0, 1.700950493111683E9, 0.0, 2023-11-25 17:14:53.111
54.0, 27298.83370385572, 36834.80314431228, -47320.76642760831, -42715.34594480347, -60438.62526877228, -16929.25595393848, -6691.620551540917, -26396.449076706063, -0.188, 0.934, 0.264, 192.0, 0.0, 0.0, 0.0, 0.0, 0.0, 0.0, 0.0, 0.0, 0.0, 1.700950493116599E9, 0.0, 2023-11-25 17:14:53.116
55.0, 27357.84230921773, 36901.0090113889, -47274.29715088572, -42659.35482494293, -60387.86445711428, -16879.18804635859, -6748.997479557691, -26349.51041334992, -0.188, 0.934, 0.264, 192.0, 0.0, 0.0, 0.0, 0.0, 0.0, 0.0, 0.0, 0.0, 0.0, 1.700950493120492E9, 0.0, 2023-11-25 17:14:53.120
56.0, 27341.480832276444, 36837.44065015801, -47309.210575724916, -42702.40428476385, -60383.61762566777, -16871.677860221607, -6497.897982346772, -26401.835847119793, -0.188, 0.934, 0.264, 192.0, 0.0, 0.0, 0.0, 0.0, 0.0, 0.0, 0.0, 0.0, 0.0, 1.700950493124554E9, 0.0, 2023-11-25 17:14:53.124
57.0, 27271.76574132034, 36754.69449218446, -47339.16191329502, -42751.55577082107, -60440.256946117515, -16943.896346556707, -6537.348811310389, -26414.732803670504, -0.182, 0.932, 0.264, 192.0, 250.0, 80.0, 29.0, 32.0, 8.0, 64.0, 0.0, 0.0, 0.0, 1.700950493127543E9, 0.0, 2023-11-25 17:14:53.127
58.0, 27277.957174534462, 36807.15403642107, -47332.65755565853, -42722.94553791828, -60444.99551594204, -16926.26082018147, -6656.8635889129155, -26404.763925643438, -0.182, 0.932, 0.264, 192.0, 0.0, 0.0, 0.0, 0.0, 0.0, 0.0, 0.0, 0.0, 0.0, 1.700950493131587E9, 0.0, 2023-11-25 17:14:53.131
59.0, 27334.954122895495, 36885.206328059, -47281.87439225607, -42664.87570582339, -60401.09668983182, -16885.424183061623, -6772.355052513487, -26367.078884491788, -0.182, 0.932, 0.264, 192.0, 0.0, 0.0, 0.0, 0.0, 0.0, 0.0, 0.0, 0.0, 0.0, 1.700950493135545E9, 0.0, 2023-11-25 17:14:53.135
60.0, 27348.32046607977, 36846.82838282924, -47293.09496797263, -42680.231354264186, -60369.69248887211, -16840.117197050717, -6528.989258884104, -26389.74355336947, -0.182, 0.932, 0.264, 192.0, 0.0, 0.0, 0.0, 0.0, 0.0, 0.0, 0.0, 0.0, 0.0, 1.70095049313957E9, 0.0, 2023-11-25 17:14:53.139
61.0, 27276.034924511307, 36749.15125955955, -47332.411686469524, -42742.77153525013, -60427.181175611164, -16921.052863723384, -6508.760930152051, -26415.17983855961, -0.182, 0.932, 0.264, 192.0, 0.0, 0.0, 0.0, 0.0, 0.0, 0.0, 0.0, 0.0, 0.0, 1.700950493144662E9, 0.0, 2023-11-25 17:14:53.144
62.0, 27281.421694925037, 36785.674009999515, -47317.12309326209, -42708.17103483332, -60424.20839359861, -16894.744860499486, -6623.984172819159, -26378.50062590845, -0.182, 0.932, 0.264, 192.0, 0.0, 0.0, 0.0, 0.0, 0.0, 0.0, 0.0, 0.0, 0.0, 1.70095049314859E9, 0.0, 2023-11-25 17:14:53.148
63.0, 27337.32340780776, 36865.648551660604, -47265.289397870234, -42645.608502102914, -60385.383413479736, -16860.323174038313, -6756.306499994576, -26330.39967184063, -0.182, 0.932, 0.264, 192.0, 0.0, 0.0, 0.0, 0.0, 0.0, 0.0, 0.0, 0.0, 0.0, 1.700950493152603E9, 0.0, 2023-11-25 17:14:53.152
64.0, 27362.156195897605, 36846.090775262215, -47270.11737467258, -42653.05163300653, -60347.51955837245, -16811.55166763683, -6549.508160294075, -26354.316038407807, -0.182, 0.932, 0.264, 192.0, 0.0, 0.0, 0.0, 0.0, 0.0, 0.0, 0.0, 0.0, 0.0, 1.700950493155685E9, 0.0, 2023-11-25 17:14:53.155
65.0, 27291.72584911893, 36744.61385543512, -47321.68284913097, -42736.04366016909, -60412.56313473739, -16903.81966874834, -6477.177915236702, -26415.626873448717, -0.182, 0.932, 0.264, 192.0, 0.0, 0.0, 0.0, 0.0, 0.0, 0.0, 0.0, 0.0, 0.0, 1.700950493160624E9, 0.0, 2023-11-25 17:14:53.160
66.0, 27292.642270641598, 36778.6332104961, -47309.3670379361, -42713.89308141388, -60418.41929178468, -16896.488296567, -6604.158175487301, -26404.428649476606, -0.182, 0.932, 0.264, 192.0, 0.0, 0.0, 0.0, 0.0, 0.0, 0.0, 0.0, 0.0, 0.0, 1.70095049316465E9, 0.0, 2023-11-25 17:14:53.164
67.0, 27331.489602504924, 36856.216115500465, -47272.93369447395, -42664.76394710111, -60395.70991941809, -16870.20264508756, -6745.28708997811, -26347.83403251577, -0.186, 0.936, 0.264, 192.0, 250.0, 48.0, 29.0, 64.0, 8.0, 64.0, 0.0, 0.0, 0.0, 1.700950493169628E9, 0.0, 2023-11-25 17:14:53.169
68.0, 27364.816053487786, 36858.71951087946, -47259.52264780077, -42655.599731874434, -60348.95007001759, -16810.94817053654, -6600.626599863363, -26336.948732966037, -0.186, 0.936, 0.264, 192.0, 0.0, 0.0, 0.0, 0.0, 0.0, 0.0, 0.0, 0.0, 0.0, 1.700950493173692E9, 0.0, 2023-11-25 17:14:53.173
69.0, 27291.54703516329, 36751.766413660815, -47315.31260196121, -42740.96104394925, -60405.49998348951, -16888.933406941105, -6458.760077805528, -26419.918408384136, -0.186, 0.936, 0.264, 192.0, 0.0, 0.0, 0.0, 0.0, 0.0, 0.0, 0.0, 0.0, 0.0, 1.700950493176808E9, 0.0, 2023-11-25 17:14:53.176
70.0, 27261.506290615358, 36745.910256613526, -47320.3193927192, -42741.89981721638, -60433.6631815032, -16910.525192084933, -6581.851134520904, -26406.015623332933, -0.186, 0.936, 0.264, 192.0, 0.0, 0.0, 0.0, 0.0, 0.0, 0.0, 0.0, 0.0, 0.0, 1.700950493181773E9, 0.0, 2023-11-25 17:14:53.181
71.0, 27312.110640062172, 36841.262798459866, -47274.58772356364, -42680.34311298646, -60404.51650673348, -16870.09088636528, -6725.729313579716, -26317.81563971229, -0.186, 0.936, 0.264, 192.0, 0.0, 0.0, 0.0, 0.0, 0.0, 0.0, 0.0, 0.0, 0.0, 1.700950493185714E9, 0.0, 2023-11-25 17:14:53.185
72.0, 27368.817015745284, 36879.1043018227, -47241.037755136225, -42647.06136549251, -60348.681849084125, -16805.919028034095, -6652.236777810666, -26292.11113358869, -0.186, 0.936, 0.264, 192.0, 0.0, 0.0, 0.0, 0.0, 0.0, 0.0, 0.0, 0.0, 0.0, 1.700950493188799E9, 0.0, 2023-11-25 17:14:53.188
73.0, 27312.915302862562, 36777.09094012868, -47303.37677042207, -42730.99216592219, -60396.358120007295, -16866.268738063423, -6448.120647444803, -26369.962259526525, -0.186, 0.936, 0.264, 192.0, 0.0, 0.0, 0.0, 0.0, 0.0, 0.0, 0.0, 0.0, 0.0, 1.700950493191812E9, 0.0, 2023-11-25 17:14:53.191
74.0, 27265.59665985068, 36743.093936812154, -47325.214424754915, -42758.01542496865, -60445.576661297884, -16924.226811436034, -6560.214645888168, -26386.45784693454, -0.186, 0.936, 0.264, 192.0, 0.0, 0.0, 0.0, 0.0, 0.0, 0.0, 0.0, 0.0, 0.0, 1.700950493195763E9, 0.0, 2023-11-25 17:14:53.195
75.0, 27290.720020618443, 36815.33477489171, -47306.528366390274, -42720.57625300602, -60441.21807112909, -16917.767157288454, -6708.272601160122, -26371.906861294137, -0.186, 0.936, 0.264, 192.0, 0.0, 0.0, 0.0, 0.0, 0.0, 0.0, 0.0, 0.0, 0.0, 1.700950493199761E9, 0.0, 2023-11-25 17:14:53.199
76.0, 27352.07555914826, 36868.88955460663, -47263.21068563589, -42671.58122915998, -60382.83531461183, -16870.180293343103, -6733.842996816993, -26362.921460023103, -0.186, 0.936, 0.264, 192.0, 0.0, 0.0, 0.0, 0.0, 0.0, 0.0, 0.0, 0.0, 0.0, 1.70095049320477E9, 0.0, 2023-11-25 17:14:53.204
77.0, 27315.709270919477, 36780.287239585785, -47313.63622112706, -42731.528607789114, -60400.537896220434, -16891.39209883119, -6490.298389231967, -26421.728899685015, -0.186, 0.9440000000000001, 0.268, 192.0, 250.0, 48.0, 29.0, 128.0, 8.0, 96.0, 0.0, 0.0, 0.0, 1.700950493208855E9, 0.0, 2023-11-25 17:14:53.208
78.0, 27265.19432845048, 36728.25237849383, -47331.2717475023, -42759.55769533607, -60443.20737638562, -16954.44636993961, -6566.517837824565, -26430.624893978227, -0.186, 0.9440000000000001, 0.268, 192.0, 0.0, 0.0, 0.0, 0.0, 0.0, 0.0, 0.0, 0.0, 0.0, 1.700950493212026E9, 0.0, 2023-11-25 17:14:53.212
79.0, 27296.6432328991, 36807.46696084344, -47305.38842742305, -42706.89698539937, -60425.236573843555, -16918.907096255673, -6688.692473017272, -26382.143960254667, -0.186, 0.9440000000000001, 0.268, 192.0, 0.0, 0.0, 0.0, 0.0, 0.0, 0.0, 0.0, 0.0, 0.0, 1.700950493215913E9, 0.0, 2023-11-25 17:14:53.215
80.0, 27356.545908039323, 36877.897307622115, -47257.91332219998, -42648.17895271527, -60371.63709063973, -16867.453380519557, -6749.042183046602, -26333.126584664176, -0.186, 0.9440000000000001, 0.268, 192.0, 0.0, 0.0, 0.0, 0.0, 0.0, 0.0, 0.0, 0.0, 0.0, 1.70095049321984E9, 0.0, 2023-11-25 17:14:53.219
81.0, 27341.41377704308, 36812.76432427935, -47298.12411047508, -42696.793996905566, -60371.92766331764, -16864.19002582908, -6491.594790410375, -26406.686175666593, -0.186, 0.9440000000000001, 0.268, 192.0, 0.0, 0.0, 0.0, 0.0, 0.0, 0.0, 0.0, 0.0, 0.0, 1.700950493223859E9, 0.0, 2023-11-25 17:14:53.223
82.0, 27279.722962346434, 36736.41076522002, -47332.344631236156, -42752.919227232844, -60433.37260882528, -16947.986715792027, -6536.655907232274, -26438.04567313739, -0.186, 0.9440000000000001, 0.268, 192.0, 0.0, 0.0, 0.0, 0.0, 0.0, 0.0, 0.0, 0.0, 0.0, 1.70095049322784E9, 0.0, 2023-11-25 17:14:53.227
83.0, 27295.682107887522, 36791.39605658007, -47323.31452647621, -42719.59277624998, -60436.345390837836, -16923.06452072436, -6658.070583113502, -26409.70366116806, -0.186, 0.9440000000000001, 0.268, 192.0, 0.0, 0.0, 0.0, 0.0, 0.0, 0.0, 0.0, 0.0, 0.0, 1.700950493232853E9, 0.0, 2023-11-25 17:14:53.232
84.0, 27345.817070700774, 36862.40754871459, -47281.62852306706, -42669.34605471445, -60401.588428209834, -16891.235636620004, -6777.630064204939, -26388.35774521324, -0.186, 0.9440000000000001, 0.268, 192.0, 0.0, 0.0, 0.0, 0.0, 0.0, 0.0, 0.0, 0.0, 0.0, 1.700950493235877E9, 0.0, 2023-11-25 17:14:53.235
85.0, 27348.991018413428, 36817.92757724853, -47304.04732275574, -42691.69779916976, -60379.25903549899, -16857.506854236944, -6549.82108471645, -26447.455757553074, -0.186, 0.9440000000000001, 0.268, 192.0, 0.0, 0.0, 0.0, 0.0, 0.0, 0.0, 0.0, 0.0, 0.0, 1.700950493238878E9, 0.0, 2023-11-25 17:14:53.238
86.0, 27274.313840188246, 36720.20575048992, -47348.46023898843, -42753.3886138664, -60440.56987053989, -16935.670904597155, -6517.858090145361, -26467.28175488493, -0.186, 0.9440000000000001, 0.268, 192.0, 0.0, 0.0, 0.0, 0.0, 0.0, 0.0, 0.0, 0.0, 0.0, 1.700950493243965E9, 0.0, 2023-11-25 17:14:53.243
87.0, 27280.281755957814, 36765.400977778554, -47336.01031732682, -42718.47518902722, -60437.48532980506, -16908.33472112831, -6624.9900013196475, -26433.597675990783, -0.182, 0.93, 0.272, 192.0, 250.0, 80.0, 29.0, 16.0, 8.0, 128.0, 0.0, 0.0, 0.0, 1.700950493248119E9, 0.0, 2023-11-25 17:14:53.248
88.0, 27330.863753660175, 36850.33760670872, -47288.289342914744, -42661.45588892173, -60401.320207276374, -16876.550540512864, -6762.2297122752325, -26397.343146484276, -0.182, 0.93, 0.272, 192.0, 0.0, 0.0, 0.0, 0.0, 0.0, 0.0, 0.0, 0.0, 0.0, 1.700950493251978E9, 0.0, 2023-11-25 17:14:53.251
89.0, 27348.186355613037, 36828.96933900945, -47295.64306684054, -42668.63079889188, -60363.52340740245, -16822.61578114221, -6562.025137189047, -26412.140001313688, -0.182, 0.93, 0.272, 192.0, 0.0, 0.0, 0.0, 0.0, 0.0, 0.0, 0.0, 0.0, 0.0, 1.700950493255909E9, 0.0, 2023-11-25 17:14:53.255
90.0, 27275.5878896222, 36721.03276503477, -47348.16966631051, -42750.59464580949, -60427.02471339997, -16908.96056997306, -6478.273150715012, -26467.393513607207, -0.182, 0.93, 0.272, 192.0, 0.0, 0.0, 0.0, 0.0, 0.0, 0.0, 0.0, 0.0, 0.0, 1.700950493260995E9, 0.0, 2023-11-25 17:14:53.260
91.0, 27285.199139737982, 36751.65465493854, -47340.25714877334, -42732.48973280069, -60438.267640861, -16903.752613514975, -6596.82680330596, -26447.27694359743, -0.182, 0.93, 0.272, 192.0, 0.0, 0.0, 0.0, 0.0, 0.0, 0.0, 0.0, 0.0, 0.0, 1.700950493263971E9, 0.0, 2023-11-25 17:14:53.263
92.0, 27351.002675414406, 36837.127725735634, -47305.45548265642, -42685.953400844744, -60420.833280185856, -16880.81972370383, -6739.699153864283, -26405.456829721552, -0.182, 0.93, 0.272, 192.0, 0.0, 0.0, 0.0, 0.0, 0.0, 0.0, 0.0, 0.0, 0.0, 1.700950493267022E9, 0.0, 2023-11-25 17:14:53.267
93.0, 27401.338803927756, 36843.40856592757, -47293.00556099482, -42671.96120881572, -60373.87226508526, -16819.397129940644, -6610.1931464902345, -26399.66772790763, -0.182, 0.93, 0.272, 192.0, 0.0, 0.0, 0.0, 0.0, 0.0, 0.0, 0.0, 0.0, 0.0, 1.700950493270964E9, 0.0, 2023-11-25 17:14:53.270
94.0, 27343.425434044057, 36737.39424197606, -47348.16966631051, -42751.399308609885, -60425.52714652147, -16890.140401141693, -6451.249891668545, -26470.276888641944, -0.182, 0.93, 0.272, 192.0, 0.0, 0.0, 0.0, 0.0, 0.0, 0.0, 0.0, 0.0, 0.0, 1.700950493276326E9, 0.0, 2023-11-25 17:14:53.276
95.0, 27319.5984744547, 36728.65470989403, -47359.390242027075, -42755.936712734314, -60459.121818437794, -16917.945971244095, -6570.764669271072, -26472.534414831927, -0.182, 0.93, 0.272, 192.0, 0.0, 0.0, 0.0, 0.0, 0.0, 0.0, 0.0, 0.0, 0.0, 1.700950493280128E9, 0.0, 2023-11-25 17:14:53.280
96.0, 27361.999733686418, 36809.21039691095, -47331.65172715804, -42706.76287493263, -60446.35897235382, -16899.572837301832, -6725.438740901797, -26445.33234182982, -0.182, 0.93, 0.272, 192.0, 0.0, 0.0, 0.0, 0.0, 0.0, 0.0, 0.0, 0.0, 0.0, 1.700950493284052E9, 0.0, 2023-11-25 17:14:53.284
97.0, 27424.04817629435, 36853.73507186593, -47294.994866251334, -42660.0700807655, -60383.25999775648, -16828.337827722768, -6668.799420452049, -26402.32758549781, -0.182, 0.934, 0.274, 192.0, 250.0, 80.0, 29.0, 48.0, 8.0, 144.0, 0.0, 0.0, 0.0, 1.700950493288044E9, 0.0, 2023-11-25 17:14:53.288
98.0, 27383.591518830242, 36769.35723654714, -47344.79455289776, -42723.59373850748, -60409.61270446929, -16866.738124696985, -6451.316946901911, -26449.109786642766, -0.182, 0.934, 0.274, 192.0, 0.0, 0.0, 0.0, 0.0, 0.0, 0.0, 0.0, 0.0, 0.0, 1.70095049329203E9, 0.0, 2023-11-25 17:14:53.292
99.0, 27346.21940210097, 36740.07645131069, -47361.826582172704, -42743.64325328389, -60450.82932124488, -16921.67871256813, -6558.448858076198, -26461.42559783764, -0.182, 0.934, 0.274, 192.0, 0.0, 0.0, 0.0, 0.0, 0.0, 0.0, 0.0, 0.0, 0.0, 1.700950493295079E9, 0.0, 2023-11-25 17:14:53.295
100.0, 27383.211539174503, 36818.821647026736, -47334.75861963733, -42695.00585734914, -60436.3677425823, -16902.81384024785, -6698.057853944047, -26427.093318354287, -0.182, 0.934, 0.274, 192.0, 0.0, 0.0, 0.0, 0.0, 0.0, 0.0, 0.0, 0.0, 0.0, 1.700950493299086E9, 0.0, 2023-11-25 17:14:53.299
101.0, 27448.590391706275, 36877.897307622115, -47288.870488270586, -42641.696946823235, -60376.46506744207, -16850.398999500158, -6715.112234963445, -26393.208073760044, -0.182, 0.934, 0.274, 192.0, 0.0, 0.0, 0.0, 0.0, 0.0, 0.0, 0.0, 0.0, 0.0, 1.700950493304079E9, 0.0, 2023-11-25 17:14:53.304
102.0, 27429.23378100798, 36808.31632713274, -47328.7236486344, -42690.46845322472, -60381.829486111346, -16858.557386226345, -6464.370365663811, -26440.482013283017, -0.182, 0.934, 0.274, 192.0, 0.0, 0.0, 0.0, 0.0, 0.0, 0.0, 0.0, 0.0, 0.0, 1.700950493308152E9, 0.0, 2023-11-25 17:14:53.308
103.0, 27377.064809449294, 36755.78972766277, -47354.56226522473, -42728.2876048431, -60435.026637914976, -16932.02757025094, -6537.259404332567, -26466.0971124288, -0.182, 0.934, 0.274, 192.0, 0.0, 0.0, 0.0, 0.0, 0.0, 0.0, 0.0, 0.0, 0.0, 1.700950493312098E9, 0.0, 2023-11-25 17:14:53.312
104.0, 27387.10074270973, 36818.128742948626, -47345.956843609434, -42696.32461027201, -60438.53586179446, -16921.902230012685, -6666.452487284242, -26465.71713277306, -0.182, 0.934, 0.274, 192.0, 0.0, 0.0, 0.0, 0.0, 0.0, 0.0, 0.0, 0.0, 0.0, 1.700950493316675E9, 0.0, 2023-11-25 17:14:53.316
105.0, 27435.58167643329, 36889.140235083134, -47290.63627608255, -42633.69502230824, -60380.28721574393, -16869.845017176274, -6738.268642219144, -26399.22069301852, -0.182, 0.934, 0.274, 192.0, 0.0, 0.0, 0.0, 0.0, 0.0, 0.0, 0.0, 0.0, 0.0, 1.700950493321129E9, 0.0, 2023-11-25 17:14:53.321
106.0, 27422.19298150456, 36832.38915591111, -47316.45254092843, -42665.59096164596, -60362.76344809097, -16845.772188397907, -6478.250798970556, -26435.765795202948, -0.182, 0.934, 0.274, 192.0, 0.0, 0.0, 0.0, 0.0, 0.0, 0.0, 0.0, 0.0, 0.0, 1.700950493324112E9, 0.0, 2023-11-25 17:14:53.324
107.0, 27349.795681213818, 36753.107518328135, -47347.70027967695, -42718.29637507157, -60420.25213483002, -16927.087834726313, -6508.738578407595, -26468.645211296705, -0.18, 0.936, 0.276, 192.0, 250.0, 96.0, 29.0, 64.0, 8.0, 160.0, 0.0, 0.0, 0.0, 1.700950493327133E9, 0.0, 2023-11-25 17:14:53.327
108.0, 27354.42249231607, 36802.84014974119, -47334.33393649268, -42684.58994443297, -60419.13454760725, -16902.21034314756, -6626.040533309047, -26444.594734262795, -0.18, 0.936, 0.276, 192.0, 0.0, 0.0, 0.0, 0.0, 0.0, 0.0, 0.0, 0.0, 0.0, 1.70095049333219E9, 0.0, 2023-11-25 17:14:53.332
109.0, 27403.641033606655, 36879.43957798953, -47280.801508522214, -42622.407391358305, -60372.53116041794, -16860.6808019496, -6746.270566734143, -26396.851408106257, -0.18, 0.936, 0.276, 192.0, 0.0, 0.0, 0.0, 0.0, 0.0, 0.0, 0.0, 0.0, 0.0, 1.700950493336182E9, 0.0, 2023-11-25 17:14:53.336
110.0, 27404.155123729128, 36839.161734481066, -47294.03374123976, -42638.65710957731, -60338.75767454597, -16811.95399903703, -6501.965999837637, -26415.22454204852, -0.18, 0.936, 0.276, 192.0, 0.0, 0.0, 0.0, 0.0, 0.0, 0.0, 0.0, 0.0, 0.0, 1.700950493340218E9, 0.0, 2023-11-25 17:14:53.340
111.0, 27330.774346682352, 36741.59636993365, -47332.90342484754, -42703.76774117562, -60396.24636128502, -16897.002386689473, -6467.8572377988385, -26449.869745954245, -0.18, 0.936, 0.276, 192.0, 0.0, 0.0, 0.0, 0.0, 0.0, 0.0, 0.0, 0.0, 0.0, 1.70095049334421E9, 0.0, 2023-11-25 17:14:53.344
112.0, 27343.06780613277, 36792.3348298472, -47316.541947906255, -42669.34605471445, -60392.60302693881, -16878.450438791566, -6588.489602624131, -26428.43442302161, -0.18, 0.936, 0.276, 192.0, 0.0, 0.0, 0.0, 0.0, 0.0, 0.0, 0.0, 0.0, 0.0, 1.700950493347429E9, 0.0, 2023-11-25 17:14:53.347
113.0, 27390.408800889112, 36879.46192973399, -47276.42056660898, -42620.239272146144, -60367.43496268213, -16856.657487947643, -6729.66322060385, -26382.03220153239, -0.18, 0.936, 0.276, 192.0, 0.0, 0.0, 0.0, 0.0, 0.0, 0.0, 0.0, 0.0, 0.0, 1.700950493351212E9, 0.0, 2023-11-25 17:14:53.351
114.0, 27419.399013447644, 36872.24231627492, -47275.63825555304, -42622.608557058404, -60328.52057558544, -16806.47782164548, -6544.00963115807, -26403.288710509387, -0.18, 0.936, 0.276, 192.0, 0.0, 0.0, 0.0, 0.0, 0.0, 0.0, 0.0, 0.0, 0.0, 1.700950493355252E9, 0.0, 2023-11-25 17:14:53.355
115.0, 27342.397253799114, 36758.11430908612, -47338.29019526127, -42718.07285762702, -60404.82943115586, -16912.20157291908, -6454.401487636744, -26505.235016970044, -0.18, 0.936, 0.276, 192.0, 0.0, 0.0, 0.0, 0.0, 0.0, 0.0, 0.0, 0.0, 0.0, 1.700950493359198E9, 0.0, 2023-11-25 17:14:53.359
116.0, 27330.036739115327, 36769.98308539189, -47338.357250494635, -42711.21087207924, -60426.845899444335, -16919.197668933593, -6584.063957221981, -26479.731676546537, -0.18, 0.936, 0.276, 192.0, 0.0, 0.0, 0.0, 0.0, 0.0, 0.0, 0.0, 0.0, 0.0, 1.700950493364252E9, 0.0, 2023-11-25 17:14:53.364
117.0, 27366.60419304421, 36849.5999991417, -47298.2135174529, -42658.483106909174, -60405.43292825615, -16884.32894758331, -6728.679743847817, -26381.272242220908, -0.18, 0.9420000000000001, 0.272, 192.0, 250.0, 96.0, 29.0, 112.0, 8.0, 128.0, 0.0, 0.0, 0.0, 1.700950493369289E9, 0.0, 2023-11-25 17:14:53.369
118.0, 27401.42821090558, 36862.362845225674, -47279.661569555, -42638.50064736613, -60355.40972416517, -16821.922877064095, -6605.253410965612, -26360.77569255539, -0.18, 0.9420000000000001, 0.272, 192.0, 0.0, 0.0, 0.0, 0.0, 0.0, 0.0, 0.0, 0.0, 0.0, 1.700950493373292E9, 0.0, 2023-11-25 17:14:53.373
119.0, 27343.17956485505, 36761.44471900997, -47333.64103241456, -42716.61999423742, -60404.270637544476, -16891.995595931483, -6440.096371185347, -26435.274056824932, -0.18, 0.9420000000000001, 0.272, 192.0, 0.0, 0.0, 0.0, 0.0, 0.0, 0.0, 0.0, 0.0, 0.0, 1.700950493376276E9, 0.0, 2023-11-25 17:14:53.376
120.0, 27321.140744822114, 36756.30381778524, -47341.5759016962, -42720.24097683919, -60432.32207683588, -16923.466852124555, -6556.414849330766, -26441.867821439246, -0.18, 0.9420000000000001, 0.272, 192.0, 0.0, 0.0, 0.0, 0.0, 0.0, 0.0, 0.0, 0.0, 0.0, 1.700950493379358E9, 0.0, 2023-11-25 17:14:53.379
121.0, 27356.009466172396, 36839.63112111463, -47313.099779260134, -42671.93885707127, -60416.4076347837, -16903.663206537152, -6705.500984847664, -26405.814457632838, -0.18, 0.9420000000000001, 0.272, 192.0, 0.0, 0.0, 0.0, 0.0, 0.0, 0.0, 0.0, 0.0, 0.0, 1.700950493383387E9, 0.0, 2023-11-25 17:14:53.383
122.0, 27408.357251686724, 36877.65143843311, -47277.78402302075, -42631.6610135628, -60355.879110798734, -16842.397074985158, -6662.943263404759, -26379.953489298045, -0.18, 0.9420000000000001, 0.272, 192.0, 0.0, 0.0, 0.0, 0.0, 0.0, 0.0, 0.0, 0.0, 0.0, 1.700950493387336E9, 0.0, 2023-11-25 17:14:53.387
123.0, 27363.676114520564, 36783.90822218755, -47331.71878239141, -42702.06900859702, -60387.19390478062, -16886.67588075112, -6445.952528232638, -26457.826966980338, -0.18, 0.9420000000000001, 0.272, 192.0, 0.0, 0.0, 0.0, 0.0, 0.0, 0.0, 0.0, 0.0, 0.0, 1.700950493392669E9, 0.0, 2023-11-25 17:14:53.392
124.0, 27313.898779618597, 36739.472954210396, -47352.59531171266, -42729.874578699426, -60436.971239682585, -16943.96340179007, -6549.48580854962, -26470.32159213085, -0.18, 0.9420000000000001, 0.272, 192.0, 0.0, 0.0, 0.0, 0.0, 0.0, 0.0, 0.0, 0.0, 0.0, 1.700950493396325E9, 0.0, 2023-11-25 17:14:53.396
125.0, 27344.36420731118, 36811.35616437867, -47325.773218366296, -42683.47235721021, -60425.638905243744, -16924.293866669403, -6693.878077730904, -26444.393568562697, -0.18, 0.9420000000000001, 0.272, 192.0, 0.0, 0.0, 0.0, 0.0, 0.0, 0.0, 0.0, 0.0, 0.0, 1.700950493399337E9, 0.0, 2023-11-25 17:14:53.399
126.0, 27407.060850508315, 36872.30937150829, -47277.940485231935, -42627.90592049431, -60364.484532414026, -16867.05104911936, -6717.593278597985, -26410.9330071131, -0.18, 0.9420000000000001, 0.272, 192.0, 0.0, 0.0, 0.0, 0.0, 0.0, 0.0, 0.0, 0.0, 0.0, 1.700950493404437E9, 0.0, 2023-11-25 17:14:53.404
127.0, 27370.158120412605, 36784.95875417695, -47329.46125620142, -42686.02045607811, -60377.761468620476, -16875.05297363436, -6455.228502181591, -26460.062141425868, -0.188, 0.936, 0.27, 192.0, 250.0, 32.0, 29.0, 64.0, 8.0, 112.0, 0.0, 0.0, 0.0, 1.700950493407432E9, 0.0, 2023-11-25 17:14:53.407
128.0, 27315.016366841362, 36721.926834812984, -47348.79551515526, -42719.07868612751, -60423.73900696504, -16941.08002675534, -6526.061180360459, -26468.131121174232, -0.188, 0.936, 0.27, 192.0, 0.0, 0.0, 0.0, 0.0, 0.0, 0.0, 0.0, 0.0, 0.0, 1.700950493411427E9, 0.0, 2023-11-25 17:14:53.411
129.0, 27343.917172422072, 36793.89945195907, -47323.98507880987, -42668.340226213964, -60407.28812304594, -16906.09954668278, -6653.93551038927, -26438.380949304217, -0.188, 0.936, 0.27, 192.0, 0.0, 0.0, 0.0, 0.0, 0.0, 0.0, 0.0, 0.0, 0.0, 1.700950493415545E9, 0.0, 2023-11-25 17:14:53.415
130.0, 27399.70712658252, 36861.893458592116, -47276.08529044215, -42613.64550753182, -60358.62837536674, -16859.4291042601, -6734.133569494912, -26386.03316378989, -0.188, 0.936, 0.27, 192.0, 0.0, 0.0, 0.0, 0.0, 0.0, 0.0, 0.0, 0.0, 0.0, 1.700950493419439E9, 0.0, 2023-11-25 17:14:53.419
131.0, 27391.079353222773, 36807.422257354534, -47301.74509307684, -42651.39760391684, -60344.72559031554, -16834.75277838144, -6473.936912290682, -26420.164277573145, -0.188, 0.936, 0.27, 192.0, 0.0, 0.0, 0.0, 0.0, 0.0, 0.0, 0.0, 0.0, 0.0, 1.700950493424397E9, 0.0, 2023-11-25 17:14:53.424
132.0, 27320.090212832718, 36720.876302823584, -47329.528311434784, -42712.730790702204, -60402.035463098946, -16917.901267755184, -6493.785261366995, -26452.931934944623, -0.188, 0.936, 0.27, 192.0, 0.0, 0.0, 0.0, 0.0, 0.0, 0.0, 0.0, 0.0, 0.0, 1.700950493427419E9, 0.0, 2023-11-25 17:14:53.427
133.0, 27316.871561631153, 36755.18623056248, -47324.45446544343, -42691.36252300293, -60408.51746899098, -16900.936293713607, -6610.550774401519, -26426.04278636489, -0.188, 0.936, 0.27, 192.0, 0.0, 0.0, 0.0, 0.0, 0.0, 0.0, 0.0, 0.0, 0.0, 1.700950493431472E9, 0.0, 2023-11-25 17:14:53.431
134.0, 27371.633335546656, 36827.80704829777, -47275.30297938621, -42636.86897002089, -60367.99375629351, -16869.062706120338, -6741.3308312095205, -26385.988460300978, -0.188, 0.936, 0.27, 192.0, 0.0, 0.0, 0.0, 0.0, 0.0, 0.0, 0.0, 0.0, 0.0, 1.700950493435558E9, 0.0, 2023-11-25 17:14:53.435
135.0, 27385.312603153303, 36798.70507701696, -47287.730549303364, -42653.029281262076, -60336.81307277836, -16827.80138585584, -6511.443139486688, -26420.99129211799, -0.188, 0.936, 0.27, 192.0, 0.0, 0.0, 0.0, 0.0, 0.0, 0.0, 0.0, 0.0, 0.0, 1.700950493439584E9, 0.0, 2023-11-25 17:14:53.439
136.0, 27313.585855196223, 36702.637279348055, -47330.19886376845, -42724.55486351906, -60398.68270143065, -16916.671921810143, -6469.868894799816, -26462.9455164606, -0.188, 0.936, 0.27, 192.0, 0.0, 0.0, 0.0, 0.0, 0.0, 0.0, 0.0, 0.0, 0.0, 1.700950493443489E9, 0.0, 2023-11-25 17:14:53.443
137.0, 27320.671358188556, 36742.4233844785, -47316.385485695064, -42694.000028848655, -60399.24149504203, -16903.171468159137, -6589.361320657888, -26439.207963849065, -0.19, 0.93, 0.276, 192.0, 250.0, 16.0, 29.0, 16.0, 8.0, 160.0, 0.0, 0.0, 0.0, 1.700950493447544E9, 0.0, 2023-11-25 17:14:53.447
138.0, 27366.5594895553, 36822.666147073054, -47271.61494155109, -42639.10414446642, -60370.29598597241, -16876.72935446851, -6733.261851461155, -26380.400524187153, -0.19, 0.93, 0.276, 192.0, 0.0, 0.0, 0.0, 0.0, 0.0, 0.0, 0.0, 0.0, 0.0, 1.700950493452483E9, 0.0, 2023-11-25 17:14:53.452
139.0, 27391.36992590069, 36815.98297548091, -47268.19512464942, -42635.617272331394, -60328.11824418524, -16818.391301440155, -6548.72584923814, -26377.852425319248, -0.19, 0.93, 0.276, 192.0, 0.0, 0.0, 0.0, 0.0, 0.0, 0.0, 0.0, 0.0, 0.0, 1.700950493455504E9, 0.0, 2023-11-25 17:14:53.455
140.0, 27310.143686550105, 36698.54691011273, -47328.500131189845, -42726.23124435321, -60397.63216944125, -16912.223924663536, -6439.17994966268, -26445.220583107544, -0.19, 0.93, 0.276, 192.0, 0.0, 0.0, 0.0, 0.0, 0.0, 0.0, 0.0, 0.0, 0.0, 1.700950493459553E9, 0.0, 2023-11-25 17:14:53.459
141.0, 27297.537302677312, 36712.85202656413, -47329.41655271251, -42720.30803207255, -60419.46982377408, -16933.480433640532, -6578.163096685779, -26451.926106444134, -0.19, 0.93, 0.276, 192.0, 0.0, 0.0, 0.0, 0.0, 0.0, 0.0, 0.0, 0.0, 0.0, 1.700950493463558E9, 0.0, 2023-11-25 17:14:53.463
142.0, 27340.586762498235, 36797.073399671724, -47292.04443598323, -42667.26734248011, -60399.71088167559, -16913.453270608577, -6733.910052050359, -26412.519980969428, -0.19, 0.93, 0.276, 192.0, 0.0, 0.0, 0.0, 0.0, 0.0, 0.0, 0.0, 0.0, 0.0, 1.700950493467522E9, 0.0, 2023-11-25 17:14:53.467
143.0, 27387.50307410992, 36815.51358884735, -47265.31174961469, -42636.667804320794, -60342.71393331456, -16850.62251694471, -6625.705257142217, -26402.595806431273, -0.19, 0.93, 0.276, 192.0, 0.0, 0.0, 0.0, 0.0, 0.0, 0.0, 0.0, 0.0, 0.0, 1.700950493471554E9, 0.0, 2023-11-25 17:14:53.471
144.0, 27330.394367026613, 36718.12703825558, -47318.97828805188, -42709.75800868965, -60388.69147165913, -16914.436747364613, -6448.165350933713, -26481.139836447222, -0.19, 0.93, 0.276, 192.0, 0.0, 0.0, 0.0, 0.0, 0.0, 0.0, 0.0, 0.0, 0.0, 1.700950493475591E9, 0.0, 2023-11-25 17:14:53.475
145.0, 27297.984337566417, 36701.83261654766, -47332.188169024965, -42717.44700878227, -60423.560193009405, -16948.187881492126, -6565.512009324076, -26471.61799330926, -0.19, 0.93, 0.276, 192.0, 0.0, 0.0, 0.0, 0.0, 0.0, 0.0, 0.0, 0.0, 0.0, 1.700950493479606E9, 0.0, 2023-11-25 17:14:53.479
146.0, 27338.262181074882, 36786.47867279991, -47301.432168654464, -42664.96511280121, -60404.18123056665, -16919.197668933593, -6710.127795949912, -26405.36742274373, -0.19, 0.93, 0.276, 192.0, 0.0, 0.0, 0.0, 0.0, 0.0, 0.0, 0.0, 0.0, 0.0, 1.700950493484555E9, 0.0, 2023-11-25 17:14:53.484
147.0, 27397.918987026096, 36832.07623148873, -47266.764613004285, -42624.2625861481, -60345.954936260576, -16858.62444145971, -6674.052080399047, -26373.382076428185, -0.186, 0.932, 0.268, 192.0, 250.0, 48.0, 29.0, 32.0, 8.0, 96.0, 0.0, 0.0, 0.0, 1.700950493488121E9, 0.0, 2023-11-25 17:14:53.488
148.0, 27356.255335361402, 36744.166820546016, -47320.811131097216, -42694.58117420449, -60374.676927885645, -16895.907151211162, -6445.729010788084, -26440.794937705392, -0.186, 0.932, 0.268, 192.0, 0.0, 0.0, 0.0, 0.0, 0.0, 0.0, 0.0, 0.0, 0.0, 1.700950493491621E9, 0.0, 2023-11-25 17:14:53.491
149.0, 27309.45078247199, 36698.74807581283, -47339.76541039532, -42721.179750106305, -60420.22978308556, -16950.44540768211, -6548.412924815765, -26448.305123842376, -0.186, 0.932, 0.268, 192.0, 0.0, 0.0, 0.0, 0.0, 0.0, 0.0, 0.0, 0.0, 0.0, 1.70095049349563E9, 0.0, 2023-11-25 17:14:53.495
150.0, 27335.356454295692, 36769.044312124766, -47315.759636850315, -42677.95147632974, -60412.33961729284, -16927.981904504526, -6685.898504960359, -26420.074870595323, -0.186, 0.932, 0.268, 192.0, 0.0, 0.0, 0.0, 0.0, 0.0, 0.0, 0.0, 0.0, 0.0, 1.700950493499613E9, 0.0, 2023-11-25 17:14:53.499
151.0, 27394.633280591166, 36825.81774304125, -47269.69269152793, -42626.58716757145, -60358.29309919991, -16870.940252654585, -6716.051008230568, -26379.88643406468, -0.186, 0.932, 0.268, 192.0, 0.0, 0.0, 0.0, 0.0, 0.0, 0.0, 0.0, 0.0, 0.0, 1.70095049350572E9, 0.0, 2023-11-25 17:14:53.505
152.0, 27360.278649363358, 36743.585675190174, -47324.722686376896, -42690.088473568976, -60376.55447441989, -16882.652566749166, -6457.731897560585, -26446.606391263773, -0.186, 0.932, 0.268, 192.0, 0.0, 0.0, 0.0, 0.0, 0.0, 0.0, 0.0, 0.0, 0.0, 1.700950493508656E9, 0.0, 2023-11-25 17:14:53.508
153.0, 27306.030965570328, 36685.560546584195, -47346.44858198745, -42730.209854866254, -60425.862422688304, -16958.760256619484, -6533.459607775165, -26476.200100922597, -0.186, 0.932, 0.268, 192.0, 0.0, 0.0, 0.0, 0.0, 0.0, 0.0, 0.0, 0.0, 0.0, 1.700950493512679E9, 0.0, 2023-11-25 17:14:53.512
154.0, 27332.674244961054, 36758.91897188652, -47320.65466888603, -42681.59481067596, -60408.24924805752, -16921.5446021014, -6650.493341743153, -26429.596713733285, -0.186, 0.932, 0.268, 192.0, 0.0, 0.0, 0.0, 0.0, 0.0, 0.0, 0.0, 0.0, 0.0, 1.700950493515748E9, 0.0, 2023-11-25 17:14:53.515
155.0, 27383.502111852424, 36826.75651630837, -47274.92299973047, -42630.05168796202, -60361.86937831275, -16878.20456960256, -6731.205490971267, -26385.27320447841, -0.186, 0.932, 0.268, 192.0, 0.0, 0.0, 0.0, 0.0, 0.0, 0.0, 0.0, 0.0, 0.0, 1.700950493519778E9, 0.0, 2023-11-25 17:14:53.519
156.0, 27372.795626258332, 36770.31836155872, -47305.701351845426, -42668.63079889188, -60350.53704387392, -16853.684705935088, -6474.830982068895, -26435.207001591567, -0.186, 0.932, 0.268, 192.0, 0.0, 0.0, 0.0, 0.0, 0.0, 0.0, 0.0, 0.0, 0.0, 1.700950493523654E9, 0.0, 2023-11-25 17:14:53.523
157.0, 27302.03000331283, 36678.67620929196, -47339.0725063172, -42729.47224729923, -60411.33378879235, -16936.073235997348, -6491.058348543447, -26455.435330323617, -0.186, 0.936, 0.266, 192.0, 250.0, 48.0, 29.0, 64.0, 8.0, 80.0, 0.0, 0.0, 0.0, 1.700950493527699E9, 0.0, 2023-11-25 17:14:53.527
158.0, 27319.732584921432, 36730.398145961546, -47320.43115144147, -42691.36252300293, -60404.270637544476, -16905.943084471593, -6605.87925981036, -26413.257588536453, -0.186, 0.936, 0.266, 192.0, 0.0, 0.0, 0.0, 0.0, 0.0, 0.0, 0.0, 0.0, 0.0, 1.700950493531734E9, 0.0, 2023-11-25 17:14:53.531
159.0, 27375.142559426138, 36814.552463835775, -47272.68782528494, -42635.416106631295, -60366.20561673708, -16872.750743955465, -6733.865348561448, -26369.537576381874, -0.186, 0.936, 0.266, 192.0, 0.0, 0.0, 0.0, 0.0, 0.0, 0.0, 0.0, 0.0, 0.0, 1.70095049353575E9, 0.0, 2023-11-25 17:14:53.535
160.0, 27386.89957700963, 36788.44562631197, -47285.920058002484, -42651.263493450104, -60337.46127336756, -16830.170670768104, -6507.553935951464, -26404.65216692116, -0.186, 0.936, 0.266, 192.0, 0.0, 0.0, 0.0, 0.0, 0.0, 0.0, 0.0, 0.0, 0.0, 1.700950493539796E9, 0.0, 2023-11-25 17:14:53.539
161.0, 27312.915302862562, 36686.32050589568, -47332.43403821398, -42727.39353506488, -60403.1083468328, -16925.478509125533, -6461.732859818085, -26465.068932183854, -0.186, 0.936, 0.266, 192.0, 0.0, 0.0, 0.0, 0.0, 0.0, 0.0, 0.0, 0.0, 0.0, 1.700950493542794E9, 0.0, 2023-11-25 17:14:53.542
162.0, 27309.987224338918, 36714.28253820926, -47328.902462590035, -42708.752180189156, -60417.10053886182, -16924.606791091777, -6584.578047344452, -26451.344961088296, -0.186, 0.936, 0.266, 192.0, 0.0, 0.0, 0.0, 0.0, 0.0, 0.0, 0.0, 0.0, 0.0, 1.700950493546824E9, 0.0, 2023-11-25 17:14:53.546
163.0, 27363.4078935871, 36801.14141716259, -47280.91326724449, -42652.13521148387, -60388.57971293685, -16901.092755924794, -6737.642793374395, -26388.402448702152, -0.186, 0.936, 0.266, 192.0, 0.0, 0.0, 0.0, 0.0, 0.0, 0.0, 0.0, 0.0, 0.0, 1.700950493551837E9, 0.0, 2023-11-25 17:14:53.551
164.0, 27404.75862082942, 36812.92078649054, -47264.462383325386, -42639.05944097751, -60334.37673263273, -16841.480653462488, -6566.897817480304, -26392.22459700401, -0.186, 0.936, 0.266, 192.0, 0.0, 0.0, 0.0, 0.0, 0.0, 0.0, 0.0, 0.0, 0.0, 1.700950493555786E9, 0.0, 2023-11-25 17:14:53.555
165.0, 27326.862791402673, 36699.68684907995, -47326.15319802203, -42729.74046823269, -60401.879000887755, -16932.787529562418, -6445.103161943336, -26460.822100737347, -0.186, 0.936, 0.266, 192.0, 0.0, 0.0, 0.0, 0.0, 0.0, 0.0, 0.0, 0.0, 0.0, 1.700950493559751E9, 0.0, 2023-11-25 17:14:53.559
166.0, 27306.7462213929, 36701.69850608093, -47325.72851487738, -42720.68801172829, -60421.39207379724, -16945.192747735113, -6575.905570495793, -26442.80659470637, -0.186, 0.936, 0.266, 192.0, 0.0, 0.0, 0.0, 0.0, 0.0, 0.0, 0.0, 0.0, 0.0, 1.700950493563768E9, 0.0, 2023-11-25 17:14:53.563
167.0, 27341.12320436516, 36775.77218720582, -47294.97251450688, -42673.7717001166, -60405.589390467336, -16930.753520816987, -6733.977107283725, -26416.94562637158, -0.184, 0.934, 0.262, 192.0, 250.0, 64.0, 29.0, 48.0, 8.0, 48.0, 0.0, 0.0, 0.0, 1.700950493567807E9, 0.0, 2023-11-25 17:14:53.567
168.0, 27382.540986840846, 36792.04425716928, -47277.49345034283, -42649.609464360416, -60355.0967997428, -16876.930520168607, -6640.50211197163, -26433.530620757418, -0.184, 0.934, 0.262, 192.0, 0.0, 0.0, 0.0, 0.0, 0.0, 0.0, 0.0, 0.0, 0.0, 1.700950493570856E9, 0.0, 2023-11-25 17:14:53.570
169.0, 27320.425488999546, 36685.76171228429, -47340.1230383066, -42730.43337231081, -60406.12583233426, -16941.25884071098, -6459.005946994537, -26504.072726258368, -0.184, 0.934, 0.262, 192.0, 0.0, 0.0, 0.0, 0.0, 0.0, 0.0, 0.0, 0.0, 0.0, 1.700950493577002E9, 0.0, 2023-11-25 17:14:53.577
170.0, 27287.434314183512, 36669.132014409544, -47350.33778552268, -42733.65202351237, -60436.63596351576, -16965.26461425598, -6570.496448337609, -26471.81915900936, -0.184, 0.934, 0.262, 192.0, 0.0, 0.0, 0.0, 0.0, 0.0, 0.0, 0.0, 0.0, 0.0, 1.700950493581614E9, 0.0, 2023-11-25 17:14:53.581
171.0, 27329.723814692952, 36758.24841955285, -47313.5691658937, -42675.55983967303, -60412.54078299294, -16934.82153830785, -6714.285220418599, -26416.967978116034, -0.184, 0.934, 0.262, 192.0, 0.0, 0.0, 0.0, 0.0, 0.0, 0.0, 0.0, 0.0, 0.0, 1.70095049358488E9, 0.0, 2023-11-25 17:14:53.584
172.0, 27399.483609137966, 36814.99949872488, -47266.04935718171, -42623.0108884586, -60345.530253115925, -16867.542787497376, -6686.166725893823, -26386.770771356914, -0.184, 0.934, 0.262, 192.0, 0.0, 0.0, 0.0, 0.0, 0.0, 0.0, 0.0, 0.0, 0.0, 1.700950493589994E9, 0.0, 2023-11-25 17:14:53.589
173.0, 27359.675152263066, 36730.28638723927, -47312.87626181558, -42685.64047642237, -60367.36790744876, -16894.878970966216, -6446.936004988672, -26450.875574454734, -0.184, 0.934, 0.262, 192.0, 0.0, 0.0, 0.0, 0.0, 0.0, 0.0, 0.0, 0.0, 0.0, 1.70095049359287E9, 0.0, 2023-11-25 17:14:53.592
174.0, 27297.760820121865, 36673.98234295635, -47337.77610513879, -42719.92805241681, -60420.43094878566, -16953.507596672487, -6536.074761876436, -26444.505327284973, -0.184, 0.934, 0.262, 192.0, 0.0, 0.0, 0.0, 0.0, 0.0, 0.0, 0.0, 0.0, 0.0, 1.700950493595913E9, 0.0, 2023-11-25 17:14:53.595
175.0, 27318.59264595421, 36742.44573622295, -47320.74407586385, -42683.382950232386, -60416.362931294796, -16933.122805729246, -6677.449545556253, -26411.491800724485, -0.184, 0.934, 0.262, 192.0, 0.0, 0.0, 0.0, 0.0, 0.0, 0.0, 0.0, 0.0, 0.0, 1.700950493598935E9, 0.0, 2023-11-25 17:14:53.598
176.0, 27372.4603500915, 36803.84597824168, -47281.06972945568, -42636.7125078097, -60367.3008522154, -16882.47375279352, -6723.09180773399, -26382.45688467704, -0.184, 0.934, 0.262, 192.0, 0.0, 0.0, 0.0, 0.0, 0.0, 0.0, 0.0, 0.0, 0.0, 1.700950493603019E9, 0.0, 2023-11-25 17:14:53.603
177.0, 27351.337951581238, 36730.6216634061, -47322.71102937592, -42686.69100841177, -60371.01124179498, -16877.91399692464, -6462.693984829662, -26435.00583589147, -0.184, 0.9380000000000001, 0.27, 192.0, 250.0, 64.0, 29.0, 80.0, 8.0, 112.0, 0.0, 0.0, 0.0, 1.70095049360801E9, 0.0, 2023-11-25 17:14:53.608
178.0, 27292.12818051913, 36661.13008989455, -47345.755677909336, -42724.84543619698, -60420.118024363284, -16945.572727390852, -6524.295392548489, -26454.496557056496, -0.184, 0.9380000000000001, 0.27, 192.0, 0.0, 0.0, 0.0, 0.0, 0.0, 0.0, 0.0, 0.0, 0.0, 1.700950493611959E9, 0.0, 2023-11-25 17:14:53.611
179.0, 27304.622805669645, 36725.3690034591, -47334.646860915054, -42689.7755491466, -60419.00043714052, -16925.567916103355, -6651.856798154927, -26443.164222617655, -0.184, 0.9380000000000001, 0.27, 192.0, 0.0, 0.0, 0.0, 0.0, 0.0, 0.0, 0.0, 0.0, 0.0, 1.700950493615949E9, 0.0, 2023-11-25 17:14:53.615
180.0, 27363.65376277611, 36801.29787937378, -47282.07555795617, -42631.77277228508, -60369.55837840538, -16881.06559289284, -6747.47756093473, -26380.1770067426, -0.184, 0.9380000000000001, 0.27, 192.0, 0.0, 0.0, 0.0, 0.0, 0.0, 0.0, 0.0, 0.0, 0.0, 1.700950493618977E9, 0.0, 2023-11-25 17:14:53.618
181.0, 27358.959896440494, 36749.15125955955, -47310.663439114505, -42665.81447909051, -60353.59923286429, -16854.936403624582, -6485.559819407442, -26410.57537920182, -0.184, 0.9380000000000001, 0.27, 192.0, 0.0, 0.0, 0.0, 0.0, 0.0, 0.0, 0.0, 0.0, 0.0, 1.700950493622951E9, 0.0, 2023-11-25 17:14:53.622
182.0, 27287.92605256153, 36663.63348527354, -47344.59338719767, -42728.175846120816, -60414.395977782726, -16945.371561690758, -6491.058348543447, -26442.270152839443, -0.184, 0.9380000000000001, 0.27, 192.0, 0.0, 0.0, 0.0, 0.0, 0.0, 0.0, 0.0, 0.0, 0.0, 1.70095049362698E9, 0.0, 2023-11-25 17:14:53.626
183.0, 27291.614090396655, 36711.287404452254, -47334.60215742614, -42702.98543011969, -60419.02278888498, -16936.25204995299, -6619.849100094927, -26433.150641101678, -0.184, 0.9380000000000001, 0.27, 192.0, 0.0, 0.0, 0.0, 0.0, 0.0, 0.0, 0.0, 0.0, 0.0, 1.700950493630966E9, 0.0, 2023-11-25 17:14:53.630
184.0, 27346.42056780107, 36796.29108861579, -47279.95214223291, -42644.9155980248, -60377.22502675355, -16905.808974004864, -6759.5251511961405, -26377.919480552613, -0.184, 0.9380000000000001, 0.27, 192.0, 0.0, 0.0, 0.0, 0.0, 0.0, 0.0, 0.0, 0.0, 0.0, 1.700950493636006E9, 0.0, 2023-11-25 17:14:53.636
185.0, 27368.481739578456, 36773.51466101583, -47281.33795038914, -42656.62791211938, -60340.03172397992, -16858.66914494862, -6539.159302611269, -26401.90290235316, -0.184, 0.9380000000000001, 0.27, 192.0, 0.0, 0.0, 0.0, 0.0, 0.0, 0.0, 0.0, 0.0, 0.0, 1.700950493640026E9, 0.0, 2023-11-25 17:14:53.640
186.0, 27291.412924696557, 36666.53921205273, -47333.261052758826, -42740.491657315695, -60410.7079399476, -16962.22477701006, -6483.905790317749, -26476.08834220032, -0.184, 0.9380000000000001, 0.27, 192.0, 0.0, 0.0, 0.0, 0.0, 0.0, 0.0, 0.0, 0.0, 0.0, 1.700950493644002E9, 0.0, 2023-11-25 17:14:53.644
187.0, 27286.87552057213, 36700.960898513906, -47327.98604106737, -42718.36343030494, -60420.14037610774, -16959.40845720869, -6613.143576758334, -26456.508214057474, -0.182, 0.9420000000000001, 0.27, 192.0, 250.0, 80.0, 29.0, 112.0, 8.0, 112.0, 0.0, 0.0, 0.0, 1.700950493648006E9, 0.0, 2023-11-25 17:14:53.648
188.0, 27344.274800333358, 36797.43102758301, -47276.26410439779, -42651.39760391684, -60382.99177682302, -16920.806994534374, -6759.882779107425, -26379.75232359795, -0.182, 0.9420000000000001, 0.27, 192.0, 0.0, 0.0, 0.0, 0.0, 0.0, 0.0, 0.0, 0.0, 0.0, 1.700950493651012E9, 0.0, 2023-11-25 17:14:53.651
189.0, 27369.018181445383, 36787.909184445045, -47281.89674400053, -42650.63764460536, -60345.6420118382, -16870.828493932306, -6593.027006748558, -26408.966053601034, -0.182, 0.9420000000000001, 0.27, 192.0, 0.0, 0.0, 0.0, 0.0, 0.0, 0.0, 0.0, 0.0, 0.0, 1.700950493657143E9, 0.0, 2023-11-25 17:14:53.657
190.0, 27298.207855010973, 36682.140729682535, -47344.25811103083, -42735.61897702444, -60408.29395154643, -16955.40749495119, -6471.366461678322, -26473.517891587962, -0.182, 0.9420000000000001, 0.27, 192.0, 0.0, 0.0, 0.0, 0.0, 0.0, 0.0, 0.0, 0.0, 0.0, 1.700950493660013E9, 0.0, 2023-11-25 17:14:53.660
191.0, 27290.63061364062, 36699.57509035768, -47339.78776213977, -42722.252633840166, -60424.23074534306, -16962.87297759926, -6596.268009694578, -26452.90958320017, -0.182, 0.9420000000000001, 0.27, 192.0, 0.0, 0.0, 0.0, 0.0, 0.0, 0.0, 0.0, 0.0, 0.0, 1.700950493665054E9, 0.0, 2023-11-25 17:14:53.665
192.0, 27340.69852122051, 36789.78673097929, -47297.3641511636, -42665.054519779034, -60399.219143297574, -16936.453215653088, -6743.230729488222, -26402.30523375335, -0.182, 0.9420000000000001, 0.27, 192.0, 0.0, 0.0, 0.0, 0.0, 0.0, 0.0, 0.0, 0.0, 0.0, 1.700950493669071E9, 0.0, 2023-11-25 17:14:53.669
193.0, 27388.95593749952, 36815.51358884735, -47266.004653692806, -42635.6619758203, -60341.93162225862, -16869.509741009446, -6641.93262361677, -26390.0788295363, -0.182, 0.9420000000000001, 0.27, 192.0, 0.0, 0.0, 0.0, 0.0, 0.0, 0.0, 0.0, 0.0, 0.0, 1.700950493672104E9, 0.0, 2023-11-25 17:14:53.672
194.0, 27324.806430912788, 36712.56145388621, -47324.230947998876, -42720.24097683919, -60388.62441642576, -16934.01687550746, -6446.84659801085, -26466.81236825137, -0.182, 0.9420000000000001, 0.27, 192.0, 0.0, 0.0, 0.0, 0.0, 0.0, 0.0, 0.0, 0.0, 0.0, 1.700950493676761E9, 0.0, 2023-11-25 17:14:53.676
195.0, 27284.59564263769, 36687.0581134627, -47338.64782317255, -42738.72586950372, -60427.739969222544, -16975.635823683242, -6563.276834878545, -26463.549013560896, -0.182, 0.9420000000000001, 0.27, 192.0, 0.0, 0.0, 0.0, 0.0, 0.0, 0.0, 0.0, 0.0, 0.0, 1.700950493679128E9, 0.0, 2023-11-25 17:14:53.679
196.0, 27323.577084967743, 36772.57588774871, -47305.23196521187, -42684.67935141079, -60409.16566958019, -16942.711704100573, -6711.603011083962, -26413.972844359025, -0.182, 0.9420000000000001, 0.27, 192.0, 0.0, 0.0, 0.0, 0.0, 0.0, 0.0, 0.0, 0.0, 0.0, 1.700950493683194E9, 0.0, 2023-11-25 17:14:53.683
197.0, 27373.041495447338, 36816.1394376921, -47271.525534573266, -42643.41803114629, -60356.728477088036, -16881.847903948772, -6693.922781219814, -26383.79798934436, -0.186, 0.936, 0.266, 192.0, 250.0, 48.0, 29.0, 64.0, 8.0, 80.0, 0.0, 0.0, 0.0, 1.700950493687098E9, 0.0, 2023-11-25 17:14:53.687
198.0, 27327.667454203067, 36727.85004709364, -47326.8684538446, -42712.75314244666, -60383.03648031193, -16906.032491449416, -6451.272243413001, -26445.37704531873, -0.186, 0.936, 0.266, 192.0, 0.0, 0.0, 0.0, 0.0, 0.0, 0.0, 0.0, 0.0, 0.0, 1.700950493691171E9, 0.0, 2023-11-25 17:14:53.691
199.0, 27276.370200678135, 36681.581936071154, -47345.91214012053, -42743.017404439146, -60430.64569600174, -16963.901157844204, -6545.82012245895, -26457.894022213703, -0.186, 0.936, 0.266, 192.0, 0.0, 0.0, 0.0, 0.0, 0.0, 0.0, 0.0, 0.0, 0.0, 1.700950493695272E9, 0.0, 2023-11-25 17:14:53.695
200.0, 27300.219512011947, 36751.31937877171, -47327.516654433806, -42700.146758573865, -60425.61655349929, -16938.464872654065, -6683.41746132582, -26421.79595491838, -0.186, 0.936, 0.266, 192.0, 0.0, 0.0, 0.0, 0.0, 0.0, 0.0, 0.0, 0.0, 0.0, 1.700950493700156E9, 0.0, 2023-11-25 17:14:53.700
201.0, 27368.6605535341, 36826.0412604858, -47270.58676130614, -42633.98559498615, -60362.316413201865, -16868.012174130938, -6731.876043304926, -26342.827241757783, -0.186, 0.936, 0.266, 192.0, 0.0, 0.0, 0.0, 0.0, 0.0, 0.0, 0.0, 0.0, 0.0, 1.700950493704178E9, 0.0, 2023-11-25 17:14:53.704
202.0, 27350.46623354748, 36757.42140500801, -47312.80920658221, -42685.28284851109, -60364.395125436204, -16861.798389172363, -6459.184760950179, -26398.930120340603, -0.186, 0.936, 0.266, 192.0, 0.0, 0.0, 0.0, 0.0, 0.0, 0.0, 0.0, 0.0, 0.0, 1.700950493708695E9, 0.0, 2023-11-25 17:14:53.708
203.0, 27284.193311237494, 36680.97843897086, -47346.29211977627, -42739.97756719322, -60426.44356804414, -16950.78068384894, -6520.763816924551, -26443.208926106567, -0.186, 0.936, 0.266, 192.0, 0.0, 0.0, 0.0, 0.0, 0.0, 0.0, 0.0, 0.0, 0.0, 1.700950493712252E9, 0.0, 2023-11-25 17:14:53.712
204.0, 27296.754991621376, 36737.729518142885, -47333.037535314266, -42705.108845842944, -60424.811890698904, -16932.094625484304, -6652.952033633236, -26414.196361803577, -0.186, 0.936, 0.266, 192.0, 0.0, 0.0, 0.0, 0.0, 0.0, 0.0, 0.0, 0.0, 0.0, 1.70095049371631E9, 0.0, 2023-11-25 17:14:53.716
205.0, 27356.74707373942, 36819.26868191584, -47277.20287766491, -42644.557970113514, -60374.49811393001, -16889.805124974864, -6759.636909918418, -26364.46373039052, -0.186, 0.936, 0.266, 192.0, 0.0, 0.0, 0.0, 0.0, 0.0, 0.0, 0.0, 0.0, 0.0, 1.70095049371924E9, 0.0, 2023-11-25 17:14:53.719
206.0, 27347.091120134726, 36767.65850396854, -47309.65761061402, -42687.51802295662, -60367.39025919322, -16879.4339155476, -6508.090377818391, -26429.775527688926, -0.19, 0.9380000000000001, 0.26, 192.0, 250.0, 16.0, 29.0, 80.0, 8.0, 32.0, 0.0, 0.0, 0.0, 1.700950493723369E9, 0.0, 2023-11-25 17:14:53.723
207.0, 27275.07379949973, 36676.7092557799, -47343.65461393054, -42755.735547034215, -60429.639867501246, -16979.4579719851, -6515.1088255773575, -26475.23897591102, -0.19, 0.9380000000000001, 0.26, 192.0, 0.0, 0.0, 0.0, 0.0, 0.0, 0.0, 0.0, 0.0, 0.0, 1.700950493728252E9, 0.0, 2023-11-25 17:14:53.728
208.0, 27283.05337227027, 36721.74802085734, -47331.60702366913, -42724.9348431748, -60429.93044017917, -16960.63780315373, -6639.451579982231, -26440.437309794106, -0.19, 0.9380000000000001, 0.26, 192.0, 0.0, 0.0, 0.0, 0.0, 0.0, 0.0, 0.0, 0.0, 0.0, 1.700950493731336E9, 0.0, 2023-11-25 17:14:53.731
209.0, 27350.08625389174, 36817.547597592784, -47273.93952297444, -42657.20905747522, -60381.31539598887, -16920.985808490015, -6776.132497326434, -26367.525919380896, -0.19, 0.9380000000000001, 0.26, 192.0, 0.0, 0.0, 0.0, 0.0, 0.0, 0.0, 0.0, 0.0, 0.0, 1.700950493736328E9, 0.0, 2023-11-25 17:14:53.736
210.0, 27373.37677161417, 36803.98008870841, -47282.008502722805, -42664.7192436122, -60343.652706581684, -16872.303709066357, -6556.750125497595, -26395.9796900725, -0.19, 0.9380000000000001, 0.26, 192.0, 0.0, 0.0, 0.0, 0.0, 0.0, 0.0, 0.0, 0.0, 0.0, 1.700950493740378E9, 0.0, 2023-11-25 17:14:53.740
211.0, 27304.51104694737, 36706.347668927636, -47330.19886376845, -42738.74822124818, -60403.53302997745, -16961.531872931944, -6491.639493899285, -26446.427577308128, -0.19, 0.9380000000000001, 0.26, 192.0, 0.0, 0.0, 0.0, 0.0, 0.0, 0.0, 0.0, 0.0, 0.0, 1.700950493744327E9, 0.0, 2023-11-25 17:14:53.744
212.0, 27299.54895967829, 36734.37675647459, -47327.98604106737, -42718.676354727315, -60415.5582684944, -16958.156759519192, -6611.847175579927, -26426.467469509542, -0.19, 0.9380000000000001, 0.26, 192.0, 0.0, 0.0, 0.0, 0.0, 0.0, 0.0, 0.0, 0.0, 0.0, 1.700950493750386E9, 0.0, 2023-11-25 17:14:53.750
213.0, 27340.184431098038, 36816.362955136654, -47289.1610609485, -42666.730900613176, -60391.731308905044, -16939.58245987683, -6773.807915903082, -26393.811570860336, -0.19, 0.9380000000000001, 0.26, 192.0, 0.0, 0.0, 0.0, 0.0, 0.0, 0.0, 0.0, 0.0, 0.0, 1.700950493753438E9, 0.0, 2023-11-25 17:14:53.753
214.0, 27378.003582716417, 36826.10831571917, -47277.158174176, -42649.27418819359, -60340.009372235465, -16876.662299235144, -6618.731512872161, -26394.146847027165, -0.19, 0.9380000000000001, 0.26, 192.0, 0.0, 0.0, 0.0, 0.0, 0.0, 0.0, 0.0, 0.0, 0.0, 1.700950493757704E9, 0.0, 2023-11-25 17:14:53.757
215.0, 27311.46243947297, 36727.93945407146, -47333.55162543674, -42731.30509034456, -60398.101556074806, -16951.942974560618, -6471.455868656143, -26446.740501730503, -0.19, 0.9380000000000001, 0.26, 192.0, 0.0, 0.0, 0.0, 0.0, 0.0, 0.0, 0.0, 0.0, 0.0, 1.700950493760432E9, 0.0, 2023-11-25 17:14:53.760
216.0, 27292.59756715269, 36737.95303558744, -47333.08223880318, -42725.89596818638, -60420.74387320803, -16968.371506735268, -6595.597457360918, -26438.22448709303, -0.184, 0.932, 0.268, 192.0, 250.0, 64.0, 29.0, 32.0, 8.0, 96.0, 0.0, 0.0, 0.0, 1.700950493764389E9, 0.0, 2023-11-25 17:14:53.764
217.0, 27331.914285649575, 36820.05099297178, -47292.69263657244, -42672.14002277137, -60399.73323342005, -16941.817634322364, -6745.465903933752, -26393.610405160238, -0.184, 0.932, 0.268, 192.0, 0.0, 0.0, 0.0, 0.0, 0.0, 0.0, 0.0, 0.0, 0.0, 1.700950493773463E9, 0.0, 2023-11-25 17:14:53.773
218.0, 27369.107588423205, 36837.86533330266, -47269.916208972485, -42649.00596726012, -60350.84996829629, -16881.06559289284, -6659.545798247552, -26389.296518480365, -0.184, 0.932, 0.268, 192.0, 0.0, 0.0, 0.0, 0.0, 0.0, 0.0, 0.0, 0.0, 0.0, 1.70095049377744E9, 0.0, 2023-11-25 17:14:53.777
219.0, 27318.816163398766, 36742.31162575622, -47319.29121247426, -42722.05146814007, -60386.38924198023, -16925.50086086999, -6456.927234760194, -26442.337208072808, -0.184, 0.932, 0.268, 192.0, 0.0, 0.0, 0.0, 0.0, 0.0, 0.0, 0.0, 0.0, 0.0, 1.700950493780462E9, 0.0, 2023-11-25 17:14:53.780
220.0, 27282.718096103443, 36722.88795982456, -47327.717820133905, -42732.109753144956, -60420.65446623021, -16954.22285249506, -6557.800657486994, -26413.212885047542, -0.184, 0.932, 0.268, 192.0, 0.0, 0.0, 0.0, 0.0, 0.0, 0.0, 0.0, 0.0, 0.0, 1.700950493783458E9, 0.0, 2023-11-25 17:14:53.783
221.0, 27307.93086384903, 36798.07922817221, -47305.276668700775, -42688.54620320156, -60412.42902427066, -16929.367712660758, -6697.3649498659315, -26369.492872892963, -0.184, 0.932, 0.268, 192.0, 0.0, 0.0, 0.0, 0.0, 0.0, 0.0, 0.0, 0.0, 0.0, 1.700950493787445E9, 0.0, 2023-11-25 17:14:53.787
222.0, 27361.016256930383, 36852.39396719861, -47268.06101418269, -42644.781487558066, -60358.02487826644, -16872.706040466554, -6690.905295718348, -26352.751416295938, -0.184, 0.932, 0.268, 192.0, 0.0, 0.0, 0.0, 0.0, 0.0, 0.0, 0.0, 0.0, 0.0, 1.700950493790589E9, 0.0, 2023-11-25 17:14:53.790
223.0, 27328.583875725733, 36777.89560292907, -47312.205709481925, -42705.108845842944, -60373.291119729416, -16893.895494210185, -6448.120647444803, -26420.924236884624, -0.184, 0.932, 0.268, 192.0, 0.0, 0.0, 0.0, 0.0, 0.0, 0.0, 0.0, 0.0, 0.0, 1.700950493793497E9, 0.0, 2023-11-25 17:14:53.793
224.0, 27273.755046576865, 36720.63043363457, -47334.37863998159, -42743.66560502835, -60426.95765816661, -16963.856454355297, -6537.460570032665, -26442.80659470637, -0.184, 0.932, 0.268, 192.0, 0.0, 0.0, 0.0, 0.0, 0.0, 0.0, 0.0, 0.0, 0.0, 1.700950493797666E9, 0.0, 2023-11-25 17:14:53.797
225.0, 27301.82883761273, 36793.027733925315, -47309.344686191645, -42699.14093007337, -60415.446509772126, -16937.77196857595, -6674.186190865778, -26402.75226864246, -0.184, 0.932, 0.268, 192.0, 0.0, 0.0, 0.0, 0.0, 0.0, 0.0, 0.0, 0.0, 0.0, 1.700950493800523E9, 0.0, 2023-11-25 17:14:53.800
226.0, 27364.771349998875, 36863.59219117072, -47256.147534388016, -42640.9146357673, -60356.77318057694, -16880.037412647893, -6722.33184842251, -26336.50169807693, -0.184, 0.9400000000000001, 0.264, 192.0, 250.0, 64.0, 29.0, 96.0, 8.0, 64.0, 0.0, 0.0, 0.0, 1.700950493803508E9, 0.0, 2023-11-25 17:14:53.803
227.0, 27345.571201511768, 36800.917899718035, -47298.12411047508, -42692.99420034816, -60359.50009340049, -16882.809028960353, -6465.242083697568, -26401.232350019498, -0.184, 0.9400000000000001, 0.264, 192.0, 0.0, 0.0, 0.0, 0.0, 0.0, 0.0, 0.0, 0.0, 0.0, 1.70095049380678E9, 0.0, 2023-11-25 17:14:53.806
228.0, 27280.102942002173, 36731.31456748421, -47327.516654433806, -42746.07959342952, -60419.71569296309, -16971.63486142574, -6520.383837268811, -26441.37608306123, -0.184, 0.9400000000000001, 0.264, 192.0, 0.0, 0.0, 0.0, 0.0, 0.0, 0.0, 0.0, 0.0, 0.0, 1.700950493811558E9, 0.0, 2023-11-25 17:14:53.811
229.0, 27296.285604987814, 36796.447550826975, -47311.423398425984, -42711.16616859033, -60417.70403596212, -16958.961422319582, -6654.404897022831, -26431.921295156637, -0.184, 0.9400000000000001, 0.264, 192.0, 0.0, 0.0, 0.0, 0.0, 0.0, 0.0, 0.0, 0.0, 0.0, 1.700950493815566E9, 0.0, 2023-11-25 17:14:53.815
230.0, 27351.27089634787, 36876.53385121034, -47258.405060578, -42651.73288008367, -60371.413573195176, -16919.756462544974, -6770.589264701518, -26385.51907366742, -0.184, 0.9400000000000001, 0.264, 192.0, 0.0, 0.0, 0.0, 0.0, 0.0, 0.0, 0.0, 0.0, 0.0, 1.70095049381962E9, 0.0, 2023-11-25 17:14:53.819
231.0, 27356.098873150215, 36837.44065015801, -47276.5099735868, -42669.27899948109, -60342.71393331456, -16870.604976487753, -6510.280848775012, -26381.965146299022, -0.184, 0.9400000000000001, 0.264, 192.0, 0.0, 0.0, 0.0, 0.0, 0.0, 0.0, 0.0, 0.0, 0.0, 1.700950493823565E9, 0.0, 2023-11-25 17:14:53.823
232.0, 27285.73558160491, 36750.69352992696, -47317.167796751004, -42732.84736071198, -60405.25411430051, -16961.375410720757, -6496.109842790347, -26425.28282705341, -0.184, 0.9400000000000001, 0.264, 192.0, 0.0, 0.0, 0.0, 0.0, 0.0, 0.0, 0.0, 0.0, 0.0, 1.700950493827568E9, 0.0, 2023-11-25 17:14:53.827
233.0, 27297.6937648885, 36801.1861206515, -47308.45061641343, -42700.97377311871, -60406.93049513466, -16950.043076281916, -6629.728571144173, -26409.815419890336, -0.184, 0.9400000000000001, 0.264, 192.0, 0.0, 0.0, 0.0, 0.0, 0.0, 0.0, 0.0, 0.0, 0.0, 1.700950493831656E9, 0.0, 2023-11-25 17:14:53.831
234.0, 27350.913268436587, 36883.909926880595, -47266.94342695993, -42647.642510848345, -60375.07925928584, -16921.276381167936, -6768.488200722719, -26350.69505580605, -0.184, 0.9400000000000001, 0.264, 192.0, 0.0, 0.0, 0.0, 0.0, 0.0, 0.0, 0.0, 0.0, 0.0, 1.700950493834604E9, 0.0, 2023-11-25 17:14:53.834
235.0, 27367.431207589056, 36858.47364169045, -47278.18635442095, -42659.15365924283, -60341.41753213615, -16876.818761446328, -6566.473134335653, -26385.988460300978, -0.184, 0.9400000000000001, 0.264, 192.0, 0.0, 0.0, 0.0, 0.0, 0.0, 0.0, 0.0, 0.0, 0.0, 1.700950493838588E9, 0.0, 2023-11-25 17:14:53.838
236.0, 27290.7423723629, 36754.31451252872, -47330.0200498128, -42739.307014859565, -60405.298817789415, -16967.11980904577, -6489.650188642763, -26443.141870873198, -0.188, 0.932, 0.256, 192.0, 250.0, 32.0, 29.0, 32.0, 8.0, 0.0, 0.0, 0.0, 0.0, 1.700950493843579E9, 0.0, 2023-11-25 17:14:53.843
237.0, 27285.333250204712, 36783.796463465274, -47323.13571252057, -42720.79977045057, -60415.22299232757, -16964.951689833604, -6617.256297738111, -26430.982521889513, -0.188, 0.932, 0.256, 192.0, 0.0, 0.0, 0.0, 0.0, 0.0, 0.0, 0.0, 0.0, 0.0, 1.700950493849429E9, 0.0, 2023-11-25 17:14:53.849
238.0, 27327.26512280287, 36866.833194116734, -47284.668360312986, -42670.01660704811, -60393.005358338996, -16945.103340757294, -6773.67380543635, -26391.732858625994, -0.188, 0.932, 0.256, 192.0, 0.0, 0.0, 0.0, 0.0, 0.0, 0.0, 0.0, 0.0, 0.0, 1.70095049385216E9, 0.0, 2023-11-25 17:14:53.852
239.0, 27370.135768668148, 36878.9031361226, -47264.08240366965, -42646.41316490331, -60336.455444867075, -16870.806142187852, -6623.827710607971, -26371.392771171664, -0.188, 0.932, 0.256, 192.0, 0.0, 0.0, 0.0, 0.0, 0.0, 0.0, 0.0, 0.0, 0.0, 1.700950493854628E9, 0.0, 2023-11-25 17:14:53.854
240.0, 27302.231169012925, 36773.939344160484, -47322.129884020076, -42730.09809614398, -60393.072413572365, -16942.845814567307, -6465.443249397666, -26434.156469602167, -0.188, 0.932, 0.256, 192.0, 0.0, 0.0, 0.0, 0.0, 0.0, 0.0, 0.0, 0.0, 0.0, 1.700950493858685E9, 0.0, 2023-11-25 17:14:53.858
241.0, 27278.135988490107, 36771.99474239287, -47329.327145734685, -42730.634538010905, -60421.28031507496, -16962.895329343715, -6585.047433978014, -26424.94755088658, -0.188, 0.932, 0.256, 192.0, 0.0, 0.0, 0.0, 0.0, 0.0, 0.0, 0.0, 0.0, 0.0, 1.700950493862637E9, 0.0, 2023-11-25 17:14:53.862
242.0, 27316.17865755304, 36856.12670852264, -47294.32431391768, -42680.34311298646, -60401.23080029855, -16935.4473871526, -6734.066514261546, -26374.16438748412, -0.188, 0.932, 0.256, 192.0, 0.0, 0.0, 0.0, 0.0, 0.0, 0.0, 0.0, 0.0, 0.0, 1.700950493866676E9, 0.0, 2023-11-25 17:14:53.866
243.0, 27366.17950989956, 36894.9069851526, -47258.04743266672, -42644.088583479956, -60339.56233734636, -16867.118104352725, -6664.619644238907, -26359.233422187976, -0.188, 0.932, 0.256, 192.0, 0.0, 0.0, 0.0, 0.0, 0.0, 0.0, 0.0, 0.0, 0.0, 1.700950493871697E9, 0.0, 2023-11-25 17:14:53.871
244.0, 27310.814238883766, 36797.81100723875, -47312.69744785994, -42724.130180374406, -60379.81782911037, -16917.118956699247, -6452.948624247149, -26426.780393931913, -0.188, 0.932, 0.256, 192.0, 0.0, 0.0, 0.0, 0.0, 0.0, 0.0, 0.0, 0.0, 0.0, 1.700950493875709E9, 0.0, 2023-11-25 17:14:53.875
245.0, 27272.8386250542, 36769.13371910259, -47322.53221542027, -42741.83276198301, -60417.34640805083, -16959.900195586706, -6566.562541313475, -26419.76194617295, -0.188, 0.932, 0.256, 192.0, 0.0, 0.0, 0.0, 0.0, 0.0, 0.0, 0.0, 0.0, 0.0, 1.700950493879731E9, 0.0, 2023-11-25 17:14:53.879
246.0, 27308.042622571305, 36850.404661942084, -47293.5643546062, -42693.374180003906, -60402.2589805435, -16932.340494673314, -6705.858612758949, -26370.096369993254, -0.19, 0.932, 0.258, 192.0, 250.0, 16.0, 29.0, 32.0, 8.0, 16.0, 0.0, 0.0, 0.0, 1.700950493882717E9, 0.0, 2023-11-25 17:14:53.882
247.0, 27367.74413201143, 36908.07216263678, -47251.945406430415, -42643.75330731313, -60343.652706581684, -16871.81197068834, -6702.528202835108, -26324.02942467087, -0.19, 0.932, 0.258, 192.0, 0.0, 0.0, 0.0, 0.0, 0.0, 0.0, 0.0, 0.0, 0.0, 1.70095049388671E9, 0.0, 2023-11-25 17:14:53.886
248.0, 27329.45559375949, 36828.00821399787, -47303.44382565544, -42709.26627031163, -60366.362078948274, -16900.466907080045, -6451.406353879733, -26400.785315130393, -0.19, 0.932, 0.258, 192.0, 0.0, 0.0, 0.0, 0.0, 0.0, 0.0, 0.0, 0.0, 0.0, 1.700950493893629E9, 0.0, 2023-11-25 17:14:53.893
249.0, 27271.653982598065, 36773.715826715925, -47327.49430268935, -42746.99601495219, -60420.87798367476, -16976.84281788383, -6539.315764822455, -26426.0874898538, -0.19, 0.932, 0.258, 192.0, 0.0, 0.0, 0.0, 0.0, 0.0, 0.0, 0.0, 0.0, 0.0, 1.700950493894691E9, 0.0, 2023-11-25 17:14:53.894
250.0, 27289.44597118449, 36843.02858627184, -47309.79172108075, -42706.27113655462, -60415.22299232757, -16950.601869893297, -6673.158010620834, -26381.629870132194, -0.19, 0.932, 0.258, 192.0, 0.0, 0.0, 0.0, 0.0, 0.0, 0.0, 0.0, 0.0, 0.0, 1.700950493898759E9, 0.0, 2023-11-25 17:14:53.898
251.0, 27351.27089634787, 36917.325784841276, -47255.07465065416, -42648.17895271527, -60361.35528819029, -16902.21034314756, -6748.5504446685845, -26341.0167504569, -0.19, 0.932, 0.258, 192.0, 0.0, 0.0, 0.0, 0.0, 0.0, 0.0, 0.0, 0.0, 0.0, 1.700950493903724E9, 0.0, 2023-11-25 17:14:53.903
252.0, 27335.289399062327, 36855.74672886691, -47293.49729937283, -42697.129273072394, -60361.62350912375, -16898.522305312432, -6487.191496752679, -26413.235236792, -0.19, 0.932, 0.258, 192.0, 0.0, 0.0, 0.0, 0.0, 0.0, 0.0, 0.0, 0.0, 0.0, 1.700950493906804E9, 0.0, 2023-11-25 17:14:53.906
253.0, 27266.64719184008, 36773.62641973811, -47324.722686376896, -42753.9921109667, -60421.77205345298, -16986.968158122083, -6533.7725321975395, -26446.04759765239, -0.19, 0.932, 0.258, 192.0, 0.0, 0.0, 0.0, 0.0, 0.0, 0.0, 0.0, 0.0, 0.0, 1.700950493910818E9, 0.0, 2023-11-25 17:14:53.910
254.0, 27278.98535477941, 36826.801219797286, -47309.92583154748, -42719.92805241681, -60420.609762741304, -16963.051791554903, -6658.718783702706, -26415.09043158179, -0.19, 0.932, 0.258, 192.0, 0.0, 0.0, 0.0, 0.0, 0.0, 0.0, 0.0, 0.0, 0.0, 1.700950493916824E9, 0.0, 2023-11-25 17:14:53.916
255.0, 27337.256352574394, 36904.3617730572, -47261.33313910165, -42664.58513314547, -60378.677890143146, -16926.953724259583, -6780.267570050665, -26361.69211407806, -0.19, 0.932, 0.258, 192.0, 0.0, 0.0, 0.0, 0.0, 0.0, 0.0, 0.0, 0.0, 0.0, 1.700950493919792E9, 0.0, 2023-11-25 17:14:53.919
0.0, 27345.481794533946, 36866.16264178308, -47283.12608994557, -42686.15456654484, -60353.934509031125, -16889.134572641204, -6536.030058387525, -26397.276091250907, -0.184, 0.934, 0.268, 192.0, 250.0, 64.0, 29.0, 48.0, 8.0, 96.0, 0.0, 0.0, 0.0, 1.700950493923877E9, 0.0, 2023-11-25 17:14:53.923
1.0, 27274.515005888345, 36770.921858659014, -47325.72851487738, -42753.9921109667, -60416.8099661839, -16978.809771395896, -6513.9912383545925, -26432.65890272366, -0.184, 0.934, 0.268, 192.0, 0.0, 0.0, 0.0, 0.0, 0.0, 0.0, 0.0, 0.0, 0.0, 1.700950493926788E9, 0.0, 2023-11-25 17:14:53.926
2.0, 27283.25453797037, 36816.69823130348, -47315.625526383585, -42722.4314477958, -60417.03348362845, -16959.96725082007, -6637.3728677478875, -26402.014661075435, -0.184, 0.934, 0.268, 192.0, 0.0, 0.0, 0.0, 0.0, 0.0, 0.0, 0.0, 0.0, 0.0, 1.700950493930883E9, 0.0, 2023-11-25 17:14:53.930
3.0, 27336.98813164093, 36905.434656791054, -47270.69852002842, -42663.98163604518, -60381.18128552214, -16935.670904597155, -6789.923523655359, -26373.851463061746, -0.184, 0.934, 0.268, 192.0, 0.0, 0.0, 0.0, 0.0, 0.0, 0.0, 0.0, 0.0, 0.0, 1.700950493934844E9, 0.0, 2023-11-25 17:14:53.934
4.0, 27368.258222133903, 36897.92447065407, -47267.21164789339, -42656.20322897473, -60331.962744231554, -16870.09088636528, -6583.885143266338, -26380.445227676064, -0.184, 0.934, 0.268, 192.0, 0.0, 0.0, 0.0, 0.0, 0.0, 0.0, 0.0, 0.0, 0.0, 1.70095049393886E9, 0.0, 2023-11-25 17:14:53.938
5.0, 27291.032945040817, 36789.51851004583, -47322.50986367582, -42738.658814270355, -60398.41448049718, -16959.520215930967, -6495.081662545403, -26432.74830970148, -0.184, 0.934, 0.268, 192.0, 0.0, 0.0, 0.0, 0.0, 0.0, 0.0, 0.0, 0.0, 0.0, 1.700950493942863E9, 0.0, 2023-11-25 17:14:53.942
6.0, 27279.298279201783, 36806.863463743146, -47322.24164274236, -42724.890139685886, -60414.954771394114, -16962.381239221246, -6619.066789038991, -26418.912579883647, -0.184, 0.934, 0.268, 192.0, 0.0, 0.0, 0.0, 0.0, 0.0, 0.0, 0.0, 0.0, 0.0, 1.700950493947888E9, 0.0, 2023-11-25 17:14:53.947
7.0, 27322.191276811514, 36888.3579240272, -47284.869526013084, -42673.68229313878, -60394.86055312879, -16941.035323266427, -6770.231636790233, -26371.593936871763, -0.184, 0.934, 0.268, 192.0, 0.0, 0.0, 0.0, 0.0, 0.0, 0.0, 0.0, 0.0, 0.0, 1.700950493954883E9, 0.0, 2023-11-25 17:14:53.954
8.0, 27365.88893722164, 36901.523101511375, -47266.406985092995, -42652.87281905089, -60340.165834446656, -16870.917900910128, -6631.583765933963, -26358.719332065506, -0.184, 0.934, 0.268, 192.0, 0.0, 0.0, 0.0, 0.0, 0.0, 0.0, 0.0, 0.0, 0.0, 1.700950493957925E9, 0.0, 2023-11-25 17:14:53.957
9.0, 27300.73360213442, 36793.00538218086, -47320.76642760831, -42733.96494793474, -60389.2055617816, -16942.73405584503, -6476.28384545849, -26429.730824200014, -0.184, 0.934, 0.268, 192.0, 0.0, 0.0, 0.0, 0.0, 0.0, 0.0, 0.0, 0.0, 0.0, 1.700950493960922E9, 0.0, 2023-11-25 17:14:53.960
10.0, 27274.783226821808, 36790.45728331295, -47325.84027359966, -42737.29535785859, -60415.5582684944, -16968.818541624372, -6601.677131852763, -26428.166202088145, -0.188, 0.9400000000000001, 0.264, 192.0, 250.0, 32.0, 29.0, 96.0, 8.0, 64.0, 0.0, 0.0, 0.0, 1.700950493964931E9, 0.0, 2023-11-25 17:14:53.964
11.0, 27314.479924974436, 36875.48331922094, -47293.3631889061, -42688.94853460175, -60400.537896220434, -16950.803035593395, -6753.981918571225, -26387.93306206859, -0.188, 0.9400000000000001, 0.264, 192.0, 0.0, 0.0, 0.0, 0.0, 0.0, 0.0, 0.0, 0.0, 0.0, 1.700950493967941E9, 0.0, 2023-11-25 17:14:53.967
12.0, 27371.65568729111, 36917.68341275256, -47255.097002398616, -42649.676519593784, -60338.8917850127, -16886.988805173492, -6691.575848052007, -26365.49191063546, -0.188, 0.9400000000000001, 0.264, 192.0, 0.0, 0.0, 0.0, 0.0, 0.0, 0.0, 0.0, 0.0, 0.0, 1.700950493970958E9, 0.0, 2023-11-25 17:14:53.970
13.0, 27318.950273865496, 36818.79929528228, -47310.596383881144, -42727.41588680934, -60374.87809358574, -16935.11211098577, -6465.733822075585, -26428.05444336587, -0.188, 0.9400000000000001, 0.264, 192.0, 0.0, 0.0, 0.0, 0.0, 0.0, 0.0, 0.0, 0.0, 0.0, 1.700950493975941E9, 0.0, 2023-11-25 17:14:53.975
14.0, 27271.005782008862, 36779.75079771886, -47327.516654433806, -42751.71223303226, -60420.38624529675, -16985.425887754667, -6566.182561657734, -26423.159411330154, -0.188, 0.9400000000000001, 0.264, 192.0, 0.0, 0.0, 0.0, 0.0, 0.0, 0.0, 0.0, 0.0, 0.0, 1.700950493978984E9, 0.0, 2023-11-25 17:14:53.978
15.0, 27296.196198009995, 36853.10922302118, -47302.79562506624, -42708.17103483332, -60413.0101696265, -16964.54935843341, -6711.111272705945, -26378.858253819737, -0.188, 0.9400000000000001, 0.264, 192.0, 0.0, 0.0, 0.0, 0.0, 0.0, 0.0, 0.0, 0.0, 0.0, 1.700950493984079E9, 0.0, 2023-11-25 17:14:53.984
16.0, 27356.523556294866, 36908.854473692714, -47258.24859836681, -42658.03607202006, -60357.30962244387, -16908.290017639403, -6729.104426992468, -26344.34716038074, -0.188, 0.9400000000000001, 0.264, 192.0, 0.0, 0.0, 0.0, 0.0, 0.0, 0.0, 0.0, 0.0, 0.0, 1.700950493986967E9, 0.0, 2023-11-25 17:14:53.986
17.0, 27322.705366933988, 36833.640853600606, -47306.17073847899, -42715.27888957011, -60371.59238715081, -16916.671921810143, -6470.248874455557, -26401.791143630882, -0.188, 0.9400000000000001, 0.264, 192.0, 0.0, 0.0, 0.0, 0.0, 0.0, 0.0, 0.0, 0.0, 0.0, 1.700950493992059E9, 0.0, 2023-11-25 17:14:53.992
18.0, 27257.34886614667, 36766.69737895696, -47336.72557314939, -42759.289474402605, -60432.366780324795, -16993.628977969765, -6552.771514984551, -26431.22839107852, -0.188, 0.9400000000000001, 0.264, 192.0, 0.0, 0.0, 0.0, 0.0, 0.0, 0.0, 0.0, 0.0, 0.0, 1.700950493997008E9, 0.0, 2023-11-25 17:14:53.997
19.0, 27286.294375216294, 36833.68555708952, -47312.205709481925, -42713.289584313585, -60423.67195173168, -16964.45995145559, -6685.406766582342, -26391.822265603816, -0.188, 0.9400000000000001, 0.264, 192.0, 0.0, 0.0, 0.0, 0.0, 0.0, 0.0, 0.0, 0.0, 0.0, 1.700950494001065E9, 0.0, 2023-11-25 17:14:54.001
20.0, 27351.002675414406, 36905.63582249115, -47256.39340357702, -42653.31985394, -60369.871302827756, -16914.637913064707, -6756.351203483487, -26350.02450347239, -0.188, 0.934, 0.266, 192.0, 250.0, 32.0, 29.0, 48.0, 8.0, 80.0, 0.0, 0.0, 0.0, 1.700950494005042E9, 0.0, 2023-11-25 17:14:54.005
21.0, 27337.479870018946, 36842.42508917154, -47291.4632906274, -42697.777473661605, -60364.976270792045, -16903.417337348146, -6493.964075322638, -26408.206094289555, -0.188, 0.934, 0.266, 192.0, 0.0, 0.0, 0.0, 0.0, 0.0, 0.0, 0.0, 0.0, 0.0, 1.700950494008093E9, 0.0, 2023-11-25 17:14:54.008
22.0, 27270.603450608665, 36754.11334682862, -47322.10753227562, -42754.79677376709, -60422.844937186834, -16986.45406799961, -6532.274965319034, -26425.14871658668, -0.188, 0.934, 0.266, 192.0, 0.0, 0.0, 0.0, 0.0, 0.0, 0.0, 0.0, 0.0, 0.0, 1.700950494012057E9, 0.0, 2023-11-25 17:14:54.012
23.0, 27286.45083742748, 36804.404771853064, -47304.583764622665, -42719.860997183445, -60418.7098644626, -16961.82244560986, -6656.684774957273, -26386.591957401273, -0.188, 0.934, 0.266, 192.0, 0.0, 0.0, 0.0, 0.0, 0.0, 0.0, 0.0, 0.0, 0.0, 1.700950494015065E9, 0.0, 2023-11-25 17:14:54.015
24.0, 27341.972570654463, 36879.52898496735, -47253.130048886545, -42663.936932556266, -60375.12396277476, -16927.4454626376, -6773.964378114269, -26343.967180725, -0.188, 0.934, 0.266, 192.0, 0.0, 0.0, 0.0, 0.0, 0.0, 0.0, 0.0, 0.0, 0.0, 1.700950494019085E9, 0.0, 2023-11-25 17:14:54.019
25.0, 27352.03085565935, 36839.295844947796, -47271.19025840644, -42685.05933106653, -60344.211500193065, -16889.693366252588, -6532.8337589304165, -26388.73772486898, -0.188, 0.934, 0.266, 192.0, 0.0, 0.0, 0.0, 0.0, 0.0, 0.0, 0.0, 0.0, 0.0, 1.70095049402309E9, 0.0, 2023-11-25 17:14:54.023
26.0, 27283.63451762611, 36746.15612580253, -47315.334953705664, -42754.01446271115, -60404.78472766695, -16981.894312130727, -6514.617087199341, -26440.973751661033, -0.188, 0.934, 0.266, 192.0, 0.0, 0.0, 0.0, 0.0, 0.0, 0.0, 0.0, 0.0, 0.0, 1.700950494027094E9, 0.0, 2023-11-25 17:14:54.027
27.0, 27290.384744451614, 36791.932498447, -47304.382598922566, -42722.47615128472, -60405.43292825615, -16965.48813170053, -6644.167798062301, -26419.873704895224, -0.188, 0.934, 0.266, 192.0, 0.0, 0.0, 0.0, 0.0, 0.0, 0.0, 0.0, 0.0, 0.0, 1.700950494031087E9, 0.0, 2023-11-25 17:14:54.031
28.0, 27338.709215963987, 36872.19761278601, -47262.74129900233, -42669.86014483692, -60376.62152965326, -16943.35990468978, -6792.449270778808, -26371.83980606077, -0.188, 0.934, 0.266, 192.0, 0.0, 0.0, 0.0, 0.0, 0.0, 0.0, 0.0, 0.0, 0.0, 1.700950494034143E9, 0.0, 2023-11-25 17:14:54.034
29.0, 27377.5118443384, 36871.460005218985, -47253.621787264565, -42660.58417088797, -60325.950124973075, -16878.226921347014, -6599.553716129508, -26370.051666504347, -0.188, 0.934, 0.266, 192.0, 0.0, 0.0, 0.0, 0.0, 0.0, 0.0, 0.0, 0.0, 0.0, 1.700950494038088E9, 0.0, 2023-11-25 17:14:54.038
30.0, 27300.73360213442, 36764.99864637836, -47307.60125012413, -42743.82206723953, -60390.32314900436, -16962.135370032236, -6495.059310800947, -26411.670614680126, -0.19, 0.9400000000000001, 0.264, 192.0, 250.0, 16.0, 29.0, 96.0, 8.0, 64.0, 0.0, 0.0, 0.0, 1.700950494043206E9, 0.0, 2023-11-25 17:14:54.043
31.0, 27283.790979837297, 36774.45343428295, -47311.848081570635, -42738.54705554808, -60412.76430043749, -16971.74662014802, -6619.156196016812, -26403.89220760968, -0.19, 0.9400000000000001, 0.264, 192.0, 0.0, 0.0, 0.0, 0.0, 0.0, 0.0, 0.0, 0.0, 0.0, 1.700950494047124E9, 0.0, 2023-11-25 17:14:54.047
32.0, 27323.487677989924, 36851.90222882059, -47273.8054125077, -42685.59577293346, -60390.99370133802, -16949.97602104855, -6775.752517670694, -26354.807776785827, -0.19, 0.9400000000000001, 0.264, 192.0, 0.0, 0.0, 0.0, 0.0, 0.0, 0.0, 0.0, 0.0, 0.0, 1.700950494051286E9, 0.0, 2023-11-25 17:14:54.051
33.0, 27370.18047215706, 36875.304505265296, -47248.59264476212, -42654.996234774146, -60331.58276457582, -16880.283281836902, -6648.45933299772, -26342.469613846497, -0.19, 0.9400000000000001, 0.264, 192.0, 0.0, 0.0, 0.0, 0.0, 0.0, 0.0, 0.0, 0.0, 0.0, 1.700950494055152E9, 0.0, 2023-11-25 17:14:54.055
34.0, 27304.488695202912, 36778.52145177382, -47310.4175699255, -42736.915378202844, -60385.89750360221, -16953.060561783383, -6477.155563492247, -26421.885361896202, -0.19, 0.9400000000000001, 0.264, 192.0, 0.0, 0.0, 0.0, 0.0, 0.0, 0.0, 0.0, 0.0, 0.0, 1.700950494076282E9, 0.0, 2023-11-25 17:14:54.076
35.0, 27285.646174627087, 36776.84507093967, -47312.898613560035, -42732.19916012277, -60408.13748933524, -16983.302472031413, -6603.442919664732, -26420.320739784333, -0.19, 0.9400000000000001, 0.264, 192.0, 0.0, 0.0, 0.0, 0.0, 0.0, 0.0, 0.0, 0.0, 0.0, 1.700950494080228E9, 0.0, 2023-11-25 17:14:54.080
36.0, 27327.51099199188, 36863.23456325943, -47277.046415453726, -42675.44808095075, -60386.344538491314, -16957.88853858573, -6753.937215082314, -26382.97097479951, -0.19, 0.9400000000000001, 0.264, 192.0, 0.0, 0.0, 0.0, 0.0, 0.0, 0.0, 0.0, 0.0, 0.0, 1.700950494084226E9, 0.0, 2023-11-25 17:14:54.084
37.0, 27381.55751008481, 36902.73009571196, -47242.222397592355, -42637.31600491, -60329.07936919682, -16896.220075633537, -6700.941228978781, -26362.966163512014, -0.19, 0.9400000000000001, 0.264, 192.0, 0.0, 0.0, 0.0, 0.0, 0.0, 0.0, 0.0, 0.0, 0.0, 1.700950494089247E9, 0.0, 2023-11-25 17:14:54.089
38.0, 27338.038663630326, 36809.1880451665, -47292.200898194424, -42705.242956309674, -60359.433038167124, -16934.128634229735, -6473.04284251247, -26420.477201995516, -0.19, 0.9400000000000001, 0.264, 192.0, 0.0, 0.0, 0.0, 0.0, 0.0, 0.0, 0.0, 0.0, 0.0, 1.700950494093276E9, 0.0, 2023-11-25 17:14:54.093
39.0, 27296.35266022118, 36776.35333256165, -47303.37677042207, -42724.44310479678, -60398.97327410857, -16981.60373945281, -6572.709271038684, -26414.03989959239, -0.19, 0.9400000000000001, 0.264, 192.0, 0.0, 0.0, 0.0, 0.0, 0.0, 0.0, 0.0, 0.0, 0.0, 1.700950494096285E9, 0.0, 2023-11-25 17:14:54.096
40.0, 27321.78894541132, 36852.61748464316, -47281.40500562251, -42683.47235721021, -60391.396032738216, -16959.54256767542, -6716.52039486413, -26375.527843895896, -0.194, 0.9400000000000001, 0.266, 192.0, 249.0, 240.0, 29.0, 96.0, 8.0, 80.0, 0.0, 0.0, 0.0, 1.70095049410033E9, 0.0, 2023-11-25 17:14:54.100
41.0, 27375.94722222653, 36907.69218298104, -47236.79092368972, -42636.9136735098, -60335.56137508886, -16903.81966874834, -6736.346392195987, -26348.571640082795, -0.194, 0.9400000000000001, 0.266, 192.0, 0.0, 0.0, 0.0, 0.0, 0.0, 0.0, 0.0, 0.0, 0.0, 1.700950494103625E9, 0.0, 2023-11-25 17:14:54.103
42.0, 27338.686864219533, 36823.40375464007, -47283.34960739012, -42697.88923238388, -60350.51469212946, -16911.598075818787, -6472.595807623364, -26411.31298676884, -0.194, 0.9400000000000001, 0.266, 192.0, 0.0, 0.0, 0.0, 0.0, 0.0, 0.0, 0.0, 0.0, 0.0, 1.700950494107365E9, 0.0, 2023-11-25 17:14:54.107
43.0, 27276.705476844967, 36754.82860265119, -47308.67413385798, -42741.65394802737, -60407.51164049049, -16983.97302436507, -6544.210796858168, -26435.05053938038, -0.194, 0.9400000000000001, 0.266, 192.0, 0.0, 0.0, 0.0, 0.0, 0.0, 0.0, 0.0, 0.0, 0.0, 1.700950494110347E9, 0.0, 2023-11-25 17:14:54.110
44.0, 27294.899796831585, 36813.926614991025, -47293.810223795204, -42703.8794998979, -60407.64575095723, -16959.699029886608, -6680.198810124256, -26411.51415246894, -0.194, 0.9400000000000001, 0.266, 192.0, 0.0, 0.0, 0.0, 0.0, 0.0, 0.0, 0.0, 0.0, 0.0, 1.700950494113319E9, 0.0, 2023-11-25 17:14:54.113
45.0, 27357.372922584167, 36885.83217690375, -47243.138819115025, -42644.49091488015, -60357.8460643108, -16899.684596024108, -6753.8925115934035, -26342.93900048006, -0.194, 0.9400000000000001, 0.266, 192.0, 0.0, 0.0, 0.0, 0.0, 0.0, 0.0, 0.0, 0.0, 0.0, 1.700950494117468E9, 0.0, 2023-11-25 17:14:54.117
46.0, 27349.66157074709, 36827.270606430844, -47280.68974979994, -42687.138043300874, -60351.69933458559, -16880.350337070267, -6490.298389231967, -26399.131286040698, -0.194, 0.9400000000000001, 0.266, 192.0, 0.0, 0.0, 0.0, 0.0, 0.0, 0.0, 0.0, 0.0, 0.0, 1.700950494120406E9, 0.0, 2023-11-25 17:14:54.120
47.0, 27278.605375123665, 36740.434079221974, -47323.180416009476, -42748.62769229743, -60415.73708245005, -16967.902120101706, -6514.438273243699, -26440.683178983116, -0.194, 0.9400000000000001, 0.266, 192.0, 0.0, 0.0, 0.0, 0.0, 0.0, 0.0, 0.0, 0.0, 0.0, 1.700950494124583E9, 0.0, 2023-11-25 17:14:54.124
48.0, 27294.899796831585, 36798.816835739235, -47311.80337808173, -42713.088418613486, -60412.27256205947, -16950.244241982015, -6649.062830098013, -26431.496612011983, -0.194, 0.9400000000000001, 0.266, 192.0, 0.0, 0.0, 0.0, 0.0, 0.0, 0.0, 0.0, 0.0, 0.0, 1.700950494127416E9, 0.0, 2023-11-25 17:14:54.127
49.0, 27350.84621320322, 36878.85843263369, -47264.037700180736, -42653.7668888291, -60370.966538306064, -16910.547543829387, -6771.081003079535, -26373.225614216997, -0.194, 0.9400000000000001, 0.266, 192.0, 0.0, 0.0, 0.0, 0.0, 0.0, 0.0, 0.0, 0.0, 0.0, 1.700950494130396E9, 0.0, 2023-11-25 17:14:54.130
50.0, 27369.331105867757, 36851.27637997585, -47273.24661889632, -42660.89709531034, -60332.83446226531, -16858.04329610387, -6529.793921684494, -26394.303309238352, -0.192, 0.936, 0.266, 192.0, 250.0, 0.0, 29.0, 64.0, 8.0, 80.0, 0.0, 0.0, 0.0, 1.700950494134425E9, 0.0, 2023-11-25 17:14:54.134
51.0, 27299.30309048928, 36757.75668117484, -47317.32425896219, -42727.50529378716, -60391.48543971604, -16942.667000611666, -6482.654092628252, -26439.856164438268, -0.192, 0.936, 0.266, 192.0, 0.0, 0.0, 0.0, 0.0, 0.0, 0.0, 0.0, 0.0, 0.0, 1.700950494137415E9, 0.0, 2023-11-25 17:14:54.137
52.0, 27299.012517811363, 36794.502949059366, -47314.2173664829, -42704.080665598, -60398.526239219456, -16936.430863908634, -6607.68975111124, -26431.76483294545, -0.192, 0.936, 0.266, 192.0, 0.0, 0.0, 0.0, 0.0, 0.0, 0.0, 0.0, 0.0, 0.0, 1.700950494140476E9, 0.0, 2023-11-25 17:14:54.140
53.0, 27348.387521313136, 36876.57855469925, -47268.39629034952, -42645.31792942499, -60363.769276591454, -16905.786622260406, -6755.233616260722, -26375.729009595994, -0.192, 0.936, 0.266, 192.0, 0.0, 0.0, 0.0, 0.0, 0.0, 0.0, 0.0, 0.0, 0.0, 1.700950494144514E9, 0.0, 2023-11-25 17:14:54.144
54.0, 27384.37382988618, 36875.21509828748, -47262.02604317976, -42636.041955476045, -60314.10370041177, -16850.846034389262, -6574.810335017483, -26411.42474549112, -0.192, 0.936, 0.266, 192.0, 0.0, 0.0, 0.0, 0.0, 0.0, 0.0, 0.0, 0.0, 0.0, 1.7009504941477E9, 0.0, 2023-11-25 17:14:54.147
55.0, 27314.524628463347, 36770.787748192284, -47320.78877935276, -42718.45283728276, -60377.761468620476, -16940.811805821875, -6462.068135984914, -26486.414848138673, -0.192, 0.936, 0.266, 192.0, 0.0, 0.0, 0.0, 0.0, 0.0, 0.0, 0.0, 0.0, 0.0, 1.700950494150703E9, 0.0, 2023-11-25 17:14:54.150
56.0, 27303.97460508044, 36788.37857107861, -47322.59927065364, -42703.8794998979, -60393.58650369484, -16943.002276778494, -6582.789907788027, -26442.203097606078, -0.192, 0.936, 0.266, 192.0, 0.0, 0.0, 0.0, 0.0, 0.0, 0.0, 0.0, 0.0, 0.0, 1.700950494154499E9, 0.0, 2023-11-25 17:14:54.154
57.0, 27351.539117281332, 36879.283115778344, -47285.11539520209, -42645.742612569644, -60368.86547432727, -16915.420224120644, -6738.670973619339, -26376.04193401837, -0.192, 0.936, 0.266, 192.0, 0.0, 0.0, 0.0, 0.0, 0.0, 0.0, 0.0, 0.0, 0.0, 1.700950494157456E9, 0.0, 2023-11-25 17:14:54.157
58.0, 27402.590501617255, 36902.97596490097, -47261.62371177956, -42618.227615145166, -60311.64500852168, -16851.76245591193, -6625.481739697664, -26370.63281186018, -0.192, 0.936, 0.266, 192.0, 0.0, 0.0, 0.0, 0.0, 0.0, 0.0, 0.0, 0.0, 0.0, 1.700950494160495E9, 0.0, 2023-11-25 17:14:54.160
59.0, 27342.71017822149, 36805.36589686464, -47318.218328740404, -42697.129273072394, -60359.63420386722, -16919.957628245073, -6454.312080658923, -26446.964019175055, -0.192, 0.936, 0.266, 192.0, 0.0, 0.0, 0.0, 0.0, 0.0, 0.0, 0.0, 0.0, 0.0, 1.700950494163468E9, 0.0, 2023-11-25 17:14:54.163
60.0, 27303.616977169157, 36787.46214955594, -47334.60215742614, -42709.802712178556, -60399.934399120146, -16958.804960108395, -6577.805468774494, -26451.546126788395, -0.182, 0.93, 0.268, 192.0, 250.0, 80.0, 29.0, 16.0, 8.0, 96.0, 0.0, 0.0, 0.0, 1.70095049416797E9, 0.0, 2023-11-25 17:14:54.167
61.0, 27337.770442696863, 36867.03435981683, -47302.52740413277, -42660.80768833253, -60386.72451814706, -16937.123767986748, -6727.562156625052, -26403.691041909584, -0.182, 0.93, 0.268, 192.0, 0.0, 0.0, 0.0, 0.0, 0.0, 0.0, 0.0, 0.0, 0.0, 1.700950494170516E9, 0.0, 2023-11-25 17:14:54.170
62.0, 27395.616757347198, 36910.754371971416, -47265.69172927043, -42621.73683902465, -60330.0404942084, -16880.417392303632, -6691.352330607454, -26393.0292598044, -0.182, 0.93, 0.268, 192.0, 0.0, 0.0, 0.0, 0.0, 0.0, 0.0, 0.0, 0.0, 0.0, 1.700950494174561E9, 0.0, 2023-11-25 17:14:54.174
63.0, 27351.49441379242, 36821.95089125048, -47315.290250216756, -42690.6249154359, -60357.30962244387, -16921.030511978926, -6466.13615347578, -26469.628688052737, -0.182, 0.93, 0.268, 192.0, 0.0, 0.0, 0.0, 0.0, 0.0, 0.0, 0.0, 0.0, 0.0, 1.70095049417755E9, 0.0, 2023-11-25 17:14:54.177
64.0, 27300.6441951566, 36773.291143571274, -47332.79166612526, -42718.36343030494, -60404.00241661101, -16978.049812084417, -6562.941558711715, -26475.95423173359, -0.182, 0.93, 0.268, 192.0, 0.0, 0.0, 0.0, 0.0, 0.0, 0.0, 0.0, 0.0, 0.0, 1.700950494180543E9, 0.0, 2023-11-25 17:14:54.180
65.0, 27326.70632919149, 36842.581551382726, -47311.0657705147, -42678.465566452214, -60398.36977700827, -16955.49690192901, -6698.974275466714, -26430.64724572268, -0.182, 0.93, 0.268, 192.0, 0.0, 0.0, 0.0, 0.0, 0.0, 0.0, 0.0, 0.0, 0.0, 1.700950494186616E9, 0.0, 2023-11-25 17:14:54.186
66.0, 27387.413667132103, 36908.161569614604, -47263.52361005826, -42628.19649317223, -60345.32908741583, -16898.745822756984, -6729.976145026225, -26380.489931164975, -0.182, 0.93, 0.268, 192.0, 0.0, 0.0, 0.0, 0.0, 0.0, 0.0, 0.0, 0.0, 0.0, 1.700950494188581E9, 0.0, 2023-11-25 17:14:54.188
67.0, 27362.26795461988, 36832.724432077935, -47308.45061641343, -42685.7745868891, -60357.220215466055, -16906.5912850608, -6469.354804677344, -26446.069949396846, -0.182, 0.93, 0.268, 192.0, 0.0, 0.0, 0.0, 0.0, 0.0, 0.0, 0.0, 0.0, 0.0, 1.700950494193551E9, 0.0, 2023-11-25 17:14:54.193
68.0, 27297.917282333052, 36763.99281787787, -47335.98796558237, -42732.445029311784, -60416.228820828066, -16981.626091197264, -6531.917337407749, -26472.109731687277, -0.182, 0.93, 0.268, 192.0, 0.0, 0.0, 0.0, 0.0, 0.0, 0.0, 0.0, 0.0, 0.0, 1.700950494198577E9, 0.0, 2023-11-25 17:14:54.198
69.0, 27315.64221568611, 36825.81774304125, -47317.03368628427, -42693.19536604826, -60408.67393120217, -16951.98767804953, -6658.852894169438, -26437.777452203925, -0.182, 0.93, 0.268, 192.0, 0.0, 0.0, 0.0, 0.0, 0.0, 0.0, 0.0, 0.0, 0.0, 1.70095049420262E9, 0.0, 2023-11-25 17:14:54.202
70.0, 27371.387466357646, 36897.16451134259, -47268.48569732734, -42637.986557243654, -60358.740134089014, -16905.16077341566, -6744.840055089004, -26385.83199808979, -0.184, 0.932, 0.264, 192.0, 250.0, 64.0, 29.0, 32.0, 8.0, 64.0, 0.0, 0.0, 0.0, 1.700950494205617E9, 0.0, 2023-11-25 17:14:54.205
71.0, 27367.498262822424, 36845.934313051024, -47298.727607575376, -42673.7717001166, -60344.56912810435, -16880.350337070267, -6487.303255474956, -26425.774565431424, -0.184, 0.932, 0.264, 192.0, 0.0, 0.0, 0.0, 0.0, 0.0, 0.0, 0.0, 0.0, 0.0, 1.700950494209638E9, 0.0, 2023-11-25 17:14:54.209
72.0, 27297.336136977214, 36759.187192819976, -47335.42917197099, -42733.562616534546, -60407.109309090294, -16960.280175242446, -6497.920334091227, -26440.95139991658, -0.184, 0.932, 0.264, 192.0, 0.0, 0.0, 0.0, 0.0, 0.0, 0.0, 0.0, 0.0, 0.0, 1.700950494212648E9, 0.0, 2023-11-25 17:14:54.212
73.0, 27310.45661097248, 36815.91592024755, -47323.15806426502, -42699.14093007337, -60406.66227420119, -16945.125692501748, -6623.648896652329, -26416.47623973802, -0.184, 0.932, 0.264, 192.0, 0.0, 0.0, 0.0, 0.0, 0.0, 0.0, 0.0, 0.0, 0.0, 1.700950494215616E9, 0.0, 2023-11-25 17:14:54.215
74.0, 27370.22517564597, 36910.0614678933, -47272.285493884745, -42639.2159031887, -60363.70222135809, -16915.73314854302, -6759.413392473864, -26376.623079374207, -0.184, 0.932, 0.264, 192.0, 0.0, 0.0, 0.0, 0.0, 0.0, 0.0, 0.0, 0.0, 0.0, 1.700950494219593E9, 0.0, 2023-11-25 17:14:54.219
75.0, 27389.89471076664, 36886.74859842641, -47284.936581246446, -42651.73288008367, -60331.22513666453, -16873.778924200407, -6530.822101929439, -26415.828039148815, -0.184, 0.932, 0.264, 192.0, 0.0, 0.0, 0.0, 0.0, 0.0, 0.0, 0.0, 0.0, 0.0, 1.700950494223687E9, 0.0, 2023-11-25 17:14:54.223
76.0, 27315.999843597394, 36785.29403034378, -47334.60215742614, -42724.890139685886, -60396.00049209601, -16966.806884623395, -6487.303255474956, -26458.788091991915, -0.184, 0.932, 0.264, 192.0, 0.0, 0.0, 0.0, 0.0, 0.0, 0.0, 0.0, 0.0, 0.0, 1.700950494228055E9, 0.0, 2023-11-25 17:14:54.228
77.0, 27323.621788456654, 36827.78469655332, -47323.247471242845, -42693.06125558153, -60398.19096305263, -16953.105265272294, -6610.215498234689, -26427.316835798843, -0.184, 0.932, 0.264, 192.0, 0.0, 0.0, 0.0, 0.0, 0.0, 0.0, 0.0, 0.0, 0.0, 1.700950494230717E9, 0.0, 2023-11-25 17:14:54.230
78.0, 27370.493396579433, 36916.18584587405, -47282.72375854538, -42639.43942063325, -60370.81007609488, -16929.904154527685, -6757.133514539423, -26387.217806246023, -0.184, 0.932, 0.264, 192.0, 0.0, 0.0, 0.0, 0.0, 0.0, 0.0, 0.0, 0.0, 0.0, 1.700950494235729E9, 0.0, 2023-11-25 17:14:54.235
79.0, 27404.870379551696, 36917.12461914118, -47281.49441260033, -42632.35391764092, -60326.598325562285, -16877.377555057712, -6588.422547390765, -26411.156524557657, -0.184, 0.932, 0.264, 192.0, 0.0, 0.0, 0.0, 0.0, 0.0, 0.0, 0.0, 0.0, 0.0, 1.700950494239847E9, 0.0, 2023-11-25 17:14:54.239
80.0, 27338.84332643072, 36818.15109469308, -47336.41264872702, -42709.69095345628, -60384.6011024238, -16963.40941946619, -6477.356729192345, -26476.557728833883, -0.188, 0.936, 0.264, 192.0, 250.0, 32.0, 29.0, 64.0, 8.0, 64.0, 0.0, 0.0, 0.0, 1.700950494244758E9, 0.0, 2023-11-25 17:14:54.244
81.0, 27332.78600368333, 36839.40760367008, -47330.51178819082, -42690.75902590263, -60396.067547329374, -16969.578500935855, -6607.3097714555, -26467.929955474134, -0.188, 0.936, 0.264, 192.0, 0.0, 0.0, 0.0, 0.0, 0.0, 0.0, 0.0, 0.0, 0.0, 1.700950494247744E9, 0.0, 2023-11-25 17:14:54.247
82.0, 27369.331105867757, 36923.02547967738, -47300.13576747606, -42642.34514741244, -60380.980119822045, -16949.372523948256, -6758.206398273278, -26420.1866293176, -0.188, 0.936, 0.264, 192.0, 0.0, 0.0, 0.0, 0.0, 0.0, 0.0, 0.0, 0.0, 0.0, 1.700950494250703E9, 0.0, 2023-11-25 17:14:54.250
83.0, 27412.827600577784, 36943.23145666498, -47277.26993289828, -42615.32188836597, -60325.48073833952, -16882.92078768263, -6659.009356380625, -26398.572492429317, -0.188, 0.936, 0.264, 192.0, 0.0, 0.0, 0.0, 0.0, 0.0, 0.0, 0.0, 0.0, 0.0, 1.700950494254744E9, 0.0, 2023-11-25 17:14:54.254
84.0, 27354.869527205174, 36842.514496149364, -47329.88593934607, -42689.797900891055, -60367.61377663777, -16937.30258194239, -6468.125458732303, -26455.971772190547, -0.188, 0.936, 0.264, 192.0, 0.0, 0.0, 0.0, 0.0, 0.0, 0.0, 0.0, 0.0, 0.0, 1.700950494258788E9, 0.0, 2023-11-25 17:14:54.258
85.0, 27326.549866980302, 36826.91297851956, -47334.646860915054, -42695.98933410518, -60396.24636128502, -16970.137294547236, -6586.522649112064, -26464.152510661188, -0.188, 0.936, 0.264, 192.0, 0.0, 0.0, 0.0, 0.0, 0.0, 0.0, 0.0, 0.0, 0.0, 1.700950494263783E9, 0.0, 2023-11-25 17:14:54.263
86.0, 27357.954067940005, 36899.556147999305, -47307.668305357496, -42650.83881030545, -60385.29400650192, -16952.099436771805, -6738.670973619339, -26446.829908708325, -0.188, 0.936, 0.264, 192.0, 0.0, 0.0, 0.0, 0.0, 0.0, 0.0, 0.0, 0.0, 0.0, 1.700950494266811E9, 0.0, 2023-11-25 17:14:54.266
87.0, 27414.3698709452, 36944.03611946537, -47270.609113050596, -42608.79517898503, -60330.42047386414, -16892.844962220785, -6717.682685575805, -26436.637513236707, -0.188, 0.936, 0.264, 192.0, 0.0, 0.0, 0.0, 0.0, 0.0, 0.0, 0.0, 0.0, 0.0, 1.700950494272803E9, 0.0, 2023-11-25 17:14:54.272
88.0, 27369.264050634392, 36852.41631894306, -47319.626488641086, -42676.18568851778, -60355.78970382091, -16916.649570065685, -6471.746441334062, -26478.345868390308, -0.188, 0.936, 0.264, 192.0, 0.0, 0.0, 0.0, 0.0, 0.0, 0.0, 0.0, 0.0, 0.0, 1.700950494275825E9, 0.0, 2023-11-25 17:14:54.275
89.0, 27317.36330000917, 36802.86250148565, -47334.31158474822, -42705.175901076305, -60401.83429739885, -16972.64068992623, -6565.355547112888, -26471.19331016461, -0.188, 0.936, 0.264, 192.0, 0.0, 0.0, 0.0, 0.0, 0.0, 0.0, 0.0, 0.0, 0.0, 1.700950494278823E9, 0.0, 2023-11-25 17:14:54.278
90.0, 27350.287419591838, 36882.434711746544, -47299.35345642012, -42655.71149059671, -60386.0539658134, -16939.962439532574, -6701.209449912245, -26418.13026882771, -0.19, 0.936, 0.266, 192.0, 250.0, 16.0, 29.0, 64.0, 8.0, 80.0, 0.0, 0.0, 0.0, 1.70095049428186E9, 0.0, 2023-11-25 17:14:54.281
91.0, 27409.184266231572, 36942.04681420884, -47249.26319709578, -42606.38119058385, -60331.5380610869, -16881.44557254858, -6730.110255492957, -26364.26256469042, -0.19, 0.936, 0.266, 192.0, 0.0, 0.0, 0.0, 0.0, 0.0, 0.0, 0.0, 0.0, 0.0, 1.700950494285871E9, 0.0, 2023-11-25 17:14:54.285
92.0, 27378.89765249463, 36860.53000218034, -47299.93460177596, -42671.73769137117, -60347.98894500601, -16895.05778492186, -6467.544313376465, -26444.170051118144, -0.19, 0.936, 0.266, 192.0, 0.0, 0.0, 0.0, 0.0, 0.0, 0.0, 0.0, 0.0, 0.0, 1.700950494290821E9, 0.0, 2023-11-25 17:14:54.290
93.0, 27311.417735984058, 36790.07730365721, -47333.41751497001, -42727.6841077428, -60412.33961729284, -16983.950672620616, -6537.2370525881115, -26497.747182577514, -0.19, 0.936, 0.266, 192.0, 0.0, 0.0, 0.0, 0.0, 0.0, 0.0, 0.0, 0.0, 0.0, 1.700950494294865E9, 0.0, 2023-11-25 17:14:54.294
94.0, 27329.56735248177, 36852.19280149851, -47319.55943340772, -42692.21188929223, -60409.29978004692, -16954.22285249506, -6657.93647264677, -26448.57334477584, -0.19, 0.936, 0.266, 192.0, 0.0, 0.0, 0.0, 0.0, 0.0, 0.0, 0.0, 0.0, 0.0, 1.700950494298939E9, 0.0, 2023-11-25 17:14:54.298
95.0, 27392.487513123455, 36928.1663809021, -47265.289397870234, -42629.22467341717, -60354.068619497855, -16898.388194845702, -6744.013040544158, -26366.721256580506, -0.19, 0.936, 0.266, 192.0, 0.0, 0.0, 0.0, 0.0, 0.0, 0.0, 0.0, 0.0, 0.0, 1.700950494303753E9, 0.0, 2023-11-25 17:14:54.303
96.0, 27399.505960882423, 36882.30060127981, -47286.27768591377, -42656.806726075025, -60330.17460467513, -16866.604014230255, -6480.597732138363, -26400.360631985743, -0.19, 0.936, 0.266, 192.0, 0.0, 0.0, 0.0, 0.0, 0.0, 0.0, 0.0, 0.0, 0.0, 1.700950494306937E9, 0.0, 2023-11-25 17:14:54.306
97.0, 27330.3496635377, 36795.06174267075, -47323.046305542746, -42718.810465194045, -60389.69730015961, -16956.323916473855, -6488.174973508713, -26437.397472548186, -0.19, 0.936, 0.266, 192.0, 0.0, 0.0, 0.0, 0.0, 0.0, 0.0, 0.0, 0.0, 0.0, 1.700950494311993E9, 0.0, 2023-11-25 17:14:54.311
98.0, 27335.244695573416, 36843.00623452738, -47313.63622112706, -42689.529679957595, -60389.42907922615, -16944.72336110155, -6615.289344226044, -26427.719167199037, -0.19, 0.936, 0.266, 192.0, 0.0, 0.0, 0.0, 0.0, 0.0, 0.0, 0.0, 0.0, 0.0, 1.700950494315883E9, 0.0, 2023-11-25 17:14:54.315
99.0, 27397.740173070455, 36931.80971524832, -47258.53917104473, -42624.48610359265, -60342.75863680347, -16914.481450853524, -6753.490180193207, -26381.808684087835, -0.184, 0.932, 0.268, 192.0, 250.0, 64.0, 29.0, 32.0, 8.0, 96.0, 0.0, 0.0, 0.0, 1.700950494318881E9, 0.0, 2023-11-25 17:14:54.318
100.0, 27424.89754258365, 36919.35979358671, -47264.104755414104, -42627.68240304976, -60302.547848528375, -16866.179331085605, -6532.543186252497, -26403.244007020476, -0.184, 0.932, 0.268, 192.0, 0.0, 0.0, 0.0, 0.0, 0.0, 0.0, 0.0, 0.0, 0.0, 1.700950494323908E9, 0.0, 2023-11-25 17:14:54.323
101.0, 27343.023102643863, 36810.99853646738, -47326.80139861124, -42711.903776157356, -60379.21433201007, -16966.851588112306, -6475.054499513448, -26457.42463558014, -0.184, 0.932, 0.268, 192.0, 0.0, 0.0, 0.0, 0.0, 0.0, 0.0, 0.0, 0.0, 0.0, 1.700950494328323E9, 0.0, 2023-11-25 17:14:54.328
102.0, 27348.119300379672, 36842.805068827285, -47323.09100903166, -42686.06515956702, -60387.484477458536, -16962.492997943522, -6607.421530177776, -26432.971827146033, -0.184, 0.932, 0.268, 192.0, 0.0, 0.0, 0.0, 0.0, 0.0, 0.0, 0.0, 0.0, 0.0, 1.700950494332973E9, 0.0, 2023-11-25 17:14:54.332
103.0, 27405.026841762883, 36935.05071819433, -47278.6110375656, -42623.4132198588, -60355.52148288745, -16933.167509218158, -6764.1072588094785, -26374.656125862137, -0.184, 0.932, 0.268, 192.0, 0.0, 0.0, 0.0, 0.0, 0.0, 0.0, 0.0, 0.0, 0.0, 1.700950494336367E9, 0.0, 2023-11-25 17:14:54.336
104.0, 27445.639961438177, 36943.72319504299, -47270.16207816149, -42610.940946452734, -60307.10760439726, -16877.176389357614, -6604.292285954033, -26387.88835857968, -0.184, 0.932, 0.268, 192.0, 0.0, 0.0, 0.0, 0.0, 0.0, 0.0, 0.0, 0.0, 0.0, 1.700950494338984E9, 0.0, 2023-11-25 17:14:54.338
105.0, 27378.450617605522, 36841.396908926596, -47325.95203232194, -42691.92131661431, -60364.484532414026, -16963.230605510547, -6480.105993760347, -26460.24095538151, -0.184, 0.932, 0.268, 192.0, 0.0, 0.0, 0.0, 0.0, 0.0, 0.0, 0.0, 0.0, 0.0, 1.700950494341985E9, 0.0, 2023-11-25 17:14:54.341
106.0, 27357.88701270664, 36848.43770843002, -47329.058924801226, -42686.04280782257, -60386.74686989151, -16981.894312130727, -6608.092082511435, -26468.064065940867, -0.184, 0.932, 0.268, 192.0, 0.0, 0.0, 0.0, 0.0, 0.0, 0.0, 0.0, 0.0, 0.0, 1.700950494345992E9, 0.0, 2023-11-25 17:14:54.345
107.0, 27392.80043754583, 36926.467648323494, -47296.537136618754, -42639.93115901127, -60373.31347147387, -16966.717477645576, -6767.750593155693, -26438.872687682237, -0.184, 0.932, 0.268, 192.0, 0.0, 0.0, 0.0, 0.0, 0.0, 0.0, 0.0, 0.0, 0.0, 1.700950494351971E9, 0.0, 2023-11-25 17:14:54.351
108.0, 27434.441737466066, 36941.33155838628, -47274.29715088572, -42615.076019176966, -60323.35732261626, -16901.182162902613, -6668.732365218683, -26400.986480830492, -0.184, 0.932, 0.268, 192.0, 0.0, 0.0, 0.0, 0.0, 0.0, 0.0, 0.0, 0.0, 0.0, 1.70095049435497E9, 0.0, 2023-11-25 17:14:54.354
109.0, 27387.346611898734, 36849.95762705298, -47317.21250023991, -42681.10307229794, -60357.17551197714, -16942.10820700028, -6467.18668546518, -26437.509231270462, -0.182, 0.928, 0.268, 192.0, 250.0, 80.0, 29.0, 0.0, 8.0, 96.0, 0.0, 0.0, 0.0, 1.700950494359055E9, 0.0, 2023-11-25 17:14:54.359
110.0, 27348.78985271333, 36823.33669940671, -47326.957860822426, -42693.19536604826, -60393.11711706127, -16977.379259750756, -6574.698576295206, -26439.90086792718, -0.182, 0.928, 0.268, 192.0, 0.0, 0.0, 0.0, 0.0, 0.0, 0.0, 0.0, 0.0, 0.0, 1.70095049436306E9, 0.0, 2023-11-25 17:14:54.363
111.0, 27382.18335892956, 36896.04692411982, -47293.87727902857, -42645.22852244718, -60378.52142793196, -16955.183977506636, -6726.601031613473, -26410.731841413002, -0.182, 0.928, 0.268, 192.0, 0.0, 0.0, 0.0, 0.0, 0.0, 0.0, 0.0, 0.0, 0.0, 1.700950494367023E9, 0.0, 2023-11-25 17:14:54.367
112.0, 27437.772147389907, 36938.31407288481, -47254.91818844297, -42605.710638250195, -60326.307752884364, -16895.81774423334, -6706.506813348153, -26389.296518480365, -0.182, 0.928, 0.268, 192.0, 0.0, 0.0, 0.0, 0.0, 0.0, 0.0, 0.0, 0.0, 0.0, 1.700950494370183E9, 0.0, 2023-11-25 17:14:54.370
113.0, 27396.980213758972, 36850.51642066436, -47309.635258869566, -42683.226488021195, -60359.030706766935, -16935.715608086062, -6472.059365756437, -26480.916319002667, -0.182, 0.928, 0.268, 192.0, 0.0, 0.0, 0.0, 0.0, 0.0, 0.0, 0.0, 0.0, 0.0, 1.700950494374215E9, 0.0, 2023-11-25 17:14:54.374
114.0, 27346.085291634237, 36805.99174570939, -47330.40002946855, -42721.35856406195, -60410.08209110286, -17002.54732400743, -6572.239884405123, -26507.20197048211, -0.182, 0.928, 0.268, 192.0, 0.0, 0.0, 0.0, 0.0, 0.0, 0.0, 0.0, 0.0, 0.0, 1.700950494379083E9, 0.0, 2023-11-25 17:14:54.379
115.0, 27368.012352944894, 36876.265630276874, -47307.2659739573, -42679.06906355251, -60400.02380609797, -16968.192692779623, -6701.254153401155, -26437.84450743729, -0.182, 0.928, 0.268, 192.0, 0.0, 0.0, 0.0, 0.0, 0.0, 0.0, 0.0, 0.0, 0.0, 1.700950494383091E9, 0.0, 2023-11-25 17:14:54.383
116.0, 27434.039406065873, 36946.472459610995, -47246.37982206104, -42614.31605986549, -60332.23096516502, -16898.030566934416, -6739.252118975177, -26354.78542504137, -0.182, 0.928, 0.268, 192.0, 0.0, 0.0, 0.0, 0.0, 0.0, 0.0, 0.0, 0.0, 0.0, 1.700950494387049E9, 0.0, 2023-11-25 17:14:54.387
117.0, 27405.451524907534, 36864.91094409358, -47294.63723834005, -42673.861107094424, -60342.33395365882, -16899.841058235295, -6467.633720354285, -26411.1341728132, -0.182, 0.928, 0.268, 192.0, 0.0, 0.0, 0.0, 0.0, 0.0, 0.0, 0.0, 0.0, 0.0, 1.700950494391086E9, 0.0, 2023-11-25 17:14:54.391
118.0, 27335.915247907073, 36785.964582677436, -47326.28730848877, -42729.31578508804, -60404.62826545576, -16988.13044883376, -6526.0835321049135, -26454.04952216739, -0.182, 0.928, 0.268, 192.0, 0.0, 0.0, 0.0, 0.0, 0.0, 0.0, 0.0, 0.0, 0.0, 1.700950494395348E9, 0.0, 2023-11-25 17:14:54.395
119.0, 27353.237849859936, 36844.63791187262, -47305.54488963424, -42685.17108978881, -60395.21818104007, -16956.413323451678, -6644.637184695863, -26417.52677172742, -0.18, 0.932, 0.268, 192.0, 250.0, 96.0, 29.0, 32.0, 8.0, 96.0, 0.0, 0.0, 0.0, 1.700950494399092E9, 0.0, 2023-11-25 17:14:54.399
120.0, 27411.15121974364, 36921.304395354324, -47254.739374487326, -42625.201359415216, -60346.938413016615, -16914.883782253717, -6743.990688799702, -26376.108989251734, -0.18, 0.932, 0.268, 192.0, 0.0, 0.0, 0.0, 0.0, 0.0, 0.0, 0.0, 0.0, 0.0, 1.700950494404176E9, 0.0, 2023-11-25 17:14:54.404
121.0, 27415.174533745594, 36877.338514010735, -47280.77915677776, -42652.738708584155, -60326.6877325401, -16885.938273184096, -6488.689063631185, -26413.59286470328, -0.18, 0.932, 0.268, 192.0, 0.0, 0.0, 0.0, 0.0, 0.0, 0.0, 0.0, 0.0, 0.0, 1.700950494408227E9, 0.0, 2023-11-25 17:14:54.408
122.0, 27349.147480624615, 36785.249326854864, -47319.671192129994, -42715.033020381095, -60387.37271873626, -16978.362736506788, -6494.120537533825, -26449.288600598407, -0.18, 0.932, 0.268, 192.0, 0.0, 0.0, 0.0, 0.0, 0.0, 0.0, 0.0, 0.0, 0.0, 1.700950494412178E9, 0.0, 2023-11-25 17:14:54.412
123.0, 27366.5594895553, 36836.72539433544, -47303.37677042207, -42677.90677284083, -60380.53308493294, -16961.375410720757, -6623.335972229955, -26431.809536434357, -0.18, 0.932, 0.268, 192.0, 0.0, 0.0, 0.0, 0.0, 0.0, 0.0, 0.0, 0.0, 0.0, 1.7009504944162E9, 0.0, 2023-11-25 17:14:54.416
124.0, 27420.04721403685, 36916.09643889623, -47260.57317979016, -42621.088638435445, -60346.55843336087, -16935.223869708047, -6763.190837286811, -26386.32373646781, -0.18, 0.932, 0.268, 192.0, 0.0, 0.0, 0.0, 0.0, 0.0, 0.0, 0.0, 0.0, 0.0, 1.700950494420191E9, 0.0, 2023-11-25 17:14:54.420
125.0, 27444.120042815215, 36893.476473507464, -47271.81610725119, -42630.40931587331, -60313.07552016682, -16896.555351800365, -6559.030003432036, -26427.585056732307, -0.18, 0.932, 0.268, 192.0, 0.0, 0.0, 0.0, 0.0, 0.0, 0.0, 0.0, 0.0, 0.0, 1.700950494423217E9, 0.0, 2023-11-25 17:14:54.423
126.0, 27377.42243736058, 36795.44172232649, -47320.60996539712, -42703.8794998979, -60374.85574184129, -16989.40449826771, -6502.614200426841, -26490.795790051914, -0.18, 0.932, 0.268, 192.0, 0.0, 0.0, 0.0, 0.0, 0.0, 0.0, 0.0, 0.0, 0.0, 1.700950494426202E9, 0.0, 2023-11-25 17:14:54.426
127.0, 27373.08619893625, 36822.040298228305, -47320.386447952566, -42684.65699966634, -60389.0043960815, -16988.577483722864, -6631.248489767134, -26472.37795262074, -0.18, 0.932, 0.268, 192.0, 0.0, 0.0, 0.0, 0.0, 0.0, 0.0, 0.0, 0.0, 0.0, 1.700950494430239E9, 0.0, 2023-11-25 17:14:54.430
128.0, 27420.56130415932, 36907.55807251431, -47274.47596484137, -42621.58037681346, -60355.72264858754, -16951.83121583834, -6777.183029315834, -26391.41993420362, -0.18, 0.932, 0.268, 192.0, 0.0, 0.0, 0.0, 0.0, 0.0, 0.0, 0.0, 0.0, 0.0, 1.700950494434303E9, 0.0, 2023-11-25 17:14:54.434
129.0, 27453.373665019713, 36910.57555801577, -47266.94342695993, -42610.940946452734, -60309.6333515207, -16893.62727327672, -6615.0658267814915, -26397.589015673282, -0.186, 0.934, 0.27, 192.0, 250.0, 48.0, 29.0, 48.0, 8.0, 112.0, 0.0, 0.0, 0.0, 1.700950494439287E9, 0.0, 2023-11-25 17:14:54.439
130.0, 27389.55943459981, 36808.91982423304, -47316.85487232863, -42686.06515956702, -60361.958785290575, -16963.27530899946, -6480.955360049648, -26444.885306940712, -0.186, 0.934, 0.27, 192.0, 0.0, 0.0, 0.0, 0.0, 0.0, 0.0, 0.0, 0.0, 0.0, 1.700950494443325E9, 0.0, 2023-11-25 17:14:54.443
131.0, 27361.932678453053, 36803.82362649723, -47323.62745089859, -42686.6239531784, -60389.27261701496, -16983.436582498143, -6604.940486543237, -26449.646228509693, -0.186, 0.934, 0.27, 192.0, 0.0, 0.0, 0.0, 0.0, 0.0, 0.0, 0.0, 0.0, 0.0, 1.700950494446427E9, 0.0, 2023-11-25 17:14:54.446
132.0, 27393.64980383513, 36875.75154015441, -47294.100796473125, -42642.14398171234, -60377.359137220286, -16969.69025965813, -6758.988709329214, -26425.886324153704, -0.186, 0.934, 0.27, 192.0, 0.0, 0.0, 0.0, 0.0, 0.0, 0.0, 0.0, 0.0, 0.0, 1.700950494455309E9, 0.0, 2023-11-25 17:14:54.455
133.0, 27434.218220021514, 36894.72817119696, -47271.30201712871, -42616.5065308221, -60327.40298836267, -16907.59711356129, -6673.537990276574, -26408.07198382282, -0.186, 0.934, 0.27, 192.0, 0.0, 0.0, 0.0, 0.0, 0.0, 0.0, 0.0, 0.0, 0.0, 1.700950494460326E9, 0.0, 2023-11-25 17:14:54.460
134.0, 27378.115341438694, 36794.2347281259, -47320.78877935276, -42689.507328213134, -60363.90338705819, -16950.13248325974, -6465.175028464202, -26447.634571508715, -0.186, 0.934, 0.27, 192.0, 0.0, 0.0, 0.0, 0.0, 0.0, 0.0, 0.0, 0.0, 0.0, 1.700950494463306E9, 0.0, 2023-11-25 17:14:54.463
135.0, 27339.715044464476, 36768.03848362428, -47327.49430268935, -42700.906717885344, -60395.84402988482, -16986.297605788423, -6577.179619929746, -26438.313894070852, -0.186, 0.934, 0.27, 192.0, 0.0, 0.0, 0.0, 0.0, 0.0, 0.0, 0.0, 0.0, 0.0, 1.700950494466438E9, 0.0, 2023-11-25 17:14:54.466
136.0, 27375.500187337424, 36846.58251364023, -47287.663494069995, -42644.20034220223, -60370.58655865033, -16952.97115480556, -6717.079188475513, -26392.336355726286, -0.186, 0.934, 0.27, 192.0, 0.0, 0.0, 0.0, 0.0, 0.0, 0.0, 0.0, 0.0, 0.0, 1.700950494470438E9, 0.0, 2023-11-25 17:14:54.470
137.0, 27429.367891474714, 36893.744694440924, -47242.580025503645, -42600.83795795894, -60311.64500852168, -16891.235636620004, -6699.8906969893815, -26368.107064736734, -0.186, 0.934, 0.27, 192.0, 0.0, 0.0, 0.0, 0.0, 0.0, 0.0, 0.0, 0.0, 0.0, 1.70095049447342E9, 0.0, 2023-11-25 17:14:54.473
138.0, 27389.648841577633, 36805.72352477593, -47293.542002861745, -42671.98356056018, -60336.231927422516, -16919.130613700225, -6453.127438202791, -26435.922257414135, -0.186, 0.934, 0.27, 192.0, 0.0, 0.0, 0.0, 0.0, 0.0, 0.0, 0.0, 0.0, 0.0, 1.700950494476449E9, 0.0, 2023-11-25 17:14:54.476
139.0, 27341.056149131793, 36755.70032068495, -47307.55654663522, -42703.0301336086, -60381.98594832253, -16976.01580333898, -6542.489712535109, -26436.101071369776, -0.192, 0.928, 0.27, 192.0, 250.0, 0.0, 29.0, 0.0, 8.0, 112.0, 0.0, 0.0, 0.0, 1.700950494480393E9, 0.0, 2023-11-25 17:14:54.480
140.0, 27360.926849952564, 36823.47080987344, -47286.43414812496, -42665.14392675686, -60376.06273604187, -16950.02072453746, -6665.536065761575, -26397.99134707348, -0.192, 0.928, 0.27, 192.0, 0.0, 0.0, 0.0, 0.0, 0.0, 0.0, 0.0, 0.0, 0.0, 1.700950494483399E9, 0.0, 2023-11-25 17:14:54.483
141.0, 27420.158972759127, 36886.36861877068, -47236.61210973407, -42615.210129643696, -60325.70425578407, -16906.948912972082, -6728.7691508256385, -26380.445227676064, -0.192, 0.928, 0.27, 192.0, 0.0, 0.0, 0.0, 0.0, 0.0, 0.0, 0.0, 0.0, 0.0, 1.700950494487394E9, 0.0, 2023-11-25 17:14:54.487
142.0, 27405.451524907534, 36817.14526619259, -47272.1066799291, -42662.752290100136, -60324.87724123922, -16903.909075726162, -6461.8669702848165, -26439.386777804706, -0.192, 0.928, 0.27, 192.0, 0.0, 0.0, 0.0, 0.0, 0.0, 0.0, 0.0, 0.0, 0.0, 1.700950494492485E9, 0.0, 2023-11-25 17:14:54.492
143.0, 27331.668416460565, 36735.22612276389, -47308.629430369074, -42715.74827620367, -60387.3056635029, -16982.564864464388, -6501.474261459621, -26439.587943504805, -0.192, 0.928, 0.27, 192.0, 0.0, 0.0, 0.0, 0.0, 0.0, 0.0, 0.0, 0.0, 0.0, 1.700950494496903E9, 0.0, 2023-11-25 17:14:54.496
144.0, 27349.12512888016, 36799.465036328445, -47293.87727902857, -42676.61037166243, -60382.67885240065, -16964.728172389052, -6637.88695787036, -26408.47431522302, -0.192, 0.928, 0.27, 192.0, 0.0, 0.0, 0.0, 0.0, 0.0, 0.0, 0.0, 0.0, 0.0, 1.700950494499515E9, 0.0, 2023-11-25 17:14:54.499
145.0, 27420.024862292394, 36887.173281571064, -47235.91920565596, -42610.806835986004, -60327.31358138485, -16920.96345674556, -6753.646642404395, -26358.227593687487, -0.192, 0.928, 0.27, 192.0, 0.0, 0.0, 0.0, 0.0, 0.0, 0.0, 0.0, 0.0, 0.0, 1.700950494503536E9, 0.0, 2023-11-25 17:14:54.503
