%OpenBCI Raw EXG Data
%Number of channels = 8
%Sample Rate = 250 Hz
%Board = OpenBCI_GUI$BoardCytonSerial
Sample Index, EXG Channel 0, EXG Channel 1, EXG Channel 2, EXG Channel 3, EXG Channel 4, EXG Channel 5, EXG Channel 6, EXG Channel 7, Accel Channel 0, Accel Channel 1, Accel Channel 2, Other, Other, Other, Other, Other, Other, Other, Analog Channel 0, Analog Channel 1, Analog Channel 2, Timestamp, Other, Timestamp (Formatted)
234.0, 73569.20225253132, 82130.00978589176, -16604.440403513956, -14793.658529956167, -9207.44350045246, -5524.2112903846855, -19008.28111270441, 187500.0, 0.0, 0.0, 0.0, 192.0, 0.0, 0.0, 0.0, 0.0, 0.0, 0.0, 0.0, 0.0, 0.0, 1.700945113213495E9, 0.0, 2023-11-25 15:45:13.213
235.0, 73588.55886322963, 82143.13025988701, -16530.16555668897, -15017.041864042505, -9428.859881026732, -5799.942409985353, -18958.28026035789, 187500.0, 0.0, 0.0, 0.0, 192.0, 0.0, 0.0, 0.0, 0.0, 0.0, 0.0, 0.0, 0.0, 0.0, 1.700945113213518E9, 0.0, 2023-11-25 15:45:13.213
236.0, 73609.97183441781, 82110.6755269379, -15700.289988552331, -14033.006314397611, -8242.116360916658, -5092.934381119536, -18912.950922602526, 187500.0, 0.0, 0.0, 0.0, 192.0, 0.0, 0.0, 0.0, 0.0, 0.0, 0.0, 0.0, 0.0, 0.0, 1.700945113213532E9, 0.0, 2023-11-25 15:45:13.213
237.0, 73589.63174696348, 82090.04486680566, -15973.428305796184, -14182.941816203811, -8358.054859406337, -5175.16644897061, -18986.21994092702, 187500.0, 0.0, 0.0, 0.0, 192.0, 0.0, 0.0, 0.0, 0.0, 0.0, 0.0, 0.0, 0.0, 0.0, 1.700945113213544E9, 0.0, 2023-11-25 15:45:13.213
0.0, 0.0, 0.0, 0.0, 0.0, 0.0, 0.0, 0.0, 0.0, -0.112, 0.976, 0.094, 192.0, 252.0, 128.0, 30.0, 128.0, 2.0, 240.0, 0.0, 0.0, 0.0, 1.700945113296217E9, 0.0, 2023-11-25 15:45:13.296
1.0, 74026.98833072047, 82251.60327572862, -15979.552683776938, -14432.834319214144, -8766.510637582616, -5645.916538943832, -18534.29001978517, 187500.0, -0.112, 0.976, 0.094, 192.0, 0.0, 0.0, 0.0, 0.0, 0.0, 0.0, 0.0, 0.0, 0.0, 1.700945113313246E9, 0.0, 2023-11-25 15:45:13.313
2.0, 74045.31676117382, 82210.9007490755, -14989.325700917925, -13253.221005585314, -7361.368222399738, -4675.135573760936, -18457.42237060337, 187500.0, -0.112, 0.976, 0.094, 192.0, 0.0, 0.0, 0.0, 0.0, 0.0, 0.0, 0.0, 0.0, 0.0, 1.700945113316185E9, 0.0, 2023-11-25 15:45:13.316
3.0, 74028.48589759898, 82193.30992618918, -15291.901265609416, -13523.3418373277, -7519.551517909947, -4743.554263538631, -18525.483432469777, 187500.0, -0.112, 0.976, 0.094, 192.0, 0.0, 0.0, 0.0, 0.0, 0.0, 0.0, 0.0, 0.0, 0.0, 1.700945113320206E9, 0.0, 2023-11-25 15:45:13.320
4.0, 74006.17885663258, 82222.0542695587, -15851.119560136744, -14048.429018071774, -8253.426343611043, -5123.220994856477, -18555.01008689524, 187500.0, -0.112, 0.976, 0.094, 192.0, 0.0, 0.0, 0.0, 0.0, 0.0, 0.0, 0.0, 0.0, 0.0, 1.700945113324262E9, 0.0, 2023-11-25 15:45:13.324
5.0, 74011.45386832402, 82252.13971759555, -16116.993560432622, -14526.421073248515, -8887.970016952755, -5697.482013402226, -18539.408569265433, 187500.0, -0.112, 0.976, 0.094, 192.0, 0.0, 0.0, 0.0, 0.0, 0.0, 0.0, 0.0, 0.0, 0.0, 1.700945113327315E9, 0.0, 2023-11-25 15:45:13.327
6.0, 74037.15837444764, 82221.65193815851, -15070.551940268511, -13391.98063516386, -7534.258965761539, -4817.5385376856975, -18425.369969054456, 187500.0, -0.112, 0.976, 0.094, 192.0, 0.0, 0.0, 0.0, 0.0, 0.0, 0.0, 0.0, 0.0, 0.0, 1.700945113331255E9, 0.0, 2023-11-25 15:45:13.331
7.0, 74013.219656136, 82173.14865269049, -15210.473860558734, -13418.489804087854, -7424.958935375087, -4695.78858563764, -18521.348359745545, 187500.0, -0.112, 0.976, 0.094, 192.0, 0.0, 0.0, 0.0, 0.0, 0.0, 0.0, 0.0, 0.0, 0.0, 1.700945113335245E9, 0.0, 2023-11-25 15:45:13.335
8.0, 73998.08752513975, 82196.52857739074, -15743.808835006814, -13964.274700197542, -8107.469452317889, -5051.04721201029, -18551.657325226945, 187500.0, -0.094, 0.978, 0.094, 192.0, 253.0, 16.0, 30.0, 144.0, 2.0, 240.0, 0.0, 0.0, 0.0, 1.70094511334029E9, 0.0, 2023-11-25 15:45:13.340
9.0, 74003.67546125359, 82240.20388605642, -16201.371395751405, -14571.683355770512, -8936.652116376414, -5699.113690747463, -18580.893406974486, 187500.0, -0.094, 0.978, 0.094, 192.0, 0.0, 0.0, 0.0, 0.0, 0.0, 0.0, 0.0, 0.0, 0.0, 1.700945113344498E9, 0.0, 2023-11-25 15:45:13.344
10.0, 74034.14088894617, 82220.46729570237, -15219.459261829767, -13609.619570925186, -7777.982387302207, -5005.919039955025, -18439.49627155021, 187500.0, -0.094, 0.978, 0.094, 192.0, 0.0, 0.0, 0.0, 0.0, 0.0, 0.0, 0.0, 0.0, 0.0, 1.700945113348366E9, 0.0, 2023-11-25 15:45:13.348
11.0, 74019.09816492775, 82170.62290556704, -15109.198106431737, -13272.48820930579, -7301.577305981792, -4609.086168895504, -18518.71085389982, 187500.0, -0.094, 0.978, 0.094, 192.0, 0.0, 0.0, 0.0, 0.0, 0.0, 0.0, 0.0, 0.0, 0.0, 1.700945113352323E9, 0.0, 2023-11-25 15:45:13.352
12.0, 73999.3168710848, 82186.13501621902, -15637.928621522025, -13847.93387030767, -7949.375563785502, -4967.764612169816, -18558.89929043046, 187500.0, -0.094, 0.978, 0.094, 192.0, 0.0, 0.0, 0.0, 0.0, 0.0, 0.0, 0.0, 0.0, 0.0, 1.700945113355437E9, 0.0, 2023-11-25 15:45:13.355
13.0, 74000.6132722632, 82235.97940635437, -16212.770785423612, -14509.63491316258, -8875.765964480159, -5615.562869973525, -18602.172267695936, 187500.0, -0.094, 0.978, 0.094, 192.0, 0.0, 0.0, 0.0, 0.0, 0.0, 0.0, 0.0, 0.0, 0.0, 1.700945113359274E9, 0.0, 2023-11-25 15:45:13.359
14.0, 74028.93293248808, 82226.94930159442, -15423.776557895728, -13871.760829897026, -8078.568646737176, -5212.449158722063, -18465.647812562922, 187500.0, -0.094, 0.978, 0.094, 192.0, 0.0, 0.0, 0.0, 0.0, 0.0, 0.0, 0.0, 0.0, 0.0, 1.700945113363368E9, 0.0, 2023-11-25 15:45:13.363
15.0, 74026.76481327592, 82190.80653081018, -15039.192442797716, -13235.80899665463, -7256.5832443932595, -4587.941418640783, -18515.313388742612, 187500.0, -0.094, 0.978, 0.094, 192.0, 0.0, 0.0, 0.0, 0.0, 0.0, 0.0, 0.0, 0.0, 0.0, 1.70094511336741E9, 0.0, 2023-11-25 15:45:13.367
16.0, 74008.63754852266, 82195.99213552382, -15537.211661006411, -13791.115735902278, -7822.797634935097, -4916.936745278447, -18546.359961791037, 187500.0, -0.094, 0.978, 0.094, 192.0, 0.0, 0.0, 0.0, 0.0, 0.0, 0.0, 0.0, 0.0, 0.0, 1.70094511337236E9, 0.0, 2023-11-25 15:45:13.372
17.0, 73997.81930420629, 82237.05229008822, -16163.261671455108, -14420.719673719368, -8749.54566354104, -5502.127766862842, -18602.149915951482, 187500.0, -0.094, 0.978, 0.094, 192.0, 0.0, 0.0, 0.0, 0.0, 0.0, 0.0, 0.0, 0.0, 0.0, 1.700945113376349E9, 0.0, 2023-11-25 15:45:13.376
18.0, 74022.09329868476, 82230.68204291846, -15638.196842455489, -14096.954655284246, -8352.757495970429, -5404.428291848694, -18487.6642808514, 187500.0, -0.088, 0.974, 0.10400000000000001, 192.0, 253.0, 64.0, 30.0, 112.0, 3.0, 64.0, 0.0, 0.0, 0.0, 1.700945113380346E9, 0.0, 2023-11-25 15:45:13.380
19.0, 74035.54904884685, 82201.31185070418, -14979.982671735606, -13145.373838588457, -7215.14311017312, -4564.136810795881, -18498.90720831242, 187500.0, -0.088, 0.974, 0.10400000000000001, 192.0, 0.0, 0.0, 0.0, 0.0, 0.0, 0.0, 0.0, 0.0, 0.0, 1.700945113383404E9, 0.0, 2023-11-25 15:45:13.383
20.0, 74008.59284503375, 82185.91149877447, -15450.576299497641, -13678.351185125255, -7705.562735267012, -4848.048668867191, -18535.787586663675, 187500.0, -0.088, 0.974, 0.10400000000000001, 192.0, 0.0, 0.0, 0.0, 0.0, 0.0, 0.0, 0.0, 0.0, 0.0, 1.700945113387562E9, 0.0, 2023-11-25 15:45:13.387
21.0, 73994.39948730463, 82230.0114905848, -16072.044202332998, -14272.34879402504, -8581.818173148415, -5349.197131299631, -18593.768011780743, 187500.0, -0.088, 0.974, 0.10400000000000001, 192.0, 0.0, 0.0, 0.0, 0.0, 0.0, 0.0, 0.0, 0.0, 0.0, 1.700945113391585E9, 0.0, 2023-11-25 15:45:13.391
22.0, 74010.20217063454, 82230.41382198498, -15850.672525247637, -14301.16019262793, -8614.004685164056, -5553.536779110048, -18519.493164955755, 187500.0, -0.088, 0.974, 0.10400000000000001, 192.0, 0.0, 0.0, 0.0, 0.0, 0.0, 0.0, 0.0, 0.0, 0.0, 1.700945113395407E9, 0.0, 2023-11-25 15:45:13.395
23.0, 74041.06992972731, 82195.32158319016, -14966.035183195494, -13166.183312676349, -7266.350956720228, -4590.757738442152, -18474.096771967026, 187500.0, -0.088, 0.974, 0.10400000000000001, 192.0, 0.0, 0.0, 0.0, 0.0, 0.0, 0.0, 0.0, 0.0, 0.0, 1.700945113400444E9, 0.0, 2023-11-25 15:45:13.400
24.0, 74026.87657199819, 82189.37601916505, -15378.067240484625, -13615.945114606038, -7619.150891202795, -4805.75916835775, -18546.047037368662, 187500.0, -0.088, 0.974, 0.10400000000000001, 192.0, 0.0, 0.0, 0.0, 0.0, 0.0, 0.0, 0.0, 0.0, 0.0, 1.700945113404447E9, 0.0, 2023-11-25 15:45:13.404
25.0, 74000.63562400766, 82219.84144685764, -15958.743209689048, -14163.294632827598, -8406.08875824079, -5235.404400277663, -18570.38808708049, 187500.0, -0.088, 0.974, 0.10400000000000001, 192.0, 0.0, 0.0, 0.0, 0.0, 0.0, 0.0, 0.0, 0.0, 0.0, 1.700945113408472E9, 0.0, 2023-11-25 15:45:13.408
26.0, 74009.59867353424, 82242.9084471355, -16012.163878937232, -14449.754589766811, -8786.291931425563, -5667.664786298846, -18523.80705163563, 187500.0, -0.088, 0.974, 0.10400000000000001, 192.0, 0.0, 0.0, 0.0, 0.0, 0.0, 0.0, 0.0, 0.0, 0.0, 1.700945113411458E9, 0.0, 2023-11-25 15:45:13.411
27.0, 74045.0261884959, 82216.9580718229, -14979.222712424125, -13224.722531404797, -7348.247748404473, -4669.927617302849, -18428.387454555923, 187500.0, -0.078, 0.978, 0.10200000000000001, 192.0, 253.0, 144.0, 30.0, 144.0, 3.0, 48.0, 0.0, 0.0, 0.0, 1.700945113415457E9, 0.0, 2023-11-25 15:45:13.415
28.0, 74024.21671440802, 82183.51986211776, -15270.868274076973, -13468.244787245369, -7476.85968600031, -4721.001353383226, -18519.42610972239, 187500.0, -0.078, 0.978, 0.10200000000000001, 192.0, 0.0, 0.0, 0.0, 0.0, 0.0, 0.0, 0.0, 0.0, 0.0, 1.700945113419487E9, 0.0, 2023-11-25 15:45:13.419
29.0, 74001.95437693053, 82200.73070534834, -15830.935934893601, -14020.601096224917, -8216.47891002642, -5116.895451175625, -18561.357982320547, 187500.0, -0.078, 0.978, 0.10200000000000001, 192.0, 0.0, 0.0, 0.0, 0.0, 0.0, 0.0, 0.0, 0.0, 0.0, 1.700945113423522E9, 0.0, 2023-11-25 15:45:13.423
30.0, 74008.48108631147, 82234.59359819813, -16141.893403755834, -14527.940991871475, -8895.077871689544, -5705.774510595144, -18568.935223690896, 187500.0, -0.078, 0.978, 0.10200000000000001, 192.0, 0.0, 0.0, 0.0, 0.0, 0.0, 0.0, 0.0, 0.0, 0.0, 1.700945113428543E9, 0.0, 2023-11-25 15:45:13.428
31.0, 74040.39937739365, 82212.53242642074, -15092.836629490452, -13411.024321439781, -7564.746745198578, -4836.5598722171635, -18438.110463393983, 187500.0, -0.078, 0.978, 0.10200000000000001, 192.0, 0.0, 0.0, 0.0, 0.0, 0.0, 0.0, 0.0, 0.0, 0.0, 1.700945113432518E9, 0.0, 2023-11-25 15:45:13.432
32.0, 74023.23323765198, 82185.12918771854, -15177.370927020424, -13364.085658083637, -7378.9143417971545, -4662.4621346547765, -18520.923676600894, 187500.0, -0.078, 0.978, 0.10200000000000001, 192.0, 0.0, 0.0, 0.0, 0.0, 0.0, 0.0, 0.0, 0.0, 0.0, 1.700945113436489E9, 0.0, 2023-11-25 15:45:13.436
33.0, 74001.17206587459, 82205.26810947277, -15703.262770564888, -13902.494478523075, -8043.3199457311575, -5013.339819114187, -18548.170453091916, 187500.0, -0.078, 0.978, 0.10200000000000001, 192.0, 0.0, 0.0, 0.0, 0.0, 0.0, 0.0, 0.0, 0.0, 0.0, 1.700945113439535E9, 0.0, 2023-11-25 15:45:13.439
34.0, 74002.9155019421, 82246.5070779928, -16188.63090141188, -14527.337494771184, -8899.27999964714, -5666.413088609349, -18577.80886623965, 187500.0, -0.078, 0.978, 0.10200000000000001, 192.0, 0.0, 0.0, 0.0, 0.0, 0.0, 0.0, 0.0, 0.0, 0.0, 1.700945113443558E9, 0.0, 2023-11-25 15:45:13.443
35.0, 74037.00191223645, 82226.88224636106, -15230.21045091277, -13607.607913924208, -7795.30498925507, -5004.644990521073, -18435.472957548256, 187500.0, -0.078, 0.978, 0.10200000000000001, 192.0, 0.0, 0.0, 0.0, 0.0, 0.0, 0.0, 0.0, 0.0, 0.0, 1.700945113447539E9, 0.0, 2023-11-25 15:45:13.447
36.0, 74024.35082487474, 82179.65301032699, -15075.98341417115, -13222.554412192632, -7259.354860705717, -4564.382679984889, -18513.10056604154, 187500.0, -0.078, 0.978, 0.10200000000000001, 192.0, 0.0, 0.0, 0.0, 0.0, 0.0, 0.0, 0.0, 0.0, 0.0, 1.700945113451539E9, 0.0, 2023-11-25 15:45:13.451
37.0, 73991.91844367009, 82176.23319342533, -15604.557467050252, -13815.747358292027, -7902.950990551829, -4925.676277360472, -18551.411456037935, 187500.0, -0.08, 0.978, 0.10200000000000001, 192.0, 253.0, 128.0, 30.0, 144.0, 3.0, 48.0, 0.0, 0.0, 0.0, 1.700945113455595E9, 0.0, 2023-11-25 15:45:13.455
38.0, 73991.67257448108, 82225.33997599363, -16191.53662819107, -14477.470752891393, -8835.152844804865, -5569.048889762032, -18592.02457571323, 187500.0, -0.08, 0.978, 0.10200000000000001, 192.0, 0.0, 0.0, 0.0, 0.0, 0.0, 0.0, 0.0, 0.0, 0.0, 1.700945113460601E9, 0.0, 2023-11-25 15:45:13.460
39.0, 74020.90865622862, 82219.48381894635, -15440.2944970482, -13869.726821151593, -8098.461699302399, -5216.0477895793665, -18454.47194033527, 187500.0, -0.08, 0.978, 0.10200000000000001, 192.0, 0.0, 0.0, 0.0, 0.0, 0.0, 0.0, 0.0, 0.0, 0.0, 1.700945113464613E9, 0.0, 2023-11-25 15:45:13.464
40.0, 74031.61514182272, 82188.3478389201, -14988.744555562087, -13148.212510134283, -7203.386092589628, -4533.358458680923, -18491.642891364445, 187500.0, -0.08, 0.978, 0.10200000000000001, 192.0, 0.0, 0.0, 0.0, 0.0, 0.0, 0.0, 0.0, 0.0, 0.0, 1.700945113467598E9, 0.0, 2023-11-25 15:45:13.467
41.0, 74003.27312985339, 82185.08448422962, -15487.389622615532, -13728.799072360884, -7775.523695412123, -4873.216733123867, -18531.473699983802, 187500.0, -0.08, 0.978, 0.10200000000000001, 192.0, 0.0, 0.0, 0.0, 0.0, 0.0, 0.0, 0.0, 0.0, 0.0, 1.700945113471666E9, 0.0, 2023-11-25 15:45:13.471
42.0, 73977.3674580297, 82215.59461541112, -16114.311351097984, -14360.302908456673, -8697.086119304433, -5447.477751669616, -18588.20242741137, 187500.0, -0.08, 0.978, 0.10200000000000001, 192.0, 0.0, 0.0, 0.0, 0.0, 0.0, 0.0, 0.0, 0.0, 0.0, 1.700945113475697E9, 0.0, 2023-11-25 15:45:13.475
43.0, 73999.89801644064, 82214.32056597716, -15644.544737880797, -14095.367681427919, -8377.389118360177, -5398.438024334672, -18476.354298157014, 187500.0, -0.08, 0.978, 0.10200000000000001, 192.0, 0.0, 0.0, 0.0, 0.0, 0.0, 0.0, 0.0, 0.0, 0.0, 1.700945113479735E9, 0.0, 2023-11-25 15:45:13.479
44.0, 74022.02624345139, 82189.77835056525, -14937.581412503889, -13117.143585341406, -7195.8982581971, -4525.2224236991915, -18471.056934721106, 187500.0, -0.08, 0.978, 0.10200000000000001, 192.0, 0.0, 0.0, 0.0, 0.0, 0.0, 0.0, 0.0, 0.0, 0.0, 1.700945113483662E9, 0.0, 2023-11-25 15:45:13.483
45.0, 74004.01073742041, 82184.52569061825, -15400.70955761785, -13648.153978366136, -7664.6590429138005, -4808.843709092583, -18519.09083355556, 187500.0, -0.08, 0.978, 0.10200000000000001, 192.0, 0.0, 0.0, 0.0, 0.0, 0.0, 0.0, 0.0, 0.0, 0.0, 1.700945113488726E9, 0.0, 2023-11-25 15:45:13.488
46.0, 73989.95149015803, 82227.39633648352, -16002.329111376896, -14219.9563050218, -8512.907744992703, -5290.1214707042545, -18562.14029337648, 187500.0, -0.08, 0.978, 0.10200000000000001, 192.0, 0.0, 0.0, 0.0, 0.0, 0.0, 0.0, 0.0, 0.0, 0.0, 1.700945113493321E9, 0.0, 2023-11-25 15:45:13.493
47.0, 73992.8125134483, 82221.42842071396, -15837.75321695247, -14297.0251199037, -8616.865708454336, -5543.769066783079, -18501.23178973577, 187500.0, -0.078, 0.982, 0.1, 192.0, 253.0, 144.0, 30.0, 176.0, 3.0, 32.0, 0.0, 0.0, 0.0, 1.700945113495846E9, 0.0, 2023-11-25 15:45:13.495
48.0, 74013.4208218361, 82189.46542614287, -14916.682531438177, -13131.024018648151, -7235.617308094181, -4563.533313695588, -18454.538995568633, 187500.0, -0.078, 0.982, 0.1, 192.0, 0.0, 0.0, 0.0, 0.0, 0.0, 0.0, 0.0, 0.0, 0.0, 1.700945113499735E9, 0.0, 2023-11-25 15:45:13.499
49.0, 73997.57343501729, 82178.4907196153, -15293.287073765645, -13522.157194871568, -7532.694343649668, -4725.426998785377, -18517.347397488047, 187500.0, -0.078, 0.982, 0.1, 192.0, 0.0, 0.0, 0.0, 0.0, 0.0, 0.0, 0.0, 0.0, 0.0, 1.700945113503743E9, 0.0, 2023-11-25 15:45:13.503
50.0, 73983.24596682143, 82211.48189443134, -15876.086458693322, -14083.16362895532, -8329.13170208117, -5153.082925448767, -18556.753522962754, 187500.0, -0.078, 0.982, 0.1, 192.0, 0.0, 0.0, 0.0, 0.0, 0.0, 0.0, 0.0, 0.0, 0.0, 1.70094511350777E9, 0.0, 2023-11-25 15:45:13.507
51.0, 73991.38200180317, 82237.99106335534, -15990.415631582217, -14447.988801954843, -8796.730196086191, -5641.535597030592, -18520.923676600894, 187500.0, -0.078, 0.982, 0.1, 192.0, 0.0, 0.0, 0.0, 0.0, 0.0, 0.0, 0.0, 0.0, 0.0, 1.700945113511737E9, 0.0, 2023-11-25 15:45:13.511
52.0, 74021.13217367318, 82208.57616765215, -14940.934174172186, -13246.426075270901, -7370.800658559878, -4675.001463294204, -18415.624608471946, 187500.0, -0.078, 0.982, 0.1, 192.0, 0.0, 0.0, 0.0, 0.0, 0.0, 0.0, 0.0, 0.0, 0.0, 1.700945113515741E9, 0.0, 2023-11-25 15:45:13.515
53.0, 74007.0729264108, 82184.92802201844, -15182.064793356038, -13419.98737096636, -7432.044438367419, -4668.0947742575145, -18490.4135454194, 187500.0, -0.078, 0.982, 0.1, 192.0, 0.0, 0.0, 0.0, 0.0, 0.0, 0.0, 0.0, 0.0, 0.0, 1.700945113520755E9, 0.0, 2023-11-25 15:45:13.520
54.0, 73989.77267620238, 82215.9522433224, -15735.315172113798, -13962.173636218744, -8156.620938375108, -5037.055019981268, -18518.17441203289, 187500.0, -0.078, 0.982, 0.1, 192.0, 0.0, 0.0, 0.0, 0.0, 0.0, 0.0, 0.0, 0.0, 0.0, 1.700945113523786E9, 0.0, 2023-11-25 15:45:13.523
55.0, 73993.68423148207, 82249.45750826091, -16092.987786887621, -14519.290866767273, -8899.1011856915, -5663.797934508078, -18528.500917971243, 187500.0, -0.078, 0.982, 0.1, 192.0, 0.0, 0.0, 0.0, 0.0, 0.0, 0.0, 0.0, 0.0, 0.0, 1.700945113527901E9, 0.0, 2023-11-25 15:45:13.527
56.0, 74018.94170271656, 82217.0027753118, -15057.4538180177, -13446.295374190257, -7613.495899855602, -4845.299404299189, -18399.553704208578, 187500.0, -0.078, 0.982, 0.1, 192.0, 0.0, 0.0, 0.0, 0.0, 0.0, 0.0, 0.0, 0.0, 0.0, 1.700945113531827E9, 0.0, 2023-11-25 15:45:13.531
57.0, 74005.4188973211, 82179.16127194898, -15111.723853555186, -13352.865082367074, -7373.326405683328, -4626.878157481928, -18492.916940798397, 187500.0, -0.076, 0.978, 0.098, 192.0, 253.0, 160.0, 30.0, 144.0, 3.0, 16.0, 0.0, 0.0, 0.0, 1.700945113535814E9, 0.0, 2023-11-25 15:45:13.535
58.0, 73978.52974874136, 82198.89786230301, -15632.608906341662, -13897.890019165281, -8033.68634387092, -4972.056147105235, -18518.107356799526, 187500.0, -0.076, 0.978, 0.098, 192.0, 0.0, 0.0, 0.0, 0.0, 0.0, 0.0, 0.0, 0.0, 0.0, 1.700945113539821E9, 0.0, 2023-11-25 15:45:13.539
59.0, 73970.95250737101, 82245.54595298124, -16144.732075301657, -14524.58823020318, -8917.541374867127, -5627.16342534583, -18550.070351370618, 187500.0, -0.076, 0.978, 0.098, 192.0, 0.0, 0.0, 0.0, 0.0, 0.0, 0.0, 0.0, 0.0, 0.0, 1.700945113544833E9, 0.0, 2023-11-25 15:45:13.544
60.0, 73996.74642047244, 82228.91625510648, -15226.433006099822, -13674.909016479138, -7887.863563044497, -5030.28244141131, -18401.185381553816, 187500.0, -0.076, 0.978, 0.098, 192.0, 0.0, 0.0, 0.0, 0.0, 0.0, 0.0, 0.0, 0.0, 0.0, 1.700945113548011E9, 0.0, 2023-11-25 15:45:13.548
61.0, 73991.963147159, 82191.38767616602, -15011.409224439769, -13211.199726009338, -7269.569607921792, -4538.924043050295, -18467.61476607499, 187500.0, -0.076, 0.978, 0.098, 192.0, 0.0, 0.0, 0.0, 0.0, 0.0, 0.0, 0.0, 0.0, 0.0, 1.700945113550865E9, 0.0, 2023-11-25 15:45:13.550
62.0, 73970.32665852626, 82196.93090879094, -15525.164070745, -13771.669718226161, -7884.354339165014, -4874.5354860467305, -18499.108374012518, 187500.0, -0.076, 0.978, 0.098, 192.0, 0.0, 0.0, 0.0, 0.0, 0.0, 0.0, 0.0, 0.0, 0.0, 1.700945113555939E9, 0.0, 2023-11-25 15:45:13.555
63.0, 73960.24602177693, 82236.13586856554, -16131.52219432857, -14442.713790263391, -8838.170330306331, -5516.432883314238, -18551.657325226945, 187500.0, -0.076, 0.978, 0.098, 192.0, 0.0, 0.0, 0.0, 0.0, 0.0, 0.0, 0.0, 0.0, 0.0, 1.700945113559909E9, 0.0, 2023-11-25 15:45:13.559
64.0, 73981.18960633155, 82226.43521147195, -15442.976706382837, -13936.580888817418, -8203.29138079779, -5245.082705626811, -18427.73925396672, 187500.0, -0.076, 0.978, 0.098, 192.0, 0.0, 0.0, 0.0, 0.0, 0.0, 0.0, 0.0, 0.0, 0.0, 1.700945113563914E9, 0.0, 2023-11-25 15:45:13.563
65.0, 73991.3149465698, 82197.57910938014, -14944.353991073847, -13163.903434741907, -7239.7970843073235, -4513.3089439045125, -18454.27077463517, 187500.0, -0.076, 0.978, 0.098, 192.0, 0.0, 0.0, 0.0, 0.0, 0.0, 0.0, 0.0, 0.0, 0.0, 1.700945113568927E9, 0.0, 2023-11-25 15:45:13.568
66.0, 73968.78438815885, 82194.51692038977, -15438.975744125337, -13731.548336928885, -7791.2146200197485, -4831.150750058979, -18493.632196620965, 187500.0, -0.076, 0.978, 0.098, 192.0, 0.0, 0.0, 0.0, 0.0, 0.0, 0.0, 0.0, 0.0, 0.0, 1.700945113571916E9, 0.0, 2023-11-25 15:45:13.571
67.0, 73962.2576787779, 82244.33895878065, -16067.395039486295, -14373.937472574411, -8718.230869559155, -5418.196966433164, -18548.90806065894, 187500.0, -0.08, 0.968, 0.1, 192.0, 253.0, 128.0, 30.0, 64.0, 3.0, 32.0, 0.0, 0.0, 0.0, 1.700945113575937E9, 0.0, 2023-11-25 15:45:13.575
68.0, 73978.57445223027, 82239.48863023384, -15649.216252471955, -14194.117688431465, -8488.656102258696, -5449.6682226262365, -18441.88790820693, 187500.0, -0.08, 0.968, 0.1, 192.0, 0.0, 0.0, 0.0, 0.0, 0.0, 0.0, 0.0, 0.0, 0.0, 1.700945113579927E9, 0.0, 2023-11-25 15:45:13.579
69.0, 73981.23430982046, 82189.68894358742, -14889.860438091808, -13127.537146513123, -7230.878738269656, -4515.4770631166775, -18436.769358726666, 187500.0, -0.08, 0.968, 0.1, 192.0, 0.0, 0.0, 0.0, 0.0, 0.0, 0.0, 0.0, 0.0, 0.0, 1.700945113584112E9, 0.0, 2023-11-25 15:45:13.584
70.0, 73964.22463228997, 82179.2953824157, -15359.80586526464, -13646.03056264288, -7691.883467660364, -4797.109043253547, -18505.411565948914, 187500.0, -0.08, 0.968, 0.1, 192.0, 0.0, 0.0, 0.0, 0.0, 0.0, 0.0, 0.0, 0.0, 0.0, 1.700945113587973E9, 0.0, 2023-11-25 15:45:13.587
71.0, 73955.44039671903, 82232.09020281913, -15969.784971449968, -14253.930956593867, -8553.587919901362, -5295.977627751545, -18547.119921102516, 187500.0, -0.08, 0.968, 0.1, 192.0, 0.0, 0.0, 0.0, 0.0, 0.0, 0.0, 0.0, 0.0, 0.0, 1.700945113592325E9, 0.0, 2023-11-25 15:45:13.592
72.0, 73967.5103387249, 82250.6645024615, -15844.570499011339, -14385.716841902356, -8715.302791035509, -5593.72521564069, -18470.252271920715, 187500.0, -0.08, 0.968, 0.1, 192.0, 0.0, 0.0, 0.0, 0.0, 0.0, 0.0, 0.0, 0.0, 0.0, 1.700945113595424E9, 0.0, 2023-11-25 15:45:13.595
73.0, 73985.59289998923, 82217.0027753118, -14891.782688114965, -13179.929635516362, -7298.738634435968, -4592.635284976397, -18408.136774079416, 187500.0, -0.08, 0.968, 0.1, 192.0, 0.0, 0.0, 0.0, 0.0, 0.0, 0.0, 0.0, 0.0, 0.0, 1.700945113599069E9, 0.0, 2023-11-25 15:45:13.599
74.0, 73961.4530159775, 82191.14180697702, -15263.02281177316, -13534.920040955549, -7561.863370163843, -4731.640783743952, -18489.81004831911, 187500.0, -0.08, 0.968, 0.1, 192.0, 0.0, 0.0, 0.0, 0.0, 0.0, 0.0, 0.0, 0.0, 0.0, 1.700945113604062E9, 0.0, 2023-11-25 15:45:13.604
75.0, 73944.51039368038, 82222.36719398107, -15836.725036707527, -14083.700070822248, -8335.948984140037, -5140.834169487259, -18528.411510993425, 187500.0, -0.08, 0.968, 0.1, 192.0, 0.0, 0.0, 0.0, 0.0, 0.0, 0.0, 0.0, 0.0, 0.0, 1.70094511360818E9, 0.0, 2023-11-25 15:45:13.608
76.0, 73954.56867868527, 82246.17180182599, -16006.173611423208, -14496.872067078599, -8865.595920752994, -5662.635643796402, -18510.507763684724, 187500.0, -0.08, 0.968, 0.1, 192.0, 0.0, 0.0, 0.0, 0.0, 0.0, 0.0, 0.0, 0.0, 0.0, 1.700945113612047E9, 0.0, 2023-11-25 15:45:13.612
77.0, 73977.34510628523, 82209.47023743037, -14969.209130908148, -13309.927381268428, -7458.151275891219, -4716.888632403449, -18416.228105572238, 187500.0, -0.08, 0.978, 0.1, 192.0, 253.0, 128.0, 30.0, 144.0, 3.0, 32.0, 0.0, 0.0, 0.0, 1.700945113616173E9, 0.0, 2023-11-25 15:45:13.616
78.0, 73967.59974570271, 82188.83957729812, -15188.703261459264, -13452.3750486821, -7470.444735341637, -4688.16664077838, -18502.729356614276, 187500.0, -0.08, 0.978, 0.1, 192.0, 0.0, 0.0, 0.0, 0.0, 0.0, 0.0, 0.0, 0.0, 0.0, 1.700945113619176E9, 0.0, 2023-11-25 15:45:13.619
79.0, 73945.44916694751, 82212.9571095654, -15728.900221455126, -14004.731357661649, -8180.246732264368, -5068.7721453633485, -18527.76331040422, 187500.0, -0.08, 0.978, 0.1, 192.0, 0.0, 0.0, 0.0, 0.0, 0.0, 0.0, 0.0, 0.0, 0.0, 1.700945113623111E9, 0.0, 2023-11-25 15:45:13.623
80.0, 73936.7543383544, 82235.19709529843, -16119.876935467355, -14566.900082457076, -8949.258500249207, -5701.0135890261645, -18541.777854177697, 187500.0, -0.08, 0.978, 0.1, 192.0, 0.0, 0.0, 0.0, 0.0, 0.0, 0.0, 0.0, 0.0, 0.0, 1.700945113627152E9, 0.0, 2023-11-25 15:45:13.627
81.0, 73975.3110975398, 82219.9532055799, -15105.174792429782, -13521.710159982464, -7695.750319451132, -4913.673390587973, -18411.91421889236, 187500.0, -0.08, 0.978, 0.1, 192.0, 0.0, 0.0, 0.0, 0.0, 0.0, 0.0, 0.0, 0.0, 0.0, 1.700945113631179E9, 0.0, 2023-11-25 15:45:13.631
82.0, 73970.21489980399, 82201.17774023744, -15095.89881848083, -13339.319925227157, -7365.905626524166, -4631.572023817543, -18489.60888261901, 187500.0, -0.08, 0.978, 0.1, 192.0, 0.0, 0.0, 0.0, 0.0, 0.0, 0.0, 0.0, 0.0, 0.0, 1.700945113636173E9, 0.0, 2023-11-25 15:45:13.636
83.0, 73941.87288783466, 82213.2029787544, -15605.317426361731, -13873.593672942361, -8009.166480203448, -4968.9269028814915, -18506.171525260394, 187500.0, -0.08, 0.978, 0.1, 192.0, 0.0, 0.0, 0.0, 0.0, 0.0, 0.0, 0.0, 0.0, 0.0, 1.700945113640245E9, 0.0, 2023-11-25 15:45:13.640
84.0, 73928.93122779504, 82243.13196458005, -16156.533796374059, -14540.837948422188, -8933.187595985843, -5644.150751131863, -18558.67577298591, 187500.0, -0.08, 0.978, 0.1, 192.0, 0.0, 0.0, 0.0, 0.0, 0.0, 0.0, 0.0, 0.0, 0.0, 1.700945113644148E9, 0.0, 2023-11-25 15:45:13.644
85.0, 73959.48606246544, 82228.40216498401, -15279.540750925631, -13750.972002860548, -7973.336633841591, -5112.670971473572, -18413.79176542661, 187500.0, -0.08, 0.978, 0.1, 192.0, 0.0, 0.0, 0.0, 0.0, 0.0, 0.0, 0.0, 0.0, 0.0, 1.700945113647207E9, 0.0, 2023-11-25 15:45:13.647
86.0, 73961.96710609998, 82207.43622868494, -15008.72701510513, -13212.47377544329, -7274.8669713577, -4558.794743871063, -18470.76636204319, 187500.0, -0.08, 0.978, 0.1, 192.0, 0.0, 0.0, 0.0, 0.0, 0.0, 0.0, 0.0, 0.0, 0.0, 1.700945113651164E9, 0.0, 2023-11-25 15:45:13.651
87.0, 73937.6037046437, 82206.87743507355, -15516.40218691852, -13776.028308394947, -7877.715871061787, -4885.286675129732, -18502.081156025073, 187500.0, -0.07200000000000001, 0.976, 0.096, 192.0, 253.0, 192.0, 30.0, 128.0, 3.0, 0.0, 0.0, 0.0, 0.0, 1.700945113655315E9, 0.0, 2023-11-25 15:45:13.655
88.0, 73926.2490184604, 82240.7626796678, -16136.327819386463, -14454.739028780346, -8835.063437827044, -5526.290002619029, -18568.063505657137, 187500.0, -0.07200000000000001, 0.976, 0.096, 192.0, 0.0, 0.0, 0.0, 0.0, 0.0, 0.0, 0.0, 0.0, 0.0, 1.700945113659221E9, 0.0, 2023-11-25 15:45:13.659
89.0, 73962.10121656672, 82246.30591229271, -15494.2069046744, -14018.701197946215, -8268.78199205184, -5308.740473835525, -18437.5516697826, 187500.0, -0.07200000000000001, 0.976, 0.096, 192.0, 0.0, 0.0, 0.0, 0.0, 0.0, 0.0, 0.0, 0.0, 0.0, 1.700945113664214E9, 0.0, 2023-11-25 15:45:13.664
90.0, 73977.30040279632, 82215.7510776223, -14924.796214675453, -13134.868518694464, -7209.376360103651, -4504.3235426334795, -18446.93940245383, 187500.0, -0.07200000000000001, 0.976, 0.096, 192.0, 0.0, 0.0, 0.0, 0.0, 0.0, 0.0, 0.0, 0.0, 0.0, 1.700945113668243E9, 0.0, 2023-11-25 15:45:13.668
91.0, 73949.4054257161, 82211.99598455381, -15414.232363013312, -13685.101411950758, -7742.241947918171, -4815.079845795613, -18490.23473146376, 187500.0, -0.07200000000000001, 0.976, 0.096, 192.0, 0.0, 0.0, 0.0, 0.0, 0.0, 0.0, 0.0, 0.0, 0.0, 1.700945113671275E9, 0.0, 2023-11-25 15:45:13.671
92.0, 73927.90304755009, 82249.97159838339, -16046.898489820778, -14331.200937175863, -8670.576950380439, -5381.316588081907, -18550.740903704274, 187500.0, -0.07200000000000001, 0.976, 0.096, 192.0, 0.0, 0.0, 0.0, 0.0, 0.0, 0.0, 0.0, 0.0, 0.0, 1.700945113675233E9, 0.0, 2023-11-25 15:45:13.675
93.0, 73949.62894316066, 82256.18538334196, -15691.751622170405, -14224.29254344613, -8529.001001000524, -5471.46117347016, -18452.102655423005, 187500.0, -0.07200000000000001, 0.976, 0.096, 192.0, 0.0, 0.0, 0.0, 0.0, 0.0, 0.0, 0.0, 0.0, 0.0, 1.700945113679243E9, 0.0, 2023-11-25 15:45:13.679
94.0, 73975.2663940509, 82221.51782769177, -14885.971234556584, -13129.682913980832, -7229.7611510468905, -4520.707371319219, -18421.078434119037, 187500.0, -0.07200000000000001, 0.976, 0.096, 192.0, 0.0, 0.0, 0.0, 0.0, 0.0, 0.0, 0.0, 0.0, 0.0, 1.70094511368327E9, 0.0, 2023-11-25 15:45:13.683
95.0, 73954.56867868527, 82204.21757748337, -15333.967248674304, -13610.535992447853, -7646.487074671635, -4775.651368576452, -18493.833362321064, 187500.0, -0.07200000000000001, 0.976, 0.096, 192.0, 0.0, 0.0, 0.0, 0.0, 0.0, 0.0, 0.0, 0.0, 0.0, 1.700945113687322E9, 0.0, 2023-11-25 15:45:13.687
96.0, 73934.36270169768, 82237.94635986643, -15945.354514760318, -14204.24302866972, -8496.72508200706, -5250.9165109296455, -18555.6806392289, 187500.0, -0.07200000000000001, 0.976, 0.096, 192.0, 0.0, 0.0, 0.0, 0.0, 0.0, 0.0, 0.0, 0.0, 0.0, 1.700945113692595E9, 0.0, 2023-11-25 15:45:13.692
97.0, 73954.97101008547, 82265.32724682418, -15890.928017011645, -14419.311513818684, -8756.608814788917, -5612.478329238693, -18497.007310033718, 187500.0, -0.07, 0.98, 0.092, 192.0, 253.0, 208.0, 30.0, 160.0, 2.0, 224.0, 0.0, 0.0, 0.0, 1.700945113696274E9, 0.0, 2023-11-25 15:45:13.696
98.0, 73969.70080968151, 82225.78701088275, -14912.52510696949, -13217.838194112563, -7332.69093426358, -4626.162901659358, -18422.106614363984, 187500.0, -0.07, 0.98, 0.092, 192.0, 0.0, 0.0, 0.0, 0.0, 0.0, 0.0, 0.0, 0.0, 0.0, 1.700945113699351E9, 0.0, 2023-11-25 15:45:13.699
99.0, 73936.28495172084, 82196.01448726827, -15260.340602438522, -13519.72085472594, -7543.937271110687, -4727.930394164371, -18504.718661870796, 187500.0, -0.07, 0.98, 0.092, 192.0, 0.0, 0.0, 0.0, 0.0, 0.0, 0.0, 0.0, 0.0, 0.0, 1.700945113703388E9, 0.0, 2023-11-25 15:45:13.703
100.0, 73924.66204460408, 82239.84625814513, -15829.37131278173, -14074.714669551215, -8311.965562339492, -5140.118913664689, -18541.19670882186, 187500.0, -0.07, 0.98, 0.092, 192.0, 0.0, 0.0, 0.0, 0.0, 0.0, 0.0, 0.0, 0.0, 0.0, 1.700945113709927E9, 0.0, 2023-11-25 15:45:13.709
101.0, 73922.82920155874, 82260.81219444421, -16038.896565305778, -14503.666997393013, -8883.47731631724, -5664.781411264112, -18524.969342347307, 187500.0, -0.07, 0.98, 0.092, 192.0, 0.0, 0.0, 0.0, 0.0, 0.0, 0.0, 0.0, 0.0, 0.0, 1.700945113711458E9, 0.0, 2023-11-25 15:45:13.711
102.0, 73952.22174551747, 82227.12811555006, -15005.418956925745, -13336.190681003414, -7500.463128145115, -4748.203426385335, -18426.12992836594, 187500.0, -0.07, 0.98, 0.092, 192.0, 0.0, 0.0, 0.0, 0.0, 0.0, 0.0, 0.0, 0.0, 0.0, 1.700945113715381E9, 0.0, 2023-11-25 15:45:13.715
103.0, 73938.09544302171, 82193.8016645672, -15187.697432958776, -13425.776472780284, -7457.346613090827, -4681.505820930698, -18510.731281129276, 187500.0, -0.07, 0.98, 0.092, 192.0, 0.0, 0.0, 0.0, 0.0, 0.0, 0.0, 0.0, 0.0, 0.0, 1.700945113719413E9, 0.0, 2023-11-25 15:45:13.719
104.0, 73912.92737876503, 82211.86187408709, -15710.035349134845, -13951.936537258212, -8137.443141632455, -5024.068656452734, -18528.120938315504, 187500.0, -0.07, 0.98, 0.092, 192.0, 0.0, 0.0, 0.0, 0.0, 0.0, 0.0, 0.0, 0.0, 0.0, 1.700945113724577E9, 0.0, 2023-11-25 15:45:13.724
105.0, 73915.22960844393, 82247.3117407932, -16134.919659485777, -14547.409361292048, -8941.971831556777, -5665.250797897673, -18544.70593270134, 187500.0, -0.07, 0.98, 0.092, 192.0, 0.0, 0.0, 0.0, 0.0, 0.0, 0.0, 0.0, 0.0, 0.0, 1.700945113727393E9, 0.0, 2023-11-25 15:45:13.727
106.0, 73938.78834709982, 82212.51007467629, -15140.602307391442, -13544.844215493706, -7737.10104669345, -4920.669486602484, -18406.013358356162, 187500.0, -0.07, 0.98, 0.092, 192.0, 0.0, 0.0, 0.0, 0.0, 0.0, 0.0, 0.0, 0.0, 0.0, 1.700945113731419E9, 0.0, 2023-11-25 15:45:13.731
107.0, 73920.12464047964, 82167.42660610993, -15099.542152827044, -13300.62905557502, -7348.247748404473, -4595.809232689051, -18498.32606295658, 187500.0, -0.07, 0.98, 0.092, 192.0, 253.0, 208.0, 30.0, 160.0, 2.0, 224.0, 0.0, 0.0, 0.0, 1.700945113735452E9, 0.0, 2023-11-25 15:45:13.735
108.0, 73902.0420792153, 82187.63258309754, -15626.328066149721, -13876.655861932739, -8004.852593523574, -4957.102830064635, -18527.562144704123, 187500.0, -0.07, 0.98, 0.092, 192.0, 0.0, 0.0, 0.0, 0.0, 0.0, 0.0, 0.0, 0.0, 0.0, 1.700945113739447E9, 0.0, 2023-11-25 15:45:13.739
109.0, 73909.70872756347, 82236.98523485484, -16175.10809601642, -14533.975962874409, -8918.14487196742, -5612.388922260871, -18561.693258487376, 187500.0, -0.07, 0.98, 0.092, 192.0, 0.0, 0.0, 0.0, 0.0, 0.0, 0.0, 0.0, 0.0, 0.0, 1.700945113743525E9, 0.0, 2023-11-25 15:45:13.743
110.0, 73939.45889943349, 82217.74038287884, -15335.50951904172, -13800.324654617865, -8023.11396874356, -5128.652468759116, -18418.530335251133, 187500.0, -0.07, 0.98, 0.092, 192.0, 0.0, 0.0, 0.0, 0.0, 0.0, 0.0, 0.0, 0.0, 0.0, 1.70094511374747E9, 0.0, 2023-11-25 15:45:13.747
111.0, 73930.94288479601, 82170.80171952269, -15019.791128610508, -13205.94706606234, -7271.938892834055, -4544.824903586496, -18480.17644645887, 187500.0, -0.07, 0.98, 0.092, 192.0, 0.0, 0.0, 0.0, 0.0, 0.0, 0.0, 0.0, 0.0, 0.0, 1.700945113752537E9, 0.0, 2023-11-25 15:45:13.752
112.0, 73898.2422826579, 82166.04079795371, -15525.342884700643, -13778.889331685226, -7868.194027923826, -4882.224486139356, -18511.401833462936, 187500.0, -0.07, 0.98, 0.092, 192.0, 0.0, 0.0, 0.0, 0.0, 0.0, 0.0, 0.0, 0.0, 0.0, 1.700945113755534E9, 0.0, 2023-11-25 15:45:13.755
113.0, 73886.14998890758, 82207.88326357404, -16141.558127589004, -14446.67004903198, -8815.371550961918, -5496.875106915844, -18562.699086987865, 187500.0, -0.07, 0.98, 0.092, 192.0, 0.0, 0.0, 0.0, 0.0, 0.0, 0.0, 0.0, 0.0, 0.0, 1.700945113759561E9, 0.0, 2023-11-25 15:45:13.759
114.0, 73915.4978293774, 82210.54312116423, -15558.93755661697, -14071.227797416186, -8336.798350429339, -5343.788009141446, -18439.831547717044, 187500.0, -0.07, 0.98, 0.092, 192.0, 0.0, 0.0, 0.0, 0.0, 0.0, 0.0, 0.0, 0.0, 0.0, 1.700945113763551E9, 0.0, 2023-11-25 15:45:13.763
115.0, 73920.12464047964, 82169.93000148893, -14950.165444632226, -13133.482710538234, -7229.984668491444, -4504.74822577813, -18455.99185895823, 187500.0, -0.07, 0.98, 0.092, 192.0, 0.0, 0.0, 0.0, 0.0, 0.0, 0.0, 0.0, 0.0, 0.0, 1.700945113767545E9, 0.0, 2023-11-25 15:45:13.767
116.0, 73899.31516639175, 82168.29832414369, -15436.472348746342, -13674.104353678746, -7750.15446545535, -4810.162462015446, -18512.43001370788, 187500.0, -0.07, 0.98, 0.092, 192.0, 0.0, 0.0, 0.0, 0.0, 0.0, 0.0, 0.0, 0.0, 0.0, 1.700945113771552E9, 0.0, 2023-11-25 15:45:13.771
117.0, 73894.4424861005, 82214.27586248826, -16058.387286470806, -14304.132974640486, -8658.641118841306, -5352.728706923569, -18563.973136421817, 187500.0, -0.07, 0.982, 0.092, 192.0, 253.0, 208.0, 30.0, 176.0, 2.0, 224.0, 0.0, 0.0, 0.0, 1.700945113775609E9, 0.0, 2023-11-25 15:45:13.775
118.0, 73913.06148923177, 82217.96390032339, -15762.383134649175, -14259.653003174426, -8593.284618053987, -5492.427109769239, -18471.168693443382, 187500.0, -0.07, 0.982, 0.092, 192.0, 0.0, 0.0, 0.0, 0.0, 0.0, 0.0, 0.0, 0.0, 0.0, 1.700945113780577E9, 0.0, 2023-11-25 15:45:13.780
119.0, 73933.93801855303, 82177.641353326, -14923.008075119029, -13137.774245473653, -7267.803820109823, -4534.811322070518, -18442.290239607126, 187500.0, -0.07, 0.982, 0.092, 192.0, 0.0, 0.0, 0.0, 0.0, 0.0, 0.0, 0.0, 0.0, 0.0, 1.700945113783581E9, 0.0, 2023-11-25 15:45:13.783
120.0, 73902.8467420157, 82153.70263501437, -15358.107132686036, -13608.792556380338, -7661.306281245504, -4773.4608976198315, -18519.023778322196, 187500.0, -0.07, 0.982, 0.092, 192.0, 0.0, 0.0, 0.0, 0.0, 0.0, 0.0, 0.0, 0.0, 0.0, 1.700945113786776E9, 0.0, 2023-11-25 15:45:13.786
121.0, 73879.0868376597, 82194.0028302673, -15950.070732840388, -14188.529752317638, -8485.549209779407, -5229.235318807998, -18562.475569543312, 187500.0, -0.07, 0.982, 0.092, 192.0, 0.0, 0.0, 0.0, 0.0, 0.0, 0.0, 0.0, 0.0, 0.0, 1.700945113791674E9, 0.0, 2023-11-25 15:45:13.791
122.0, 73900.7903815258, 82225.45173471591, -15950.741285174046, -14454.29199389124, -8813.60576314995, -5630.44913178076, -18507.155002016425, 187500.0, -0.07, 0.982, 0.092, 192.0, 0.0, 0.0, 0.0, 0.0, 0.0, 0.0, 0.0, 0.0, 0.0, 1.700945113795944E9, 0.0, 2023-11-25 15:45:13.795
123.0, 73922.33746318072, 82191.11945523256, -14955.663973768233, -13251.410514284435, -7390.17962100263, -4650.6604135823745, -18427.046349888606, 187500.0, -0.07, 0.982, 0.092, 192.0, 0.0, 0.0, 0.0, 0.0, 0.0, 0.0, 0.0, 0.0, 0.0, 1.700945113799653E9, 0.0, 2023-11-25 15:45:13.799
124.0, 73900.5445123368, 82163.42564385243, -15265.839131574528, -13517.999770402881, -7553.794390415477, -4722.051885372625, -18508.630217150476, 187500.0, -0.07, 0.982, 0.092, 192.0, 0.0, 0.0, 0.0, 0.0, 0.0, 0.0, 0.0, 0.0, 0.0, 1.700945113804311E9, 0.0, 2023-11-25 15:45:13.804
125.0, 73883.84775922868, 82195.61215586808, -15815.848507386268, -14051.468855317695, -8290.530239406853, -5098.924648633558, -18536.748711675253, 187500.0, -0.07, 0.982, 0.092, 192.0, 0.0, 0.0, 0.0, 0.0, 0.0, 0.0, 0.0, 0.0, 0.0, 1.700945113807732E9, 0.0, 2023-11-25 15:45:13.807
126.0, 73887.75931450837, 82221.54017943624, -16079.777905914534, -14534.557108230247, -8924.313953437086, -5664.803763008566, -18534.759406418732, 187500.0, -0.07, 0.982, 0.092, 192.0, 0.0, 0.0, 0.0, 0.0, 0.0, 0.0, 0.0, 0.0, 0.0, 1.700945113811761E9, 0.0, 2023-11-25 15:45:13.811
127.0, 73917.15185846708, 82192.97465002236, -15041.06998933196, -13392.807649708708, -7562.198646330673, -4774.623188331508, -18424.475899276247, 187500.0, -0.07200000000000001, 0.988, 0.096, 192.0, 253.0, 192.0, 30.0, 224.0, 3.0, 0.0, 0.0, 0.0, 0.0, 1.70094511381474E9, 0.0, 2023-11-25 15:45:13.814
128.0, 73910.8933700196, 82170.0417602112, -15177.169761320325, -13401.569533535187, -7441.253357083006, -4650.235730437724, -18511.84886835204, 187500.0, -0.07200000000000001, 0.988, 0.096, 192.0, 0.0, 0.0, 0.0, 0.0, 0.0, 0.0, 0.0, 0.0, 0.0, 1.700945113819703E9, 0.0, 2023-11-25 15:45:13.819
129.0, 73892.09555293269, 82195.20982446788, -15696.132564083644, -13927.75194975757, -8111.60452504212, -4988.462327535431, -18530.490223227767, 187500.0, -0.07200000000000001, 0.988, 0.096, 192.0, 0.0, 0.0, 0.0, 0.0, 0.0, 0.0, 0.0, 0.0, 0.0, 1.700945113823703E9, 0.0, 2023-11-25 15:45:13.823
130.0, 73890.70974477647, 82230.32441500717, -16152.711648072202, -14544.660096724047, -8952.63361366196, -5639.0322016515975, -18555.501825273255, 187500.0, -0.07200000000000001, 0.988, 0.096, 192.0, 0.0, 0.0, 0.0, 0.0, 0.0, 0.0, 0.0, 0.0, 0.0, 1.700945113827821E9, 0.0, 2023-11-25 15:45:13.827
131.0, 73922.0468905028, 82211.68306013144, -15182.668290456331, -13595.02388179587, -7804.491556226201, -4950.531417194774, -18418.418576528857, 187500.0, -0.07200000000000001, 0.988, 0.096, 192.0, 0.0, 0.0, 0.0, 0.0, 0.0, 0.0, 0.0, 0.0, 0.0, 1.700945113831718E9, 0.0, 2023-11-25 15:45:13.831
132.0, 73918.93999802352, 82181.26233592776, -15079.850265961919, -13294.191753171892, -7344.9843937139985, -4586.376796528912, -18495.822667577588, 187500.0, -0.07200000000000001, 0.988, 0.096, 192.0, 0.0, 0.0, 0.0, 0.0, 0.0, 0.0, 0.0, 0.0, 0.0, 1.700945113835782E9, 0.0, 2023-11-25 15:45:13.835
133.0, 73891.15677966557, 82185.5985743521, -15590.967606421425, -13857.567472167906, -7974.565979786633, -4930.347791951632, -18522.08596731257, 187500.0, -0.07200000000000001, 0.988, 0.096, 192.0, 0.0, 0.0, 0.0, 0.0, 0.0, 0.0, 0.0, 0.0, 0.0, 1.700945113839851E9, 0.0, 2023-11-25 15:45:13.839
134.0, 73883.31131736176, 82228.58097893966, -16169.564863391504, -14517.815651633222, -8901.179897925842, -5575.173267742785, -18572.15387489246, 187500.0, -0.07200000000000001, 0.988, 0.096, 192.0, 0.0, 0.0, 0.0, 0.0, 0.0, 0.0, 0.0, 0.0, 0.0, 1.700945113842787E9, 0.0, 2023-11-25 15:45:13.842
135.0, 73916.3471956667, 82220.73551663585, -15381.867037042028, -13849.297326719443, -8085.251818329313, -5159.654338318627, -18428.83448944503, 187500.0, -0.07200000000000001, 0.988, 0.096, 192.0, 0.0, 0.0, 0.0, 0.0, 0.0, 0.0, 0.0, 0.0, 0.0, 1.700945113846799E9, 0.0, 2023-11-25 15:45:13.846
136.0, 73916.5483613668, 82177.68605681493, -15008.838773827407, -13194.122993245483, -7265.590997408748, -4532.531444136077, -18483.260987193702, 187500.0, -0.07200000000000001, 0.988, 0.096, 192.0, 0.0, 0.0, 0.0, 0.0, 0.0, 0.0, 0.0, 0.0, 0.0, 1.700945113851884E9, 0.0, 2023-11-25 15:45:13.851
137.0, 73895.82829425673, 82178.40131263749, -15515.552820629218, -13760.67265995415, -7849.083286414539, -4864.946587675404, -18525.528135958688, 187500.0, -0.076, 0.98, 0.1, 192.0, 253.0, 160.0, 30.0, 160.0, 3.0, 32.0, 0.0, 0.0, 0.0, 1.700945113855908E9, 0.0, 2023-11-25 15:45:13.855
138.0, 73890.70974477647, 82224.02122307077, -16134.405569363305, -14428.408673811993, -8791.991626261668, -5473.897513615789, -18571.751543492264, 187500.0, -0.076, 0.98, 0.1, 192.0, 0.0, 0.0, 0.0, 0.0, 0.0, 0.0, 0.0, 0.0, 0.0, 1.700945113859871E9, 0.0, 2023-11-25 15:45:13.859
139.0, 73915.85545728868, 82223.37302248157, -15597.539019291286, -14108.175231000809, -8382.909999240637, -5373.292311822452, -18452.08030367855, 187500.0, -0.076, 0.98, 0.1, 192.0, 0.0, 0.0, 0.0, 0.0, 0.0, 0.0, 0.0, 0.0, 0.0, 1.700945113863854E9, 0.0, 2023-11-25 15:45:13.863
140.0, 73925.26554170437, 82189.13014997604, -14950.165444632226, -13149.598318290511, -7239.662973840592, -4522.540214364554, -18465.37959162946, 187500.0, -0.076, 0.98, 0.1, 192.0, 0.0, 0.0, 0.0, 0.0, 0.0, 0.0, 0.0, 0.0, 0.0, 1.700945113869841E9, 0.0, 2023-11-25 15:45:13.869
141.0, 73897.97406172444, 82174.35564689108, -15427.643409686496, -13695.338510911288, -7741.236119417682, -4822.366514488043, -18524.455252224834, 187500.0, -0.076, 0.98, 0.1, 192.0, 0.0, 0.0, 0.0, 0.0, 0.0, 0.0, 0.0, 0.0, 0.0, 1.700945113872863E9, 0.0, 2023-11-25 15:45:13.872
142.0, 73888.29575637529, 82214.78995261074, -16047.099655520877, -14304.043567662666, -8628.108635915356, -5338.311831749897, -18576.44540982788, 187500.0, -0.076, 0.98, 0.1, 192.0, 0.0, 0.0, 0.0, 0.0, 0.0, 0.0, 0.0, 0.0, 0.0, 1.700945113876873E9, 0.0, 2023-11-25 15:45:13.876
143.0, 73899.13635243611, 82219.64028115754, -15823.626914456716, -14347.897690283979, -8662.083287487423, -5552.9779854986655, -18500.225961235283, 187500.0, -0.076, 0.98, 0.1, 192.0, 0.0, 0.0, 0.0, 0.0, 0.0, 0.0, 0.0, 0.0, 0.0, 1.700945113879875E9, 0.0, 2023-11-25 15:45:13.879
144.0, 73914.60375959918, 82187.11849297506, -14946.566813774922, -13203.51072591671, -7307.031131628887, -4588.746081441174, -18459.814007260087, 187500.0, -0.076, 0.98, 0.1, 192.0, 0.0, 0.0, 0.0, 0.0, 0.0, 0.0, 0.0, 0.0, 0.0, 1.700945113883937E9, 0.0, 2023-11-25 15:45:13.883
145.0, 73897.2364541574, 82175.5402893472, -15356.22958615179, -13629.020885112392, -7651.203292751706, -4802.026427033714, -18527.830365637587, 187500.0, -0.076, 0.98, 0.1, 192.0, 0.0, 0.0, 0.0, 0.0, 0.0, 0.0, 0.0, 0.0, 0.0, 1.700945113887886E9, 0.0, 2023-11-25 15:45:13.887
146.0, 73885.65825052957, 82215.48285668885, -15935.54209894444, -14178.560874290572, -8445.696049415596, -5229.011801363445, -18561.29092708718, 187500.0, -0.076, 0.98, 0.1, 192.0, 0.0, 0.0, 0.0, 0.0, 0.0, 0.0, 0.0, 0.0, 0.0, 1.700945113892007E9, 0.0, 2023-11-25 15:45:13.892
147.0, 73894.50954133387, 82226.43521147195, -15990.54974204895, -14467.948909753432, -8827.061513312045, -5648.755210489656, -18525.349322003047, 187500.0, -0.078, 0.978, 0.10200000000000001, 192.0, 253.0, 144.0, 30.0, 144.0, 3.0, 48.0, 0.0, 0.0, 0.0, 1.7009451138949E9, 0.0, 2023-11-25 15:45:13.894
148.0, 73924.48323064843, 82193.73460933383, -14983.290729914992, -13259.837121944085, -7402.60719091978, -4674.643835382919, -18443.251364618704, 187500.0, -0.078, 0.978, 0.10200000000000001, 192.0, 0.0, 0.0, 0.0, 0.0, 0.0, 0.0, 0.0, 0.0, 0.0, 1.700945113898884E9, 0.0, 2023-11-25 15:45:13.898
149.0, 73906.6465385731, 82167.31484738766, -15275.852713090506, -13508.187354587002, -7533.7001721501565, -4734.03242040067, -18534.222964551802, 187500.0, -0.078, 0.978, 0.10200000000000001, 192.0, 0.0, 0.0, 0.0, 0.0, 0.0, 0.0, 0.0, 0.0, 0.0, 1.700945113902913E9, 0.0, 2023-11-25 15:45:13.902
150.0, 73890.32976512072, 82204.9998885393, -15815.982617853, -14043.44457905824, -8256.488532601421, -5103.216183568977, -18557.91581367443, 187500.0, -0.078, 0.978, 0.10200000000000001, 192.0, 0.0, 0.0, 0.0, 0.0, 0.0, 0.0, 0.0, 0.0, 0.0, 1.70094511390699E9, 0.0, 2023-11-25 15:45:13.906
151.0, 73887.46874183044, 82234.19126679793, -16119.832231978446, -14552.63966949459, -8932.472340163273, -5690.88824878791, -18556.90998517394, 187500.0, -0.078, 0.978, 0.10200000000000001, 192.0, 0.0, 0.0, 0.0, 0.0, 0.0, 0.0, 0.0, 0.0, 0.0, 1.700945113911979E9, 0.0, 2023-11-25 15:45:13.911
152.0, 73913.75439330988, 82205.8045513397, -15078.911492694795, -13426.625839069588, -7594.318103112949, -4824.065247066646, -18434.31066683658, 187500.0, -0.078, 0.978, 0.10200000000000001, 192.0, 0.0, 0.0, 0.0, 0.0, 0.0, 0.0, 0.0, 0.0, 0.0, 1.700945113916039E9, 0.0, 2023-11-25 15:45:13.916
153.0, 73907.65236707359, 82182.75990280628, -15169.14548506087, -13380.60359723611, -7411.950220102099, -4652.202683949791, -18515.33574048707, 187500.0, -0.078, 0.978, 0.10200000000000001, 192.0, 0.0, 0.0, 0.0, 0.0, 0.0, 0.0, 0.0, 0.0, 0.0, 1.700945113919997E9, 0.0, 2023-11-25 15:45:13.919
154.0, 73883.78070399532, 82197.44499891342, -15690.276407036354, -13913.156260628255, -8073.427745512456, -4993.312656082232, -18536.212269808326, 187500.0, -0.078, 0.978, 0.10200000000000001, 192.0, 0.0, 0.0, 0.0, 0.0, 0.0, 0.0, 0.0, 0.0, 0.0, 1.700945113923824E9, 0.0, 2023-11-25 15:45:13.923
155.0, 73878.1927678815, 82226.68108066096, -16182.685337386769, -14544.570689746224, -8937.792055343634, -5649.0681349120305, -18572.265633614737, 187500.0, -0.078, 0.978, 0.10200000000000001, 192.0, 0.0, 0.0, 0.0, 0.0, 0.0, 0.0, 0.0, 0.0, 0.0, 1.700945113927036E9, 0.0, 2023-11-25 15:45:13.927
156.0, 73905.95363449499, 82200.26131871478, -15234.412578870366, -13633.804158425828, -7843.830626467541, -5000.8004904747595, -18430.17559411235, 187500.0, -0.078, 0.978, 0.10200000000000001, 192.0, 0.0, 0.0, 0.0, 0.0, 0.0, 0.0, 0.0, 0.0, 0.0, 1.700945113931046E9, 0.0, 2023-11-25 15:45:13.931
157.0, 73906.66889031755, 82166.55488807618, -15088.232170132658, -13263.43575280139, -7322.252669602951, -4584.052215105559, -18508.98784506176, 187500.0, -0.08, 0.976, 0.10200000000000001, 192.0, 253.0, 128.0, 30.0, 128.0, 3.0, 48.0, 0.0, 0.0, 0.0, 1.700945113935034E9, 0.0, 2023-11-25 15:45:13.935
158.0, 73886.14998890758, 82176.7472835478, -15597.561371035741, -13829.896012532237, -7947.185092828881, -4931.487730918852, -18531.13842381697, 187500.0, -0.08, 0.976, 0.10200000000000001, 192.0, 0.0, 0.0, 0.0, 0.0, 0.0, 0.0, 0.0, 0.0, 0.0, 1.700945113939203E9, 0.0, 2023-11-25 15:45:13.939
159.0, 73876.7399044919, 82215.81813285568, -16183.802924609534, -14493.519305410304, -8882.739708750214, -5575.195619487241, -18578.926453462416, 187500.0, -0.08, 0.976, 0.10200000000000001, 192.0, 0.0, 0.0, 0.0, 0.0, 0.0, 0.0, 0.0, 0.0, 0.0, 1.700945113944065E9, 0.0, 2023-11-25 15:45:13.944
160.0, 73904.43371587202, 82205.15635075049, -15439.556889481175, -13893.50907725204, -8144.975679513894, -5216.494824468473, -18452.46028333429, 187500.0, -0.08, 0.976, 0.10200000000000001, 192.0, 0.0, 0.0, 0.0, 0.0, 0.0, 0.0, 0.0, 0.0, 0.0, 1.700945113947079E9, 0.0, 2023-11-25 15:45:13.947
161.0, 73914.40259389908, 82177.88722251503, -15009.129346505326, -13194.726490345776, -7267.669709643092, -4554.99494731366, -18500.47183042429, 187500.0, -0.08, 0.976, 0.10200000000000001, 192.0, 0.0, 0.0, 0.0, 0.0, 0.0, 0.0, 0.0, 0.0, 0.0, 1.700945113951195E9, 0.0, 2023-11-25 15:45:13.951
162.0, 73890.26270988735, 82179.13892020451, -15507.170916458479, -13768.093439113312, -7837.460379297779, -4889.77937576525, -18541.979019877796, 187500.0, -0.08, 0.976, 0.10200000000000001, 192.0, 0.0, 0.0, 0.0, 0.0, 0.0, 0.0, 0.0, 0.0, 0.0, 1.70094511395517E9, 0.0, 2023-11-25 15:45:13.955
163.0, 73875.39879982457, 82223.32831899266, -16137.66892405378, -14420.272638830262, -8771.740945785159, -5479.440746240705, -18602.50754386277, 187500.0, -0.08, 0.976, 0.10200000000000001, 192.0, 0.0, 0.0, 0.0, 0.0, 0.0, 0.0, 0.0, 0.0, 0.0, 1.700945113959183E9, 0.0, 2023-11-25 15:45:13.959
164.0, 73895.78359076782, 82225.27292076027, -15661.979098555936, -14162.981708405223, -8448.914700617159, -5436.413638164239, -18493.3639756875, 187500.0, -0.08, 0.976, 0.10200000000000001, 192.0, 0.0, 0.0, 0.0, 0.0, 0.0, 0.0, 0.0, 0.0, 0.0, 1.700945113963191E9, 0.0, 2023-11-25 15:45:13.963
165.0, 73913.7990967988, 82193.86871980056, -14951.48419755509, -13146.714943255776, -7246.2567384549075, -4548.334127465979, -18476.868388279487, 187500.0, -0.08, 0.976, 0.10200000000000001, 192.0, 0.0, 0.0, 0.0, 0.0, 0.0, 0.0, 0.0, 0.0, 0.0, 1.700945113967182E9, 0.0, 2023-11-25 15:45:13.967
166.0, 73900.47745710344, 82187.81139705317, -15412.667740901441, -13671.578606555297, -7715.509261549624, -4829.921404113938, -18517.52621144369, 187500.0, -0.08, 0.976, 0.10200000000000001, 192.0, 0.0, 0.0, 0.0, 0.0, 0.0, 0.0, 0.0, 0.0, 0.0, 1.70094511397215E9, 0.0, 2023-11-25 15:45:13.972
167.0, 73869.81086371075, 82205.69279261742, -16038.069550760933, -14268.705459678826, -8588.926027885202, -5324.364343209785, -18581.96629070834, 187500.0, -0.076, 0.976, 0.096, 192.0, 253.0, 160.0, 30.0, 128.0, 3.0, 0.0, 0.0, 0.0, 0.0, 1.700945113976948E9, 0.0, 2023-11-25 15:45:13.976
168.0, 73881.65728827206, 82210.11843801958, -15872.577234813838, -14355.027896765221, -8691.431127957241, -5575.217971231696, -18513.32408348609, 187500.0, -0.076, 0.976, 0.096, 192.0, 0.0, 0.0, 0.0, 0.0, 0.0, 0.0, 0.0, 0.0, 0.0, 1.700945113979168E9, 0.0, 2023-11-25 15:45:13.979
169.0, 73903.11496294916, 82175.36147539158, -14949.316078342925, -13175.28047266966, -7301.644361215158, -4587.449680262766, -18453.913146723884, 187500.0, -0.076, 0.976, 0.096, 192.0, 0.0, 0.0, 0.0, 0.0, 0.0, 0.0, 0.0, 0.0, 0.0, 1.700945113983231E9, 0.0, 2023-11-25 15:45:13.983
170.0, 73880.51734930484, 82155.51312631526, -15343.109112156524, -13571.487494884432, -7611.372484132348, -4762.977929470293, -18529.059711582628, 187500.0, -0.076, 0.976, 0.096, 192.0, 0.0, 0.0, 0.0, 0.0, 0.0, 0.0, 0.0, 0.0, 0.0, 1.700945113987228E9, 0.0, 2023-11-25 15:45:13.987
171.0, 73867.10630263166, 82200.41778092597, -15921.81812784888, -14123.21795501923, -8400.366711660232, -5178.228637960987, -18568.175264379413, 187500.0, -0.076, 0.976, 0.096, 192.0, 0.0, 0.0, 0.0, 0.0, 0.0, 0.0, 0.0, 0.0, 0.0, 1.700945113991297E9, 0.0, 2023-11-25 15:45:13.991
172.0, 73880.40559058257, 82223.48478120385, -16033.442739658683, -14473.179217955974, -8858.018679382645, -5647.525864544615, -18537.061636097627, 187500.0, -0.076, 0.976, 0.096, 192.0, 0.0, 0.0, 0.0, 0.0, 0.0, 0.0, 0.0, 0.0, 0.0, 1.700945113995202E9, 0.0, 2023-11-25 15:45:13.995
173.0, 73910.11105896367, 82191.03004825475, -14998.735785333609, -13268.800171470664, -7434.391371535226, -4683.696291887319, -18439.27275410566, 187500.0, -0.076, 0.976, 0.096, 192.0, 0.0, 0.0, 0.0, 0.0, 0.0, 0.0, 0.0, 0.0, 0.0, 1.700945114000536E9, 0.0, 2023-11-25 15:45:14.000
174.0, 73899.58338732521, 82165.63846655352, -15254.752666324695, -13464.065011032226, -7506.5875061258685, -4699.811899639595, -18527.29392377066, 187500.0, -0.076, 0.976, 0.096, 192.0, 0.0, 0.0, 0.0, 0.0, 0.0, 0.0, 0.0, 0.0, 0.0, 1.700945114003197E9, 0.0, 2023-11-25 15:45:14.003
175.0, 73879.82444522672, 82192.25939419978, -15804.672635158615, -14016.86835490088, -8232.90744220107, -5081.602046680695, -18559.14515961947, 187500.0, -0.076, 0.976, 0.096, 192.0, 0.0, 0.0, 0.0, 0.0, 0.0, 0.0, 0.0, 0.0, 0.0, 1.700945114008316E9, 0.0, 2023-11-25 15:45:14.008
176.0, 73884.76418075136, 82224.7141271489, -16146.944898002732, -14553.958422417454, -8954.242939262742, -5687.669597586346, -18565.49305504478, 187500.0, -0.076, 0.976, 0.096, 192.0, 0.0, 0.0, 0.0, 0.0, 0.0, 0.0, 0.0, 0.0, 0.0, 1.700945114011298E9, 0.0, 2023-11-25 15:45:14.011
177.0, 73912.43564038702, 82198.29436520272, -15116.37301640189, -13460.086400519182, -7651.717382874177, -4855.178875348434, -18447.162919898383, 187500.0, -0.074, 0.978, 0.094, 192.0, 253.0, 176.0, 30.0, 144.0, 2.0, 240.0, 0.0, 0.0, 0.0, 1.700945114015273E9, 0.0, 2023-11-25 15:45:14.015
178.0, 73889.86037848717, 82164.76674851976, -15172.34178451798, -13356.530768457744, -7406.161118288174, -4639.417486121355, -18534.66999944091, 187500.0, -0.074, 0.978, 0.094, 192.0, 0.0, 0.0, 0.0, 0.0, 0.0, 0.0, 0.0, 0.0, 0.0, 1.700945114019589E9, 0.0, 2023-11-25 15:45:14.019
179.0, 73856.89155541558, 82176.7919870367, -15694.545590227317, -13906.383682058298, -8068.063326843182, -4987.389443801576, -18555.121845617516, 187500.0, -0.074, 0.978, 0.094, 192.0, 0.0, 0.0, 0.0, 0.0, 0.0, 0.0, 0.0, 0.0, 0.0, 1.700945114023363E9, 0.0, 2023-11-25 15:45:14.023
180.0, 73861.20544209545, 82222.07662130316, -16211.474384245204, -14563.144989388586, -8960.456724221316, -5656.868893726933, -18592.851590258073, 187500.0, -0.074, 0.978, 0.094, 192.0, 0.0, 0.0, 0.0, 0.0, 0.0, 0.0, 0.0, 0.0, 0.0, 1.700945114027335E9, 0.0, 2023-11-25 15:45:14.027
181.0, 73905.81952402825, 82214.54408342173, -15287.140344040436, -13713.37636868672, -7923.536947195166, -5067.073412784745, -18447.49819606521, 187500.0, -0.074, 0.978, 0.094, 192.0, 0.0, 0.0, 0.0, 0.0, 0.0, 0.0, 0.0, 0.0, 0.0, 1.700945114031319E9, 0.0, 2023-11-25 15:45:14.031
182.0, 73897.12469543514, 82170.35468463358, -15075.044640904027, -13252.215177084825, -7310.808576441834, -4582.040558104582, -18518.777909133187, 187500.0, -0.074, 0.978, 0.094, 192.0, 0.0, 0.0, 0.0, 0.0, 0.0, 0.0, 0.0, 0.0, 0.0, 1.700945114034317E9, 0.0, 2023-11-25 15:45:14.034
183.0, 73869.45323579946, 82167.33719913212, -15594.32036808972, -13821.06707347239, -7932.924679866395, -4927.173844238978, -18555.837101440084, 187500.0, -0.074, 0.978, 0.094, 192.0, 0.0, 0.0, 0.0, 0.0, 0.0, 0.0, 0.0, 0.0, 0.0, 1.700945114039341E9, 0.0, 2023-11-25 15:45:14.039
184.0, 73857.45034902697, 82207.88326357404, -16205.327654519995, -14498.548447912748, -8883.767888995159, -5571.462878163205, -18605.703843319876, 187500.0, -0.074, 0.978, 0.094, 192.0, 0.0, 0.0, 0.0, 0.0, 0.0, 0.0, 0.0, 0.0, 0.0, 1.700945114043351E9, 0.0, 2023-11-25 15:45:14.043
185.0, 73885.27827087382, 82202.54119664922, -15492.239951162333, -13958.418543150252, -8212.612058235653, -5270.228418139031, -18468.598242831024, 187500.0, -0.074, 0.978, 0.094, 192.0, 0.0, 0.0, 0.0, 0.0, 0.0, 0.0, 0.0, 0.0, 0.0, 1.700945114047836E9, 0.0, 2023-11-25 15:45:14.047
186.0, 73896.3423843792, 82170.55585033368, -15001.30623594597, -13163.143475430426, -7245.876758799167, -4534.677211603786, -18508.160830516914, 187500.0, -0.074, 0.98, 0.09, 192.0, 253.0, 176.0, 30.0, 160.0, 2.0, 208.0, 0.0, 0.0, 0.0, 1.700945114051519E9, 0.0, 2023-11-25 15:45:14.051
187.0, 73877.85749171466, 82172.03106546773, -15509.339035670644, -13740.936069600115, -7811.085320840517, -4871.652111011996, -18558.072275885617, 187500.0, -0.074, 0.98, 0.09, 192.0, 0.0, 0.0, 0.0, 0.0, 0.0, 0.0, 0.0, 0.0, 0.0, 1.700945114055448E9, 0.0, 2023-11-25 15:45:14.055
188.0, 73874.92941319101, 82222.54600793672, -16135.031418208055, -14387.639091925514, -8735.754637212114, -5445.600205135371, -18605.3909188975, 187500.0, -0.074, 0.98, 0.09, 192.0, 0.0, 0.0, 0.0, 0.0, 0.0, 0.0, 0.0, 0.0, 0.0, 1.700945114059367E9, 0.0, 2023-11-25 15:45:14.059
189.0, 73880.94203244949, 82207.83856008513, -15714.997436403924, -14188.797973251103, -8492.411195327186, -5451.635176138303, -18512.09473754105, 187500.0, -0.074, 0.98, 0.09, 192.0, 0.0, 0.0, 0.0, 0.0, 0.0, 0.0, 0.0, 0.0, 0.0, 1.700945114062426E9, 0.0, 2023-11-25 15:45:14.062
190.0, 73894.73305877842, 82172.36634163455, -14963.621194794321, -13137.371914073457, -7251.8893780576445, -4541.203920984736, -18508.674920639387, 187500.0, -0.074, 0.98, 0.09, 192.0, 0.0, 0.0, 0.0, 0.0, 0.0, 0.0, 0.0, 0.0, 0.0, 1.700945114067396E9, 0.0, 2023-11-25 15:45:14.067
191.0, 73876.71755274745, 82169.93000148893, -15420.222630527334, -13646.231728342978, -7702.031159643074, -4812.531746927709, -18566.05184865616, 187500.0, -0.074, 0.98, 0.09, 192.0, 0.0, 0.0, 0.0, 0.0, 0.0, 0.0, 0.0, 0.0, 0.0, 1.700945114071406E9, 0.0, 2023-11-25 15:45:14.071
192.0, 73863.41826479654, 82211.63835664254, -16025.26200118804, -14236.362485451995, -8552.470332678597, -5292.222534683053, -18604.854477030574, 187500.0, -0.074, 0.98, 0.09, 192.0, 0.0, 0.0, 0.0, 0.0, 0.0, 0.0, 0.0, 0.0, 0.0, 1.700945114075673E9, 0.0, 2023-11-25 15:45:14.075
193.0, 73875.2870411023, 82223.03774631475, -15911.156345743699, -14375.233873752819, -8719.907250393302, -5587.176154515285, -18539.497976243256, 187500.0, -0.074, 0.98, 0.09, 192.0, 0.0, 0.0, 0.0, 0.0, 0.0, 0.0, 0.0, 0.0, 0.0, 1.700945114079527E9, 0.0, 2023-11-25 15:45:14.079
194.0, 73898.8457797582, 82192.12528373305, -14963.10710467185, -13175.883969769951, -7314.943649166066, -4596.278619322613, -18483.059821493607, 187500.0, -0.074, 0.98, 0.09, 192.0, 0.0, 0.0, 0.0, 0.0, 0.0, 0.0, 0.0, 0.0, 0.0, 1.700945114083439E9, 0.0, 2023-11-25 15:45:14.083
195.0, 73872.5377765343, 82168.25362065478, -15341.879766211483, -13546.453541094488, -7594.251047879583, -4756.3171096226115, -18567.281194601204, 187500.0, -0.074, 0.98, 0.09, 192.0, 0.0, 0.0, 0.0, 0.0, 0.0, 0.0, 0.0, 0.0, 0.0, 1.70094511408748E9, 0.0, 2023-11-25 15:45:14.087
196.0, 73858.56793624973, 82205.11164726158, -15921.885183082246, -14112.1314897694, -8378.573760816307, -5178.250989705442, -18599.892389761495, 187500.0, -0.076, 0.982, 0.094, 192.0, 253.0, 160.0, 30.0, 176.0, 2.0, 240.0, 0.0, 0.0, 0.0, 1.700945114090498E9, 0.0, 2023-11-25 15:45:14.090
197.0, 73859.46200602794, 82214.09704853261, -16090.350281041896, -14522.39775924656, -8898.877668246945, -5694.531583134125, -18578.568825551134, 187500.0, -0.076, 0.982, 0.094, 192.0, 0.0, 0.0, 0.0, 0.0, 0.0, 0.0, 0.0, 0.0, 0.0, 1.700945114094458E9, 0.0, 2023-11-25 15:45:14.094
198.0, 73884.16068365106, 82178.06603647066, -15045.965021367672, -13335.721294369852, -7489.264904173006, -4754.573673555097, -18475.28141442316, 187500.0, -0.076, 0.982, 0.094, 192.0, 0.0, 0.0, 0.0, 0.0, 0.0, 0.0, 0.0, 0.0, 0.0, 1.70094511409952E9, 0.0, 2023-11-25 15:45:14.099
199.0, 73861.80893919575, 82145.16426863245, -15267.180236241848, -13483.332214752701, -7506.788671825966, -4739.620356514497, -18556.954688662852, 187500.0, -0.076, 0.982, 0.094, 192.0, 0.0, 0.0, 0.0, 0.0, 0.0, 0.0, 0.0, 0.0, 0.0, 1.700945114103511E9, 0.0, 2023-11-25 15:45:14.103
200.0, 73838.3843110066, 82165.07967294213, -15804.896152603169, -14005.379558250852, -8202.464366252943, -5090.766261907371, -18578.993508695785, 187500.0, -0.076, 0.982, 0.094, 192.0, 0.0, 0.0, 0.0, 0.0, 0.0, 0.0, 0.0, 0.0, 0.0, 1.700945114107716E9, 0.0, 2023-11-25 15:45:14.107
201.0, 73835.16565980502, 82192.97465002236, -16203.651273685846, -14576.690146528501, -8972.526666227182, -5717.553879923092, -18595.86907575954, 187500.0, -0.076, 0.982, 0.094, 192.0, 0.0, 0.0, 0.0, 0.0, 0.0, 0.0, 0.0, 0.0, 0.0, 1.700945114114608E9, 0.0, 2023-11-25 15:45:14.114
202.0, 73869.45323579946, 82178.40131263749, -15177.728554931708, -13530.87437520914, -7711.932982436774, -4928.939632050948, -18458.249385148214, 187500.0, -0.076, 0.982, 0.094, 192.0, 0.0, 0.0, 0.0, 0.0, 0.0, 0.0, 0.0, 0.0, 0.0, 1.700945114115591E9, 0.0, 2023-11-25 15:45:14.115
203.0, 73861.11603511764, 82149.8357832236, -15175.940415375284, -13360.26350978178, -7398.807394362378, -4661.25514045419, -18542.49311000027, 187500.0, -0.076, 0.982, 0.094, 192.0, 0.0, 0.0, 0.0, 0.0, 0.0, 0.0, 0.0, 0.0, 0.0, 1.700945114124062E9, 0.0, 2023-11-25 15:45:14.124
204.0, 73843.50286048686, 82168.99122822181, -15693.539761726828, -13905.579019257906, -8046.605652166088, -5001.8510224641595, -18565.87303470052, 187500.0, -0.076, 0.982, 0.094, 192.0, 0.0, 0.0, 0.0, 0.0, 0.0, 0.0, 0.0, 0.0, 0.0, 1.700945114124107E9, 0.0, 2023-11-25 15:45:14.124
205.0, 73835.9256191165, 82201.46831291537, -16239.302306092062, -14569.559940047258, -8957.171017786386, -5670.324643889027, -18604.25097993028, 187500.0, -0.076, 0.982, 0.094, 192.0, 0.0, 0.0, 0.0, 0.0, 0.0, 0.0, 0.0, 0.0, 0.0, 1.700945114129994E9, 0.0, 2023-11-25 15:45:14.129
206.0, 73859.30554381675, 82180.9941149943, -15359.939975731371, -13779.06814564087, -7993.810831762652, -5137.34729735223, -18475.817856290087, 187500.0, -0.07200000000000001, 0.974, 0.096, 192.0, 253.0, 192.0, 30.0, 112.0, 3.0, 0.0, 0.0, 0.0, 0.0, 1.700945114131651E9, 0.0, 2023-11-25 15:45:14.131
207.0, 73865.67579098651, 82159.26821938375, -15094.89298998034, -13256.462008531335, -7317.849375945256, -4608.125043883925, -18545.845871668564, 187500.0, -0.07200000000000001, 0.974, 0.096, 192.0, 0.0, 0.0, 0.0, 0.0, 0.0, 0.0, 0.0, 0.0, 0.0, 1.700945114139113E9, 0.0, 2023-11-25 15:45:14.139
208.0, 73844.64279945407, 82172.45574861238, -15596.622597768617, -13815.836765269849, -7919.111301793016, -4938.2156059999, -18566.610642267544, 187500.0, -0.07200000000000001, 0.974, 0.096, 192.0, 0.0, 0.0, 0.0, 0.0, 0.0, 0.0, 0.0, 0.0, 0.0, 1.700945114139909E9, 0.0, 2023-11-25 15:45:14.139
209.0, 73827.8789911126, 82207.77150485177, -16211.608494711936, -14484.48920065036, -8867.51817077615, -5565.874942049378, -18621.662988860964, 187500.0, -0.07200000000000001, 0.974, 0.096, 192.0, 0.0, 0.0, 0.0, 0.0, 0.0, 0.0, 0.0, 0.0, 0.0, 1.700945114142732E9, 0.0, 2023-11-25 15:45:14.142
210.0, 73855.01400888134, 82198.04849601371, -15562.759704918828, -14021.338703791942, -8292.810117341294, -5333.752075881013, -18500.7176996133, 187500.0, -0.07200000000000001, 0.974, 0.096, 192.0, 0.0, 0.0, 0.0, 0.0, 0.0, 0.0, 0.0, 0.0, 0.0, 1.700945114146652E9, 0.0, 2023-11-25 15:45:14.146
211.0, 73871.71076198945, 82160.98930370681, -15013.622047140843, -13182.477734384267, -7276.476296958483, -4571.423479488311, -18530.400816249945, 187500.0, -0.07200000000000001, 0.974, 0.096, 192.0, 0.0, 0.0, 0.0, 0.0, 0.0, 0.0, 0.0, 0.0, 0.0, 1.700945114152133E9, 0.0, 2023-11-25 15:45:14.152
212.0, 73846.60975296613, 82154.26142862576, -15507.103861225112, -13735.214023019556, -7810.750044673687, -4884.4596605848865, -18581.318090119137, 187500.0, -0.07200000000000001, 0.974, 0.096, 192.0, 0.0, 0.0, 0.0, 0.0, 0.0, 0.0, 0.0, 0.0, 0.0, 1.70094511415562E9, 0.0, 2023-11-25 15:45:14.155
213.0, 73836.7749854058, 82207.39152519603, -16133.623258307369, -14371.076449284132, -8723.751750439615, -5434.625498607815, -18629.284933720224, 187500.0, -0.07200000000000001, 0.974, 0.096, 192.0, 0.0, 0.0, 0.0, 0.0, 0.0, 0.0, 0.0, 0.0, 0.0, 1.700945114159725E9, 0.0, 2023-11-25 15:45:14.159
214.0, 73860.11020661714, 82219.19324626842, -15760.572643348294, -14258.893043862945, -8561.120457782801, -5513.527156535049, -18521.415414978914, 187500.0, -0.07200000000000001, 0.974, 0.096, 192.0, 0.0, 0.0, 0.0, 0.0, 0.0, 0.0, 0.0, 0.0, 0.0, 1.700945114163684E9, 0.0, 2023-11-25 15:45:14.163
215.0, 73879.19859638198, 82183.58691735112, -14951.685363255188, -13157.332021872047, -7264.004023552421, -4569.612988187431, -18501.52236241369, 187500.0, -0.07200000000000001, 0.974, 0.096, 192.0, 0.0, 0.0, 0.0, 0.0, 0.0, 0.0, 0.0, 0.0, 0.0, 1.700945114167703E9, 0.0, 2023-11-25 15:45:14.167
216.0, 73865.72049447543, 82168.49948984379, -15400.821316340127, -13640.621440484696, -7678.651234942822, -4819.058456308658, -18567.258842856747, 187500.0, -0.082, 0.974, 0.094, 192.0, 253.0, 112.0, 30.0, 112.0, 2.0, 240.0, 0.0, 0.0, 0.0, 1.700945114170948E9, 0.0, 2023-11-25 15:45:14.170
217.0, 73848.88963090058, 82203.23410072734, -16011.873306259313, -14232.227412727763, -8521.870794519282, -5294.52476436195, -18608.095479976593, 187500.0, -0.082, 0.974, 0.094, 192.0, 0.0, 0.0, 0.0, 0.0, 0.0, 0.0, 0.0, 0.0, 0.0, 1.700945114174835E9, 0.0, 2023-11-25 15:45:14.174
218.0, 73859.84198568368, 82218.14271427903, -15951.25537529652, -14438.824586728168, -8767.002375960634, -5647.838788966988, -18542.515461744722, 187500.0, -0.082, 0.974, 0.094, 192.0, 0.0, 0.0, 0.0, 0.0, 0.0, 0.0, 0.0, 0.0, 0.0, 1.700945114178988E9, 0.0, 2023-11-25 15:45:14.178
219.0, 73888.85454998667, 82194.38280992303, -14971.690174542688, -13227.360037250524, -7340.916376223133, -4653.007346750182, -18469.26879516468, 187500.0, -0.082, 0.974, 0.094, 192.0, 0.0, 0.0, 0.0, 0.0, 0.0, 0.0, 0.0, 0.0, 0.0, 1.700945114182812E9, 0.0, 2023-11-25 15:45:14.182
220.0, 73865.5863840087, 82172.5451555902, -15327.351132315533, -13556.958860988481, -7573.553332513969, -4780.702862823351, -18555.211252595338, 187500.0, -0.082, 0.974, 0.094, 192.0, 0.0, 0.0, 0.0, 0.0, 0.0, 0.0, 0.0, 0.0, 0.0, 1.700945114187765E9, 0.0, 2023-11-25 15:45:14.187
221.0, 73833.80220339325, 82193.91342328947, -15905.970741030067, -14115.148975270866, -8346.387248800665, -5189.337454955275, -18590.638767556997, 187500.0, -0.082, 0.974, 0.094, 192.0, 0.0, 0.0, 0.0, 0.0, 0.0, 0.0, 0.0, 0.0, 0.0, 1.700945114191773E9, 0.0, 2023-11-25 15:45:14.191
222.0, 73826.76140388983, 82207.92796706295, -16114.534868542538, -14547.677582225513, -8916.58024985555, -5719.409074712882, -18575.238415627293, 187500.0, -0.082, 0.974, 0.094, 192.0, 0.0, 0.0, 0.0, 0.0, 0.0, 0.0, 0.0, 0.0, 0.0, 1.700945114195822E9, 0.0, 2023-11-25 15:45:14.195
223.0, 73862.54654676278, 82186.42558889695, -15061.164207597281, -13364.957376117394, -7520.087959776874, -4790.738796083784, -18472.308632410604, 187500.0, -0.082, 0.974, 0.094, 192.0, 0.0, 0.0, 0.0, 0.0, 0.0, 0.0, 0.0, 0.0, 0.0, 1.700945114198785E9, 0.0, 2023-11-25 15:45:14.198
224.0, 73845.13453783208, 82156.72012051585, -15243.73325630823, -13431.18559493847, -7469.595369052336, -4708.663190443896, -18574.00906968225, 187500.0, -0.082, 0.974, 0.094, 192.0, 0.0, 0.0, 0.0, 0.0, 0.0, 0.0, 0.0, 0.0, 0.0, 1.700945114202821E9, 0.0, 2023-11-25 15:45:14.202
225.0, 73832.7293196594, 82187.34201041961, -15787.059460527833, -13985.933540574735, -8176.04460430677, -5076.885828600625, -18601.85934327356, 187500.0, -0.082, 0.974, 0.094, 192.0, 0.0, 0.0, 0.0, 0.0, 0.0, 0.0, 0.0, 0.0, 0.0, 1.70094511420684E9, 0.0, 2023-11-25 15:45:14.206
226.0, 73836.50676447235, 82224.20003702641, -16204.21006729723, -14584.446201854493, -8976.72879418478, -5719.409074712882, -18608.654273587978, 187500.0, -0.074, 0.974, 0.09, 192.0, 253.0, 176.0, 30.0, 112.0, 2.0, 208.0, 0.0, 0.0, 0.0, 1.700945114210812E9, 0.0, 2023-11-25 15:45:14.210
227.0, 73866.94984042046, 82202.27297571576, -15199.29798833108, -13568.291195427322, -7758.737535326188, -4969.351586026142, -18476.600167346023, 187500.0, -0.074, 0.974, 0.09, 192.0, 0.0, 0.0, 0.0, 0.0, 0.0, 0.0, 0.0, 0.0, 0.0, 1.700945114215439E9, 0.0, 2023-11-25 15:45:14.215
228.0, 73857.8303286827, 82168.99122822181, -15143.910365570828, -13325.707712853875, -7367.380841658216, -4647.77703854764, -18551.076179871106, 187500.0, -0.074, 0.974, 0.09, 192.0, 0.0, 0.0, 0.0, 0.0, 0.0, 0.0, 0.0, 0.0, 0.0, 1.700945114219882E9, 0.0, 2023-11-25 15:45:14.219
229.0, 73828.05780506824, 82174.53446084673, -15667.879959092137, -13885.708318437139, -8016.944887273895, -4997.760653228838, -18580.71459301884, 187500.0, -0.074, 0.974, 0.09, 192.0, 0.0, 0.0, 0.0, 0.0, 0.0, 0.0, 0.0, 0.0, 0.0, 1.700945114222844E9, 0.0, 2023-11-25 15:45:14.222
230.0, 73825.66616841152, 82218.0086038123, -16224.773672196112, -14564.709611500457, -8942.284755979152, -5670.972844478231, -18617.50556439228, 187500.0, -0.074, 0.974, 0.09, 192.0, 0.0, 0.0, 0.0, 0.0, 0.0, 0.0, 0.0, 0.0, 0.0, 1.700945114226949E9, 0.0, 2023-11-25 15:45:14.226
231.0, 73857.45034902697, 82206.36334495108, -15374.580368349598, -13817.647256570728, -8032.97108804835, -5181.961379285023, -18479.79646680313, 187500.0, -0.074, 0.974, 0.09, 192.0, 0.0, 0.0, 0.0, 0.0, 0.0, 0.0, 0.0, 0.0, 0.0, 1.700945114230854E9, 0.0, 2023-11-25 15:45:14.230
232.0, 73861.0266281398, 82169.90764974448, -15055.553919738999, -13220.408644724923, -7285.193477296052, -4596.81506118954, -18540.168528576916, 187500.0, -0.074, 0.974, 0.09, 192.0, 0.0, 0.0, 0.0, 0.0, 0.0, 0.0, 0.0, 0.0, 0.0, 1.700945114234974E9, 0.0, 2023-11-25 15:45:14.234
233.0, 73843.05582559775, 82179.02716148224, -15560.07749558419, -13791.87569521376, -7879.973397251773, -4931.68889661895, -18564.509578288744, 187500.0, -0.074, 0.974, 0.09, 192.0, 0.0, 0.0, 0.0, 0.0, 0.0, 0.0, 0.0, 0.0, 0.0, 1.700945114238921E9, 0.0, 2023-11-25 15:45:14.238
234.0, 73822.20164802094, 82216.13105727805, -16185.635767654869, -14450.715714778391, -8824.021676066122, -5540.617470814881, -18622.042968516704, 187500.0, -0.074, 0.974, 0.09, 192.0, 0.0, 0.0, 0.0, 0.0, 0.0, 0.0, 0.0, 0.0, 0.0, 1.700945114242936E9, 0.0, 2023-11-25 15:45:14.242
235.0, 73854.94695364797, 82223.41772597047, -15592.554580277752, -14065.215178157709, -8331.45628350452, -5377.2932740799515, -18493.09575475404, 187500.0, -0.074, 0.974, 0.09, 192.0, 0.0, 0.0, 0.0, 0.0, 0.0, 0.0, 0.0, 0.0, 0.0, 1.700945114247957E9, 0.0, 2023-11-25 15:45:14.247
236.0, 73869.09560788819, 82192.5499668777, -14980.742631047087, -13162.517626585679, -7242.7922180643345, -4567.064889319527, -18498.504876912222, 187500.0, -0.07, 0.986, 0.09, 192.0, 253.0, 208.0, 30.0, 208.0, 2.0, 208.0, 0.0, 0.0, 0.0, 1.700945114251934E9, 0.0, 2023-11-25 15:45:14.251
237.0, 73840.30656102975, 82174.35564689108, -15471.698698007905, -13721.266534479444, -7769.242855220182, -4880.324587860655, -18554.451293283855, 187500.0, -0.07, 0.986, 0.09, 192.0, 0.0, 0.0, 0.0, 0.0, 0.0, 0.0, 0.0, 0.0, 0.0, 1.70094511425502E9, 0.0, 2023-11-25 15:45:14.255
238.0, 73822.98395907688, 82209.403182197, -16100.833249191433, -14337.16885294543, -8669.325252690942, -5401.723730769602, -18609.88361953302, 187500.0, -0.07, 0.986, 0.09, 192.0, 0.0, 0.0, 0.0, 0.0, 0.0, 0.0, 0.0, 0.0, 0.0, 1.70094511425895E9, 0.0, 2023-11-25 15:45:14.258
239.0, 73842.04999709726, 82216.33222297815, -15799.397623467163, -14291.236018089774, -8598.246705323065, -5537.108246935398, -18510.619522407, 187500.0, -0.07, 0.986, 0.09, 192.0, 0.0, 0.0, 0.0, 0.0, 0.0, 0.0, 0.0, 0.0, 0.0, 1.700945114262946E9, 0.0, 2023-11-25 15:45:14.262
240.0, 73869.47558754392, 82193.57814712265, -14947.527938786501, -13173.84996102452, -7272.207113767518, -4590.713034953241, -18469.89464400943, 187500.0, -0.07, 0.986, 0.09, 192.0, 0.0, 0.0, 0.0, 0.0, 0.0, 0.0, 0.0, 0.0, 0.0, 1.700945114266978E9, 0.0, 2023-11-25 15:45:14.266
241.0, 73854.32110480322, 82189.06309474267, -15372.121676459514, -13628.149167078634, -7654.176074764261, -4817.113854541047, -18539.363865776526, 187500.0, -0.07, 0.986, 0.09, 192.0, 0.0, 0.0, 0.0, 0.0, 0.0, 0.0, 0.0, 0.0, 0.0, 1.700945114270956E9, 0.0, 2023-11-25 15:45:14.270
242.0, 73837.6243516951, 82227.88807486155, -15958.16206433321, -14195.235275654231, -8470.573540994352, -5258.002013921978, -18568.868168457528, 187500.0, -0.07, 0.986, 0.09, 192.0, 0.0, 0.0, 0.0, 0.0, 0.0, 0.0, 0.0, 0.0, 0.0, 1.700945114276009E9, 0.0, 2023-11-25 15:45:14.276
243.0, 73844.933372132, 82238.28163603327, -15948.05907583941, -14443.719618763878, -8782.693300568259, -5641.826169708511, -18513.927580586384, 187500.0, -0.07, 0.986, 0.09, 192.0, 0.0, 0.0, 0.0, 0.0, 0.0, 0.0, 0.0, 0.0, 0.0, 1.700945114279494E9, 0.0, 2023-11-25 15:45:14.279
244.0, 73883.31131736176, 82219.12619103506, -14946.38799981928, -13228.857604129029, -7359.1330479542075, -4656.851846796495, -18442.089073907027, 187500.0, -0.07, 0.986, 0.09, 192.0, 0.0, 0.0, 0.0, 0.0, 0.0, 0.0, 0.0, 0.0, 0.0, 1.700945114282483E9, 0.0, 2023-11-25 15:45:14.282
245.0, 73863.03828514079, 82189.01839125376, -15265.97324204126, -13499.71604343844, -7536.315326251427, -4735.664097745907, -18534.401778507447, 187500.0, -0.07, 0.986, 0.09, 192.0, 0.0, 0.0, 0.0, 0.0, 0.0, 0.0, 0.0, 0.0, 0.0, 1.700945114287008E9, 0.0, 2023-11-25 15:45:14.287
246.0, 73843.65932269805, 82216.66749914498, -15828.097263347778, -14048.764294238603, -8291.40195744061, -5120.91876517758, -18565.11307538904, 187500.0, -0.07200000000000001, 0.982, 0.088, 192.0, 253.0, 192.0, 30.0, 176.0, 2.0, 192.0, 0.0, 0.0, 0.0, 1.700945114291008E9, 0.0, 2023-11-25 15:45:14.291
247.0, 73843.79343316477, 82243.80251691373, -16076.738068668614, -14526.286962781784, -8918.48014813425, -5680.114707960452, -18541.91196464443, 187500.0, -0.07200000000000001, 0.982, 0.088, 192.0, 0.0, 0.0, 0.0, 0.0, 0.0, 0.0, 0.0, 0.0, 0.0, 1.700945114295043E9, 0.0, 2023-11-25 15:45:14.295
248.0, 73875.77877948032, 82224.04357481522, -15020.34992222189, -13360.17410280396, -7542.9761460991085, -4771.784516785684, -18419.53616375162, 187500.0, -0.07200000000000001, 0.982, 0.088, 192.0, 0.0, 0.0, 0.0, 0.0, 0.0, 0.0, 0.0, 0.0, 0.0, 1.700945114301057E9, 0.0, 2023-11-25 15:45:14.301
249.0, 73857.6291629826, 82196.17094947946, -15178.264996798634, -13393.74642297583, -7453.032726410953, -4664.026756766648, -18525.058749325126, 187500.0, -0.07200000000000001, 0.982, 0.088, 192.0, 0.0, 0.0, 0.0, 0.0, 0.0, 0.0, 0.0, 0.0, 0.0, 1.70094511430426E9, 0.0, 2023-11-25 15:45:14.304
250.0, 73835.56799120521, 82222.0095660698, -15704.246247320922, -13940.268926652543, -8134.760932297819, -5016.334952871198, -18542.358999533535, 187500.0, -0.07200000000000001, 0.982, 0.088, 192.0, 0.0, 0.0, 0.0, 0.0, 0.0, 0.0, 0.0, 0.0, 0.0, 1.700945114307151E9, 0.0, 2023-11-25 15:45:14.307
251.0, 73835.99267434987, 82257.0123978868, -16153.918642272789, -14562.116809143641, -8969.598587703536, -5667.93300723231, -18557.334668318592, 187500.0, -0.07200000000000001, 0.982, 0.088, 192.0, 0.0, 0.0, 0.0, 0.0, 0.0, 0.0, 0.0, 0.0, 0.0, 1.700945114310238E9, 0.0, 2023-11-25 15:45:14.310
252.0, 73867.9333171765, 82231.68787141894, -15180.611929966442, -13617.733254162462, -7820.294239556103, -4986.137746112078, -18423.02303588665, 187500.0, -0.07200000000000001, 0.982, 0.088, 192.0, 0.0, 0.0, 0.0, 0.0, 0.0, 0.0, 0.0, 0.0, 0.0, 1.700945114315145E9, 0.0, 2023-11-25 15:45:14.315
253.0, 73859.39495079458, 82195.47804540135, -15081.213722373692, -13307.759262056265, -7361.524684610926, -4614.472939309232, -18502.639949636454, 187500.0, -0.07200000000000001, 0.982, 0.088, 192.0, 0.0, 0.0, 0.0, 0.0, 0.0, 0.0, 0.0, 0.0, 0.0, 1.700945114319142E9, 0.0, 2023-11-25 15:45:14.319
254.0, 73836.79733715026, 82209.91727231948, -15590.386461065587, -13856.226367500589, -7994.146107929481, -4950.285548005766, -18528.545621460155, 187500.0, -0.07200000000000001, 0.982, 0.088, 192.0, 0.0, 0.0, 0.0, 0.0, 0.0, 0.0, 0.0, 0.0, 0.0, 1.700945114323144E9, 0.0, 2023-11-25 15:45:14.323
255.0, 73833.5786859487, 82255.29131356375, -16167.441447668249, -14532.8807273961, -8936.942689054333, -5615.026428106597, -18577.25007262827, 187500.0, -0.07200000000000001, 0.982, 0.088, 192.0, 0.0, 0.0, 0.0, 0.0, 0.0, 0.0, 0.0, 0.0, 0.0, 1.700945114327175E9, 0.0, 2023-11-25 15:45:14.327
0.0, 73866.79337820929, 82246.82000241519, -15358.218891408313, -13858.975632068592, -8107.737673251352, -5192.958437557035, -18432.522527280158, 187500.0, -0.078, 0.974, 0.088, 192.0, 253.0, 144.0, 30.0, 112.0, 2.0, 192.0, 0.0, 0.0, 0.0, 1.700945114331165E9, 0.0, 2023-11-25 15:45:14.331
1.0, 73873.09657014567, 82221.31666199167, -14983.424840381724, -13203.890705572452, -7285.372291251695, -4561.365194483423, -18479.17061795838, 187500.0, -0.078, 0.974, 0.088, 192.0, 0.0, 0.0, 0.0, 0.0, 0.0, 0.0, 0.0, 0.0, 0.0, 1.700945114335156E9, 0.0, 2023-11-25 15:45:14.335
2.0, 73845.33570353218, 82224.08827830415, -15490.362404628087, -13789.282892856943, -7875.056013471605, -4908.979524252359, -18507.780850861174, 187500.0, -0.078, 0.974, 0.088, 192.0, 0.0, 0.0, 0.0, 0.0, 0.0, 0.0, 0.0, 0.0, 0.0, 1.700945114338168E9, 0.0, 2023-11-25 15:45:14.338
3.0, 73829.66713066901, 82266.24366834685, -16105.057728893487, -14436.075322160164, -8807.056702024543, -5500.227868584141, -18554.33953456158, 187500.0, -0.078, 0.974, 0.088, 192.0, 0.0, 0.0, 0.0, 0.0, 0.0, 0.0, 0.0, 0.0, 0.0, 1.700945114342207E9, 0.0, 2023-11-25 15:45:14.342
4.0, 73849.44842451197, 82258.4652612764, -15572.706231201439, -14108.041120534077, -8395.963418002537, -5392.313646353919, -18444.23484137474, 187500.0, -0.078, 0.974, 0.088, 192.0, 0.0, 0.0, 0.0, 0.0, 0.0, 0.0, 0.0, 0.0, 0.0, 1.700945114347286E9, 0.0, 2023-11-25 15:45:14.347
5.0, 73858.92556416102, 82213.1582752655, -14946.186834119182, -13171.681841812355, -7279.359671993217, -4565.164991040825, -18468.46413236429, 187500.0, -0.078, 0.974, 0.088, 192.0, 0.0, 0.0, 0.0, 0.0, 0.0, 0.0, 0.0, 0.0, 0.0, 1.700945114351217E9, 0.0, 2023-11-25 15:45:14.351
6.0, 73834.76332840484, 82201.49066465982, -15417.920400848438, -13710.917676796636, -7777.669462879832, -4868.031128410235, -18514.642836408955, 187500.0, -0.078, 0.974, 0.088, 192.0, 0.0, 0.0, 0.0, 0.0, 0.0, 0.0, 0.0, 0.0, 0.0, 1.700945114355239E9, 0.0, 2023-11-25 15:45:14.355
7.0, 73816.50195318484, 82241.72380467938, -16034.22505071462, -14318.281628880695, -8660.80923805347, -5384.289370094463, -18565.068371900128, 187500.0, -0.078, 0.974, 0.088, 192.0, 0.0, 0.0, 0.0, 0.0, 0.0, 0.0, 0.0, 0.0, 0.0, 1.700945114359301E9, 0.0, 2023-11-25 15:45:14.359
8.0, 73836.68557842799, 82261.3709880556, -15786.970053550012, -14323.26606789423, -8659.468133386152, -5568.3559856839165, -18487.32900468457, 187500.0, -0.078, 0.974, 0.088, 192.0, 0.0, 0.0, 0.0, 0.0, 0.0, 0.0, 0.0, 0.0, 0.0, 1.70094511436235E9, 0.0, 2023-11-25 15:45:14.362
9.0, 73863.84294794119, 82230.8608568741, -14918.314208783415, -13169.960757489296, -7303.656018216136, -4596.904468167361, -18455.56717581358, 187500.0, -0.078, 0.974, 0.088, 192.0, 0.0, 0.0, 0.0, 0.0, 0.0, 0.0, 0.0, 0.0, 0.0, 1.700945114366295E9, 0.0, 2023-11-25 15:45:14.366
10.0, 73846.20742156595, 82210.83369384214, -15337.007085920226, -13625.288143788355, -7667.296548759527, -4828.222671535334, -18526.19868829235, 187500.0, -0.076, 0.97, 0.09, 192.0, 253.0, 160.0, 30.0, 80.0, 2.0, 208.0, 0.0, 0.0, 0.0, 1.700945114370264E9, 0.0, 2023-11-25 15:45:14.370
11.0, 73835.59034294967, 82245.99298787034, -15919.270028980975, -14199.52681058965, -8475.468573030064, -5274.654063541182, -18565.157778877947, 187500.0, -0.076, 0.97, 0.09, 192.0, 0.0, 0.0, 0.0, 0.0, 0.0, 0.0, 0.0, 0.0, 0.0, 1.700945114375321E9, 0.0, 2023-11-25 15:45:14.375
12.0, 73851.75065419087, 82270.13287188207, -15960.77721843448, -14478.856561047622, -8842.46186524175, -5685.814402796555, -18518.107356799526, 187500.0, -0.076, 0.97, 0.09, 192.0, 0.0, 0.0, 0.0, 0.0, 0.0, 0.0, 0.0, 0.0, 0.0, 1.700945114379498E9, 0.0, 2023-11-25 15:45:14.379
13.0, 73874.61648876865, 82240.09212733414, -14953.808778978442, -13262.899310934463, -7414.900650370199, -4699.767196150684, -18435.98704767073, 187500.0, -0.076, 0.97, 0.09, 192.0, 0.0, 0.0, 0.0, 0.0, 0.0, 0.0, 0.0, 0.0, 0.0, 1.700945114383351E9, 0.0, 2023-11-25 15:45:14.383
14.0, 73846.94502913297, 82208.84438858562, -15244.023828986148, -13498.799621915774, -7542.7302769101, -4746.772914740195, -18520.566048689612, 187500.0, -0.076, 0.97, 0.09, 192.0, 0.0, 0.0, 0.0, 0.0, 0.0, 0.0, 0.0, 0.0, 0.0, 1.700945114387598E9, 0.0, 2023-11-25 15:45:14.387
15.0, 73827.49901145685, 82240.13683082304, -15798.369443222218, -14039.622430756383, -8279.935512535038, -5123.869195445681, -18553.490168272278, 187500.0, -0.076, 0.97, 0.09, 192.0, 0.0, 0.0, 0.0, 0.0, 0.0, 0.0, 0.0, 0.0, 0.0, 1.700945114390425E9, 0.0, 2023-11-25 15:45:14.390
16.0, 73842.25116279736, 82282.64984877704, -16099.939179413223, -14575.527855816825, -8968.749221414235, -5732.194272541317, -18551.85849092704, 187500.0, -0.076, 0.97, 0.09, 192.0, 0.0, 0.0, 0.0, 0.0, 0.0, 0.0, 0.0, 0.0, 0.0, 1.700945114394375E9, 0.0, 2023-11-25 15:45:14.394
17.0, 73882.68546851701, 82266.26602009131, -15041.360562009879, -13431.923202505495, -7610.321952142948, -4849.188607834412, -18418.97737014024, 187500.0, -0.076, 0.97, 0.09, 192.0, 0.0, 0.0, 0.0, 0.0, 0.0, 0.0, 0.0, 0.0, 0.0, 1.700945114398451E9, 0.0, 2023-11-25 15:45:14.398
18.0, 73871.4872445449, 82227.77631613926, -15146.190243505269, -13392.070042141682, -7440.292232071428, -4686.1773355218575, -18512.966455574806, 187500.0, -0.076, 0.97, 0.09, 192.0, 0.0, 0.0, 0.0, 0.0, 0.0, 0.0, 0.0, 0.0, 0.0, 1.700945114402374E9, 0.0, 2023-11-25 15:45:14.402
19.0, 73844.75455817636, 82244.78599366975, -15675.39014522912, -13941.095941197389, -8118.310048378712, -5042.084162483712, -18537.7768919202, 187500.0, -0.076, 0.97, 0.09, 192.0, 0.0, 0.0, 0.0, 0.0, 0.0, 0.0, 0.0, 0.0, 0.0, 1.700945114407404E9, 0.0, 2023-11-25 15:45:14.407
20.0, 73842.0276453528, 82283.87919472209, -16155.215043451197, -14579.506466329869, -8981.48971575376, -5704.36635069446, -18559.189863108382, 187500.0, -0.08600000000000001, 0.974, 0.08600000000000001, 192.0, 253.0, 80.0, 30.0, 112.0, 2.0, 176.0, 0.0, 0.0, 0.0, 1.700945114411499E9, 0.0, 2023-11-25 15:45:14.411
21.0, 73875.15293063557, 82264.65669449052, -15203.857744199962, -13664.18017914059, -7878.2076094398035, -5053.751773089382, -18420.050253874095, 187500.0, -0.08600000000000001, 0.974, 0.08600000000000001, 192.0, 0.0, 0.0, 0.0, 0.0, 0.0, 0.0, 0.0, 0.0, 0.0, 1.700945114415444E9, 0.0, 2023-11-25 15:45:14.415
22.0, 73867.57568926521, 82228.5586271952, -15056.984431384139, -13278.031441930705, -7347.957175726554, -4622.765436502152, -18496.98495828926, 187500.0, -0.08600000000000001, 0.974, 0.08600000000000001, 192.0, 0.0, 0.0, 0.0, 0.0, 0.0, 0.0, 0.0, 0.0, 0.0, 1.700945114418428E9, 0.0, 2023-11-25 15:45:14.418
23.0, 73842.34056977517, 82234.77241215378, -15572.527417245796, -13833.628753856274, -7974.029537919705, -4953.794771885249, -18525.036397580672, 187500.0, -0.08600000000000001, 0.974, 0.08600000000000001, 192.0, 0.0, 0.0, 0.0, 0.0, 0.0, 0.0, 0.0, 0.0, 0.0, 1.700945114422449E9, 0.0, 2023-11-25 15:45:14.422
24.0, 73828.9742265909, 82266.40013055803, -16166.100343000931, -14520.54256445677, -8926.660886604892, -5612.567736216514, -18576.177188894413, 187500.0, -0.08600000000000001, 0.974, 0.08600000000000001, 192.0, 0.0, 0.0, 0.0, 0.0, 0.0, 0.0, 0.0, 0.0, 0.0, 1.700945114426466E9, 0.0, 2023-11-25 15:45:14.426
25.0, 73854.05288386976, 82252.58675248465, -15419.552078193676, -13925.628534034317, -8189.90268586906, -5260.639519767705, -18450.493329822224, 187500.0, -0.08600000000000001, 0.974, 0.08600000000000001, 192.0, 0.0, 0.0, 0.0, 0.0, 0.0, 0.0, 0.0, 0.0, 0.0, 1.700945114430474E9, 0.0, 2023-11-25 15:45:14.430
26.0, 73869.02855265481, 82232.64899643052, -14985.838828782897, -13200.068557270593, -7295.967018123511, -4577.391395257878, -18488.55835062961, 187500.0, -0.08600000000000001, 0.974, 0.08600000000000001, 192.0, 0.0, 0.0, 0.0, 0.0, 0.0, 0.0, 0.0, 0.0, 0.0, 1.700945114434464E9, 0.0, 2023-11-25 15:45:14.434
27.0, 73845.71568318793, 82234.14656330903, -15491.994081973326, -13774.01665139397, -7868.775173279664, -4910.92412601997, -18527.115109815015, 187500.0, -0.08600000000000001, 0.974, 0.08600000000000001, 192.0, 0.0, 0.0, 0.0, 0.0, 0.0, 0.0, 0.0, 0.0, 0.0, 1.700945114439466E9, 0.0, 2023-11-25 15:45:14.439
28.0, 73831.76819464781, 82272.97154342789, -16117.485298810638, -14433.482519803349, -8805.089748512477, -5502.977133152143, -18574.612566782544, 187500.0, -0.08600000000000001, 0.974, 0.08600000000000001, 192.0, 0.0, 0.0, 0.0, 0.0, 0.0, 0.0, 0.0, 0.0, 0.0, 1.700945114443542E9, 0.0, 2023-11-25 15:45:14.443
29.0, 73857.49505251588, 82280.1688051425, -15627.289191161299, -14165.909786928867, -8460.112924589268, -5446.471923169127, -18452.728504267754, 187500.0, -0.08600000000000001, 0.974, 0.08600000000000001, 192.0, 0.0, 0.0, 0.0, 0.0, 0.0, 0.0, 0.0, 0.0, 0.0, 1.700945114446522E9, 0.0, 2023-11-25 15:45:14.446
30.0, 73868.939145677, 82247.22233381539, -14936.374418303301, -13159.164864917382, -7268.206151510019, -4565.7237846522075, -18459.4563793488, 187500.0, -0.078, 0.982, 0.084, 192.0, 253.0, 144.0, 30.0, 176.0, 2.0, 160.0, 0.0, 0.0, 0.0, 1.700945114451564E9, 0.0, 2023-11-25 15:45:14.451
31.0, 73840.01598835182, 82230.97261559637, -15412.62303741253, -13680.251083403957, -7744.231253174693, -4844.204168820878, -18525.282266769682, 187500.0, -0.078, 0.982, 0.084, 192.0, 0.0, 0.0, 0.0, 0.0, 0.0, 0.0, 0.0, 0.0, 0.0, 1.700945114455536E9, 0.0, 2023-11-25 15:45:14.455
32.0, 73832.9751888484, 82267.16008986952, -16028.815928556434, -14289.067898877609, -8620.71020850065, -5347.833674887857, -18571.550377792166, 187500.0, -0.078, 0.982, 0.084, 192.0, 0.0, 0.0, 0.0, 0.0, 0.0, 0.0, 0.0, 0.0, 0.0, 1.700945114458755E9, 0.0, 2023-11-25 15:45:14.458
33.0, 73852.57766873571, 82275.05025566224, -15845.241051344998, -14368.304832971673, -8706.429148486752, -5589.590142916459, -18497.342586200546, 187500.0, -0.078, 0.982, 0.084, 192.0, 0.0, 0.0, 0.0, 0.0, 0.0, 0.0, 0.0, 0.0, 0.0, 1.700945114463525E9, 0.0, 2023-11-25 15:45:14.463
34.0, 73877.186939381, 82248.83165941616, -14926.070264109405, -13180.533132616656, -7313.334323565284, -4593.3728925434225, -18443.36312334098, 187500.0, -0.078, 0.982, 0.084, 192.0, 0.0, 0.0, 0.0, 0.0, 0.0, 0.0, 0.0, 0.0, 0.0, 1.700945114467543E9, 0.0, 2023-11-25 15:45:14.467
35.0, 73860.7360554619, 82242.97550236888, -15333.430806807377, -13596.02971029636, -7639.736847846133, -4788.749490827262, -18529.506746471732, 187500.0, -0.078, 0.982, 0.084, 192.0, 0.0, 0.0, 0.0, 0.0, 0.0, 0.0, 0.0, 0.0, 0.0, 1.700945114470539E9, 0.0, 2023-11-25 15:45:14.470
36.0, 73842.51938373082, 82278.64888651954, -15915.045549278922, -14167.161484618366, -8437.42590396713, -5224.474397239018, -18564.040191655182, 187500.0, -0.078, 0.982, 0.084, 192.0, 0.0, 0.0, 0.0, 0.0, 0.0, 0.0, 0.0, 0.0, 0.0, 1.700945114474559E9, 0.0, 2023-11-25 15:45:14.474
37.0, 73840.55243021876, 82288.59541280215, -16011.605085325848, -14507.936180583976, -8875.274226102141, -5681.500516116681, -18528.120938315504, 187500.0, -0.078, 0.982, 0.084, 192.0, 0.0, 0.0, 0.0, 0.0, 0.0, 0.0, 0.0, 0.0, 0.0, 1.700945114478548E9, 0.0, 2023-11-25 15:45:14.478
38.0, 73868.00037240986, 82256.69947346442, -14986.44232588319, -13285.496924578778, -7445.6566507407015, -4701.957667107305, -18441.239707617726, 187500.0, -0.078, 0.982, 0.084, 192.0, 0.0, 0.0, 0.0, 0.0, 0.0, 0.0, 0.0, 0.0, 0.0, 1.700945114482581E9, 0.0, 2023-11-25 15:45:14.482
39.0, 73864.44644504148, 82240.94149362344, -15244.135587708424, -13481.924054852016, -7522.636058644779, -4719.615545226997, -18529.52909821619, 187500.0, -0.078, 0.982, 0.084, 192.0, 0.0, 0.0, 0.0, 0.0, 0.0, 0.0, 0.0, 0.0, 0.0, 1.700945114486617E9, 0.0, 2023-11-25 15:45:14.486
40.0, 73845.5815727212, 82267.94240092546, -15787.014757038924, -14015.750767678115, -8237.936584703515, -5079.255113512888, -18559.547491019668, 187500.0, -0.078, 0.98, 0.08, 192.0, 253.0, 144.0, 30.0, 160.0, 2.0, 128.0, 0.0, 0.0, 0.0, 1.700945114490957E9, 0.0, 2023-11-25 15:45:14.490
41.0, 73848.01791286682, 82301.71588679742, -16132.259801895596, -14566.564806290247, -8964.077706823076, -5689.144812720396, -18561.380334065, 187500.0, -0.078, 0.98, 0.08, 192.0, 0.0, 0.0, 0.0, 0.0, 0.0, 0.0, 0.0, 0.0, 0.0, 1.700945114495669E9, 0.0, 2023-11-25 15:45:14.495
42.0, 73878.61745102615, 82280.21350863141, -15094.960045213706, -13470.658775646541, -7657.104153287906, -4855.5812067486295, -18428.499213278203, 187500.0, -0.078, 0.98, 0.08, 192.0, 0.0, 0.0, 0.0, 0.0, 0.0, 0.0, 0.0, 0.0, 0.0, 1.700945114498724E9, 0.0, 2023-11-25 15:45:14.498
43.0, 73868.60386951016, 82253.34671179614, -15142.703371370242, -13361.738724915831, -7412.151385802196, -4636.914090742361, -18511.982978818774, 187500.0, -0.078, 0.98, 0.08, 192.0, 0.0, 0.0, 0.0, 0.0, 0.0, 0.0, 0.0, 0.0, 0.0, 1.700945114502627E9, 0.0, 2023-11-25 15:45:14.502
44.0, 73846.11801458812, 82271.92101143849, -15665.130694524134, -13923.080435166412, -8082.368443294578, -4996.486603794886, -18537.32985703109, 187500.0, -0.078, 0.98, 0.08, 192.0, 0.0, 0.0, 0.0, 0.0, 0.0, 0.0, 0.0, 0.0, 0.0, 1.700945114506654E9, 0.0, 2023-11-25 15:45:14.506
45.0, 73828.01310157933, 82289.95886921392, -16179.667851885302, -14573.717364515946, -8973.197218560841, -5664.110858930452, -18583.285043631204, 187500.0, -0.078, 0.98, 0.08, 192.0, 0.0, 0.0, 0.0, 0.0, 0.0, 0.0, 0.0, 0.0, 0.0, 1.700945114510735E9, 0.0, 2023-11-25 15:45:14.510
46.0, 73852.19768907997, 82268.83647070367, -15267.806085086595, -13697.976016757015, -7926.934412352373, -5050.175493976533, -18453.309649623592, 187500.0, -0.078, 0.98, 0.08, 192.0, 0.0, 0.0, 0.0, 0.0, 0.0, 0.0, 0.0, 0.0, 0.0, 1.700945114514707E9, 0.0, 2023-11-25 15:45:14.514
47.0, 73855.59515423718, 82240.98619711235, -15069.188483856737, -13242.894499646962, -7325.873652204711, -4566.126116052404, -18520.007255078228, 187500.0, -0.078, 0.98, 0.08, 192.0, 0.0, 0.0, 0.0, 0.0, 0.0, 0.0, 0.0, 0.0, 0.0, 1.700945114518791E9, 0.0, 2023-11-25 15:45:14.518
48.0, 73840.88770638558, 82251.2679995618, -15582.31748131722, -13826.811471797404, -7955.589348744077, -4923.5528616372185, -18545.823519924106, 187500.0, -0.078, 0.98, 0.08, 192.0, 0.0, 0.0, 0.0, 0.0, 0.0, 0.0, 0.0, 0.0, 0.0, 1.700945114523744E9, 0.0, 2023-11-25 15:45:14.523
49.0, 73830.13651730258, 82289.53418606927, -16178.684375129269, -14515.155794043041, -8904.107976449488, -5576.424965432282, -18588.358889622556, 187500.0, -0.078, 0.98, 0.08, 192.0, 0.0, 0.0, 0.0, 0.0, 0.0, 0.0, 0.0, 0.0, 0.0, 1.700945114526768E9, 0.0, 2023-11-25 15:45:14.526
50.0, 73854.38816003659, 82280.9734679429, -15472.63747127503, -13973.461267168674, -8229.644087510596, -5272.910627473668, -18456.32713512506, 187500.0, -0.064, 0.98, 0.082, 192.0, 254.0, 0.0, 30.0, 160.0, 2.0, 144.0, 0.0, 0.0, 0.0, 1.700945114529719E9, 0.0, 2023-11-25 15:45:14.529
51.0, 73873.09657014567, 82251.02213037279, -14988.699852073176, -13184.377632662969, -7270.173105022086, -4548.4235344438, -18494.973301288283, 187500.0, -0.064, 0.98, 0.082, 192.0, 0.0, 0.0, 0.0, 0.0, 0.0, 0.0, 0.0, 0.0, 0.0, 1.700945114534747E9, 0.0, 2023-11-25 15:45:14.534
52.0, 73855.4833955149, 82250.97742688387, -15482.069907435169, -13747.328668514332, -7821.590640734511, -4874.781355235738, -18538.067464598116, 187500.0, -0.064, 0.98, 0.082, 192.0, 0.0, 0.0, 0.0, 0.0, 0.0, 0.0, 0.0, 0.0, 0.0, 1.700945114538781E9, 0.0, 2023-11-25 15:45:14.538
53.0, 73830.76236614733, 82288.01426744631, -16114.534868542538, -14393.159972805975, -8753.88190196537, -5450.1376092597975, -18596.025537970727, 187500.0, -0.064, 0.98, 0.082, 192.0, 0.0, 0.0, 0.0, 0.0, 0.0, 0.0, 0.0, 0.0, 0.0, 1.700945114543253E9, 0.0, 2023-11-25 15:45:14.543
54.0, 73849.56018323424, 82287.23195639039, -15693.025671604357, -14208.691025816326, -8509.39852111322, -5467.370804234839, -18489.117144240994, 187500.0, -0.064, 0.98, 0.082, 192.0, 0.0, 0.0, 0.0, 0.0, 0.0, 0.0, 0.0, 0.0, 0.0, 1.700945114546805E9, 0.0, 2023-11-25 15:45:14.546
55.0, 73863.70883747445, 82253.52552575177, -14950.903052199252, -13152.347582858514, -7264.987500308454, -4556.067831047515, -18484.244463949737, 187500.0, -0.064, 0.98, 0.082, 192.0, 0.0, 0.0, 0.0, 0.0, 0.0, 0.0, 0.0, 0.0, 0.0, 1.700945114550813E9, 0.0, 2023-11-25 15:45:14.550
56.0, 73844.59809596516, 82244.71893843639, -15405.179906508913, -13646.589356254264, -7704.355741066425, -4812.978781816814, -18539.699141943354, 187500.0, -0.064, 0.98, 0.082, 192.0, 0.0, 0.0, 0.0, 0.0, 0.0, 0.0, 0.0, 0.0, 0.0, 1.700945114554874E9, 0.0, 2023-11-25 15:45:14.554
57.0, 73835.2327150384, 82295.88208149458, -16013.84025977138, -14261.195273541842, -8570.731707898583, -5308.472252902062, -18576.087781916594, 187500.0, -0.064, 0.98, 0.082, 192.0, 0.0, 0.0, 0.0, 0.0, 0.0, 0.0, 0.0, 0.0, 0.0, 1.700945114557925E9, 0.0, 2023-11-25 15:45:14.557
58.0, 73851.79535767977, 82308.19789268947, -15888.648139077204, -14402.882981644034, -8737.20750060171, -5603.492927967659, -18509.300769484136, 187500.0, -0.064, 0.98, 0.082, 192.0, 0.0, 0.0, 0.0, 0.0, 0.0, 0.0, 0.0, 0.0, 0.0, 1.700945114562815E9, 0.0, 2023-11-25 15:45:14.562
59.0, 73880.09266616018, 82278.0677411637, -14944.599860262855, -13213.166679521404, -7336.848358732267, -4620.574965545531, -18448.3028588656, 187500.0, -0.064, 0.98, 0.082, 192.0, 0.0, 0.0, 0.0, 0.0, 0.0, 0.0, 0.0, 0.0, 0.0, 1.700945114566831E9, 0.0, 2023-11-25 15:45:14.566
60.0, 73860.64664848408, 82252.87732516257, -15305.826402405073, -13569.721707072462, -7599.414300848759, -4766.934188238882, -18519.917848100406, 187500.0, -0.062, 0.98, 0.088, 192.0, 254.0, 16.0, 30.0, 160.0, 2.0, 192.0, 0.0, 0.0, 0.0, 1.700945114571834E9, 0.0, 2023-11-25 15:45:14.571
61.0, 73845.51451748783, 82288.28248837979, -15878.053412205389, -14121.36276022944, -8378.730223027495, -5172.752460569437, -18551.05382812665, 187500.0, -0.062, 0.98, 0.088, 192.0, 0.0, 0.0, 0.0, 0.0, 0.0, 0.0, 0.0, 0.0, 0.0, 1.700945114575946E9, 0.0, 2023-11-25 15:45:14.575
62.0, 73857.27153507133, 82312.93646251399, -16038.918917050234, -14526.890459882077, -8901.626932814948, -5678.8853620154105, -18526.4222057369, 187500.0, -0.062, 0.98, 0.088, 192.0, 0.0, 0.0, 0.0, 0.0, 0.0, 0.0, 0.0, 0.0, 0.0, 1.700945114578906E9, 0.0, 2023-11-25 15:45:14.578
63.0, 73883.93716620651, 82282.64984877704, -15003.474355158134, -13319.426872661934, -7489.264904173006, -4718.430902770866, -18431.494347035212, 187500.0, -0.062, 0.98, 0.088, 192.0, 0.0, 0.0, 0.0, 0.0, 0.0, 0.0, 0.0, 0.0, 0.0, 1.700945114583025E9, 0.0, 2023-11-25 15:45:14.583
64.0, 73865.07229388623, 82250.4633367614, -15227.975276467238, -13451.145702737058, -7505.067587502907, -4688.16664077838, -18523.203554535336, 187500.0, -0.062, 0.98, 0.088, 192.0, 0.0, 0.0, 0.0, 0.0, 0.0, 0.0, 0.0, 0.0, 0.0, 1.700945114585935E9, 0.0, 2023-11-25 15:45:14.585
65.0, 73842.47468024191, 82278.62653477509, -15766.495855628951, -14001.1550785488, -8216.009523392859, -5060.747869103893, -18540.90613614394, 187500.0, -0.062, 0.98, 0.088, 192.0, 0.0, 0.0, 0.0, 0.0, 0.0, 0.0, 0.0, 0.0, 0.0, 1.700945114589935E9, 0.0, 2023-11-25 15:45:14.589
66.0, 73839.90422962955, 82311.84122703568, -16153.695124828235, -14574.723193016434, -8983.076689610087, -5688.720129575745, -18558.184034607893, 187500.0, -0.062, 0.98, 0.088, 192.0, 0.0, 0.0, 0.0, 0.0, 0.0, 0.0, 0.0, 0.0, 0.0, 1.700945114595464E9, 0.0, 2023-11-25 15:45:14.595
67.0, 73870.32495383322, 82291.3223256257, -15131.23692646467, -13520.77138671534, -7720.605459285433, -4899.6588468144955, -18429.326227823047, 187500.0, -0.062, 0.98, 0.088, 192.0, 0.0, 0.0, 0.0, 0.0, 0.0, 0.0, 0.0, 0.0, 0.0, 1.700945114598939E9, 0.0, 2023-11-25 15:45:14.598
68.0, 73854.58932573668, 82250.08335710566, -15135.28259221108, -13343.656163651487, -7405.423510721149, -4630.454436594777, -18517.414452721412, 187500.0, -0.062, 0.98, 0.088, 192.0, 0.0, 0.0, 0.0, 0.0, 0.0, 0.0, 0.0, 0.0, 0.0, 1.700945114602976E9, 0.0, 2023-11-25 15:45:14.602
69.0, 73825.97909283389, 82258.2640955763, -15660.168607255055, -13898.001777887557, -8065.1576000639925, -4979.767498942316, -18544.370656534513, 187500.0, -0.062, 0.98, 0.088, 192.0, 0.0, 0.0, 0.0, 0.0, 0.0, 0.0, 0.0, 0.0, 0.0, 1.700945114606991E9, 0.0, 2023-11-25 15:45:14.606
70.0, 73816.43489795148, 82293.71396228242, -16192.520104947103, -14557.31118408575, -8970.962044115311, -5642.295556342073, -18579.038212184692, 187500.0, -0.056, 0.978, 0.084, 192.0, 254.0, 64.0, 30.0, 144.0, 2.0, 160.0, 0.0, 0.0, 0.0, 1.700945114610035E9, 0.0, 2023-11-25 15:45:14.610
71.0, 73834.56216270474, 82269.75289222633, -15310.833193163062, -13748.468607481553, -7995.934247485906, -5092.599104952706, -18449.37574259946, 187500.0, -0.056, 0.978, 0.084, 192.0, 0.0, 0.0, 0.0, 0.0, 0.0, 0.0, 0.0, 0.0, 0.0, 1.700945114616016E9, 0.0, 2023-11-25 15:45:14.616
72.0, 73847.70498844446, 82244.160144825, -15054.928070894252, -13231.338647763569, -7323.772588225912, -4568.584807942487, -18518.57674343309, 187500.0, -0.056, 0.978, 0.084, 192.0, 0.0, 0.0, 0.0, 0.0, 0.0, 0.0, 0.0, 0.0, 0.0, 1.700945114619001E9, 0.0, 2023-11-25 15:45:14.619
73.0, 73847.72734018891, 82266.19896485793, -15554.46720772591, -13811.835803012349, -7929.99660134275, -4923.284640703755, -18536.636952952977, 187500.0, -0.056, 0.978, 0.084, 192.0, 0.0, 0.0, 0.0, 0.0, 0.0, 0.0, 0.0, 0.0, 0.0, 1.70094511462213E9, 0.0, 2023-11-25 15:45:14.622
74.0, 73836.55146796125, 82308.28729966728, -16168.134351746363, -14493.362843199116, -8881.912694205368, -5565.785535071556, -18583.15093316447, 187500.0, -0.056, 0.978, 0.084, 192.0, 0.0, 0.0, 0.0, 0.0, 0.0, 0.0, 0.0, 0.0, 0.0, 1.700945114627036E9, 0.0, 2023-11-25 15:45:14.627
75.0, 73848.24143031138, 82291.03175294779, -15519.464375908898, -14015.594305466928, -8288.786803339339, -5326.443055444129, -18460.618670060478, 187500.0, -0.056, 0.978, 0.084, 192.0, 0.0, 0.0, 0.0, 0.0, 0.0, 0.0, 0.0, 0.0, 0.0, 1.700945114631045E9, 0.0, 2023-11-25 15:45:14.631
76.0, 73855.55045074827, 82258.35350255412, -14978.10512520136, -13150.26887062417, -7255.331546703762, -4543.4167436858115, -18491.397022175435, 187500.0, -0.056, 0.978, 0.084, 192.0, 0.0, 0.0, 0.0, 0.0, 0.0, 0.0, 0.0, 0.0, 0.0, 1.700945114635047E9, 0.0, 2023-11-25 15:45:14.635
77.0, 73835.83621213869, 82255.76070019731, -15467.943604939415, -13700.702929580562, -7788.197134518282, -4855.335337559622, -18537.28515354218, 187500.0, -0.056, 0.978, 0.084, 192.0, 0.0, 0.0, 0.0, 0.0, 0.0, 0.0, 0.0, 0.0, 0.0, 1.700945114638111E9, 0.0, 2023-11-25 15:45:14.638
78.0, 73814.93733107297, 82287.16490115701, -16102.219057347664, -14339.873414024523, -8708.999599099112, -5408.384550617284, -18594.192694925394, 187500.0, -0.056, 0.978, 0.084, 192.0, 0.0, 0.0, 0.0, 0.0, 0.0, 0.0, 0.0, 0.0, 0.0, 1.700945114642218E9, 0.0, 2023-11-25 15:45:14.642
79.0, 73839.01015985134, 82292.99870645985, -15743.093579184244, -14228.226450470263, -8551.352745455832, -5481.921789875244, -18496.582626889067, 187500.0, -0.058, 0.986, 0.08600000000000001, 192.0, 254.0, 48.0, 30.0, 208.0, 2.0, 176.0, 0.0, 0.0, 0.0, 1.700945114646215E9, 0.0, 2023-11-25 15:45:14.646
80.0, 73863.3288578187, 82267.31655208071, -14937.737874715076, -13127.961829657774, -7252.604633880214, -4533.760790081119, -18464.820798018074, 187500.0, -0.058, 0.986, 0.08600000000000001, 192.0, 0.0, 0.0, 0.0, 0.0, 0.0, 0.0, 0.0, 0.0, 0.0, 1.700945114650174E9, 0.0, 2023-11-25 15:45:14.650
81.0, 73835.81386039422, 82250.10570885011, -15385.420964410421, -13613.709940160506, -7672.035118584052, -4783.809755302639, -18529.5738017051, 187500.0, -0.058, 0.986, 0.08600000000000001, 192.0, 0.0, 0.0, 0.0, 0.0, 0.0, 0.0, 0.0, 0.0, 0.0, 1.700945114655195E9, 0.0, 2023-11-25 15:45:14.655
82.0, 73810.69049962646, 82279.0735696642, -16000.988006709578, -14222.705569589803, -8534.96891677009, -5271.971854206545, -18578.412363339947, 187500.0, -0.058, 0.986, 0.08600000000000001, 192.0, 0.0, 0.0, 0.0, 0.0, 0.0, 0.0, 0.0, 0.0, 0.0, 1.700945114659195E9, 0.0, 2023-11-25 15:45:14.659
83.0, 73820.63702590908, 82294.16099717152, -15947.701447928126, -14425.726464477357, -8788.571809360004, -5619.474425253204, -18526.355150503536, 187500.0, -0.058, 0.986, 0.08600000000000001, 192.0, 0.0, 0.0, 0.0, 0.0, 0.0, 0.0, 0.0, 0.0, 0.0, 1.700945114663146E9, 0.0, 2023-11-25 15:45:14.663
84.0, 73845.42511051001, 82260.67808397747, -14978.507456601556, -13213.926638832885, -7371.024176004431, -4628.286317382613, -18467.435952119347, 187500.0, -0.058, 0.986, 0.08600000000000001, 192.0, 0.0, 0.0, 0.0, 0.0, 0.0, 0.0, 0.0, 0.0, 0.0, 1.700945114666162E9, 0.0, 2023-11-25 15:45:14.666
85.0, 73844.48633724288, 82246.35061578163, -15320.377388045477, -13539.144520657603, -7593.804012990477, -4747.443467073854, -18545.28707805718, 187500.0, -0.058, 0.986, 0.08600000000000001, 192.0, 0.0, 0.0, 0.0, 0.0, 0.0, 0.0, 0.0, 0.0, 0.0, 1.700945114670179E9, 0.0, 2023-11-25 15:45:14.670
86.0, 73823.676863155, 82273.84326146165, -15885.876522764745, -14088.282178435586, -8354.277414593389, -5143.4940270774405, -18575.35017434957, 187500.0, -0.058, 0.986, 0.08600000000000001, 192.0, 0.0, 0.0, 0.0, 0.0, 0.0, 0.0, 0.0, 0.0, 0.0, 1.700945114674225E9, 0.0, 2023-11-25 15:45:14.674
87.0, 73821.19581952046, 82298.56429082922, -16100.676786980248, -14537.30637279825, -8933.545223897127, -5682.662806828357, -18562.609680010042, 187500.0, -0.058, 0.986, 0.08600000000000001, 192.0, 0.0, 0.0, 0.0, 0.0, 0.0, 0.0, 0.0, 0.0, 0.0, 1.700945114678313E9, 0.0, 2023-11-25 15:45:14.678
88.0, 73847.66028495553, 82272.83743296117, -15051.530605737044, -13354.720277156865, -7534.303669250449, -4752.293795620656, -18449.956887955297, 187500.0, -0.058, 0.986, 0.08600000000000001, 192.0, 0.0, 0.0, 0.0, 0.0, 0.0, 0.0, 0.0, 0.0, 0.0, 1.700945114683254E9, 0.0, 2023-11-25 15:45:14.683
89.0, 73835.61269469414, 82248.13875533805, -15230.948058479795, -13428.99512398185, -7483.453450614626, -4677.236637739735, -18537.486319242278, 187500.0, -0.058, 0.988, 0.084, 192.0, 254.0, 48.0, 30.0, 224.0, 2.0, 160.0, 0.0, 0.0, 0.0, 1.700945114687263E9, 0.0, 2023-11-25 15:45:14.687
90.0, 73811.51751417131, 82270.51285153782, -15764.081867227778, -13970.779057834037, -8178.592703174675, -5037.278537425821, -18564.263709099738, 187500.0, -0.058, 0.988, 0.084, 192.0, 0.0, 0.0, 0.0, 0.0, 0.0, 0.0, 0.0, 0.0, 0.0, 1.700945114691231E9, 0.0, 2023-11-25 15:45:14.691
91.0, 73816.94898807394, 82306.74502929987, -16189.033232812077, -14578.008899451364, -8985.11069835552, -5686.820231297044, -18587.978909966816, 187500.0, -0.058, 0.988, 0.084, 192.0, 0.0, 0.0, 0.0, 0.0, 0.0, 0.0, 0.0, 0.0, 0.0, 1.70094511469422E9, 0.0, 2023-11-25 15:45:14.694
92.0, 73858.07619787172, 82289.8694622361, -15180.924854388817, -13566.659518082086, -7769.86870406493, -4941.523664179285, -18452.03560018964, 187500.0, -0.058, 0.988, 0.084, 192.0, 0.0, 0.0, 0.0, 0.0, 0.0, 0.0, 0.0, 0.0, 0.0, 1.700945114698299E9, 0.0, 2023-11-25 15:45:14.698
93.0, 73856.89155541558, 82256.90063916452, -15131.61690612041, -13321.170308729448, -7383.250580221485, -4621.044352179093, -18529.394987749456, 187500.0, -0.058, 0.988, 0.084, 192.0, 0.0, 0.0, 0.0, 0.0, 0.0, 0.0, 0.0, 0.0, 0.0, 1.700945114702224E9, 0.0, 2023-11-25 15:45:14.702
94.0, 73816.50195318484, 82252.13971759555, -15655.295926963798, -13869.972690340603, -8026.377323434034, -4961.349661511143, -18561.022706153715, 187500.0, -0.058, 0.988, 0.084, 192.0, 0.0, 0.0, 0.0, 0.0, 0.0, 0.0, 0.0, 0.0, 0.0, 1.700945114706277E9, 0.0, 2023-11-25 15:45:14.706
95.0, 73816.83722935167, 82295.56915707221, -16215.609456969436, -14553.511387528348, -8958.15449454242, -5637.869910939921, -18604.25097993028, 187500.0, -0.058, 0.988, 0.084, 192.0, 0.0, 0.0, 0.0, 0.0, 0.0, 0.0, 0.0, 0.0, 0.0, 1.700945114712168E9, 0.0, 2023-11-25 15:45:14.712
96.0, 73857.71856996043, 82286.85197673464, -15360.364658876022, -13805.39850060922, -8044.482236442833, -5145.013945700401, -18459.948117726817, 187500.0, -0.058, 0.988, 0.084, 192.0, 0.0, 0.0, 0.0, 0.0, 0.0, 0.0, 0.0, 0.0, 0.0, 1.700945114715296E9, 0.0, 2023-11-25 15:45:14.715
97.0, 73870.01202941085, 82264.50023227933, -15032.5986781834, -13189.295016443137, -7279.069099315298, -4539.438133172766, -18511.871220096495, 187500.0, -0.058, 0.988, 0.084, 192.0, 0.0, 0.0, 0.0, 0.0, 0.0, 0.0, 0.0, 0.0, 0.0, 1.700945114718326E9, 0.0, 2023-11-25 15:45:14.718
98.0, 73841.75942441935, 82269.48467129287, -15545.50415819933, -13767.177017590646, -7883.03558624215, -4882.827983239649, -18547.097569358062, 187500.0, -0.058, 0.988, 0.084, 192.0, 0.0, 0.0, 0.0, 0.0, 0.0, 0.0, 0.0, 0.0, 0.0, 1.700945114722412E9, 0.0, 2023-11-25 15:45:14.722
99.0, 73812.3221769717, 82295.09977043865, -16170.39187793635, -14435.38241808205, -8833.051780826067, -5502.66420872977, -18600.80881128416, 187500.0, -0.06, 0.982, 0.092, 192.0, 254.0, 32.0, 30.0, 176.0, 2.0, 224.0, 0.0, 0.0, 0.0, 1.700945114726516E9, 0.0, 2023-11-25 15:45:14.726
100.0, 73837.93727611749, 82293.33398262667, -15579.098830115658, -14053.927547207779, -8342.69921096554, -5342.156331796209, -18481.584606359556, 187500.0, -0.06, 0.982, 0.092, 192.0, 0.0, 0.0, 0.0, 0.0, 0.0, 0.0, 0.0, 0.0, 0.0, 1.700945114730514E9, 0.0, 2023-11-25 15:45:14.730
101.0, 73849.91781114553, 82263.04736888973, -14979.267415913037, -13143.540995543122, -7254.683346114558, -4526.921156277795, -18506.216228749305, 187500.0, -0.06, 0.982, 0.092, 192.0, 0.0, 0.0, 0.0, 0.0, 0.0, 0.0, 0.0, 0.0, 0.0, 1.700945114734337E9, 0.0, 2023-11-25 15:45:14.734
102.0, 73822.24635150985, 82251.98325538436, -15468.524750295253, -13690.309368408844, -7775.590750645489, -4833.76590416025, -18555.546528762166, 187500.0, -0.06, 0.982, 0.092, 192.0, 0.0, 0.0, 0.0, 0.0, 0.0, 0.0, 0.0, 0.0, 0.0, 1.700945114738386E9, 0.0, 2023-11-25 15:45:14.738
103.0, 73800.9227872995, 82276.63722951857, -16103.13547887033, -14323.489585338782, -8689.218305256165, -5381.562457270916, -18607.24611368729, 187500.0, -0.06, 0.982, 0.092, 192.0, 0.0, 0.0, 0.0, 0.0, 0.0, 0.0, 0.0, 0.0, 0.0, 1.700945114743446E9, 0.0, 2023-11-25 15:45:14.743
104.0, 73823.36393873263, 82284.01330518881, -15808.964170094034, -14286.095116865054, -8622.297182356975, -5527.608755541892, -18514.03933930866, 187500.0, -0.06, 0.982, 0.092, 192.0, 0.0, 0.0, 0.0, 0.0, 0.0, 0.0, 0.0, 0.0, 0.0, 1.700945114746385E9, 0.0, 2023-11-25 15:45:14.746
105.0, 73853.53879374728, 82258.75583395432, -14962.794180249475, -13144.233899621237, -7284.232352284474, -4555.5090374361325, -18480.578777859067, 187500.0, -0.06, 0.982, 0.092, 192.0, 0.0, 0.0, 0.0, 0.0, 0.0, 0.0, 0.0, 0.0, 0.0, 1.700945114750421E9, 0.0, 2023-11-25 15:45:14.750
106.0, 73838.36195926214, 82246.79765067073, -15397.043871527181, -13614.492251216443, -7679.299435532026, -4795.387958930488, -18553.24429908327, 187500.0, -0.06, 0.982, 0.092, 192.0, 0.0, 0.0, 0.0, 0.0, 0.0, 0.0, 0.0, 0.0, 0.0, 1.700945114754429E9, 0.0, 2023-11-25 15:45:14.754
107.0, 73814.87027583961, 82279.69941850894, -15997.12115491881, -14204.690063558826, -8513.600649070817, -5258.158476133165, -18591.286968146203, 187500.0, -0.06, 0.982, 0.092, 192.0, 0.0, 0.0, 0.0, 0.0, 0.0, 0.0, 0.0, 0.0, 0.0, 1.700945114758489E9, 0.0, 2023-11-25 15:45:14.758
108.0, 73817.10545028513, 82289.04244769126, -15995.176553151197, -14460.95281373892, -8829.900184857868, -5650.677460512813, -18548.036342625182, 187500.0, -0.06, 0.982, 0.092, 192.0, 0.0, 0.0, 0.0, 0.0, 0.0, 0.0, 0.0, 0.0, 0.0, 1.700945114762409E9, 0.0, 2023-11-25 15:45:14.762
109.0, 73845.179241321, 82260.18634559946, -14992.67846258622, -13235.831348399086, -7394.828783849333, -4655.0637072400705, -18472.778019044163, 187500.0, -0.062, 0.98, 0.092, 192.0, 254.0, 16.0, 30.0, 160.0, 2.0, 224.0, 0.0, 0.0, 0.0, 1.700945114766405E9, 0.0, 2023-11-25 15:45:14.766
110.0, 73830.78471789179, 82238.2592842888, -15310.140289084948, -13512.635351733608, -7566.937216155197, -4731.014934899204, -18554.495996772766, 187500.0, -0.062, 0.98, 0.092, 192.0, 0.0, 0.0, 0.0, 0.0, 0.0, 0.0, 0.0, 0.0, 0.0, 1.70094511477142E9, 0.0, 2023-11-25 15:45:14.771
111.0, 73817.06074679623, 82272.39039807206, -15873.67247029215, -14076.145181196354, -8324.571946212285, -5133.212224627999, -18578.948805206874, 187500.0, -0.062, 0.98, 0.092, 192.0, 0.0, 0.0, 0.0, 0.0, 0.0, 0.0, 0.0, 0.0, 0.0, 1.700945114774503E9, 0.0, 2023-11-25 15:45:14.774
112.0, 73820.45821195343, 82294.429218105, -16125.308409369996, -14555.366582318138, -8947.760933370702, -5697.482013402226, -18561.76031372074, 187500.0, -0.062, 0.98, 0.092, 192.0, 0.0, 0.0, 0.0, 0.0, 0.0, 0.0, 0.0, 0.0, 0.0, 1.700945114777662E9, 0.0, 2023-11-25 15:45:14.777
113.0, 73856.04218912628, 82269.75289222633, -15075.335213581946, -13384.045765882227, -7568.725355711622, -4783.765051813728, -18449.7557222552, 187500.0, -0.062, 0.98, 0.092, 192.0, 0.0, 0.0, 0.0, 0.0, 0.0, 0.0, 0.0, 0.0, 0.0, 1.700945114782552E9, 0.0, 2023-11-25 15:45:14.782
114.0, 73852.26474431333, 82249.07752860518, -15216.754700750675, -13411.091376673148, -7463.403935838215, -4669.815858580573, -18535.04997909665, 187500.0, -0.062, 0.98, 0.092, 192.0, 0.0, 0.0, 0.0, 0.0, 0.0, 0.0, 0.0, 0.0, 0.0, 1.700945114786538E9, 0.0, 2023-11-25 15:45:14.786
115.0, 73828.70600565744, 82270.31168583772, -15749.910861243114, -13961.614842607361, -8152.977604028893, -5032.987002490402, -18562.408514309947, 187500.0, -0.062, 0.98, 0.092, 192.0, 0.0, 0.0, 0.0, 0.0, 0.0, 0.0, 0.0, 0.0, 0.0, 1.700945114790633E9, 0.0, 2023-11-25 15:45:14.790
116.0, 73830.74001440288, 82314.61284334814, -16205.148840564352, -14582.92628323153, -8987.859962923523, -5689.144812720396, -18587.4871715888, 187500.0, -0.062, 0.98, 0.092, 192.0, 0.0, 0.0, 0.0, 0.0, 0.0, 0.0, 0.0, 0.0, 0.0, 1.700945114794533E9, 0.0, 2023-11-25 15:45:14.794
117.0, 73865.92166017553, 82304.12987519859, -15217.626418784432, -13602.578771421764, -7814.147509830894, -4976.9064756520365, -18450.582736800043, 187500.0, -0.062, 0.98, 0.092, 192.0, 0.0, 0.0, 0.0, 0.0, 0.0, 0.0, 0.0, 0.0, 0.0, 1.700945114799761E9, 0.0, 2023-11-25 15:45:14.799
118.0, 73859.17143335003, 82269.08233989267, -15116.194202446248, -13273.158761639448, -7347.018402459432, -4588.9695988857275, -18530.847851139053, 187500.0, -0.062, 0.98, 0.092, 192.0, 0.0, 0.0, 0.0, 0.0, 0.0, 0.0, 0.0, 0.0, 0.0, 1.700945114802594E9, 0.0, 2023-11-25 15:45:14.802
119.0, 73825.59911317815, 82265.46135729091, -15637.28042093282, -13820.664742072195, -7978.72340425532, -4920.825948813671, -18566.09655214507, 187500.0, -0.056, 0.98, 0.092, 192.0, 254.0, 64.0, 30.0, 160.0, 2.0, 224.0, 0.0, 0.0, 0.0, 1.700945114805583E9, 0.0, 2023-11-25 15:45:14.805
120.0, 73829.84594462466, 82313.2717386808, -16224.460747773737, -14522.241297035373, -8932.29352620763, -5601.369512244405, -18614.465727146355, 187500.0, -0.056, 0.98, 0.092, 192.0, 0.0, 0.0, 0.0, 0.0, 0.0, 0.0, 0.0, 0.0, 0.0, 1.700945114811758E9, 0.0, 2023-11-25 15:45:14.811
121.0, 73869.40853231055, 82310.65658457954, -15413.561810679652, -13859.668536146706, -8101.970923181882, -5185.314140953319, -18468.7100015533, 187500.0, -0.056, 0.98, 0.092, 192.0, 0.0, 0.0, 0.0, 0.0, 0.0, 0.0, 0.0, 0.0, 0.0, 1.700945114814603E9, 0.0, 2023-11-25 15:45:14.814
122.0, 73866.56986076474, 82272.41274981652, -15035.035018329028, -13187.283359442159, -7273.145887034641, -4540.622775628898, -18525.79635689215, 187500.0, -0.056, 0.98, 0.092, 192.0, 0.0, 0.0, 0.0, 0.0, 0.0, 0.0, 0.0, 0.0, 0.0, 1.70094511481865E9, 0.0, 2023-11-25 15:45:14.818
123.0, 73841.04416859677, 82276.74898824084, -15549.460416967919, -13771.96029090408, -7867.41171686789, -4887.007759452791, -18563.034363154693, 187500.0, -0.056, 0.98, 0.092, 192.0, 0.0, 0.0, 0.0, 0.0, 0.0, 0.0, 0.0, 0.0, 0.0, 1.70094511482262E9, 0.0, 2023-11-25 15:45:14.822
124.0, 73823.94508408845, 82316.53509337129, -16179.153761762831, -14453.263813646296, -8819.350161474964, -5510.174394866753, -18609.995378255295, 187500.0, -0.056, 0.98, 0.092, 192.0, 0.0, 0.0, 0.0, 0.0, 0.0, 0.0, 0.0, 0.0, 0.0, 1.700945114826771E9, 0.0, 2023-11-25 15:45:14.826
125.0, 73844.26281979833, 82304.66631706552, -15634.62056334264, -14112.489117680683, -8396.14223195818, -5393.006550432033, -18495.55444664412, 187500.0, -0.056, 0.98, 0.092, 192.0, 0.0, 0.0, 0.0, 0.0, 0.0, 0.0, 0.0, 0.0, 0.0, 1.700945114830678E9, 0.0, 2023-11-25 15:45:14.830
126.0, 73864.22292759693, 82271.27281084929, -14979.692099057687, -13143.540995543122, -7252.492875157938, -4539.728705850685, -18502.617597892, 187500.0, -0.056, 0.98, 0.092, 192.0, 0.0, 0.0, 0.0, 0.0, 0.0, 0.0, 0.0, 0.0, 0.0, 1.70094511483374E9, 0.0, 2023-11-25 15:45:14.833
127.0, 73841.82647965271, 82259.7169589659, -15458.689982734917, -13676.51834207992, -7748.321622410014, -4833.698848926884, -18556.731171218296, 187500.0, -0.056, 0.98, 0.092, 192.0, 0.0, 0.0, 0.0, 0.0, 0.0, 0.0, 0.0, 0.0, 0.0, 1.700945114838865E9, 0.0, 2023-11-25 15:45:14.838
128.0, 73826.44847946745, 82299.88304375208, -16094.61946423286, -14323.154309171952, -8658.931691519225, -5380.243704348052, -18608.475459632333, 187500.0, -0.056, 0.98, 0.092, 192.0, 0.0, 0.0, 0.0, 0.0, 0.0, 0.0, 0.0, 0.0, 0.0, 1.700945114842943E9, 0.0, 2023-11-25 15:45:14.842
129.0, 73837.28907552827, 82300.30772689673, -15848.414999057652, -14336.40889363395, -8660.026926997534, -5568.57950312847, -18522.75651964623, 187500.0, -0.056, 0.982, 0.088, 192.0, 254.0, 64.0, 30.0, 176.0, 2.0, 192.0, 0.0, 0.0, 0.0, 1.700945114846735E9, 0.0, 2023-11-25 15:45:14.846
130.0, 73861.76423570684, 82267.94240092546, -14967.555101818456, -13174.855789525009, -7300.7279396924905, -4593.261133821146, -18486.70315583982, 187500.0, -0.056, 0.982, 0.088, 192.0, 0.0, 0.0, 0.0, 0.0, 0.0, 0.0, 0.0, 0.0, 0.0, 1.700945114850723E9, 0.0, 2023-11-25 15:45:14.850
131.0, 73839.7254156739, 82247.22233381539, -15379.52010387422, -13599.82950685376, -7648.074048527962, -4797.623133376019, -18561.179168364903, 187500.0, -0.056, 0.982, 0.088, 192.0, 0.0, 0.0, 0.0, 0.0, 0.0, 0.0, 0.0, 0.0, 0.0, 1.700945114854784E9, 0.0, 2023-11-25 15:45:14.854
132.0, 73830.11416555813, 82290.83058724769, -15972.310718573419, -14173.487028299216, -8460.291738544911, -5239.651231724171, -18600.093555461593, 187500.0, -0.056, 0.982, 0.088, 192.0, 0.0, 0.0, 0.0, 0.0, 0.0, 0.0, 0.0, 0.0, 0.0, 1.700945114858935E9, 0.0, 2023-11-25 15:45:14.858
133.0, 73839.77011916281, 82311.7294683134, -16023.160937209243, -14485.24915996184, -8847.17808332182, -5673.230370668218, -18563.4813980438, 187500.0, -0.056, 0.982, 0.088, 192.0, 0.0, 0.0, 0.0, 0.0, 0.0, 0.0, 0.0, 0.0, 0.0, 1.700945114861807E9, 0.0, 2023-11-25 15:45:14.861
134.0, 73864.5805555082, 82279.3194388532, -15004.077852258428, -13253.198653840858, -7408.843327622811, -4676.87900982845, -18487.99955701823, 187500.0, -0.056, 0.982, 0.088, 192.0, 0.0, 0.0, 0.0, 0.0, 0.0, 0.0, 0.0, 0.0, 0.0, 1.700945114865783E9, 0.0, 2023-11-25 15:45:14.865
135.0, 73847.79439542227, 82254.97838914137, -15300.193762802335, -13490.842400889684, -7539.422218730715, -4728.600946498031, -18577.138313905994, 187500.0, -0.056, 0.982, 0.088, 192.0, 0.0, 0.0, 0.0, 0.0, 0.0, 0.0, 0.0, 0.0, 0.0, 1.700945114870819E9, 0.0, 2023-11-25 15:45:14.870
136.0, 73813.35035721664, 82270.13287188207, -15866.005821943978, -14048.898404705335, -8288.362120194688, -5123.332753578753, -18607.179058453927, 187500.0, -0.056, 0.982, 0.088, 192.0, 0.0, 0.0, 0.0, 0.0, 0.0, 0.0, 0.0, 0.0, 0.0, 1.700945114874838E9, 0.0, 2023-11-25 15:45:14.874
137.0, 73808.3212147142, 82287.90250872404, -16172.090610514953, -14575.483152327914, -8973.353680772028, -5723.208871270284, -18605.949712508886, 187500.0, -0.056, 0.982, 0.088, 192.0, 0.0, 0.0, 0.0, 0.0, 0.0, 0.0, 0.0, 0.0, 0.0, 1.700945114878892E9, 0.0, 2023-11-25 15:45:14.878
138.0, 73845.42511051001, 82266.44483404694, -15116.84240303545, -13429.84449027115, -7621.028437737041, -4837.364535017555, -18477.583644102055, 187500.0, -0.056, 0.982, 0.088, 192.0, 0.0, 0.0, 0.0, 0.0, 0.0, 0.0, 0.0, 0.0, 0.0, 1.700945114882983E9, 0.0, 2023-11-25 15:45:14.882
139.0, 73835.70210167195, 82244.33895878065, -15214.25130537168, -13394.640492754042, -7449.545854275925, -4677.236637739735, -18559.10045613056, 187500.0, -0.05, 0.982, 0.094, 192.0, 254.0, 112.0, 30.0, 176.0, 2.0, 240.0, 0.0, 0.0, 0.0, 1.700945114885852E9, 0.0, 2023-11-25 15:45:14.885
140.0, 73804.02967977877, 82250.55274373922, -15742.333619872765, -13934.85980449436, -8120.344057124145, -5023.711028541449, -18577.697107517375, 187500.0, -0.05, 0.982, 0.094, 192.0, 0.0, 0.0, 0.0, 0.0, 0.0, 0.0, 0.0, 0.0, 0.0, 1.700945114889916E9, 0.0, 2023-11-25 15:45:14.889
141.0, 73796.98888027536, 82274.96084868442, -16235.793082212578, -14580.132315174618, -8991.078614125086, -5688.4519086422815, -18613.01286375676, 187500.0, -0.05, 0.982, 0.094, 192.0, 0.0, 0.0, 0.0, 0.0, 0.0, 0.0, 0.0, 0.0, 0.0, 1.700945114893869E9, 0.0, 2023-11-25 15:45:14.893
142.0, 73825.97909283389, 82249.25634256081, -15282.535884682642, -13660.13451339418, -7886.254237443714, -5028.51665359934, -18481.629309848468, 187500.0, -0.05, 0.982, 0.094, 192.0, 0.0, 0.0, 0.0, 0.0, 0.0, 0.0, 0.0, 0.0, 0.0, 1.700945114897872E9, 0.0, 2023-11-25 15:45:14.897
143.0, 73835.70210167195, 82228.33510975065, -15121.89389728235, -13264.598043513066, -7347.152512926164, -4585.795651173074, -18551.925546160408, 187500.0, -0.05, 0.982, 0.094, 192.0, 0.0, 0.0, 0.0, 0.0, 0.0, 0.0, 0.0, 0.0, 0.0, 1.700945114902891E9, 0.0, 2023-11-25 15:45:14.902
144.0, 73818.29009274127, 82240.53916222324, -15637.079255232724, -13827.839652042348, -7974.4095175754455, -4927.062085516702, -18581.832180241607, 187500.0, -0.05, 0.982, 0.094, 192.0, 0.0, 0.0, 0.0, 0.0, 0.0, 0.0, 0.0, 0.0, 0.0, 1.700945114907117E9, 0.0, 2023-11-25 15:45:14.907
145.0, 73807.98593854737, 82281.35344759864, -16237.223593857718, -14534.892384397077, -8936.696819865325, -5602.665913422813, -18628.457919175376, 187500.0, -0.05, 0.982, 0.094, 192.0, 0.0, 0.0, 0.0, 0.0, 0.0, 0.0, 0.0, 0.0, 0.0, 1.700945114911082E9, 0.0, 2023-11-25 15:45:14.911
146.0, 73827.83428762369, 82267.74123522536, -15477.174875399456, -13921.001722932067, -8182.012520076338, -5231.649307209171, -18499.980092046273, 187500.0, -0.05, 0.982, 0.094, 192.0, 0.0, 0.0, 0.0, 0.0, 0.0, 0.0, 0.0, 0.0, 0.0, 1.700945114913906E9, 0.0, 2023-11-25 15:45:14.913
147.0, 73836.14913656106, 82236.89582787703, -15040.801768398496, -13198.079252014071, -7291.720186677002, -4549.541121666565, -18539.81090066563, 187500.0, -0.05, 0.982, 0.094, 192.0, 0.0, 0.0, 0.0, 0.0, 0.0, 0.0, 0.0, 0.0, 0.0, 1.700945114917969E9, 0.0, 2023-11-25 15:45:14.917
148.0, 73809.01411879231, 82233.27484527527, -15539.424483707488, -13761.834950665827, -7856.146437662415, -4875.273093613755, -18577.406534839458, 187500.0, -0.05, 0.982, 0.094, 192.0, 0.0, 0.0, 0.0, 0.0, 0.0, 0.0, 0.0, 0.0, 0.0, 1.700945114921968E9, 0.0, 2023-11-25 15:45:14.921
149.0, 73790.88685403905, 82273.08330215017, -16174.035212282564, -14416.718711461868, -8793.399786162352, -5465.426202467228, -18633.06237853317, 187500.0, -0.052000000000000005, 0.974, 0.096, 192.0, 254.0, 96.0, 30.0, 112.0, 3.0, 0.0, 0.0, 0.0, 0.0, 1.700945114926396E9, 0.0, 2023-11-25 15:45:14.926
150.0, 73816.30078748474, 82275.83256671818, -15698.278331551353, -14163.048763638588, -8465.209122325077, -5421.661486823737, -18524.410548735923, 187500.0, -0.052000000000000005, 0.974, 0.096, 192.0, 0.0, 0.0, 0.0, 0.0, 0.0, 0.0, 0.0, 0.0, 0.0, 1.700945114931006E9, 0.0, 2023-11-25 15:45:14.931
151.0, 73846.20742156595, 82252.13971759555, -14986.554084605466, -13149.620670034967, -7264.428706697072, -4540.80158958454, -18511.692406140854, 187500.0, -0.052000000000000005, 0.974, 0.096, 192.0, 0.0, 0.0, 0.0, 0.0, 0.0, 0.0, 0.0, 0.0, 0.0, 1.700945114934996E9, 0.0, 2023-11-25 15:45:14.934
152.0, 73837.08790982819, 82252.49734550684, -15448.318773307656, -13675.780734512895, -7732.049552446551, -4829.76494190275, -18555.300659573157, 187500.0, -0.052000000000000005, 0.974, 0.096, 192.0, 0.0, 0.0, 0.0, 0.0, 0.0, 0.0, 0.0, 0.0, 0.0, 1.700945114939053E9, 0.0, 2023-11-25 15:45:14.939
153.0, 73815.51847642881, 82286.09201742316, -16063.304670250973, -14285.893951164957, -8604.41578679273, -5334.981421826055, -18600.58529383961, 187500.0, -0.052000000000000005, 0.974, 0.096, 192.0, 0.0, 0.0, 0.0, 0.0, 0.0, 0.0, 0.0, 0.0, 0.0, 1.700945114942008E9, 0.0, 2023-11-25 15:45:14.942
154.0, 73815.69729038446, 82276.8160434742, -15889.989243744523, -14356.79368457719, -8690.470002945662, -5573.474535164182, -18541.755502433243, 187500.0, -0.052000000000000005, 0.974, 0.096, 192.0, 0.0, 0.0, 0.0, 0.0, 0.0, 0.0, 0.0, 0.0, 0.0, 1.700945114946091E9, 0.0, 2023-11-25 15:45:14.946
155.0, 73843.92754363151, 82245.38949077005, -14978.462753112646, -13167.680879554855, -7307.724035707001, -4580.028901103604, -18499.488353668257, 187500.0, -0.052000000000000005, 0.974, 0.096, 192.0, 0.0, 0.0, 0.0, 0.0, 0.0, 0.0, 0.0, 0.0, 0.0, 1.70094511495003E9, 0.0, 2023-11-25 15:45:14.950
156.0, 73833.01989233731, 82235.15239180952, -15377.195522450867, -13579.556474632798, -7628.002182007097, -4771.784516785684, -18581.698069774877, 187500.0, -0.052000000000000005, 0.974, 0.096, 192.0, 0.0, 0.0, 0.0, 0.0, 0.0, 0.0, 0.0, 0.0, 0.0, 1.700945114954025E9, 0.0, 2023-11-25 15:45:14.954
157.0, 73806.75659260232, 82265.99779915783, -15972.087201128865, -14165.887435184412, -8436.19655802209, -5219.020571591923, -18626.69213136341, 187500.0, -0.052000000000000005, 0.974, 0.096, 192.0, 0.0, 0.0, 0.0, 0.0, 0.0, 0.0, 0.0, 0.0, 0.0, 1.700945114959032E9, 0.0, 2023-11-25 15:45:14.959
158.0, 73814.06561303922, 82286.0249621898, -16070.948966854688, -14518.329741755695, -8880.61629302696, -5687.311969675061, -18586.794267510686, 187500.0, -0.052000000000000005, 0.974, 0.096, 192.0, 0.0, 0.0, 0.0, 0.0, 0.0, 0.0, 0.0, 0.0, 0.0, 1.700945114963042E9, 0.0, 2023-11-25 15:45:14.963
159.0, 73851.81770942423, 82262.48857527836, -15022.16041352277, -13280.28896812069, -7438.034705881442, -4695.140385048436, -18484.155056971915, 187500.0, -0.046, 0.976, 0.094, 192.0, 254.0, 144.0, 30.0, 128.0, 2.0, 240.0, 0.0, 0.0, 0.0, 1.700945114967034E9, 0.0, 2023-11-25 15:45:14.967
