%OpenBCI Raw EXG Data
%Number of channels = 8
%Sample Rate = 250 Hz
%Board = OpenBCI_GUI$BoardCytonSerial
Sample Index, EXG Channel 0, EXG Channel 1, EXG Channel 2, EXG Channel 3, EXG Channel 4, EXG Channel 5, EXG Channel 6, EXG Channel 7, Accel Channel 0, Accel Channel 1, Accel Channel 2, Other, Other, Other, Other, Other, Other, Other, Analog Channel 0, Analog Channel 1, Analog Channel 2, Timestamp, Other, Timestamp (Formatted)
19.0, 16666.377087399615, 34804.8177128813, -45810.97314488568, -48226.0344297927, -37019.76382967995, -45888.82427082351, -29100.652527886934, -9058.335013191107, 0.0, 0.0, 0.0, 192.0, 0.0, 0.0, 0.0, 0.0, 0.0, 0.0, 0.0, 0.0, 0.0, 1.700947212096056E9, 0.0, 2023-11-25 16:20:12.096
20.0, 16847.605031443243, 34855.04208267237, -45804.51349073809, -48219.23949947828, -36897.90211890962, -45736.69829806069, -29118.064536817616, -9067.32041446214, 0.0, 0.0, 0.0, 192.0, 0.0, 0.0, 0.0, 0.0, 0.0, 0.0, 0.0, 0.0, 0.0, 1.700947212096071E9, 0.0, 2023-11-25 16:20:12.096
21.0, 16941.63882036672, 34770.79835782032, -45777.624342158364, -48255.31521502915, -36643.78513619723, -45823.66893573629, -29142.38323478499, -9094.746004908802, 0.0, 0.0, 0.0, 192.0, 0.0, 0.0, 0.0, 0.0, 0.0, 0.0, 0.0, 0.0, 0.0, 1.700947212096078E9, 0.0, 2023-11-25 16:20:12.096
22.0, 16619.81840369921, 34734.40971784708, -45804.044104104534, -48232.22586300682, -36989.16429152063, -46128.99376499579, -29103.066516288105, -9043.046419983677, 0.0, 0.0, 0.0, 192.0, 0.0, 0.0, 0.0, 0.0, 0.0, 0.0, 0.0, 0.0, 0.0, 1.700947212096086E9, 0.0, 2023-11-25 16:20:12.096
0.0, 0.0, 0.0, 0.0, 0.0, 0.0, 0.0, 0.0, 0.0, -0.09, 0.9440000000000001, 0.28400000000000003, 192.0, 253.0, 48.0, 29.0, 128.0, 8.0, 224.0, 0.0, 0.0, 0.0, 1.70094721216212E9, 0.0, 2023-11-25 16:20:12.162
1.0, 16998.59106523884, 34962.241049080025, -45680.01427412203, -48186.60595257353, -36596.60060365208, -45819.44445603424, -29043.81204173709, -9054.579920122615, -0.09, 0.9440000000000001, 0.28400000000000003, 192.0, 0.0, 0.0, 0.0, 0.0, 0.0, 0.0, 0.0, 0.0, 0.0, 1.700947212177904E9, 0.0, 2023-11-25 16:20:12.177
2.0, 16691.478096422925, 34950.81930766336, -45701.80722496596, -48157.07929814808, -36962.56571561882, -46042.9171970984, -29001.50018948319, -9009.742320745268, -0.09, 0.9440000000000001, 0.28400000000000003, 192.0, 0.0, 0.0, 0.0, 0.0, 0.0, 0.0, 0.0, 0.0, 0.0, 1.700947212181979E9, 0.0, 2023-11-25 16:20:12.181
3.0, 16775.78887650834, 35019.50621837452, -45714.32420186093, -48143.33297530806, -36943.16440143161, -45784.84395561743, -29002.416611005858, -9013.989152191776, -0.09, 0.9440000000000001, 0.28400000000000003, 192.0, 0.0, 0.0, 0.0, 0.0, 0.0, 0.0, 0.0, 0.0, 0.0, 1.700947212184872E9, 0.0, 2023-11-25 16:20:12.184
4.0, 16955.228680995548, 35050.06105304493, -45705.271745356535, -48150.32907132257, -36794.078265914715, -45638.440029435165, -29020.633282736933, -9033.569280334626, -0.09, 0.9440000000000001, 0.28400000000000003, 192.0, 0.0, 0.0, 0.0, 0.0, 0.0, 0.0, 0.0, 0.0, 0.0, 1.700947212187903E9, 0.0, 2023-11-25 16:20:12.187
5.0, 17031.93986796616, 34969.3042003279, -45667.452593738155, -48177.03940594666, -36551.51713508572, -45747.09185923241, -29031.339768331025, -9047.472065385828, -0.09, 0.9440000000000001, 0.28400000000000003, 192.0, 0.0, 0.0, 0.0, 0.0, 0.0, 0.0, 0.0, 0.0, 0.0, 1.700947212191869E9, 0.0, 2023-11-25 16:20:12.191
6.0, 16717.562582202267, 34944.49376398251, -45685.51280325804, -48146.998661398735, -36895.91281365309, -46025.2146154898, -28983.21646251875, -8994.833707193578, -0.09, 0.9440000000000001, 0.28400000000000003, 192.0, 0.0, 0.0, 0.0, 0.0, 0.0, 0.0, 0.0, 0.0, 0.0, 1.700947212195954E9, 0.0, 2023-11-25 16:20:12.195
7.0, 16759.18153037805, 35004.12821818927, -45706.36698083484, -48140.04726887313, -36923.09253491074, -45810.280240807566, -28993.475913223734, -9003.416777064416, -0.09, 0.9440000000000001, 0.28400000000000003, 192.0, 0.0, 0.0, 0.0, 0.0, 0.0, 0.0, 0.0, 0.0, 0.0, 1.700947212199967E9, 0.0, 2023-11-25 16:20:12.199
8.0, 16931.669942339653, 35067.741282909075, -45701.42724531022, -48131.15127457992, -36811.22205391193, -45636.31661371191, -29003.824770906544, -9006.702483499346, -0.094, 0.9460000000000001, 0.28600000000000003, 192.0, 253.0, 16.0, 29.0, 144.0, 8.0, 240.0, 0.0, 0.0, 0.0, 1.700947212204931E9, 0.0, 2023-11-25 16:20:12.204
9.0, 17079.14675225577, 35005.1116949453, -45657.14843954425, -48157.39222257045, -36525.87968419548, -45681.154213089256, -29021.303835070594, -9024.561527319138, -0.094, 0.9460000000000001, 0.28600000000000003, 192.0, 0.0, 0.0, 0.0, 0.0, 0.0, 0.0, 0.0, 0.0, 0.0, 1.700947212207904E9, 0.0, 2023-11-25 16:20:12.207
10.0, 16783.18730392305, 34960.832889179335, -45684.931657902205, -48139.10849560601, -36820.229806927426, -45996.69378956482, -28997.92391037034, -8984.037814621666, -0.094, 0.9460000000000001, 0.28600000000000003, 192.0, 0.0, 0.0, 0.0, 0.0, 0.0, 0.0, 0.0, 0.0, 0.0, 1.700947212211941E9, 0.0, 2023-11-25 16:20:12.211
11.0, 16755.51584428738, 35015.46055262811, -45702.81305346645, -48122.948184364825, -36925.081840167266, -45848.568779059504, -29004.048288351096, -8974.806544161624, -0.094, 0.9460000000000001, 0.28600000000000003, 192.0, 0.0, 0.0, 0.0, 0.0, 0.0, 0.0, 0.0, 0.0, 0.0, 1.700947212216965E9, 0.0, 2023-11-25 16:20:12.216
12.0, 16912.2909798969, 35087.232004074096, -45709.56328029195, -48111.19116678133, -36845.57668513974, -45643.17859925969, -29021.661462981876, -8983.479021010282, -0.094, 0.9460000000000001, 0.28600000000000003, 192.0, 0.0, 0.0, 0.0, 0.0, 0.0, 0.0, 0.0, 0.0, 0.0, 1.700947212220001E9, 0.0, 2023-11-25 16:20:12.220
13.0, 17092.244874506578, 35036.18061973818, -45659.8753523678, -48139.82375142858, -36551.71830078582, -45637.456552679134, -29051.076358685063, -9014.145614402963, -0.094, 0.9460000000000001, 0.28600000000000003, 192.0, 0.0, 0.0, 0.0, 0.0, 0.0, 0.0, 0.0, 0.0, 0.0, 1.700947212223032E9, 0.0, 2023-11-25 16:20:12.223
14.0, 16844.65460117514, 34975.517985286475, -45673.19699206317, -48135.19694032633, -36741.93164610048, -45952.63850124342, -29032.367948575968, -8988.754032701736, -0.094, 0.9460000000000001, 0.28600000000000003, 192.0, 0.0, 0.0, 0.0, 0.0, 0.0, 0.0, 0.0, 0.0, 0.0, 1.700947212227989E9, 0.0, 2023-11-25 16:20:12.227
15.0, 16735.6004399777, 35014.387668894255, -45692.7324167171, -48119.863643629986, -36930.468610580996, -45899.84368083998, -29032.949093931806, -8990.765689702714, -0.094, 0.9460000000000001, 0.28600000000000003, 192.0, 0.0, 0.0, 0.0, 0.0, 0.0, 0.0, 0.0, 0.0, 0.0, 1.700947212232177E9, 0.0, 2023-11-25 16:20:12.232
16.0, 16875.52236026792, 35092.95405065466, -45707.26105061305, -48109.85006211401, -36863.569839426265, -45670.53713447299, -29050.875192984964, -9008.691788755868, -0.094, 0.9460000000000001, 0.28600000000000003, 192.0, 0.0, 0.0, 0.0, 0.0, 0.0, 0.0, 0.0, 0.0, 0.0, 1.700947212236163E9, 0.0, 2023-11-25 16:20:12.236
17.0, 17076.419839432223, 35063.69561716266, -45661.507029713044, -48131.263033302195, -36589.85037682657, -45620.960965271115, -29072.444626384335, -9039.291326915185, -0.094, 0.9460000000000001, 0.28600000000000003, 192.0, 0.0, 0.0, 0.0, 0.0, 0.0, 0.0, 0.0, 0.0, 0.0, 1.700947212240099E9, 0.0, 2023-11-25 16:20:12.240
18.0, 16907.641817050197, 34984.57044179087, -45668.88310538329, -48138.50499850571, -36660.07955790515, -45904.00110530867, -29055.680818042856, -9025.477948841804, -0.094, 0.9420000000000001, 0.28800000000000003, 192.0, 253.0, 16.0, 29.0, 112.0, 9.0, 0.0, 0.0, 0.0, 0.0, 1.700947212245035E9, 0.0, 2023-11-25 16:20:12.245
19.0, 16711.840535621708, 34993.757008762004, -45699.594402264884, -48126.52446347767, -36947.031253222376, -45953.934902421825, -29043.052082425605, -9012.178660890897, -0.094, 0.9420000000000001, 0.28800000000000003, 192.0, 0.0, 0.0, 0.0, 0.0, 0.0, 0.0, 0.0, 0.0, 0.0, 1.700947212248098E9, 0.0, 2023-11-25 16:20:12.248
20.0, 16833.277563247393, 35063.49445146256, -45727.355268878375, -48126.8597396445, -36901.97013640048, -45707.46221631315, -29061.000533223218, -9027.579012820604, -0.094, 0.9420000000000001, 0.28800000000000003, 192.0, 0.0, 0.0, 0.0, 0.0, 0.0, 0.0, 0.0, 0.0, 0.0, 1.700947212251081E9, 0.0, 2023-11-25 16:20:12.251
21.0, 17034.018580200503, 35056.811279870424, -45694.028817895516, -48149.12207712199, -36678.54209882523, -45628.00176477453, -29075.730332819265, -9046.913271774445, -0.094, 0.9420000000000001, 0.28800000000000003, 192.0, 0.0, 0.0, 0.0, 0.0, 0.0, 0.0, 0.0, 0.0, 0.0, 1.700947212256093E9, 0.0, 2023-11-25 16:20:12.256
22.0, 16953.5523001614, 34969.66182823919, -45687.61386723684, -48173.93251346738, -36623.57915920963, -45857.88945649737, -29071.99759149523, -9044.387524650994, -0.094, 0.9420000000000001, 0.28800000000000003, 192.0, 0.0, 0.0, 0.0, 0.0, 0.0, 0.0, 0.0, 0.0, 0.0, 1.70094721226001E9, 0.0, 2023-11-25 16:20:12.260
23.0, 16696.708404625464, 34974.82508120836, -45707.6857337577, -48152.00545215672, -36966.43256740959, -46012.60823161701, -29039.185230634837, -9010.144652145464, -0.094, 0.9420000000000001, 0.28800000000000003, 192.0, 0.0, 0.0, 0.0, 0.0, 0.0, 0.0, 0.0, 0.0, 0.0, 1.700947212264031E9, 0.0, 2023-11-25 16:20:12.264
24.0, 16803.12505997718, 35046.10479427633, -45732.0938387029, -48155.22410335828, -36929.8651134807, -45759.11709774937, -29055.725521531764, -9028.830710510101, -0.094, 0.9420000000000001, 0.28800000000000003, 192.0, 0.0, 0.0, 0.0, 0.0, 0.0, 0.0, 0.0, 0.0, 0.0, 1.700947212268076E9, 0.0, 2023-11-25 16:20:12.268
25.0, 16995.104193103816, 35069.90940212124, -45703.2377366111, -48159.67210050489, -36750.872343882605, -45647.55954117293, -29068.868347271487, -9045.236890940296, -0.094, 0.9420000000000001, 0.28800000000000003, 192.0, 0.0, 0.0, 0.0, 0.0, 0.0, 0.0, 0.0, 0.0, 0.0, 1.700947212272067E9, 0.0, 2023-11-25 16:20:12.272
26.0, 16996.93703614915, 34970.44413929512, -45691.078387627414, -48200.39697890246, -36584.59771687957, -45817.768075200096, -29089.119027747995, -9067.40982143996, -0.094, 0.9420000000000001, 0.28800000000000003, 192.0, 0.0, 0.0, 0.0, 0.0, 0.0, 0.0, 0.0, 0.0, 0.0, 1.700947212276074E9, 0.0, 2023-11-25 16:20:12.276
27.0, 16684.213779474947, 34961.615200235276, -45709.80914948096, -48166.6681965194, -36959.07884348379, -46061.2232758073, -29036.65948351139, -9011.798681235157, -0.10400000000000001, 0.9440000000000001, 0.28400000000000003, 192.0, 252.0, 192.0, 29.0, 128.0, 8.0, 224.0, 0.0, 0.0, 0.0, 1.700947212279115E9, 0.0, 2023-11-25 16:20:12.279
28.0, 16765.88705371464, 35038.25933197252, -45721.09678043089, -48152.161914367905, -36950.0710904683, -45811.9119181528, -29035.56424803308, -9014.704408014346, -0.10400000000000001, 0.9440000000000001, 0.28400000000000003, 192.0, 0.0, 0.0, 0.0, 0.0, 0.0, 0.0, 0.0, 0.0, 0.0, 1.70094721228412E9, 0.0, 2023-11-25 16:20:12.284
29.0, 16946.712666358075, 35075.81026265744, -45713.60894603836, -48158.57686502658, -36816.653527814575, -45660.97058784612, -29042.090957414028, -9029.993001221777, -0.10400000000000001, 0.9440000000000001, 0.28400000000000003, 192.0, 0.0, 0.0, 0.0, 0.0, 0.0, 0.0, 0.0, 0.0, 0.0, 1.700947212288239E9, 0.0, 2023-11-25 16:20:12.288
30.0, 17028.78827199796, 34988.77256974847, -45686.675093969716, -48197.62536259, -36575.85818479755, -45763.4533361737, -29049.46703308428, -9046.577995607615, -0.10400000000000001, 0.9440000000000001, 0.28400000000000003, 192.0, 0.0, 0.0, 0.0, 0.0, 0.0, 0.0, 0.0, 0.0, 0.0, 1.700947212292132E9, 0.0, 2023-11-25 16:20:12.292
31.0, 16709.135974542616, 34960.832889179335, -45713.00544893807, -48173.23960938926, -36925.93120645657, -46060.26215079572, -29001.477837738734, -8990.810393191623, -0.10400000000000001, 0.9440000000000001, 0.28400000000000003, 192.0, 0.0, 0.0, 0.0, 0.0, 0.0, 0.0, 0.0, 0.0, 0.0, 1.700947212296086E9, 0.0, 2023-11-25 16:20:12.296
32.0, 16738.03678012333, 35012.219549682086, -45738.35232715039, -48169.708033765324, -36969.2265354665, -45852.92736922829, -29008.339823286515, -8994.25256183774, -0.10400000000000001, 0.9440000000000001, 0.28400000000000003, 192.0, 0.0, 0.0, 0.0, 0.0, 0.0, 0.0, 0.0, 0.0, 0.0, 1.700947212300142E9, 0.0, 2023-11-25 16:20:12.300
33.0, 16906.032491449416, 35075.56439346843, -45737.27944341653, -48155.40291731393, -36867.123766794655, -45671.38650076229, -29018.018128635664, -8995.705425227336, -0.10400000000000001, 0.9440000000000001, 0.28400000000000003, 192.0, 0.0, 0.0, 0.0, 0.0, 0.0, 0.0, 0.0, 0.0, 0.0, 1.700947212303128E9, 0.0, 2023-11-25 16:20:12.303
34.0, 17062.38294391429, 35021.27200618649, -45683.79171893498, -48171.56322855511, -36566.157527703945, -45697.47098654163, -29039.922838201863, -9016.40314059295, -0.10400000000000001, 0.9440000000000001, 0.28400000000000003, 192.0, 0.0, 0.0, 0.0, 0.0, 0.0, 0.0, 0.0, 0.0, 0.0, 1.700947212307123E9, 0.0, 2023-11-25 16:20:12.307
35.0, 16774.090143929738, 34978.669581254675, -45700.019085409534, -48149.032670144166, -36833.03735650031, -46010.082484493556, -29016.140582101416, -8981.579122731582, -0.10400000000000001, 0.9440000000000001, 0.28400000000000003, 192.0, 0.0, 0.0, 0.0, 0.0, 0.0, 0.0, 0.0, 0.0, 0.0, 1.700947212311186E9, 0.0, 2023-11-25 16:20:12.311
36.0, 16735.220460321958, 35024.42360215469, -45719.68862053021, -48139.0637921171, -36951.25573292443, -45879.99533176367, -29035.005454421695, -8991.458593780828, -0.10400000000000001, 0.9440000000000001, 0.28400000000000003, 192.0, 0.0, 0.0, 0.0, 0.0, 0.0, 0.0, 0.0, 0.0, 0.0, 1.700947212316189E9, 0.0, 2023-11-25 16:20:12.316
37.0, 16891.012119175448, 35095.01041114455, -45724.67305954374, -48124.57986171006, -36871.594115685715, -45667.40789024924, -29053.199774408316, -8998.097061884053, -0.108, 0.9420000000000001, 0.28600000000000003, 192.0, 252.0, 160.0, 29.0, 112.0, 8.0, 240.0, 0.0, 0.0, 0.0, 1.700947212320183E9, 0.0, 2023-11-25 16:20:12.320
38.0, 17079.034993533493, 35050.48573618958, -45669.91128562824, -48144.78583869766, -36570.09143472808, -45637.61301489032, -29067.102559459516, -9020.02412319471, -0.108, 0.9420000000000001, 0.28600000000000003, 192.0, 0.0, 0.0, 0.0, 0.0, 0.0, 0.0, 0.0, 0.0, 0.0, 1.700947212324248E9, 0.0, 2023-11-25 16:20:12.324
39.0, 16841.167729040113, 34988.61610753729, -45678.60611422135, -48140.44960027333, -36738.46712570991, -45945.88827441791, -29039.74402424622, -8991.436242036372, -0.108, 0.9420000000000001, 0.28600000000000003, 192.0, 0.0, 0.0, 0.0, 0.0, 0.0, 0.0, 0.0, 0.0, 0.0, 1.7009472123282E9, 0.0, 2023-11-25 16:20:12.328
40.0, 16714.83566937872, 35015.438200883655, -45697.96272491965, -48130.0113356127, -36946.94184624456, -45911.24307051219, -29036.74889048921, -8990.341006558063, -0.108, 0.9420000000000001, 0.28600000000000003, 192.0, 0.0, 0.0, 0.0, 0.0, 0.0, 0.0, 0.0, 0.0, 0.0, 1.700947212331252E9, 0.0, 2023-11-25 16:20:12.331
41.0, 16857.14922632566, 35085.779140684506, -45712.692524515696, -48121.78589365315, -36882.21119430199, -45680.52836424451, -29048.46120458379, -8999.63933225147, -0.108, 0.9420000000000001, 0.28600000000000003, 192.0, 0.0, 0.0, 0.0, 0.0, 0.0, 0.0, 0.0, 0.0, 0.0, 1.700947212335263E9, 0.0, 2023-11-25 16:20:12.335
42.0, 17061.108894480338, 35058.06297755992, -45667.76551816053, -48145.746963709236, -36613.565577693655, -45626.41479091821, -29070.14239670544, -9029.434207610395, -0.108, 0.9420000000000001, 0.28600000000000003, 192.0, 0.0, 0.0, 0.0, 0.0, 0.0, 0.0, 0.0, 0.0, 0.0, 1.700947212339275E9, 0.0, 2023-11-25 16:20:12.339
43.0, 16898.835229734806, 34971.58407826234, -45675.09689034187, -48165.77412674119, -36658.96197068238, -45905.476320442714, -29060.754664034208, -9024.047437196665, -0.108, 0.9420000000000001, 0.28600000000000003, 192.0, 0.0, 0.0, 0.0, 0.0, 0.0, 0.0, 0.0, 0.0, 0.0, 1.70094721234432E9, 0.0, 2023-11-25 16:20:12.344
44.0, 16694.16030575756, 34992.03592443895, -45694.498204529074, -48141.99187064074, -36954.161459703624, -45976.867792232966, -29034.111384643482, -8992.643236236958, -0.108, 0.9420000000000001, 0.28600000000000003, 192.0, 0.0, 0.0, 0.0, 0.0, 0.0, 0.0, 0.0, 0.0, 0.0, 1.700947212348269E9, 0.0, 2023-11-25 16:20:12.348
45.0, 16825.454452688035, 35063.539154951475, -45717.40874259576, -48137.00743162721, -36905.300546324324, -45725.5894810664, -29047.768300505675, -9008.758843989235, -0.108, 0.9420000000000001, 0.28600000000000003, 192.0, 0.0, 0.0, 0.0, 0.0, 0.0, 0.0, 0.0, 0.0, 0.0, 1.700947212352363E9, 0.0, 2023-11-25 16:20:12.352
46.0, 17029.861155731818, 35068.434186987186, -45672.86171589634, -48138.97438513928, -36679.63733430354, -45627.89000605226, -29052.328056374557, -9019.062998183132, -0.108, 0.9420000000000001, 0.28600000000000003, 192.0, 0.0, 0.0, 0.0, 0.0, 0.0, 0.0, 0.0, 0.0, 0.0, 1.700947212356329E9, 0.0, 2023-11-25 16:20:12.356
47.0, 16957.083875785338, 34976.859089953796, -45665.82091639291, -48159.47093480479, -36598.746371119785, -45836.767057987105, -29051.501041829713, -9019.30886737214, -0.106, 0.9500000000000001, 0.28800000000000003, 192.0, 252.0, 176.0, 29.0, 176.0, 9.0, 0.0, 0.0, 0.0, 0.0, 1.700947212359367E9, 0.0, 2023-11-25 16:20:12.359
48.0, 16691.634558634112, 34978.89309869923, -45689.37965504881, -48131.37479202447, -36948.68528231207, -46000.426530888864, -29015.537085001124, -8983.143744843454, -0.106, 0.9500000000000001, 0.28800000000000003, 192.0, 0.0, 0.0, 0.0, 0.0, 0.0, 0.0, 0.0, 0.0, 0.0, 1.700947212363402E9, 0.0, 2023-11-25 16:20:12.363
49.0, 16794.51963836189, 35051.20099201214, -45714.65947802776, -48127.59734721152, -36920.745601742936, -45744.32024291995, -29032.435003809336, -8996.331274072085, -0.106, 0.9500000000000001, 0.28800000000000003, 192.0, 0.0, 0.0, 0.0, 0.0, 0.0, 0.0, 0.0, 0.0, 0.0, 1.700947212367391E9, 0.0, 2023-11-25 16:20:12.367
50.0, 16991.304396546413, 35081.93464063819, -45687.88208817031, -48131.21832981329, -36751.09586132716, -45623.46436065011, -29048.37179760597, -9010.904611456945, -0.106, 0.9500000000000001, 0.28800000000000003, 192.0, 0.0, 0.0, 0.0, 0.0, 0.0, 0.0, 0.0, 0.0, 0.0, 1.700947212371397E9, 0.0, 2023-11-25 16:20:12.371
51.0, 17017.12066139229, 34994.1593401622, -45665.70915767064, -48166.04234767465, -36563.52002185822, -45778.49606019212, -29057.580716321554, -9031.848196011568, -0.106, 0.9500000000000001, 0.28800000000000003, 192.0, 0.0, 0.0, 0.0, 0.0, 0.0, 0.0, 0.0, 0.0, 0.0, 1.700947212376393E9, 0.0, 2023-11-25 16:20:12.376
52.0, 16703.123355284137, 34976.36735157578, -45688.843213181884, -48143.93647240836, -36930.15568615862, -46035.25054875023, -29014.106573355984, -8991.838573436567, -0.106, 0.9500000000000001, 0.28800000000000003, 192.0, 0.0, 0.0, 0.0, 0.0, 0.0, 0.0, 0.0, 0.0, 0.0, 1.700947212380329E9, 0.0, 2023-11-25 16:20:12.380
53.0, 16777.979347464963, 35044.20489599763, -45700.443768554185, -48131.62066121348, -36929.52983731387, -45800.065493591486, -29018.08518386903, -8994.25256183774, -0.106, 0.9500000000000001, 0.28800000000000003, 192.0, 0.0, 0.0, 0.0, 0.0, 0.0, 0.0, 0.0, 0.0, 0.0, 1.700947212384363E9, 0.0, 2023-11-25 16:20:12.384
54.0, 16963.476474699553, 35083.76748368353, -45694.073521384424, -48135.35340253752, -36801.342582862686, -45642.619805648304, -29028.523448529657, -9009.16117538943, -0.106, 0.9500000000000001, 0.28800000000000003, 192.0, 0.0, 0.0, 0.0, 0.0, 0.0, 0.0, 0.0, 0.0, 0.0, 1.700947212387356E9, 0.0, 2023-11-25 16:20:12.387
55.0, 17056.81735954492, 34992.39355235023, -45670.85005889536, -48179.87807749249, -36546.75621351674, -45737.23473992762, -29052.953905219307, -9041.615908338537, -0.106, 0.9500000000000001, 0.28800000000000003, 192.0, 0.0, 0.0, 0.0, 0.0, 0.0, 0.0, 0.0, 0.0, 0.0, 1.700947212391388E9, 0.0, 2023-11-25 16:20:12.391
56.0, 16732.717064942964, 34960.51996475696, -45694.47585278462, -48156.989891170255, -36888.804958916306, -46043.34188024305, -29012.40784077738, -8990.989207147266, -0.106, 0.9500000000000001, 0.28800000000000003, 192.0, 0.0, 0.0, 0.0, 0.0, 0.0, 0.0, 0.0, 0.0, 0.0, 1.700947212395432E9, 0.0, 2023-11-25 16:20:12.395
57.0, 16740.987210391428, 35015.19233169464, -45719.19688215219, -48151.267844589696, -36954.74260505946, -45854.246122151155, -29024.88011418344, -9001.740396230269, -0.096, 0.9500000000000001, 0.28800000000000003, 192.0, 253.0, 0.0, 29.0, 176.0, 9.0, 0.0, 0.0, 0.0, 0.0, 1.700947212399526E9, 0.0, 2023-11-25 16:20:12.399
58.0, 16899.90811346866, 35066.400178241754, -45733.1443706923, -48154.35238532453, -36865.045054560316, -45676.14742233127, -29052.17159416337, -9029.523614588215, -0.096, 0.9500000000000001, 0.28800000000000003, 192.0, 0.0, 0.0, 0.0, 0.0, 0.0, 0.0, 0.0, 0.0, 0.0, 1.700947212404577E9, 0.0, 2023-11-25 16:20:12.404
59.0, 17057.577318856398, 35002.362430377296, -45688.060902125944, -48182.73910078277, -36572.0807399846, -45707.05988491296, -29072.37757115097, -9055.272824200729, -0.096, 0.9500000000000001, 0.28800000000000003, 192.0, 0.0, 0.0, 0.0, 0.0, 0.0, 0.0, 0.0, 0.0, 0.0, 1.700947212408441E9, 0.0, 2023-11-25 16:20:12.408
60.0, 16770.335050861246, 34947.757118672984, -45711.17260589273, -48171.607932044026, -36828.119972720146, -46027.44978993533, -29042.94032370333, -9011.977495190798, -0.096, 0.9500000000000001, 0.28800000000000003, 192.0, 0.0, 0.0, 0.0, 0.0, 0.0, 0.0, 0.0, 0.0, 0.0, 1.700947212411486E9, 0.0, 2023-11-25 16:20:12.411
61.0, 16715.908553112575, 35002.25067165502, -45720.96266996416, -48153.92770217988, -36963.9738755195, -45916.00399208117, -29039.811079479587, -9011.30694285714, -0.096, 0.9500000000000001, 0.28800000000000003, 192.0, 0.0, 0.0, 0.0, 0.0, 0.0, 0.0, 0.0, 0.0, 0.0, 1.700947212415434E9, 0.0, 2023-11-25 16:20:12.415
62.0, 16871.677860221607, 35077.68780919168, -45728.60696656787, -48145.948129409335, -36895.04109561934, -45706.54579479049, -29052.953905219307, -9025.902631986455, -0.096, 0.9500000000000001, 0.28800000000000003, 192.0, 0.0, 0.0, 0.0, 0.0, 0.0, 0.0, 0.0, 0.0, 0.0, 1.700947212419556E9, 0.0, 2023-11-25 16:20:12.419
63.0, 17067.926176539204, 35036.56059939392, -45681.154213089256, -48174.96069371232, -36608.044696813195, -45683.97053289063, -29072.57873685107, -9057.016260268243, -0.096, 0.9500000000000001, 0.28800000000000003, 192.0, 0.0, 0.0, 0.0, 0.0, 0.0, 0.0, 0.0, 0.0, 0.0, 1.700947212423475E9, 0.0, 2023-11-25 16:20:12.423
64.0, 16846.75566515394, 34967.80663344939, -45695.39227430728, -48178.78284201418, -36755.52150672931, -45990.994094728725, -29055.90433548741, -9035.558585591149, -0.096, 0.9500000000000001, 0.28800000000000003, 192.0, 0.0, 0.0, 0.0, 0.0, 0.0, 0.0, 0.0, 0.0, 0.0, 1.700947212427484E9, 0.0, 2023-11-25 16:20:12.427
65.0, 16716.534401957324, 35010.967851992595, -45703.41655056674, -48153.413612057404, -36976.02146578091, -45967.636521772925, -29039.252285868202, -9015.062035925632, -0.096, 0.9500000000000001, 0.28800000000000003, 192.0, 0.0, 0.0, 0.0, 0.0, 0.0, 0.0, 0.0, 0.0, 0.0, 1.700947212431559E9, 0.0, 2023-11-25 16:20:12.431
66.0, 16860.09965659376, 35083.946297639166, -45720.67209728624, -48147.17747535437, -36916.45406680752, -45728.80813226797, -29054.540879075634, -9025.276783141708, -0.096, 0.9500000000000001, 0.28800000000000003, 192.0, 0.0, 0.0, 0.0, 0.0, 0.0, 0.0, 0.0, 0.0, 0.0, 1.700947212436524E9, 0.0, 2023-11-25 16:20:12.436
67.0, 17064.19343521517, 35063.09212006237, -45672.213515307136, -48160.141487138455, -36655.29628459171, -45654.64504416526, -29065.80615828111, -9045.683925829402, -0.096, 0.9520000000000001, 0.28400000000000003, 192.0, 253.0, 0.0, 29.0, 192.0, 8.0, 224.0, 0.0, 0.0, 0.0, 1.700947212439581E9, 0.0, 2023-11-25 16:20:12.439
68.0, 16919.801166033885, 34975.92031668667, -45671.766480418024, -48172.39024309996, -36672.26125863329, -45909.186710022295, -29048.304742372602, -9028.69660004337, -0.096, 0.9520000000000001, 0.28400000000000003, 192.0, 0.0, 0.0, 0.0, 0.0, 0.0, 0.0, 0.0, 0.0, 0.0, 1.700947212443519E9, 0.0, 2023-11-25 16:20:12.443
69.0, 16697.714233125953, 34985.12923540226, -45691.12309111632, -48149.18913235535, -36970.94761978956, -45991.91051625139, -29023.31549207157, -8991.391538547461, -0.096, 0.9520000000000001, 0.28400000000000003, 192.0, 0.0, 0.0, 0.0, 0.0, 0.0, 0.0, 0.0, 0.0, 0.0, 1.700947212447574E9, 0.0, 2023-11-25 16:20:12.447
70.0, 16822.45931893102, 35057.05714905944, -45706.27757385702, -48138.884978161455, -36917.05756390781, -45730.5962718244, -29034.200791621304, -8988.642273979458, -0.096, 0.9520000000000001, 0.28400000000000003, 192.0, 0.0, 0.0, 0.0, 0.0, 0.0, 0.0, 0.0, 0.0, 0.0, 1.700947212451529E9, 0.0, 2023-11-25 16:20:12.451
71.0, 17022.4180248282, 35050.57514316739, -45678.27083805452, -48160.409708071915, -36700.06682873569, -45633.969680544105, -29057.580716321554, -9015.26320162573, -0.096, 0.9520000000000001, 0.28400000000000003, 192.0, 0.0, 0.0, 0.0, 0.0, 0.0, 0.0, 0.0, 0.0, 0.0, 1.700947212455569E9, 0.0, 2023-11-25 16:20:12.455
72.0, 16973.445352726623, 34964.07389212536, -45665.977378604104, -48184.41548161692, -36598.880481586515, -45846.82534299199, -29052.506870330202, -9016.559602804136, -0.096, 0.9520000000000001, 0.28400000000000003, 192.0, 0.0, 0.0, 0.0, 0.0, 0.0, 0.0, 0.0, 0.0, 0.0, 1.700947212459543E9, 0.0, 2023-11-25 16:20:12.459
73.0, 16699.54707617129, 34978.311953343386, -45687.81503293694, -48153.570074268595, -36953.4238521366, -46035.228197005774, -29019.582750747533, -8974.15834357242, -0.096, 0.9520000000000001, 0.28400000000000003, 192.0, 0.0, 0.0, 0.0, 0.0, 0.0, 0.0, 0.0, 0.0, 0.0, 1.700947212464672E9, 0.0, 2023-11-25 16:20:12.464
74.0, 16802.834487299264, 35049.904590833736, -45716.939355962204, -48155.13469638046, -36921.95259594353, -45778.96544682568, -29042.090957414028, -8995.168983360409, -0.096, 0.9520000000000001, 0.28400000000000003, 192.0, 0.0, 0.0, 0.0, 0.0, 0.0, 0.0, 0.0, 0.0, 0.0, 1.70094721246761E9, 0.0, 2023-11-25 16:20:12.467
75.0, 16995.439469270645, 35081.37584702681, -45701.15902437676, -48162.73428949527, -36760.930628887494, -45658.06486106692, -29056.016094209685, -9014.816166736624, -0.096, 0.9520000000000001, 0.28400000000000003, 192.0, 0.0, 0.0, 0.0, 0.0, 0.0, 0.0, 0.0, 0.0, 0.0, 1.700947212471581E9, 0.0, 2023-11-25 16:20:12.471
76.0, 17035.449091845643, 34991.4100755942, -45682.22709682311, -48200.28522018019, -36564.50349861426, -45802.83710990395, -29072.869309528985, -9035.379771635506, -0.096, 0.9520000000000001, 0.28400000000000003, 192.0, 0.0, 0.0, 0.0, 0.0, 0.0, 0.0, 0.0, 0.0, 0.0, 1.700947212475606E9, 0.0, 2023-11-25 16:20:12.475
77.0, 16714.902724612086, 34971.941706173624, -45711.641992526296, -48175.63124604598, -36935.67656703908, -46074.522563758204, -29038.604085279, -8993.313788570618, -0.10200000000000001, 0.9480000000000001, 0.28, 192.0, 252.0, 208.0, 29.0, 160.0, 8.0, 192.0, 0.0, 0.0, 0.0, 1.700947212479607E9, 0.0, 2023-11-25 16:20:12.479
78.0, 16772.056135184306, 35028.513971390006, -45738.821713783946, -48171.9208564664, -36946.85243926674, -45844.098430168444, -29056.999570965716, -9012.580992291092, -0.10200000000000001, 0.9480000000000001, 0.28, 192.0, 0.0, 0.0, 0.0, 0.0, 0.0, 0.0, 0.0, 0.0, 0.0, 1.700947212483627E9, 0.0, 2023-11-25 16:20:12.483
79.0, 16943.650477367697, 35079.386541770284, -45730.95389973568, -48164.34361509605, -36829.28226343182, -45686.406873036256, -29066.677876314865, -9023.9803819633, -0.10200000000000001, 0.9480000000000001, 0.28, 192.0, 0.0, 0.0, 0.0, 0.0, 0.0, 0.0, 0.0, 0.0, 0.0, 1.700947212487624E9, 0.0, 2023-11-25 16:20:12.487
80.0, 17055.90093802225, 35004.597604822826, -45693.80530045096, -48195.7254643113, -36557.932085744396, -45757.53012389304, -29085.94508003534, -9051.271861943229, -0.10200000000000001, 0.9480000000000001, 0.28, 192.0, 0.0, 0.0, 0.0, 0.0, 0.0, 0.0, 0.0, 0.0, 0.0, 1.700947212492655E9, 0.0, 2023-11-25 16:20:12.492
81.0, 16740.249602824402, 34962.68808396913, -45720.13565541931, -48176.88294373548, -36885.83217690375, -46075.64015098097, -29052.88684998594, -9023.198070907363, -0.10200000000000001, 0.9480000000000001, 0.28, 192.0, 0.0, 0.0, 0.0, 0.0, 0.0, 0.0, 0.0, 0.0, 0.0, 1.700947212495703E9, 0.0, 2023-11-25 16:20:12.495
82.0, 16747.69273372802, 35019.17094220769, -45732.58557708092, -48163.404841828924, -36954.63084633718, -45895.95447730476, -29053.937381975342, -9033.345762890072, -0.10200000000000001, 0.9480000000000001, 0.28, 192.0, 0.0, 0.0, 0.0, 0.0, 0.0, 0.0, 0.0, 0.0, 0.0, 1.700947212499689E9, 0.0, 2023-11-25 16:20:12.499
83.0, 16913.185049675114, 35087.32141105192, -45728.45050435668, -48147.423344543386, -36860.552353924795, -45700.66728599874, -29059.41355936689, -9035.715047802336, -0.10200000000000001, 0.9480000000000001, 0.28, 192.0, 0.0, 0.0, 0.0, 0.0, 0.0, 0.0, 0.0, 0.0, 0.0, 1.70094721250366E9, 0.0, 2023-11-25 16:20:12.503
84.0, 17077.13509525479, 35023.93186377667, -45683.92582940171, -48176.59237105756, -36566.313989915136, -45718.07929492943, -29085.07336200158, -9073.198923253885, -0.10200000000000001, 0.9480000000000001, 0.28, 192.0, 0.0, 0.0, 0.0, 0.0, 0.0, 0.0, 0.0, 0.0, 0.0, 1.700947212507686E9, 0.0, 2023-11-25 16:20:12.507
85.0, 16799.36996690869, 34970.488842784034, -45705.070579656436, -48163.404841828924, -36801.63315554061, -46036.234025506266, -29057.156033176903, -9041.437094382894, -0.10200000000000001, 0.9480000000000001, 0.28, 192.0, 0.0, 0.0, 0.0, 0.0, 0.0, 0.0, 0.0, 0.0, 0.0, 1.700947212511679E9, 0.0, 2023-11-25 16:20:12.511
86.0, 16724.424567750048, 35019.483866630064, -45722.92962347622, -48140.9636903958, -36951.81452653582, -45935.60647196847, -29056.820757010075, -9034.373943135017, -0.10200000000000001, 0.9480000000000001, 0.28, 192.0, 0.0, 0.0, 0.0, 0.0, 0.0, 0.0, 0.0, 0.0, 0.0, 1.700947212515656E9, 0.0, 2023-11-25 16:20:12.515
87.0, 16874.605938745255, 35091.97057389862, -45736.36302189386, -48125.36217276599, -36878.29963902231, -45710.725571003626, -29070.432969383357, -9043.560510106148, -0.096, 0.9520000000000001, 0.278, 192.0, 253.0, 0.0, 29.0, 192.0, 8.0, 176.0, 0.0, 0.0, 0.0, 1.700947212520669E9, 0.0, 2023-11-25 16:20:12.520
88.0, 17064.081676492893, 35039.71219536212, -45700.82374820993, -48155.58173126957, -36594.387780951, -45674.47104149712, -29100.56312090911, -9075.299987232684, -0.096, 0.9520000000000001, 0.278, 192.0, 0.0, 0.0, 0.0, 0.0, 0.0, 0.0, 0.0, 0.0, 0.0, 1.700947212523718E9, 0.0, 2023-11-25 16:20:12.523
89.0, 16849.639040188675, 34962.59867699131, -45716.38056235082, -48157.8169057151, -36720.76454410131, -45968.46353631777, -29079.79835031013, -9040.520672860226, -0.096, 0.9520000000000001, 0.278, 192.0, 0.0, 0.0, 0.0, 0.0, 0.0, 0.0, 0.0, 0.0, 0.0, 1.700947212526719E9, 0.0, 2023-11-25 16:20:12.526
90.0, 16690.762840600353, 34992.4606075836, -45734.93251024873, -48139.0637921171, -36954.586142848275, -45961.95917868128, -29056.843108754532, -9015.129091158997, -0.096, 0.9520000000000001, 0.278, 192.0, 0.0, 0.0, 0.0, 0.0, 0.0, 0.0, 0.0, 0.0, 0.0, 1.700947212531704E9, 0.0, 2023-11-25 16:20:12.531
91.0, 16824.672141632098, 35064.299114262954, -45751.98689126813, -48135.28634730415, -36896.6057177312, -45715.4417890837, -29059.36885587798, -9015.553774303648, -0.096, 0.9520000000000001, 0.278, 192.0, 0.0, 0.0, 0.0, 0.0, 0.0, 0.0, 0.0, 0.0, 0.0, 1.700947212535769E9, 0.0, 2023-11-25 16:20:12.535
92.0, 17039.94179248116, 35060.34285549437, -45693.20180335067, -48140.494303762236, -36639.49360126181, -45630.1698839867, -29061.000533223218, -9021.097006928565, -0.096, 0.9520000000000001, 0.278, 192.0, 0.0, 0.0, 0.0, 0.0, 0.0, 0.0, 0.0, 0.0, 0.0, 1.700947212539774E9, 0.0, 2023-11-25 16:20:12.539
93.0, 16920.896401512196, 34976.92614518716, -45688.01619863704, -48156.72167023679, -36628.42948775643, -45872.75336656015, -29050.22699239576, -9006.769538732713, -0.096, 0.9520000000000001, 0.278, 192.0, 0.0, 0.0, 0.0, 0.0, 0.0, 0.0, 0.0, 0.0, 0.0, 1.700947212543796E9, 0.0, 2023-11-25 16:20:12.543
94.0, 16689.555846399766, 34991.946517461125, -45703.64006801129, -48134.884015903954, -36940.72806128598, -45975.52668756565, -29019.403936791892, -8973.82306740559, -0.096, 0.9520000000000001, 0.278, 192.0, 0.0, 0.0, 0.0, 0.0, 0.0, 0.0, 0.0, 0.0, 0.0, 1.700947212548755E9, 0.0, 2023-11-25 16:20:12.548
95.0, 16814.05506301583, 35064.924963107704, -45721.58851880891, -48129.18432106785, -36889.18493857204, -45710.233832625614, -29028.925779929854, -8980.282721553174, -0.096, 0.9520000000000001, 0.278, 192.0, 0.0, 0.0, 0.0, 0.0, 0.0, 0.0, 0.0, 0.0, 0.0, 1.700947212551742E9, 0.0, 2023-11-25 16:20:12.551
96.0, 17021.21103062761, 35073.64214344527, -45693.939410917694, -48139.84610317303, -36685.64995356202, -45605.851186019325, -29042.11330915848, -8988.172887345898, -0.096, 0.9520000000000001, 0.278, 192.0, 0.0, 0.0, 0.0, 0.0, 0.0, 0.0, 0.0, 0.0, 0.0, 1.700947212554766E9, 0.0, 2023-11-25 16:20:12.554
97.0, 16996.110021604305, 34999.47905534256, -45671.364149017834, -48154.77706846918, -36559.742577045276, -45795.952772611716, -29033.999625921206, -8977.73462268527, -0.09, 0.9540000000000001, 0.28400000000000003, 192.0, 253.0, 48.0, 29.0, 208.0, 8.0, 224.0, 0.0, 0.0, 0.0, 1.700947212559835E9, 0.0, 2023-11-25 16:20:12.559
98.0, 16703.033948306318, 34997.57915706386, -45696.91219293025, -48132.648841458424, -36920.58913953175, -46001.83469078955, -29003.668308695356, -8945.391648458439, -0.09, 0.9540000000000001, 0.28400000000000003, 192.0, 0.0, 0.0, 0.0, 0.0, 0.0, 0.0, 0.0, 0.0, 0.0, 1.700947212564432E9, 0.0, 2023-11-25 16:20:12.564
99.0, 16791.680966816064, 35067.89774512026, -45726.796475266994, -48132.447675758325, -36901.29958406682, -45758.133620993336, -29022.108497870984, -8968.168076058397, -0.09, 0.9540000000000001, 0.28400000000000003, 192.0, 0.0, 0.0, 0.0, 0.0, 0.0, 0.0, 0.0, 0.0, 0.0, 1.700947212567816E9, 0.0, 2023-11-25 16:20:12.567
100.0, 16980.150876063213, 35105.068696149436, -45713.944222205195, -48135.42045777088, -36749.821811893205, -45629.65579386423, -29036.83829746703, -8986.58591348957, -0.09, 0.9540000000000001, 0.28400000000000003, 192.0, 0.0, 0.0, 0.0, 0.0, 0.0, 0.0, 0.0, 0.0, 0.0, 1.700947212571801E9, 0.0, 2023-11-25 16:20:12.571
101.0, 17032.476309833088, 35020.824971297385, -45691.346608560874, -48167.80813548662, -36534.842733722064, -45763.095708262415, -29056.731350032253, -9007.842422466567, -0.09, 0.9540000000000001, 0.28400000000000003, 192.0, 0.0, 0.0, 0.0, 0.0, 0.0, 0.0, 0.0, 0.0, 0.0, 1.700947212575816E9, 0.0, 2023-11-25 16:20:12.575
102.0, 16718.568410702756, 34999.12142743128, -45717.498149573585, -48142.28244331866, -36895.66694446409, -46040.92789184188, -29023.36019556048, -8967.832799891568, -0.09, 0.9540000000000001, 0.28400000000000003, 192.0, 0.0, 0.0, 0.0, 0.0, 0.0, 0.0, 0.0, 0.0, 0.0, 1.700947212579825E9, 0.0, 2023-11-25 16:20:12.579
103.0, 16766.26703337038, 35055.20195426964, -45748.298853433, -48144.38350729746, -36917.97398543048, -45823.60188050293, -29052.66333254139, -8994.476079282294, -0.09, 0.9540000000000001, 0.28400000000000003, 192.0, 0.0, 0.0, 0.0, 0.0, 0.0, 0.0, 0.0, 0.0, 0.0, 1.700947212582831E9, 0.0, 2023-11-25 16:20:12.582
104.0, 16940.141253488215, 35111.975385186124, -45744.61081559787, -48141.43307702936, -36807.064629443244, -45663.29516926946, -29068.868347271487, -9012.670399268914, -0.09, 0.9540000000000001, 0.28400000000000003, 192.0, 0.0, 0.0, 0.0, 0.0, 0.0, 0.0, 0.0, 0.0, 0.0, 1.70094721258685E9, 0.0, 2023-11-25 16:20:12.586
105.0, 17068.66378410623, 35041.433279685174, -45701.650762754776, -48171.63028378848, -36527.4219545629, -45728.85283575688, -29090.6165946265, -9040.207748437851, -0.09, 0.9540000000000001, 0.28400000000000003, 192.0, 0.0, 0.0, 0.0, 0.0, 0.0, 0.0, 0.0, 0.0, 0.0, 1.700947212591941E9, 0.0, 2023-11-25 16:20:12.591
106.0, 16767.854007226706, 35006.87748275727, -45714.03362918301, -48146.90925442091, -36837.99944376939, -46041.77725813118, -29051.970428463275, -8996.666550238913, -0.09, 0.9540000000000001, 0.28400000000000003, 192.0, 0.0, 0.0, 0.0, 0.0, 0.0, 0.0, 0.0, 0.0, 0.0, 1.70094721259584E9, 0.0, 2023-11-25 16:20:12.595
107.0, 16753.817111708773, 35053.14559377976, -45731.22212066915, -48140.15902759541, -36925.68533726756, -45880.01768350812, -29061.581678579056, -9010.479928312294, -0.096, 0.9460000000000001, 0.28200000000000003, 192.0, 253.0, 0.0, 29.0, 144.0, 8.0, 208.0, 0.0, 0.0, 0.0, 1.700947212599943E9, 0.0, 2023-11-25 16:20:12.599
108.0, 16910.569895573844, 35117.362155599854, -45729.29987064599, -48125.20571055481, -36835.38428966812, -45679.85781191085, -29063.638039068945, -9012.715102757824, -0.096, 0.9460000000000001, 0.28200000000000003, 192.0, 0.0, 0.0, 0.0, 0.0, 0.0, 0.0, 0.0, 0.0, 0.0, 1.700947212602873E9, 0.0, 2023-11-25 16:20:12.602
109.0, 17080.84548483437, 35051.17864026769, -45684.66343696874, -48153.637129501956, -36534.97684418879, -45683.47879451261, -29083.061705000608, -9045.907443273956, -0.096, 0.9460000000000001, 0.28200000000000003, 192.0, 0.0, 0.0, 0.0, 0.0, 0.0, 0.0, 0.0, 0.0, 0.0, 1.700947212606861E9, 0.0, 2023-11-25 16:20:12.606
110.0, 16815.172650238594, 34987.38676159224, -45700.801396465475, -48140.33784155105, -36754.582733462186, -46000.53828961114, -29047.36596910548, -9007.574201533103, -0.096, 0.9460000000000001, 0.28200000000000003, 192.0, 0.0, 0.0, 0.0, 0.0, 0.0, 0.0, 0.0, 0.0, 0.0, 1.700947212610874E9, 0.0, 2023-11-25 16:20:12.610
111.0, 16729.83368990823, 35028.022233011994, -45712.31254485995, -48117.829634884554, -36918.242206363946, -45909.23141351121, -29034.826640466054, -8996.30892232763, -0.096, 0.9460000000000001, 0.28200000000000003, 192.0, 0.0, 0.0, 0.0, 0.0, 0.0, 0.0, 0.0, 0.0, 0.0, 1.700947212614884E9, 0.0, 2023-11-25 16:20:12.614
112.0, 16874.091848622782, 35095.16687335573, -45730.46216135766, -48112.39816098192, -36851.745766609405, -45681.534192745, -29051.210469151792, -9010.50228005675, -0.096, 0.9460000000000001, 0.28200000000000003, 192.0, 0.0, 0.0, 0.0, 0.0, 0.0, 0.0, 0.0, 0.0, 0.0, 1.700947212619897E9, 0.0, 2023-11-25 16:20:12.619
113.0, 17069.93783354018, 35056.408948470234, -45685.11047185784, -48141.47778051827, -36575.96994351983, -45643.75974461553, -29075.015076996697, -9043.091123472586, -0.096, 0.9460000000000001, 0.28200000000000003, 192.0, 0.0, 0.0, 0.0, 0.0, 0.0, 0.0, 0.0, 0.0, 0.0, 1.700947212624002E9, 0.0, 2023-11-25 16:20:12.624
114.0, 16874.85180793426, 34980.99416267803, -45695.36992256283, -48151.893693434446, -36683.92886923896, -45941.52968424913, -29062.408693123904, -9029.255393654752, -0.096, 0.9460000000000001, 0.28200000000000003, 192.0, 0.0, 0.0, 0.0, 0.0, 0.0, 0.0, 0.0, 0.0, 0.0, 1.700947212627929E9, 0.0, 2023-11-25 16:20:12.627
115.0, 16717.428471735533, 35016.39932589523, -45703.75182673357, -48127.977326867265, -36935.87773273918, -45959.07580364654, -29039.989893435228, -9007.171870132908, -0.096, 0.9460000000000001, 0.28200000000000003, 192.0, 0.0, 0.0, 0.0, 0.0, 0.0, 0.0, 0.0, 0.0, 0.0, 1.700947212630977E9, 0.0, 2023-11-25 16:20:12.630
116.0, 16844.65460117514, 35079.967687126125, -45730.57392007994, -48134.34757403703, -36882.367656513175, -45712.603117537874, -29062.52045184618, -9031.512919844738, -0.096, 0.9460000000000001, 0.28200000000000003, 192.0, 0.0, 0.0, 0.0, 0.0, 0.0, 0.0, 0.0, 0.0, 0.0, 1.700947212634951E9, 0.0, 2023-11-25 16:20:12.634
117.0, 17048.927193752195, 35064.99201834107, -45686.92096315872, -48154.08416439106, -36643.0475286302, -45639.065878279915, -29071.95288800632, -9049.796646809178, -0.10400000000000001, 0.9480000000000001, 0.28800000000000003, 192.0, 252.0, 192.0, 29.0, 160.0, 9.0, 0.0, 0.0, 0.0, 0.0, 1.700947212638981E9, 0.0, 2023-11-25 16:20:12.638
118.0, 16945.483320413034, 34979.787168477436, -45679.6342944663, -48175.85476349053, -36619.220569040845, -45878.430709651795, -29061.335809390046, -9037.614946081036, -0.10400000000000001, 0.9480000000000001, 0.28800000000000003, 192.0, 0.0, 0.0, 0.0, 0.0, 0.0, 0.0, 0.0, 0.0, 0.0, 1.700947212642997E9, 0.0, 2023-11-25 16:20:12.642
119.0, 16699.30120698228, 34986.80561623641, -45699.952030176166, -48157.21340861481, -36945.712500299516, -45999.89008902194, -29029.752794474698, -9004.176736375897, -0.10400000000000001, 0.9480000000000001, 0.28800000000000003, 192.0, 0.0, 0.0, 0.0, 0.0, 0.0, 0.0, 0.0, 0.0, 0.0, 1.700947212647928E9, 0.0, 2023-11-25 16:20:12.647
120.0, 16815.396167683146, 35059.962875838624, -45717.162873406756, -48149.367946310995, -36899.64555497713, -45734.30666140398, -29035.40778582189, -9006.903649199445, -0.10400000000000001, 0.9480000000000001, 0.28800000000000003, 192.0, 0.0, 0.0, 0.0, 0.0, 0.0, 0.0, 0.0, 0.0, 0.0, 1.700947212651992E9, 0.0, 2023-11-25 16:20:12.651
121.0, 17014.930190435673, 35072.61396320033, -45682.5847247344, -48152.117210879, -36703.50899738181, -45614.05427623443, -29039.922838201863, -9009.474099811805, -0.10400000000000001, 0.9480000000000001, 0.28800000000000003, 192.0, 0.0, 0.0, 0.0, 0.0, 0.0, 0.0, 0.0, 0.0, 0.0, 1.700947212657093E9, 0.0, 2023-11-25 16:20:12.657
122.0, 17001.787364695952, 34977.64140100973, -45670.67124493972, -48180.548629826146, -36561.486013112786, -45786.74385389613, -29043.18619289234, -9014.145614402963, -0.10400000000000001, 0.9480000000000001, 0.28800000000000003, 192.0, 0.0, 0.0, 0.0, 0.0, 0.0, 0.0, 0.0, 0.0, 0.0, 1.700947212659014E9, 0.0, 2023-11-25 16:20:12.659
123.0, 16694.11560226865, 34956.76487168847, -45705.67407675673, -48159.69445224934, -36930.245093136444, -46004.20397570181, -29009.41270702037, -8981.534419242671, -0.10400000000000001, 0.9480000000000001, 0.28800000000000003, 192.0, 0.0, 0.0, 0.0, 0.0, 0.0, 0.0, 0.0, 0.0, 0.0, 1.700947212662967E9, 0.0, 2023-11-25 16:20:12.662
124.0, 16774.157199163103, 35026.50231438903, -45728.85283575688, -48148.160952110404, -36917.325784841276, -45755.741984336615, -29019.806268192086, -8995.124279871497, -0.10400000000000001, 0.9480000000000001, 0.28800000000000003, 192.0, 0.0, 0.0, 0.0, 0.0, 0.0, 0.0, 0.0, 0.0, 0.0, 1.700947212666999E9, 0.0, 2023-11-25 16:20:12.666
125.0, 16960.235471753535, 35061.41573922822, -45717.60990829586, -48148.33976606605, -36774.2299168384, -45618.27875593648, -29036.525373044657, -9015.73258825929, -0.10400000000000001, 0.9480000000000001, 0.28800000000000003, 192.0, 0.0, 0.0, 0.0, 0.0, 0.0, 0.0, 0.0, 0.0, 0.0, 1.70094721267103E9, 0.0, 2023-11-25 16:20:12.671
126.0, 17036.141995923757, 34985.68802901364, -45681.7353584451, -48169.66333027641, -36546.95737921684, -45733.09966720339, -29044.75081500421, -9033.055190212153, -0.10400000000000001, 0.9480000000000001, 0.28800000000000003, 192.0, 0.0, 0.0, 0.0, 0.0, 0.0, 0.0, 0.0, 0.0, 0.0, 1.700947212675022E9, 0.0, 2023-11-25 16:20:12.675
127.0, 16719.618942692156, 34963.80567119189, -45705.60702152336, -48141.544835751636, -36903.3112410678, -46012.943507783835, -29005.724669185245, -8991.145669358453, -0.098, 0.9440000000000001, 0.28800000000000003, 192.0, 252.0, 240.0, 29.0, 128.0, 9.0, 0.0, 0.0, 0.0, 0.0, 1.700947212680028E9, 0.0, 2023-11-25 16:20:12.680
128.0, 16753.101855886205, 35021.853151542324, -45734.977213737635, -48137.87914966096, -36930.69212802555, -45802.03244710356, -29028.12111712946, -9013.586820791581, -0.098, 0.9440000000000001, 0.28800000000000003, 192.0, 0.0, 0.0, 0.0, 0.0, 0.0, 0.0, 0.0, 0.0, 0.0, 1.700947212684146E9, 0.0, 2023-11-25 16:20:12.684
129.0, 16922.483375368523, 35083.096931349864, -45730.5962718244, -48125.04924834362, -36818.70988830446, -45633.76851484401, -29038.98406493474, -9022.706332529347, -0.098, 0.9440000000000001, 0.28800000000000003, 192.0, 0.0, 0.0, 0.0, 0.0, 0.0, 0.0, 0.0, 0.0, 0.0, 1.700947212687147E9, 0.0, 2023-11-25 16:20:12.687
130.0, 17062.47235089211, 35011.70545955962, -45686.27276256952, -48153.45831554632, -36533.74749824375, -45683.07646311241, -29056.530184332158, -9047.852045041567, -0.098, 0.9440000000000001, 0.28800000000000003, 192.0, 0.0, 0.0, 0.0, 0.0, 0.0, 0.0, 0.0, 0.0, 0.0, 1.700947212691073E9, 0.0, 2023-11-25 16:20:12.691
131.0, 16758.26510885538, 34966.48788052653, -45701.986038921605, -48136.04630661563, -36834.08788848971, -45997.0067139872, -29020.655634481387, -9008.088291655577, -0.098, 0.9440000000000001, 0.28800000000000003, 192.0, 0.0, 0.0, 0.0, 0.0, 0.0, 0.0, 0.0, 0.0, 0.0, 1.700947212695367E9, 0.0, 2023-11-25 16:20:12.695
132.0, 16736.293344055815, 35012.17484619318, -45716.939355962204, -48133.1629315809, -36936.01184320591, -45850.043994193555, -29024.65659673889, -9018.861832483033, -0.098, 0.9440000000000001, 0.28800000000000003, 192.0, 0.0, 0.0, 0.0, 0.0, 0.0, 0.0, 0.0, 0.0, 0.0, 1.700947212699493E9, 0.0, 2023-11-25 16:20:12.699
133.0, 16890.49802905298, 35071.63048644429, -45727.28821364501, -48136.40393452692, -36862.362845225674, -45655.60616917684, -29040.83925972453, -9032.854024512057, -0.098, 0.9440000000000001, 0.28800000000000003, 192.0, 0.0, 0.0, 0.0, 0.0, 0.0, 0.0, 0.0, 0.0, 0.0, 1.700947212703105E9, 0.0, 2023-11-25 16:20:12.703
134.0, 17065.60159511585, 35009.514988603, -45684.81989917993, -48174.49130707876, -36572.4830713848, -45658.60130293385, -29061.626382067967, -9060.816056825644, -0.098, 0.9440000000000001, 0.28800000000000003, 192.0, 0.0, 0.0, 0.0, 0.0, 0.0, 0.0, 0.0, 0.0, 0.0, 1.700947212708116E9, 0.0, 2023-11-25 16:20:12.708
135.0, 16799.057042486314, 34939.3975662467, -45704.064751155944, -48176.570019313105, -36783.438835553985, -45978.79004225612, -29036.97240793376, -9029.076579699109, -0.098, 0.9440000000000001, 0.28800000000000003, 192.0, 0.0, 0.0, 0.0, 0.0, 0.0, 0.0, 0.0, 0.0, 0.0, 1.700947212712083E9, 0.0, 2023-11-25 16:20:12.712
136.0, 16699.234151748915, 34980.413017322186, -45715.17356815023, -48161.43788831686, -36967.438395910074, -45913.70176240227, -29027.003529906695, -9020.247640639263, -0.098, 0.9440000000000001, 0.28800000000000003, 192.0, 0.0, 0.0, 0.0, 0.0, 0.0, 0.0, 0.0, 0.0, 0.0, 1.700947212715104E9, 0.0, 2023-11-25 16:20:12.715
137.0, 16845.57102269781, 35059.58289618289, -45728.338745634406, -48154.17357136888, -36902.216005589486, -45689.29024807099, -29040.973370191263, -9032.228175667307, -0.08600000000000001, 0.9480000000000001, 0.28600000000000003, 192.0, 253.0, 80.0, 29.0, 160.0, 8.0, 240.0, 0.0, 0.0, 0.0, 1.700947212719092E9, 0.0, 2023-11-25 16:20:12.719
138.0, 17051.385885642278, 35028.0669365009, -45682.00357937856, -48179.431042603384, -36623.37799350953, -45642.66450913722, -29056.79840526562, -9059.206731224864, -0.08600000000000001, 0.9480000000000001, 0.28600000000000003, 192.0, 0.0, 0.0, 0.0, 0.0, 0.0, 0.0, 0.0, 0.0, 0.0, 1.700947212723188E9, 0.0, 2023-11-25 16:20:12.723
139.0, 16875.231787590004, 34956.20607807709, -45679.2319630661, -48179.76631877021, -36696.98228800086, -45931.359640521965, -29029.12694562995, -9033.368114634528, -0.08600000000000001, 0.9480000000000001, 0.28600000000000003, 192.0, 0.0, 0.0, 0.0, 0.0, 0.0, 0.0, 0.0, 0.0, 0.0, 1.700947212729137E9, 0.0, 2023-11-25 16:20:12.729
140.0, 16701.871657594642, 34986.40328483621, -45684.75284394656, -48144.85289393102, -36958.09536672776, -45961.981530425735, -28999.376773759937, -9006.188393376875, -0.08600000000000001, 0.9480000000000001, 0.28600000000000003, 192.0, 0.0, 0.0, 0.0, 0.0, 0.0, 0.0, 0.0, 0.0, 0.0, 1.700947212732179E9, 0.0, 2023-11-25 16:20:12.732
141.0, 16830.550650423844, 35049.70342513364, -45711.351419848375, -48148.27271083269, -36902.52893001186, -45710.07737041442, -29023.427250793848, -9027.73547503179, -0.08600000000000001, 0.9480000000000001, 0.28600000000000003, 192.0, 0.0, 0.0, 0.0, 0.0, 0.0, 0.0, 0.0, 0.0, 0.0, 1.70094721273614E9, 0.0, 2023-11-25 16:20:12.736
142.0, 17025.94960045214, 35031.91143654721, -45686.42922478071, -48179.02871120319, -36678.0056569583, -45643.536227170975, -29051.16576566288, -9063.095934760087, -0.08600000000000001, 0.9480000000000001, 0.28600000000000003, 192.0, 0.0, 0.0, 0.0, 0.0, 0.0, 0.0, 0.0, 0.0, 0.0, 1.700947212740127E9, 0.0, 2023-11-25 16:20:12.740
143.0, 16930.462948139066, 34941.31981626985, -45687.27859107001, -48206.476653394304, -36639.58300823963, -45886.834965566995, -29033.150259631904, -9058.580882380114, -0.08600000000000001, 0.9480000000000001, 0.28600000000000003, 192.0, 0.0, 0.0, 0.0, 0.0, 0.0, 0.0, 0.0, 0.0, 0.0, 1.700947212743156E9, 0.0, 2023-11-25 16:20:12.743
144.0, 16685.01844227534, 34961.14581360171, -45698.499166786576, -48172.83727798906, -36976.93788730358, -46027.44978993533, -28990.056096322074, -9012.804509735646, -0.08600000000000001, 0.9480000000000001, 0.28600000000000003, 192.0, 0.0, 0.0, 0.0, 0.0, 0.0, 0.0, 0.0, 0.0, 0.0, 1.700947212748198E9, 0.0, 2023-11-25 16:20:12.748
145.0, 16796.888923274153, 35035.152439493235, -45722.84021649841, -48169.43981283186, -36939.74458452995, -45774.22687700116, -29015.738250701223, -9029.16598667693, -0.08600000000000001, 0.9480000000000001, 0.28600000000000003, 192.0, 0.0, 0.0, 0.0, 0.0, 0.0, 0.0, 0.0, 0.0, 0.0, 1.700947212751188E9, 0.0, 2023-11-25 16:20:12.751
146.0, 16989.60566396781, 35049.94929432265, -45701.42724531022, -48177.37468211349, -36754.11334682862, -45661.641140179774, -29041.286294613637, -9052.210635210353, -0.08600000000000001, 0.9480000000000001, 0.28600000000000003, 192.0, 0.0, 0.0, 0.0, 0.0, 0.0, 0.0, 0.0, 0.0, 0.0, 1.700947212755243E9, 0.0, 2023-11-25 16:20:12.755
147.0, 16995.350062292822, 34966.13025261524, -45684.23875382409, -48199.48055737979, -36590.967964049334, -45827.69224973825, -29057.73717853274, -9067.253359228773, -0.084, 0.9520000000000001, 0.29, 192.0, 253.0, 96.0, 29.0, 192.0, 9.0, 16.0, 0.0, 0.0, 0.0, 1.700947212759219E9, 0.0, 2023-11-25 16:20:12.759
148.0, 16691.478096422925, 34956.31783679937, -45718.414571096255, -48171.78674599967, -36962.09632898526, -46059.09986008405, -29037.307684100593, -9032.474044856315, -0.084, 0.9520000000000001, 0.29, 192.0, 0.0, 0.0, 0.0, 0.0, 0.0, 0.0, 0.0, 0.0, 0.0, 1.700947212763616E9, 0.0, 2023-11-25 16:20:12.763
149.0, 16767.429324082055, 35027.821067311896, -45745.01314699807, -48161.72846099478, -36954.04970098135, -45814.23649957615, -29064.040370469138, -9046.846216541078, -0.084, 0.9520000000000001, 0.29, 192.0, 0.0, 0.0, 0.0, 0.0, 0.0, 0.0, 0.0, 0.0, 0.0, 1.700947212768228E9, 0.0, 2023-11-25 16:20:12.768
150.0, 16949.707800115088, 35072.546907966964, -45728.897539245794, -48150.82080970059, -36808.3386788772, -45661.305864012946, -29082.882891044963, -9053.372925922027, -0.084, 0.9520000000000001, 0.29, 192.0, 0.0, 0.0, 0.0, 0.0, 0.0, 0.0, 0.0, 0.0, 0.0, 1.700947212771219E9, 0.0, 2023-11-25 16:20:12.771
151.0, 17031.492833077053, 34992.03592443895, -45694.20763185115, -48173.64194078946, -36556.658036310444, -45750.1987517117, -29098.573815652588, -9065.107591761063, -0.084, 0.9520000000000001, 0.29, 192.0, 0.0, 0.0, 0.0, 0.0, 0.0, 0.0, 0.0, 0.0, 0.0, 1.700947212775241E9, 0.0, 2023-11-25 16:20:12.775
152.0, 16709.471250709445, 34955.244953065514, -45724.47189384364, -48155.46997254729, -36904.74175271294, -46035.317603983596, -29064.57681233607, -9027.26608839823, -0.084, 0.9520000000000001, 0.29, 192.0, 0.0, 0.0, 0.0, 0.0, 0.0, 0.0, 0.0, 0.0, 0.0, 1.700947212779284E9, 0.0, 2023-11-25 16:20:12.779
153.0, 16742.596535992212, 35011.83957002635, -45743.18030395274, -48150.88786493395, -36947.5676950893, -45828.13928462735, -29078.479597387268, -9044.342821162083, -0.084, 0.9520000000000001, 0.29, 192.0, 0.0, 0.0, 0.0, 0.0, 0.0, 0.0, 0.0, 0.0, 0.0, 1.70094721278325E9, 0.0, 2023-11-25 16:20:12.783
154.0, 16919.354131144777, 35070.49054747707, -45734.88780675981, -48142.930643907865, -36841.06163275977, -45647.112506283825, -29080.446550899334, -9045.21453919584, -0.084, 0.9520000000000001, 0.29, 192.0, 0.0, 0.0, 0.0, 0.0, 0.0, 0.0, 0.0, 0.0, 0.0, 1.700947212787286E9, 0.0, 2023-11-25 16:20:12.787
155.0, 17068.75319108405, 35006.45279961262, -45678.87433515482, -48165.304740107626, -36543.00112044825, -45680.0813293554, -29080.960641021808, -9054.021126511232, -0.084, 0.9520000000000001, 0.29, 192.0, 0.0, 0.0, 0.0, 0.0, 0.0, 0.0, 0.0, 0.0, 0.0, 1.700947212791305E9, 0.0, 2023-11-25 16:20:12.791
156.0, 16764.94828044752, 34954.06031060938, -45697.7392074751, -48153.570074268595, -36819.06751621575, -45998.750150054715, -29036.011282922183, -9011.798681235157, -0.084, 0.9520000000000001, 0.29, 192.0, 0.0, 0.0, 0.0, 0.0, 0.0, 0.0, 0.0, 0.0, 0.0, 1.700947212797058E9, 0.0, 2023-11-25 16:20:12.797
157.0, 16732.87352715415, 35014.45472412762, -45697.649800497275, -48131.62066121348, -36930.42390709209, -45858.82822976449, -29017.794611191108, -8997.270047339207, -0.094, 0.9480000000000001, 0.294, 192.0, 253.0, 16.0, 29.0, 160.0, 9.0, 48.0, 0.0, 0.0, 0.0, 1.700947212799409E9, 0.0, 2023-11-25 16:20:12.799
158.0, 16885.40183131717, 35076.01142835754, -45710.88203321482, -48135.39810602643, -36856.48433643393, -45653.70627089814, -29031.920913686863, -9011.776329490702, -0.094, 0.9480000000000001, 0.294, 192.0, 0.0, 0.0, 0.0, 0.0, 0.0, 0.0, 0.0, 0.0, 0.0, 1.70094721280236E9, 0.0, 2023-11-25 16:20:12.802
159.0, 17068.440266661677, 35019.05918348541, -45667.38553850479, -48170.15506865443, -36563.587077091586, -45649.3253289849, -29051.143413918428, -9036.07267571362, -0.094, 0.9480000000000001, 0.294, 192.0, 0.0, 0.0, 0.0, 0.0, 0.0, 0.0, 0.0, 0.0, 0.0, 1.700947212807352E9, 0.0, 2023-11-25 16:20:12.807
160.0, 16826.504984677435, 34950.841659407815, -45683.00940787905, -48169.43981283186, -36744.9714833464, -45964.216704871265, -29024.164858360873, -9004.959047431832, -0.094, 0.9480000000000001, 0.294, 192.0, 0.0, 0.0, 0.0, 0.0, 0.0, 0.0, 0.0, 0.0, 0.0, 1.700947212811395E9, 0.0, 2023-11-25 16:20:12.811
161.0, 16716.668512424054, 34996.19334890763, -45686.183355591704, -48138.81792292809, -36936.72709902848, -45906.99623906568, -28996.471046980747, -8972.414907504906, -0.094, 0.9480000000000001, 0.294, 192.0, 0.0, 0.0, 0.0, 0.0, 0.0, 0.0, 0.0, 0.0, 0.0, 1.700947212815521E9, 0.0, 2023-11-25 16:20:12.815
162.0, 16855.249328046957, 35069.50707072104, -45701.09196914339, -48126.88209138896, -36869.4036447291, -45662.08817506888, -29003.89182613991, -8971.789058660157, -0.094, 0.9480000000000001, 0.294, 192.0, 0.0, 0.0, 0.0, 0.0, 0.0, 0.0, 0.0, 0.0, 0.0, 1.700947212819416E9, 0.0, 2023-11-25 16:20:12.819
163.0, 17061.08654273588, 35043.71315761962, -45657.14843954425, -48149.59146375555, -36599.39457170899, -45606.87936626427, -29026.332977573038, -9002.50035554175, -0.094, 0.9480000000000001, 0.294, 192.0, 0.0, 0.0, 0.0, 0.0, 0.0, 0.0, 0.0, 0.0, 0.0, 1.700947212824546E9, 0.0, 2023-11-25 16:20:12.824
164.0, 16896.644758778188, 34965.34794155931, -45666.3797100043, -48163.22602787329, -36656.23505785884, -45890.56770689103, -29017.12405885745, -8995.705425227336, -0.094, 0.9480000000000001, 0.294, 192.0, 0.0, 0.0, 0.0, 0.0, 0.0, 0.0, 0.0, 0.0, 0.0, 1.700947212827628E9, 0.0, 2023-11-25 16:20:12.827
165.0, 16705.78321287432, 34995.14281691823, -45680.05897761095, -48131.66536470239, -36938.425831607085, -45947.45289652979, -28983.752904385678, -8969.375070258984, -0.094, 0.9480000000000001, 0.294, 192.0, 0.0, 0.0, 0.0, 0.0, 0.0, 0.0, 0.0, 0.0, 0.0, 1.700947212830426E9, 0.0, 2023-11-25 16:20:12.830
166.0, 16832.674066147098, 35073.21746030062, -45701.96368717714, -48122.165873308884, -36882.76998791337, -45694.67701848472, -29000.136733071417, -8984.641311721958, -0.094, 0.9480000000000001, 0.294, 192.0, 0.0, 0.0, 0.0, 0.0, 0.0, 0.0, 0.0, 0.0, 0.0, 1.700947212835408E9, 0.0, 2023-11-25 16:20:12.835
167.0, 17029.21295514261, 35066.266067775025, -45671.85588739585, -48140.1143241065, -36655.74331948082, -45610.25447967702, -29022.35436705999, -9015.933753959389, -0.098, 0.9460000000000001, 0.28600000000000003, 192.0, 252.0, 240.0, 29.0, 144.0, 8.0, 240.0, 0.0, 0.0, 0.0, 1.700947212839441E9, 0.0, 2023-11-25 16:20:12.839
168.0, 16961.576576420855, 34984.816310979884, -45664.32334951441, -48158.88978944896, -36588.41986518143, -45838.17521788779, -29019.761564703178, -9012.692751013368, -0.098, 0.9460000000000001, 0.28600000000000003, 192.0, 0.0, 0.0, 0.0, 0.0, 0.0, 0.0, 0.0, 0.0, 0.0, 1.700947212843423E9, 0.0, 2023-11-25 16:20:12.843
169.0, 16704.576218673734, 34999.568462320385, -45682.964704390135, -48129.25137630122, -36936.59298856175, -45999.77833029966, -28992.067753323052, -8972.280797038175, -0.098, 0.9460000000000001, 0.28600000000000003, 192.0, 0.0, 0.0, 0.0, 0.0, 0.0, 0.0, 0.0, 0.0, 0.0, 1.700947212847444E9, 0.0, 2023-11-25 16:20:12.847
170.0, 16808.869458302197, 35065.81903288591, -45716.51467281755, -48135.308699048604, -36904.78645620185, -45740.96748125166, -29023.494306027213, -9002.388596819472, -0.098, 0.9460000000000001, 0.28600000000000003, 192.0, 0.0, 0.0, 0.0, 0.0, 0.0, 0.0, 0.0, 0.0, 0.0, 1.70094721285048E9, 0.0, 2023-11-25 16:20:12.850
171.0, 16998.12167860528, 35080.12414933731, -45705.00352442307, -48156.207580114315, -36734.577922174685, -45632.65092762124, -29056.03844595414, -9031.423512866917, -0.098, 0.9460000000000001, 0.28600000000000003, 192.0, 0.0, 0.0, 0.0, 0.0, 0.0, 0.0, 0.0, 0.0, 0.0, 1.70094721285448E9, 0.0, 2023-11-25 16:20:12.854
172.0, 17018.484117804066, 34996.32745937436, -45682.49531775658, -48186.561249084625, -36561.217792179326, -45797.8079674015, -29072.042294984138, -9047.203844452362, -0.098, 0.9460000000000001, 0.28600000000000003, 192.0, 0.0, 0.0, 0.0, 0.0, 0.0, 0.0, 0.0, 0.0, 0.0, 1.700947212858523E9, 0.0, 2023-11-25 16:20:12.858
173.0, 16713.651026922587, 34980.614183022284, -45708.691562258195, -48165.170629640896, -36931.519142570396, -46047.81222913411, -29041.241591124726, -9016.090216170576, -0.098, 0.9460000000000001, 0.28600000000000003, 192.0, 0.0, 0.0, 0.0, 0.0, 0.0, 0.0, 0.0, 0.0, 0.0, 1.700947212863508E9, 0.0, 2023-11-25 16:20:12.863
174.0, 16780.259225399404, 35045.81422159842, -45734.418420126254, -48162.68958600636, -36935.006014705425, -45816.426970532775, -29070.768245550185, -9041.079466471609, -0.098, 0.9460000000000001, 0.28600000000000003, 192.0, 0.0, 0.0, 0.0, 0.0, 0.0, 0.0, 0.0, 0.0, 0.0, 1.700947212867634E9, 0.0, 2023-11-25 16:20:12.867
175.0, 16964.906986344693, 35094.8315971889, -45716.42526583973, -48150.32907132257, -36802.84014974119, -45663.98807334758, -29084.447513156836, -9048.612004353048, -0.098, 0.9460000000000001, 0.28600000000000003, 192.0, 0.0, 0.0, 0.0, 0.0, 0.0, 0.0, 0.0, 0.0, 0.0, 1.700947212871546E9, 0.0, 2023-11-25 16:20:12.871
176.0, 17065.735705582585, 35019.46151488561, -45674.13576533029, -48173.23960938926, -36540.09539366906, -45745.16960920925, -29102.060687787616, -9066.918083061944, -0.098, 0.9460000000000001, 0.28600000000000003, 192.0, 0.0, 0.0, 0.0, 0.0, 0.0, 0.0, 0.0, 0.0, 0.0, 1.70094721287551E9, 0.0, 2023-11-25 16:20:12.875
177.0, 16743.98234414844, 34984.36927609078, -45703.885937200306, -48155.35821382501, -36876.53385121034, -46040.92789184188, -29072.064646728595, -9027.444902353871, -0.098, 0.9460000000000001, 0.28200000000000003, 192.0, 252.0, 240.0, 29.0, 144.0, 8.0, 208.0, 0.0, 0.0, 0.0, 1.700947212879552E9, 0.0, 2023-11-25 16:20:12.879
178.0, 16762.377829835157, 35044.54017216447, -45719.50980657456, -48142.39420204094, -36926.467648323494, -45842.712622012215, -29066.119082703484, -9024.852099997057, -0.098, 0.9460000000000001, 0.28200000000000003, 192.0, 0.0, 0.0, 0.0, 0.0, 0.0, 0.0, 0.0, 0.0, 0.0, 1.700947212883562E9, 0.0, 2023-11-25 16:20:12.883
179.0, 16931.334666172825, 35102.833521703906, -45721.11913217534, -48137.14154209394, -36826.86827503065, -45656.29907325495, -29074.009248496208, -9034.329239646106, -0.098, 0.9460000000000001, 0.28200000000000003, 192.0, 0.0, 0.0, 0.0, 0.0, 0.0, 0.0, 0.0, 0.0, 0.0, 1.700947212886595E9, 0.0, 2023-11-25 16:20:12.886
180.0, 17083.192418002178, 35031.48675340256, -45676.19212582018, -48169.506868065226, -36537.39083258997, -45687.792681192484, -29088.537882392156, -9055.116361989541, -0.098, 0.9460000000000001, 0.28200000000000003, 192.0, 0.0, 0.0, 0.0, 0.0, 0.0, 0.0, 0.0, 0.0, 0.0, 1.700947212890711E9, 0.0, 2023-11-25 16:20:12.890
181.0, 16790.876304015674, 34980.16714813318, -45690.94427716068, -48153.30185333513, -36804.71769627544, -46001.72293206727, -29045.84605048252, -9005.8754689545, -0.098, 0.9460000000000001, 0.28200000000000003, 192.0, 0.0, 0.0, 0.0, 0.0, 0.0, 0.0, 0.0, 0.0, 0.0, 1.700947212895715E9, 0.0, 2023-11-25 16:20:12.895
182.0, 16738.79673943481, 35030.79384932445, -45702.56718427744, -48138.326184550075, -36931.228569892475, -45876.10612822844, -29040.392224835425, -9003.528535786692, -0.098, 0.9460000000000001, 0.28200000000000003, 192.0, 0.0, 0.0, 0.0, 0.0, 0.0, 0.0, 0.0, 0.0, 0.0, 1.700947212899664E9, 0.0, 2023-11-25 16:20:12.899
183.0, 16885.804162717362, 35096.17270185622, -45710.56910879244, -48128.42436175637, -36852.28220847633, -45659.80829713444, -29041.062777169085, -9010.792852734668, -0.098, 0.9460000000000001, 0.28200000000000003, 192.0, 0.0, 0.0, 0.0, 0.0, 0.0, 0.0, 0.0, 0.0, 0.0, 1.700947212903641E9, 0.0, 2023-11-25 16:20:12.903
184.0, 17064.394600915268, 35034.995977282044, -45671.67707344021, -48161.84021971706, -36559.161431689434, -45637.389497445765, -29062.90043150192, -9042.666440327936, -0.098, 0.9460000000000001, 0.28200000000000003, 192.0, 0.0, 0.0, 0.0, 0.0, 0.0, 0.0, 0.0, 0.0, 0.0, 1.700947212907155E9, 0.0, 2023-11-25 16:20:12.907
185.0, 16830.23772600147, 34967.58311600484, -45688.01619863704, -48159.20271387133, -36722.15035225754, -45943.49663776119, -29033.776108476653, -9003.886163697978, -0.098, 0.9460000000000001, 0.28200000000000003, 192.0, 0.0, 0.0, 0.0, 0.0, 0.0, 0.0, 0.0, 0.0, 0.0, 1.700947212910586E9, 0.0, 2023-11-25 16:20:12.910
186.0, 16705.269122751848, 35005.13404668976, -45703.595364522385, -48138.594405483535, -36937.57646531778, -45910.393704222886, -29016.27469256815, -8984.618959977504, -0.098, 0.9460000000000001, 0.28200000000000003, 192.0, 0.0, 0.0, 0.0, 0.0, 0.0, 0.0, 0.0, 0.0, 0.0, 1.700947212914664E9, 0.0, 2023-11-25 16:20:12.914
187.0, 16849.214357044024, 35080.21355631513, -45719.80037925248, -48132.179454824865, -36879.43957798953, -45678.29318979898, -29026.578846762044, -8995.057224638133, -0.1, 0.9540000000000001, 0.28600000000000003, 192.0, 252.0, 224.0, 29.0, 208.0, 8.0, 240.0, 0.0, 0.0, 0.0, 1.700947212918599E9, 0.0, 2023-11-25 16:20:12.918
188.0, 17061.33241192489, 35062.22040202861, -45673.35345427435, -48152.72070797929, -36617.3430225066, -45619.70926758162, -29038.02293992316, -9021.186413906385, -0.1, 0.9540000000000001, 0.28600000000000003, 192.0, 0.0, 0.0, 0.0, 0.0, 0.0, 0.0, 0.0, 0.0, 0.0, 1.70094721292386E9, 0.0, 2023-11-25 16:20:12.923
189.0, 16919.77881428943, 34980.256555111, -45680.2824950555, -48169.14924015394, -36646.847325187606, -45889.94185804628, -29029.685739241333, -9014.391483591973, -0.1, 0.9540000000000001, 0.28600000000000003, 192.0, 0.0, 0.0, 0.0, 0.0, 0.0, 0.0, 0.0, 0.0, 0.0, 1.700947212927647E9, 0.0, 2023-11-25 16:20:12.927
190.0, 16716.82497463524, 35010.45376187012, -45691.27955332751, -48135.9121961489, -36935.497753083444, -45961.400385069894, -28996.672212680845, -8977.689919196358, -0.1, 0.9540000000000001, 0.28600000000000003, 192.0, 0.0, 0.0, 0.0, 0.0, 0.0, 0.0, 0.0, 0.0, 0.0, 1.70094721293164E9, 0.0, 2023-11-25 16:20:12.931
191.0, 16842.19590928506, 35089.51188200854, -45712.31254485995, -48129.56430072359, -36879.90896462309, -45703.34949533338, -29018.040480380118, -8991.391538547461, -0.1, 0.9540000000000001, 0.28600000000000003, 192.0, 0.0, 0.0, 0.0, 0.0, 0.0, 0.0, 0.0, 0.0, 0.0, 1.700947212934704E9, 0.0, 2023-11-25 16:20:12.934
192.0, 17044.166272183214, 35094.8315971889, -45680.37190203332, -48141.76835319619, -36662.091214906126, -45612.24378493355, -29048.7070737728, -9019.30886737214, -0.1, 0.9540000000000001, 0.28600000000000003, 192.0, 0.0, 0.0, 0.0, 0.0, 0.0, 0.0, 0.0, 0.0, 0.0, 1.700947212938692E9, 0.0, 2023-11-25 16:20:12.938
193.0, 16994.858323914807, 35017.49456137354, -45663.250465780555, -48152.25132134573, -36569.7785103057, -45827.2675665936, -29050.27169588467, -9014.59264929207, -0.1, 0.9540000000000001, 0.28600000000000003, 192.0, 0.0, 0.0, 0.0, 0.0, 0.0, 0.0, 0.0, 0.0, 0.0, 1.700947212942648E9, 0.0, 2023-11-25 16:20:12.942
194.0, 16728.246716051905, 35018.589796851855, -45683.27762881251, -48122.50114947571, -36920.92441569858, -46001.09708322252, -29011.603177976987, -8980.841515164557, -0.1, 0.9540000000000001, 0.28600000000000003, 192.0, 0.0, 0.0, 0.0, 0.0, 0.0, 0.0, 0.0, 0.0, 0.0, 1.700947212946702E9, 0.0, 2023-11-25 16:20:12.946
195.0, 16827.689627133564, 35082.404027271754, -45715.17356815023, -48126.300946033116, -36894.48230200795, -45748.410612155276, -29041.5545155471, -9012.759806246735, -0.1, 0.9540000000000001, 0.28600000000000003, 192.0, 0.0, 0.0, 0.0, 0.0, 0.0, 0.0, 0.0, 0.0, 0.0, 1.700947212951706E9, 0.0, 2023-11-25 16:20:12.951
196.0, 17016.114832891803, 35107.46033280615, -45694.85583244036, -48133.27469030317, -36731.22516050639, -45630.661622364714, -29060.955829734306, -9031.535271589193, -0.1, 0.9540000000000001, 0.28600000000000003, 192.0, 0.0, 0.0, 0.0, 0.0, 0.0, 0.0, 0.0, 0.0, 0.0, 1.700947212955711E9, 0.0, 2023-11-25 16:20:12.955
197.0, 17040.724103537097, 35012.75599154901, -45677.37676827631, -48172.47965007778, -36543.67167278191, -45786.095653306926, -29081.966469522296, -9057.396239923983, -0.098, 0.9480000000000001, 0.28800000000000003, 192.0, 252.0, 240.0, 29.0, 160.0, 9.0, 0.0, 0.0, 0.0, 0.0, 1.700947212959715E9, 0.0, 2023-11-25 16:20:12.959
198.0, 16730.12426258615, 35010.09613395883, -45688.843213181884, -48136.9627281383, -36912.18488361655, -46042.380755231476, -29031.02684390865, -9001.11454738552, -0.098, 0.9480000000000001, 0.28800000000000003, 192.0, 0.0, 0.0, 0.0, 0.0, 0.0, 0.0, 0.0, 0.0, 0.0, 1.700947212962776E9, 0.0, 2023-11-25 16:20:12.962
199.0, 16796.464240129502, 35076.59257371337, -45704.489434300594, -48132.06769610259, -36913.79420921734, -45795.77395865607, -29045.46607082678, -9012.715102757824, -0.098, 0.9480000000000001, 0.28800000000000003, 192.0, 0.0, 0.0, 0.0, 0.0, 0.0, 0.0, 0.0, 0.0, 0.0, 1.700947212966781E9, 0.0, 2023-11-25 16:20:12.966
200.0, 16964.16937877767, 35110.07548690742, -45703.77417847803, -48141.23191132926, -36790.56904203523, -45643.71504112662, -29069.829472283065, -9037.83846352559, -0.098, 0.9480000000000001, 0.28800000000000003, 192.0, 0.0, 0.0, 0.0, 0.0, 0.0, 0.0, 0.0, 0.0, 0.0, 1.700947212970779E9, 0.0, 2023-11-25 16:20:12.970
201.0, 17070.206054473645, 35031.12912549128, -45667.38553850479, -48173.15020241144, -36526.661995251416, -45729.791609024, -29084.961603279306, -9061.732478348313, -0.098, 0.9480000000000001, 0.28800000000000003, 192.0, 0.0, 0.0, 0.0, 0.0, 0.0, 0.0, 0.0, 0.0, 0.0, 1.700947212974745E9, 0.0, 2023-11-25 16:20:12.974
202.0, 16751.961916918983, 34995.522796573976, -45684.68578871319, -48144.875245675474, -36853.846830588205, -46036.993984817746, -29042.068605669574, -9011.64221902397, -0.098, 0.9480000000000001, 0.28800000000000003, 192.0, 0.0, 0.0, 0.0, 0.0, 0.0, 0.0, 0.0, 0.0, 0.0, 1.700947212978759E9, 0.0, 2023-11-25 16:20:12.978
203.0, 16759.8073792228, 35041.098003518346, -45709.1385971473, -48143.31062356361, -36918.868055208695, -45852.41327910582, -29054.786748264643, -9026.64023955348, -0.098, 0.9480000000000001, 0.28800000000000003, 192.0, 0.0, 0.0, 0.0, 0.0, 0.0, 0.0, 0.0, 0.0, 0.0, 1.700947212983751E9, 0.0, 2023-11-25 16:20:12.983
204.0, 16922.483375368523, 35101.15714086976, -45716.13469316181, -48137.968556638785, -36830.221036698946, -45667.296131526964, -29061.559326834602, -9034.664515812936, -0.098, 0.9480000000000001, 0.28800000000000003, 192.0, 0.0, 0.0, 0.0, 0.0, 0.0, 0.0, 0.0, 0.0, 0.0, 1.700947212987865E9, 0.0, 2023-11-25 16:20:12.987
205.0, 17082.834790090896, 35039.17575349519, -45671.20768680664, -48167.7187285088, -36539.49189656877, -45689.78198644901, -29077.27260318668, -9060.994870781287, -0.098, 0.9480000000000001, 0.28800000000000003, 192.0, 0.0, 0.0, 0.0, 0.0, 0.0, 0.0, 0.0, 0.0, 0.0, 1.700947212990905E9, 0.0, 2023-11-25 16:20:12.990
206.0, 16789.468144114988, 34966.19730784861, -45707.12694014632, -48172.14437391095, -36793.07243741422, -46007.3108681811, -29053.624457552967, -9028.338972132084, -0.098, 0.9480000000000001, 0.28800000000000003, 192.0, 0.0, 0.0, 0.0, 0.0, 0.0, 0.0, 0.0, 0.0, 0.0, 1.700947212994792E9, 0.0, 2023-11-25 16:20:12.994
207.0, 16720.043625836806, 35009.44793336963, -45720.13565541931, -48156.02876615868, -36940.90687524163, -45903.41995995283, -29041.5545155471, -9013.989152191776, -0.098, 0.9420000000000001, 0.278, 192.0, 252.0, 240.0, 29.0, 112.0, 8.0, 176.0, 0.0, 0.0, 0.0, 1.700947212998816E9, 0.0, 2023-11-25 16:20:12.998
208.0, 16873.309537566845, 35090.741227953586, -45723.10843743187, -48138.52735025017, -36865.447385960506, -45679.187259577186, -29040.92866670235, -9008.35651258904, -0.098, 0.9420000000000001, 0.278, 192.0, 0.0, 0.0, 0.0, 0.0, 0.0, 0.0, 0.0, 0.0, 0.0, 1.700947213002867E9, 0.0, 2023-11-25 16:20:13.002
209.0, 17067.255624205547, 35048.49643093305, -45675.4321665087, -48162.443716817346, -36568.0797777271, -45639.93759631367, -29057.915992488386, -9025.545004075171, -0.098, 0.9420000000000001, 0.278, 192.0, 0.0, 0.0, 0.0, 0.0, 0.0, 0.0, 0.0, 0.0, 0.0, 1.700947213006862E9, 0.0, 2023-11-25 16:20:13.006
210.0, 16857.708019937043, 34984.23516562404, -45683.0317596235, -48157.92866443738, -36698.12222696808, -45935.71823069075, -29031.496230542212, -8987.234114078774, -0.098, 0.9420000000000001, 0.278, 192.0, 0.0, 0.0, 0.0, 0.0, 0.0, 0.0, 0.0, 0.0, 0.0, 1.700947213011825E9, 0.0, 2023-11-25 16:20:13.011
211.0, 16720.445957237, 35021.36141316431, -45698.29800108648, -48137.18624558285, -36926.065316923305, -45920.11671306095, -29011.714936699267, -8964.033003334165, -0.098, 0.9420000000000001, 0.278, 192.0, 0.0, 0.0, 0.0, 0.0, 0.0, 0.0, 0.0, 0.0, 0.0, 1.700947213015996E9, 0.0, 2023-11-25 16:20:13.015
212.0, 16865.464075263033, 35109.80726597396, -45703.37184707783, -48119.2601465297, -36859.72533937995, -45672.59349496287, -29006.283462796626, -8959.137971298453, -0.098, 0.9420000000000001, 0.278, 192.0, 0.0, 0.0, 0.0, 0.0, 0.0, 0.0, 0.0, 0.0, 0.0, 1.700947213018899E9, 0.0, 2023-11-25 16:20:13.018
213.0, 17073.514112653032, 35086.98613488509, -45667.18437280469, -48144.36115555301, -36602.43440895491, -45607.013476731, -29036.45831781129, -8994.610189749026, -0.098, 0.9420000000000001, 0.278, 192.0, 0.0, 0.0, 0.0, 0.0, 0.0, 0.0, 0.0, 0.0, 0.0, 1.700947213022895E9, 0.0, 2023-11-25 16:20:13.022
214.0, 16942.644648867208, 35006.09517170134, -45673.264047296536, -48159.60504527153, -36615.376068994534, -45872.84277353797, -29037.240628867225, -8991.793869947656, -0.098, 0.9420000000000001, 0.278, 192.0, 0.0, 0.0, 0.0, 0.0, 0.0, 0.0, 0.0, 0.0, 0.0, 1.700947213026902E9, 0.0, 2023-11-25 16:20:13.026
215.0, 16726.950314873495, 35036.42648892719, -45684.439919524186, -48123.015239598186, -36926.44529657904, -45971.39161484142, -29013.033689622127, -8957.103962553021, -0.098, 0.9420000000000001, 0.278, 192.0, 0.0, 0.0, 0.0, 0.0, 0.0, 0.0, 0.0, 0.0, 0.0, 1.700947213032924E9, 0.0, 2023-11-25 16:20:13.032
216.0, 16849.169653555116, 35116.62454803283, -45706.590498279395, -48118.32137326257, -36879.19370880052, -45714.771236750035, -29030.915085186374, -8981.512067498215, -0.10200000000000001, 0.9460000000000001, 0.278, 192.0, 252.0, 208.0, 29.0, 144.0, 8.0, 176.0, 0.0, 0.0, 0.0, 1.700947213035897E9, 0.0, 2023-11-25 16:20:13.035
217.0, 17048.61426932982, 35118.680908522714, -45683.34468404588, -48138.92968165036, -36673.267087133776, -45620.335116426366, -29056.12785293196, -9016.000809192754, -0.10200000000000001, 0.9460000000000001, 0.278, 192.0, 0.0, 0.0, 0.0, 0.0, 0.0, 0.0, 0.0, 0.0, 0.0, 1.700947213039032E9, 0.0, 2023-11-25 16:20:13.039
218.0, 17010.191620611145, 35024.513009132505, -45682.00357937856, -48173.39607160045, -36565.71049281484, -45834.77775273058, -29080.111274732506, -9035.603289080058, -0.10200000000000001, 0.9460000000000001, 0.278, 192.0, 0.0, 0.0, 0.0, 0.0, 0.0, 0.0, 0.0, 0.0, 0.0, 1.700947213043998E9, 0.0, 2023-11-25 16:20:13.043
219.0, 16726.279762539838, 35026.412907411206, -45698.85679469786, -48138.57205373908, -36925.707689012015, -46031.9648423153, -29044.907277215396, -8999.415814806916, -0.10200000000000001, 0.9460000000000001, 0.278, 192.0, 0.0, 0.0, 0.0, 0.0, 0.0, 0.0, 0.0, 0.0, 0.0, 1.700947213046973E9, 0.0, 2023-11-25 16:20:13.046
220.0, 16824.985066054473, 35097.938489668195, -45710.68086751472, -48123.52932972066, -36896.85158692022, -45769.82358334346, -29056.641943054434, -9009.362341089529, -0.10200000000000001, 0.9460000000000001, 0.278, 192.0, 0.0, 0.0, 0.0, 0.0, 0.0, 0.0, 0.0, 0.0, 0.0, 1.700947213050963E9, 0.0, 2023-11-25 16:20:13.050
221.0, 17017.053606158926, 35123.732402769616, -45690.67605622722, -48126.032725099656, -36738.71299489892, -45634.46141892212, -29072.5116816177, -9029.233041910296, -0.10200000000000001, 0.9460000000000001, 0.278, 192.0, 0.0, 0.0, 0.0, 0.0, 0.0, 0.0, 0.0, 0.0, 0.0, 1.700947213055457E9, 0.0, 2023-11-25 16:20:13.055
222.0, 17060.214824702125, 35031.26323595801, -45663.76455590303, -48156.94518768134, -36529.14303888596, -45763.83331582943, -29083.91107128991, -9045.236890940296, -0.10200000000000001, 0.9460000000000001, 0.278, 192.0, 0.0, 0.0, 0.0, 0.0, 0.0, 0.0, 0.0, 0.0, 0.0, 1.700947213058974E9, 0.0, 2023-11-25 16:20:13.058
223.0, 16739.132015601637, 35016.756953806515, -45678.60611422135, -48121.22710004176, -36896.38220028665, -46030.82490334808, -29036.637131766933, -8992.978512403788, -0.10200000000000001, 0.9460000000000001, 0.278, 192.0, 0.0, 0.0, 0.0, 0.0, 0.0, 0.0, 0.0, 0.0, 0.0, 1.700947213063223E9, 0.0, 2023-11-25 16:20:13.063
224.0, 16795.301949417826, 35075.72085567962, -45700.868451698836, -48115.86268137249, -36909.23445334846, -45796.91389762329, -29050.674027284866, -9011.597515535059, -0.10200000000000001, 0.9460000000000001, 0.278, 192.0, 0.0, 0.0, 0.0, 0.0, 0.0, 0.0, 0.0, 0.0, 0.0, 1.700947213066984E9, 0.0, 2023-11-25 16:20:13.066
225.0, 16966.270442756468, 35117.96565270015, -45704.17650987822, -48118.8578151295, -36794.74881824837, -45637.523607912495, -29070.790597294643, -9033.703390801358, -0.10200000000000001, 0.9460000000000001, 0.278, 192.0, 0.0, 0.0, 0.0, 0.0, 0.0, 0.0, 0.0, 0.0, 0.0, 1.700947213071011E9, 0.0, 2023-11-25 16:20:13.071
226.0, 17076.978633043604, 35035.86769531581, -45678.919038643726, -48157.50398129273, -36524.0691928946, -45712.62546928233, -29096.13747550696, -9060.74900159228, -0.1, 0.9400000000000001, 0.28, 192.0, 252.0, 224.0, 29.0, 96.0, 8.0, 192.0, 0.0, 0.0, 0.0, 1.700947213074064E9, 0.0, 2023-11-25 16:20:13.074
227.0, 16761.819036223773, 34994.85224424032, -45703.26008835556, -48136.60510022701, -36839.228789714434, -46028.12034226899, -29053.758568019697, -9016.984285948789, -0.1, 0.9400000000000001, 0.28, 192.0, 0.0, 0.0, 0.0, 0.0, 0.0, 0.0, 0.0, 0.0, 0.0, 1.700947213079133E9, 0.0, 2023-11-25 16:20:13.079
228.0, 16752.654820997097, 35040.62861688479, -45724.89657698829, -48136.940376393846, -36914.375354573174, -45858.716471042215, -29057.580716321554, -9030.12711168851, -0.1, 0.9400000000000001, 0.28, 192.0, 0.0, 0.0, 0.0, 0.0, 0.0, 0.0, 0.0, 0.0, 0.0, 1.700947213083049E9, 0.0, 2023-11-25 16:20:13.083
229.0, 16914.213229920057, 35115.50696081006, -45718.72749551863, -48121.71883841978, -36827.51647561985, -45668.12314607181, -29054.205602908805, -9017.297210371162, -0.1, 0.9400000000000001, 0.28, 192.0, 0.0, 0.0, 0.0, 0.0, 0.0, 0.0, 0.0, 0.0, 0.0, 1.700947213087049E9, 0.0, 2023-11-25 16:20:13.087
230.0, 17086.81340060394, 35054.84432635836, -45673.778137419, -48159.225065615785, -36532.49580055426, -45676.9297333872, -29072.288164173147, -9041.705315316358, -0.1, 0.9400000000000001, 0.28, 192.0, 0.0, 0.0, 0.0, 0.0, 0.0, 0.0, 0.0, 0.0, 0.0, 1.700947213091241E9, 0.0, 2023-11-25 16:20:13.091
231.0, 16808.489478646457, 34996.23805239655, -45693.581783006404, -48159.00154817123, -36769.08901561368, -45996.67143782037, -29037.97823643425, -9001.740396230269, -0.1, 0.9400000000000001, 0.28, 192.0, 0.0, 0.0, 0.0, 0.0, 0.0, 0.0, 0.0, 0.0, 0.0, 1.700947213095068E9, 0.0, 2023-11-25 16:20:13.095
232.0, 16732.717064942964, 35047.51295417702, -45701.40489356576, -48141.50013226273, -36928.63576753566, -45901.497709929674, -29017.906369913384, -8981.512067498215, -0.1, 0.9400000000000001, 0.28, 192.0, 0.0, 0.0, 0.0, 0.0, 0.0, 0.0, 0.0, 0.0, 0.0, 1.700947213099245E9, 0.0, 2023-11-25 16:20:13.099
233.0, 16886.698232495575, 35120.35728935686, -45711.79845473748, -48136.42628627137, -36856.976074811944, -45677.26500955403, -29022.64493973791, -8986.720023956303, -0.1, 0.9400000000000001, 0.28, 192.0, 0.0, 0.0, 0.0, 0.0, 0.0, 0.0, 0.0, 0.0, 0.0, 1.700947213102077E9, 0.0, 2023-11-25 16:20:13.102
234.0, 17086.85810409285, 35076.749035924564, -45662.31169251343, -48165.12592615199, -36572.86305104054, -45642.150419014746, -29036.525373044657, -9011.888088212978, -0.1, 0.9400000000000001, 0.28, 192.0, 0.0, 0.0, 0.0, 0.0, 0.0, 0.0, 0.0, 0.0, 0.0, 1.700947213106125E9, 0.0, 2023-11-25 16:20:13.106
235.0, 16889.44749706358, 35016.60049159533, -45660.456497723644, -48153.771239968686, -36683.683000049954, -45934.86886440145, -29001.25432029418, -8972.593721460547, -0.1, 0.9400000000000001, 0.28, 192.0, 0.0, 0.0, 0.0, 0.0, 0.0, 0.0, 0.0, 0.0, 0.0, 1.700947213111087E9, 0.0, 2023-11-25 16:20:13.111
236.0, 16741.32248655826, 35057.95121883765, -45668.61488444983, -48117.51671046218, -36921.438505821054, -45928.38685850941, -28971.191224001795, -8935.869805320479, -0.096, 0.9400000000000001, 0.28600000000000003, 192.0, 253.0, 0.0, 29.0, 96.0, 8.0, 240.0, 0.0, 0.0, 0.0, 1.700947213115219E9, 0.0, 2023-11-25 16:20:13.115
237.0, 16874.404773045157, 35129.36504237235, -45701.986038921605, -48114.61098368299, -36861.53583068083, -45679.187259577186, -28999.6449946934, -8953.371221228985, -0.096, 0.9400000000000001, 0.28600000000000003, 192.0, 0.0, 0.0, 0.0, 0.0, 0.0, 0.0, 0.0, 0.0, 0.0, 1.700947213119127E9, 0.0, 2023-11-25 16:20:13.119
238.0, 17075.14578999827, 35109.20376887367, -45675.81214616444, -48136.47098976028, -36620.2934527747, -45614.5683663569, -29034.491364299225, -8988.73168095728, -0.096, 0.9400000000000001, 0.28600000000000003, 192.0, 0.0, 0.0, 0.0, 0.0, 0.0, 0.0, 0.0, 0.0, 0.0, 1.700947213123512E9, 0.0, 2023-11-25 16:20:13.123
239.0, 16967.96917533507, 35026.971701022594, -45677.80145142096, -48149.27853933317, -36607.0388683127, -45865.73491880118, -29032.65852125389, -8983.434317521373, -0.096, 0.9400000000000001, 0.28600000000000003, 192.0, 0.0, 0.0, 0.0, 0.0, 0.0, 0.0, 0.0, 0.0, 0.0, 1.700947213127155E9, 0.0, 2023-11-25 16:20:13.127
240.0, 16737.053303367295, 35049.09992803335, -45696.01812315203, -48119.036629085145, -36927.965215202, -45978.85709748949, -29008.250416308692, -8956.388706730451, -0.096, 0.9400000000000001, 0.28600000000000003, 192.0, 0.0, 0.0, 0.0, 0.0, 0.0, 0.0, 0.0, 0.0, 0.0, 1.700947213130227E9, 0.0, 2023-11-25 16:20:13.130
241.0, 16854.556423968843, 35127.2416266491, -45716.46996932864, -48107.503128946206, -36879.976019856455, -45717.72166701814, -29030.155125874895, -8974.761840672712, -0.096, 0.9400000000000001, 0.28600000000000003, 192.0, 0.0, 0.0, 0.0, 0.0, 0.0, 0.0, 0.0, 0.0, 0.0, 1.700947213134149E9, 0.0, 2023-11-25 16:20:13.134
242.0, 17053.88928102127, 35144.60893209087, -45684.88695441329, -48108.28544000214, -36680.754921526306, -45611.8191017889, -29050.830489496053, -8997.8735444395, -0.096, 0.9400000000000001, 0.28600000000000003, 192.0, 0.0, 0.0, 0.0, 0.0, 0.0, 0.0, 0.0, 0.0, 0.0, 1.700947213140046E9, 0.0, 2023-11-25 16:20:13.140
243.0, 17031.69399877715, 35047.26708498801, -45676.125070586815, -48140.00256538422, -36543.8281349931, -45796.086883078446, -29072.712847317798, -9016.604306293048, -0.096, 0.9400000000000001, 0.28600000000000003, 192.0, 0.0, 0.0, 0.0, 0.0, 0.0, 0.0, 0.0, 0.0, 0.0, 1.700947213143273E9, 0.0, 2023-11-25 16:20:13.143
244.0, 16736.74037894492, 35038.48284941707, -45694.54290801798, -48107.61488766848, -36907.51336902539, -46010.976554271765, -29037.866477711974, -8977.73462268527, -0.096, 0.9400000000000001, 0.28600000000000003, 192.0, 0.0, 0.0, 0.0, 0.0, 0.0, 0.0, 0.0, 0.0, 0.0, 1.700947213148262E9, 0.0, 2023-11-25 16:20:13.148
245.0, 16828.494289933955, 35105.38162057181, -45709.71974250314, -48098.16009976389, -36884.312258280785, -45753.66327210227, -29052.775091263666, -8998.231172350785, -0.096, 0.9400000000000001, 0.28600000000000003, 192.0, 0.0, 0.0, 0.0, 0.0, 0.0, 0.0, 0.0, 0.0, 0.0, 1.70094721315231E9, 0.0, 2023-11-25 16:20:13.152
246.0, 17016.02542591398, 35136.80817327597, -45690.34078006039, -48102.89866958841, -36733.728555885384, -45612.33319191136, -29064.979143736262, -9013.385655091484, -0.1, 0.9420000000000001, 0.28400000000000003, 192.0, 252.0, 224.0, 29.0, 112.0, 8.0, 224.0, 0.0, 0.0, 0.0, 1.70094721315592E9, 0.0, 2023-11-25 16:20:13.155
247.0, 17064.81928405992, 35042.5732186524, -45663.541038458476, -48147.17747535437, -36510.12170435449, -45737.39120213881, -29085.69921084633, -9041.593556594082, -0.1, 0.9420000000000001, 0.28400000000000003, 192.0, 0.0, 0.0, 0.0, 0.0, 0.0, 0.0, 0.0, 0.0, 0.0, 1.700947213158276E9, 0.0, 2023-11-25 16:20:13.158
248.0, 16739.132015601637, 35013.135971204756, -45681.26597181153, -48126.14448382193, -36873.35990349769, -46023.493531166736, -29040.973370191263, -8993.805526948634, -0.1, 0.9420000000000001, 0.28400000000000003, 192.0, 0.0, 0.0, 0.0, 0.0, 0.0, 0.0, 0.0, 0.0, 0.0, 1.700947213162266E9, 0.0, 2023-11-25 16:20:13.162
249.0, 16787.970577236483, 35078.358361525345, -45691.90540217226, -48119.14838780742, -36900.047886377324, -45802.16655757029, -29039.6546172684, -8999.39346306246, -0.1, 0.9420000000000001, 0.28400000000000003, 192.0, 0.0, 0.0, 0.0, 0.0, 0.0, 0.0, 0.0, 0.0, 0.0, 1.70094721316729E9, 0.0, 2023-11-25 16:20:13.167
250.0, 16956.480378685043, 35126.3922603598, -45694.96759116263, -48129.07256234557, -36797.363972349645, -45641.07753528089, -29060.329980889557, -9022.102835429054, -0.1, 0.9420000000000001, 0.28400000000000003, 192.0, 0.0, 0.0, 0.0, 0.0, 0.0, 0.0, 0.0, 0.0, 0.0, 1.700947213171309E9, 0.0, 2023-11-25 16:20:13.171
251.0, 17079.057345277946, 35045.925980320695, -45661.439974479676, -48174.53601056767, -36526.84080920706, -45705.80818722346, -29082.6146701115, -9056.278652701218, -0.1, 0.9420000000000001, 0.28400000000000003, 192.0, 0.0, 0.0, 0.0, 0.0, 0.0, 0.0, 0.0, 0.0, 0.0, 1.700947213175306E9, 0.0, 2023-11-25 16:20:13.175
252.0, 16772.391411351135, 35003.770590277985, -45679.72370144412, -48156.498152792235, -36836.792449568806, -46025.72870561227, -29040.191059135326, -9011.128128901497, -0.1, 0.9420000000000001, 0.28400000000000003, 192.0, 0.0, 0.0, 0.0, 0.0, 0.0, 0.0, 0.0, 0.0, 0.0, 1.700947213180914E9, 0.0, 2023-11-25 16:20:13.180
253.0, 16756.856948954697, 35053.79379436896, -45691.59247774989, -48145.031707886665, -36928.54636055784, -45863.11976469991, -29035.966579433272, -9010.16700388992, -0.1, 0.9420000000000001, 0.28400000000000003, 192.0, 0.0, 0.0, 0.0, 0.0, 0.0, 0.0, 0.0, 0.0, 0.0, 1.700947213182476E9, 0.0, 2023-11-25 16:20:13.182
254.0, 16913.5426775864, 35114.367021842845, -45699.90732668726, -48143.95882415281, -36842.35803393817, -45656.90257035525, -29045.778995249155, -9018.057169682643, -0.1, 0.9420000000000001, 0.28400000000000003, 192.0, 0.0, 0.0, 0.0, 0.0, 0.0, 0.0, 0.0, 0.0, 0.0, 1.700947213186352E9, 0.0, 2023-11-25 16:20:13.186
255.0, 17081.605444145855, 35051.73743387907, -45661.84230587987, -48182.40382461594, -36558.49087935578, -45669.30778852794, -29067.214318181792, -9047.829693297112, -0.1, 0.9420000000000001, 0.28400000000000003, 192.0, 0.0, 0.0, 0.0, 0.0, 0.0, 0.0, 0.0, 0.0, 0.0, 1.700947213190478E9, 0.0, 2023-11-25 16:20:13.190
0.0, 16828.650752145142, 35001.110732687805, -45673.55461997445, -48169.14924015394, -36771.79357669277, -45982.65689404689, -29028.098765385006, -9003.841460209067, -0.10400000000000001, 0.9440000000000001, 0.29, 192.0, 252.0, 192.0, 29.0, 128.0, 9.0, 16.0, 0.0, 0.0, 0.0, 1.700947213194394E9, 0.0, 2023-11-25 16:20:13.194
1.0, 16733.186451576526, 35031.82202956939, -45698.94620167568, -48161.37083308349, -36948.97585498999, -45907.55503267706, -29029.573980519057, -9005.96487593232, -0.10400000000000001, 0.9440000000000001, 0.29, 192.0, 0.0, 0.0, 0.0, 0.0, 0.0, 0.0, 0.0, 0.0, 0.0, 1.700947213199357E9, 0.0, 2023-11-25 16:20:13.199
2.0, 16872.52722651091, 35099.30194607996, -45722.14731242029, -48156.632263258965, -36889.47551124996, -45691.90540217226, -29044.54964930411, -9023.600402307558, -0.10400000000000001, 0.9440000000000001, 0.29, 192.0, 0.0, 0.0, 0.0, 0.0, 0.0, 0.0, 0.0, 0.0, 0.0, 1.700947213203376E9, 0.0, 2023-11-25 16:20:13.203
3.0, 17073.134132997293, 35066.75780615304, -45676.61680896483, -48176.12298442399, -36612.26917651525, -45649.25827375153, -29050.674027284866, -9045.616870596037, -0.10400000000000001, 0.9440000000000001, 0.29, 192.0, 0.0, 0.0, 0.0, 0.0, 0.0, 0.0, 0.0, 0.0, 0.0, 1.700947213207931E9, 0.0, 2023-11-25 16:20:13.207
4.0, 16889.402793574667, 34989.06314242639, -45684.41756777973, -48177.95582746933, -36703.41959040399, -45934.62299521244, -29020.812096692574, -9022.30400112915, -0.10400000000000001, 0.9440000000000001, 0.29, 192.0, 0.0, 0.0, 0.0, 0.0, 0.0, 0.0, 0.0, 0.0, 0.0, 1.700947213210463E9, 0.0, 2023-11-25 16:20:13.210
5.0, 16717.58493394672, 35017.78513405146, -45700.33200983191, -48147.17747535437, -36968.51127964393, -45953.152591365884, -28993.386506245915, -8995.548963016148, -0.10400000000000001, 0.9440000000000001, 0.29, 192.0, 0.0, 0.0, 0.0, 0.0, 0.0, 0.0, 0.0, 0.0, 0.0, 1.700947213215446E9, 0.0, 2023-11-25 16:20:13.215
6.0, 16845.95100235355, 35087.857852918845, -45726.662364800264, -48139.68964096185, -36911.42492430507, -45695.66049524075, -29008.540988986613, -9009.697617256357, -0.10400000000000001, 0.9440000000000001, 0.29, 192.0, 0.0, 0.0, 0.0, 0.0, 0.0, 0.0, 0.0, 0.0, 0.0, 1.700947213219369E9, 0.0, 2023-11-25 16:20:13.219
7.0, 17048.36840014081, 35071.76459691102, -45695.481681285106, -48156.58755977006, -36675.34579936812, -45618.27875593648, -29033.88786719893, -9040.587728093593, -0.10400000000000001, 0.9440000000000001, 0.29, 192.0, 0.0, 0.0, 0.0, 0.0, 0.0, 0.0, 0.0, 0.0, 0.0, 1.700947213222449E9, 0.0, 2023-11-25 16:20:13.222
8.0, 16961.375410720757, 34994.78518900695, -45678.56141073244, -48155.313510336106, -36625.367298766054, -45846.60182554744, -29018.398108291403, -9024.002733707755, -0.10400000000000001, 0.9440000000000001, 0.29, 192.0, 0.0, 0.0, 0.0, 0.0, 0.0, 0.0, 0.0, 0.0, 0.0, 1.700947213227402E9, 0.0, 2023-11-25 16:20:13.227
9.0, 16714.276875767337, 35007.34686939083, -45693.313562072944, -48119.438960485335, -36946.181886933075, -45968.17296363985, -28990.704296911277, -8987.055300123131, -0.10400000000000001, 0.9440000000000001, 0.29, 192.0, 0.0, 0.0, 0.0, 0.0, 0.0, 0.0, 0.0, 0.0, 0.0, 1.700947213231509E9, 0.0, 2023-11-25 16:20:13.231
10.0, 16831.265906246415, 35082.5828412274, -45715.4417890837, -48111.414684225885, -36902.03719163385, -45709.49622505859, -29016.989948390717, -9008.043588166665, -0.092, 0.9400000000000001, 0.29, 192.0, 253.0, 32.0, 29.0, 96.0, 9.0, 16.0, 0.0, 0.0, 0.0, 1.700947213235456E9, 0.0, 2023-11-25 16:20:13.235
11.0, 17033.348027866847, 35102.252376348064, -45684.70814045765, -48115.86268137249, -36708.80636081772, -45594.250630647024, -29031.540934031123, -9021.78991100668, -0.092, 0.9400000000000001, 0.29, 192.0, 0.0, 0.0, 0.0, 0.0, 0.0, 0.0, 0.0, 0.0, 0.0, 1.700947213238451E9, 0.0, 2023-11-25 16:20:13.238
12.0, 17022.485080061564, 35001.58011932136, -45680.84128866688, -48158.599216771036, -36555.540449087675, -45771.92464732226, -29053.155070919405, -9042.062943227642, -0.092, 0.9400000000000001, 0.29, 192.0, 0.0, 0.0, 0.0, 0.0, 0.0, 0.0, 0.0, 0.0, 0.0, 1.700947213243462E9, 0.0, 2023-11-25 16:20:13.243
13.0, 16717.78609964682, 34996.260404141, -45702.63423951081, -48131.35244028002, -36926.914683212606, -46001.07473147807, -29011.804343677086, -8997.515916528215, -0.092, 0.9400000000000001, 0.29, 192.0, 0.0, 0.0, 0.0, 0.0, 0.0, 0.0, 0.0, 0.0, 0.0, 1.700947213247457E9, 0.0, 2023-11-25 16:20:13.247
14.0, 16795.637225584655, 35066.73545440858, -45723.443713598695, -48129.20667281231, -36919.73977324245, -45752.612740112876, -29027.249399095705, -9012.044550424165, -0.092, 0.9400000000000001, 0.29, 192.0, 0.0, 0.0, 0.0, 0.0, 0.0, 0.0, 0.0, 0.0, 0.0, 1.70094721325045E9, 0.0, 2023-11-25 16:20:13.250
15.0, 16975.97109985007, 35106.90153919477, -45706.70225700167, -48134.10170484802, -36778.49910002937, -45612.444950633646, -29042.202716136304, -9025.12032093052, -0.092, 0.9400000000000001, 0.29, 192.0, 0.0, 0.0, 0.0, 0.0, 0.0, 0.0, 0.0, 0.0, 0.0, 1.700947213254588E9, 0.0, 2023-11-25 16:20:13.254
16.0, 17053.062266476427, 35020.71321257511, -45669.821878650415, -48170.37858609898, -36538.79899249065, -45724.24837639909, -29055.814928509586, -9047.136789218997, -0.092, 0.9400000000000001, 0.29, 192.0, 0.0, 0.0, 0.0, 0.0, 0.0, 0.0, 0.0, 0.0, 0.0, 1.700947213259555E9, 0.0, 2023-11-25 16:20:13.259
17.0, 16732.582954476235, 34983.54226154593, -45692.66536148374, -48152.117210879, -36889.564918227785, -46014.128150239965, -29017.92872165784, -9004.690826498369, -0.092, 0.9400000000000001, 0.29, 192.0, 0.0, 0.0, 0.0, 0.0, 0.0, 0.0, 0.0, 0.0, 0.0, 1.700947213263531E9, 0.0, 2023-11-25 16:20:13.263
18.0, 16764.70241125851, 35038.10286976134, -45707.73043724662, -48146.14929510943, -36927.62993903517, -45803.842938404436, -29019.761564703178, -9011.150480645952, -0.092, 0.9400000000000001, 0.29, 192.0, 0.0, 0.0, 0.0, 0.0, 0.0, 0.0, 0.0, 0.0, 0.0, 1.700947213266483E9, 0.0, 2023-11-25 16:20:13.266
19.0, 16928.07131148235, 35092.77523669902, -45703.50595754456, -48141.50013226273, -36829.77400180984, -45633.29912821044, -29032.25618985369, -9019.442977838871, -0.092, 0.9400000000000001, 0.29, 192.0, 0.0, 0.0, 0.0, 0.0, 0.0, 0.0, 0.0, 0.0, 0.0, 1.700947213270504E9, 0.0, 2023-11-25 16:20:13.270
20.0, 17069.446095162166, 35015.81818053939, -45663.36222450283, -48182.13560368247, -36547.24795189476, -45683.14351834578, -29061.805196023608, -9053.082353244108, -0.098, 0.9500000000000001, 0.28600000000000003, 192.0, 252.0, 240.0, 29.0, 176.0, 8.0, 240.0, 0.0, 0.0, 0.0, 1.700947213274483E9, 0.0, 2023-11-25 16:20:13.274
21.0, 16770.93854796154, 34972.34403757382, -45681.42243402272, -48163.851876718036, -36842.06746126026, -46007.60144085901, -29012.653709966387, -9006.97070443281, -0.098, 0.9500000000000001, 0.28600000000000003, 192.0, 0.0, 0.0, 0.0, 0.0, 0.0, 0.0, 0.0, 0.0, 0.0, 1.700947213278521E9, 0.0, 2023-11-25 16:20:13.278
22.0, 16740.718989457964, 35027.50814288952, -45698.633277253306, -48148.20565559932, -36949.10996545672, -45863.87972401139, -29010.55264598759, -9008.490623055772, -0.098, 0.9500000000000001, 0.28600000000000003, 192.0, 0.0, 0.0, 0.0, 0.0, 0.0, 0.0, 0.0, 0.0, 0.0, 1.700947213282763E9, 0.0, 2023-11-25 16:20:13.282
23.0, 16894.074308165826, 35095.65861173375, -45709.29505935849, -48138.0132601277, -36871.92939185255, -45660.32238725691, -29023.82958219404, -9018.30303887165, -0.098, 0.9500000000000001, 0.28600000000000003, 192.0, 0.0, 0.0, 0.0, 0.0, 0.0, 0.0, 0.0, 0.0, 0.0, 1.700947213287611E9, 0.0, 2023-11-25 16:20:13.287
24.0, 17071.055420762947, 35039.019291284, -45671.498259484564, -48170.870324477, -36574.271210941224, -45649.28062549599, -29050.964599962786, -9047.852045041567, -0.098, 0.9500000000000001, 0.28600000000000003, 192.0, 0.0, 0.0, 0.0, 0.0, 0.0, 0.0, 0.0, 0.0, 0.0, 1.700947213290935E9, 0.0, 2023-11-25 16:20:13.290
25.0, 16827.264943988914, 34979.27307835496, -45686.04924512497, -48162.13079239497, -36764.05987311123, -45959.63459725793, -29019.35923330298, -9011.262239368229, -0.098, 0.9500000000000001, 0.28600000000000003, 192.0, 0.0, 0.0, 0.0, 0.0, 0.0, 0.0, 0.0, 0.0, 0.0, 1.70094721329462E9, 0.0, 2023-11-25 16:20:13.294
26.0, 16718.88133512513, 35020.08736373036, -45702.880108699814, -48143.37767879697, -36958.09536672776, -45903.866994841934, -29012.139619843918, -9002.075672397099, -0.098, 0.9500000000000001, 0.28600000000000003, 192.0, 0.0, 0.0, 0.0, 0.0, 0.0, 0.0, 0.0, 0.0, 0.0, 1.700947213298612E9, 0.0, 2023-11-25 16:20:13.298
27.0, 16856.478673992002, 35096.731495467604, -45719.308640874464, -48129.38548676795, -36897.54449099833, -45673.19699206317, -29025.729480472743, -9011.329294601595, -0.098, 0.9500000000000001, 0.28600000000000003, 192.0, 0.0, 0.0, 0.0, 0.0, 0.0, 0.0, 0.0, 0.0, 0.0, 1.700947213302617E9, 0.0, 2023-11-25 16:20:13.302
28.0, 17061.175949713703, 35064.433224729684, -45676.84032640938, -48149.25618758872, -36624.4955807323, -45622.1679594717, -29051.724559274266, -9041.861777527545, -0.098, 0.9500000000000001, 0.28600000000000003, 192.0, 0.0, 0.0, 0.0, 0.0, 0.0, 0.0, 0.0, 0.0, 0.0, 1.70094721330659E9, 0.0, 2023-11-25 16:20:13.306
29.0, 16888.598130774277, 34977.99902892101, -45691.95010566117, -48162.935455195366, -36687.952183240915, -45903.9340500753, -29041.5545155471, -9035.044495468675, -0.098, 0.9500000000000001, 0.28600000000000003, 192.0, 0.0, 0.0, 0.0, 0.0, 0.0, 0.0, 0.0, 0.0, 0.0, 1.700947213310597E9, 0.0, 2023-11-25 16:20:13.310
30.0, 16693.266235979347, 35003.52472108897, -45707.05988491296, -48133.85583565901, -36967.88543079918, -45959.746355980205, -29013.83835242252, -9006.098986399054, -0.10200000000000001, 0.9480000000000001, 0.28600000000000003, 192.0, 252.0, 208.0, 29.0, 160.0, 8.0, 240.0, 0.0, 0.0, 0.0, 1.700947213315643E9, 0.0, 2023-11-25 16:20:13.315
31.0, 16821.788766597365, 35080.2806115485, -45728.65167005678, -48126.233890799755, -36914.48711329545, -45705.45055931217, -29028.12111712946, -9015.933753959389, -0.10200000000000001, 0.9480000000000001, 0.28600000000000003, 192.0, 0.0, 0.0, 0.0, 0.0, 0.0, 0.0, 0.0, 0.0, 0.0, 1.700947213318642E9, 0.0, 2023-11-25 16:20:13.318
32.0, 17029.70469352063, 35077.307829535945, -45694.54290801798, -48141.90246366292, -36684.510014594794, -45617.65290709173, -29044.03555918164, -9036.8326350251, -0.10200000000000001, 0.9480000000000001, 0.28600000000000003, 192.0, 0.0, 0.0, 0.0, 0.0, 0.0, 0.0, 0.0, 0.0, 0.0, 1.700947213321887E9, 0.0, 2023-11-25 16:20:13.321
33.0, 16959.430808953144, 34994.71813377358, -45681.86946891183, -48159.96267318281, -36618.23709228481, -45840.00806093313, -29035.519544544168, -9027.579012820604, -0.10200000000000001, 0.9480000000000001, 0.28600000000000003, 192.0, 0.0, 0.0, 0.0, 0.0, 0.0, 0.0, 0.0, 0.0, 0.0, 1.700947213326742E9, 0.0, 2023-11-25 16:20:13.326
34.0, 16705.559695429765, 35009.60439558082, -45688.88791667079, -48125.96566986629, -36951.45689862453, -45982.388673113426, -28995.73343941372, -8981.959102387322, -0.10200000000000001, 0.9480000000000001, 0.28600000000000003, 192.0, 0.0, 0.0, 0.0, 0.0, 0.0, 0.0, 0.0, 0.0, 0.0, 1.700947213330678E9, 0.0, 2023-11-25 16:20:13.330
35.0, 16812.289275203857, 35076.01142835754, -45711.552585548474, -48129.54194897914, -36914.48711329545, -45722.1920159092, -29020.298006570105, -9000.868678196512, -0.10200000000000001, 0.9480000000000001, 0.28600000000000003, 192.0, 0.0, 0.0, 0.0, 0.0, 0.0, 0.0, 0.0, 0.0, 0.0, 1.70094721333668E9, 0.0, 2023-11-25 16:20:13.336
36.0, 17000.245094328537, 35085.93560289569, -45698.09683538638, -48153.346556824035, -36741.66342516702, -45613.58488960086, -29050.584620307043, -9028.182509920896, -0.10200000000000001, 0.9480000000000001, 0.28600000000000003, 192.0, 0.0, 0.0, 0.0, 0.0, 0.0, 0.0, 0.0, 0.0, 0.0, 1.700947213340073E9, 0.0, 2023-11-25 16:20:13.340
37.0, 17011.778594467472, 34999.859034998306, -45676.61680896483, -48185.84599326205, -36569.82321379462, -45782.74289163863, -29062.788672779643, -9040.766542049234, -0.10200000000000001, 0.9480000000000001, 0.28600000000000003, 192.0, 0.0, 0.0, 0.0, 0.0, 0.0, 0.0, 0.0, 0.0, 0.0, 1.700947213343726E9, 0.0, 2023-11-25 16:20:13.343
38.0, 16707.280779752826, 34997.042715196934, -45693.604134750865, -48154.48649579126, -36929.52983731387, -46018.01735377519, -29019.56039900308, -8990.341006558063, -0.10200000000000001, 0.9480000000000001, 0.28600000000000003, 192.0, 0.0, 0.0, 0.0, 0.0, 0.0, 0.0, 0.0, 0.0, 0.0, 1.700947213346774E9, 0.0, 2023-11-25 16:20:13.346
39.0, 16781.55562657781, 35070.177623054704, -45709.00448668057, -48142.39420204094, -36921.77378198788, -45770.4047286993, -29029.5516287746, -8996.443032794361, -0.10200000000000001, 0.9480000000000001, 0.28600000000000003, 192.0, 0.0, 0.0, 0.0, 0.0, 0.0, 0.0, 0.0, 0.0, 0.0, 1.700947213351812E9, 0.0, 2023-11-25 16:20:13.351
40.0, 16959.453160697598, 35106.40980081676, -45702.29896334398, -48145.83637068706, -36786.83630071119, -45620.78215131547, -29050.964599962786, -9017.274858626706, -0.10200000000000001, 0.9500000000000001, 0.292, 192.0, 252.0, 208.0, 29.0, 176.0, 9.0, 32.0, 0.0, 0.0, 0.0, 1.700947213354919E9, 0.0, 2023-11-25 16:20:13.354
41.0, 17050.4247606307, 35022.25548294252, -45669.44189899468, -48178.6710832919, -36535.17800988889, -45714.27949837202, -29070.634135083455, -9036.720876302825, -0.10200000000000001, 0.9500000000000001, 0.292, 192.0, 0.0, 0.0, 0.0, 0.0, 0.0, 0.0, 0.0, 0.0, 0.0, 1.700947213358751E9, 0.0, 2023-11-25 16:20:13.358
42.0, 16739.46729176847, 35004.9105292452, -45680.77423343351, -48142.10362936302, -36876.86912737717, -46005.947411769324, -29016.45350652379, -8976.035890106665, -0.10200000000000001, 0.9500000000000001, 0.292, 192.0, 0.0, 0.0, 0.0, 0.0, 0.0, 0.0, 0.0, 0.0, 0.0, 1.700947213362725E9, 0.0, 2023-11-25 16:20:13.362
43.0, 16771.050306683817, 35074.84913764586, -45685.37869279131, -48122.79172215363, -36913.16836037259, -45797.405636001306, -29011.714936699267, -8974.761840672712, -0.10200000000000001, 0.9500000000000001, 0.292, 192.0, 0.0, 0.0, 0.0, 0.0, 0.0, 0.0, 0.0, 0.0, 0.0, 1.700947213366707E9, 0.0, 2023-11-25 16:20:13.366
44.0, 16935.87207029725, 35135.02003371955, -45684.73049220211, -48117.76257965119, -36813.27841440182, -45620.335116426366, -29032.166782875873, -8997.292399083663, -0.10200000000000001, 0.9500000000000001, 0.292, 192.0, 0.0, 0.0, 0.0, 0.0, 0.0, 0.0, 0.0, 0.0, 0.0, 1.700947213370728E9, 0.0, 2023-11-25 16:20:13.370
45.0, 17080.3313947119, 35054.732567636085, -45652.141648786266, -48164.745946496245, -36524.918559183905, -45665.776212904006, -29059.145338433427, -9044.991021751288, -0.10200000000000001, 0.9500000000000001, 0.292, 192.0, 0.0, 0.0, 0.0, 0.0, 0.0, 0.0, 0.0, 0.0, 0.0, 1.700947213374751E9, 0.0, 2023-11-25 16:20:13.374
46.0, 16787.680004558566, 35002.02715421047, -45673.30875078544, -48151.42430680088, -36803.39894335258, -45994.21274593029, -29012.40784077738, -9000.265181096218, -0.10200000000000001, 0.9500000000000001, 0.292, 192.0, 0.0, 0.0, 0.0, 0.0, 0.0, 0.0, 0.0, 0.0, 0.0, 1.700947213377752E9, 0.0, 2023-11-25 16:20:13.377
47.0, 16737.433283023034, 35050.28457048948, -45697.26982084153, -48143.44473403034, -36936.615340306205, -45872.57455260451, -29019.35923330298, -9009.854079467545, -0.10200000000000001, 0.9500000000000001, 0.292, 192.0, 0.0, 0.0, 0.0, 0.0, 0.0, 0.0, 0.0, 0.0, 0.0, 1.700947213382797E9, 0.0, 2023-11-25 16:20:13.382
48.0, 16883.233712105004, 35122.21248414666, -45715.50884431706, -48136.47098976028, -36871.90704010809, -45673.71108218564, -29036.704187000298, -9026.394370364473, -0.10200000000000001, 0.9500000000000001, 0.292, 192.0, 0.0, 0.0, 0.0, 0.0, 0.0, 0.0, 0.0, 0.0, 0.0, 1.700947213386813E9, 0.0, 2023-11-25 16:20:13.386
49.0, 17077.492723166077, 35072.30103877796, -45675.476869997605, -48166.73525175277, -36580.23912671079, -45661.9764163466, -29061.805196023608, -9062.090106259599, -0.10200000000000001, 0.9500000000000001, 0.292, 192.0, 0.0, 0.0, 0.0, 0.0, 0.0, 0.0, 0.0, 0.0, 0.0, 1.700947213390968E9, 0.0, 2023-11-25 16:20:13.390
50.0, 16845.14633955316, 35002.45183735512, -45696.33104757441, -48165.237684874264, -36751.431137493986, -45978.00773120019, -29043.722634759266, -9036.676172813914, -0.10200000000000001, 0.9460000000000001, 0.28800000000000003, 192.0, 252.0, 208.0, 29.0, 144.0, 9.0, 0.0, 0.0, 0.0, 0.0, 1.700947213394863E9, 0.0, 2023-11-25 16:20:13.394
51.0, 16725.11747182816, 35047.33414022138, -45708.0880651579, -48136.87332116048, -36958.922381272605, -45940.52385574864, -29024.991872905717, -9016.246678381764, -0.10200000000000001, 0.9460000000000001, 0.28800000000000003, 192.0, 0.0, 0.0, 0.0, 0.0, 0.0, 0.0, 0.0, 0.0, 0.0, 1.700947213398885E9, 0.0, 2023-11-25 16:20:13.398
52.0, 16861.127836838703, 35114.43407707621, -45735.62541432684, -48137.74503919423, -36897.90211890962, -45700.376713320824, -29043.901448714907, -9029.188338421385, -0.10200000000000001, 0.9460000000000001, 0.28800000000000003, 192.0, 0.0, 0.0, 0.0, 0.0, 0.0, 0.0, 0.0, 0.0, 0.0, 1.700947213402843E9, 0.0, 2023-11-25 16:20:13.402
53.0, 17068.015583517026, 35086.1814720847, -45690.877221927316, -48158.64392025994, -36633.03394711423, -45644.54205567146, -29064.845033269532, -9046.957975263354, -0.10200000000000001, 0.9460000000000001, 0.28800000000000003, 192.0, 0.0, 0.0, 0.0, 0.0, 0.0, 0.0, 0.0, 0.0, 0.0, 1.700947213405843E9, 0.0, 2023-11-25 16:20:13.405
54.0, 16917.722453799543, 35006.31868914589, -45692.44184403919, -48168.14341165345, -36669.78021499875, -45913.50059670217, -29048.03652143914, -9033.256355912252, -0.10200000000000001, 0.9460000000000001, 0.28800000000000003, 192.0, 0.0, 0.0, 0.0, 0.0, 0.0, 0.0, 0.0, 0.0, 0.0, 1.70094721340985E9, 0.0, 2023-11-25 16:20:13.409
55.0, 16714.679207167534, 35036.31473020491, -45700.84609995438, -48136.3145275491, -36956.888372527166, -45973.2021061423, -29020.61093099248, -8998.96877991781, -0.10200000000000001, 0.9460000000000001, 0.28800000000000003, 192.0, 0.0, 0.0, 0.0, 0.0, 0.0, 0.0, 0.0, 0.0, 0.0, 1.700947213414862E9, 0.0, 2023-11-25 16:20:13.414
56.0, 16840.497176706456, 35106.387449072296, -45725.45537059967, -48133.565262981094, -36900.11494161069, -45709.07154191394, -29042.873268469964, -9009.183527133886, -0.10200000000000001, 0.9460000000000001, 0.28800000000000003, 192.0, 0.0, 0.0, 0.0, 0.0, 0.0, 0.0, 0.0, 0.0, 0.0, 1.7009472134189E9, 0.0, 2023-11-25 16:20:13.418
57.0, 17039.584164569875, 35105.22515836062, -45689.9831521491, -48143.847065430535, -36677.62567730256, -45613.182558200664, -29053.356236619504, -9023.421588351917, -0.10200000000000001, 0.9460000000000001, 0.28800000000000003, 192.0, 0.0, 0.0, 0.0, 0.0, 0.0, 0.0, 0.0, 0.0, 0.0, 1.700947213422942E9, 0.0, 2023-11-25 16:20:13.422
58.0, 16991.058527357403, 35032.96196853661, -45664.0774803254, -48150.15025736693, -36585.49178665779, -45820.338525812454, -29033.396128820914, -9003.103852642042, -0.10200000000000001, 0.9460000000000001, 0.28800000000000003, 192.0, 0.0, 0.0, 0.0, 0.0, 0.0, 0.0, 0.0, 0.0, 0.0, 1.700947213426924E9, 0.0, 2023-11-25 16:20:13.426
59.0, 16727.017370106863, 35038.728718606086, -45683.322332301424, -48122.858777387, -36926.22177913449, -45977.65010328891, -29000.58376796052, -8963.63067193397, -0.10200000000000001, 0.9460000000000001, 0.28800000000000003, 192.0, 0.0, 0.0, 0.0, 0.0, 0.0, 0.0, 0.0, 0.0, 0.0, 1.700947213429931E9, 0.0, 2023-11-25 16:20:13.429
60.0, 16822.772243353396, 35108.24264386209, -45707.797492479986, -48118.388428495935, -36895.376371786166, -45720.023896697036, -29019.247474580705, -8977.086422096065, -0.096, 0.9460000000000001, 0.28600000000000003, 192.0, 253.0, 0.0, 29.0, 144.0, 8.0, 240.0, 0.0, 0.0, 0.0, 1.700947213433945E9, 0.0, 2023-11-25 16:20:13.433
61.0, 17005.855382186815, 35123.75475451407, -45692.59830625037, -48128.24554780073, -36722.30681446872, -45598.385703371256, -29039.90048645741, -8995.660721738424, -0.096, 0.9460000000000001, 0.28600000000000003, 192.0, 0.0, 0.0, 0.0, 0.0, 0.0, 0.0, 0.0, 0.0, 0.0, 1.700947213438186E9, 0.0, 2023-11-25 16:20:13.438
62.0, 17034.97970521208, 35036.71706160511, -45663.76455590303, -48151.9160451789, -36528.71835574131, -45746.28719643202, -29045.778995249155, -9004.377902075996, -0.096, 0.9460000000000001, 0.28600000000000003, 192.0, 0.0, 0.0, 0.0, 0.0, 0.0, 0.0, 0.0, 0.0, 0.0, 1.700947213442914E9, 0.0, 2023-11-25 16:20:13.442
63.0, 16731.42066376456, 35031.866733058305, -45677.82380316542, -48116.577937195056, -36891.01778161738, -45992.98339998524, -28995.152294057883, -8953.39357297344, -0.096, 0.9460000000000001, 0.28600000000000003, 192.0, 0.0, 0.0, 0.0, 0.0, 0.0, 0.0, 0.0, 0.0, 0.0, 1.70094721344694E9, 0.0, 2023-11-25 16:20:13.446
64.0, 16802.70037683253, 35096.21740534513, -45699.50499528706, -48112.50991970419, -36893.52117699637, -45756.21137097018, -29009.70327969829, -8972.973701116289, -0.096, 0.9460000000000001, 0.28600000000000003, 192.0, 0.0, 0.0, 0.0, 0.0, 0.0, 0.0, 0.0, 0.0, 0.0, 1.700947213451002E9, 0.0, 2023-11-25 16:20:13.451
65.0, 16981.60373945281, 35139.98212098862, -45689.87139342682, -48112.06288481509, -36773.3805505491, -45612.24378493355, -29027.227047351247, -8996.711253727824, -0.096, 0.9460000000000001, 0.28600000000000003, 192.0, 0.0, 0.0, 0.0, 0.0, 0.0, 0.0, 0.0, 0.0, 0.0, 1.700947213455066E9, 0.0, 2023-11-25 16:20:13.455
66.0, 17083.415935446734, 35056.185431025675, -45661.1270500573, -48157.14635338144, -36515.620233490496, -45705.87524245682, -29058.094806444027, -9041.481797871804, -0.096, 0.9460000000000001, 0.28600000000000003, 192.0, 0.0, 0.0, 0.0, 0.0, 0.0, 0.0, 0.0, 0.0, 0.0, 1.700947213458883E9, 0.0, 2023-11-25 16:20:13.458
67.0, 16762.98132693545, 35018.88036952977, -45689.87139342682, -48140.65076597343, -36857.64662714561, -46024.1640835004, -29028.299931085105, -9010.703445756846, -0.096, 0.9460000000000001, 0.28600000000000003, 192.0, 0.0, 0.0, 0.0, 0.0, 0.0, 0.0, 0.0, 0.0, 0.0, 1.700947213462028E9, 0.0, 2023-11-25 16:20:13.462
68.0, 16776.459428842, 35077.106663835846, -45703.61771626684, -48128.49141698974, -36918.018688919394, -45838.82341847699, -29031.876210197952, -9021.92402147341, -0.096, 0.9460000000000001, 0.28600000000000003, 192.0, 0.0, 0.0, 0.0, 0.0, 0.0, 0.0, 0.0, 0.0, 0.0, 1.700947213466018E9, 0.0, 2023-11-25 16:20:13.466
69.0, 16934.530965629932, 35124.96174871466, -45717.74401876259, -48134.839312415046, -36829.14815296509, -45658.44484072267, -29055.99374246523, -9050.377792165016, -0.096, 0.9460000000000001, 0.28600000000000003, 192.0, 0.0, 0.0, 0.0, 0.0, 0.0, 0.0, 0.0, 0.0, 0.0, 1.700947213469989E9, 0.0, 2023-11-25 16:20:13.469
70.0, 17093.317758240435, 35056.78892812597, -45672.63819845179, -48165.86353371901, -36537.21201863432, -45692.0842161279, -29071.14822520593, -9070.829638341624, -0.094, 0.9520000000000001, 0.28, 192.0, 253.0, 16.0, 29.0, 192.0, 8.0, 192.0, 0.0, 0.0, 0.0, 1.700947213475011E9, 0.0, 2023-11-25 16:20:13.475
71.0, 16809.808231569317, 35000.127255931766, -45691.57012600543, -48153.68183299087, -36795.03939092629, -46008.00377225921, -29034.021977665663, -9025.58970756408, -0.094, 0.9520000000000001, 0.28, 192.0, 0.0, 0.0, 0.0, 0.0, 0.0, 0.0, 0.0, 0.0, 0.0, 1.700947213479053E9, 0.0, 2023-11-25 16:20:13.479
72.0, 16754.085332642237, 35048.04939604395, -45708.490396558096, -48138.2144258278, -36932.79319200435, -45888.421939423315, -29025.5506665171, -9014.994980692265, -0.094, 0.9520000000000001, 0.28, 192.0, 0.0, 0.0, 0.0, 0.0, 0.0, 0.0, 0.0, 0.0, 0.0, 1.700947213483042E9, 0.0, 2023-11-25 16:20:13.483
73.0, 16899.05874717936, 35119.28440562301, -45723.2425478986, -48131.48655074675, -36862.2510865034, -45672.86171589634, -29031.384471819936, -9019.197108649863, -0.094, 0.9520000000000001, 0.28, 192.0, 0.0, 0.0, 0.0, 0.0, 0.0, 0.0, 0.0, 0.0, 0.0, 1.700947213486043E9, 0.0, 2023-11-25 16:20:13.486
74.0, 17088.892112838283, 35074.80443415695, -45675.633332208796, -48155.738193480756, -36572.41601615143, -45649.28062549599, -29046.69541677182, -9040.74419030478, -0.094, 0.9520000000000001, 0.28, 192.0, 0.0, 0.0, 0.0, 0.0, 0.0, 0.0, 0.0, 0.0, 0.0, 1.700947213490518E9, 0.0, 2023-11-25 16:20:13.490
75.0, 16872.124895110715, 35010.00672698102, -45685.557506746954, -48151.22314110078, -36713.969613786896, -45951.364451809466, -29020.07448912555, -9007.663608510926, -0.094, 0.9520000000000001, 0.28, 192.0, 0.0, 0.0, 0.0, 0.0, 0.0, 0.0, 0.0, 0.0, 0.0, 1.700947213494074E9, 0.0, 2023-11-25 16:20:13.494
76.0, 16731.130091086638, 35036.29237846046, -45709.9879634366, -48141.09780086253, -36939.09638394075, -45934.0418498566, -29022.577884504546, -9000.555753774137, -0.094, 0.9520000000000001, 0.28, 192.0, 0.0, 0.0, 0.0, 0.0, 0.0, 0.0, 0.0, 0.0, 0.0, 1.70094721349805E9, 0.0, 2023-11-25 16:20:13.498
77.0, 16863.09479035077, 35105.04634440498, -45736.85476027188, -48141.90246366292, -36886.92741238206, -45700.82374820993, -29054.339713375535, -9018.414797593929, -0.094, 0.9520000000000001, 0.28, 192.0, 0.0, 0.0, 0.0, 0.0, 0.0, 0.0, 0.0, 0.0, 0.0, 1.70094721350307E9, 0.0, 2023-11-25 16:20:13.503
78.0, 17067.56854862792, 35088.86368141934, -45689.91609691574, -48157.21340861481, -36627.15543832248, -45636.00368928954, -29068.17544319337, -9038.576071092615, -0.094, 0.9520000000000001, 0.28, 192.0, 0.0, 0.0, 0.0, 0.0, 0.0, 0.0, 0.0, 0.0, 0.0, 1.700947213507048E9, 0.0, 2023-11-25 16:20:13.507
79.0, 16932.519308628955, 35006.38574437925, -45689.893745171285, -48166.48938256376, -36639.33713905062, -45892.15468074736, -29055.94903897632, -9019.465329583327, -0.094, 0.9520000000000001, 0.28, 192.0, 0.0, 0.0, 0.0, 0.0, 0.0, 0.0, 0.0, 0.0, 0.0, 1.700947213511153E9, 0.0, 2023-11-25 16:20:13.511
80.0, 16717.83080313573, 35036.22532322709, -45703.28244010001, -48132.447675758325, -36941.89035199766, -45974.65496953189, -29025.12598337245, -8977.82402966309, -0.092, 0.9520000000000001, 0.28, 192.0, 253.0, 32.0, 29.0, 192.0, 8.0, 192.0, 0.0, 0.0, 0.0, 1.700947213514352E9, 0.0, 2023-11-25 16:20:13.514
81.0, 16843.782883141386, 35118.211521889156, -45718.79455075199, -48119.66247792989, -36890.906022895106, -45707.55162329097, -29030.155125874895, -8982.003805876233, -0.092, 0.9520000000000001, 0.28, 192.0, 0.0, 0.0, 0.0, 0.0, 0.0, 0.0, 0.0, 0.0, 0.0, 1.700947213518084E9, 0.0, 2023-11-25 16:20:13.518
82.0, 17050.60357458634, 35124.71587952565, -45679.58959097738, -48129.76546642369, -36678.67620929196, -45604.4653778631, -29038.51467830118, -9002.343893330562, -0.092, 0.9520000000000001, 0.28, 192.0, 0.0, 0.0, 0.0, 0.0, 0.0, 0.0, 0.0, 0.0, 0.0, 1.70094721352213E9, 0.0, 2023-11-25 16:20:13.522
83.0, 17012.449146801133, 35042.014425041016, -45660.74707040156, -48150.17260911138, -36570.09143472808, -45802.501833737115, -29043.901448714907, -9003.260314853229, -0.092, 0.9520000000000001, 0.28, 192.0, 0.0, 0.0, 0.0, 0.0, 0.0, 0.0, 0.0, 0.0, 0.0, 1.700947213526166E9, 0.0, 2023-11-25 16:20:13.526
84.0, 16729.096082341206, 35041.00859654052, -45681.9812276341, -48123.0599430871, -36921.14793314313, -45982.96981846927, -29012.966634388762, -8959.987337587754, -0.092, 0.9520000000000001, 0.28, 192.0, 0.0, 0.0, 0.0, 0.0, 0.0, 0.0, 0.0, 0.0, 0.0, 1.700947213531447E9, 0.0, 2023-11-25 16:20:13.531
85.0, 16825.052121287838, 35107.28151885051, -45706.97047793514, -48121.76354190869, -36897.52213925387, -45733.658460814775, -29032.74792823171, -8981.91439889841, -0.092, 0.9520000000000001, 0.28, 192.0, 0.0, 0.0, 0.0, 0.0, 0.0, 0.0, 0.0, 0.0, 0.0, 1.700947213535176E9, 0.0, 2023-11-25 16:20:13.535
86.0, 17019.825222471383, 35131.60021681788, -45690.20666959366, -48131.41949551338, -36739.71882339941, -45615.26127043501, -29051.679855785354, -9008.758843989235, -0.092, 0.9520000000000001, 0.28, 192.0, 0.0, 0.0, 0.0, 0.0, 0.0, 0.0, 0.0, 0.0, 0.0, 1.700947213538123E9, 0.0, 2023-11-25 16:20:13.538
87.0, 17062.226481703103, 35036.71706160511, -45668.905457127745, -48171.22795238828, -36534.507457555235, -45760.502905905596, -29071.103521717017, -9037.83846352559, -0.092, 0.9520000000000001, 0.28, 192.0, 0.0, 0.0, 0.0, 0.0, 0.0, 0.0, 0.0, 0.0, 0.0, 1.700947213542136E9, 0.0, 2023-11-25 16:20:13.542
88.0, 16747.02218139436, 35021.00378525302, -45687.792681192484, -48142.70712646331, -36897.90211890962, -46032.076601037574, -29027.53997177362, -8995.772480460702, -0.092, 0.9520000000000001, 0.28, 192.0, 0.0, 0.0, 0.0, 0.0, 0.0, 0.0, 0.0, 0.0, 0.0, 1.700947213546142E9, 0.0, 2023-11-25 16:20:13.546
89.0, 16800.554609364823, 35082.98517262759, -45711.641992526296, -48141.76835319619, -36911.42492430507, -45805.00522911611, -29048.148280161415, -9020.180585405897, -0.092, 0.9520000000000001, 0.28, 192.0, 0.0, 0.0, 0.0, 0.0, 0.0, 0.0, 0.0, 0.0, 0.0, 1.700947213550176E9, 0.0, 2023-11-25 16:20:13.550
90.0, 16975.59112019433, 35139.15510644378, -45699.99673366508, -48132.5594344806, -36793.51947230333, -45647.26896849501, -29056.32901863206, -9030.26122215524, -0.096, 0.9500000000000001, 0.28400000000000003, 192.0, 253.0, 0.0, 29.0, 176.0, 8.0, 224.0, 0.0, 0.0, 0.0, 1.7009472135542E9, 0.0, 2023-11-25 16:20:13.554
91.0, 17098.995101332082, 35070.02116084351, -45651.784020874984, -48154.262978346705, -36518.66007073642, -45711.485530315105, -29061.51462334569, -9043.873434528523, -0.096, 0.9500000000000001, 0.28400000000000003, 192.0, 0.0, 0.0, 0.0, 0.0, 0.0, 0.0, 0.0, 0.0, 0.0, 1.700947213559205E9, 0.0, 2023-11-25 16:20:13.559
92.0, 16787.165914436093, 35033.85603831483, -45677.26500955403, -48132.04534435813, -36840.68165310403, -46016.13980724094, -29023.561361260578, -8998.298227584151, -0.096, 0.9500000000000001, 0.28400000000000003, 192.0, 0.0, 0.0, 0.0, 0.0, 0.0, 0.0, 0.0, 0.0, 0.0, 1.700947213563605E9, 0.0, 2023-11-25 16:20:13.563
93.0, 16788.55172259232, 35081.286440048985, -45705.31644884544, -48131.598309469024, -36913.99537491744, -45838.15286614333, -29037.777070734155, -9014.883221969989, -0.096, 0.9500000000000001, 0.28400000000000003, 192.0, 0.0, 0.0, 0.0, 0.0, 0.0, 0.0, 0.0, 0.0, 0.0, 1.700947213566275E9, 0.0, 2023-11-25 16:20:13.566
94.0, 16941.30354419989, 35141.39028088931, -45711.53023380402, -48125.47393148827, -36832.81383905576, -45656.03085232149, -29052.03748369664, -9024.338009874584, -0.096, 0.9500000000000001, 0.28400000000000003, 192.0, 0.0, 0.0, 0.0, 0.0, 0.0, 0.0, 0.0, 0.0, 0.0, 1.700947213570797E9, 0.0, 2023-11-25 16:20:13.570
95.0, 17115.91537188475, 35089.02014363052, -45650.241750507565, -48141.880111918465, -36529.63477726398, -45662.53520995798, -29055.636114553945, -9035.580937335604, -0.096, 0.9500000000000001, 0.28400000000000003, 192.0, 0.0, 0.0, 0.0, 0.0, 0.0, 0.0, 0.0, 0.0, 0.0, 1.700947213574326E9, 0.0, 2023-11-25 16:20:13.574
96.0, 16829.209545756526, 35019.66268058571, -45685.28928581349, -48147.60215849902, -36772.84410868217, -45983.215687658274, -29034.916047443876, -9006.143689887964, -0.096, 0.9500000000000001, 0.28400000000000003, 192.0, 0.0, 0.0, 0.0, 0.0, 0.0, 0.0, 0.0, 0.0, 0.0, 1.700947213578245E9, 0.0, 2023-11-25 16:20:13.578
97.0, 16746.530443016345, 35061.63925667277, -45709.27270761403, -48139.73434445076, -36933.8660757382, -45891.61823888043, -29036.704187000298, -9002.321541586107, -0.096, 0.9500000000000001, 0.28400000000000003, 192.0, 0.0, 0.0, 0.0, 0.0, 0.0, 0.0, 0.0, 0.0, 0.0, 1.70094721358424E9, 0.0, 2023-11-25 16:20:13.584
98.0, 16890.229808119515, 35133.61187381886, -45724.76246652156, -48133.632318214455, -36873.426958731055, -45676.70621594265, -29052.506870330202, -9009.027064922699, -0.096, 0.9500000000000001, 0.28400000000000003, 192.0, 0.0, 0.0, 0.0, 0.0, 0.0, 0.0, 0.0, 0.0, 0.0, 1.700947213587223E9, 0.0, 2023-11-25 16:20:13.587
99.0, 17086.969862815127, 35089.400123286265, -45681.355378789354, -48162.53312379517, -36587.14581574748, -45646.08432603888, -29072.221108939782, -9028.495434343271, -0.096, 0.9500000000000001, 0.28400000000000003, 192.0, 0.0, 0.0, 0.0, 0.0, 0.0, 0.0, 0.0, 0.0, 0.0, 1.700947213591291E9, 0.0, 2023-11-25 16:20:13.591
100.0, 16881.378517315214, 35019.05918348541, -45692.86652718384, -48162.644882517445, -36707.62171836159, -45944.54716975059, -29049.37762610646, -8995.548963016148, -0.096, 0.9500000000000001, 0.29, 192.0, 253.0, 0.0, 29.0, 176.0, 9.0, 16.0, 0.0, 0.0, 0.0, 1.700947213594314E9, 0.0, 2023-11-25 16:20:13.594
101.0, 16729.029027107837, 35058.06297755992, -45703.21538486664, -48130.81599841309, -36942.78442177587, -45936.120562090946, -29027.629378751444, -8961.216683532797, -0.096, 0.9500000000000001, 0.29, 192.0, 0.0, 0.0, 0.0, 0.0, 0.0, 0.0, 0.0, 0.0, 0.0, 1.700947213598291E9, 0.0, 2023-11-25 16:20:13.598
102.0, 16861.440761261078, 35128.15804817177, -45722.43788509821, -48122.41174249789, -36884.20049955851, -45681.51184100054, -29046.807175494097, -8974.985358117267, -0.096, 0.9500000000000001, 0.29, 192.0, 0.0, 0.0, 0.0, 0.0, 0.0, 0.0, 0.0, 0.0, 0.0, 1.700947213602357E9, 0.0, 2023-11-25 16:20:13.602
103.0, 17069.04376376197, 35110.723687496626, -45677.7790996765, -48138.30383280561, -36630.888179646514, -45610.63445933276, -29060.195870422827, -9002.9250386864, -0.096, 0.9500000000000001, 0.29, 192.0, 0.0, 0.0, 0.0, 0.0, 0.0, 0.0, 0.0, 0.0, 0.0, 1.700947213606408E9, 0.0, 2023-11-25 16:20:13.606
104.0, 16958.961422319582, 35029.87742780178, -45671.40885250674, -48150.17260911138, -36617.611243440064, -45862.44921236625, -29050.428158095856, -8998.007654906232, -0.096, 0.9500000000000001, 0.29, 192.0, 0.0, 0.0, 0.0, 0.0, 0.0, 0.0, 0.0, 0.0, 0.0, 1.700947213610357E9, 0.0, 2023-11-25 16:20:13.610
105.0, 16732.515899242866, 35056.23013451459, -45678.87433515482, -48114.09689356052, -36929.57454080279, -45971.01163518568, -29014.575959989546, -8962.446029477838, -0.096, 0.9500000000000001, 0.29, 192.0, 0.0, 0.0, 0.0, 0.0, 0.0, 0.0, 0.0, 0.0, 0.0, 1.700947213614418E9, 0.0, 2023-11-25 16:20:13.614
106.0, 16849.23670878848, 35133.030728463025, -45696.50986153005, -48105.22325101176, -36881.652400690604, -45714.88299547231, -29030.915085186374, -8978.047547107642, -0.096, 0.9500000000000001, 0.29, 192.0, 0.0, 0.0, 0.0, 0.0, 0.0, 0.0, 0.0, 0.0, 0.0, 1.700947213619373E9, 0.0, 2023-11-25 16:20:13.619
107.0, 17050.938850753173, 35136.24937966459, -45669.57600946141, -48124.15517856541, -36679.79379651473, -45614.97069775709, -29051.769262763177, -9006.098986399054, -0.096, 0.9500000000000001, 0.29, 192.0, 0.0, 0.0, 0.0, 0.0, 0.0, 0.0, 0.0, 0.0, 0.0, 1.70094721362238E9, 0.0, 2023-11-25 16:20:13.622
108.0, 17027.961257453117, 35046.976512310095, -45659.11539305632, -48153.43596380186, -36554.95930373184, -45811.330772796966, -29059.19004192234, -9022.706332529347, -0.096, 0.9500000000000001, 0.29, 192.0, 0.0, 0.0, 0.0, 0.0, 0.0, 0.0, 0.0, 0.0, 0.0, 1.700947213626373E9, 0.0, 2023-11-25 16:20:13.626
109.0, 16736.226288822447, 35045.434241942676, -45681.17656483371, -48122.34468726453, -36918.95746218651, -46016.497435152225, -29013.480724511235, -8975.410041261917, -0.096, 0.9500000000000001, 0.29, 192.0, 0.0, 0.0, 0.0, 0.0, 0.0, 0.0, 0.0, 0.0, 0.0, 1.70094721363037E9, 0.0, 2023-11-25 16:20:13.630
110.0, 16827.37670271119, 35116.84806547738, -45699.952030176166, -48111.28057375915, -36895.06344736379, -45755.36200468088, -29017.481686768733, -8979.008672119222, -0.096, 0.9460000000000001, 0.28600000000000003, 192.0, 253.0, 0.0, 29.0, 144.0, 8.0, 240.0, 0.0, 0.0, 0.0, 1.700947213634374E9, 0.0, 2023-11-25 16:20:13.634
111.0, 17012.829126456872, 35148.542839115005, -45686.83155618091, -48118.96957385178, -36742.31162575622, -45622.48088389407, -29034.446660810314, -8997.761785717224, -0.096, 0.9460000000000001, 0.28600000000000003, 192.0, 0.0, 0.0, 0.0, 0.0, 0.0, 0.0, 0.0, 0.0, 0.0, 1.700947213638412E9, 0.0, 2023-11-25 16:20:13.638
112.0, 17073.402353930756, 35066.51193696403, -45656.16496278822, -48153.92770217988, -36520.11293412602, -45751.472801145654, -29047.343617361024, -9015.285553370184, -0.096, 0.9460000000000001, 0.28600000000000003, 192.0, 0.0, 0.0, 0.0, 0.0, 0.0, 0.0, 0.0, 0.0, 0.0, 1.700947213642393E9, 0.0, 2023-11-25 16:20:13.642
113.0, 16759.36034433369, 35041.36622445181, -45681.221268322624, -48133.565262981094, -36878.21023204449, -46024.1640835004, -29011.022032621153, -8971.34202377105, -0.096, 0.9460000000000001, 0.28600000000000003, 192.0, 0.0, 0.0, 0.0, 0.0, 0.0, 0.0, 0.0, 0.0, 0.0, 1.700947213646429E9, 0.0, 2023-11-25 16:20:13.646
114.0, 16803.885019288664, 35104.17462637122, -45701.002562165566, -48130.10074259052, -36901.523101511375, -45804.35702852691, -29026.22121885076, -8986.116526856009, -0.096, 0.9460000000000001, 0.28600000000000003, 192.0, 0.0, 0.0, 0.0, 0.0, 0.0, 0.0, 0.0, 0.0, 0.0, 1.700947213650452E9, 0.0, 2023-11-25 16:20:13.650
115.0, 16971.25488177, 35157.081205496936, -45694.31939057343, -48127.01620185569, -36792.51364380284, -45642.284529481476, -29038.112346900984, -8999.192297362364, -0.096, 0.9460000000000001, 0.28600000000000003, 192.0, 0.0, 0.0, 0.0, 0.0, 0.0, 0.0, 0.0, 0.0, 0.0, 1.700947213653503E9, 0.0, 2023-11-25 16:20:13.653
116.0, 17097.318720497933, 35078.51482373653, -45659.31655875642, -48167.24934187524, -36516.17902710188, -45707.90925120226, -29066.633172825954, -9033.815149523634, -0.096, 0.9460000000000001, 0.28600000000000003, 192.0, 0.0, 0.0, 0.0, 0.0, 0.0, 0.0, 0.0, 0.0, 0.0, 1.700947213658471E9, 0.0, 2023-11-25 16:20:13.658
117.0, 16779.49926608792, 35032.44787841414, -45685.691617213684, -48151.08903063405, -36833.1938187115, -46026.95805155731, -29035.385434077434, -8990.743337958258, -0.096, 0.9460000000000001, 0.28600000000000003, 192.0, 0.0, 0.0, 0.0, 0.0, 0.0, 0.0, 0.0, 0.0, 0.0, 1.700947213662467E9, 0.0, 2023-11-25 16:20:13.662
