%OpenBCI Raw EXG Data
%Number of channels = 8
%Sample Rate = 250 Hz
%Board = OpenBCI_GUI$BoardCytonSerial
Sample Index, EXG Channel 0, EXG Channel 1, EXG Channel 2, EXG Channel 3, EXG Channel 4, EXG Channel 5, EXG Channel 6, EXG Channel 7, Accel Channel 0, Accel Channel 1, Accel Channel 2, Other, Other, Other, Other, Other, Other, Other, Analog Channel 0, Analog Channel 1, Analog Channel 2, Timestamp, Other, Timestamp (Formatted)
26.0, 17687.44947760695, 36447.13448847944, -45014.93811785438, -47452.798182105806, -35851.28168478986, -45116.280927214735, -28452.988380549956, -8413.174261233124, 0.0, 0.0, 0.0, 192.0, 0.0, 0.0, 0.0, 0.0, 0.0, 0.0, 0.0, 0.0, 0.0, 1.700947256278516E9, 0.0, 2023-11-25 16:20:56.278
27.0, 17698.73710855688, 36500.2645850497, -45030.80785641764, -47447.32200471425, -35907.0269354614, -44926.93929993383, -28454.642409639648, -8420.058598525358, 0.0, 0.0, 0.0, 192.0, 0.0, 0.0, 0.0, 0.0, 0.0, 0.0, 0.0, 0.0, 0.0, 1.700947256278535E9, 0.0, 2023-11-25 16:20:56.278
28.0, 17861.25664249142, 36552.63472230849, -45036.95458614285, -47450.8535803382, -35815.697707617015, -44736.8600650859, -28472.30028775934, -8436.598889422285, 0.0, 0.0, 0.0, 192.0, 0.0, 0.0, 0.0, 0.0, 0.0, 0.0, 0.0, 0.0, 0.0, 1.700947256278543E9, 0.0, 2023-11-25 16:20:56.278
0.0, 0.0, 0.0, 0.0, 0.0, 0.0, 0.0, 0.0, 0.0, -0.098, 0.9440000000000001, 0.298, 192.0, 252.0, 240.0, 29.0, 128.0, 9.0, 80.0, 0.0, 0.0, 0.0, 1.700947256362313E9, 0.0, 2023-11-25 16:20:56.362
1.0, 17751.80014989378, 36551.89711474146, -44959.95282649432, -47404.965448971445, -35768.8931547276, -45071.4880313263, -28385.821388461758, -8324.057856089814, -0.098, 0.9440000000000001, 0.298, 192.0, 0.0, 0.0, 0.0, 0.0, 0.0, 0.0, 0.0, 0.0, 0.0, 1.700947256379365E9, 0.0, 2023-11-25 16:20:56.379
2.0, 17758.259804041365, 36608.64819391348, -44978.23655345876, -47390.570925542226, -35837.982396838954, -44890.483604727226, -28397.28783336733, -8326.337734024255, -0.098, 0.9440000000000001, 0.298, 192.0, 0.0, 0.0, 0.0, 0.0, 0.0, 0.0, 0.0, 0.0, 0.0, 1.700947256382375E9, 0.0, 2023-11-25 16:20:56.382
3.0, 17931.239954380984, 36666.94154345293, -44997.302591479136, -47389.185117386, -35748.016625406344, -44687.32859937294, -28426.97095000398, -8346.119027867202, -0.098, 0.9440000000000001, 0.298, 192.0, 0.0, 0.0, 0.0, 0.0, 0.0, 0.0, 0.0, 0.0, 0.0, 1.700947256385325E9, 0.0, 2023-11-25 16:20:56.385
4.0, 18103.25897970903, 36613.47617071583, -44949.335747878045, -47408.56407982875, -35463.568325468106, -44693.00594246459, -28437.163345475597, -8365.341528098767, -0.098, 0.9440000000000001, 0.298, 192.0, 0.0, 0.0, 0.0, 0.0, 0.0, 0.0, 0.0, 0.0, 0.0, 1.700947256388311E9, 0.0, 2023-11-25 16:20:56.388
5.0, 17831.394711899127, 36563.83294628059, -44963.529105607166, -47388.827489474716, -35685.029409531286, -45011.76417014172, -28400.640595035627, -8323.253193289424, -0.098, 0.9440000000000001, 0.298, 192.0, 0.0, 0.0, 0.0, 0.0, 0.0, 0.0, 0.0, 0.0, 0.0, 1.700947256393399E9, 0.0, 2023-11-25 16:20:56.393
6.0, 17750.66021092656, 36602.233243254814, -44984.785614584165, -47377.11517538013, -35836.797754382824, -44920.27848008615, -28404.172170659564, -8324.817815401295, -0.098, 0.9440000000000001, 0.298, 192.0, 0.0, 0.0, 0.0, 0.0, 0.0, 0.0, 0.0, 0.0, 0.0, 1.700947256398388E9, 0.0, 2023-11-25 16:20:56.398
7.0, 17910.899866926655, 36680.01731395928, -44994.32980946658, -47362.98887288438, -35760.6900645125, -44686.479233083635, -28418.186714433043, -8335.993687628948, -0.098, 0.9440000000000001, 0.298, 192.0, 0.0, 0.0, 0.0, 0.0, 0.0, 0.0, 0.0, 0.0, 0.0, 1.700947256401444E9, 0.0, 2023-11-25 16:20:56.401
8.0, 18112.24438098006, 36653.46344154637, -44935.58942503804, -47372.108384622145, -35477.605220986035, -44635.74077317009, -28426.501563370417, -8352.690440737062, -0.094, 0.9500000000000001, 0.298, 192.0, 253.0, 16.0, 29.0, 176.0, 9.0, 80.0, 0.0, 0.0, 0.0, 1.700947256405366E9, 0.0, 2023-11-25 16:20:56.405
9.0, 17902.78618368938, 36584.19538547938, -44944.41836409788, -47372.93539916699, -35590.66034444098, -44933.80128548161, -28401.445257836018, -8329.466978247998, -0.094, 0.9500000000000001, 0.298, 192.0, 0.0, 0.0, 0.0, 0.0, 0.0, 0.0, 0.0, 0.0, 0.0, 1.700947256409375E9, 0.0, 2023-11-25 16:20:56.409
10.0, 17742.27830675582, 36618.90764461847, -44961.025710228176, -47349.13079132209, -35829.891065346135, -44958.05292821562, -28388.637708263126, -8312.07732106177, -0.094, 0.9500000000000001, 0.298, 192.0, 0.0, 0.0, 0.0, 0.0, 0.0, 0.0, 0.0, 0.0, 0.0, 1.700947256413447E9, 0.0, 2023-11-25 16:20:56.413
11.0, 17893.376099273693, 36692.19901468742, -44980.13645173746, -47345.08512557568, -35764.06517792525, -44699.46559661217, -28408.888388739633, -8331.41158001561, -0.094, 0.9500000000000001, 0.298, 192.0, 0.0, 0.0, 0.0, 0.0, 0.0, 0.0, 0.0, 0.0, 0.0, 1.700947256417416E9, 0.0, 2023-11-25 16:20:56.417
12.0, 18097.156953472728, 36669.17671789846, -44946.675890287865, -47374.343559067675, -35524.879160509015, -44623.22379627512, -28440.33729318825, -8371.264740379422, -0.094, 0.9500000000000001, 0.298, 192.0, 0.0, 0.0, 0.0, 0.0, 0.0, 0.0, 0.0, 0.0, 0.0, 1.700947256421878E9, 0.0, 2023-11-25 16:20:56.421
13.0, 17969.327326932827, 36579.032132510205, -44948.95576822231, -47398.751664012874, -35521.012308718244, -44887.26495352566, -28441.276066455375, -8374.170467158612, -0.094, 0.9500000000000001, 0.298, 192.0, 0.0, 0.0, 0.0, 0.0, 0.0, 0.0, 0.0, 0.0, 0.0, 1.700947256425465E9, 0.0, 2023-11-25 16:20:56.425
14.0, 17728.12965251561, 36596.31003097416, -44956.93534099285, -47364.44173627398, -35834.04848981482, -45022.15773131344, -28409.603644562205, -8336.619536473696, -0.094, 0.9500000000000001, 0.298, 192.0, 0.0, 0.0, 0.0, 0.0, 0.0, 0.0, 0.0, 0.0, 0.0, 1.700947256428516E9, 0.0, 2023-11-25 16:20:56.428
15.0, 17860.407276202117, 36674.47408133437, -44968.96057950981, -47353.62349195761, -35779.46552985496, -44752.43923097125, -28426.188638948042, -8352.042240147859, -0.094, 0.9500000000000001, 0.298, 192.0, 0.0, 0.0, 0.0, 0.0, 0.0, 0.0, 0.0, 0.0, 0.0, 1.700947256432445E9, 0.0, 2023-11-25 16:20:56.432
16.0, 18073.48645609456, 36694.43418913295, -44931.454352313805, -47357.33388153719, -35580.46794896936, -44634.57848245841, -28432.58123786226, -8365.60974903223, -0.094, 0.9500000000000001, 0.298, 192.0, 0.0, 0.0, 0.0, 0.0, 0.0, 0.0, 0.0, 0.0, 0.0, 1.700947256437397E9, 0.0, 2023-11-25 16:20:56.437
17.0, 18049.257165105006, 36611.956252092874, -44912.902404415894, -47381.16084112655, -35450.11257530601, -44817.125179424904, -28435.062281496797, -8367.286129866377, -0.094, 0.9500000000000001, 0.298, 192.0, 0.0, 0.0, 0.0, 0.0, 0.0, 0.0, 0.0, 0.0, 0.0, 1.700947256441417E9, 0.0, 2023-11-25 16:20:56.441
18.0, 17742.233603266908, 36603.216720010845, -44942.4067070969, -47358.2279513154, -35805.14768423411, -45047.16933335893, -28405.62503404916, -8337.625364974185, -0.088, 0.9480000000000001, 0.294, 192.0, 253.0, 64.0, 29.0, 160.0, 9.0, 48.0, 0.0, 0.0, 0.0, 1.700947256445427E9, 0.0, 2023-11-25 16:20:56.445
19.0, 17834.412197400594, 36675.16698541248, -44965.831335286064, -47353.15410532404, -35781.007800222374, -44793.61114425792, -28423.461726124493, -8361.251158863444, -0.088, 0.9480000000000001, 0.294, 192.0, 0.0, 0.0, 0.0, 0.0, 0.0, 0.0, 0.0, 0.0, 0.0, 1.700947256448521E9, 0.0, 2023-11-25 16:20:56.448
20.0, 18034.303848064406, 36713.14259924205, -44952.53204733515, -47359.03261411579, -35628.32303384817, -44648.369508787335, -28436.87277279768, -8371.935292713082, -0.088, 0.9480000000000001, 0.294, 192.0, 0.0, 0.0, 0.0, 0.0, 0.0, 0.0, 0.0, 0.0, 0.0, 1.700947256452488E9, 0.0, 2023-11-25 16:20:56.452
21.0, 18083.991775988554, 36616.82893238413, -44939.16570415088, -47405.90422223857, -35420.563569136095, -44774.075719603985, -28465.21478476701, -8399.696159326573, -0.088, 0.9480000000000001, 0.294, 192.0, 0.0, 0.0, 0.0, 0.0, 0.0, 0.0, 0.0, 0.0, 0.0, 1.700947256458477E9, 0.0, 2023-11-25 16:20:56.458
22.0, 17755.152911562076, 36596.153568762966, -44962.65738757341, -47375.90818117955, -35778.23618390992, -45074.460813338854, -28414.744545786925, -8341.98395514297, -0.088, 0.9480000000000001, 0.294, 192.0, 0.0, 0.0, 0.0, 0.0, 0.0, 0.0, 0.0, 0.0, 0.0, 1.700947256461506E9, 0.0, 2023-11-25 16:20:56.461
23.0, 17810.160554666585, 36663.07469166216, -44974.48146039027, -47362.13950659508, -35795.692896329514, -44847.81412456204, -28415.9068364986, -8342.520397009897, -0.088, 0.9480000000000001, 0.294, 192.0, 0.0, 0.0, 0.0, 0.0, 0.0, 0.0, 0.0, 0.0, 0.0, 1.700947256465505E9, 0.0, 2023-11-25 16:20:56.465
24.0, 17996.46234470157, 36718.26114872231, -44974.302646434626, -47360.172553083015, -35680.894336807054, -44666.04973865148, -28428.692034327036, -8348.689478479562, -0.088, 0.9480000000000001, 0.294, 192.0, 0.0, 0.0, 0.0, 0.0, 0.0, 0.0, 0.0, 0.0, 0.0, 1.700947256469479E9, 0.0, 2023-11-25 16:20:56.469
25.0, 18121.140375273273, 36644.746261208806, -44936.3046808606, -47394.437777333, -35416.54025513414, -44715.26827994207, -28444.20414497902, -8368.89545546716, -0.088, 0.9480000000000001, 0.294, 192.0, 0.0, 0.0, 0.0, 0.0, 0.0, 0.0, 0.0, 0.0, 0.0, 1.700947256473501E9, 0.0, 2023-11-25 16:20:56.473
26.0, 17801.756298751392, 36598.90283333097, -44964.154954451915, -47383.23955336089, -35724.74845942837, -45046.521132769725, -28409.00014746191, -8329.98106837047, -0.088, 0.9480000000000001, 0.294, 192.0, 0.0, 0.0, 0.0, 0.0, 0.0, 0.0, 0.0, 0.0, 0.0, 1.700947256476612E9, 0.0, 2023-11-25 16:20:56.476
27.0, 17787.250016599897, 36657.86673520407, -44973.252114445226, -47364.30762580725, -35809.528626147345, -44885.96855234725, -28399.321842112764, -8319.922783365582, -0.094, 0.9440000000000001, 0.294, 192.0, 253.0, 16.0, 29.0, 128.0, 9.0, 48.0, 0.0, 0.0, 0.0, 1.700947256480627E9, 0.0, 2023-11-25 16:20:56.480
28.0, 17957.011515737955, 36722.8656080801, -44983.28804770566, -47361.80423042825, -35725.03903210629, -44677.20325913469, -28417.404403377106, -8333.333830038766, -0.094, 0.9440000000000001, 0.294, 192.0, 0.0, 0.0, 0.0, 0.0, 0.0, 0.0, 0.0, 0.0, 0.0, 1.7009472564853E9, 0.0, 2023-11-25 16:20:56.485
29.0, 18125.856593353343, 36665.60043878561, -44938.67396577287, -47395.30949536675, -35447.72093864929, -44680.690131269715, -28449.255639225918, -8372.784659002384, -0.094, 0.9440000000000001, 0.294, 192.0, 0.0, 0.0, 0.0, 0.0, 0.0, 0.0, 0.0, 0.0, 0.0, 1.700947256488591E9, 0.0, 2023-11-25 16:20:56.488
30.0, 17860.340220968752, 36605.586004923105, -44947.54760832162, -47384.357140583656, -35652.61938007109, -45004.47750144929, -28409.380127117653, -8335.010210872913, -0.094, 0.9440000000000001, 0.294, 192.0, 0.0, 0.0, 0.0, 0.0, 0.0, 0.0, 0.0, 0.0, 0.0, 1.700947256493623E9, 0.0, 2023-11-25 16:20:56.493
31.0, 17766.88757740111, 36649.95421766689, -44956.197733425826, -47362.47478276191, -35821.08447803074, -44936.5058465607, -28403.121638670164, -8329.98106837047, -0.094, 0.9440000000000001, 0.294, 192.0, 0.0, 0.0, 0.0, 0.0, 0.0, 0.0, 0.0, 0.0, 0.0, 1.700947256497668E9, 0.0, 2023-11-25 16:20:56.497
32.0, 17924.757948488947, 36720.74219235685, -44969.78759405465, -47356.50686699234, -35749.69300624049, -44695.93402098823, -28418.946673744522, -8347.571891256797, -0.094, 0.9440000000000001, 0.294, 192.0, 0.0, 0.0, 0.0, 0.0, 0.0, 0.0, 0.0, 0.0, 0.0, 1.700947256501628E9, 0.0, 2023-11-25 16:20:56.501
33.0, 18127.197698020664, 36687.192223929436, -44916.970421906764, -47377.74102422488, -35481.58383149908, -44645.732002941615, -28430.23430469445, -8371.04122293487, -0.094, 0.9440000000000001, 0.294, 192.0, 0.0, 0.0, 0.0, 0.0, 0.0, 0.0, 0.0, 0.0, 0.0, 1.700947256504591E9, 0.0, 2023-11-25 16:20:56.504
34.0, 17934.659771282648, 36612.090362559604, -44918.13271261844, -47383.172498127526, -35570.9461058314, -44936.63995702743, -28413.403441119608, -8351.170522114102, -0.094, 0.9440000000000001, 0.294, 192.0, 0.0, 0.0, 0.0, 0.0, 0.0, 0.0, 0.0, 0.0, 0.0, 1.700947256508631E9, 0.0, 2023-11-25 16:20:56.508
35.0, 17752.023667338333, 36637.43724077192, -44925.08410514404, -47356.171590825514, -35825.979510066456, -44974.8167365571, -28388.972984429955, -8325.153091568123, -0.094, 0.9440000000000001, 0.294, 192.0, 0.0, 0.0, 0.0, 0.0, 0.0, 0.0, 0.0, 0.0, 0.0, 1.70094725651264E9, 0.0, 2023-11-25 16:20:56.512
36.0, 17887.40818350413, 36698.077523479165, -44946.92175947688, -47359.83727691618, -35766.345055859696, -44715.42474215326, -28406.362641616186, -8349.98587965797, -0.094, 0.9440000000000001, 0.294, 192.0, 0.0, 0.0, 0.0, 0.0, 0.0, 0.0, 0.0, 0.0, 0.0, 1.700947256516772E9, 0.0, 2023-11-25 16:20:56.516
37.0, 18091.43490689217, 36679.838500003636, -44907.87326191345, -47382.05491090476, -35539.810125805154, -44633.72911616911, -28422.67941506856, -8381.077156195302, -0.108, 0.9420000000000001, 0.298, 192.0, 252.0, 160.0, 29.0, 112.0, 9.0, 80.0, 0.0, 0.0, 0.0, 1.700947256520732E9, 0.0, 2023-11-25 16:20:56.520
38.0, 17991.522609176947, 36594.119560017534, -44901.36890427696, -47398.59520180168, -35512.16101791394, -44873.80920336356, -28414.81160102029, -8373.589321802774, -0.108, 0.9420000000000001, 0.298, 192.0, 0.0, 0.0, 0.0, 0.0, 0.0, 0.0, 0.0, 0.0, 0.0, 1.700947256525789E9, 0.0, 2023-11-25 16:20:56.525
39.0, 17731.41535895054, 36608.24586251329, -44917.41745679587, -47365.00052988536, -35838.541190450334, -45016.56979519961, -28375.874862179146, -8331.121007337691, -0.108, 0.9420000000000001, 0.298, 192.0, 0.0, 0.0, 0.0, 0.0, 0.0, 0.0, 0.0, 0.0, 0.0, 1.70094725652975E9, 0.0, 2023-11-25 16:20:56.529
40.0, 17843.710523094003, 36674.317619123176, -44947.99464321073, -47363.19003858448, -35793.725942817444, -44747.07481230197, -28398.651289779104, -8353.2715860929, -0.108, 0.9420000000000001, 0.298, 192.0, 0.0, 0.0, 0.0, 0.0, 0.0, 0.0, 0.0, 0.0, 0.0, 1.700947256532747E9, 0.0, 2023-11-25 16:20:56.532
41.0, 18047.200804615117, 36686.67813380696, -44932.281366858646, -47378.65744574755, -35612.34153656263, -44629.52698821152, -28423.171153446576, -8382.999406218458, -0.108, 0.9420000000000001, 0.298, 192.0, 0.0, 0.0, 0.0, 0.0, 0.0, 0.0, 0.0, 0.0, 0.0, 1.700947256536762E9, 0.0, 2023-11-25 16:20:56.536
42.0, 18044.22802260256, 36593.67252512843, -44923.02774465415, -47410.0392949628, -35469.96092438232, -44812.185443900285, -28435.75518557491, -8400.277304682411, -0.108, 0.9420000000000001, 0.298, 192.0, 0.0, 0.0, 0.0, 0.0, 0.0, 0.0, 0.0, 0.0, 0.0, 1.700947256540716E9, 0.0, 2023-11-25 16:20:56.540
43.0, 17735.304562485762, 36580.350885433065, -44952.621454312975, -47383.46307080544, -35826.96298682249, -45053.56193227314, -28394.695031010513, -8360.200626874046, -0.108, 0.9420000000000001, 0.298, 192.0, 0.0, 0.0, 0.0, 0.0, 0.0, 0.0, 0.0, 0.0, 0.0, 1.700947256544708E9, 0.0, 2023-11-25 16:20:56.544
44.0, 17816.66491230308, 36641.01351988477, -44983.42215817239, -47385.65354176206, -35819.43044894105, -44808.56446129853, -28411.838819007735, -8382.105336440247, -0.108, 0.9420000000000001, 0.298, 192.0, 0.0, 0.0, 0.0, 0.0, 0.0, 0.0, 0.0, 0.0, 0.0, 1.700947256548814E9, 0.0, 2023-11-25 16:20:56.548
45.0, 18008.912266363175, 36678.4079883585, -44977.07426274708, -47391.37558834262, -35690.03620028927, -44662.18288686072, -28429.34023491624, -8403.51830762843, -0.108, 0.9420000000000001, 0.298, 192.0, 0.0, 0.0, 0.0, 0.0, 0.0, 0.0, 0.0, 0.0, 0.0, 1.700947256553744E9, 0.0, 2023-11-25 16:20:56.553
46.0, 18092.217217948106, 36597.5393769192, -44940.75267800721, -47414.062608964756, -35464.57415396859, -44763.928027621274, -28437.789194320347, -8413.800110077871, -0.108, 0.9420000000000001, 0.298, 192.0, 0.0, 0.0, 0.0, 0.0, 0.0, 0.0, 0.0, 0.0, 0.0, 1.700947256557803E9, 0.0, 2023-11-25 16:20:56.557
47.0, 17759.779722664323, 36559.317893900625, -44974.369701667994, -47393.722521510426, -35811.987318037434, -45067.621179535534, -28407.14495267212, -8373.790487502873, -0.098, 0.9380000000000001, 0.304, 192.0, 252.0, 240.0, 29.0, 80.0, 9.0, 128.0, 0.0, 0.0, 0.0, 1.700947256560863E9, 0.0, 2023-11-25 16:20:56.560
48.0, 17788.725231733948, 36614.750220149785, -44996.43087344538, -47386.39114932909, -35846.788984154344, -44857.58183688901, -28421.67358656807, -8387.42505162061, -0.098, 0.9380000000000001, 0.304, 192.0, 0.0, 0.0, 0.0, 0.0, 0.0, 0.0, 0.0, 0.0, 0.0, 1.700947256564776E9, 0.0, 2023-11-25 16:20:56.564
49.0, 17972.613033367757, 36687.68396230745, -44981.85753606052, -47368.688567720485, -35734.42676477751, -44664.12748862833, -28419.751336544912, -8386.307464397843, -0.098, 0.9380000000000001, 0.304, 192.0, 0.0, 0.0, 0.0, 0.0, 0.0, 0.0, 0.0, 0.0, 0.0, 1.70094725656881E9, 0.0, 2023-11-25 16:20:56.568
50.0, 18118.994607805565, 36618.21474054036, -44936.08116341605, -47400.204527402464, -35451.29721776214, -44695.41993086576, -28436.15751697511, -8406.312275685345, -0.098, 0.9380000000000001, 0.304, 192.0, 0.0, 0.0, 0.0, 0.0, 0.0, 0.0, 0.0, 0.0, 0.0, 1.700947256572784E9, 0.0, 2023-11-25 16:20:56.572
51.0, 17806.494868575915, 36567.968019004824, -44963.01501548469, -47386.83818421819, -35735.87962816711, -45030.24906280626, -28399.835932235233, -8364.402754831643, -0.098, 0.9380000000000001, 0.304, 192.0, 0.0, 0.0, 0.0, 0.0, 0.0, 0.0, 0.0, 0.0, 0.0, 1.700947256576956E9, 0.0, 2023-11-25 16:20:56.576
52.0, 17768.98864137991, 36622.998013853794, -44971.53103012217, -47364.17351534051, -35844.687920175544, -44888.583706448524, -28389.822350719256, -8354.098600637746, -0.098, 0.9380000000000001, 0.304, 192.0, 0.0, 0.0, 0.0, 0.0, 0.0, 0.0, 0.0, 0.0, 0.0, 1.700947256580816E9, 0.0, 2023-11-25 16:20:56.580
53.0, 17928.401282835162, 36684.3088488947, -44981.47755640478, -47358.6749862045, -35766.56857330425, -44665.6921107402, -28402.965176458976, -8364.17923738709, -0.098, 0.9380000000000001, 0.304, 192.0, 0.0, 0.0, 0.0, 0.0, 0.0, 0.0, 0.0, 0.0, 0.0, 1.700947256585102E9, 0.0, 2023-11-25 16:20:56.585
54.0, 18107.52816289999, 36623.065069087155, -44931.38729708044, -47388.84984121917, -35482.65671523294, -44645.39672677478, -28419.594874333725, -8390.621351077718, -0.098, 0.9380000000000001, 0.304, 192.0, 0.0, 0.0, 0.0, 0.0, 0.0, 0.0, 0.0, 0.0, 0.0, 1.700947256588832E9, 0.0, 2023-11-25 16:20:56.588
55.0, 17853.522938909882, 36555.18282117639, -44939.88095997345, -47384.625361517115, -35661.045987730744, -44965.47370737478, -28389.19650187451, -8355.730277982984, -0.098, 0.9380000000000001, 0.304, 192.0, 0.0, 0.0, 0.0, 0.0, 0.0, 0.0, 0.0, 0.0, 0.0, 1.700947256592942E9, 0.0, 2023-11-25 16:20:56.592
56.0, 17733.27055374033, 36592.57728965012, -44945.80417225411, -47362.29596880627, -35853.87448714668, -44925.93347143334, -28377.28302207983, -8343.83914993276, -0.098, 0.9380000000000001, 0.304, 192.0, 0.0, 0.0, 0.0, 0.0, 0.0, 0.0, 0.0, 0.0, 0.0, 1.700947256596868E9, 0.0, 2023-11-25 16:20:56.596
57.0, 17879.495665966948, 36661.48771780583, -44965.496059119236, -47363.97234964041, -35787.53450960333, -44685.11577667186, -28396.594929289215, -8364.447458320554, -0.09, 0.9420000000000001, 0.302, 192.0, 253.0, 48.0, 29.0, 112.0, 9.0, 112.0, 0.0, 0.0, 0.0, 1.700947256600876E9, 0.0, 2023-11-25 16:20:56.600
58.0, 18077.33095614087, 36633.771554681254, -44916.970421906764, -47389.945076697484, -35526.7343552988, -44631.3374795124, -28407.033193949843, -8381.300673639855, -0.09, 0.9420000000000001, 0.302, 192.0, 0.0, 0.0, 0.0, 0.0, 0.0, 0.0, 0.0, 0.0, 0.0, 1.700947256605033E9, 0.0, 2023-11-25 16:20:56.605
59.0, 17909.22348609251, 36554.556972331644, -44921.82075045357, -47402.28323963681, -35589.43099849594, -44917.529215518145, -28389.040039663323, -8360.401792574143, -0.09, 0.9420000000000001, 0.302, 192.0, 0.0, 0.0, 0.0, 0.0, 0.0, 0.0, 0.0, 0.0, 0.0, 1.700947256608869E9, 0.0, 2023-11-25 16:20:56.608
60.0, 17711.321140685217, 36579.99325752178, -44944.68658503134, -47383.2842568498, -35866.637333230654, -44989.5688878976, -28363.290830050806, -8337.245385318445, -0.09, 0.9420000000000001, 0.302, 192.0, 0.0, 0.0, 0.0, 0.0, 0.0, 0.0, 0.0, 0.0, 0.0, 1.700947256612892E9, 0.0, 2023-11-25 16:20:56.612
61.0, 17854.372305199184, 36665.17575564096, -44966.65834983091, -47376.35521606865, -35810.78032383684, -44730.802742338514, -28378.892347680612, -8348.93534766857, -0.09, 0.9420000000000001, 0.302, 192.0, 0.0, 0.0, 0.0, 0.0, 0.0, 0.0, 0.0, 0.0, 0.0, 1.700947256615999E9, 0.0, 2023-11-25 16:20:56.615
62.0, 18071.00541246002, 36664.3040376072, -44938.65161402841, -47397.27644887882, -35585.206518793886, -44636.18780805919, -28404.216874148475, -8383.289978896377, -0.09, 0.9420000000000001, 0.302, 192.0, 0.0, 0.0, 0.0, 0.0, 0.0, 0.0, 0.0, 0.0, 0.0, 1.700947256619954E9, 0.0, 2023-11-25 16:20:56.619
63.0, 17994.785963867424, 36578.31687668763, -44940.48445707375, -47422.77978930233, -35524.61093957555, -44871.663435895854, -28414.63278706465, -8396.499859869464, -0.09, 0.9420000000000001, 0.302, 192.0, 0.0, 0.0, 0.0, 0.0, 0.0, 0.0, 0.0, 0.0, 0.0, 1.700947256625006E9, 0.0, 2023-11-25 16:20:56.625
64.0, 17723.16756524653, 36588.55397564817, -44958.768184038185, -47387.55344004076, -35856.35553078121, -45045.56000775815, -28379.42878954754, -8360.290033851867, -0.09, 0.9420000000000001, 0.302, 192.0, 0.0, 0.0, 0.0, 0.0, 0.0, 0.0, 0.0, 0.0, 0.0, 1.700947256628886E9, 0.0, 2023-11-25 16:20:56.628
65.0, 17841.743569581937, 36669.80256674321, -44973.18505921186, -47371.59429449967, -35809.41686742507, -44778.09903360594, -28391.76695248687, -8374.03635669188, -0.09, 0.9420000000000001, 0.302, 192.0, 0.0, 0.0, 0.0, 0.0, 0.0, 0.0, 0.0, 0.0, 0.0, 1.700947256632933E9, 0.0, 2023-11-25 16:20:56.632
66.0, 18043.04338014643, 36689.78502628625, -44956.689471803846, -47385.1841551285, -35636.861400230104, -44652.61634023385, -28423.349967402217, -8406.066406496335, -0.09, 0.9420000000000001, 0.302, 192.0, 0.0, 0.0, 0.0, 0.0, 0.0, 0.0, 0.0, 0.0, 0.0, 1.700947256636964E9, 0.0, 2023-11-25 16:20:56.636
67.0, 18056.744999497532, 36604.401362466975, -44938.6069105395, -47416.43189387702, -35473.268982561705, -44816.74519976917, -28438.593857120737, -8428.596964907285, -0.092, 0.9520000000000001, 0.296, 192.0, 253.0, 32.0, 29.0, 192.0, 9.0, 64.0, 0.0, 0.0, 0.0, 1.700947256640947E9, 0.0, 2023-11-25 16:20:56.640
68.0, 17739.819614865733, 36599.28281298671, -44959.975178238776, -47382.92662893851, -35836.39542298263, -45079.087624441105, -28394.49386531042, -8383.647606807663, -0.092, 0.9520000000000001, 0.296, 192.0, 0.0, 0.0, 0.0, 0.0, 0.0, 0.0, 0.0, 0.0, 0.0, 1.700947256644033E9, 0.0, 2023-11-25 16:20:56.644
69.0, 17816.150822180607, 36667.83561323114, -44980.35996918201, -47375.930532924, -35832.08153630275, -44833.710173810745, -28409.08955443973, -8395.292865668878, -0.092, 0.9520000000000001, 0.296, 192.0, 0.0, 0.0, 0.0, 0.0, 0.0, 0.0, 0.0, 0.0, 0.0, 1.70094725664799E9, 0.0, 2023-11-25 16:20:56.647
70.0, 18008.21936228506, 36710.30392769622, -44970.56990511059, -47376.51167827984, -35700.63092716109, -44669.82718346443, -28422.63471157965, -8407.362807674743, -0.092, 0.9520000000000001, 0.296, 192.0, 0.0, 0.0, 0.0, 0.0, 0.0, 0.0, 0.0, 0.0, 0.0, 1.700947256652991E9, 0.0, 2023-11-25 16:20:56.652
71.0, 18100.57677037439, 36620.71813591935, -44939.07629717306, -47412.05095196378, -35457.622761442995, -44750.740498392646, -28444.42766242357, -8432.597927164785, -0.092, 0.9520000000000001, 0.296, 192.0, 0.0, 0.0, 0.0, 0.0, 0.0, 0.0, 0.0, 0.0, 0.0, 1.700947256657047E9, 0.0, 2023-11-25 16:20:56.657
72.0, 17762.573690721238, 36581.15554823346, -44965.04902423013, -47388.02282667432, -35797.9504225195, -45062.14500214398, -28403.076935181256, -8378.640816049674, -0.092, 0.9520000000000001, 0.296, 192.0, 0.0, 0.0, 0.0, 0.0, 0.0, 0.0, 0.0, 0.0, 0.0, 1.700947256661131E9, 0.0, 2023-11-25 16:20:56.661
73.0, 17777.214083339462, 36642.086403618625, -44974.03442550116, -47366.29693106376, -35846.11843182069, -44854.72081359873, -28404.462743337484, -8368.336661855777, -0.092, 0.9520000000000001, 0.296, 192.0, 0.0, 0.0, 0.0, 0.0, 0.0, 0.0, 0.0, 0.0, 0.0, 1.700947256665142E9, 0.0, 2023-11-25 16:20:56.665
74.0, 17958.017344238444, 36706.57118637219, -44965.87603877497, -47353.42232625751, -35742.36163405915, -44653.84568617889, -28404.641557293126, -8367.643757777663, -0.092, 0.9520000000000001, 0.296, 192.0, 0.0, 0.0, 0.0, 0.0, 0.0, 0.0, 0.0, 0.0, 0.0, 1.700947256668028E9, 0.0, 2023-11-25 16:20:56.668
75.0, 18110.63505537928, 36638.13014485004, -44919.16089286338, -47387.73225399641, -35456.6169329425, -44677.09150041241, -28421.450069123515, -8389.123784199213, -0.092, 0.9520000000000001, 0.296, 192.0, 0.0, 0.0, 0.0, 0.0, 0.0, 0.0, 0.0, 0.0, 0.0, 1.700947256672047E9, 0.0, 2023-11-25 16:20:56.672
76.0, 17806.0031301979, 36582.742522089786, -44941.22206464077, -47381.16084112655, -35721.75332567136, -45010.512472452225, -28388.548301285304, -8341.738085953963, -0.092, 0.9520000000000001, 0.296, 192.0, 0.0, 0.0, 0.0, 0.0, 0.0, 0.0, 0.0, 0.0, 0.0, 1.700947256676079E9, 0.0, 2023-11-25 16:20:56.676
77.0, 17747.41920798054, 36622.081592331124, -44959.617550327486, -47377.11517538013, -35847.54894346582, -44891.109453571975, -28388.07891465174, -8338.072399863291, -0.1, 0.9400000000000001, 0.296, 192.0, 252.0, 224.0, 29.0, 96.0, 9.0, 64.0, 0.0, 0.0, 0.0, 1.700947256681107E9, 0.0, 2023-11-25 16:20:56.681
78.0, 17905.73661395748, 36688.75684604131, -44972.89448653394, -47375.684663734995, -35774.011704207864, -44672.79996547699, -28402.09345842522, -8345.917862167104, -0.1, 0.9400000000000001, 0.296, 192.0, 0.0, 0.0, 0.0, 0.0, 0.0, 0.0, 0.0, 0.0, 0.0, 1.700947256685309E9, 0.0, 2023-11-25 16:20:56.685
79.0, 18097.559284872925, 36643.58397049713, -44923.541834776624, -47404.25019314888, -35491.03861940368, -44649.30828205446, -28422.746470301925, -8368.426068833598, -0.1, 0.9400000000000001, 0.296, 192.0, 0.0, 0.0, 0.0, 0.0, 0.0, 0.0, 0.0, 0.0, 0.0, 1.700947256689106E9, 0.0, 2023-11-25 16:20:56.689
80.0, 17860.831959346768, 36574.42767315241, -44939.2551111287, -47407.13356818361, -35646.360891623604, -44965.58546609706, -28398.539531056827, -8340.12876035318, -0.1, 0.9400000000000001, 0.296, 192.0, 0.0, 0.0, 0.0, 0.0, 0.0, 0.0, 0.0, 0.0, 0.0, 1.700947256693069E9, 0.0, 2023-11-25 16:20:56.693
81.0, 17730.141309516588, 36619.086458574115, -44949.98394846725, -47380.780861470805, -35855.23794355845, -44944.932454220354, -28378.37825755814, -8319.475748476476, -0.1, 0.9400000000000001, 0.296, 192.0, 0.0, 0.0, 0.0, 0.0, 0.0, 0.0, 0.0, 0.0, 0.0, 1.700947256696077E9, 0.0, 2023-11-25 16:20:56.696
82.0, 17881.909654368123, 36689.136825697045, -44972.80507955612, -47377.94218992498, -35788.696800315, -44695.03995121002, -28404.440391593027, -8337.178330085078, -0.1, 0.9400000000000001, 0.296, 192.0, 0.0, 0.0, 0.0, 0.0, 0.0, 0.0, 0.0, 0.0, 0.0, 1.700947256700066E9, 0.0, 2023-11-25 16:20:56.700
83.0, 18089.020918490998, 36664.08052016265, -44933.17543663686, -47399.0869401797, -35536.56912285914, -44635.33844176989, -28428.423813393572, -8368.582531044785, -0.1, 0.9400000000000001, 0.296, 192.0, 0.0, 0.0, 0.0, 0.0, 0.0, 0.0, 0.0, 0.0, 0.0, 1.700947256704065E9, 0.0, 2023-11-25 16:20:56.704
84.0, 17942.862861497746, 36594.23131873981, -44932.348422092015, -47399.84689949118, -35565.38052146203, -44906.487453757225, -28410.743583529424, -8353.673917493095, -0.1, 0.9400000000000001, 0.296, 192.0, 0.0, 0.0, 0.0, 0.0, 0.0, 0.0, 0.0, 0.0, 0.0, 1.700947256709117E9, 0.0, 2023-11-25 16:20:56.709
85.0, 17725.805071092258, 36626.417830755454, -44947.659367043896, -47361.93834089498, -35852.734548179455, -44993.458091432825, -28384.681449494536, -8327.097693335736, -0.1, 0.9400000000000001, 0.296, 192.0, 0.0, 0.0, 0.0, 0.0, 0.0, 0.0, 0.0, 0.0, 0.0, 1.700947256713133E9, 0.0, 2023-11-25 16:20:56.713
86.0, 17855.042857532844, 36695.95410775591, -44979.0188645147, -47361.200733327954, -35799.76091382038, -44729.46163767119, -28412.91170274159, -8358.926577440092, -0.1, 0.9400000000000001, 0.296, 192.0, 0.0, 0.0, 0.0, 0.0, 0.0, 0.0, 0.0, 0.0, 0.0, 1.700947256717149E9, 0.0, 2023-11-25 16:20:56.717
87.0, 18062.981136200564, 36692.131959454055, -44957.3600241375, -47381.630227760106, -35596.36003927708, -44642.289834295494, -28441.119604244188, -8400.880801782705, -0.1, 0.9420000000000001, 0.298, 192.0, 252.0, 224.0, 29.0, 112.0, 9.0, 80.0, 0.0, 0.0, 0.0, 1.700947256721216E9, 0.0, 2023-11-25 16:20:56.721
88.0, 18015.79660365541, 36611.330403248125, -44943.814866997585, -47396.89646922308, -35506.483674822295, -44859.03470027861, -28434.90581928561, -8401.238429693989, -0.1, 0.9420000000000001, 0.298, 192.0, 0.0, 0.0, 0.0, 0.0, 0.0, 0.0, 0.0, 0.0, 0.0, 1.700947256724203E9, 0.0, 2023-11-25 16:20:56.724
89.0, 17729.381350205105, 36613.699688160385, -44965.5631143526, -47368.28623632029, -35853.226286557474, -45057.562894530645, -28404.730964270948, -8365.900321710149, -0.1, 0.9420000000000001, 0.298, 192.0, 0.0, 0.0, 0.0, 0.0, 0.0, 0.0, 0.0, 0.0, 0.0, 1.700947256728256E9, 0.0, 2023-11-25 16:20:56.728
90.0, 17833.205203200007, 36684.82293901717, -44982.77395758319, -47362.385375784084, -35820.57038790827, -44794.59462101396, -28423.9087610136, -8386.955664987048, -0.1, 0.9420000000000001, 0.298, 192.0, 0.0, 0.0, 0.0, 0.0, 0.0, 0.0, 0.0, 0.0, 0.0, 1.700947256732161E9, 0.0, 2023-11-25 16:20:56.732
91.0, 18031.88985966323, 36706.97351777238, -44963.84203002954, -47373.650654989564, -35657.78263304027, -44659.61243624836, -28441.1643077331, -8406.401682663165, -0.1, 0.9420000000000001, 0.298, 192.0, 0.0, 0.0, 0.0, 0.0, 0.0, 0.0, 0.0, 0.0, 0.0, 1.700947256737181E9, 0.0, 2023-11-25 16:20:56.737
92.0, 18066.132732168764, 36622.75214466478, -44930.15795113539, -47400.360989613655, -35470.407959271426, -44802.86476646242, -28447.646313625137, -8414.135386244701, -0.1, 0.9420000000000001, 0.298, 192.0, 0.0, 0.0, 0.0, 0.0, 0.0, 0.0, 0.0, 0.0, 0.0, 1.70094725674132E9, 0.0, 2023-11-25 16:20:56.741
93.0, 17739.774911376826, 36601.36152522106, -44950.54274207864, -47375.885829435094, -35829.77930662386, -45069.5881330476, -28410.877693996157, -8366.570874043808, -0.1, 0.9420000000000001, 0.298, 192.0, 0.0, 0.0, 0.0, 0.0, 0.0, 0.0, 0.0, 0.0, 0.0, 1.700947256745256E9, 0.0, 2023-11-25 16:20:56.745
94.0, 17805.13141216414, 36669.26612487628, -44958.209390426804, -47363.63707347358, -35830.315748490786, -44827.630499318904, -28413.492848097427, -8368.649586278152, -0.1, 0.9420000000000001, 0.298, 192.0, 0.0, 0.0, 0.0, 0.0, 0.0, 0.0, 0.0, 0.0, 0.0, 1.700947256749256E9, 0.0, 2023-11-25 16:20:56.749
95.0, 17997.646987157703, 36720.58573014566, -44938.83042798405, -47354.83048615819, -35694.9759358139, -44646.80488667547, -28419.28194991135, -8368.582531044785, -0.1, 0.9420000000000001, 0.298, 192.0, 0.0, 0.0, 0.0, 0.0, 0.0, 0.0, 0.0, 0.0, 0.0, 1.700947256752207E9, 0.0, 2023-11-25 16:20:56.752
96.0, 18112.713767613623, 36637.325482049644, -44896.29505828561, -47385.94411443998, -35429.61602564049, -44711.915518273774, -28434.794060563334, -8390.37548188871, -0.1, 0.9420000000000001, 0.298, 192.0, 0.0, 0.0, 0.0, 0.0, 0.0, 0.0, 0.0, 0.0, 0.0, 1.700947256756212E9, 0.0, 2023-11-25 16:20:56.756
97.0, 17785.014842154367, 36593.11373151705, -44928.36981157897, -47371.52723926631, -35751.05646265226, -45029.24323430577, -28396.34906010021, -8349.203568602034, -0.1, 0.9520000000000001, 0.3, 192.0, 252.0, 224.0, 29.0, 192.0, 9.0, 96.0, 0.0, 0.0, 0.0, 1.700947256760322E9, 0.0, 2023-11-25 16:20:56.760
98.0, 17784.880731687634, 36649.976569411345, -44947.860532743995, -47359.36789028262, -35812.59081513772, -44844.461362893744, -28397.734868256437, -8353.003365159437, -0.1, 0.9520000000000001, 0.3, 192.0, 0.0, 0.0, 0.0, 0.0, 0.0, 0.0, 0.0, 0.0, 0.0, 1.700947256764232E9, 0.0, 2023-11-25 16:20:56.764
99.0, 17952.898794758177, 36712.896730053035, -44953.71668979129, -47351.32126227871, -35721.529808226805, -44644.77087793003, -28406.42969684955, -8360.46884780751, -0.1, 0.9520000000000001, 0.3, 192.0, 0.0, 0.0, 0.0, 0.0, 0.0, 0.0, 0.0, 0.0, 0.0, 1.700947256769224E9, 0.0, 2023-11-25 16:20:56.769
100.0, 18126.34833173136, 36659.96779918287, -44900.38542752092, -47372.01897764432, -35434.64516814294, -44651.90108441128, -28411.883522496646, -8376.98678695998, -0.1, 0.9520000000000001, 0.3, 192.0, 0.0, 0.0, 0.0, 0.0, 0.0, 0.0, 0.0, 0.0, 0.0, 1.700947256773234E9, 0.0, 2023-11-25 16:20:56.773
101.0, 17835.216860200984, 36601.09330428759, -44926.8051894671, -47365.402861285555, -35679.93321179548, -44978.348312181035, -28377.305373824285, -8336.552481240331, -0.1, 0.9520000000000001, 0.3, 192.0, 0.0, 0.0, 0.0, 0.0, 0.0, 0.0, 0.0, 0.0, 0.0, 1.700947256777293E9, 0.0, 2023-11-25 16:20:56.777
102.0, 17763.400705266085, 36637.057261116184, -44949.93924497834, -47357.06566060372, -35823.63257689864, -44882.21345927876, -28379.249975591898, -8333.155016083123, -0.1, 0.9520000000000001, 0.3, 192.0, 0.0, 0.0, 0.0, 0.0, 0.0, 0.0, 0.0, 0.0, 0.0, 1.700947256780324E9, 0.0, 2023-11-25 16:20:56.780
103.0, 17922.008683920943, 36707.04057300575, -44962.23270442876, -47349.86839888911, -35748.59777076218, -44660.819430448944, -28392.213987375973, -8341.089885364758, -0.1, 0.9520000000000001, 0.3, 192.0, 0.0, 0.0, 0.0, 0.0, 0.0, 0.0, 0.0, 0.0, 0.0, 1.7009472567844E9, 0.0, 2023-11-25 16:20:56.784
104.0, 18121.430947951194, 36671.098967921615, -44905.68279095683, -47366.721614208414, -35463.88124989048, -44622.28502300799, -28399.43360083504, -8355.484408793976, -0.1, 0.9520000000000001, 0.3, 192.0, 0.0, 0.0, 0.0, 0.0, 0.0, 0.0, 0.0, 0.0, 0.0, 1.700947256788261E9, 0.0, 2023-11-25 16:20:56.788
105.0, 17900.573360988303, 36597.829949597115, -44922.96068942078, -47373.8294689452, -35596.8517776551, -44931.90138720291, -28377.506539524384, -8332.976202127482, -0.1, 0.9520000000000001, 0.3, 192.0, 0.0, 0.0, 0.0, 0.0, 0.0, 0.0, 0.0, 0.0, 0.0, 1.700947256792316E9, 0.0, 2023-11-25 16:20:56.792
106.0, 17744.580536434714, 36636.006729126784, -44937.13169540545, -47348.66140468853, -35828.14762927862, -44939.2551111287, -28357.300562536784, -8309.864498360694, -0.1, 0.9520000000000001, 0.3, 192.0, 0.0, 0.0, 0.0, 0.0, 0.0, 0.0, 0.0, 0.0, 0.0, 1.700947256797307E9, 0.0, 2023-11-25 16:20:56.797
107.0, 17895.499514996947, 36714.2154829759, -44954.923683991874, -47339.85481737314, -35760.19832613449, -44683.193526648705, -28375.00314414539, -8321.21918454399, -0.098, 0.9500000000000001, 0.302, 192.0, 252.0, 240.0, 29.0, 176.0, 9.0, 112.0, 0.0, 0.0, 0.0, 1.700947256801547E9, 0.0, 2023-11-25 16:20:56.801
108.0, 18104.220104720607, 36691.75197979832, -44920.01025915269, -47364.50879150734, -35517.63719530549, -44613.6796013927, -28402.629900292148, -8355.216187860511, -0.098, 0.9500000000000001, 0.302, 192.0, 0.0, 0.0, 0.0, 0.0, 0.0, 0.0, 0.0, 0.0, 0.0, 1.700947256805315E9, 0.0, 2023-11-25 16:20:56.805
109.0, 17968.254443198974, 36607.77647587973, -44927.386334822935, -47381.13848938209, -35533.059898979656, -44880.470023211245, -28399.321842112764, -8352.668088992606, -0.098, 0.9500000000000001, 0.302, 192.0, 0.0, 0.0, 0.0, 0.0, 0.0, 0.0, 0.0, 0.0, 0.0, 1.700947256808325E9, 0.0, 2023-11-25 16:20:56.808
110.0, 17727.190879248486, 36618.81823764065, -44956.823582270576, -47360.84310541667, -35840.9104753626, -44997.23553624577, -28388.302432096298, -8334.809045172817, -0.098, 0.9500000000000001, 0.302, 192.0, 0.0, 0.0, 0.0, 0.0, 0.0, 0.0, 0.0, 0.0, 0.0, 1.700947256812349E9, 0.0, 2023-11-25 16:20:56.812
111.0, 17848.180871985063, 36686.81224427369, -44987.40076868544, -47361.692471705974, -35797.570442863755, -44740.034012798555, -28427.038005237344, -8365.676804265595, -0.098, 0.9500000000000001, 0.302, 192.0, 0.0, 0.0, 0.0, 0.0, 0.0, 0.0, 0.0, 0.0, 0.0, 1.700947256816555E9, 0.0, 2023-11-25 16:20:56.816
112.0, 18061.640031533247, 36697.92106126798, -44948.10640193301, -47370.52141076582, -35596.248280554806, -44638.244168549085, -28449.322694459286, -8392.677711567607, -0.098, 0.9500000000000001, 0.302, 192.0, 0.0, 0.0, 0.0, 0.0, 0.0, 0.0, 0.0, 0.0, 0.0, 1.70094725682032E9, 0.0, 2023-11-25 16:20:56.820
113.0, 18031.9569148966, 36618.10298181808, -44917.30569807359, -47386.83818421819, -35482.12027336601, -44835.811237789545, -28440.73962458845, -8396.119880213724, -0.098, 0.9500000000000001, 0.302, 192.0, 0.0, 0.0, 0.0, 0.0, 0.0, 0.0, 0.0, 0.0, 0.0, 1.700947256824343E9, 0.0, 2023-11-25 16:20:56.824
114.0, 17734.90223108557, 36610.413981725455, -44937.48932331674, -47364.88877116308, -35830.56161767979, -45044.621234491024, -28409.84951375121, -8353.383344815176, -0.098, 0.9500000000000001, 0.302, 192.0, 0.0, 0.0, 0.0, 0.0, 0.0, 0.0, 0.0, 0.0, 0.0, 1.700947256829413E9, 0.0, 2023-11-25 16:20:56.829
115.0, 17830.72415956547, 36676.3069243797, -44955.99656772573, -47362.20656182845, -35805.52766388985, -44788.29142907756, -28423.19350519103, -8368.113144411223, -0.098, 0.9500000000000001, 0.302, 192.0, 0.0, 0.0, 0.0, 0.0, 0.0, 0.0, 0.0, 0.0, 0.0, 1.700947256832385E9, 0.0, 2023-11-25 16:20:56.832
116.0, 18029.09589160632, 36708.33697418415, -44934.36007909299, -47366.34163455268, -35652.8652492601, -44647.31897679794, -28434.48113614096, -8390.75546154445, -0.098, 0.9500000000000001, 0.302, 192.0, 0.0, 0.0, 0.0, 0.0, 0.0, 0.0, 0.0, 0.0, 0.0, 1.700947256836899E9, 0.0, 2023-11-25 16:20:56.836
117.0, 18081.756601543024, 36622.05924058667, -44909.37082879196, -47401.43387334751, -35446.64805491544, -44776.75792893862, -28448.562735147803, -8412.682522855106, -0.098, 0.9480000000000001, 0.298, 192.0, 252.0, 240.0, 29.0, 160.0, 9.0, 80.0, 0.0, 0.0, 0.0, 1.700947256840427E9, 0.0, 2023-11-25 16:20:56.840
118.0, 17753.342420261197, 36600.847435098585, -44938.65161402841, -47377.47280329142, -35797.19046320802, -45059.12751664252, -28408.776630017357, -8362.36874608621, -0.098, 0.9480000000000001, 0.298, 192.0, 0.0, 0.0, 0.0, 0.0, 0.0, 0.0, 0.0, 0.0, 0.0, 1.700947256844446E9, 0.0, 2023-11-25 16:20:56.844
119.0, 17807.277179631852, 36664.99694168531, -44955.88480900345, -47367.19100084198, -35806.46643715697, -44825.328269640006, -28412.218798663474, -8361.318214096811, -0.098, 0.9480000000000001, 0.298, 192.0, 0.0, 0.0, 0.0, 0.0, 0.0, 0.0, 0.0, 0.0, 0.0, 1.700947256848471E9, 0.0, 2023-11-25 16:20:56.848
120.0, 17997.42346971315, 36723.737326113864, -44945.53595132064, -47355.18811406948, -35686.39286594306, -44643.67564245172, -28413.13522018614, -8358.680708251084, -0.098, 0.9480000000000001, 0.298, 192.0, 0.0, 0.0, 0.0, 0.0, 0.0, 0.0, 0.0, 0.0, 0.0, 1.700947256852505E9, 0.0, 2023-11-25 16:20:56.852
121.0, 18122.257962496038, 36650.53536302273, -44900.87716589894, -47380.42323355952, -35417.03199351216, -44698.61623032287, -28423.841705780236, -8372.851714235749, -0.098, 0.9480000000000001, 0.298, 192.0, 0.0, 0.0, 0.0, 0.0, 0.0, 0.0, 0.0, 0.0, 0.0, 1.700947256857598E9, 0.0, 2023-11-25 16:20:56.857
122.0, 17796.77185973786, 36597.96406006385, -44937.578730294554, -47372.466012533434, -35726.7824681738, -45021.71069642433, -28397.064315922777, -8335.189024828556, -0.098, 0.9480000000000001, 0.298, 192.0, 0.0, 0.0, 0.0, 0.0, 0.0, 0.0, 0.0, 0.0, 0.0, 1.70094725686054E9, 0.0, 2023-11-25 16:20:56.860
123.0, 17781.460914785974, 36647.27200833226, -44961.69626256183, -47364.151163596056, -35812.65787037109, -44858.54296190059, -28403.27810088135, -8342.118065609702, -0.098, 0.9480000000000001, 0.298, 192.0, 0.0, 0.0, 0.0, 0.0, 0.0, 0.0, 0.0, 0.0, 0.0, 1.700947256865573E9, 0.0, 2023-11-25 16:20:56.865
124.0, 17945.522719087927, 36712.36028818611, -44966.56894285309, -47354.20463731344, -35728.90588389705, -44656.282026324516, -28410.09538294022, -8348.980051157481, -0.098, 0.9480000000000001, 0.298, 192.0, 0.0, 0.0, 0.0, 0.0, 0.0, 0.0, 0.0, 0.0, 0.0, 1.700947256869611E9, 0.0, 2023-11-25 16:20:56.869
125.0, 18124.314322985927, 36669.46729057637, -44906.5992124795, -47370.633169488094, -35441.90948509091, -44659.143049614795, -28415.079821953754, -8361.787600730373, -0.098, 0.9480000000000001, 0.298, 192.0, 0.0, 0.0, 0.0, 0.0, 0.0, 0.0, 0.0, 0.0, 0.0, 1.700947256872451E9, 0.0, 2023-11-25 16:20:56.872
126.0, 17857.546252911838, 36606.636536912505, -44930.046192413116, -47370.297893321265, -35659.503717363325, -44981.41050117141, -28391.543435042317, -8334.920803895093, -0.098, 0.9480000000000001, 0.298, 192.0, 0.0, 0.0, 0.0, 0.0, 0.0, 0.0, 0.0, 0.0, 0.0, 1.700947256876482E9, 0.0, 2023-11-25 16:20:56.876
127.0, 17765.211196566965, 36651.451784545396, -44939.970366951275, -47348.415535499524, -35816.03298378384, -44909.32612530305, -28378.914699425066, -8322.225013044479, -0.10400000000000001, 0.9460000000000001, 0.296, 192.0, 252.0, 192.0, 29.0, 144.0, 9.0, 64.0, 0.0, 0.0, 0.0, 1.700947256880579E9, 0.0, 2023-11-25 16:20:56.880
128.0, 17912.48684078298, 36723.804381347225, -44950.85566650101, -47339.78776213977, -35742.428689292516, -44676.26448586756, -28387.028382662345, -8330.517510237398, -0.10400000000000001, 0.9460000000000001, 0.296, 192.0, 0.0, 0.0, 0.0, 0.0, 0.0, 0.0, 0.0, 0.0, 0.0, 1.700947256884654E9, 0.0, 2023-11-25 16:20:56.884
129.0, 18111.126793757296, 36678.296229636224, -44911.89657591541, -47373.650654989564, -35469.26802030421, -44630.063430078444, -28412.464667852484, -8364.067478664814, -0.10400000000000001, 0.9460000000000001, 0.296, 192.0, 0.0, 0.0, 0.0, 0.0, 0.0, 0.0, 0.0, 0.0, 0.0, 1.700947256888532E9, 0.0, 2023-11-25 16:20:56.888
130.0, 17909.64816923716, 36603.17201652194, -44922.983041165244, -47377.919838180525, -35579.32801000214, -44936.394087838424, -28386.42488556205, -8333.713809694507, -0.10400000000000001, 0.9460000000000001, 0.296, 192.0, 0.0, 0.0, 0.0, 0.0, 0.0, 0.0, 0.0, 0.0, 0.0, 1.700947256891924E9, 0.0, 2023-11-25 16:20:56.891
131.0, 17739.886670099102, 36637.7948686832, -44932.39312558092, -47350.40484075604, -35820.81625709728, -44957.89646600443, -28350.013893844356, -8295.760547609396, -0.10400000000000001, 0.9460000000000001, 0.296, 192.0, 0.0, 0.0, 0.0, 0.0, 0.0, 0.0, 0.0, 0.0, 0.0, 1.700947256896508E9, 0.0, 2023-11-25 16:20:56.896
132.0, 17870.040878062355, 36697.5634333567, -44966.50188761972, -47361.04427111677, -35771.575364062235, -44704.89707051481, -28375.85251043469, -8316.771187397384, -0.10400000000000001, 0.9460000000000001, 0.296, 192.0, 0.0, 0.0, 0.0, 0.0, 0.0, 0.0, 0.0, 0.0, 0.0, 1.700947256900609E9, 0.0, 2023-11-25 16:20:56.900
133.0, 18073.508807839014, 36684.085331450144, -44930.71674474678, -47381.67493124902, -35546.13566948601, -44632.6338806908, -28405.066240437776, -8349.583548257775, -0.10400000000000001, 0.9460000000000001, 0.296, 192.0, 0.0, 0.0, 0.0, 0.0, 0.0, 0.0, 0.0, 0.0, 0.0, 1.700947256904579E9, 0.0, 2023-11-25 16:20:56.904
134.0, 17975.764629335958, 36614.750220149785, -44922.625413253954, -47392.49317556539, -35529.93065475591, -44885.566220947054, -28401.959347958487, -8347.348373812243, -0.10400000000000001, 0.9460000000000001, 0.296, 192.0, 0.0, 0.0, 0.0, 0.0, 0.0, 0.0, 0.0, 0.0, 0.0, 1.700947256908614E9, 0.0, 2023-11-25 16:20:56.908
135.0, 17731.41535895054, 36625.9931476108, -44947.50290483271, -47373.53889626729, -35845.44787948702, -45022.29184178017, -28390.62701351965, -8329.355219525722, -0.10400000000000001, 0.9460000000000001, 0.296, 192.0, 0.0, 0.0, 0.0, 0.0, 0.0, 0.0, 0.0, 0.0, 0.0, 1.700947256912585E9, 0.0, 2023-11-25 16:20:56.912
136.0, 17857.412142445104, 36701.989078758845, -44966.03250098616, -47362.6312449731, -35796.72107657445, -44760.06117583051, -28419.661929567093, -8354.880911693683, -0.10400000000000001, 0.9460000000000001, 0.296, 192.0, 0.0, 0.0, 0.0, 0.0, 0.0, 0.0, 0.0, 0.0, 0.0, 1.700947256916621E9, 0.0, 2023-11-25 16:20:56.916
137.0, 18068.30085138093, 36714.66251786501, -44934.158913392894, -47368.93443690949, -35600.31629804568, -44642.35688952886, -28447.0651682693, -8386.598037075762, -0.10200000000000001, 0.9420000000000001, 0.292, 192.0, 252.0, 208.0, 29.0, 112.0, 9.0, 32.0, 0.0, 0.0, 0.0, 1.700947256919642E9, 0.0, 2023-11-25 16:20:56.919
138.0, 18056.58853728635, 36629.144743579, -44912.433017782336, -47388.06753016324, -35460.5731917111, -44824.05422020605, -28456.564659662803, -8394.108223212746, -0.10200000000000001, 0.9420000000000001, 0.292, 192.0, 0.0, 0.0, 0.0, 0.0, 0.0, 0.0, 0.0, 0.0, 0.0, 1.70094725692465E9, 0.0, 2023-11-25 16:20:56.924
139.0, 17752.80597839427, 36625.21083655487, -44938.159875650395, -47357.93737863748, -35808.85807381369, -45051.08088863861, -28427.015653492886, -8358.099562895246, -0.10200000000000001, 0.9420000000000001, 0.292, 192.0, 0.0, 0.0, 0.0, 0.0, 0.0, 0.0, 0.0, 0.0, 0.0, 1.700947256928656E9, 0.0, 2023-11-25 16:20:56.928
140.0, 17844.04579926083, 36701.34087816964, -44951.54857057912, -47342.15704705204, -35785.2993351578, -44790.48190003418, -28430.68133958356, -8363.486333308976, -0.10200000000000001, 0.9420000000000001, 0.292, 192.0, 0.0, 0.0, 0.0, 0.0, 0.0, 0.0, 0.0, 0.0, 0.0, 1.700947256932736E9, 0.0, 2023-11-25 16:20:56.932
141.0, 18045.390313314238, 36745.41851823551, -44927.83336971204, -47335.98796558237, -35631.94401644993, -44633.282081280006, -28435.82224080828, -8369.901283967649, -0.10200000000000001, 0.9420000000000001, 0.292, 192.0, 0.0, 0.0, 0.0, 0.0, 0.0, 0.0, 0.0, 0.0, 0.0, 1.700947256936745E9, 0.0, 2023-11-25 16:20:56.936
142.0, 18120.134546772784, 36664.102871907104, -44897.36794201946, -47371.214314843935, -35404.8055892951, -44744.97374832317, -28451.133185760165, -8392.543601100875, -0.10200000000000001, 0.9420000000000001, 0.292, 192.0, 0.0, 0.0, 0.0, 0.0, 0.0, 0.0, 0.0, 0.0, 0.0, 1.700947256940757E9, 0.0, 2023-11-25 16:20:56.940
143.0, 17785.86420844367, 36637.481944260835, -44926.35815457799, -47348.66140468853, -35758.07491041123, -45046.722298469824, -28413.13522018614, -8350.254100591434, -0.10200000000000001, 0.9420000000000001, 0.292, 192.0, 0.0, 0.0, 0.0, 0.0, 0.0, 0.0, 0.0, 0.0, 0.0, 1.700947256944725E9, 0.0, 2023-11-25 16:20:56.944
144.0, 17827.349046152718, 36698.39044790154, -44941.3561751075, -47338.51371270582, -35787.04277122531, -44826.55761558504, -28412.442316108027, -8354.903263438138, -0.10200000000000001, 0.9420000000000001, 0.292, 192.0, 0.0, 0.0, 0.0, 0.0, 0.0, 0.0, 0.0, 0.0, 0.0, 1.700947256949531E9, 0.0, 2023-11-25 16:20:56.949
145.0, 18004.263103516474, 36748.41365199252, -44940.529160562655, -47335.78679988227, -35683.19656648595, -44645.91081689725, -28421.897104012623, -8364.961548443025, -0.10200000000000001, 0.9420000000000001, 0.292, 192.0, 0.0, 0.0, 0.0, 0.0, 0.0, 0.0, 0.0, 0.0, 0.0, 1.700947256952724E9, 0.0, 2023-11-25 16:20:56.952
146.0, 18128.024712565508, 36665.153403896504, -44908.61086948048, -47377.428099802506, -35416.94258653434, -44699.46559661217, -28450.797909593333, -8396.656322080651, -0.10200000000000001, 0.9420000000000001, 0.292, 192.0, 0.0, 0.0, 0.0, 0.0, 0.0, 0.0, 0.0, 0.0, 0.0, 1.700947256956683E9, 0.0, 2023-11-25 16:20:56.956
147.0, 17811.52401107836, 36623.132124320524, -44928.436866812335, -47355.79161116977, -35707.761133642336, -45032.037202362684, -28404.261577637386, -8345.135551111169, -0.098, 0.9400000000000001, 0.28800000000000003, 192.0, 252.0, 240.0, 29.0, 96.0, 9.0, 0.0, 0.0, 0.0, 0.0, 1.700947256960722E9, 0.0, 2023-11-25 16:20:56.960
148.0, 17787.540589277814, 36672.19420339992, -44945.96063446529, -47345.487456975876, -35798.620974853155, -44881.58761043401, -28401.020574691367, -8349.382382557676, -0.098, 0.9400000000000001, 0.28800000000000003, 192.0, 0.0, 0.0, 0.0, 0.0, 0.0, 0.0, 0.0, 0.0, 0.0, 1.700947256964759E9, 0.0, 2023-11-25 16:20:56.964
149.0, 17947.333210388806, 36739.09297455466, -44957.69530030433, -47338.73723015037, -35720.72514542641, -44671.81648872096, -28416.53268534335, -8357.808990217327, -0.098, 0.9400000000000001, 0.28800000000000003, 192.0, 0.0, 0.0, 0.0, 0.0, 0.0, 0.0, 0.0, 0.0, 0.0, 1.700947256968779E9, 0.0, 2023-11-25 16:20:56.968
150.0, 18129.58933467738, 36692.60134608762, -44905.12399734545, -47358.965558882424, -35430.35363320752, -44655.81263969096, -28426.032176736855, -8367.286129866377, -0.098, 0.9400000000000001, 0.28800000000000003, 192.0, 0.0, 0.0, 0.0, 0.0, 0.0, 0.0, 0.0, 0.0, 0.0, 1.70094725697173E9, 0.0, 2023-11-25 16:20:56.971
151.0, 17874.958261842523, 36634.889141904016, -44920.390238808424, -47351.25420704534, -35626.937225691945, -44977.454242402826, -28393.71155425448, -8328.79642591434, -0.098, 0.9400000000000001, 0.28800000000000003, 192.0, 0.0, 0.0, 0.0, 0.0, 0.0, 0.0, 0.0, 0.0, 0.0, 1.700947256975786E9, 0.0, 2023-11-25 16:20:56.975
152.0, 17776.051792627786, 36672.26125863329, -44938.293986117125, -47337.150256294044, -35803.29248944431, -44922.08897138703, -28388.749466985402, -8324.482539234465, -0.098, 0.9400000000000001, 0.28800000000000003, 192.0, 0.0, 0.0, 0.0, 0.0, 0.0, 0.0, 0.0, 0.0, 0.0, 1.700947256979898E9, 0.0, 2023-11-25 16:20:56.979
153.0, 17931.150547403162, 36746.2231810359, -44954.856628758505, -47329.975346323896, -35737.13132585661, -44685.786329005525, -28402.115810169675, -8336.105446351225, -0.098, 0.9400000000000001, 0.28800000000000003, 192.0, 0.0, 0.0, 0.0, 0.0, 0.0, 0.0, 0.0, 0.0, 0.0, 1.700947256984778E9, 0.0, 2023-11-25 16:20:56.984
154.0, 18130.818680622422, 36705.431247404966, -44917.64097424042, -47362.72065195092, -35472.017284872214, -44633.37148825783, -28422.724118557468, -8364.112182153724, -0.098, 0.9400000000000001, 0.28800000000000003, 192.0, 0.0, 0.0, 0.0, 0.0, 0.0, 0.0, 0.0, 0.0, 0.0, 1.700947256988783E9, 0.0, 2023-11-25 16:20:56.988
155.0, 17938.906602729156, 36622.43922024241, -44932.214311625285, -47376.08699513519, -35562.43009119393, -44932.66134651439, -28401.780534002846, -8339.927594653082, -0.098, 0.9400000000000001, 0.28800000000000003, 192.0, 0.0, 0.0, 0.0, 0.0, 0.0, 0.0, 0.0, 0.0, 0.0, 1.700947256992975E9, 0.0, 2023-11-25 16:20:56.992
156.0, 17741.384236977607, 36641.41585128497, -44955.214256669795, -47360.306663549745, -35832.86384735869, -44986.19377448485, -28377.7971122023, -8313.373722240178, -0.098, 0.9400000000000001, 0.28800000000000003, 192.0, 0.0, 0.0, 0.0, 0.0, 0.0, 0.0, 0.0, 0.0, 0.0, 1.700947256996829E9, 0.0, 2023-11-25 16:20:56.996
157.0, 17866.57635767178, 36710.8627213076, -44985.36675994, -47365.49226826338, -35786.01459098036, -44735.988347052145, -28396.1031909112, -8330.293992792844, -0.09, 0.9400000000000001, 0.29, 192.0, 253.0, 48.0, 29.0, 96.0, 9.0, 16.0, 0.0, 0.0, 0.0, 1.700947256999841E9, 0.0, 2023-11-25 16:20:56.999
158.0, 18071.988889216052, 36700.960898513906, -44954.722518291775, -47386.458204562456, -35568.86739359706, -44656.25967458006, -28416.42092662107, -8355.976147171992, -0.09, 0.9400000000000001, 0.29, 192.0, 0.0, 0.0, 0.0, 0.0, 0.0, 0.0, 0.0, 0.0, 0.0, 1.700947257003885E9, 0.0, 2023-11-25 16:20:57.003
159.0, 17982.17957999463, 36609.38580148051, -44956.08597470355, -47413.66027756456, -35526.488486109796, -44892.159985561375, -28419.10313595571, -8355.171484371602, -0.09, 0.9400000000000001, 0.29, 192.0, 0.0, 0.0, 0.0, 0.0, 0.0, 0.0, 0.0, 0.0, 0.0, 1.70094725700791E9, 0.0, 2023-11-25 16:20:57.007
160.0, 17717.244352965874, 36630.01646161276, -44967.597123098036, -47374.343559067675, -35849.00180685542, -45044.19655134637, -28388.972984429955, -8315.340675752244, -0.09, 0.9400000000000001, 0.29, 192.0, 0.0, 0.0, 0.0, 0.0, 0.0, 0.0, 0.0, 0.0, 0.0, 1.70094725701391E9, 0.0, 2023-11-25 16:20:57.013
161.0, 17836.334447423753, 36710.32627944068, -44979.28708544816, -47363.4806112624, -35796.58696610772, -44769.00187361263, -28408.19548466152, -8332.529167238376, -0.09, 0.9400000000000001, 0.29, 192.0, 0.0, 0.0, 0.0, 0.0, 0.0, 0.0, 0.0, 0.0, 0.0, 1.700947257016897E9, 0.0, 2023-11-25 16:20:57.016
162.0, 18039.9588394116, 36728.431192449476, -44950.78861126764, -47373.06950963372, -35609.48051327235, -44642.513351740046, -28427.261522681896, -8363.195760631057, -0.09, 0.9400000000000001, 0.29, 192.0, 0.0, 0.0, 0.0, 0.0, 0.0, 0.0, 0.0, 0.0, 0.0, 1.700947257020887E9, 0.0, 2023-11-25 16:20:57.020
163.0, 18041.61286850129, 36636.990205882816, -44928.97330867926, -47400.495100080385, -35453.912371863415, -44809.63734503238, -28445.098214757232, -8382.194743418067, -0.09, 0.9400000000000001, 0.29, 192.0, 0.0, 0.0, 0.0, 0.0, 0.0, 0.0, 0.0, 0.0, 0.0, 1.700947257024979E9, 0.0, 2023-11-25 16:20:57.024
164.0, 17736.288039241797, 36633.79390642571, -44935.52236980467, -47356.95390188145, -35799.537396375825, -45050.58915026059, -28394.91854845507, -8326.516547979898, -0.09, 0.9400000000000001, 0.29, 192.0, 0.0, 0.0, 0.0, 0.0, 0.0, 0.0, 0.0, 0.0, 0.0, 1.70094725702796E9, 0.0, 2023-11-25 16:20:57.027
165.0, 17821.135261194144, 36698.18928220145, -44947.83818099954, -47346.403878498546, -35776.403340864585, -44791.08539713448, -28408.776630017357, -8335.770170184394, -0.09, 0.9400000000000001, 0.29, 192.0, 0.0, 0.0, 0.0, 0.0, 0.0, 0.0, 0.0, 0.0, 0.0, 1.700947257031942E9, 0.0, 2023-11-25 16:20:57.031
166.0, 18008.84521112981, 36736.120192542105, -44931.297890102614, -47344.74984940885, -35638.69424327544, -44633.66206093575, -28428.15559246011, -8352.712792481518, -0.09, 0.9400000000000001, 0.29, 192.0, 0.0, 0.0, 0.0, 0.0, 0.0, 0.0, 0.0, 0.0, 0.0, 1.700947257035951E9, 0.0, 2023-11-25 16:20:57.035
167.0, 18093.75948831552, 36648.74722346631, -44894.05988384008, -47372.77893695581, -35396.937775246835, -44727.874663814866, -28441.96897053349, -8372.427031091098, -0.098, 0.9420000000000001, 0.296, 192.0, 252.0, 240.0, 29.0, 112.0, 9.0, 64.0, 0.0, 0.0, 0.0, 1.700947257041223E9, 0.0, 2023-11-25 16:20:57.041
168.0, 17770.441504769507, 36624.540284221206, -44914.33291606104, -47339.251320272844, -35732.0351281208, -45024.9293476259, -28390.179978630542, -8317.777015897873, -0.098, 0.9420000000000001, 0.296, 192.0, 0.0, 0.0, 0.0, 0.0, 0.0, 0.0, 0.0, 0.0, 0.0, 1.700947257045012E9, 0.0, 2023-11-25 16:20:57.045
169.0, 17799.498772561405, 36683.23596516084, -44940.663271029385, -47333.57397718119, -35770.54718381729, -44812.654830533844, -28394.91854845507, -8330.98689687096, -0.098, 0.9420000000000001, 0.296, 192.0, 0.0, 0.0, 0.0, 0.0, 0.0, 0.0, 0.0, 0.0, 0.0, 1.700947257048984E9, 0.0, 2023-11-25 16:20:57.048
170.0, 17973.998841523986, 36740.47878271089, -44946.206503654306, -47333.43986671446, -35675.08288324867, -44633.46089523565, -28412.241150407932, -8345.2696615779, -0.098, 0.9420000000000001, 0.296, 192.0, 0.0, 0.0, 0.0, 0.0, 0.0, 0.0, 0.0, 0.0, 0.0, 1.700947257052021E9, 0.0, 2023-11-25 16:20:57.052
171.0, 18123.06262529643, 36663.58878178463, -44910.533119503634, -47375.84112594618, -35405.14086546193, -44673.93990444421, -28443.175964734077, -8380.451307350553, -0.098, 0.9420000000000001, 0.296, 192.0, 0.0, 0.0, 0.0, 0.0, 0.0, 0.0, 0.0, 0.0, 0.0, 1.700947257056039E9, 0.0, 2023-11-25 16:20:57.056
172.0, 17821.224668171963, 36618.81823764065, -44930.113247646485, -47360.574884483205, -35689.67857237799, -45007.62909741749, -28401.71347876948, -8336.060742862313, -0.098, 0.9420000000000001, 0.296, 192.0, 0.0, 0.0, 0.0, 0.0, 0.0, 0.0, 0.0, 0.0, 0.0, 1.700947257060149E9, 0.0, 2023-11-25 16:20:57.060
173.0, 17781.12563861914, 36671.56835455517, -44942.42905884136, -47348.482590732885, -35797.928070775044, -44869.987055061705, -28392.929243198545, -8335.70311495103, -0.098, 0.9420000000000001, 0.296, 192.0, 0.0, 0.0, 0.0, 0.0, 0.0, 0.0, 0.0, 0.0, 0.0, 1.700947257065992E9, 0.0, 2023-11-25 16:20:57.065
174.0, 17936.55966956135, 36739.09297455466, -44954.029614213665, -47343.63226218608, -35720.70279368196, -44655.92439841323, -28409.983624217944, -8351.975184914492, -0.098, 0.9420000000000001, 0.296, 192.0, 0.0, 0.0, 0.0, 0.0, 0.0, 0.0, 0.0, 0.0, 0.0, 1.700947257069407E9, 0.0, 2023-11-25 16:20:57.069
175.0, 18120.514526428524, 36684.44295936143, -44905.146349089904, -47373.76241371184, -35439.07081354509, -44637.84183714889, -28430.23430469445, -8382.3288538848, -0.098, 0.9420000000000001, 0.296, 192.0, 0.0, 0.0, 0.0, 0.0, 0.0, 0.0, 0.0, 0.0, 0.0, 1.700947257073413E9, 0.0, 2023-11-25 16:20:57.073
176.0, 17873.59480543075, 36610.81631312565, -44924.860587699484, -47374.2318003454, -35616.521312775774, -44957.98587298225, -28405.982661960443, -8354.165655871113, -0.098, 0.9420000000000001, 0.296, 192.0, 0.0, 0.0, 0.0, 0.0, 0.0, 0.0, 0.0, 0.0, 0.0, 1.700947257077177E9, 0.0, 2023-11-25 16:20:57.077
177.0, 17751.33076326022, 36644.76861295326, -44942.04907918562, -47351.72359367891, -35813.19431223802, -44919.339706819024, -28396.930205456047, -8342.36393479871, -0.108, 0.9380000000000001, 0.298, 192.0, 252.0, 160.0, 29.0, 80.0, 9.0, 80.0, 0.0, 0.0, 0.0, 1.700947257081125E9, 0.0, 2023-11-25 16:20:57.081
178.0, 17902.16033484463, 36718.23879697786, -44958.58937008255, -47341.777067396295, -35753.62691326463, -44676.57741028994, -28407.18965616103, -8350.991708158459, -0.108, 0.9380000000000001, 0.298, 192.0, 0.0, 0.0, 0.0, 0.0, 0.0, 0.0, 0.0, 0.0, 0.0, 1.700947257084078E9, 0.0, 2023-11-25 16:20:57.084
179.0, 18107.95284604464, 36696.78112230076, -44912.67888697134, -47362.69830020646, -35497.45357006235, -44618.01583981703, -28419.14783944462, -8367.353185099744, -0.108, 0.9380000000000001, 0.298, 192.0, 0.0, 0.0, 0.0, 0.0, 0.0, 0.0, 0.0, 0.0, 0.0, 1.700947257088089E9, 0.0, 2023-11-25 16:20:57.088
180.0, 17936.49261432798, 36608.15645553547, -44931.40964882489, -47386.90523945156, -35562.0948150271, -44902.12886358844, -28418.700804555516, -8363.46398156452, -0.108, 0.9380000000000001, 0.298, 192.0, 0.0, 0.0, 0.0, 0.0, 0.0, 0.0, 0.0, 0.0, 0.0, 1.700947257092108E9, 0.0, 2023-11-25 16:20:57.092
181.0, 17723.659303624547, 36623.57915920963, -44955.32601539207, -47366.36398629713, -35855.84144065875, -44982.975123283286, -28399.210083390488, -8338.966469641504, -0.108, 0.9380000000000001, 0.298, 192.0, 0.0, 0.0, 0.0, 0.0, 0.0, 0.0, 0.0, 0.0, 0.0, 1.700947257096746E9, 0.0, 2023-11-25 16:20:57.096
182.0, 17857.121569767187, 36693.22719493237, -44976.403710413426, -47365.335806052186, -35807.60637612419, -44722.689059101234, -28399.031269434843, -8345.135551111169, -0.108, 0.9380000000000001, 0.298, 192.0, 0.0, 0.0, 0.0, 0.0, 0.0, 0.0, 0.0, 0.0, 0.0, 1.700947257100117E9, 0.0, 2023-11-25 16:20:57.100
183.0, 18058.488435565047, 36676.93277322445, -44948.26286414419, -47395.04127443329, -35598.32699278915, -44633.4385434912, -28415.795077776325, -8372.024699690903, -0.108, 0.9380000000000001, 0.298, 192.0, 0.0, 0.0, 0.0, 0.0, 0.0, 0.0, 0.0, 0.0, 0.0, 1.700947257105192E9, 0.0, 2023-11-25 16:20:57.105
184.0, 17984.16888525115, 36580.10501624406, -44937.71284076129, -47421.59514684619, -35533.93161701341, -44858.20768573376, -28405.513275326884, -8369.409545589631, -0.108, 0.9380000000000001, 0.298, 192.0, 0.0, 0.0, 0.0, 0.0, 0.0, 0.0, 0.0, 0.0, 0.0, 1.700947257108803E9, 0.0, 2023-11-25 16:20:57.108
185.0, 17707.49899238336, 36578.92037378793, -44961.629207328464, -47395.71182676695, -35876.40504555763, -45041.46963852282, -28374.08672262272, -8340.821664431294, -0.108, 0.9380000000000001, 0.298, 192.0, 0.0, 0.0, 0.0, 0.0, 0.0, 0.0, 0.0, 0.0, 0.0, 1.700947257112113E9, 0.0, 2023-11-25 16:20:57.112
186.0, 17812.57454306776, 36647.02613914325, -44986.14907099594, -47391.01796043134, -35839.211742784, -44779.820117929, -28393.264519365373, -8366.637929277174, -0.108, 0.9380000000000001, 0.298, 192.0, 0.0, 0.0, 0.0, 0.0, 0.0, 0.0, 0.0, 0.0, 0.0, 1.700947257116123E9, 0.0, 2023-11-25 16:20:57.116
187.0, 18013.51672572097, 36678.27387789177, -44958.83523927155, -47393.32019011023, -35666.700979077934, -44649.55415124347, -28408.28489163934, -8388.363824887732, -0.096, 0.936, 0.298, 192.0, 253.0, 0.0, 29.0, 64.0, 9.0, 80.0, 0.0, 0.0, 0.0, 1.700947257120141E9, 0.0, 2023-11-25 16:20:57.120
188.0, 18041.411702801193, 36597.204100752366, -44932.68369825884, -47418.30944041126, -35488.69168623587, -44801.00957167263, -28416.62209232117, -8405.731130329506, -0.096, 0.936, 0.298, 192.0, 0.0, 0.0, 0.0, 0.0, 0.0, 0.0, 0.0, 0.0, 0.0, 1.700947257124148E9, 0.0, 2023-11-25 16:20:57.124
189.0, 17729.18018450501, 36591.99614429428, -44950.07335544507, -47380.1326608816, -35843.793850397335, -45055.953568929865, -28367.582364986225, -8356.691402994562, -0.096, 0.936, 0.298, 192.0, 0.0, 0.0, 0.0, 0.0, 0.0, 0.0, 0.0, 0.0, 0.0, 1.700947257128121E9, 0.0, 2023-11-25 16:20:57.128
190.0, 17803.410327841084, 36662.13591839503, -44968.60295159852, -47366.118117108126, -35836.41777472708, -44798.79674897155, -28381.90983318208, -8361.89935945265, -0.096, 0.936, 0.298, 192.0, 0.0, 0.0, 0.0, 0.0, 0.0, 0.0, 0.0, 0.0, 0.0, 1.700947257133138E9, 0.0, 2023-11-25 16:20:57.133
191.0, 17988.594530653303, 36700.13388396906, -44966.03250098616, -47371.99662589987, -35704.54248244077, -44632.34330801288, -28407.033193949843, -8385.793374275372, -0.096, 0.936, 0.298, 192.0, 0.0, 0.0, 0.0, 0.0, 0.0, 0.0, 0.0, 0.0, 0.0, 1.700947257136143E9, 0.0, 2023-11-25 16:20:57.136
192.0, 18079.163799186208, 36609.497560202784, -44938.025765183665, -47413.70498105347, -35460.97552311129, -44726.22063472517, -28433.497659384928, -8423.277249726922, -0.096, 0.936, 0.298, 192.0, 0.0, 0.0, 0.0, 0.0, 0.0, 0.0, 0.0, 0.0, 0.0, 1.700947257139136E9, 0.0, 2023-11-25 16:20:57.139
193.0, 17747.66507716955, 36578.65215285446, -44953.18024792436, -47382.07726264921, -35793.390666650615, -45041.760211200744, -28382.848606449203, -8367.219074633012, -0.096, 0.936, 0.298, 192.0, 0.0, 0.0, 0.0, 0.0, 0.0, 0.0, 0.0, 0.0, 0.0, 1.700947257144225E9, 0.0, 2023-11-25 16:20:57.144
194.0, 17764.920623889044, 36632.63161571403, -44966.83716378656, -47370.923742166015, -35838.74235615043, -44838.336984912996, -28387.52012104036, -8369.99069094547, -0.096, 0.936, 0.298, 192.0, 0.0, 0.0, 0.0, 0.0, 0.0, 0.0, 0.0, 0.0, 0.0, 1.700947257148226E9, 0.0, 2023-11-25 16:20:57.148
195.0, 17940.69474228558, 36696.40114264502, -44962.679739317864, -47360.19490482747, -35743.79214570429, -44647.27427330903, -28392.01282167588, -8375.89155148167, -0.096, 0.936, 0.298, 192.0, 0.0, 0.0, 0.0, 0.0, 0.0, 0.0, 0.0, 0.0, 0.0, 1.700947257152277E9, 0.0, 2023-11-25 16:20:57.152
196.0, 18110.903276312743, 36648.32254032166, -44901.726532188244, -47374.835297445694, -35456.080491075576, -44667.43554680771, -28394.80678973279, -8387.246237664967, -0.096, 0.936, 0.298, 192.0, 0.0, 0.0, 0.0, 0.0, 0.0, 0.0, 0.0, 0.0, 0.0, 1.700947257156241E9, 0.0, 2023-11-25 16:20:57.156
197.0, 17827.10317696371, 36598.09817053058, -44924.45825629929, -47362.47478276191, -35708.31992725372, -44987.914858807904, -28367.47060626395, -8350.589376758264, -0.092, 0.9400000000000001, 0.308, 192.0, 253.0, 32.0, 29.0, 96.0, 9.0, 160.0, 0.0, 0.0, 0.0, 1.700947257160455E9, 0.0, 2023-11-25 16:20:57.160
198.0, 17766.976984378933, 36643.695729219406, -44946.02768969866, -47347.297948276755, -35836.55188519381, -44871.59638066249, -28376.00897264588, -8349.516493024408, -0.092, 0.9400000000000001, 0.308, 192.0, 0.0, 0.0, 0.0, 0.0, 0.0, 0.0, 0.0, 0.0, 0.0, 1.700947257165251E9, 0.0, 2023-11-25 16:20:57.165
199.0, 17926.769605489924, 36716.27184346579, -44958.70112880482, -47336.23383477138, -35757.06908191074, -44647.27427330903, -28387.587176273726, -8357.674879750595, -0.092, 0.9400000000000001, 0.308, 192.0, 0.0, 0.0, 0.0, 0.0, 0.0, 0.0, 0.0, 0.0, 0.0, 1.700947257168242E9, 0.0, 2023-11-25 16:20:57.168
200.0, 18121.565058417924, 36674.943467967925, -44909.37082879196, -47357.915026893024, -35475.16888084041, -44625.41426723174, -28406.675566038557, -8382.41826086262, -0.092, 0.9400000000000001, 0.308, 192.0, 0.0, 0.0, 0.0, 0.0, 0.0, 0.0, 0.0, 0.0, 0.0, 1.700947257172246E9, 0.0, 2023-11-25 16:20:57.172
201.0, 17894.627796963192, 36607.99999332428, -44920.971384164266, -47353.66819544652, -35621.10342038911, -44934.53889304864, -28385.352001828196, -8346.744876711951, -0.092, 0.9400000000000001, 0.308, 192.0, 0.0, 0.0, 0.0, 0.0, 0.0, 0.0, 0.0, 0.0, 0.0, 1.700947257176317E9, 0.0, 2023-11-25 16:20:57.176
202.0, 17742.50182420037, 36635.023252370745, -44945.31243387609, -47340.19009353997, -35835.56840843778, -44922.58070976505, -28382.848606449203, -8337.915937652104, -0.092, 0.9400000000000001, 0.308, 192.0, 0.0, 0.0, 0.0, 0.0, 0.0, 0.0, 0.0, 0.0, 0.0, 1.700947257180294E9, 0.0, 2023-11-25 16:20:57.180
203.0, 17877.90869211062, 36706.0123927608, -44971.083995233064, -47341.12886680709, -35783.8464717682, -44686.814509250464, -28409.693051540024, -8358.36778382871, -0.092, 0.9400000000000001, 0.308, 192.0, 0.0, 0.0, 0.0, 0.0, 0.0, 0.0, 0.0, 0.0, 0.0, 1.700947257184289E9, 0.0, 2023-11-25 16:20:57.184
204.0, 18086.517523112005, 36684.62177331707, -44927.05105865611, -47364.486439762884, -35540.61478860555, -44624.36373524234, -28434.190563463042, -8389.66022606614, -0.092, 0.9400000000000001, 0.308, 192.0, 0.0, 0.0, 0.0, 0.0, 0.0, 0.0, 0.0, 0.0, 0.0, 1.700947257189288E9, 0.0, 2023-11-25 16:20:57.189
205.0, 17941.11942543023, 36599.305164731166, -44934.47183781527, -47386.32409409572, -35573.8965360995, -44901.21244206577, -28429.899028527623, -8388.14030744318, -0.092, 0.9400000000000001, 0.308, 192.0, 0.0, 0.0, 0.0, 0.0, 0.0, 0.0, 0.0, 0.0, 0.0, 1.700947257192305E9, 0.0, 2023-11-25 16:20:57.192
206.0, 17717.669036110525, 36621.43339174192, -44952.912026990896, -47359.4796490049, -35870.213612343505, -45000.454187447336, -28398.114847912177, -8352.198702359045, -0.092, 0.9400000000000001, 0.308, 192.0, 0.0, 0.0, 0.0, 0.0, 0.0, 0.0, 0.0, 0.0, 0.0, 1.700947257195411E9, 0.0, 2023-11-25 16:20:57.195
207.0, 17847.465616162495, 36693.58482284365, -44974.637922601454, -47352.48355299039, -35814.8036378388, -44732.23325398365, -28416.599740576716, -8358.36778382871, -0.098, 0.9480000000000001, 0.304, 192.0, 252.0, 240.0, 29.0, 160.0, 9.0, 128.0, 0.0, 0.0, 0.0, 1.700947257200294E9, 0.0, 2023-11-25 16:20:57.200
208.0, 18060.6118512883, 36704.33601192666, -44930.56028253559, -47354.919893136015, -35597.9023096445, -44618.44052296168, -28422.880580768655, -8367.84492347776, -0.098, 0.9480000000000001, 0.304, 192.0, 0.0, 0.0, 0.0, 0.0, 0.0, 0.0, 0.0, 0.0, 0.0, 1.700947257204355E9, 0.0, 2023-11-25 16:20:57.204
209.0, 18011.058033830886, 36609.5422636917, -44916.94807016231, -47380.1326608816, -35490.99391591477, -44814.554728812545, -28414.968063231478, -8370.437725834576, -0.098, 0.9480000000000001, 0.304, 192.0, 0.0, 0.0, 0.0, 0.0, 0.0, 0.0, 0.0, 0.0, 0.0, 1.700947257208408E9, 0.0, 2023-11-25 16:20:57.208
210.0, 17722.765233846338, 36615.82310388364, -44929.621509268465, -47341.8217708852, -35831.343928735725, -45006.243289261256, -28360.698027693994, -8318.3134577648, -0.098, 0.9480000000000001, 0.304, 192.0, 0.0, 0.0, 0.0, 0.0, 0.0, 0.0, 0.0, 0.0, 0.0, 1.700947257212702E9, 0.0, 2023-11-25 16:20:57.212
211.0, 17819.235362915442, 36690.16500594199, -44947.94993972182, -47334.13277079258, -35802.48782664393, -44737.62002439738, -28372.343286555206, -8329.534033481365, -0.098, 0.9480000000000001, 0.304, 192.0, 0.0, 0.0, 0.0, 0.0, 0.0, 0.0, 0.0, 0.0, 0.0, 1.700947257216356E9, 0.0, 2023-11-25 16:20:57.216
212.0, 18016.690673433623, 36719.98223304537, -44924.14533187692, -47338.491360961365, -35644.14806892253, -44600.80499658644, -28380.836949448225, -8340.709905709018, -0.098, 0.9480000000000001, 0.304, 192.0, 0.0, 0.0, 0.0, 0.0, 0.0, 0.0, 0.0, 0.0, 0.0, 1.700947257220467E9, 0.0, 2023-11-25 16:20:57.220
213.0, 18052.967554684587, 36611.93390034841, -44910.84604392601, -47391.35323659817, -35454.895848619446, -44745.28667274555, -28404.14981891511, -8369.588359545274, -0.098, 0.9480000000000001, 0.304, 192.0, 0.0, 0.0, 0.0, 0.0, 0.0, 0.0, 0.0, 0.0, 0.0, 1.700947257223376E9, 0.0, 2023-11-25 16:20:57.223
214.0, 17718.40664367755, 36582.586059878595, -44942.339651863535, -47378.478631791906, -35822.470286186974, -45035.613481475535, -28363.156719584076, -8327.477672991476, -0.098, 0.9480000000000001, 0.304, 192.0, 0.0, 0.0, 0.0, 0.0, 0.0, 0.0, 0.0, 0.0, 0.0, 1.700947257227391E9, 0.0, 2023-11-25 16:20:57.227
215.0, 17770.8438361697, 36644.83566818663, -44963.23853292925, -47378.76920446983, -35839.18939103954, -44809.41382758783, -28375.405475545584, -8339.637021975162, -0.098, 0.9480000000000001, 0.304, 192.0, 0.0, 0.0, 0.0, 0.0, 0.0, 0.0, 0.0, 0.0, 0.0, 1.700947257232378E9, 0.0, 2023-11-25 16:20:57.232
216.0, 17956.02803898192, 36696.043514733734, -44954.54370433613, -47379.462108547945, -35720.83690414869, -44642.446296506685, -28392.728077498447, -8353.159827370624, -0.098, 0.9480000000000001, 0.304, 192.0, 0.0, 0.0, 0.0, 0.0, 0.0, 0.0, 0.0, 0.0, 0.0, 1.700947257236402E9, 0.0, 2023-11-25 16:20:57.236
217.0, 18083.29887191044, 36625.7472784218, -44906.10747410148, -47408.7875972733, -35453.64415092995, -44711.021448495565, -28402.495789825418, -8368.537827555874, -0.10200000000000001, 0.9400000000000001, 0.308, 192.0, 252.0, 208.0, 29.0, 96.0, 9.0, 160.0, 0.0, 0.0, 0.0, 1.70094725724043E9, 0.0, 2023-11-25 16:20:57.240
218.0, 17773.928376904532, 36597.58408040811, -44924.07827664355, -47386.34644584018, -35763.55108780278, -45027.008059860236, -28363.693161451003, -8318.447568231531, -0.10200000000000001, 0.9400000000000001, 0.308, 192.0, 0.0, 0.0, 0.0, 0.0, 0.0, 0.0, 0.0, 0.0, 0.0, 1.700947257244428E9, 0.0, 2023-11-25 16:20:57.244
219.0, 17777.057621128275, 36654.670435746964, -44946.87705598796, -47381.47376554892, -35827.58883566724, -44851.36805193044, -28383.56386227177, -8334.160844583612, -0.10200000000000001, 0.9400000000000001, 0.308, 192.0, 0.0, 0.0, 0.0, 0.0, 0.0, 0.0, 0.0, 0.0, 0.0, 1.70094725724747E9, 0.0, 2023-11-25 16:20:57.247
220.0, 17947.22145166653, 36725.65957613702, -44948.508733333205, -47367.03453863079, -35732.61627347663, -44656.617302491344, -28400.685298524535, -8348.13068486818, -0.10200000000000001, 0.9400000000000001, 0.308, 192.0, 0.0, 0.0, 0.0, 0.0, 0.0, 0.0, 0.0, 0.0, 0.0, 1.700947257251469E9, 0.0, 2023-11-25 16:20:57.251
221.0, 18122.459128196137, 36669.64610453202, -44894.953953618286, -47385.07239640623, -35443.429403713875, -44668.374320074836, -28420.488944111938, -8375.645682292663, -0.10200000000000001, 0.9400000000000001, 0.308, 192.0, 0.0, 0.0, 0.0, 0.0, 0.0, 0.0, 0.0, 0.0, 0.0, 1.700947257255441E9, 0.0, 2023-11-25 16:20:57.255
222.0, 17848.314982451797, 36621.72396441984, -44909.773160192155, -47364.03940487378, -35675.14993848204, -44992.273448976695, -28377.551243013295, -8329.064646847803, -0.10200000000000001, 0.9400000000000001, 0.308, 192.0, 0.0, 0.0, 0.0, 0.0, 0.0, 0.0, 0.0, 0.0, 0.0, 1.700947257260449E9, 0.0, 2023-11-25 16:20:57.260
223.0, 17774.196597837996, 36662.65000851751, -44934.69535525982, -47352.08122159019, -35820.48098093045, -44896.29505828561, -28384.681449494536, -8332.752684682928, -0.10200000000000001, 0.9400000000000001, 0.308, 192.0, 0.0, 0.0, 0.0, 0.0, 0.0, 0.0, 0.0, 0.0, 0.0, 1.70094725726449E9, 0.0, 2023-11-25 16:20:57.264
224.0, 17925.964942689534, 36726.28542498177, -44961.025710228176, -47353.80230591325, -35757.873744711134, -44679.55019230249, -28417.42675512156, -8362.100525152746, -0.10200000000000001, 0.9400000000000001, 0.308, 192.0, 0.0, 0.0, 0.0, 0.0, 0.0, 0.0, 0.0, 0.0, 0.0, 1.700947257268468E9, 0.0, 2023-11-25 16:20:57.268
225.0, 18130.34929398886, 36692.82486353217, -44909.03555262513, -47372.22014334442, -35480.39918904295, -44648.41421227625, -28436.984531519956, -8387.983845231993, -0.10200000000000001, 0.9400000000000001, 0.308, 192.0, 0.0, 0.0, 0.0, 0.0, 0.0, 0.0, 0.0, 0.0, 0.0, 1.700947257271474E9, 0.0, 2023-11-25 16:20:57.271
226.0, 17924.82500372231, 36623.556807465175, -44922.67011674287, -47373.717710222925, -35603.35613529159, -44953.02378571317, -28425.09340346973, -8362.36874608621, -0.10400000000000001, 0.9400000000000001, 0.298, 192.0, 252.0, 192.0, 29.0, 96.0, 9.0, 80.0, 0.0, 0.0, 0.0, 1.700947257275942E9, 0.0, 2023-11-25 16:20:57.275
227.0, 17761.679620943025, 36650.69182523392, -44948.32991937756, -47358.92085539352, -35840.0611090733, -44969.49702137674, -28423.57348484677, -8353.808027959827, -0.10400000000000001, 0.9400000000000001, 0.298, 192.0, 0.0, 0.0, 0.0, 0.0, 0.0, 0.0, 0.0, 0.0, 0.0, 1.700947257279523E9, 0.0, 2023-11-25 16:20:57.279
228.0, 17896.81826791981, 36724.87726508108, -44971.39691965544, -47354.60696871364, -35781.723056044946, -44716.251756698104, -28445.25467696842, -8373.65637703614, -0.10400000000000001, 0.9400000000000001, 0.298, 192.0, 0.0, 0.0, 0.0, 0.0, 0.0, 0.0, 0.0, 0.0, 0.0, 1.700947257283572E9, 0.0, 2023-11-25 16:20:57.283
229.0, 18109.673930367702, 36710.97448002988, -44928.66038425689, -47372.51071602234, -35535.38448040301, -44639.40645926076, -28461.01265680941, -8398.131537214702, -0.10400000000000001, 0.9400000000000001, 0.298, 192.0, 0.0, 0.0, 0.0, 0.0, 0.0, 0.0, 0.0, 0.0, 0.0, 1.700947257287585E9, 0.0, 2023-11-25 16:20:57.287
230.0, 17983.140705006208, 36620.896949874994, -44931.05202091361, -47390.369759842135, -35530.19887568938, -44891.06475008306, -28452.29547647184, -8383.84877250776, -0.10400000000000001, 0.9400000000000001, 0.298, 192.0, 0.0, 0.0, 0.0, 0.0, 0.0, 0.0, 0.0, 0.0, 0.0, 1.700947257292598E9, 0.0, 2023-11-25 16:20:57.292
231.0, 17740.445463710483, 36635.06795585966, -44946.02768969866, -47358.406765271044, -35836.64129217163, -45001.52707118119, -28415.035118464843, -8340.821664431294, -0.10400000000000001, 0.9400000000000001, 0.298, 192.0, 0.0, 0.0, 0.0, 0.0, 0.0, 0.0, 0.0, 0.0, 0.0, 1.700947257296705E9, 0.0, 2023-11-25 16:20:57.296
232.0, 17856.7639418559, 36707.50995963931, -44969.38526265446, -47354.40580301354, -35792.22837593894, -44733.9096348178, -28425.76395580339, -8353.875083193194, -0.10400000000000001, 0.9400000000000001, 0.298, 192.0, 0.0, 0.0, 0.0, 0.0, 0.0, 0.0, 0.0, 0.0, 0.0, 1.700947257299796E9, 0.0, 2023-11-25 16:20:57.299
233.0, 18063.361115856304, 36720.89865456804, -44933.46600931478, -47357.13271583709, -35597.58938522213, -44619.9827933291, -28428.267351182385, -8359.75359198494, -0.10400000000000001, 0.9400000000000001, 0.298, 192.0, 0.0, 0.0, 0.0, 0.0, 0.0, 0.0, 0.0, 0.0, 0.0, 1.700947257303658E9, 0.0, 2023-11-25 16:20:57.303
234.0, 18046.217327859085, 36634.24094131481, -44910.62252648146, -47376.95871316895, -35464.97648536879, -44796.74038848167, -28419.125487700167, -8355.350298327243, -0.10400000000000001, 0.9400000000000001, 0.298, 192.0, 0.0, 0.0, 0.0, 0.0, 0.0, 0.0, 0.0, 0.0, 0.0, 1.700947257307936E9, 0.0, 2023-11-25 16:20:57.307
235.0, 17744.26761201234, 36621.321633019645, -44940.35034660702, -47353.15410532404, -35815.13891400563, -45013.41819923141, -28380.009934903377, -8317.68760892005, -0.10400000000000001, 0.9400000000000001, 0.298, 192.0, 0.0, 0.0, 0.0, 0.0, 0.0, 0.0, 0.0, 0.0, 0.0, 1.700947257312736E9, 0.0, 2023-11-25 16:20:57.312
236.0, 17827.99724674192, 36684.040627961236, -44968.89352427644, -47348.5272942218, -35794.88823352912, -44757.66953917379, -28392.839836220723, -8332.193891071545, -0.098, 0.9420000000000001, 0.298, 192.0, 252.0, 240.0, 29.0, 112.0, 9.0, 80.0, 0.0, 0.0, 0.0, 1.700947257315647E9, 0.0, 2023-11-25 16:20:57.315
237.0, 18011.549772208902, 36713.47787540888, -44951.794439768135, -47349.73428842238, -35654.25105741633, -44618.64168866178, -28401.758182258392, -8343.213301088012, -0.098, 0.9420000000000001, 0.298, 192.0, 0.0, 0.0, 0.0, 0.0, 0.0, 0.0, 0.0, 0.0, 0.0, 1.700947257320583E9, 0.0, 2023-11-25 16:20:57.320
238.0, 18075.028726461976, 36624.897912132496, -44920.65845974189, -47386.05587316226, -35442.87061010249, -44738.17881800876, -28413.96223473099, -8362.838132719771, -0.098, 0.9420000000000001, 0.298, 192.0, 0.0, 0.0, 0.0, 0.0, 0.0, 0.0, 0.0, 0.0, 0.0, 1.700947257324646E9, 0.0, 2023-11-25 16:20:57.324
239.0, 17746.480434713416, 36593.7395803618, -44950.676852545366, -47372.22014334442, -35796.20698645199, -45031.143132584475, -28374.28788832282, -8326.449492746531, -0.098, 0.9420000000000001, 0.298, 192.0, 0.0, 0.0, 0.0, 0.0, 0.0, 0.0, 0.0, 0.0, 0.0, 1.700947257327612E9, 0.0, 2023-11-25 16:20:57.327
240.0, 17790.692185246015, 36658.71610149337, -44963.48440211826, -47367.45922177544, -35814.84834132771, -44811.71605726672, -28377.43948429102, -8340.93342315357, -0.098, 0.9420000000000001, 0.298, 192.0, 0.0, 0.0, 0.0, 0.0, 0.0, 0.0, 0.0, 0.0, 0.0, 1.700947257331674E9, 0.0, 2023-11-25 16:20:57.331
241.0, 17966.30984143136, 36708.24756720633, -44957.292968904134, -47370.81198344374, -35709.012831331835, -44645.933168641706, -28392.281042609342, -8357.429010561587, -0.098, 0.9420000000000001, 0.298, 192.0, 0.0, 0.0, 0.0, 0.0, 0.0, 0.0, 0.0, 0.0, 0.0, 1.700947257335764E9, 0.0, 2023-11-25 16:20:57.335
242.0, 18093.938302271166, 36633.63744421452, -44910.64487822591, -47406.08303619421, -35438.95905482281, -44707.04283798252, -28404.932129971046, -8379.713699783528, -0.098, 0.9420000000000001, 0.298, 192.0, 0.0, 0.0, 0.0, 0.0, 0.0, 0.0, 0.0, 0.0, 0.0, 1.700947257339739E9, 0.0, 2023-11-25 16:20:57.339
243.0, 17783.584330509228, 36604.9378043339, -44918.42328529636, -47373.158916611545, -35735.3878897891, -45028.9303098834, -28352.941972368, -8325.175443312579, -0.098, 0.9420000000000001, 0.298, 192.0, 0.0, 0.0, 0.0, 0.0, 0.0, 0.0, 0.0, 0.0, 0.0, 1.70094725734375E9, 0.0, 2023-11-25 16:20:57.343
244.0, 17770.70972570297, 36657.24088635932, -44939.61273903999, -47359.747869938365, -35809.50627440289, -44860.84519157949, -28370.018705131853, -8336.150149840136, -0.098, 0.9420000000000001, 0.298, 192.0, 0.0, 0.0, 0.0, 0.0, 0.0, 0.0, 0.0, 0.0, 0.0, 1.700947257348764E9, 0.0, 2023-11-25 16:20:57.348
245.0, 17945.12038768773, 36732.23098900688, -44946.810000754595, -47346.13565756508, -35725.21784606193, -44659.94771241519, -28388.70476349649, -8352.13164712568, -0.098, 0.9420000000000001, 0.298, 192.0, 0.0, 0.0, 0.0, 0.0, 0.0, 0.0, 0.0, 0.0, 0.0, 1.700947257352691E9, 0.0, 2023-11-25 16:20:57.352
246.0, 18128.941134088174, 36673.31179062269, -44906.979192135244, -47380.646751004075, -35441.194229268345, -44662.67462523873, -28427.976778504468, -8391.1801446891, -0.09, 0.9420000000000001, 0.298, 192.0, 253.0, 48.0, 29.0, 112.0, 9.0, 80.0, 0.0, 0.0, 0.0, 1.70094725735568E9, 0.0, 2023-11-25 16:20:57.355
247.0, 17858.77559885688, 36612.24682477079, -44935.2541488712, -47379.104480636655, -35664.30934242122, -45002.37643747049, -28414.0069382199, -8362.70402225304, -0.09, 0.9420000000000001, 0.298, 192.0, 0.0, 0.0, 0.0, 0.0, 0.0, 0.0, 0.0, 0.0, 0.0, 1.700947257359926E9, 0.0, 2023-11-25 16:20:57.359
248.0, 17770.977946636434, 36664.326389351656, -44950.96742522329, -47356.238646058875, -35829.22051301247, -44927.878073200955, -28411.458839351995, -8348.84594069075, -0.09, 0.9420000000000001, 0.298, 192.0, 0.0, 0.0, 0.0, 0.0, 0.0, 0.0, 0.0, 0.0, 0.0, 1.700947257363766E9, 0.0, 2023-11-25 16:20:57.363
249.0, 17923.21567812153, 36735.85197160864, -44971.70984407781, -47351.52242797881, -35765.5403930593, -44693.56473607597, -28432.1118512287, -8367.3755368442, -0.09, 0.9420000000000001, 0.298, 192.0, 0.0, 0.0, 0.0, 0.0, 0.0, 0.0, 0.0, 0.0, 0.0, 1.700947257369754E9, 0.0, 2023-11-25 16:20:57.369
250.0, 18123.777881119, 36690.92496525347, -44933.063677914586, -47383.70893999445, -35500.202834630356, -44651.49875301108, -28456.944639318543, -8404.278266939911, -0.09, 0.9420000000000001, 0.298, 192.0, 0.0, 0.0, 0.0, 0.0, 0.0, 0.0, 0.0, 0.0, 0.0, 1.700947257372759E9, 0.0, 2023-11-25 16:20:57.372
251.0, 17933.430425337607, 36618.05827832917, -44936.192922138325, -47382.99368417188, -35593.744885175816, -44946.385317609944, -28437.87860129817, -8379.199609661056, -0.09, 0.9420000000000001, 0.298, 192.0, 0.0, 0.0, 0.0, 0.0, 0.0, 0.0, 0.0, 0.0, 0.0, 1.700947257376063E9, 0.0, 2023-11-25 16:20:57.376
252.0, 17749.07323707023, 36641.01351988477, -44949.80513451161, -47356.64097745907, -35837.08832706074, -44975.37553016848, -28418.812563277792, -8357.630176261686, -0.09, 0.9420000000000001, 0.298, 192.0, 0.0, 0.0, 0.0, 0.0, 0.0, 0.0, 0.0, 0.0, 0.0, 1.700947257380901E9, 0.0, 2023-11-25 16:20:57.380
253.0, 17879.33920375576, 36714.88603530956, -44970.74871906623, -47344.83925638667, -35776.336285631216, -44717.19052996523, -28434.615246607693, -8368.09079266677, -0.09, 0.9420000000000001, 0.298, 192.0, 0.0, 0.0, 0.0, 0.0, 0.0, 0.0, 0.0, 0.0, 0.0, 1.7009472573838E9, 0.0, 2023-11-25 16:20:57.383
254.0, 18093.424212148693, 36708.06875325069, -44928.34745983451, -47354.53991348027, -35539.16192521595, -44631.69510742368, -28450.283819470864, -8386.75449928695, -0.09, 0.9420000000000001, 0.298, 192.0, 0.0, 0.0, 0.0, 0.0, 0.0, 0.0, 0.0, 0.0, 0.0, 1.700947257387859E9, 0.0, 2023-11-25 16:20:57.387
255.0, 17994.987129567522, 36617.879464373524, -44928.436866812335, -47376.1316986241, -35504.02498293221, -44871.01523530665, -28447.7133688585, -8387.357996387243, -0.09, 0.9420000000000001, 0.298, 192.0, 0.0, 0.0, 0.0, 0.0, 0.0, 0.0, 0.0, 0.0, 0.0, 1.700947257391835E9, 0.0, 2023-11-25 16:20:57.391
0.0, 17739.97607707692, 36631.96106338037, -44948.32991937756, -47346.94032036547, -35826.02421355536, -45013.84288237606, -28411.10121144071, -8347.236615089967, -0.096, 0.9440000000000001, 0.3, 192.0, 253.0, 0.0, 29.0, 128.0, 9.0, 96.0, 0.0, 0.0, 0.0, 1.700947257395848E9, 0.0, 2023-11-25 16:20:57.395
1.0, 17856.898052322635, 36698.90453802401, -44973.20741095632, -47346.96267210993, -35788.629745081635, -44744.638472156345, -28422.835877279747, -8352.51162678142, -0.096, 0.9440000000000001, 0.3, 192.0, 0.0, 0.0, 0.0, 0.0, 0.0, 0.0, 0.0, 0.0, 0.0, 1.700947257399829E9, 0.0, 2023-11-25 16:20:57.399
2.0, 18058.309621609405, 36716.338898699156, -44939.903311717906, -47354.65167220255, -35611.1568941065, -44624.49784570907, -28428.312054671296, -8353.2715860929, -0.096, 0.9440000000000001, 0.3, 192.0, 0.0, 0.0, 0.0, 0.0, 0.0, 0.0, 0.0, 0.0, 0.0, 1.700947257403885E9, 0.0, 2023-11-25 16:20:57.403
3.0, 18057.95199369812, 36627.08838308911, -44915.80813119509, -47383.507774294354, -35464.618857457506, -44793.946420424756, -28431.73187157296, -8356.423182061098, -0.096, 0.9440000000000001, 0.3, 192.0, 0.0, 0.0, 0.0, 0.0, 0.0, 0.0, 0.0, 0.0, 0.0, 1.700947257408901E9, 0.0, 2023-11-25 16:20:57.408
4.0, 17744.75935039036, 36617.410077739965, -44938.04811692812, -47358.80909667124, -35817.5529024068, -45028.95266162785, -28395.700859511002, -8313.306667006811, -0.096, 0.9440000000000001, 0.3, 192.0, 0.0, 0.0, 0.0, 0.0, 0.0, 0.0, 0.0, 0.0, 0.0, 1.700947257411862E9, 0.0, 2023-11-25 16:20:57.411
5.0, 17827.930191508556, 36682.431302360455, -44956.42125087038, -47353.601140213155, -35795.51408237387, -44770.81236491351, -28411.660005052094, -8325.801292157328, -0.096, 0.9440000000000001, 0.3, 192.0, 0.0, 0.0, 0.0, 0.0, 0.0, 0.0, 0.0, 0.0, 0.0, 1.700947257416891E9, 0.0, 2023-11-25 16:20:57.416
6.0, 18021.13867058023, 36719.44579117844, -44938.4057448394, -47352.43884950148, -35656.15095569503, -44618.57463342841, -28419.48311561145, -8335.79252192885, -0.096, 0.9440000000000001, 0.3, 192.0, 0.0, 0.0, 0.0, 0.0, 0.0, 0.0, 0.0, 0.0, 0.0, 1.700947257420083E9, 0.0, 2023-11-25 16:20:57.420
7.0, 18109.070433267407, 36642.1981623409, -44895.62450595194, -47379.35034982567, -35422.664633114895, -44718.19635846572, -28422.120621457176, -8347.907167423626, -0.096, 0.9440000000000001, 0.3, 192.0, 0.0, 0.0, 0.0, 0.0, 0.0, 0.0, 0.0, 0.0, 0.0, 1.700947257423865E9, 0.0, 2023-11-25 16:20:57.423
8.0, 17779.315147318262, 36615.42077248344, -44918.04330564062, -47361.51365775033, -35770.36836986165, -45023.923519125405, -28377.104208124187, -8303.40484421311, -0.096, 0.9440000000000001, 0.3, 192.0, 0.0, 0.0, 0.0, 0.0, 0.0, 0.0, 0.0, 0.0, 0.0, 1.700947257427903E9, 0.0, 2023-11-25 16:20:57.427
9.0, 17811.032272700344, 36673.758825511795, -44935.6564802714, -47362.20656182845, -35802.331364432735, -44815.06881893502, -28383.452103549494, -8311.3620652392, -0.096, 0.9440000000000001, 0.3, 192.0, 0.0, 0.0, 0.0, 0.0, 0.0, 0.0, 0.0, 0.0, 0.0, 1.700947257431975E9, 0.0, 2023-11-25 16:20:57.431
10.0, 17986.22524574104, 36733.14741052955, -44934.248320370716, -47365.15699209655, -35707.49291270887, -44647.542494242494, -28392.839836220723, -8330.450455004031, -0.098, 0.9480000000000001, 0.28600000000000003, 192.0, 252.0, 240.0, 29.0, 160.0, 8.0, 240.0, 0.0, 0.0, 0.0, 1.700947257436936E9, 0.0, 2023-11-25 16:20:57.436
11.0, 18130.639866666777, 36659.856040460596, -44891.71295067226, -47406.08303619421, -35434.37694720947, -44702.72895130265, -28412.263502152386, -8370.929464212593, -0.098, 0.9480000000000001, 0.28600000000000003, 192.0, 0.0, 0.0, 0.0, 0.0, 0.0, 0.0, 0.0, 0.0, 0.0, 1.700947257439944E9, 0.0, 2023-11-25 16:20:57.439
12.0, 17832.802871799813, 36621.38868825301, -44910.44371252581, -47388.31339935224, -35723.02737510531, -45042.028432134204, -28377.126559868644, -8338.228862074478, -0.098, 0.9480000000000001, 0.28600000000000003, 192.0, 0.0, 0.0, 0.0, 0.0, 0.0, 0.0, 0.0, 0.0, 0.0, 1.700947257443927E9, 0.0, 2023-11-25 16:20:57.443
13.0, 17808.1041941767, 36684.06297970569, -44928.28040460115, -47373.00245440036, -35820.32451871926, -44899.6478199539, -28383.38504831613, -8349.874120935694, -0.098, 0.9480000000000001, 0.28600000000000003, 192.0, 0.0, 0.0, 0.0, 0.0, 0.0, 0.0, 0.0, 0.0, 0.0, 1.700947257447925E9, 0.0, 2023-11-25 16:20:57.447
14.0, 17973.79767582389, 36751.140564816065, -44943.680756530855, -47365.179343841, -35739.701776468966, -44690.882526741334, -28408.24018815043, -8370.683595023584, -0.098, 0.9480000000000001, 0.28600000000000003, 192.0, 0.0, 0.0, 0.0, 0.0, 0.0, 0.0, 0.0, 0.0, 0.0, 1.700947257452004E9, 0.0, 2023-11-25 16:20:57.452
15.0, 18148.521262231025, 36684.107683194605, -44907.4485787688, -47399.310457624255, -35454.7170346638, -44689.22849765164, -28448.026293280876, -8411.788453076893, -0.098, 0.9480000000000001, 0.28600000000000003, 192.0, 0.0, 0.0, 0.0, 0.0, 0.0, 0.0, 0.0, 0.0, 0.0, 1.700947257455993E9, 0.0, 2023-11-25 16:20:57.455
16.0, 17889.26337829392, 36619.82406614114, -44930.33676509104, -47389.96742844194, -35646.495002090334, -45018.46969347831, -28432.514182628893, -8381.166563173123, -0.098, 0.9480000000000001, 0.28600000000000003, 192.0, 0.0, 0.0, 0.0, 0.0, 0.0, 0.0, 0.0, 0.0, 0.0, 1.700947257460099E9, 0.0, 2023-11-25 16:20:57.460
17.0, 17778.264615328862, 36669.981380698846, -44942.339651863535, -47357.66915770402, -35835.814277626785, -44966.92657076437, -28413.1575719306, -8361.474676307998, -0.098, 0.9480000000000001, 0.28600000000000003, 192.0, 0.0, 0.0, 0.0, 0.0, 0.0, 0.0, 0.0, 0.0, 0.0, 1.700947257464085E9, 0.0, 2023-11-25 16:20:57.464
18.0, 17927.06017816784, 36749.240666537364, -44958.32114914908, -47344.23575928638, -35769.27313438334, -44716.832902053946, -28418.67845281106, -8363.262815864422, -0.098, 0.9480000000000001, 0.28600000000000003, 192.0, 0.0, 0.0, 0.0, 0.0, 0.0, 0.0, 0.0, 0.0, 0.0, 1.700947257467994E9, 0.0, 2023-11-25 16:20:57.467
19.0, 18134.417311479727, 36719.84812257864, -44912.94710790481, -47364.39703278506, -35502.147436397965, -44657.98075890312, -28438.72796758747, -8384.586380074785, -0.098, 0.9480000000000001, 0.28600000000000003, 192.0, 0.0, 0.0, 0.0, 0.0, 0.0, 0.0, 0.0, 0.0, 0.0, 1.700947257472016E9, 0.0, 2023-11-25 16:20:57.472
20.0, 17963.940556519097, 36636.65492971599, -44920.74786671971, -47374.701186978964, -35567.12395752954, -44941.646747785424, -28424.758127302903, -8363.218112375513, -0.096, 0.9460000000000001, 0.29, 192.0, 253.0, 0.0, 29.0, 144.0, 9.0, 16.0, 0.0, 0.0, 0.0, 1.700947257476031E9, 0.0, 2023-11-25 16:20:57.476
21.0, 17768.876882657634, 36660.52659279425, -44935.8576459715, -47343.40874474153, -35827.432373456046, -44982.79630932764, -28400.886464224634, -8330.3163445373, -0.096, 0.9460000000000001, 0.29, 192.0, 0.0, 0.0, 0.0, 0.0, 0.0, 0.0, 0.0, 0.0, 0.0, 1.700947257480032E9, 0.0, 2023-11-25 16:20:57.480
22.0, 17893.59961671825, 36733.14741052955, -44955.59423632553, -47335.898558604546, -35769.65311403908, -44713.61425085238, -28420.108964456198, -8343.258004576923, -0.096, 0.9460000000000001, 0.29, 192.0, 0.0, 0.0, 0.0, 0.0, 0.0, 0.0, 0.0, 0.0, 0.0, 1.700947257484037E9, 0.0, 2023-11-25 16:20:57.484
23.0, 18100.420308163204, 36730.375794217085, -44907.06859911306, -47341.3747359961, -35541.53121012822, -44610.30448797995, -28432.46947913998, -8358.144266384157, -0.096, 0.9460000000000001, 0.29, 192.0, 0.0, 0.0, 0.0, 0.0, 0.0, 0.0, 0.0, 0.0, 0.0, 1.70094725748802E9, 0.0, 2023-11-25 16:20:57.488
24.0, 18021.764519424978, 36640.36531929557, -44895.155119318384, -47356.104535592145, -35474.386569784474, -44830.692688309275, -28428.24499943793, -8353.36099307072, -0.096, 0.9460000000000001, 0.29, 192.0, 0.0, 0.0, 0.0, 0.0, 0.0, 0.0, 0.0, 0.0, 0.0, 1.700947257492067E9, 0.0, 2023-11-25 16:20:57.492
25.0, 17749.02853358132, 36639.851229173095, -44924.27944234365, -47329.88593934607, -35800.9008527876, -44989.412425686416, -28397.57840604525, -8318.894603120638, -0.096, 0.9460000000000001, 0.29, 192.0, 0.0, 0.0, 0.0, 0.0, 0.0, 0.0, 0.0, 0.0, 0.0, 1.700947257496051E9, 0.0, 2023-11-25 16:20:57.496
26.0, 17860.20611050202, 36719.17757024498, -44943.79251525313, -47315.4690641724, -35766.72503551543, -44722.197320723215, -28406.116772427176, -8322.135606066657, -0.096, 0.9460000000000001, 0.29, 192.0, 0.0, 0.0, 0.0, 0.0, 0.0, 0.0, 0.0, 0.0, 0.0, 1.700947257499072E9, 0.0, 2023-11-25 16:20:57.499
27.0, 18064.52340656798, 36740.098803055145, -44917.61862249597, -47322.2192909979, -35590.9509171189, -44587.93039178019, -28416.823258021268, -8333.60205097223, -0.096, 0.9460000000000001, 0.29, 192.0, 0.0, 0.0, 0.0, 0.0, 0.0, 0.0, 0.0, 0.0, 0.0, 1.700947257504112E9, 0.0, 2023-11-25 16:20:57.504
28.0, 18079.275557908484, 36653.70931073539, -44896.42916875234, -47351.16480006753, -35431.42651694137, -44745.59959716792, -28413.448144608516, -8335.1666730841, -0.096, 0.9460000000000001, 0.29, 192.0, 0.0, 0.0, 0.0, 0.0, 0.0, 0.0, 0.0, 0.0, 0.0, 1.700947257508416E9, 0.0, 2023-11-25 16:20:57.508
29.0, 17761.880786643123, 36642.73460420783, -44926.42520981136, -47327.40489571153, -35790.19436719351, -44997.66021939042, -28371.695085966003, -8280.091974746225, -0.096, 0.9460000000000001, 0.29, 192.0, 0.0, 0.0, 0.0, 0.0, 0.0, 0.0, 0.0, 0.0, 0.0, 1.700947257512127E9, 0.0, 2023-11-25 16:20:57.512
30.0, 17836.110929979197, 36717.63529987756, -44944.9101024759, -47319.55943340772, -35786.70749505848, -44751.54516119303, -28376.32189706825, -8281.187210224534, -0.094, 0.9460000000000001, 0.294, 192.0, 253.0, 16.0, 29.0, 144.0, 9.0, 48.0, 0.0, 0.0, 0.0, 1.700947257516114E9, 0.0, 2023-11-25 16:20:57.516
31.0, 18025.363150282283, 36762.808175421735, -44932.5048843032, -47320.74407586385, -35652.41821437099, -44593.78654882748, -28388.32478384075, -8295.715844120485, -0.094, 0.9460000000000001, 0.294, 192.0, 0.0, 0.0, 0.0, 0.0, 0.0, 0.0, 0.0, 0.0, 0.0, 1.700947257519157E9, 0.0, 2023-11-25 16:20:57.519
32.0, 18121.140375273273, 36674.42937784545, -44894.97630536274, -47359.18907632698, -35402.12337996047, -44686.32277087245, -28407.18965616103, -8322.604992700219, -0.094, 0.9460000000000001, 0.294, 192.0, 0.0, 0.0, 0.0, 0.0, 0.0, 0.0, 0.0, 0.0, 0.0, 1.700947257523289E9, 0.0, 2023-11-25 16:20:57.523
33.0, 17785.70774623248, 36639.4488977729, -44916.07635212855, -47340.63712842907, -35742.02635789232, -45007.89731835095, -28368.677600464536, -8285.12111724867, -0.094, 0.9460000000000001, 0.294, 192.0, 0.0, 0.0, 0.0, 0.0, 0.0, 0.0, 0.0, 0.0, 0.0, 1.700947257527142E9, 0.0, 2023-11-25 16:20:57.527
34.0, 17804.729080763947, 36694.031857732756, -44932.46018081429, -47333.84219811466, -35784.427617124034, -44814.15239741235, -28383.273289593853, -8309.283353004856, -0.094, 0.9460000000000001, 0.294, 192.0, 0.0, 0.0, 0.0, 0.0, 0.0, 0.0, 0.0, 0.0, 0.0, 1.700947257531144E9, 0.0, 2023-11-25 16:20:57.531
35.0, 17983.61009163977, 36756.236762551875, -44930.33676509104, -47325.92968057748, -35689.29859272225, -44631.538645212495, -28391.409324575583, -8330.3163445373, -0.094, 0.9460000000000001, 0.294, 192.0, 0.0, 0.0, 0.0, 0.0, 0.0, 0.0, 0.0, 0.0, 0.0, 1.700947257536165E9, 0.0, 2023-11-25 16:20:57.536
36.0, 18133.322076001416, 36682.74422678283, -44890.125976815936, -47361.60306472815, -35414.81917081108, -44665.26742759555, -28404.798019504313, -8353.718620982007, -0.094, 0.9460000000000001, 0.294, 192.0, 0.0, 0.0, 0.0, 0.0, 0.0, 0.0, 0.0, 0.0, 0.0, 1.700947257540188E9, 0.0, 2023-11-25 16:20:57.540
37.0, 17820.37530188266, 36619.354679507574, -44936.975233194265, -47370.364948554634, -35701.05561030574, -45009.66310616292, -28395.320879855262, -8334.898452150637, -0.094, 0.9460000000000001, 0.294, 192.0, 0.0, 0.0, 0.0, 0.0, 0.0, 0.0, 0.0, 0.0, 0.0, 1.700947257544257E9, 0.0, 2023-11-25 16:20:57.544
38.0, 17773.07901061523, 36678.296229636224, -44952.822620013074, -47355.2775210473, -35825.71128913299, -44896.920907130356, -28400.595891546716, -8338.139455096658, -0.094, 0.9460000000000001, 0.294, 192.0, 0.0, 0.0, 0.0, 0.0, 0.0, 0.0, 0.0, 0.0, 0.0, 1.70094725754884E9, 0.0, 2023-11-25 16:20:57.548
39.0, 17936.06793118333, 36755.901486385046, -44962.74679455123, -47350.04721284476, -35753.51515454235, -44682.79119524851, -28417.762031288392, -8354.344469826754, -0.094, 0.9460000000000001, 0.294, 192.0, 0.0, 0.0, 0.0, 0.0, 0.0, 0.0, 0.0, 0.0, 0.0, 1.700947257551182E9, 0.0, 2023-11-25 16:20:57.551
40.0, 18132.562116689936, 36711.82384631918, -44910.28725031463, -47379.70797773695, -35467.9716191258, -44664.28395083952, -28440.09142399924, -8384.89930449716, -0.09, 0.9460000000000001, 0.292, 192.0, 253.0, 48.0, 29.0, 144.0, 9.0, 32.0, 0.0, 0.0, 0.0, 1.700947257555208E9, 0.0, 2023-11-25 16:20:57.555
41.0, 17895.946549886055, 36642.04170012972, -44924.7041254883, -47385.29591385078, -35627.92070244798, -44983.22099247229, -28416.979720232455, -8360.357089085233, -0.09, 0.9460000000000001, 0.292, 192.0, 0.0, 0.0, 0.0, 0.0, 0.0, 0.0, 0.0, 0.0, 0.0, 1.700947257559211E9, 0.0, 2023-11-25 16:20:57.559
42.0, 17772.117885603653, 36687.12516869607, -44926.13463713344, -47353.15410532404, -35823.096135031716, -44952.196771168325, -28389.554129785793, -8332.618574216196, -0.09, 0.9460000000000001, 0.292, 192.0, 0.0, 0.0, 0.0, 0.0, 0.0, 0.0, 0.0, 0.0, 0.0, 1.70094725756426E9, 0.0, 2023-11-25 16:20:57.564
43.0, 17917.02424490741, 36764.17163183351, -44940.08212567355, -47337.016145827314, -35752.419919064036, -44696.42575936625, -28403.076935181256, -8339.726428952985, -0.09, 0.9460000000000001, 0.292, 192.0, 0.0, 0.0, 0.0, 0.0, 0.0, 0.0, 0.0, 0.0, 0.0, 1.700947257568274E9, 0.0, 2023-11-25 16:20:57.568
44.0, 18114.658369381235, 36730.95693957293, -44903.51467174467, -47359.90433214955, -35491.664468248426, -44620.94391834068, -28425.853362781214, -8366.727336254995, -0.09, 0.9460000000000001, 0.292, 192.0, 0.0, 0.0, 0.0, 0.0, 0.0, 0.0, 0.0, 0.0, 0.0, 1.700947257572301E9, 0.0, 2023-11-25 16:20:57.572
45.0, 17953.92697500312, 36640.52178150675, -44918.37858180745, -47375.17057361252, -35536.07738448112, -44901.05597985459, -28420.801868534312, -8354.232711104478, -0.09, 0.9460000000000001, 0.292, 192.0, 0.0, 0.0, 0.0, 0.0, 0.0, 0.0, 0.0, 0.0, 0.0, 1.700947257575246E9, 0.0, 2023-11-25 16:20:57.575
46.0, 17746.592193435692, 36667.52268880876, -44933.17543663686, -47342.4252679855, -35815.340079705726, -44980.56113488211, -28388.32478384075, -8318.916954865093, -0.09, 0.9460000000000001, 0.292, 192.0, 0.0, 0.0, 0.0, 0.0, 0.0, 0.0, 0.0, 0.0, 0.0, 1.700947257579304E9, 0.0, 2023-11-25 16:20:57.579
47.0, 17883.697793924548, 36745.776146146796, -44952.28617814615, -47333.43986671446, -35761.91941045754, -44714.62007935287, -28399.165379901577, -8328.259984047412, -0.09, 0.9460000000000001, 0.292, 192.0, 0.0, 0.0, 0.0, 0.0, 0.0, 0.0, 0.0, 0.0, 0.0, 1.700947257583349E9, 0.0, 2023-11-25 16:20:57.583
48.0, 18098.386299417773, 36750.69352992696, -44912.634183482434, -47345.330994764685, -35546.44859390838, -44615.06540954893, -28408.754278272903, -8342.36393479871, -0.09, 0.9460000000000001, 0.292, 192.0, 0.0, 0.0, 0.0, 0.0, 0.0, 0.0, 0.0, 0.0, 0.0, 1.700947257587355E9, 0.0, 2023-11-25 16:20:57.587
49.0, 18040.450577789616, 36661.308903850186, -44900.31837228756, -47370.297893321265, -35463.747139423744, -44829.7315632977, -28408.597816061716, -8343.995612143948, -0.09, 0.9460000000000001, 0.292, 192.0, 0.0, 0.0, 0.0, 0.0, 0.0, 0.0, 0.0, 0.0, 0.0, 1.700947257593502E9, 0.0, 2023-11-25 16:20:57.593
50.0, 17758.32685927473, 36659.67722650495, -44920.43494229734, -47343.2746342748, -35804.9018150451, -45017.19564404436, -28377.41713254656, -8308.478690204465, -0.096, 0.9480000000000001, 0.292, 192.0, 253.0, 0.0, 29.0, 160.0, 9.0, 32.0, 0.0, 0.0, 0.0, 1.700947257596284E9, 0.0, 2023-11-25 16:20:57.596
51.0, 17864.654107648625, 36730.15227677253, -44937.26580587218, -47334.89273010406, -35770.3460181172, -44750.98636758165, -28394.04683042131, -8323.946097367538, -0.096, 0.9480000000000001, 0.292, 192.0, 0.0, 0.0, 0.0, 0.0, 0.0, 0.0, 0.0, 0.0, 0.0, 1.700947257600277E9, 0.0, 2023-11-25 16:20:57.600
52.0, 18066.110380424307, 36761.198849820954, -44902.710008944276, -47327.78487536727, -35596.13652183253, -44609.00808680154, -28400.595891546716, -8325.93540262406, -0.096, 0.9480000000000001, 0.292, 192.0, 0.0, 0.0, 0.0, 0.0, 0.0, 0.0, 0.0, 0.0, 0.0, 1.700947257603311E9, 0.0, 2023-11-25 16:20:57.603
53.0, 18094.13946797126, 36665.13105215205, -44881.02881682263, -47356.81979141472, -35401.31871716007, -44741.30806223251, -28417.04677546582, -8341.134588853669, -0.096, 0.9480000000000001, 0.292, 192.0, 0.0, 0.0, 0.0, 0.0, 0.0, 0.0, 0.0, 0.0, 0.0, 1.700947257607306E9, 0.0, 2023-11-25 16:20:57.607
54.0, 17761.009068609364, 36637.191371582914, -44911.29307881511, -47328.36602072311, -35758.007855177864, -45000.05185604714, -28372.18682434402, -8290.574942895764, -0.096, 0.9480000000000001, 0.292, 192.0, 0.0, 0.0, 0.0, 0.0, 0.0, 0.0, 0.0, 0.0, 0.0, 1.700947257611393E9, 0.0, 2023-11-25 16:20:57.611
55.0, 17827.10317696371, 36705.565357871696, -44924.77118072166, -47313.189186237956, -35758.32077960024, -44750.785201881554, -28372.678562722038, -8287.669216116574, -0.096, 0.9480000000000001, 0.292, 192.0, 0.0, 0.0, 0.0, 0.0, 0.0, 0.0, 0.0, 0.0, 0.0, 1.700947257615401E9, 0.0, 2023-11-25 16:20:57.615
56.0, 18017.09300483382, 36753.800422406246, -44914.17645384985, -47313.323296704686, -35641.80113575472, -44585.024665001, -28385.687277995024, -8295.671140631574, -0.096, 0.9480000000000001, 0.292, 192.0, 0.0, 0.0, 0.0, 0.0, 0.0, 0.0, 0.0, 0.0, 0.0, 1.700947257619429E9, 0.0, 2023-11-25 16:20:57.619
57.0, 18130.01401782203, 36672.3059621222, -44875.35147373098, -47353.84700940216, -35393.13797868943, -44663.09930838338, -28393.42098157656, -8319.699265921028, -0.096, 0.9480000000000001, 0.292, 192.0, 0.0, 0.0, 0.0, 0.0, 0.0, 0.0, 0.0, 0.0, 0.0, 1.700947257624396E9, 0.0, 2023-11-25 16:20:57.624
58.0, 17798.247074871906, 36631.670490702454, -44910.37665729245, -47348.057907588234, -35732.59392173218, -44992.5193181657, -28356.51825148085, -8279.466125901476, -0.096, 0.9480000000000001, 0.292, 192.0, 0.0, 0.0, 0.0, 0.0, 0.0, 0.0, 0.0, 0.0, 0.0, 1.70094725762839E9, 0.0, 2023-11-25 16:20:57.628
59.0, 17802.96329295198, 36680.7102180374, -44941.155009407405, -47356.3280530367, -35803.98539352243, -44818.91331898133, -28377.61829824666, -8300.49911743392, -0.096, 0.9480000000000001, 0.292, 192.0, 0.0, 0.0, 0.0, 0.0, 0.0, 0.0, 0.0, 0.0, 0.0, 1.700947257631387E9, 0.0, 2023-11-25 16:20:57.631
60.0, 17965.08049548632, 36730.15227677253, -44961.18217243936, -47370.83433518819, -35728.302386796764, -44644.90498839677, -28412.799944019313, -8340.262870819912, -0.10400000000000001, 0.9480000000000001, 0.298, 192.0, 252.0, 192.0, 29.0, 160.0, 9.0, 80.0, 0.0, 0.0, 0.0, 1.700947257635411E9, 0.0, 2023-11-25 16:20:57.635
61.0, 18120.648636895257, 36657.73262473734, -44919.27265158566, -47406.19479491649, -35458.22625854328, -44686.36747436136, -28444.986456034956, -8386.419223120121, -0.10400000000000001, 0.9480000000000001, 0.298, 192.0, 0.0, 0.0, 0.0, 0.0, 0.0, 0.0, 0.0, 0.0, 0.0, 1.700947257639423E9, 0.0, 2023-11-25 16:20:57.639
62.0, 17833.473424133474, 36608.75995263576, -44932.75075349221, -47383.574829527715, -35705.503607452345, -45018.134417311485, -28406.362641616186, -8348.175388357091, -0.10400000000000001, 0.9480000000000001, 0.298, 192.0, 0.0, 0.0, 0.0, 0.0, 0.0, 0.0, 0.0, 0.0, 0.0, 1.70094725764353E9, 0.0, 2023-11-25 16:20:57.643
63.0, 17769.502731502384, 36652.41290955697, -44948.508733333205, -47360.06079436074, -35833.310882247795, -44898.3961222644, -28405.356813115697, -8344.375591799688, -0.10400000000000001, 0.9480000000000001, 0.298, 192.0, 0.0, 0.0, 0.0, 0.0, 0.0, 0.0, 0.0, 0.0, 0.0, 1.700947257647413E9, 0.0, 2023-11-25 16:20:57.647
64.0, 17926.724902001013, 36732.208637262425, -44952.80026826862, -47337.10555280514, -35758.857221467166, -44667.90493344128, -28413.29168239733, -8354.36682157121, -0.10400000000000001, 0.9480000000000001, 0.298, 192.0, 0.0, 0.0, 0.0, 0.0, 0.0, 0.0, 0.0, 0.0, 0.0, 1.700947257652446E9, 0.0, 2023-11-25 16:20:57.652
65.0, 18128.404692221247, 36685.89582275103, -44902.93352638883, -47361.04427111677, -35475.705322707334, -44626.19657828767, -28432.33536867325, -8391.940104000581, -0.10400000000000001, 0.9480000000000001, 0.298, 192.0, 0.0, 0.0, 0.0, 0.0, 0.0, 0.0, 0.0, 0.0, 0.0, 1.700947257656472E9, 0.0, 2023-11-25 16:20:57.656
66.0, 17903.434384278582, 36605.742467134296, -44928.05688715659, -47372.242495088874, -35623.00331866781, -44937.869302972475, -28419.594874333725, -8381.993577717969, -0.10400000000000001, 0.9480000000000001, 0.298, 192.0, 0.0, 0.0, 0.0, 0.0, 0.0, 0.0, 0.0, 0.0, 0.0, 1.70094725765986E9, 0.0, 2023-11-25 16:20:57.659
67.0, 17760.472626742438, 36650.64712174501, -44933.28719535914, -47340.05598307324, -35843.68209167506, -44931.20848312479, -28383.049772149297, -8350.499969780441, -0.10400000000000001, 0.9480000000000001, 0.298, 192.0, 0.0, 0.0, 0.0, 0.0, 0.0, 0.0, 0.0, 0.0, 0.0, 1.700947257663504E9, 0.0, 2023-11-25 16:20:57.663
68.0, 17907.569457002814, 36724.296119725244, -44949.5592653226, -47337.82080862771, -35779.689047299515, -44677.78440449052, -28389.37531583015, -8357.406658817132, -0.10400000000000001, 0.9480000000000001, 0.298, 192.0, 0.0, 0.0, 0.0, 0.0, 0.0, 0.0, 0.0, 0.0, 0.0, 1.700947257667483E9, 0.0, 2023-11-25 16:20:57.667
69.0, 18112.311436213426, 36693.62952633257, -44912.12009335996, -47370.297893321265, -35535.004500747265, -44607.421112945216, -28404.127467170652, -8381.971225973515, -0.10400000000000001, 0.9480000000000001, 0.298, 192.0, 0.0, 0.0, 0.0, 0.0, 0.0, 0.0, 0.0, 0.0, 0.0, 1.70094725767153E9, 0.0, 2023-11-25 16:20:57.671
70.0, 17969.08145774382, 36601.741504876794, -44920.27848008615, -47391.86732672064, -35558.85381208108, -44873.630389407925, -28392.325746098253, -8376.60680730424, -0.096, 0.9380000000000001, 0.3, 192.0, 253.0, 0.0, 29.0, 80.0, 9.0, 96.0, 0.0, 0.0, 0.0, 1.700947257675535E9, 0.0, 2023-11-25 16:20:57.675
71.0, 17730.74480661688, 36611.330403248125, -44943.814866997585, -47368.621512487116, -35859.52947849387, -44973.83325980107, -28364.60958297367, -8340.911071409115, -0.096, 0.9380000000000001, 0.3, 192.0, 0.0, 0.0, 0.0, 0.0, 0.0, 0.0, 0.0, 0.0, 0.0, 1.700947257679515E9, 0.0, 2023-11-25 16:20:57.679
72.0, 17838.77078756938, 36668.48381382034, -44979.957637781816, -47373.650654989564, -35812.836684326736, -44708.20512869419, -28389.33061234124, -8362.167580386113, -0.096, 0.9380000000000001, 0.3, 192.0, 0.0, 0.0, 0.0, 0.0, 0.0, 0.0, 0.0, 0.0, 0.0, 1.700947257683534E9, 0.0, 2023-11-25 16:20:57.683
73.0, 18047.71489473759, 36680.84432850413, -44933.3542505925, -47364.486439762884, -35600.18218757894, -44589.62912435879, -28377.461836035473, -8350.030583146881, -0.096, 0.9380000000000001, 0.3, 192.0, 0.0, 0.0, 0.0, 0.0, 0.0, 0.0, 0.0, 0.0, 0.0, 1.700947257687561E9, 0.0, 2023-11-25 16:20:57.687
74.0, 18024.357321781794, 36608.447028213384, -44902.10651184399, -47367.19100084198, -35484.64602048946, -44776.55676323852, -28356.02651310283, -8328.975239869982, -0.096, 0.9380000000000001, 0.3, 192.0, 0.0, 0.0, 0.0, 0.0, 0.0, 0.0, 0.0, 0.0, 0.0, 1.700947257691963E9, 0.0, 2023-11-25 16:20:57.691
75.0, 17740.66898115504, 36614.750220149785, -44919.31735507457, -47331.785837624775, -35823.36435596518, -44967.6641783314, -28321.69423361948, -8286.037538771336, -0.096, 0.9380000000000001, 0.3, 192.0, 0.0, 0.0, 0.0, 0.0, 0.0, 0.0, 0.0, 0.0, 0.0, 1.700947257695588E9, 0.0, 2023-11-25 16:20:57.695
76.0, 17836.602668357216, 36683.14655818303, -44947.726422277265, -47333.61868067011, -35795.46937888496, -44708.80862579449, -28350.930315367023, -8309.17159428258, -0.096, 0.9380000000000001, 0.3, 192.0, 0.0, 0.0, 0.0, 0.0, 0.0, 0.0, 0.0, 0.0, 0.0, 1.700947257699619E9, 0.0, 2023-11-25 16:20:57.699
77.0, 18039.53415626695, 36722.552683657734, -44924.3017940881, -47334.80332312624, -35641.28704563225, -44577.8721067753, -28368.878766164635, -8325.331905523766, -0.096, 0.9380000000000001, 0.3, 192.0, 0.0, 0.0, 0.0, 0.0, 0.0, 0.0, 0.0, 0.0, 0.0, 1.70094725770355E9, 0.0, 2023-11-25 16:20:57.703
78.0, 18092.597197603845, 36631.82695291364, -44903.29115430012, -47376.22110560192, -35441.39539496844, -44716.02823925355, -28395.0526589218, -8354.053897148837, -0.096, 0.9380000000000001, 0.3, 192.0, 0.0, 0.0, 0.0, 0.0, 0.0, 0.0, 0.0, 0.0, 0.0, 1.700947257710042E9, 0.0, 2023-11-25 16:20:57.710
79.0, 17761.41140000956, 36606.211853767854, -44935.67883201585, -47361.5807129837, -35803.56071037778, -45009.35018174055, -28365.95068764099, -8324.996629356936, -0.096, 0.9380000000000001, 0.3, 192.0, 0.0, 0.0, 0.0, 0.0, 0.0, 0.0, 0.0, 0.0, 0.0, 1.700947257712571E9, 0.0, 2023-11-25 16:20:57.712
80.0, 17807.321883120763, 36671.74716851082, -44953.247303157725, -47353.936416379984, -35817.508198917894, -44781.988237141166, -28381.775722715345, -8341.2686993204, -0.096, 0.9380000000000001, 0.298, 192.0, 253.0, 0.0, 29.0, 80.0, 9.0, 80.0, 0.0, 0.0, 0.0, 1.700947257716622E9, 0.0, 2023-11-25 16:20:57.716
81.0, 17987.968681808554, 36724.69845112544, -44945.066564687084, -47346.2250645429, -35705.41420047453, -44613.32197348142, -28393.733905998935, -8346.901338923137, -0.096, 0.9380000000000001, 0.298, 192.0, 0.0, 0.0, 0.0, 0.0, 0.0, 0.0, 0.0, 0.0, 0.0, 1.700947257719758E9, 0.0, 2023-11-25 16:20:57.719
82.0, 18111.752642602045, 36645.26035133128, -44910.689581714825, -47384.04421616128, -35445.374005481484, -44685.74162551661, -28422.455897624004, -8381.390080617677, -0.096, 0.9380000000000001, 0.298, 192.0, 0.0, 0.0, 0.0, 0.0, 0.0, 0.0, 0.0, 0.0, 0.0, 1.700947257723731E9, 0.0, 2023-11-25 16:20:57.723
83.0, 17789.37343232315, 36604.7366386338, -44942.85374198601, -47372.9801026559, -35767.596753549195, -45019.85550163454, -28394.985603688434, -8353.115123881713, -0.096, 0.9380000000000001, 0.298, 192.0, 0.0, 0.0, 0.0, 0.0, 0.0, 0.0, 0.0, 0.0, 0.0, 1.700947257727661E9, 0.0, 2023-11-25 16:20:57.727
84.0, 17792.86030445818, 36673.91528772298, -44952.1073641905, -47353.82465765771, -35840.73166140696, -44849.9375402853, -28395.566749044272, -8356.669051250106, -0.096, 0.9380000000000001, 0.298, 192.0, 0.0, 0.0, 0.0, 0.0, 0.0, 0.0, 0.0, 0.0, 0.0, 1.700947257731644E9, 0.0, 2023-11-25 16:20:57.731
85.0, 17966.242786197996, 36734.868494852606, -44962.18800093985, -47352.37179426811, -35758.81251797826, -44647.63190122031, -28412.241150407932, -8372.762307257928, -0.096, 0.9380000000000001, 0.298, 192.0, 0.0, 0.0, 0.0, 0.0, 0.0, 0.0, 0.0, 0.0, 0.0, 1.700947257735628E9, 0.0, 2023-11-25 16:20:57.735
86.0, 18138.01594233703, 36664.48285156284, -44924.63707025493, -47394.46012907745, -35477.40405528594, -44660.73002347112, -28446.26050546891, -8412.682522855106, -0.096, 0.9380000000000001, 0.298, 192.0, 0.0, 0.0, 0.0, 0.0, 0.0, 0.0, 0.0, 0.0, 0.0, 1.700947257739786E9, 0.0, 2023-11-25 16:20:57.739
87.0, 17853.321773209784, 36600.60156590957, -44950.319224634084, -47393.25313487687, -35715.45013373496, -45000.789463614165, -28424.19933369152, -8382.84294400727, -0.096, 0.9380000000000001, 0.298, 192.0, 0.0, 0.0, 0.0, 0.0, 0.0, 0.0, 0.0, 0.0, 0.0, 1.700947257742748E9, 0.0, 2023-11-25 16:20:57.742
88.0, 17770.955594891977, 36648.233133343834, -44961.38333813946, -47371.549591010764, -35871.95704841102, -44913.57295674956, -28408.106077683697, -8370.527132812396, -0.096, 0.9380000000000001, 0.298, 192.0, 0.0, 0.0, 0.0, 0.0, 0.0, 0.0, 0.0, 0.0, 0.0, 1.700947257747758E9, 0.0, 2023-11-25 16:20:57.747
89.0, 17926.0319979229, 36722.10564876862, -44972.335692922556, -47358.89850364906, -35803.35954467768, -44673.492869555106, -28412.866999252677, -8373.32110086931, -0.096, 0.9380000000000001, 0.298, 192.0, 0.0, 0.0, 0.0, 0.0, 0.0, 0.0, 0.0, 0.0, 0.0, 1.700947257751747E9, 0.0, 2023-11-25 16:20:57.751
90.0, 18124.78370961949, 36677.49156683583, -44922.71482023178, -47386.41350107354, -35521.59345407408, -44624.676659664714, -28430.837801794747, -8398.131537214702, -0.10200000000000001, 0.9460000000000001, 0.302, 192.0, 252.0, 208.0, 29.0, 144.0, 9.0, 112.0, 0.0, 0.0, 0.0, 1.700947257755786E9, 0.0, 2023-11-25 16:20:57.755
91.0, 17912.531544271893, 36597.47232168583, -44934.091858159525, -47392.739044754395, -35627.630129770056, -44924.167683621374, -28408.62016780617, -8371.84588573526, -0.10200000000000001, 0.9460000000000001, 0.302, 192.0, 0.0, 0.0, 0.0, 0.0, 0.0, 0.0, 0.0, 0.0, 0.0, 1.700947257759704E9, 0.0, 2023-11-25 16:20:57.759
92.0, 17746.32397250223, 36634.956197137384, -44940.43975358483, -47357.915026893024, -35854.47798424697, -44936.259977371694, -28380.032286647835, -8339.79348418635, -0.10200000000000001, 0.9460000000000001, 0.302, 192.0, 0.0, 0.0, 0.0, 0.0, 0.0, 0.0, 0.0, 0.0, 0.0, 1.700947257763683E9, 0.0, 2023-11-25 16:20:57.763
93.0, 17888.279901537884, 36711.53327364127, -44953.62728281347, -47345.487456975876, -35779.86786125515, -44669.93894218671, -28382.51333028237, -8344.107370866224, -0.10200000000000001, 0.9460000000000001, 0.302, 192.0, 0.0, 0.0, 0.0, 0.0, 0.0, 0.0, 0.0, 0.0, 0.0, 1.700947257767712E9, 0.0, 2023-11-25 16:20:57.767
94.0, 18095.39116566076, 36700.69267758044, -44906.30863980158, -47357.11036409264, -35529.41656463344, -44579.9731707541, -28395.253824621897, -8362.927539697594, -0.10200000000000001, 0.9460000000000001, 0.302, 192.0, 0.0, 0.0, 0.0, 0.0, 0.0, 0.0, 0.0, 0.0, 0.0, 1.700947257770742E9, 0.0, 2023-11-25 16:20:57.770
95.0, 17996.685862146125, 36635.47028725986, -44888.717816915254, -47358.339710037675, -35506.70719226685, -44820.34383062647, -28373.28205982233, -8336.552481240331, -0.10200000000000001, 0.9460000000000001, 0.302, 192.0, 0.0, 0.0, 0.0, 0.0, 0.0, 0.0, 0.0, 0.0, 0.0, 1.70094725777574E9, 0.0, 2023-11-25 16:20:57.775
96.0, 17756.069333084743, 36646.981435654336, -44914.01999163866, -47337.440828971965, -35811.24971047041, -44935.81294248259, -28346.817594387245, -8305.863536103194, -0.10200000000000001, 0.9460000000000001, 0.302, 192.0, 0.0, 0.0, 0.0, 0.0, 0.0, 0.0, 0.0, 0.0, 0.0, 1.70094725777979E9, 0.0, 2023-11-25 16:20:57.779
97.0, 17862.597747158736, 36708.582843373166, -44949.73807927824, -47344.86160813113, -35779.487881599416, -44680.17604114724, -28373.684391222527, -8329.958716626015, -0.10200000000000001, 0.9460000000000001, 0.302, 192.0, 0.0, 0.0, 0.0, 0.0, 0.0, 0.0, 0.0, 0.0, 0.0, 1.700947257783877E9, 0.0, 2023-11-25 16:20:57.783
98.0, 18069.127865925773, 36724.3184714697, -44914.869357927964, -47351.500076234355, -35589.810978151676, -44572.798260783944, -28380.211100603476, -8343.459170277021, -0.10200000000000001, 0.9460000000000001, 0.302, 192.0, 0.0, 0.0, 0.0, 0.0, 0.0, 0.0, 0.0, 0.0, 0.0, 1.700947257787889E9, 0.0, 2023-11-25 16:20:57.787
99.0, 18055.202729130116, 36637.70546170539, -44896.630334452435, -47379.95384692596, -35459.05327308813, -44757.55778045151, -28383.899138438603, -8343.83914993276, -0.10200000000000001, 0.9460000000000001, 0.302, 192.0, 0.0, 0.0, 0.0, 0.0, 0.0, 0.0, 0.0, 0.0, 0.0, 1.700947257791805E9, 0.0, 2023-11-25 16:20:57.791
100.0, 17750.570803948736, 36632.497505247295, -44924.79353246612, -47356.35040478115, -35816.23414948394, -44984.53974539516, -28358.820481159746, -8305.55061168082, -0.10400000000000001, 0.9400000000000001, 0.302, 192.0, 252.0, 192.0, 29.0, 96.0, 9.0, 112.0, 0.0, 0.0, 0.0, 1.700947257795762E9, 0.0, 2023-11-25 16:20:57.795
101.0, 17840.178947470064, 36705.72182008289, -44947.167628665884, -47350.85187564515, -35799.31387893127, -44738.1117627754, -28386.782513473336, -8334.205548072523, -0.10400000000000001, 0.9400000000000001, 0.302, 192.0, 0.0, 0.0, 0.0, 0.0, 0.0, 0.0, 0.0, 0.0, 0.0, 1.700947257798794E9, 0.0, 2023-11-25 16:20:57.798
102.0, 18035.220269587073, 36744.144468801554, -44931.36494533598, -47354.89754139156, -35657.15678419552, -44605.78943559998, -28411.81646726328, -8362.838132719771, -0.10400000000000001, 0.9400000000000001, 0.302, 192.0, 0.0, 0.0, 0.0, 0.0, 0.0, 0.0, 0.0, 0.0, 0.0, 1.700947257802883E9, 0.0, 2023-11-25 16:20:57.802
103.0, 18108.35517744484, 36661.241848616824, -44902.55354673309, -47392.9849139434, -35442.04359555765, -44732.43441968375, -28433.229438451464, -8391.00133073346, -0.10400000000000001, 0.9400000000000001, 0.302, 192.0, 0.0, 0.0, 0.0, 0.0, 0.0, 0.0, 0.0, 0.0, 0.0, 1.700947257808056E9, 0.0, 2023-11-25 16:20:57.808
104.0, 17782.109115375177, 36633.25746455878, -44938.2045791393, -47380.087957392694, -35799.87267254265, -45039.6814989664, -28404.976833459954, -8361.497028052454, -0.10400000000000001, 0.9400000000000001, 0.302, 192.0, 0.0, 0.0, 0.0, 0.0, 0.0, 0.0, 0.0, 0.0, 0.0, 1.700947257811876E9, 0.0, 2023-11-25 16:20:57.811
105.0, 17817.156650681096, 36688.60038383012, -44970.36873941049, -47383.95480918346, -35831.500390946916, -44830.20094993126, -28431.754223317414, -8384.18404867459, -0.10400000000000001, 0.9400000000000001, 0.302, 192.0, 0.0, 0.0, 0.0, 0.0, 0.0, 0.0, 0.0, 0.0, 0.0, 1.700947257815914E9, 0.0, 2023-11-25 16:20:57.815
106.0, 17983.56538815086, 36741.015224577815, -44963.97614049628, -47381.60787601565, -35729.01764261933, -44659.88065718182, -28438.504450142915, -8392.029510978402, -0.10400000000000001, 0.9400000000000001, 0.302, 192.0, 0.0, 0.0, 0.0, 0.0, 0.0, 0.0, 0.0, 0.0, 0.0, 1.700947257819935E9, 0.0, 2023-11-25 16:20:57.819
107.0, 18113.831354836388, 36664.84047947413, -44913.46119802728, -47412.38622813061, -35455.70051141984, -44712.2507944406, -28452.161366005108, -8414.113034500246, -0.10400000000000001, 0.9400000000000001, 0.302, 192.0, 0.0, 0.0, 0.0, 0.0, 0.0, 0.0, 0.0, 0.0, 0.0, 1.70094725782285E9, 0.0, 2023-11-25 16:20:57.822
108.0, 17795.318996348262, 36606.68124040142, -44941.19971289632, -47398.2375738904, -35754.386872576106, -45036.239330320284, -28417.09147895473, -8369.789525245373, -0.10400000000000001, 0.9400000000000001, 0.302, 192.0, 0.0, 0.0, 0.0, 0.0, 0.0, 0.0, 0.0, 0.0, 0.0, 1.700947257827055E9, 0.0, 2023-11-25 16:20:57.827
109.0, 17771.71555420346, 36658.42552881545, -44953.98491072475, -47378.6350940031, -35837.20008578302, -44872.11047078496, -28410.96710097398, -8366.213246132524, -0.10400000000000001, 0.9400000000000001, 0.302, 192.0, 0.0, 0.0, 0.0, 0.0, 0.0, 0.0, 0.0, 0.0, 0.0, 1.700947257830865E9, 0.0, 2023-11-25 16:20:57.830
110.0, 17939.01836145143, 36732.36509947361, -44955.72834679227, -47361.3795472836, -35754.54333478729, -44657.26550308055, -28415.169228931576, -8358.345432084256, -0.10400000000000001, 0.934, 0.3, 192.0, 252.0, 192.0, 29.0, 48.0, 9.0, 96.0, 0.0, 0.0, 0.0, 1.700947257835878E9, 0.0, 2023-11-25 16:20:57.835
111.0, 18120.29100898397, 36672.574183055665, -44913.058866627085, -47394.95186745547, -35466.04936910264, -44644.36854652984, -28441.320769944286, -8385.592208575274, -0.10400000000000001, 0.934, 0.3, 192.0, 0.0, 0.0, 0.0, 0.0, 0.0, 0.0, 0.0, 0.0, 0.0, 1.70094725783988E9, 0.0, 2023-11-25 16:20:57.839
112.0, 17861.30134598033, 36623.10977257607, -44925.19586386631, -47377.51750678033, -35674.09940649264, -44971.24045744425, -28397.488999067427, -8337.066571362802, -0.10400000000000001, 0.934, 0.3, 192.0, 0.0, 0.0, 0.0, 0.0, 0.0, 0.0, 0.0, 0.0, 0.0, 1.700947257843997E9, 0.0, 2023-11-25 16:20:57.843
113.0, 17772.453161770485, 36673.31179062269, -44933.7565819927, -47350.80717215624, -35836.97656833846, -44891.28826752761, -28378.780588958336, -8314.357198996211, -0.10400000000000001, 0.934, 0.3, 192.0, 0.0, 0.0, 0.0, 0.0, 0.0, 0.0, 0.0, 0.0, 0.0, 1.700947257847961E9, 0.0, 2023-11-25 16:20:57.847
114.0, 17921.31577984283, 36747.11725081411, -44949.5592653226, -47341.151218551546, -35768.53552681631, -44646.983700631106, -28388.771818729856, -8319.07341707628, -0.10400000000000001, 0.934, 0.3, 192.0, 0.0, 0.0, 0.0, 0.0, 0.0, 0.0, 0.0, 0.0, 0.0, 1.70094725785095E9, 0.0, 2023-11-25 16:20:57.850
115.0, 18125.543668930968, 36710.236872462854, -44896.58563096352, -47360.932512394495, -35490.36806707002, -44587.282191190985, -28398.651289779104, -8336.977164384982, -0.10400000000000001, 0.934, 0.3, 192.0, 0.0, 0.0, 0.0, 0.0, 0.0, 0.0, 0.0, 0.0, 0.0, 1.700947257854957E9, 0.0, 2023-11-25 16:20:57.854
116.0, 17938.146643417676, 36629.72588893484, -44899.04432285361, -47363.36885254012, -35572.42132096545, -44873.07159579654, -28375.405475545584, -8310.959733839003, -0.10400000000000001, 0.934, 0.3, 192.0, 0.0, 0.0, 0.0, 0.0, 0.0, 0.0, 0.0, 0.0, 0.0, 1.700947257858943E9, 0.0, 2023-11-25 16:20:57.858
117.0, 17752.291888271797, 36646.66851123196, -44915.11522711697, -47337.28436676078, -35819.09517277422, -44900.00544786519, -28356.630010203127, -8287.266884716379, -0.10400000000000001, 0.934, 0.3, 192.0, 0.0, 0.0, 0.0, 0.0, 0.0, 0.0, 0.0, 0.0, 0.0, 1.700947257862997E9, 0.0, 2023-11-25 16:20:57.862
118.0, 17881.552026456837, 36720.3175092122, -44935.41061108239, -47326.041439299755, -35761.13709940161, -44638.668851693736, -28372.9467836555, -8300.476765689466, -0.10400000000000001, 0.934, 0.3, 192.0, 0.0, 0.0, 0.0, 0.0, 0.0, 0.0, 0.0, 0.0, 0.0, 1.700947257867985E9, 0.0, 2023-11-25 16:20:57.867
119.0, 18091.09963072534, 36717.18826498846, -44896.02683735214, -47338.69252666146, -35527.717832054834, -44549.463039572605, -28387.497769295904, -8316.748835652928, -0.10400000000000001, 0.934, 0.3, 192.0, 0.0, 0.0, 0.0, 0.0, 0.0, 0.0, 0.0, 0.0, 0.0, 1.700947257871978E9, 0.0, 2023-11-25 16:20:57.871
120.0, 18012.13091756474, 36644.813316442174, -44885.230944780225, -47347.365003510124, -35486.23299434579, -44783.75402495313, -28366.46477776346, -8296.49815517642, -0.10400000000000001, 0.9420000000000001, 0.302, 192.0, 252.0, 192.0, 29.0, 112.0, 9.0, 112.0, 0.0, 0.0, 0.0, 1.700947257876573E9, 0.0, 2023-11-25 16:20:57.876
121.0, 17764.51829248885, 36658.403177071, -44910.55547124809, -47321.03464854177, -35811.18265523704, -44932.39312558092, -28334.41237621455, -8265.20571293899, -0.10400000000000001, 0.9420000000000001, 0.302, 192.0, 0.0, 0.0, 0.0, 0.0, 0.0, 0.0, 0.0, 0.0, 0.0, 1.700947257879143E9, 0.0, 2023-11-25 16:20:57.879
122.0, 17886.514113725916, 36734.37675647459, -44943.59134955303, -47321.61579389761, -35774.726960030435, -44672.39763407679, -28359.826309660235, -8285.501096904409, -0.10400000000000001, 0.9420000000000001, 0.302, 192.0, 0.0, 0.0, 0.0, 0.0, 0.0, 0.0, 0.0, 0.0, 0.0, 1.700947257883064E9, 0.0, 2023-11-25 16:20:57.883
123.0, 18090.227912691586, 36743.518619956805, -44930.42617206886, -47344.99571859786, -35600.159835834485, -44564.46106010211, -28389.08474315223, -8320.369818254689, -0.10400000000000001, 0.9420000000000001, 0.302, 192.0, 0.0, 0.0, 0.0, 0.0, 0.0, 0.0, 0.0, 0.0, 0.0, 1.700947257887003E9, 0.0, 2023-11-25 16:20:57.887
124.0, 18084.237645177564, 36653.37403456856, -44913.26003232718, -47377.69632073597, -35458.56153471012, -44752.37217573788, -28402.071106680767, -8340.486388264464, -0.10400000000000001, 0.9420000000000001, 0.302, 192.0, 0.0, 0.0, 0.0, 0.0, 0.0, 0.0, 0.0, 0.0, 0.0, 1.70094725789105E9, 0.0, 2023-11-25 16:20:57.891
125.0, 17765.680583200527, 36629.792944168206, -44947.27938738816, -47362.407727528545, -35817.73171636245, -45002.957582826326, -28379.831120947736, -8314.379550740667, -0.10400000000000001, 0.9420000000000001, 0.302, 192.0, 0.0, 0.0, 0.0, 0.0, 0.0, 0.0, 0.0, 0.0, 0.0, 1.700947257895051E9, 0.0, 2023-11-25 16:20:57.895
126.0, 17837.116758479686, 36696.17762520047, -44968.04415798714, -47355.36692802512, -35809.99801278091, -44768.57719046798, -28403.680432281548, -8334.943155639548, -0.10400000000000001, 0.9420000000000001, 0.302, 192.0, 0.0, 0.0, 0.0, 0.0, 0.0, 0.0, 0.0, 0.0, 0.0, 1.700947257900077E9, 0.0, 2023-11-25 16:20:57.900
127.0, 18031.174603840664, 36740.56818968871, -44947.435849599344, -47349.91310237803, -35668.08678723416, -44619.423999717714, -28425.09340346973, -8357.630176261686, -0.10400000000000001, 0.9420000000000001, 0.302, 192.0, 0.0, 0.0, 0.0, 0.0, 0.0, 0.0, 0.0, 0.0, 0.0, 1.700947257904063E9, 0.0, 2023-11-25 16:20:57.904
128.0, 18126.281276497994, 36665.511031807786, -44903.69348570031, -47377.94218992498, -35430.24187448524, -44720.67740210026, -28437.498621642426, -8386.910961498137, -0.10400000000000001, 0.9420000000000001, 0.302, 192.0, 0.0, 0.0, 0.0, 0.0, 0.0, 0.0, 0.0, 0.0, 0.0, 1.700947257907116E9, 0.0, 2023-11-25 16:20:57.907
129.0, 17799.38701383913, 36637.906627405486, -44928.168645878875, -47358.13854433758, -35777.34211413171, -45029.75732442824, -28394.516217054872, -8345.828455189283, -0.10400000000000001, 0.9420000000000001, 0.302, 192.0, 0.0, 0.0, 0.0, 0.0, 0.0, 0.0, 0.0, 0.0, 0.0, 1.700947257911131E9, 0.0, 2023-11-25 16:20:57.911
130.0, 17832.199374699518, 36697.11639846759, -44947.41349785489, -47355.29987279176, -35814.58012039425, -44821.95315622725, -28408.66487129508, -8357.518417539408, -0.098, 0.9440000000000001, 0.296, 192.0, 252.0, 240.0, 29.0, 128.0, 9.0, 64.0, 0.0, 0.0, 0.0, 1.70094725791514E9, 0.0, 2023-11-25 16:20:57.915
