%OpenBCI Raw EXG Data
%Number of channels = 8
%Sample Rate = 250 Hz
%Board = OpenBCI_GUI$BoardCytonSerial
Sample Index, EXG Channel 0, EXG Channel 1, EXG Channel 2, EXG Channel 3, EXG Channel 4, EXG Channel 5, EXG Channel 6, EXG Channel 7, Accel Channel 0, Accel Channel 1, Accel Channel 2, Other, Other, Other, Other, Other, Other, Other, Analog Channel 0, Analog Channel 1, Analog Channel 2, Timestamp, Other, Timestamp (Formatted)
47.0, 76989.77911350479, 82124.5336085002, -11339.129369155095, -9480.537114207402, -3001.5487076698196, -2451.047593480062, -15842.223565843531, 187500.0, -0.042, 0.978, 0.154, 192.0, 254.0, 176.0, 30.0, 144.0, 4.0, 208.0, 0.0, 0.0, 0.0, 1.700945515949273E9, 0.0, 2023-11-25 15:51:55.949
48.0, 76961.95119165794, 82135.10598362757, -11961.245472579656, -10081.3296534216, -3657.371241732984, -2827.0039352183267, -15912.318636455375, 187500.0, -0.042, 0.978, 0.154, 192.0, 0.0, 0.0, 0.0, 0.0, 0.0, 0.0, 0.0, 0.0, 0.0, 1.700945515949303E9, 0.0, 2023-11-25 15:51:55.949
49.0, 76946.84141240614, 82176.3896556365, -12741.813092447888, -10804.98973190662, -4606.269849094135, -3544.025545600122, -16003.714919533126, 187500.0, -0.042, 0.978, 0.154, 192.0, 0.0, 0.0, 0.0, 0.0, 0.0, 0.0, 0.0, 0.0, 0.0, 1.700945515949318E9, 0.0, 2023-11-25 15:51:55.949
0.0, 0.0, 0.0, 0.0, 0.0, 0.0, 0.0, 0.0, 0.0, -0.042, 0.978, 0.154, 192.0, 0.0, 0.0, 0.0, 0.0, 0.0, 0.0, 0.0, 0.0, 0.0, 1.70094551601386E9, 0.0, 2023-11-25 15:51:56.013
1.0, 76457.36056057937, 81999.29678431712, -11548.453455979045, -9682.887456761297, -3410.67503817976, -2682.9245904594172, -15951.903575885723, 187500.0, -0.11800000000000001, 0.9580000000000001, 0.194, 192.0, 252.0, 80.0, 29.0, 240.0, 6.0, 16.0, 0.0, 0.0, 0.0, 1.700945516030506E9, 0.0, 2023-11-25 15:51:56.030
2.0, 76450.43151979822, 82032.08679343305, -12151.905852783424, -10219.418730666486, -4106.618953540201, -3087.915848245126, -16017.64005632878, 187500.0, -0.11800000000000001, 0.9580000000000001, 0.194, 192.0, 0.0, 0.0, 0.0, 0.0, 0.0, 0.0, 0.0, 0.0, 0.0, 1.700945516033596E9, 0.0, 2023-11-25 15:51:56.033
3.0, 76467.70941826218, 82068.63189561748, -12549.945718043533, -10842.831235269456, -4739.374487325488, -3829.2785083387507, -16041.60112638487, 187500.0, -0.11800000000000001, 0.9580000000000001, 0.194, 192.0, 0.0, 0.0, 0.0, 0.0, 0.0, 0.0, 0.0, 0.0, 0.0, 1.700945516037961E9, 0.0, 2023-11-25 15:51:56.037
4.0, 76483.6015085699, 82028.75638350922, -11390.49367791339, -9732.374218985346, -3404.260087521087, -2930.984250424415, -15850.113731636255, 187500.0, -0.11800000000000001, 0.9580000000000001, 0.194, 192.0, 0.0, 0.0, 0.0, 0.0, 0.0, 0.0, 0.0, 0.0, 0.0, 1.700945516041782E9, 0.0, 2023-11-25 15:51:56.041
5.0, 76466.27890661704, 82004.84001694203, -11456.297213589814, -9587.04317653694, -3303.4984235165625, -2630.1074183115265, -15946.673267683182, 187500.0, -0.11800000000000001, 0.9580000000000001, 0.194, 192.0, 0.0, 0.0, 0.0, 0.0, 0.0, 0.0, 0.0, 0.0, 0.0, 1.700945516045587E9, 0.0, 2023-11-25 15:51:56.045
6.0, 76453.76192972207, 82025.73889800774, -12039.990668295703, -10144.898014652494, -3977.6270362886235, -3014.780940387361, -15999.669253786715, 187500.0, -0.11800000000000001, 0.9580000000000001, 0.194, 192.0, 0.0, 0.0, 0.0, 0.0, 0.0, 0.0, 0.0, 0.0, 0.0, 1.700945516048646E9, 0.0, 2023-11-25 15:51:56.048
7.0, 76457.22645011263, 82060.54056412466, -12600.706529701536, -10822.357037348394, -4755.490095077765, -3780.596408915092, -16060.80127487198, 187500.0, -0.11800000000000001, 0.9580000000000001, 0.194, 192.0, 0.0, 0.0, 0.0, 0.0, 0.0, 0.0, 0.0, 0.0, 0.0, 1.70094551605259E9, 0.0, 2023-11-25 15:51:56.052
8.0, 76476.13602592183, 82028.33170036456, -11580.125877872215, -9967.715736355274, -3657.617110921992, -3154.2558257884775, -15860.775513741437, 187500.0, -0.152, 0.9500000000000001, 0.21, 192.0, 251.0, 64.0, 29.0, 176.0, 6.0, 144.0, 0.0, 0.0, 0.0, 1.700945516056575E9, 0.0, 2023-11-25 15:51:56.056
9.0, 76468.42467408474, 82000.66024072889, -11344.717305268921, -9468.847151857275, -3185.9058959371923, -2564.393289612924, -15923.248639494019, 187500.0, -0.152, 0.9500000000000001, 0.21, 192.0, 0.0, 0.0, 0.0, 0.0, 0.0, 0.0, 0.0, 0.0, 0.0, 1.700945516061686E9, 0.0, 2023-11-25 15:51:56.061
10.0, 76462.05442691498, 82024.37544159597, -11925.594440173441, -10045.566862293108, -3844.880025968555, -2920.993020652893, -15981.273768099996, 187500.0, -0.152, 0.9500000000000001, 0.21, 192.0, 0.0, 0.0, 0.0, 0.0, 0.0, 0.0, 0.0, 0.0, 0.0, 1.700945516065658E9, 0.0, 2023-11-25 15:51:56.065
11.0, 76473.78909275403, 82084.09930278055, -12579.539427702359, -10752.776056859024, -4697.397911238421, -3676.951369875833, -16068.199702286685, 187500.0, -0.152, 0.9500000000000001, 0.21, 192.0, 0.0, 0.0, 0.0, 0.0, 0.0, 0.0, 0.0, 0.0, 0.0, 1.700945516069848E9, 0.0, 2023-11-25 15:51:56.069
12.0, 76492.05046797401, 82061.36757866951, -11801.43049972421, -10244.78796062326, -3943.7194399499226, -3397.375750228852, -15888.67049082166, 187500.0, -0.152, 0.9500000000000001, 0.21, 192.0, 0.0, 0.0, 0.0, 0.0, 0.0, 0.0, 0.0, 0.0, 0.0, 1.700945516072961E9, 0.0, 2023-11-25 15:51:56.072
13.0, 76481.38868586882, 82013.53484553515, -11240.111141218084, -9381.362424059203, -3083.8701824987156, -2531.6479839858994, -15895.57717985835, 187500.0, -0.152, 0.9500000000000001, 0.21, 192.0, 0.0, 0.0, 0.0, 0.0, 0.0, 0.0, 0.0, 0.0, 0.0, 1.700945516077613E9, 0.0, 2023-11-25 15:51:56.077
14.0, 76463.52964204903, 82018.65339501541, -11822.172918578735, -9951.130741969437, -3720.716085519324, -2856.597644877153, -15978.233930854076, 187500.0, -0.152, 0.9500000000000001, 0.21, 192.0, 0.0, 0.0, 0.0, 0.0, 0.0, 0.0, 0.0, 0.0, 0.0, 1.700945516082652E9, 0.0, 2023-11-25 15:51:56.082
15.0, 76479.3546771234, 82079.94187831186, -12501.598894786704, -10613.77055809147, -4566.550799197054, -3514.4541876857506, -16061.13655103881, 187500.0, -0.152, 0.9500000000000001, 0.21, 192.0, 0.0, 0.0, 0.0, 0.0, 0.0, 0.0, 0.0, 0.0, 0.0, 1.700945516085673E9, 0.0, 2023-11-25 15:51:56.085
16.0, 76501.57231111197, 82073.28105846418, -12032.815758325549, -10456.570739337294, -4210.085178623817, -3573.3957378143955, -15921.371092959775, 187500.0, -0.152, 0.9500000000000001, 0.21, 192.0, 0.0, 0.0, 0.0, 0.0, 0.0, 0.0, 0.0, 0.0, 0.0, 1.700945516091233E9, 0.0, 2023-11-25 15:51:56.091
17.0, 76498.19719769922, 82029.71750852079, -11189.97617840483, -9343.56562418528, -3047.7721152033946, -2533.480827031234, -15874.007746458978, 187500.0, -0.152, 0.9500000000000001, 0.21, 192.0, 0.0, 0.0, 0.0, 0.0, 0.0, 0.0, 0.0, 0.0, 0.0, 1.700945516094788E9, 0.0, 2023-11-25 15:51:56.094
18.0, 76481.76866552456, 82033.11497367799, -11738.309173382422, -9882.913217891839, -3628.1351599854424, -2814.6210687900866, -15970.388468550262, 187500.0, -0.17400000000000002, 0.9480000000000001, 0.222, 192.0, 250.0, 144.0, 29.0, 160.0, 6.0, 240.0, 0.0, 0.0, 0.0, 1.70094551609875E9, 0.0, 2023-11-25 15:51:56.098
19.0, 76485.3002411485, 82082.60173590205, -12396.433937124484, -10490.366576953718, -4420.437445692712, -3377.4603459191735, -16053.358143968362, 187500.0, -0.17400000000000002, 0.9480000000000001, 0.222, 192.0, 0.0, 0.0, 0.0, 0.0, 0.0, 0.0, 0.0, 0.0, 0.0, 1.700945516101919E9, 0.0, 2023-11-25 15:51:56.101
20.0, 76500.05239248901, 82085.08277953659, -12255.61794705605, -10657.579977223872, -4454.389745520323, -3745.079486975609, -15971.617814495305, 187500.0, -0.17400000000000002, 0.9480000000000001, 0.222, 192.0, 0.0, 0.0, 0.0, 0.0, 0.0, 0.0, 0.0, 0.0, 0.0, 1.700945516104797E9, 0.0, 2023-11-25 15:51:56.104
21.0, 76492.18457844073, 82027.90701721991, -11197.553419775179, -9400.562572546312, -3092.274438413911, -2625.4806072092783, -15869.000955700989, 187500.0, -0.17400000000000002, 0.9480000000000001, 0.222, 192.0, 0.0, 0.0, 0.0, 0.0, 0.0, 0.0, 0.0, 0.0, 0.0, 1.70094551610868E9, 0.0, 2023-11-25 15:51:56.108
22.0, 76469.96694445217, 82012.32785133456, -11647.628146127243, -9765.387745545835, -3508.463920171728, -2746.470599945855, -15974.21061685212, 187500.0, -0.17400000000000002, 0.9480000000000001, 0.222, 192.0, 0.0, 0.0, 0.0, 0.0, 0.0, 0.0, 0.0, 0.0, 0.0, 1.700945516113011E9, 0.0, 2023-11-25 15:51:56.113
23.0, 76466.30125836149, 82054.21502044381, -12288.899694550002, -10343.180339715522, -4257.22500768006, -3228.7988935469266, -16051.190024756197, 187500.0, -0.17400000000000002, 0.9480000000000001, 0.222, 192.0, 0.0, 0.0, 0.0, 0.0, 0.0, 0.0, 0.0, 0.0, 0.0, 1.700945516117786E9, 0.0, 2023-11-25 15:51:56.117
24.0, 76481.88042424685, 82079.80776784514, -12453.766161652347, -10790.774022433046, -4642.3232129005455, -3836.4981217978147, -16024.971428510122, 187500.0, -0.17400000000000002, 0.9480000000000001, 0.222, 192.0, 0.0, 0.0, 0.0, 0.0, 0.0, 0.0, 0.0, 0.0, 0.0, 1.700945516121768E9, 0.0, 2023-11-25 15:51:56.121
25.0, 76499.73946806663, 82042.1674301824, -11270.911845077497, -9524.12301589525, -3212.2138991610886, -2763.5473327097097, -15857.266289861953, 187500.0, -0.17400000000000002, 0.9480000000000001, 0.222, 192.0, 0.0, 0.0, 0.0, 0.0, 0.0, 0.0, 0.0, 0.0, 0.0, 1.700945516125785E9, 0.0, 2023-11-25 15:51:56.125
26.0, 76473.87849973184, 82020.17331363837, -11550.822740891308, -9655.215997125626, -3399.119186296366, -2688.154898661959, -15972.154256362232, 187500.0, -0.17400000000000002, 0.9480000000000001, 0.222, 192.0, 0.0, 0.0, 0.0, 0.0, 0.0, 0.0, 0.0, 0.0, 0.0, 1.700945516128791E9, 0.0, 2023-11-25 15:51:56.128
27.0, 76474.61610729888, 82058.23833444576, -12152.665812094905, -10203.280771169755, -4093.7443487339438, -3097.5494501053636, -16033.59920186987, 187500.0, -0.17400000000000002, 0.9480000000000001, 0.222, 192.0, 0.0, 0.0, 0.0, 0.0, 0.0, 0.0, 0.0, 0.0, 0.0, 1.700945516132862E9, 0.0, 2023-11-25 15:51:56.132
28.0, 76494.35269765291, 82095.6775064084, -12569.704660142024, -10846.228700426664, -4747.108190907024, -3860.3474331316274, -16055.302745735973, 187500.0, -0.186, 0.9400000000000001, 0.224, 192.0, 250.0, 48.0, 29.0, 96.0, 7.0, 0.0, 0.0, 0.0, 0.0, 1.700945516136825E9, 0.0, 2023-11-25 15:51:56.136
29.0, 76499.65006108882, 82045.20726742831, -11411.481965956924, -9756.536454741532, -3431.6633262232936, -2985.6566173620963, -15854.673487505137, 187500.0, -0.186, 0.9400000000000001, 0.224, 192.0, 0.0, 0.0, 0.0, 0.0, 0.0, 0.0, 0.0, 0.0, 0.0, 1.70094551614083E9, 0.0, 2023-11-25 15:51:56.140
30.0, 76471.57627005294, 82010.38324956695, -11443.22144308346, -9567.708917583099, -3289.4615279986297, -2640.657441694432, -15945.846253138336, 187500.0, -0.186, 0.9400000000000001, 0.224, 192.0, 0.0, 0.0, 0.0, 0.0, 0.0, 0.0, 0.0, 0.0, 0.0, 1.700945516144871E9, 0.0, 2023-11-25 15:51:56.144
31.0, 76471.71038051968, 82051.4657558758, -12029.284182701611, -10131.308154023667, -3958.6057017571575, -3023.6769346805736, -16002.709091032637, 187500.0, -0.186, 0.9400000000000001, 0.224, 192.0, 0.0, 0.0, 0.0, 0.0, 0.0, 0.0, 0.0, 0.0, 0.0, 1.700945516149864E9, 0.0, 2023-11-25 15:51:56.149
32.0, 76488.34007839442, 82102.36067800054, -12604.34986404775, -10824.94983970521, -4748.963385696815, -3796.332037011628, -16070.099600565387, 187500.0, -0.186, 0.9400000000000001, 0.224, 192.0, 0.0, 0.0, 0.0, 0.0, 0.0, 0.0, 0.0, 0.0, 0.0, 1.700945516153855E9, 0.0, 2023-11-25 15:51:56.153
33.0, 76509.03779376004, 82070.46473866282, -11594.788622234897, -9988.704024398807, -3672.8162971516012, -3190.197430872611, -15867.168112655654, 187500.0, -0.186, 0.9400000000000001, 0.224, 192.0, 0.0, 0.0, 0.0, 0.0, 0.0, 0.0, 0.0, 0.0, 0.0, 1.700945516157926E9, 0.0, 2023-11-25 15:51:56.157
34.0, 76498.21954944367, 82038.14411618044, -11325.830081204187, -9443.813198067332, -3160.1790380691336, -2573.9821879842507, -15924.0085988055, 187500.0, -0.186, 0.9400000000000001, 0.224, 192.0, 0.0, 0.0, 0.0, 0.0, 0.0, 0.0, 0.0, 0.0, 0.0, 1.700945516162004E9, 0.0, 2023-11-25 15:51:56.162
35.0, 76485.68022080425, 82061.70285483633, -11910.886992321848, -10028.020742895693, -3819.4437407784158, -2937.1980353829904, -15990.54974204895, 187500.0, -0.186, 0.9400000000000001, 0.224, 192.0, 0.0, 0.0, 0.0, 0.0, 0.0, 0.0, 0.0, 0.0, 0.0, 1.700945516165992E9, 0.0, 2023-11-25 15:51:56.165
36.0, 76488.29537490552, 82105.51227396874, -12573.616215421704, -10732.503024638061, -4672.3192539595675, -3667.2283610377744, -16074.681708178725, 187500.0, -0.186, 0.9400000000000001, 0.224, 192.0, 0.0, 0.0, 0.0, 0.0, 0.0, 0.0, 0.0, 0.0, 0.0, 1.700945516170979E9, 0.0, 2023-11-25 15:51:56.170
37.0, 76509.32836643796, 82085.64157314796, -11821.52471798953, -10237.59069890865, -3952.347213309671, -3401.376712486352, -15895.823049047358, 187500.0, -0.186, 0.9400000000000001, 0.224, 192.0, 0.0, 0.0, 0.0, 0.0, 0.0, 0.0, 0.0, 0.0, 0.0, 1.700945516173922E9, 0.0, 2023-11-25 15:51:56.173
38.0, 76495.73850580913, 82036.02070045719, -11242.592184852623, -9355.680269680057, -3074.5495050608524, -2528.1834635953264, -15908.228267220053, 187500.0, -0.192, 0.9420000000000001, 0.228, 192.0, 250.0, 0.0, 29.0, 112.0, 7.0, 32.0, 0.0, 0.0, 0.0, 1.700945516178969E9, 0.0, 2023-11-25 15:51:56.178
39.0, 76473.85614798739, 82037.40650861342, -11834.220508840146, -9940.088980208515, -3720.425512841405, -2867.929979315994, -15997.858762485834, 187500.0, -0.192, 0.9420000000000001, 0.228, 192.0, 0.0, 0.0, 0.0, 0.0, 0.0, 0.0, 0.0, 0.0, 0.0, 1.700945516183044E9, 0.0, 2023-11-25 15:51:56.183
40.0, 76480.2487469016, 82092.36944822902, -12517.312171138785, -10605.165136476176, -4561.633415416886, -3522.2772982451083, -16079.286167536518, 187500.0, -0.192, 0.9420000000000001, 0.228, 192.0, 0.0, 0.0, 0.0, 0.0, 0.0, 0.0, 0.0, 0.0, 0.0, 1.700945516186015E9, 0.0, 2023-11-25 15:51:56.186
41.0, 76502.9581192682, 82092.7270761403, -12072.557159967084, -10479.771850081903, -4244.082181940339, -3606.431616119339, -15935.497395455528, 187500.0, -0.192, 0.9420000000000001, 0.228, 192.0, 0.0, 0.0, 0.0, 0.0, 0.0, 0.0, 0.0, 0.0, 0.0, 1.700945516190051E9, 0.0, 2023-11-25 15:51:56.190
42.0, 76505.21564545819, 82056.0702152336, -11194.848858696087, -9352.66278417859, -3058.2774350973887, -2564.0580134460943, -15878.612205816771, 187500.0, -0.192, 0.9420000000000001, 0.228, 192.0, 0.0, 0.0, 0.0, 0.0, 0.0, 0.0, 0.0, 0.0, 0.0, 1.700945516193039E9, 0.0, 2023-11-25 15:51:56.193
43.0, 76478.68412478974, 82039.84284875904, -11734.867004736305, -9862.394316481867, -3613.1371394559314, -2819.381990359067, -15985.095916401855, 187500.0, -0.192, 0.9420000000000001, 0.228, 192.0, 0.0, 0.0, 0.0, 0.0, 0.0, 0.0, 0.0, 0.0, 0.0, 1.700945516197052E9, 0.0, 2023-11-25 15:51:56.197
44.0, 76485.76962778207, 82085.39570395896, -12398.31148365873, -10462.851579529237, -4401.594925116888, -3364.518685879551, -16069.13847555381, 187500.0, -0.192, 0.9420000000000001, 0.228, 192.0, 0.0, 0.0, 0.0, 0.0, 0.0, 0.0, 0.0, 0.0, 0.0, 1.700945516201023E9, 0.0, 2023-11-25 15:51:56.201
45.0, 76509.48482864915, 82100.81840763312, -12301.215505744876, -10682.837448458367, -4491.851269227418, -3773.332091967117, -15999.199867153153, 187500.0, -0.192, 0.9420000000000001, 0.228, 192.0, 0.0, 0.0, 0.0, 0.0, 0.0, 0.0, 0.0, 0.0, 0.0, 1.700945516205041E9, 0.0, 2023-11-25 15:51:56.205
46.0, 76513.88812230685, 82057.90305827893, -11213.579620549634, -9408.318627872304, -3103.2267931970114, -2640.948014372351, -15878.723964539047, 187500.0, -0.192, 0.9420000000000001, 0.228, 192.0, 0.0, 0.0, 0.0, 0.0, 0.0, 0.0, 0.0, 0.0, 0.0, 1.700945516209013E9, 0.0, 2023-11-25 15:51:56.209
47.0, 76483.06506670297, 82037.71943303579, -11643.291907702913, -9743.438332490723, -3491.3648356634185, -2737.1722742524476, -15980.178532621687, 187500.0, -0.19, 0.9400000000000001, 0.228, 192.0, 250.0, 16.0, 29.0, 96.0, 7.0, 32.0, 0.0, 0.0, 0.0, 1.700945516212058E9, 0.0, 2023-11-25 15:51:56.212
48.0, 76484.89790974831, 82084.97102081431, -12276.00273799929, -10307.015217186836, -4230.715838756066, -3207.1847566586443, -16050.877100333822, 187500.0, -0.19, 0.9400000000000001, 0.228, 192.0, 0.0, 0.0, 0.0, 0.0, 0.0, 0.0, 0.0, 0.0, 0.0, 1.700945516217138E9, 0.0, 2023-11-25 15:51:56.217
49.0, 76504.88036929135, 82117.7833816747, -12466.283138547318, -10777.877065882334, -4646.905320513883, -3834.978203174854, -16023.987951754088, 187500.0, -0.19, 0.9400000000000001, 0.228, 192.0, 0.0, 0.0, 0.0, 0.0, 0.0, 0.0, 0.0, 0.0, 0.0, 1.700945516221105E9, 0.0, 2023-11-25 15:51:56.221
50.0, 76500.72294482267, 82059.80295655763, -11288.793240641742, -9534.293059622414, -3233.872739538281, -2782.83688817464, -15859.322650351842, 187500.0, -0.19, 0.9400000000000001, 0.228, 192.0, 0.0, 0.0, 0.0, 0.0, 0.0, 0.0, 0.0, 0.0, 0.0, 1.700945516225234E9, 0.0, 2023-11-25 15:51:56.225
51.0, 76477.52183407806, 82032.15384866642, -11549.973374602007, -9659.574587294412, -3400.48264270814, -2699.420177867434, -15972.042497639955, 187500.0, -0.19, 0.9400000000000001, 0.228, 192.0, 0.0, 0.0, 0.0, 0.0, 0.0, 0.0, 0.0, 0.0, 0.0, 1.700945516229109E9, 0.0, 2023-11-25 15:51:56.229
52.0, 76478.59471781191, 82075.11390150951, -12141.892271267447, -10215.037788753247, -4088.804613209321, -3109.3735229222207, -16025.843146543879, 187500.0, -0.19, 0.9400000000000001, 0.228, 192.0, 0.0, 0.0, 0.0, 0.0, 0.0, 0.0, 0.0, 0.0, 0.0, 1.700945516233125E9, 0.0, 2023-11-25 15:51:56.233
53.0, 76497.34783140992, 82113.84947465056, -12570.48697119796, -10845.245223670629, -4743.911891449916, -3853.95483421741, -16051.324135222929, 187500.0, -0.19, 0.9400000000000001, 0.228, 192.0, 0.0, 0.0, 0.0, 0.0, 0.0, 0.0, 0.0, 0.0, 0.0, 1.700945516238111E9, 0.0, 2023-11-25 15:51:56.238
54.0, 76510.13302923835, 82075.56093639863, -11421.160271306071, -9772.115620626882, -3442.3027565840193, -2993.21150698799, -15849.0408479024, 187500.0, -0.19, 0.9400000000000001, 0.228, 192.0, 0.0, 0.0, 0.0, 0.0, 0.0, 0.0, 0.0, 0.0, 0.0, 1.700945516242142E9, 0.0, 2023-11-25 15:51:56.242
55.0, 76491.69284006272, 82044.4696598613, -11420.422663739046, -9534.874204978252, -3258.414954950208, -2611.2201942467923, -15939.073674568377, 187500.0, -0.19, 0.9400000000000001, 0.228, 192.0, 0.0, 0.0, 0.0, 0.0, 0.0, 0.0, 0.0, 0.0, 0.0, 1.700945516246122E9, 0.0, 2023-11-25 15:51:56.246
56.0, 76485.0543719595, 82071.4705671633, -12010.933400503804, -10087.275217446711, -3928.0285153422974, -2982.1697452270682, -16000.138640420277, 187500.0, -0.19, 0.9400000000000001, 0.228, 192.0, 0.0, 0.0, 0.0, 0.0, 0.0, 0.0, 0.0, 0.0, 0.0, 1.700945516250204E9, 0.0, 2023-11-25 15:51:56.250
57.0, 76501.88523553434, 82122.32078579912, -12603.120518102709, -10803.514516772571, -4740.201501870335, -3769.688757620902, -16067.909129608766, 187500.0, -0.186, 0.9380000000000001, 0.23600000000000002, 192.0, 250.0, 48.0, 29.0, 80.0, 7.0, 96.0, 0.0, 0.0, 0.0, 1.70094551625437E9, 0.0, 2023-11-25 15:51:56.254
58.0, 76525.44397419023, 82098.33736399858, -11621.923640003639, -10018.32008580209, -3704.8686987005117, -3216.7289515410607, -15869.738563268014, 187500.0, -0.186, 0.9380000000000001, 0.23600000000000002, 192.0, 0.0, 0.0, 0.0, 0.0, 0.0, 0.0, 0.0, 0.0, 0.0, 1.700945516257235E9, 0.0, 2023-11-25 15:51:56.257
59.0, 76512.0105757726, 82057.00898850072, -11317.559935755722, -9436.995916008464, -3148.600834441285, -2574.161001939893, -15928.613058163293, 187500.0, -0.186, 0.9380000000000001, 0.23600000000000002, 192.0, 0.0, 0.0, 0.0, 0.0, 0.0, 0.0, 0.0, 0.0, 0.0, 1.700945516261196E9, 0.0, 2023-11-25 15:51:56.261
60.0, 76496.52081686507, 82063.42393915939, -11907.556582398009, -10015.749635189728, -3807.37379877255, -2936.594538282697, -16004.117250933321, 187500.0, -0.186, 0.9380000000000001, 0.23600000000000002, 192.0, 0.0, 0.0, 0.0, 0.0, 0.0, 0.0, 0.0, 0.0, 0.0, 1.700945516265179E9, 0.0, 2023-11-25 15:51:56.265
61.0, 76496.76668605408, 82106.92043386943, -12579.070041068799, -10713.682855806692, -4665.5690271340645, -3671.586951206559, -16092.160772342775, 187500.0, -0.186, 0.9380000000000001, 0.23600000000000002, 192.0, 0.0, 0.0, 0.0, 0.0, 0.0, 0.0, 0.0, 0.0, 0.0, 1.700945516268228E9, 0.0, 2023-11-25 15:51:56.268
62.0, 76515.22922697416, 82095.74456164177, -11857.287509118023, -10271.766516180816, -3988.9370189830092, -3452.8527799669246, -15908.831764320346, 187500.0, -0.186, 0.9380000000000001, 0.23600000000000002, 192.0, 0.0, 0.0, 0.0, 0.0, 0.0, 0.0, 0.0, 0.0, 0.0, 1.700945516272333E9, 0.0, 2023-11-25 15:51:56.272
63.0, 76506.28852919204, 82056.69606407835, -11236.601917338601, -9357.13313306965, -3067.3969468351543, -2545.3048998480917, -15911.066938765878, 187500.0, -0.186, 0.9380000000000001, 0.23600000000000002, 192.0, 0.0, 0.0, 0.0, 0.0, 0.0, 0.0, 0.0, 0.0, 0.0, 1.700945516277205E9, 0.0, 2023-11-25 15:51:56.277
64.0, 76492.34104065193, 82071.6717328634, -11816.115595831347, -9938.814930774563, -3701.851213199045, -2879.28466549929, -15998.462259586127, 187500.0, -0.186, 0.9380000000000001, 0.23600000000000002, 192.0, 0.0, 0.0, 0.0, 0.0, 0.0, 0.0, 0.0, 0.0, 0.0, 1.700945516281258E9, 0.0, 2023-11-25 15:51:56.281
65.0, 76495.89496802032, 82120.66675670943, -12501.062452919776, -10597.409081150185, -4544.3555169529345, -3524.959507579745, -16091.33375779793, 187500.0, -0.186, 0.9380000000000001, 0.23600000000000002, 192.0, 0.0, 0.0, 0.0, 0.0, 0.0, 0.0, 0.0, 0.0, 0.0, 1.700945516285243E9, 0.0, 2023-11-25 15:51:56.285
66.0, 76518.02319503107, 82120.6891084539, -12102.888477192937, -10524.073007592322, -4276.402804422713, -3668.949445360833, -15960.799570178935, 187500.0, -0.186, 0.9380000000000001, 0.23600000000000002, 192.0, 0.0, 0.0, 0.0, 0.0, 0.0, 0.0, 0.0, 0.0, 0.0, 1.700945516289296E9, 0.0, 2023-11-25 15:51:56.289
67.0, 76510.89298854984, 82069.14598573995, -11196.122908130039, -9363.503380239414, -3057.2269031079895, -2602.3689034424906, -15899.824011304858, 187500.0, -0.184, 0.9440000000000001, 0.234, 192.0, 250.0, 64.0, 29.0, 128.0, 7.0, 80.0, 0.0, 0.0, 0.0, 1.700945516292286E9, 0.0, 2023-11-25 15:51:56.292
68.0, 76488.92122375027, 82058.90888677942, -11718.974914428582, -9848.849159341951, -3592.797052001602, -2830.5578625867206, -15989.789782737469, 187500.0, -0.184, 0.9440000000000001, 0.234, 192.0, 0.0, 0.0, 0.0, 0.0, 0.0, 0.0, 0.0, 0.0, 0.0, 1.70094551629629E9, 0.0, 2023-11-25 15:51:56.296
69.0, 76488.96592723917, 82105.69108792438, -12381.16769566151, -10450.245195656444, -4380.025491717517, -3368.1396684813108, -16067.46209471966, 187500.0, -0.184, 0.9440000000000001, 0.234, 192.0, 0.0, 0.0, 0.0, 0.0, 0.0, 0.0, 0.0, 0.0, 0.0, 1.700945516300332E9, 0.0, 2023-11-25 15:51:56.300
70.0, 76506.6014536144, 82112.82129440561, -12309.664465148982, -10705.189192913675, -4503.921211233283, -3801.0482550916977, -15989.320396103907, 187500.0, -0.184, 0.9440000000000001, 0.234, 192.0, 0.0, 0.0, 0.0, 0.0, 0.0, 0.0, 0.0, 0.0, 0.0, 1.70094551630528E9, 0.0, 2023-11-25 15:51:56.305
71.0, 76505.32740418045, 82062.06048274762, -11212.551440304691, -9437.845282297765, -3113.396836924176, -2689.6971690293753, -15876.086458693322, 187500.0, -0.184, 0.9440000000000001, 0.234, 192.0, 0.0, 0.0, 0.0, 0.0, 0.0, 0.0, 0.0, 0.0, 0.0, 1.700945516309304E9, 0.0, 2023-11-25 15:51:56.309
72.0, 76476.2477846441, 82043.03914821615, -11626.751616805985, -9754.88242565184, -3482.804117537036, -2777.114841594081, -15985.766468735514, 187500.0, -0.184, 0.9440000000000001, 0.234, 192.0, 0.0, 0.0, 0.0, 0.0, 0.0, 0.0, 0.0, 0.0, 0.0, 1.700945516313289E9, 0.0, 2023-11-25 15:51:56.313
73.0, 76480.67343004626, 82095.34223024157, -12254.209787155365, -10309.160984654545, -4213.21442284756, -3229.06711448039, -16052.665239890248, 187500.0, -0.184, 0.9440000000000001, 0.234, 192.0, 0.0, 0.0, 0.0, 0.0, 0.0, 0.0, 0.0, 0.0, 0.0, 1.70094551631836E9, 0.0, 2023-11-25 15:51:56.318
74.0, 76499.02421224407, 82127.21581783483, -12479.962406153967, -10810.622371509358, -4664.429088166844, -3875.0325292387643, -16030.69347509068, 187500.0, -0.184, 0.9440000000000001, 0.234, 192.0, 0.0, 0.0, 0.0, 0.0, 0.0, 0.0, 0.0, 0.0, 0.0, 1.700945516322334E9, 0.0, 2023-11-25 15:51:56.322
75.0, 76505.34975592492, 82079.15956725593, -11292.23540928786, -9575.107344997805, -3243.908672798714, -2834.022382977293, -15854.293507849397, 187500.0, -0.184, 0.9440000000000001, 0.234, 192.0, 0.0, 0.0, 0.0, 0.0, 0.0, 0.0, 0.0, 0.0, 0.0, 1.700945516325343E9, 0.0, 2023-11-25 15:51:56.325
76.0, 76477.92416547825, 82042.77092728269, -11519.396188187146, -9638.653354484244, -3360.584778855417, -2698.5931633225878, -15959.860796911813, 187500.0, -0.184, 0.9440000000000001, 0.234, 192.0, 0.0, 0.0, 0.0, 0.0, 0.0, 0.0, 0.0, 0.0, 0.0, 1.700945516328373E9, 0.0, 2023-11-25 15:51:56.328
77.0, 76472.71620902017, 82077.68435212188, -12116.433634332852, -10168.25558760829, -4044.749324887911, -3079.3551301187435, -16021.97629475311, 187500.0, -0.184, 0.9540000000000001, 0.23600000000000002, 192.0, 250.0, 64.0, 29.0, 208.0, 7.0, 96.0, 0.0, 0.0, 0.0, 1.700945516334387E9, 0.0, 2023-11-25 15:51:56.334
78.0, 76498.37601165487, 82130.21095159186, -12569.30232874183, -10825.195708894218, -4737.541644280153, -3842.8013137342114, -16049.960678811156, 187500.0, -0.184, 0.9540000000000001, 0.23600000000000002, 192.0, 0.0, 0.0, 0.0, 0.0, 0.0, 0.0, 0.0, 0.0, 0.0, 1.700945516337426E9, 0.0, 2023-11-25 15:51:56.337
79.0, 76509.19425597123, 82084.90396558095, -11428.35753302068, -9787.091289411937, -3461.4358498377624, -3015.7420653989393, -15838.043789630388, 187500.0, -0.184, 0.9540000000000001, 0.23600000000000002, 192.0, 0.0, 0.0, 0.0, 0.0, 0.0, 0.0, 0.0, 0.0, 0.0, 1.700945516341354E9, 0.0, 2023-11-25 15:51:56.341
80.0, 76477.00774395559, 82037.04888070213, -11405.335236231713, -9530.962649698575, -3252.7376118585603, -2622.9548600858284, -15945.332163015863, 187500.0, -0.184, 0.9540000000000001, 0.23600000000000002, 192.0, 0.0, 0.0, 0.0, 0.0, 0.0, 0.0, 0.0, 0.0, 0.0, 1.700945516345382E9, 0.0, 2023-11-25 15:51:56.345
81.0, 76472.67150553125, 82067.08962525007, -11991.286217127588, -10101.066243775636, -3926.0615618302304, -2999.8723268356716, -16002.887904988278, 187500.0, -0.184, 0.9540000000000001, 0.23600000000000002, 192.0, 0.0, 0.0, 0.0, 0.0, 0.0, 0.0, 0.0, 0.0, 0.0, 1.700945516348538E9, 0.0, 2023-11-25 15:51:56.348
82.0, 76494.24093893063, 82126.29939631217, -12581.305215514329, -10798.060691125476, -4724.242356329245, -3758.1552574819634, -16055.839187602902, 187500.0, -0.184, 0.9540000000000001, 0.23600000000000002, 192.0, 0.0, 0.0, 0.0, 0.0, 0.0, 0.0, 0.0, 0.0, 0.0, 1.700945516352418E9, 0.0, 2023-11-25 15:51:56.352
83.0, 76515.49744790762, 82101.01957333322, -11618.660285313164, -10034.435693554366, -3720.0678849301203, -3230.296460425432, -15857.154531139677, 187500.0, -0.184, 0.9540000000000001, 0.23600000000000002, 192.0, 0.0, 0.0, 0.0, 0.0, 0.0, 0.0, 0.0, 0.0, 0.0, 1.700945516356455E9, 0.0, 2023-11-25 15:51:56.356
84.0, 76491.6034330849, 82049.47645061927, -11284.077022561672, -9398.372101589692, -3127.165511508645, -2543.717925991765, -15915.693749868125, 187500.0, -0.184, 0.9540000000000001, 0.23600000000000002, 192.0, 0.0, 0.0, 0.0, 0.0, 0.0, 0.0, 0.0, 0.0, 0.0, 1.700945516360459E9, 0.0, 2023-11-25 15:51:56.360
85.0, 76476.6054125554, 82059.49003213526, -11878.074631461459, -9990.693329655329, -3799.3942260020053, -2912.3652472931444, -15989.029823425988, 187500.0, -0.184, 0.9540000000000001, 0.23600000000000002, 192.0, 0.0, 0.0, 0.0, 0.0, 0.0, 0.0, 0.0, 0.0, 0.0, 1.700945516365527E9, 0.0, 2023-11-25 15:51:56.365
86.0, 76492.2069301852, 82119.90679739795, -12541.72027608398, -10687.665425260715, -4656.024832251648, -3633.6783926103585, -16066.03158307452, 187500.0, -0.184, 0.9540000000000001, 0.23600000000000002, 192.0, 0.0, 0.0, 0.0, 0.0, 0.0, 0.0, 0.0, 0.0, 0.0, 1.700945516369529E9, 0.0, 2023-11-25 15:51:56.369
87.0, 76508.30018619301, 82100.93016635539, -11852.68304976023, -10281.958911652437, -4027.829054335243, -3450.282329354564, -15891.732679812038, 187500.0, -0.184, 0.9380000000000001, 0.234, 192.0, 250.0, 64.0, 29.0, 80.0, 7.0, 80.0, 0.0, 0.0, 0.0, 1.700945516373528E9, 0.0, 2023-11-25 15:51:56.373
88.0, 76496.54316860953, 82051.48810762026, -11204.393053578504, -9348.371249243171, -3082.0373394533804, -2531.7373909637204, -15886.569426842862, 187500.0, -0.184, 0.9380000000000001, 0.234, 192.0, 0.0, 0.0, 0.0, 0.0, 0.0, 0.0, 0.0, 0.0, 0.0, 1.700945516376543E9, 0.0, 2023-11-25 15:51:56.376
89.0, 76476.4489503442, 82051.48810762026, -11777.402374434754, -9930.455378348277, -3715.619887783514, -2864.018424036315, -15968.510922016016, 187500.0, -0.184, 0.9380000000000001, 0.234, 192.0, 0.0, 0.0, 0.0, 0.0, 0.0, 0.0, 0.0, 0.0, 0.0, 1.700945516380593E9, 0.0, 2023-11-25 15:51:56.380
90.0, 76485.61316557087, 82104.39468674597, -12448.826426127724, -10575.593778561804, -4549.675232133297, -3492.0800914859883, -16047.725504365624, 187500.0, -0.184, 0.9380000000000001, 0.234, 192.0, 0.0, 0.0, 0.0, 0.0, 0.0, 0.0, 0.0, 0.0, 0.0, 1.700945516384542E9, 0.0, 2023-11-25 15:51:56.384
91.0, 76505.19329371373, 82100.70664891084, -12080.380270526442, -10534.354810041763, -4321.2404038000595, -3655.4266399653725, -15912.855078322302, 187500.0, -0.184, 0.9380000000000001, 0.234, 192.0, 0.0, 0.0, 0.0, 0.0, 0.0, 0.0, 0.0, 0.0, 0.0, 1.700945516388568E9, 0.0, 2023-11-25 15:51:56.388
92.0, 76500.11944772238, 82051.53281110917, -11154.34749774307, -9358.764810414888, -3074.013063193925, -2574.228057173259, -15843.788187955402, 187500.0, -0.184, 0.9380000000000001, 0.234, 192.0, 0.0, 0.0, 0.0, 0.0, 0.0, 0.0, 0.0, 0.0, 0.0, 1.70094551639261E9, 0.0, 2023-11-25 15:51:56.392
93.0, 76477.14185442231, 82037.6076743135, -11675.299605762912, -9851.218444254213, -3609.8961365099117, -2813.8164059896953, -15947.34382001684, 187500.0, -0.184, 0.9380000000000001, 0.234, 192.0, 0.0, 0.0, 0.0, 0.0, 0.0, 0.0, 0.0, 0.0, 0.0, 1.700945516397563E9, 0.0, 2023-11-25 15:51:56.397
94.0, 76484.0038399701, 82084.56868941411, -12323.142567055533, -10448.345297377742, -4392.430709890212, -3345.027964714523, -16020.724597063614, 187500.0, -0.184, 0.9380000000000001, 0.234, 192.0, 0.0, 0.0, 0.0, 0.0, 0.0, 0.0, 0.0, 0.0, 0.0, 1.700945516401644E9, 0.0, 2023-11-25 15:51:56.401
95.0, 76516.10094500791, 82111.77076241621, -12267.978461739835, -10710.68772204968, -4539.6616506173195, -3789.4476997193933, -15933.57514543237, 187500.0, -0.184, 0.9380000000000001, 0.234, 192.0, 0.0, 0.0, 0.0, 0.0, 0.0, 0.0, 0.0, 0.0, 0.0, 1.700945516405555E9, 0.0, 2023-11-25 15:51:56.405
96.0, 76511.65294786131, 82059.75825306872, -11156.40385823296, -9431.76560780592, -3136.2179680130444, -2669.066508897127, -15808.919466605124, 187500.0, -0.184, 0.9380000000000001, 0.234, 192.0, 0.0, 0.0, 0.0, 0.0, 0.0, 0.0, 0.0, 0.0, 0.0, 1.700945516408558E9, 0.0, 2023-11-25 15:51:56.408
97.0, 76479.1982149122, 82035.73012777927, -11566.625424221209, -9745.494692980612, -3497.6233241109044, -2744.414239455967, -15925.662627895194, 187500.0, -0.186, 0.936, 0.23, 192.0, 250.0, 48.0, 29.0, 64.0, 7.0, 48.0, 0.0, 0.0, 0.0, 1.700945516412574E9, 0.0, 2023-11-25 15:51:56.412
98.0, 76470.793958997, 82068.85541306203, -12183.310053743131, -10296.241676359377, -4218.780007216931, -3190.6668175061727, -15991.399108338252, 187500.0, -0.186, 0.936, 0.23, 192.0, 0.0, 0.0, 0.0, 0.0, 0.0, 0.0, 0.0, 0.0, 0.0, 1.700945516416631E9, 0.0, 2023-11-25 15:51:56.416
99.0, 76493.39157264133, 82101.08662856658, -12430.27447822982, -10802.41928129426, -4692.882858858449, -3840.1861596329404, -15982.033727411477, 187500.0, -0.186, 0.936, 0.23, 192.0, 0.0, 0.0, 0.0, 0.0, 0.0, 0.0, 0.0, 0.0, 0.0, 1.700945516420679E9, 0.0, 2023-11-25 15:51:56.420
100.0, 76508.97073852668, 82062.61927635901, -11245.855539543098, -9584.629188135767, -3280.7666994055153, -2819.739618270352, -15806.281960759397, 187500.0, -0.186, 0.936, 0.23, 192.0, 0.0, 0.0, 0.0, 0.0, 0.0, 0.0, 0.0, 0.0, 0.0, 1.700945516424607E9, 0.0, 2023-11-25 15:51:56.424
101.0, 76484.16030218129, 82026.18593289686, -11460.655803758598, -9625.018790366506, -3372.386499927819, -2672.218104865325, -15921.393444704228, 187500.0, -0.186, 0.936, 0.23, 192.0, 0.0, 0.0, 0.0, 0.0, 0.0, 0.0, 0.0, 0.0, 0.0, 1.70094551642967E9, 0.0, 2023-11-25 15:51:56.429
102.0, 76481.6569068023, 82064.18389847087, -12056.933290592826, -10184.997044205315, -4065.9834821204527, -3083.4231476096093, -15982.883093700779, 187500.0, -0.186, 0.936, 0.23, 192.0, 0.0, 0.0, 0.0, 0.0, 0.0, 0.0, 0.0, 0.0, 0.0, 1.700945516432716E9, 0.0, 2023-11-25 15:51:56.432
103.0, 76492.09517146292, 82104.17116930142, -12522.698941552513, -10823.318162359974, -4757.881731734483, -3831.3348688286387, -16018.243553429074, 187500.0, -0.186, 0.936, 0.23, 192.0, 0.0, 0.0, 0.0, 0.0, 0.0, 0.0, 0.0, 0.0, 0.0, 1.700945516436763E9, 0.0, 2023-11-25 15:51:56.436
104.0, 76506.5567501255, 82063.24512520374, -11409.693826400498, -9795.3614348604, -3505.893469559368, -3025.6885916815513, -15819.648303943672, 187500.0, -0.186, 0.936, 0.23, 192.0, 0.0, 0.0, 0.0, 0.0, 0.0, 0.0, 0.0, 0.0, 0.0, 1.700945516440629E9, 0.0, 2023-11-25 15:51:56.440
105.0, 76485.41199987078, 82026.27533987467, -11362.308128155248, -9498.194992327093, -3252.938777558658, -2600.424301674879, -15916.72193011307, 187500.0, -0.186, 0.936, 0.23, 192.0, 0.0, 0.0, 0.0, 0.0, 0.0, 0.0, 0.0, 0.0, 0.0, 1.700945516444686E9, 0.0, 2023-11-25 15:51:56.444
106.0, 76483.28858414752, 82056.5172501227, -11945.26397529411, -10079.116830720524, -3926.3074310192387, -2982.1026899937024, -15971.863683684312, 187500.0, -0.186, 0.936, 0.23, 192.0, 0.0, 0.0, 0.0, 0.0, 0.0, 0.0, 0.0, 0.0, 0.0, 1.700945516448752E9, 0.0, 2023-11-25 15:51:56.448
107.0, 76499.87357853337, 82114.14004732849, -12554.0137355344, -10797.32308355845, -4754.394859599454, -3764.9278360519215, -16048.50781542156, 187500.0, -0.19, 0.932, 0.234, 192.0, 250.0, 16.0, 29.0, 32.0, 7.0, 80.0, 0.0, 0.0, 0.0, 1.700945516454092E9, 0.0, 2023-11-25 15:51:56.454
108.0, 76514.29045370704, 82078.44431143336, -11620.023741724937, -10069.483228860287, -3780.6411124040023, -3276.0951848143563, -15851.320725836842, 187500.0, -0.19, 0.932, 0.234, 192.0, 0.0, 0.0, 0.0, 0.0, 0.0, 0.0, 0.0, 0.0, 0.0, 1.700945516457731E9, 0.0, 2023-11-25 15:51:56.457
109.0, 76491.24580517362, 82031.43859284384, -11259.043068771729, -9415.135909931172, -3145.8292181288266, -2569.2436181597254, -15893.252598434998, 187500.0, -0.19, 0.932, 0.234, 192.0, 0.0, 0.0, 0.0, 0.0, 0.0, 0.0, 0.0, 0.0, 0.0, 1.70094551646072E9, 0.0, 2023-11-25 15:51:56.460
110.0, 76478.68412478974, 82041.51922959319, -11840.456645543176, -9997.912943114394, -3801.1153103250635, -2921.7529799643735, -15954.049343353432, 187500.0, -0.19, 0.932, 0.234, 192.0, 0.0, 0.0, 0.0, 0.0, 0.0, 0.0, 0.0, 0.0, 0.0, 1.700945516465219E9, 0.0, 2023-11-25 15:51:56.465
111.0, 76493.30216566351, 82101.28779426668, -12516.216935660475, -10689.520620050505, -4665.926655045349, -3635.5559391446045, -16046.920841565234, 187500.0, -0.19, 0.932, 0.234, 192.0, 0.0, 0.0, 0.0, 0.0, 0.0, 0.0, 0.0, 0.0, 0.0, 1.700945516469215E9, 0.0, 2023-11-25 15:51:56.469
112.0, 76519.09607876492, 82096.43746571988, -11859.34386960791, -10331.356266898665, -4074.8124211802988, -3496.5280886325945, -15870.207949901576, 187500.0, -0.19, 0.932, 0.234, 192.0, 0.0, 0.0, 0.0, 0.0, 0.0, 0.0, 0.0, 0.0, 0.0, 1.700945516472783E9, 0.0, 2023-11-25 15:51:56.472
113.0, 76503.4051541573, 82043.73205229426, -11173.391184018992, -9344.236176518938, -3070.8391154812716, -2538.845245700508, -15860.596699785794, 187500.0, -0.19, 0.932, 0.234, 192.0, 0.0, 0.0, 0.0, 0.0, 0.0, 0.0, 0.0, 0.0, 0.0, 1.700945516476758E9, 0.0, 2023-11-25 15:51:56.476
114.0, 76479.24291840111, 82035.39485161244, -11752.949566000649, -9918.519546809142, -3698.1631753639194, -2859.9727582899045, -15957.625622466281, 187500.0, -0.19, 0.932, 0.234, 192.0, 0.0, 0.0, 0.0, 0.0, 0.0, 0.0, 0.0, 0.0, 0.0, 1.700945516480805E9, 0.0, 2023-11-25 15:51:56.480
115.0, 76493.65979357478, 82094.11288429653, -12426.65349562806, -10576.890179740212, -4532.084409246971, -3491.923629274801, -16034.31445769244, 187500.0, -0.19, 0.932, 0.234, 192.0, 0.0, 0.0, 0.0, 0.0, 0.0, 0.0, 0.0, 0.0, 0.0, 1.700945516486046E9, 0.0, 2023-11-25 15:51:56.486
116.0, 76510.37889842736, 82091.2295092618, -12093.545448010618, -10565.647252279194, -4345.894377934263, -3686.272047313696, -15920.38761620374, 187500.0, -0.19, 0.932, 0.234, 192.0, 0.0, 0.0, 0.0, 0.0, 0.0, 0.0, 0.0, 0.0, 0.0, 1.700945516489803E9, 0.0, 2023-11-25 15:51:56.489
117.0, 76498.73363956614, 82033.60671205602, -11147.709029639844, -9358.51894122588, -3076.2482376394555, -2587.03560674615, -15851.208967114564, 187500.0, -0.188, 0.936, 0.234, 192.0, 250.0, 32.0, 29.0, 64.0, 7.0, 80.0, 0.0, 0.0, 0.0, 1.700945516493775E9, 0.0, 2023-11-25 15:51:56.493
118.0, 76475.68899103273, 82024.17427589587, -11655.518311919966, -9816.84146128195, -3586.046825176099, -2791.3305510676564, -15944.996886849034, 187500.0, -0.188, 0.936, 0.234, 192.0, 0.0, 0.0, 0.0, 0.0, 0.0, 0.0, 0.0, 0.0, 0.0, 1.700945516497864E9, 0.0, 2023-11-25 15:51:56.497
119.0, 76485.99314522662, 82082.48997717976, -12307.518697681273, -10418.505718529907, -4365.34039561038, -3322.7209237481266, -16016.611876083838, 187500.0, -0.188, 0.936, 0.234, 192.0, 0.0, 0.0, 0.0, 0.0, 0.0, 0.0, 0.0, 0.0, 0.0, 1.700945516501935E9, 0.0, 2023-11-25 15:51:56.501
120.0, 76499.6053575999, 82091.25186100625, -12299.226200488354, -10719.807233787446, -4557.5653979260205, -3800.4224062469493, -15953.579956719872, 187500.0, -0.188, 0.936, 0.234, 192.0, 0.0, 0.0, 0.0, 0.0, 0.0, 0.0, 0.0, 0.0, 0.0, 1.70094551650582E9, 0.0, 2023-11-25 15:51:56.505
121.0, 76499.33713666644, 82034.34431962304, -11181.773088189733, -9452.329212704804, -3155.5745787113406, -2698.4590528558556, -15832.701722705571, 187500.0, -0.188, 0.936, 0.234, 192.0, 0.0, 0.0, 0.0, 0.0, 0.0, 0.0, 0.0, 0.0, 0.0, 1.700945516510843E9, 0.0, 2023-11-25 15:51:56.510
122.0, 76467.93293570673, 82010.76322922269, -11572.302767312858, -9734.162358541771, -3488.3920536508626, -2746.224730756847, -15954.384619520262, 187500.0, -0.188, 0.936, 0.234, 192.0, 0.0, 0.0, 0.0, 0.0, 0.0, 0.0, 0.0, 0.0, 0.0, 1.700945516513837E9, 0.0, 2023-11-25 15:51:56.513
123.0, 76474.1467206653, 82061.36757866951, -12189.166210790421, -10278.293225561765, -4204.161966343161, -3174.618264987262, -16016.298951661463, 187500.0, -0.188, 0.936, 0.234, 192.0, 0.0, 0.0, 0.0, 0.0, 0.0, 0.0, 0.0, 0.0, 0.0, 1.700945516516886E9, 0.0, 2023-11-25 15:51:56.516
124.0, 76502.82400880147, 82103.38885824548, -12464.89733039109, -10828.347304862416, -4716.821577170083, -3860.9956337208314, -16003.334939877384, 187500.0, -0.188, 0.936, 0.234, 192.0, 0.0, 0.0, 0.0, 0.0, 0.0, 0.0, 0.0, 0.0, 0.0, 1.700945516520974E9, 0.0, 2023-11-25 15:51:56.520
125.0, 76512.6140728729, 82057.43367164537, -11276.14215328004, -9620.839014153364, -3307.3876270517862, -2853.7813250757845, -15823.023417356422, 187500.0, -0.188, 0.936, 0.234, 192.0, 0.0, 0.0, 0.0, 0.0, 0.0, 0.0, 0.0, 0.0, 0.0, 1.700945516524871E9, 0.0, 2023-11-25 15:51:56.524
126.0, 76486.306069649, 82024.37544159597, -11458.286518846337, -9610.71367391511, -3349.319499649942, -2656.3036628131467, -15931.407026220206, 187500.0, -0.188, 0.936, 0.234, 192.0, 0.0, 0.0, 0.0, 0.0, 0.0, 0.0, 0.0, 0.0, 0.0, 1.700945516528909E9, 0.0, 2023-11-25 15:51:56.528
127.0, 76482.72979053615, 82052.33747390956, -12054.38519172492, -10163.651128250496, -4035.026316049852, -3055.103487384735, -15991.600274038348, 187500.0, -0.186, 0.934, 0.228, 192.0, 250.0, 48.0, 29.0, 48.0, 7.0, 32.0, 0.0, 0.0, 0.0, 1.700945516532965E9, 0.0, 2023-11-25 15:51:56.532
128.0, 76499.87357853337, 82091.00599181723, -12552.58322388926, -10838.673810800768, -4765.458973104832, -3832.653621751502, -16042.94223105219, 187500.0, -0.186, 0.934, 0.228, 192.0, 0.0, 0.0, 0.0, 0.0, 0.0, 0.0, 0.0, 0.0, 0.0, 1.70094551653695E9, 0.0, 2023-11-25 15:51:56.536
129.0, 76514.49161940714, 82050.48227911977, -11455.35844032269, -9858.773333880108, -3545.0313741006107, -3079.6680545411177, -15848.437350802107, 187500.0, -0.186, 0.934, 0.228, 192.0, 0.0, 0.0, 0.0, 0.0, 0.0, 0.0, 0.0, 0.0, 0.0, 1.700945516540914E9, 0.0, 2023-11-25 15:51:56.540
130.0, 76485.52375859306, 82012.43961005684, -11368.67837532501, -9523.944201939608, -3246.948510044636, -2623.5136536972113, -15933.284572754452, 187500.0, -0.186, 0.934, 0.228, 192.0, 0.0, 0.0, 0.0, 0.0, 0.0, 0.0, 0.0, 0.0, 0.0, 1.700945516543903E9, 0.0, 2023-11-25 15:51:56.543
131.0, 76469.58696479643, 82030.90215097692, -11955.41166727682, -10088.951598280859, -3912.136425034574, -2994.1726319995682, -15996.003567696043, 187500.0, -0.186, 0.934, 0.228, 192.0, 0.0, 0.0, 0.0, 0.0, 0.0, 0.0, 0.0, 0.0, 0.0, 1.700945516547912E9, 0.0, 2023-11-25 15:51:56.547
132.0, 76488.0048022276, 82085.30629698114, -12578.24302652395, -10800.385272548829, -4748.650461274441, -3767.5206384087373, -16071.641870932803, 187500.0, -0.186, 0.934, 0.228, 192.0, 0.0, 0.0, 0.0, 0.0, 0.0, 0.0, 0.0, 0.0, 0.0, 1.700945516553966E9, 0.0, 2023-11-25 15:51:56.553
133.0, 76505.39445941383, 82063.31218043712, -11673.489114462032, -10114.767863126739, -3819.331982056139, -3311.5674032649285, -15876.600548815793, 187500.0, -0.186, 0.934, 0.228, 192.0, 0.0, 0.0, 0.0, 0.0, 0.0, 0.0, 0.0, 0.0, 0.0, 1.700945516556976E9, 0.0, 2023-11-25 15:51:56.556
134.0, 76484.78615102604, 82019.56981653807, -11276.991519569341, -9425.14949144715, -3153.6970321770946, -2583.4816793777563, -15924.366226716786, 187500.0, -0.186, 0.934, 0.228, 192.0, 0.0, 0.0, 0.0, 0.0, 0.0, 0.0, 0.0, 0.0, 0.0, 1.70094551656098E9, 0.0, 2023-11-25 15:51:56.560
135.0, 76468.29056361802, 82029.06930793158, -11859.902663219293, -10023.885670171461, -3813.073493608653, -2948.686832033018, -15988.292215858963, 187500.0, -0.186, 0.934, 0.228, 192.0, 0.0, 0.0, 0.0, 0.0, 0.0, 0.0, 0.0, 0.0, 0.0, 1.700945516564958E9, 0.0, 2023-11-25 15:51:56.564
136.0, 76474.5490520655, 82076.58911664356, -12530.47734862296, -10703.244591146064, -4658.975262519749, -3640.1827502468527, -16066.769190641546, 187500.0, -0.186, 0.934, 0.228, 192.0, 0.0, 0.0, 0.0, 0.0, 0.0, 0.0, 0.0, 0.0, 0.0, 1.700945516569025E9, 0.0, 2023-11-25 15:51:56.569
137.0, 76495.40322964231, 82064.78739557117, -11917.078425535969, -10375.947997087002, -4112.542165820857, -3536.314193763041, -15913.168002744676, 187500.0, -0.178, 0.9420000000000001, 0.23, 192.0, 250.0, 112.0, 29.0, 112.0, 7.0, 48.0, 0.0, 0.0, 0.0, 1.70094551657428E9, 0.0, 2023-11-25 15:51:56.574
138.0, 76489.7035348062, 82024.50955206271, -11208.17049839145, -9381.362424059203, -3090.598057579763, -2583.347568911024, -15899.399328160207, 187500.0, -0.178, 0.9420000000000001, 0.23, 192.0, 0.0, 0.0, 0.0, 0.0, 0.0, 0.0, 0.0, 0.0, 0.0, 1.700945516576999E9, 0.0, 2023-11-25 15:51:56.576
139.0, 76471.55391830849, 82023.14609565093, -11771.255644709545, -9932.310573138067, -3694.8774689289894, -2878.7482236323626, -15977.49632328705, 187500.0, -0.178, 0.9420000000000001, 0.23, 192.0, 0.0, 0.0, 0.0, 0.0, 0.0, 0.0, 0.0, 0.0, 0.0, 1.700945516582232E9, 0.0, 2023-11-25 15:51:56.582
140.0, 76487.17778768275, 82087.74263712676, -12442.255013257864, -10575.370261117252, -4517.980458495672, -3489.800213551547, -16049.26777473304, 187500.0, -0.178, 0.9420000000000001, 0.23, 192.0, 0.0, 0.0, 0.0, 0.0, 0.0, 0.0, 0.0, 0.0, 0.0, 1.700945516586127E9, 0.0, 2023-11-25 15:51:56.586
141.0, 76505.93090128075, 82087.80969236013, -12139.254765421721, -10593.765746803969, -4369.453116590156, -3712.043608670665, -15929.529479685962, 187500.0, -0.178, 0.9420000000000001, 0.23, 192.0, 0.0, 0.0, 0.0, 0.0, 0.0, 0.0, 0.0, 0.0, 0.0, 1.700945516590139E9, 0.0, 2023-11-25 15:51:56.590
142.0, 76503.44985764622, 82043.95556973881, -11164.852817637066, -9378.881380424666, -3079.936275474581, -2607.129825011471, -15847.163301368155, 187500.0, -0.178, 0.9420000000000001, 0.23, 192.0, 0.0, 0.0, 0.0, 0.0, 0.0, 0.0, 0.0, 0.0, 0.0, 1.700945516595032E9, 0.0, 2023-11-25 15:51:56.595
143.0, 76478.08062768944, 82027.34822360853, -11671.723326650063, -9834.119359745904, -3585.3539210979848, -2803.4004930735223, -15955.055171853921, 187500.0, -0.178, 0.9420000000000001, 0.23, 192.0, 0.0, 0.0, 0.0, 0.0, 0.0, 0.0, 0.0, 0.0, 0.0, 1.700945516598874E9, 0.0, 2023-11-25 15:51:56.598
144.0, 76478.37120036736, 82070.10711075153, -12323.67900892246, -10428.094616901233, -4359.528942052, -3319.926955691213, -16034.716789092636, 187500.0, -0.178, 0.9420000000000001, 0.23, 192.0, 0.0, 0.0, 0.0, 0.0, 0.0, 0.0, 0.0, 0.0, 0.0, 1.700945516601581E9, 0.0, 2023-11-25 15:51:56.601
145.0, 76500.23120644465, 82093.46468370732, -12348.578852245671, -10765.829475620923, -4592.2553053206575, -3827.8256449491555, -15973.025974395989, 187500.0, -0.178, 0.9420000000000001, 0.23, 192.0, 0.0, 0.0, 0.0, 0.0, 0.0, 0.0, 0.0, 0.0, 0.0, 1.700945516604073E9, 0.0, 2023-11-25 15:51:56.604
146.0, 76508.79192457104, 82053.18684019886, -11197.128736630528, -9476.603207183267, -3159.039099101913, -2705.2763349147244, -15828.186670325598, 187500.0, -0.178, 0.9420000000000001, 0.23, 192.0, 0.0, 0.0, 0.0, 0.0, 0.0, 0.0, 0.0, 0.0, 0.0, 1.700945516608273E9, 0.0, 2023-11-25 15:51:56.608
147.0, 76480.49461609061, 82029.31517712059, -11563.831456164296, -9700.92531453673, -3453.7244980006813, -2714.5970123525876, -15952.127093330277, 187500.0, -0.186, 0.9380000000000001, 0.228, 192.0, 250.0, 48.0, 29.0, 80.0, 7.0, 32.0, 0.0, 0.0, 0.0, 1.700945516613204E9, 0.0, 2023-11-25 15:51:56.613
148.0, 76481.38868586882, 82071.7164363523, -12190.037928824178, -10266.379745767086, -4189.54392546939, -3165.208180571578, -16031.878117546812, 187500.0, -0.186, 0.9380000000000001, 0.228, 192.0, 0.0, 0.0, 0.0, 0.0, 0.0, 0.0, 0.0, 0.0, 0.0, 1.700945516617886E9, 0.0, 2023-11-25 15:51:56.617
149.0, 76501.63936634533, 82110.11673332653, -12485.639749245614, -10820.390083836328, -4718.833234171061, -3850.8032382492115, -16018.869402273824, 187500.0, -0.186, 0.9380000000000001, 0.228, 192.0, 0.0, 0.0, 0.0, 0.0, 0.0, 0.0, 0.0, 0.0, 0.0, 1.700945516621174E9, 0.0, 2023-11-25 15:51:56.621
150.0, 76504.72390708017, 82054.46088963281, -11302.204287314928, -9624.817624666408, -3323.235013870599, -2862.5208571578096, -15835.786263440403, 187500.0, -0.186, 0.9380000000000001, 0.228, 192.0, 0.0, 0.0, 0.0, 0.0, 0.0, 0.0, 0.0, 0.0, 0.0, 1.700945516624173E9, 0.0, 2023-11-25 15:51:56.624
151.0, 76482.88625274734, 82026.38709859696, -11463.203902626503, -9603.337598244858, -3347.285490904509, -2659.4329070368894, -15944.549851959928, 187500.0, -0.186, 0.9380000000000001, 0.228, 192.0, 0.0, 0.0, 0.0, 0.0, 0.0, 0.0, 0.0, 0.0, 0.0, 1.700945516628367E9, 0.0, 2023-11-25 15:51:56.628
152.0, 76478.86293874538, 82057.09839547853, -12054.832226614026, -10165.528674784742, -4031.2488712369054, -3058.74682173095, -16004.07254744441, 187500.0, -0.186, 0.9380000000000001, 0.228, 192.0, 0.0, 0.0, 0.0, 0.0, 0.0, 0.0, 0.0, 0.0, 0.0, 1.70094551663223E9, 0.0, 2023-11-25 15:51:56.632
153.0, 76490.03881097303, 82095.49869245276, -12569.01175606391, -10846.42986612676, -4775.070223220614, -3837.5486537872143, -16057.60497541487, 187500.0, -0.186, 0.9380000000000001, 0.228, 192.0, 0.0, 0.0, 0.0, 0.0, 0.0, 0.0, 0.0, 0.0, 0.0, 1.700945516636212E9, 0.0, 2023-11-25 15:51:56.636
154.0, 76507.42846815925, 82055.6678838334, -11484.639225559144, -9888.47880226121, -3580.1683163843536, -3105.2608019424442, -15861.267252119453, 187500.0, -0.186, 0.9380000000000001, 0.228, 192.0, 0.0, 0.0, 0.0, 0.0, 0.0, 0.0, 0.0, 0.0, 0.0, 1.700945516641215E9, 0.0, 2023-11-25 15:51:56.641
155.0, 76484.78615102604, 82020.19566538282, -11356.29550889677, -9488.49433523349, -3234.208015705111, -2595.4845661502563, -15941.82293913638, 187500.0, -0.186, 0.9380000000000001, 0.228, 192.0, 0.0, 0.0, 0.0, 0.0, 0.0, 0.0, 0.0, 0.0, 0.0, 1.700945516645228E9, 0.0, 2023-11-25 15:51:56.645
156.0, 76476.06897068846, 82043.93321799436, -11946.448617750242, -10065.795191025161, -3911.48822444537, -2968.602236342697, -16001.435041598683, 187500.0, -0.186, 0.9380000000000001, 0.228, 192.0, 0.0, 0.0, 0.0, 0.0, 0.0, 0.0, 0.0, 0.0, 0.0, 1.700945516649258E9, 0.0, 2023-11-25 15:51:56.649
157.0, 76484.62968881485, 82093.66584940742, -12582.266340525906, -10788.203571820686, -4757.032365445181, -3746.3311846651063, -16072.290071522008, 187500.0, -0.19, 0.9460000000000001, 0.224, 192.0, 250.0, 16.0, 29.0, 144.0, 7.0, 0.0, 0.0, 0.0, 0.0, 1.700945516652274E9, 0.0, 2023-11-25 15:51:56.652
158.0, 76503.38280241285, 82079.13721551147, -11701.249981075523, -10149.256604821278, -3866.33770064565, -3337.6295372998165, -15870.342060368308, 187500.0, -0.19, 0.9460000000000001, 0.224, 192.0, 0.0, 0.0, 0.0, 0.0, 0.0, 0.0, 0.0, 0.0, 0.0, 1.700945516656397E9, 0.0, 2023-11-25 15:51:56.656
159.0, 76487.49071210512, 82040.20047667033, -11258.618385627078, -9410.039712195363, -3145.3151280063544, -2572.931655994851, -15906.104851496799, 187500.0, -0.19, 0.9460000000000001, 0.224, 192.0, 0.0, 0.0, 0.0, 0.0, 0.0, 0.0, 0.0, 0.0, 0.0, 1.700945516660231E9, 0.0, 2023-11-25 15:51:56.660
160.0, 76463.64140077132, 82037.1159359355, -11839.495520531598, -9989.531038943654, -3794.9685805998542, -2918.109645618158, -15973.271843584997, 187500.0, -0.19, 0.9460000000000001, 0.224, 192.0, 0.0, 0.0, 0.0, 0.0, 0.0, 0.0, 0.0, 0.0, 0.0, 1.700945516664309E9, 0.0, 2023-11-25 15:51:56.664
161.0, 76469.2963921185, 82074.8233288316, -12529.158595700097, -10681.228122857587, -4659.042317753115, -3612.533642355638, -16059.996612071589, 187500.0, -0.19, 0.9460000000000001, 0.224, 192.0, 0.0, 0.0, 0.0, 0.0, 0.0, 0.0, 0.0, 0.0, 0.0, 1.700945516668263E9, 0.0, 2023-11-25 15:51:56.668
162.0, 76496.87844477636, 82067.17903222788, -11947.722667184195, -10411.576677748762, -4164.44291644608, -3561.1693335973423, -15905.411947418685, 187500.0, -0.19, 0.9460000000000001, 0.224, 192.0, 0.0, 0.0, 0.0, 0.0, 0.0, 0.0, 0.0, 0.0, 0.0, 1.70094551667426E9, 0.0, 2023-11-25 15:51:56.674
163.0, 76490.1058662064, 82021.13443864995, -11200.012111665263, -9374.679252467067, -3096.297752415866, -2572.886952505941, -15886.994109987512, 187500.0, -0.19, 0.9460000000000001, 0.224, 192.0, 0.0, 0.0, 0.0, 0.0, 0.0, 0.0, 0.0, 0.0, 0.0, 1.700945516677276E9, 0.0, 2023-11-25 15:51:56.677
164.0, 76464.49076706062, 82013.62425251296, -11765.824170806905, -9936.266831906656, -3701.471233543305, -2871.5509619177537, -15978.233930854076, 187500.0, -0.19, 0.9460000000000001, 0.224, 192.0, 0.0, 0.0, 0.0, 0.0, 0.0, 0.0, 0.0, 0.0, 0.0, 1.700945516681308E9, 0.0, 2023-11-25 15:51:56.681
165.0, 76479.42173235676, 82077.72905561079, -12436.152987021565, -10557.801789975381, -4512.213708426203, -3461.1005736709326, -16064.913995851755, 187500.0, -0.19, 0.9460000000000001, 0.224, 192.0, 0.0, 0.0, 0.0, 0.0, 0.0, 0.0, 0.0, 0.0, 0.0, 1.700945516684301E9, 0.0, 2023-11-25 15:51:56.684
166.0, 76498.93480526624, 82074.28688696468, -12178.035042051679, -10632.34485773383, -4416.503538668578, -3736.697582804869, -15951.97063111909, 187500.0, -0.19, 0.9460000000000001, 0.224, 192.0, 0.0, 0.0, 0.0, 0.0, 0.0, 0.0, 0.0, 0.0, 0.0, 1.700945516688358E9, 0.0, 2023-11-25 15:51:56.688
167.0, 76496.69963082072, 82026.23063638576, -11171.31247178465, -9390.548991030335, -3093.1908599365784, -2613.656534392421, -15861.42371433064, 187500.0, -0.188, 0.9420000000000001, 0.224, 192.0, 250.0, 32.0, 29.0, 112.0, 7.0, 0.0, 0.0, 0.0, 0.0, 1.700945516692427E9, 0.0, 2023-11-25 15:51:56.692
168.0, 76478.97469746765, 82022.98963343973, -11666.828294614352, -9827.99498176515, -3578.603694272482, -2798.259591848802, -15967.661555726714, 187500.0, -0.188, 0.9420000000000001, 0.224, 192.0, 0.0, 0.0, 0.0, 0.0, 0.0, 0.0, 0.0, 0.0, 0.0, 1.700945516696331E9, 0.0, 2023-11-25 15:51:56.696
169.0, 76487.3566016384, 82073.72809335329, -12310.156203526998, -10419.556250519307, -4344.553273266944, -3310.874499186814, -16039.701228106169, 187500.0, -0.188, 0.9420000000000001, 0.224, 192.0, 0.0, 0.0, 0.0, 0.0, 0.0, 0.0, 0.0, 0.0, 0.0, 1.700945516700348E9, 0.0, 2023-11-25 15:51:56.700
170.0, 76512.27879670606, 82095.00695407474, -12363.845093708647, -10788.315330542962, -4617.512776555154, -3842.533092800748, -15984.514771046017, 187500.0, -0.188, 0.9420000000000001, 0.224, 192.0, 0.0, 0.0, 0.0, 0.0, 0.0, 0.0, 0.0, 0.0, 0.0, 1.700945516705377E9, 0.0, 2023-11-25 15:51:56.705
171.0, 76513.32932869546, 82045.90017150644, -11207.589353035612, -9504.811108685864, -3189.0798436498458, -2732.187835238914, -15846.403342056674, 187500.0, -0.188, 0.9420000000000001, 0.224, 192.0, 0.0, 0.0, 0.0, 0.0, 0.0, 0.0, 0.0, 0.0, 0.0, 1.700945516708377E9, 0.0, 2023-11-25 15:51:56.708
172.0, 76478.48295908964, 82018.92161594887, -11564.636118964687, -9725.623992159843, -3470.5330098310724, -2731.3608206940676, -15972.936567418166, 187500.0, -0.188, 0.9420000000000001, 0.224, 192.0, 0.0, 0.0, 0.0, 0.0, 0.0, 0.0, 0.0, 0.0, 0.0, 1.700945516712479E9, 0.0, 2023-11-25 15:51:56.712
173.0, 76474.57140380995, 82060.54056412466, -12182.997129320756, -10282.852981430648, -4190.728567925521, -3172.9642358975693, -16041.779940340513, 187500.0, -0.188, 0.9420000000000001, 0.224, 192.0, 0.0, 0.0, 0.0, 0.0, 0.0, 0.0, 0.0, 0.0, 0.0, 1.700945516716437E9, 0.0, 2023-11-25 15:51:56.716
174.0, 76492.54220635202, 82097.01861107572, -12510.673703035558, -10857.29281393204, -4748.896330463449, -3877.2453519398396, -16036.147300737775, 187500.0, -0.188, 0.9420000000000001, 0.224, 192.0, 0.0, 0.0, 0.0, 0.0, 0.0, 0.0, 0.0, 0.0, 0.0, 1.700945516720582E9, 0.0, 2023-11-25 15:51:56.720
175.0, 76499.96298551119, 82051.2645901757, -11334.144930141561, -9684.474430617624, -3364.228113201632, -2916.6567822285633, -15852.415961315151, 187500.0, -0.188, 0.9420000000000001, 0.224, 192.0, 0.0, 0.0, 0.0, 0.0, 0.0, 0.0, 0.0, 0.0, 0.0, 1.700945516724502E9, 0.0, 2023-11-25 15:51:56.724
176.0, 76474.48199683214, 82019.4133543269, -11460.70050724751, -9605.66217966821, -3337.3166128774424, -2673.201581621359, -15958.229119566575, 187500.0, -0.188, 0.9420000000000001, 0.224, 192.0, 0.0, 0.0, 0.0, 0.0, 0.0, 0.0, 0.0, 0.0, 0.0, 1.700945516728511E9, 0.0, 2023-11-25 15:51:56.728
177.0, 76479.82406375695, 82062.95455252583, -12054.921633591848, -10169.619044020063, -4023.8504438221985, -3063.8430194667603, -16010.152221936254, 187500.0, -0.188, 0.9460000000000001, 0.226, 192.0, 250.0, 32.0, 29.0, 144.0, 7.0, 16.0, 0.0, 0.0, 0.0, 1.700945516733497E9, 0.0, 2023-11-25 15:51:56.733
178.0, 76487.5577673385, 82098.65028842096, -12588.748346417946, -10873.363718195405, -4786.983703015292, -3852.8372469946444, -16056.956774825667, 187500.0, -0.188, 0.9460000000000001, 0.226, 192.0, 0.0, 0.0, 0.0, 0.0, 0.0, 0.0, 0.0, 0.0, 0.0, 1.700945516736486E9, 0.0, 2023-11-25 15:51:56.736
179.0, 76496.40905814279, 82054.88557277746, -11519.016208531406, -9922.453453833277, -3605.2246219187527, -3139.52602619243, -15862.273080619942, 187500.0, -0.188, 0.9460000000000001, 0.226, 192.0, 0.0, 0.0, 0.0, 0.0, 0.0, 0.0, 0.0, 0.0, 0.0, 1.700945516740522E9, 0.0, 2023-11-25 15:51:56.740
180.0, 76472.93972646473, 82011.43378155635, -11363.716288055932, -9492.048262601884, -3224.194434189133, -2608.3144674676023, -15942.58289844786, 187500.0, -0.188, 0.9460000000000001, 0.226, 192.0, 0.0, 0.0, 0.0, 0.0, 0.0, 0.0, 0.0, 0.0, 0.0, 1.700945516744544E9, 0.0, 2023-11-25 15:51:56.744
181.0, 76470.68220027474, 82045.94487499534, -11948.996716618147, -10076.166400452425, -3896.646666127046, -2980.8062888152945, -15997.83641074138, 187500.0, -0.188, 0.9460000000000001, 0.226, 192.0, 0.0, 0.0, 0.0, 0.0, 0.0, 0.0, 0.0, 0.0, 0.0, 1.700945516749779E9, 0.0, 2023-11-25 15:51:56.749
182.0, 76484.67439230376, 82105.69108792438, -12588.457773740027, -10801.413452793771, -4744.515388550209, -3755.6742138474247, -16064.8916441073, 187500.0, -0.188, 0.9460000000000001, 0.226, 192.0, 0.0, 0.0, 0.0, 0.0, 0.0, 0.0, 0.0, 0.0, 0.0, 1.700945516753554E9, 0.0, 2023-11-25 15:51:56.753
183.0, 76502.06404948999, 82079.76306435622, -11728.764978500007, -10176.302215612199, -3878.9664362628982, -3361.680014333727, -15870.051487690389, 187500.0, -0.188, 0.9460000000000001, 0.226, 192.0, 0.0, 0.0, 0.0, 0.0, 0.0, 0.0, 0.0, 0.0, 0.0, 1.700945516756629E9, 0.0, 2023-11-25 15:51:56.756
184.0, 76491.62578482936, 82044.84963951704, -11251.443475656924, -9384.938703172053, -3109.9993717669695, -2547.495370804712, -15900.04752874941, 187500.0, -0.188, 0.9460000000000001, 0.226, 192.0, 0.0, 0.0, 0.0, 0.0, 0.0, 0.0, 0.0, 0.0, 0.0, 1.700945516761671E9, 0.0, 2023-11-25 15:51:56.761
185.0, 76474.05731368749, 82054.12561346598, -11842.334192077422, -9967.44751542181, -3764.9725395408323, -2894.57325870672, -15979.619739010304, 187500.0, -0.188, 0.9460000000000001, 0.226, 192.0, 0.0, 0.0, 0.0, 0.0, 0.0, 0.0, 0.0, 0.0, 0.0, 1.700945516765025E9, 0.0, 2023-11-25 15:51:56.765
186.0, 76475.17490091025, 82096.01278257523, -12532.220784690475, -10666.319509305897, -4630.655602294874, -3596.6862555368252, -16065.785713885512, 187500.0, -0.188, 0.9460000000000001, 0.226, 192.0, 0.0, 0.0, 0.0, 0.0, 0.0, 0.0, 0.0, 0.0, 0.0, 1.700945516768582E9, 0.0, 2023-11-25 15:51:56.768
187.0, 76484.4061713703, 82072.16347124142, -11979.998586177659, -10425.948849433524, -4172.713061894544, -3578.4248803168393, -15914.464403923084, 187500.0, -0.186, 0.9440000000000001, 0.224, 192.0, 250.0, 48.0, 29.0, 128.0, 7.0, 0.0, 0.0, 0.0, 0.0, 1.700945516772628E9, 0.0, 2023-11-25 15:51:56.772
188.0, 76479.04175270101, 82021.91674970588, -11190.378509805025, -9331.965068812975, -3056.466943796509, -2542.622690513455, -15880.33329013983, 187500.0, -0.186, 0.9440000000000001, 0.224, 192.0, 0.0, 0.0, 0.0, 0.0, 0.0, 0.0, 0.0, 0.0, 0.0, 1.70094551677664E9, 0.0, 2023-11-25 15:51:56.776
189.0, 76465.22837462764, 82027.83996198654, -11755.274147424001, -9876.47591548871, -3658.175904533375, -2833.6871068104633, -15979.753849477036, 187500.0, -0.186, 0.9440000000000001, 0.224, 192.0, 0.0, 0.0, 0.0, 0.0, 0.0, 0.0, 0.0, 0.0, 0.0, 1.70094551678065E9, 0.0, 2023-11-25 15:51:56.780
190.0, 76472.98442995363, 82084.90396558095, -12434.74482712088, -10524.184766314598, -4488.766728492586, -3437.0724483814774, -16066.03158307452, 187500.0, -0.186, 0.9440000000000001, 0.224, 192.0, 0.0, 0.0, 0.0, 0.0, 0.0, 0.0, 0.0, 0.0, 0.0, 1.700945516784769E9, 0.0, 2023-11-25 15:51:56.784
191.0, 76491.44697087372, 82092.14593078446, -12208.433414510897, -10628.545061176428, -4433.446160965701, -3735.714106048835, -15960.531349245472, 187500.0, -0.186, 0.9440000000000001, 0.224, 192.0, 0.0, 0.0, 0.0, 0.0, 0.0, 0.0, 0.0, 0.0, 0.0, 1.700945516787636E9, 0.0, 2023-11-25 15:51:56.787
192.0, 76495.20206394221, 82052.76215705421, -11177.97329163233, -9381.787107203854, -3091.939162247081, -2613.94710707034, -15859.792036985404, 187500.0, -0.186, 0.9440000000000001, 0.224, 192.0, 0.0, 0.0, 0.0, 0.0, 0.0, 0.0, 0.0, 0.0, 0.0, 1.700945516791597E9, 0.0, 2023-11-25 15:51:56.791
193.0, 76466.23420312813, 82038.36763362499, -11657.172341009658, -9794.333254615458, -3557.3248335510298, -2776.6901584494303, -15973.361250562819, 187500.0, -0.186, 0.9440000000000001, 0.224, 192.0, 0.0, 0.0, 0.0, 0.0, 0.0, 0.0, 0.0, 0.0, 0.0, 1.700945516796682E9, 0.0, 2023-11-25 15:51:56.796
194.0, 76461.20506062568, 82079.38308470049, -12309.172726770965, -10365.599139404196, -4317.619421198299, -3274.307045257932, -16057.51556843705, 187500.0, -0.186, 0.9440000000000001, 0.224, 192.0, 0.0, 0.0, 0.0, 0.0, 0.0, 0.0, 0.0, 0.0, 0.0, 1.70094551680061E9, 0.0, 2023-11-25 15:51:56.800
195.0, 76481.63455505784, 82097.53270119819, -12412.191916965476, -10775.75365015908, -4638.635175065419, -3849.5068370708036, -16014.823736527413, 187500.0, -0.186, 0.9440000000000001, 0.224, 192.0, 0.0, 0.0, 0.0, 0.0, 0.0, 0.0, 0.0, 0.0, 0.0, 1.700945516804654E9, 0.0, 2023-11-25 15:51:56.804
196.0, 76497.01255524308, 82055.35495941102, -11238.278298172749, -9505.54871625289, -3201.5297653114517, -2757.3782512400453, -15852.348906081786, 187500.0, -0.188, 0.9420000000000001, 0.226, 192.0, 250.0, 32.0, 29.0, 112.0, 7.0, 16.0, 0.0, 0.0, 0.0, 1.700945516808648E9, 0.0, 2023-11-25 15:51:56.808
197.0, 76473.9455549652, 82030.90215097692, -11560.366935773724, -9696.522020879034, -3441.96748041719, -2728.3656869370566, -15959.994907378545, 187500.0, -0.188, 0.9420000000000001, 0.226, 192.0, 0.0, 0.0, 0.0, 0.0, 0.0, 0.0, 0.0, 0.0, 0.0, 1.700945516812725E9, 0.0, 2023-11-25 15:51:56.812
198.0, 76469.81048224098, 82070.93412529638, -12180.247864752755, -10257.707268918428, -4159.167904754628, -3160.8048869138825, -16032.436911158195, 187500.0, -0.188, 0.9420000000000001, 0.226, 192.0, 0.0, 0.0, 0.0, 0.0, 0.0, 0.0, 0.0, 0.0, 0.0, 1.700945516815733E9, 0.0, 2023-11-25 15:51:56.815
199.0, 76490.28468016203, 82113.06716359463, -12544.268374951886, -10867.596968125936, -4756.920606722904, -3896.356093449127, -16046.831434587413, 187500.0, -0.188, 0.9420000000000001, 0.226, 192.0, 0.0, 0.0, 0.0, 0.0, 0.0, 0.0, 0.0, 0.0, 0.0, 1.700945516819678E9, 0.0, 2023-11-25 15:51:56.819
200.0, 76505.46151464719, 82074.57745964259, -11359.290642653781, -9702.78050932652, -3377.281531963531, -2943.702393019485, -15849.286717091409, 187500.0, -0.188, 0.9420000000000001, 0.226, 192.0, 0.0, 0.0, 0.0, 0.0, 0.0, 0.0, 0.0, 0.0, 0.0, 1.700945516823723E9, 0.0, 2023-11-25 15:51:56.823
201.0, 76473.83379624294, 82032.22090389978, -11457.303042090303, -9573.296853696926, -3312.617935254328, -2653.576749989599, -15955.323392787384, 187500.0, -0.188, 0.9420000000000001, 0.226, 192.0, 0.0, 0.0, 0.0, 0.0, 0.0, 0.0, 0.0, 0.0, 0.0, 1.700945516828752E9, 0.0, 2023-11-25 15:51:56.828
202.0, 76462.21088912617, 82049.99054074175, -12061.582453439529, -10135.95731687037, -4004.2032604459837, -3042.0947721117464, -16025.105538976853, 187500.0, -0.188, 0.9420000000000001, 0.226, 192.0, 0.0, 0.0, 0.0, 0.0, 0.0, 0.0, 0.0, 0.0, 0.0, 1.700945516832733E9, 0.0, 2023-11-25 15:51:56.832
203.0, 76484.04854345901, 82102.40538148944, -12611.614180995724, -10841.28896490204, -4783.988569258281, -3827.646830993513, -16078.682670436225, 187500.0, -0.188, 0.9420000000000001, 0.226, 192.0, 0.0, 0.0, 0.0, 0.0, 0.0, 0.0, 0.0, 0.0, 0.0, 1.700945516836766E9, 0.0, 2023-11-25 15:51:56.836
204.0, 76512.99405252864, 82080.3218579676, -11551.739162413975, -9951.242500691713, -3641.2556339807074, -3166.839857916815, -15867.9951272005, 187500.0, -0.188, 0.9420000000000001, 0.226, 192.0, 0.0, 0.0, 0.0, 0.0, 0.0, 0.0, 0.0, 0.0, 0.0, 1.700945516842771E9, 0.0, 2023-11-25 15:51:56.842
205.0, 76481.99218296912, 82026.92354046387, -11354.77559027381, -9478.078422317318, -3206.290686880432, -2603.710008109809, -15939.051322823922, 187500.0, -0.188, 0.9420000000000001, 0.226, 192.0, 0.0, 0.0, 0.0, 0.0, 0.0, 0.0, 0.0, 0.0, 0.0, 1.700945516845744E9, 0.0, 2023-11-25 15:51:56.845
206.0, 76458.61225826887, 82034.47843008977, -11955.612832976918, -10055.491036831265, -3881.268665941795, -2965.7412130524176, -16013.303817904452, 187500.0, -0.196, 0.9380000000000001, 0.222, 192.0, 249.0, 224.0, 29.0, 80.0, 6.0, 240.0, 0.0, 0.0, 0.0, 1.700945516848842E9, 0.0, 2023-11-25 15:51:56.848
207.0, 76483.42269461426, 82099.92433785491, -12610.988332150977, -10795.713757957668, -4744.962423439315, -3743.850141030567, -16082.504818738082, 187500.0, -0.196, 0.9380000000000001, 0.222, 192.0, 0.0, 0.0, 0.0, 0.0, 0.0, 0.0, 0.0, 0.0, 0.0, 1.700945516851826E9, 0.0, 2023-11-25 15:51:56.851
208.0, 76498.71128782169, 82071.42586367439, -11776.70947035664, -10224.626687124573, -3919.8701286161104, -3403.991866587623, -15892.850267034803, 187500.0, -0.196, 0.9380000000000001, 0.222, 192.0, 0.0, 0.0, 0.0, 0.0, 0.0, 0.0, 0.0, 0.0, 0.0, 1.700945516857433E9, 0.0, 2023-11-25 15:51:56.857
209.0, 76488.809465028, 82033.65141554493, -11254.148036736016, -9385.676310739078, -3097.4823948719973, -2562.783964012142, -15913.905610311702, 187500.0, -0.196, 0.9380000000000001, 0.222, 192.0, 0.0, 0.0, 0.0, 0.0, 0.0, 0.0, 0.0, 0.0, 0.0, 1.700945516860861E9, 0.0, 2023-11-25 15:51:56.860
210.0, 76474.5490520655, 82046.95070349584, -11840.926032176738, -9959.73616358473, -3745.727687564813, -2903.4916047443876, -15992.226122883098, 187500.0, -0.196, 0.9380000000000001, 0.222, 192.0, 0.0, 0.0, 0.0, 0.0, 0.0, 0.0, 0.0, 0.0, 0.0, 1.700945516864886E9, 0.0, 2023-11-25 15:51:56.864
211.0, 76472.29152587552, 82086.1780150149, -12535.685305081048, -10645.152407306721, -4612.327171841523, -3587.477336821239, -16087.980996129632, 187500.0, -0.196, 0.9380000000000001, 0.222, 192.0, 0.0, 0.0, 0.0, 0.0, 0.0, 0.0, 0.0, 0.0, 0.0, 1.700945516868832E9, 0.0, 2023-11-25 15:51:56.868
212.0, 76492.72102030767, 82081.68531437937, -12027.518394889641, -10458.850617271735, -4210.018123390451, -3612.019552233166, -15945.19805254913, 187500.0, -0.196, 0.9380000000000001, 0.222, 192.0, 0.0, 0.0, 0.0, 0.0, 0.0, 0.0, 0.0, 0.0, 0.0, 1.700945516871857E9, 0.0, 2023-11-25 15:51:56.871
213.0, 76498.42071514377, 82047.30833140711, -11205.130661145527, -9372.242912321439, -3077.4105283511317, -2591.3494934260243, -15898.035871748432, 187500.0, -0.196, 0.9380000000000001, 0.222, 192.0, 0.0, 0.0, 0.0, 0.0, 0.0, 0.0, 0.0, 0.0, 0.0, 1.700945516875987E9, 0.0, 2023-11-25 15:51:56.875
214.0, 76472.22447064215, 82032.84675274453, -11753.262490423023, -9888.724671450218, -3652.6773753973694, -2854.4071739205333, -15991.890846716267, 187500.0, -0.196, 0.9380000000000001, 0.222, 192.0, 0.0, 0.0, 0.0, 0.0, 0.0, 0.0, 0.0, 0.0, 0.0, 1.700945516879904E9, 0.0, 2023-11-25 15:51:56.879
215.0, 76473.78909275403, 82091.83300636208, -12430.408588696551, -10507.353902739753, -4465.364452047879, -3433.540872757539, -16073.9441006117, 187500.0, -0.196, 0.9380000000000001, 0.222, 192.0, 0.0, 0.0, 0.0, 0.0, 0.0, 0.0, 0.0, 0.0, 0.0, 1.700945516884505E9, 0.0, 2023-11-25 15:51:56.884
216.0, 76491.6034330849, 82112.21779730533, -12239.61409802605, -10634.1106455458, -4441.716306414164, -3753.953129524366, -15975.663480241714, 187500.0, -0.194, 0.9400000000000001, 0.22, 192.0, 249.0, 240.0, 29.0, 96.0, 6.0, 224.0, 0.0, 0.0, 0.0, 1.700945516888973E9, 0.0, 2023-11-25 15:51:56.888
217.0, 76498.86775003288, 82049.9681889973, -11192.814849950653, -9389.766679974398, -3090.329836646299, -2633.3484212575463, -15877.47226684955, 187500.0, -0.194, 0.9400000000000001, 0.22, 192.0, 0.0, 0.0, 0.0, 0.0, 0.0, 0.0, 0.0, 0.0, 0.0, 1.700945516892965E9, 0.0, 2023-11-25 15:51:56.892
218.0, 76474.86197648788, 82030.87979923247, -11666.090687047326, -9798.401272106323, -3545.053725845066, -2792.7834144572516, -15997.322320618907, 187500.0, -0.194, 0.9400000000000001, 0.22, 192.0, 0.0, 0.0, 0.0, 0.0, 0.0, 0.0, 0.0, 0.0, 0.0, 1.700945516896989E9, 0.0, 2023-11-25 15:51:56.896
219.0, 76474.1020171764, 82075.33741895408, -12314.96182858489, -10383.480534968441, -4308.432854227168, -3291.8531646553474, -16080.381403014828, 187500.0, -0.194, 0.9400000000000001, 0.22, 192.0, 0.0, 0.0, 0.0, 0.0, 0.0, 0.0, 0.0, 0.0, 0.0, 1.700945516899945E9, 0.0, 2023-11-25 15:51:56.899
220.0, 76496.63257558734, 82106.94278561388, -12437.918774833533, -10819.943048947222, -4659.82462880905, -3883.3473781761386, -16038.337771694396, 187500.0, -0.194, 0.9400000000000001, 0.22, 192.0, 0.0, 0.0, 0.0, 0.0, 0.0, 0.0, 0.0, 0.0, 0.0, 1.700945516903947E9, 0.0, 2023-11-25 15:51:56.903
221.0, 76497.79486629902, 82054.4161861439, -11260.6076908836, -9538.696353280111, -3218.360628886298, -2786.793146943229, -15880.109772695278, 187500.0, -0.194, 0.9400000000000001, 0.22, 192.0, 0.0, 0.0, 0.0, 0.0, 0.0, 0.0, 0.0, 0.0, 0.0, 1.700945516907987E9, 0.0, 2023-11-25 15:51:56.907
222.0, 76469.18463339623, 82028.01877594218, -11577.689537726586, -9711.989428042107, -3440.1346373718548, -2746.6494139014976, -15994.1260211618, 187500.0, -0.194, 0.9400000000000001, 0.22, 192.0, 0.0, 0.0, 0.0, 0.0, 0.0, 0.0, 0.0, 0.0, 0.0, 1.700945516912008E9, 0.0, 2023-11-25 15:51:56.912
223.0, 76466.18949963922, 82061.05465424713, -12191.289626513675, -10270.738335935872, -4150.696593606066, -3181.5696575128627, -16048.373704954829, 187500.0, -0.194, 0.9400000000000001, 0.22, 192.0, 0.0, 0.0, 0.0, 0.0, 0.0, 0.0, 0.0, 0.0, 0.0, 1.700945516918722E9, 0.0, 2023-11-25 15:51:56.918
224.0, 76484.16030218129, 82101.89129136698, -12573.079773554777, -10882.349119466438, -4765.526028338198, -3921.5688611947135, -16054.65454514677, 187500.0, -0.194, 0.9400000000000001, 0.22, 192.0, 0.0, 0.0, 0.0, 0.0, 0.0, 0.0, 0.0, 0.0, 0.0, 1.700945516922256E9, 0.0, 2023-11-25 15:51:56.922
225.0, 76486.99897372711, 82055.71258732231, -11395.5898756492, -9738.185672543726, -3406.5623171999837, -2990.9092773090933, -15860.015554429956, 187500.0, -0.194, 0.9400000000000001, 0.22, 192.0, 0.0, 0.0, 0.0, 0.0, 0.0, 0.0, 0.0, 0.0, 0.0, 1.700945516926065E9, 0.0, 2023-11-25 15:51:56.926
226.0, 76459.08164490243, 82019.860389216, -11466.93664395054, -9585.478554425068, -3314.450778299663, -2681.1140991585376, -15963.25826206902, 187500.0, -0.188, 0.9400000000000001, 0.222, 192.0, 250.0, 32.0, 29.0, 96.0, 6.0, 240.0, 0.0, 0.0, 0.0, 1.70094551692922E9, 0.0, 2023-11-25 15:51:56.929
227.0, 76451.48205178762, 82050.25876167521, -12060.129590049934, -10136.2925930372, -3992.5132980958583, -3053.114182128213, -16020.74694880807, 187500.0, -0.188, 0.9400000000000001, 0.222, 192.0, 0.0, 0.0, 0.0, 0.0, 0.0, 0.0, 0.0, 0.0, 0.0, 1.700945516933058E9, 0.0, 2023-11-25 15:51:56.933
228.0, 76469.54226130752, 82098.53852969868, -12625.606373024748, -10849.849683028422, -4783.206258202345, -3839.336793343639, -16078.570911713949, 187500.0, -0.188, 0.9400000000000001, 0.222, 192.0, 0.0, 0.0, 0.0, 0.0, 0.0, 0.0, 0.0, 0.0, 0.0, 1.700945516936053E9, 0.0, 2023-11-25 15:51:56.936
229.0, 76493.65979357478, 82074.06336952012, -11580.751726716964, -9979.07042253857, -3659.2934917561406, -3192.611419273784, -15871.504351079984, 187500.0, -0.188, 0.9400000000000001, 0.222, 192.0, 0.0, 0.0, 0.0, 0.0, 0.0, 0.0, 0.0, 0.0, 0.0, 1.700945516940079E9, 0.0, 2023-11-25 15:51:56.940
230.0, 76473.4985200761, 82034.76900276769, -11348.941784970973, -9467.215474512039, -3189.325712838854, -2596.13276673946, -15939.67717166867, 187500.0, -0.188, 0.9400000000000001, 0.222, 192.0, 0.0, 0.0, 0.0, 0.0, 0.0, 0.0, 0.0, 0.0, 0.0, 1.70094551694412E9, 0.0, 2023-11-25 15:51:56.944
231.0, 76462.59086878192, 82051.4657558758, -11939.474873480187, -10045.477455315287, -3857.866389497088, -2959.0356897158254, -16004.966617222623, 187500.0, -0.188, 0.9400000000000001, 0.222, 192.0, 0.0, 0.0, 0.0, 0.0, 0.0, 0.0, 0.0, 0.0, 0.0, 1.700945516949176E9, 0.0, 2023-11-25 15:51:56.949
232.0, 76468.46937757367, 82099.36554424353, -12612.642361240669, -10785.409603763772, -4732.22192909979, -3732.2495856582627, -16092.47369676515, 187500.0, -0.188, 0.9400000000000001, 0.222, 192.0, 0.0, 0.0, 0.0, 0.0, 0.0, 0.0, 0.0, 0.0, 0.0, 1.700945516953136E9, 0.0, 2023-11-25 15:51:56.953
233.0, 76486.06020046, 82076.85733757704, -11810.035921339504, -10253.54984444974, -3950.5367220087915, -3430.389276789341, -15897.164153714677, 187500.0, -0.188, 0.9400000000000001, 0.222, 192.0, 0.0, 0.0, 0.0, 0.0, 0.0, 0.0, 0.0, 0.0, 0.0, 1.700945516956129E9, 0.0, 2023-11-25 15:51:56.956
234.0, 76480.76283702409, 82044.40260462793, -11250.907033789998, -9388.649092751633, -3096.297752415866, -2567.4107751143906, -15909.390557931729, 187500.0, -0.188, 0.9400000000000001, 0.222, 192.0, 0.0, 0.0, 0.0, 0.0, 0.0, 0.0, 0.0, 0.0, 0.0, 1.700945516960135E9, 0.0, 2023-11-25 15:51:56.960
235.0, 76451.97379016565, 82034.05374694512, -11839.786093209517, -9954.729372826741, -3738.1951496833744, -2893.902706373061, -15999.088108430877, 187500.0, -0.188, 0.9400000000000001, 0.222, 192.0, 0.0, 0.0, 0.0, 0.0, 0.0, 0.0, 0.0, 0.0, 0.0, 1.700945516964218E9, 0.0, 2023-11-25 15:51:56.964
236.0, 76458.34403733541, 82086.46858769281, -12549.655145365614, -10654.093105088843, -4618.093921910992, -3586.2926943651078, -16107.427013805749, 187500.0, -0.188, 0.9440000000000001, 0.218, 192.0, 250.0, 32.0, 29.0, 128.0, 6.0, 208.0, 0.0, 0.0, 0.0, 1.700945516968256E9, 0.0, 2023-11-25 15:51:56.968
237.0, 76483.48974984762, 82080.88065157899, -12058.274395260143, -10480.1741814821, -4239.120094671261, -3629.7668373306797, -15959.614927722805, 187500.0, -0.188, 0.9440000000000001, 0.218, 192.0, 0.0, 0.0, 0.0, 0.0, 0.0, 0.0, 0.0, 0.0, 0.0, 1.700945516974172E9, 0.0, 2023-11-25 15:51:56.974
238.0, 76475.17490091025, 82028.24229338673, -11213.244344382805, -9347.544234698324, -3074.5271533163973, -2575.7256240517645, -15915.246714979019, 187500.0, -0.188, 0.9440000000000001, 0.218, 192.0, 0.0, 0.0, 0.0, 0.0, 0.0, 0.0, 0.0, 0.0, 0.0, 1.7009455169772E9, 0.0, 2023-11-25 15:51:56.977
239.0, 76453.8960401888, 82026.52120906368, -11765.377135917799, -9876.185342810792, -3653.079706797565, -2847.187560461469, -16000.943303220667, 187500.0, -0.188, 0.9440000000000001, 0.218, 192.0, 0.0, 0.0, 0.0, 0.0, 0.0, 0.0, 0.0, 0.0, 0.0, 1.700945516981207E9, 0.0, 2023-11-25 15:51:56.981
240.0, 76460.33334259193, 82087.85439584905, -12437.315277733242, -10510.12551905221, -4463.732774702642, -3429.986945389145, -16074.793466901001, 187500.0, -0.188, 0.9440000000000001, 0.218, 192.0, 0.0, 0.0, 0.0, 0.0, 0.0, 0.0, 0.0, 0.0, 0.0, 1.700945516984251E9, 0.0, 2023-11-25 15:51:56.984
241.0, 76475.1972526547, 82092.14593078446, -12279.176685711944, -10678.858837945323, -4483.290551101035, -3785.4690892063486, -15976.646956997749, 187500.0, -0.188, 0.9440000000000001, 0.218, 192.0, 0.0, 0.0, 0.0, 0.0, 0.0, 0.0, 0.0, 0.0, 0.0, 1.700945516988223E9, 0.0, 2023-11-25 15:51:56.988
242.0, 76476.58306081094, 82046.23544767326, -11206.36000709057, -9392.605351520224, -3101.8856885296927, -2640.7915521611635, -15870.85615049078, 187500.0, -0.188, 0.9440000000000001, 0.218, 192.0, 0.0, 0.0, 0.0, 0.0, 0.0, 0.0, 0.0, 0.0, 0.0, 1.700945516992239E9, 0.0, 2023-11-25 15:51:56.992
243.0, 76455.28184834502, 82030.83509574355, -11670.561035938386, -9777.010652662595, -3537.9682228527336, -2786.4578707764, -15990.147410648753, 187500.0, -0.188, 0.9440000000000001, 0.218, 192.0, 0.0, 0.0, 0.0, 0.0, 0.0, 0.0, 0.0, 0.0, 0.0, 1.700945516996215E9, 0.0, 2023-11-25 15:51:56.996
244.0, 76465.27307811654, 82082.33351496859, -12312.972523328368, -10365.397973704097, -4293.859516842308, -3281.45960348363, -16060.667164405248, 187500.0, -0.188, 0.9440000000000001, 0.218, 192.0, 0.0, 0.0, 0.0, 0.0, 0.0, 0.0, 0.0, 0.0, 0.0, 1.700945517001462E9, 0.0, 2023-11-25 15:51:57.001
245.0, 76472.0456566865, 82086.4238842039, -12471.401688027585, -10812.455214554693, -4668.54180914662, -3878.9217327739875, -16032.168690224731, 187500.0, -0.188, 0.9440000000000001, 0.218, 192.0, 0.0, 0.0, 0.0, 0.0, 0.0, 0.0, 0.0, 0.0, 0.0, 1.700945517004322E9, 0.0, 2023-11-25 15:51:57.004
246.0, 76481.58985156892, 82041.8098022711, -11290.894304620542, -9558.32118491187, -3241.5393878864516, -2811.2012518884244, -15868.24099638951, 187500.0, -0.182, 0.9400000000000001, 0.22, 192.0, 250.0, 80.0, 29.0, 96.0, 6.0, 224.0, 0.0, 0.0, 0.0, 1.700945517009353E9, 0.0, 2023-11-25 15:51:57.009
247.0, 76451.52675527654, 82019.90509270491, -11576.90722667065, -9694.77858481152, -3434.479646024662, -2740.279166731735, -15982.100782644844, 187500.0, -0.182, 0.9400000000000001, 0.22, 192.0, 0.0, 0.0, 0.0, 0.0, 0.0, 0.0, 0.0, 0.0, 0.0, 1.700945517012265E9, 0.0, 2023-11-25 15:51:57.012
248.0, 76441.02143538254, 82053.09743322105, -12185.433469466385, -10241.993992566348, -4136.682049832589, -3150.0536978308796, -16048.50781542156, 187500.0, -0.182, 0.9400000000000001, 0.22, 192.0, 0.0, 0.0, 0.0, 0.0, 0.0, 0.0, 0.0, 0.0, 0.0, 1.700945517016308E9, 0.0, 2023-11-25 15:51:57.016
249.0, 76466.7482932506, 82098.44912272086, -12594.40333776514, -10888.87582884739, -4784.927342525404, -3904.045093541753, -16062.9917458286, 187500.0, -0.182, 0.9400000000000001, 0.22, 192.0, 0.0, 0.0, 0.0, 0.0, 0.0, 0.0, 0.0, 0.0, 0.0, 1.700945517020269E9, 0.0, 2023-11-25 15:51:57.020
250.0, 76477.87946198935, 82055.64553208895, -11422.50137597339, -9770.41688804828, -3441.5204455280837, -3006.9354780835483, -15862.56365329786, 187500.0, -0.182, 0.9400000000000001, 0.22, 192.0, 0.0, 0.0, 0.0, 0.0, 0.0, 0.0, 0.0, 0.0, 0.0, 1.700945517024296E9, 0.0, 2023-11-25 15:51:57.024
251.0, 76452.8455081994, 82023.16844739538, -11463.449771815513, -9573.073336252373, -3301.285600815487, -2665.5572850176436, -15967.549797004438, 187500.0, -0.182, 0.9400000000000001, 0.22, 192.0, 0.0, 0.0, 0.0, 0.0, 0.0, 0.0, 0.0, 0.0, 0.0, 1.700945517028301E9, 0.0, 2023-11-25 15:51:57.028
252.0, 76449.09041513091, 82060.87584029148, -12062.364764495465, -10145.121532097046, -3985.9195334815427, -3054.9693769180035, -16035.40969317075, 187500.0, -0.182, 0.9400000000000001, 0.22, 192.0, 0.0, 0.0, 0.0, 0.0, 0.0, 0.0, 0.0, 0.0, 0.0, 1.700945517032337E9, 0.0, 2023-11-25 15:51:57.032
253.0, 76466.21185138368, 82108.88738738149, -12641.654925543658, -10861.696107589736, -4788.95065652736, -3848.3221946146723, -16098.642778234815, 187500.0, -0.182, 0.9400000000000001, 0.22, 192.0, 0.0, 0.0, 0.0, 0.0, 0.0, 0.0, 0.0, 0.0, 0.0, 1.700945517037372E9, 0.0, 2023-11-25 15:51:57.037
254.0, 76481.92512773575, 82068.40837817293, -11612.53590733241, -10003.724396672773, -3688.9989601372436, -3227.435437135153, -15888.938711755123, 187500.0, -0.182, 0.9400000000000001, 0.22, 192.0, 0.0, 0.0, 0.0, 0.0, 0.0, 0.0, 0.0, 0.0, 0.0, 1.700945517040672E9, 0.0, 2023-11-25 15:51:57.040
255.0, 76471.55391830849, 82033.47260158928, -11345.454912835947, -9457.514817418434, -3181.4802505350413, -2608.783854101164, -15945.734494416058, 187500.0, -0.182, 0.9400000000000001, 0.22, 192.0, 0.0, 0.0, 0.0, 0.0, 0.0, 0.0, 0.0, 0.0, 0.0, 1.70094551704439E9, 0.0, 2023-11-25 15:51:57.044
0.0, 76456.28767684552, 82047.91182850741, -11932.12114955439, -10027.84192894005, -3841.527264300259, -2967.8422770312163, -16011.448623114662, 187500.0, -0.186, 0.9420000000000001, 0.22, 192.0, 250.0, 48.0, 29.0, 112.0, 6.0, 224.0, 0.0, 0.0, 0.0, 1.700945517048359E9, 0.0, 2023-11-25 15:51:57.048
1.0, 76475.1525491658, 82108.30624202565, -12600.371253534706, -10758.02871680602, -4707.210327054301, -3720.2690506302183, -16081.56604547096, 187500.0, -0.186, 0.9420000000000001, 0.22, 192.0, 0.0, 0.0, 0.0, 0.0, 0.0, 0.0, 0.0, 0.0, 0.0, 1.700945517052403E9, 0.0, 2023-11-25 15:51:57.052
2.0, 76496.63257558734, 82089.26255574972, -11827.805558181473, -10269.821914413204, -3969.513353051347, -3452.897483455835, -15896.270083936464, 187500.0, -0.186, 0.9420000000000001, 0.22, 192.0, 0.0, 0.0, 0.0, 0.0, 0.0, 0.0, 0.0, 0.0, 0.0, 1.700945517056381E9, 0.0, 2023-11-25 15:51:57.056
3.0, 76486.79780802701, 82047.75536629622, -11242.368667408069, -9372.578188488269, -3084.518383087919, -2564.9520832243065, -15910.038758520934, 187500.0, -0.186, 0.9420000000000001, 0.22, 192.0, 0.0, 0.0, 0.0, 0.0, 0.0, 0.0, 0.0, 0.0, 0.0, 1.700945517060396E9, 0.0, 2023-11-25 15:51:57.060
4.0, 76462.32264784844, 82048.7164913078, -11829.236069826613, -9940.848939519994, -3725.4546553438495, -2898.7753866643175, -15994.1260211618, 187500.0, -0.186, 0.9420000000000001, 0.22, 192.0, 0.0, 0.0, 0.0, 0.0, 0.0, 0.0, 0.0, 0.0, 0.0, 1.700945517065414E9, 0.0, 2023-11-25 15:51:57.065
5.0, 76468.13410140683, 82101.48895996678, -12528.353932899707, -10624.25352624101, -4585.370968028423, -3567.5842842560155, -16090.819667675456, 187500.0, -0.186, 0.9420000000000001, 0.22, 192.0, 0.0, 0.0, 0.0, 0.0, 0.0, 0.0, 0.0, 0.0, 0.0, 1.700945517068422E9, 0.0, 2023-11-25 15:51:57.068
6.0, 76481.88042424685, 82089.86605285002, -12078.34626178101, -10500.26839974742, -4256.375641390758, -3649.6151864069925, -15958.58674747786, 187500.0, -0.186, 0.9420000000000001, 0.22, 192.0, 0.0, 0.0, 0.0, 0.0, 0.0, 0.0, 0.0, 0.0, 0.0, 1.700945517072593E9, 0.0, 2023-11-25 15:51:57.072
7.0, 76471.41980784175, 82041.94391273784, -11210.27156237025, -9353.065115578785, -3067.4863538129753, -2582.1405747104377, -15908.407081175696, 187500.0, -0.186, 0.9420000000000001, 0.22, 192.0, 0.0, 0.0, 0.0, 0.0, 0.0, 0.0, 0.0, 0.0, 0.0, 1.700945517075415E9, 0.0, 2023-11-25 15:51:57.075
8.0, 76450.9009064318, 82039.93225573686, -11746.825188019895, -9859.600348424954, -3628.179863474353, -2835.7881707892625, -16000.585675309381, 187500.0, -0.186, 0.9420000000000001, 0.22, 192.0, 0.0, 0.0, 0.0, 0.0, 0.0, 0.0, 0.0, 0.0, 0.0, 1.70094551708046E9, 0.0, 2023-11-25 15:51:57.080
9.0, 76454.45483380018, 82088.94963132736, -12414.561201877737, -10492.60175139925, -4441.179864547237, -3406.0482270775115, -16077.98976635811, 187500.0, -0.186, 0.9420000000000001, 0.22, 192.0, 0.0, 0.0, 0.0, 0.0, 0.0, 0.0, 0.0, 0.0, 0.0, 1.700945517084505E9, 0.0, 2023-11-25 15:51:57.084
10.0, 76473.61027879838, 82097.77857038719, -12292.43127017394, -10703.177535912697, -4508.123339190882, -3805.786824916223, -15990.259169371031, 187500.0, -0.182, 0.9500000000000001, 0.224, 192.0, 250.0, 80.0, 29.0, 176.0, 7.0, 0.0, 0.0, 0.0, 0.0, 1.700945517088623E9, 0.0, 2023-11-25 15:51:57.088
11.0, 76478.86293874538, 82055.6678838334, -11203.722501244843, -9422.355523390237, -3119.677677116117, -2672.642788009976, -15871.70551678008, 187500.0, -0.182, 0.9500000000000001, 0.224, 192.0, 0.0, 0.0, 0.0, 0.0, 0.0, 0.0, 0.0, 0.0, 0.0, 1.70094551709159E9, 0.0, 2023-11-25 15:51:57.091
12.0, 76459.39456932481, 82043.03914821615, -11643.381314680733, -9780.475173053166, -3529.3851529818958, -2788.8495074331177, -15979.128000632287, 187500.0, -0.182, 0.9500000000000001, 0.224, 192.0, 0.0, 0.0, 0.0, 0.0, 0.0, 0.0, 0.0, 0.0, 0.0, 1.700945517095546E9, 0.0, 2023-11-25 15:51:57.095
13.0, 76464.17784263824, 82081.64061089046, -12276.539179866217, -10362.983985302924, -4279.710862602099, -3275.916370858714, -16045.289164219996, 187500.0, -0.182, 0.9500000000000001, 0.224, 192.0, 0.0, 0.0, 0.0, 0.0, 0.0, 0.0, 0.0, 0.0, 0.0, 1.700945517099534E9, 0.0, 2023-11-25 15:51:57.099
14.0, 76477.99122071161, 82095.36458198602, -12449.89930986158, -10827.766159506578, -4682.668111642374, -3894.9255818039874, -16015.226067927608, 187500.0, -0.182, 0.9500000000000001, 0.224, 192.0, 0.0, 0.0, 0.0, 0.0, 0.0, 0.0, 0.0, 0.0, 0.0, 1.700945517103653E9, 0.0, 2023-11-25 15:51:57.103
15.0, 76488.87652026136, 82051.15283145342, -11253.32102219117, -9543.993716716019, -3235.9961552615355, -2802.439368061944, -15843.698780977582, 187500.0, -0.182, 0.9500000000000001, 0.224, 192.0, 0.0, 0.0, 0.0, 0.0, 0.0, 0.0, 0.0, 0.0, 0.0, 1.700945517108511E9, 0.0, 2023-11-25 15:51:57.108
16.0, 76468.62583978484, 82026.18593289686, -11514.612914873709, -9635.993496894062, -3396.3699217283634, -2690.5018318297666, -15951.367134018796, 187500.0, -0.182, 0.9500000000000001, 0.224, 192.0, 0.0, 0.0, 0.0, 0.0, 0.0, 0.0, 0.0, 0.0, 0.0, 1.700945517112545E9, 0.0, 2023-11-25 15:51:57.112
17.0, 76478.88529048984, 82077.59494514405, -12121.909811724403, -10211.662675340494, -4112.028075698385, -3119.588270138296, -16011.605085325848, 187500.0, -0.182, 0.9500000000000001, 0.224, 192.0, 0.0, 0.0, 0.0, 0.0, 0.0, 0.0, 0.0, 0.0, 0.0, 1.70094551711678E9, 0.0, 2023-11-25 15:51:57.116
18.0, 76496.43140988724, 82116.86696015204, -12539.440398149538, -10861.271424445084, -4770.733984796284, -3877.267703684295, -16032.83924255839, 187500.0, -0.182, 0.9500000000000001, 0.224, 192.0, 0.0, 0.0, 0.0, 0.0, 0.0, 0.0, 0.0, 0.0, 0.0, 1.700945517119598E9, 0.0, 2023-11-25 15:51:57.119
19.0, 76509.2613112046, 82067.80488107263, -11371.539398615289, -9759.531588498545, -3441.8110182060027, -2995.0443500333254, -15827.829042414314, 187500.0, -0.182, 0.9500000000000001, 0.224, 192.0, 0.0, 0.0, 0.0, 0.0, 0.0, 0.0, 0.0, 0.0, 0.0, 1.700945517123618E9, 0.0, 2023-11-25 15:51:57.123
20.0, 76481.9027759913, 82025.00129044072, -11389.376090690625, -9546.02772546145, -3282.398376750753, -2640.746848672253, -15928.814223863392, 187500.0, -0.18, 0.9420000000000001, 0.218, 192.0, 250.0, 96.0, 29.0, 112.0, 6.0, 208.0, 0.0, 0.0, 0.0, 1.700945517127589E9, 0.0, 2023-11-25 15:51:57.127
21.0, 76467.66471477327, 82047.17422094039, -11977.316376843022, -10104.62017114403, -3961.2208558584284, -3017.2843357663555, -15986.034689668977, 187500.0, -0.18, 0.9420000000000001, 0.218, 192.0, 0.0, 0.0, 0.0, 0.0, 0.0, 0.0, 0.0, 0.0, 0.0, 1.700945517131565E9, 0.0, 2023-11-25 15:51:57.131
22.0, 76476.2030811552, 82091.78830287317, -12565.949567073532, -10816.098548900909, -4776.679548821396, -3800.3777027580386, -16054.520434680038, 187500.0, -0.18, 0.9420000000000001, 0.218, 192.0, 0.0, 0.0, 0.0, 0.0, 0.0, 0.0, 0.0, 0.0, 0.0, 1.700945517137579E9, 0.0, 2023-11-25 15:51:57.137
23.0, 76497.79486629902, 82061.54639262514, -11567.184217832591, -10009.446443253331, -3719.6432017854695, -3217.041875963435, -15844.726961222526, 187500.0, -0.18, 0.9420000000000001, 0.218, 192.0, 0.0, 0.0, 0.0, 0.0, 0.0, 0.0, 0.0, 0.0, 0.0, 1.700945517140577E9, 0.0, 2023-11-25 15:51:57.140
24.0, 76483.62386031436, 82026.94589220833, -11272.632929400555, -9427.898756015153, -3169.9467503961027, -2567.2543129032033, -15898.080575237344, 187500.0, -0.18, 0.9420000000000001, 0.218, 192.0, 0.0, 0.0, 0.0, 0.0, 0.0, 0.0, 0.0, 0.0, 0.0, 1.700945517144712E9, 0.0, 2023-11-25 15:51:57.144
25.0, 76472.76091250908, 82041.92156099339, -11863.456590587688, -10017.64953346843, -3842.041354422731, -2939.053230172781, -15965.336974303364, 187500.0, -0.18, 0.9420000000000001, 0.218, 192.0, 0.0, 0.0, 0.0, 0.0, 0.0, 0.0, 0.0, 0.0, 0.0, 1.700945517147653E9, 0.0, 2023-11-25 15:51:57.147
26.0, 76477.79005501152, 82091.18480577288, -12536.71348532599, -10739.521472397028, -4714.251126557723, -3689.758919448724, -16043.948059552678, 187500.0, -0.18, 0.9420000000000001, 0.218, 192.0, 0.0, 0.0, 0.0, 0.0, 0.0, 0.0, 0.0, 0.0, 0.0, 1.700945517151698E9, 0.0, 2023-11-25 15:51:57.151
27.0, 76502.39932565682, 82077.9749247998, -11788.846467595873, -10264.256330043832, -4000.0905394662072, -3439.642898993838, -15857.780379984426, 187500.0, -0.18, 0.9420000000000001, 0.218, 192.0, 0.0, 0.0, 0.0, 0.0, 0.0, 0.0, 0.0, 0.0, 0.0, 1.700945517155658E9, 0.0, 2023-11-25 15:51:57.155
28.0, 76487.62482257186, 82031.19272365484, -11186.846934181087, -9348.125380054162, -3088.3181796453214, -2536.8559404439857, -15863.502426564984, 187500.0, -0.18, 0.9420000000000001, 0.218, 192.0, 0.0, 0.0, 0.0, 0.0, 0.0, 0.0, 0.0, 0.0, 0.0, 1.700945517159695E9, 0.0, 2023-11-25 15:51:57.159
29.0, 76463.52964204903, 82030.32100562108, -11774.38488893329, -9937.876157507439, -3735.4458851153718, -2879.061148054737, -15950.24954679603, 187500.0, -0.18, 0.9420000000000001, 0.218, 192.0, 0.0, 0.0, 0.0, 0.0, 0.0, 0.0, 0.0, 0.0, 0.0, 1.700945517164687E9, 0.0, 2023-11-25 15:51:57.164
30.0, 76462.32264784844, 82066.64259036095, -12462.885673390112, -10603.600514364305, -4587.136755840392, -3529.899243104368, -16037.846033316378, 187500.0, -0.188, 0.936, 0.224, 192.0, 250.0, 32.0, 29.0, 64.0, 7.0, 0.0, 0.0, 0.0, 0.0, 1.700945517169687E9, 0.0, 2023-11-25 15:51:57.169
31.0, 76485.38964812632, 82069.63772411797, -12043.164616008356, -10510.84077487478, -4301.235592512559, -3650.2186835072857, -15903.824973562358, 187500.0, -0.188, 0.936, 0.224, 192.0, 0.0, 0.0, 0.0, 0.0, 0.0, 0.0, 0.0, 0.0, 0.0, 1.700945517172701E9, 0.0, 2023-11-25 15:51:57.172
32.0, 76476.76187476658, 82017.06642115909, -11159.309585012148, -9362.743420927933, -3094.531964603897, -2585.4709846342785, -15851.23131885902, 187500.0, -0.188, 0.936, 0.224, 192.0, 0.0, 0.0, 0.0, 0.0, 0.0, 0.0, 0.0, 0.0, 0.0, 1.700945517176742E9, 0.0, 2023-11-25 15:51:57.176
33.0, 76447.83871744141, 81995.98872613773, -11695.192658328137, -9865.322395005513, -3647.0000323057216, -2833.3294788991784, -15953.982288120067, 187500.0, -0.188, 0.936, 0.224, 192.0, 0.0, 0.0, 0.0, 0.0, 0.0, 0.0, 0.0, 0.0, 0.0, 1.70094551717978E9, 0.0, 2023-11-25 15:51:57.179
34.0, 76457.2488018571, 82053.27624717668, -12363.889797197557, -10488.041995530368, -4449.874693140351, -3392.6371804043274, -16034.828547814912, 187500.0, -0.188, 0.936, 0.224, 192.0, 0.0, 0.0, 0.0, 0.0, 0.0, 0.0, 0.0, 0.0, 0.0, 1.700945517183777E9, 0.0, 2023-11-25 15:51:57.183
35.0, 76489.72588655066, 82077.79611084415, -12265.89974950549, -10733.441797905183, -4549.608176899931, -3821.8577291795887, -15947.768503161491, 187500.0, -0.188, 0.936, 0.224, 192.0, 0.0, 0.0, 0.0, 0.0, 0.0, 0.0, 0.0, 0.0, 0.0, 1.700945517187755E9, 0.0, 2023-11-25 15:51:57.187
36.0, 76498.37601165487, 82035.61836905699, -11163.623471692023, -9444.349639934258, -3142.208235527067, -2687.7525672617635, -15830.064216859844, 187500.0, -0.188, 0.936, 0.224, 192.0, 0.0, 0.0, 0.0, 0.0, 0.0, 0.0, 0.0, 0.0, 0.0, 1.700945517191821E9, 0.0, 2023-11-25 15:51:57.191
37.0, 76466.97181069515, 82008.97508966626, -11595.995616435483, -9774.015518905582, -3531.7320861497033, -2783.0380538747377, -15953.982288120067, 187500.0, -0.188, 0.936, 0.224, 192.0, 0.0, 0.0, 0.0, 0.0, 0.0, 0.0, 0.0, 0.0, 0.0, 1.700945517196792E9, 0.0, 2023-11-25 15:51:57.196
38.0, 76472.58209855344, 82058.75242456823, -12227.65591474246, -10340.296964680787, -4273.564132876889, -3252.6482048807393, -16024.099710476365, 187500.0, -0.188, 0.936, 0.224, 192.0, 0.0, 0.0, 0.0, 0.0, 0.0, 0.0, 0.0, 0.0, 0.0, 1.700945517200853E9, 0.0, 2023-11-25 15:51:57.200
39.0, 76498.5548256105, 82101.84658787807, -12433.359018964651, -10844.932299248256, -4712.284173045656, -3902.0110847963197, -15997.903465974745, 187500.0, -0.188, 0.936, 0.224, 192.0, 0.0, 0.0, 0.0, 0.0, 0.0, 0.0, 0.0, 0.0, 0.0, 1.700945517203864E9, 0.0, 2023-11-25 15:51:57.203
40.0, 76503.24869194612, 82055.80199430013, -11245.743780820821, -9595.626246407777, -3279.64911218275, -2851.054412252237, -15831.450025016073, 187500.0, -0.182, 0.9400000000000001, 0.224, 192.0, 250.0, 80.0, 29.0, 96.0, 7.0, 0.0, 0.0, 0.0, 0.0, 1.70094551720782E9, 0.0, 2023-11-25 15:51:57.207
41.0, 76467.35179035089, 82013.44543855732, -11490.27186516188, -9662.279148373504, -3409.8480236349137, -2722.1742537229366, -15946.293288027442, 187500.0, -0.182, 0.9400000000000001, 0.224, 192.0, 0.0, 0.0, 0.0, 0.0, 0.0, 0.0, 0.0, 0.0, 0.0, 1.700945517211816E9, 0.0, 2023-11-25 15:51:57.211
42.0, 76464.55782229398, 82050.39287214195, -12091.846715432015, -10211.30504742921, -4108.474148329991, -3130.741790621494, -16011.31451264793, 187500.0, -0.182, 0.9400000000000001, 0.224, 192.0, 0.0, 0.0, 0.0, 0.0, 0.0, 0.0, 0.0, 0.0, 0.0, 1.700945517215952E9, 0.0, 2023-11-25 15:51:57.215
43.0, 76500.81235180049, 82107.0321925917, -12530.589107345237, -10861.763162823101, -4783.474479135809, -3886.901305544532, -16029.486480890095, 187500.0, -0.182, 0.9400000000000001, 0.224, 192.0, 0.0, 0.0, 0.0, 0.0, 0.0, 0.0, 0.0, 0.0, 0.0, 1.700945517219888E9, 0.0, 2023-11-25 15:51:57.219
44.0, 76510.71417459419, 82061.79226181416, -11388.34791044568, -9797.41779535029, -3480.770108791603, -3041.9606616450146, -15829.930106393113, 187500.0, -0.182, 0.9400000000000001, 0.224, 192.0, 0.0, 0.0, 0.0, 0.0, 0.0, 0.0, 0.0, 0.0, 0.0, 1.700945517224885E9, 0.0, 2023-11-25 15:51:57.224
45.0, 76478.59471781191, 82017.44640081482, -11386.738584844898, -9547.525292339957, -3280.3420162608645, -2654.6943372123646, -15935.25152626652, 187500.0, -0.182, 0.9400000000000001, 0.224, 192.0, 0.0, 0.0, 0.0, 0.0, 0.0, 0.0, 0.0, 0.0, 0.0, 1.700945517228869E9, 0.0, 2023-11-25 15:51:57.228
46.0, 76480.0475812015, 82053.38800589896, -11975.125905886402, -10122.635677175007, -3958.739812223889, -3046.8780454251823, -15986.504076302539, 187500.0, -0.182, 0.9400000000000001, 0.224, 192.0, 0.0, 0.0, 0.0, 0.0, 0.0, 0.0, 0.0, 0.0, 0.0, 1.700945517233069E9, 0.0, 2023-11-25 15:51:57.233
47.0, 76494.41975288627, 82106.24988153575, -12572.766849132402, -10846.407514382305, -4783.876810536005, -3841.0802294111527, -16053.447550946183, 187500.0, -0.182, 0.9400000000000001, 0.224, 192.0, 0.0, 0.0, 0.0, 0.0, 0.0, 0.0, 0.0, 0.0, 0.0, 1.700945517236055E9, 0.0, 2023-11-25 15:51:57.236
48.0, 76500.92411052277, 82059.62414260198, -11606.63504679621, -10066.622205570007, -3763.6314348735136, -3290.266190799021, -15868.71038302307, 187500.0, -0.182, 0.9400000000000001, 0.224, 192.0, 0.0, 0.0, 0.0, 0.0, 0.0, 0.0, 0.0, 0.0, 0.0, 1.700945517239923E9, 0.0, 2023-11-25 15:51:57.239
49.0, 76479.44408410121, 82013.80306646861, -11283.808801628209, -9433.240822939972, -3169.365605040265, -2596.579801628566, -15921.080520281856, 187500.0, -0.182, 0.9400000000000001, 0.224, 192.0, 0.0, 0.0, 0.0, 0.0, 0.0, 0.0, 0.0, 0.0, 0.0, 1.700945517243929E9, 0.0, 2023-11-25 15:51:57.243
50.0, 76468.33526710693, 82029.82926724307, -11874.92303549326, -10014.855565411517, -3836.1851973754406, -2950.273805889345, -15988.426326325694, 187500.0, -0.184, 0.9420000000000001, 0.222, 192.0, 250.0, 64.0, 29.0, 112.0, 6.0, 240.0, 0.0, 0.0, 0.0, 1.700945517248039E9, 0.0, 2023-11-25 15:51:57.248
51.0, 76482.81919751396, 82090.44719820586, -12555.019564034888, -10745.623498633326, -4717.134501592458, -3691.368245049506, -16068.244405775597, 187500.0, -0.184, 0.9420000000000001, 0.222, 192.0, 0.0, 0.0, 0.0, 0.0, 0.0, 0.0, 0.0, 0.0, 0.0, 1.70094551725199E9, 0.0, 2023-11-25 15:51:57.251
52.0, 76496.40905814279, 82068.36367468402, -11849.285584603023, -10340.699296080982, -4064.865894897687, -3503.859460813935, -15889.00576698849, 187500.0, -0.184, 0.9420000000000001, 0.222, 192.0, 0.0, 0.0, 0.0, 0.0, 0.0, 0.0, 0.0, 0.0, 0.0, 1.700945517256989E9, 0.0, 2023-11-25 15:51:57.256
53.0, 76479.13115967884, 82016.39586882542, -11204.571867534145, -9376.109764112207, -3102.109205974246, -2566.449650102812, -15889.497505366506, 187500.0, -0.184, 0.9420000000000001, 0.222, 192.0, 0.0, 0.0, 0.0, 0.0, 0.0, 0.0, 0.0, 0.0, 0.0, 1.70094551725996E9, 0.0, 2023-11-25 15:51:57.259
54.0, 76458.61225826887, 82019.30159560461, -11791.014586808036, -9951.711887325275, -3739.8268270286117, -2897.501337230365, -15977.719840731603, 187500.0, -0.184, 0.9420000000000001, 0.222, 192.0, 0.0, 0.0, 0.0, 0.0, 0.0, 0.0, 0.0, 0.0, 0.0, 1.700945517263984E9, 0.0, 2023-11-25 15:51:57.263
55.0, 76468.08939791792, 82073.39281718645, -12476.341423552207, -10618.620886638271, -4588.567267485531, -3546.216016556742, -16062.164731283752, 187500.0, -0.184, 0.9420000000000001, 0.222, 192.0, 0.0, 0.0, 0.0, 0.0, 0.0, 0.0, 0.0, 0.0, 0.0, 1.700945517267981E9, 0.0, 2023-11-25 15:51:57.267
56.0, 76488.2059679277, 82070.17416598489, -12092.316102065577, -10568.888255225213, -4346.184950612182, -3698.252582341741, -15934.558622188404, 187500.0, -0.184, 0.9420000000000001, 0.222, 192.0, 0.0, 0.0, 0.0, 0.0, 0.0, 0.0, 0.0, 0.0, 0.0, 1.700945517272021E9, 0.0, 2023-11-25 15:51:57.272
57.0, 76487.33424989395, 82022.02850842816, -11172.161838073951, -9384.871647938688, -3101.9303920186035, -2615.198804759837, -15865.916414966157, 187500.0, -0.184, 0.9420000000000001, 0.222, 192.0, 0.0, 0.0, 0.0, 0.0, 0.0, 0.0, 0.0, 0.0, 0.0, 1.700945517275989E9, 0.0, 2023-11-25 15:51:57.275
58.0, 76462.30029610399, 82011.36672632299, -11694.633864716752, -9859.71210714723, -3631.8455495650232, -2838.090400468159, -15964.889939414257, 187500.0, -0.184, 0.9420000000000001, 0.222, 192.0, 0.0, 0.0, 0.0, 0.0, 0.0, 0.0, 0.0, 0.0, 0.0, 1.700945517280057E9, 0.0, 2023-11-25 15:51:57.280
59.0, 76468.91641246277, 82070.77766308519, -12363.889797197557, -10475.636777357671, -4432.261518509569, -3394.2912094940198, -16053.447550946183, 187500.0, -0.184, 0.9420000000000001, 0.222, 192.0, 0.0, 0.0, 0.0, 0.0, 0.0, 0.0, 0.0, 0.0, 0.0, 1.700945517285052E9, 0.0, 2023-11-25 15:51:57.285
60.0, 76484.8532062594, 82078.91369806691, -12310.223258760365, -10747.903376567767, -4581.258247048646, -3846.824627736167, -15984.403012323739, 187500.0, -0.182, 0.9500000000000001, 0.22, 192.0, 250.0, 80.0, 29.0, 176.0, 6.0, 224.0, 0.0, 0.0, 0.0, 1.700945517288045E9, 0.0, 2023-11-25 15:51:57.288
61.0, 76484.04854345901, 82025.35891835201, -11203.342521589104, -9468.82480011282, -3176.272294076955, -2720.96725952235, -15868.263348133964, 187500.0, -0.182, 0.9500000000000001, 0.22, 192.0, 0.0, 0.0, 0.0, 0.0, 0.0, 0.0, 0.0, 0.0, 0.0, 1.700945517291034E9, 0.0, 2023-11-25 15:51:57.291
62.0, 76457.49467104611, 82008.9080344329, -11610.099567186782, -9775.960120673195, -3532.0450105720774, -2790.347074311623, -15975.574073263893, 187500.0, -0.182, 0.9500000000000001, 0.22, 192.0, 0.0, 0.0, 0.0, 0.0, 0.0, 0.0, 0.0, 0.0, 0.0, 1.70094551729608E9, 0.0, 2023-11-25 15:51:57.296
63.0, 76459.17105188026, 82059.11005247952, -12229.488757787796, -10330.193976186989, -4258.834333280842, -3239.3042134409206, -16041.802292084969, 187500.0, -0.182, 0.9500000000000001, 0.22, 192.0, 0.0, 0.0, 0.0, 0.0, 0.0, 0.0, 0.0, 0.0, 0.0, 1.700945517300118E9, 0.0, 2023-11-25 15:51:57.300
64.0, 76480.53931957952, 82088.25672724925, -12465.679641447025, -10852.308374918506, -4727.885690675461, -3903.5980586526466, -16022.490384875582, 187500.0, -0.182, 0.9500000000000001, 0.22, 192.0, 0.0, 0.0, 0.0, 0.0, 0.0, 0.0, 0.0, 0.0, 0.0, 1.700945517304105E9, 0.0, 2023-11-25 15:51:57.304
65.0, 76484.83085451495, 82035.0595754456, -11269.570740410178, -9600.409519721214, -3291.875516399803, -2856.128258243592, -15846.068065889844, 187500.0, -0.182, 0.9500000000000001, 0.22, 192.0, 0.0, 0.0, 0.0, 0.0, 0.0, 0.0, 0.0, 0.0, 0.0, 1.700945517308186E9, 0.0, 2023-11-25 15:51:57.308
66.0, 76462.27794435954, 82010.96439492279, -11499.726653066475, -9647.348183077358, -3398.8733171073577, -2709.701980316875, -15964.353497547329, 187500.0, -0.182, 0.9500000000000001, 0.22, 192.0, 0.0, 0.0, 0.0, 0.0, 0.0, 0.0, 0.0, 0.0, 0.0, 1.700945517312266E9, 0.0, 2023-11-25 15:51:57.312
67.0, 76462.03207517053, 82047.4647936183, -12110.711587752294, -10217.719998087883, -4104.562593050313, -3130.1829970101116, -16031.006399513055, 187500.0, -0.182, 0.9500000000000001, 0.22, 192.0, 0.0, 0.0, 0.0, 0.0, 0.0, 0.0, 0.0, 0.0, 0.0, 1.700945517316785E9, 0.0, 2023-11-25 15:51:57.316
68.0, 76474.92903172124, 82081.43944519036, -12559.57931990377, -10868.379279181872, -4789.4870983942865, -3884.330854932172, -16051.704114878668, 187500.0, -0.182, 0.9500000000000001, 0.22, 192.0, 0.0, 0.0, 0.0, 0.0, 0.0, 0.0, 0.0, 0.0, 0.0, 1.700945517319115E9, 0.0, 2023-11-25 15:51:57.319
69.0, 76486.01549697107, 82042.8156307716, -11433.45373075649, -9825.4692346417, -3517.583431909494, -3061.8313624657826, -15860.32847885233, 187500.0, -0.182, 0.9500000000000001, 0.22, 192.0, 0.0, 0.0, 0.0, 0.0, 0.0, 0.0, 0.0, 0.0, 0.0, 1.700945517324124E9, 0.0, 2023-11-25 15:51:57.324
70.0, 76466.97181069515, 82012.0596304011, -11394.986378548907, -9546.072428950361, -3282.1748593062, -2651.9003691554512, -15949.176663062175, 187500.0, -0.186, 0.9460000000000001, 0.216, 192.0, 250.0, 48.0, 29.0, 144.0, 6.0, 192.0, 0.0, 0.0, 0.0, 1.700945517329159E9, 0.0, 2023-11-25 15:51:57.329
71.0, 76458.43344431322, 82038.32293013608, -11986.257074625144, -10113.739682881795, -3956.862265689643, -3028.9742981164814, -16010.487498103083, 187500.0, -0.186, 0.9460000000000001, 0.216, 192.0, 0.0, 0.0, 0.0, 0.0, 0.0, 0.0, 0.0, 0.0, 0.0, 1.70094551733221E9, 0.0, 2023-11-25 15:51:57.332
72.0, 76477.52183407806, 82091.98946857327, -12594.179820320585, -10842.898290502822, -4788.190697215879, -3817.7003047109015, -16074.391135500806, 187500.0, -0.186, 0.9460000000000001, 0.216, 192.0, 0.0, 0.0, 0.0, 0.0, 0.0, 0.0, 0.0, 0.0, 0.0, 1.700945517336218E9, 0.0, 2023-11-25 15:51:57.336
73.0, 76489.14474119482, 82057.79129955666, -11636.049942499392, -10089.532743636697, -3787.7489671407902, -3296.234106568588, -15867.861016733768, 187500.0, -0.186, 0.9460000000000001, 0.216, 192.0, 0.0, 0.0, 0.0, 0.0, 0.0, 0.0, 0.0, 0.0, 0.0, 1.700945517340176E9, 0.0, 2023-11-25 15:51:57.340
74.0, 76462.72497924864, 82002.91776691888, -11282.601807427622, -9416.521718087402, -3157.00509035648, -2577.2902461636363, -15916.543116157427, 187500.0, -0.186, 0.9460000000000001, 0.216, 192.0, 0.0, 0.0, 0.0, 0.0, 0.0, 0.0, 0.0, 0.0, 0.0, 1.7009455173442E9, 0.0, 2023-11-25 15:51:57.344
75.0, 76451.88438318782, 82018.8098572266, -11883.39434664182, -10010.318161287089, -3829.546729272214, -2943.5235790638426, -15993.343710105863, 187500.0, -0.186, 0.9460000000000001, 0.216, 192.0, 0.0, 0.0, 0.0, 0.0, 0.0, 0.0, 0.0, 0.0, 0.0, 1.70094551734724E9, 0.0, 2023-11-25 15:51:57.347
76.0, 76461.89796470379, 82073.45987241983, -12557.902939069621, -10719.471957620617, -4699.3201612615785, -3668.4130034939058, -16083.376536771839, 187500.0, -0.186, 0.9460000000000001, 0.216, 192.0, 0.0, 0.0, 0.0, 0.0, 0.0, 0.0, 0.0, 0.0, 0.0, 1.700945517351263E9, 0.0, 2023-11-25 15:51:57.351
77.0, 76488.63065107235, 82061.99342751426, -11884.511933864587, -10349.684697352017, -4090.7939184658435, -3516.532899920094, -15907.535363141938, 187500.0, -0.186, 0.9460000000000001, 0.216, 192.0, 0.0, 0.0, 0.0, 0.0, 0.0, 0.0, 0.0, 0.0, 0.0, 1.700945517356828E9, 0.0, 2023-11-25 15:51:57.356
78.0, 76469.34109560742, 82006.24817684271, -11210.919762959453, -9382.345900815237, -3112.1898427235897, -2577.5808188415554, -15889.0504704774, 187500.0, -0.186, 0.9460000000000001, 0.216, 192.0, 0.0, 0.0, 0.0, 0.0, 0.0, 0.0, 0.0, 0.0, 0.0, 1.700945517360434E9, 0.0, 2023-11-25 15:51:57.360
79.0, 76444.26243832856, 82008.68451698835, -11792.04276705298, -9948.314422168067, -3744.1630654529413, -2894.5285552178093, -15980.960843677622, 187500.0, -0.186, 0.9460000000000001, 0.216, 192.0, 0.0, 0.0, 0.0, 0.0, 0.0, 0.0, 0.0, 0.0, 0.0, 1.700945517364208E9, 0.0, 2023-11-25 15:51:57.364
80.0, 76456.42178731225, 82067.02257001669, -12469.434734515517, -10590.703557813593, -4574.5303719675985, -3511.1684812508206, -16058.767266126546, 187500.0, -0.186, 0.9400000000000001, 0.216, 192.0, 250.0, 48.0, 29.0, 96.0, 6.0, 192.0, 0.0, 0.0, 0.0, 1.700945517368259E9, 0.0, 2023-11-25 15:51:57.368
81.0, 76480.36050562389, 82070.04005551817, -12113.39379708693, -10569.603511047782, -4363.440497331679, -3693.5140125172156, -15932.368151231785, 187500.0, -0.186, 0.9400000000000001, 0.216, 192.0, 0.0, 0.0, 0.0, 0.0, 0.0, 0.0, 0.0, 0.0, 0.0, 1.700945517372259E9, 0.0, 2023-11-25 15:51:57.372
82.0, 76481.74631378011, 82024.50955206271, -11166.283329282205, -9370.43242102056, -3094.196688437067, -2599.4184731743903, -15858.808560229369, 187500.0, -0.186, 0.9400000000000001, 0.216, 192.0, 0.0, 0.0, 0.0, 0.0, 0.0, 0.0, 0.0, 0.0, 0.0, 1.700945517375308E9, 0.0, 2023-11-25 15:51:57.375
83.0, 76460.57921178093, 82008.12572337696, -11691.996358871027, -9851.33020297649, -3626.078799495554, -2824.4334846059664, -15972.914215673713, 187500.0, -0.186, 0.9400000000000001, 0.216, 192.0, 0.0, 0.0, 0.0, 0.0, 0.0, 0.0, 0.0, 0.0, 0.0, 1.700945517380289E9, 0.0, 2023-11-25 15:51:57.380
84.0, 76470.25751713009, 82062.08283449207, -12351.618689491594, -10460.30348066133, -4415.676524123732, -3363.3116916789645, -16051.525300923027, 187500.0, -0.186, 0.9400000000000001, 0.216, 192.0, 0.0, 0.0, 0.0, 0.0, 0.0, 0.0, 0.0, 0.0, 0.0, 1.70094551738471E9, 0.0, 2023-11-25 15:51:57.384
85.0, 76489.85999701738, 82080.63478238999, -12319.320418753674, -10754.497141182082, -4587.2708663071235, -3834.5535200302033, -15983.218369867609, 187500.0, -0.186, 0.9400000000000001, 0.216, 192.0, 0.0, 0.0, 0.0, 0.0, 0.0, 0.0, 0.0, 0.0, 0.0, 1.700945517388303E9, 0.0, 2023-11-25 15:51:57.388
86.0, 76491.96106099618, 82035.6630725459, -11186.377547547525, -9454.027945283407, -3160.62607295824, -2701.9235732464285, -15849.242013602498, 187500.0, -0.186, 0.9400000000000001, 0.216, 192.0, 0.0, 0.0, 0.0, 0.0, 0.0, 0.0, 0.0, 0.0, 0.0, 1.700945517392571E9, 0.0, 2023-11-25 15:51:57.392
87.0, 76463.73080774913, 82012.01492691219, -11586.00438666396, -9729.446140461701, -3500.7749200791027, -2744.6601086449755, -15964.375849291784, 187500.0, -0.186, 0.9400000000000001, 0.216, 192.0, 0.0, 0.0, 0.0, 0.0, 0.0, 0.0, 0.0, 0.0, 0.0, 1.700945517395311E9, 0.0, 2023-11-25 15:51:57.395
88.0, 76467.24003162862, 82061.94872402534, -12215.116586103033, -10301.13670839509, -4240.2376818940265, -3201.686227522639, -16036.393169926783, 187500.0, -0.186, 0.9400000000000001, 0.216, 192.0, 0.0, 0.0, 0.0, 0.0, 0.0, 0.0, 0.0, 0.0, 0.0, 1.700945517399303E9, 0.0, 2023-11-25 15:51:57.399
89.0, 76490.23997667313, 82096.54922444216, -12476.453182274483, -10857.516331376593, -4744.4036298279325, -3895.5067271598255, -16026.089015732887, 187500.0, -0.186, 0.9400000000000001, 0.216, 192.0, 0.0, 0.0, 0.0, 0.0, 0.0, 0.0, 0.0, 0.0, 0.0, 1.700945517403324E9, 0.0, 2023-11-25 15:51:57.403
90.0, 76506.93672978124, 82054.70675882182, -11279.941949837441, -9650.008040667539, -3327.9512319506684, -2889.2088400374464, -15837.574402996828, 187500.0, -0.188, 0.9440000000000001, 0.22, 192.0, 250.0, 32.0, 29.0, 128.0, 6.0, 224.0, 0.0, 0.0, 0.0, 1.700945517407362E9, 0.0, 2023-11-25 15:51:57.407
91.0, 76475.13019742134, 82018.11695314848, -11470.155295152104, -9640.933232418685, -3381.5954186434055, -2700.493061601289, -15944.259279282009, 187500.0, -0.188, 0.9440000000000001, 0.22, 192.0, 0.0, 0.0, 0.0, 0.0, 0.0, 0.0, 0.0, 0.0, 0.0, 1.700945517412366E9, 0.0, 2023-11-25 15:51:57.412
92.0, 76470.86101423038, 82052.49393612075, -12078.033337358635, -10194.317721643178, -4078.321645059782, -3103.13738621919, -16016.611876083838, 187500.0, -0.188, 0.9440000000000001, 0.22, 192.0, 0.0, 0.0, 0.0, 0.0, 0.0, 0.0, 0.0, 0.0, 0.0, 1.700945517416413E9, 0.0, 2023-11-25 15:51:57.416
93.0, 76483.48974984762, 82092.81648311812, -12565.502532184426, -10871.799096083534, -4799.679493865907, -3883.950875276432, -16057.202644014675, 187500.0, -0.188, 0.9440000000000001, 0.22, 192.0, 0.0, 0.0, 0.0, 0.0, 0.0, 0.0, 0.0, 0.0, 0.0, 1.700945517420367E9, 0.0, 2023-11-25 15:51:57.420
94.0, 76492.94453775222, 82053.43270938787, -11446.730666962942, -9849.497359931154, -3541.36568800994, -3088.4746418565087, -15856.036943916912, 187500.0, -0.188, 0.9440000000000001, 0.22, 192.0, 0.0, 0.0, 0.0, 0.0, 0.0, 0.0, 0.0, 0.0, 0.0, 1.700945517423407E9, 0.0, 2023-11-25 15:51:57.423
95.0, 76464.89309846082, 82011.52318853416, -11378.714308585442, -9519.138576881716, -3265.187533520166, -2638.645784693454, -15948.0143723505, 187500.0, -0.188, 0.9440000000000001, 0.22, 192.0, 0.0, 0.0, 0.0, 0.0, 0.0, 0.0, 0.0, 0.0, 0.0, 1.700945517427373E9, 0.0, 2023-11-25 15:51:57.427
96.0, 76455.97475242315, 82030.96920621028, -11976.712879742729, -10105.871868833527, -3950.5367220087915, -3023.7216381694843, -16013.54968709346, 187500.0, -0.188, 0.9440000000000001, 0.22, 192.0, 0.0, 0.0, 0.0, 0.0, 0.0, 0.0, 0.0, 0.0, 0.0, 1.700945517431423E9, 0.0, 2023-11-25 15:51:57.431
97.0, 76464.37900833834, 82075.94091605436, -12587.876628384189, -10814.936258189233, -4773.974987742304, -3784.597371172592, -16078.32504252494, 187500.0, -0.188, 0.9440000000000001, 0.22, 192.0, 0.0, 0.0, 0.0, 0.0, 0.0, 0.0, 0.0, 0.0, 0.0, 1.70094551743547E9, 0.0, 2023-11-25 15:51:57.435
98.0, 76477.41007535579, 82047.33068315157, -11663.520236434966, -10102.027368787214, -3816.7391796993234, -3301.486766515585, -15884.602473330793, 187500.0, -0.188, 0.9440000000000001, 0.22, 192.0, 0.0, 0.0, 0.0, 0.0, 0.0, 0.0, 0.0, 0.0, 0.0, 1.700945517439443E9, 0.0, 2023-11-25 15:51:57.439
99.0, 76478.19238641171, 82027.34822360853, -11271.358879966603, -9412.274886640893, -3152.2441687875, -2574.3398158955356, -15915.961970801589, 187500.0, -0.182, 0.9420000000000001, 0.222, 192.0, 250.0, 80.0, 29.0, 112.0, 6.0, 240.0, 0.0, 0.0, 0.0, 1.700945517444536E9, 0.0, 2023-11-25 15:51:57.444
100.0, 76463.55199379349, 82040.20047667033, -11865.73646852213, -10000.21517279329, -3814.9286883984437, -2936.05809641577, -15984.961805935123, 187500.0, -0.182, 0.9420000000000001, 0.222, 192.0, 0.0, 0.0, 0.0, 0.0, 0.0, 0.0, 0.0, 0.0, 0.0, 1.700945517448808E9, 0.0, 2023-11-25 15:51:57.448
101.0, 76463.03790367102, 82082.89230857996, -12557.344145458239, -10719.091977964876, -4696.705007160307, -3667.0048435932213, -16082.214246060163, 187500.0, -0.182, 0.9420000000000001, 0.222, 192.0, 0.0, 0.0, 0.0, 0.0, 0.0, 0.0, 0.0, 0.0, 0.0, 1.700945517451904E9, 0.0, 2023-11-25 15:51:57.451
102.0, 76487.31189814948, 82074.1751282424, -11907.623637631374, -10370.829447606737, -4115.157319922128, -3534.3025367620635, -15917.280723724452, 187500.0, -0.182, 0.9420000000000001, 0.222, 192.0, 0.0, 0.0, 0.0, 0.0, 0.0, 0.0, 0.0, 0.0, 0.0, 1.700945517455513E9, 0.0, 2023-11-25 15:51:57.455
103.0, 76474.32553462095, 82025.26951137418, -11208.528126302735, -9370.052441364818, -3102.332723418799, -2571.0764612050607, -15907.334197441842, 187500.0, -0.182, 0.9420000000000001, 0.222, 192.0, 0.0, 0.0, 0.0, 0.0, 0.0, 0.0, 0.0, 0.0, 0.0, 1.70094551745949E9, 0.0, 2023-11-25 15:51:57.459
104.0, 76461.87561295934, 82034.0090434562, -11775.56953138942, -9935.216299917258, -3717.4080273399386, -2884.1349940460914, -15986.146448391253, 187500.0, -0.182, 0.9420000000000001, 0.222, 192.0, 0.0, 0.0, 0.0, 0.0, 0.0, 0.0, 0.0, 0.0, 0.0, 1.700945517463499E9, 0.0, 2023-11-25 15:51:57.463
105.0, 76463.77551123804, 82082.40057020195, -12462.684507690014, -10596.425604394151, -4556.738383381175, -3514.051856285555, -16079.554388469982, 187500.0, -0.182, 0.9420000000000001, 0.222, 192.0, 0.0, 0.0, 0.0, 0.0, 0.0, 0.0, 0.0, 0.0, 0.0, 1.700945517467562E9, 0.0, 2023-11-25 15:51:57.467
106.0, 76483.44504635871, 82082.2217562463, -12139.992372988747, -10592.826973536847, -4378.460869605645, -3716.5139575617263, -15950.562471218405, 187500.0, -0.182, 0.9420000000000001, 0.222, 192.0, 0.0, 0.0, 0.0, 0.0, 0.0, 0.0, 0.0, 0.0, 0.0, 1.700945517472615E9, 0.0, 2023-11-25 15:51:57.472
107.0, 76486.01549697107, 82033.29378763364, -11170.932492128908, -9373.47225826648, -3089.592229079274, -2608.2474122342364, -15868.33040336733, 187500.0, -0.182, 0.9420000000000001, 0.222, 192.0, 0.0, 0.0, 0.0, 0.0, 0.0, 0.0, 0.0, 0.0, 0.0, 1.700945517476528E9, 0.0, 2023-11-25 15:51:57.476
108.0, 76461.54033679252, 82017.9604909373, -11692.912780393694, -9849.877339586896, -3615.215851690275, -2837.1516272010363, -15985.54295129096, 187500.0, -0.182, 0.9420000000000001, 0.222, 192.0, 0.0, 0.0, 0.0, 0.0, 0.0, 0.0, 0.0, 0.0, 0.0, 1.700945517479541E9, 0.0, 2023-11-25 15:51:57.479
109.0, 76454.56659252246, 82054.50559312172, -12353.652698237027, -10449.574643322783, -4397.4375006482005, -3361.277682933531, -16066.679783663725, 187500.0, -0.184, 0.9420000000000001, 0.222, 192.0, 250.0, 64.0, 29.0, 112.0, 6.0, 240.0, 0.0, 0.0, 0.0, 1.700945517483623E9, 0.0, 2023-11-25 15:51:57.483
110.0, 76475.66663928826, 82081.39474170146, -12356.87134943859, -10769.673975667236, -4607.968581672738, -3850.2891481267393, -16000.809192753935, 187500.0, -0.184, 0.9420000000000001, 0.222, 192.0, 0.0, 0.0, 0.0, 0.0, 0.0, 0.0, 0.0, 0.0, 0.0, 1.700945517487669E9, 0.0, 2023-11-25 15:51:57.487
111.0, 76487.31189814948, 82048.5153256077, -11216.12771941754, -9478.614864184245, -3182.910762180181, -2732.478407916833, -15865.715249266059, 187500.0, -0.184, 0.9420000000000001, 0.222, 192.0, 0.0, 0.0, 0.0, 0.0, 0.0, 0.0, 0.0, 0.0, 0.0, 1.700945517493727E9, 0.0, 2023-11-25 15:51:57.493
112.0, 76459.43927281372, 82026.00711894121, -11596.330892602313, -9744.354754013391, -3502.227783468698, -2773.0021206143047, -15980.044422154955, 187500.0, -0.184, 0.9420000000000001, 0.222, 192.0, 0.0, 0.0, 0.0, 0.0, 0.0, 0.0, 0.0, 0.0, 0.0, 1.700945517496612E9, 0.0, 2023-11-25 15:51:57.496
113.0, 76459.28281060253, 82064.31800893761, -12221.643295483982, -10310.122109666123, -4231.162873645171, -3222.49570161053, -16045.780902598013, 187500.0, -0.184, 0.9420000000000001, 0.222, 192.0, 0.0, 0.0, 0.0, 0.0, 0.0, 0.0, 0.0, 0.0, 0.0, 1.700945517500631E9, 0.0, 2023-11-25 15:51:57.500
114.0, 76475.93486022174, 82095.94572734187, -12505.264580877374, -10851.459008629205, -4741.1179233930025, -3900.1558900065293, -16037.26488796054, 187500.0, -0.184, 0.9420000000000001, 0.222, 192.0, 0.0, 0.0, 0.0, 0.0, 0.0, 0.0, 0.0, 0.0, 0.0, 1.700945517504665E9, 0.0, 2023-11-25 15:51:57.504
115.0, 76483.24388065861, 82049.18587794136, -11322.76789221381, -9644.688325487175, -3342.345755379886, -2902.0387413547924, -15861.021382930445, 187500.0, -0.184, 0.9420000000000001, 0.222, 192.0, 0.0, 0.0, 0.0, 0.0, 0.0, 0.0, 0.0, 0.0, 0.0, 1.700945517507689E9, 0.0, 2023-11-25 15:51:57.507
116.0, 76459.46162455817, 82020.59799678302, -11498.989045499451, -9626.315191544914, -3382.6235988883495, -2704.9634104923502, -15971.68486972867, 187500.0, -0.184, 0.9420000000000001, 0.222, 192.0, 0.0, 0.0, 0.0, 0.0, 0.0, 0.0, 0.0, 0.0, 0.0, 1.700945517511739E9, 0.0, 2023-11-25 15:51:57.511
117.0, 76449.8950779313, 82038.18881966935, -12100.63095100295, -10184.974692460859, -4074.3653862911924, -3102.2209646965225, -16037.354294938363, 187500.0, -0.184, 0.9420000000000001, 0.222, 192.0, 0.0, 0.0, 0.0, 0.0, 0.0, 0.0, 0.0, 0.0, 0.0, 1.700945517515685E9, 0.0, 2023-11-25 15:51:57.515
118.0, 76473.02913344254, 82092.32474474011, -12601.935875646577, -10868.20046522623, -4805.1556712574575, -3883.257971198317, -16081.923673382244, 187500.0, -0.184, 0.9420000000000001, 0.222, 192.0, 0.0, 0.0, 0.0, 0.0, 0.0, 0.0, 0.0, 0.0, 0.0, 1.700945517519667E9, 0.0, 2023-11-25 15:51:57.519
119.0, 76489.30120340601, 82052.04690123165, -11493.602275085721, -9874.777182910108, -3572.4346128028174, -3116.7719503369276, -15879.95331048409, 187500.0, -0.186, 0.9380000000000001, 0.226, 192.0, 250.0, 48.0, 29.0, 80.0, 7.0, 16.0, 0.0, 0.0, 0.0, 1.700945517523816E9, 0.0, 2023-11-25 15:51:57.523
120.0, 76474.77256951005, 82022.58730203955, -11388.459669167956, -9506.778062197931, -3251.7317833580714, -2629.973307844795, -15959.68198295617, 187500.0, -0.186, 0.9380000000000001, 0.226, 192.0, 0.0, 0.0, 0.0, 0.0, 0.0, 0.0, 0.0, 0.0, 0.0, 1.700945517527669E9, 0.0, 2023-11-25 15:51:57.527
121.0, 76463.10495890438, 82050.32581690857, -11980.266807111122, -10098.831069330105, -3929.5707857097136, -3007.7401408839396, -16011.873306259313, 187500.0, -0.186, 0.9380000000000001, 0.226, 192.0, 0.0, 0.0, 0.0, 0.0, 0.0, 0.0, 0.0, 0.0, 0.0, 1.700945517532689E9, 0.0, 2023-11-25 15:51:57.532
122.0, 76471.55391830849, 82095.43163721939, -12607.769680949412, -10828.056732184497, -4767.604740572541, -3785.1338130395193, -16078.9955948586, 187500.0, -0.186, 0.9380000000000001, 0.226, 192.0, 0.0, 0.0, 0.0, 0.0, 0.0, 0.0, 0.0, 0.0, 0.0, 1.700945517536693E9, 0.0, 2023-11-25 15:51:57.536
123.0, 76487.1554359383, 82067.73782583927, -11706.770861955985, -10134.81737790315, -3837.4145433204826, -3336.221377399132, -15892.962025757079, 187500.0, -0.186, 0.9380000000000001, 0.226, 192.0, 0.0, 0.0, 0.0, 0.0, 0.0, 0.0, 0.0, 0.0, 0.0, 1.700945517539751E9, 0.0, 2023-11-25 15:51:57.539
124.0, 76476.4489503442, 82034.99252021224, -11291.006063342818, -9419.181575677583, -3148.8690553747483, -2593.8528888050187, -15934.044532065933, 187500.0, -0.186, 0.9380000000000001, 0.226, 192.0, 0.0, 0.0, 0.0, 0.0, 0.0, 0.0, 0.0, 0.0, 0.0, 1.700945517543792E9, 0.0, 2023-11-25 15:51:57.543
125.0, 76461.71915074816, 82042.05567146011, -11878.58872158393, -10000.349283260022, -3803.9539818708877, -2942.9647854524596, -16007.335902134884, 187500.0, -0.186, 0.9380000000000001, 0.226, 192.0, 0.0, 0.0, 0.0, 0.0, 0.0, 0.0, 0.0, 0.0, 0.0, 1.700945517547796E9, 0.0, 2023-11-25 15:51:57.547
126.0, 76475.93486022174, 82105.06523907963, -12561.8144943493, -10694.25918987503, -4665.859599811984, -3641.05446828061, -16094.261836321573, 187500.0, -0.186, 0.9380000000000001, 0.226, 192.0, 0.0, 0.0, 0.0, 0.0, 0.0, 0.0, 0.0, 0.0, 0.0, 1.700945517551785E9, 0.0, 2023-11-25 15:51:57.551
127.0, 76500.36531691138, 82099.70082041036, -11948.102646839936, -10390.901314127603, -4131.921128263608, -3561.951644653278, -15930.91528784219, 187500.0, -0.186, 0.9380000000000001, 0.226, 192.0, 0.0, 0.0, 0.0, 0.0, 0.0, 0.0, 0.0, 0.0, 0.0, 1.700945517555847E9, 0.0, 2023-11-25 15:51:57.555
128.0, 76483.556805081, 82046.28015116217, -11207.835222224621, -9350.226444032962, -3075.376519605699, -2569.93652223784, -15907.110679997288, 187500.0, -0.186, 0.9380000000000001, 0.226, 192.0, 0.0, 0.0, 0.0, 0.0, 0.0, 0.0, 0.0, 0.0, 0.0, 1.700945517559759E9, 0.0, 2023-11-25 15:51:57.559
129.0, 76463.10495890438, 82041.69804354884, -11783.437345437687, -9914.183308384814, -3692.2176113388077, -2882.0115783228375, -16002.530277076994, 187500.0, -0.19, 0.9420000000000001, 0.224, 192.0, 250.0, 16.0, 29.0, 112.0, 7.0, 0.0, 0.0, 0.0, 0.0, 1.700945517564804E9, 0.0, 2023-11-25 15:51:57.564
130.0, 76477.20890965569, 82097.46564596482, -12469.300624048785, -10572.084554682322, -4524.4624643877105, -3505.155861992343, -16083.957682127677, 187500.0, -0.19, 0.9420000000000001, 0.224, 192.0, 0.0, 0.0, 0.0, 0.0, 0.0, 0.0, 0.0, 0.0, 0.0, 1.70094551756783E9, 0.0, 2023-11-25 15:51:57.567
131.0, 76491.804598785, 82093.9787738298, -12185.74639388876, -10618.397369193717, -4401.058483249961, -3753.304928935162, -15972.869512184801, 187500.0, -0.19, 0.9420000000000001, 0.224, 192.0, 0.0, 0.0, 0.0, 0.0, 0.0, 0.0, 0.0, 0.0, 0.0, 1.700945517572027E9, 0.0, 2023-11-25 15:51:57.572
132.0, 76486.7084010492, 82044.2684941612, -11189.886771427009, -9386.682139239567, -3090.9333337465923, -2631.9626131013174, -15888.223455932553, 187500.0, -0.19, 0.9420000000000001, 0.224, 192.0, 0.0, 0.0, 0.0, 0.0, 0.0, 0.0, 0.0, 0.0, 0.0, 1.700945517575816E9, 0.0, 2023-11-25 15:51:57.575
133.0, 76460.71332224767, 82031.93033122187, -11688.64359720273, -9834.052304512537, -3585.8233077315463, -2818.2420513918464, -15990.952073449145, 187500.0, -0.19, 0.9420000000000001, 0.224, 192.0, 0.0, 0.0, 0.0, 0.0, 0.0, 0.0, 0.0, 0.0, 0.0, 1.700945517579852E9, 0.0, 2023-11-25 15:51:57.579
134.0, 76460.62391526984, 82075.15860499843, -12345.270794066286, -10429.480425057463, -4361.71941300862, -3335.908452976758, -16067.70796390867, 187500.0, -0.19, 0.9420000000000001, 0.224, 192.0, 0.0, 0.0, 0.0, 0.0, 0.0, 0.0, 0.0, 0.0, 0.0, 1.700945517583891E9, 0.0, 2023-11-25 15:51:57.583
135.0, 76484.67439230376, 82099.05261982114, -12382.441745095462, -10760.196836018185, -4601.777148458618, -3839.560310788192, -16012.655617315248, 187500.0, -0.19, 0.9420000000000001, 0.224, 192.0, 0.0, 0.0, 0.0, 0.0, 0.0, 0.0, 0.0, 0.0, 0.0, 1.700945517587828E9, 0.0, 2023-11-25 15:51:57.587
136.0, 76493.57038659697, 82054.5726483551, -11230.723408546855, -9472.892817603686, -3174.7747271984495, -2731.1149515050593, -15873.67247029215, 187500.0, -0.19, 0.9420000000000001, 0.224, 192.0, 0.0, 0.0, 0.0, 0.0, 0.0, 0.0, 0.0, 0.0, 0.0, 1.700945517591889E9, 0.0, 2023-11-25 15:51:57.591
137.0, 76467.30708686198, 82027.75055500872, -11597.001444935971, -9716.25861123307, -3470.085974941966, -2752.1702947819585, -15992.270826372007, 187500.0, -0.19, 0.9420000000000001, 0.224, 192.0, 0.0, 0.0, 0.0, 0.0, 0.0, 0.0, 0.0, 0.0, 0.0, 1.700945517595129E9, 0.0, 2023-11-25 15:51:57.595
138.0, 76465.78716823903, 82068.20721247283, -12221.352722806065, -10286.071632632213, -4194.908344138664, -3203.9214019681694, -16057.649678903781, 187500.0, -0.19, 0.9420000000000001, 0.224, 192.0, 0.0, 0.0, 0.0, 0.0, 0.0, 0.0, 0.0, 0.0, 0.0, 1.700945517599878E9, 0.0, 2023-11-25 15:51:57.599
139.0, 76481.76866552456, 82100.39372448847, -12537.160520215097, -10868.647500115336, -4747.801094985139, -3916.5620704367248, -16058.253176004075, 187500.0, -0.19, 0.9440000000000001, 0.22, 192.0, 250.0, 16.0, 29.0, 128.0, 6.0, 224.0, 0.0, 0.0, 0.0, 1.700945517603841E9, 0.0, 2023-11-25 15:51:57.603
140.0, 76490.66465981778, 82048.89530526345, -11344.940822713474, -9664.447267585667, -3345.89968274828, -2923.1387881206024, -15876.086458693322, 187500.0, -0.19, 0.9440000000000001, 0.22, 192.0, 0.0, 0.0, 0.0, 0.0, 0.0, 0.0, 0.0, 0.0, 0.0, 1.700945517607868E9, 0.0, 2023-11-25 15:51:57.607
141.0, 76466.65888627278, 82020.9109212054, -11489.489554105945, -9594.843935351842, -3343.8656740028473, -2684.064529426638, -15983.73245999008, 187500.0, -0.19, 0.9440000000000001, 0.22, 192.0, 0.0, 0.0, 0.0, 0.0, 0.0, 0.0, 0.0, 0.0, 0.0, 1.700945517611881E9, 0.0, 2023-11-25 15:51:57.611
142.0, 76461.60739202588, 82061.74755832524, -12088.270436319166, -10159.672517737452, -4037.485007939936, -3082.797298764861, -16039.298896705974, 187500.0, -0.19, 0.9440000000000001, 0.22, 192.0, 0.0, 0.0, 0.0, 0.0, 0.0, 0.0, 0.0, 0.0, 0.0, 1.700945517615987E9, 0.0, 2023-11-25 15:51:57.615
143.0, 76480.96400272417, 82107.9262623699, -12606.249762326452, -10854.722363319679, -4785.888467536983, -3875.390157150049, -16082.437763504717, 187500.0, -0.19, 0.9440000000000001, 0.22, 192.0, 0.0, 0.0, 0.0, 0.0, 0.0, 0.0, 0.0, 0.0, 0.0, 1.700945517619951E9, 0.0, 2023-11-25 15:51:57.619
144.0, 76498.93480526624, 82069.92829679589, -11518.703284109031, -9907.656599003863, -3589.511345566672, -3148.8243518858376, -15886.792944287414, 187500.0, -0.19, 0.9440000000000001, 0.22, 192.0, 0.0, 0.0, 0.0, 0.0, 0.0, 0.0, 0.0, 0.0, 0.0, 1.700945517622975E9, 0.0, 2023-11-25 15:51:57.622
145.0, 76474.97373521015, 82027.25881663071, -11377.976701018419, -9493.54582948039, -3219.165291686689, -2626.2182147763033, -15961.805398679424, 187500.0, -0.19, 0.9440000000000001, 0.22, 192.0, 0.0, 0.0, 0.0, 0.0, 0.0, 0.0, 0.0, 0.0, 0.0, 1.700945517626977E9, 0.0, 2023-11-25 15:51:57.626
146.0, 76454.38777856682, 82033.83022950057, -11971.013184906626, -10052.026516440692, -3885.873125299588, -2982.0356347603365, -16016.947152250666, 187500.0, -0.19, 0.9440000000000001, 0.22, 192.0, 0.0, 0.0, 0.0, 0.0, 0.0, 0.0, 0.0, 0.0, 0.0, 1.700945517632E9, 0.0, 2023-11-25 15:51:57.632
147.0, 76477.52183407806, 82100.66194542193, -12613.223506596507, -10782.727394429136, -4738.614528014008, -3755.2271789583183, -16086.08109785093, 187500.0, -0.19, 0.9440000000000001, 0.22, 192.0, 0.0, 0.0, 0.0, 0.0, 0.0, 0.0, 0.0, 0.0, 0.0, 1.700945517636044E9, 0.0, 2023-11-25 15:51:57.636
