%OpenBCI Raw EXG Data
%Number of channels = 8
%Sample Rate = 250 Hz
%Board = OpenBCI_GUI$BoardCytonSerial
Sample Index, EXG Channel 0, EXG Channel 1, EXG Channel 2, EXG Channel 3, EXG Channel 4, EXG Channel 5, EXG Channel 6, EXG Channel 7, Accel Channel 0, Accel Channel 1, Accel Channel 2, Other, Other, Other, Other, Other, Other, Other, Analog Channel 0, Analog Channel 1, Analog Channel 2, Timestamp, Other, Timestamp (Formatted)
160.0, 71296.25335887115, 81670.6814373352, -18507.222057249794, -19630.061939962143, -10318.727531281416, -4416.838814835407, -19718.910124171987, 187500.0, 0.0, 0.0, 0.0, 192.0, 0.0, 0.0, 0.0, 0.0, 0.0, 0.0, 0.0, 0.0, 0.0, 1.700944727495345E9, 0.0, 2023-11-25 15:38:47.495
161.0, 71324.4836121182, 81640.10425092033, -17881.44026773456, -19198.1815335967, -9675.086697946394, -4161.045451288874, -19632.967666741333, 187500.0, 0.0, 0.0, 0.0, 192.0, 0.0, 0.0, 0.0, 0.0, 0.0, 0.0, 0.0, 0.0, 0.0, 1.700944727495371E9, 0.0, 2023-11-25 15:38:47.495
162.0, 71334.18426921181, 81614.60091049683, -17707.968379016922, -19102.001977205513, -9101.362121267572, -4105.948401206541, -19672.396143960494, 187500.0, 0.0, 0.0, 0.0, 192.0, 0.0, 0.0, 0.0, 0.0, 0.0, 0.0, 0.0, 0.0, 0.0, 1.700944727495385E9, 0.0, 2023-11-25 15:38:47.495
0.0, 0.0, 0.0, 0.0, 0.0, 0.0, 0.0, 0.0, 0.0, -0.068, 0.976, 0.022, 192.0, 253.0, 224.0, 30.0, 128.0, 0.0, 176.0, 0.0, 0.0, 0.0, 1.700944727591597E9, 0.0, 2023-11-25 15:38:47.591
1.0, 72944.7168641945, 81113.78772423121, -18085.48934286706, -19478.94179569981, -8913.674523076359, -5563.282139692562, -19965.42751376957, 187500.0, -0.068, 0.976, 0.022, 192.0, 0.0, 0.0, 0.0, 0.0, 0.0, 0.0, 0.0, 0.0, 0.0, 1.700944727608717E9, 0.0, 2023-11-25 15:38:47.608
2.0, 72923.66152091761, 81081.64591570449, -17633.447663002928, -18950.188928865067, -8171.417793204522, -5196.713530625526, -19916.678359112546, 187500.0, -0.068, 0.976, 0.022, 192.0, 0.0, 0.0, 0.0, 0.0, 0.0, 0.0, 0.0, 0.0, 0.0, 1.700944727611801E9, 0.0, 2023-11-25 15:38:47.611
3.0, 72922.49923020593, 81058.3330462376, -17678.955814713932, -19077.48211353804, -8038.849596840096, -5285.42760436864, -19952.66466768559, 187500.0, -0.068, 0.976, 0.022, 192.0, 0.0, 0.0, 0.0, 0.0, 0.0, 0.0, 0.0, 0.0, 0.0, 1.700944727614777E9, 0.0, 2023-11-25 15:38:47.614
4.0, 72918.94530283753, 81071.92290686643, -17938.54897481787, -19351.000410437635, -8448.311203516865, -5414.955963487144, -19946.674400171567, 187500.0, -0.068, 0.976, 0.022, 192.0, 0.0, 0.0, 0.0, 0.0, 0.0, 0.0, 0.0, 0.0, 0.0, 1.700944727617718E9, 0.0, 2023-11-25 15:38:47.617
5.0, 72933.38452975565, 81099.28144207972, -18119.39693920576, -19505.518019857172, -8924.470415648273, -5567.8642473059, -19969.607289982712, 187500.0, -0.068, 0.976, 0.022, 192.0, 0.0, 0.0, 0.0, 0.0, 0.0, 0.0, 0.0, 0.0, 0.0, 1.700944727621673E9, 0.0, 2023-11-25 15:38:47.621
6.0, 72933.47393673348, 81091.25716582027, -17703.967416759424, -19047.463720734566, -8323.052027589325, -5274.698767030092, -19916.56660039027, 187500.0, -0.068, 0.976, 0.022, 192.0, 0.0, 0.0, 0.0, 0.0, 0.0, 0.0, 0.0, 0.0, 0.0, 1.700944727626745E9, 0.0, 2023-11-25 15:38:47.626
7.0, 72932.19988729953, 81064.27861026271, -17642.58952648515, -19015.791298841395, -7994.771956774231, -5247.809618450358, -19951.368266507183, 187500.0, -0.068, 0.976, 0.022, 192.0, 0.0, 0.0, 0.0, 0.0, 0.0, 0.0, 0.0, 0.0, 0.0, 1.70094472762968E9, 0.0, 2023-11-25 15:38:47.629
8.0, 72919.30293074882, 81059.11535729353, -17897.466468509017, -19319.39504377783, -8363.016946675414, -5410.485614596083, -19961.314792789795, 187500.0, -0.054, 0.974, 0.064, 192.0, 254.0, 80.0, 30.0, 112.0, 2.0, 0.0, 0.0, 0.0, 0.0, 1.700944727633714E9, 0.0, 2023-11-25 15:38:47.633
9.0, 72935.99968385694, 81092.15123559847, -18140.25111678256, -19506.14386870192, -8896.396624612407, -5559.14706696833, -19985.5664355238, 187500.0, -0.054, 0.974, 0.064, 192.0, 0.0, 0.0, 0.0, 0.0, 0.0, 0.0, 0.0, 0.0, 0.0, 1.700944727638748E9, 0.0, 2023-11-25 15:38:47.638
10.0, 72944.98508512796, 81100.55549151367, -17791.832124213233, -19176.142713563768, -8502.692997776629, -5385.205791617131, -19929.620019152168, 187500.0, -0.054, 0.974, 0.064, 192.0, 0.0, 0.0, 0.0, 0.0, 0.0, 0.0, 0.0, 0.0, 0.0, 1.700944727642699E9, 0.0, 2023-11-25 15:38:47.642
11.0, 72935.59735245674, 81075.49918597928, -17606.603217912107, -18958.771998735905, -7971.839066963085, -5221.881594882202, -19955.279821786862, 187500.0, -0.054, 0.974, 0.064, 192.0, 0.0, 0.0, 0.0, 0.0, 0.0, 0.0, 0.0, 0.0, 0.0, 1.700944727647181E9, 0.0, 2023-11-25 15:38:47.647
12.0, 72928.86947737569, 81065.82088063013, -17850.05841851931, -19295.791601633027, -8293.905352819605, -5422.354390901851, -19970.36724929419, 187500.0, -0.054, 0.974, 0.064, 192.0, 0.0, 0.0, 0.0, 0.0, 0.0, 0.0, 0.0, 0.0, 0.0, 1.70094472764993E9, 0.0, 2023-11-25 15:38:47.649
13.0, 72943.10753859371, 81093.02295363223, -18123.688474141178, -19490.028260949643, -8832.537690703593, -5541.958575482199, -19987.44398205805, 187500.0, -0.054, 0.974, 0.064, 192.0, 0.0, 0.0, 0.0, 0.0, 0.0, 0.0, 0.0, 0.0, 0.0, 1.700944727653757E9, 0.0, 2023-11-25 15:38:47.653
14.0, 72945.38741652816, 81091.36892454255, -17879.294500266853, -19272.925767055247, -8654.103714716877, -5462.855751854868, -19938.94069659003, 187500.0, -0.054, 0.974, 0.064, 192.0, 0.0, 0.0, 0.0, 0.0, 0.0, 0.0, 0.0, 0.0, 0.0, 1.70094472765768E9, 0.0, 2023-11-25 15:38:47.657
15.0, 72936.55847746831, 81068.68190392041, -17580.29521468821, -18891.44854443652, -7964.731212226297, -5178.094527494255, -19939.90182160161, 187500.0, -0.054, 0.974, 0.064, 192.0, 0.0, 0.0, 0.0, 0.0, 0.0, 0.0, 0.0, 0.0, 0.0, 1.700944727661699E9, 0.0, 2023-11-25 15:38:47.661
16.0, 72929.92000936509, 81057.72954913731, -17801.577484795747, -19243.533223096518, -8220.658686239563, -5404.338884870874, -19963.527615490868, 187500.0, -0.054, 0.974, 0.064, 192.0, 0.0, 0.0, 0.0, 0.0, 0.0, 0.0, 0.0, 0.0, 0.0, 1.700944727665782E9, 0.0, 2023-11-25 15:38:47.665
17.0, 72938.74894842494, 81091.86066292056, -18090.406726647227, -19449.303382552076, -8742.571919270984, -5505.659342486781, -19987.600444269236, 187500.0, -0.056, 0.982, 0.07200000000000001, 192.0, 254.0, 64.0, 30.0, 176.0, 2.0, 64.0, 0.0, 0.0, 0.0, 1.700944727670792E9, 0.0, 2023-11-25 15:38:47.670
18.0, 72948.60606772972, 81102.83536944812, -17964.924033275132, -19370.44642811375, -8788.862382037923, -5534.4260376007605, -19960.107798589208, 187500.0, -0.056, 0.982, 0.07200000000000001, 192.0, 0.0, 0.0, 0.0, 0.0, 0.0, 0.0, 0.0, 0.0, 0.0, 1.70094472767483E9, 0.0, 2023-11-25 15:38:47.674
19.0, 72936.49142223495, 81078.85194764758, -17572.136827962022, -18871.510788382388, -7994.727253285319, -5157.262701661909, -19938.13603378964, 187500.0, -0.056, 0.982, 0.07200000000000001, 192.0, 0.0, 0.0, 0.0, 0.0, 0.0, 0.0, 0.0, 0.0, 0.0, 1.700944727677829E9, 0.0, 2023-11-25 15:38:47.677
20.0, 72932.35634951072, 81068.68190392041, -17756.60577495167, -19195.09699286187, -8153.357583684634, -5373.448774033639, -19968.08737135975, 187500.0, -0.056, 0.982, 0.07200000000000001, 192.0, 0.0, 0.0, 0.0, 0.0, 0.0, 0.0, 0.0, 0.0, 0.0, 1.700944727681894E9, 0.0, 2023-11-25 15:38:47.681
21.0, 72937.05021584634, 81097.26978507874, -18039.601211500314, -19419.910838593347, -8639.776246521025, -5474.523362460538, -19981.72193547749, 187500.0, -0.056, 0.982, 0.07200000000000001, 192.0, 0.0, 0.0, 0.0, 0.0, 0.0, 0.0, 0.0, 0.0, 0.0, 1.700944727685802E9, 0.0, 2023-11-25 15:38:47.685
22.0, 72942.90637289362, 81102.43303804792, -18049.279516849463, -19459.60753674597, -8891.233371643231, -5583.666930635802, -19976.022240641385, 187500.0, -0.056, 0.982, 0.07200000000000001, 192.0, 0.0, 0.0, 0.0, 0.0, 0.0, 0.0, 0.0, 0.0, 0.0, 1.700944727690073E9, 0.0, 2023-11-25 15:38:47.690
23.0, 72925.33790175174, 81074.73922666779, -17613.107575548598, -18920.84108839525, -8096.204173112414, -5194.143080013166, -19939.14186229013, 187500.0, -0.056, 0.982, 0.07200000000000001, 192.0, 0.0, 0.0, 0.0, 0.0, 0.0, 0.0, 0.0, 0.0, 0.0, 1.700944727696176E9, 0.0, 2023-11-25 15:38:47.696
24.0, 72921.02401507187, 81055.27085724722, -17727.928486815512, -19143.531518403473, -8101.702702248419, -5343.318622507885, -19969.294365560338, 187500.0, -0.056, 0.982, 0.07200000000000001, 192.0, 0.0, 0.0, 0.0, 0.0, 0.0, 0.0, 0.0, 0.0, 0.0, 1.700944727698869E9, 0.0, 2023-11-25 15:38:47.698
25.0, 72929.5623814538, 81079.29898253668, -17998.56340868037, -19387.389050410875, -8544.110780252311, -5447.276585969518, -19967.774446937376, 187500.0, -0.056, 0.982, 0.07200000000000001, 192.0, 0.0, 0.0, 0.0, 0.0, 0.0, 0.0, 0.0, 0.0, 0.0, 1.700944727702897E9, 0.0, 2023-11-25 15:38:47.702
26.0, 72954.14930035463, 81108.2444916063, -18105.807078576934, -19500.019490721166, -8937.43442743235, -5593.568753429503, -19973.496493517934, 187500.0, -0.056, 0.982, 0.07200000000000001, 192.0, 0.0, 0.0, 0.0, 0.0, 0.0, 0.0, 0.0, 0.0, 0.0, 1.700944727705848E9, 0.0, 2023-11-25 15:38:47.705
27.0, 72940.715901937, 81083.94814538339, -17658.503968537327, -18967.220958140013, -8210.332180301211, -5228.385952518696, -19924.456766182993, 187500.0, -0.048, 0.986, 0.088, 192.0, 254.0, 128.0, 30.0, 208.0, 2.0, 192.0, 0.0, 0.0, 0.0, 1.70094472770986E9, 0.0, 2023-11-25 15:38:47.709
28.0, 72938.27956179138, 81063.47394746232, -17689.93052124149, -19064.38399128723, -8044.214015509369, -5295.66470332917, -19961.694772445535, 187500.0, -0.048, 0.986, 0.088, 192.0, 0.0, 0.0, 0.0, 0.0, 0.0, 0.0, 0.0, 0.0, 0.0, 1.7009447277139E9, 0.0, 2023-11-25 15:38:47.713
29.0, 72921.73927089444, 81062.98220908431, -17948.964887734044, -19325.83234618096, -8436.464778955553, -5418.59929783336, -19969.80845568281, 187500.0, -0.048, 0.986, 0.088, 192.0, 0.0, 0.0, 0.0, 0.0, 0.0, 0.0, 0.0, 0.0, 0.0, 1.700944727717986E9, 0.0, 2023-11-25 15:38:47.717
30.0, 72941.47586124849, 81092.41945653195, -18150.085884342898, -19491.704641783792, -8932.584098885549, -5574.033328775565, -20001.212656642518, 187500.0, -0.048, 0.986, 0.088, 192.0, 0.0, 0.0, 0.0, 0.0, 0.0, 0.0, 0.0, 0.0, 0.0, 1.700944727721964E9, 0.0, 2023-11-25 15:38:47.721
31.0, 72955.60216374423, 81092.37475304303, -17739.21611776544, -19070.843645434816, -8377.344414871266, -5311.62384887026, -19938.404254723104, 187500.0, -0.048, 0.986, 0.088, 192.0, 0.0, 0.0, 0.0, 0.0, 0.0, 0.0, 0.0, 0.0, 0.0, 1.70094472772613E9, 0.0, 2023-11-25 15:38:47.726
32.0, 72948.76252994091, 81072.30288652217, -17642.83539567416, -18983.47067635902, -7990.77099451673, -5237.013725878444, -19963.460560257503, 187500.0, -0.048, 0.986, 0.088, 192.0, 0.0, 0.0, 0.0, 0.0, 0.0, 0.0, 0.0, 0.0, 0.0, 1.700944727734737E9, 0.0, 2023-11-25 15:38:47.734
33.0, 72934.2115443005, 81076.75088366878, -17896.840619664268, -19303.949988359214, -8352.489275036964, -5409.569193073416, -19971.23896732795, 187500.0, -0.048, 0.986, 0.088, 192.0, 0.0, 0.0, 0.0, 0.0, 0.0, 0.0, 0.0, 0.0, 0.0, 1.700944727735094E9, 0.0, 2023-11-25 15:38:47.735
34.0, 72944.9180298946, 81103.08123863713, -18154.131550089307, -19492.08462143953, -8888.819383242057, -5549.424058130272, -20006.77824101189, 187500.0, -0.048, 0.986, 0.088, 192.0, 0.0, 0.0, 0.0, 0.0, 0.0, 0.0, 0.0, 0.0, 0.0, 1.700944727737957E9, 0.0, 2023-11-25 15:38:47.737
35.0, 72940.76060542591, 81093.87231992153, -17839.195470714032, -19189.866684659326, -8542.07677150688, -5395.398187088751, -19969.160255093608, 187500.0, -0.048, 0.986, 0.088, 192.0, 0.0, 0.0, 0.0, 0.0, 0.0, 0.0, 0.0, 0.0, 0.0, 1.700944727742046E9, 0.0, 2023-11-25 15:38:47.742
36.0, 72930.70232042103, 81066.62554343052, -17631.458357746407, -18925.154975075126, -7971.548494285166, -5192.421995690107, -19989.567397781302, 187500.0, -0.048, 0.986, 0.088, 192.0, 0.0, 0.0, 0.0, 0.0, 0.0, 0.0, 0.0, 0.0, 0.0, 1.700944727745952E9, 0.0, 2023-11-25 15:38:47.745
37.0, 72924.37677674017, 81065.06092131864, -17868.67742165058, -19273.596319388907, -8286.730442849452, -5405.501175582549, -19987.779258224877, 187500.0, -0.05, 0.988, 0.088, 192.0, 254.0, 112.0, 30.0, 224.0, 2.0, 192.0, 0.0, 0.0, 0.0, 1.700944727750035E9, 0.0, 2023-11-25 15:38:47.750
38.0, 72940.24651530344, 81101.65072699198, -18144.49794822907, -19477.444228821307, -8822.83703360999, -5524.837139229434, -20000.363290353216, 187500.0, -0.05, 0.988, 0.088, 192.0, 0.0, 0.0, 0.0, 0.0, 0.0, 0.0, 0.0, 0.0, 0.0, 1.700944727754033E9, 0.0, 2023-11-25 15:38:47.754
39.0, 72953.09876836523, 81109.58559627362, -17922.209849621042, -19297.959720845192, -8688.324235477952, -5473.696347915691, -19953.648144441624, 187500.0, -0.05, 0.988, 0.088, 192.0, 0.0, 0.0, 0.0, 0.0, 0.0, 0.0, 0.0, 0.0, 0.0, 1.700944727759061E9, 0.0, 2023-11-25 15:38:47.759
40.0, 72929.964712854, 81068.52544170922, -17604.882133589046, -18881.323204198266, -7970.095630895571, -5161.889512764158, -19956.218595053982, 187500.0, -0.05, 0.988, 0.088, 192.0, 0.0, 0.0, 0.0, 0.0, 0.0, 0.0, 0.0, 0.0, 0.0, 1.700944727762021E9, 0.0, 2023-11-25 15:38:47.762
41.0, 72934.0103786004, 81064.70329340736, -17823.66100831759, -19242.035656218013, -8221.776273462328, -5400.628495291293, -19973.496493517934, 187500.0, -0.05, 0.988, 0.088, 192.0, 0.0, 0.0, 0.0, 0.0, 0.0, 0.0, 0.0, 0.0, 0.0, 1.700944727766055E9, 0.0, 2023-11-25 15:38:47.766
42.0, 72947.35437004022, 81093.76056119926, -18101.96257853062, -19439.982705114213, -8725.428131273762, -5490.124880090342, -19982.548950022334, 187500.0, -0.05, 0.988, 0.088, 192.0, 0.0, 0.0, 0.0, 0.0, 0.0, 0.0, 0.0, 0.0, 0.0, 1.700944727770063E9, 0.0, 2023-11-25 15:38:47.770
43.0, 72949.45543401902, 81092.50886350976, -18017.160060067185, -19386.69614633276, -8818.478443441207, -5536.080066690453, -19976.75984820841, 187500.0, -0.05, 0.988, 0.088, 192.0, 0.0, 0.0, 0.0, 0.0, 0.0, 0.0, 0.0, 0.0, 0.0, 1.70094472777406E9, 0.0, 2023-11-25 15:38:47.774
44.0, 72936.60318095723, 81071.58763069959, -17611.945284836922, -18880.473837908965, -8028.187814734914, -5156.033355716867, -19950.85417638471, 187500.0, -0.05, 0.988, 0.088, 192.0, 0.0, 0.0, 0.0, 0.0, 0.0, 0.0, 0.0, 0.0, 0.0, 1.700944727778026E9, 0.0, 2023-11-25 15:38:47.778
45.0, 72929.20475354252, 81056.1872787699, -17786.490057288418, -19191.855989915846, -8165.583987901687, -5363.815172173402, -19978.704449976023, 187500.0, -0.05, 0.988, 0.088, 192.0, 0.0, 0.0, 0.0, 0.0, 0.0, 0.0, 0.0, 0.0, 0.0, 1.700944727782087E9, 0.0, 2023-11-25 15:38:47.782
46.0, 72939.08422459176, 81089.78195068621, -18065.059848434907, -19406.924475064814, -8636.51289183055, -5455.256158740063, -19980.62669999918, 187500.0, -0.05, 0.988, 0.088, 192.0, 0.0, 0.0, 0.0, 0.0, 0.0, 0.0, 0.0, 0.0, 0.0, 1.700944727787153E9, 0.0, 2023-11-25 15:38:47.787
47.0, 72957.72557946749, 81102.47774153683, -18090.138505713763, -19461.552138513583, -8917.988409756234, -5577.117869510397, -19970.657821972112, 187500.0, -0.046, 0.98, 0.09, 192.0, 254.0, 144.0, 30.0, 160.0, 2.0, 208.0, 0.0, 0.0, 0.0, 1.700944727790108E9, 0.0, 2023-11-25 15:38:47.790
48.0, 72934.14448906714, 81069.24069753179, -17647.0151718873, -18930.92172514459, -8137.644307332553, -5199.574553915805, -19932.19046976453, 187500.0, -0.046, 0.98, 0.09, 192.0, 0.0, 0.0, 0.0, 0.0, 0.0, 0.0, 0.0, 0.0, 0.0, 1.700944727793121E9, 0.0, 2023-11-25 15:38:47.793
49.0, 72925.94139885204, 81050.3311217226, -17741.27247825533, -19135.64135261075, -8111.828042486673, -5337.887148605246, -19967.550929492823, 187500.0, -0.046, 0.98, 0.09, 192.0, 0.0, 0.0, 0.0, 0.0, 0.0, 0.0, 0.0, 0.0, 0.0, 1.700944727798145E9, 0.0, 2023-11-25 15:38:47.798
50.0, 72934.25624778942, 81084.35047678357, -18003.458440716084, -19365.30552688903, -8535.25948944801, -5430.043390994477, -19970.121380105185, 187500.0, -0.046, 0.98, 0.09, 192.0, 0.0, 0.0, 0.0, 0.0, 0.0, 0.0, 0.0, 0.0, 0.0, 1.700944727802162E9, 0.0, 2023-11-25 15:38:47.802
51.0, 72971.51660579641, 81128.40576510498, -18126.34833173136, -19505.965054746277, -8959.808523632113, -5593.121718540397, -19978.19035985355, 187500.0, -0.046, 0.98, 0.09, 192.0, 0.0, 0.0, 0.0, 0.0, 0.0, 0.0, 0.0, 0.0, 0.0, 1.700944727806119E9, 0.0, 2023-11-25 15:38:47.806
52.0, 72951.35533229772, 81094.09583736608, -17678.77700075829, -18995.987653253993, -8258.768410535862, -5246.0438306383885, -19934.693865143523, 187500.0, -0.046, 0.98, 0.09, 192.0, 0.0, 0.0, 0.0, 0.0, 0.0, 0.0, 0.0, 0.0, 0.0, 1.700944727810155E9, 0.0, 2023-11-25 15:38:47.810
53.0, 72939.19598331404, 81060.32235149412, -17687.60593981814, -19051.129406825235, -8048.282033000235, -5279.638502554715, -19982.995984911442, 187500.0, -0.046, 0.98, 0.09, 192.0, 0.0, 0.0, 0.0, 0.0, 0.0, 0.0, 0.0, 0.0, 0.0, 1.700944727815247E9, 0.0, 2023-11-25 15:38:47.815
54.0, 72931.88696287715, 81069.62067718753, -17948.495501100482, -19321.11612810089, -8436.084799299813, -5409.815062262423, -19988.42745881408, 187500.0, -0.046, 0.98, 0.09, 192.0, 0.0, 0.0, 0.0, 0.0, 0.0, 0.0, 0.0, 0.0, 0.0, 1.700944727818439E9, 0.0, 2023-11-25 15:38:47.818
55.0, 72957.52441376739, 81109.58559627362, -18161.194701337183, -19505.070984968064, -8946.889215336945, -5572.602817130425, -20008.544028823857, 187500.0, -0.046, 0.98, 0.09, 192.0, 0.0, 0.0, 0.0, 0.0, 0.0, 0.0, 0.0, 0.0, 0.0, 1.70094472782116E9, 0.0, 2023-11-25 15:38:47.821
56.0, 72954.66339047712, 81102.05305839218, -17761.85843489867, -19097.576331803364, -8419.14217700269, -5322.531500164449, -19950.742417662434, 187500.0, -0.046, 0.98, 0.09, 192.0, 0.0, 0.0, 0.0, 0.0, 0.0, 0.0, 0.0, 0.0, 0.0, 1.700944727826263E9, 0.0, 2023-11-25 15:38:47.826
57.0, 72942.6158002157, 81072.54875571118, -17647.596317243137, -18976.76515302243, -8002.282142911214, -5228.7882839188915, -19976.357516808213, 187500.0, -0.05, 0.982, 0.094, 192.0, 254.0, 112.0, 30.0, 176.0, 2.0, 240.0, 0.0, 0.0, 0.0, 1.700944727830219E9, 0.0, 2023-11-25 15:38:47.830
58.0, 72934.68093093408, 81068.68190392041, -17897.06413710882, -19305.089927326433, -8359.194798373557, -5413.704265797647, -19980.09025813225, 187500.0, -0.05, 0.982, 0.094, 192.0, 0.0, 0.0, 0.0, 0.0, 0.0, 0.0, 0.0, 0.0, 0.0, 1.700944727834196E9, 0.0, 2023-11-25 15:38:47.834
59.0, 72960.34073356877, 81107.640994506, -18146.196680807672, -19501.606464577493, -8897.402453112896, -5558.252997190118, -19990.99790942644, 187500.0, -0.05, 0.982, 0.094, 192.0, 0.0, 0.0, 0.0, 0.0, 0.0, 0.0, 0.0, 0.0, 0.0, 1.700944727838253E9, 0.0, 2023-11-25 15:38:47.838
60.0, 72962.8217772033, 81105.45052354939, -17837.742607324435, -19201.020205142522, -8574.263283522521, -5407.69164653917, -19948.19431879453, 187500.0, -0.05, 0.982, 0.094, 192.0, 0.0, 0.0, 0.0, 0.0, 0.0, 0.0, 0.0, 0.0, 0.0, 1.700944727841263E9, 0.0, 2023-11-25 15:38:47.841
61.0, 72950.55066949733, 81077.6896569359, -17621.02009308578, -18928.68655069906, -7992.805003262163, -5202.279114994898, -19973.04945862883, 187500.0, -0.05, 0.982, 0.094, 192.0, 0.0, 0.0, 0.0, 0.0, 0.0, 0.0, 0.0, 0.0, 0.0, 1.700944727845309E9, 0.0, 2023-11-25 15:38:47.845
62.0, 72940.09005309225, 81072.21347954434, -17849.20905223001, -19281.687650881726, -8294.754719108907, -5416.8558617658455, -19967.841502170744, 187500.0, -0.05, 0.982, 0.094, 192.0, 0.0, 0.0, 0.0, 0.0, 0.0, 0.0, 0.0, 0.0, 0.0, 1.700944727849363E9, 0.0, 2023-11-25 15:38:47.849
63.0, 72941.38645427066, 81100.57784325813, -18125.744834631067, -19471.051629907088, -8817.897298085369, -5518.5786507819475, -19976.15635110812, 187500.0, -0.05, 0.982, 0.094, 192.0, 0.0, 0.0, 0.0, 0.0, 0.0, 0.0, 0.0, 0.0, 0.0, 1.700944727854321E9, 0.0, 2023-11-25 15:38:47.854
64.0, 72949.70130320803, 81111.77606723024, -17931.619934036724, -19308.57679946146, -8725.91986965178, -5479.396042751795, -19939.678304157056, 187500.0, -0.05, 0.982, 0.094, 192.0, 0.0, 0.0, 0.0, 0.0, 0.0, 0.0, 0.0, 0.0, 0.0, 1.700944727858394E9, 0.0, 2023-11-25 15:38:47.858
65.0, 72942.48168974897, 81089.17845358592, -17594.846200328615, -18882.619605376676, -7995.934247485906, -5162.090678464256, -19937.13020528915, 187500.0, -0.05, 0.982, 0.094, 192.0, 0.0, 0.0, 0.0, 0.0, 0.0, 0.0, 0.0, 0.0, 0.0, 1.700944727862292E9, 0.0, 2023-11-25 15:38:47.862
66.0, 72935.57500071228, 81070.40298824347, -17808.41711859907, -19244.315534152454, -8229.509977043865, -5401.611972047326, -19967.193301581538, 187500.0, -0.05, 0.982, 0.094, 192.0, 0.0, 0.0, 0.0, 0.0, 0.0, 0.0, 0.0, 0.0, 0.0, 1.700944727866353E9, 0.0, 2023-11-25 15:38:47.866
67.0, 72944.82862291677, 81096.12984611152, -18086.517523112005, -19440.362684769952, -8721.695389949726, -5483.173487564742, -19982.057211644318, 187500.0, -0.044, 0.98, 0.092, 192.0, 254.0, 160.0, 30.0, 160.0, 2.0, 224.0, 0.0, 0.0, 0.0, 1.70094472787066E9, 0.0, 2023-11-25 15:38:47.870
68.0, 72977.84214947726, 81136.22887566434, -18014.723719921556, -19415.865172846934, -8855.917615403845, -5554.00616574361, -19967.394467281636, 187500.0, -0.044, 0.98, 0.092, 192.0, 0.0, 0.0, 0.0, 0.0, 0.0, 0.0, 0.0, 0.0, 0.0, 1.700944727874338E9, 0.0, 2023-11-25 15:38:47.874
69.0, 72963.11234988122, 81110.23379686283, -17598.40012769701, -18909.486402211955, -8069.113858832581, -5192.779623601392, -19938.426606467558, 187500.0, -0.044, 0.98, 0.092, 192.0, 0.0, 0.0, 0.0, 0.0, 0.0, 0.0, 0.0, 0.0, 0.0, 1.700944727877345E9, 0.0, 2023-11-25 15:38:47.877
70.0, 72935.6644076901, 81069.0842353206, -17759.51150173086, -19171.918233861714, -8157.760877342329, -5368.39727978674, -19978.14565636464, 187500.0, -0.044, 0.98, 0.092, 192.0, 0.0, 0.0, 0.0, 0.0, 0.0, 0.0, 0.0, 0.0, 0.0, 1.700944727881364E9, 0.0, 2023-11-25 15:38:47.881
71.0, 72946.6167624732, 81097.18037810092, -18037.746016710524, -19375.095590960456, -8611.70245548516, -5441.085152755399, -19975.57520575228, 187500.0, -0.044, 0.98, 0.092, 192.0, 0.0, 0.0, 0.0, 0.0, 0.0, 0.0, 0.0, 0.0, 0.0, 1.70094472788641E9, 0.0, 2023-11-25 15:38:47.886
72.0, 72965.10165513774, 81111.5972532746, -18091.47961038108, -19459.51812976815, -8933.791093086134, -5580.582389900969, -19974.301156318328, 187500.0, -0.044, 0.98, 0.092, 192.0, 0.0, 0.0, 0.0, 0.0, 0.0, 0.0, 0.0, 0.0, 0.0, 1.700944727890371E9, 0.0, 2023-11-25 15:38:47.890
73.0, 72948.15903284062, 81085.4904157508, -17642.72363695188, -18920.908143628614, -8158.654947120542, -5199.1275190267, -19933.03983605383, 187500.0, -0.044, 0.98, 0.092, 192.0, 0.0, 0.0, 0.0, 0.0, 0.0, 0.0, 0.0, 0.0, 0.0, 1.700944727894445E9, 0.0, 2023-11-25 15:38:47.894
74.0, 72947.06379736231, 81072.99579060028, -17723.525193157817, -19102.96310221709, -8100.763928981296, -5319.536366407438, -19964.62285096918, 187500.0, -0.044, 0.98, 0.092, 192.0, 0.0, 0.0, 0.0, 0.0, 0.0, 0.0, 0.0, 0.0, 0.0, 1.700944727897563E9, 0.0, 2023-11-25 15:38:47.897
75.0, 72935.12796582318, 81083.03172386071, -17993.46721094456, -19347.58059353597, -8520.0603032184, -5424.701324069658, -19973.563548751303, 187500.0, -0.044, 0.98, 0.092, 192.0, 0.0, 0.0, 0.0, 0.0, 0.0, 0.0, 0.0, 0.0, 0.0, 1.70094472790154E9, 0.0, 2023-11-25 15:38:47.901
76.0, 72962.44179754757, 81113.0948201531, -18143.648581939768, -19503.32754890055, -8973.040756349654, -5596.362721486416, -19995.580017039778, 187500.0, -0.044, 0.98, 0.092, 192.0, 0.0, 0.0, 0.0, 0.0, 0.0, 0.0, 0.0, 0.0, 0.0, 1.700944727905499E9, 0.0, 2023-11-25 15:38:47.905
77.0, 72958.75375971243, 81100.17551185793, -17705.956722015944, -19024.463775690052, -8312.88198386216, -5280.398461866196, -19949.42366473957, 187500.0, -0.046, 0.984, 0.088, 192.0, 254.0, 144.0, 30.0, 192.0, 2.0, 192.0, 0.0, 0.0, 0.0, 1.700944727909449E9, 0.0, 2023-11-25 15:38:47.909
78.0, 72950.23774507496, 81075.87916563502, -17681.772134515304, -19035.52788919543, -8050.047820812205, -5280.040833954911, -19977.676269731077, 187500.0, -0.046, 0.984, 0.088, 192.0, 0.0, 0.0, 0.0, 0.0, 0.0, 0.0, 0.0, 0.0, 0.0, 1.700944727913556E9, 0.0, 2023-11-25 15:38:47.913
79.0, 72943.97925662747, 81084.26106980575, -17941.231184152508, -19319.752671689115, -8431.547395175385, -5419.448664122661, -19972.892996417642, 187500.0, -0.046, 0.984, 0.088, 192.0, 0.0, 0.0, 0.0, 0.0, 0.0, 0.0, 0.0, 0.0, 0.0, 1.70094472791853E9, 0.0, 2023-11-25 15:38:47.918
80.0, 72963.40292255914, 81111.08316315213, -18172.16940786474, -19521.09718574252, -8961.417849232896, -5590.640674905858, -20009.43809860207, 187500.0, -0.046, 0.984, 0.088, 192.0, 0.0, 0.0, 0.0, 0.0, 0.0, 0.0, 0.0, 0.0, 0.0, 1.700944727922506E9, 0.0, 2023-11-25 15:38:47.922
81.0, 72965.88396619368, 81107.4398288059, -17788.34525207821, -19133.02619850948, -8468.383070037731, -5360.529465738472, -19957.872624143678, 187500.0, -0.046, 0.984, 0.088, 192.0, 0.0, 0.0, 0.0, 0.0, 0.0, 0.0, 0.0, 0.0, 0.0, 1.700944727925563E9, 0.0, 2023-11-25 15:38:47.925
82.0, 72959.64782949064, 81082.89761339399, -17653.363067312606, -18981.70488854705, -8016.3190384291465, -5242.199330592076, -19976.469275530493, 187500.0, -0.046, 0.984, 0.088, 192.0, 0.0, 0.0, 0.0, 0.0, 0.0, 0.0, 0.0, 0.0, 0.0, 1.700944727929542E9, 0.0, 2023-11-25 15:38:47.929
83.0, 72949.9695241415, 81083.61286921655, -17901.378023788693, -19306.520438971573, -8359.46301930702, -5429.59635610537, -19984.068868645296, 187500.0, -0.046, 0.984, 0.088, 192.0, 0.0, 0.0, 0.0, 0.0, 0.0, 0.0, 0.0, 0.0, 0.0, 1.700944727934561E9, 0.0, 2023-11-25 15:38:47.934
84.0, 72963.6711434926, 81117.900445211, -18173.73402997661, -19518.929066530356, -8908.75713929619, -5577.699014866235, -20011.09212769176, 187500.0, -0.046, 0.984, 0.088, 192.0, 0.0, 0.0, 0.0, 0.0, 0.0, 0.0, 0.0, 0.0, 0.0, 1.700944727938563E9, 0.0, 2023-11-25 15:38:47.938
85.0, 72957.27854457838, 81104.26588109325, -17881.976709601488, -19246.818929531448, -8625.247612625077, -5449.712926115147, -19958.967859621986, 187500.0, -0.046, 0.984, 0.088, 192.0, 0.0, 0.0, 0.0, 0.0, 0.0, 0.0, 0.0, 0.0, 0.0, 1.700944727941587E9, 0.0, 2023-11-25 15:38:47.941
86.0, 72952.94230615406, 81080.41656975944, -17628.61968620058, -18927.524259987385, -8000.1810789324145, -5213.790263389381, -19964.354630035716, 187500.0, -0.046, 0.984, 0.088, 192.0, 0.0, 0.0, 0.0, 0.0, 0.0, 0.0, 0.0, 0.0, 0.0, 1.700944727946712E9, 0.0, 2023-11-25 15:38:47.946
87.0, 72960.54189926886, 81087.72559019632, -17855.422837188584, -19282.537017171027, -8293.4583179305, -5439.40877192125, -19980.04555464334, 187500.0, -0.056, 0.984, 0.08600000000000001, 192.0, 254.0, 64.0, 30.0, 192.0, 2.0, 176.0, 0.0, 0.0, 0.0, 1.700944727950747E9, 0.0, 2023-11-25 15:38:47.950
88.0, 72967.13566388318, 81117.38635508851, -18140.049951082463, -19479.18766488882, -8816.779710862602, -5541.71270629319, -20006.644130545155, 187500.0, -0.056, 0.984, 0.08600000000000001, 192.0, 0.0, 0.0, 0.0, 0.0, 0.0, 0.0, 0.0, 0.0, 0.0, 1.700944727953736E9, 0.0, 2023-11-25 15:38:47.953
89.0, 72973.59531803076, 81122.5943115466, -17969.37203042174, -19337.1646806198, -8766.890617238358, -5520.523252549559, -19977.20688309752, 187500.0, -0.056, 0.984, 0.08600000000000001, 192.0, 0.0, 0.0, 0.0, 0.0, 0.0, 0.0, 0.0, 0.0, 0.0, 1.70094472795811E9, 0.0, 2023-11-25 15:38:47.958
90.0, 72947.48848050696, 81087.68088670741, -17624.81988964318, -18891.40384094761, -8022.868099554551, -5189.203344488543, -19975.6646127301, 187500.0, -0.056, 0.984, 0.08600000000000001, 192.0, 0.0, 0.0, 0.0, 0.0, 0.0, 0.0, 0.0, 0.0, 0.0, 1.700944727961631E9, 0.0, 2023-11-25 15:38:47.961
91.0, 72943.48751824946, 81078.89665113649, -17821.00115072741, -19222.299065863976, -8221.955087417971, -5408.317495383918, -19998.865723474708, 187500.0, -0.056, 0.984, 0.08600000000000001, 192.0, 0.0, 0.0, 0.0, 0.0, 0.0, 0.0, 0.0, 0.0, 0.0, 1.700944727965671E9, 0.0, 2023-11-25 15:38:47.965
92.0, 72946.72852119547, 81101.87424443653, -18102.00728201953, -19424.828222373515, -8712.687636934237, -5489.342569034407, -20009.415746857616, 187500.0, -0.056, 0.984, 0.08600000000000001, 192.0, 0.0, 0.0, 0.0, 0.0, 0.0, 0.0, 0.0, 0.0, 0.0, 1.700944727969719E9, 0.0, 2023-11-25 15:38:47.969
93.0, 72966.24159410495, 81119.1968463894, -18061.57297629988, -19435.17708005632, -8888.394700097406, -5572.58046538597, -19999.29040661936, 187500.0, -0.056, 0.984, 0.08600000000000001, 192.0, 0.0, 0.0, 0.0, 0.0, 0.0, 0.0, 0.0, 0.0, 0.0, 1.700944727973759E9, 0.0, 2023-11-25 15:38:47.973
94.0, 72962.66531499212, 81106.67986949443, -17628.552630967217, -18925.132623330668, -8094.550144022721, -5200.60273416075, -19955.52569097587, 187500.0, -0.056, 0.984, 0.08600000000000001, 192.0, 0.0, 0.0, 0.0, 0.0, 0.0, 0.0, 0.0, 0.0, 0.0, 1.700944727978947E9, 0.0, 2023-11-25 15:38:47.978
95.0, 72953.61285848772, 81083.81403491665, -17768.094571601698, -19185.485742746085, -8164.913435568027, -5381.6965677376475, -19981.409011055115, 187500.0, -0.056, 0.984, 0.08600000000000001, 192.0, 0.0, 0.0, 0.0, 0.0, 0.0, 0.0, 0.0, 0.0, 0.0, 1.700944727981751E9, 0.0, 2023-11-25 15:38:47.981
96.0, 72950.68477996407, 81105.85285494958, -18051.514691294993, -19421.386053727398, -8625.314667858442, -5481.854734641878, -19996.272921117892, 187500.0, -0.056, 0.984, 0.08600000000000001, 192.0, 0.0, 0.0, 0.0, 0.0, 0.0, 0.0, 0.0, 0.0, 0.0, 1.700944727985707E9, 0.0, 2023-11-25 15:38:47.985
97.0, 72972.05304766334, 81137.36881463157, -18110.67975886819, -19495.839714508023, -8949.996107816232, -5607.985628603176, -19997.09993566274, 187500.0, -0.046, 0.986, 0.088, 192.0, 254.0, 144.0, 30.0, 208.0, 2.0, 192.0, 0.0, 0.0, 0.0, 1.700944727989775E9, 0.0, 2023-11-25 15:38:47.989
98.0, 72956.58564050027, 81106.97044217234, -17658.414561559508, -18927.83718440976, -8176.089307795681, -5216.919507613124, -19963.348801535227, 187500.0, -0.046, 0.986, 0.088, 192.0, 0.0, 0.0, 0.0, 0.0, 0.0, 0.0, 0.0, 0.0, 0.0, 1.700944727993792E9, 0.0, 2023-11-25 15:38:47.993
99.0, 72952.24940207593, 81084.32812503912, -17741.563050933248, -19091.764878244983, -8104.004931927316, -5338.177721283165, -20013.550819581847, 187500.0, -0.046, 0.986, 0.088, 192.0, 0.0, 0.0, 0.0, 0.0, 0.0, 0.0, 0.0, 0.0, 0.0, 1.700944727997819E9, 0.0, 2023-11-25 15:38:47.997
100.0, 72948.5166607519, 81098.74500021279, -18005.47009771706, -19355.336648861965, -8522.675457319672, -5460.1735425202305, -20002.017319442908, 187500.0, -0.046, 0.986, 0.088, 192.0, 0.0, 0.0, 0.0, 0.0, 0.0, 0.0, 0.0, 0.0, 0.0, 1.700944728001823E9, 0.0, 2023-11-25 15:38:48.001
101.0, 72967.6721057501, 81129.61275930557, -18162.60286123787, -19506.65795882439, -8976.706442440325, -5617.1945473187625, -20009.19222941306, 187500.0, -0.046, 0.986, 0.088, 192.0, 0.0, 0.0, 0.0, 0.0, 0.0, 0.0, 0.0, 0.0, 0.0, 1.700944728006788E9, 0.0, 2023-11-25 15:38:48.006
102.0, 72957.74793121194, 81113.83242772013, -17729.001370549366, -19027.972999569538, -8332.037428860358, -5301.47615688755, -19952.172929307573, 187500.0, -0.046, 0.986, 0.088, 192.0, 0.0, 0.0, 0.0, 0.0, 0.0, 0.0, 0.0, 0.0, 0.0, 1.700944728009801E9, 0.0, 2023-11-25 15:38:48.009
103.0, 72940.73825368145, 81078.40491275846, -17698.424184134507, -19026.05074954638, -8045.666878898965, -5288.400386381196, -19992.540179793858, 187500.0, -0.046, 0.986, 0.088, 192.0, 0.0, 0.0, 0.0, 0.0, 0.0, 0.0, 0.0, 0.0, 0.0, 1.700944728012792E9, 0.0, 2023-11-25 15:38:48.012
104.0, 72938.23485830246, 81088.86552916355, -17954.41871338114, -19317.29397979903, -8421.600868892774, -5433.798484062968, -19999.983310697477, 187500.0, -0.046, 0.986, 0.088, 192.0, 0.0, 0.0, 0.0, 0.0, 0.0, 0.0, 0.0, 0.0, 0.0, 1.700944728017852E9, 0.0, 2023-11-25 15:38:48.017
105.0, 72964.78873071537, 81133.79253551872, -18181.870064958344, -19503.81928727857, -8943.849378091023, -5591.713558639713, -20023.229124930993, 187500.0, -0.046, 0.986, 0.088, 192.0, 0.0, 0.0, 0.0, 0.0, 0.0, 0.0, 0.0, 0.0, 0.0, 1.700944728021904E9, 0.0, 2023-11-25 15:38:48.021
106.0, 72958.73140796798, 81121.83435223512, -17809.84763024421, -19121.78327104846, -8480.453012043597, -5375.169858356698, -19969.58493823826, 187500.0, -0.046, 0.986, 0.088, 192.0, 0.0, 0.0, 0.0, 0.0, 0.0, 0.0, 0.0, 0.0, 0.0, 1.700944728025842E9, 0.0, 2023-11-25 15:38:48.025
107.0, 72943.8227944163, 81084.61869771704, -17656.96169816991, -18934.47565251299, -7999.264657409747, -5237.840740423291, -20005.14656366665, 187500.0, -0.046, 0.984, 0.088, 192.0, 254.0, 144.0, 30.0, 192.0, 2.0, 192.0, 0.0, 0.0, 0.0, 1.700944728032646E9, 0.0, 2023-11-25 15:38:48.032
108.0, 72945.47682350597, 81087.01033437376, -17911.346901815763, -19286.29211023952, -8353.115123881713, -5449.131780759309, -20017.350616139247, 187500.0, -0.046, 0.984, 0.088, 192.0, 0.0, 0.0, 0.0, 0.0, 0.0, 0.0, 0.0, 0.0, 0.0, 1.700944728036913E9, 0.0, 2023-11-25 15:38:48.036
109.0, 72972.09775115225, 81125.54474181471, -18171.901186931274, -19497.404336619897, -8896.396624612407, -5589.590142916459, -20023.720863309012, 187500.0, -0.046, 0.984, 0.088, 192.0, 0.0, 0.0, 0.0, 0.0, 0.0, 0.0, 0.0, 0.0, 0.0, 1.700944728039879E9, 0.0, 2023-11-25 15:38:48.039
110.0, 72974.60114653125, 81123.08604992462, -17895.901846397144, -19238.638191060807, -8645.52064484604, -5471.7964496369905, -19978.033897642363, 187500.0, -0.046, 0.984, 0.088, 192.0, 0.0, 0.0, 0.0, 0.0, 0.0, 0.0, 0.0, 0.0, 0.0, 1.700944728042882E9, 0.0, 2023-11-25 15:38:48.042
111.0, 72960.69836148004, 81096.21925308935, -17625.646904188026, -18885.190055989035, -7987.977026459816, -5200.736844627481, -19980.447886043537, 187500.0, -0.046, 0.984, 0.088, 192.0, 0.0, 0.0, 0.0, 0.0, 0.0, 0.0, 0.0, 0.0, 0.0, 1.700944728045859E9, 0.0, 2023-11-25 15:38:48.045
112.0, 72955.8703846777, 81097.67211647893, -17858.39561920114, -19248.96469699916, -8274.034651998836, -5432.546786373471, -19996.138810651162, 187500.0, -0.046, 0.984, 0.088, 192.0, 0.0, 0.0, 0.0, 0.0, 0.0, 0.0, 0.0, 0.0, 0.0, 1.700944728049862E9, 0.0, 2023-11-25 15:38:48.049
113.0, 72969.63905926218, 81135.35715763058, -18136.384264991793, -19441.56967897054, -8788.191829704265, -5524.166586895774, -20008.946360224054, 187500.0, -0.046, 0.984, 0.088, 192.0, 0.0, 0.0, 0.0, 0.0, 0.0, 0.0, 0.0, 0.0, 0.0, 1.700944728053907E9, 0.0, 2023-11-25 15:38:48.053
114.0, 72975.69638200956, 81132.83141050713, -17988.773344608944, -19338.59519226494, -8784.749661058147, -5532.2579183885955, -19976.782199952868, 187500.0, -0.046, 0.984, 0.088, 192.0, 0.0, 0.0, 0.0, 0.0, 0.0, 0.0, 0.0, 0.0, 0.0, 1.700944728057899E9, 0.0, 2023-11-25 15:38:48.057
115.0, 72960.09486437975, 81095.05696237767, -17619.500174462817, -18866.861625535683, -8018.755378574775, -5182.497821151951, -19962.924118390576, 187500.0, -0.046, 0.984, 0.088, 192.0, 0.0, 0.0, 0.0, 0.0, 0.0, 0.0, 0.0, 0.0, 0.0, 1.700944728061904E9, 0.0, 2023-11-25 15:38:48.061
116.0, 72957.12208236719, 81090.7430756978, -17811.926342478557, -19190.581940481894, -8201.950276130472, -5392.604219031838, -19988.47216230299, 187500.0, -0.046, 0.984, 0.088, 192.0, 0.0, 0.0, 0.0, 0.0, 0.0, 0.0, 0.0, 0.0, 0.0, 1.700944728066203E9, 0.0, 2023-11-25 15:38:48.066
117.0, 72963.89466093715, 81125.12005867006, -18104.66713960971, -19403.45995467424, -8696.43791871523, -5481.586513708415, -20006.353557867238, 187500.0, -0.04, 0.982, 0.08600000000000001, 192.0, 254.0, 192.0, 30.0, 176.0, 2.0, 176.0, 0.0, 0.0, 0.0, 1.700944728068979E9, 0.0, 2023-11-25 15:38:48.068
118.0, 72979.8314547338, 81135.82654426414, -18080.706069553624, -19435.333542267508, -8905.829060772547, -5582.728157368679, -19991.310833848816, 187500.0, -0.04, 0.982, 0.08600000000000001, 192.0, 0.0, 0.0, 0.0, 0.0, 0.0, 0.0, 0.0, 0.0, 0.0, 1.700944728074006E9, 0.0, 2023-11-25 15:38:48.074
119.0, 72963.76055047043, 81100.95782291387, -17639.750854939324, -18903.674948653574, -8102.887344704551, -5199.7310161269925, -19957.738513676944, 187500.0, -0.04, 0.982, 0.08600000000000001, 192.0, 0.0, 0.0, 0.0, 0.0, 0.0, 0.0, 0.0, 0.0, 0.0, 1.700944728077965E9, 0.0, 2023-11-25 15:38:48.077
120.0, 72960.09486437975, 81085.51276749525, -17778.599891495694, -19166.419704725708, -8159.526665154299, -5388.312684096419, -19999.40216534164, 187500.0, -0.04, 0.982, 0.08600000000000001, 192.0, 0.0, 0.0, 0.0, 0.0, 0.0, 0.0, 0.0, 0.0, 0.0, 1.700944728082222E9, 0.0, 2023-11-25 15:38:48.082
121.0, 72955.51275676642, 81100.24256709129, -18053.48164480706, -19381.801114297046, -8597.732615200594, -5466.990824579099, -20007.649959045644, 187500.0, -0.04, 0.982, 0.08600000000000001, 192.0, 0.0, 0.0, 0.0, 0.0, 0.0, 0.0, 0.0, 0.0, 0.0, 1.700944728085975E9, 0.0, 2023-11-25 15:38:48.085
122.0, 72975.74108549846, 81122.88488422452, -18144.140320317783, -19486.51903707016, -8965.8658463795, -5617.35100952995, -20011.11447943622, 187500.0, -0.04, 0.982, 0.08600000000000001, 192.0, 0.0, 0.0, 0.0, 0.0, 0.0, 0.0, 0.0, 0.0, 0.0, 1.700944728088965E9, 0.0, 2023-11-25 15:38:48.088
123.0, 72961.23480334698, 81104.19882585989, -17687.628291562592, -18970.19374015257, -8221.731569973417, -5263.880522713724, -19955.43628399805, 187500.0, -0.04, 0.982, 0.08600000000000001, 192.0, 0.0, 0.0, 0.0, 0.0, 0.0, 0.0, 0.0, 0.0, 0.0, 1.700944728093056E9, 0.0, 2023-11-25 15:38:48.093
124.0, 72962.10652138073, 81094.63227923302, -17727.146175759575, -19082.958290929593, -8083.106050861604, -5339.965860839589, -19992.18255188257, 187500.0, -0.04, 0.982, 0.08600000000000001, 192.0, 0.0, 0.0, 0.0, 0.0, 0.0, 0.0, 0.0, 0.0, 0.0, 1.700944728097067E9, 0.0, 2023-11-25 15:38:48.097
125.0, 72958.15026261214, 81107.79745671719, -17992.729603377535, -19326.547602003528, -8480.050680643402, -5442.560367889449, -20002.553761309835, 187500.0, -0.04, 0.982, 0.08600000000000001, 192.0, 0.0, 0.0, 0.0, 0.0, 0.0, 0.0, 0.0, 0.0, 0.0, 1.700944728101024E9, 0.0, 2023-11-25 15:38:48.101
126.0, 72984.5253210694, 81138.88873325453, -18175.812742210954, -19497.18081917534, -8963.764782400702, -5610.824300149, -20026.313665665828, 187500.0, -0.04, 0.982, 0.08600000000000001, 192.0, 0.0, 0.0, 0.0, 0.0, 0.0, 0.0, 0.0, 0.0, 0.0, 1.700944728105995E9, 0.0, 2023-11-25 15:38:48.105
127.0, 72978.1774256441, 81118.41453533346, -17740.937202088502, -19020.82044134384, -8342.654507476629, -5301.967895265567, -19966.72391494798, 187500.0, -0.042, 0.978, 0.09, 192.0, 254.0, 176.0, 30.0, 144.0, 2.0, 208.0, 0.0, 0.0, 0.0, 1.700944728110011E9, 0.0, 2023-11-25 15:38:48.110
128.0, 72967.76151272793, 81089.13375009701, -17687.0247944623, -18985.772906037917, -8023.739817588308, -5270.608397794771, -20002.374947354194, 187500.0, -0.042, 0.978, 0.09, 192.0, 0.0, 0.0, 0.0, 0.0, 0.0, 0.0, 0.0, 0.0, 0.0, 1.700944728114026E9, 0.0, 2023-11-25 15:38:48.114
129.0, 72959.02198064589, 81096.62158448953, -17942.54993707537, -19300.887799368837, -8399.159717459646, -5438.760571332046, -20002.598464798746, 187500.0, -0.042, 0.978, 0.09, 192.0, 0.0, 0.0, 0.0, 0.0, 0.0, 0.0, 0.0, 0.0, 0.0, 1.700944728117083E9, 0.0, 2023-11-25 15:38:48.117
130.0, 72978.6244605332, 81128.69633778291, -18182.56296903646, -19501.29354015512, -8932.449988418817, -5594.2393057631625, -20026.67129357711, 187500.0, -0.042, 0.978, 0.09, 192.0, 0.0, 0.0, 0.0, 0.0, 0.0, 0.0, 0.0, 0.0, 0.0, 1.700944728121018E9, 0.0, 2023-11-25 15:38:48.121
131.0, 72967.40388481664, 81106.32224158314, -17827.550211852817, -19145.096140515347, -8509.823204257871, -5390.816079475413, -19967.863853915198, 187500.0, -0.042, 0.978, 0.09, 192.0, 0.0, 0.0, 0.0, 0.0, 0.0, 0.0, 0.0, 0.0, 0.0, 1.700944728125035E9, 0.0, 2023-11-25 15:38:48.125
132.0, 72956.11625386671, 81079.03076160321, -17661.1191226386, -18939.728312459985, -8002.304494655668, -5232.252804309464, -19994.23891237246, 187500.0, -0.042, 0.978, 0.09, 192.0, 0.0, 0.0, 0.0, 0.0, 0.0, 0.0, 0.0, 0.0, 0.0, 1.700944728129078E9, 0.0, 2023-11-25 15:38:48.129
133.0, 72958.30672482333, 81092.82178793213, -17902.227390077995, -19291.209494019688, -8334.719638194996, -5439.788751576991, -20001.525581064892, 187500.0, -0.042, 0.978, 0.09, 192.0, 0.0, 0.0, 0.0, 0.0, 0.0, 0.0, 0.0, 0.0, 0.0, 1.700944728134111E9, 0.0, 2023-11-25 15:38:48.134
134.0, 72963.44762604804, 81120.62735803454, -18171.677669486722, -19462.46856003625, -8854.129475847421, -5539.902214992311, -20028.258267433437, 187500.0, -0.042, 0.978, 0.09, 192.0, 0.0, 0.0, 0.0, 0.0, 0.0, 0.0, 0.0, 0.0, 0.0, 1.700944728138107E9, 0.0, 2023-11-25 15:38:48.138
135.0, 72961.48067253598, 81110.05498290718, -17930.323532858318, -19239.509909094562, -8666.374822422842, -5454.026812795021, -19998.53044730788, 187500.0, -0.042, 0.978, 0.09, 192.0, 0.0, 0.0, 0.0, 0.0, 0.0, 0.0, 0.0, 0.0, 0.0, 1.700944728142164E9, 0.0, 2023-11-25 15:38:48.142
136.0, 72948.69547470755, 81075.8344621461, -17637.470977004883, -18871.10845698219, -7993.743776529286, -5174.250027447943, -19989.7685634814, 187500.0, -0.042, 0.978, 0.09, 192.0, 0.0, 0.0, 0.0, 0.0, 0.0, 0.0, 0.0, 0.0, 0.0, 1.700944728145134E9, 0.0, 2023-11-25 15:38:48.145
137.0, 72959.44666379054, 81084.77515992822, -17858.61913664569, -19247.064798720457, -8269.340785663222, -5418.241669922075, -19991.176723382083, 187500.0, -0.038, 0.982, 0.082, 192.0, 254.0, 208.0, 30.0, 176.0, 2.0, 144.0, 0.0, 0.0, 0.0, 1.700944728149436E9, 0.0, 2023-11-25 15:38:48.149
138.0, 72982.89364372416, 81123.3542708581, -18141.145186560774, -19450.97976338622, -8784.526143613595, -5521.350267094406, -20004.833639244276, 187500.0, -0.038, 0.982, 0.082, 192.0, 0.0, 0.0, 0.0, 0.0, 0.0, 0.0, 0.0, 0.0, 0.0, 1.700944728153154E9, 0.0, 2023-11-25 15:38:48.153
139.0, 72998.29399565388, 81132.96552097387, -18013.874353632254, -19359.49407333065, -8814.365722461429, -5534.806017256501, -19980.738458721455, 187500.0, -0.038, 0.982, 0.082, 192.0, 0.0, 0.0, 0.0, 0.0, 0.0, 0.0, 0.0, 0.0, 0.0, 1.700944728157147E9, 0.0, 2023-11-25 15:38:48.157
140.0, 72976.85867272124, 81100.15316011348, -17633.693532191937, -18895.248340993923, -8047.678535899942, -5187.973998543501, -19965.71808644749, 187500.0, -0.038, 0.982, 0.082, 192.0, 0.0, 0.0, 0.0, 0.0, 0.0, 0.0, 0.0, 0.0, 0.0, 1.700944728161159E9, 0.0, 2023-11-25 15:38:48.161
141.0, 72959.69253297956, 81079.65661044796, -17814.42973785755, -19208.66450174624, -8201.682055197007, -5402.997780203555, -19990.32735709278, 187500.0, -0.038, 0.982, 0.082, 192.0, 0.0, 0.0, 0.0, 0.0, 0.0, 0.0, 0.0, 0.0, 0.0, 1.700944728166191E9, 0.0, 2023-11-25 15:38:48.166
142.0, 72965.7722074714, 81114.48062830933, -18094.228874949084, -19410.053719288557, -8675.67314811625, -5486.503897488582, -20005.414784600114, 187500.0, -0.038, 0.982, 0.082, 192.0, 0.0, 0.0, 0.0, 0.0, 0.0, 0.0, 0.0, 0.0, 0.0, 1.700944728170203E9, 0.0, 2023-11-25 15:38:48.170
143.0, 72992.34843162876, 81136.67591055344, -18094.519447627004, -19437.144033568387, -8911.90873526439, -5582.124660268386, -20004.632473544178, 187500.0, -0.038, 0.982, 0.082, 192.0, 0.0, 0.0, 0.0, 0.0, 0.0, 0.0, 0.0, 0.0, 0.0, 1.700944728173244E9, 0.0, 2023-11-25 15:38:48.173
144.0, 72987.16282691513, 81112.647785264, -17648.512738765807, -18888.475762423965, -8111.828042486673, -5185.939989798068, -19964.86872015819, 187500.0, -0.038, 0.982, 0.082, 192.0, 0.0, 0.0, 0.0, 0.0, 0.0, 0.0, 0.0, 0.0, 0.0, 1.700944728177246E9, 0.0, 2023-11-25 15:38:48.177
145.0, 72981.46313207902, 81093.26882282125, -17770.46385651396, -19125.292494927944, -8134.827987531185, -5351.789933656447, -20003.090203176762, 187500.0, -0.038, 0.982, 0.082, 192.0, 0.0, 0.0, 0.0, 0.0, 0.0, 0.0, 0.0, 0.0, 0.0, 1.700944728181481E9, 0.0, 2023-11-25 15:38:48.181
146.0, 72968.70028599504, 81104.91408168247, -18049.681848249656, -19370.40172462484, -8579.404184747242, -5455.882007584812, -20015.696587049555, 187500.0, -0.038, 0.982, 0.082, 192.0, 0.0, 0.0, 0.0, 0.0, 0.0, 0.0, 0.0, 0.0, 0.0, 1.700944728185232E9, 0.0, 2023-11-25 15:38:48.185
147.0, 72990.51558858342, 81134.64190180802, -18152.20930006615, -19499.90773199889, -8972.459610993816, -5609.0361605925755, -20024.39141564267, 187500.0, -0.04, 0.982, 0.082, 192.0, 254.0, 192.0, 30.0, 176.0, 2.0, 144.0, 0.0, 0.0, 0.0, 1.700944728189276E9, 0.0, 2023-11-25 15:38:48.189
148.0, 72988.90626298264, 81120.2473783788, -17691.964529986923, -18975.111123932737, -8241.892843472106, -5252.70465048607, -19972.200092339528, 187500.0, -0.04, 0.982, 0.082, 192.0, 0.0, 0.0, 0.0, 0.0, 0.0, 0.0, 0.0, 0.0, 0.0, 1.700944728194383E9, 0.0, 2023-11-25 15:38:48.194
149.0, 72982.7818850019, 81095.3922385445, -17719.32306520022, -19056.71734293906, -8072.824248412163, -5312.696732604115, -20005.05715668883, 187500.0, -0.04, 0.982, 0.082, 192.0, 0.0, 0.0, 0.0, 0.0, 0.0, 0.0, 0.0, 0.0, 0.0, 1.700944728198241E9, 0.0, 2023-11-25 15:38:48.198
150.0, 72973.48355930849, 81108.13273288403, -17985.6441003852, -19325.76529094759, -8475.289759074421, -5436.525396886515, -20005.52654332239, 187500.0, -0.04, 0.982, 0.082, 192.0, 0.0, 0.0, 0.0, 0.0, 0.0, 0.0, 0.0, 0.0, 0.0, 1.700944728201276E9, 0.0, 2023-11-25 15:38:48.201
151.0, 72995.61178631923, 81142.48736411183, -18174.382230565814, -19494.878589496446, -8965.038831834654, -5596.765052886612, -20022.96090399753, 187500.0, -0.04, 0.982, 0.082, 192.0, 0.0, 0.0, 0.0, 0.0, 0.0, 0.0, 0.0, 0.0, 0.0, 1.700944728205302E9, 0.0, 2023-11-25 15:38:48.205
152.0, 72983.72065826901, 81120.98498594582, -17760.00324010888, -19053.029305103937, -8388.095603954269, -5320.966878052578, -19965.583975980757, 187500.0, -0.04, 0.982, 0.082, 192.0, 0.0, 0.0, 0.0, 0.0, 0.0, 0.0, 0.0, 0.0, 0.0, 1.700944728209289E9, 0.0, 2023-11-25 15:38:48.209
153.0, 72975.472864565, 81095.7945699447, -17677.815875746714, -18988.790391539384, -8030.892375814006, -5264.618130280749, -19993.68011876108, 187500.0, -0.04, 0.982, 0.082, 192.0, 0.0, 0.0, 0.0, 0.0, 0.0, 0.0, 0.0, 0.0, 0.0, 1.700944728213508E9, 0.0, 2023-11-25 15:38:48.213
154.0, 72972.99182093046, 81095.7945699447, -17929.36240784674, -19291.0530318085, -8388.117955698724, -5421.102693212354, -19998.19517114105, 187500.0, -0.04, 0.982, 0.082, 192.0, 0.0, 0.0, 0.0, 0.0, 0.0, 0.0, 0.0, 0.0, 0.0, 1.700944728217312E9, 0.0, 2023-11-25 15:38:48.217
155.0, 73000.1268386992, 81135.46891635287, -18174.851617199376, -19483.210978890776, -8917.250802189208, -5558.454162890215, -20019.697549307057, 187500.0, -0.04, 0.982, 0.082, 192.0, 0.0, 0.0, 0.0, 0.0, 0.0, 0.0, 0.0, 0.0, 0.0, 1.700944728222323E9, 0.0, 2023-11-25 15:38:48.222
156.0, 73001.60205383325, 81137.34646288712, -17832.601706099715, -19147.84540508335, -8531.280878934966, -5375.125154867787, -19964.891071902643, 187500.0, -0.04, 0.982, 0.082, 192.0, 0.0, 0.0, 0.0, 0.0, 0.0, 0.0, 0.0, 0.0, 0.0, 1.700944728226326E9, 0.0, 2023-11-25 15:38:48.226
157.0, 72981.5301873124, 81099.66142173547, -17640.55551773972, -18897.93055032856, -7983.640788035487, -5192.556106156839, -19986.639319257658, 187500.0, -0.036000000000000004, 0.99, 0.08, 192.0, 254.0, 224.0, 30.0, 240.0, 2.0, 128.0, 0.0, 0.0, 0.0, 1.700944728229344E9, 0.0, 2023-11-25 15:38:48.229
158.0, 72975.94225119856, 81099.37084905754, -17892.10204983974, -19257.301897680987, -8319.811024643306, -5415.581812331893, -19990.99790942644, 187500.0, -0.036000000000000004, 0.99, 0.08, 192.0, 0.0, 0.0, 0.0, 0.0, 0.0, 0.0, 0.0, 0.0, 0.0, 1.700944728233387E9, 0.0, 2023-11-25 15:38:48.233
159.0, 72988.97331821601, 81127.73521277132, -18168.526073518526, -19453.70667620977, -8855.18000783682, -5532.302621877507, -20013.282598648384, 187500.0, -0.036000000000000004, 0.99, 0.08, 192.0, 0.0, 0.0, 0.0, 0.0, 0.0, 0.0, 0.0, 0.0, 0.0, 1.700944728237355E9, 0.0, 2023-11-25 15:38:48.237
160.0, 72990.26971939442, 81120.13561965652, -17948.27198365593, -19269.595357131406, -8713.380541012351, -5476.087984572409, -19970.8142841833, 187500.0, -0.036000000000000004, 0.99, 0.08, 192.0, 0.0, 0.0, 0.0, 0.0, 0.0, 0.0, 0.0, 0.0, 0.0, 1.700944728241387E9, 0.0, 2023-11-25 15:38:48.241
161.0, 72976.0763616653, 81093.00060188778, -17634.453491503416, -18865.63227959064, -8007.043064480194, -5175.5464286263505, -19970.076676616274, 187500.0, -0.036000000000000004, 0.99, 0.08, 192.0, 0.0, 0.0, 0.0, 0.0, 0.0, 0.0, 0.0, 0.0, 0.0, 1.700944728245378E9, 0.0, 2023-11-25 15:38:48.245
162.0, 72969.43789356208, 81081.2882877932, -17859.043819790342, -19225.29419962099, -8267.396183895611, -5416.364123387829, -19999.268054874905, 187500.0, -0.036000000000000004, 0.99, 0.08, 192.0, 0.0, 0.0, 0.0, 0.0, 0.0, 0.0, 0.0, 0.0, 0.0, 1.700944728249638E9, 0.0, 2023-11-25 15:38:48.249
163.0, 72985.24057689197, 81122.66136677997, -18143.268602284028, -19438.2392690467, -8782.35802440143, -5514.778854224545, -20010.376871869194, 187500.0, -0.036000000000000004, 0.99, 0.08, 192.0, 0.0, 0.0, 0.0, 0.0, 0.0, 0.0, 0.0, 0.0, 0.0, 1.700944728254453E9, 0.0, 2023-11-25 15:38:48.254
164.0, 73000.5291700994, 81137.07824195364, -18032.53806025244, -19371.0722769585, -8846.79810366608, -5543.992584227632, -19976.893958675144, 187500.0, -0.036000000000000004, 0.99, 0.08, 192.0, 0.0, 0.0, 0.0, 0.0, 0.0, 0.0, 0.0, 0.0, 0.0, 1.700944728257449E9, 0.0, 2023-11-25 15:38:48.257
165.0, 72989.15213217166, 81114.9500149429, -17633.559421725204, -18870.236738948435, -8062.296576773713, -5178.496858894451, -19956.106836331706, 187500.0, -0.036000000000000004, 0.99, 0.08, 192.0, 0.0, 0.0, 0.0, 0.0, 0.0, 0.0, 0.0, 0.0, 0.0, 1.700944728261439E9, 0.0, 2023-11-25 15:38:48.261
166.0, 72977.86450122172, 81094.20759608837, -17810.47347908896, -19180.277786288, -8206.308866299256, -5390.212582375119, -19994.216560628007, 187500.0, -0.04, 0.986, 0.084, 192.0, 254.0, 192.0, 30.0, 208.0, 2.0, 160.0, 0.0, 0.0, 0.0, 1.700944728265527E9, 0.0, 2023-11-25 15:38:48.265
167.0, 72980.70317276755, 81115.50880855428, -18093.491267382058, -19392.708765591236, -8673.929712048735, -5472.154077548275, -20011.04742420285, 187500.0, -0.04, 0.986, 0.084, 192.0, 0.0, 0.0, 0.0, 0.0, 0.0, 0.0, 0.0, 0.0, 0.0, 1.700944728269446E9, 0.0, 2023-11-25 15:38:48.269
168.0, 73003.74782130097, 81136.96648323137, -18112.557305402435, -19449.638658718904, -8946.688049636847, -5592.138241784363, -20012.880267248187, 187500.0, -0.04, 0.986, 0.084, 192.0, 0.0, 0.0, 0.0, 0.0, 0.0, 0.0, 0.0, 0.0, 0.0, 1.700944728273454E9, 0.0, 2023-11-25 15:38:48.273
169.0, 72999.18806543208, 81127.62345404905, -17653.854805690626, -18917.30951277131, -8157.515008153321, -5210.437501721085, -19966.075714358773, 187500.0, -0.04, 0.986, 0.084, 192.0, 0.0, 0.0, 0.0, 0.0, 0.0, 0.0, 0.0, 0.0, 0.0, 1.700944728277484E9, 0.0, 2023-11-25 15:38:48.277
170.0, 72983.09480942426, 81099.03557289072, -17753.632992939114, -19115.34596864533, -8134.51506310881, -5349.375945255273, -20008.18640091257, 187500.0, -0.04, 0.986, 0.084, 192.0, 0.0, 0.0, 0.0, 0.0, 0.0, 0.0, 0.0, 0.0, 0.0, 1.700944728282582E9, 0.0, 2023-11-25 15:38:48.282
171.0, 72984.25710013595, 81121.81200049067, -18019.015254856975, -19330.77208170558, -8551.464504178108, -5428.098789226865, -20012.232066658984, 187500.0, -0.04, 0.986, 0.084, 192.0, 0.0, 0.0, 0.0, 0.0, 0.0, 0.0, 0.0, 0.0, 0.0, 1.700944728285564E9, 0.0, 2023-11-25 15:38:48.285
172.0, 73011.10154522676, 81156.0548729962, -18140.25111678256, -19478.003022432687, -8974.761840672712, -5590.8194888615, -20020.613970829723, 187500.0, -0.04, 0.986, 0.084, 192.0, 0.0, 0.0, 0.0, 0.0, 0.0, 0.0, 0.0, 0.0, 0.0, 1.700944728288582E9, 0.0, 2023-11-25 15:38:48.288
173.0, 72992.57194907332, 81131.31149188417, -17690.422259619507, -18988.14219095018, -8278.840277056728, -5254.872769698235, -19970.121380105185, 187500.0, -0.04, 0.986, 0.084, 192.0, 0.0, 0.0, 0.0, 0.0, 0.0, 0.0, 0.0, 0.0, 0.0, 1.700944728293535E9, 0.0, 2023-11-25 15:38:48.293
174.0, 72980.21143438952, 81105.36111657157, -17701.41931789152, -19051.509386480975, -8077.048728114216, -5292.736624805525, -20010.712148036022, 187500.0, -0.04, 0.986, 0.084, 192.0, 0.0, 0.0, 0.0, 0.0, 0.0, 0.0, 0.0, 0.0, 0.0, 1.70094472829755E9, 0.0, 2023-11-25 15:38:48.297
175.0, 72977.30570761034, 81109.3397270846, -17958.97846925002, -19309.91790412878, -8468.807753182382, -5412.430216363695, -20002.889037476663, 187500.0, -0.04, 0.986, 0.084, 192.0, 0.0, 0.0, 0.0, 0.0, 0.0, 0.0, 0.0, 0.0, 0.0, 1.70094472830161E9, 0.0, 2023-11-25 15:38:48.301
176.0, 73008.06170798084, 81150.93632351594, -18152.768093677532, -19482.80864749058, -8970.783230159668, -5569.406517673317, -20004.67717703309, 187500.0, -0.042, 0.99, 0.08600000000000001, 192.0, 254.0, 176.0, 30.0, 240.0, 2.0, 176.0, 0.0, 0.0, 0.0, 1.700944728305715E9, 0.0, 2023-11-25 15:38:48.305
177.0, 73001.49029511098, 81130.39507036151, -17736.779777619813, -19042.702799165585, -8414.180089733612, -5295.105909717788, -19935.766748877377, 187500.0, -0.042, 0.99, 0.08600000000000001, 192.0, 0.0, 0.0, 0.0, 0.0, 0.0, 0.0, 0.0, 0.0, 0.0, 1.700944728310573E9, 0.0, 2023-11-25 15:38:48.310
178.0, 72994.18127467409, 81101.27074733624, -17637.359218282607, -18950.613612009718, -8029.260698468769, -5227.89421414068, -19963.706429446513, 187500.0, -0.042, 0.99, 0.08600000000000001, 192.0, 0.0, 0.0, 0.0, 0.0, 0.0, 0.0, 0.0, 0.0, 0.0, 1.700944728313627E9, 0.0, 2023-11-25 15:38:48.313
179.0, 72988.79450426037, 81102.52244502574, -17879.138038055666, -19277.418467690764, -8390.420185377621, -5409.54684132896, -19958.118493332684, 187500.0, -0.042, 0.99, 0.08600000000000001, 192.0, 0.0, 0.0, 0.0, 0.0, 0.0, 0.0, 0.0, 0.0, 0.0, 1.70094472831674E9, 0.0, 2023-11-25 15:38:48.316
180.0, 73001.11031545524, 81129.72451802786, -18134.68553241319, -19472.549196785592, -8929.119578494976, -5545.1101714503975, -19984.873531445686, 187500.0, -0.042, 0.99, 0.08600000000000001, 192.0, 0.0, 0.0, 0.0, 0.0, 0.0, 0.0, 0.0, 0.0, 0.0, 1.700944728321611E9, 0.0, 2023-11-25 15:38:48.321
181.0, 72998.00342297595, 81126.28234938173, -17813.155688423598, -19172.253510028542, -8597.509097756041, -5396.515774311516, -19924.233248738437, 187500.0, -0.042, 0.99, 0.08600000000000001, 192.0, 0.0, 0.0, 0.0, 0.0, 0.0, 0.0, 0.0, 0.0, 0.0, 1.700944728325665E9, 0.0, 2023-11-25 15:38:48.325
182.0, 72986.78284725938, 81103.03653514822, -17591.225217726853, -18898.06466079529, -8018.3753989190345, -5186.8117078318255, -19936.10202504421, 187500.0, -0.042, 0.99, 0.08600000000000001, 192.0, 0.0, 0.0, 0.0, 0.0, 0.0, 0.0, 0.0, 0.0, 0.0, 1.700944728329687E9, 0.0, 2023-11-25 15:38:48.329
183.0, 72986.02288794791, 81100.22021534684, -17829.87479327617, -19262.979240772635, -8338.564138241309, -5414.866556509323, -19946.495586215926, 187500.0, -0.042, 0.99, 0.08600000000000001, 192.0, 0.0, 0.0, 0.0, 0.0, 0.0, 0.0, 0.0, 0.0, 0.0, 1.700944728334032E9, 0.0, 2023-11-25 15:38:48.334
184.0, 73002.20555093355, 81131.42325060646, -18105.158877987727, -19460.345144312996, -8867.741688220704, -5522.691371761724, -19965.09223760274, 187500.0, -0.042, 0.99, 0.08600000000000001, 192.0, 0.0, 0.0, 0.0, 0.0, 0.0, 0.0, 0.0, 0.0, 0.0, 1.700944728336693E9, 0.0, 2023-11-25 15:38:48.336
185.0, 73010.14042021519, 81143.22497167885, -17896.88532315318, -19296.953892344703, -8758.821637489991, -5480.401871252283, -19924.412062694082, 187500.0, -0.042, 0.99, 0.08600000000000001, 192.0, 0.0, 0.0, 0.0, 0.0, 0.0, 0.0, 0.0, 0.0, 0.0, 1.700944728340638E9, 0.0, 2023-11-25 15:38:48.340
186.0, 72991.87904499519, 81116.73815449931, -17562.369115635054, -18867.68864008053, -8030.557099647177, -5163.945873254046, -19918.690016113524, 187500.0, -0.05, 0.984, 0.08600000000000001, 192.0, 254.0, 112.0, 30.0, 192.0, 2.0, 176.0, 0.0, 0.0, 0.0, 1.70094472834477E9, 0.0, 2023-11-25 15:38:48.344
187.0, 72978.91503321112, 81093.60409898807, -17780.298624074298, -19212.061966903446, -8265.965672250471, -5396.962809200622, -19951.390618251637, 187500.0, -0.05, 0.984, 0.08600000000000001, 192.0, 0.0, 0.0, 0.0, 0.0, 0.0, 0.0, 0.0, 0.0, 0.0, 1.700944728349713E9, 0.0, 2023-11-25 15:38:48.349
188.0, 72989.59916706076, 81120.62735803454, -18074.022897961488, -19432.60662944396, -8781.799230790048, -5496.115147604364, -19972.825941184277, 187500.0, -0.05, 0.984, 0.08600000000000001, 192.0, 0.0, 0.0, 0.0, 0.0, 0.0, 0.0, 0.0, 0.0, 0.0, 1.700944728353713E9, 0.0, 2023-11-25 15:38:48.353
189.0, 73005.3347951573, 81129.47864883883, -17987.387536452716, -19405.11398376393, -8901.157546181386, -5557.873017534378, -19950.988286851443, 187500.0, -0.05, 0.984, 0.08600000000000001, 192.0, 0.0, 0.0, 0.0, 0.0, 0.0, 0.0, 0.0, 0.0, 0.0, 1.700944728357664E9, 0.0, 2023-11-25 15:38:48.357
190.0, 73001.08796371079, 81110.23379686283, -17570.080467472133, -18878.529236141352, -8097.120594635081, -5175.635835604172, -19929.70942612999, 187500.0, -0.05, 0.984, 0.08600000000000001, 192.0, 0.0, 0.0, 0.0, 0.0, 0.0, 0.0, 0.0, 0.0, 0.0, 1.700944728361749E9, 0.0, 2023-11-25 15:38:48.361
191.0, 73012.97909176101, 81107.77510497274, -17730.230716494407, -19168.207844282133, -8207.605267477664, -5377.270922335497, -19957.24677529893, 187500.0, -0.05, 0.984, 0.08600000000000001, 192.0, 0.0, 0.0, 0.0, 0.0, 0.0, 0.0, 0.0, 0.0, 0.0, 1.70094472836476E9, 0.0, 2023-11-25 15:38:48.364
192.0, 73002.38436488919, 81114.36886958705, -18013.62848444325, -19386.986719010678, -8675.181409738232, -5465.716775145147, -19966.790970181344, 187500.0, -0.05, 0.984, 0.08600000000000001, 192.0, 0.0, 0.0, 0.0, 0.0, 0.0, 0.0, 0.0, 0.0, 0.0, 1.700944728368984E9, 0.0, 2023-11-25 15:38:48.368
193.0, 73021.49510639848, 81148.38822464804, -18055.33683959685, -19457.08178962252, -8978.047547107642, -5590.998302817143, -19975.396391796636, 187500.0, -0.05, 0.984, 0.08600000000000001, 192.0, 0.0, 0.0, 0.0, 0.0, 0.0, 0.0, 0.0, 0.0, 0.0, 1.700944728372782E9, 0.0, 2023-11-25 15:38:48.372
194.0, 73007.45821088055, 81124.27069238076, -17598.75775560829, -18894.063698537793, -8184.337101499689, -5189.40451018864, -19927.56365866228, 187500.0, -0.05, 0.984, 0.08600000000000001, 192.0, 0.0, 0.0, 0.0, 0.0, 0.0, 0.0, 0.0, 0.0, 0.0, 1.700944728377757E9, 0.0, 2023-11-25 15:38:48.377
195.0, 72997.64579506467, 81097.80622694567, -17697.351300400653, -19100.0573754379, -8153.938729040472, -5334.2661660034855, -19959.057266599808, 187500.0, -0.05, 0.984, 0.08600000000000001, 192.0, 0.0, 0.0, 0.0, 0.0, 0.0, 0.0, 0.0, 0.0, 0.0, 1.700944728381722E9, 0.0, 2023-11-25 15:38:48.381
196.0, 72997.10935319774, 81121.0520411792, -17964.678164086123, -19353.392047094352, -8579.851219636348, -5440.8616353108455, -19956.509167731903, 187500.0, -0.044, 0.98, 0.084, 192.0, 254.0, 160.0, 30.0, 160.0, 2.0, 160.0, 0.0, 0.0, 0.0, 1.700944728385796E9, 0.0, 2023-11-25 15:38:48.385
197.0, 73018.65643485266, 81145.59425659112, -18100.666177352214, -19485.490856825218, -9006.523669543705, -5586.505602181626, -19964.555795735814, 187500.0, -0.044, 0.98, 0.084, 192.0, 0.0, 0.0, 0.0, 0.0, 0.0, 0.0, 0.0, 0.0, 0.0, 1.700944728389816E9, 0.0, 2023-11-25 15:38:48.389
198.0, 73005.3347951573, 81119.46506732286, -17661.029715660778, -18972.65243204265, -8317.017056586392, -5241.573481747328, -19915.359606189682, 187500.0, -0.044, 0.98, 0.084, 192.0, 0.0, 0.0, 0.0, 0.0, 0.0, 0.0, 0.0, 0.0, 0.0, 1.700944728392824E9, 0.0, 2023-11-25 15:38:48.392
199.0, 73008.03935623639, 81107.99862241729, -17664.226015117885, -19025.201383257077, -8095.175992867469, -5278.52091533195, -19959.124321833173, 187500.0, -0.044, 0.98, 0.084, 192.0, 0.0, 0.0, 0.0, 0.0, 0.0, 0.0, 0.0, 0.0, 0.0, 1.700944728396835E9, 0.0, 2023-11-25 15:38:48.396
200.0, 73009.31340567034, 81121.9014074685, -17917.471279796515, -19306.565142460484, -8478.329596320344, -5415.045370464965, -19952.776426407865, 187500.0, -0.044, 0.98, 0.084, 192.0, 0.0, 0.0, 0.0, 0.0, 0.0, 0.0, 0.0, 0.0, 0.0, 1.700944728401102E9, 0.0, 2023-11-25 15:38:48.401
201.0, 73018.70113834157, 81135.11128844158, -18135.7807678915, -19472.303327596586, -8984.104869855031, -5555.3249186664725, -19972.580071995268, 187500.0, -0.044, 0.98, 0.084, 192.0, 0.0, 0.0, 0.0, 0.0, 0.0, 0.0, 0.0, 0.0, 0.0, 1.700944728404865E9, 0.0, 2023-11-25 15:38:48.404
202.0, 73010.40864114865, 81120.51559931226, -17754.46000748396, -19087.719212498574, -8488.477288303053, -5327.784160111447, -19921.640446381625, 187500.0, -0.044, 0.98, 0.084, 192.0, 0.0, 0.0, 0.0, 0.0, 0.0, 0.0, 0.0, 0.0, 0.0, 1.700944728409867E9, 0.0, 2023-11-25 15:38:48.409
203.0, 72995.50002759697, 81094.7440379553, -17635.749892681826, -18960.80600748134, -8061.536617462232, -5234.398571777174, -19953.89401363063, 187500.0, -0.044, 0.98, 0.084, 192.0, 0.0, 0.0, 0.0, 0.0, 0.0, 0.0, 0.0, 0.0, 0.0, 1.700944728413851E9, 0.0, 2023-11-25 15:38:48.413
204.0, 72982.24544313496, 81093.82761643262, -17888.749288171446, -19287.990842818122, -8412.079025754812, -5411.960829730133, -19958.90080438862, 187500.0, -0.044, 0.98, 0.084, 192.0, 0.0, 0.0, 0.0, 0.0, 0.0, 0.0, 0.0, 0.0, 0.0, 1.700944728417853E9, 0.0, 2023-11-25 15:38:48.417
205.0, 73002.04908872236, 81127.95873021588, -18161.105294359364, -19498.18664767583, -8966.82697139108, -5564.220912959685, -19985.722897734988, 187500.0, -0.044, 0.98, 0.084, 192.0, 0.0, 0.0, 0.0, 0.0, 0.0, 0.0, 0.0, 0.0, 0.0, 1.7009447284209E9, 0.0, 2023-11-25 15:38:48.420
206.0, 73004.26191142344, 81125.32122437016, -17863.82709310378, -19251.80336854498, -8686.089061032422, -5459.324176230929, -19940.19239427953, 187500.0, -0.044, 0.978, 0.08, 192.0, 254.0, 160.0, 30.0, 144.0, 2.0, 128.0, 0.0, 0.0, 0.0, 1.700944728424887E9, 0.0, 2023-11-25 15:38:48.424
207.0, 72994.44949560757, 81094.94520365538, -17612.19115402593, -18929.55826873282, -8055.032259825738, -5216.114844812732, -19943.254583269907, 187500.0, -0.044, 0.978, 0.08, 192.0, 0.0, 0.0, 0.0, 0.0, 0.0, 0.0, 0.0, 0.0, 0.0, 1.700944728428906E9, 0.0, 2023-11-25 15:38:48.428
208.0, 72990.69440253907, 81092.48651176531, -17850.706619108514, -19277.977261302145, -8353.338641326267, -5437.777094576013, -19959.750170677922, 187500.0, -0.044, 0.978, 0.08, 192.0, 0.0, 0.0, 0.0, 0.0, 0.0, 0.0, 0.0, 0.0, 0.0, 1.700944728432936E9, 0.0, 2023-11-25 15:38:48.432
209.0, 73000.9762049885, 81123.91306446947, -18140.809910393942, -19489.80474350509, -8890.205191398287, -5547.501808107115, -19990.126191392683, 187500.0, -0.044, 0.978, 0.08, 192.0, 0.0, 0.0, 0.0, 0.0, 0.0, 0.0, 0.0, 0.0, 0.0, 1.700944728437999E9, 0.0, 2023-11-25 15:38:48.437
210.0, 73019.8857807977, 81138.1511256875, -17954.55282384787, -19355.73898026216, -8824.848690610968, -5529.598060798414, -19954.542214219837, 187500.0, -0.044, 0.978, 0.08, 192.0, 0.0, 0.0, 0.0, 0.0, 0.0, 0.0, 0.0, 0.0, 0.0, 1.700944728441926E9, 0.0, 2023-11-25 15:38:48.441
211.0, 73011.66033883815, 81107.57393927264, -17597.886037574535, -18906.625378921675, -8075.126478091059, -5200.64743764966, -19943.835728625745, 187500.0, -0.044, 0.978, 0.08, 192.0, 0.0, 0.0, 0.0, 0.0, 0.0, 0.0, 0.0, 0.0, 0.0, 1.700944728445901E9, 0.0, 2023-11-25 15:38:48.445
212.0, 73000.14919044367, 81090.96659314235, -17813.870944246166, -19280.480656681142, -8311.317361750289, -5453.445667439183, -19983.28655758936, 187500.0, -0.044, 0.978, 0.08, 192.0, 0.0, 0.0, 0.0, 0.0, 0.0, 0.0, 0.0, 0.0, 0.0, 1.700944728449018E9, 0.0, 2023-11-25 15:38:48.449
213.0, 73012.15207721616, 81141.43683212243, -18076.079258451373, -19444.00601911617, -8775.473687109195, -5502.2618773295735, -19980.134961621163, 187500.0, -0.044, 0.978, 0.08, 192.0, 0.0, 0.0, 0.0, 0.0, 0.0, 0.0, 0.0, 0.0, 0.0, 1.70094472845292E9, 0.0, 2023-11-25 15:38:48.452
214.0, 73025.04903376687, 81151.0033787493, -18013.024987342953, -19392.9769865247, -8910.567630597072, -5554.408497143805, -19960.644240456135, 187500.0, -0.044, 0.978, 0.08, 192.0, 0.0, 0.0, 0.0, 0.0, 0.0, 0.0, 0.0, 0.0, 0.0, 1.700944728456955E9, 0.0, 2023-11-25 15:38:48.456
215.0, 73007.59232134729, 81121.67789002394, -17595.784973595735, -18867.01808774687, -8111.202193641925, -5187.348149698752, -19948.395484494627, 187500.0, -0.044, 0.978, 0.08, 192.0, 0.0, 0.0, 0.0, 0.0, 0.0, 0.0, 0.0, 0.0, 0.0, 1.700944728460961E9, 0.0, 2023-11-25 15:38:48.460
216.0, 73011.57093186032, 81115.37469808754, -17764.9429756335, -19177.528521719996, -8221.955087417971, -5408.272791895008, -19993.85893271672, 187500.0, -0.048, 0.984, 0.078, 192.0, 254.0, 128.0, 30.0, 192.0, 2.0, 112.0, 0.0, 0.0, 0.0, 1.700944728465064E9, 0.0, 2023-11-25 15:38:48.465
217.0, 73016.7341848295, 81138.08407045413, -18042.52929002396, -19403.70582386325, -8678.198895239699, -5491.46598475766, -19994.6188920282, 187500.0, -0.048, 0.984, 0.078, 192.0, 0.0, 0.0, 0.0, 0.0, 0.0, 0.0, 0.0, 0.0, 0.0, 1.700944728470022E9, 0.0, 2023-11-25 15:38:48.470
218.0, 73038.25891473996, 81162.31336144368, -18098.319244184404, -19482.585130046027, -9002.433300308383, -5611.897183882855, -19988.315700091804, 187500.0, -0.048, 0.984, 0.078, 192.0, 0.0, 0.0, 0.0, 0.0, 0.0, 0.0, 0.0, 0.0, 0.0, 1.700944728474009E9, 0.0, 2023-11-25 15:38:48.474
219.0, 73009.3357574148, 81126.148238915, -17649.697381221937, -18967.399772095654, -8239.165930648558, -5257.264406354953, -19957.202071810018, 187500.0, -0.048, 0.984, 0.078, 192.0, 0.0, 0.0, 0.0, 0.0, 0.0, 0.0, 0.0, 0.0, 0.0, 1.700944728477021E9, 0.0, 2023-11-25 15:38:48.477
220.0, 73003.61371083424, 81105.27170959374, -17719.770100089325, -19113.155497688713, -8147.479074892888, -5353.265148790497, -19987.734554735966, 187500.0, -0.048, 0.984, 0.078, 192.0, 0.0, 0.0, 0.0, 0.0, 0.0, 0.0, 0.0, 0.0, 0.0, 1.700944728481019E9, 0.0, 2023-11-25 15:38:48.481
221.0, 73004.5301323569, 81122.50490456879, -17986.0464317854, -19353.59321279445, -8565.747268885048, -5450.472885426627, -19973.362383051204, 187500.0, -0.048, 0.984, 0.078, 192.0, 0.0, 0.0, 0.0, 0.0, 0.0, 0.0, 0.0, 0.0, 0.0, 1.700944728485095E9, 0.0, 2023-11-25 15:38:48.485
222.0, 73012.17442896061, 81140.31924489967, -18160.36768679234, -19546.35465697702, -9045.706277573858, -5629.197434091263, -20003.6713485326, 187500.0, -0.048, 0.984, 0.078, 192.0, 0.0, 0.0, 0.0, 0.0, 0.0, 0.0, 0.0, 0.0, 0.0, 1.700944728489077E9, 0.0, 2023-11-25 15:38:48.489
223.0, 73003.09962071176, 81131.11032618408, -17723.83811758019, -19066.82033143286, -8387.961493487537, -5307.511127890483, -19968.266185315395, 187500.0, -0.048, 0.984, 0.078, 192.0, 0.0, 0.0, 0.0, 0.0, 0.0, 0.0, 0.0, 0.0, 0.0, 1.700944728493121E9, 0.0, 2023-11-25 15:38:48.493
224.0, 73012.06267023835, 81121.43202083494, -17686.01896596181, -19035.661999662163, -8099.020492913783, -5295.709406818081, -19992.7189937495, 187500.0, -0.048, 0.984, 0.078, 192.0, 0.0, 0.0, 0.0, 0.0, 0.0, 0.0, 0.0, 0.0, 0.0, 1.700944728497135E9, 0.0, 2023-11-25 15:38:48.497
225.0, 73002.71964105603, 81114.3912213315, -17939.17482366262, -19307.213343049687, -8476.943788164113, -5428.746989816069, -19967.439170770547, 187500.0, -0.048, 0.984, 0.078, 192.0, 0.0, 0.0, 0.0, 0.0, 0.0, 0.0, 0.0, 0.0, 0.0, 1.700944728502113E9, 0.0, 2023-11-25 15:38:48.502
226.0, 73009.46986788153, 81126.23764589282, -18178.517303290046, -19516.246857195718, -9019.577088305603, -5600.855422121933, -19994.350671094737, 187500.0, -0.044, 0.986, 0.082, 192.0, 254.0, 160.0, 30.0, 208.0, 2.0, 144.0, 0.0, 0.0, 0.0, 1.700944728505128E9, 0.0, 2023-11-25 15:38:48.505
227.0, 73023.55146688837, 81149.46110838189, -17790.71453699047, -19131.394521164242, -8536.086503992856, -5373.560532755916, -19927.04956853981, 187500.0, -0.044, 0.986, 0.082, 192.0, 0.0, 0.0, 0.0, 0.0, 0.0, 0.0, 0.0, 0.0, 0.0, 1.700944728509149E9, 0.0, 2023-11-25 15:38:48.509
228.0, 73029.74290010249, 81135.96065473088, -17625.71395942139, -18936.08497811377, -8044.862216098573, -5233.593908976783, -19933.79979536531, 187500.0, -0.044, 0.986, 0.082, 192.0, 0.0, 0.0, 0.0, 0.0, 0.0, 0.0, 0.0, 0.0, 0.0, 1.700944728513179E9, 0.0, 2023-11-25 15:38:48.513
229.0, 73003.18902768959, 81100.19786360239, -17887.117610826208, -19269.19302573121, -8392.633008078696, -5421.661486823737, -19954.117531075186, 187500.0, -0.044, 0.986, 0.082, 192.0, 0.0, 0.0, 0.0, 0.0, 0.0, 0.0, 0.0, 0.0, 0.0, 1.700944728517232E9, 0.0, 2023-11-25 15:38:48.517
230.0, 73005.3347951573, 81114.9947184318, -18181.825361469433, -19529.121462001975, -8973.48779123876, -5587.0196923040985, -20000.18447639757, 187500.0, -0.044, 0.986, 0.082, 192.0, 0.0, 0.0, 0.0, 0.0, 0.0, 0.0, 0.0, 0.0, 0.0, 1.700944728521192E9, 0.0, 2023-11-25 15:38:48.521
231.0, 73011.50387662696, 81133.36785237407, -17887.989328859967, -19280.19008400322, -8711.72651192266, -5470.053013569476, -19942.315810002783, 187500.0, -0.044, 0.986, 0.082, 192.0, 0.0, 0.0, 0.0, 0.0, 0.0, 0.0, 0.0, 0.0, 0.0, 1.700944728527278E9, 0.0, 2023-11-25 15:38:48.527
232.0, 73004.10544921225, 81110.47966605183, -17599.87534283106, -18894.063698537793, -8031.138245003015, -5190.4550421780405, -19935.677341899558, 187500.0, -0.044, 0.986, 0.082, 192.0, 0.0, 0.0, 0.0, 0.0, 0.0, 0.0, 0.0, 0.0, 0.0, 1.700944728530161E9, 0.0, 2023-11-25 15:38:48.530
233.0, 73001.28912941088, 81110.56907302965, -17839.57545036977, -19235.598353814883, -8315.005399585414, -5406.685818038681, -19956.509167731903, 187500.0, -0.044, 0.986, 0.082, 192.0, 0.0, 0.0, 0.0, 0.0, 0.0, 0.0, 0.0, 0.0, 0.0, 1.700944728534489E9, 0.0, 2023-11-25 15:38:48.534
234.0, 73011.19095220459, 81131.55736107318, -18133.83616612389, -19447.783463929114, -8851.648432212882, -5515.829386213945, -19982.884226189166, 187500.0, -0.044, 0.986, 0.082, 192.0, 0.0, 0.0, 0.0, 0.0, 0.0, 0.0, 0.0, 0.0, 0.0, 1.700944728537245E9, 0.0, 2023-11-25 15:38:48.537
235.0, 73020.80220232037, 81138.82167802117, -17979.87735031573, -19359.44936984174, -8843.870025142434, -5529.888633476333, -19962.924118390576, 187500.0, -0.044, 0.986, 0.082, 192.0, 0.0, 0.0, 0.0, 0.0, 0.0, 0.0, 0.0, 0.0, 0.0, 1.700944728541213E9, 0.0, 2023-11-25 15:38:48.541
236.0, 73019.4387459086, 81114.61473877606, -17605.217409755875, -18896.053003794314, -8082.5919607391315, -5194.299542224353, -19948.976629850466, 187500.0, -0.04, 0.984, 0.08, 192.0, 254.0, 192.0, 30.0, 192.0, 2.0, 128.0, 0.0, 0.0, 0.0, 1.70094472854525E9, 0.0, 2023-11-25 15:38:48.545
237.0, 73020.19870522007, 81113.65361376449, -17801.197505140008, -19222.321417608433, -8274.72755607695, -5416.766454788024, -19976.648089486134, 187500.0, -0.04, 0.984, 0.08, 192.0, 0.0, 0.0, 0.0, 0.0, 0.0, 0.0, 0.0, 0.0, 0.0, 1.700944728549226E9, 0.0, 2023-11-25 15:38:48.549
238.0, 73021.76332733195, 81142.397957134, -18097.00049126154, -19446.397655772886, -8776.92655049879, -5512.789548968023, -19992.56253153831, 187500.0, -0.04, 0.984, 0.08, 192.0, 0.0, 0.0, 0.0, 0.0, 0.0, 0.0, 0.0, 0.0, 0.0, 1.700944728553716E9, 0.0, 2023-11-25 15:38:48.553
239.0, 73048.00427532247, 81184.37453322108, -18033.208612586095, -19405.94099830878, -8926.660886604892, -5542.919700493777, -19959.23608055545, 187500.0, -0.04, 0.984, 0.08, 192.0, 0.0, 0.0, 0.0, 0.0, 0.0, 0.0, 0.0, 0.0, 0.0, 1.700944728558315E9, 0.0, 2023-11-25 15:38:48.558
240.0, 73016.71183308505, 81121.72259351285, -17604.43509869994, -18848.801416015795, -8118.17593791198, -5141.214149142998, -19939.633600668145, 187500.0, -0.04, 0.984, 0.08, 192.0, 0.0, 0.0, 0.0, 0.0, 0.0, 0.0, 0.0, 0.0, 0.0, 1.700944728561279E9, 0.0, 2023-11-25 15:38:48.561
241.0, 73010.67686208211, 81103.32710782613, -17777.079972872732, -19194.135867850287, -8234.092084657203, -5381.674215993192, -19992.76369723841, 187500.0, -0.04, 0.984, 0.08, 192.0, 0.0, 0.0, 0.0, 0.0, 0.0, 0.0, 0.0, 0.0, 0.0, 1.700944728564368E9, 0.0, 2023-11-25 15:38:48.564
242.0, 73035.77787110543, 81170.18117549196, -18029.274705561962, -19391.635881857383, -8652.293223415998, -5453.847998839378, -19986.639319257658, 187500.0, -0.04, 0.984, 0.08, 192.0, 0.0, 0.0, 0.0, 0.0, 0.0, 0.0, 0.0, 0.0, 0.0, 1.700944728569288E9, 0.0, 2023-11-25 15:38:48.569
243.0, 73049.05480731187, 81174.78563484974, -18107.505811155537, -19465.396638559894, -9003.461480553327, -5584.695110880746, -19984.895883190144, 187500.0, -0.04, 0.984, 0.08, 192.0, 0.0, 0.0, 0.0, 0.0, 0.0, 0.0, 0.0, 0.0, 0.0, 1.700944728573244E9, 0.0, 2023-11-25 15:38:48.573
244.0, 73020.82455406482, 81125.27652088125, -17649.809139944213, -18919.1647075611, -8245.58088130723, -5209.498728453962, -19937.71135064499, 187500.0, -0.04, 0.984, 0.08, 192.0, 0.0, 0.0, 0.0, 0.0, 0.0, 0.0, 0.0, 0.0, 0.0, 1.700944728577306E9, 0.0, 2023-11-25 15:38:48.577
245.0, 73015.01310050645, 81112.60308177509, -17726.02858853681, -19086.243997364523, -8156.464476163921, -5325.951317066111, -19984.851179701232, 187500.0, -0.04, 0.984, 0.08, 192.0, 0.0, 0.0, 0.0, 0.0, 0.0, 0.0, 0.0, 0.0, 0.0, 1.700944728581338E9, 0.0, 2023-11-25 15:38:48.581
246.0, 73030.4358041806, 81161.08401549865, -17983.7442021065, -19347.60294528043, -8563.757963628526, -5436.9277282867115, -19977.51980751989, 187500.0, -0.052000000000000005, 0.98, 0.082, 192.0, 254.0, 96.0, 30.0, 160.0, 2.0, 144.0, 0.0, 0.0, 0.0, 1.700944728586373E9, 0.0, 2023-11-25 15:38:48.586
247.0, 73043.51157468696, 81169.64473362503, -18150.599974465367, -19505.026281479157, -9033.770446034723, -5600.877773866388, -19995.132982150673, 187500.0, -0.052000000000000005, 0.98, 0.082, 192.0, 0.0, 0.0, 0.0, 0.0, 0.0, 0.0, 0.0, 0.0, 0.0, 1.700944728589314E9, 0.0, 2023-11-25 15:38:48.589
248.0, 73029.45232742457, 81139.04519546572, -17714.91977154252, -19029.470566448043, -8398.690330826084, -5289.920305004157, -19938.359551234193, 187500.0, -0.052000000000000005, 0.98, 0.082, 192.0, 0.0, 0.0, 0.0, 0.0, 0.0, 0.0, 0.0, 0.0, 0.0, 1.700944728592348E9, 0.0, 2023-11-25 15:38:48.592
249.0, 73014.76723131744, 81104.51175028227, -17674.30665186723, -19003.564894624342, -8096.584152768154, -5264.863999469758, -19969.09319986024, 187500.0, -0.052000000000000005, 0.98, 0.082, 192.0, 0.0, 0.0, 0.0, 0.0, 0.0, 0.0, 0.0, 0.0, 0.0, 1.700944728597457E9, 0.0, 2023-11-25 15:38:48.597
250.0, 73021.11512674273, 81136.47474485335, -17937.74431201748, -19336.427073052775, -8489.550172036907, -5435.363106174839, -19973.04945862883, 187500.0, -0.052000000000000005, 0.98, 0.082, 192.0, 0.0, 0.0, 0.0, 0.0, 0.0, 0.0, 0.0, 0.0, 0.0, 1.700944728601367E9, 0.0, 2023-11-25 15:38:48.601
251.0, 73036.62723739473, 81166.76135859029, -18171.543559019992, -19510.86008678199, -9015.531422559194, -5578.235456733162, -19990.796743726343, 187500.0, -0.052000000000000005, 0.98, 0.082, 192.0, 0.0, 0.0, 0.0, 0.0, 0.0, 0.0, 0.0, 0.0, 0.0, 1.700944728605406E9, 0.0, 2023-11-25 15:38:48.605
252.0, 73031.64279838119, 81146.51067811379, -17795.989548681922, -19108.618093564284, -8556.672460636195, -5357.422573259184, -19939.343027990228, 187500.0, -0.052000000000000005, 0.98, 0.082, 192.0, 0.0, 0.0, 0.0, 0.0, 0.0, 0.0, 0.0, 0.0, 0.0, 1.700944728609413E9, 0.0, 2023-11-25 15:38:48.609
253.0, 73025.29490295588, 81136.94413148692, -17644.10944510811, -18935.70499845803, -8074.701794946408, -5241.461723025051, -19982.057211644318, 187500.0, -0.052000000000000005, 0.98, 0.082, 192.0, 0.0, 0.0, 0.0, 0.0, 0.0, 0.0, 0.0, 0.0, 0.0, 1.700944728613494E9, 0.0, 2023-11-25 15:38:48.613
254.0, 73026.36778668973, 81143.42613737895, -17886.380003259183, -19278.826627591447, -8414.068331011335, -5438.559405631949, -19975.262281329906, 187500.0, -0.052000000000000005, 0.98, 0.082, 192.0, 0.0, 0.0, 0.0, 0.0, 0.0, 0.0, 0.0, 0.0, 0.0, 1.700944728616416E9, 0.0, 2023-11-25 15:38:48.616
255.0, 73049.5465456899, 81177.73606511785, -18144.632058695803, -19469.24113860621, -8946.218663003287, -5546.898311006822, -19980.09025813225, 187500.0, -0.052000000000000005, 0.98, 0.082, 192.0, 0.0, 0.0, 0.0, 0.0, 0.0, 0.0, 0.0, 0.0, 0.0, 1.700944728620451E9, 0.0, 2023-11-25 15:38:48.620
0.0, 73046.93139158862, 81159.83231780915, -17878.35572699973, -19235.37483637033, -8722.0083143721, -5448.707097614658, -19943.433397225548, 187500.0, -0.054, 0.978, 0.08, 192.0, 254.0, 80.0, 30.0, 144.0, 2.0, 128.0, 0.0, 0.0, 0.0, 1.700944728624454E9, 0.0, 2023-11-25 15:38:48.624
1.0, 73039.71177812955, 81145.97423624685, -17602.66931088797, -18901.75269863042, -8068.59976871011, -5212.069179066322, -19964.24287131344, 187500.0, -0.054, 0.978, 0.08, 192.0, 0.0, 0.0, 0.0, 0.0, 0.0, 0.0, 0.0, 0.0, 0.0, 1.700944728629489E9, 0.0, 2023-11-25 15:38:48.629
2.0, 73037.65541763967, 81144.4543176239, -17816.396691369617, -19235.866574748346, -8324.057856089814, -5416.006495476544, -19964.28757480235, 187500.0, -0.054, 0.978, 0.08, 192.0, 0.0, 0.0, 0.0, 0.0, 0.0, 0.0, 0.0, 0.0, 0.0, 1.700944728633759E9, 0.0, 2023-11-25 15:38:48.633
3.0, 73043.95860957606, 81168.68360861346, -18106.701148355147, -19421.475460705216, -8834.191719793287, -5491.935371391221, -19983.599482011734, 187500.0, -0.054, 0.978, 0.08, 192.0, 0.0, 0.0, 0.0, 0.0, 0.0, 0.0, 0.0, 0.0, 0.0, 1.700944728637508E9, 0.0, 2023-11-25 15:38:48.637
4.0, 73052.00523757997, 81165.15203298951, -17970.735486833513, -19329.274514827077, -8847.669821699837, -5496.204554582186, -19960.174853822573, 187500.0, -0.054, 0.978, 0.08, 192.0, 0.0, 0.0, 0.0, 0.0, 0.0, 0.0, 0.0, 0.0, 0.0, 1.700944728640571E9, 0.0, 2023-11-25 15:38:48.640
5.0, 73049.05480731187, 81148.18705894794, -17589.057098514688, -18834.943334453506, -8069.449134999411, -5143.4940270774405, -19953.983420608452, 187500.0, -0.054, 0.978, 0.08, 192.0, 0.0, 0.0, 0.0, 0.0, 0.0, 0.0, 0.0, 0.0, 0.0, 1.700944728644513E9, 0.0, 2023-11-25 15:38:48.644
6.0, 73044.89738284319, 81140.2521896663, -17786.154781121586, -19174.064001329425, -8259.126038447146, -5387.910352696223, -19982.593653511245, 187500.0, -0.054, 0.978, 0.08, 192.0, 0.0, 0.0, 0.0, 0.0, 0.0, 0.0, 0.0, 0.0, 0.0, 1.700944728648543E9, 0.0, 2023-11-25 15:38:48.648
7.0, 73030.8381355808, 81150.86926828256, -18077.6662323077, -19386.8749602884, -8743.041305904544, -5468.108411801864, -19995.11063040622, 187500.0, -0.054, 0.978, 0.08, 192.0, 0.0, 0.0, 0.0, 0.0, 0.0, 0.0, 0.0, 0.0, 0.0, 1.700944728653506E9, 0.0, 2023-11-25 15:38:48.653
8.0, 73047.13255728871, 81164.34737018912, -18057.303793108917, -19393.84870455846, -8953.304165995618, -5541.131560937352, -19975.6646127301, 187500.0, -0.054, 0.978, 0.08, 192.0, 0.0, 0.0, 0.0, 0.0, 0.0, 0.0, 0.0, 0.0, 0.0, 1.70094472865752E9, 0.0, 2023-11-25 15:38:48.657
9.0, 73040.27057174094, 81152.14331771652, -17605.552685922707, -18843.034665946325, -8141.332345167679, -5151.0042132144235, -19931.117586030672, 187500.0, -0.054, 0.978, 0.08, 192.0, 0.0, 0.0, 0.0, 0.0, 0.0, 0.0, 0.0, 0.0, 0.0, 1.700944728661624E9, 0.0, 2023-11-25 15:38:48.661
10.0, 73035.62140889424, 81133.83723900763, -17743.731170145413, -19113.44607036663, -8192.450784736966, -5342.4245527296725, -19972.065981872795, 187500.0, -0.052000000000000005, 0.976, 0.076, 192.0, 254.0, 96.0, 30.0, 128.0, 2.0, 96.0, 0.0, 0.0, 0.0, 1.700944728666743E9, 0.0, 2023-11-25 15:38:48.666
11.0, 73024.62435062222, 81145.3036839132, -18034.102682364308, -19369.1723786798, -8655.645985084295, -5455.211455251152, -19990.10383964823, 187500.0, -0.052000000000000005, 0.976, 0.076, 192.0, 0.0, 0.0, 0.0, 0.0, 0.0, 0.0, 0.0, 0.0, 0.0, 1.700944728669173E9, 0.0, 2023-11-25 15:38:48.669
12.0, 73054.46392947006, 81184.35218147661, -18122.16855551822, -19463.608499003472, -9019.755902261246, -5578.950712555732, -19990.215598370505, 187500.0, -0.052000000000000005, 0.976, 0.076, 192.0, 0.0, 0.0, 0.0, 0.0, 0.0, 0.0, 0.0, 0.0, 0.0, 1.700944728672626E9, 0.0, 2023-11-25 15:38:48.672
13.0, 73044.67386539864, 81161.3075329432, -17657.63225050357, -18916.258980781913, -8270.123096719159, -5208.805824375847, -19927.98834180693, 187500.0, -0.052000000000000005, 0.976, 0.076, 192.0, 0.0, 0.0, 0.0, 0.0, 0.0, 0.0, 0.0, 0.0, 0.0, 1.700944728676577E9, 0.0, 2023-11-25 15:38:48.676
14.0, 73027.28420821241, 81127.1987709044, -17717.42316692152, -19062.618203475264, -8152.597624373153, -5315.311886705385, -19972.714182462, 187500.0, -0.052000000000000005, 0.976, 0.076, 192.0, 0.0, 0.0, 0.0, 0.0, 0.0, 0.0, 0.0, 0.0, 0.0, 1.700944728680654E9, 0.0, 2023-11-25 15:38:48.680
15.0, 73026.59130413429, 81142.24149492283, -17987.45459168608, -19342.149119633334, -8560.36049847132, -5443.745010345579, -19978.726801720477, 187500.0, -0.052000000000000005, 0.976, 0.076, 192.0, 0.0, 0.0, 0.0, 0.0, 0.0, 0.0, 0.0, 0.0, 0.0, 1.700944728684713E9, 0.0, 2023-11-25 15:38:48.684
16.0, 73050.93235384612, 81172.77397784877, -18164.391000794294, -19483.725069013246, -9025.053265697154, -5584.225724247185, -19987.153409380127, 187500.0, -0.052000000000000005, 0.976, 0.076, 192.0, 0.0, 0.0, 0.0, 0.0, 0.0, 0.0, 0.0, 0.0, 0.0, 1.70094472868972E9, 0.0, 2023-11-25 15:38:48.689
17.0, 73047.4901852, 81163.16272773298, -17728.30846647125, -19006.917656292637, -8409.508575142452, -5277.045700197899, -19927.921286573564, 187500.0, -0.052000000000000005, 0.976, 0.076, 192.0, 0.0, 0.0, 0.0, 0.0, 0.0, 0.0, 0.0, 0.0, 0.0, 1.700944728693683E9, 0.0, 2023-11-25 15:38:48.693
18.0, 73036.31431297235, 81131.60206456209, -17671.199759387942, -18982.822475769815, -8087.643454986031, -5252.928167930623, -19965.29340330284, 187500.0, -0.052000000000000005, 0.976, 0.076, 192.0, 0.0, 0.0, 0.0, 0.0, 0.0, 0.0, 0.0, 0.0, 0.0, 1.700944728696667E9, 0.0, 2023-11-25 15:38:48.696
19.0, 73033.54269665989, 81138.26288440978, -17933.296314870873, -19313.404776263807, -8470.573540994352, -5436.525396886515, -19973.563548751303, 187500.0, -0.052000000000000005, 0.976, 0.076, 192.0, 0.0, 0.0, 0.0, 0.0, 0.0, 0.0, 0.0, 0.0, 0.0, 1.700944728700677E9, 0.0, 2023-11-25 15:38:48.700
20.0, 73066.53387147593, 81195.23748102636, -18171.342393319894, -19499.013662220677, -8993.78317520418, -5578.123698010886, -19998.262226374416, 187500.0, -0.046, 0.976, 0.078, 192.0, 254.0, 144.0, 30.0, 128.0, 2.0, 112.0, 0.0, 0.0, 0.0, 1.700944728704717E9, 0.0, 2023-11-25 15:38:48.704
21.0, 73064.36575226377, 81185.46976869939, -17801.868057473668, -19089.306186354897, -8551.509207667019, -5343.855064374812, -19934.42564421006, 187500.0, -0.046, 0.976, 0.078, 192.0, 0.0, 0.0, 0.0, 0.0, 0.0, 0.0, 0.0, 0.0, 0.0, 1.700944728708704E9, 0.0, 2023-11-25 15:38:48.708
22.0, 73052.83225212482, 81155.67489334046, -17626.049235588223, -18872.6060238607, -8036.815588094662, -5189.873896822202, -19969.00379288242, 187500.0, -0.046, 0.976, 0.078, 192.0, 0.0, 0.0, 0.0, 0.0, 0.0, 0.0, 0.0, 0.0, 0.0, 1.700944728712792E9, 0.0, 2023-11-25 15:38:48.712
23.0, 73037.6330658952, 81148.0976519701, -17883.094296824253, -19252.76449355656, -8383.982882974493, -5415.134777442787, -19986.281691346372, 187500.0, -0.046, 0.976, 0.078, 192.0, 0.0, 0.0, 0.0, 0.0, 0.0, 0.0, 0.0, 0.0, 0.0, 1.700944728717682E9, 0.0, 2023-11-25 15:38:48.717
24.0, 73067.24912729849, 81199.08198107267, -18158.959526891653, -19461.596842002495, -8925.520947637671, -5533.688430033735, -20005.90652297813, 187500.0, -0.046, 0.976, 0.078, 192.0, 0.0, 0.0, 0.0, 0.0, 0.0, 0.0, 0.0, 0.0, 0.0, 1.700944728721693E9, 0.0, 2023-11-25 15:38:48.721
25.0, 73066.91385113167, 81181.04412329724, -17906.407166291137, -19228.915182222747, -8735.329954067463, -5455.859655840356, -19959.750170677922, 187500.0, -0.046, 0.976, 0.078, 192.0, 0.0, 0.0, 0.0, 0.0, 0.0, 0.0, 0.0, 0.0, 0.0, 1.700944728724793E9, 0.0, 2023-11-25 15:38:48.724
26.0, 73040.27057174094, 81138.57580883215, -17607.832563857148, -18819.96766566845, -8034.938041560417, -5164.102335465233, -19966.72391494798, 187500.0, -0.046, 0.976, 0.078, 192.0, 0.0, 0.0, 0.0, 0.0, 0.0, 0.0, 0.0, 0.0, 0.0, 1.700944728728749E9, 0.0, 2023-11-25 15:38:48.728
27.0, 73038.77300486244, 81145.63896008003, -17833.942810767032, -19169.16896929371, -8295.648788887118, -5386.368082328807, -19985.253511101426, 187500.0, -0.046, 0.976, 0.078, 192.0, 0.0, 0.0, 0.0, 0.0, 0.0, 0.0, 0.0, 0.0, 0.0, 1.700944728732746E9, 0.0, 2023-11-25 15:38:48.732
28.0, 73035.35318796078, 81153.9091055285, -18145.079093584907, -19416.26750424713, -8840.561966963049, -5500.831365684434, -20022.6256278307, 187500.0, -0.046, 0.976, 0.078, 192.0, 0.0, 0.0, 0.0, 0.0, 0.0, 0.0, 0.0, 0.0, 0.0, 1.700944728736738E9, 0.0, 2023-11-25 15:38:48.736
29.0, 73054.30746725887, 81180.82060585268, -18032.918039908178, -19373.30745140403, -8903.169203182364, -5538.695220791724, -20005.504191577937, 187500.0, -0.046, 0.976, 0.078, 192.0, 0.0, 0.0, 0.0, 0.0, 0.0, 0.0, 0.0, 0.0, 0.0, 1.700944728740834E9, 0.0, 2023-11-25 15:38:48.740
30.0, 73047.73605438901, 81170.00236153632, -17624.976351854366, -18861.810131288785, -8102.864992960095, -5164.6834808210715, -19970.411952783103, 187500.0, -0.046, 0.978, 0.07200000000000001, 192.0, 254.0, 144.0, 30.0, 144.0, 2.0, 64.0, 0.0, 0.0, 0.0, 1.700944728745746E9, 0.0, 2023-11-25 15:38:48.745
31.0, 73040.04705429639, 81146.24245718033, -17806.293702875817, -19156.048495298444, -8252.01818371036, -5378.589675258359, -19999.558627552822, 187500.0, -0.046, 0.978, 0.07200000000000001, 192.0, 0.0, 0.0, 0.0, 0.0, 0.0, 0.0, 0.0, 0.0, 0.0, 1.700944728749836E9, 0.0, 2023-11-25 15:38:48.749
32.0, 73032.06748152584, 81146.13069845804, -18108.511639656026, -19385.01976549861, -8749.009221674112, -5470.522400203037, -20025.62076158771, 187500.0, -0.046, 0.978, 0.07200000000000001, 192.0, 0.0, 0.0, 0.0, 0.0, 0.0, 0.0, 0.0, 0.0, 0.0, 1.700944728752952E9, 0.0, 2023-11-25 15:38:48.752
33.0, 73055.02272308143, 81177.08786452864, -18116.625322893302, -19449.12456859643, -9013.318599858118, -5588.1372795268635, -20005.213618900016, 187500.0, -0.046, 0.978, 0.07200000000000001, 192.0, 0.0, 0.0, 0.0, 0.0, 0.0, 0.0, 0.0, 0.0, 0.0, 1.700944728756822E9, 0.0, 2023-11-25 15:38:48.756
34.0, 73038.25891473996, 81149.63992233753, -17656.35820106962, -18912.906219113614, -8210.555697745765, -5217.4559494800515, -19949.066036828284, 187500.0, -0.046, 0.978, 0.07200000000000001, 192.0, 0.0, 0.0, 0.0, 0.0, 0.0, 0.0, 0.0, 0.0, 0.0, 1.700944728760812E9, 0.0, 2023-11-25 15:38:48.760
35.0, 73026.45719366756, 81125.43298309243, -17780.52214151885, -19147.711294616616, -8220.792796706295, -5383.68587299417, -19986.23698785746, 187500.0, -0.046, 0.978, 0.07200000000000001, 192.0, 0.0, 0.0, 0.0, 0.0, 0.0, 0.0, 0.0, 0.0, 0.0, 1.700944728764873E9, 0.0, 2023-11-25 15:38:48.764
36.0, 73040.22586825203, 81171.72344585937, -18040.85290918981, -19328.156927604312, -8625.292316113988, -5436.8830247978, -19979.822037198788, 187500.0, -0.046, 0.978, 0.07200000000000001, 192.0, 0.0, 0.0, 0.0, 0.0, 0.0, 0.0, 0.0, 0.0, 0.0, 1.700944728768858E9, 0.0, 2023-11-25 15:38:48.768
37.0, 73059.00133359448, 81182.96637332039, -18153.237480311094, -19421.520164194128, -9020.091178428076, -5569.607683373414, -19992.04844141584, 187500.0, -0.046, 0.978, 0.07200000000000001, 192.0, 0.0, 0.0, 0.0, 0.0, 0.0, 0.0, 0.0, 0.0, 0.0, 1.700944728772938E9, 0.0, 2023-11-25 15:38:48.772
38.0, 73043.75744387596, 81164.30266670021, -17706.35905341614, -18916.571905204288, -8308.903373349116, -5232.230452565009, -19958.386714266147, 187500.0, -0.046, 0.978, 0.07200000000000001, 192.0, 0.0, 0.0, 0.0, 0.0, 0.0, 0.0, 0.0, 0.0, 0.0, 1.700944728777915E9, 0.0, 2023-11-25 15:38:48.777
39.0, 73034.70498737157, 81135.11128844158, -17741.786568377804, -19052.49286323701, -8159.146685498558, -5319.111683262788, -20001.05619443133, 187500.0, -0.046, 0.978, 0.07200000000000001, 192.0, 0.0, 0.0, 0.0, 0.0, 0.0, 0.0, 0.0, 0.0, 0.0, 1.700944728780944E9, 0.0, 2023-11-25 15:38:48.780
40.0, 73036.26960948344, 81154.7584718178, -17994.964777823065, -19319.149174588823, -8548.804646587927, -5431.429199150705, -19993.546008294346, 187500.0, -0.038, 0.98, 0.076, 192.0, 254.0, 208.0, 30.0, 160.0, 2.0, 96.0, 0.0, 0.0, 0.0, 1.700944728784906E9, 0.0, 2023-11-25 15:38:48.784
41.0, 73066.57857496483, 81193.13641704756, -18184.529922548525, -19493.872760995957, -9045.0357252402, -5598.016750576109, -20009.61691255771, 187500.0, -0.038, 0.98, 0.076, 192.0, 0.0, 0.0, 0.0, 0.0, 0.0, 0.0, 0.0, 0.0, 0.0, 1.700944728788964E9, 0.0, 2023-11-25 15:38:48.788
42.0, 73061.32591501783, 81178.02663779577, -17762.081952343222, -19054.92920338264, -8467.936035148625, -5334.981421826055, -19957.24677529893, 187500.0, -0.038, 0.98, 0.076, 192.0, 0.0, 0.0, 0.0, 0.0, 0.0, 0.0, 0.0, 0.0, 0.0, 1.700944728792942E9, 0.0, 2023-11-25 15:38:48.792
43.0, 73049.85947011226, 81135.73713728633, -17676.31830886821, -18973.188873909578, -8094.013702155794, -5277.291569386908, -19989.701508248032, 187500.0, -0.038, 0.98, 0.076, 192.0, 0.0, 0.0, 0.0, 0.0, 0.0, 0.0, 0.0, 0.0, 0.0, 1.700944728796921E9, 0.0, 2023-11-25 15:38:48.796
44.0, 73043.53392643141, 81148.4552798814, -17944.181614420606, -19293.53407544304, -8464.806790924882, -5452.037507538499, -20005.638302044666, 187500.0, -0.038, 0.98, 0.076, 192.0, 0.0, 0.0, 0.0, 0.0, 0.0, 0.0, 0.0, 0.0, 0.0, 1.700944728800951E9, 0.0, 2023-11-25 15:38:48.800
45.0, 73060.00716209497, 81183.52516693178, -18195.906960476277, -19490.028260949643, -9004.8249369651, -5598.910820354321, -20026.134851710183, 187500.0, -0.038, 0.98, 0.076, 192.0, 0.0, 0.0, 0.0, 0.0, 0.0, 0.0, 0.0, 0.0, 0.0, 1.700944728805999E9, 0.0, 2023-11-25 15:38:48.805
46.0, 73054.75450214797, 81170.98583829234, -17852.20418598702, -19145.967858549102, -8617.648019510272, -5404.182422659686, -19967.796798681833, 187500.0, -0.038, 0.98, 0.076, 192.0, 0.0, 0.0, 0.0, 0.0, 0.0, 0.0, 0.0, 0.0, 0.0, 1.700944728808974E9, 0.0, 2023-11-25 15:38:48.808
47.0, 73051.60290617977, 81147.47180312536, -17651.239651589352, -18890.129791513657, -8062.430687240445, -5224.65321119466, -19989.545046036845, 187500.0, -0.038, 0.98, 0.076, 192.0, 0.0, 0.0, 0.0, 0.0, 0.0, 0.0, 0.0, 0.0, 0.0, 1.70094472881201E9, 0.0, 2023-11-25 15:38:48.812
48.0, 73049.65830441217, 81150.66810258247, -17886.49176198146, -19239.84518526139, -8379.981920716991, -5441.465132411138, -19993.098973405242, 187500.0, -0.038, 0.98, 0.076, 192.0, 0.0, 0.0, 0.0, 0.0, 0.0, 0.0, 0.0, 0.0, 0.0, 1.700944728816979E9, 0.0, 2023-11-25 15:38:48.816
49.0, 73057.23554578252, 81186.29678324424, -18169.062515385453, -19445.61534471695, -8914.9038690214, -5551.703936064713, -20015.920104494107, 187500.0, -0.038, 0.98, 0.076, 192.0, 0.0, 0.0, 0.0, 0.0, 0.0, 0.0, 0.0, 0.0, 0.0, 1.700944728821027E9, 0.0, 2023-11-25 15:38:48.821
50.0, 73076.88272915874, 81210.50372248933, -17942.6840475421, -19275.362107200875, -8768.924625983791, -5490.996598124099, -19973.608252240214, 187500.0, -0.046, 0.98, 0.074, 192.0, 254.0, 144.0, 30.0, 160.0, 2.0, 80.0, 0.0, 0.0, 0.0, 1.700944728825066E9, 0.0, 2023-11-25 15:38:48.825
51.0, 73057.21319403806, 81159.65350385351, -17616.326226750163, -18851.43892186152, -8047.656184155487, -5181.447289162551, -19966.05336261432, 187500.0, -0.046, 0.98, 0.074, 192.0, 0.0, 0.0, 0.0, 0.0, 0.0, 0.0, 0.0, 0.0, 0.0, 1.700944728829127E9, 0.0, 2023-11-25 15:38:48.829
52.0, 73043.80214736488, 81143.2473234233, -17843.86698530519, -19190.000795126056, -8296.92283832107, -5412.07258845241, -19993.43424957207, 187500.0, -0.046, 0.98, 0.074, 192.0, 0.0, 0.0, 0.0, 0.0, 0.0, 0.0, 0.0, 0.0, 0.0, 1.700944728833142E9, 0.0, 2023-11-25 15:38:48.833
53.0, 73056.90026961568, 81179.83712909665, -18137.658314425746, -19408.287931476585, -8817.964353318734, -5504.206479097185, -20001.279711875883, 187500.0, -0.046, 0.98, 0.074, 192.0, 0.0, 0.0, 0.0, 0.0, 0.0, 0.0, 0.0, 0.0, 0.0, 1.700944728837168E9, 0.0, 2023-11-25 15:38:48.837
54.0, 73056.54264170441, 81174.3609517051, -18046.95493542611, -19363.517387332606, -8910.9029067639, -5560.398764657827, -19987.19811286904, 187500.0, -0.046, 0.98, 0.074, 192.0, 0.0, 0.0, 0.0, 0.0, 0.0, 0.0, 0.0, 0.0, 0.0, 1.700944728840089E9, 0.0, 2023-11-25 15:38:48.840
55.0, 73039.55531591836, 81137.23470416483, -17643.43889277445, -18870.05792499279, -8126.2672694048015, -5209.74459764297, -19970.657821972112, 187500.0, -0.046, 0.98, 0.074, 192.0, 0.0, 0.0, 0.0, 0.0, 0.0, 0.0, 0.0, 0.0, 0.0, 1.700944728844144E9, 0.0, 2023-11-25 15:38:48.844
56.0, 73040.15881301866, 81127.95873021588, -17813.42390935706, -19177.75203916455, -8258.67900355804, -5419.761588545035, -19989.09801114774, 187500.0, -0.046, 0.98, 0.074, 192.0, 0.0, 0.0, 0.0, 0.0, 0.0, 0.0, 0.0, 0.0, 0.0, 1.700944728849085E9, 0.0, 2023-11-25 15:38:48.849
57.0, 73046.08202529931, 81167.25309696831, -18081.42132537619, -19360.142273919853, -8701.332950750942, -5466.499086201083, -19982.459543044515, 187500.0, -0.046, 0.98, 0.074, 192.0, 0.0, 0.0, 0.0, 0.0, 0.0, 0.0, 0.0, 0.0, 0.0, 1.700944728853178E9, 0.0, 2023-11-25 15:38:48.853
58.0, 73051.0441125684, 81167.40955917949, -18123.621418907813, -19408.153821009855, -8986.652968722936, -5581.275293979084, -19995.580017039778, 187500.0, -0.046, 0.98, 0.074, 192.0, 0.0, 0.0, 0.0, 0.0, 0.0, 0.0, 0.0, 0.0, 0.0, 1.700944728857234E9, 0.0, 2023-11-25 15:38:48.857
59.0, 73042.48339444201, 81142.97910248984, -17674.93250071198, -18885.346518200222, -8211.270953568335, -5221.9710018600235, -19964.555795735814, 187500.0, -0.046, 0.98, 0.074, 192.0, 0.0, 0.0, 0.0, 0.0, 0.0, 0.0, 0.0, 0.0, 0.0, 1.700944728861542E9, 0.0, 2023-11-25 15:38:48.861
60.0, 73044.3385892318, 81135.31245414168, -17771.357926292174, -19094.91647421318, -8190.95321785846, -5374.387547300762, -20000.519752564403, 187500.0, -0.04, 0.982, 0.074, 192.0, 254.0, 192.0, 30.0, 176.0, 2.0, 80.0, 0.0, 0.0, 0.0, 1.700944728865868E9, 0.0, 2023-11-25 15:38:48.865
61.0, 73044.00331306497, 81148.0976519701, -18039.780025455955, -19337.96934342019, -8621.716037001139, -5461.805219865468, -19999.469220575003, 187500.0, -0.04, 0.982, 0.074, 192.0, 0.0, 0.0, 0.0, 0.0, 0.0, 0.0, 0.0, 0.0, 0.0, 1.700944728868184E9, 0.0, 2023-11-25 15:38:48.868
62.0, 73067.33853427632, 81179.16657676299, -18164.167483349738, -19471.543368285103, -9040.095989715575, -5601.570677944503, -20003.71605202151, 187500.0, -0.04, 0.982, 0.074, 192.0, 0.0, 0.0, 0.0, 0.0, 0.0, 0.0, 0.0, 0.0, 0.0, 1.700944728873217E9, 0.0, 2023-11-25 15:38:48.873
63.0, 73068.0984935878, 81172.12577725957, -17696.12195445561, -18946.277373585388, -8322.3144200223, -5248.793095206392, -19939.18656577904, 187500.0, -0.04, 0.982, 0.074, 192.0, 0.0, 0.0, 0.0, 0.0, 0.0, 0.0, 0.0, 0.0, 0.0, 1.700944728877203E9, 0.0, 2023-11-25 15:38:48.877
64.0, 73058.37548474973, 81145.63896008003, -17712.46107965244, -19011.432708672608, -8121.975734469383, -5307.712293590581, -19987.91336869161, 187500.0, -0.04, 0.982, 0.074, 192.0, 0.0, 0.0, 0.0, 0.0, 0.0, 0.0, 0.0, 0.0, 0.0, 1.700944728881406E9, 0.0, 2023-11-25 15:38:48.881
65.0, 73048.63012416722, 81145.28133216874, -17992.953120822087, -19332.806090451013, -8538.45578890512, -5469.382461235817, -19998.977482196988, 187500.0, -0.04, 0.982, 0.074, 192.0, 0.0, 0.0, 0.0, 0.0, 0.0, 0.0, 0.0, 0.0, 0.0, 1.700944728885842E9, 0.0, 2023-11-25 15:38:48.885
66.0, 73076.88272915874, 81181.40175120853, -18186.854503971877, -19486.183760903332, -9026.103797686554, -5609.527898970592, -20011.941493981063, 187500.0, -0.04, 0.982, 0.074, 192.0, 0.0, 0.0, 0.0, 0.0, 0.0, 0.0, 0.0, 0.0, 0.0, 1.700944728888261E9, 0.0, 2023-11-25 15:38:48.888
67.0, 73066.95855462058, 81172.23753598184, -17778.443429284507, -19034.075025805836, -8475.513276518974, -5338.691811405637, -19959.593708466735, 187500.0, -0.04, 0.982, 0.074, 192.0, 0.0, 0.0, 0.0, 0.0, 0.0, 0.0, 0.0, 0.0, 0.0, 1.700944728892237E9, 0.0, 2023-11-25 15:38:48.892
68.0, 73045.23265901001, 81144.63313157954, -17682.44268684896, -18924.99851286394, -8078.4568880149, -5261.332423845819, -20005.191267155562, 187500.0, -0.04, 0.982, 0.074, 192.0, 0.0, 0.0, 0.0, 0.0, 0.0, 0.0, 0.0, 0.0, 0.0, 1.700944728896316E9, 0.0, 2023-11-25 15:38:48.896
69.0, 73033.29682747088, 81131.49030583982, -17949.568384834336, -19275.80914208998, -8453.854436141783, -5449.645870881781, -20012.187363170073, 187500.0, -0.044, 0.978, 0.08, 192.0, 254.0, 160.0, 30.0, 144.0, 2.0, 128.0, 0.0, 0.0, 0.0, 1.700944728900236E9, 0.0, 2023-11-25 15:38:48.900
70.0, 73055.17918529263, 81166.42608242347, -18202.567780323956, -19458.713466967758, -8981.40030877594, -5579.755375356123, -20026.693645321568, 187500.0, -0.044, 0.978, 0.08, 192.0, 0.0, 0.0, 0.0, 0.0, 0.0, 0.0, 0.0, 0.0, 0.0, 1.700944728905308E9, 0.0, 2023-11-25 15:38:48.905
71.0, 73052.45227246908, 81162.64863761052, -17891.565607972814, -19169.146617549257, -8659.401078152785, -5436.748914331069, -19974.032935384865, 187500.0, -0.044, 0.978, 0.08, 192.0, 0.0, 0.0, 0.0, 0.0, 0.0, 0.0, 0.0, 0.0, 0.0, 1.700944728909275E9, 0.0, 2023-11-25 15:38:48.909
72.0, 73037.1860310061, 81133.01022446278, -17661.45439880543, -18874.550625628308, -8062.430687240445, -5217.053618079855, -19988.360403580715, 187500.0, -0.044, 0.978, 0.08, 192.0, 0.0, 0.0, 0.0, 0.0, 0.0, 0.0, 0.0, 0.0, 0.0, 1.700944728913285E9, 0.0, 2023-11-25 15:38:48.913
73.0, 73027.79829833488, 81128.96455871637, -17908.68704422558, -19244.18142368572, -8378.506705582942, -5435.296050941473, -20005.750060766943, 187500.0, -0.044, 0.978, 0.08, 192.0, 0.0, 0.0, 0.0, 0.0, 0.0, 0.0, 0.0, 0.0, 0.0, 1.700944728916349E9, 0.0, 2023-11-25 15:38:48.916
74.0, 73043.8915543427, 81166.20256497891, -18190.654300529277, -19462.915594925358, -8914.993275999223, -5544.037287716543, -20025.933686010085, 187500.0, -0.044, 0.978, 0.08, 192.0, 0.0, 0.0, 0.0, 0.0, 0.0, 0.0, 0.0, 0.0, 0.0, 1.700944728920371E9, 0.0, 2023-11-25 15:38:48.920
75.0, 73057.81669113836, 81170.04706502522, -17978.245672970497, -19267.18136873023, -8797.847783308958, -5493.410586525272, -19978.592691253747, 187500.0, -0.044, 0.978, 0.08, 192.0, 0.0, 0.0, 0.0, 0.0, 0.0, 0.0, 0.0, 0.0, 0.0, 1.700944728924426E9, 0.0, 2023-11-25 15:38:48.924
76.0, 73038.8847635847, 81129.7021662834, -17657.274622592286, -18867.01808774687, -8090.370367809578, -5211.756254643948, -19973.541197006845, 187500.0, -0.044, 0.978, 0.08, 192.0, 0.0, 0.0, 0.0, 0.0, 0.0, 0.0, 0.0, 0.0, 0.0, 1.700944728928328E9, 0.0, 2023-11-25 15:38:48.928
77.0, 73034.1908972491, 81119.8450469786, -17867.761000127914, -19232.357350868864, -8323.923745623082, -5440.347545188373, -19989.969729181495, 187500.0, -0.044, 0.978, 0.08, 192.0, 0.0, 0.0, 0.0, 0.0, 0.0, 0.0, 0.0, 0.0, 0.0, 1.70094472893338E9, 0.0, 2023-11-25 15:38:48.933
78.0, 73050.66413291266, 81178.96541106289, -18150.465863998637, -19442.061417348556, -8822.166481276332, -5523.116054906375, -20014.6237033157, 187500.0, -0.044, 0.978, 0.08, 192.0, 0.0, 0.0, 0.0, 0.0, 0.0, 0.0, 0.0, 0.0, 0.0, 1.700944728937364E9, 0.0, 2023-11-25 15:38:48.937
79.0, 73057.97315334954, 81172.77397784877, -18068.502017081024, -19392.574655124507, -8933.38876168594, -5564.779706571067, -19987.533389035867, 187500.0, -0.05, 0.974, 0.074, 192.0, 254.0, 112.0, 30.0, 112.0, 2.0, 80.0, 0.0, 0.0, 0.0, 1.700944728941466E9, 0.0, 2023-11-25 15:38:48.941
80.0, 73047.82546136684, 81135.46891635287, -17645.83052943117, -18843.30288687979, -8128.480092105877, -5182.162544985121, -19959.347839277725, 187500.0, -0.05, 0.974, 0.074, 192.0, 0.0, 0.0, 0.0, 0.0, 0.0, 0.0, 0.0, 0.0, 0.0, 1.70094472894439E9, 0.0, 2023-11-25 15:38:48.944
81.0, 73050.66413291266, 81123.398974347, -17815.927304736055, -19131.886259542258, -8243.63627953962, -5397.856878978834, -20003.269017132407, 187500.0, -0.05, 0.974, 0.074, 192.0, 0.0, 0.0, 0.0, 0.0, 0.0, 0.0, 0.0, 0.0, 0.0, 1.700944728948422E9, 0.0, 2023-11-25 15:38:48.948
82.0, 73057.66022892717, 81169.01888478028, -18087.948034757144, -19328.961590404702, -8689.933561078735, -5461.425240209728, -20005.124211922197, 187500.0, -0.05, 0.974, 0.074, 192.0, 0.0, 0.0, 0.0, 0.0, 0.0, 0.0, 0.0, 0.0, 0.0, 1.700944728952403E9, 0.0, 2023-11-25 15:38:48.952
83.0, 73073.01587736796, 81186.65441115551, -18131.10925330034, -19402.8788093184, -8990.810393191623, -5574.837991575956, -20003.447831088048, 187500.0, -0.05, 0.974, 0.074, 192.0, 0.0, 0.0, 0.0, 0.0, 0.0, 0.0, 0.0, 0.0, 0.0, 1.700944728956363E9, 0.0, 2023-11-25 15:38:48.956
84.0, 73068.03143835443, 81176.48436742835, -17674.88779722307, -18881.54672164282, -8218.378808305122, -5206.347132485764, -19964.86872015819, 187500.0, -0.05, 0.974, 0.074, 192.0, 0.0, 0.0, 0.0, 0.0, 0.0, 0.0, 0.0, 0.0, 0.0, 1.70094472896042E9, 0.0, 2023-11-25 15:38:48.960
85.0, 73054.35217074778, 81137.34646288712, -17771.246167569898, -19093.240093379034, -8190.148555058069, -5363.390489028751, -20014.176668426593, 187500.0, -0.05, 0.974, 0.074, 192.0, 0.0, 0.0, 0.0, 0.0, 0.0, 0.0, 0.0, 0.0, 0.0, 1.700944728965404E9, 0.0, 2023-11-25 15:38:48.965
86.0, 73043.51157468696, 81131.57971281763, -18038.9083074222, -19323.887744413347, -8606.56155426044, -5450.048202281976, -20008.566380568314, 187500.0, -0.05, 0.974, 0.074, 192.0, 0.0, 0.0, 0.0, 0.0, 0.0, 0.0, 0.0, 0.0, 0.0, 1.700944728969467E9, 0.0, 2023-11-25 15:38:48.969
87.0, 73081.62129898326, 81192.24234726935, -18181.400678324782, -19473.510321797174, -9050.064867742643, -5610.489023982171, -20018.602313828746, 187500.0, -0.05, 0.974, 0.074, 192.0, 0.0, 0.0, 0.0, 0.0, 0.0, 0.0, 0.0, 0.0, 0.0, 1.700944728972421E9, 0.0, 2023-11-25 15:38:48.972
88.0, 73064.00812435248, 81162.04514051022, -17729.493108927385, -18952.044123654858, -8360.46884780751, -5263.56759829135, -19962.454731757014, 187500.0, -0.05, 0.974, 0.074, 192.0, 0.0, 0.0, 0.0, 0.0, 0.0, 0.0, 0.0, 0.0, 0.0, 1.700944728976583E9, 0.0, 2023-11-25 15:38:48.976
89.0, 73054.68744691461, 81127.42228834896, -17736.958591575454, -18999.47452538902, -8142.18171145698, -5308.293438946419, -20013.32730213729, 187500.0, -0.044, 0.972, 0.074, 192.0, 254.0, 160.0, 30.0, 96.0, 2.0, 80.0, 0.0, 0.0, 0.0, 1.700944728980455E9, 0.0, 2023-11-25 15:38:48.980
90.0, 73048.22779276702, 81141.45918386689, -17997.244655757506, -19299.658453423795, -8531.68321033516, -5452.596301149882, -20012.746156781453, 187500.0, -0.044, 0.972, 0.074, 192.0, 0.0, 0.0, 0.0, 0.0, 0.0, 0.0, 0.0, 0.0, 0.0, 1.700944728984431E9, 0.0, 2023-11-25 15:38:48.984
91.0, 73074.33463029083, 81182.51933843129, -18208.04395771551, -19485.33439461403, -9037.74905654777, -5596.0050935751315, -20024.614933087225, 187500.0, -0.044, 0.972, 0.074, 192.0, 0.0, 0.0, 0.0, 0.0, 0.0, 0.0, 0.0, 0.0, 0.0, 1.700944728988441E9, 0.0, 2023-11-25 15:38:48.988
92.0, 73062.04117084041, 81153.9091055285, -17825.58325834075, -19084.165285130177, -8535.907690037215, -5362.339957039351, -19971.529540005868, 187500.0, -0.044, 0.972, 0.074, 192.0, 0.0, 0.0, 0.0, 0.0, 0.0, 0.0, 0.0, 0.0, 0.0, 1.700944728993439E9, 0.0, 2023-11-25 15:38:48.993
93.0, 73054.17335679213, 81139.22400942135, -17704.2803411818, -18946.1209113742, -8107.692969762442, -5270.474287328039, -20006.95705496753, 187500.0, -0.044, 0.972, 0.074, 192.0, 0.0, 0.0, 0.0, 0.0, 0.0, 0.0, 0.0, 0.0, 0.0, 1.700944728997452E9, 0.0, 2023-11-25 15:38:48.997
94.0, 73047.42312996664, 81146.84595428061, -17967.494483887494, -19311.661340196293, -8478.664872487172, -5477.674958428736, -20026.20190694355, 187500.0, -0.044, 0.972, 0.074, 192.0, 0.0, 0.0, 0.0, 0.0, 0.0, 0.0, 0.0, 0.0, 0.0, 1.700944729000521E9, 0.0, 2023-11-25 15:38:49.000
95.0, 73075.40751402469, 81182.38522796455, -18208.714510049165, -19481.221673634253, -8990.899800169445, -5578.749546855634, -20028.660598833634, 187500.0, -0.044, 0.972, 0.074, 192.0, 0.0, 0.0, 0.0, 0.0, 0.0, 0.0, 0.0, 0.0, 0.0, 1.700944729004535E9, 0.0, 2023-11-25 15:38:49.004
96.0, 73071.33949653382, 81163.8109283222, -17907.636512236182, -19176.500341475054, -8688.592456411418, -5430.736295072591, -19978.8162086983, 187500.0, -0.044, 0.972, 0.074, 192.0, 0.0, 0.0, 0.0, 0.0, 0.0, 0.0, 0.0, 0.0, 0.0, 1.700944729008535E9, 0.0, 2023-11-25 15:38:49.008
97.0, 73059.49307197251, 81138.7993262767, -17669.188102386965, -18872.49426513842, -8085.274170073769, -5213.857318622747, -19989.254473358927, 187500.0, -0.044, 0.972, 0.074, 192.0, 0.0, 0.0, 0.0, 0.0, 0.0, 0.0, 0.0, 0.0, 0.0, 1.700944729012567E9, 0.0, 2023-11-25 15:38:49.012
98.0, 73042.1928217641, 81126.68468078192, -17905.893076168668, -19223.304894364464, -8385.078118452802, -5444.9743562906215, -20000.318586864305, 187500.0, -0.044, 0.972, 0.074, 192.0, 0.0, 0.0, 0.0, 0.0, 0.0, 0.0, 0.0, 0.0, 0.0, 1.700944729016619E9, 0.0, 2023-11-25 15:38:49.016
99.0, 73056.47558647103, 81167.36485569058, -18182.227692869626, -19411.193658255776, -8896.374272867952, -5536.61650855738, -20021.306874907837, 187500.0, -0.044, 0.976, 0.064, 192.0, 254.0, 160.0, 30.0, 128.0, 2.0, 0.0, 0.0, 0.0, 0.0, 1.700944729021533E9, 0.0, 2023-11-25 15:38:49.021
100.0, 73068.03143835443, 81175.25502148332, -18000.776231381446, -19281.106505525888, -8833.722333159725, -5506.933391920733, -19988.986252425464, 187500.0, -0.044, 0.976, 0.064, 192.0, 0.0, 0.0, 0.0, 0.0, 0.0, 0.0, 0.0, 0.0, 0.0, 1.70094472902554E9, 0.0, 2023-11-25 15:38:49.025
101.0, 73060.34243826181, 81152.0092072498, -17649.719732966394, -18843.01231420187, -8096.897077190528, -5185.984693286979, -19982.012508155407, 187500.0, -0.044, 0.976, 0.064, 192.0, 0.0, 0.0, 0.0, 0.0, 0.0, 0.0, 0.0, 0.0, 0.0, 1.700944729028573E9, 0.0, 2023-11-25 15:38:49.028
102.0, 73067.2938307874, 81153.35031191711, -17845.208089972508, -19186.93860613568, -8309.193946027035, -5416.297068154463, -20000.81032524232, 187500.0, -0.044, 0.976, 0.064, 192.0, 0.0, 0.0, 0.0, 0.0, 0.0, 0.0, 0.0, 0.0, 0.0, 1.700944729032594E9, 0.0, 2023-11-25 15:38:49.032
103.0, 73061.34826676229, 81172.01401853729, -18125.700131142155, -19391.702937090748, -8798.227762964698, -5495.80222318199, -20015.562476582825, 187500.0, -0.044, 0.976, 0.064, 192.0, 0.0, 0.0, 0.0, 0.0, 0.0, 0.0, 0.0, 0.0, 0.0, 1.700944729036642E9, 0.0, 2023-11-25 15:38:49.036
104.0, 73075.65338321369, 81190.72242864639, -18072.882958994265, -19388.774858567103, -8954.15353228492, -5563.997395515132, -20002.732575265476, 187500.0, -0.044, 0.976, 0.064, 192.0, 0.0, 0.0, 0.0, 0.0, 0.0, 0.0, 0.0, 0.0, 0.0, 1.70094472904167E9, 0.0, 2023-11-25 15:38:49.041
105.0, 73060.05186558388, 81159.1617654755, -17640.019075872788, -18855.506939352388, -8150.205987716436, -5176.820478060303, -19964.37698178017, 187500.0, -0.044, 0.976, 0.064, 192.0, 0.0, 0.0, 0.0, 0.0, 0.0, 0.0, 0.0, 0.0, 0.0, 1.700944729045662E9, 0.0, 2023-11-25 15:38:49.045
106.0, 73055.35799924827, 81147.13652695854, -17788.56876952276, -19130.634561852763, -8238.562433548264, -5371.280654821474, -20001.413822342616, 187500.0, -0.044, 0.976, 0.064, 192.0, 0.0, 0.0, 0.0, 0.0, 0.0, 0.0, 0.0, 0.0, 0.0, 1.700944729048638E9, 0.0, 2023-11-25 15:38:49.048
107.0, 73068.23260405453, 81178.87600408508, -18057.23673787555, -19299.189066790233, -8670.554598635985, -5428.791693304979, -20005.124211922197, 187500.0, -0.044, 0.976, 0.064, 192.0, 0.0, 0.0, 0.0, 0.0, 0.0, 0.0, 0.0, 0.0, 0.0, 1.700944729053659E9, 0.0, 2023-11-25 15:38:49.053
108.0, 73090.71845897657, 81208.7155829329, -18122.39207296277, -19397.35792843794, -9009.965838189823, -5576.067337520997, -20005.548895066848, 187500.0, -0.044, 0.976, 0.064, 192.0, 0.0, 0.0, 0.0, 0.0, 0.0, 0.0, 0.0, 0.0, 0.0, 1.700944729056674E9, 0.0, 2023-11-25 15:38:49.056
109.0, 73065.81861565335, 81178.45132094042, -17665.41065757402, -18871.5554918713, -8244.306831873278, -5197.495841681462, -19959.191377066538, 187500.0, -0.046, 0.984, 0.068, 192.0, 254.0, 144.0, 30.0, 192.0, 2.0, 32.0, 0.0, 0.0, 0.0, 1.700944729060649E9, 0.0, 2023-11-25 15:38:49.060
110.0, 73073.46291225708, 81175.92557381697, -17738.79143462079, -19044.714456166563, -8174.010595561337, -5330.935756079645, -20008.029938701384, 187500.0, -0.046, 0.984, 0.068, 192.0, 0.0, 0.0, 0.0, 0.0, 0.0, 0.0, 0.0, 0.0, 0.0, 1.700944729064706E9, 0.0, 2023-11-25 15:38:49.064
111.0, 73058.35313300528, 81165.24143996733, -18001.960873837575, -19288.415525962773, -8590.088318596878, -5436.480693397605, -20010.980368969485, 187500.0, -0.046, 0.984, 0.068, 192.0, 0.0, 0.0, 0.0, 0.0, 0.0, 0.0, 0.0, 0.0, 0.0, 1.700944729068739E9, 0.0, 2023-11-25 15:38:49.068
112.0, 73072.3453250343, 81187.52612918927, -18164.525111261024, -19450.80094943058, -9051.048344498677, -5591.043006306053, -20027.028921488396, 187500.0, -0.046, 0.984, 0.068, 192.0, 0.0, 0.0, 0.0, 0.0, 0.0, 0.0, 0.0, 0.0, 0.0, 1.700944729072683E9, 0.0, 2023-11-25 15:38:49.072
113.0, 73074.28992680191, 81189.00134432332, -17735.32691423022, -19003.833115557805, -8416.147043245679, -5298.726892319548, -19974.837598185255, 187500.0, -0.046, 0.984, 0.068, 192.0, 0.0, 0.0, 0.0, 0.0, 0.0, 0.0, 0.0, 0.0, 0.0, 1.700944729076725E9, 0.0, 2023-11-25 15:38:49.076
114.0, 73063.94106911912, 81158.89354454202, -17692.255102664843, -18996.34528116528, -8132.771627041296, -5291.61903758276, -19995.356499595226, 187500.0, -0.046, 0.984, 0.068, 192.0, 0.0, 0.0, 0.0, 0.0, 0.0, 0.0, 0.0, 0.0, 0.0, 1.700944729082781E9, 0.0, 2023-11-25 15:38:49.082
115.0, 73054.46392947006, 81157.93241953045, -17955.40219013717, -19303.525305214564, -8523.100140464323, -5444.281452212507, -19995.28944436186, 187500.0, -0.046, 0.984, 0.068, 192.0, 0.0, 0.0, 0.0, 0.0, 0.0, 0.0, 0.0, 0.0, 0.0, 1.700944729085929E9, 0.0, 2023-11-25 15:38:49.085
116.0, 73077.46387451456, 81193.49404495885, -18176.662108500255, -19513.944627516823, -9051.74124857679, -5604.521108212603, -20010.48863059147, 187500.0, -0.046, 0.984, 0.068, 192.0, 0.0, 0.0, 0.0, 0.0, 0.0, 0.0, 0.0, 0.0, 0.0, 1.700944729089106E9, 0.0, 2023-11-25 15:38:49.089
117.0, 73078.17913033714, 81178.58543140715, -17792.837952713722, -19101.510238827497, -8567.356594485831, -5363.993986129044, -19942.964010591986, 187500.0, -0.046, 0.984, 0.068, 192.0, 0.0, 0.0, 0.0, 0.0, 0.0, 0.0, 0.0, 0.0, 0.0, 1.700944729092803E9, 0.0, 2023-11-25 15:38:49.092
118.0, 73074.73696169103, 81167.52131790177, -17641.136663095556, -18915.40961449261, -8100.763928981296, -5244.434505037607, -19963.907595146607, 187500.0, -0.046, 0.984, 0.068, 192.0, 0.0, 0.0, 0.0, 0.0, 0.0, 0.0, 0.0, 0.0, 0.0, 1.700944729097021E9, 0.0, 2023-11-25 15:38:49.097
119.0, 73067.76321742097, 81167.34250394613, -17881.127343312186, -19238.973467227635, -8441.180997035623, -5428.545824115971, -19965.47221725848, 187500.0, -0.05, 0.984, 0.07200000000000001, 192.0, 254.0, 112.0, 30.0, 192.0, 2.0, 64.0, 0.0, 0.0, 0.0, 1.700944729101257E9, 0.0, 2023-11-25 15:38:49.101
120.0, 73081.57659549435, 81194.90220485952, -18149.035352353498, -19461.127455368933, -8994.811355449123, -5571.731099096668, -20000.05036593084, 187500.0, -0.05, 0.984, 0.07200000000000001, 192.0, 0.0, 0.0, 0.0, 0.0, 0.0, 0.0, 0.0, 0.0, 0.0, 1.700944729104783E9, 0.0, 2023-11-25 15:38:49.104
121.0, 73079.78845593792, 81188.8672338566, -17864.095314037244, -19206.786955211992, -8733.92179416678, -5450.718754615636, -19944.506280959402, 187500.0, -0.05, 0.984, 0.07200000000000001, 192.0, 0.0, 0.0, 0.0, 0.0, 0.0, 0.0, 0.0, 0.0, 0.0, 1.700944729108855E9, 0.0, 2023-11-25 15:38:49.108
122.0, 73070.73599943353, 81155.45137589591, -17600.747060864815, -18874.304756439302, -8095.175992867469, -5192.9807893014895, -19943.835728625745, 187500.0, -0.05, 0.984, 0.07200000000000001, 192.0, 0.0, 0.0, 0.0, 0.0, 0.0, 0.0, 0.0, 0.0, 0.0, 1.700944729112845E9, 0.0, 2023-11-25 15:38:49.112
123.0, 73078.11207510377, 81171.32111445918, -17825.71736880748, -19227.864650233347, -8382.552371329353, -5422.622611835314, -19958.118493332684, 187500.0, -0.05, 0.984, 0.07200000000000001, 192.0, 0.0, 0.0, 0.0, 0.0, 0.0, 0.0, 0.0, 0.0, 0.0, 1.700944729116107E9, 0.0, 2023-11-25 15:38:49.116
124.0, 73085.7563717075, 81189.20251002342, -18095.234703449572, -19401.180076739798, -8890.160487909376, -5508.922697177255, -19968.66851671559, 187500.0, -0.05, 0.984, 0.07200000000000001, 192.0, 0.0, 0.0, 0.0, 0.0, 0.0, 0.0, 0.0, 0.0, 0.0, 1.700944729120855E9, 0.0, 2023-11-25 15:38:49.120
125.0, 73104.1518573942, 81204.87108288659, -17929.49651831347, -19275.71973511216, -8858.041031127099, -5492.091833602409, -19926.736644117434, 187500.0, -0.05, 0.984, 0.07200000000000001, 192.0, 0.0, 0.0, 0.0, 0.0, 0.0, 0.0, 0.0, 0.0, 0.0, 1.700944729124852E9, 0.0, 2023-11-25 15:38:49.124
126.0, 73088.57269150886, 81184.4639401989, -17571.376868650543, -18829.265991361855, -8107.2459348733355, -5163.051803475833, -19917.460670168482, 187500.0, -0.05, 0.984, 0.07200000000000001, 192.0, 0.0, 0.0, 0.0, 0.0, 0.0, 0.0, 0.0, 0.0, 0.0, 1.700944729128872E9, 0.0, 2023-11-25 15:38:49.128
127.0, 73086.98571765253, 81179.72537037438, -17771.447333269996, -19174.198111796155, -8306.869364603683, -5391.285466108974, -19953.268164785884, 187500.0, -0.05, 0.984, 0.07200000000000001, 192.0, 0.0, 0.0, 0.0, 0.0, 0.0, 0.0, 0.0, 0.0, 0.0, 1.700944729132903E9, 0.0, 2023-11-25 15:38:49.132
128.0, 73093.08774388883, 81199.48431247286, -18050.86649070579, -19373.396858381853, -8792.416309406319, -5470.120068802842, -19968.601461482223, 187500.0, -0.05, 0.984, 0.07200000000000001, 192.0, 0.0, 0.0, 0.0, 0.0, 0.0, 0.0, 0.0, 0.0, 0.0, 1.700944729136888E9, 0.0, 2023-11-25 15:38:49.136
129.0, 73109.38216559675, 81206.01102185382, -18012.75676640949, -19366.668983300806, -8971.766706915701, -5547.837084273945, -19953.80460665281, 187500.0, -0.048, 0.974, 0.068, 192.0, 254.0, 128.0, 30.0, 112.0, 2.0, 32.0, 0.0, 0.0, 0.0, 1.700944729141586E9, 0.0, 2023-11-25 15:38:49.141
130.0, 73096.64167125722, 81183.34635297614, -17595.025014284256, -18853.62939281814, -8187.980435845904, -5181.715510096015, -19930.26821974137, 187500.0, -0.048, 0.974, 0.068, 192.0, 0.0, 0.0, 0.0, 0.0, 0.0, 0.0, 0.0, 0.0, 0.0, 1.700944729143895E9, 0.0, 2023-11-25 15:38:49.143
131.0, 73096.41815381267, 81170.09176851413, -17729.224887993918, -19121.87267802628, -8251.660555799073, -5367.614968730804, -19954.050475841817, 187500.0, -0.048, 0.974, 0.068, 192.0, 0.0, 0.0, 0.0, 0.0, 0.0, 0.0, 0.0, 0.0, 0.0, 1.700944729148143E9, 0.0, 2023-11-25 15:38:49.148
132.0, 73077.41917102566, 81173.3104197157, -18016.556562966893, -19346.97709643568, -8702.741110651627, -5445.823722579923, -19973.00475513992, 187500.0, -0.048, 0.974, 0.068, 192.0, 0.0, 0.0, 0.0, 0.0, 0.0, 0.0, 0.0, 0.0, 0.0, 1.700944729152941E9, 0.0, 2023-11-25 15:38:49.152
133.0, 73097.73690673553, 81202.09946657413, -18104.644787865258, -19464.726086226237, -9068.862684829555, -5588.763128371612, -19983.37596456718, 187500.0, -0.048, 0.974, 0.068, 192.0, 0.0, 0.0, 0.0, 0.0, 0.0, 0.0, 0.0, 0.0, 0.0, 1.700944729156961E9, 0.0, 2023-11-25 15:38:49.156
134.0, 73087.7009734751, 81177.91487907349, -17652.536052767762, -18930.877021655684, -8320.414521743598, -5229.615298463738, -19932.257524997895, 187500.0, -0.048, 0.974, 0.068, 192.0, 0.0, 0.0, 0.0, 0.0, 0.0, 0.0, 0.0, 0.0, 0.0, 1.700944729161455E9, 0.0, 2023-11-25 15:38:49.161
135.0, 73090.94197642112, 81164.77205333377, -17703.386271403586, -19061.902947652692, -8209.594572734186, -5329.371133967774, -19956.643278198633, 187500.0, -0.048, 0.974, 0.068, 192.0, 0.0, 0.0, 0.0, 0.0, 0.0, 0.0, 0.0, 0.0, 0.0, 1.70094472916395E9, 0.0, 2023-11-25 15:38:49.163
136.0, 73081.26367107197, 81167.07428301267, -17964.588757108304, -19307.97330236117, -8612.75298747456, -5434.178463718708, -19952.75407466341, 187500.0, -0.048, 0.974, 0.068, 192.0, 0.0, 0.0, 0.0, 0.0, 0.0, 0.0, 0.0, 0.0, 0.0, 1.700944729168014E9, 0.0, 2023-11-25 15:38:49.168
137.0, 73094.92058693417, 81190.90124260202, -18141.145186560774, -19474.0467636641, -9086.520562949248, -5602.5765064449915, -19979.24089184295, 187500.0, -0.048, 0.974, 0.068, 192.0, 0.0, 0.0, 0.0, 0.0, 0.0, 0.0, 0.0, 0.0, 0.0, 1.700944729171998E9, 0.0, 2023-11-25 15:38:49.171
138.0, 73093.89240668922, 81186.65441115551, -17716.730262843404, -19005.867124303237, -8459.688241444617, -5298.056339985888, -19919.919362058565, 187500.0, -0.048, 0.974, 0.068, 192.0, 0.0, 0.0, 0.0, 0.0, 0.0, 0.0, 0.0, 0.0, 0.0, 1.700944729175996E9, 0.0, 2023-11-25 15:38:49.175
139.0, 73104.50948530549, 81187.77199837829, -17664.20366337343, -18983.604786825752, -8157.537359897776, -5290.836726526824, -19946.406179238104, 187500.0, -0.04, 0.98, 0.07200000000000001, 192.0, 254.0, 192.0, 30.0, 160.0, 2.0, 64.0, 0.0, 0.0, 0.0, 1.700944729181068E9, 0.0, 2023-11-25 15:38:49.181
140.0, 73090.09261013182, 81180.28416398575, -17923.416843821626, -19287.789677118028, -8534.700695836627, -5446.69544061368, -19958.498472988424, 187500.0, -0.04, 0.98, 0.07200000000000001, 192.0, 0.0, 0.0, 0.0, 0.0, 0.0, 0.0, 0.0, 0.0, 0.0, 1.700944729185056E9, 0.0, 2023-11-25 15:38:49.185
141.0, 73098.47451430256, 81200.53484446227, -18170.22480609713, -19503.931046000846, -9072.282501731217, -5607.426834991794, -20000.072717675295, 187500.0, -0.04, 0.98, 0.07200000000000001, 192.0, 0.0, 0.0, 0.0, 0.0, 0.0, 0.0, 0.0, 0.0, 0.0, 1.700944729189001E9, 0.0, 2023-11-25 15:38:49.189
142.0, 73089.33265082033, 81189.15780653451, -17809.937037222033, -19122.11854721529, -8619.771435233526, -5383.328245082885, -19948.507243216904, 187500.0, -0.04, 0.98, 0.07200000000000001, 192.0, 0.0, 0.0, 0.0, 0.0, 0.0, 0.0, 0.0, 0.0, 0.0, 1.700944729192058E9, 0.0, 2023-11-25 15:38:49.192
143.0, 73088.88561593123, 81178.13839651804, -17638.789729927747, -18906.826544621774, -8114.1749756544805, -5230.46466475304, -19959.124321833173, 187500.0, -0.04, 0.98, 0.07200000000000001, 192.0, 0.0, 0.0, 0.0, 0.0, 0.0, 0.0, 0.0, 0.0, 0.0, 1.700944729196164E9, 0.0, 2023-11-25 15:38:49.196
144.0, 73082.4036100392, 81177.93723081794, -17875.04766882034, -19231.396225857286, -8436.822406866839, -5423.471978124617, -19961.650068956624, 187500.0, -0.04, 0.98, 0.07200000000000001, 192.0, 0.0, 0.0, 0.0, 0.0, 0.0, 0.0, 0.0, 0.0, 0.0, 1.700944729200112E9, 0.0, 2023-11-25 15:38:49.200
145.0, 73096.86518870178, 81209.90022538904, -18152.16459657724, -19452.253812820174, -8984.618959977504, -5560.801096058023, -19995.691775762054, 187500.0, -0.04, 0.98, 0.07200000000000001, 192.0, 0.0, 0.0, 0.0, 0.0, 0.0, 0.0, 0.0, 0.0, 0.0, 1.700944729204155E9, 0.0, 2023-11-25 15:38:49.204
146.0, 73109.8515522303, 81217.61157722611, -17891.275035294897, -19228.691664778195, -8769.572826572994, -5471.505876959071, -19953.648144441624, 187500.0, -0.04, 0.98, 0.07200000000000001, 192.0, 0.0, 0.0, 0.0, 0.0, 0.0, 0.0, 0.0, 0.0, 0.0, 1.700944729209104E9, 0.0, 2023-11-25 15:38:49.209
147.0, 73090.78551420993, 81175.36678020559, -17614.00164532681, -18858.25620392039, -8103.22262087138, -5200.155699271643, -19961.918289890087, 187500.0, -0.04, 0.98, 0.07200000000000001, 192.0, 0.0, 0.0, 0.0, 0.0, 0.0, 0.0, 0.0, 0.0, 0.0, 1.700944729213056E9, 0.0, 2023-11-25 15:38:49.213
148.0, 73087.4551042861, 81173.1092540156, -17837.764959068892, -19196.594559740373, -8364.715679254017, -5411.558498329938, -19979.28559533186, 187500.0, -0.04, 0.98, 0.07200000000000001, 192.0, 0.0, 0.0, 0.0, 0.0, 0.0, 0.0, 0.0, 0.0, 0.0, 1.700944729217087E9, 0.0, 2023-11-25 15:38:49.217
149.0, 73102.40842132669, 81210.28020504478, -18125.8789450978, -19419.530858937607, -8897.245990901709, -5511.917830934266, -20013.39435737066, 187500.0, -0.034, 0.984, 0.07, 192.0, 254.0, 240.0, 30.0, 192.0, 2.0, 48.0, 0.0, 0.0, 0.0, 1.700944729220055E9, 0.0, 2023-11-25 15:38:49.220
150.0, 73111.9079127202, 81214.68349870248, -17986.09113527431, -19333.275477084575, -8916.267325433175, -5533.263746889084, -19989.187418125563, 187500.0, -0.034, 0.984, 0.07, 192.0, 0.0, 0.0, 0.0, 0.0, 0.0, 0.0, 0.0, 0.0, 0.0, 1.700944729224109E9, 0.0, 2023-11-25 15:38:49.224
151.0, 73081.75540945, 81162.7603963328, -17621.19890704142, -18852.48945385092, -8150.049525505248, -5189.091585766267, -19965.338106791747, 187500.0, -0.034, 0.984, 0.07, 192.0, 0.0, 0.0, 0.0, 0.0, 0.0, 0.0, 0.0, 0.0, 0.0, 1.700944729228099E9, 0.0, 2023-11-25 15:38:49.228
152.0, 73093.82535145586, 81174.24919298282, -17809.28883663283, -19192.683004460694, -8336.2172050735, -5427.003553748555, -19970.322545805284, 187500.0, -0.034, 0.984, 0.07, 192.0, 0.0, 0.0, 0.0, 0.0, 0.0, 0.0, 0.0, 0.0, 0.0, 1.700944729232155E9, 0.0, 2023-11-25 15:38:49.232
153.0, 73102.4531248156, 81205.29576603124, -18071.921833982688, -19378.001317739647, -8793.422137906808, -5480.580685207926, -19971.306022561315, 187500.0, -0.034, 0.984, 0.07, 192.0, 0.0, 0.0, 0.0, 0.0, 0.0, 0.0, 0.0, 0.0, 0.0, 1.700944729236188E9, 0.0, 2023-11-25 15:38:49.236
154.0, 73116.26650288899, 81217.58922548166, -18060.790665243945, -19386.584387610485, -9004.310846842629, -5558.610625101403, -19972.401258039627, 187500.0, -0.034, 0.984, 0.07, 192.0, 0.0, 0.0, 0.0, 0.0, 0.0, 0.0, 0.0, 0.0, 0.0, 1.700944729241201E9, 0.0, 2023-11-25 15:38:49.241
155.0, 73096.32874683484, 81185.98385882186, -17638.454453760918, -18863.844140034216, -8226.984229920416, -5201.966190572523, -19951.61413569619, 187500.0, -0.034, 0.984, 0.07, 192.0, 0.0, 0.0, 0.0, 0.0, 0.0, 0.0, 0.0, 0.0, 0.0, 1.700944729245222E9, 0.0, 2023-11-25 15:38:49.245
156.0, 73085.44344728511, 81163.72152134437, -17771.67085071455, -19141.78808233596, -8280.293140446323, -5395.174669644198, -19993.702470505534, 187500.0, -0.034, 0.984, 0.07, 192.0, 0.0, 0.0, 0.0, 0.0, 0.0, 0.0, 0.0, 0.0, 0.0, 1.700944729248183E9, 0.0, 2023-11-25 15:38:49.248
157.0, 73084.41526704017, 81187.0120390668, -18044.317429580384, -19372.055753714532, -8718.610849214894, -5478.345510762395, -20001.659691531622, 187500.0, -0.034, 0.984, 0.07, 192.0, 0.0, 0.0, 0.0, 0.0, 0.0, 0.0, 0.0, 0.0, 0.0, 1.700944729252243E9, 0.0, 2023-11-25 15:38:49.252
158.0, 73118.38991861224, 81218.05861211523, -18126.68360789819, -19447.828167418025, -9075.791725610701, -5596.116852297408, -19992.04844141584, 187500.0, -0.034, 0.984, 0.07, 192.0, 0.0, 0.0, 0.0, 0.0, 0.0, 0.0, 0.0, 0.0, 0.0, 1.700944729256185E9, 0.0, 2023-11-25 15:38:49.256
159.0, 73103.97304343857, 81189.5601379347, -17679.693422280958, -18918.382396505167, -8339.301745808334, -5244.166284104143, -19939.94652509052, 187500.0, -0.036000000000000004, 0.982, 0.07, 192.0, 254.0, 224.0, 30.0, 176.0, 2.0, 48.0, 0.0, 0.0, 0.0, 1.700944729262167E9, 0.0, 2023-11-25 15:38:49.262
160.0, 73089.55616826488, 81170.20352723642, -17732.97998106241, -19059.1983865736, -8214.2884390698, -5353.801590657424, -19984.605310512223, 187500.0, -0.036000000000000004, 0.982, 0.07, 192.0, 0.0, 0.0, 0.0, 0.0, 0.0, 0.0, 0.0, 0.0, 0.0, 1.700944729265987E9, 0.0, 2023-11-25 15:38:49.265
161.0, 73086.58338625233, 81188.2637367563, -17994.629501656236, -19345.233660368165, -8622.766568990537, -5480.290112530007, -19981.073734888287, 187500.0, -0.036000000000000004, 0.982, 0.07, 192.0, 0.0, 0.0, 0.0, 0.0, 0.0, 0.0, 0.0, 0.0, 0.0, 1.700944729269505E9, 0.0, 2023-11-25 15:38:49.269
