%OpenBCI Raw EXG Data
%Number of channels = 8
%Sample Rate = 250 Hz
%Board = OpenBCI_GUI$BoardCytonSerial
Sample Index, EXG Channel 0, EXG Channel 1, EXG Channel 2, EXG Channel 3, EXG Channel 4, EXG Channel 5, EXG Channel 6, EXG Channel 7, Accel Channel 0, Accel Channel 1, Accel Channel 2, Other, Other, Other, Other, Other, Other, Other, Analog Channel 0, Analog Channel 1, Analog Channel 2, Timestamp, Other, Timestamp (Formatted)
2.0, 16647.512215079336, 23130.05454898531, -53032.017115595, -50829.85619662478, -65083.89891194092, -13016.963066692719, -37024.480047760015, 14436.209432626896, 0.0, 0.0, 0.0, 192.0, 0.0, 0.0, 0.0, 0.0, 0.0, 0.0, 0.0, 0.0, 0.0, 1.70095027007933E9, 0.0, 2023-11-25 17:11:10.079
3.0, 16633.430616072492, 23083.339403073718, -53061.74493572056, -50861.282749328944, -65078.26627233819, -13004.96017992022, -37044.08252764732, 14403.262961299773, 0.0, 0.0, 0.0, 192.0, 0.0, 0.0, 0.0, 0.0, 0.0, 0.0, 0.0, 0.0, 0.0, 1.700950270079359E9, 0.0, 2023-11-25 17:11:10.079
4.0, 16592.95160686393, 23020.70981510995, -53044.31057504542, -50863.98731040804, -65103.83666799506, -13115.73542544072, -37056.219524886554, 14387.907312858977, 0.0, 0.0, 0.0, 192.0, 0.0, 0.0, 0.0, 0.0, 0.0, 0.0, 0.0, 0.0, 0.0, 1.700950270079373E9, 0.0, 2023-11-25 17:11:10.079
0.0, 0.0, 0.0, 0.0, 0.0, 0.0, 0.0, 0.0, 0.0, 0.0, 0.0, 0.0, 192.0, 0.0, 0.0, 0.0, 0.0, 0.0, 0.0, 0.0, 0.0, 0.0, 1.700950270147461E9, 0.0, 2023-11-25 17:11:10.147
1.0, 17207.46811717369, 22986.466942604417, -51808.63908632268, -49785.13566078373, -63826.814452030005, -3414.966573115179, -35063.09212006237, 23670.899709570374, -0.274, 0.934, 0.17200000000000001, 192.0, 247.0, 112.0, 29.0, 48.0, 5.0, 96.0, 0.0, 0.0, 0.0, 1.700950270164472E9, 0.0, 2023-11-25 17:11:10.164
2.0, 17148.504215300585, 22916.282465014752, -51805.912173499135, -49803.46409123708, -63886.8288858925, -3744.855969531056, -35112.7353444976, 23643.34000865698, -0.274, 0.934, 0.17200000000000001, 192.0, 0.0, 0.0, 0.0, 0.0, 0.0, 0.0, 0.0, 0.0, 0.0, 1.700950270167472E9, 0.0, 2023-11-25 17:11:10.167
3.0, 17153.10867465838, 22956.806177712224, -51791.83057449229, -49773.57980890034, -63894.49553424067, -3804.13279582653, -35112.31066135295, 23672.86666308244, -0.274, 0.934, 0.17200000000000001, 192.0, 0.0, 0.0, 0.0, 0.0, 0.0, 0.0, 0.0, 0.0, 0.0, 1.700950270171489E9, 0.0, 2023-11-25 17:11:10.171
4.0, 17212.944294565237, 23037.026588562323, -51752.46915250649, -49726.104703677265, -63850.4178941748, -3796.7790719007344, -35068.076559075904, 23706.461334998767, -0.274, 0.934, 0.17200000000000001, 192.0, 0.0, 0.0, 0.0, 0.0, 0.0, 0.0, 0.0, 0.0, 0.0, 1.700950270175548E9, 0.0, 2023-11-25 17:11:10.175
5.0, 17207.110489262403, 22987.942157738467, -51800.41364436313, -49779.1006897808, -63821.852364760925, -3443.4873990401506, -35041.433279685174, 23655.655819851854, -0.274, 0.934, 0.17200000000000001, 192.0, 0.0, 0.0, 0.0, 0.0, 0.0, 0.0, 0.0, 0.0, 0.0, 1.700950270178612E9, 0.0, 2023-11-25 17:11:10.178
6.0, 17141.172843119246, 22901.038575296232, -51805.19691767656, -49811.80129191891, -63885.040746336075, -3694.8104136956235, -35088.014315130036, 23616.808487988532, -0.274, 0.934, 0.17200000000000001, 192.0, 0.0, 0.0, 0.0, 0.0, 0.0, 0.0, 0.0, 0.0, 0.0, 1.700950270182515E9, 0.0, 2023-11-25 17:11:10.182
7.0, 17145.866709454862, 22949.608915997615, -51792.99286520397, -49782.453451449095, -63893.37794701791, -3804.1551475709857, -35085.46621626213, 23656.281668696603, -0.274, 0.934, 0.17200000000000001, 192.0, 0.0, 0.0, 0.0, 0.0, 0.0, 0.0, 0.0, 0.0, 0.0, 1.700950270186516E9, 0.0, 2023-11-25 17:11:10.186
8.0, 17192.671262344273, 23024.50961166735, -51763.64502473415, -49740.365116639754, -63872.88139735239, -3825.881043181544, -35078.96185862563, 23683.506093443168, -0.28, 0.93, 0.16, 192.0, 247.0, 64.0, 29.0, 16.0, 5.0, 0.0, 0.0, 0.0, 0.0, 1.700950270190553E9, 0.0, 2023-11-25 17:11:10.190
9.0, 17214.03953004355, 23009.578646371207, -51785.72854825599, -49758.55943662637, -63811.34704486693, -3491.767167063614, -35034.79481158195, 23677.001735806673, -0.28, 0.93, 0.16, 192.0, 0.0, 0.0, 0.0, 0.0, 0.0, 0.0, 0.0, 0.0, 0.0, 1.700950270194643E9, 0.0, 2023-11-25 17:11:10.194
10.0, 17137.95419191768, 22899.541008417727, -51807.63325782219, -49809.38730351774, -63873.55194968605, -3614.0312092341437, -35080.32531503741, 23624.81041250353, -0.28, 0.93, 0.16, 192.0, 0.0, 0.0, 0.0, 0.0, 0.0, 0.0, 0.0, 0.0, 0.0, 1.700950270198576E9, 0.0, 2023-11-25 17:11:10.198
11.0, 17128.47705226863, 22917.824735382168, -51794.24456289346, -49786.09678579531, -63889.28757778258, -3796.7343684118237, -35080.54883248196, 23657.041628008086, -0.28, 0.93, 0.16, 192.0, 0.0, 0.0, 0.0, 0.0, 0.0, 0.0, 0.0, 0.0, 0.0, 1.700950270203617E9, 0.0, 2023-11-25 17:11:10.203
12.0, 17178.00851798159, 23001.040279989276, -51757.7665159424, -49735.38067762621, -63872.54612118556, -3822.1930053464184, -35075.6761521907, 23687.842331867498, -0.28, 0.93, 0.16, 192.0, 0.0, 0.0, 0.0, 0.0, 0.0, 0.0, 0.0, 0.0, 0.0, 1.700950270206579E9, 0.0, 2023-11-25 17:11:10.206
13.0, 17218.532230679062, 23013.55725688425, -51772.45161204954, -49740.365116639754, -63809.111870421395, -3538.504664719661, -35029.40804116822, 23684.15429403237, -0.28, 0.93, 0.16, 192.0, 0.0, 0.0, 0.0, 0.0, 0.0, 0.0, 0.0, 0.0, 0.0, 1.700950270210641E9, 0.0, 2023-11-25 17:11:10.210
14.0, 17154.092151414414, 22905.285406742743, -51807.81207177783, -49798.323190012365, -63859.2244814902, -3517.471673187217, -35075.16206206824, 23622.888162480376, -0.28, 0.93, 0.16, 192.0, 0.0, 0.0, 0.0, 0.0, 0.0, 0.0, 0.0, 0.0, 0.0, 1.700950270214577E9, 0.0, 2023-11-25 17:11:10.214
15.0, 17138.222412851144, 22906.782973621248, -51794.49043208247, -49778.608951402784, -63880.48099046719, -3769.308777965162, -35080.77234992652, 23655.298191940572, -0.28, 0.93, 0.16, 192.0, 0.0, 0.0, 0.0, 0.0, 0.0, 0.0, 0.0, 0.0, 0.0, 1.700950270219626E9, 0.0, 2023-11-25 17:11:10.219
16.0, 17163.88221548584, 22969.07728541819, -51775.491449295456, -49744.969575997544, -63885.42072599182, -3779.344711225595, -35088.93073665271, 23678.946337574285, -0.28, 0.93, 0.16, 192.0, 0.0, 0.0, 0.0, 0.0, 0.0, 0.0, 0.0, 0.0, 0.0, 1.700950270222616E9, 0.0, 2023-11-25 17:11:10.222
17.0, 17206.104660761914, 22992.412506629527, -51771.021100404396, -49734.33014563682, -63818.96898972619, -3577.217886116253, -35030.63738711326, 23694.25728252617, -0.28, 0.93, 0.16, 192.0, 0.0, 0.0, 0.0, 0.0, 0.0, 0.0, 0.0, 0.0, 0.0, 1.700950270226634E9, 0.0, 2023-11-25 17:11:10.226
18.0, 17153.242785125112, 22892.835485081137, -51811.500109612956, -49801.743006914025, -63849.59087962996, -3429.294041311031, -35047.2223814991, 23628.990188716674, -0.28800000000000003, 0.928, 0.156, 192.0, 247.0, 0.0, 29.0, 0.0, 4.0, 224.0, 0.0, 0.0, 0.0, 1.700950270231671E9, 0.0, 2023-11-25 17:11:10.231
19.0, 17132.3439040594, 22879.49149364132, -51790.467118080516, -49790.85770736429, -63881.196246289765, -3759.1610859824523, -35066.333123008386, 23645.35166565796, -0.28800000000000003, 0.928, 0.156, 192.0, 0.0, 0.0, 0.0, 0.0, 0.0, 0.0, 0.0, 0.0, 0.0, 1.700950270234679E9, 0.0, 2023-11-25 17:11:10.234
20.0, 17161.4011718513, 22949.34069506415, -51771.31167308232, -49760.81696281636, -63886.426554492304, -3783.278618249729, -35078.000733614055, 23662.7860263331, -0.28800000000000003, 0.928, 0.156, 192.0, 0.0, 0.0, 0.0, 0.0, 0.0, 0.0, 0.0, 0.0, 0.0, 1.700950270238665E9, 0.0, 2023-11-25 17:11:10.238
21.0, 17222.39908246983, 23006.784678314292, -51749.29520479384, -49733.234910158506, -63823.90872525081, -3680.1923728218526, -35052.139765279266, 23672.4866834267, -0.28800000000000003, 0.928, 0.156, 192.0, 0.0, 0.0, 0.0, 0.0, 0.0, 0.0, 0.0, 0.0, 0.0, 1.700950270242669E9, 0.0, 2023-11-25 17:11:10.242
22.0, 17186.658643085797, 22922.339787762143, -51797.39615886166, -49794.79161438842, -63829.29549566454, -3420.3756952733634, -35071.98811435558, 23601.296377336548, -0.28800000000000003, 0.928, 0.156, 192.0, 0.0, 0.0, 0.0, 0.0, 0.0, 0.0, 0.0, 0.0, 0.0, 1.700950270246675E9, 0.0, 2023-11-25 17:11:10.246
23.0, 17152.125197902347, 22883.648918110004, -51781.74993774294, -49793.53991669892, -63873.48489445268, -3768.1017837645754, -35112.17655088622, 23591.327499309482, -0.28800000000000003, 0.928, 0.156, 192.0, 0.0, 0.0, 0.0, 0.0, 0.0, 0.0, 0.0, 0.0, 0.0, 1.700950270250799E9, 0.0, 2023-11-25 17:11:10.250
24.0, 17174.700459802207, 22955.30861083372, -51769.05414689233, -49764.01326227347, -63883.18555154629, -3804.915106882466, -35120.089068423404, 23611.689938508265, -0.28800000000000003, 0.928, 0.156, 192.0, 0.0, 0.0, 0.0, 0.0, 0.0, 0.0, 0.0, 0.0, 0.0, 1.700950270254972E9, 0.0, 2023-11-25 17:11:10.254
25.0, 17229.50693720662, 23021.670940121527, -51745.1154285807, -49729.6362793012, -63836.11277772341, -3773.2873884782066, -35095.72566696712, 23624.028101447595, -0.28800000000000003, 0.928, 0.156, 192.0, 0.0, 0.0, 0.0, 0.0, 0.0, 0.0, 0.0, 0.0, 0.0, 1.700950270258851E9, 0.0, 2023-11-25 17:11:10.258
26.0, 17211.1114515199, 22956.940288178957, -51794.33396987128, -49783.05694854939, -63818.1643269258, -3447.801285720025, -35089.198957586166, 23564.594812940933, -0.28800000000000003, 0.928, 0.156, 192.0, 0.0, 0.0, 0.0, 0.0, 0.0, 0.0, 0.0, 0.0, 0.0, 1.700950270262783E9, 0.0, 2023-11-25 17:11:10.262
27.0, 17161.311764873477, 22894.467162426372, -51782.711062754526, -49791.03652131993, -63867.919310083314, -3759.6081208715586, -35127.934530727216, 23549.641495900334, -0.28800000000000003, 0.928, 0.156, 192.0, 0.0, 0.0, 0.0, 0.0, 0.0, 0.0, 0.0, 0.0, 0.0, 1.700950270265772E9, 0.0, 2023-11-25 17:11:10.265
28.0, 17172.3535266344, 22950.525337520285, -51768.27183583639, -49757.17362847014, -63874.26720550862, -3813.8334529201334, -35118.055059677965, 23598.323595323993, -0.292, 0.932, 0.148, 192.0, 246.0, 224.0, 29.0, 32.0, 4.0, 160.0, 0.0, 0.0, 0.0, 1.700950270270778E9, 0.0, 2023-11-25 17:11:10.270
29.0, 17216.78879461155, 23009.019852759822, -51745.47305649198, -49723.48954957599, -63850.97668778619, -3816.0239238767535, -35107.013297917045, 23622.28466538008, -0.292, 0.932, 0.148, 192.0, 0.0, 0.0, 0.0, 0.0, 0.0, 0.0, 0.0, 0.0, 0.0, 1.700950270274759E9, 0.0, 2023-11-25 17:11:10.274
30.0, 17213.771309110085, 22963.69051500446, -51786.57791454529, -49766.091974507806, -63810.318864621986, -3463.5592655610167, -35070.71406492163, 23588.19825508574, -0.292, 0.932, 0.148, 192.0, 0.0, 0.0, 0.0, 0.0, 0.0, 0.0, 0.0, 0.0, 0.0, 1.700950270278749E9, 0.0, 2023-11-25 17:11:10.278
31.0, 17144.994991421103, 22871.511920870773, -51801.75474903044, -49808.448530250615, -63878.69285091077, -3685.82501242459, -35111.6848125082, 23541.28194347405, -0.292, 0.932, 0.148, 192.0, 0.0, 0.0, 0.0, 0.0, 0.0, 0.0, 0.0, 0.0, 0.0, 1.700950270282775E9, 0.0, 2023-11-25 17:11:10.282
32.0, 17151.58875603542, 22914.091994058133, -51788.45546107954, -49781.31351248187, -63890.20399930525, -3815.331019798639, -35099.48076003561, 23586.968909140698, -0.292, 0.932, 0.148, 192.0, 0.0, 0.0, 0.0, 0.0, 0.0, 0.0, 0.0, 0.0, 0.0, 1.70095027028577E9, 0.0, 2023-11-25 17:11:10.285
33.0, 17202.841306071437, 22996.88285552059, -51754.726678696476, -49738.12994219422, -63868.902786839346, -3834.1511886300077, -35075.60909695734, 23633.527592841103, -0.292, 0.932, 0.148, 192.0, 0.0, 0.0, 0.0, 0.0, 0.0, 0.0, 0.0, 0.0, 0.0, 1.70095027028981E9, 0.0, 2023-11-25 17:11:10.289
34.0, 17224.12016679289, 22984.79056177027, -51781.9734551875, -49764.192076229105, -63815.124489679874, -3501.736045090681, -35037.85700057232, 23613.947464698253, -0.292, 0.932, 0.148, 192.0, 0.0, 0.0, 0.0, 0.0, 0.0, 0.0, 0.0, 0.0, 0.0, 1.700950270294159E9, 0.0, 2023-11-25 17:11:10.294
35.0, 17153.756875247585, 22876.406952906484, -51799.00548446244, -49812.89652739722, -63871.607347918434, -3593.9816944577333, -35084.169815083726, 23560.19151928324, -0.292, 0.932, 0.148, 192.0, 0.0, 0.0, 0.0, 0.0, 0.0, 0.0, 0.0, 0.0, 0.0, 1.700950270297812E9, 0.0, 2023-11-25 17:11:10.297
36.0, 17144.3467908319, 22889.169798990464, -51779.134783641675, -49785.739157884025, -63882.827923635, -3782.6080659160693, -35076.681980691195, 23595.060240633517, -0.292, 0.932, 0.148, 192.0, 0.0, 0.0, 0.0, 0.0, 0.0, 0.0, 0.0, 0.0, 0.0, 1.700950270302842E9, 0.0, 2023-11-25 17:11:10.302
37.0, 17183.64115758433, 22964.02579117129, -51746.72475418148, -49740.767448039944, -63871.272071751606, -3800.8023859026894, -35064.63439042978, 23630.420700361814, -0.292, 0.932, 0.148, 192.0, 0.0, 0.0, 0.0, 0.0, 0.0, 0.0, 0.0, 0.0, 0.0, 1.700950270306819E9, 0.0, 2023-11-25 17:11:10.306
38.0, 17223.114338292402, 22979.247329145353, -51757.90062640913, -49743.11438120775, -63805.78146049756, -3538.5270164641165, -35016.89106427325, 23629.54898232806, -0.298, 0.932, 0.152, 192.0, 246.0, 176.0, 29.0, 32.0, 4.0, 192.0, 0.0, 0.0, 0.0, 1.70095027031091E9, 0.0, 2023-11-25 17:11:10.310
39.0, 17160.507102073087, 22871.06488598167, -51798.223173406506, -49808.22501280606, -63856.29640296655, -3504.9770480367006, -35071.65283818875, 23551.94372557923, -0.298, 0.932, 0.152, 192.0, 0.0, 0.0, 0.0, 0.0, 0.0, 0.0, 0.0, 0.0, 0.0, 1.700950270313867E9, 0.0, 2023-11-25 17:11:10.313
40.0, 17145.866709454862, 22868.96382200287, -51774.038585905866, -49784.33099798334, -63874.33426074198, -3784.46326070586, -35084.95212613966, 23577.022382858086, -0.298, 0.932, 0.152, 192.0, 0.0, 0.0, 0.0, 0.0, 0.0, 0.0, 0.0, 0.0, 0.0, 1.700950270317927E9, 0.0, 2023-11-25 17:11:10.317
41.0, 17186.30101517451, 22953.07343638819, -51737.38172499916, -49737.66055556066, -63862.62194664741, -3797.986066101321, -35066.84721313086, 23618.39546184486, -0.298, 0.932, 0.152, 192.0, 0.0, 0.0, 0.0, 0.0, 0.0, 0.0, 0.0, 0.0, 0.0, 1.700950270322931E9, 0.0, 2023-11-25 17:11:10.322
42.0, 17238.425283244287, 22993.530093852296, -51731.19029178504, -49724.54008156539, -63796.66194875979, -3617.272212180163, -35018.18746545166, 23638.512031854636, -0.298, 0.932, 0.152, 192.0, 0.0, 0.0, 0.0, 0.0, 0.0, 0.0, 0.0, 0.0, 0.0, 1.700950270327217E9, 0.0, 2023-11-25 17:11:10.327
43.0, 17181.897721516816, 22892.63431938104, -51787.56139130132, -49798.34554175682, -63833.654085833325, -3446.0354979080557, -35059.694654905164, 23556.99521982613, -0.298, 0.932, 0.152, 192.0, 0.0, 0.0, 0.0, 0.0, 0.0, 0.0, 0.0, 0.0, 0.0, 1.700950270329986E9, 0.0, 2023-11-25 17:11:10.329
44.0, 17145.48672979912, 22866.214557434865, -51780.185315631075, -49792.77995738744, -63877.86583636592, -3780.328187981628, -35095.837425689395, 23551.8096151125, -0.298, 0.932, 0.152, 192.0, 0.0, 0.0, 0.0, 0.0, 0.0, 0.0, 0.0, 0.0, 0.0, 1.700950270334006E9, 0.0, 2023-11-25 17:11:10.334
45.0, 17173.91814874627, 22945.764415951304, -51761.20868458852, -49749.12700046623, -63880.995080589666, -3810.972429629854, -35105.38162057181, 23567.701705420222, -0.298, 0.932, 0.152, 192.0, 0.0, 0.0, 0.0, 0.0, 0.0, 0.0, 0.0, 0.0, 0.0, 1.700950270337969E9, 0.0, 2023-11-25 17:11:10.337
46.0, 17241.196899556744, 23016.015948774333, -51732.26317551889, -49702.948296421564, -63812.21876290069, -3720.5149198192266, -35065.46140497463, 23594.926130166787, -0.298, 0.932, 0.152, 192.0, 0.0, 0.0, 0.0, 0.0, 0.0, 0.0, 0.0, 0.0, 0.0, 1.700950270341959E9, 0.0, 2023-11-25 17:11:10.341
47.0, 17207.289303218044, 22939.193003081444, -51783.605132532735, -49760.28052094943, -63813.604571056916, -3437.0724483814774, -35079.4312452592, 23530.754271835598, -0.304, 0.932, 0.156, 192.0, 246.0, 128.0, 29.0, 32.0, 4.0, 224.0, 0.0, 0.0, 0.0, 1.700950270347098E9, 0.0, 2023-11-25 17:11:10.347
48.0, 17158.450741583198, 22883.96184253238, -51779.04537666385, -49768.818887331356, -63867.62873740539, -3773.55560941167, -35127.95688247167, 23511.867047770866, -0.304, 0.932, 0.156, 192.0, 0.0, 0.0, 0.0, 0.0, 0.0, 0.0, 0.0, 0.0, 0.0, 1.700950270351008E9, 0.0, 2023-11-25 17:11:10.351
49.0, 17184.26700642908, 22953.788692210757, -51756.9171496531, -49727.356401366764, -63865.7735426156, -3808.334923784128, -35132.538990085006, 23548.36744646638, -0.304, 0.932, 0.156, 192.0, 0.0, 0.0, 0.0, 0.0, 0.0, 0.0, 0.0, 0.0, 0.0, 1.700950270355043E9, 0.0, 2023-11-25 17:11:10.355
50.0, 17247.36598102641, 23030.164603014542, -51722.070780047274, -49680.954179877546, -63814.431585601764, -3774.0249960452315, -35098.3855245573, 23581.157455582317, -0.304, 0.932, 0.156, 192.0, 0.0, 0.0, 0.0, 0.0, 0.0, 0.0, 0.0, 0.0, 0.0, 1.700950270358189E9, 0.0, 2023-11-25 17:11:10.358
51.0, 17226.668265660795, 22967.914994706513, -51775.491449295456, -49739.40399162817, -63798.94182669423, -3432.0209541345785, -35077.017256858024, 23524.786356066033, -0.304, 0.932, 0.156, 192.0, 0.0, 0.0, 0.0, 0.0, 0.0, 0.0, 0.0, 0.0, 0.0, 1.700950270362103E9, 0.0, 2023-11-25 17:11:10.362
52.0, 17162.228186396147, 22889.39331643502, -51775.93848418457, -49762.71686109506, -63857.79396984506, -3721.5431000641706, -35106.78978047249, 23506.077945956942, -0.304, 0.932, 0.156, 192.0, 0.0, 0.0, 0.0, 0.0, 0.0, 0.0, 0.0, 0.0, 0.0, 1.700950270366665E9, 0.0, 2023-11-25 17:11:10.366
53.0, 17161.244709640112, 22933.73917743435, -51771.13285912667, -49737.97347998303, -63869.1263042839, -3788.888906108011, -35109.1367136403, 23545.84169934293, -0.304, 0.932, 0.156, 192.0, 0.0, 0.0, 0.0, 0.0, 0.0, 0.0, 0.0, 0.0, 0.0, 1.700950270370294E9, 0.0, 2023-11-25 17:11:10.370
54.0, 17210.12797476387, 23003.498971879362, -51741.85207389022, -49697.6285812412, -63840.40431265883, -3798.231935290329, -35093.669306477226, 23574.13900782335, -0.304, 0.932, 0.156, 192.0, 0.0, 0.0, 0.0, 0.0, 0.0, 0.0, 0.0, 0.0, 0.0, 1.700950270375053E9, 0.0, 2023-11-25 17:11:10.375
55.0, 17213.16781200979, 22966.01509642781, -51783.38161508818, -49738.10759044976, -63802.406347084805, -3444.8285037074693, -35058.286495004475, 23540.61139114039, -0.304, 0.932, 0.156, 192.0, 0.0, 0.0, 0.0, 0.0, 0.0, 0.0, 0.0, 0.0, 0.0, 1.70095027037934E9, 0.0, 2023-11-25 17:11:10.379
56.0, 17146.649020510795, 22871.087237726122, -51797.664379795126, -49780.95588457059, -63869.796856617555, -3644.474285182272, -35104.86753044934, 23480.820474722444, -0.304, 0.932, 0.156, 192.0, 0.0, 0.0, 0.0, 0.0, 0.0, 0.0, 0.0, 0.0, 0.0, 1.700950270383147E9, 0.0, 2023-11-25 17:11:10.383
57.0, 17144.883232698827, 22905.218351509375, -51789.461289580024, -49759.27469244894, -63886.60536844795, -3784.262095005762, -35099.95014666917, 23516.158582706285, -0.3, 0.926, 0.154, 192.0, 246.0, 160.0, 28.0, 240.0, 4.0, 208.0, 0.0, 0.0, 0.0, 1.700950270387136E9, 0.0, 2023-11-25 17:11:10.387
58.0, 17193.319462933476, 22983.538864080772, -51747.79763791533, -49708.29036334639, -63863.0242780476, -3809.988952873821, -35076.16789056872, 23569.10986532091, -0.3, 0.926, 0.154, 192.0, 0.0, 0.0, 0.0, 0.0, 0.0, 0.0, 0.0, 0.0, 0.0, 1.700950270390224E9, 0.0, 2023-11-25 17:11:10.390
59.0, 17203.713024105196, 22960.136587636065, -51779.78298423088, -49736.00652647096, -63812.48698383415, -3487.4085768948294, -35020.266177686, 23554.84945235842, -0.3, 0.926, 0.154, 192.0, 0.0, 0.0, 0.0, 0.0, 0.0, 0.0, 0.0, 0.0, 0.0, 1.700950270394166E9, 0.0, 2023-11-25 17:11:10.394
60.0, 17139.854090196382, 22862.973554488846, -51797.68673153958, -49781.15705027069, -63860.25266173514, -3562.6892522203034, -35060.32050374991, 23489.202378893184, -0.3, 0.926, 0.154, 192.0, 0.0, 0.0, 0.0, 0.0, 0.0, 0.0, 0.0, 0.0, 0.0, 1.700950270398151E9, 0.0, 2023-11-25 17:11:10.398
61.0, 17128.588810990906, 22881.547854131208, -51787.91901921261, -49760.906369794175, -63879.40810673334, -3770.7169378658464, -35058.33119849339, 23516.69502457321, -0.3, 0.926, 0.154, 192.0, 0.0, 0.0, 0.0, 0.0, 0.0, 0.0, 0.0, 0.0, 0.0, 1.700950270403146E9, 0.0, 2023-11-25 17:11:10.403
62.0, 17173.895797001816, 22963.60110802664, -51756.559521741816, -49717.27576461742, -63871.24972000715, -3790.8335078756227, -35054.55375368044, 23554.51417619159, -0.3, 0.926, 0.154, 192.0, 0.0, 0.0, 0.0, 0.0, 0.0, 0.0, 0.0, 0.0, 0.0, 1.700950270407187E9, 0.0, 2023-11-25 17:11:10.407
63.0, 17211.513782920098, 22981.817779757712, -51769.34471957025, -49725.41179959915, -63812.77755651207, -3540.248100787175, -35014.61118633881, 23552.636629657347, -0.3, 0.926, 0.154, 192.0, 0.0, 0.0, 0.0, 0.0, 0.0, 0.0, 0.0, 0.0, 0.0, 1.700950270410209E9, 0.0, 2023-11-25 17:11:10.410
64.0, 17147.610145522376, 22879.066810496668, -51812.327124157804, -49795.48451846654, -63860.58793790197, -3480.54659134705, -35062.44391947317, 23468.54936701648, -0.3, 0.926, 0.154, 192.0, 0.0, 0.0, 0.0, 0.0, 0.0, 0.0, 0.0, 0.0, 0.0, 1.700950270414194E9, 0.0, 2023-11-25 17:11:10.414
65.0, 17139.854090196382, 22890.890883313525, -51787.33787385677, -49769.10946000928, -63879.16223754433, -3783.7927083722007, -35083.05222786096, 23481.200454378184, -0.3, 0.926, 0.154, 192.0, 0.0, 0.0, 0.0, 0.0, 0.0, 0.0, 0.0, 0.0, 0.0, 1.700950270418191E9, 0.0, 2023-11-25 17:11:10.418
66.0, 17160.685916028728, 22961.522395792294, -51781.504068553935, -49744.52254110844, -63895.30019704106, -3792.979275343332, -35110.50017005207, 23485.804913735978, -0.3, 0.926, 0.154, 192.0, 0.0, 0.0, 0.0, 0.0, 0.0, 0.0, 0.0, 0.0, 0.0, 1.700950270422207E9, 0.0, 2023-11-25 17:11:10.422
67.0, 17230.60217268493, 23026.811841346247, -51757.43123977557, -49709.07267440232, -63816.57735306947, -3635.086552511043, -35052.51974493501, 23504.200399422694, -0.29, 0.922, 0.15, 192.0, 246.0, 240.0, 28.0, 208.0, 4.0, 176.0, 0.0, 0.0, 0.0, 1.700950270426209E9, 0.0, 2023-11-25 17:11:10.426
68.0, 17187.530361119552, 22942.76928219429, -51806.51567059942, -49772.05989027738, -63836.9174405238, -3425.2483755646203, -35067.383654997786, 23427.220991518618, -0.29, 0.922, 0.15, 192.0, 0.0, 0.0, 0.0, 0.0, 0.0, 0.0, 0.0, 0.0, 0.0, 1.700950270430204E9, 0.0, 2023-11-25 17:11:10.430
69.0, 17155.38855259282, 22915.88013361456, -51794.60219080475, -49765.13084949623, -63877.26233926563, -3759.6081208715586, -35103.81699845994, 23420.359005970837, -0.29, 0.922, 0.15, 192.0, 0.0, 0.0, 0.0, 0.0, 0.0, 0.0, 0.0, 0.0, 0.0, 1.700950270435247E9, 0.0, 2023-11-25 17:11:10.435
70.0, 17183.328233161956, 22986.77986702679, -51774.642083006154, -49725.09887517677, -63875.98828983168, -3780.1493740259857, -35109.539045040496, 23442.9342678707, -0.29, 0.922, 0.15, 192.0, 0.0, 0.0, 0.0, 0.0, 0.0, 0.0, 0.0, 0.0, 0.0, 1.700950270438532E9, 0.0, 2023-11-25 17:11:10.438
71.0, 17242.895632135347, 23048.22481253443, -51749.51872223839, -49688.553772992345, -63815.23624840215, -3699.4372247978717, -35069.90940212124, 23476.908919442765, -0.29, 0.922, 0.15, 192.0, 0.0, 0.0, 0.0, 0.0, 0.0, 0.0, 0.0, 0.0, 0.0, 1.70095027044224E9, 0.0, 2023-11-25 17:11:10.442
72.0, 17211.804355598015, 22975.715753521414, -51803.319371142316, -49749.70814582207, -63814.856268746415, -3397.9792473291454, -35070.84817538836, 23423.30943623894, -0.29, 0.922, 0.15, 192.0, 0.0, 0.0, 0.0, 0.0, 0.0, 0.0, 0.0, 0.0, 0.0, 1.700950270446237E9, 0.0, 2023-11-25 17:11:10.446
73.0, 17159.501273572598, 22916.505982459305, -51799.899554240656, -49759.67702384914, -63869.86391185092, -3720.1572919079417, -35110.07548690742, 23410.747755855056, -0.29, 0.922, 0.15, 192.0, 0.0, 0.0, 0.0, 0.0, 0.0, 0.0, 0.0, 0.0, 0.0, 1.700950270450272E9, 0.0, 2023-11-25 17:11:10.450
74.0, 17174.879273757848, 22973.122951164598, -51786.73437675648, -49725.09887517677, -63876.50237995415, -3756.009490014254, -35108.689678751194, 23446.376436516817, -0.29, 0.922, 0.15, 192.0, 0.0, 0.0, 0.0, 0.0, 0.0, 0.0, 0.0, 0.0, 0.0, 1.700950270454271E9, 0.0, 2023-11-25 17:11:10.454
75.0, 17230.199841284735, 23042.27924850932, -51754.39140252965, -49681.132993833184, -63829.474309620186, -3731.601385069059, -35079.408893514745, 23476.059553153464, -0.29, 0.922, 0.15, 192.0, 0.0, 0.0, 0.0, 0.0, 0.0, 0.0, 0.0, 0.0, 0.0, 1.700950270458317E9, 0.0, 2023-11-25 17:11:10.458
76.0, 17211.759652109107, 22975.31342212122, -51804.41460662062, -49737.74996253848, -63807.12256516488, -3373.7946598285034, -35055.06784380291, 23431.289009009484, -0.29, 0.922, 0.15, 192.0, 0.0, 0.0, 0.0, 0.0, 0.0, 0.0, 0.0, 0.0, 0.0, 1.700950270463309E9, 0.0, 2023-11-25 17:11:10.463
77.0, 17153.242785125112, 22896.188246749432, -51801.26301065243, -49759.90054129369, -63863.225443747695, -3651.023346307677, -35094.51867276653, 23411.61947388881, -0.292, 0.93, 0.158, 192.0, 246.0, 224.0, 29.0, 16.0, 4.0, 240.0, 0.0, 0.0, 0.0, 1.70095027046633E9, 0.0, 2023-11-25 17:11:10.466
78.0, 17162.094075929414, 22952.581698010174, -51787.00259768994, -49727.915194978144, -63867.18170251629, -3730.081466446098, -35083.99100112808, 23450.757378430055, -0.292, 0.93, 0.158, 192.0, 0.0, 0.0, 0.0, 0.0, 0.0, 0.0, 0.0, 0.0, 0.0, 1.700950270470256E9, 0.0, 2023-11-25 17:11:10.470
79.0, 17215.000655055126, 23033.718530382936, -51751.75389668392, -49685.84921191326, -63837.63269634637, -3745.6382805869916, -35062.26510551752, 23476.998326420588, -0.292, 0.93, 0.158, 192.0, 0.0, 0.0, 0.0, 0.0, 0.0, 0.0, 0.0, 0.0, 0.0, 1.700950270474262E9, 0.0, 2023-11-25 17:11:10.474
80.0, 17227.875259861383, 23009.399832415562, -51784.90153371114, -49718.37100009573, -63789.66585274528, -3399.1638897852768, -35024.98239576607, 23450.422102263226, -0.292, 0.93, 0.158, 192.0, 0.0, 0.0, 0.0, 0.0, 0.0, 0.0, 0.0, 0.0, 0.0, 1.700950270478266E9, 0.0, 2023-11-25 17:11:10.478
81.0, 17146.269040855055, 22894.310700215185, -51811.61186833523, -49773.98214030053, -63864.52184492611, -3568.0983743784877, -35079.69946619266, 23391.994642257054, -0.292, 0.93, 0.158, 192.0, 0.0, 0.0, 0.0, 0.0, 0.0, 0.0, 0.0, 0.0, 0.0, 1.700950270482302E9, 0.0, 2023-11-25 17:11:10.482
82.0, 17147.654849011284, 22927.2124680534, -51795.94329547206, -49748.679965577125, -63875.76477238713, -3729.142693178975, -35071.69754167766, 23428.562096185935, -0.292, 0.93, 0.158, 192.0, 0.0, 0.0, 0.0, 0.0, 0.0, 0.0, 0.0, 0.0, 0.0, 1.700950270486311E9, 0.0, 2023-11-25 17:11:10.486
83.0, 17191.419564654778, 23005.93531202499, -51768.33889106976, -49711.17373838112, -63866.1758740158, -3757.596463870581, -35065.39434974126, 23455.495948254582, -0.292, 0.93, 0.158, 192.0, 0.0, 0.0, 0.0, 0.0, 0.0, 0.0, 0.0, 0.0, 0.0, 1.700950270491552E9, 0.0, 2023-11-25 17:11:10.491
84.0, 17216.87820158937, 22999.229788688397, -51795.25039139395, -49734.84423575929, -63813.15753616781, -3457.3007771135303, -35027.17286672269, 23445.415311505236, -0.292, 0.93, 0.158, 192.0, 0.0, 0.0, 0.0, 0.0, 0.0, 0.0, 0.0, 0.0, 0.0, 1.700950270494378E9, 0.0, 2023-11-25 17:11:10.494
85.0, 17145.665543754763, 22888.72276410136, -51825.49230164198, -49799.32901851285, -63872.389658974374, -3502.9430392912677, -35061.81807062842, 23389.535950366968, -0.292, 0.93, 0.158, 192.0, 0.0, 0.0, 0.0, 0.0, 0.0, 0.0, 0.0, 0.0, 0.0, 1.700950270498394E9, 0.0, 2023-11-25 17:11:10.498
86.0, 17135.271982583046, 22898.669290383972, -51803.43112986459, -49775.77027985696, -63886.91829287032, -3740.989117740288, -35057.61594267082, 23424.650540906256, -0.292, 0.93, 0.158, 192.0, 0.0, 0.0, 0.0, 0.0, 0.0, 0.0, 0.0, 0.0, 0.0, 1.700950270502346E9, 0.0, 2023-11-25 17:11:10.502
87.0, 17174.432238868743, 22982.331869880185, -51771.44578354905, -49732.47495084703, -63879.8774933669, -3776.5060396797708, -35060.85694561684, 23448.298686539973, -0.298, 0.936, 0.158, 192.0, 246.0, 176.0, 29.0, 64.0, 4.0, 240.0, 0.0, 0.0, 0.0, 1.700950270506401E9, 0.0, 2023-11-25 17:11:10.506
88.0, 17228.65757091732, 23020.732166854403, -51774.2173998615, -49725.76942751044, -63813.872791990376, -3559.18002834082, -35028.24575045655, 23444.387131260293, -0.298, 0.936, 0.158, 192.0, 0.0, 0.0, 0.0, 0.0, 0.0, 0.0, 0.0, 0.0, 0.0, 1.700950270510375E9, 0.0, 2023-11-25 17:11:10.510
89.0, 17171.750029534105, 22922.742119162336, -51821.848967295766, -49793.74108239902, -63858.911557067826, -3466.3308818734745, -35085.555623239954, 23356.410665084204, -0.298, 0.936, 0.158, 192.0, 0.0, 0.0, 0.0, 0.0, 0.0, 0.0, 0.0, 0.0, 0.0, 1.700950270514383E9, 0.0, 2023-11-25 17:11:10.514
90.0, 17158.897776472306, 22925.91606687499, -51792.76934775941, -49768.818887331356, -63877.1282287989, -3779.9929118147984, -35104.576957771416, 23369.039400701455, -0.298, 0.936, 0.158, 192.0, 0.0, 0.0, 0.0, 0.0, 0.0, 0.0, 0.0, 0.0, 0.0, 1.700950270518429E9, 0.0, 2023-11-25 17:11:10.518
91.0, 17192.64891059982, 23005.01889050232, -51765.05318463483, -49726.61879379974, -63871.4285339628, -3789.827679375134, -35098.497283279576, 23396.353232425838, -0.298, 0.936, 0.158, 192.0, 0.0, 0.0, 0.0, 0.0, 0.0, 0.0, 0.0, 0.0, 0.0, 1.700950270522422E9, 0.0, 2023-11-25 17:11:10.522
92.0, 17242.202728057233, 23050.392931746595, -51758.52647525388, -49709.69852324707, -63813.381053612364, -3641.210930491797, -35057.68299790419, 23411.328901210894, -0.298, 0.936, 0.158, 192.0, 0.0, 0.0, 0.0, 0.0, 0.0, 0.0, 0.0, 0.0, 0.0, 1.700950270525468E9, 0.0, 2023-11-25 17:11:10.525
93.0, 17198.817992069482, 22959.153110880034, -51810.807205534846, -49774.76445135647, -63833.385864899865, -3422.521462741073, -35074.1785853122, 23339.758615465, -0.298, 0.936, 0.158, 192.0, 0.0, 0.0, 0.0, 0.0, 0.0, 0.0, 0.0, 0.0, 0.0, 1.700950270530523E9, 0.0, 2023-11-25 17:11:10.530
94.0, 17152.236956624623, 22904.659557897994, -51808.840252022776, -49781.469974693064, -63888.57232196002, -3756.858856303556, -35116.75865849956, 23330.95202814961, -0.298, 0.936, 0.158, 192.0, 0.0, 0.0, 0.0, 0.0, 0.0, 0.0, 0.0, 0.0, 0.0, 1.700950270534479E9, 0.0, 2023-11-25 17:11:10.534
95.0, 17183.372936650867, 22968.74200925136, -51781.59347553176, -49735.17951192612, -63885.86776088092, -3779.5235251812373, -35111.505998552566, 23379.365906639803, -0.298, 0.936, 0.158, 192.0, 0.0, 0.0, 0.0, 0.0, 0.0, 0.0, 0.0, 0.0, 0.0, 1.70095027053846E9, 0.0, 2023-11-25 17:11:10.538
96.0, 17245.980172870182, 23031.639818148593, -51754.659623463114, -49695.57222075132, -63827.32854215247, -3700.465405042816, -35065.640218930275, 23416.089822779875, -0.298, 0.936, 0.158, 192.0, 0.0, 0.0, 0.0, 0.0, 0.0, 0.0, 0.0, 0.0, 0.0, 1.70095027054246E9, 0.0, 2023-11-25 17:11:10.542
97.0, 17218.30871323451, 22957.78965446826, -51807.34268514427, -49756.77129706994, -63823.08171070596, -3394.067692049467, -35062.980361340095, 23359.271688374483, -0.292, 0.93, 0.156, 192.0, 246.0, 224.0, 29.0, 16.0, 4.0, 224.0, 0.0, 0.0, 0.0, 1.700950270546506E9, 0.0, 2023-11-25 17:11:10.546
98.0, 17160.261232884077, 22888.611005379084, -51806.49331885497, -49772.26105597748, -63881.08448756749, -3729.433265856894, -35103.54877752648, 23345.48066204556, -0.292, 0.93, 0.156, 192.0, 0.0, 0.0, 0.0, 0.0, 0.0, 0.0, 0.0, 0.0, 0.0, 1.70095027055053E9, 0.0, 2023-11-25 17:11:10.550
99.0, 17156.595546793407, 22927.190116308942, -51808.10264445575, -49752.65857609017, -63897.15539183086, -3778.0036065582763, -35103.459370548655, 23368.078275689873, -0.292, 0.93, 0.156, 192.0, 0.0, 0.0, 0.0, 0.0, 0.0, 0.0, 0.0, 0.0, 0.0, 1.700950270553505E9, 0.0, 2023-11-25 17:11:10.553
100.0, 17220.141556279847, 23007.589341114683, -51768.69651898104, -49700.243735342476, -63848.607402873924, -3774.0249960452315, -35069.551774209955, 23406.47857266409, -0.292, 0.93, 0.156, 192.0, 0.0, 0.0, 0.0, 0.0, 0.0, 0.0, 0.0, 0.0, 0.0, 1.700950270558529E9, 0.0, 2023-11-25 17:11:10.558
101.0, 17213.190163754247, 22964.472826060395, -51811.90244101315, -49745.885997520214, -63815.05743444651, -3409.356285256897, -35037.07468951639, 23374.62733681528, -0.292, 0.93, 0.156, 192.0, 0.0, 0.0, 0.0, 0.0, 0.0, 0.0, 0.0, 0.0, 0.0, 1.700950270562599E9, 0.0, 2023-11-25 17:11:10.562
102.0, 17144.927936187738, 22879.71501108587, -51814.51759511443, -49776.26201823497, -63877.03882182108, -3663.8755993694786, -35077.84427140287, 23343.469005044582, -0.292, 0.93, 0.156, 192.0, 0.0, 0.0, 0.0, 0.0, 0.0, 0.0, 0.0, 0.0, 0.0, 1.700950270566582E9, 0.0, 2023-11-25 17:11:10.566
103.0, 17151.231128124135, 22929.00060760982, -51799.0278362069, -49745.41661088665, -63883.65493817985, -3760.144562738486, -35069.976457354605, 23381.37756364078, -0.292, 0.93, 0.156, 192.0, 0.0, 0.0, 0.0, 0.0, 0.0, 0.0, 0.0, 0.0, 0.0, 1.700950270570548E9, 0.0, 2023-11-25 17:11:10.570
104.0, 17208.853925329917, 23010.98680627189, -51759.465248521, -49696.91332541863, -63851.96016454222, -3784.2173915168514, -35054.55375368044, 23416.44745069116, -0.292, 0.93, 0.156, 192.0, 0.0, 0.0, 0.0, 0.0, 0.0, 0.0, 0.0, 0.0, 0.0, 1.700950270577582E9, 0.0, 2023-11-25 17:11:10.577
105.0, 17229.50693720662, 22990.914939751023, -51786.37674884519, -49725.545910065885, -63796.594893526424, -3450.9752334326786, -35018.522741618486, 23392.821656801898, -0.292, 0.93, 0.156, 192.0, 0.0, 0.0, 0.0, 0.0, 0.0, 0.0, 0.0, 0.0, 0.0, 1.700950270580578E9, 0.0, 2023-11-25 17:11:10.580
106.0, 17155.567366548465, 22879.267976196763, -51805.64395256567, -49778.541896169416, -63861.549062913546, -3604.218793418264, -35069.41766374322, 23334.170679351173, -0.292, 0.93, 0.156, 192.0, 0.0, 0.0, 0.0, 0.0, 0.0, 0.0, 0.0, 0.0, 0.0, 1.700950270584581E9, 0.0, 2023-11-25 17:11:10.584
107.0, 17142.089264641912, 22893.148409503512, -51797.507917583935, -49765.667291363156, -63882.939682357275, -3776.1931152573966, -35073.597439956364, 23349.727493492068, -0.28800000000000003, 0.936, 0.152, 192.0, 247.0, 0.0, 29.0, 64.0, 4.0, 192.0, 0.0, 0.0, 0.0, 1.700950270587637E9, 0.0, 2023-11-25 17:11:10.587
108.0, 17191.710137332695, 22976.431009343985, -51762.32627181128, -49719.89091871869, -63865.72883912669, -3812.4476447639045, -35067.78598639798, 23374.42617111518, -0.28800000000000003, 0.936, 0.152, 192.0, 0.0, 0.0, 0.0, 0.0, 0.0, 0.0, 0.0, 0.0, 0.0, 1.700950270590604E9, 0.0, 2023-11-25 17:11:10.590
109.0, 17225.997713327135, 22987.36101238263, -51784.45449882204, -49733.34666888078, -63805.692053519735, -3526.926461091812, -35031.799677824936, 23361.819787242388, -0.28800000000000003, 0.936, 0.152, 192.0, 0.0, 0.0, 0.0, 0.0, 0.0, 0.0, 0.0, 0.0, 0.0, 1.700950270595014E9, 0.0, 2023-11-25 17:11:10.595
110.0, 17158.74131426112, 22884.475932654852, -51826.11815048673, -49798.7031696681, -63867.62873740539, -3544.897263633879, -35095.85977743385, 23283.499274670994, -0.28800000000000003, 0.936, 0.152, 192.0, 0.0, 0.0, 0.0, 0.0, 0.0, 0.0, 0.0, 0.0, 0.0, 1.70095027059863E9, 0.0, 2023-11-25 17:11:10.598
111.0, 17151.63345952433, 22897.216426994375, -51809.3766938897, -49775.30089322339, -63888.34880451546, -3792.5992956875916, -35108.13088513981, 23304.532266203438, -0.28800000000000003, 0.936, 0.152, 192.0, 0.0, 0.0, 0.0, 0.0, 0.0, 0.0, 0.0, 0.0, 0.0, 1.700950270602674E9, 0.0, 2023-11-25 17:11:10.602
112.0, 17192.157172221803, 22975.8722157326, -51775.40204231764, -49729.16689266764, -63878.98342358869, -3812.4476447639045, -35113.09297240889, 23328.76155719299, -0.28800000000000003, 0.936, 0.152, 192.0, 0.0, 0.0, 0.0, 0.0, 0.0, 0.0, 0.0, 0.0, 0.0, 1.700950270605633E9, 0.0, 2023-11-25 17:11:10.605
113.0, 17245.51078623662, 23013.870181306625, -51765.65668173513, -49711.24079361449, -63804.55211455251, -3606.3198573970626, -35061.41573922822, 23338.752786964513, -0.28800000000000003, 0.936, 0.152, 192.0, 0.0, 0.0, 0.0, 0.0, 0.0, 0.0, 0.0, 0.0, 0.0, 1.700950270609706E9, 0.0, 2023-11-25 17:11:10.609
114.0, 17185.719869818673, 22915.81307838119, -51815.970458504016, -49780.28533223693, -63845.83578656147, -3472.991701721156, -35088.52840525251, 23279.990050791508, -0.28800000000000003, 0.936, 0.152, 192.0, 0.0, 0.0, 0.0, 0.0, 0.0, 0.0, 0.0, 0.0, 0.0, 1.700950270615663E9, 0.0, 2023-11-25 17:11:10.615
115.0, 17158.048410183004, 22898.512828172785, -51807.58855433328, -49774.45152693409, -63886.40420274785, -3778.6071036585695, -35113.540007298, 23294.13870503172, -0.28800000000000003, 0.936, 0.152, 192.0, 0.0, 0.0, 0.0, 0.0, 0.0, 0.0, 0.0, 0.0, 0.0, 1.700950270619772E9, 0.0, 2023-11-25 17:11:10.619
116.0, 17181.450686627708, 22964.11519814911, -51791.38353960318, -49742.93556725211, -63893.24383655118, -3791.682874164924, -35109.47198980713, 23315.86460064228, -0.28800000000000003, 0.936, 0.152, 192.0, 0.0, 0.0, 0.0, 0.0, 0.0, 0.0, 0.0, 0.0, 0.0, 1.700950270622734E9, 0.0, 2023-11-25 17:11:10.622
117.0, 17234.044341331046, 23011.83617256119, -51774.239751605965, -49717.11930240623, -63829.69782706474, -3664.769669147691, -35062.354512495345, 23331.71198746109, -0.28200000000000003, 0.932, 0.154, 192.0, 247.0, 48.0, 29.0, 32.0, 4.0, 208.0, 0.0, 0.0, 0.0, 1.700950270626865E9, 0.0, 2023-11-25 17:11:10.626
118.0, 17195.59934086792, 22928.374758765076, -51819.25616493895, -49775.524410667946, -63837.94562076875, -3419.906308639802, -35072.189280055674, 23276.19025423411, -0.28200000000000003, 0.932, 0.154, 192.0, 0.0, 0.0, 0.0, 0.0, 0.0, 0.0, 0.0, 0.0, 0.0, 1.700950270629801E9, 0.0, 2023-11-25 17:11:10.629
119.0, 17153.086322913925, 22886.599348378106, -51808.5273276004, -49776.306721723886, -63883.38671724639, -3748.722821321824, -35095.055114633455, 23284.66156538267, -0.28200000000000003, 0.932, 0.154, 192.0, 0.0, 0.0, 0.0, 0.0, 0.0, 0.0, 0.0, 0.0, 0.0, 1.700950270633795E9, 0.0, 2023-11-25 17:11:10.633
120.0, 17169.671317299762, 22948.245459585843, -51794.19985940455, -49743.583767841315, -63888.34880451546, -3762.8938273064887, -35092.9316989102, 23318.367996021272, -0.28200000000000003, 0.932, 0.154, 192.0, 0.0, 0.0, 0.0, 0.0, 0.0, 0.0, 0.0, 0.0, 0.0, 1.700950270637759E9, 0.0, 2023-11-25 17:11:10.637
121.0, 17230.825690129484, 23015.345396440673, -51765.72373696849, -49703.9317731776, -63833.810548044516, -3708.0649981576203, -35055.492526947564, 23340.004484654008, -0.28200000000000003, 0.932, 0.154, 192.0, 0.0, 0.0, 0.0, 0.0, 0.0, 0.0, 0.0, 0.0, 0.0, 1.70095027064178E9, 0.0, 2023-11-25 17:11:10.641
122.0, 17215.514745177596, 22955.755645722824, -51810.98601949048, -49755.51959938045, -63815.2138966577, -3380.187258742721, -35045.59070415386, 23281.532321158928, -0.28200000000000003, 0.932, 0.154, 192.0, 0.0, 0.0, 0.0, 0.0, 0.0, 0.0, 0.0, 0.0, 0.0, 1.70095027064624E9, 0.0, 2023-11-25 17:11:10.646
123.0, 17159.121293916858, 22889.840351324125, -51807.74501654447, -49770.15999199868, -63872.032031063085, -3680.594704222048, -35080.526480737506, 23276.19025423411, -0.28200000000000003, 0.932, 0.154, 192.0, 0.0, 0.0, 0.0, 0.0, 0.0, 0.0, 0.0, 0.0, 0.0, 1.700950270650799E9, 0.0, 2023-11-25 17:11:10.650
124.0, 17175.326308646956, 22949.78772995326, -51794.91511522712, -49737.571148582836, -63878.31287125503, -3734.3282978926063, -35076.90549813575, 23325.8558304138, -0.28200000000000003, 0.932, 0.154, 192.0, 0.0, 0.0, 0.0, 0.0, 0.0, 0.0, 0.0, 0.0, 0.0, 1.700950270654774E9, 0.0, 2023-11-25 17:11:10.654
125.0, 17233.59730644194, 23026.811841346247, -51765.1202398682, -49698.81322369733, -63843.19828071574, -3736.0270304712094, -35062.80154738445, 23350.263935358995, -0.28200000000000003, 0.932, 0.154, 192.0, 0.0, 0.0, 0.0, 0.0, 0.0, 0.0, 0.0, 0.0, 0.0, 1.70095027065774E9, 0.0, 2023-11-25 17:11:10.657
126.0, 17235.385445998367, 22981.92953847999, -51805.621600821214, -49746.377735898226, -63805.73675700865, -3390.6255234033497, -35042.12618376329, 23302.61001618028, -0.28200000000000003, 0.932, 0.154, 192.0, 0.0, 0.0, 0.0, 0.0, 0.0, 0.0, 0.0, 0.0, 0.0, 1.700950270661829E9, 0.0, 2023-11-25 17:11:10.661
127.0, 17166.407962609286, 22880.34085993062, -51809.08612121179, -49783.012245060476, -63867.60638566094, -3633.410171676895, -35085.957954640144, 23257.101864469274, -0.278, 0.932, 0.158, 192.0, 247.0, 80.0, 29.0, 32.0, 4.0, 240.0, 0.0, 0.0, 0.0, 1.700950270665912E9, 0.0, 2023-11-25 17:11:10.665
128.0, 17181.54009360553, 22929.693511687936, -51785.415623833615, -49749.08229697732, -63871.763810129625, -3755.8977312919774, -35070.46819573262, 23288.059030539876, -0.278, 0.932, 0.158, 192.0, 0.0, 0.0, 0.0, 0.0, 0.0, 0.0, 0.0, 0.0, 0.0, 1.70095027066987E9, 0.0, 2023-11-25 17:11:10.669
129.0, 17238.09000707746, 23013.244332461876, -51747.6635274486, -49704.93760167809, -63847.73568484017, -3786.184345028919, -35057.03479731498, 23314.47879248605, -0.278, 0.932, 0.158, 192.0, 0.0, 0.0, 0.0, 0.0, 0.0, 0.0, 0.0, 0.0, 0.0, 1.700950270673839E9, 0.0, 2023-11-25 17:11:10.673
130.0, 17251.098722350445, 22985.572872826204, -51787.56139130132, -49747.137695209705, -63806.38495759785, -3459.804172492525, -35025.65294809973, 23283.9463095601, -0.278, 0.932, 0.158, 192.0, 0.0, 0.0, 0.0, 0.0, 0.0, 0.0, 0.0, 0.0, 0.0, 1.70095027067886E9, 0.0, 2023-11-25 17:11:10.678
131.0, 17184.602282595908, 22883.62656636555, -51807.789720033375, -49801.27362028046, -63870.087429295476, -3604.866994007468, -35080.302963292954, 23223.663654764136, -0.278, 0.932, 0.158, 192.0, 0.0, 0.0, 0.0, 0.0, 0.0, 0.0, 0.0, 0.0, 0.0, 1.700950270682892E9, 0.0, 2023-11-25 17:11:10.682
132.0, 17182.76943955057, 22915.63426442555, -51791.94233321457, -49777.6478263912, -63884.03491783559, -3796.0638160781646, -35087.030838374005, 23246.194213175084, -0.278, 0.932, 0.158, 192.0, 0.0, 0.0, 0.0, 0.0, 0.0, 0.0, 0.0, 0.0, 0.0, 1.700950270686932E9, 0.0, 2023-11-25 17:11:10.686
133.0, 17227.584687183462, 23001.9790532564, -51758.88410316517, -49732.9890409695, -63872.255548507645, -3823.2435373358176, -35089.1319023528, 23267.003687262975, -0.278, 0.932, 0.158, 192.0, 0.0, 0.0, 0.0, 0.0, 0.0, 0.0, 0.0, 0.0, 0.0, 1.700950270689892E9, 0.0, 2023-11-25 17:11:10.689
134.0, 17256.910175908826, 23002.64960559006, -51780.20766737553, -49745.50601786447, -63813.7610332681, -3544.897263633879, -35044.29430297545, 23261.818082549344, -0.278, 0.932, 0.158, 192.0, 0.0, 0.0, 0.0, 0.0, 0.0, 0.0, 0.0, 0.0, 0.0, 1.700950270693991E9, 0.0, 2023-11-25 17:11:10.693
135.0, 17193.431221655756, 22896.456467682896, -51814.94227825908, -49805.90043138271, -63864.7230106262, -3538.437609486295, -35092.395257043274, 23195.478105005994, -0.278, 0.932, 0.158, 192.0, 0.0, 0.0, 0.0, 0.0, 0.0, 0.0, 0.0, 0.0, 0.0, 1.700950270697927E9, 0.0, 2023-11-25 17:11:10.697
136.0, 17180.31074766049, 22904.458392197896, -51792.545830314855, -49778.0501577914, -63882.537350957085, -3800.265944035762, -35100.866568191836, 23223.104861152755, -0.278, 0.932, 0.158, 192.0, 0.0, 0.0, 0.0, 0.0, 0.0, 0.0, 0.0, 0.0, 0.0, 1.700950270701947E9, 0.0, 2023-11-25 17:11:10.701
137.0, 17214.955951566215, 22980.40961985703, -51762.23686483346, -49730.440942101595, -63874.26720550862, -3823.4447030359156, -35105.02399266052, 23254.531413856916, -0.28400000000000003, 0.926, 0.154, 192.0, 247.0, 32.0, 28.0, 240.0, 4.0, 208.0, 0.0, 0.0, 0.0, 1.700950270705908E9, 0.0, 2023-11-25 17:11:10.705
138.0, 17266.83435044698, 23016.97707378591, -51760.605187488225, -49716.515805305935, -63808.39661459883, -3626.995221018222, -35055.55958218093, 23268.098922741287, -0.28400000000000003, 0.926, 0.154, 192.0, 0.0, 0.0, 0.0, 0.0, 0.0, 0.0, 0.0, 0.0, 0.0, 1.700950270710957E9, 0.0, 2023-11-25 17:11:10.710
139.0, 17216.811146356005, 22924.619665696584, -51804.16873743162, -49779.19009675862, -63837.81151030201, -3477.842030267958, -35077.240774302576, 23198.361480040727, -0.28400000000000003, 0.926, 0.154, 192.0, 0.0, 0.0, 0.0, 0.0, 0.0, 0.0, 0.0, 0.0, 0.0, 1.700950270713931E9, 0.0, 2023-11-25 17:11:10.713
140.0, 17182.97060525067, 22898.043441539223, -51793.48460358198, -49772.12694551074, -63877.75407764364, -3785.6479031619915, -35092.395257043274, 23198.31677655182, -0.28400000000000003, 0.926, 0.154, 192.0, 0.0, 0.0, 0.0, 0.0, 0.0, 0.0, 0.0, 0.0, 0.0, 1.700950270719348E9, 0.0, 2023-11-25 17:11:10.719
141.0, 17200.87435255937, 22960.427160313986, -51780.85586796473, -49740.90155850668, -63887.52178997062, -3795.080339322131, -35085.1309400953, 23240.69568403908, -0.28400000000000003, 0.926, 0.154, 192.0, 0.0, 0.0, 0.0, 0.0, 0.0, 0.0, 0.0, 0.0, 0.0, 1.700950270722018E9, 0.0, 2023-11-25 17:11:10.722
142.0, 17269.31539408152, 23028.17529775802, -51748.222321059984, -49698.6791132306, -63811.79407975604, -3681.5111257447156, -35014.70059331663, 23294.51868468746, -0.28400000000000003, 0.926, 0.154, 192.0, 0.0, 0.0, 0.0, 0.0, 0.0, 0.0, 0.0, 0.0, 0.0, 1.700950270728299E9, 0.0, 2023-11-25 17:11:10.728
143.0, 17218.755748123618, 22931.280485544263, -51806.4262636216, -49771.34463445481, -63827.17207994129, -3405.0647503214777, -35025.27296844399, 23225.8317739763, -0.28400000000000003, 0.926, 0.154, 192.0, 0.0, 0.0, 0.0, 0.0, 0.0, 0.0, 0.0, 0.0, 0.0, 1.700950270730064E9, 0.0, 2023-11-25 17:11:10.730
144.0, 17168.799599266007, 22877.68100234044, -51798.916077484624, -49778.47484093605, -63879.89984511136, -3744.565396853137, -35066.62369568631, 23216.73461398299, -0.28400000000000003, 0.926, 0.154, 192.0, 0.0, 0.0, 0.0, 0.0, 0.0, 0.0, 0.0, 0.0, 0.0, 1.700950270734036E9, 0.0, 2023-11-25 17:11:10.734
145.0, 17183.417640139778, 22933.985046623355, -51789.59540004676, -49749.998718499985, -63891.36629001693, -3772.303911722173, -35069.261201532034, 23246.685951553103, -0.28400000000000003, 0.926, 0.154, 192.0, 0.0, 0.0, 0.0, 0.0, 0.0, 0.0, 0.0, 0.0, 0.0, 1.700950270739042E9, 0.0, 2023-11-25 17:11:10.739
146.0, 17241.30865827902, 22997.911035765534, -51763.04152763385, -49712.984229682, -63843.89118479386, -3738.9104055059443, -35039.622788384295, 23267.31661168535, -0.28400000000000003, 0.926, 0.154, 192.0, 0.0, 0.0, 0.0, 0.0, 0.0, 0.0, 0.0, 0.0, 0.0, 1.700950270742024E9, 0.0, 2023-11-25 17:11:10.742
147.0, 17215.581800410964, 22931.593409966637, -51820.59726960627, -49776.97727405754, -63833.9670102557, -3404.4165497322742, -35036.73941334956, 23208.10684062324, -0.29, 0.93, 0.15, 192.0, 246.0, 240.0, 29.0, 16.0, 4.0, 176.0, 0.0, 0.0, 0.0, 1.700950270745026E9, 0.0, 2023-11-25 17:11:10.745
148.0, 17159.948308461702, 22859.75490328728, -51813.3329526583, -49792.802309131905, -63887.700603926256, -3703.3934835664613, -35079.45359700365, 23189.957224125534, -0.29, 0.93, 0.15, 192.0, 0.0, 0.0, 0.0, 0.0, 0.0, 0.0, 0.0, 0.0, 0.0, 1.700950270750048E9, 0.0, 2023-11-25 17:11:10.750
149.0, 17169.62661381085, 22906.62651141006, -51796.90442048365, -49760.213465716064, -63891.20982780574, -3766.4701064193378, -35070.177623054704, 23233.051387435364, -0.29, 0.93, 0.15, 192.0, 0.0, 0.0, 0.0, 0.0, 0.0, 0.0, 0.0, 0.0, 0.0, 1.700950270754065E9, 0.0, 2023-11-25 17:11:10.754
150.0, 17231.138614551855, 22991.674899062506, -51759.19702758754, -49712.045456414875, -63850.820225575, -3769.4652401763487, -35032.22436096959, 23270.490559398004, -0.29, 0.93, 0.15, 192.0, 0.0, 0.0, 0.0, 0.0, 0.0, 0.0, 0.0, 0.0, 0.0, 1.700950270758114E9, 0.0, 2023-11-25 17:11:10.758
151.0, 17229.4175302288, 22955.822700956192, -51808.37086538922, -49761.01812851645, -63819.952466482224, -3421.381523773852, -35017.963948007106, 23216.712262238536, -0.29, 0.93, 0.15, 192.0, 0.0, 0.0, 0.0, 0.0, 0.0, 0.0, 0.0, 0.0, 0.0, 1.70095027076215E9, 0.0, 2023-11-25 17:11:10.762
152.0, 17169.358392877388, 22869.723781314347, -51814.785816047886, -49796.53505045594, -63880.74921140066, -3653.2585207532074, -35076.57022196892, 23167.471369203493, -0.29, 0.93, 0.15, 192.0, 0.0, 0.0, 0.0, 0.0, 0.0, 0.0, 0.0, 0.0, 0.0, 1.700950270767086E9, 0.0, 2023-11-25 17:11:10.767
153.0, 17177.27091041457, 22910.202790522908, -51799.29605714036, -49770.31645420986, -63889.68990918278, -3780.305836237173, -35066.91426836423, 23201.60248298675, -0.29, 0.93, 0.15, 192.0, 0.0, 0.0, 0.0, 0.0, 0.0, 0.0, 0.0, 0.0, 0.0, 1.700950270770109E9, 0.0, 2023-11-25 17:11:10.770
154.0, 17231.1162628074, 22993.708907807937, -51759.30878630982, -49722.14844490868, -63865.28180423759, -3812.9617348863767, -35052.206820512634, 23236.538259570392, -0.29, 0.93, 0.15, 192.0, 0.0, 0.0, 0.0, 0.0, 0.0, 0.0, 0.0, 0.0, 0.0, 1.700950270773121E9, 0.0, 2023-11-25 17:11:10.773
155.0, 17258.18422534278, 22987.696288549458, -51778.91126619712, -49739.582805583814, -63802.31694010698, -3495.0752252429993, -35011.54899734843, 23218.299236094863, -0.29, 0.93, 0.15, 192.0, 0.0, 0.0, 0.0, 0.0, 0.0, 0.0, 0.0, 0.0, 0.0, 1.700950270778143E9, 0.0, 2023-11-25 17:11:10.778
156.0, 17187.619768097375, 22885.05707801069, -51807.40974037764, -49795.37275974426, -63866.30998448253, -3592.081796179032, -35071.854003888846, 23145.991342781945, -0.29, 0.93, 0.15, 192.0, 0.0, 0.0, 0.0, 0.0, 0.0, 0.0, 0.0, 0.0, 0.0, 1.700950270782114E9, 0.0, 2023-11-25 17:11:10.782
157.0, 17187.373898908365, 22910.33690098964, -51789.617751791215, -49767.7460035975, -63880.21276953373, -3799.5059847242815, -35080.81705341543, 23179.027221086886, -0.29, 0.926, 0.148, 192.0, 246.0, 240.0, 28.0, 240.0, 4.0, 160.0, 0.0, 0.0, 0.0, 1.700950270786138E9, 0.0, 2023-11-25 17:11:10.786
158.0, 17233.709065164217, 22993.820666530213, -51753.69849845154, -49721.05320943036, -63865.70648738224, -3827.1550926154964, -35076.77138766902, 23212.39837555866, -0.29, 0.926, 0.148, 192.0, 0.0, 0.0, 0.0, 0.0, 0.0, 0.0, 0.0, 0.0, 0.0, 1.700950270790165E9, 0.0, 2023-11-25 17:11:10.790
159.0, 17258.78772244307, 22995.98878574238, -51774.6197312617, -49736.90059624918, -63810.69884427772, -3564.857371432468, -35033.45370691463, 23200.082564363787, -0.29, 0.926, 0.148, 192.0, 0.0, 0.0, 0.0, 0.0, 0.0, 0.0, 0.0, 0.0, 0.0, 1.70095027079416E9, 0.0, 2023-11-25 17:11:10.794
160.0, 17193.2077042112, 22891.0026420358, -51812.03655147988, -49798.81492839038, -63860.431475690784, -3525.2947837465745, -35067.27189627551, 23136.80477581081, -0.29, 0.926, 0.148, 192.0, 0.0, 0.0, 0.0, 0.0, 0.0, 0.0, 0.0, 0.0, 0.0, 1.700950270797185E9, 0.0, 2023-11-25 17:11:10.797
161.0, 17182.21064593919, 22897.1046682721, -51787.89666746815, -49771.72461411055, -63877.55291194355, -3800.0647783356644, -35066.84721313086, 23174.087485562264, -0.29, 0.926, 0.148, 192.0, 0.0, 0.0, 0.0, 0.0, 0.0, 0.0, 0.0, 0.0, 0.0, 1.700950270801192E9, 0.0, 2023-11-25 17:11:10.801
162.0, 17211.200858497723, 22968.607898784627, -51771.021100404396, -49738.93460499461, -63884.45960098024, -3814.548708742703, -35073.28451553399, 23191.11951483721, -0.29, 0.926, 0.148, 192.0, 0.0, 0.0, 0.0, 0.0, 0.0, 0.0, 0.0, 0.0, 0.0, 1.700950270806207E9, 0.0, 2023-11-25 17:11:10.806
163.0, 17257.021934631102, 23005.153000969054, -51772.831591705275, -49728.02695370042, -63826.47917586317, -3646.15066601642, -35033.00667202553, 23201.1777998421, -0.29, 0.926, 0.148, 192.0, 0.0, 0.0, 0.0, 0.0, 0.0, 0.0, 0.0, 0.0, 0.0, 1.700950270810188E9, 0.0, 2023-11-25 17:11:10.810
164.0, 17196.91809379078, 22903.29610148622, -51826.27461269792, -49798.41259699018, -63856.60932738893, -3463.7604312611143, -35061.7733671395, 23138.928191534065, -0.29, 0.926, 0.148, 192.0, 0.0, 0.0, 0.0, 0.0, 0.0, 0.0, 0.0, 0.0, 0.0, 1.700950270814202E9, 0.0, 2023-11-25 17:11:10.814
165.0, 17164.664526541776, 22879.67030759696, -51809.64491482317, -49789.941285841625, -63893.713223184735, -3793.5827724436253, -35092.03762913199, 23147.66772361609, -0.29, 0.926, 0.148, 192.0, 0.0, 0.0, 0.0, 0.0, 0.0, 0.0, 0.0, 0.0, 0.0, 1.700950270818229E9, 0.0, 2023-11-25 17:11:10.818
166.0, 17196.292244946035, 22955.241555600354, -51787.24846687895, -49751.98802375651, -63895.657824952345, -3807.2173365613626, -35084.90742265075, 23178.557834453328, -0.29, 0.926, 0.148, 192.0, 0.0, 0.0, 0.0, 0.0, 0.0, 0.0, 0.0, 0.0, 0.0, 1.700950270822218E9, 0.0, 2023-11-25 17:11:10.822
167.0, 17254.51853925211, 23016.619445874625, -51767.310710824815, -49723.578956553814, -63836.0680742345, -3710.4789865587936, -35038.371090694796, 23203.815305687822, -0.28, 0.93, 0.148, 192.0, 247.0, 64.0, 29.0, 16.0, 4.0, 160.0, 0.0, 0.0, 0.0, 1.700950270825491E9, 0.0, 2023-11-25 17:11:10.825
168.0, 17219.068672545993, 22939.05889261471, -51815.29990617036, -49783.97337007205, -63832.15651895482, -3424.7566371866033, -35039.08634651737, 23147.891241060646, -0.28, 0.93, 0.148, 192.0, 0.0, 0.0, 0.0, 0.0, 0.0, 0.0, 0.0, 0.0, 0.0, 1.700950270829211E9, 0.0, 2023-11-25 17:11:10.829
169.0, 17173.560520834984, 22885.1017814996, -51802.201783919554, -49786.2532480065, -63878.44698172176, -3756.925911536922, -35073.955067867646, 23144.62788637017, -0.28, 0.93, 0.148, 192.0, 0.0, 0.0, 0.0, 0.0, 0.0, 0.0, 0.0, 0.0, 0.0, 1.700950270834262E9, 0.0, 2023-11-25 17:11:10.834
170.0, 17198.616826369383, 22952.805215454726, -51783.44867032155, -49748.63526208822, -63879.34105149997, -3791.079377064631, -35070.535250965986, 23172.34404949475, -0.28, 0.93, 0.148, 192.0, 0.0, 0.0, 0.0, 0.0, 0.0, 0.0, 0.0, 0.0, 0.0, 1.700950270838252E9, 0.0, 2023-11-25 17:11:10.838
171.0, 17262.31929806701, 23034.143213527586, -51750.92688213908, -49704.62467725571, -63829.049626475535, -3762.8044203286677, -35040.9191895627, 23195.500456750447, -0.28, 0.93, 0.148, 192.0, 0.0, 0.0, 0.0, 0.0, 0.0, 0.0, 0.0, 0.0, 0.0, 1.700950270842266E9, 0.0, 2023-11-25 17:11:10.842
172.0, 17241.35336176793, 22968.83141622918, -51805.08515895429, -49762.113363994766, -63812.48698383415, -3418.833424905947, -35035.17479123769, 23146.639543371148, -0.28, 0.93, 0.148, 192.0, 0.0, 0.0, 0.0, 0.0, 0.0, 0.0, 0.0, 0.0, 0.0, 1.700950270846301E9, 0.0, 2023-11-25 17:11:10.846
173.0, 17172.621747567864, 22881.458447153385, -51809.01906597842, -49791.01416957548, -63877.95524334374, -3710.054303414143, -35088.23783257459, 23117.023481967866, -0.28, 0.93, 0.148, 192.0, 0.0, 0.0, 0.0, 0.0, 0.0, 0.0, 0.0, 0.0, 0.0, 1.700950270849309E9, 0.0, 2023-11-25 17:11:10.849
174.0, 17187.619768097375, 22937.20369782492, -51787.60609479024, -49756.927759281134, -63879.944548600266, -3783.300969994184, -35062.95800959563, 23165.21384301351, -0.28, 0.93, 0.148, 192.0, 0.0, 0.0, 0.0, 0.0, 0.0, 0.0, 0.0, 0.0, 0.0, 1.700950270853328E9, 0.0, 2023-11-25 17:11:10.853
175.0, 17240.481643734176, 23014.65249236256, -51757.85592292022, -49722.12609316422, -63856.67638262229, -3804.8480516491, -35042.55086690794, 23184.369288011705, -0.28, 0.93, 0.148, 192.0, 0.0, 0.0, 0.0, 0.0, 0.0, 0.0, 0.0, 0.0, 0.0, 1.700950270857373E9, 0.0, 2023-11-25 17:11:10.857
176.0, 17239.051132089036, 22976.989802955366, -51802.11237694173, -49769.13181175373, -63822.63467581686, -3463.3580998609186, -35027.329328933876, 23145.030217770367, -0.28, 0.93, 0.148, 192.0, 0.0, 0.0, 0.0, 0.0, 0.0, 0.0, 0.0, 0.0, 0.0, 1.700950270861381E9, 0.0, 2023-11-25 17:11:10.861
177.0, 17164.77628526405, 22876.876339540046, -51812.03655147988, -49809.87904189576, -63885.465429480726, -3662.601549935526, -35085.64503021778, 23107.85926674119, -0.28, 0.934, 0.146, 192.0, 247.0, 64.0, 29.0, 48.0, 4.0, 144.0, 0.0, 0.0, 0.0, 1.700950270866354E9, 0.0, 2023-11-25 17:11:10.866
178.0, 17170.118352188867, 22921.468069728384, -51787.6731500236, -49773.289236222416, -63888.37115625992, -3811.7100371968795, -35076.43611150219, 23145.186679981554, -0.28, 0.934, 0.146, 192.0, 0.0, 0.0, 0.0, 0.0, 0.0, 0.0, 0.0, 0.0, 0.0, 1.700950270871345E9, 0.0, 2023-11-25 17:11:10.871
179.0, 17222.60024816993, 23008.684576592994, -51750.613957716705, -49725.00946819896, -63867.561682172025, -3842.3989823340157, -35050.3739774673, 23170.39944772714, -0.28, 0.934, 0.146, 192.0, 0.0, 0.0, 0.0, 0.0, 0.0, 0.0, 0.0, 0.0, 0.0, 1.700950270874357E9, 0.0, 2023-11-25 17:11:10.874
180.0, 17241.2192513012, 22997.17342819851, -51789.21542039102, -49756.793648814404, -63821.494736849636, -3530.614498926938, -35023.328366676375, 23139.755206078913, -0.28, 0.934, 0.146, 192.0, 0.0, 0.0, 0.0, 0.0, 0.0, 0.0, 0.0, 0.0, 0.0, 1.700950270878409E9, 0.0, 2023-11-25 17:11:10.878
181.0, 17182.881198272848, 22902.402031708007, -51810.91896425712, -49807.196832561116, -63875.13892354238, -3611.997200488711, -35082.31462029393, 23079.919586172055, -0.28, 0.934, 0.146, 192.0, 0.0, 0.0, 0.0, 0.0, 0.0, 0.0, 0.0, 0.0, 0.0, 1.700950270881395E9, 0.0, 2023-11-25 17:11:10.881
182.0, 17178.232035426146, 22921.87040112858, -51787.784908745874, -49778.76541361397, -63887.94647311527, -3829.3902670610273, -35083.99100112808, 23114.296569144317, -0.28, 0.934, 0.146, 192.0, 0.0, 0.0, 0.0, 0.0, 0.0, 0.0, 0.0, 0.0, 0.0, 1.700950270885471E9, 0.0, 2023-11-25 17:11:10.885
183.0, 17217.481698689666, 22994.69238456397, -51753.743201940444, -49733.21255841405, -63875.98828983168, -3850.110334171097, -35074.156233567744, 23143.756168336415, -0.28, 0.934, 0.146, 192.0, 0.0, 0.0, 0.0, 0.0, 0.0, 0.0, 0.0, 0.0, 0.0, 1.700950270891483E9, 0.0, 2023-11-25 17:11:10.891
184.0, 17254.183263085277, 23012.327910939206, -51766.05901313532, -49736.90059624918, -63812.44228034524, -3609.4938051097165, -35034.861866815314, 23134.05551124281, -0.28, 0.934, 0.146, 192.0, 0.0, 0.0, 0.0, 0.0, 0.0, 0.0, 0.0, 0.0, 0.0, 1.70095027089456E9, 0.0, 2023-11-25 17:11:10.894
185.0, 17195.93461703475, 22911.186267278943, -51809.55550784535, -49802.07828308085, -63858.1739495008, -3534.8836821179016, -35080.37001852632, 23054.03626609281, -0.28, 0.934, 0.146, 192.0, 0.0, 0.0, 0.0, 0.0, 0.0, 0.0, 0.0, 0.0, 0.0, 1.700950270898432E9, 0.0, 2023-11-25 17:11:10.898
186.0, 17171.794733023016, 22902.379679963553, -51798.53609782888, -49790.835355619834, -63891.0310138501, -3815.75570294329, -35090.56241399794, 23072.23058607943, -0.28, 0.934, 0.146, 192.0, 0.0, 0.0, 0.0, 0.0, 0.0, 0.0, 0.0, 0.0, 0.0, 1.700950270902578E9, 0.0, 2023-11-25 17:11:10.902
187.0, 17201.969588037682, 22974.21818664291, -51775.066766150805, -49751.205712700576, -63890.31575802753, -3833.9500229299097, -35084.19216682818, 23114.38597612214, -0.28400000000000003, 0.932, 0.15, 192.0, 247.0, 32.0, 29.0, 32.0, 4.0, 176.0, 0.0, 0.0, 0.0, 1.700950270905463E9, 0.0, 2023-11-25 17:11:10.905
188.0, 17257.871300920404, 23021.715643610438, -51761.47690552198, -49724.38361935421, -63819.05839670401, -3671.29637852864, -35031.77732608048, 23144.851403814722, -0.28400000000000003, 0.932, 0.15, 192.0, 0.0, 0.0, 0.0, 0.0, 0.0, 0.0, 0.0, 0.0, 0.0, 1.70095027090957E9, 0.0, 2023-11-25 17:11:10.909
189.0, 17214.39715795483, 22932.979218122866, -51809.756673545446, -49786.94615208461, -63839.37613241388, -3466.73321327367, -35053.50322169104, 23084.077010640744, -0.28400000000000003, 0.932, 0.15, 192.0, 0.0, 0.0, 0.0, 0.0, 0.0, 0.0, 0.0, 0.0, 0.0, 1.700950270913458E9, 0.0, 2023-11-25 17:11:10.913
190.0, 17177.62853832585, 22898.356365961597, -51797.82084200631, -49782.83343110483, -63883.34201375747, -3793.068682321153, -35076.9278498802, 23097.644519525114, -0.28400000000000003, 0.932, 0.15, 192.0, 0.0, 0.0, 0.0, 0.0, 0.0, 0.0, 0.0, 0.0, 0.0, 1.700950270917496E9, 0.0, 2023-11-25 17:11:10.917
191.0, 17188.335023919943, 22951.0170758983, -51789.43893783557, -49758.20180871509, -63896.84246740848, -3804.423368504449, -35078.492471992075, 23116.598798823215, -0.28400000000000003, 0.932, 0.15, 192.0, 0.0, 0.0, 0.0, 0.0, 0.0, 0.0, 0.0, 0.0, 0.0, 1.700950270922548E9, 0.0, 2023-11-25 17:11:10.922
192.0, 17242.538004224065, 23006.65056784756, -51760.58283574377, -49720.96380245254, -63835.419873645296, -3723.5100535762376, -35035.39830868224, 23144.20320322552, -0.28400000000000003, 0.932, 0.15, 192.0, 0.0, 0.0, 0.0, 0.0, 0.0, 0.0, 0.0, 0.0, 0.0, 1.700950270926563E9, 0.0, 2023-11-25 17:11:10.926
193.0, 17221.527364436075, 22937.941305391945, -51799.474871096005, -49772.238704233016, -63820.511260093605, -3412.5749364584613, -35023.64129109875, 23100.99728119341, -0.28400000000000003, 0.932, 0.15, 192.0, 0.0, 0.0, 0.0, 0.0, 0.0, 0.0, 0.0, 0.0, 0.0, 1.700950270930548E9, 0.0, 2023-11-25 17:11:10.930
194.0, 17174.78986678003, 22884.408877421487, -51786.55556280084, -49780.777070614946, -63871.78616187408, -3739.4915508617823, -35068.45653873164, 23085.976908919445, -0.28400000000000003, 0.932, 0.15, 192.0, 0.0, 0.0, 0.0, 0.0, 0.0, 0.0, 0.0, 0.0, 0.0, 1.700950270933538E9, 0.0, 2023-11-25 17:11:10.933
195.0, 17192.20187571071, 22948.82660494168, -51773.92682718359, -49751.60804410077, -63880.59274918947, -3770.98515879931, -35068.45653873164, 23121.739700047936, -0.28400000000000003, 0.932, 0.15, 192.0, 0.0, 0.0, 0.0, 0.0, 0.0, 0.0, 0.0, 0.0, 0.0, 1.700950270937528E9, 0.0, 2023-11-25 17:11:10.937
196.0, 17242.716818179706, 23009.17631497101, -51749.11639083819, -49717.499282061974, -63845.92519353929, -3753.237873701796, -35042.50616341903, 23140.381054923662, -0.29, 0.932, 0.152, 192.0, 246.0, 240.0, 29.0, 32.0, 4.0, 192.0, 0.0, 0.0, 0.0, 1.70095027094156E9, 0.0, 2023-11-25 17:11:10.941
197.0, 17226.98119008317, 22946.390264796053, -51795.54096407187, -49768.72948035353, -63819.05839670401, -3406.4952619666174, -35026.345852177845, 23084.702859485493, -0.29, 0.932, 0.152, 192.0, 0.0, 0.0, 0.0, 0.0, 0.0, 0.0, 0.0, 0.0, 0.0, 1.700950270946452E9, 0.0, 2023-11-25 17:11:10.946
198.0, 17166.74323877612, 22867.37684814654, -51796.23386814998, -49794.411634732685, -63880.36923174492, -3685.690901957858, -35081.286440048985, 23044.290905510297, -0.29, 0.932, 0.152, 192.0, 0.0, 0.0, 0.0, 0.0, 0.0, 0.0, 0.0, 0.0, 0.0, 1.700950270949589E9, 0.0, 2023-11-25 17:11:10.949
199.0, 17177.092096458924, 22920.417537738984, -51785.348568600246, -49764.840276818315, -63890.94160687228, -3781.356368226572, -35084.37098078382, 23084.300528085296, -0.29, 0.932, 0.152, 192.0, 0.0, 0.0, 0.0, 0.0, 0.0, 0.0, 0.0, 0.0, 0.0, 1.700950270955529E9, 0.0, 2023-11-25 17:11:10.955
200.0, 17228.746977895138, 22998.31336716573, -51751.46332400601, -49720.65087803017, -63864.074810037, -3807.0608743501753, -35057.57123918191, 23118.990435479933, -0.29, 0.932, 0.152, 192.0, 0.0, 0.0, 0.0, 0.0, 0.0, 0.0, 0.0, 0.0, 0.0, 1.700950270959151E9, 0.0, 2023-11-25 17:11:10.959
201.0, 17239.49816697814, 22967.914994706513, -51782.889876710164, -49753.21736970155, -63812.03994894504, -3463.0004719496337, -35017.06987822889, 23090.313147343775, -0.29, 0.932, 0.152, 192.0, 0.0, 0.0, 0.0, 0.0, 0.0, 0.0, 0.0, 0.0, 0.0, 1.700950270961668E9, 0.0, 2023-11-25 17:11:10.961
202.0, 17178.790829037527, 22873.14359821601, -51792.36701635922, -49793.96459984357, -63869.46158045073, -3639.2886804686405, -35069.73058816559, 23040.960495586456, -0.29, 0.932, 0.152, 192.0, 0.0, 0.0, 0.0, 0.0, 0.0, 0.0, 0.0, 0.0, 0.0, 1.700950270965624E9, 0.0, 2023-11-25 17:11:10.965
203.0, 17179.573140093464, 22909.1075550446, -51781.52642029839, -49775.21148624557, -63887.208865548244, -3797.1366998120193, -35067.026027086504, 23069.9954116339, -0.29, 0.932, 0.152, 192.0, 0.0, 0.0, 0.0, 0.0, 0.0, 0.0, 0.0, 0.0, 0.0, 1.700950270969695E9, 0.0, 2023-11-25 17:11:10.969
204.0, 17223.3155039925, 22988.992689727867, -51748.80346641582, -49735.246567159484, -63877.351746243454, -3843.4718660678705, -35058.24179151557, 23095.632862524137, -0.29, 0.932, 0.152, 192.0, 0.0, 0.0, 0.0, 0.0, 0.0, 0.0, 0.0, 0.0, 0.0, 1.700950270973697E9, 0.0, 2023-11-25 17:11:10.973
205.0, 17245.68960019226, 22979.806122756734, -51773.3680335722, -49754.625529602235, -63821.271219405084, -3548.3617840244515, -35021.74139282005, 23081.551263517293, -0.29, 0.932, 0.152, 192.0, 0.0, 0.0, 0.0, 0.0, 0.0, 0.0, 0.0, 0.0, 0.0, 1.700950270977664E9, 0.0, 2023-11-25 17:11:10.977
206.0, 17172.845265012416, 22869.075580725144, -51804.10168219825, -49812.583602974846, -63877.23998752118, -3589.556049055582, -35071.31756202192, 23023.213210488942, -0.296, 0.928, 0.156, 192.0, 246.0, 192.0, 29.0, 0.0, 4.0, 224.0, 0.0, 0.0, 0.0, 1.700950270981733E9, 0.0, 2023-11-25 17:11:10.981
207.0, 17165.44683759771, 22881.90548204249, -51784.990940688964, -49785.180364272645, -63892.238008050685, -3833.7041537409013, -35075.765559168525, 23049.744731157392, -0.296, 0.928, 0.156, 192.0, 0.0, 0.0, 0.0, 0.0, 0.0, 0.0, 0.0, 0.0, 0.0, 1.70095027098671E9, 0.0, 2023-11-25 17:11:10.986
208.0, 17211.804355598015, 22964.36106733812, -51752.04446936184, -49737.03470671591, -63881.5762259455, -3866.8294390236665, -35069.79764339896, 23075.493940769906, -0.296, 0.928, 0.156, 192.0, 0.0, 0.0, 0.0, 0.0, 0.0, 0.0, 0.0, 0.0, 0.0, 1.70095027098979E9, 0.0, 2023-11-25 17:11:10.989
209.0, 17256.1725683418, 22986.35518388214, -51756.04543161934, -49730.10566593477, -63811.52585882257, -3637.9252240568667, -35012.219549682086, 23086.178074619544, -0.296, 0.928, 0.156, 192.0, 0.0, 0.0, 0.0, 0.0, 0.0, 0.0, 0.0, 0.0, 0.0, 1.700950270993753E9, 0.0, 2023-11-25 17:11:10.993
210.0, 17188.022099497568, 22876.496359884306, -51806.89565025517, -49800.558364457895, -63856.60932738893, -3530.0333535710997, -35058.6217711713, 23012.998463272867, -0.296, 0.928, 0.156, 192.0, 0.0, 0.0, 0.0, 0.0, 0.0, 0.0, 0.0, 0.0, 0.0, 1.700950270997735E9, 0.0, 2023-11-25 17:11:10.997
211.0, 17155.276793870544, 22854.457539851373, -51802.78292927539, -49795.61862893327, -63897.17774357531, -3835.0229066637644, -35084.572146483915, 23024.107280267155, -0.296, 0.928, 0.156, 192.0, 0.0, 0.0, 0.0, 0.0, 0.0, 0.0, 0.0, 0.0, 0.0, 1.700950271001753E9, 0.0, 2023-11-25 17:11:11.001
212.0, 17188.1562099643, 22929.469994243384, -51778.6206935192, -49753.46323889056, -63896.149563330364, -3864.8624855115995, -35081.17468132671, 23057.791359161303, -0.296, 0.928, 0.156, 192.0, 0.0, 0.0, 0.0, 0.0, 0.0, 0.0, 0.0, 0.0, 0.0, 1.700950271005777E9, 0.0, 2023-11-25 17:11:11.005
213.0, 17248.46121650472, 22984.388230370074, -51761.47690552198, -49724.7859507544, -63825.31688515149, -3719.2632221297295, -35032.44787841414, 23083.674679240547, -0.296, 0.928, 0.156, 192.0, 0.0, 0.0, 0.0, 0.0, 0.0, 0.0, 0.0, 0.0, 0.0, 1.700950271009744E9, 0.0, 2023-11-25 17:11:11.009
214.0, 17207.669282873783, 22900.077450284654, -51807.90147875565, -49785.82856486185, -63835.2187079452, -3475.517448844606, -35048.18350651068, 23027.862373335647, -0.296, 0.928, 0.156, 192.0, 0.0, 0.0, 0.0, 0.0, 0.0, 0.0, 0.0, 0.0, 0.0, 1.700950271013778E9, 0.0, 2023-11-25 17:11:11.013
215.0, 17171.25829115609, 22867.66742082446, -51791.38353960318, -49778.65365489169, -63874.758943886634, -3810.2571738072843, -35077.28547779149, 23023.593190144682, -0.296, 0.928, 0.156, 192.0, 0.0, 0.0, 0.0, 0.0, 0.0, 0.0, 0.0, 0.0, 0.0, 1.700950271017866E9, 0.0, 2023-11-25 17:11:11.017
216.0, 17180.042526727026, 22921.915104617492, -51785.68384476708, -49754.40201215768, -63891.25453129465, -3829.0326391497424, -35084.12511159481, 23039.686446152504, -0.29, 0.926, 0.156, 192.0, 246.0, 240.0, 28.0, 240.0, 4.0, 224.0, 0.0, 0.0, 0.0, 1.700950271020811E9, 0.0, 2023-11-25 17:11:11.020
217.0, 17251.545757239553, 22994.334756652686, -51747.6635274486, -49705.49639528947, -63825.741568296144, -3766.7383273528017, -35040.65096862924, 23084.971080418956, -0.29, 0.926, 0.156, 192.0, 0.0, 0.0, 0.0, 0.0, 0.0, 0.0, 0.0, 0.0, 0.0, 1.700950271025891E9, 0.0, 2023-11-25 17:11:11.025
218.0, 17224.276629004078, 22921.468069728384, -51798.357283873236, -49765.95786404108, -63817.225553658674, -3437.5641867594945, -35039.622788384295, 23035.596076917183, -0.29, 0.926, 0.156, 192.0, 0.0, 0.0, 0.0, 0.0, 0.0, 0.0, 0.0, 0.0, 0.0, 1.700950271029842E9, 0.0, 2023-11-25 17:11:11.029
219.0, 17176.913282503283, 22860.604269576583, -51784.946237200056, -49775.99379730151, -63868.70162113925, -3762.0668127616423, -35082.64989646076, 23021.1344982546, -0.29, 0.926, 0.156, 192.0, 0.0, 0.0, 0.0, 0.0, 0.0, 0.0, 0.0, 0.0, 0.0, 1.700950271033826E9, 0.0, 2023-11-25 17:11:11.033
220.0, 17189.96670126518, 22917.176534792965, -51771.31167308232, -49748.92583476613, -63876.12240029841, -3814.4145982759715, -35084.03570461699, 23047.17428054503, -0.29, 0.926, 0.156, 192.0, 0.0, 0.0, 0.0, 0.0, 0.0, 0.0, 0.0, 0.0, 0.0, 1.70095027103783E9, 0.0, 2023-11-25 17:11:11.037
221.0, 17245.957821125725, 22984.969375725912, -51739.52749246687, -49711.37490408122, -63838.88439403587, -3817.879118666544, -35072.681018433694, 23058.059580094767, -0.29, 0.926, 0.156, 192.0, 0.0, 0.0, 0.0, 0.0, 0.0, 0.0, 0.0, 0.0, 0.0, 1.700950271041862E9, 0.0, 2023-11-25 17:11:11.041
222.0, 17236.41362624331, 22933.78388092326, -51785.03564417787, -49761.822791316845, -63810.29651287753, -3466.8449719959467, -35051.91624783471, 23015.54656214077, -0.29, 0.926, 0.156, 192.0, 0.0, 0.0, 0.0, 0.0, 0.0, 0.0, 0.0, 0.0, 0.0, 1.700950271044864E9, 0.0, 2023-11-25 17:11:11.044
223.0, 17172.554692334495, 22852.781159017224, -51787.29317036786, -49790.500079453006, -63872.83669386348, -3730.0591147016426, -35096.6867919787, 22983.471808847407, -0.29, 0.926, 0.156, 192.0, 0.0, 0.0, 0.0, 0.0, 0.0, 0.0, 0.0, 0.0, 0.0, 1.70095027104894E9, 0.0, 2023-11-25 17:11:11.048
224.0, 17182.657680828295, 22906.76062187679, -51773.03275740537, -49761.93455003912, -63881.7773916456, -3835.9169764419767, -35096.79855070097, 23012.03733826129, -0.29, 0.926, 0.156, 192.0, 0.0, 0.0, 0.0, 0.0, 0.0, 0.0, 0.0, 0.0, 0.0, 1.700950271053879E9, 0.0, 2023-11-25 17:11:11.053
225.0, 17235.765425654106, 22984.924672237, -51741.7626669124, -49719.30977336285, -63861.23613849118, -3862.4708488548818, -35075.78791091298, 23043.307428754262, -0.29, 0.926, 0.156, 192.0, 0.0, 0.0, 0.0, 0.0, 0.0, 0.0, 0.0, 0.0, 0.0, 1.700950271057929E9, 0.0, 2023-11-25 17:11:11.057
226.0, 17249.84702466095, 22962.72938999288, -51768.785925958866, -49744.276671919426, -63804.84268723043, -3519.0809987879993, -35028.513971390006, 23032.64564664908, -0.292, 0.934, 0.152, 192.0, 246.0, 224.0, 29.0, 48.0, 4.0, 192.0, 0.0, 0.0, 0.0, 1.700950271062141E9, 0.0, 2023-11-25 17:11:11.062
227.0, 17181.897721516816, 22855.061036951665, -51777.07842315178, -49782.14052702672, -63855.37998144388, -3652.7444306307357, -35069.060035831935, 22992.54661709626, -0.292, 0.934, 0.152, 192.0, 0.0, 0.0, 0.0, 0.0, 0.0, 0.0, 0.0, 0.0, 0.0, 1.700950271065925E9, 0.0, 2023-11-25 17:11:11.065
228.0, 17180.646023827318, 22880.877301797547, -51768.74122246996, -49761.42045991665, -63874.71424039773, -3826.0822088816417, -35075.31852427942, 23017.692329608482, -0.292, 0.934, 0.152, 192.0, 0.0, 0.0, 0.0, 0.0, 0.0, 0.0, 0.0, 0.0, 0.0, 1.700950271069284E9, 0.0, 2023-11-25 17:11:11.069
229.0, 17232.010332585614, 22966.372724339097, -51737.247614532425, -49716.873433217224, -63863.06898153651, -3863.6107878221023, -35072.770425411516, 23044.492071210396, -0.292, 0.934, 0.152, 192.0, 0.0, 0.0, 0.0, 0.0, 0.0, 0.0, 0.0, 0.0, 0.0, 1.700950271072957E9, 0.0, 2023-11-25 17:11:11.072
230.0, 17258.094818364956, 22967.043276672757, -51757.163018842104, -49728.27282288943, -63801.80284998452, -3574.7368424817137, -35035.152439493235, 23032.869164093634, -0.292, 0.934, 0.152, 192.0, 0.0, 0.0, 0.0, 0.0, 0.0, 0.0, 0.0, 0.0, 0.0, 1.700950271077073E9, 0.0, 2023-11-25 17:11:11.077
231.0, 17182.903550017305, 22850.56833631615, -51796.189164661075, -49792.19881203161, -63858.55392915654, -3573.239275603208, -35080.79470167097, 22969.591375540662, -0.292, 0.934, 0.152, 192.0, 0.0, 0.0, 0.0, 0.0, 0.0, 0.0, 0.0, 0.0, 0.0, 1.700950271081979E9, 0.0, 2023-11-25 17:11:11.081
232.0, 17168.620785310362, 22853.56347007316, -51782.554600543335, -49773.98214030053, -63882.179723045796, -3831.513682784281, -35082.60519297185, 23000.481486377896, -0.292, 0.934, 0.152, 192.0, 0.0, 0.0, 0.0, 0.0, 0.0, 0.0, 0.0, 0.0, 0.0, 1.70095027108605E9, 0.0, 2023-11-25 17:11:11.086
233.0, 17206.149364250825, 22930.766395421793, -51755.33017579677, -49733.25726190296, -63878.87166486641, -3862.046165710231, -35081.912288893735, 23023.392024444584, -0.292, 0.934, 0.152, 192.0, 0.0, 0.0, 0.0, 0.0, 0.0, 0.0, 0.0, 0.0, 0.0, 1.700950271089991E9, 0.0, 2023-11-25 17:11:11.089
234.0, 17260.66526897732, 22966.88681446157, -51751.15039958363, -49718.52746230691, -63805.692053519735, -3651.716250385791, -35033.207837725626, 23034.053806549768, -0.292, 0.934, 0.152, 192.0, 0.0, 0.0, 0.0, 0.0, 0.0, 0.0, 0.0, 0.0, 0.0, 1.700950271094017E9, 0.0, 2023-11-25 17:11:11.094
235.0, 17200.092041503434, 22864.67228706745, -51797.1279379282, -49783.3028177384, -63840.9184027813, -3500.5066991456392, -35057.79475662646, 22978.93440472298, -0.292, 0.934, 0.152, 192.0, 0.0, 0.0, 0.0, 0.0, 0.0, 0.0, 0.0, 0.0, 0.0, 1.700950271097005E9, 0.0, 2023-11-25 17:11:11.097
236.0, 17165.335078875432, 22837.827841976625, -51780.05120516434, -49772.66338737767, -63876.03299332059, -3809.8548424070887, -35083.745131939075, 22993.50774210784, -0.294, 0.928, 0.154, 192.0, 246.0, 208.0, 29.0, 0.0, 4.0, 208.0, 0.0, 0.0, 0.0, 1.700950271101028E9, 0.0, 2023-11-25 17:11:11.101
237.0, 17196.292244946035, 22909.73340388935, -51753.09500135124, -49731.98321246901, -63874.33426074198, -3831.178406617452, -35094.295155321975, 23018.184067986498, -0.294, 0.928, 0.154, 192.0, 0.0, 0.0, 0.0, 0.0, 0.0, 0.0, 0.0, 0.0, 0.0, 1.70095027110506E9, 0.0, 2023-11-25 17:11:11.105
238.0, 17257.267803820112, 22969.345506351652, -51737.85111163272, -49707.19512786807, -63812.97872221217, -3710.6130970255253, -35053.92790483569, 23032.936219327, -0.294, 0.928, 0.154, 192.0, 0.0, 0.0, 0.0, 0.0, 0.0, 0.0, 0.0, 0.0, 0.0, 1.700950271109083E9, 0.0, 2023-11-25 17:11:11.109
239.0, 17221.437957458253, 22886.91227280048, -51786.55556280084, -49772.75279435549, -63822.902896750325, -3454.707974756715, -35057.61594267082, 22969.591375540662, -0.294, 0.928, 0.154, 192.0, 0.0, 0.0, 0.0, 0.0, 0.0, 0.0, 0.0, 0.0, 0.0, 1.700950271114167E9, 0.0, 2023-11-25 17:11:11.114
240.0, 17183.283529673045, 22845.38273160252, -51773.70330973904, -49772.462221677575, -63868.969842072715, -3792.8898683655107, -35090.316544808935, 22971.513625563817, -0.294, 0.928, 0.154, 192.0, 0.0, 0.0, 0.0, 0.0, 0.0, 0.0, 0.0, 0.0, 0.0, 1.700950271118081E9, 0.0, 2023-11-25 17:11:11.118
241.0, 17199.68971010324, 22908.504057944305, -51756.715983953, -49738.55462533887, -63874.24485376416, -3820.3825140455383, -35090.584765742395, 23006.94114052548, -0.294, 0.928, 0.154, 192.0, 0.0, 0.0, 0.0, 0.0, 0.0, 0.0, 0.0, 0.0, 0.0, 1.700950271122174E9, 0.0, 2023-11-25 17:11:11.122
242.0, 17260.195882343756, 22980.16375066802, -51720.72967537995, -49694.20876433954, -63813.71632977919, -3774.852010590078, -35042.30499771893, 23044.536774699303, -0.294, 0.928, 0.154, 192.0, 0.0, 0.0, 0.0, 0.0, 0.0, 0.0, 0.0, 0.0, 0.0, 1.700950271125151E9, 0.0, 2023-11-25 17:11:11.125
243.0, 17233.93258260877, 22911.566246934683, -51772.272798093894, -49752.725631323534, -63800.171172639275, -3441.4310385502627, -35033.49841040354, 22985.863445504125, -0.294, 0.928, 0.154, 192.0, 0.0, 0.0, 0.0, 0.0, 0.0, 0.0, 0.0, 0.0, 0.0, 1.700950271129144E9, 0.0, 2023-11-25 17:11:11.129
244.0, 17171.34769813391, 22839.61598153305, -51773.39038531666, -49775.122079267756, -63863.8736443369, -3757.2835394482067, -35087.81314942994, 22953.185195110465, -0.294, 0.928, 0.154, 192.0, 0.0, 0.0, 0.0, 0.0, 0.0, 0.0, 0.0, 0.0, 0.0, 1.700950271133163E9, 0.0, 2023-11-25 17:11:11.133
245.0, 17182.702384317206, 22891.24851122481, -51761.38749854416, -49748.255282432474, -63875.00481307564, -3825.1434356145187, -35095.837425689395, 22976.25219538834, -0.294, 0.928, 0.154, 192.0, 0.0, 0.0, 0.0, 0.0, 0.0, 0.0, 0.0, 0.0, 0.0, 1.7009502711373E9, 0.0, 2023-11-25 17:11:11.137
246.0, 17251.165777583814, 22978.442666344963, -51716.95223056701, -49697.02508414091, -63829.34019915345, -3841.907243955999, -35073.820957400916, 23003.65543409055, -0.292, 0.936, 0.152, 192.0, 246.0, 224.0, 29.0, 64.0, 4.0, 192.0, 0.0, 0.0, 0.0, 1.700950271141195E9, 0.0, 2023-11-25 17:11:11.141
247.0, 17244.773178669595, 22934.76735767929, -51764.11441136771, -49745.03663123091, -63796.17021038177, -3477.059719212022, -35045.21072449812, 22968.74200925136, -0.292, 0.936, 0.152, 192.0, 0.0, 0.0, 0.0, 0.0, 0.0, 0.0, 0.0, 0.0, 0.0, 1.700950271145212E9, 0.0, 2023-11-25 17:11:11.145
248.0, 17169.224282410658, 22837.246696620787, -51777.27958885188, -49787.99668407401, -63868.00871706113, -3716.0222191837097, -35098.631393746306, 22929.58175296566, -0.292, 0.936, 0.152, 192.0, 0.0, 0.0, 0.0, 0.0, 0.0, 0.0, 0.0, 0.0, 0.0, 1.700950271150262E9, 0.0, 2023-11-25 17:11:11.150
249.0, 17178.410849381788, 22884.073601254655, -51754.77138218539, -49753.46323889056, -63870.51211244013, -3845.885854469044, -35094.07163787742, 22974.26289013182, -0.292, 0.936, 0.152, 192.0, 0.0, 0.0, 0.0, 0.0, 0.0, 0.0, 0.0, 0.0, 0.0, 1.700950271153269E9, 0.0, 2023-11-25 17:11:11.153
250.0, 17227.674094161284, 22962.237651614865, -51718.449797445515, -49709.29619184687, -63846.41693191731, -3873.490258871348, -35075.38557951279, 23006.047070747267, -0.292, 0.936, 0.152, 192.0, 0.0, 0.0, 0.0, 0.0, 0.0, 0.0, 0.0, 0.0, 0.0, 1.700950271157276E9, 0.0, 2023-11-25 17:11:11.157
251.0, 17264.442713790264, 22965.16573013851, -51732.643155174635, -49721.81316874184, -63778.154704350796, -3538.1917402972867, -35008.576215335874, 22997.46400087643, -0.292, 0.936, 0.152, 192.0, 0.0, 0.0, 0.0, 0.0, 0.0, 0.0, 0.0, 0.0, 0.0, 1.700950271161338E9, 0.0, 2023-11-25 17:11:11.161
252.0, 17187.284491930546, 22860.09017945411, -51766.50604802443, -49782.83343110483, -63850.39554243035, -3642.596738648026, -35052.40798621273, 22930.67698844397, -0.292, 0.936, 0.152, 192.0, 0.0, 0.0, 0.0, 0.0, 0.0, 0.0, 0.0, 0.0, 0.0, 1.700950271165325E9, 0.0, 2023-11-25 17:11:11.165
253.0, 17186.50218087461, 22888.655708867995, -51754.21258857401, -49761.50986689447, -63868.43340020578, -3844.6118050350915, -35062.15334679525, 22953.788692210757, -0.292, 0.936, 0.152, 192.0, 0.0, 0.0, 0.0, 0.0, 0.0, 0.0, 0.0, 0.0, 0.0, 1.700950271169303E9, 0.0, 2023-11-25 17:11:11.169
254.0, 17229.149309295335, 22970.73131450788, -51723.970678325975, -49718.348648351275, -63859.53740591257, -3873.6690728269905, -35059.31467524942, 22974.776980254293, -0.292, 0.936, 0.152, 192.0, 0.0, 0.0, 0.0, 0.0, 0.0, 0.0, 0.0, 0.0, 0.0, 1.700950271173274E9, 0.0, 2023-11-25 17:11:11.173
255.0, 17267.974289414204, 22981.862483246623, -51733.91720460859, -49717.61104078425, -63788.10123063341, -3594.8534124914904, -35013.78417179396, 22963.69051500446, -0.292, 0.936, 0.152, 192.0, 0.0, 0.0, 0.0, 0.0, 0.0, 0.0, 0.0, 0.0, 0.0, 1.700950271178306E9, 0.0, 2023-11-25 17:11:11.178
0.0, 17204.78590783905, 22880.117342486068, -51772.29514983835, -49773.89273332271, -63835.82220504549, -3564.700909221281, -35056.16307928122, 22904.123116031067, -0.292, 0.93, 0.16, 192.0, 246.0, 224.0, 29.0, 16.0, 5.0, 0.0, 0.0, 0.0, 0.0, 1.700950271181453E9, 0.0, 2023-11-25 17:11:11.181
1.0, 17197.387480424342, 22894.310700215185, -51752.089172850756, -49746.46714287605, -63854.1729872433, -3826.0822088816417, -35057.9735705821, 22950.72650322038, -0.292, 0.93, 0.16, 192.0, 0.0, 0.0, 0.0, 0.0, 0.0, 0.0, 0.0, 0.0, 0.0, 1.700950271185416E9, 0.0, 2023-11-25 17:11:11.185
2.0, 17231.853870374427, 22968.429084828986, -51729.96094584, -49708.35741857975, -63854.1729872433, -3841.4155055779825, -35053.950256580145, 22967.78088423978, -0.292, 0.93, 0.16, 192.0, 0.0, 0.0, 0.0, 0.0, 0.0, 0.0, 0.0, 0.0, 0.0, 1.700950271189331E9, 0.0, 2023-11-25 17:11:11.189
3.0, 17281.497094809663, 23004.482448635394, -51729.40215222861, -49693.76172945044, -63788.838838200434, -3653.43733470885, -35021.13789571976, 22962.662334759516, -0.292, 0.93, 0.16, 192.0, 0.0, 0.0, 0.0, 0.0, 0.0, 0.0, 0.0, 0.0, 0.0, 1.700950271193394E9, 0.0, 2023-11-25 17:11:11.193
4.0, 17226.511803449608, 22909.711052144892, -51780.69940575355, -49760.347576182794, -63822.52291709458, -3485.933361760779, -35057.168907781714, 22885.86174081108, -0.292, 0.93, 0.16, 192.0, 0.0, 0.0, 0.0, 0.0, 0.0, 0.0, 0.0, 0.0, 0.0, 1.700950271197358E9, 0.0, 2023-11-25 17:11:11.197
5.0, 17187.038622741537, 22879.08916224112, -51778.73245224148, -49760.906369794175, -63871.78616187408, -3808.8266621621447, -35095.85977743385, 22879.71501108587, -0.292, 0.93, 0.16, 192.0, 0.0, 0.0, 0.0, 0.0, 0.0, 0.0, 0.0, 0.0, 0.0, 1.700950271201424E9, 0.0, 2023-11-25 17:11:11.201
6.0, 17210.97734105317, 22950.905317176024, -51762.68389972257, -49727.423456600125, -63878.670499166314, -3837.5039502983036, -35097.290289078985, 22911.007453323302, -0.292, 0.93, 0.16, 192.0, 0.0, 0.0, 0.0, 0.0, 0.0, 0.0, 0.0, 0.0, 0.0, 1.700950271206426E9, 0.0, 2023-11-25 17:11:11.206
7.0, 17267.46019929173, 23011.41148941654, -51749.47401874948, -49702.14363362118, -63821.1147571939, -3736.78698978269, -35055.60428566984, 22934.38737802355, -0.292, 0.93, 0.16, 192.0, 0.0, 0.0, 0.0, 0.0, 0.0, 0.0, 0.0, 0.0, 0.0, 1.700950271209413E9, 0.0, 2023-11-25 17:11:11.209
8.0, 17229.03755057306, 22931.72752043337, -51801.10654844124, -49765.264959962966, -63826.27801016308, -3468.029614452078, -35070.49054747707, 22869.679077825436, -0.292, 0.93, 0.16, 192.0, 0.0, 0.0, 0.0, 0.0, 0.0, 0.0, 0.0, 0.0, 0.0, 1.700950271214501E9, 0.0, 2023-11-25 17:11:11.214
9.0, 17184.088192473435, 22882.91131054298, -51781.74993774294, -49760.81696281636, -63867.18170251629, -3809.676028451446, -35096.955012912156, 22870.036705736722, -0.292, 0.93, 0.16, 192.0, 0.0, 0.0, 0.0, 0.0, 0.0, 0.0, 0.0, 0.0, 0.0, 1.700950271217429E9, 0.0, 2023-11-25 17:11:11.217
10.0, 17199.01915776958, 22945.965581651402, -51766.66251023561, -49730.66445954615, -63875.608310175936, -3834.5311682857478, -35084.12511159481, 22904.748964875816, -0.292, 0.928, 0.16, 192.0, 246.0, 224.0, 29.0, 0.0, 5.0, 0.0, 0.0, 0.0, 0.0, 1.700950271221449E9, 0.0, 2023-11-25 17:11:11.221
11.0, 17258.877129420893, 23022.430899433006, -51743.28258553536, -49696.600400996256, -63833.85525153342, -3801.6741039364465, -35060.58872468337, 22920.57399995017, -0.292, 0.928, 0.16, 192.0, 0.0, 0.0, 0.0, 0.0, 0.0, 0.0, 0.0, 0.0, 0.0, 1.700950271229581E9, 0.0, 2023-11-25 17:11:11.229
12.0, 17237.88884137736, 22966.730352250383, -51799.83249900729, -49755.251378446985, -63819.39367287084, -3455.1773613902765, -35051.20099201214, 22864.314659156164, -0.292, 0.928, 0.16, 192.0, 0.0, 0.0, 0.0, 0.0, 0.0, 0.0, 0.0, 0.0, 0.0, 1.700950271229608E9, 0.0, 2023-11-25 17:11:11.229
13.0, 17181.33892790543, 22895.651804882506, -51796.457385594535, -49775.591465901314, -63878.24581602166, -3753.886074291, -35088.55075699696, 22834.296266352685, -0.292, 0.928, 0.16, 192.0, 0.0, 0.0, 0.0, 0.0, 0.0, 0.0, 0.0, 0.0, 0.0, 1.700950271233483E9, 0.0, 2023-11-25 17:11:11.233
14.0, 17193.25240770011, 22948.714846219405, -51777.34664408525, -49741.214482929056, -63878.49168521067, -3823.7352757138347, -35082.493434249576, 22867.846234780103, -0.292, 0.928, 0.16, 192.0, 0.0, 0.0, 0.0, 0.0, 0.0, 0.0, 0.0, 0.0, 0.0, 1.700950271237463E9, 0.0, 2023-11-25 17:11:11.237
15.0, 17241.2192513012, 23022.542658155282, -51747.55176872633, -49701.36132256524, -63845.612269116915, -3833.6370985075355, -35067.115434064326, 22894.355403704096, -0.292, 0.928, 0.16, 192.0, 0.0, 0.0, 0.0, 0.0, 0.0, 0.0, 0.0, 0.0, 0.0, 1.700950271241507E9, 0.0, 2023-11-25 17:11:11.241
16.0, 17236.301867521033, 22982.421276858007, -51800.41364436313, -49753.61970110175, -63816.97968446967, -3481.5300681030835, -35042.5732186524, 22852.177661916932, -0.292, 0.928, 0.16, 192.0, 0.0, 0.0, 0.0, 0.0, 0.0, 0.0, 0.0, 0.0, 0.0, 1.700950271245514E9, 0.0, 2023-11-25 17:11:11.245
17.0, 17179.97547149366, 22900.01039505129, -51802.71587404202, -49783.19105901612, -63874.624833419904, -3704.511070789227, -35085.622678473315, 22816.95131265537, -0.292, 0.928, 0.16, 192.0, 0.0, 0.0, 0.0, 0.0, 0.0, 0.0, 0.0, 0.0, 0.0, 1.700950271249522E9, 0.0, 2023-11-25 17:11:11.249
18.0, 17192.984186766647, 22948.133700863567, -51777.19018187406, -49744.29902366389, -63874.84835086446, -3836.8333979646445, -35074.98324811259, 22865.365191145564, -0.292, 0.928, 0.16, 192.0, 0.0, 0.0, 0.0, 0.0, 0.0, 0.0, 0.0, 0.0, 0.0, 1.700950271253533E9, 0.0, 2023-11-25 17:11:11.253
19.0, 17245.0190478586, 23034.47848969442, -51741.583852956755, -49698.99203765298, -63852.58601338697, -3863.3202151441833, -35063.829727629396, 22895.92002581597, -0.292, 0.928, 0.16, 192.0, 0.0, 0.0, 0.0, 0.0, 0.0, 0.0, 0.0, 0.0, 0.0, 1.700950271257458E9, 0.0, 2023-11-25 17:11:11.257
20.0, 17257.826597431493, 23018.765213342336, -51778.285417352374, -49732.251433402475, -63803.76980349658, -3536.090676318488, -35019.617977096794, 22867.66742082446, -0.292, 0.922, 0.158, 192.0, 246.0, 224.0, 28.0, 208.0, 4.0, 240.0, 0.0, 0.0, 0.0, 1.70095027126288E9, 0.0, 2023-11-25 17:11:11.262
21.0, 17181.92007326127, 22910.58277017865, -51811.61186833523, -49793.696378910114, -63872.00967931863, -3626.1011512400096, -35062.30980900643, 22797.818219401626, -0.292, 0.922, 0.158, 192.0, 0.0, 0.0, 0.0, 0.0, 0.0, 0.0, 0.0, 0.0, 0.0, 1.700950271265702E9, 0.0, 2023-11-25 17:11:11.265
22.0, 17180.243692427124, 22931.235782055355, -51793.01521694842, -49764.1473727402, -63885.51013296964, -3836.5204735422703, -35068.85887013184, 22840.219478633342, -0.292, 0.922, 0.158, 192.0, 0.0, 0.0, 0.0, 0.0, 0.0, 0.0, 0.0, 0.0, 0.0, 1.700950271268537E9, 0.0, 2023-11-25 17:11:11.268
23.0, 17226.78002438307, 23009.533942882295, -51753.58673972926, -49710.860813958745, -63866.667612393816, -3862.806125021711, -35061.147518294754, 22883.224234965353, -0.292, 0.922, 0.158, 192.0, 0.0, 0.0, 0.0, 0.0, 0.0, 0.0, 0.0, 0.0, 0.0, 1.700950271273543E9, 0.0, 2023-11-25 17:11:11.273
24.0, 17264.666231234816, 23027.549448913272, -51761.521609010895, -49706.658686001145, -63796.393727826326, -3598.563802071071, -35013.49359911604, 22877.658650595982, -0.292, 0.922, 0.158, 192.0, 0.0, 0.0, 0.0, 0.0, 0.0, 0.0, 0.0, 0.0, 0.0, 1.700950271277538E9, 0.0, 2023-11-25 17:11:11.277
25.0, 17206.305826462012, 22933.046273356234, -51800.21247866303, -49762.18041922813, -63838.19148995775, -3532.894376861379, -35055.11254729182, 22812.771536442226, -0.292, 0.922, 0.158, 192.0, 0.0, 0.0, 0.0, 0.0, 0.0, 0.0, 0.0, 0.0, 0.0, 1.70095027128156E9, 0.0, 2023-11-25 17:11:11.281
26.0, 17188.11150647539, 22931.168726821987, -51790.48946982497, -49748.1435237102, -63869.26041475063, -3809.8101389181784, -35081.9793441271, 22829.9376761839, -0.292, 0.922, 0.158, 192.0, 0.0, 0.0, 0.0, 0.0, 0.0, 0.0, 0.0, 0.0, 0.0, 1.700950271285664E9, 0.0, 2023-11-25 17:11:11.285
27.0, 17229.59634418444, 23016.530038896806, -51765.67903347958, -49707.306886590355, -63870.46740895122, -3837.727467742857, -35087.18730058519, 22852.51293808376, -0.292, 0.922, 0.158, 192.0, 0.0, 0.0, 0.0, 0.0, 0.0, 0.0, 0.0, 0.0, 0.0, 1.700950271289601E9, 0.0, 2023-11-25 17:11:11.289
28.0, 17285.207484389244, 23058.931298128522, -51762.39332704465, -49694.49933701746, -63808.19544889873, -3665.2837592701626, -35050.57514316739, 22860.246641665297, -0.292, 0.922, 0.158, 192.0, 0.0, 0.0, 0.0, 0.0, 0.0, 0.0, 0.0, 0.0, 0.0, 1.700950271293601E9, 0.0, 2023-11-25 17:11:11.293
29.0, 17232.54677445254, 22960.941250436455, -51809.756673545446, -49763.72268959555, -63834.279934678074, -3482.714710559215, -35078.85009990336, 22796.70063217886, -0.292, 0.922, 0.158, 192.0, 0.0, 0.0, 0.0, 0.0, 0.0, 0.0, 0.0, 0.0, 0.0, 1.70095027129666E9, 0.0, 2023-11-25 17:11:11.296
30.0, 17193.2077042112, 22921.468069728384, -51792.3223128703, -49759.095878493295, -63872.14378978536, -3806.882060394533, -35087.20965232964, 22812.100984108565, -0.296, 0.926, 0.156, 192.0, 246.0, 192.0, 28.0, 240.0, 4.0, 224.0, 0.0, 0.0, 0.0, 1.700950271301607E9, 0.0, 2023-11-25 17:11:11.301
31.0, 17217.839326600948, 22986.332832137687, -51766.90837942462, -49720.784988496904, -63871.36147872943, -3826.1939676039183, -35080.861756904334, 22845.58389730262, -0.296, 0.926, 0.156, 192.0, 0.0, 0.0, 0.0, 0.0, 0.0, 0.0, 0.0, 0.0, 0.0, 1.700950271305665E9, 0.0, 2023-11-25 17:11:11.305
32.0, 17274.366888328423, 23048.336571256707, -51744.55663496931, -49691.19127883807, -63811.68232103376, -3727.6451263004697, -35047.4235471992, 22863.889976011513, -0.296, 0.926, 0.156, 192.0, 0.0, 0.0, 0.0, 0.0, 0.0, 0.0, 0.0, 0.0, 0.0, 1.700950271309731E9, 0.0, 2023-11-25 17:11:11.309
33.0, 17238.402931499833, 22970.217224385407, -51796.323275127805, -49755.29608193589, -63811.79407975604, -3434.7478669581255, -35056.2748380035, 22795.627748445004, -0.296, 0.926, 0.156, 192.0, 0.0, 0.0, 0.0, 0.0, 0.0, 0.0, 0.0, 0.0, 0.0, 1.700950271314224E9, 0.0, 2023-11-25 17:11:11.314
34.0, 17188.245616942124, 22917.332997004152, -51787.181411645586, -49763.72268959555, -63864.61125190392, -3772.616836144547, -35093.445789032674, 22781.523797693706, -0.296, 0.926, 0.156, 192.0, 0.0, 0.0, 0.0, 0.0, 0.0, 0.0, 0.0, 0.0, 0.0, 1.700950271316862E9, 0.0, 2023-11-25 17:11:11.316
35.0, 17200.807297326006, 22976.006326199335, -51777.48075455198, -49737.39233462719, -63876.01064157613, -3809.787787173723, -35097.06677163443, 22803.89789389347, -0.296, 0.926, 0.156, 192.0, 0.0, 0.0, 0.0, 0.0, 0.0, 0.0, 0.0, 0.0, 0.0, 1.700950271320846E9, 0.0, 2023-11-25 17:11:11.320
36.0, 17266.297908580054, 23049.23064103492, -51739.52749246687, -49689.69371195957, -63823.372283383884, -3791.9063916094774, -35065.68492241918, 22837.76078674326, -0.296, 0.926, 0.156, 192.0, 0.0, 0.0, 0.0, 0.0, 0.0, 0.0, 0.0, 0.0, 0.0, 1.700950271324775E9, 0.0, 2023-11-25 17:11:11.324
37.0, 17252.730399695683, 22990.914939751023, -51790.511821569424, -49743.96374749706, -63801.02053892858, -3442.123942628377, -35052.96677982411, 22789.23514953079, -0.296, 0.926, 0.156, 192.0, 0.0, 0.0, 0.0, 0.0, 0.0, 0.0, 0.0, 0.0, 0.0, 1.70095027132982E9, 0.0, 2023-11-25 17:11:11.329
38.0, 17190.480791387654, 22912.683834157448, -51791.987036703475, -49770.987006543524, -63864.432437948286, -3728.494492589771, -35092.70818146565, 22758.993239282758, -0.296, 0.926, 0.156, 192.0, 0.0, 0.0, 0.0, 0.0, 0.0, 0.0, 0.0, 0.0, 0.0, 1.700950271333755E9, 0.0, 2023-11-25 17:11:11.333
39.0, 17194.325291433965, 22953.408712555018, -51778.79950747485, -49743.784933541414, -63876.01064157613, -3810.4359877629267, -35081.353495282354, 22794.778382155702, -0.296, 0.926, 0.156, 192.0, 0.0, 0.0, 0.0, 0.0, 0.0, 0.0, 0.0, 0.0, 0.0, 1.700950271337743E9, 0.0, 2023-11-25 17:11:11.337
40.0, 17259.301812565544, 23035.79724261728, -51731.25734701841, -49687.860868914235, -63834.03406548907, -3833.681801996446, -35049.41285245572, 22833.17867912992, -0.292, 0.93, 0.156, 192.0, 246.0, 224.0, 29.0, 16.0, 4.0, 224.0, 0.0, 0.0, 0.0, 1.700950271341785E9, 0.0, 2023-11-25 17:11:11.341
41.0, 17274.880978450892, 23008.41635565953, -51764.00265264543, -49718.52746230691, -63780.61339624088, -3478.177306434787, -35001.58011932136, 22807.22830381731, -0.292, 0.93, 0.156, 192.0, 0.0, 0.0, 0.0, 0.0, 0.0, 0.0, 0.0, 0.0, 0.0, 1.700950271344893E9, 0.0, 2023-11-25 17:11:11.344
42.0, 17219.962742324202, 22927.234819797854, -51767.020138146894, -49746.84712253179, -63831.709484065716, -3669.687052927858, -35044.33900646437, 22773.253652245243, -0.292, 0.93, 0.156, 192.0, 0.0, 0.0, 0.0, 0.0, 0.0, 0.0, 0.0, 0.0, 0.0, 1.700950271348819E9, 0.0, 2023-11-25 17:11:11.348
43.0, 17208.518649163085, 22958.281392846275, -51766.34958581324, -49732.47495084703, -63854.03887677657, -3812.0229616192537, -35055.93956183667, 22788.117562308023, -0.292, 0.93, 0.156, 192.0, 0.0, 0.0, 0.0, 0.0, 0.0, 0.0, 0.0, 0.0, 0.0, 1.700950271352853E9, 0.0, 2023-11-25 17:11:11.352
44.0, 17251.143425839356, 23037.205402517964, -51731.77143714088, -49688.08438635879, -63837.18566145726, -3860.4144883649933, -35059.73935839407, 22804.61314971604, -0.292, 0.93, 0.156, 192.0, 0.0, 0.0, 0.0, 0.0, 0.0, 0.0, 0.0, 0.0, 0.0, 1.700950271356807E9, 0.0, 2023-11-25 17:11:11.356
45.0, 17272.690507494273, 23031.84098384869, -51756.38070778617, -49707.61981101272, -63777.84177992842, -3543.958490366756, -35015.12527646128, 22800.299263036166, -0.292, 0.93, 0.156, 192.0, 0.0, 0.0, 0.0, 0.0, 0.0, 0.0, 0.0, 0.0, 0.0, 1.700950271361947E9, 0.0, 2023-11-25 17:11:11.361
46.0, 17212.318445720488, 22938.63420947006, -51776.45257430703, -49755.89957903619, -63829.00492298662, -3593.7805287576352, -35047.33414022138, 22763.150663751443, -0.292, 0.93, 0.156, 192.0, 0.0, 0.0, 0.0, 0.0, 0.0, 0.0, 0.0, 0.0, 0.0, 1.70095027136585E9, 0.0, 2023-11-25 17:11:11.365
47.0, 17210.619713141885, 22965.54570979425, -51759.0182136319, -49729.85979674575, -63844.986420272166, -3815.6886477099238, -35052.139765279266, 22790.26332977573, -0.292, 0.93, 0.156, 192.0, 0.0, 0.0, 0.0, 0.0, 0.0, 0.0, 0.0, 0.0, 0.0, 1.700950271369851E9, 0.0, 2023-11-25 17:11:11.369
48.0, 17245.51078623662, 23039.060597307755, -51736.264137776394, -49694.16406085063, -63846.08165575047, -3841.683726511446, -35060.14168979427, 22812.592722486585, -0.292, 0.93, 0.156, 192.0, 0.0, 0.0, 0.0, 0.0, 0.0, 0.0, 0.0, 0.0, 0.0, 1.700950271372927E9, 0.0, 2023-11-25 17:11:11.372
49.0, 17287.822638490517, 23056.89728938309, -51749.74223968294, -49698.634409741695, -63786.00016665461, -3603.525889340149, -35034.101907503835, 22804.121411338023, -0.292, 0.93, 0.156, 192.0, 0.0, 0.0, 0.0, 0.0, 0.0, 0.0, 0.0, 0.0, 0.0, 1.700950271376936E9, 0.0, 2023-11-25 17:11:11.376
50.0, 17229.797509884538, 22954.414541055507, -51791.80822274783, -49763.27565470644, -63830.01075148711, -3523.2384232566865, -35082.336972038385, 22732.68523605886, -0.292, 0.928, 0.152, 192.0, 246.0, 224.0, 29.0, 0.0, 4.0, 192.0, 0.0, 0.0, 0.0, 1.700950271381374E9, 0.0, 2023-11-25 17:11:11.381
51.0, 17211.223210242177, 22953.989857910856, -51771.73635622697, -49742.8908637632, -63854.19533898775, -3815.867461665566, -35088.52840525251, 22758.54620439365, -0.292, 0.928, 0.152, 192.0, 0.0, 0.0, 0.0, 0.0, 0.0, 0.0, 0.0, 0.0, 0.0, 1.700950271384943E9, 0.0, 2023-11-25 17:11:11.384
52.0, 17235.899536120836, 23022.162678499542, -51750.815123416796, -49709.20678486905, -63860.18560650178, -3838.1745026319627, -35088.75192269706, 22776.89698659146, -0.292, 0.928, 0.152, 192.0, 0.0, 0.0, 0.0, 0.0, 0.0, 0.0, 0.0, 0.0, 0.0, 1.700950271388997E9, 0.0, 2023-11-25 17:11:11.388
53.0, 17286.682699523295, 23062.909908641566, -51744.28841403585, -49691.83947942728, -63796.43843131524, -3684.618018224003, -35042.12618376329, 22787.961100096836, -0.292, 0.928, 0.152, 192.0, 0.0, 0.0, 0.0, 0.0, 0.0, 0.0, 0.0, 0.0, 0.0, 1.700950271394021E9, 0.0, 2023-11-25 17:11:11.394
54.0, 17238.380579755376, 22965.813930727712, -51795.831536749785, -49758.693547093106, -63816.890277491846, -3468.0072627076224, -35065.349646252354, 22718.715395774296, -0.292, 0.928, 0.152, 192.0, 0.0, 0.0, 0.0, 0.0, 0.0, 0.0, 0.0, 0.0, 0.0, 1.700950271397977E9, 0.0, 2023-11-25 17:11:11.397
55.0, 17203.824782827473, 22933.20273556742, -51781.213495876014, -49750.915140022655, -63858.01748728961, -3799.3718742575497, -35099.883091435804, 22719.11772717449, -0.292, 0.928, 0.152, 192.0, 0.0, 0.0, 0.0, 0.0, 0.0, 0.0, 0.0, 0.0, 0.0, 1.700950271400963E9, 0.0, 2023-11-25 17:11:11.400
56.0, 17229.126957550878, 23002.291977678775, -51762.77330670039, -49711.64312501468, -63863.650126892346, -3822.975316402354, -35093.736361710595, 22753.472358402298, -0.292, 0.928, 0.152, 192.0, 0.0, 0.0, 0.0, 0.0, 0.0, 0.0, 0.0, 0.0, 0.0, 1.700950271405035E9, 0.0, 2023-11-25 17:11:11.405
57.0, 17289.342557113476, 23061.635859207614, -51732.79961738582, -49670.56061870583, -63800.34998659492, -3746.174722453919, -35041.36622445181, 22787.84934137456, -0.292, 0.928, 0.152, 192.0, 0.0, 0.0, 0.0, 0.0, 0.0, 0.0, 0.0, 0.0, 0.0, 1.700950271409029E9, 0.0, 2023-11-25 17:11:11.409
58.0, 17246.114283336912, 22972.184177897478, -51787.98607444597, -49734.39720087018, -63797.48896330464, -3426.2318523206536, -35039.39927093974, 22731.858221514016, -0.292, 0.928, 0.152, 192.0, 0.0, 0.0, 0.0, 0.0, 0.0, 0.0, 0.0, 0.0, 0.0, 1.700950271413402E9, 0.0, 2023-11-25 17:11:11.413
59.0, 17197.275721702066, 22915.142526047533, -51773.613902761215, -49736.65472706017, -63845.545213883546, -3750.376850411517, -35067.96480035363, 22735.479204115774, -0.292, 0.928, 0.152, 192.0, 0.0, 0.0, 0.0, 0.0, 0.0, 0.0, 0.0, 0.0, 0.0, 1.700950271417037E9, 0.0, 2023-11-25 17:11:11.417
60.0, 17206.35052995092, 22967.26679411731, -51771.04345214885, -49715.39821808317, -63863.091333280965, -3797.7849004012232, -35076.056131846446, 22749.18082346688, -0.28200000000000003, 0.928, 0.152, 192.0, 247.0, 48.0, 29.0, 0.0, 4.0, 192.0, 0.0, 0.0, 0.0, 1.700950271422014E9, 0.0, 2023-11-25 17:11:11.422
61.0, 17258.318335809512, 23033.718530382936, -51747.70823093751, -49681.20004906655, -63828.08850146396, -3788.978313085832, -35056.76657638152, 22769.342096965564, -0.28200000000000003, 0.928, 0.152, 192.0, 0.0, 0.0, 0.0, 0.0, 0.0, 0.0, 0.0, 0.0, 0.0, 1.700950271426079E9, 0.0, 2023-11-25 17:11:11.426
62.0, 17252.28336480658, 22990.73612579538, -51794.356321615734, -49730.8879769907, -63800.19352438373, -3441.453390294718, -35032.984320281066, 22731.74646279174, -0.28200000000000003, 0.928, 0.152, 192.0, 0.0, 0.0, 0.0, 0.0, 0.0, 0.0, 0.0, 0.0, 0.0, 1.700950271430088E9, 0.0, 2023-11-25 17:11:11.430
63.0, 17195.822858312473, 22918.11530806009, -51796.09975768325, -49759.25234070449, -63863.8736443369, -3713.2282511267963, -35067.47306197561, 22706.109011901503, -0.28200000000000003, 0.928, 0.152, 192.0, 0.0, 0.0, 0.0, 0.0, 0.0, 0.0, 0.0, 0.0, 0.0, 1.700950271433038E9, 0.0, 2023-11-25 17:11:11.433
64.0, 17204.651797372317, 22962.371762081595, -51789.08130992429, -49737.36998288274, -63879.83278987799, -3811.7994441747005, -35071.026989344005, 22732.12644244748, -0.28200000000000003, 0.928, 0.152, 192.0, 0.0, 0.0, 0.0, 0.0, 0.0, 0.0, 0.0, 0.0, 0.0, 1.700950271437073E9, 0.0, 2023-11-25 17:11:11.437
65.0, 17251.813978173017, 23030.36576871464, -51755.508989752416, -49698.96968590852, -63855.44703667725, -3838.956813687899, -35056.2748380035, 22756.847471815046, -0.28200000000000003, 0.928, 0.152, 192.0, 0.0, 0.0, 0.0, 0.0, 0.0, 0.0, 0.0, 0.0, 0.0, 1.700950271441064E9, 0.0, 2023-11-25 17:11:11.441
66.0, 17265.85087369095, 23007.74580332587, -51786.22028663401, -49730.10566593477, -63802.138126151345, -3486.5592106055274, -35010.40905838121, 22726.806727267114, -0.28200000000000003, 0.928, 0.152, 192.0, 0.0, 0.0, 0.0, 0.0, 0.0, 0.0, 0.0, 0.0, 0.0, 1.700950271445193E9, 0.0, 2023-11-25 17:11:11.445
67.0, 17200.31555894799, 22909.19696202242, -51800.41364436313, -49774.42917518964, -63864.7230106262, -3653.727907386769, -35067.741282909075, 22666.59112770452, -0.28200000000000003, 0.928, 0.152, 192.0, 0.0, 0.0, 0.0, 0.0, 0.0, 0.0, 0.0, 0.0, 0.0, 1.700950271449157E9, 0.0, 2023-11-25 17:11:11.449
68.0, 17201.433146170755, 22941.36112229361, -51783.26985636591, -49745.885997520214, -63874.80364737555, -3816.582717488136, -35073.48568123409, 22692.273282083665, -0.28200000000000003, 0.928, 0.152, 192.0, 0.0, 0.0, 0.0, 0.0, 0.0, 0.0, 0.0, 0.0, 0.0, 1.700950271453156E9, 0.0, 2023-11-25 17:11:11.453
69.0, 17256.351382297442, 23032.60094316017, -51739.19221630004, -49690.63248522669, -63850.708466852724, -3849.037450437242, -35056.185431025675, 22729.846564513038, -0.28200000000000003, 0.928, 0.152, 192.0, 0.0, 0.0, 0.0, 0.0, 0.0, 0.0, 0.0, 0.0, 0.0, 1.70095027145617E9, 0.0, 2023-11-25 17:11:11.456
70.0, 17296.562170572543, 23044.849699121678, -51747.328251281775, -49691.10187186026, -63776.277157816556, -3542.997365355178, -35005.245805412036, 22730.092433702044, -0.292, 0.924, 0.16, 192.0, 246.0, 224.0, 28.0, 224.0, 5.0, 0.0, 0.0, 0.0, 0.0, 1.700950271461177E9, 0.0, 2023-11-25 17:11:11.461
71.0, 17229.484585462164, 22944.2668490728, -51775.469097551, -49740.856855017766, -63823.528745595075, -3568.8583336899683, -35054.88902984727, 22670.167406817367, -0.292, 0.924, 0.16, 192.0, 0.0, 0.0, 0.0, 0.0, 0.0, 0.0, 0.0, 0.0, 0.0, 1.700950271465177E9, 0.0, 2023-11-25 17:11:11.465
72.0, 17218.062844045504, 22960.605974269627, -51756.49246650845, -49710.41377906964, -63837.00684750162, -3805.138624327019, -35059.15821303823, 22701.035165910147, -0.292, 0.924, 0.16, 192.0, 0.0, 0.0, 0.0, 0.0, 0.0, 0.0, 0.0, 0.0, 0.0, 1.700950271469169E9, 0.0, 2023-11-25 17:11:11.469
73.0, 17258.072466620502, 23040.13348104161, -51730.13975979564, -49664.659758169626, -63831.93300151027, -3836.1181421420747, -35069.44001548768, 22720.77175626418, -0.292, 0.924, 0.16, 192.0, 0.0, 0.0, 0.0, 0.0, 0.0, 0.0, 0.0, 0.0, 0.0, 1.700950271473152E9, 0.0, 2023-11-25 17:11:11.473
74.0, 17300.89840899687, 23060.048885351287, -51741.315632023296, -49661.32934824579, -63768.54345423502, -3612.1760144443533, -35034.25836971502, 22717.620160295985, -0.292, 0.924, 0.16, 192.0, 0.0, 0.0, 0.0, 0.0, 0.0, 0.0, 0.0, 0.0, 0.0, 1.700950271477296E9, 0.0, 2023-11-25 17:11:11.477
75.0, 17242.917983879805, 22957.320267834697, -51779.134783641675, -49715.822901227824, -63799.83589647245, -3504.194736980765, -35061.28162876149, 22656.935174099825, -0.292, 0.924, 0.16, 192.0, 0.0, 0.0, 0.0, 0.0, 0.0, 0.0, 0.0, 0.0, 0.0, 1.700950271481273E9, 0.0, 2023-11-25 17:11:11.481
76.0, 17211.133803264358, 22940.377645537574, -51767.33306256927, -49699.34966556426, -63836.09042597895, -3803.9316301264325, -35075.11735857932, 22673.363706274475, -0.292, 0.924, 0.16, 192.0, 0.0, 0.0, 0.0, 0.0, 0.0, 0.0, 0.0, 0.0, 0.0, 1.700950271484173E9, 0.0, 2023-11-25 17:11:11.484
77.0, 17238.760559411116, 23016.954722041457, -51747.93174838206, -49660.70349940104, -63845.27699295009, -3829.1220461275634, -35080.57118422642, 22698.15179087541, -0.292, 0.924, 0.16, 192.0, 0.0, 0.0, 0.0, 0.0, 0.0, 0.0, 0.0, 0.0, 0.0, 1.700950271488231E9, 0.0, 2023-11-25 17:11:11.488
78.0, 17294.975196716216, 23069.86130116717, -51737.09115232124, -49637.12240900069, -63785.1060968764, -3691.7035212163355, -35035.68888136016, 22715.58615155055, -0.292, 0.924, 0.16, 192.0, 0.0, 0.0, 0.0, 0.0, 0.0, 0.0, 0.0, 0.0, 0.0, 1.700950271493287E9, 0.0, 2023-11-25 17:11:11.493
79.0, 17255.613774730416, 22988.16567518302, -51785.281513366885, -49703.2835725884, -63802.808678485, -3463.223989394187, -35044.31665471991, 22650.00613331868, -0.292, 0.924, 0.16, 192.0, 0.0, 0.0, 0.0, 0.0, 0.0, 0.0, 0.0, 0.0, 0.0, 1.700950271497208E9, 0.0, 2023-11-25 17:11:11.497
80.0, 17213.816012598993, 22944.803290939726, -51773.70330973904, -49709.92204069162, -63853.25656572063, -3801.6741039364465, -35069.21649804312, 22651.682514152828, -0.29, 0.926, 0.158, 192.0, 246.0, 240.0, 28.0, 240.0, 4.0, 240.0, 0.0, 0.0, 0.0, 1.700950271501287E9, 0.0, 2023-11-25 17:11:11.501
81.0, 17227.137652294357, 22997.44164913197, -51764.67320497909, -49691.39244453817, -63872.523769441104, -3831.848958951111, -35076.90549813575, 22671.396752762408, -0.29, 0.926, 0.158, 192.0, 0.0, 0.0, 0.0, 0.0, 0.0, 0.0, 0.0, 0.0, 0.0, 1.700950271505353E9, 0.0, 2023-11-25 17:11:11.505
82.0, 17285.36394660043, 23056.249088793887, -51737.29231802134, -49658.64713891115, -63820.667722304795, -3782.9656938273542, -35050.48573618958, 22687.266491325678, -0.29, 0.926, 0.158, 192.0, 0.0, 0.0, 0.0, 0.0, 0.0, 0.0, 0.0, 0.0, 0.0, 1.700950271509505E9, 0.0, 2023-11-25 17:11:11.509
83.0, 17263.906271923337, 22989.775000783804, -51778.575990030295, -49709.944392436075, -63801.512277306596, -3463.536913816561, -35031.95614003613, 22652.733046142228, -0.29, 0.926, 0.158, 192.0, 0.0, 0.0, 0.0, 0.0, 0.0, 0.0, 0.0, 0.0, 0.0, 1.70095027151233E9, 0.0, 2023-11-25 17:11:11.512
84.0, 17199.801468825517, 22917.332997004152, -51779.693577253056, -49730.35153512377, -63862.55489141404, -3778.2494757472846, -35069.66353293223, 22632.169441243346, -0.29, 0.926, 0.158, 192.0, 0.0, 0.0, 0.0, 0.0, 0.0, 0.0, 0.0, 0.0, 0.0, 1.700950271516282E9, 0.0, 2023-11-25 17:11:11.516
85.0, 17210.329140463968, 22966.730352250383, -51769.411774803615, -49701.60719175425, -63870.1768362733, -3833.6147467630803, -35069.08238757639, 22659.036238078625, -0.29, 0.926, 0.158, 192.0, 0.0, 0.0, 0.0, 0.0, 0.0, 0.0, 0.0, 0.0, 0.0, 1.700950271521316E9, 0.0, 2023-11-25 17:11:11.521
86.0, 17280.759487242638, 23053.477472481427, -51726.138797538144, -49646.55484516083, -63818.09727169243, -3829.6808397389464, -35035.97945403808, 22696.050726896614, -0.29, 0.926, 0.158, 192.0, 0.0, 0.0, 0.0, 0.0, 0.0, 0.0, 0.0, 0.0, 0.0, 1.700950271525322E9, 0.0, 2023-11-25 17:11:11.525
87.0, 17272.064658649524, 23007.432878903495, -51779.09008015276, -49696.3321800628, -63790.22464635666, -3466.062660940011, -35009.917320003195, 22647.1451100284, -0.29, 0.926, 0.158, 192.0, 0.0, 0.0, 0.0, 0.0, 0.0, 0.0, 0.0, 0.0, 0.0, 1.700950271529373E9, 0.0, 2023-11-25 17:11:11.529
88.0, 17194.995843767625, 22911.074508556667, -51798.6255048067, -49737.81701777184, -63868.478103694695, -3719.1961668963636, -35060.61107642783, 22599.692356549785, -0.29, 0.926, 0.158, 192.0, 0.0, 0.0, 0.0, 0.0, 0.0, 0.0, 0.0, 0.0, 0.0, 1.700950271533462E9, 0.0, 2023-11-25 17:11:11.533
89.0, 17199.06386125849, 22954.034561399767, -51789.81891749131, -49712.85011921527, -63882.962034101736, -3830.172578116963, -35055.53723043647, 22633.66700812185, -0.29, 0.926, 0.158, 192.0, 0.0, 0.0, 0.0, 0.0, 0.0, 0.0, 0.0, 0.0, 0.0, 1.700950271537331E9, 0.0, 2023-11-25 17:11:11.537
90.0, 17261.71580096672, 23035.46196645045, -51741.24857678993, -49655.67435689859, -63846.46163540622, -3861.9567587324095, -35037.05233777194, 22669.474502739253, -0.29, 0.926, 0.158, 192.0, 246.0, 240.0, 28.0, 240.0, 4.0, 240.0, 0.0, 0.0, 0.0, 1.700950271540376E9, 0.0, 2023-11-25 17:11:11.540
91.0, 17280.759487242638, 23013.9819400289, -51763.98030090098, -49675.9250373751, -63784.726117220656, -3514.1636150078316, -34995.656907040706, 22647.368627472955, -0.29, 0.926, 0.158, 192.0, 0.0, 0.0, 0.0, 0.0, 0.0, 0.0, 0.0, 0.0, 0.0, 1.700950271544399E9, 0.0, 2023-11-25 17:11:11.544
92.0, 17215.112413777402, 22918.562342949193, -51784.11922265521, -49721.03085768591, -63844.44997840524, -3649.1905032623417, -35052.87737284629, 22588.874112233414, -0.29, 0.926, 0.158, 192.0, 0.0, 0.0, 0.0, 0.0, 0.0, 0.0, 0.0, 0.0, 0.0, 1.700950271549355E9, 0.0, 2023-11-25 17:11:11.549
93.0, 17223.87429760388, 22961.231823114376, -51766.90837942462, -49687.525592747406, -63854.8211878325, -3826.2163193483734, -35059.98522758308, 22626.91678129635, -0.29, 0.926, 0.158, 192.0, 0.0, 0.0, 0.0, 0.0, 0.0, 0.0, 0.0, 0.0, 0.0, 1.700950271553366E9, 0.0, 2023-11-25 17:11:11.553
94.0, 17267.482551036188, 23042.189841531497, -51737.22526278797, -49640.85515032472, -63842.97476327119, -3855.3853458625495, -35063.60621018484, 22656.778711888637, -0.29, 0.926, 0.158, 192.0, 0.0, 0.0, 0.0, 0.0, 0.0, 0.0, 0.0, 0.0, 0.0, 1.700950271557378E9, 0.0, 2023-11-25 17:11:11.557
95.0, 17291.778897259104, 23043.32978049872, -51754.8160856743, -49647.20304575003, -63778.66879447327, -3568.6571679898702, -35030.816201068905, 22650.85549960798, -0.29, 0.926, 0.158, 192.0, 0.0, 0.0, 0.0, 0.0, 0.0, 0.0, 0.0, 0.0, 0.0, 1.700950271561525E9, 0.0, 2023-11-25 17:11:11.561
96.0, 17223.65078015933, 22938.991837381345, -51787.60609479024, -49702.16598536563, -63828.53553635306, -3570.1547348683757, -35076.30200103545, 22586.460123832243, -0.29, 0.926, 0.158, 192.0, 0.0, 0.0, 0.0, 0.0, 0.0, 0.0, 0.0, 0.0, 0.0, 1.70095027156547E9, 0.0, 2023-11-25 17:11:11.565
97.0, 17211.424375942275, 22948.73719796386, -51771.49048703796, -49680.19422056607, -63850.082618007975, -3821.9247844129545, -35072.81512890042, 22615.42798464632, -0.29, 0.926, 0.158, 192.0, 0.0, 0.0, 0.0, 0.0, 0.0, 0.0, 0.0, 0.0, 0.0, 1.700950271568415E9, 0.0, 2023-11-25 17:11:11.568
98.0, 17249.690562449763, 23025.40368144556, -51742.209701801505, -49637.74825784544, -63845.63462086137, -3841.95194744491, -35065.483756719084, 22648.933249584825, -0.29, 0.926, 0.158, 192.0, 0.0, 0.0, 0.0, 0.0, 0.0, 0.0, 0.0, 0.0, 0.0, 1.700950271572453E9, 0.0, 2023-11-25 17:11:11.572
99.0, 17291.71184202574, 23051.734036413913, -51744.69074543605, -49632.24972870943, -63784.234378842644, -3639.1769217463643, -35027.2175702116, 22643.837051849016, -0.296, 0.934, 0.15, 192.0, 246.0, 192.0, 29.0, 48.0, 4.0, 176.0, 0.0, 0.0, 0.0, 1.700950271577625E9, 0.0, 2023-11-25 17:11:11.577
100.0, 17236.525384965586, 22956.247384100843, -51784.58860928877, -49693.35939805024, -63814.02925420157, -3504.954696292245, -35046.77534661, 22577.362963838932, -0.296, 0.934, 0.15, 192.0, 0.0, 0.0, 0.0, 0.0, 0.0, 0.0, 0.0, 0.0, 0.0, 1.700950271581414E9, 0.0, 2023-11-25 17:11:11.581
101.0, 17211.469079431186, 22939.751796692824, -51767.15424861363, -49680.19422056607, -63846.97572552869, -3810.9947813743097, -35058.26414326002, 22598.686528049297, -0.296, 0.934, 0.15, 192.0, 0.0, 0.0, 0.0, 0.0, 0.0, 0.0, 0.0, 0.0, 0.0, 1.700950271585456E9, 0.0, 2023-11-25 17:11:11.585
102.0, 17241.55452746803, 23014.69719585147, -51744.176655313575, -49642.19625499204, -63848.04860926254, -3832.787732218234, -35055.71604439212, 22638.092653524003, -0.296, 0.934, 0.15, 192.0, 0.0, 0.0, 0.0, 0.0, 0.0, 0.0, 0.0, 0.0, 0.0, 1.70095027158944E9, 0.0, 2023-11-25 17:11:11.589
103.0, 17292.605911803952, 23062.127597585633, -51734.78892264234, -49624.71719082799, -63792.59393126893, -3720.40316109695, -35013.38184039376, 22650.788444374615, -0.296, 0.934, 0.15, 192.0, 0.0, 0.0, 0.0, 0.0, 0.0, 0.0, 0.0, 0.0, 0.0, 1.700950271592476E9, 0.0, 2023-11-25 17:11:11.592
104.0, 17236.391274498856, 22960.717732991903, -51802.53706008638, -49709.944392436075, -63820.73477753816, -3473.5057918436282, -35043.2214192416, 22565.89651893336, -0.296, 0.934, 0.15, 192.0, 0.0, 0.0, 0.0, 0.0, 0.0, 0.0, 0.0, 0.0, 0.0, 1.700950271596508E9, 0.0, 2023-11-25 17:11:11.596
105.0, 17198.505067647107, 22921.356311006108, -51787.092004667764, -49709.6314680137, -63865.72883912669, -3814.571060487159, -35074.737378923586, 22574.524292293107, -0.296, 0.934, 0.15, 192.0, 0.0, 0.0, 0.0, 0.0, 0.0, 0.0, 0.0, 0.0, 0.0, 1.700950271600484E9, 0.0, 2023-11-25 17:11:11.600
106.0, 17220.096852790935, 22991.51843685132, -51764.67320497909, -49671.40998499513, -63866.242929249165, -3841.3484503446166, -35069.484718976586, 22602.553379840065, -0.296, 0.934, 0.15, 192.0, 0.0, 0.0, 0.0, 0.0, 0.0, 0.0, 0.0, 0.0, 0.0, 1.700950271604467E9, 0.0, 2023-11-25 17:11:11.604
107.0, 17273.830446461492, 23052.471643980938, -51738.454608733016, -49636.764781089405, -63817.024387958576, -3793.649827676991, -35036.38178543828, 22621.775880071626, -0.296, 0.934, 0.15, 192.0, 0.0, 0.0, 0.0, 0.0, 0.0, 0.0, 0.0, 0.0, 0.0, 1.700950271609525E9, 0.0, 2023-11-25 17:11:11.609
108.0, 17248.595326971452, 22987.517474593817, -51788.857792479736, -49696.242773084974, -63801.221704628675, -3472.1423354318545, -35030.324462690885, 22564.55541426604, -0.296, 0.934, 0.15, 192.0, 0.0, 0.0, 0.0, 0.0, 0.0, 0.0, 0.0, 0.0, 0.0, 1.700950271613572E9, 0.0, 2023-11-25 17:11:11.613
109.0, 17192.045413499523, 22917.15418304851, -51779.11243189722, -49711.71018024805, -63852.85423432043, -3778.27182749174, -35060.521669450005, 22546.159928579324, -0.296, 0.928, 0.15, 192.0, 246.0, 192.0, 29.0, 0.0, 4.0, 176.0, 0.0, 0.0, 0.0, 1.700950271617552E9, 0.0, 2023-11-25 17:11:11.617
110.0, 17205.992902039638, 22968.965526695913, -51759.554655498825, -49676.79675540886, -63856.028182033086, -3832.787732218234, -35047.51295417702, 22589.83523724499, -0.296, 0.928, 0.15, 192.0, 0.0, 0.0, 0.0, 0.0, 0.0, 0.0, 0.0, 0.0, 0.0, 1.700950271620643E9, 0.0, 2023-11-25 17:11:11.620
111.0, 17280.200693631257, 23057.47843473893, -51710.91725956408, -49619.419827392085, -63806.78728899805, -3833.458284551893, -35011.97368049308, 22644.641714649406, -0.296, 0.928, 0.15, 192.0, 0.0, 0.0, 0.0, 0.0, 0.0, 0.0, 0.0, 0.0, 0.0, 1.700950271624668E9, 0.0, 2023-11-25 17:11:11.624
112.0, 17275.32801334, 23013.06551850623, -51764.62850149018, -49673.71221467402, -63779.36169855139, -3467.0014342071336, -34997.78032276396, 22594.57380706952, -0.296, 0.928, 0.15, 192.0, 0.0, 0.0, 0.0, 0.0, 0.0, 0.0, 0.0, 0.0, 0.0, 1.700950271628578E9, 0.0, 2023-11-25 17:11:11.628
113.0, 17206.529343906564, 22921.088090072644, -51776.3184638403, -49711.88899420369, -63847.51216739562, -3705.136919633975, -35059.761710138526, 22543.812995411517, -0.296, 0.928, 0.15, 192.0, 0.0, 0.0, 0.0, 0.0, 0.0, 0.0, 0.0, 0.0, 0.0, 1.70095027163257E9, 0.0, 2023-11-25 17:11:11.632
114.0, 17216.341759722443, 22967.62442202859, -51759.91228341011, -49679.79188916587, -63854.39650468785, -3828.3173833271726, -35059.8734688608, 22571.37269632491, -0.296, 0.928, 0.15, 192.0, 0.0, 0.0, 0.0, 0.0, 0.0, 0.0, 0.0, 0.0, 0.0, 1.700950271637612E9, 0.0, 2023-11-25 17:11:11.637
115.0, 17275.797399973562, 23055.936164371513, -51724.95415508201, -49633.14379848764, -63831.4636148767, -3856.4358778519486, -35051.580971667885, 22595.1326006809, -0.296, 0.928, 0.15, 192.0, 0.0, 0.0, 0.0, 0.0, 0.0, 0.0, 0.0, 0.0, 0.0, 1.700950271641633E9, 0.0, 2023-11-25 17:11:11.641
116.0, 17295.198714160768, 23041.094606053186, -51759.30878630982, -49661.88814185717, -63779.92049216277, -3518.343391220974, -35016.622843339785, 22582.593272041475, -0.296, 0.928, 0.15, 192.0, 0.0, 0.0, 0.0, 0.0, 0.0, 0.0, 0.0, 0.0, 0.0, 1.700950271645665E9, 0.0, 2023-11-25 17:11:11.645
117.0, 17219.02396905708, 22929.78291866576, -51788.701330268545, -49720.11443616324, -63846.68515285077, -3631.6220321204705, -35077.576050469404, 22517.88497184336, -0.296, 0.928, 0.15, 192.0, 0.0, 0.0, 0.0, 0.0, 0.0, 0.0, 0.0, 0.0, 0.0, 1.700950271648885E9, 0.0, 2023-11-25 17:11:11.648
118.0, 17210.75382360862, 22943.529241505774, -51772.719832983, -49697.516822518926, -63863.381905958886, -3830.5078542837928, -35084.46038776164, 22539.02972209808, -0.296, 0.928, 0.15, 192.0, 0.0, 0.0, 0.0, 0.0, 0.0, 0.0, 0.0, 0.0, 0.0, 1.700950271652839E9, 0.0, 2023-11-25 17:11:11.652
119.0, 17252.730399695683, 23019.592227887184, -51735.6606406761, -49650.19817950704, -63851.423722675296, -3862.3143866436944, -35074.737378923586, 22576.245376616167, -0.296, 0.928, 0.148, 192.0, 246.0, 192.0, 29.0, 0.0, 4.0, 160.0, 0.0, 0.0, 0.0, 1.700950271656747E9, 0.0, 2023-11-25 17:11:11.656
120.0, 17285.81098148954, 23026.27539947932, -51752.916187395596, -49657.70836564402, -63791.81162021299, -3584.1022234084876, -35022.32253817589, 22583.979080197703, -0.296, 0.928, 0.148, 192.0, 0.0, 0.0, 0.0, 0.0, 0.0, 0.0, 0.0, 0.0, 0.0, 1.700950271660639E9, 0.0, 2023-11-25 17:11:11.660
121.0, 17223.427262714777, 22926.564267464193, -51786.30969361183, -49713.16304363764, -63837.431530646274, -3557.1236678509317, -35055.71604439212, 22529.127899304378, -0.296, 0.928, 0.148, 192.0, 0.0, 0.0, 0.0, 0.0, 0.0, 0.0, 0.0, 0.0, 0.0, 1.700950271664755E9, 0.0, 2023-11-25 17:11:11.664
122.0, 17202.30486420451, 22931.213430310898, -51773.613902761215, -49696.01925564042, -63865.08063853749, -3820.5836797456363, -35066.28841951948, 22547.813957669016, -0.296, 0.928, 0.148, 192.0, 0.0, 0.0, 0.0, 0.0, 0.0, 0.0, 0.0, 0.0, 0.0, 1.700950271669912E9, 0.0, 2023-11-25 17:11:11.669
123.0, 17235.385445998367, 23006.829381803203, -51746.79180941484, -49654.869694098204, -63862.68900188077, -3848.3221946146723, -35068.635352687284, 22562.476702031698, -0.296, 0.928, 0.148, 192.0, 0.0, 0.0, 0.0, 0.0, 0.0, 0.0, 0.0, 0.0, 0.0, 1.700950271672799E9, 0.0, 2023-11-25 17:11:11.672
124.0, 17286.034498934092, 23041.94397234249, -51732.710210408004, -49631.82504556478, -63787.654195744304, -3659.114677800498, -35007.749200791026, 22587.309490121545, -0.296, 0.928, 0.148, 192.0, 0.0, 0.0, 0.0, 0.0, 0.0, 0.0, 0.0, 0.0, 0.0, 1.700950271676848E9, 0.0, 2023-11-25 17:11:11.676
125.0, 17233.08321631947, 22943.909221161513, -51774.88795219517, -49690.05133987086, -63809.91653322179, -3486.1792309497873, -35031.374994680285, 22528.949085348737, -0.296, 0.928, 0.148, 192.0, 0.0, 0.0, 0.0, 0.0, 0.0, 0.0, 0.0, 0.0, 0.0, 1.700950271680872E9, 0.0, 2023-11-25 17:11:11.680
126.0, 17196.448707157222, 22912.81794462418, -51770.48465853747, -49688.129089847695, -63855.603498888435, -3806.077397594142, -35063.31563750692, 22535.22992554068, -0.296, 0.928, 0.148, 192.0, 0.0, 0.0, 0.0, 0.0, 0.0, 0.0, 0.0, 0.0, 0.0, 1.700950271684796E9, 0.0, 2023-11-25 17:11:11.684
127.0, 17224.343684237443, 22981.303689635242, -51754.659623463114, -49653.41683070861, -63862.040801291565, -3831.9830694178427, -35067.741282909075, 22558.207518840733, -0.296, 0.928, 0.148, 192.0, 0.0, 0.0, 0.0, 0.0, 0.0, 0.0, 0.0, 0.0, 0.0, 1.700950271688831E9, 0.0, 2023-11-25 17:11:11.688
128.0, 17284.1793041443, 23038.345341485187, -51732.12906505216, -49624.940708272545, -63798.986530183145, -3734.9764984818103, -35029.1174684903, 22574.90427194885, -0.296, 0.928, 0.148, 192.0, 0.0, 0.0, 0.0, 0.0, 0.0, 0.0, 0.0, 0.0, 0.0, 1.700950271692838E9, 0.0, 2023-11-25 17:11:11.692
129.0, 17246.583669970474, 22954.414541055507, -51781.369958087205, -49693.4264532836, -63804.015672685586, -3460.54178005955, -35021.54022711995, 22517.057957298515, -0.294, 0.928, 0.148, 192.0, 246.0, 208.0, 29.0, 0.0, 4.0, 160.0, 0.0, 0.0, 0.0, 1.70095027169788E9, 0.0, 2023-11-25 17:11:11.697
130.0, 17195.59934086792, 22899.138677017534, -51778.30776909683, -49707.41864531263, -63862.15256001384, -3796.354388756083, -35054.307884491434, 22509.50306767262, -0.294, 0.928, 0.148, 192.0, 0.0, 0.0, 0.0, 0.0, 0.0, 0.0, 0.0, 0.0, 0.0, 1.700950271700822E9, 0.0, 2023-11-25 17:11:11.700
131.0, 17215.782966111063, 22960.896546947544, -51764.784963701364, -49676.10385133074, -63870.48976069567, -3837.3474880871167, -35061.28162876149, 22536.347512763445, -0.294, 0.928, 0.148, 192.0, 0.0, 0.0, 0.0, 0.0, 0.0, 0.0, 0.0, 0.0, 0.0, 1.700950271703803E9, 0.0, 2023-11-25 17:11:11.703
132.0, 17274.188074372778, 23031.259838492853, -51732.53139645236, -49634.596661877236, -63820.4665566047, -3813.073493608653, -35031.442049913654, 22556.821710684504, -0.294, 0.928, 0.148, 192.0, 0.0, 0.0, 0.0, 0.0, 0.0, 0.0, 0.0, 0.0, 0.0, 1.700950271709384E9, 0.0, 2023-11-25 17:11:11.709
133.0, 17253.51271075162, 22961.142416136554, -51784.163926144116, -49693.56056375034, -63803.09925116292, -3478.8478587684467, -35019.30505267442, 22497.50018090012, -0.294, 0.928, 0.148, 192.0, 0.0, 0.0, 0.0, 0.0, 0.0, 0.0, 0.0, 0.0, 0.0, 1.700950271712858E9, 0.0, 2023-11-25 17:11:11.712
134.0, 17189.631425098352, 22872.51774937126, -51786.15323140064, -49721.36613385274, -63866.60055716045, -3779.791746114701, -35069.23884978758, 22455.791825746517, -0.294, 0.928, 0.148, 192.0, 0.0, 0.0, 0.0, 0.0, 0.0, 0.0, 0.0, 0.0, 0.0, 1.700950271716877E9, 0.0, 2023-11-25 17:11:11.716
135.0, 17197.298073446524, 22916.9083138595, -51776.117298140205, -49696.108662618244, -63877.73172589919, -3853.530151072759, -35073.1280533228, 22479.775247547062, -0.294, 0.928, 0.148, 192.0, 0.0, 0.0, 0.0, 0.0, 0.0, 0.0, 0.0, 0.0, 0.0, 1.700950271720976E9, 0.0, 2023-11-25 17:11:11.720
136.0, 17257.401914286842, 23001.464963133927, -51738.56636745529, -49646.73365911647, -63839.532594625074, -3871.4786018703703, -35054.39729146926, 22514.711024130705, -0.294, 0.928, 0.148, 192.0, 0.0, 0.0, 0.0, 0.0, 0.0, 0.0, 0.0, 0.0, 0.0, 1.70095027172591E9, 0.0, 2023-11-25 17:11:11.725
137.0, 17259.681792221283, 22966.417427828008, -51779.93944644206, -49682.94348513407, -63798.852419716415, -3512.21901324022, -35016.68989857315, 22498.126029744868, -0.294, 0.928, 0.148, 192.0, 0.0, 0.0, 0.0, 0.0, 0.0, 0.0, 0.0, 0.0, 0.0, 1.700950271728922E9, 0.0, 2023-11-25 17:11:11.728
138.0, 17193.990015267136, 22869.746133058805, -51788.18724014607, -49717.25341287296, -63861.05732453553, -3728.1368646784863, -35065.08142531889, 22462.318535127466, -0.294, 0.928, 0.148, 192.0, 0.0, 0.0, 0.0, 0.0, 0.0, 0.0, 0.0, 0.0, 0.0, 1.700950271731906E9, 0.0, 2023-11-25 17:11:11.731
139.0, 17204.02594852757, 22913.555552191207, -51767.98126315848, -49682.049415355854, -63865.885301337876, -3873.3561484046163, -35058.42060547121, 22495.443820410233, -0.298, 0.928, 0.148, 192.0, 246.0, 176.0, 29.0, 0.0, 4.0, 160.0, 0.0, 0.0, 0.0, 1.700950271736932E9, 0.0, 2023-11-25 17:11:11.736
140.0, 17257.379562542388, 22997.151076454054, -51731.95025109652, -49634.373144432684, -63844.96406852771, -3909.968305822409, -35049.41285245572, 22526.021006825093, -0.298, 0.928, 0.148, 192.0, 0.0, 0.0, 0.0, 0.0, 0.0, 0.0, 0.0, 0.0, 0.0, 1.700950271743065E9, 0.0, 2023-11-25 17:11:11.743
141.0, 17268.13075162539, 22978.330907622687, -51772.272798093894, -49667.00669133743, -63800.52880055056, -3584.012816430666, -35017.114581717804, 22505.92678855977, -0.298, 0.928, 0.148, 192.0, 0.0, 0.0, 0.0, 0.0, 0.0, 0.0, 0.0, 0.0, 0.0, 1.70095027174512E9, 0.0, 2023-11-25 17:11:11.745
142.0, 17205.992902039638, 22881.458447153385, -51794.73630127148, -49717.02989542841, -63858.64333613436, -3680.102965844031, -35066.89191661977, 22453.95898270118, -0.298, 0.928, 0.148, 192.0, 0.0, 0.0, 0.0, 0.0, 0.0, 0.0, 0.0, 0.0, 0.0, 1.700950271747955E9, 0.0, 2023-11-25 17:11:11.747
143.0, 17195.73345133465, 22897.037613038734, -51788.366054101716, -49702.83653769929, -63884.79487714707, -3889.3376456901606, -35073.70919867864, 22477.763590546085, -0.298, 0.928, 0.148, 192.0, 0.0, 0.0, 0.0, 0.0, 0.0, 0.0, 0.0, 0.0, 0.0, 1.700950271752951E9, 0.0, 2023-11-25 17:11:11.752
144.0, 17237.46415823271, 22974.30759362073, -51755.24076881895, -49660.815258123315, -63878.06700206602, -3918.1490442930517, -35070.69171317717, 22504.295111214535, -0.298, 0.928, 0.148, 192.0, 0.0, 0.0, 0.0, 0.0, 0.0, 0.0, 0.0, 0.0, 0.0, 1.700950271756956E9, 0.0, 2023-11-25 17:11:11.756
145.0, 17282.681737265793, 22994.960605497436, -51756.894797908644, -49654.82499060929, -63804.84268723043, -3661.148686545931, -35013.761820049505, 22516.588570664953, -0.298, 0.928, 0.148, 192.0, 0.0, 0.0, 0.0, 0.0, 0.0, 0.0, 0.0, 0.0, 0.0, 1.700950271761123E9, 0.0, 2023-11-25 17:11:11.761
146.0, 17218.12989927887, 22888.43219142344, -51800.100719940754, -49724.294212376386, -63855.51409191061, -3602.117729439465, -35054.97843682509, 22448.616915776365, -0.298, 0.928, 0.148, 192.0, 0.0, 0.0, 0.0, 0.0, 0.0, 0.0, 0.0, 0.0, 0.0, 1.700950271767004E9, 0.0, 2023-11-25 17:11:11.767
147.0, 17207.44576542923, 22889.303909457198, -51774.373862072694, -49701.003694653955, -63875.340089242476, -3884.2190962098953, -35052.54209667946, 22481.4069248923, -0.298, 0.928, 0.148, 192.0, 0.0, 0.0, 0.0, 0.0, 0.0, 0.0, 0.0, 0.0, 0.0, 1.70095027176903E9, 0.0, 2023-11-25 17:11:11.769
148.0, 17239.833443144973, 22961.92472719249, -51744.57898671377, -49656.322557487794, -63869.68509789528, -3897.943067305454, -35050.19516351166, 22511.06768978449, -0.298, 0.928, 0.148, 192.0, 0.0, 0.0, 0.0, 0.0, 0.0, 0.0, 0.0, 0.0, 0.0, 1.700950271773052E9, 0.0, 2023-11-25 17:11:11.773
