%OpenBCI Raw EXG Data
%Number of channels = 8
%Sample Rate = 250 Hz
%Board = OpenBCI_GUI$BoardCytonSerial
Sample Index, EXG Channel 0, EXG Channel 1, EXG Channel 2, EXG Channel 3, EXG Channel 4, EXG Channel 5, EXG Channel 6, EXG Channel 7, Accel Channel 0, Accel Channel 1, Accel Channel 2, Other, Other, Other, Other, Other, Other, Other, Analog Channel 0, Analog Channel 1, Analog Channel 2, Timestamp, Other, Timestamp (Formatted)
235.0, 10131.95635461287, 20708.734775630808, -51295.107757462, -54740.02566814729, -45993.296324407616, -55026.4409215976, -32661.41953008408, -12720.310714281883, 0.0, 0.0, 0.0, 192.0, 0.0, 0.0, 0.0, 0.0, 0.0, 0.0, 0.0, 0.0, 0.0, 1.700946967187224E9, 0.0, 2023-11-25 16:16:07.187
236.0, 10209.047521239225, 20778.762791009285, -51310.08342624705, -54734.63889773356, -46052.68490942537, -54814.79225335029, -32671.65662904461, -12726.904478896198, 0.0, 0.0, 0.0, 192.0, 0.0, 0.0, 0.0, 0.0, 0.0, 0.0, 0.0, 0.0, 0.0, 1.700946967187242E9, 0.0, 2023-11-25 16:16:07.187
237.0, 10360.257072479377, 20830.17180325649, -51300.315713920085, -54728.670981963995, -45867.098375212954, -54671.58462662514, -32672.483643589458, -12724.535193983937, -0.10400000000000001, 0.9520000000000001, 0.25, 192.0, 252.0, 192.0, 29.0, 192.0, 7.0, 208.0, 0.0, 0.0, 0.0, 1.700946967187249E9, 0.0, 2023-11-25 16:16:07.187
238.0, 10416.11408187319, 20735.288648043712, -51286.30117014661, -54775.56494183123, -45474.24411466648, -54770.53579932878, -32697.361135168212, -12754.888862954243, -0.10400000000000001, 0.9520000000000001, 0.25, 192.0, 0.0, 0.0, 0.0, 0.0, 0.0, 0.0, 0.0, 0.0, 0.0, 1.700946967187255E9, 0.0, 2023-11-25 16:16:07.187
0.0, 0.0, 0.0, 0.0, 0.0, 0.0, 0.0, 0.0, 0.0, -0.10400000000000001, 0.9520000000000001, 0.25, 192.0, 0.0, 0.0, 0.0, 0.0, 0.0, 0.0, 0.0, 0.0, 0.0, 1.700946967258373E9, 0.0, 2023-11-25 16:16:07.258
1.0, 10483.50459140594, 21496.253788024642, -50948.76747712702, -54408.415187408355, -44880.35826448897, -54454.23626354173, -32457.839841585144, -12396.813916780224, -0.10400000000000001, 0.9560000000000001, 0.258, 192.0, 252.0, 192.0, 29.0, 224.0, 8.0, 16.0, 0.0, 0.0, 0.0, 1.700946967275499E9, 0.0, 2023-11-25 16:16:07.275
2.0, 10616.475119170562, 21573.322602906537, -50966.023023846516, -54400.88264952692, -44769.65007420183, -54235.189167879726, -32467.048760300728, -12403.273570927808, -0.10400000000000001, 0.9560000000000001, 0.258, 192.0, 0.0, 0.0, 0.0, 0.0, 0.0, 0.0, 0.0, 0.0, 0.0, 1.700946967278453E9, 0.0, 2023-11-25 16:16:07.278
3.0, 10768.377574488828, 21533.581201265002, -50946.867578848316, -54430.94574581931, -44420.22525313202, -54204.567277975955, -32489.735780922867, -12435.16951026553, -0.10400000000000001, 0.9560000000000001, 0.258, 192.0, 0.0, 0.0, 0.0, 0.0, 0.0, 0.0, 0.0, 0.0, 0.0, 1.700946967282467E9, 0.0, 2023-11-25 16:16:07.282
4.0, 10618.91145931619, 21441.53671759805, -50947.202855015144, -54441.07108605756, -44387.03291261589, -54445.27321401516, -32476.548251694236, -12426.675847372515, -0.10400000000000001, 0.9560000000000001, 0.258, 192.0, 0.0, 0.0, 0.0, 0.0, 0.0, 0.0, 0.0, 0.0, 0.0, 1.700946967285386E9, 0.0, 2023-11-25 16:16:07.285
5.0, 10455.430800370073, 21482.44040995126, -50939.715020622614, -54392.612504078454, -44866.008444548665, -54482.175944110866, -32431.285969172237, -12379.558370060728, -0.10400000000000001, 0.9560000000000001, 0.258, 192.0, 0.0, 0.0, 0.0, 0.0, 0.0, 0.0, 0.0, 0.0, 0.0, 1.70094696728949E9, 0.0, 2023-11-25 16:16:07.289
6.0, 10575.258502394976, 21549.339181105996, -50968.61582620333, -54397.52988785862, -44791.86770819041, -54253.47289484416, -32456.386978195547, -12399.764347048325, -0.10400000000000001, 0.9560000000000001, 0.258, 192.0, 0.0, 0.0, 0.0, 0.0, 0.0, 0.0, 0.0, 0.0, 0.0, 1.700946967293408E9, 0.0, 2023-11-25 16:16:07.293
7.0, 10728.345600169374, 21541.516070546637, -50956.568235941915, -54422.742655604205, -44504.46897798407, -54187.781117890016, -32481.040952329753, -12425.200632238464, -0.10400000000000001, 0.9560000000000001, 0.258, 192.0, 0.0, 0.0, 0.0, 0.0, 0.0, 0.0, 0.0, 0.0, 0.0, 1.700946967298497E9, 0.0, 2023-11-25 16:16:07.298
8.0, 10656.39533476774, 21437.938086740745, -50955.741221397075, -54460.53945547813, -44312.467493112985, -54397.2393151807, -32491.546272223746, -12437.583498666705, -0.106, 0.9500000000000001, 0.258, 192.0, 252.0, 176.0, 29.0, 176.0, 8.0, 16.0, 0.0, 0.0, 0.0, 1.700946967302478E9, 0.0, 2023-11-25 16:16:07.302
9.0, 10439.896337973636, 21463.508482397614, -50944.632404402786, -54411.94676303229, -44833.82193253302, -54518.47517710629, -32434.191695951427, -12380.49714332785, -0.106, 0.9500000000000001, 0.258, 192.0, 0.0, 0.0, 0.0, 0.0, 0.0, 0.0, 0.0, 0.0, 0.0, 1.700946967305486E9, 0.0, 2023-11-25 16:16:07.305
10.0, 10555.924243441135, 21539.057378656555, -50956.81410513093, -54405.08477748452, -44812.72188576721, -54281.43492715775, -32444.227629211862, -12389.415489365518, -0.106, 0.9500000000000001, 0.258, 192.0, 0.0, 0.0, 0.0, 0.0, 0.0, 0.0, 0.0, 0.0, 0.0, 1.700946967309515E9, 0.0, 2023-11-25 16:16:07.309
11.0, 10716.946210497166, 21561.967916723243, -50941.123180523304, -54411.43267290982, -44576.35218815234, -54168.46921068063, -32444.09351874513, -12397.283303413786, -0.106, 0.9500000000000001, 0.258, 192.0, 0.0, 0.0, 0.0, 0.0, 0.0, 0.0, 0.0, 0.0, 0.0, 1.700946967313524E9, 0.0, 2023-11-25 16:16:07.313
12.0, 10716.432120374695, 21457.54056662805, -50923.68881984816, -54450.9505571068, -44263.65128322259, -54316.08013106348, -32454.129452005564, -12412.035454754288, -0.106, 0.9500000000000001, 0.258, 192.0, 0.0, 0.0, 0.0, 0.0, 0.0, 0.0, 0.0, 0.0, 0.0, 1.700946967317523E9, 0.0, 2023-11-25 16:16:07.317
13.0, 10458.113009704712, 21457.1158834834, -50922.28065994748, -54413.55608863307, -44767.23608580066, -54512.06022644761, -32402.22870138034, -12351.484579024862, -0.106, 0.9500000000000001, 0.258, 192.0, 0.0, 0.0, 0.0, 0.0, 0.0, 0.0, 0.0, 0.0, 0.0, 1.700946967321629E9, 0.0, 2023-11-25 16:16:07.321
14.0, 10541.395609545185, 21538.67739900081, -50927.622726872294, -54400.88264952692, -44824.38949637288, -54298.243438988145, -32405.26853862626, -12350.434047035462, -0.106, 0.9500000000000001, 0.258, 192.0, 0.0, 0.0, 0.0, 0.0, 0.0, 0.0, 0.0, 0.0, 0.0, 1.700946967326489E9, 0.0, 2023-11-25 16:16:07.326
15.0, 10691.44287007366, 21582.151541966385, -50928.472093161596, -54405.21888795125, -44632.857398135355, -54156.57808263041, -32426.010957480787, -12367.801352477236, -0.106, 0.9500000000000001, 0.258, 192.0, 0.0, 0.0, 0.0, 0.0, 0.0, 0.0, 0.0, 0.0, 0.0, 1.700946967329523E9, 0.0, 2023-11-25 16:16:07.329
16.0, 10744.774132344024, 21476.137218014865, -50923.04061925896, -54456.69495543182, -44249.43557374902, -54269.47674387416, -32466.624077156077, -12413.868297799623, -0.106, 0.9500000000000001, 0.258, 192.0, 0.0, 0.0, 0.0, 0.0, 0.0, 0.0, 0.0, 0.0, 0.0, 1.700946967332534E9, 0.0, 2023-11-25 16:16:07.332
17.0, 10475.457963402028, 21454.098397981932, -50923.39824717024, -54415.52304214514, -44673.73873874411, -54516.59763057204, -32419.596006822114, -12355.150265115532, -0.106, 0.9500000000000001, 0.258, 192.0, 0.0, 0.0, 0.0, 0.0, 0.0, 0.0, 0.0, 0.0, 0.0, 1.700946967337565E9, 0.0, 2023-11-25 16:16:07.337
18.0, 10508.672655662616, 21516.772689434612, -50940.83260784538, -54406.13530947391, -44839.1863512023, -54355.03922164908, -32431.062451727685, -12365.230901864876, -0.10200000000000001, 0.9460000000000001, 0.254, 192.0, 252.0, 208.0, 29.0, 144.0, 7.0, 240.0, 0.0, 0.0, 0.0, 1.700946967342106E9, 0.0, 2023-11-25 16:16:07.342
19.0, 10650.896805631734, 21577.100047719487, -50957.551712697954, -54407.27524844113, -44694.21293666517, -54197.5935337059, -32453.883582816554, -12387.247370153353, -0.10200000000000001, 0.9460000000000001, 0.254, 192.0, 0.0, 0.0, 0.0, 0.0, 0.0, 0.0, 0.0, 0.0, 0.0, 1.700946967345574E9, 0.0, 2023-11-25 16:16:07.345
20.0, 10761.448533707684, 21498.15368630334, -50941.123180523304, -54448.58127219454, -44297.60358305021, -54251.058906442995, -32488.439379744457, -12428.374579951118, -0.10200000000000001, 0.9460000000000001, 0.254, 192.0, 0.0, 0.0, 0.0, 0.0, 0.0, 0.0, 0.0, 0.0, 0.0, 1.700946967349576E9, 0.0, 2023-11-25 16:16:07.349
21.0, 10517.188670300087, 21449.985677002154, -50946.75582012604, -54423.68142887133, -44582.521269622004, -54515.21182241581, -32452.855402571608, -12383.40287010704, -0.10200000000000001, 0.9460000000000001, 0.254, 192.0, 0.0, 0.0, 0.0, 0.0, 0.0, 0.0, 0.0, 0.0, 0.0, 1.700946967353612E9, 0.0, 2023-11-25 16:16:07.353
22.0, 10487.572608896806, 21499.606549692937, -50968.124087825316, -54410.98563802071, -44866.7907556046, -54410.62801010943, -32460.18677475295, -12384.475753840894, -0.10200000000000001, 0.9460000000000001, 0.254, 192.0, 0.0, 0.0, 0.0, 0.0, 0.0, 0.0, 0.0, 0.0, 0.0, 1.700946967356749E9, 0.0, 2023-11-25 16:16:07.356
23.0, 10618.442072682628, 21565.65595455837, -50988.039492134994, -54405.621219351444, -44744.25849250061, -54222.672190984755, -32483.38788549756, -12402.69242557197, -0.10200000000000001, 0.9460000000000001, 0.254, 192.0, 0.0, 0.0, 0.0, 0.0, 0.0, 0.0, 0.0, 0.0, 0.0, 1.700946967360597E9, 0.0, 2023-11-25 16:16:07.360
24.0, 10771.439763479206, 21524.26052382714, -50946.59935791485, -54421.2450887257, -44358.69090064656, -54221.129920617335, -32493.84850190264, -12422.898402559567, -0.10200000000000001, 0.9460000000000001, 0.254, 192.0, 0.0, 0.0, 0.0, 0.0, 0.0, 0.0, 0.0, 0.0, 0.0, 1.700946967365636E9, 0.0, 2023-11-25 16:16:07.365
25.0, 10582.232246665031, 21456.467682894192, -50943.38070671329, -54415.701856100786, -44464.52641064244, -54473.235246328746, -32468.94865857943, -12400.636065082082, -0.10200000000000001, 0.9460000000000001, 0.254, 192.0, 0.0, 0.0, 0.0, 0.0, 0.0, 0.0, 0.0, 0.0, 0.0, 1.700946967369649E9, 0.0, 2023-11-25 16:16:07.369
26.0, 10480.196533226554, 21498.734831659178, -50951.13676203928, -54390.600847077476, -44862.521572413636, -54448.67067917236, -32452.408367682503, -12385.079250941188, -0.10200000000000001, 0.9460000000000001, 0.254, 192.0, 0.0, 0.0, 0.0, 0.0, 0.0, 0.0, 0.0, 0.0, 0.0, 1.70094696737369E9, 0.0, 2023-11-25 16:16:07.373
27.0, 10611.66949411267, 21575.110742462963, -50965.93361686869, -54380.54256207259, -44762.69868167624, -54233.78100797904, -32469.641562657544, -12402.982998249889, -0.10200000000000001, 0.9460000000000001, 0.254, 192.0, 0.0, 0.0, 0.0, 0.0, 0.0, 0.0, 0.0, 0.0, 0.0, 1.700946967377696E9, 0.0, 2023-11-25 16:16:07.377
28.0, 10768.914016355755, 21552.02139044063, -50932.16013099672, -54398.692178570294, -44423.913290967146, -54192.83261213692, -32479.252812773328, -12424.641838627082, -0.10200000000000001, 0.9580000000000001, 0.254, 192.0, 252.0, 208.0, 29.0, 240.0, 7.0, 240.0, 0.0, 0.0, 0.0, 1.700946967381672E9, 0.0, 2023-11-25 16:16:07.381
29.0, 10637.329296747363, 21468.761142344614, -50922.392418669755, -54409.97980952023, -44364.39059548266, -54424.3966846939, -32459.42681544147, -12407.430995396495, -0.10200000000000001, 0.9580000000000001, 0.254, 192.0, 0.0, 0.0, 0.0, 0.0, 0.0, 0.0, 0.0, 0.0, 0.0, 1.700946967385659E9, 0.0, 2023-11-25 16:16:07.385
30.0, 10470.361765666219, 21503.227532294695, -50921.520700636, -54375.40166084786, -44846.40596466136, -54474.24107482923, -32422.680547556945, -12369.388326333563, -0.10200000000000001, 0.9580000000000001, 0.254, 192.0, 0.0, 0.0, 0.0, 0.0, 0.0, 0.0, 0.0, 0.0, 0.0, 1.700946967389024E9, 0.0, 2023-11-25 16:16:07.389
31.0, 10587.95429324559, 21573.322602906537, -50946.778171870494, -54380.29669288358, -44784.60339124243, -54249.06960118647, -32439.533762876246, -12387.984977720378, -0.10200000000000001, 0.9580000000000001, 0.254, 192.0, 0.0, 0.0, 0.0, 0.0, 0.0, 0.0, 0.0, 0.0, 0.0, 1.70094696739372E9, 0.0, 2023-11-25 16:16:07.393
32.0, 10746.897548067278, 21569.142826693398, -50931.6683926187, -54403.07312048354, -44508.17936756365, -54172.55957991596, -32447.289818202236, -12405.128765717598, -0.10200000000000001, 0.9580000000000001, 0.254, 192.0, 0.0, 0.0, 0.0, 0.0, 0.0, 0.0, 0.0, 0.0, 0.0, 1.70094696739674E9, 0.0, 2023-11-25 16:16:07.396
33.0, 10671.125134363787, 21451.460892136205, -50934.75293335354, -54449.29652801711, -44297.17889990556, -54371.087774167994, -32453.011864782795, -12416.818728067725, -0.10200000000000001, 0.9580000000000001, 0.254, 192.0, 0.0, 0.0, 0.0, 0.0, 0.0, 0.0, 0.0, 0.0, 0.0, 1.700946967401719E9, 0.0, 2023-11-25 16:16:07.401
34.0, 10438.488178072952, 21463.217909719697, -50929.455569917634, -54410.87387929844, -44826.021173718116, -54511.07674969158, -32393.578576276133, -12354.591471504149, -0.10200000000000001, 0.9580000000000001, 0.254, 192.0, 0.0, 0.0, 0.0, 0.0, 0.0, 0.0, 0.0, 0.0, 0.0, 1.700946967405877E9, 0.0, 2023-11-25 16:16:07.405
35.0, 10547.519987525939, 21536.82220421102, -50942.106657279335, -54407.856393796974, -44810.88904272188, -54279.89265679034, -32402.720439758355, -12362.772209974792, -0.10200000000000001, 0.9580000000000001, 0.254, 192.0, 0.0, 0.0, 0.0, 0.0, 0.0, 0.0, 0.0, 0.0, 0.0, 1.700946967409783E9, 0.0, 2023-11-25 16:16:07.409
36.0, 10708.765472026524, 21567.93583249281, -50923.733523337076, -54410.583306620516, -44581.15781321023, -54166.4352019352, -32403.681564769933, -12371.735259501369, -0.10200000000000001, 0.9580000000000001, 0.254, 192.0, 0.0, 0.0, 0.0, 0.0, 0.0, 0.0, 0.0, 0.0, 0.0, 1.700946967412778E9, 0.0, 2023-11-25 16:16:07.412
37.0, 10719.583716342893, 21461.7650463301, -50918.190290712155, -54460.18182756685, -44257.50455349738, -54323.59031720046, -32435.644559341024, -12410.068501242222, -0.10200000000000001, 0.9580000000000001, 0.254, 192.0, 0.0, 0.0, 0.0, 0.0, 0.0, 0.0, 0.0, 0.0, 0.0, 1.700946967416771E9, 0.0, 2023-11-25 16:16:07.416
38.0, 10468.372460409697, 21474.34907845844, -50909.96484875261, -54408.86222229746, -44755.94845485073, -54530.969802256805, -32386.381314561528, -12351.126951113576, -0.098, 0.9560000000000001, 0.258, 192.0, 252.0, 240.0, 29.0, 224.0, 8.0, 16.0, 0.0, 0.0, 0.0, 1.700946967420722E9, 0.0, 2023-11-25 16:16:07.420
39.0, 10541.909699667656, 21543.527727547615, -50935.244671731554, -54406.98467576321, -44821.03673470458, -54326.60780270193, -32419.148971933006, -12371.958776945923, -0.098, 0.9560000000000001, 0.258, 192.0, 0.0, 0.0, 0.0, 0.0, 0.0, 0.0, 0.0, 0.0, 0.0, 1.700946967425739E9, 0.0, 2023-11-25 16:16:07.425
40.0, 10690.705262506635, 21603.251588732193, -50937.30103222145, -54397.2393151807, -44648.03423262051, -54187.06586206745, -32447.267466457783, -12383.648739296048, -0.098, 0.9560000000000001, 0.258, 192.0, 0.0, 0.0, 0.0, 0.0, 0.0, 0.0, 0.0, 0.0, 0.0, 1.700946967429765E9, 0.0, 2023-11-25 16:16:07.429
41.0, 10768.042298321998, 21512.324692288006, -50924.02409601499, -54437.83008311154, -44261.52786749934, -54279.55738062351, -32490.875719890086, -12424.0830450157, -0.098, 0.9560000000000001, 0.258, 192.0, 0.0, 0.0, 0.0, 0.0, 0.0, 0.0, 0.0, 0.0, 0.0, 1.700946967433809E9, 0.0, 2023-11-25 16:16:07.433
42.0, 10503.576457926805, 21489.190636776762, -50925.45460766013, -54395.47352736873, -44663.50163978358, -54529.69575282285, -32449.189716480938, -12369.477733311383, -0.098, 0.9560000000000001, 0.258, 192.0, 0.0, 0.0, 0.0, 0.0, 0.0, 0.0, 0.0, 0.0, 0.0, 1.700946967437787E9, 0.0, 2023-11-25 16:16:07.437
43.0, 10521.189632557587, 21542.700713002767, -50950.89089285027, -54389.684425554806, -44842.11442972594, -54366.125686898915, -32463.405425954516, -12375.35624210313, -0.098, 0.9560000000000001, 0.258, 192.0, 0.0, 0.0, 0.0, 0.0, 0.0, 0.0, 0.0, 0.0, 0.0, 1.700946967440836E9, 0.0, 2023-11-25 16:16:07.440
44.0, 10648.326355019373, 21594.735574094724, -50969.66635819273, -54394.020663979136, -44705.25469842609, -54201.92977213023, -32486.785350654765, -12394.332873145686, -0.098, 0.9560000000000001, 0.258, 192.0, 0.0, 0.0, 0.0, 0.0, 0.0, 0.0, 0.0, 0.0, 0.0, 1.700946967444834E9, 0.0, 2023-11-25 16:16:07.444
45.0, 10759.101600539876, 21515.319826045015, -50949.37097422731, -54436.86895809996, -44308.91356574459, -54245.47097032917, -32519.374194070602, -12438.030533555811, -0.098, 0.9560000000000001, 0.258, 192.0, 0.0, 0.0, 0.0, 0.0, 0.0, 0.0, 0.0, 0.0, 0.0, 1.700946967448962E9, 0.0, 2023-11-25 16:16:07.448
46.0, 10521.413150002141, 21461.742694585646, -50945.99586081456, -54415.85831831197, -44562.874086245785, -54503.94654321034, -32474.827167371175, -12389.59430332116, -0.098, 0.9560000000000001, 0.258, 192.0, 0.0, 0.0, 0.0, 0.0, 0.0, 0.0, 0.0, 0.0, 0.0, 1.700946967452799E9, 0.0, 2023-11-25 16:16:07.452
47.0, 10486.298559462854, 21513.732852188692, -50947.73929688207, -54395.406472135364, -44863.281531725115, -54406.15766121837, -32454.867059572585, -12376.384422348074, -0.098, 0.9560000000000001, 0.258, 192.0, 0.0, 0.0, 0.0, 0.0, 0.0, 0.0, 0.0, 0.0, 0.0, 1.700946967457851E9, 0.0, 2023-11-25 16:16:07.457
48.0, 10626.53340417545, 21575.31190816306, -50967.475887236105, -54397.77575704763, -44740.90573083231, -54208.747054189094, -32475.60947842711, -12398.870277270113, -0.10400000000000001, 0.9540000000000001, 0.256, 192.0, 252.0, 192.0, 29.0, 208.0, 8.0, 0.0, 0.0, 0.0, 0.0, 1.700946967461836E9, 0.0, 2023-11-25 16:16:07.461
49.0, 10762.9908040751, 21515.766860934124, -50949.37097422731, -54439.461760456776, -44374.56063920983, -54215.38552229232, -32507.86304567612, -12443.707876647459, -0.10400000000000001, 0.9540000000000001, 0.256, 192.0, 0.0, 0.0, 0.0, 0.0, 0.0, 0.0, 0.0, 0.0, 0.0, 1.700946967465836E9, 0.0, 2023-11-25 16:16:07.465
50.0, 10582.992205976512, 21448.890441523843, -50939.022116544504, -54430.34224871901, -44461.732442585526, -54465.30037704711, -32473.75428363732, -12410.269666942319, -0.10400000000000001, 0.9540000000000001, 0.256, 192.0, 0.0, 0.0, 0.0, 0.0, 0.0, 0.0, 0.0, 0.0, 0.0, 1.700946967468854E9, 0.0, 2023-11-25 16:16:07.468
51.0, 10465.44438188605, 21488.229511765185, -50945.70528813664, -54406.35882691847, -44880.64883716689, -54449.385934994934, -32449.748510092322, -12387.090907942165, -0.10400000000000001, 0.9540000000000001, 0.256, 192.0, 0.0, 0.0, 0.0, 0.0, 0.0, 0.0, 0.0, 0.0, 0.0, 1.700946967472913E9, 0.0, 2023-11-25 16:16:07.472
52.0, 10587.641368823215, 21562.839634757, -50962.96083485614, -54399.72035881524, -44782.43527203027, -54225.42145555276, -32461.32671372017, -12398.780870292292, -0.10400000000000001, 0.9540000000000001, 0.256, 192.0, 0.0, 0.0, 0.0, 0.0, 0.0, 0.0, 0.0, 0.0, 0.0, 1.700946967476879E9, 0.0, 2023-11-25 16:16:07.476
53.0, 10744.371800943829, 21536.46457629974, -50941.3243462234, -54424.82136783855, -44451.60710234727, -54177.923998585225, -32481.197414540937, -12426.832309583702, -0.10400000000000001, 0.9540000000000001, 0.256, 192.0, 0.0, 0.0, 0.0, 0.0, 0.0, 0.0, 0.0, 0.0, 0.0, 1.700946967481864E9, 0.0, 2023-11-25 16:16:07.481
54.0, 10623.761787862992, 21435.56880182848, -50938.48567467758, -54449.87767337295, -44363.20595302653, -54407.945800774796, -32472.301420247728, -12424.59713513817, -0.10400000000000001, 0.9540000000000001, 0.256, 192.0, 0.0, 0.0, 0.0, 0.0, 0.0, 0.0, 0.0, 0.0, 0.0, 1.70094696748587E9, 0.0, 2023-11-25 16:16:07.485
55.0, 10438.622288539684, 21460.558052129516, -50938.86565433331, -54417.42294042384, -44856.62071187743, -54481.50539177721, -32431.37537615006, -12381.45826833943, -0.10400000000000001, 0.9540000000000001, 0.256, 192.0, 0.0, 0.0, 0.0, 0.0, 0.0, 0.0, 0.0, 0.0, 0.0, 1.700946967489883E9, 0.0, 2023-11-25 16:16:07.489
56.0, 10564.261444122963, 21538.766805978634, -50951.89672135076, -54411.67854209883, -44798.416769315816, -54248.64491804182, -32434.906951774, -12387.984977720378, -0.10400000000000001, 0.9540000000000001, 0.256, 192.0, 0.0, 0.0, 0.0, 0.0, 0.0, 0.0, 0.0, 0.0, 0.0, 1.700946967493955E9, 0.0, 2023-11-25 16:16:07.493
57.0, 10726.423350146217, 21536.062244899542, -50938.28450897748, -54434.92435633235, -44525.07728637187, -54166.85988507985, -32451.84957407112, -12413.555373377249, -0.10200000000000001, 0.9420000000000001, 0.26, 192.0, 252.0, 208.0, 29.0, 112.0, 8.0, 32.0, 0.0, 0.0, 0.0, 1.70094696749696E9, 0.0, 2023-11-25 16:16:07.496
58.0, 10669.78402969647, 21425.108185423396, -50941.480808434586, -54483.58410401155, -44297.29065862783, -54370.394870089876, -32473.798987126233, -12442.41147546905, -0.10200000000000001, 0.9420000000000001, 0.26, 192.0, 0.0, 0.0, 0.0, 0.0, 0.0, 0.0, 0.0, 0.0, 0.0, 1.700946967500941E9, 0.0, 2023-11-25 16:16:07.500
59.0, 10436.029486182868, 21452.734941570157, -50929.27675596199, -54433.71736213176, -44819.91914748182, -54516.46352010531, -32413.13635267453, -12376.83145723718, -0.10200000000000001, 0.9420000000000001, 0.26, 192.0, 0.0, 0.0, 0.0, 0.0, 0.0, 0.0, 0.0, 0.0, 0.0, 1.700946967505003E9, 0.0, 2023-11-25 16:16:07.505
60.0, 10539.003972888468, 21529.133204118396, -50943.06778229091, -54428.263536484665, -44814.21945264572, -54284.31830219249, -32419.014861466276, -12384.11812592961, -0.10200000000000001, 0.9420000000000001, 0.26, 192.0, 0.0, 0.0, 0.0, 0.0, 0.0, 0.0, 0.0, 0.0, 0.0, 1.700946967508981E9, 0.0, 2023-11-25 16:16:07.508
61.0, 10696.561419553927, 21563.93487023531, -50929.50027340654, -54423.502614915684, -44596.40170292875, -54162.59070188889, -32418.344309132615, -12389.929579487989, -0.10200000000000001, 0.9420000000000001, 0.26, 192.0, 0.0, 0.0, 0.0, 0.0, 0.0, 0.0, 0.0, 0.0, 0.0, 1.700946967513058E9, 0.0, 2023-11-25 16:16:07.513
62.0, 10713.772262784512, 21453.517252626094, -50922.90650879223, -54465.30037704711, -44255.33643428522, -54300.41155820031, -32443.51237338929, -12425.446501427472, -0.10200000000000001, 0.9420000000000001, 0.26, 192.0, 0.0, 0.0, 0.0, 0.0, 0.0, 0.0, 0.0, 0.0, 0.0, 1.700946967517957E9, 0.0, 2023-11-25 16:16:07.517
63.0, 10437.728218761471, 21438.13925244084, -50931.824854829894, -54427.41417019536, -44738.40233545331, -54519.32454339559, -32402.072239169152, -12381.793544506258, -0.10200000000000001, 0.9420000000000001, 0.26, 192.0, 0.0, 0.0, 0.0, 0.0, 0.0, 0.0, 0.0, 0.0, 0.0, 1.700946967522987E9, 0.0, 2023-11-25 16:16:07.522
64.0, 10503.17412652661, 21509.843648653467, -50949.81800911642, -54417.48999565721, -44825.37297312891, -54326.13841606837, -32412.778724763244, -12393.751727789848, -0.10200000000000001, 0.9420000000000001, 0.26, 192.0, 0.0, 0.0, 0.0, 0.0, 0.0, 0.0, 0.0, 0.0, 0.0, 1.700946967526E9, 0.0, 2023-11-25 16:16:07.526
65.0, 10659.725744691581, 21570.863911016455, -50947.64988990425, -54404.41422515085, -44650.69409021069, -54172.961911316146, -32423.574617335158, -12403.497088372362, -0.10200000000000001, 0.9420000000000001, 0.26, 192.0, 0.0, 0.0, 0.0, 0.0, 0.0, 0.0, 0.0, 0.0, 0.0, 1.70094696752999E9, 0.0, 2023-11-25 16:16:07.529
66.0, 10746.450513178172, 21481.21106400622, -50928.58385188387, -54441.67458315785, -44261.30435005479, -54255.01516521158, -32454.80000433922, -12441.18212952401, -0.10200000000000001, 0.9420000000000001, 0.26, 192.0, 0.0, 0.0, 0.0, 0.0, 0.0, 0.0, 0.0, 0.0, 0.0, 1.700946967532998E9, 0.0, 2023-11-25 16:16:07.532
67.0, 10485.762117595927, 21447.81755778999, -50931.08724726287, -54408.43753915281, -44641.08284009491, -54506.002903700224, -32415.460934097882, -12393.349396389653, -0.1, 0.9460000000000001, 0.264, 192.0, 252.0, 224.0, 29.0, 144.0, 8.0, 64.0, 0.0, 0.0, 0.0, 1.700946967537021E9, 0.0, 2023-11-25 16:16:07.537
68.0, 10499.821364858313, 21510.625959709403, -50943.224244502104, -54393.14894594538, -44841.756801814656, -54357.78848621708, -32424.35692839109, -12398.535001103282, -0.1, 0.9460000000000001, 0.264, 192.0, 0.0, 0.0, 0.0, 0.0, 0.0, 0.0, 0.0, 0.0, 0.0, 1.700946967541057E9, 0.0, 2023-11-25 16:16:07.541
69.0, 10639.497415959528, 21573.255547673172, -50960.055108076944, -54393.104242456466, -44702.81835828046, -54182.21553352065, -32450.731986848354, -12415.11999548912, -0.1, 0.9460000000000001, 0.264, 192.0, 0.0, 0.0, 0.0, 0.0, 0.0, 0.0, 0.0, 0.0, 0.0, 1.700946967546124E9, 0.0, 2023-11-25 16:16:07.546
70.0, 10755.190045260197, 21494.465648468216, -50942.12900902379, -54435.70666738829, -44313.56272859129, -54224.25916484108, -32485.578356454178, -12450.79337963979, -0.1, 0.9460000000000001, 0.264, 192.0, 0.0, 0.0, 0.0, 0.0, 0.0, 0.0, 0.0, 0.0, 0.0, 1.70094696755003E9, 0.0, 2023-11-25 16:16:07.550
71.0, 10525.682333193105, 21441.67082806478, -50940.83260784538, -54413.95842003327, -44546.311443604405, -54480.74543246573, -32450.08378625915, -12402.357149405141, -0.1, 0.9460000000000001, 0.264, 192.0, 0.0, 0.0, 0.0, 0.0, 0.0, 0.0, 0.0, 0.0, 0.0, 1.700946967553125E9, 0.0, 2023-11-25 16:16:07.553
72.0, 10474.630948857182, 21493.035136823077, -50950.44385796117, -54392.45604186726, -44863.013310791655, -54391.3384546445, -32441.90304778851, -12383.335814873673, -0.1, 0.9460000000000001, 0.264, 192.0, 0.0, 0.0, 0.0, 0.0, 0.0, 0.0, 0.0, 0.0, 0.0, 1.700946967557116E9, 0.0, 2023-11-25 16:16:07.557
73.0, 10609.210802222588, 21565.879472002922, -50961.91030286674, -54382.71068128475, -44745.57724542347, -54182.260237009556, -32448.407405425, -12382.464096839918, -0.1, 0.9460000000000001, 0.264, 192.0, 0.0, 0.0, 0.0, 0.0, 0.0, 0.0, 0.0, 0.0, 0.0, 1.700946967561148E9, 0.0, 2023-11-25 16:16:07.561
74.0, 10753.379553959317, 21516.660930712336, -50939.111523522326, -54418.87580381344, -44379.52272647891, -54167.083402524404, -32475.207147026915, -12412.415434410028, -0.1, 0.9460000000000001, 0.264, 192.0, 0.0, 0.0, 0.0, 0.0, 0.0, 0.0, 0.0, 0.0, 0.0, 1.700946967565093E9, 0.0, 2023-11-25 16:16:07.565
75.0, 10566.228397635032, 21427.388063357837, -50945.86175034782, -54432.06333304207, -44438.46427660755, -54428.08472252903, -32463.204260254417, -12399.496126114862, -0.1, 0.9460000000000001, 0.264, 192.0, 0.0, 0.0, 0.0, 0.0, 0.0, 0.0, 0.0, 0.0, 0.0, 1.700946967569182E9, 0.0, 2023-11-25 16:16:07.569
76.0, 10438.577585050773, 21463.30731669752, -50948.14162828227, -54406.06825424055, -44868.42243294984, -54429.42582719634, -32437.723271575367, -12371.176465889987, -0.1, 0.9460000000000001, 0.264, 192.0, 0.0, 0.0, 0.0, 0.0, 0.0, 0.0, 0.0, 0.0, 0.0, 1.700946967574103E9, 0.0, 2023-11-25 16:16:07.574
77.0, 10565.289624367908, 21527.657988984345, -50977.064785607436, -54417.937030546316, -44775.48387950467, -54210.289324556514, -32459.046835785728, -12394.757556290337, -0.098, 0.9560000000000001, 0.264, 192.0, 252.0, 240.0, 29.0, 224.0, 8.0, 64.0, 0.0, 0.0, 0.0, 1.700946967578134E9, 0.0, 2023-11-25 16:16:07.578
78.0, 10720.008399487544, 21506.535590474083, -50955.69651790816, -54444.4014959814, -44465.286369953916, -54167.75395485806, -32476.66001041651, -12416.50580364535, -0.098, 0.9560000000000001, 0.264, 192.0, 0.0, 0.0, 0.0, 0.0, 0.0, 0.0, 0.0, 0.0, 0.0, 1.700946967581181E9, 0.0, 2023-11-25 16:16:07.581
79.0, 10617.950334304613, 21424.683502278745, -50939.022116544504, -54454.92916761985, -44350.06312728681, -54383.67180629633, -32460.097367775128, -12402.357149405141, -0.098, 0.9560000000000001, 0.264, 192.0, 0.0, 0.0, 0.0, 0.0, 0.0, 0.0, 0.0, 0.0, 0.0, 1.700946967585121E9, 0.0, 2023-11-25 16:16:07.585
80.0, 10435.425989082574, 21459.216947462195, -50927.779189083485, -54409.6445333534, -44850.36222342995, -54463.66869970187, -32410.565902062168, -12351.998669147333, -0.098, 0.9560000000000001, 0.264, 192.0, 0.0, 0.0, 0.0, 0.0, 0.0, 0.0, 0.0, 0.0, 0.0, 1.700946967589302E9, 0.0, 2023-11-25 16:16:07.589
81.0, 10551.878577694724, 21527.993265151177, -50951.6285004173, -54415.880670056424, -44793.20881285773, -54238.40781908129, -32434.03523374024, -12376.518532814805, -0.098, 0.9560000000000001, 0.264, 192.0, 0.0, 0.0, 0.0, 0.0, 0.0, 0.0, 0.0, 0.0, 0.0, 1.700946967593132E9, 0.0, 2023-11-25 16:16:07.593
82.0, 10708.385492370784, 21539.616172267935, -50933.47888391959, -54430.31989697456, -44531.40283005271, -54158.74620184257, -32444.8087745677, -12399.585533092682, -0.098, 0.9560000000000001, 0.264, 192.0, 0.0, 0.0, 0.0, 0.0, 0.0, 0.0, 0.0, 0.0, 0.0, 1.700946967597141E9, 0.0, 2023-11-25 16:16:07.597
83.0, 10678.322396078396, 21441.268496664587, -50923.88998554826, -54465.85917065849, -44282.136175887135, -54348.087829123484, -32457.07988227366, -12423.010161281843, -0.098, 0.9560000000000001, 0.264, 192.0, 0.0, 0.0, 0.0, 0.0, 0.0, 0.0, 0.0, 0.0, 0.0, 1.700946967601158E9, 0.0, 2023-11-25 16:16:07.601
84.0, 10438.666992028593, 21446.85643277841, -50929.097942006345, -54428.59881265149, -44803.40120832935, -54517.826976517084, -32413.89631198601, -12383.291111384764, -0.098, 0.9560000000000001, 0.264, 192.0, 0.0, 0.0, 0.0, 0.0, 0.0, 0.0, 0.0, 0.0, 0.0, 1.700946967605175E9, 0.0, 2023-11-25 16:16:07.605
85.0, 10536.008839131457, 21526.316884317028, -50943.06778229091, -54418.7416933467, -44816.00759220214, -54302.98200881267, -32423.12758244605, -12400.45725112644, -0.098, 0.9560000000000001, 0.264, 192.0, 0.0, 0.0, 0.0, 0.0, 0.0, 0.0, 0.0, 0.0, 0.0, 1.700946967608259E9, 0.0, 2023-11-25 16:16:07.608
86.0, 10697.790765498969, 21577.189454697305, -50927.30980244992, -54408.63870485291, -44602.88370882079, -54174.34771947238, -32428.51435285978, -12409.465004141928, -0.098, 0.9560000000000001, 0.264, 192.0, 0.0, 0.0, 0.0, 0.0, 0.0, 0.0, 0.0, 0.0, 0.0, 1.700946967613278E9, 0.0, 2023-11-25 16:16:07.613
87.0, 10732.346562426874, 21474.684354625268, -50922.54888088094, -54454.79505715312, -44251.80485866128, -54304.70309313573, -32466.109987033607, -12450.391048239595, -0.10200000000000001, 0.9540000000000001, 0.258, 192.0, 252.0, 208.0, 29.0, 208.0, 8.0, 16.0, 0.0, 0.0, 0.0, 1.700946967617291E9, 0.0, 2023-11-25 16:16:07.617
88.0, 10467.321928420297, 21468.984659789166, -50924.918165793206, -54408.549297875084, -44719.11277998838, -54524.398389386944, -32417.383184121038, -12391.605960322138, -0.10200000000000001, 0.9540000000000001, 0.258, 192.0, 0.0, 0.0, 0.0, 0.0, 0.0, 0.0, 0.0, 0.0, 0.0, 1.700946967621358E9, 0.0, 2023-11-25 16:16:07.621
89.0, 10533.617202474737, 21541.493718802183, -50937.39043919926, -54392.88072501191, -44817.281641636095, -54320.528128210084, -32433.02940523975, -12398.579704592194, -0.10200000000000001, 0.9540000000000001, 0.258, 192.0, 0.0, 0.0, 0.0, 0.0, 0.0, 0.0, 0.0, 0.0, 0.0, 1.700946967625422E9, 0.0, 2023-11-25 16:16:07.625
90.0, 10671.63922448626, 21589.84054205901, -50948.32044223791, -54392.85837326746, -44645.575540730424, -54170.48086768161, -32464.254792243817, -12418.897440302067, -0.10200000000000001, 0.9540000000000001, 0.258, 192.0, 0.0, 0.0, 0.0, 0.0, 0.0, 0.0, 0.0, 0.0, 0.0, 1.700946967629216E9, 0.0, 2023-11-25 16:16:07.629
91.0, 10758.36399297285, 21507.49671548566, -50923.35354368133, -54429.33642021852, -44252.00602436138, -54245.4039150958, -32489.28874603376, -12447.50767320486, -0.10200000000000001, 0.9540000000000001, 0.258, 192.0, 0.0, 0.0, 0.0, 0.0, 0.0, 0.0, 0.0, 0.0, 0.0, 1.700946967633284E9, 0.0, 2023-11-25 16:16:07.633
92.0, 10505.565763183327, 21481.34517447295, -50915.59748835534, -54390.98082673321, -44608.76221761254, -54491.898952948926, -32442.372434422072, -12388.320253887208, -0.10200000000000001, 0.9540000000000001, 0.258, 192.0, 0.0, 0.0, 0.0, 0.0, 0.0, 0.0, 0.0, 0.0, 0.0, 1.700946967636269E9, 0.0, 2023-11-25 16:16:07.636
93.0, 10506.88451610619, 21531.25661984165, -50932.517758908005, -54386.21990516423, -44826.088228951485, -54350.591224502474, -32455.492908417335, -12393.192934178465, -0.10200000000000001, 0.9540000000000001, 0.258, 192.0, 0.0, 0.0, 0.0, 0.0, 0.0, 0.0, 0.0, 0.0, 0.0, 1.700946967641405E9, 0.0, 2023-11-25 16:16:07.641
94.0, 10644.571261950883, 21599.407088685883, -50934.95409905363, -54374.57464630302, -44688.155613917785, -54166.591664146385, -32458.46569042989, -12390.421317866007, -0.10200000000000001, 0.9540000000000001, 0.258, 192.0, 0.0, 0.0, 0.0, 0.0, 0.0, 0.0, 0.0, 0.0, 0.0, 1.700946967645323E9, 0.0, 2023-11-25 16:16:07.645
95.0, 10772.266778024052, 21532.240096597685, -50906.74619755104, -54410.20332696478, -44295.81544349378, -54186.08238531141, -32477.688190661454, -12413.26480069933, -0.10200000000000001, 0.9540000000000001, 0.258, 192.0, 0.0, 0.0, 0.0, 0.0, 0.0, 0.0, 0.0, 0.0, 0.0, 1.700946967649338E9, 0.0, 2023-11-25 16:16:07.649
96.0, 10548.235243348508, 21468.38116268887, -50907.707322562615, -54398.826289037024, -44499.99862909301, -54445.474379715255, -32441.41130941049, -12369.54478854475, -0.10200000000000001, 0.9540000000000001, 0.258, 192.0, 0.0, 0.0, 0.0, 0.0, 0.0, 0.0, 0.0, 0.0, 0.0, 1.700946967654359E9, 0.0, 2023-11-25 16:16:07.654
97.0, 10473.69217559006, 21513.06229985503, -50918.5702703679, -54381.995425462184, -44845.44483964978, -54377.50272482666, -32426.100364458605, -12351.708096469414, -0.10400000000000001, 0.9480000000000001, 0.256, 192.0, 252.0, 192.0, 29.0, 160.0, 8.0, 0.0, 0.0, 0.0, 0.0, 1.700946967657321E9, 0.0, 2023-11-25 16:16:07.657
98.0, 10595.822107293858, 21578.150579708887, -50942.84426484636, -54384.96820747474, -44733.48495167315, -54173.028966549515, -32439.824335554164, -12363.286300097263, -0.10400000000000001, 0.9480000000000001, 0.256, 192.0, 0.0, 0.0, 0.0, 0.0, 0.0, 0.0, 0.0, 0.0, 0.0, 1.700946967661347E9, 0.0, 2023-11-25 16:16:07.661
99.0, 10742.158978242753, 21525.579276750002, -50927.53331989447, -54424.1955189938, -44378.0251596004, -54159.4838094096, -32464.344199221636, -12393.304692900741, -0.10400000000000001, 0.9480000000000001, 0.256, 192.0, 0.0, 0.0, 0.0, 0.0, 0.0, 0.0, 0.0, 0.0, 0.0, 1.70094696766447E9, 0.0, 2023-11-25 16:16:07.664
100.0, 10579.728851286036, 21437.468700107183, -50932.02602052999, -54440.847568613004, -44413.72089549553, -54413.310219444065, -32449.189716480938, -12377.479657826383, -0.10400000000000001, 0.9480000000000001, 0.256, 192.0, 0.0, 0.0, 0.0, 0.0, 0.0, 0.0, 0.0, 0.0, 0.0, 1.700946967668547E9, 0.0, 2023-11-25 16:16:07.668
101.0, 10429.435721568552, 21461.67563935228, -50946.644061403764, -54428.95644056278, -44870.478793439725, -54442.881577358436, -32428.55905634869, -12351.372820302586, -0.10400000000000001, 0.9480000000000001, 0.256, 192.0, 0.0, 0.0, 0.0, 0.0, 0.0, 0.0, 0.0, 0.0, 0.0, 1.70094696767345E9, 0.0, 2023-11-25 16:16:07.673
102.0, 10552.906757939669, 21539.102082145462, -50964.59251220137, -54430.45400744129, -44790.68306573428, -54226.20376660869, -32445.81460306819, -12359.0171169063, -0.10400000000000001, 0.9480000000000001, 0.256, 192.0, 0.0, 0.0, 0.0, 0.0, 0.0, 0.0, 0.0, 0.0, 0.0, 1.700946967677395E9, 0.0, 2023-11-25 16:16:07.677
103.0, 10711.827661016901, 21528.68616922929, -50939.40209620024, -54452.0010890962, -44488.845108609814, -54168.20098974717, -32458.37628345207, -12374.819800236202, -0.10400000000000001, 0.9480000000000001, 0.256, 192.0, 0.0, 0.0, 0.0, 0.0, 0.0, 0.0, 0.0, 0.0, 0.0, 1.70094696768146E9, 0.0, 2023-11-25 16:16:07.681
104.0, 10623.314752973885, 21433.177165171764, -50927.13098849428, -54468.56373173759, -44342.77645859438, -54377.34626261548, -32437.544457619722, -12360.0676488957, -0.10400000000000001, 0.9480000000000001, 0.256, 192.0, 0.0, 0.0, 0.0, 0.0, 0.0, 0.0, 0.0, 0.0, 0.0, 1.700946967686119E9, 0.0, 2023-11-25 16:16:07.686
105.0, 10419.466843541484, 21454.947764271234, -50931.10959900732, -54432.48801618672, -44847.07651699502, -54482.01948189968, -32395.7466954883, -12316.235878018842, -0.10400000000000001, 0.9480000000000001, 0.256, 192.0, 0.0, 0.0, 0.0, 0.0, 0.0, 0.0, 0.0, 0.0, 0.0, 1.700946967689434E9, 0.0, 2023-11-25 16:16:07.689
106.0, 10535.293583308887, 21528.35089306246, -50960.837419132884, -54435.17022552135, -44804.16116764083, -54261.72068854817, -32423.97694873535, -12346.410733033506, -0.10400000000000001, 0.9480000000000001, 0.256, 192.0, 0.0, 0.0, 0.0, 0.0, 0.0, 0.0, 0.0, 0.0, 0.0, 1.700946967692382E9, 0.0, 2023-11-25 16:16:07.692
107.0, 10696.583771298381, 21549.674457272824, -50955.13772429678, -54441.74163839122, -44554.559237308415, -54171.82197234893, -32448.452108913913, -12376.652643281537, -0.106, 0.9480000000000001, 0.258, 192.0, 252.0, 176.0, 29.0, 160.0, 8.0, 16.0, 0.0, 0.0, 0.0, 1.700946967696391E9, 0.0, 2023-11-25 16:16:07.696
108.0, 10682.748041480547, 21452.109092725408, -50952.455514962145, -54472.49763876172, -44281.26445785337, -54348.087829123484, -32472.256716758817, -12408.347416919163, -0.106, 0.9480000000000001, 0.258, 192.0, 0.0, 0.0, 0.0, 0.0, 0.0, 0.0, 0.0, 0.0, 0.0, 1.700946967701385E9, 0.0, 2023-11-25 16:16:07.701
109.0, 10445.171349665088, 21470.348116200938, -50945.1241427808, -54413.019646766144, -44799.26613560512, -54518.251659661735, -32420.378317878047, -12359.330041328674, -0.106, 0.9480000000000001, 0.258, 192.0, 0.0, 0.0, 0.0, 0.0, 0.0, 0.0, 0.0, 0.0, 0.0, 1.700946967705584E9, 0.0, 2023-11-25 16:16:07.705
110.0, 10538.266365321442, 21537.64921875587, -50968.951102370156, -54411.991466521205, -44816.365220113425, -54297.952866310225, -32452.028388026763, -12395.428108623995, -0.106, 0.9480000000000001, 0.258, 192.0, 0.0, 0.0, 0.0, 0.0, 0.0, 0.0, 0.0, 0.0, 0.0, 1.700946967709384E9, 0.0, 2023-11-25 16:16:07.709
111.0, 10683.776221725491, 21579.491684376204, -50965.41952674622, -54410.87387929844, -44611.01974380252, -54174.79475436149, -32472.413178970004, -12416.88578330109, -0.106, 0.9480000000000001, 0.258, 192.0, 0.0, 0.0, 0.0, 0.0, 0.0, 0.0, 0.0, 0.0, 0.0, 1.700946967713506E9, 0.0, 2023-11-25 16:16:07.713
112.0, 10736.392228173283, 21491.269349011105, -50941.190235756665, -54442.188673280325, -44245.18874230251, -54292.49904066313, -32496.597766470644, -12448.93818485, -0.106, 0.9480000000000001, 0.258, 192.0, 0.0, 0.0, 0.0, 0.0, 0.0, 0.0, 0.0, 0.0, 0.0, 1.700946967716474E9, 0.0, 2023-11-25 16:16:07.716
113.0, 10469.64650984365, 21477.746543615645, -50937.636308388275, -54398.9380477593, -44693.74355003161, -54517.22347941679, -32448.139184491538, -12393.63996906757, -0.106, 0.9480000000000001, 0.258, 192.0, 0.0, 0.0, 0.0, 0.0, 0.0, 0.0, 0.0, 0.0, 0.0, 1.700946967720454E9, 0.0, 2023-11-25 16:16:07.720
114.0, 10518.41801624513, 21534.810547210043, -50958.93752085418, -54397.507536114164, -44814.86765323492, -54333.44743650525, -32469.41804521299, -12409.17443146401, -0.106, 0.9480000000000001, 0.258, 192.0, 0.0, 0.0, 0.0, 0.0, 0.0, 0.0, 0.0, 0.0, 0.0, 1.700946967724476E9, 0.0, 2023-11-25 16:16:07.724
115.0, 10665.78306743897, 21589.88524554792, -50961.329157510896, -54391.71843430024, -44658.60660774787, -54178.10281254087, -32483.790216897753, -12418.450405412961, -0.106, 0.9480000000000001, 0.258, 192.0, 0.0, 0.0, 0.0, 0.0, 0.0, 0.0, 0.0, 0.0, 0.0, 1.700946967729457E9, 0.0, 2023-11-25 16:16:07.729
116.0, 10768.377574488828, 21504.747450917657, -50928.203872228136, -54427.30241147309, -44262.08666111072, -54241.55941504949, -32497.022449615295, -12443.0373243138, -0.106, 0.9480000000000001, 0.258, 192.0, 0.0, 0.0, 0.0, 0.0, 0.0, 0.0, 0.0, 0.0, 0.0, 1.70094696773343E9, 0.0, 2023-11-25 16:16:07.733
117.0, 10513.500632464962, 21461.161549229808, -50923.13002623678, -54399.250972181675, -44592.177223226696, -54492.860077960504, -32448.8097368252, -12390.60013182165, -0.098, 0.9520000000000001, 0.258, 192.0, 252.0, 240.0, 29.0, 192.0, 8.0, 16.0, 0.0, 0.0, 0.0, 1.700946967737541E9, 0.0, 2023-11-25 16:16:07.737
118.0, 10502.771795126415, 21517.48794525718, -50930.86372981832, -54384.163544674346, -44834.29131916658, -54363.21996011972, -32440.360777421094, -12384.051070696243, -0.098, 0.9520000000000001, 0.258, 192.0, 0.0, 0.0, 0.0, 0.0, 0.0, 0.0, 0.0, 0.0, 0.0, 1.700946967741459E9, 0.0, 2023-11-25 16:16:07.741
119.0, 10634.065942056888, 21577.055344230575, -50953.19312252917, -54390.95847498876, -44699.800872779, -54180.159173030755, -32461.080844531163, -12401.440727882473, -0.098, 0.9520000000000001, 0.258, 192.0, 0.0, 0.0, 0.0, 0.0, 0.0, 0.0, 0.0, 0.0, 0.0, 1.700946967745517E9, 0.0, 2023-11-25 16:16:07.745
120.0, 10767.997594833088, 21520.550134247558, -50921.92303203619, -54425.06723702756, -44315.64144082564, -54199.940466873704, -32480.124530807083, -12427.435806683996, -0.098, 0.9520000000000001, 0.258, 192.0, 0.0, 0.0, 0.0, 0.0, 0.0, 0.0, 0.0, 0.0, 0.0, 1.700946967749575E9, 0.0, 2023-11-25 16:16:07.749
121.0, 10556.773609730437, 21462.72617134168, -50912.51294762051, -54411.566783376555, -44483.72655912954, -54458.39368801042, -32440.00314950981, -12383.358166618129, -0.098, 0.9520000000000001, 0.258, 192.0, 0.0, 0.0, 0.0, 0.0, 0.0, 0.0, 0.0, 0.0, 0.0, 1.700946967752512E9, 0.0, 2023-11-25 16:16:07.752
122.0, 10485.628007129193, 21522.941770904275, -50902.92404924918, -54377.07804168201, -44843.92492102682, -54397.41812913634, -32410.78941950672, -12351.037544135756, -0.098, 0.9520000000000001, 0.258, 192.0, 0.0, 0.0, 0.0, 0.0, 0.0, 0.0, 0.0, 0.0, 0.0, 1.700946967756521E9, 0.0, 2023-11-25 16:16:07.756
123.0, 10611.870659812768, 21584.207902456274, -50933.18831124167, -54389.70677729926, -44736.6588993858, -54190.06099582446, -32439.04202449823, -12375.579759547683, -0.098, 0.9520000000000001, 0.258, 192.0, 0.0, 0.0, 0.0, 0.0, 0.0, 0.0, 0.0, 0.0, 0.0, 1.700946967761552E9, 0.0, 2023-11-25 16:16:07.761
124.0, 10756.620556905336, 21536.64339025538, -50918.21264245661, -54432.35390571999, -44400.42160754462, -54178.08046079642, -32463.405425954516, -12412.236620454387, -0.098, 0.9520000000000001, 0.258, 192.0, 0.0, 0.0, 0.0, 0.0, 0.0, 0.0, 0.0, 0.0, 0.0, 1.700946967766563E9, 0.0, 2023-11-25 16:16:07.766
125.0, 10602.326464930353, 21448.44340663474, -50920.80544481343, -54450.995260595715, -44402.433264545594, -54433.96323132077, -32454.442376427935, -12408.25800994134, -0.098, 0.9520000000000001, 0.258, 192.0, 0.0, 0.0, 0.0, 0.0, 0.0, 0.0, 0.0, 0.0, 0.0, 1.700946967772622E9, 0.0, 2023-11-25 16:16:07.772
126.0, 10459.07413471629, 21490.822314122, -50913.3176104209, -54412.84083281051, -44860.21934273474, -54466.12739159196, -32417.092611443117, -12367.488428054861, -0.098, 0.9520000000000001, 0.258, 192.0, 0.0, 0.0, 0.0, 0.0, 0.0, 0.0, 0.0, 0.0, 0.0, 1.700946967775669E9, 0.0, 2023-11-25 16:16:07.775
127.0, 10576.644310551204, 21552.64723928538, -50949.61684341632, -54425.894251572405, -44778.79193768406, -54251.617700054376, -32456.23051598436, -12403.139460461076, -0.10200000000000001, 0.9520000000000001, 0.258, 192.0, 252.0, 208.0, 29.0, 192.0, 8.0, 16.0, 0.0, 0.0, 0.0, 1.70094696777865E9, 0.0, 2023-11-25 16:16:07.778
128.0, 10728.680876336202, 21542.566602536037, -50938.195101999656, -54446.63667042693, -44490.20856502159, -54200.432205251724, -32476.302382505226, -12429.872146829623, -0.10200000000000001, 0.9520000000000001, 0.258, 192.0, 0.0, 0.0, 0.0, 0.0, 0.0, 0.0, 0.0, 0.0, 0.0, 1.700946967782665E9, 0.0, 2023-11-25 16:16:07.782
129.0, 10651.790875409946, 21454.21015670421, -50927.71213385012, -54462.193484567826, -44324.04569674083, -54401.82142279404, -32463.80775735471, -12422.965457792934, -0.10200000000000001, 0.9520000000000001, 0.258, 192.0, 0.0, 0.0, 0.0, 0.0, 0.0, 0.0, 0.0, 0.0, 0.0, 1.700946967785621E9, 0.0, 2023-11-25 16:16:07.785
130.0, 10439.024619939879, 21480.316994228007, -50926.32632569389, -54412.79612932159, -44836.571197101024, -54504.99707519974, -32404.5979862926, -12357.072515138689, -0.10200000000000001, 0.9520000000000001, 0.258, 192.0, 0.0, 0.0, 0.0, 0.0, 0.0, 0.0, 0.0, 0.0, 0.0, 1.700946967789609E9, 0.0, 2023-11-25 16:16:07.789
131.0, 10541.932051412112, 21541.247849613173, -50965.732451168595, -54418.18289973532, -44799.33319083848, -54274.483534632156, -32436.31511167468, -12371.154114145531, -0.10200000000000001, 0.9520000000000001, 0.258, 192.0, 0.0, 0.0, 0.0, 0.0, 0.0, 0.0, 0.0, 0.0, 0.0, 1.70094696779365E9, 0.0, 2023-11-25 16:16:07.793
132.0, 10694.706224764137, 21564.963050480255, -50955.33888999688, -54413.71255084426, -44559.3648623663, -54162.99303328908, -32442.864172800088, -12369.768305989302, -0.10200000000000001, 0.9520000000000001, 0.258, 192.0, 0.0, 0.0, 0.0, 0.0, 0.0, 0.0, 0.0, 0.0, 0.0, 1.700946967796648E9, 0.0, 2023-11-25 16:16:07.796
133.0, 10686.883114204778, 21459.552223629027, -50953.014308573525, -54449.92237686186, -44265.01473963437, -54315.588392685466, -32464.6124201551, -12390.018986465811, -0.10200000000000001, 0.9520000000000001, 0.258, 192.0, 0.0, 0.0, 0.0, 0.0, 0.0, 0.0, 0.0, 0.0, 0.0, 1.700946967800644E9, 0.0, 2023-11-25 16:16:07.800
134.0, 10439.471654828985, 21474.796113347544, -50949.102753293846, -54396.23348668021, -44773.80749867052, -54501.57725829807, -32419.908931244485, -12335.123102083577, -0.10200000000000001, 0.9520000000000001, 0.258, 192.0, 0.0, 0.0, 0.0, 0.0, 0.0, 0.0, 0.0, 0.0, 0.0, 1.700946967804716E9, 0.0, 2023-11-25 16:16:07.804
135.0, 10534.354810041763, 21554.92711721982, -50963.09494532287, -54386.398719119876, -44800.920164694806, -54281.099650990924, -32452.028388026763, -12360.78290471827, -0.10200000000000001, 0.9520000000000001, 0.258, 192.0, 0.0, 0.0, 0.0, 0.0, 0.0, 0.0, 0.0, 0.0, 0.0, 1.700946967808742E9, 0.0, 2023-11-25 16:16:07.808
136.0, 10694.996797442056, 21612.125231280952, -50949.48273294959, -54376.72041377073, -44603.62131638781, -54144.374030157815, -32471.764978380797, -12378.59724504915, -0.10200000000000001, 0.9520000000000001, 0.258, 192.0, 0.0, 0.0, 0.0, 0.0, 0.0, 0.0, 0.0, 0.0, 0.0, 1.700946967812747E9, 0.0, 2023-11-25 16:16:07.812
137.0, 10748.953908557167, 21509.93305563129, -50932.316593207914, -54425.15664400538, -44232.31413749625, -54256.11040068989, -32502.655089218035, -12424.708893860448, -0.108, 0.9500000000000001, 0.254, 192.0, 252.0, 160.0, 29.0, 176.0, 7.0, 240.0, 0.0, 0.0, 0.0, 1.700946967816666E9, 0.0, 2023-11-25 16:16:07.816
138.0, 10474.340376179263, 21480.7193256282, -50936.585776398875, -54397.75340530317, -44671.257695109576, -54500.95140945332, -32455.04587352823, -12379.133686916077, -0.108, 0.9500000000000001, 0.254, 192.0, 0.0, 0.0, 0.0, 0.0, 0.0, 0.0, 0.0, 0.0, 0.0, 1.700946967821732E9, 0.0, 2023-11-25 16:16:07.821
139.0, 10510.03611207439, 21543.728893247713, -50947.94046258217, -54386.21990516423, -44813.54890031206, -54322.495081722154, -32460.633809642055, -12382.441745095462, -0.108, 0.9500000000000001, 0.254, 192.0, 0.0, 0.0, 0.0, 0.0, 0.0, 0.0, 0.0, 0.0, 0.0, 1.700946967824702E9, 0.0, 2023-11-25 16:16:07.824
140.0, 10661.469180759095, 21614.159240026383, -50936.295203720954, -54364.73987874269, -44658.5395525145, -54151.370126172325, -32455.89523981753, -12376.272663625798, -0.108, 0.9500000000000001, 0.254, 192.0, 0.0, 0.0, 0.0, 0.0, 0.0, 0.0, 0.0, 0.0, 0.0, 1.700946967828725E9, 0.0, 2023-11-25 16:16:07.828
141.0, 10771.730336157125, 21524.372282549415, -50916.02217149999, -54411.343265932, -44259.896190154104, -54205.21547856516, -32477.062341816705, -12410.627294853604, -0.108, 0.9500000000000001, 0.254, 192.0, 0.0, 0.0, 0.0, 0.0, 0.0, 0.0, 0.0, 0.0, 0.0, 1.700946967832753E9, 0.0, 2023-11-25 16:16:07.832
142.0, 10520.921411624124, 21472.382124946373, -50918.547918623444, -54394.512402357155, -44562.62821705678, -54468.78724918214, -32440.8078123102, -12366.236730365365, -0.108, 0.9500000000000001, 0.254, 192.0, 0.0, 0.0, 0.0, 0.0, 0.0, 0.0, 0.0, 0.0, 0.0, 1.700946967836751E9, 0.0, 2023-11-25 16:16:07.836
143.0, 10507.130385295199, 21532.329503575507, -50920.716037835606, -54376.608655048454, -44820.410885859834, -54349.56304425753, -32431.397727894513, -12355.977279660377, -0.108, 0.9500000000000001, 0.254, 192.0, 0.0, 0.0, 0.0, 0.0, 0.0, 0.0, 0.0, 0.0, 0.0, 1.700946967840799E9, 0.0, 2023-11-25 16:16:07.840
144.0, 10639.273898514975, 21597.350728195994, -50938.10569502183, -54378.46384983824, -44694.168233176264, -54166.85988507985, -32450.061434514697, -12370.058878667222, -0.108, 0.9500000000000001, 0.254, 192.0, 0.0, 0.0, 0.0, 0.0, 0.0, 0.0, 0.0, 0.0, 0.0, 1.700946967844814E9, 0.0, 2023-11-25 16:16:07.844
145.0, 10781.118068828353, 21550.747341006678, -50899.034845713955, -54403.67661758383, -44311.46166461249, -54176.06880379544, -32460.18677475295, -12384.587512563172, -0.108, 0.9500000000000001, 0.254, 192.0, 0.0, 0.0, 0.0, 0.0, 0.0, 0.0, 0.0, 0.0, 0.0, 1.700946967849769E9, 0.0, 2023-11-25 16:16:07.849
146.0, 10577.717194285058, 21480.54051167256, -50898.45370035812, -54402.78254780562, -44451.450640136085, -54436.95836507778, -32433.632902340047, -12356.312555827208, -0.108, 0.9500000000000001, 0.254, 192.0, 0.0, 0.0, 0.0, 0.0, 0.0, 0.0, 0.0, 0.0, 0.0, 1.700946967852793E9, 0.0, 2023-11-25 16:16:07.852
147.0, 10481.515286149417, 21521.958294148244, -50905.06981671689, -54384.99055921919, -44834.760705800145, -54400.88264952692, -32412.5999108076, -12330.876270637069, -0.11, 0.9460000000000001, 0.25, 192.0, 252.0, 144.0, 29.0, 144.0, 7.0, 208.0, 0.0, 0.0, 0.0, 1.70094696785675E9, 0.0, 2023-11-25 16:16:07.856
148.0, 10612.138880746232, 21598.669481118857, -50924.44877915964, -54383.40358536287, -44727.76290509259, -54187.13291730081, -32427.396765637015, -12341.49334925334, -0.11, 0.9460000000000001, 0.25, 192.0, 0.0, 0.0, 0.0, 0.0, 0.0, 0.0, 0.0, 0.0, 0.0, 1.700946967860816E9, 0.0, 2023-11-25 16:16:07.860
149.0, 10755.994708060589, 21554.256564886164, -50919.665505846206, -54426.00601029468, -44393.26904931892, -54168.31274846945, -32466.33350447816, -12388.409660865029, -0.11, 0.9460000000000001, 0.25, 192.0, 0.0, 0.0, 0.0, 0.0, 0.0, 0.0, 0.0, 0.0, 0.0, 1.700946967864769E9, 0.0, 2023-11-25 16:16:07.864
150.0, 10612.585915635338, 21457.697028839237, -50928.62855537279, -54447.50838846069, -44365.28466526087, -54416.595925878995, -32464.992399810842, -12388.49906784285, -0.11, 0.9460000000000001, 0.25, 192.0, 0.0, 0.0, 0.0, 0.0, 0.0, 0.0, 0.0, 0.0, 0.0, 1.70094696786884E9, 0.0, 2023-11-25 16:16:07.868
151.0, 10449.261718900409, 21500.165343304318, -50928.13681699477, -54408.23637345271, -44838.44874363527, -54462.5064089902, -32422.79230627922, -12346.366029544597, -0.11, 0.9460000000000001, 0.25, 192.0, 0.0, 0.0, 0.0, 0.0, 0.0, 0.0, 0.0, 0.0, 0.0, 1.700946967872886E9, 0.0, 2023-11-25 16:16:07.872
152.0, 10573.000976204989, 21584.92315827884, -50944.09596253586, -54395.31706515754, -44766.81140265601, -54230.18237712174, -32423.306396401695, -12351.0151923913, -0.11, 0.9460000000000001, 0.25, 192.0, 0.0, 0.0, 0.0, 0.0, 0.0, 0.0, 0.0, 0.0, 0.0, 1.700946967877847E9, 0.0, 2023-11-25 16:16:07.877
153.0, 10732.257155449051, 21579.35757390947, -50932.60716588583, -54414.80778632257, -44482.36310271777, -54164.1329722563, -32442.260675699792, -12375.579759547683, -0.11, 0.9460000000000001, 0.25, 192.0, 0.0, 0.0, 0.0, 0.0, 0.0, 0.0, 0.0, 0.0, 0.0, 1.7009469678808E9, 0.0, 2023-11-25 16:16:07.880
154.0, 10673.092087875853, 21476.9195290708, -50932.00366878554, -54443.999164581204, -44292.328571358754, -54367.109163654946, -32454.777652594767, -12390.846001010657, -0.11, 0.9460000000000001, 0.25, 192.0, 0.0, 0.0, 0.0, 0.0, 0.0, 0.0, 0.0, 0.0, 0.0, 1.700946967884848E9, 0.0, 2023-11-25 16:16:07.884
155.0, 10446.490102587952, 21486.597834419947, -50941.16788401221, -54411.00798976517, -44819.650926548355, -54501.331389109066, -32419.26073065528, -12355.172616859987, -0.11, 0.9460000000000001, 0.25, 192.0, 0.0, 0.0, 0.0, 0.0, 0.0, 0.0, 0.0, 0.0, 0.0, 1.700946967888829E9, 0.0, 2023-11-25 16:16:07.888
156.0, 10549.732810227015, 21556.536442820605, -50964.52545696801, -54410.33743743151, -44801.94834493975, -54278.663310845295, -32440.00314950981, -12378.35137586014, -0.11, 0.9460000000000001, 0.25, 192.0, 0.0, 0.0, 0.0, 0.0, 0.0, 0.0, 0.0, 0.0, 0.0, 1.700946967892863E9, 0.0, 2023-11-25 16:16:07.892
157.0, 10709.257210404541, 21584.543178623102, -50949.3262707384, -54409.62218160894, -44570.987769483065, -54169.3856322033, -32452.430719426957, -12390.801297521746, -0.108, 0.9460000000000001, 0.248, 192.0, 252.0, 160.0, 29.0, 144.0, 7.0, 192.0, 0.0, 0.0, 0.0, 1.700946967896938E9, 0.0, 2023-11-25 16:16:07.896
158.0, 10714.196945929163, 21486.01668906411, -50937.144570010256, -54443.32861224755, -44256.47637325244, -54317.689456664266, -32472.636696414556, -12414.091815244177, -0.108, 0.9460000000000001, 0.248, 192.0, 0.0, 0.0, 0.0, 0.0, 0.0, 0.0, 0.0, 0.0, 0.0, 1.700946967900911E9, 0.0, 2023-11-25 16:16:07.900
159.0, 10461.041088228356, 21487.35779373143, -50936.295203720954, -54396.97109424724, -44750.80755362601, -54509.55683106862, -32426.949730747907, -12359.039468650755, -0.108, 0.9460000000000001, 0.248, 192.0, 0.0, 0.0, 0.0, 0.0, 0.0, 0.0, 0.0, 0.0, 0.0, 1.700946967905951E9, 0.0, 2023-11-25 16:16:07.905
160.0, 10535.1371210977, 21552.87075672993, -50960.502142966056, -54392.72426280073, -44805.39051358587, -54303.87607859088, -32460.85732708661, -12384.766326518813, -0.108, 0.9460000000000001, 0.248, 192.0, 0.0, 0.0, 0.0, 0.0, 0.0, 0.0, 0.0, 0.0, 0.0, 1.700946967908918E9, 0.0, 2023-11-25 16:16:07.908
161.0, 10689.341806094862, 21617.400242972406, -50944.29712823596, -54371.75832650165, -44627.35886899935, -54160.3331756989, -32468.076940545674, -12383.0228904513, -0.108, 0.9460000000000001, 0.248, 192.0, 0.0, 0.0, 0.0, 0.0, 0.0, 0.0, 0.0, 0.0, 0.0, 1.700946967912934E9, 0.0, 2023-11-25 16:16:07.912
162.0, 10768.019946577544, 21528.663817484834, -50920.4701686466, -54410.53860313161, -44239.17612304403, -54253.4058396108, -32493.91555713601, -12413.354207677152, -0.108, 0.9460000000000001, 0.248, 192.0, 0.0, 0.0, 0.0, 0.0, 0.0, 0.0, 0.0, 0.0, 0.0, 1.700946967916895E9, 0.0, 2023-11-25 16:16:07.916
163.0, 10502.928257337602, 21504.121602072908, -50919.397284912746, -54378.083870182505, -44647.87777040932, -54497.82216522958, -32443.914704789488, -12362.503989041328, -0.108, 0.9460000000000001, 0.248, 192.0, 0.0, 0.0, 0.0, 0.0, 0.0, 0.0, 0.0, 0.0, 0.0, 1.700946967920918E9, 0.0, 2023-11-25 16:16:07.920
164.0, 10537.41699903214, 21571.690925561303, -50924.85111055984, -54363.868160708924, -44807.6256880314, -54325.04318059006, -32448.876792058563, -12364.135666386566, -0.108, 0.9460000000000001, 0.248, 192.0, 0.0, 0.0, 0.0, 0.0, 0.0, 0.0, 0.0, 0.0, 0.0, 1.700946967925045E9, 0.0, 2023-11-25 16:16:07.925
165.0, 10674.455544287628, 21632.04063559063, -50936.74223861006, -54362.974090930715, -44658.98658740361, -54156.175751230214, -32470.066245802194, -12378.731355515882, -0.108, 0.9460000000000001, 0.248, 192.0, 0.0, 0.0, 0.0, 0.0, 0.0, 0.0, 0.0, 0.0, 0.0, 1.700946967928974E9, 0.0, 2023-11-25 16:16:07.928
166.0, 10781.095717083897, 21545.87466071542, -50917.74325582305, -54411.231507209726, -44257.3480912862, -54209.28349605602, -32501.761019439822, -12417.086949001188, -0.108, 0.9460000000000001, 0.248, 192.0, 0.0, 0.0, 0.0, 0.0, 0.0, 0.0, 0.0, 0.0, 0.0, 1.70094696793492E9, 0.0, 2023-11-25 16:16:07.934
167.0, 10541.105036867266, 21497.30432001404, -50916.13393022227, -54391.87489651143, -44532.72158297558, -54474.03990912913, -32458.577449152166, -12370.97530018989, -0.1, 0.9540000000000001, 0.25, 192.0, 252.0, 224.0, 29.0, 208.0, 7.0, 208.0, 0.0, 0.0, 0.0, 1.700946967936922E9, 0.0, 2023-11-25 16:16:07.936
168.0, 10513.679446420605, 21562.705524290268, -50911.37300865329, -54362.638814763886, -44813.95123171225, -54363.15290488636, -32434.996358751818, -12348.690610967948, -0.1, 0.9540000000000001, 0.25, 192.0, 0.0, 0.0, 0.0, 0.0, 0.0, 0.0, 0.0, 0.0, 0.0, 1.700946967940987E9, 0.0, 2023-11-25 16:16:07.940
169.0, 10646.87349162978, 21635.303990281107, -50920.6713343467, -54356.55914027204, -44691.28485814153, -54165.138800756795, -32438.907914031497, -12352.177483102976, -0.1, 0.9540000000000001, 0.25, 192.0, 0.0, 0.0, 0.0, 0.0, 0.0, 0.0, 0.0, 0.0, 0.0, 1.700946967945057E9, 0.0, 2023-11-25 16:16:07.945
170.0, 10778.949949616188, 21562.97374522373, -50906.1650521952, -54411.11974848744, -44317.94367050454, -54178.259274752054, -32474.268373759794, -12397.9762074919, -0.1, 0.9540000000000001, 0.25, 192.0, 0.0, 0.0, 0.0, 0.0, 0.0, 0.0, 0.0, 0.0, 0.0, 1.700946967948991E9, 0.0, 2023-11-25 16:16:07.948
171.0, 10580.868790253257, 21489.123581543397, -50905.22627892808, -54414.24899271119, -44432.853988749266, -54444.80382738159, -32448.452108913913, -12368.561311788717, -0.1, 0.9540000000000001, 0.25, 192.0, 0.0, 0.0, 0.0, 0.0, 0.0, 0.0, 0.0, 0.0, 0.0, 1.700946967952995E9, 0.0, 2023-11-25 16:16:07.952
172.0, 10484.59982688425, 21545.852308970967, -50899.43717711415, -54383.91767548534, -44839.4322203913, -54417.378236934936, -32418.813695766177, -12334.407846261007, -0.1, 0.9540000000000001, 0.25, 192.0, 0.0, 0.0, 0.0, 0.0, 0.0, 0.0, 0.0, 0.0, 0.0, 1.700946967957017E9, 0.0, 2023-11-25 16:16:07.957
173.0, 10613.234116224541, 21621.71412965228, -50920.80544481343, -54384.67763479682, -44740.61515815439, -54203.47204249764, -32433.744661062323, -12345.181387088465, -0.1, 0.9540000000000001, 0.25, 192.0, 0.0, 0.0, 0.0, 0.0, 0.0, 0.0, 0.0, 0.0, 0.0, 1.700946967962068E9, 0.0, 2023-11-25 16:16:07.962
174.0, 10770.590397189904, 21592.679213604835, -50905.807424283914, -54413.06435025506, -44410.01050591595, -54167.82101009143, -32454.285914216747, -12378.373727604596, -0.1, 0.9540000000000001, 0.25, 192.0, 0.0, 0.0, 0.0, 0.0, 0.0, 0.0, 0.0, 0.0, 0.0, 1.70094696796504E9, 0.0, 2023-11-25 16:16:07.965
175.0, 10643.990116595045, 21493.63863392337, -50917.18446221167, -54431.88451908642, -44350.10783077572, -54404.5930391065, -32457.862193329598, -12382.665262540015, -0.1, 0.9540000000000001, 0.25, 192.0, 0.0, 0.0, 0.0, 0.0, 0.0, 0.0, 0.0, 0.0, 0.0, 1.700946967968004E9, 0.0, 2023-11-25 16:16:07.968
176.0, 10472.64164360066, 21535.682265243802, -50918.63732560126, -54385.72816678622, -44837.30880466805, -54462.08172584555, -32415.818562009164, -12336.575965473172, -0.1, 0.9540000000000001, 0.25, 192.0, 0.0, 0.0, 0.0, 0.0, 0.0, 0.0, 0.0, 0.0, 0.0, 1.700946967972201E9, 0.0, 2023-11-25 16:16:07.972
177.0, 10597.00674974999, 21615.053309804596, -50940.4749799341, -54377.21215214874, -44769.5159637351, -54226.807263708986, -32434.32580641816, -12350.948137157935, -0.108, 0.962, 0.256, 192.0, 252.0, 160.0, 30.0, 16.0, 8.0, 0.0, 0.0, 0.0, 0.0, 1.700946967977032E9, 0.0, 2023-11-25 16:16:07.977
178.0, 10754.295975481984, 21615.27682724915, -50927.06393326091, -54390.15381218837, -44491.929649344645, -54147.033887747995, -32455.202335739417, -12369.83536122267, -0.108, 0.962, 0.256, 192.0, 0.0, 0.0, 0.0, 0.0, 0.0, 0.0, 0.0, 0.0, 0.0, 1.70094696798106E9, 0.0, 2023-11-25 16:16:07.981
179.0, 10696.941399209667, 21505.462706740225, -50925.83458731587, -54424.843719583005, -44268.836887936224, -54337.85073016295, -32463.584239910157, -12380.944178216956, -0.108, 0.962, 0.256, 192.0, 0.0, 0.0, 0.0, 0.0, 0.0, 0.0, 0.0, 0.0, 0.0, 1.700946967985097E9, 0.0, 2023-11-25 16:16:07.985
180.0, 10462.87393127369, 21516.392709778873, -50928.69561060615, -54385.37053887493, -44793.63349600238, -54481.952426666314, -32419.439544610927, -12332.507947982305, -0.108, 0.962, 0.256, 192.0, 0.0, 0.0, 0.0, 0.0, 0.0, 0.0, 0.0, 0.0, 0.0, 1.700946967989138E9, 0.0, 2023-11-25 16:16:07.989
181.0, 10564.864941223257, 21587.314794935563, -50953.84132311837, -54385.30348364157, -44787.68793197727, -54258.43498211324, -32445.18875422344, -12355.530244771273, -0.108, 0.962, 0.256, 192.0, 0.0, 0.0, 0.0, 0.0, 0.0, 0.0, 0.0, 0.0, 0.0, 1.700946967993077E9, 0.0, 2023-11-25 16:16:07.993
182.0, 10717.616762830827, 21614.494516193216, -50944.56534916942, -54389.30444589907, -44571.479507861084, -54147.41386740373, -32461.080844531163, -12375.646814781048, -0.108, 0.962, 0.256, 192.0, 0.0, 0.0, 0.0, 0.0, 0.0, 0.0, 0.0, 0.0, 0.0, 1.700946967996134E9, 0.0, 2023-11-25 16:16:07.996
183.0, 10725.216355945631, 21498.891293870365, -50939.2232822446, -54440.31112674608, -44243.31119576826, -54296.902334320825, -32488.305269277727, -12415.567030378226, -0.108, 0.962, 0.256, 192.0, 0.0, 0.0, 0.0, 0.0, 0.0, 0.0, 0.0, 0.0, 0.0, 1.700946968000177E9, 0.0, 2023-11-25 16:16:08.000
184.0, 10457.330698648775, 21493.05748856753, -50932.04837227445, -54395.92056225784, -44738.31292847549, -54508.12631942348, -32434.862248285088, -12357.83247445017, -0.108, 0.962, 0.256, 192.0, 0.0, 0.0, 0.0, 0.0, 0.0, 0.0, 0.0, 0.0, 0.0, 1.700946968005153E9, 0.0, 2023-11-25 16:16:08.005
185.0, 10527.403417516163, 21559.6880387888, -50944.25242474704, -54388.09745169848, -44810.79963574406, -54305.77597686958, -32443.89235304503, -12365.677936753982, -0.108, 0.962, 0.256, 192.0, 0.0, 0.0, 0.0, 0.0, 0.0, 0.0, 0.0, 0.0, 0.0, 1.700946968009186E9, 0.0, 2023-11-25 16:16:08.009
186.0, 10676.400146055239, 21616.707338894288, -50934.909395564726, -54380.319044628035, -44639.004127860564, -54155.72871634111, -32435.71161457439, -12366.102619898633, -0.108, 0.962, 0.256, 192.0, 0.0, 0.0, 0.0, 0.0, 0.0, 0.0, 0.0, 0.0, 0.0, 1.700946968013143E9, 0.0, 2023-11-25 16:16:08.013
187.0, 10749.669164379737, 21509.664834697825, -50931.53428215197, -54443.17215003636, -44251.80485866128, -54255.19397916723, -32479.47633021788, -12418.830385068703, -0.11, 0.9540000000000001, 0.26, 192.0, 252.0, 144.0, 29.0, 208.0, 8.0, 32.0, 0.0, 0.0, 0.0, 1.700946968017129E9, 0.0, 2023-11-25 16:16:08.017
188.0, 10481.135306493677, 21470.884558067868, -50945.30295673644, -54426.25187948369, -44652.90691291176, -54514.943601482344, -32445.479326901357, -12379.893646227556, -0.11, 0.9540000000000001, 0.26, 192.0, 0.0, 0.0, 0.0, 0.0, 0.0, 0.0, 0.0, 0.0, 0.0, 1.700946968021127E9, 0.0, 2023-11-25 16:16:08.021
189.0, 10502.324760237309, 21536.330465833005, -50958.64694817626, -54418.47347241324, -44845.176618716316, -54359.10723913995, -32444.831126312154, -12380.787716005769, -0.11, 0.9540000000000001, 0.26, 192.0, 0.0, 0.0, 0.0, 0.0, 0.0, 0.0, 0.0, 0.0, 0.0, 1.70094696802417E9, 0.0, 2023-11-25 16:16:08.024
190.0, 10640.480892715561, 21602.849257332, -50969.3310820259, -54415.478338656234, -44711.33437291794, -54189.05516732397, -32460.075016030674, -12391.360091133129, -0.11, 0.9540000000000001, 0.26, 192.0, 0.0, 0.0, 0.0, 0.0, 0.0, 0.0, 0.0, 0.0, 0.0, 1.700946968028334E9, 0.0, 2023-11-25 16:16:08.028
191.0, 10764.667184909247, 21528.373244806917, -50949.88506434978, -54461.81350491208, -44312.35573439071, -54233.24456611211, -32488.171158810994, -12431.682638130504, -0.11, 0.9540000000000001, 0.26, 192.0, 0.0, 0.0, 0.0, 0.0, 0.0, 0.0, 0.0, 0.0, 0.0, 1.70094696803322E9, 0.0, 2023-11-25 16:16:08.033
192.0, 10530.912641395646, 21475.041982536553, -50949.929767838694, -54446.502559960194, -44560.571856566894, -54502.40427284292, -32448.340350191636, -12390.26485565482, -0.11, 0.9540000000000001, 0.26, 192.0, 0.0, 0.0, 0.0, 0.0, 0.0, 0.0, 0.0, 0.0, 0.0, 1.700946968037241E9, 0.0, 2023-11-25 16:16:08.037
193.0, 10495.216905500522, 21536.151651877364, -50943.715982880116, -54415.52304214514, -44857.35831944446, -54397.70870181426, -32430.41425113848, -12368.918939700001, -0.11, 0.9540000000000001, 0.26, 192.0, 0.0, 0.0, 0.0, 0.0, 0.0, 0.0, 0.0, 0.0, 0.0, 1.700946968041224E9, 0.0, 2023-11-25 16:16:08.041
194.0, 10622.890069829235, 21598.31185320757, -50964.681919179195, -54417.46764391275, -44734.311966217996, -54191.04447258049, -32453.548306649725, -12386.889742242069, -0.11, 0.9540000000000001, 0.26, 192.0, 0.0, 0.0, 0.0, 0.0, 0.0, 0.0, 0.0, 0.0, 0.0, 1.700946968044214E9, 0.0, 2023-11-25 16:16:08.044
195.0, 10760.263891251552, 21532.754186720158, -50947.26991024851, -54461.94761537881, -44362.71421464851, -54192.117356314346, -32489.19933905594, -12426.31821946123, -0.11, 0.9540000000000001, 0.26, 192.0, 0.0, 0.0, 0.0, 0.0, 0.0, 0.0, 0.0, 0.0, 0.0, 1.700946968048313E9, 0.0, 2023-11-25 16:16:08.048
196.0, 10576.823124506847, 21457.071179994487, -50940.05029678945, -54456.67260368736, -44433.16691317164, -54442.814522125074, -32463.71835037689, -12395.919847002013, -0.11, 0.9540000000000001, 0.26, 192.0, 0.0, 0.0, 0.0, 0.0, 0.0, 0.0, 0.0, 0.0, 0.0, 1.700946968052263E9, 0.0, 2023-11-25 16:16:08.052
197.0, 10458.69415506055, 21498.176038047797, -50941.16788401221, -54424.10611201598, -44845.91422628334, -54424.44138818281, -32432.89529477302, -12362.436933807961, -0.108, 0.9480000000000001, 0.26, 192.0, 252.0, 160.0, 29.0, 160.0, 8.0, 32.0, 0.0, 0.0, 0.0, 1.700946968056269E9, 0.0, 2023-11-25 16:16:08.056
198.0, 10583.930979243634, 21581.88332103292, -50952.522570195506, -54409.42101590884, -44753.69092866075, -54200.96864711865, -32439.489059387335, -12368.628367022082, -0.108, 0.9480000000000001, 0.26, 192.0, 0.0, 0.0, 0.0, 0.0, 0.0, 0.0, 0.0, 0.0, 0.0, 1.700946968060303E9, 0.0, 2023-11-25 16:16:08.060
199.0, 10746.338754455895, 21563.97957372422, -50923.510005892516, -54425.67073412785, -44424.69560202308, -54146.676259836706, -32456.05170202872, -12389.236675409875, -0.108, 0.9480000000000001, 0.26, 192.0, 0.0, 0.0, 0.0, 0.0, 0.0, 0.0, 0.0, 0.0, 0.0, 1.70094696806528E9, 0.0, 2023-11-25 16:16:08.065
200.0, 10639.96680259309, 21467.889424310855, -50916.80448255593, -54437.919490089356, -44320.89410077263, -54367.35503284395, -32442.350082677614, -12382.732317773382, -0.108, 0.9480000000000001, 0.26, 192.0, 0.0, 0.0, 0.0, 0.0, 0.0, 0.0, 0.0, 0.0, 0.0, 1.700946968069304E9, 0.0, 2023-11-25 16:16:08.069
201.0, 10459.40941088312, 21503.518104972616, -50912.84822378734, -54390.33262614401, -44816.96871721372, -54438.00889706718, -32397.870111211552, -12337.06770385119, -0.108, 0.9480000000000001, 0.26, 192.0, 0.0, 0.0, 0.0, 0.0, 0.0, 0.0, 0.0, 0.0, 0.0, 1.700946968072274E9, 0.0, 2023-11-25 16:16:08.072
202.0, 10579.058298952377, 21581.972728010744, -50935.64700313175, -54384.74469003019, -44756.55195195103, -54205.461347754164, -32422.859361512586, -12354.792637204248, -0.108, 0.9480000000000001, 0.26, 192.0, 0.0, 0.0, 0.0, 0.0, 0.0, 0.0, 0.0, 0.0, 0.0, 1.700946968076293E9, 0.0, 2023-11-25 16:16:08.076
203.0, 10731.273678693018, 21586.197207712798, -50929.097942006345, -54404.14600421739, -44493.740140645525, -54131.81234977393, -32456.498736917823, -12389.661358554526, -0.108, 0.9480000000000001, 0.26, 192.0, 0.0, 0.0, 0.0, 0.0, 0.0, 0.0, 0.0, 0.0, 0.0, 1.7009469680803E9, 0.0, 2023-11-25 16:16:08.080
204.0, 10698.01428294352, 21483.110962284918, -50922.258308203025, -54438.83591161203, -44254.04003310681, -54323.545613711554, -32478.112873806105, -12420.17148973602, -0.108, 0.9480000000000001, 0.26, 192.0, 0.0, 0.0, 0.0, 0.0, 0.0, 0.0, 0.0, 0.0, 0.0, 1.700946968084309E9, 0.0, 2023-11-25 16:16:08.084
205.0, 10474.876818046192, 21517.68911095728, -50900.241839914546, -54370.95366370126, -44774.25453355963, -54470.910664905394, -32409.98475670633, -12352.0657243807, -0.108, 0.9480000000000001, 0.26, 192.0, 0.0, 0.0, 0.0, 0.0, 0.0, 0.0, 0.0, 0.0, 0.0, 1.700946968088309E9, 0.0, 2023-11-25 16:16:08.088
206.0, 10575.70553728408, 21596.546065395603, -50921.341886680355, -54365.92452119882, -44772.533449236566, -54238.27370861456, -32430.41425113848, -12370.438858322961, -0.108, 0.9480000000000001, 0.26, 192.0, 0.0, 0.0, 0.0, 0.0, 0.0, 0.0, 0.0, 0.0, 0.0, 1.70094696809358E9, 0.0, 2023-11-25 16:16:08.093
207.0, 10724.45639663415, 21627.503231466202, -50918.83849130136, -54375.02168119213, -44564.3716531243, -54128.23607066108, -32455.738777606344, -12396.12101270211, -0.096, 0.9480000000000001, 0.256, 192.0, 253.0, 0.0, 29.0, 160.0, 8.0, 0.0, 0.0, 0.0, 0.0, 1.700946968097406E9, 0.0, 2023-11-25 16:16:08.097
208.0, 10751.613766147348, 21516.616227223425, -50910.993028997545, -54426.85537658398, -44225.09452403719, -54270.974310752674, -32487.34414426615, -12438.611678911648, -0.096, 0.9480000000000001, 0.256, 192.0, 0.0, 0.0, 0.0, 0.0, 0.0, 0.0, 0.0, 0.0, 0.0, 1.700946968100417E9, 0.0, 2023-11-25 16:16:08.100
209.0, 10497.608542157239, 21523.344102304472, -50892.86576424429, -54370.305463112054, -44698.88445125633, -54478.26438883119, -32412.398745107505, -12365.432067564972, -0.096, 0.9480000000000001, 0.256, 192.0, 0.0, 0.0, 0.0, 0.0, 0.0, 0.0, 0.0, 0.0, 0.0, 1.700946968104431E9, 0.0, 2023-11-25 16:16:08.104
210.0, 10566.56367380186, 21593.014489771664, -50906.63443882876, -54363.06349790854, -44783.798728442045, -54271.957787508705, -32421.160628933983, -12375.982090947879, -0.096, 0.9480000000000001, 0.256, 192.0, 0.0, 0.0, 0.0, 0.0, 0.0, 0.0, 0.0, 0.0, 0.0, 1.700946968108402E9, 0.0, 2023-11-25 16:16:08.108
211.0, 10695.242666631064, 21633.828775147056, -50921.78892156946, -54374.865218980936, -44617.83702586139, -54131.52177709601, -32446.351044935116, -12397.082137713687, -0.096, 0.9480000000000001, 0.256, 192.0, 0.0, 0.0, 0.0, 0.0, 0.0, 0.0, 0.0, 0.0, 0.0, 1.700946968112414E9, 0.0, 2023-11-25 16:16:08.112
212.0, 10772.177371046231, 21533.290628587085, -50909.048427229936, -54426.76596960616, -44227.64262290509, -54220.213499094665, -32482.42676048598, -12437.382332966607, -0.096, 0.9480000000000001, 0.256, 192.0, 0.0, 0.0, 0.0, 0.0, 0.0, 0.0, 0.0, 0.0, 0.0, 1.700946968116369E9, 0.0, 2023-11-25 16:16:08.116
213.0, 10509.343207996275, 21500.031232837588, -50905.00276148353, -54391.427861622324, -44604.8283105884, -54469.92718814936, -32426.927379003453, -12378.016099693312, -0.096, 0.9480000000000001, 0.256, 192.0, 0.0, 0.0, 0.0, 0.0, 0.0, 0.0, 0.0, 0.0, 0.0, 1.700946968120497E9, 0.0, 2023-11-25 16:16:08.120
214.0, 10521.591963957782, 21557.274050387627, -50918.749084323535, -54382.37540511792, -44810.374952599406, -54321.98099159968, -32427.597931337114, -12378.373727604596, -0.096, 0.9480000000000001, 0.256, 192.0, 0.0, 0.0, 0.0, 0.0, 0.0, 0.0, 0.0, 0.0, 0.0, 1.700946968126795E9, 0.0, 2023-11-25 16:16:08.126
215.0, 10645.711200918104, 21615.902676093898, -50935.535244409475, -54382.91184698485, -44683.953485960184, -54152.62182386182, -32446.395748424027, -12395.293998157264, -0.096, 0.9480000000000001, 0.256, 192.0, 0.0, 0.0, 0.0, 0.0, 0.0, 0.0, 0.0, 0.0, 0.0, 1.700946968128478E9, 0.0, 2023-11-25 16:16:08.128
216.0, 10768.534036700015, 21534.430567554304, -50912.959982509616, -54427.637687639915, -44282.06912065377, -54190.77625164703, -32477.44232147245, -12432.800225353269, -0.096, 0.9480000000000001, 0.256, 192.0, 0.0, 0.0, 0.0, 0.0, 0.0, 0.0, 0.0, 0.0, 0.0, 1.700946968132464E9, 0.0, 2023-11-25 16:16:08.132
217.0, 10543.519025268439, 21482.820389607, -50909.49546211904, -54409.93510603131, -44496.869384869264, -54458.483094988245, -32441.724233832865, -12392.611788822627, -0.1, 0.9560000000000001, 0.256, 192.0, 252.0, 224.0, 29.0, 224.0, 8.0, 0.0, 0.0, 0.0, 0.0, 1.70094696813647E9, 0.0, 2023-11-25 16:16:08.136
218.0, 10496.200382256555, 21553.094274174488, -50906.947363251136, -54377.83800099349, -44818.84626374797, -54373.72528001372, -32425.206294680393, -12370.394154834052, -0.1, 0.9560000000000001, 0.256, 192.0, 0.0, 0.0, 0.0, 0.0, 0.0, 0.0, 0.0, 0.0, 0.0, 1.700946968140459E9, 0.0, 2023-11-25 16:16:08.140
219.0, 10627.650991398215, 21626.676216921358, -50926.48278790507, -54373.99350094718, -44705.768788548565, -54170.21264674815, -32444.920533289976, -12380.653605539037, -0.1, 0.9560000000000001, 0.256, 192.0, 0.0, 0.0, 0.0, 0.0, 0.0, 0.0, 0.0, 0.0, 0.0, 1.700946968144545E9, 0.0, 2023-11-25 16:16:08.144
220.0, 10775.150153058787, 21576.13892270791, -50902.65582831572, -54409.6445333534, -44345.05633652882, -54156.77924833051, -32466.53467017826, -12408.88385878609, -0.1, 0.9560000000000001, 0.256, 192.0, 0.0, 0.0, 0.0, 0.0, 0.0, 0.0, 0.0, 0.0, 0.0, 1.700946968148651E9, 0.0, 2023-11-25 16:16:08.148
221.0, 10600.448918396107, 21488.54243618756, -50910.233069686066, -54422.183861992824, -44393.26904931892, -54411.76794907665, -32455.38114969506, -12394.556390590238, -0.1, 0.9560000000000001, 0.256, 192.0, 0.0, 0.0, 0.0, 0.0, 0.0, 0.0, 0.0, 0.0, 0.0, 1.700946968153518E9, 0.0, 2023-11-25 16:16:08.153
222.0, 10471.054669744333, 21530.295494830072, -50911.93180226467, -54386.84575400898, -44828.14458944137, -54409.71158858676, -32424.714556302377, -12355.68670698246, -0.1, 0.9560000000000001, 0.256, 192.0, 0.0, 0.0, 0.0, 0.0, 0.0, 0.0, 0.0, 0.0, 0.0, 1.700946968156514E9, 0.0, 2023-11-25 16:16:08.156
223.0, 10592.46934562556, 21606.492591678216, -50927.26509896101, -54376.47454458172, -44741.39746921033, -54181.34381548689, -32432.962350006386, -12358.055991894722, -0.1, 0.9560000000000001, 0.256, 192.0, 0.0, 0.0, 0.0, 0.0, 0.0, 0.0, 0.0, 0.0, 0.0, 1.700946968160497E9, 0.0, 2023-11-25 16:16:08.160
224.0, 10746.785789345002, 21583.246777444696, -50910.07660747488, -54405.062425740056, -44425.07558167882, -54127.029076460494, -32455.13528050605, -12386.35330037514, -0.1, 0.9560000000000001, 0.256, 192.0, 0.0, 0.0, 0.0, 0.0, 0.0, 0.0, 0.0, 0.0, 0.0, 1.700946968165511E9, 0.0, 2023-11-25 16:16:08.165
225.0, 10654.003698111022, 21487.469552453706, -50906.12034870629, -54426.63185913943, -44298.29648712832, -54347.81960819002, -32453.28008571626, -12384.92278873, -0.1, 0.9560000000000001, 0.256, 192.0, 0.0, 0.0, 0.0, 0.0, 0.0, 0.0, 0.0, 0.0, 0.0, 1.70094696816849E9, 0.0, 2023-11-25 16:16:08.168
226.0, 10467.567797609307, 21527.367416306428, -50896.64320905724, -54375.1334399144, -44798.86380420492, -54429.09055102951, -32404.799151992698, -12324.528375211761, -0.1, 0.9560000000000001, 0.256, 192.0, 0.0, 0.0, 0.0, 0.0, 0.0, 0.0, 0.0, 0.0, 0.0, 1.700946968172531E9, 0.0, 2023-11-25 16:16:08.172
227.0, 10566.653080779683, 21590.801667070587, -50934.50706416453, -54388.991521476695, -44750.740498392646, -54206.668341954755, -32443.71353908939, -12357.743067472347, -0.10200000000000001, 0.9500000000000001, 0.258, 192.0, 252.0, 208.0, 29.0, 176.0, 8.0, 16.0, 0.0, 0.0, 0.0, 1.700946968176493E9, 0.0, 2023-11-25 16:16:08.176
228.0, 10713.16876568422, 21597.574245640546, -50932.741276352564, -54410.56095487606, -44506.48063498505, -54132.3264398964, -32470.24505975784, -12389.080213198687, -0.10200000000000001, 0.9500000000000001, 0.258, 192.0, 0.0, 0.0, 0.0, 0.0, 0.0, 0.0, 0.0, 0.0, 0.0, 1.700946968180529E9, 0.0, 2023-11-25 16:16:08.180
229.0, 10684.580884525882, 21490.509389699626, -50935.244671731554, -54458.59485371052, -44255.694062196504, -54323.478558478186, -32494.541405980755, -12423.501899659861, -0.10200000000000001, 0.9500000000000001, 0.258, 192.0, 0.0, 0.0, 0.0, 0.0, 0.0, 0.0, 0.0, 0.0, 0.0, 1.700946968184508E9, 0.0, 2023-11-25 16:16:08.184
230.0, 10447.048896199334, 21509.35191027545, -50927.421561172196, -54409.890402542405, -44780.62478072939, -54492.524801793676, -32441.03132975475, -12366.97433793239, -0.10200000000000001, 0.9500000000000001, 0.258, 192.0, 0.0, 0.0, 0.0, 0.0, 0.0, 0.0, 0.0, 0.0, 0.0, 1.700946968188538E9, 0.0, 2023-11-25 16:16:08.188
231.0, 10543.004935145967, 21577.12239946394, -50949.41567771622, -54410.00216126468, -44790.9736384122, -54276.33872942194, -32463.874812588074, -12387.470887597907, -0.10200000000000001, 0.9500000000000001, 0.258, 192.0, 0.0, 0.0, 0.0, 0.0, 0.0, 0.0, 0.0, 0.0, 0.0, 1.700946968193856E9, 0.0, 2023-11-25 16:16:08.193
232.0, 10697.857820732335, 21619.27778950665, -50937.81512234391, -54405.57651586253, -44589.62912435879, -54156.108695996845, -32474.33542899316, -12398.155021447543, -0.10200000000000001, 0.9500000000000001, 0.258, 192.0, 0.0, 0.0, 0.0, 0.0, 0.0, 0.0, 0.0, 0.0, 0.0, 1.700946968196575E9, 0.0, 2023-11-25 16:16:08.196
233.0, 10746.919899811734, 21520.796003436568, -50917.85501454533, -54444.15562679239, -44226.346221726686, -54275.98110151066, -32498.877644405085, -12432.241431741886, -0.10200000000000001, 0.9500000000000001, 0.258, 192.0, 0.0, 0.0, 0.0, 0.0, 0.0, 0.0, 0.0, 0.0, 0.0, 1.700946968200582E9, 0.0, 2023-11-25 16:16:08.200
234.0, 10488.913713564125, 21512.83878241048, -50909.62957258577, -54397.82046053654, -44689.16144241827, -54497.44218557384, -32441.433661154948, -12373.501047313339, -0.10200000000000001, 0.9500000000000001, 0.258, 192.0, 0.0, 0.0, 0.0, 0.0, 0.0, 0.0, 0.0, 0.0, 0.0, 1.700946968204636E9, 0.0, 2023-11-25 16:16:08.204
235.0, 10540.032153133412, 21575.825998285534, -50926.95217453864, -54392.836021523006, -44798.48382454918, -54306.55828792552, -32452.855402571608, -12384.699271285448, -0.10200000000000001, 0.9500000000000001, 0.258, 192.0, 0.0, 0.0, 0.0, 0.0, 0.0, 0.0, 0.0, 0.0, 0.0, 1.700946968208664E9, 0.0, 2023-11-25 16:16:08.208
236.0, 10681.742212980058, 21636.57803971506, -50929.857901317824, -54386.82340226453, -44640.43463950571, -54151.25836745005, -32458.46569042989, -12389.817820765713, -0.106, 0.9520000000000001, 0.26, 192.0, 252.0, 176.0, 29.0, 192.0, 8.0, 32.0, 0.0, 0.0, 0.0, 1.700946968212616E9, 0.0, 2023-11-25 16:16:08.212
237.0, 10778.748783916091, 21536.665741999834, -50921.25247970253, -54447.44133322732, -44245.05463183578, -54235.07740915745, -32491.255699545825, -12434.007219553856, -0.106, 0.9520000000000001, 0.26, 192.0, 0.0, 0.0, 0.0, 0.0, 0.0, 0.0, 0.0, 0.0, 0.0, 1.700946968216649E9, 0.0, 2023-11-25 16:16:08.216
238.0, 10520.876708135213, 21500.567674704515, -50919.26317444601, -54421.848585825996, -44601.63201113129, -54495.69874950633, -32439.064376242684, -12379.714832271915, -0.106, 0.9520000000000001, 0.26, 192.0, 0.0, 0.0, 0.0, 0.0, 0.0, 0.0, 0.0, 0.0, 0.0, 1.700946968221665E9, 0.0, 2023-11-25 16:16:08.221
239.0, 10518.306257522852, 21562.97374522373, -50925.07462800439, -54406.02355075163, -44826.87054000742, -54350.83709369148, -32430.36954764957, -12369.567140289206, -0.106, 0.9520000000000001, 0.26, 192.0, 0.0, 0.0, 0.0, 0.0, 0.0, 0.0, 0.0, 0.0, 0.0, 1.700946968224669E9, 0.0, 2023-11-25 16:16:08.224
240.0, 10650.360363764807, 21637.025074604164, -50929.79084608446, -54390.77966103311, -44694.391750620816, -54158.992071031586, -32427.7543935483, -12364.58270127567, -0.106, 0.9520000000000001, 0.26, 192.0, 0.0, 0.0, 0.0, 0.0, 0.0, 0.0, 0.0, 0.0, 0.0, 1.70094696822764E9, 0.0, 2023-11-25 16:16:08.227
241.0, 10786.080156097432, 21570.30511740507, -50898.051368957924, -54419.948687547294, -44296.37423710516, -54171.553751415464, -32446.03812051274, -12389.683710298981, -0.106, 0.9520000000000001, 0.26, 192.0, 0.0, 0.0, 0.0, 0.0, 0.0, 0.0, 0.0, 0.0, 0.0, 1.700946968232666E9, 0.0, 2023-11-25 16:16:08.232
242.0, 10566.80954299087, 21506.535590474083, -50896.97848522407, -54404.570687362044, -44479.99381780551, -54429.76110336317, -32415.483285842336, -12351.663392980505, -0.106, 0.9520000000000001, 0.26, 192.0, 0.0, 0.0, 0.0, 0.0, 0.0, 0.0, 0.0, 0.0, 0.0, 1.700946968236668E9, 0.0, 2023-11-25 16:16:08.236
243.0, 10499.9778270695, 21556.201166653773, -50898.476052102575, -54375.066384681035, -44814.554728812545, -54357.743782728176, -32403.547454303203, -12330.988029359345, -0.106, 0.9520000000000001, 0.26, 192.0, 0.0, 0.0, 0.0, 0.0, 0.0, 0.0, 0.0, 0.0, 0.0, 1.700946968240657E9, 0.0, 2023-11-25 16:16:08.240
244.0, 10628.992096065533, 21631.258324534694, -50913.04938948744, -54361.96826243023, -44703.108930958384, -54150.49840813856, -32423.7534312908, -12339.414637018996, -0.106, 0.9520000000000001, 0.26, 192.0, 0.0, 0.0, 0.0, 0.0, 0.0, 0.0, 0.0, 0.0, 0.0, 1.70094696824466E9, 0.0, 2023-11-25 16:16:08.244
245.0, 10777.765307160058, 21579.93871926531, -50897.76079628, -54397.57459134753, -44340.988319037955, -54135.2768701645, -32466.15469052252, -12383.224056151397, -0.106, 0.9520000000000001, 0.26, 192.0, 0.0, 0.0, 0.0, 0.0, 0.0, 0.0, 0.0, 0.0, 0.0, 1.700946968248661E9, 0.0, 2023-11-25 16:16:08.248
246.0, 10621.571316906371, 21491.559921689026, -50901.7170550486, -54408.66105659736, -44353.840572099754, -54391.27139941113, -32462.399597454027, -12377.613768293115, -0.106, 0.9500000000000001, 0.256, 192.0, 252.0, 176.0, 29.0, 176.0, 8.0, 0.0, 0.0, 0.0, 0.0, 1.700946968252676E9, 0.0, 2023-11-25 16:16:08.252
247.0, 10484.108088506233, 21535.59285826598, -50901.202964926124, -54372.42887883531, -44808.184481642784, -54407.945800774796, -32430.57071334967, -12340.331058541664, -0.106, 0.9500000000000001, 0.256, 192.0, 0.0, 0.0, 0.0, 0.0, 0.0, 0.0, 0.0, 0.0, 0.0, 1.700946968255694E9, 0.0, 2023-11-25 16:16:08.255
248.0, 10598.616075350772, 21605.732632366733, -50935.4234856872, -54382.01777720664, -44734.311966217996, -54193.68197842622, -32463.025446298772, -12370.036526922766, -0.106, 0.9500000000000001, 0.256, 192.0, 0.0, 0.0, 0.0, 0.0, 0.0, 0.0, 0.0, 0.0, 0.0, 1.700946968260717E9, 0.0, 2023-11-25 16:16:08.260
249.0, 10753.468960937138, 21591.56162638207, -50921.99008726956, -54409.532774631116, -44433.41278236065, -54145.96100401414, -32494.384943769568, -12406.671036085014, -0.106, 0.9500000000000001, 0.256, 192.0, 0.0, 0.0, 0.0, 0.0, 0.0, 0.0, 0.0, 0.0, 0.0, 1.700946968264706E9, 0.0, 2023-11-25 16:16:08.264
250.0, 10678.724727478591, 21501.215875293718, -50913.13879646526, -54427.52592891764, -44284.66192301058, -54366.23744562119, -32497.603594971133, -12409.465004141928, -0.106, 0.9500000000000001, 0.256, 192.0, 0.0, 0.0, 0.0, 0.0, 0.0, 0.0, 0.0, 0.0, 0.0, 1.700946968268717E9, 0.0, 2023-11-25 16:16:08.268
251.0, 10479.615387870715, 21534.16234662084, -50904.913354505705, -54379.536733572095, -44799.243783860664, -54465.21097006929, -32445.546382134722, -12356.513721527306, -0.106, 0.9500000000000001, 0.256, 192.0, 0.0, 0.0, 0.0, 0.0, 0.0, 0.0, 0.0, 0.0, 0.0, 1.700946968272728E9, 0.0, 2023-11-25 16:16:08.272
252.0, 10577.203104162587, 21596.791934584613, -50938.41861944421, -54390.55614358856, -44758.51890546309, -54237.491397558624, -32470.42387371348, -12384.721623029904, -0.106, 0.9500000000000001, 0.256, 192.0, 0.0, 0.0, 0.0, 0.0, 0.0, 0.0, 0.0, 0.0, 0.0, 1.70094696827671E9, 0.0, 2023-11-25 16:16:08.276
253.0, 10728.703228080658, 21612.37110046996, -50923.46530240361, -54396.47935586922, -44518.95290839111, -54148.3302889264, -32483.61140294211, -12398.490297614373, -0.106, 0.9500000000000001, 0.256, 192.0, 0.0, 0.0, 0.0, 0.0, 0.0, 0.0, 0.0, 0.0, 0.0, 1.700946968280763E9, 0.0, 2023-11-25 16:16:08.280
254.0, 10721.438911132684, 21494.644462423857, -50918.547918623444, -54440.24407151271, -44235.488085208905, -54313.93436359577, -32498.251795560336, -12419.769158335825, -0.106, 0.9500000000000001, 0.256, 192.0, 0.0, 0.0, 0.0, 0.0, 0.0, 0.0, 0.0, 0.0, 0.0, 1.700946968283837E9, 0.0, 2023-11-25 16:16:08.283
255.0, 10466.561969108818, 21503.316939272518, -50917.69855233414, -54395.071195968536, -44749.44409721424, -54490.915476192895, -32443.646483856024, -12364.515646042306, -0.106, 0.9500000000000001, 0.256, 192.0, 0.0, 0.0, 0.0, 0.0, 0.0, 0.0, 0.0, 0.0, 0.0, 1.700946968287732E9, 0.0, 2023-11-25 16:16:08.287
0.0, 10553.286737595408, 21580.206940198772, -50933.434180430675, -54386.57753307552, -44780.937705151766, -54272.3601189089, -32455.80583283971, -12376.49618107035, -0.098, 0.9540000000000001, 0.258, 192.0, 252.0, 240.0, 29.0, 208.0, 8.0, 16.0, 0.0, 0.0, 0.0, 1.700946968292783E9, 0.0, 2023-11-25 16:16:08.292
1.0, 10708.229030159597, 21625.67038842087, -50925.58871812686, -54384.43176560781, -44586.43282490168, -54141.490655123074, -32466.847594600633, -12388.230846909386, -0.098, 0.9540000000000001, 0.258, 192.0, 0.0, 0.0, 0.0, 0.0, 0.0, 0.0, 0.0, 0.0, 0.0, 1.700946968296795E9, 0.0, 2023-11-25 16:16:08.296
2.0, 10760.42035346274, 21519.499602258158, -50914.614011599304, -54437.092475544516, -44218.27724197832, -54263.7546972936, -32503.7726764408, -12434.633068398603, -0.098, 0.9540000000000001, 0.258, 192.0, 0.0, 0.0, 0.0, 0.0, 0.0, 0.0, 0.0, 0.0, 0.0, 1.700946968300822E9, 0.0, 2023-11-25 16:16:08.300
3.0, 10491.528867665395, 21505.485058484683, -50912.98233425407, -54397.82046053654, -44665.20037236218, -54500.772595497685, -32450.173193236973, -12378.440782837963, -0.098, 0.9540000000000001, 0.258, 192.0, 0.0, 0.0, 0.0, 0.0, 0.0, 0.0, 0.0, 0.0, 0.0, 1.700946968304813E9, 0.0, 2023-11-25 16:16:08.304
4.0, 10539.540414755395, 21571.64622207239, -50923.10767449233, -54386.64458830888, -44787.10678662143, -54310.98393332767, -32448.67562635847, -12376.429125836985, -0.098, 0.9540000000000001, 0.258, 192.0, 0.0, 0.0, 0.0, 0.0, 0.0, 0.0, 0.0, 0.0, 0.0, 1.700946968308952E9, 0.0, 2023-11-25 16:16:08.308
5.0, 10674.50024777654, 21626.877382621453, -50928.18152048368, -54382.062480695546, -44637.41715400424, -54151.14660872777, -32455.67172237298, -12381.950006717445, -0.098, 0.9540000000000001, 0.258, 192.0, 0.0, 0.0, 0.0, 0.0, 0.0, 0.0, 0.0, 0.0, 0.0, 1.7009469683119E9, 0.0, 2023-11-25 16:16:08.311
6.0, 10769.27164426704, 21526.98743665069, -50917.38562791177, -54442.27808025815, -44239.22082653294, -54222.22515609564, -32485.19837679844, -12426.809957839247, -0.098, 0.9540000000000001, 0.258, 192.0, 0.0, 0.0, 0.0, 0.0, 0.0, 0.0, 0.0, 0.0, 0.0, 1.700946968315833E9, 0.0, 2023-11-25 16:16:08.315
7.0, 10513.567687698327, 21489.72707864369, -50912.84822378734, -54414.226640966735, -44563.54463857945, -54485.394595312435, -32427.32971040365, -12368.606015277626, -0.098, 0.9540000000000001, 0.258, 192.0, 0.0, 0.0, 0.0, 0.0, 0.0, 0.0, 0.0, 0.0, 0.0, 1.700946968320862E9, 0.0, 2023-11-25 16:16:08.320
8.0, 10516.115786566234, 21561.297364389582, -50905.27098241699, -54383.67180629633, -44804.33998159647, -54344.64566047736, -32398.674774011946, -12342.387419031551, -0.098, 0.9540000000000001, 0.258, 192.0, 0.0, 0.0, 0.0, 0.0, 0.0, 0.0, 0.0, 0.0, 0.0, 1.700946968324889E9, 0.0, 2023-11-25 16:16:08.324
9.0, 10644.191282295142, 21621.37885348545, -50920.38076166878, -54382.46481209574, -44668.26256135256, -54154.52172214052, -32412.71166952988, -12355.463189537906, -0.098, 0.9540000000000001, 0.258, 192.0, 0.0, 0.0, 0.0, 0.0, 0.0, 0.0, 0.0, 0.0, 0.0, 1.700946968328819E9, 0.0, 2023-11-25 16:16:08.328
10.0, 10777.98882460461, 21554.54713756408, -50887.143717663734, -54416.528870645634, -44276.86116419568, -54173.163077016245, -32434.41521339598, -12388.767288776315, -0.092, 0.9560000000000001, 0.258, 192.0, 253.0, 32.0, 29.0, 224.0, 8.0, 16.0, 0.0, 0.0, 0.0, 1.700946968332867E9, 0.0, 2023-11-25 16:16:08.332
11.0, 10564.060278422867, 21484.58617741897, -50886.093185674334, -54409.4433676533, -44437.816076018345, -54437.695972644804, -32413.493980585812, -12366.057916409722, -0.092, 0.9560000000000001, 0.258, 192.0, 0.0, 0.0, 0.0, 0.0, 0.0, 0.0, 0.0, 0.0, 0.0, 1.700946968335985E9, 0.0, 2023-11-25 16:16:08.335
12.0, 10491.595922898761, 21548.758035750157, -50880.795822238426, -54371.26658812363, -44802.70830425123, -54380.52021032813, -32398.45125656739, -12344.01909637679, -0.092, 0.9560000000000001, 0.258, 192.0, 0.0, 0.0, 0.0, 0.0, 0.0, 0.0, 0.0, 0.0, 0.0, 1.700946968339891E9, 0.0, 2023-11-25 16:16:08.339
13.0, 10628.522709431973, 21630.8559931345, -50898.31958989139, -54358.59314901748, -44695.576393076946, -54164.7364693566, -32422.680547556945, -12358.30186108373, -0.092, 0.9560000000000001, 0.258, 192.0, 0.0, 0.0, 0.0, 0.0, 0.0, 0.0, 0.0, 0.0, 0.0, 1.70094696834388E9, 0.0, 2023-11-25 16:16:08.343
14.0, 10786.683653197724, 21595.808457828578, -50880.01351118249, -54388.27626565412, -44340.54128414885, -54139.50134986656, -32456.43168168446, -12395.651626068548, -0.092, 0.9560000000000001, 0.258, 192.0, 0.0, 0.0, 0.0, 0.0, 0.0, 0.0, 0.0, 0.0, 0.0, 1.700946968347899E9, 0.0, 2023-11-25 16:16:08.347
15.0, 10636.05524731341, 21499.807715393035, -50896.30793289041, -54411.43267290982, -44324.000993251924, -54390.98082673321, -32469.529803935267, -12397.484469113884, -0.092, 0.9560000000000001, 0.258, 192.0, 0.0, 0.0, 0.0, 0.0, 0.0, 0.0, 0.0, 0.0, 0.0, 1.700946968352893E9, 0.0, 2023-11-25 16:16:08.352
16.0, 10478.967187281512, 21538.87856470091, -50903.50519460502, -54378.57560856052, -44795.22046985871, -54427.59298415101, -32451.357835693103, -12363.375707075085, -0.092, 0.9560000000000001, 0.258, 192.0, 0.0, 0.0, 0.0, 0.0, 0.0, 0.0, 0.0, 0.0, 0.0, 1.700946968356935E9, 0.0, 2023-11-25 16:16:08.356
17.0, 10597.923171272656, 21620.417728473873, -50926.39338092726, -54375.02168119213, -44724.20897772419, -54204.96960937615, -32477.352914494626, -12376.83145723718, -0.092, 0.9560000000000001, 0.258, 192.0, 0.0, 0.0, 0.0, 0.0, 0.0, 0.0, 0.0, 0.0, 0.0, 1.700946968361465E9, 0.0, 2023-11-25 16:16:08.361
18.0, 10763.124914541831, 21622.94347559732, -50906.14270045074, -54385.348187130476, -44437.74902078498, -54134.27104166401, -32497.938871137965, -12396.858620269135, -0.092, 0.9560000000000001, 0.258, 192.0, 0.0, 0.0, 0.0, 0.0, 0.0, 0.0, 0.0, 0.0, 0.0, 1.700946968363962E9, 0.0, 2023-11-25 16:16:08.363
19.0, 10690.280579361985, 21521.108927858942, -50906.61208708431, -54413.69019909981, -44268.23339083593, -54340.64469821986, -32512.15458061154, -12408.637989597082, -0.092, 0.9560000000000001, 0.258, 192.0, 0.0, 0.0, 0.0, 0.0, 0.0, 0.0, 0.0, 0.0, 0.0, 1.70094696836797E9, 0.0, 2023-11-25 16:16:08.367
20.0, 10467.1207627202, 21534.899954187866, -50907.37204639579, -54374.41818409183, -44783.26228657512, -54458.14781882141, -32463.874812588074, -12358.324212828185, -0.10200000000000001, 0.9540000000000001, 0.254, 192.0, 252.0, 208.0, 29.0, 208.0, 7.0, 240.0, 0.0, 0.0, 0.0, 1.700946968371933E9, 0.0, 2023-11-25 16:16:08.371
21.0, 10565.401383090184, 21595.316719450562, -50931.89191006326, -54378.39679460488, -44750.09229780344, -54230.852929455395, -32479.364571495604, -12373.63515778007, -0.10200000000000001, 0.9540000000000001, 0.254, 192.0, 0.0, 0.0, 0.0, 0.0, 0.0, 0.0, 0.0, 0.0, 0.0, 1.700946968375957E9, 0.0, 2023-11-25 16:16:08.375
22.0, 10713.012303473033, 21613.13105978144, -50918.14558722325, -54386.35401563097, -44515.37662927826, -54132.549957340954, -32489.355801267127, -12385.54863757475, -0.10200000000000001, 0.9540000000000001, 0.254, 192.0, 0.0, 0.0, 0.0, 0.0, 0.0, 0.0, 0.0, 0.0, 0.0, 1.700946968380997E9, 0.0, 2023-11-25 16:16:08.380
23.0, 10708.45254760415, 21502.10994507193, -50914.65871508822, -54438.00889706718, -44218.23253848941, -54299.5174884221, -32508.131266609584, -12415.74584433387, -0.10200000000000001, 0.9540000000000001, 0.254, 192.0, 0.0, 0.0, 0.0, 0.0, 0.0, 0.0, 0.0, 0.0, 0.0, 1.700946968385022E9, 0.0, 2023-11-25 16:16:08.385
24.0, 10458.78356203837, 21514.224590566708, -50904.04163647195, -54386.21990516423, -44733.57435865097, -54486.221609857275, -32443.33355943365, -12348.735314456859, -0.10200000000000001, 0.9540000000000001, 0.254, 192.0, 0.0, 0.0, 0.0, 0.0, 0.0, 0.0, 0.0, 0.0, 0.0, 1.700946968389067E9, 0.0, 2023-11-25 16:16:08.389
25.0, 10542.177920601122, 21579.245815187194, -50926.08045650488, -54385.90698074186, -44777.38377778337, -54268.42621188477, -32461.036141042252, -12365.744991987347, -0.10200000000000001, 0.9540000000000001, 0.254, 192.0, 0.0, 0.0, 0.0, 0.0, 0.0, 0.0, 0.0, 0.0, 0.0, 1.700946968392088E9, 0.0, 2023-11-25 16:16:08.392
26.0, 10681.473992046595, 21614.852144104498, -50930.21552922911, -54394.11007095696, -44592.4230924157, -54139.99308824457, -32482.42676048598, -12386.912093986522, -0.10200000000000001, 0.9540000000000001, 0.254, 192.0, 0.0, 0.0, 0.0, 0.0, 0.0, 0.0, 0.0, 0.0, 0.0, 1.700946968396058E9, 0.0, 2023-11-25 16:16:08.396
27.0, 10736.682800851202, 21513.7775556776, -50915.64219184425, -54441.831045369036, -44223.35108796968, -54254.23285415565, -32503.48210376288, -12418.383350179596, -0.10200000000000001, 0.9540000000000001, 0.254, 192.0, 0.0, 0.0, 0.0, 0.0, 0.0, 0.0, 0.0, 0.0, 0.0, 1.700946968400023E9, 0.0, 2023-11-25 16:16:08.400
28.0, 10469.557102865829, 21488.050697809544, -50917.78795931196, -54411.32091418754, -44655.32090131294, -54490.02140641468, -32447.826260069167, -12358.63713725056, -0.10200000000000001, 0.9540000000000001, 0.254, 192.0, 0.0, 0.0, 0.0, 0.0, 0.0, 0.0, 0.0, 0.0, 0.0, 1.70094696840404E9, 0.0, 2023-11-25 16:16:08.404
29.0, 10497.832059601791, 21539.616172267935, -50938.59743339985, -54410.47154789824, -44803.647077518355, -54320.952811354735, -32451.536649648748, -12368.15898038852, -0.10200000000000001, 0.9540000000000001, 0.254, 192.0, 0.0, 0.0, 0.0, 0.0, 0.0, 0.0, 0.0, 0.0, 0.0, 1.700946968409045E9, 0.0, 2023-11-25 16:16:08.409
30.0, 10641.419665982685, 21610.538257424625, -50929.097942006345, -54393.327759901025, -44655.097383868386, -54151.14660872777, -32442.88652454454, -12363.129837886077, -0.10200000000000001, 0.9520000000000001, 0.25, 192.0, 252.0, 208.0, 29.0, 192.0, 7.0, 208.0, 0.0, 0.0, 0.0, 1.700946968413067E9, 0.0, 2023-11-25 16:16:08.413
31.0, 10754.832417348913, 21530.898991930368, -50894.1621654227, -54432.957402820284, -44254.68823369601, -54205.461347754164, -32454.352969450116, -12392.701195800448, -0.10200000000000001, 0.9520000000000001, 0.25, 192.0, 0.0, 0.0, 0.0, 0.0, 0.0, 0.0, 0.0, 0.0, 0.0, 1.700946968416067E9, 0.0, 2023-11-25 16:16:08.416
32.0, 10507.756234139948, 21475.511369170115, -50892.50813633301, -54414.561917133564, -44541.4611150576, -54468.340214293035, -32402.85455022509, -12349.428218534973, -0.10200000000000001, 0.9520000000000001, 0.25, 192.0, 0.0, 0.0, 0.0, 0.0, 0.0, 0.0, 0.0, 0.0, 0.0, 1.70094696842014E9, 0.0, 2023-11-25 16:16:08.420
33.0, 10490.478335675996, 21538.342122833983, -50894.25157240052, -54394.13242270141, -44801.143682139365, -54353.608710003944, -32390.494035541302, -12340.44281726394, -0.10200000000000001, 0.9520000000000001, 0.25, 192.0, 0.0, 0.0, 0.0, 0.0, 0.0, 0.0, 0.0, 0.0, 0.0, 1.700946968424176E9, 0.0, 2023-11-25 16:16:08.424
34.0, 10633.797721123425, 21621.93764709683, -50906.00858998401, -54380.27434113912, -44676.823279478944, -54161.60722513285, -32407.45900958288, -12349.271756323786, -0.10200000000000001, 0.9520000000000001, 0.25, 192.0, 0.0, 0.0, 0.0, 0.0, 0.0, 0.0, 0.0, 0.0, 0.0, 1.700946968428137E9, 0.0, 2023-11-25 16:16:08.428
35.0, 10783.42029850725, 21572.428533128328, -50881.60048503882, -54411.67854209883, -44298.72117027297, -54170.10088802587, -32440.696053587923, -12385.705099785937, -0.10200000000000001, 0.9520000000000001, 0.25, 192.0, 0.0, 0.0, 0.0, 0.0, 0.0, 0.0, 0.0, 0.0, 0.0, 1.700946968432162E9, 0.0, 2023-11-25 16:16:08.432
36.0, 10579.706499541582, 21501.327634015994, -50900.89004050375, -54414.092530500006, -44436.85495100677, -54438.9476703343, -32437.18682970844, -12373.389288591063, -0.10200000000000001, 0.9520000000000001, 0.25, 192.0, 0.0, 0.0, 0.0, 0.0, 0.0, 0.0, 0.0, 0.0, 0.0, 1.700946968436141E9, 0.0, 2023-11-25 16:16:08.436
37.0, 10489.539562408872, 21560.850329500478, -50904.13104344977, -54375.58047480351, -44824.85888300644, -54398.53571635911, -32420.825352767155, -12346.164863844499, -0.10200000000000001, 0.9520000000000001, 0.25, 192.0, 0.0, 0.0, 0.0, 0.0, 0.0, 0.0, 0.0, 0.0, 0.0, 1.700946968441246E9, 0.0, 2023-11-25 16:16:08.441
38.0, 10626.1087210308, 21641.182499072853, -50922.90650879223, -54361.14124788538, -44717.95048927671, -54180.29328349749, -32444.205277467405, -12359.26298609531, -0.10200000000000001, 0.9520000000000001, 0.25, 192.0, 0.0, 0.0, 0.0, 0.0, 0.0, 0.0, 0.0, 0.0, 0.0, 1.700946968444143E9, 0.0, 2023-11-25 16:16:08.444
39.0, 10780.581626961426, 21600.345861953007, -50912.043560986946, -54396.948742502784, -44369.01740658491, -54151.995975017075, -32492.038010601762, -12413.242448954876, -0.10200000000000001, 0.9520000000000001, 0.25, 192.0, 0.0, 0.0, 0.0, 0.0, 0.0, 0.0, 0.0, 0.0, 0.0, 1.700946968448184E9, 0.0, 2023-11-25 16:16:08.448
40.0, 10648.326355019373, 21519.387843535882, -50901.78411028196, -54401.55320186057, -44325.878539786165, -54395.47352736873, -32487.52295822179, -12404.681730828492, -0.10400000000000001, 0.9540000000000001, 0.244, 192.0, 252.0, 192.0, 29.0, 208.0, 7.0, 160.0, 0.0, 0.0, 0.0, 1.700946968452207E9, 0.0, 2023-11-25 16:16:08.452
41.0, 10494.993388055967, 21564.471312102236, -50891.79288051044, -54354.2792623376, -44798.34971408245, -54433.47149294275, -32451.871925815576, -12358.30186108373, -0.10400000000000001, 0.9540000000000001, 0.244, 192.0, 0.0, 0.0, 0.0, 0.0, 0.0, 0.0, 0.0, 0.0, 0.0, 1.70094696845626E9, 0.0, 2023-11-25 16:16:08.456
42.0, 10606.752110332503, 21634.409920502894, -50921.74421808055, -54356.1791606163, -44724.25368121311, -54205.260182054066, -32475.698885404934, -12378.97722470489, -0.10400000000000001, 0.9540000000000001, 0.244, 192.0, 0.0, 0.0, 0.0, 0.0, 0.0, 0.0, 0.0, 0.0, 0.0, 1.700946968460267E9, 0.0, 2023-11-25 16:16:08.460
43.0, 10758.967490073144, 21628.9560948558, -50906.27681091748, -54373.47941082471, -44442.8899220097, -54131.90175675175, -32493.267356546803, -12401.731300560392, -0.10400000000000001, 0.9540000000000001, 0.244, 192.0, 0.0, 0.0, 0.0, 0.0, 0.0, 0.0, 0.0, 0.0, 0.0, 1.700946968464208E9, 0.0, 2023-11-25 16:16:08.464
44.0, 10693.856858474834, 21512.883485899387, -50914.41284589921, -54419.613411380466, -44254.5988267182, -54341.69523020926, -32515.730859724386, -12426.65349562806, -0.10400000000000001, 0.9540000000000001, 0.244, 192.0, 0.0, 0.0, 0.0, 0.0, 0.0, 0.0, 0.0, 0.0, 0.0, 1.700946968469265E9, 0.0, 2023-11-25 16:16:08.469
45.0, 10471.747573822448, 21530.630770996904, -50914.99399125505, -54381.32487312852, -44783.374045297394, -54477.97381615327, -32468.054588801217, -12372.763439746313, -0.10400000000000001, 0.9540000000000001, 0.244, 192.0, 0.0, 0.0, 0.0, 0.0, 0.0, 0.0, 0.0, 0.0, 0.0, 1.700946968472313E9, 0.0, 2023-11-25 16:16:08.472
46.0, 10580.578217575337, 21616.32735923855, -50920.96190702461, -54365.61159677644, -44767.10197533393, -54244.196920895214, -32468.546327179236, -12367.309614099218, -0.10400000000000001, 0.9540000000000001, 0.244, 192.0, 0.0, 0.0, 0.0, 0.0, 0.0, 0.0, 0.0, 0.0, 0.0, 1.700946968476268E9, 0.0, 2023-11-25 16:16:08.476
47.0, 10732.927707782712, 21638.455586249303, -50910.05425573042, -54372.965320702235, -44541.17054237969, -54130.96298348463, -32477.509376705813, -12377.189085148464, -0.10400000000000001, 0.9540000000000001, 0.244, 192.0, 0.0, 0.0, 0.0, 0.0, 0.0, 0.0, 0.0, 0.0, 0.0, 1.700946968480268E9, 0.0, 2023-11-25 16:16:08.480
48.0, 10740.370838686329, 21526.92038141732, -50902.767587038, -54422.273268970646, -44226.43562870451, -54282.84308705844, -32499.838769416663, -12406.760443062836, -0.10400000000000001, 0.9540000000000001, 0.244, 192.0, 0.0, 0.0, 0.0, 0.0, 0.0, 0.0, 0.0, 0.0, 0.0, 1.700946968484307E9, 0.0, 2023-11-25 16:16:08.484
49.0, 10478.251931458943, 21522.07005287052, -50903.05815971591, -54385.079966197016, -44723.02433526806, -54480.65602548791, -32444.31703618968, -12346.254270822319, -0.10400000000000001, 0.9540000000000001, 0.244, 192.0, 0.0, 0.0, 0.0, 0.0, 0.0, 0.0, 0.0, 0.0, 0.0, 1.700946968488278E9, 0.0, 2023-11-25 16:16:08.488
50.0, 10547.47528403703, 21587.8959402914, -50922.99591577005, -54383.738861529695, -44783.441100530756, -54270.84020028594, -32454.710597361398, -12355.954927915924, -0.1, 0.9540000000000001, 0.25, 192.0, 252.0, 224.0, 29.0, 208.0, 7.0, 208.0, 0.0, 0.0, 0.0, 1.700946968492276E9, 0.0, 2023-11-25 16:16:08.492
51.0, 10680.73638447957, 21633.64996119141, -50920.51487213551, -54382.59892256247, -44610.59506065787, -54132.549957340954, -32453.101271760617, -12362.459285552417, -0.1, 0.9540000000000001, 0.25, 192.0, 0.0, 0.0, 0.0, 0.0, 0.0, 0.0, 0.0, 0.0, 0.0, 1.700946968497271E9, 0.0, 2023-11-25 16:16:08.497
52.0, 10749.065667279443, 21541.53842229109, -50895.39151136774, -54421.71447535926, -44224.51337868135, -54226.024952653046, -32467.47344344538, -12387.82851550919, -0.1, 0.9540000000000001, 0.25, 192.0, 0.0, 0.0, 0.0, 0.0, 0.0, 0.0, 0.0, 0.0, 0.0, 1.700946968500294E9, 0.0, 2023-11-25 16:16:08.500
53.0, 10490.970074054012, 21524.68520697179, -50886.29435137443, -54376.876875981914, -44634.77964815851, -54465.92622589186, -32410.297681128704, -12323.969581600379, -0.1, 0.9540000000000001, 0.25, 192.0, 0.0, 0.0, 0.0, 0.0, 0.0, 0.0, 0.0, 0.0, 0.0, 1.700946968503338E9, 0.0, 2023-11-25 16:16:08.503
54.0, 10515.959324355046, 21568.293460404097, -50914.92693602168, -54383.80591676306, -44795.48869079217, -54302.69143613475, -32430.101326716107, -12344.466131265895, -0.1, 0.9540000000000001, 0.25, 192.0, 0.0, 0.0, 0.0, 0.0, 0.0, 0.0, 0.0, 0.0, 0.0, 1.700946968508406E9, 0.0, 2023-11-25 16:16:08.508
55.0, 10648.72868641957, 21637.405054259903, -50918.682029090174, -54370.596035789975, -44653.95744490116, -54134.89689050876, -32430.19073369393, -12341.135721342054, -0.1, 0.9540000000000001, 0.25, 192.0, 0.0, 0.0, 0.0, 0.0, 0.0, 0.0, 0.0, 0.0, 0.0, 1.700946968512387E9, 0.0, 2023-11-25 16:16:08.512
56.0, 10761.64969940778, 21558.391637610395, -50898.967790480594, -54413.13140548842, -44253.816515662256, -54182.41669922075, -32453.57065839418, -12369.1201054001, -0.1, 0.9540000000000001, 0.25, 192.0, 0.0, 0.0, 0.0, 0.0, 0.0, 0.0, 0.0, 0.0, 0.0, 1.7009469685164E9, 0.0, 2023-11-25 16:16:08.516
57.0, 10518.529774967406, 21507.58612246348, -50908.91431676321, -54395.62998957992, -44530.799332952425, -54452.69399317432, -32410.431791595438, -12323.790767644736, -0.1, 0.9540000000000001, 0.25, 192.0, 0.0, 0.0, 0.0, 0.0, 0.0, 0.0, 0.0, 0.0, 0.0, 1.700946968520446E9, 0.0, 2023-11-25 16:16:08.520
58.0, 10491.037129287379, 21565.477140602725, -50916.245688944546, -54372.00419569066, -44820.410885859834, -54341.13643659788, -32397.758352489276, -12308.703340137405, -0.1, 0.9540000000000001, 0.25, 192.0, 0.0, 0.0, 0.0, 0.0, 0.0, 0.0, 0.0, 0.0, 0.0, 1.700946968525452E9, 0.0, 2023-11-25 16:16:08.525
59.0, 10608.070863255365, 21627.74910065521, -50943.47011369111, -54376.742765515184, -44702.907765258286, -54151.504236639055, -32423.686376057434, -12330.25042179232, -0.1, 0.9540000000000001, 0.25, 192.0, 0.0, 0.0, 0.0, 0.0, 0.0, 0.0, 0.0, 0.0, 0.0, 1.70094696852839E9, 0.0, 2023-11-25 16:16:08.528
60.0, 10755.502969682571, 21586.197207712798, -50911.39536039774, -54402.134347216415, -44322.6598885846, -54154.499370396064, -32444.27233270077, -12358.324212828185, -0.108, 0.9560000000000001, 0.252, 192.0, 252.0, 160.0, 29.0, 224.0, 7.0, 224.0, 0.0, 0.0, 0.0, 1.700946968531458E9, 0.0, 2023-11-25 16:16:08.531
61.0, 10575.929054728635, 21516.191544078774, -50910.59069759735, -54399.38508264841, -44423.55566305586, -54414.561917133564, -32431.285969172237, -12341.649811464527, -0.108, 0.9560000000000001, 0.252, 192.0, 0.0, 0.0, 0.0, 0.0, 0.0, 0.0, 0.0, 0.0, 0.0, 1.70094696853641E9, 0.0, 2023-11-25 16:16:08.536
62.0, 10474.720355835005, 21561.409123111862, -50913.295258676444, -54371.11012591245, -44824.903586495355, -54396.81463203605, -32422.233512667837, -12327.657619435504, -0.108, 0.9560000000000001, 0.252, 192.0, 0.0, 0.0, 0.0, 0.0, 0.0, 0.0, 0.0, 0.0, 0.0, 1.700946968540557E9, 0.0, 2023-11-25 16:16:08.540
63.0, 10602.393520163718, 21641.27190605067, -50930.93078505168, -54365.343375842975, -44726.7570765921, -54181.16500153125, -32444.652312356513, -12348.310631312208, -0.108, 0.9560000000000001, 0.252, 192.0, 0.0, 0.0, 0.0, 0.0, 0.0, 0.0, 0.0, 0.0, 0.0, 1.70094696854441E9, 0.0, 2023-11-25 16:16:08.544
64.0, 10769.9421966007, 21622.76466164168, -50896.75496777952, -54384.54352433009, -44391.458558018036, -54140.3283644114, -32451.31313220419, -12373.568102546706, -0.108, 0.9560000000000001, 0.252, 192.0, 0.0, 0.0, 0.0, 0.0, 0.0, 0.0, 0.0, 0.0, 0.0, 1.700946968548413E9, 0.0, 2023-11-25 16:16:08.548
65.0, 10651.477950987572, 21528.730872718203, -50895.905601490216, -54406.872917040935, -44319.731810060955, -54375.17814340331, -32455.17998399496, -12380.988881705867, -0.108, 0.9560000000000001, 0.252, 192.0, 0.0, 0.0, 0.0, 0.0, 0.0, 0.0, 0.0, 0.0, 0.0, 1.700946968552412E9, 0.0, 2023-11-25 16:16:08.552
66.0, 10473.960396523524, 21563.59959406848, -50892.44108109964, -54366.125686898915, -44802.10480715094, -54436.13135053294, -32419.774820777755, -12341.113369597599, -0.108, 0.9560000000000001, 0.252, 192.0, 0.0, 0.0, 0.0, 0.0, 0.0, 0.0, 0.0, 0.0, 0.0, 1.700946968556521E9, 0.0, 2023-11-25 16:16:08.556
67.0, 10589.071880468355, 21630.923048367866, -50915.821005799895, -54369.52315205612, -44728.366402192885, -54202.01917910805, -32445.32286469017, -12362.682802996971, -0.108, 0.9560000000000001, 0.252, 192.0, 0.0, 0.0, 0.0, 0.0, 0.0, 0.0, 0.0, 0.0, 0.0, 1.70094696855979E9, 0.0, 2023-11-25 16:16:08.559
68.0, 10734.40292291676, 21628.66552217788, -50900.53241259247, -54390.71260579975, -44460.27957919593, -54131.05239046245, -32467.451091700925, -12387.806163764735, -0.108, 0.9560000000000001, 0.252, 192.0, 0.0, 0.0, 0.0, 0.0, 0.0, 0.0, 0.0, 0.0, 0.0, 1.700946968564485E9, 0.0, 2023-11-25 16:16:08.564
69.0, 10691.308759606929, 21532.441262297783, -50883.70154901762, -54415.701856100786, -44241.433649234015, -54317.71180840872, -32473.642524915045, -12393.103527200643, -0.108, 0.9560000000000001, 0.252, 192.0, 0.0, 0.0, 0.0, 0.0, 0.0, 0.0, 0.0, 0.0, 0.0, 1.70094696856963E9, 0.0, 2023-11-25 16:16:08.569
70.0, 10471.322890677797, 21555.150634664373, -50875.87843845826, -54366.01392817664, -44756.70841416221, -54449.452990228296, -32415.282120142238, -12332.172671815477, -0.112, 0.9480000000000001, 0.256, 192.0, 252.0, 128.0, 29.0, 160.0, 8.0, 0.0, 0.0, 0.0, 0.0, 1.700946968572475E9, 0.0, 2023-11-25 16:16:08.572
71.0, 10569.75997325897, 21624.70926340929, -50903.46049111611, -54368.71848925573, -44745.75605937911, -54221.95693516218, -32434.526972118256, -12350.165826101998, -0.112, 0.9480000000000001, 0.256, 192.0, 0.0, 0.0, 0.0, 0.0, 0.0, 0.0, 0.0, 0.0, 0.0, 1.700946968576477E9, 0.0, 2023-11-25 16:16:08.576
72.0, 10730.021981003521, 21667.66931625239, -50884.997950196026, -54361.14124788538, -44530.88873993025, -54100.877535447784, -32436.51627737478, -12353.719753470392, -0.112, 0.9480000000000001, 0.256, 192.0, 0.0, 0.0, 0.0, 0.0, 0.0, 0.0, 0.0, 0.0, 0.0, 1.700946968580498E9, 0.0, 2023-11-25 16:16:08.580
73.0, 10748.484521923605, 21547.461634571748, -50885.44498508513, -54414.89719330039, -44199.278259191306, -54240.59829003791, -32469.909783591007, -12393.617617323116, -0.112, 0.9480000000000001, 0.256, 192.0, 0.0, 0.0, 0.0, 0.0, 0.0, 0.0, 0.0, 0.0, 0.0, 1.700946968583531E9, 0.0, 2023-11-25 16:16:08.583
74.0, 10480.35299543774, 21536.68809374429, -50890.094147931835, -54374.12761141391, -44690.122567429855, -54448.2012925388, -32421.048870211707, -12335.34661952813, -0.112, 0.9480000000000001, 0.256, 192.0, 0.0, 0.0, 0.0, 0.0, 0.0, 0.0, 0.0, 0.0, 0.0, 1.700946968587531E9, 0.0, 2023-11-25 16:16:08.587
75.0, 10538.646344977182, 21594.869684561454, -50912.825872042886, -54372.60769279095, -44766.610236955916, -54248.041420941525, -32435.801021552208, -12349.942308657446, -0.112, 0.9480000000000001, 0.256, 192.0, 0.0, 0.0, 0.0, 0.0, 0.0, 0.0, 0.0, 0.0, 0.0, 1.700946968591804E9, 0.0, 2023-11-25 16:16:08.591
76.0, 10679.954073423634, 21644.490557252237, -50909.540165607956, -54368.51732355563, -44597.631048873794, -54105.61610527231, -32440.13725997654, -12356.983108160866, -0.112, 0.9480000000000001, 0.256, 192.0, 0.0, 0.0, 0.0, 0.0, 0.0, 0.0, 0.0, 0.0, 0.0, 1.700946968596551E9, 0.0, 2023-11-25 16:16:08.596
77.0, 10767.282339010519, 21549.585050295, -50888.23895314204, -54411.81265256556, -44207.34723893968, -54194.352530759876, -32466.266449244795, -12388.677881798492, -0.112, 0.9480000000000001, 0.256, 192.0, 0.0, 0.0, 0.0, 0.0, 0.0, 0.0, 0.0, 0.0, 0.0, 1.700946968600546E9, 0.0, 2023-11-25 16:16:08.600
78.0, 10508.963228340535, 21521.846535425968, -50890.585886309855, -54382.196591162276, -44597.832214573886, -54441.47341745775, -32418.500771343803, -12335.525433483772, -0.112, 0.9480000000000001, 0.256, 192.0, 0.0, 0.0, 0.0, 0.0, 0.0, 0.0, 0.0, 0.0, 0.0, 1.700946968604529E9, 0.0, 2023-11-25 16:16:08.604
79.0, 10516.071083077322, 21571.579166839027, -50912.58000285387, -54381.48133533971, -44786.5703447545, -54291.5155639071, -32433.36468140658, -12350.769323202292, -0.112, 0.9480000000000001, 0.256, 192.0, 0.0, 0.0, 0.0, 0.0, 0.0, 0.0, 0.0, 0.0, 0.0, 1.700946968608555E9, 0.0, 2023-11-25 16:16:08.608
80.0, 10649.242776542042, 21635.013417603186, -50922.07949424738, -54373.322948613524, -44645.46378200815, -54122.4246171027, -32444.31703618968, -12360.917015185001, -0.098, 0.9440000000000001, 0.254, 192.0, 252.0, 240.0, 29.0, 128.0, 7.0, 240.0, 0.0, 0.0, 0.0, 1.700946968611578E9, 0.0, 2023-11-25 16:16:08.611
81.0, 10765.740068643103, 21556.000000953674, -50903.75106379403, -54419.63576312492, -44253.257722050876, -54173.3865944608, -32474.80481562672, -12400.88193427109, -0.098, 0.9440000000000001, 0.254, 192.0, 0.0, 0.0, 0.0, 0.0, 0.0, 0.0, 0.0, 0.0, 0.0, 1.700946968615549E9, 0.0, 2023-11-25 16:16:08.615
82.0, 10532.209042574053, 21496.186732791273, -50915.038694743955, -54408.61635310845, -44504.290164028425, -54445.42967622634, -32451.156669993004, -12374.126896158088, -0.098, 0.9440000000000001, 0.254, 192.0, 0.0, 0.0, 0.0, 0.0, 0.0, 0.0, 0.0, 0.0, 0.0, 1.700946968619744E9, 0.0, 2023-11-25 16:16:08.619
83.0, 10495.105146778244, 21556.9387742208, -50913.854052287825, -54378.910884727346, -44813.10186542295, -54350.18889310228, -32440.338425676637, -12360.425276806984, -0.098, 0.9440000000000001, 0.254, 192.0, 0.0, 0.0, 0.0, 0.0, 0.0, 0.0, 0.0, 0.0, 0.0, 1.700946968624642E9, 0.0, 2023-11-25 16:16:08.624
84.0, 10625.259354741496, 21623.85989711999, -50931.84720657435, -54376.675710281816, -44691.68718954172, -54150.27489069401, -32460.14207126404, -12377.367899104107, -0.098, 0.9440000000000001, 0.254, 192.0, 0.0, 0.0, 0.0, 0.0, 0.0, 0.0, 0.0, 0.0, 0.0, 1.700946968628632E9, 0.0, 2023-11-25 16:16:08.628
85.0, 10772.445591979695, 21566.997059225687, -50906.83560452886, -54414.561917133564, -44318.07778097127, -54150.788980816484, -32489.601670456133, -12419.567992635726, -0.098, 0.9440000000000001, 0.254, 192.0, 0.0, 0.0, 0.0, 0.0, 0.0, 0.0, 0.0, 0.0, 0.0, 1.700946968632697E9, 0.0, 2023-11-25 16:16:08.632
86.0, 10598.169040461666, 21496.901988613845, -50901.38177888177, -54412.416149665856, -44388.50812774994, -54409.91275428686, -32466.601725411623, -12403.318274416719, -0.098, 0.9440000000000001, 0.254, 192.0, 0.0, 0.0, 0.0, 0.0, 0.0, 0.0, 0.0, 0.0, 0.0, 1.700946968635716E9, 0.0, 2023-11-25 16:16:08.635
87.0, 10484.286902461876, 21546.567564793535, -50897.224354413076, -54375.1334399144, -44801.5236617951, -54390.71260579975, -32435.353986663104, -12371.489390312361, -0.098, 0.9440000000000001, 0.254, 192.0, 0.0, 0.0, 0.0, 0.0, 0.0, 0.0, 0.0, 0.0, 0.0, 1.700946968639636E9, 0.0, 2023-11-25 16:16:08.639
88.0, 10607.042683010422, 21622.697606408314, -50914.30108717693, -54366.058631665546, -44708.629811838844, -54166.97164380213, -32449.27912345876, -12378.664300282515, -0.098, 0.9440000000000001, 0.254, 192.0, 0.0, 0.0, 0.0, 0.0, 0.0, 0.0, 0.0, 0.0, 0.0, 1.700946968644049E9, 0.0, 2023-11-25 16:16:08.644
89.0, 10757.581681916916, 21597.909521807378, -50895.45856660111, -54392.05371046707, -44387.68111320509, -54122.11169268032, -32471.384998725058, -12408.012140752333, -0.098, 0.9440000000000001, 0.254, 192.0, 0.0, 0.0, 0.0, 0.0, 0.0, 0.0, 0.0, 0.0, 0.0, 1.700946968647695E9, 0.0, 2023-11-25 16:16:08.647
90.0, 10639.050381070421, 21489.21298852122, -50906.34386615084, -54426.587155650515, -44290.0039899354, -54355.86623619393, -32478.694019161943, -12417.22105946792, -0.1, 0.9460000000000001, 0.256, 192.0, 252.0, 224.0, 29.0, 144.0, 8.0, 0.0, 0.0, 0.0, 0.0, 1.700946968651684E9, 0.0, 2023-11-25 16:16:08.651
91.0, 10459.387059138664, 21525.93690466129, -50898.02901721347, -54379.894361483384, -44791.35361806794, -54426.520100417154, -32427.553227848202, -12361.162884374009, -0.1, 0.9460000000000001, 0.256, 192.0, 0.0, 0.0, 0.0, 0.0, 0.0, 0.0, 0.0, 0.0, 0.0, 1.700946968656749E9, 0.0, 2023-11-25 16:16:08.656
92.0, 10574.856170994779, 21603.877437576943, -50913.9658110101, -54372.339471857485, -44734.60253889591, -54191.4915074696, -32430.391899394024, -12365.186198375965, -0.1, 0.9460000000000001, 0.256, 192.0, 0.0, 0.0, 0.0, 0.0, 0.0, 0.0, 0.0, 0.0, 0.0, 1.700946968660751E9, 0.0, 2023-11-25 16:16:08.660
93.0, 10733.732370583102, 21610.538257424625, -50891.703473532616, -54381.74955627317, -44467.49919265499, -54100.00581741403, -32435.823373296666, -12374.082192669177, -0.1, 0.9460000000000001, 0.256, 192.0, 0.0, 0.0, 0.0, 0.0, 0.0, 0.0, 0.0, 0.0, 0.0, 1.700946968663694E9, 0.0, 2023-11-25 16:16:08.663
94.0, 10688.850067716845, 21496.253788024642, -50889.35654036481, -54426.587155650515, -44225.072172292734, -54284.00537777012, -32454.867059572585, -12394.60109407915, -0.1, 0.9460000000000001, 0.256, 192.0, 0.0, 0.0, 0.0, 0.0, 0.0, 0.0, 0.0, 0.0, 0.0, 1.700946968667782E9, 0.0, 2023-11-25 16:16:08.667
95.0, 10442.712657775004, 21502.266407283118, -50889.84827874283, -54388.16450693185, -44749.824076869976, -54437.494806944705, -32406.07320142665, -12337.648849207026, -0.1, 0.9460000000000001, 0.256, 192.0, 0.0, 0.0, 0.0, 0.0, 0.0, 0.0, 0.0, 0.0, 0.0, 1.700946968671757E9, 0.0, 2023-11-25 16:16:08.671
96.0, 10540.233318833509, 21577.345916908493, -50908.91431676321, -54385.8846289974, -44757.46837347369, -54209.50701350057, -32421.875884756555, -12348.0647621232, -0.1, 0.9460000000000001, 0.256, 192.0, 0.0, 0.0, 0.0, 0.0, 0.0, 0.0, 0.0, 0.0, 0.0, 1.70094696867581E9, 0.0, 2023-11-25 16:16:08.675
97.0, 10697.20962014313, 21616.79674587211, -50902.477014360076, -54389.37150113243, -44550.155943650716, -54090.64043648725, -32435.108117474094, -12360.469980295895, -0.1, 0.9460000000000001, 0.256, 192.0, 0.0, 0.0, 0.0, 0.0, 0.0, 0.0, 0.0, 0.0, 0.0, 1.700946968679721E9, 0.0, 2023-11-25 16:16:08.679
98.0, 10729.97727751461, 21517.465593512727, -50888.64128454224, -54429.939917318814, -44208.37541918462, -54223.27568808504, -32452.38601593805, -12386.621521308603, -0.1, 0.9460000000000001, 0.256, 192.0, 0.0, 0.0, 0.0, 0.0, 0.0, 0.0, 0.0, 0.0, 0.0, 1.700946968684731E9, 0.0, 2023-11-25 16:16:08.684
99.0, 10463.1198004627, 21510.11186958693, -50888.753043264514, -54384.05178595207, -44680.51131731407, -54440.221719768255, -32397.26661411126, -12326.048293834721, -0.1, 0.9460000000000001, 0.256, 192.0, 0.0, 0.0, 0.0, 0.0, 0.0, 0.0, 0.0, 0.0, 0.0, 1.700946968688766E9, 0.0, 2023-11-25 16:16:08.688
100.0, 10527.090493093789, 21582.576225111035, -50904.01928472749, -54371.28893986809, -44766.65494044482, -54242.29702261651, -32405.156779903984, -12335.950116628423, -0.106, 0.96, 0.258, 192.0, 252.0, 176.0, 30.0, 0.0, 8.0, 16.0, 0.0, 0.0, 0.0, 1.70094696869278E9, 0.0, 2023-11-25 16:16:08.692
101.0, 10673.673233231691, 21643.95411538531, -50910.03190398597, -54365.18691363179, -44601.92258380921, -54096.9212766792, -32421.674719056457, -12352.266890080797, -0.106, 0.96, 0.258, 192.0, 0.0, 0.0, 0.0, 0.0, 0.0, 0.0, 0.0, 0.0, 0.0, 1.700946968695765E9, 0.0, 2023-11-25 16:16:08.695
102.0, 10765.918882598744, 21556.000000953674, -50897.090243946346, -54413.22081246624, -44213.11398900914, -54190.17275454674, -32460.119719519585, -12396.031605724289, -0.106, 0.96, 0.258, 192.0, 0.0, 0.0, 0.0, 0.0, 0.0, 0.0, 0.0, 0.0, 0.0, 1.700946968699931E9, 0.0, 2023-11-25 16:16:08.699
103.0, 10504.671693405115, 21521.332445303495, -50901.292371903946, -54384.90115224137, -44585.471699890106, -54449.29652801711, -32418.254902154793, -12349.338811557152, -0.106, 0.96, 0.258, 192.0, 0.0, 0.0, 0.0, 0.0, 0.0, 0.0, 0.0, 0.0, 0.0, 1.700946968703797E9, 0.0, 2023-11-25 16:16:08.703
104.0, 10514.640571432183, 21582.598576855493, -50911.2165464421, -54369.72431775622, -44790.794824456556, -54302.19969775673, -32425.765088291777, -12349.49527376834, -0.106, 0.96, 0.258, 192.0, 0.0, 0.0, 0.0, 0.0, 0.0, 0.0, 0.0, 0.0, 0.0, 1.700946968707817E9, 0.0, 2023-11-25 16:16:08.707
105.0, 10658.228177813075, 21657.163996358395, -50912.73646506506, -54356.55914027204, -44655.05268037948, -54120.882346735285, -32438.393823909024, -12350.92578541348, -0.106, 0.96, 0.258, 192.0, 0.0, 0.0, 0.0, 0.0, 0.0, 0.0, 0.0, 0.0, 0.0, 1.700946968711874E9, 0.0, 2023-11-25 16:16:08.711
106.0, 10781.788621162012, 21575.46837037425, -50898.766624780495, -54410.449196153786, -44255.38113777413, -54156.041640763484, -32484.259603531314, -12400.323140659708, -0.106, 0.96, 0.258, 192.0, 0.0, 0.0, 0.0, 0.0, 0.0, 0.0, 0.0, 0.0, 0.0, 1.700946968716826E9, 0.0, 2023-11-25 16:16:08.716
107.0, 10560.439295821106, 21528.82027969602, -50891.94934272163, -54386.91280924235, -44475.501117169995, -54420.239260225215, -32443.490021644837, -12351.64104123605, -0.106, 0.96, 0.258, 192.0, 0.0, 0.0, 0.0, 0.0, 0.0, 0.0, 0.0, 0.0, 0.0, 1.700946968719847E9, 0.0, 2023-11-25 16:16:08.719
108.0, 10501.609504414739, 21578.35174540898, -50899.75010153653, -54367.28797761059, -44798.79674897155, -54336.7778464291, -32429.341367404628, -12336.508910239805, -0.106, 0.96, 0.258, 192.0, 0.0, 0.0, 0.0, 0.0, 0.0, 0.0, 0.0, 0.0, 0.0, 1.700946968723816E9, 0.0, 2023-11-25 16:16:08.723
109.0, 10624.544098918926, 21646.412807275392, -50919.19611921265, -54366.125686898915, -44689.54142207401, -54136.37210564281, -32444.89818154552, -12353.004497647822, -0.106, 0.96, 0.258, 192.0, 0.0, 0.0, 0.0, 0.0, 0.0, 0.0, 0.0, 0.0, 0.0, 1.700946968727859E9, 0.0, 2023-11-25 16:16:08.727
110.0, 10772.333833257419, 21598.222446229753, -50898.07372070238, -54404.213059450754, -44331.57823462227, -54127.4761113496, -32480.012772084807, -12396.724509802403, -0.10400000000000001, 0.9500000000000001, 0.254, 192.0, 252.0, 192.0, 29.0, 176.0, 7.0, 240.0, 0.0, 0.0, 0.0, 1.70094696873382E9, 0.0, 2023-11-25 16:16:08.733
111.0, 10601.365339918773, 21515.16336383383, -50903.88517426076, -54414.62897236693, -44372.526630464396, -54383.3365301295, -32473.597821426134, -12387.82851550919, -0.10400000000000001, 0.9500000000000001, 0.254, 192.0, 0.0, 0.0, 0.0, 0.0, 0.0, 0.0, 0.0, 0.0, 0.0, 1.700946968736937E9, 0.0, 2023-11-25 16:16:08.736
112.0, 10471.948739522546, 21562.236137656706, -50900.018322469994, -54377.2345038932, -44809.48088282119, -54384.40941386335, -32442.998283266817, -12351.484579024862, -0.10400000000000001, 0.9500000000000001, 0.254, 192.0, 0.0, 0.0, 0.0, 0.0, 0.0, 0.0, 0.0, 0.0, 0.0, 1.70094696874099E9, 0.0, 2023-11-25 16:16:08.740
113.0, 10594.61511309327, 21635.303990281107, -50921.54305238045, -54377.301559126565, -44719.269242199574, -54162.59070188889, -32463.539536421245, -12366.862579210112, -0.10400000000000001, 0.9500000000000001, 0.254, 192.0, 0.0, 0.0, 0.0, 0.0, 0.0, 0.0, 0.0, 0.0, 0.0, 1.700946968745915E9, 0.0, 2023-11-25 16:16:08.745
114.0, 10766.075344809931, 21630.028978589653, -50882.203982139115, -54384.230599907714, -44402.32150582332, -54100.98929417006, -32462.019617798283, -12375.311538614218, -0.10400000000000001, 0.9500000000000001, 0.254, 192.0, 0.0, 0.0, 0.0, 0.0, 0.0, 0.0, 0.0, 0.0, 0.0, 1.70094696874892E9, 0.0, 2023-11-25 16:16:08.748
115.0, 10672.600349497838, 21530.11668087443, -50873.35269133481, -54408.079911241526, -44270.71443447047, -54319.142320053856, -32454.688245616944, -12374.149247902544, -0.10400000000000001, 0.9500000000000001, 0.254, 192.0, 0.0, 0.0, 0.0, 0.0, 0.0, 0.0, 0.0, 0.0, 0.0, 1.700946968752951E9, 0.0, 2023-11-25 16:16:08.752
116.0, 10476.93317853608, 21560.22448065573, -50864.68021448615, -54368.226750877715, -44780.24480107365, -54408.43753915281, -32403.927433958943, -12320.594468187628, -0.10400000000000001, 0.9500000000000001, 0.254, 192.0, 0.0, 0.0, 0.0, 0.0, 0.0, 0.0, 0.0, 0.0, 0.0, 1.700946968755948E9, 0.0, 2023-11-25 16:16:08.755
117.0, 10579.862961752768, 21614.494516193216, -50900.59946782583, -54389.52796334362, -44734.311966217996, -54188.20580103467, -32437.90208553101, -12351.953965658424, -0.10400000000000001, 0.9500000000000001, 0.254, 192.0, 0.0, 0.0, 0.0, 0.0, 0.0, 0.0, 0.0, 0.0, 0.0, 1.700946968759959E9, 0.0, 2023-11-25 16:16:08.759
118.0, 10727.339771668885, 21621.8035366301, -50887.233124641556, -54404.16835596185, -44493.06958831187, -54111.82989023088, -32449.636751370046, -12368.49425655535, -0.10400000000000001, 0.9500000000000001, 0.254, 192.0, 0.0, 0.0, 0.0, 0.0, 0.0, 0.0, 0.0, 0.0, 0.0, 1.700946968763938E9, 0.0, 2023-11-25 16:16:08.763
119.0, 10709.816004015924, 21523.6793784713, -50876.392528580735, -54436.6007371665, -44233.7893526303, -54283.290121947546, -32448.09448100263, -12377.300843870742, -0.10400000000000001, 0.9500000000000001, 0.254, 192.0, 0.0, 0.0, 0.0, 0.0, 0.0, 0.0, 0.0, 0.0, 0.0, 1.70094696876797E9, 0.0, 2023-11-25 16:16:08.767
120.0, 10470.361765666219, 21540.64435251288, -50879.16414489319, -54388.700948798774, -44754.80851588351, -54444.02151632566, -32392.013954164264, -12314.62655241806, -0.106, 0.9520000000000001, 0.258, 192.0, 252.0, 176.0, 29.0, 192.0, 8.0, 16.0, 0.0, 0.0, 0.0, 1.700946968772979E9, 0.0, 2023-11-25 16:16:08.772
121.0, 10557.399458575184, 21598.669481118857, -50919.71020933512, -54396.79228029159, -44769.13598407936, -54228.66245849877, -32424.714556302377, -12344.399076032529, -0.106, 0.9520000000000001, 0.258, 192.0, 0.0, 0.0, 0.0, 0.0, 0.0, 0.0, 0.0, 0.0, 0.0, 1.700946968775944E9, 0.0, 2023-11-25 16:16:08.775
122.0, 10700.361216111329, 21634.991065858732, -50925.119331493304, -54398.826289037024, -44571.21128692762, -54113.79684374295, -32436.71744307488, -12359.598262262138, -0.106, 0.9520000000000001, 0.258, 192.0, 0.0, 0.0, 0.0, 0.0, 0.0, 0.0, 0.0, 0.0, 0.0, 1.700946968779932E9, 0.0, 2023-11-25 16:16:08.779
123.0, 10743.589489887892, 21538.11860538943, -50914.636363343765, -54441.67458315785, -44220.62417514613, -54245.15804590679, -32468.255754501315, -12396.389233635573, -0.106, 0.9520000000000001, 0.258, 192.0, 0.0, 0.0, 0.0, 0.0, 0.0, 0.0, 0.0, 0.0, 0.0, 1.700946968783993E9, 0.0, 2023-11-25 16:16:08.783
124.0, 10476.866123302714, 21523.791137193577, -50919.2184709571, -54403.67661758383, -44687.686227284226, -54473.101135862016, -32426.03330922524, -12352.11042786961, -0.106, 0.9520000000000001, 0.258, 192.0, 0.0, 0.0, 0.0, 0.0, 0.0, 0.0, 0.0, 0.0, 0.0, 1.700946968787991E9, 0.0, 2023-11-25 16:16:08.787
125.0, 10538.266365321442, 21599.31768170806, -50928.38268618377, -54387.29278889809, -44796.40511231484, -54280.40674691281, -32435.89042853003, -12359.35239307313, -0.106, 0.9520000000000001, 0.258, 192.0, 0.0, 0.0, 0.0, 0.0, 0.0, 0.0, 0.0, 0.0, 0.0, 1.700946968792052E9, 0.0, 2023-11-25 16:16:08.792
126.0, 10687.68777700517, 21673.27960411067, -50918.41380815671, -54368.919654955826, -44635.69606968118, -54120.94940196865, -32446.283989701747, -12362.392230319052, -0.106, 0.9520000000000001, 0.258, 192.0, 0.0, 0.0, 0.0, 0.0, 0.0, 0.0, 0.0, 0.0, 0.0, 1.700946968796048E9, 0.0, 2023-11-25 16:16:08.796
