%OpenBCI Raw EXG Data
%Number of channels = 8
%Sample Rate = 250 Hz
%Board = OpenBCI_GUI$BoardCytonSerial
Sample Index, EXG Channel 0, EXG Channel 1, EXG Channel 2, EXG Channel 3, EXG Channel 4, EXG Channel 5, EXG Channel 6, EXG Channel 7, Accel Channel 0, Accel Channel 1, Accel Channel 2, Other, Other, Other, Other, Other, Other, Other, Analog Channel 0, Analog Channel 1, Analog Channel 2, Timestamp, Other, Timestamp (Formatted)
102.0, 35790.70845731598, 55621.08673108659, 20631.621257259998, -12824.380436465794, 20329.135099546325, 34333.79940197461, 11617.050959712382, 31816.501237929016, 0.0, 0.0, 0.0, 192.0, 0.0, 0.0, 0.0, 0.0, 0.0, 0.0, 0.0, 0.0, 0.0, 1.700951506728165E9, 0.0, 2023-11-25 17:31:46.728
103.0, 35947.37183420322, 55654.59199602509, 20675.18480720339, -12734.28055456645, 20601.22288480078, 34755.576819846254, 11619.420244624645, 31835.29905501593, 0.0, 0.0, 0.0, 192.0, 0.0, 0.0, 0.0, 0.0, 0.0, 0.0, 0.0, 0.0, 0.0, 1.700951506728191E9, 0.0, 2023-11-25 17:31:46.728
0.0, 0.0, 0.0, 0.0, 0.0, 0.0, 0.0, 0.0, 0.0, -0.096, 0.982, -0.018000000000000002, 192.0, 253.0, 0.0, 30.0, 176.0, 255.0, 112.0, 0.0, 0.0, 0.0, 1.700951506816901E9, 0.0, 2023-11-25 17:31:46.816
1.0, 35687.10812176563, 55451.816970326545, 20198.109173549317, -12231.1874903664, 20832.094053279645, 33960.97230446009, 11643.202500725092, 31995.76222846058, -0.096, 0.982, -0.018000000000000002, 192.0, 0.0, 0.0, 0.0, 0.0, 0.0, 0.0, 0.0, 0.0, 0.0, 1.700951506833945E9, 0.0, 2023-11-25 17:31:46.833
2.0, 35721.41804950453, 55535.43484633385, 20180.563054151902, -12191.289626513675, 20776.237043885834, 34104.26933816306, 11636.809901810873, 32007.38513557734, -0.096, 0.982, -0.018000000000000002, 192.0, 0.0, 0.0, 0.0, 0.0, 0.0, 0.0, 0.0, 0.0, 0.0, 1.700951506837946E9, 0.0, 2023-11-25 17:31:46.837
3.0, 35852.9133621351, 55594.063472040114, 20212.70486267863, -12125.374332114976, 20947.451406413486, 34306.418515016856, 11642.844872813806, 32019.8574089834, -0.096, 0.982, -0.018000000000000002, 192.0, 0.0, 0.0, 0.0, 0.0, 0.0, 0.0, 0.0, 0.0, 0.0, 1.700951506840939E9, 0.0, 2023-11-25 17:31:46.840
4.0, 35874.415740301105, 55522.56024152759, 20214.470650490603, -12158.946652286846, 21030.108157409213, 34614.09027744416, 11624.449387127088, 31997.818588950468, -0.096, 0.982, -0.018000000000000002, 192.0, 0.0, 0.0, 0.0, 0.0, 0.0, 0.0, 0.0, 0.0, 0.0, 1.700951506844008E9, 0.0, 2023-11-25 17:31:46.844
5.0, 35692.24902299035, 55442.585699866504, 20195.00228107003, -12251.013487698256, 20828.026035788782, 33993.60585136484, 11628.427997640134, 31980.38422827533, -0.096, 0.982, -0.018000000000000002, 192.0, 0.0, 0.0, 0.0, 0.0, 0.0, 0.0, 0.0, 0.0, 0.0, 1.700951506846989E9, 0.0, 2023-11-25 17:31:46.846
6.0, 35719.02641284781, 55522.53788978313, 20177.076182016874, -12198.643350439472, 20787.189398668936, 34093.51814908006, 11623.39885513769, 31998.399734306306, -0.096, 0.982, -0.018000000000000002, 192.0, 0.0, 0.0, 0.0, 0.0, 0.0, 0.0, 0.0, 0.0, 0.0, 1.700951506851038E9, 0.0, 2023-11-25 17:31:46.851
7.0, 35821.39740245311, 55584.653387624436, 20199.919664850197, -12152.397591161442, 20886.207626605945, 34215.29045287257, 11629.143253462704, 31997.818588950468, -0.096, 0.982, -0.018000000000000002, 192.0, 0.0, 0.0, 0.0, 0.0, 0.0, 0.0, 0.0, 0.0, 0.0, 1.700951506856046E9, 0.0, 2023-11-25 17:31:46.856
8.0, 35905.037630204875, 55543.392067359935, 20218.784537170475, -12139.992372988747, 21067.83790204977, 34638.99012076737, 11623.689427815609, 31993.70586797069, -0.10200000000000001, 0.976, -0.028, 192.0, 252.0, 208.0, 30.0, 128.0, 255.0, 32.0, 0.0, 0.0, 0.0, 1.700951506861246E9, 0.0, 2023-11-25 17:31:46.861
9.0, 35708.45403772045, 55442.92097603333, 20204.390013741257, -12257.80841801267, 20849.014323832314, 34040.49981123207, 11633.546547120399, 31976.13739682882, -0.10200000000000001, 0.976, -0.028, 192.0, 0.0, 0.0, 0.0, 0.0, 0.0, 0.0, 0.0, 0.0, 0.0, 1.700951506864088E9, 0.0, 2023-11-25 17:31:46.864
10.0, 35718.62408144761, 55513.21721234527, 20185.01105129851, -12196.27406552721, 20816.492535649842, 34060.54932600848, 11632.518366875454, 32008.279205355553, -0.10200000000000001, 0.976, -0.028, 192.0, 0.0, 0.0, 0.0, 0.0, 0.0, 0.0, 0.0, 0.0, 0.0, 1.700951506868072E9, 0.0, 2023-11-25 17:31:46.868
11.0, 35789.07677997074, 55579.91481779991, 20194.42113571419, -12163.685222111371, 20843.851070863137, 34154.292542254036, 11633.881823287229, 32003.25006285311, -0.10200000000000001, 0.976, -0.028, 192.0, 0.0, 0.0, 0.0, 0.0, 0.0, 0.0, 0.0, 0.0, 0.0, 1.700951506872083E9, 0.0, 2023-11-25 17:31:46.872
12.0, 35918.873360022706, 55568.87305603899, 20222.80785117243, -12108.029378417657, 21092.357765717243, 34634.162143965026, 11630.372599407745, 32010.67084201227, -0.10200000000000001, 0.976, -0.028, 192.0, 0.0, 0.0, 0.0, 0.0, 0.0, 0.0, 0.0, 0.0, 0.0, 1.700951506875089E9, 0.0, 2023-11-25 17:31:46.875
13.0, 35722.89326463858, 55448.106580746964, 20204.792345141454, -12244.710295761859, 20874.070629366714, 34155.00779807661, 11626.125767961237, 31967.66608568026, -0.10200000000000001, 0.976, -0.028, 192.0, 0.0, 0.0, 0.0, 0.0, 0.0, 0.0, 0.0, 0.0, 0.0, 1.700951506879063E9, 0.0, 2023-11-25 17:31:46.879
14.0, 35708.05170632025, 55498.42035751586, 20187.67090888869, -12192.518972458718, 20831.82583234618, 34038.06347108644, 11631.132558719226, 32000.679612240747, -0.10200000000000001, 0.976, -0.028, 192.0, 0.0, 0.0, 0.0, 0.0, 0.0, 0.0, 0.0, 0.0, 0.0, 1.700951506885133E9, 0.0, 2023-11-25 17:31:46.885
15.0, 35761.69589301299, 55568.18015196087, 20187.201522255127, -12172.290643726665, 20805.160201211, 34129.124477997364, 11632.20544245308, 31996.81276044998, -0.10200000000000001, 0.976, -0.028, 192.0, 0.0, 0.0, 0.0, 0.0, 0.0, 0.0, 0.0, 0.0, 0.0, 1.700951506888093E9, 0.0, 2023-11-25 17:31:46.888
16.0, 35914.67123206511, 55580.22774222228, 20221.53380173848, -12094.171296855367, 21080.712506856027, 34578.19337584894, 11636.429922155134, 32014.917673458778, -0.10200000000000001, 0.976, -0.028, 192.0, 0.0, 0.0, 0.0, 0.0, 0.0, 0.0, 0.0, 0.0, 0.0, 1.700951506891102E9, 0.0, 2023-11-25 17:31:46.891
17.0, 35752.64343650859, 55453.47099941623, 20201.528990450977, -12232.863871200547, 20902.99378669188, 34293.81213114406, 11626.05871272787, 31968.33663801392, -0.10200000000000001, 0.976, -0.028, 192.0, 0.0, 0.0, 0.0, 0.0, 0.0, 0.0, 0.0, 0.0, 0.0, 1.700951506896103E9, 0.0, 2023-11-25 17:31:46.896
18.0, 35698.954546326946, 55478.54965669509, 20186.37450771028, -12205.684149942894, 20834.351579469632, 34002.099514257854, 11636.742846577508, 31996.9021674278, -0.10400000000000001, 0.976, -0.034, 192.0, 252.0, 192.0, 30.0, 128.0, 254.0, 240.0, 0.0, 0.0, 0.0, 1.70095150690012E9, 0.0, 2023-11-25 17:31:46.900
19.0, 35734.76204094435, 55550.254052907716, 20171.979984281064, -12186.640463666972, 20776.16998865247, 34111.62306208886, 11631.91486977516, 31992.34241155892, -0.10400000000000001, 0.976, -0.034, 192.0, 0.0, 0.0, 0.0, 0.0, 0.0, 0.0, 0.0, 0.0, 0.0, 1.70095150690311E9, 0.0, 2023-11-25 17:31:46.903
20.0, 35888.83261547478, 55580.585370133565, 20208.703900421133, -12095.668863733872, 21040.747587769936, 34489.12167419454, 11643.604832125287, 32016.549350804016, -0.10400000000000001, 0.976, -0.034, 192.0, 0.0, 0.0, 0.0, 0.0, 0.0, 0.0, 0.0, 0.0, 0.0, 1.70095150690918E9, 0.0, 2023-11-25 17:31:46.909
21.0, 35782.01362872287, 55465.9432728223, 20196.432792715168, -12201.392615007475, 20945.23858371241, 34427.699080431354, 11632.786587808918, 31976.450321251195, -0.10400000000000001, 0.976, -0.034, 192.0, 0.0, 0.0, 0.0, 0.0, 0.0, 0.0, 0.0, 0.0, 0.0, 1.700951506913177E9, 0.0, 2023-11-25 17:31:46.913
22.0, 35682.05662751873, 55454.543883150094, 20183.155856508714, -12209.305132544654, 20836.251477748334, 33975.5679935894, 11641.548471635399, 31994.19760634871, -0.10400000000000001, 0.976, -0.034, 192.0, 0.0, 0.0, 0.0, 0.0, 0.0, 0.0, 0.0, 0.0, 0.0, 1.700951506916191E9, 0.0, 2023-11-25 17:31:46.916
23.0, 35710.93508135499, 55532.41736083238, 20163.37456266577, -12185.433469466385, 20769.59857578261, 34114.61819584587, 11630.864337785762, 31995.918690671766, -0.10400000000000001, 0.976, -0.034, 192.0, 0.0, 0.0, 0.0, 0.0, 0.0, 0.0, 0.0, 0.0, 0.0, 1.700951506920205E9, 0.0, 2023-11-25 17:31:46.920
24.0, 35854.72385343598, 55579.467782910804, 20199.919664850197, -12106.800032472614, 20990.232645300945, 34385.968373533295, 11640.095608245803, 32009.79912397851, -0.10400000000000001, 0.976, -0.034, 192.0, 0.0, 0.0, 0.0, 0.0, 0.0, 0.0, 0.0, 0.0, 0.0, 1.700951506929708E9, 0.0, 2023-11-25 17:31:46.929
25.0, 35824.10196353221, 55491.13368882343, 20198.80207762743, -12177.431544951385, 20996.357023281696, 34551.90772436949, 11625.723436561042, 31974.639829950316, -0.10400000000000001, 0.976, -0.034, 192.0, 0.0, 0.0, 0.0, 0.0, 0.0, 0.0, 0.0, 0.0, 0.0, 1.700951506933237E9, 0.0, 2023-11-25 17:31:46.933
26.0, 35677.832147816676, 55445.69259234579, 20184.80988559841, -12232.41683631144, 20836.810271359715, 33982.273516926, 11634.887651787718, 31981.345353286906, -0.10400000000000001, 0.976, -0.034, 192.0, 0.0, 0.0, 0.0, 0.0, 0.0, 0.0, 0.0, 0.0, 0.0, 1.700951506936313E9, 0.0, 2023-11-25 17:31:46.936
27.0, 35708.05170632025, 55524.75071248421, 20163.531024876957, -12193.122469559012, 20779.16512240948, 34116.89807378031, 11625.209346438569, 32000.81372270748, -0.10400000000000001, 0.976, -0.034, 192.0, 0.0, 0.0, 0.0, 0.0, 0.0, 0.0, 0.0, 0.0, 0.0, 1.700951506939241E9, 0.0, 2023-11-25 17:31:46.939
28.0, 35831.6568531581, 55582.35115794554, 20195.248150259038, -12129.084721694557, 20935.85085104118, 34284.37969498392, 11635.066465743359, 32013.688327513737, -0.108, 0.972, -0.038, 192.0, 252.0, 160.0, 30.0, 96.0, 254.0, 208.0, 0.0, 0.0, 0.0, 1.700951506943258E9, 0.0, 2023-11-25 17:31:46.943
29.0, 35867.844327431245, 55519.699218237314, 20201.707804406622, -12152.084666739067, 21044.882660494168, 34625.10968746062, 11623.82353828234, 32002.780676219547, -0.108, 0.972, -0.038, 192.0, 0.0, 0.0, 0.0, 0.0, 0.0, 0.0, 0.0, 0.0, 0.0, 1.70095150694618E9, 0.0, 2023-11-25 17:31:46.946
30.0, 35680.44730191795, 55436.93070851931, 20183.155856508714, -12249.605327797572, 20839.179556271978, 34011.73311611809, 11628.852680784785, 31982.32883004294, -0.108, 0.972, -0.038, 192.0, 0.0, 0.0, 0.0, 0.0, 0.0, 0.0, 0.0, 0.0, 0.0, 1.700951506949283E9, 0.0, 2023-11-25 17:31:46.949
31.0, 35704.29661325176, 55513.88776467893, 20165.94501327813, -12194.061242826134, 20799.92989300846, 34102.07886720644, 11627.10924471727, 32010.536731545537, -0.108, 0.972, -0.038, 192.0, 0.0, 0.0, 0.0, 0.0, 0.0, 0.0, 0.0, 0.0, 0.0, 1.700951506953324E9, 0.0, 2023-11-25 17:31:46.953
32.0, 35799.71621033147, 55577.61258812101, 20190.95661532362, -12144.730942813272, 20886.94523417297, 34206.41681032381, 11640.20736696808, 32021.176161906264, -0.108, 0.972, -0.038, 192.0, 0.0, 0.0, 0.0, 0.0, 0.0, 0.0, 0.0, 0.0, 0.0, 1.700951506961288E9, 0.0, 2023-11-25 17:31:46.961
33.0, 35890.66545852011, 55546.94599472833, 20210.00030159954, -12122.580364058062, 21082.813570834824, 34652.870554074114, 11636.407570410678, 32018.784525249546, -0.108, 0.972, -0.038, 192.0, 0.0, 0.0, 0.0, 0.0, 0.0, 0.0, 0.0, 0.0, 0.0, 1.700951506965319E9, 0.0, 2023-11-25 17:31:46.965
34.0, 35687.15282525454, 55436.371914907926, 20186.821542599388, -12252.108723176567, 20854.490501223863, 34087.72904726613, 11633.434788398123, 31982.61940272086, -0.108, 0.972, -0.038, 192.0, 0.0, 0.0, 0.0, 0.0, 0.0, 0.0, 0.0, 0.0, 0.0, 1.700951506968293E9, 0.0, 2023-11-25 17:31:46.968
35.0, 35695.6241364031, 55502.46602326227, 20169.633051113255, -12190.149687546455, 20821.231105474366, 34075.65910526027, 11636.854605299784, 32012.9060164578, -0.108, 0.972, -0.038, 192.0, 0.0, 0.0, 0.0, 0.0, 0.0, 0.0, 0.0, 0.0, 0.0, 1.700951506971314E9, 0.0, 2023-11-25 17:31:46.971
36.0, 35764.78043374782, 55568.493076383245, 20177.590272139343, -12157.583195875073, 20835.044483547746, 34158.27115276708, 11639.872090801251, 32016.839923481934, -0.108, 0.972, -0.038, 192.0, 0.0, 0.0, 0.0, 0.0, 0.0, 0.0, 0.0, 0.0, 0.0, 1.700951506975423E9, 0.0, 2023-11-25 17:31:46.975
37.0, 35898.332106868285, 55561.51933211319, 20205.6193596863, -12097.032320145647, 21089.69790812706, 34634.85504804314, 11636.496977388499, 32026.406470108806, -0.116, 0.984, -0.036000000000000004, 192.0, 252.0, 96.0, 30.0, 192.0, 254.0, 224.0, 0.0, 0.0, 0.0, 1.700951506978825E9, 0.0, 2023-11-25 17:31:46.978
38.0, 35712.298537766765, 55438.338868419996, 20187.939129822153, -12237.37892358052, 20881.089077125678, 34192.044638639054, 11633.926526776138, 31982.060609109478, -0.116, 0.984, -0.036000000000000004, 192.0, 0.0, 0.0, 0.0, 0.0, 0.0, 0.0, 0.0, 0.0, 0.0, 1.700951506985353E9, 0.0, 2023-11-25 17:31:46.985
39.0, 35697.188758514974, 55490.261970789674, 20175.690373860645, -12186.662815411428, 20840.341846983654, 34038.666968186735, 11641.101436746292, 32016.102315914908, -0.116, 0.984, -0.036000000000000004, 192.0, 0.0, 0.0, 0.0, 0.0, 0.0, 0.0, 0.0, 0.0, 0.0, 1.700951506989342E9, 0.0, 2023-11-25 17:31:46.989
40.0, 35745.222657349426, 55558.4124396339, 20168.26959470148, -12169.36256520302, 20801.78508779825, 34134.89122806683, 11634.440616898612, 32007.988632677632, -0.116, 0.984, -0.036000000000000004, 192.0, 0.0, 0.0, 0.0, 0.0, 0.0, 0.0, 0.0, 0.0, 0.0, 1.700951506992378E9, 0.0, 2023-11-25 17:31:46.992
41.0, 35893.571185299304, 55565.497942626236, 20194.6670049032, -12098.038148646136, 21069.223710206, 34588.855157954116, 11634.172395965148, 32016.37053684837, -0.116, 0.984, -0.036000000000000004, 192.0, 0.0, 0.0, 0.0, 0.0, 0.0, 0.0, 0.0, 0.0, 0.0, 1.700951506995397E9, 0.0, 2023-11-25 17:31:46.995
42.0, 35744.46269803795, 55444.77617082312, 20180.80892334091, -12230.47223454383, 20910.19104840649, 34333.262960107684, 11630.260840685469, 31976.249155551097, -0.116, 0.984, -0.036000000000000004, 192.0, 0.0, 0.0, 0.0, 0.0, 0.0, 0.0, 0.0, 0.0, 0.0, 1.700951506999368E9, 0.0, 2023-11-25 17:31:46.999
43.0, 35682.68247636348, 55461.89760707589, 20164.335687677347, -12205.639446453983, 20836.050312048235, 34015.1305812753, 11642.420189669156, 32007.251025110607, -0.116, 0.984, -0.036000000000000004, 192.0, 0.0, 0.0, 0.0, 0.0, 0.0, 0.0, 0.0, 0.0, 0.0, 1.700951507002407E9, 0.0, 2023-11-25 17:31:47.002
44.0, 35714.89134012358, 55531.74680849872, 20147.92950724715, -12188.965045090325, 20772.21372988388, 34134.13126875535, 11638.195709967102, 32004.702926242702, -0.116, 0.984, -0.036000000000000004, 192.0, 0.0, 0.0, 0.0, 0.0, 0.0, 0.0, 0.0, 0.0, 0.0, 1.700951507005344E9, 0.0, 2023-11-25 17:31:47.005
45.0, 35865.69855996354, 55567.97898626077, 20186.307452476914, -12105.481279549753, 21031.62807603217, 34475.35299961007, 11649.103361261292, 32028.552237576514, -0.116, 0.984, -0.036000000000000004, 192.0, 0.0, 0.0, 0.0, 0.0, 0.0, 0.0, 0.0, 0.0, 0.0, 1.700951507009402E9, 0.0, 2023-11-25 17:31:47.009
46.0, 35775.911602486565, 55459.30480471907, 20174.215158726594, -12212.724949446316, 20955.028647783834, 34458.09745289057, 11632.473663386543, 31985.659239966782, -0.116, 0.984, -0.036000000000000004, 192.0, 0.0, 0.0, 0.0, 0.0, 0.0, 0.0, 0.0, 0.0, 0.0, 1.700951507012423E9, 0.0, 2023-11-25 17:31:47.012
47.0, 35670.18785121296, 55443.39036266689, 20157.205481196106, -12231.746283977782, 20831.959942812915, 33982.16175820372, 11634.73118957653, 31991.560100502982, -0.112, 0.986, -0.038, 192.0, 252.0, 128.0, 30.0, 208.0, 254.0, 208.0, 0.0, 0.0, 0.0, 1.700951507015418E9, 0.0, 2023-11-25 17:31:47.015
48.0, 35707.87289236461, 55524.75071248421, 20138.899402487208, -12200.207972551343, 20767.430456570444, 34120.42964940425, 11621.476605114533, 31990.308402813484, -0.112, 0.986, -0.038, 192.0, 0.0, 0.0, 0.0, 0.0, 0.0, 0.0, 0.0, 0.0, 0.0, 1.700951507021453E9, 0.0, 2023-11-25 17:31:47.021
49.0, 35851.59460921223, 55576.249131709235, 20174.259862215506, -12119.831099490058, 20979.593214940218, 34377.47471064028, 11630.68552383012, 32012.123705401864, -0.112, 0.986, -0.038, 192.0, 0.0, 0.0, 0.0, 0.0, 0.0, 0.0, 0.0, 0.0, 0.0, 1.700951507024439E9, 0.0, 2023-11-25 17:31:47.024
50.0, 35828.92994033455, 55491.96070336828, 20173.47755115957, -12182.952425831847, 21006.52706700886, 34588.497530042834, 11614.525212588933, 31987.67089696776, -0.112, 0.986, -0.038, 192.0, 0.0, 0.0, 0.0, 0.0, 0.0, 0.0, 0.0, 0.0, 0.0, 1.700951507027454E9, 0.0, 2023-11-25 17:31:47.027
51.0, 35671.55130762474, 55437.5342056196, 20160.625298097766, -12244.531481806218, 20836.720864381896, 33989.023743751495, 11621.29779115889, 31972.404655504783, -0.112, 0.986, -0.038, 192.0, 0.0, 0.0, 0.0, 0.0, 0.0, 0.0, 0.0, 0.0, 0.0, 1.70095150703056E9, 0.0, 2023-11-25 17:31:47.030
52.0, 35701.323831239206, 55515.988828657726, 20141.42514961066, -12193.36833874802, 20785.02127945677, 34111.55600685549, 11615.173413178136, 31984.072266110456, -0.112, 0.986, -0.038, 192.0, 0.0, 0.0, 0.0, 0.0, 0.0, 0.0, 0.0, 0.0, 0.0, 1.700951507035297E9, 0.0, 2023-11-25 17:31:47.035
53.0, 35817.53055066235, 55575.64563460895, 20172.449370914623, -12125.73196002626, 20929.61471433815, 34268.57701165402, 11630.462006385565, 32010.38026933435, -0.112, 0.986, -0.038, 192.0, 0.0, 0.0, 0.0, 0.0, 0.0, 0.0, 0.0, 0.0, 0.0, 1.700951507039505E9, 0.0, 2023-11-25 17:31:47.039
54.0, 35859.440071516045, 55515.87706993545, 20179.937205307153, -12142.205195689821, 21055.343276899253, 34640.778260323794, 11617.877974257228, 31984.072266110456, -0.112, 0.986, -0.038, 192.0, 0.0, 0.0, 0.0, 0.0, 0.0, 0.0, 0.0, 0.0, 0.0, 1.700951507043551E9, 0.0, 2023-11-25 17:31:47.043
55.0, 35666.3209994222, 55421.84328101198, 20158.211309696595, -12253.0921999326, 20838.777224871785, 34029.32393900442, 11615.709855045065, 31957.60780067537, -0.112, 0.986, -0.038, 192.0, 0.0, 0.0, 0.0, 0.0, 0.0, 0.0, 0.0, 0.0, 0.0, 1.7009515070475E9, 0.0, 2023-11-25 17:31:47.047
56.0, 35691.28789797877, 55498.55446798259, 20138.98880946503, -12196.475231227307, 20802.07566047617, 34101.52007359506, 11615.82161376734, 32000.634908751836, -0.112, 0.986, -0.038, 192.0, 0.0, 0.0, 0.0, 0.0, 0.0, 0.0, 0.0, 0.0, 0.0, 1.700951507051719E9, 0.0, 2023-11-25 17:31:47.051
57.0, 35783.01945722335, 55567.800172305135, 20160.13355971975, -12148.843663793048, 20876.37285904561, 34200.8735776989, 11625.96930575005, 32013.28599611354, -0.108, 0.986, -0.034, 192.0, 252.0, 160.0, 30.0, 208.0, 254.0, 240.0, 0.0, 0.0, 0.0, 1.700951507055606E9, 0.0, 2023-11-25 17:31:47.055
58.0, 35887.826786974285, 55541.73803827025, 20186.352155965826, -12115.472509321275, 21093.0283180509, 34663.95701932395, 11621.208384181069, 32016.258778126095, -0.108, 0.986, -0.034, 192.0, 0.0, 0.0, 0.0, 0.0, 0.0, 0.0, 0.0, 0.0, 0.0, 1.700951507058623E9, 0.0, 2023-11-25 17:31:47.058
59.0, 35688.650392133044, 55425.28544965809, 20170.482417402556, -12248.0407056857, 20868.79561767526, 34115.199341201704, 11626.841023783807, 31983.245251565608, -0.108, 0.986, -0.034, 192.0, 0.0, 0.0, 0.0, 0.0, 0.0, 0.0, 0.0, 0.0, 0.0, 1.700951507062559E9, 0.0, 2023-11-25 17:31:47.062
60.0, 35695.35591546964, 55489.569066711556, 20153.539795105433, -12183.22064676531, 20833.904544580528, 34087.63964028831, 11633.412436653667, 32016.549350804016, -0.108, 0.986, -0.034, 192.0, 0.0, 0.0, 0.0, 0.0, 0.0, 0.0, 0.0, 0.0, 0.0, 1.700951507067593E9, 0.0, 2023-11-25 17:31:47.067
61.0, 35767.440291338, 55567.375489160484, 20165.162702222195, -12147.88253878147, 20840.27479175029, 34162.94266735824, 11644.454198414589, 32017.778696749057, -0.108, 0.986, -0.034, 192.0, 0.0, 0.0, 0.0, 0.0, 0.0, 0.0, 0.0, 0.0, 0.0, 1.7009515070716E9, 0.0, 2023-11-25 17:31:47.071
62.0, 35908.05511570634, 55570.37062291749, 20198.064470060406, -12079.419145514865, 21107.489896713483, 34656.022150042314, 11650.01978278396, 32031.0109294666, -0.108, 0.986, -0.034, 192.0, 0.0, 0.0, 0.0, 0.0, 0.0, 0.0, 0.0, 0.0, 0.0, 1.700951507075626E9, 0.0, 2023-11-25 17:31:47.075
63.0, 35721.954491371456, 55445.40201966787, 20178.864321573295, -12222.738530962293, 20903.12789715861, 34253.981322524705, 11644.342439692313, 31987.46973126766, -0.108, 0.986, -0.034, 192.0, 0.0, 0.0, 0.0, 0.0, 0.0, 0.0, 0.0, 0.0, 0.0, 1.700951507079633E9, 0.0, 2023-11-25 17:31:47.079
64.0, 35693.74658986885, 55487.55740971058, 20160.401780653214, -12181.343100231064, 20853.88700412357, 34061.666913231245, 11646.30939320438, 32014.492990314127, -0.108, 0.986, -0.034, 192.0, 0.0, 0.0, 0.0, 0.0, 0.0, 0.0, 0.0, 0.0, 0.0, 1.700951507082688E9, 0.0, 2023-11-25 17:31:47.082
65.0, 35747.32372132823, 55569.27538743918, 20164.04511499943, -12155.079800496078, 20818.88417230656, 34138.5569141575, 11648.745733350008, 32012.324871101962, -0.108, 0.986, -0.034, 192.0, 0.0, 0.0, 0.0, 0.0, 0.0, 0.0, 0.0, 0.0, 0.0, 1.700951507089951E9, 0.0, 2023-11-25 17:31:47.089
66.0, 35904.63529880468, 55596.946847074854, 20206.871057375796, -12064.108200562978, 21101.186704777087, 34566.27989605426, 11658.289928232423, 32039.169316192787, -0.108, 0.986, -0.034, 192.0, 0.0, 0.0, 0.0, 0.0, 0.0, 0.0, 0.0, 0.0, 0.0, 1.700951507092762E9, 0.0, 2023-11-25 17:31:47.092
67.0, 35765.87566922613, 55478.84022937301, 20190.911911834708, -12192.183696291888, 20954.62631638364, 34374.792501305645, 11649.528044405943, 31997.818588950468, -0.108, 0.984, -0.034, 192.0, 252.0, 160.0, 30.0, 192.0, 254.0, 240.0, 0.0, 0.0, 0.0, 1.70095150709669E9, 0.0, 2023-11-25 17:31:47.096
68.0, 35691.51141542332, 55486.50687772118, 20167.219062712084, -12184.628806665994, 20864.817007162215, 34031.08972681638, 11648.142236249714, 32012.079001912953, -0.108, 0.984, -0.034, 192.0, 0.0, 0.0, 0.0, 0.0, 0.0, 0.0, 0.0, 0.0, 0.0, 1.700951507099893E9, 0.0, 2023-11-25 17:31:47.099
69.0, 35730.1352298421, 55561.09464896854, 20150.79053053743, -12165.518065156706, 20801.270997675776, 34134.5559519, 11636.742846577508, 32007.228673366153, -0.108, 0.984, -0.034, 192.0, 0.0, 0.0, 0.0, 0.0, 0.0, 0.0, 0.0, 0.0, 0.0, 1.700951507103747E9, 0.0, 2023-11-25 17:31:47.103
70.0, 35879.73545548147, 55596.63392265248, 20185.927472821175, -12080.335567037531, 21052.1693291866, 34464.91473494944, 11640.609698368276, 32022.986653207143, -0.108, 0.984, -0.034, 192.0, 0.0, 0.0, 0.0, 0.0, 0.0, 0.0, 0.0, 0.0, 0.0, 1.700951507107736E9, 0.0, 2023-11-25 17:31:47.107
71.0, 35795.71524807397, 55488.719700422254, 20173.03051627046, -12179.644367652461, 20992.221950557465, 34503.270328434744, 11624.941125505105, 31984.96633588867, -0.108, 0.984, -0.034, 192.0, 0.0, 0.0, 0.0, 0.0, 0.0, 0.0, 0.0, 0.0, 0.0, 1.700951507110765E9, 0.0, 2023-11-25 17:31:47.110
72.0, 35673.96529602591, 55458.74601110769, 20154.99265849503, -12206.89114414348, 20857.418579747507, 33998.187958978175, 11631.132558719226, 31994.845806937912, -0.108, 0.984, -0.034, 192.0, 0.0, 0.0, 0.0, 0.0, 0.0, 0.0, 0.0, 0.0, 0.0, 1.700951507114756E9, 0.0, 2023-11-25 17:31:47.114
73.0, 35707.51526445332, 55537.111227167996, 20135.74780651901, -12170.83778033707, 20795.191323183935, 34136.679367623256, 11621.96834349255, 32002.892434941823, -0.108, 0.984, -0.034, 192.0, 0.0, 0.0, 0.0, 0.0, 0.0, 0.0, 0.0, 0.0, 0.0, 1.700951507120729E9, 0.0, 2023-11-25 17:31:47.120
74.0, 35841.91630386309, 55589.72723361579, 20171.62235636978, -12092.986654399236, 20994.077145347255, 34370.90329777042, 11627.77979705093, 32016.482295570648, -0.108, 0.984, -0.034, 192.0, 0.0, 0.0, 0.0, 0.0, 0.0, 0.0, 0.0, 0.0, 0.0, 1.700951507123779E9, 0.0, 2023-11-25 17:31:47.123
75.0, 35831.38863222464, 55512.83723268953, 20174.10340000432, -12144.999163746736, 21040.524070325384, 34619.409992624525, 11615.978075978528, 31994.82345519346, -0.108, 0.984, -0.034, 192.0, 0.0, 0.0, 0.0, 0.0, 0.0, 0.0, 0.0, 0.0, 0.0, 1.700951507128382E9, 0.0, 2023-11-25 17:31:47.128
76.0, 35671.171327968994, 55454.3874209389, 20164.581556866357, -12214.356626791552, 20863.431199005987, 34012.20250275165, 11635.066465743359, 31998.95852791769, -0.108, 0.984, -0.034, 192.0, 0.0, 0.0, 0.0, 0.0, 0.0, 0.0, 0.0, 0.0, 0.0, 1.700951507131761E9, 0.0, 2023-11-25 17:31:47.131
77.0, 35702.374363228606, 55530.20453813131, 20141.626315310754, -12163.752277344738, 20814.011492015303, 34136.47820192316, 11630.909041274672, 32018.650414782813, -0.11, 0.986, -0.032, 192.0, 252.0, 144.0, 30.0, 208.0, 255.0, 0.0, 0.0, 0.0, 0.0, 1.700951507135772E9, 0.0, 2023-11-25 17:31:47.135
78.0, 35812.47905641545, 55589.05668128213, 20166.95084177862, -12107.180012128356, 20940.09768248769, 34281.22809901573, 11637.68161984463, 32023.746612518626, -0.11, 0.986, -0.032, 192.0, 0.0, 0.0, 0.0, 0.0, 0.0, 0.0, 0.0, 0.0, 0.0, 1.70095150713876E9, 0.0, 2023-11-25 17:31:47.138
79.0, 35873.74518796745, 55540.97807895876, 20181.07714427437, -12111.896230208426, 21088.669727882116, 34668.60618217065, 11627.01983773945, 32014.604749036404, -0.11, 0.986, -0.032, 192.0, 0.0, 0.0, 0.0, 0.0, 0.0, 0.0, 0.0, 0.0, 0.0, 1.700951507147872E9, 0.0, 2023-11-25 17:31:47.147
80.0, 35681.90016530755, 55449.425333669824, 20165.27446094447, -12221.531536761706, 20875.16586484502, 34055.095500361385, 11635.088817487815, 31991.627155736347, -0.11, 0.986, -0.032, 192.0, 0.0, 0.0, 0.0, 0.0, 0.0, 0.0, 0.0, 0.0, 0.0, 1.700951507150872E9, 0.0, 2023-11-25 17:31:47.150
81.0, 35702.30730799524, 55525.220099117774, 20147.102492702306, -12161.49475115475, 20837.950210326937, 34109.45494287669, 11636.787550066418, 32020.840885739435, -0.11, 0.986, -0.032, 192.0, 0.0, 0.0, 0.0, 0.0, 0.0, 0.0, 0.0, 0.0, 0.0, 1.700951507153822E9, 0.0, 2023-11-25 17:31:47.153
82.0, 35788.696800315, 55588.29672197065, 20164.112170232795, -12122.513308824697, 20892.488466797884, 34203.89106320037, 11642.353134435789, 32023.970129963178, -0.11, 0.986, -0.032, 192.0, 0.0, 0.0, 0.0, 0.0, 0.0, 0.0, 0.0, 0.0, 0.0, 1.700951507157844E9, 0.0, 2023-11-25 17:31:47.157
83.0, 35896.991002200964, 55565.11796297049, 20190.107249034318, -12081.564912982574, 21120.61037070875, 34689.86269114765, 11636.362866921767, 32023.299577629517, -0.11, 0.986, -0.032, 192.0, 0.0, 0.0, 0.0, 0.0, 0.0, 0.0, 0.0, 0.0, 0.0, 1.700951507160834E9, 0.0, 2023-11-25 17:31:47.160
84.0, 35697.613441659625, 55447.88306330241, 20171.55530113641, -12216.70355995936, 20897.025870922313, 34175.750216931134, 11633.412436653667, 31989.168463846265, -0.11, 0.986, -0.032, 192.0, 0.0, 0.0, 0.0, 0.0, 0.0, 0.0, 0.0, 0.0, 0.0, 1.700951507163833E9, 0.0, 2023-11-25 17:31:47.163
85.0, 35697.59108991517, 55505.88584016393, 20153.070408471875, -12161.49475115475, 20861.59835596065, 34120.742573826625, 11631.803111052885, 32018.561007804994, -0.11, 0.986, -0.032, 192.0, 0.0, 0.0, 0.0, 0.0, 0.0, 0.0, 0.0, 0.0, 0.0, 1.700951507173884E9, 0.0, 2023-11-25 17:31:47.173
86.0, 35765.3392273592, 55585.18982949136, 20162.70401033211, -12133.97975373027, 20862.425370505498, 34181.58402223397, 11634.172395965148, 32011.38609783484, -0.11, 0.986, -0.032, 192.0, 0.0, 0.0, 0.0, 0.0, 0.0, 0.0, 0.0, 0.0, 0.0, 1.700951507178199E9, 0.0, 2023-11-25 17:31:47.178
87.0, 35906.646955805656, 55590.621303394, 20191.314243234905, -12062.163598795367, 21134.200231337578, 34658.74906286586, 11632.16073896417, 32030.876818999866, -0.106, 0.98, -0.034, 192.0, 252.0, 176.0, 30.0, 160.0, 254.0, 240.0, 0.0, 0.0, 0.0, 1.700951507180907E9, 0.0, 2023-11-25 17:31:47.180
88.0, 35725.709584439945, 55464.602168154976, 20171.532949391956, -12210.690940700882, 20934.487394629406, 34293.02982008813, 11627.06454122836, 31990.174292346754, -0.106, 0.98, -0.034, 192.0, 0.0, 0.0, 0.0, 0.0, 0.0, 0.0, 0.0, 0.0, 0.0, 1.70095150718397E9, 0.0, 2023-11-25 17:31:47.183
89.0, 35695.937060825476, 55506.64579947541, 20161.6087748538, -12170.1225245145, 20882.65369923755, 34056.905991662265, 11644.789474581417, 32024.260702641095, -0.106, 0.98, -0.034, 192.0, 0.0, 0.0, 0.0, 0.0, 0.0, 0.0, 0.0, 0.0, 0.0, 1.700951507188041E9, 0.0, 2023-11-25 17:31:47.188
90.0, 35746.831982950214, 55580.20539047783, 20157.384295151747, -12150.095361482545, 20836.139719026058, 34140.389757202836, 11646.130579248736, 32014.560045547492, -0.106, 0.98, -0.034, 192.0, 0.0, 0.0, 0.0, 0.0, 0.0, 0.0, 0.0, 0.0, 0.0, 1.700951507190979E9, 0.0, 2023-11-25 17:31:47.190
91.0, 35903.11538018172, 55605.418158223416, 20197.505676449022, -12062.923558106848, 21114.41893749463, 34552.10889006959, 11652.679640374141, 32039.795165037536, -0.106, 0.98, -0.034, 192.0, 0.0, 0.0, 0.0, 0.0, 0.0, 0.0, 0.0, 0.0, 0.0, 1.700951507194346E9, 0.0, 2023-11-25 17:31:47.194
92.0, 35769.630762294626, 55480.00252008469, 20179.24430122904, -12191.356681747042, 20979.906139362593, 34417.39492623746, 11638.352172178289, 31998.71265872868, -0.106, 0.98, -0.034, 192.0, 0.0, 0.0, 0.0, 0.0, 0.0, 0.0, 0.0, 0.0, 0.0, 1.700951507196949E9, 0.0, 2023-11-25 17:31:47.196
93.0, 35686.86225257662, 55480.00252008469, 20159.507710875, -12186.931036344891, 20883.36895506012, 34038.376395508814, 11641.794340824406, 32014.247121125118, -0.106, 0.98, -0.034, 192.0, 0.0, 0.0, 0.0, 0.0, 0.0, 0.0, 0.0, 0.0, 0.0, 1.700951507199989E9, 0.0, 2023-11-25 17:31:47.199
94.0, 35727.050689107265, 55561.362869902005, 20148.22007992507, -12158.343155186552, 20821.856954319115, 34150.3586352299, 11634.619430854253, 32013.33069960245, -0.106, 0.98, -0.034, 192.0, 0.0, 0.0, 0.0, 0.0, 0.0, 0.0, 0.0, 0.0, 0.0, 1.700951507205968E9, 0.0, 2023-11-25 17:31:47.205
95.0, 35881.5682985268, 55606.35693149053, 20189.682565889667, -12065.873988374948, 21072.621175363205, 34466.41230182794, 11641.950803035594, 32035.637740568847, -0.106, 0.98, -0.034, 192.0, 0.0, 0.0, 0.0, 0.0, 0.0, 0.0, 0.0, 0.0, 0.0, 1.70095150720912E9, 0.0, 2023-11-25 17:31:47.209
96.0, 35813.5519401493, 55507.71868320926, 20182.261786730505, -12147.994297503747, 21034.0644161778, 34558.166212816985, 11624.762311549463, 32005.820513465467, -0.106, 0.98, -0.034, 192.0, 0.0, 0.0, 0.0, 0.0, 0.0, 0.0, 0.0, 0.0, 0.0, 1.700951507213152E9, 0.0, 2023-11-25 17:31:47.213
97.0, 35681.20726122943, 55477.38736598341, 20169.11896099078, -12181.343100231064, 20891.437934808488, 34030.37447099382, 11635.893480288207, 32016.43759208174, -0.10400000000000001, 0.982, -0.032, 192.0, 252.0, 192.0, 30.0, 176.0, 255.0, 0.0, 0.0, 0.0, 0.0, 1.700951507216183E9, 0.0, 2023-11-25 17:31:47.216
98.0, 35716.612424446634, 55556.467837866294, 20151.952821249106, -12146.78730330316, 20832.02699804628, 34160.32751325697, 11630.819634296851, 32028.462830598695, -0.10400000000000001, 0.982, -0.032, 192.0, 0.0, 0.0, 0.0, 0.0, 0.0, 0.0, 0.0, 0.0, 0.0, 1.700951507218993E9, 0.0, 2023-11-25 17:31:47.218
99.0, 35850.365263267195, 55606.40163497945, 20184.273443731483, -12075.775811168649, 21016.58535201375, 34364.84597502303, 11638.3968756672, 32040.264551671095, -0.10400000000000001, 0.982, -0.032, 192.0, 0.0, 0.0, 0.0, 0.0, 0.0, 0.0, 0.0, 0.0, 0.0, 1.70095150722304E9, 0.0, 2023-11-25 17:31:47.223
100.0, 35855.03677785835, 55530.42805557586, 20185.033403042962, -12119.898154723425, 21083.528826657395, 34639.124231234106, 11624.427035382634, 32019.119801416375, -0.10400000000000001, 0.982, -0.032, 192.0, 0.0, 0.0, 0.0, 0.0, 0.0, 0.0, 0.0, 0.0, 0.0, 1.700951507227262E9, 0.0, 2023-11-25 17:31:47.227
101.0, 35681.29666820725, 55454.745048850185, 20165.6097371113, -12201.16909756292, 20888.889835940583, 34039.38222400931, 11635.334686676822, 32011.408449579296, -0.10400000000000001, 0.982, -0.032, 192.0, 0.0, 0.0, 0.0, 0.0, 0.0, 0.0, 0.0, 0.0, 0.0, 1.700951507231059E9, 0.0, 2023-11-25 17:31:47.231
102.0, 35706.82236037521, 55527.589384030034, 20145.47081535707, -12152.621108605994, 20838.307838238223, 34141.82026884798, 11634.418265154156, 32030.116859688387, -0.10400000000000001, 0.982, -0.032, 192.0, 0.0, 0.0, 0.0, 0.0, 0.0, 0.0, 0.0, 0.0, 0.0, 1.700951507235025E9, 0.0, 2023-11-25 17:31:47.235
103.0, 35812.72492560446, 55588.5202394152, 20171.80117032542, -12095.043014889123, 20954.33574370572, 34248.661607344344, 11644.320087947857, 32032.352034133917, -0.10400000000000001, 0.982, -0.032, 192.0, 0.0, 0.0, 0.0, 0.0, 0.0, 0.0, 0.0, 0.0, 0.0, 1.700951507239067E9, 0.0, 2023-11-25 17:31:47.239
104.0, 35876.98619091346, 55540.3075266251, 20180.451295429622, -12093.009006143691, 21116.117670073232, 34680.787882898796, 11628.852680784785, 32016.482295570648, -0.10400000000000001, 0.982, -0.032, 192.0, 0.0, 0.0, 0.0, 0.0, 0.0, 0.0, 0.0, 0.0, 0.0, 1.700951507245169E9, 0.0, 2023-11-25 17:31:47.245
105.0, 35677.67568560549, 55439.657621342856, 20158.926565519163, -12216.390635536985, 20890.163885374535, 34091.05945718997, 11629.903212774183, 31990.688382469227, -0.10400000000000001, 0.982, -0.032, 192.0, 0.0, 0.0, 0.0, 0.0, 0.0, 0.0, 0.0, 0.0, 0.0, 1.700951507248148E9, 0.0, 2023-11-25 17:31:47.248
106.0, 35701.05561030574, 55517.396988558416, 20140.955762977097, -12159.55014938714, 20857.016248347314, 34117.65803309179, 11631.043151741404, 32021.220865395175, -0.10400000000000001, 0.982, -0.032, 192.0, 0.0, 0.0, 0.0, 0.0, 0.0, 0.0, 0.0, 0.0, 0.0, 1.700951507251121E9, 0.0, 2023-11-25 17:31:47.251
107.0, 35785.81342528027, 55588.29672197065, 20155.059713728395, -12121.64159079094, 20901.47386806892, 34196.33617357447, 11635.714666332564, 32017.82340023797, -0.1, 0.982, -0.038, 192.0, 252.0, 224.0, 30.0, 176.0, 254.0, 208.0, 0.0, 0.0, 0.0, 1.700951507255151E9, 0.0, 2023-11-25 17:31:47.255
108.0, 35904.36707787122, 55574.505695641725, 20182.015917541496, -12070.254930288189, 21142.60448725277, 34682.598374199675, 11636.139349477215, 32023.38898460734, -0.1, 0.982, -0.038, 192.0, 0.0, 0.0, 0.0, 0.0, 0.0, 0.0, 0.0, 0.0, 0.0, 1.700951507259141E9, 0.0, 2023-11-25 17:31:47.259
109.0, 35708.18581678699, 55456.421429684335, 20166.637917356245, -12205.46063249834, 20921.299865400775, 34182.92512690129, 11642.464893158067, 31990.800141191503, -0.1, 0.982, -0.038, 192.0, 0.0, 0.0, 0.0, 0.0, 0.0, 0.0, 0.0, 0.0, 0.0, 1.700951507263119E9, 0.0, 2023-11-25 17:31:47.263
110.0, 35702.508473695336, 55510.535003010635, 20151.371675893268, -12150.251823693732, 20882.81016144874, 34089.29366937801, 11652.59023339632, 32025.780621264057, -0.1, 0.982, -0.038, 192.0, 0.0, 0.0, 0.0, 0.0, 0.0, 0.0, 0.0, 0.0, 0.0, 1.700951507278301E9, 0.0, 2023-11-25 17:31:47.278
111.0, 35758.61135227816, 55575.0197857642, 20150.969344493074, -12132.191614173844, 20864.191158317466, 34161.24393477964, 11649.282175216935, 32016.057612425997, -0.1, 0.982, -0.038, 192.0, 0.0, 0.0, 0.0, 0.0, 0.0, 0.0, 0.0, 0.0, 0.0, 1.700951507281231E9, 0.0, 2023-11-25 17:31:47.281
112.0, 35905.305851138335, 55576.83027706508, 20183.58053965337, -12060.442514472308, 21140.905754674168, 34631.1223067191, 11651.53970140692, 32034.587208579447, -0.1, 0.982, -0.038, 192.0, 0.0, 0.0, 0.0, 0.0, 0.0, 0.0, 0.0, 0.0, 0.0, 1.700951507285188E9, 0.0, 2023-11-25 17:31:47.285
113.0, 35731.90101765407, 55448.106580746964, 20161.89934753172, -12210.690940700882, 20949.351304692187, 34317.59438724451, 11645.370619937255, 31993.14707435931, -0.1, 0.982, -0.038, 192.0, 0.0, 0.0, 0.0, 0.0, 0.0, 0.0, 0.0, 0.0, 0.0, 1.700951507288256E9, 0.0, 2023-11-25 17:31:47.288
114.0, 35686.59403164316, 55477.99086308371, 20142.40862636669, -12179.197332763355, 20881.13378061459, 34055.92251490623, 11651.092666517814, 32019.075097927464, -0.1, 0.982, -0.038, 192.0, 0.0, 0.0, 0.0, 0.0, 0.0, 0.0, 0.0, 0.0, 0.0, 1.700951507291284E9, 0.0, 2023-11-25 17:31:47.291
115.0, 35731.990424631884, 55555.88669251045, 20136.70893153059, -12154.02926850668, 20829.881230578572, 34135.494725167126, 11644.454198414589, 32014.38123159185, -0.1, 0.982, -0.038, 192.0, 0.0, 0.0, 0.0, 0.0, 0.0, 0.0, 0.0, 0.0, 0.0, 1.70095150729435E9, 0.0, 2023-11-25 17:31:47.294
116.0, 35892.028914931885, 55588.140259759464, 20173.924586048674, -12057.603842926485, 21109.50155371446, 34537.200276517906, 11645.124750748248, 32032.664958556292, -0.1, 0.982, -0.038, 192.0, 0.0, 0.0, 0.0, 0.0, 0.0, 0.0, 0.0, 0.0, 0.0, 1.700951507298241E9, 0.0, 2023-11-25 17:31:47.298
117.0, 35776.42569260904, 55476.33683399401, 20162.145216720728, -12170.88248382598, 20996.20056107051, 34439.321987548115, 11628.472701129043, 31985.81570217797, -0.10400000000000001, 0.984, -0.034, 192.0, 252.0, 192.0, 30.0, 192.0, 254.0, 240.0, 0.0, 0.0, 0.0, 1.700951507301301E9, 0.0, 2023-11-25 17:31:47.301
118.0, 35688.60568864414, 55475.6439299159, 20148.734170047544, -12165.227492478787, 20892.89079819808, 34020.562055177936, 11636.027590754939, 32003.272414597563, -0.10400000000000001, 0.984, -0.034, 192.0, 0.0, 0.0, 0.0, 0.0, 0.0, 0.0, 0.0, 0.0, 0.0, 1.700951507304266E9, 0.0, 2023-11-25 17:31:47.304
119.0, 35720.23340704839, 55551.70691629731, 20130.539850060923, -12139.187710188355, 20823.510983408807, 34142.267303737084, 11624.471738871543, 31999.76319071808, -0.10400000000000001, 0.984, -0.034, 192.0, 0.0, 0.0, 0.0, 0.0, 0.0, 0.0, 0.0, 0.0, 0.0, 1.700951507308232E9, 0.0, 2023-11-25 17:31:47.308
120.0, 35869.654818732124, 55598.60087616454, 20172.85170231482, -12049.803084111581, 21064.88747178167, 34427.14028681997, 11633.814768053862, 32025.87002824188, -0.10400000000000001, 0.984, -0.034, 192.0, 0.0, 0.0, 0.0, 0.0, 0.0, 0.0, 0.0, 0.0, 0.0, 1.700951507312657E9, 0.0, 2023-11-25 17:31:47.312
121.0, 35819.6539663856, 55503.31538955157, 20167.599042367823, -12125.061407692601, 21050.93998324156, 34563.821204164175, 11626.34928540579, 32009.57560653396, -0.10400000000000001, 0.984, -0.034, 192.0, 0.0, 0.0, 0.0, 0.0, 0.0, 0.0, 0.0, 0.0, 0.0, 1.700951507314401E9, 0.0, 2023-11-25 17:31:47.314
122.0, 35676.37928442709, 55454.63329012791, 20145.403760123703, -12175.50929492823, 20887.906359184548, 34027.11111630334, 11635.938183777116, 32013.91184495829, -0.10400000000000001, 0.984, -0.034, 192.0, 0.0, 0.0, 0.0, 0.0, 0.0, 0.0, 0.0, 0.0, 0.0, 1.70095150731733E9, 0.0, 2023-11-25 17:31:47.317
123.0, 35707.80583713124, 55531.41153233189, 20128.41643433767, -12139.54533809964, 20825.768509598794, 34146.46943169468, 11630.596116852299, 32019.90211247231, -0.10400000000000001, 0.984, -0.034, 192.0, 0.0, 0.0, 0.0, 0.0, 0.0, 0.0, 0.0, 0.0, 0.0, 1.70095150732129E9, 0.0, 2023-11-25 17:31:47.321
124.0, 35836.66364391609, 55589.72723361579, 20159.574766108366, -12070.38904075492, 21000.089764605735, 34334.15702988589, 11640.296773945902, 32026.42882185326, -0.10400000000000001, 0.984, -0.034, 192.0, 0.0, 0.0, 0.0, 0.0, 0.0, 0.0, 0.0, 0.0, 0.0, 1.700951507324345E9, 0.0, 2023-11-25 17:31:47.324
125.0, 35856.13201333666, 55523.2084421168, 20162.882824287753, -12105.034244660646, 21085.540483658373, 34656.08920527568, 11629.076198229337, 32015.655281025804, -0.10400000000000001, 0.984, -0.034, 192.0, 0.0, 0.0, 0.0, 0.0, 0.0, 0.0, 0.0, 0.0, 0.0, 1.700951507327354E9, 0.0, 2023-11-25 17:31:47.327
126.0, 35682.526014152296, 55449.850016814475, 20149.27061191447, -12191.60255093605, 20882.698402726463, 34046.69124444619, 11641.794340824406, 32014.269472869575, -0.10400000000000001, 0.984, -0.034, 192.0, 0.0, 0.0, 0.0, 0.0, 0.0, 0.0, 0.0, 0.0, 0.0, 1.700951507337379E9, 0.0, 2023-11-25 17:31:47.337
127.0, 35709.05753482074, 55526.44944506281, 20125.913038958675, -12139.768855544193, 20830.060044534213, 34139.65214963581, 11639.000372767494, 32028.552237576514, -0.10200000000000001, 0.986, -0.034, 192.0, 252.0, 208.0, 30.0, 208.0, 254.0, 240.0, 0.0, 0.0, 0.0, 1.700951507340411E9, 0.0, 2023-11-25 17:31:47.340
128.0, 35808.94748079151, 55590.174268504896, 20145.403760123703, -12088.181029341344, 20924.362054391153, 34251.321464934525, 11644.610660625776, 32031.301502144517, -0.10200000000000001, 0.986, -0.034, 192.0, 0.0, 0.0, 0.0, 0.0, 0.0, 0.0, 0.0, 0.0, 0.0, 1.700951507345249E9, 0.0, 2023-11-25 17:31:47.345
129.0, 35892.29713586535, 55555.082029710065, 20161.049981242417, -12072.177180311344, 21105.79116413488, 34693.61778421614, 11635.222927954546, 32032.173220178276, -0.10200000000000001, 0.986, -0.034, 192.0, 0.0, 0.0, 0.0, 0.0, 0.0, 0.0, 0.0, 0.0, 0.0, 1.700951507347698E9, 0.0, 2023-11-25 17:31:47.347
130.0, 35693.29955497975, 55448.93359529181, 20140.106396687795, -12202.309036530141, 20874.048277622256, 34108.225596931654, 11632.87599478674, 31995.561062760484, -0.10200000000000001, 0.986, -0.034, 192.0, 0.0, 0.0, 0.0, 0.0, 0.0, 0.0, 0.0, 0.0, 0.0, 1.700951507350396E9, 0.0, 2023-11-25 17:31:47.350
131.0, 35711.98561334439, 55518.715741481275, 20127.45530932609, -12143.725114312783, 20837.659637649016, 34107.51034110908, 11635.893480288207, 32020.30444387251, -0.10200000000000001, 0.986, -0.034, 192.0, 0.0, 0.0, 0.0, 0.0, 0.0, 0.0, 0.0, 0.0, 0.0, 1.700951507353413E9, 0.0, 2023-11-25 17:31:47.353
132.0, 35786.41692238056, 55584.34046320206, 20141.134576932738, -12113.170279642378, 20867.32040254121, 34181.9192984008, 11639.670925101153, 32015.364708347883, -0.10200000000000001, 0.986, -0.034, 192.0, 0.0, 0.0, 0.0, 0.0, 0.0, 0.0, 0.0, 0.0, 0.0, 1.700951507357395E9, 0.0, 2023-11-25 17:31:47.357
133.0, 35911.49728435246, 55576.0703177536, 20173.32108894838, -12055.614537669962, 21119.313969530343, 34669.09792054867, 11640.855567557284, 32024.305406130006, -0.10200000000000001, 0.986, -0.034, 192.0, 0.0, 0.0, 0.0, 0.0, 0.0, 0.0, 0.0, 0.0, 0.0, 1.70095150736045E9, 0.0, 2023-11-25 17:31:47.360
134.0, 35716.701831424456, 55455.996746539684, 20155.082065472852, -12197.346949261064, 20899.03752792329, 34200.20302536524, 11641.190843724115, 31980.294821297506, -0.10200000000000001, 0.986, -0.034, 192.0, 0.0, 0.0, 0.0, 0.0, 0.0, 0.0, 0.0, 0.0, 0.0, 1.700951507363745E9, 0.0, 2023-11-25 17:31:47.363
135.0, 35706.06240106373, 55509.52917451015, 20136.50776583049, -12149.760085315715, 20852.1212163116, 34080.889413462806, 11643.336611191824, 32011.8554844684, -0.10200000000000001, 0.986, -0.034, 192.0, 0.0, 0.0, 0.0, 0.0, 0.0, 0.0, 0.0, 0.0, 0.0, 1.700951507366497E9, 0.0, 2023-11-25 17:31:47.366
136.0, 35762.72407325794, 55581.05475676713, 20135.41253035218, -12128.59298331654, 20826.975503799382, 34155.99127483264, 11642.956631536083, 32008.99446117812, -0.10200000000000001, 0.986, -0.034, 192.0, 0.0, 0.0, 0.0, 0.0, 0.0, 0.0, 0.0, 0.0, 0.0, 1.700951507370474E9, 0.0, 2023-11-25 17:31:47.370
137.0, 35914.335955898285, 55594.4210999514, 20169.834216813353, -12049.065476544558, 21103.89126585618, 34613.106800688125, 11644.387143181222, 32024.886551485844, -0.10400000000000001, 0.974, -0.034, 192.0, 252.0, 192.0, 30.0, 112.0, 254.0, 240.0, 0.0, 0.0, 0.0, 1.700951507376046E9, 0.0, 2023-11-25 17:31:47.376
138.0, 35751.70466324147, 55466.23384550022, 20149.672943314665, -12179.398498463452, 20927.536002103807, 34343.29889336811, 11633.881823287229, 31981.9488503872, -0.10400000000000001, 0.974, -0.034, 192.0, 0.0, 0.0, 0.0, 0.0, 0.0, 0.0, 0.0, 0.0, 0.0, 1.70095150737953E9, 0.0, 2023-11-25 17:31:47.379
139.0, 35696.83113060369, 55491.2007440568, 20138.11709143127, -12146.630841091972, 20859.98903035987, 34064.97497141063, 11643.560128636376, 32017.57753104896, -0.10400000000000001, 0.974, -0.034, 192.0, 0.0, 0.0, 0.0, 0.0, 0.0, 0.0, 0.0, 0.0, 0.0, 1.700951507382503E9, 0.0, 2023-11-25 17:31:47.382
140.0, 35739.18768634649, 55565.09561122604, 20132.08212042834, -12122.714474524793, 20807.104802978614, 34159.29933301203, 11640.296773945902, 32022.8078392515, -0.10400000000000001, 0.974, -0.034, 192.0, 0.0, 0.0, 0.0, 0.0, 0.0, 0.0, 0.0, 0.0, 0.0, 1.700951507386536E9, 0.0, 2023-11-25 17:31:47.386
141.0, 35892.96768819901, 55590.15191676044, 20164.201577210617, -12038.00136303918, 21073.98463177498, 34549.18081154595, 11638.68744834512, 32040.778641793568, -0.10400000000000001, 0.974, -0.034, 192.0, 0.0, 0.0, 0.0, 0.0, 0.0, 0.0, 0.0, 0.0, 0.0, 1.70095150739059E9, 0.0, 2023-11-25 17:31:47.390
142.0, 35786.12634970264, 55475.867447360455, 20152.958649749595, -12149.581271360074, 20975.502845704897, 34499.53758711071, 11627.39981739519, 31997.393905805817, -0.10400000000000001, 0.974, -0.034, 192.0, 0.0, 0.0, 0.0, 0.0, 0.0, 0.0, 0.0, 0.0, 0.0, 1.700951507394662E9, 0.0, 2023-11-25 17:31:47.394
143.0, 35689.32094446671, 55470.27951124663, 20141.291039143925, -12154.163378973411, 20863.364143772622, 34042.91379963324, 11639.089779745314, 32012.168408890775, -0.10400000000000001, 0.974, -0.034, 192.0, 0.0, 0.0, 0.0, 0.0, 0.0, 0.0, 0.0, 0.0, 0.0, 1.700951507405626E9, 0.0, 2023-11-25 17:31:47.405
144.0, 35726.53659898479, 55553.20448317582, 20124.035492424428, -12128.59298331654, 20791.704451048907, 34157.37708298887, 11626.841023783807, 32012.23546412414, -0.10400000000000001, 0.974, -0.034, 192.0, 0.0, 0.0, 0.0, 0.0, 0.0, 0.0, 0.0, 0.0, 0.0, 1.700951507408596E9, 0.0, 2023-11-25 17:31:47.408
145.0, 35875.466272290505, 55601.10427154354, 20157.361943407293, -12047.478502688231, 21013.701976979017, 34435.16456307943, 11629.076198229337, 32029.24514165463, -0.10400000000000001, 0.974, -0.034, 192.0, 0.0, 0.0, 0.0, 0.0, 0.0, 0.0, 0.0, 0.0, 0.0, 1.700951507411637E9, 0.0, 2023-11-25 17:31:47.411
146.0, 35841.268103273884, 55514.29009607912, 20159.775931808465, -12116.992427944235, 21023.78261372836, 34603.92023371699, 11620.426073125134, 32004.635871009337, -0.10400000000000001, 0.974, -0.034, 192.0, 0.0, 0.0, 0.0, 0.0, 0.0, 0.0, 0.0, 0.0, 0.0, 1.700951507414651E9, 0.0, 2023-11-25 17:31:47.414
147.0, 35696.8758340926, 55467.329080978525, 20150.164681692684, -12168.759068102727, 20866.38162927409, 34039.80690715396, 11639.425055912145, 32018.225731638162, -0.094, 0.978, -0.036000000000000004, 192.0, 253.0, 16.0, 30.0, 144.0, 254.0, 224.0, 0.0, 0.0, 0.0, 1.700951507418689E9, 0.0, 2023-11-25 17:31:47.418
148.0, 35729.01764261933, 55549.09176219604, 20133.914963473675, -12128.749445527726, 20808.02122450128, 34160.64043767934, 11639.380352423233, 32035.43657486875, -0.094, 0.978, -0.036000000000000004, 192.0, 0.0, 0.0, 0.0, 0.0, 0.0, 0.0, 0.0, 0.0, 0.0, 1.700951507421608E9, 0.0, 2023-11-25 17:31:47.421
149.0, 35852.75689992391, 55609.039140825174, 20164.67096384418, -12063.05766857358, 20966.115113033666, 34337.44273632082, 11650.779742095441, 32048.959380264212, -0.094, 0.978, -0.036000000000000004, 192.0, 0.0, 0.0, 0.0, 0.0, 0.0, 0.0, 0.0, 0.0, 0.0, 1.700951507424656E9, 0.0, 2023-11-25 17:31:47.424
150.0, 35883.4681968055, 55547.728305784265, 20172.18114998116, -12086.527000251652, 21074.208149219532, 34691.606127215164, 11638.173358222648, 32031.480316100162, -0.094, 0.978, -0.036000000000000004, 192.0, 0.0, 0.0, 0.0, 0.0, 0.0, 0.0, 0.0, 0.0, 0.0, 1.700951507429643E9, 0.0, 2023-11-25 17:31:47.429
151.0, 35696.272336992304, 55462.232883242716, 20153.51744336098, -12183.198295020855, 20866.31457404072, 34071.233459858115, 11642.554300135887, 32009.57560653396, -0.094, 0.978, -0.036000000000000004, 192.0, 0.0, 0.0, 0.0, 0.0, 0.0, 0.0, 0.0, 0.0, 0.0, 1.700951507432689E9, 0.0, 2023-11-25 17:31:47.432
152.0, 35718.60172970316, 55533.110264910494, 20129.757539004986, -12134.426788619374, 20820.091166507147, 34155.32072249898, 11636.116997732759, 32030.452135855216, -0.094, 0.978, -0.036000000000000004, 192.0, 0.0, 0.0, 0.0, 0.0, 0.0, 0.0, 0.0, 0.0, 0.0, 1.700951507436704E9, 0.0, 2023-11-25 17:31:47.436
153.0, 35818.201102996005, 55601.95363783284, 20154.500920117014, -12082.436631016331, 20907.061804182747, 34251.79085156809, 11646.979945538038, 32038.58817083695, -0.094, 0.978, -0.036000000000000004, 192.0, 0.0, 0.0, 0.0, 0.0, 0.0, 0.0, 0.0, 0.0, 0.0, 1.700951507440692E9, 0.0, 2023-11-25 17:31:47.440
154.0, 35913.03955471987, 55574.05866075262, 20176.7632575945, -12052.261776001666, 21113.256646782953, 34713.68965073701, 11640.810864068373, 32035.43657486875, -0.094, 0.978, -0.036000000000000004, 192.0, 0.0, 0.0, 0.0, 0.0, 0.0, 0.0, 0.0, 0.0, 0.0, 1.700951507443692E9, 0.0, 2023-11-25 17:31:47.443
155.0, 35711.73974415538, 55463.93161582132, 20162.927527776665, -12180.672547897406, 20891.147362130567, 34148.838716606944, 11644.767122836964, 32003.898263442312, -0.094, 0.978, -0.036000000000000004, 192.0, 0.0, 0.0, 0.0, 0.0, 0.0, 0.0, 0.0, 0.0, 0.0, 1.700951507447732E9, 0.0, 2023-11-25 17:31:47.447
156.0, 35724.61434896164, 55528.304639852606, 20145.98490547954, -12124.2120414033, 20854.82577739069, 34133.57247514397, 11644.16362573667, 32029.848638754924, -0.094, 0.978, -0.036000000000000004, 192.0, 0.0, 0.0, 0.0, 0.0, 0.0, 0.0, 0.0, 0.0, 0.0, 1.700951507451754E9, 0.0, 2023-11-25 17:31:47.451
157.0, 35798.218643452965, 55599.36083547602, 20157.04901898492, -12094.797145700115, 20873.93651889998, 34193.89983342884, 11645.772951337452, 32028.95456897671, -0.106, 0.978, -0.036000000000000004, 192.0, 252.0, 176.0, 30.0, 144.0, 254.0, 224.0, 0.0, 0.0, 0.0, 1.700951507455691E9, 0.0, 2023-11-25 17:31:47.455
158.0, 35932.48557239599, 55592.96823656181, 20184.698126876134, -12030.625287368928, 21134.311990059854, 34690.980278370414, 11644.744771092508, 32039.77281329308, -0.106, 0.978, -0.036000000000000004, 192.0, 0.0, 0.0, 0.0, 0.0, 0.0, 0.0, 0.0, 0.0, 0.0, 1.70095150746574E9, 0.0, 2023-11-25 17:31:47.465
159.0, 35742.33928231469, 55464.043374543595, 20160.737056820042, -12172.111829771022, 20918.75176653287, 34262.92202030683, 11640.58734662382, 31995.24813833811, -0.106, 0.978, -0.036000000000000004, 192.0, 0.0, 0.0, 0.0, 0.0, 0.0, 0.0, 0.0, 0.0, 0.0, 1.700951507468745E9, 0.0, 2023-11-25 17:31:47.468
160.0, 35721.97684311591, 55507.62927623145, 20138.832347253843, -12125.083759437057, 20866.627498463095, 34109.94668125471, 11641.436712913122, 32021.354975861905, -0.106, 0.978, -0.036000000000000004, 192.0, 0.0, 0.0, 0.0, 0.0, 0.0, 0.0, 0.0, 0.0, 0.0, 1.700951507471764E9, 0.0, 2023-11-25 17:31:47.471
161.0, 35771.68712278451, 55583.51344865721, 20135.88191698574, -12103.044939404124, 20831.35644571262, 34186.81433043651, 11641.97315478005, 32027.121725931374, -0.106, 0.978, -0.036000000000000004, 192.0, 0.0, 0.0, 0.0, 0.0, 0.0, 0.0, 0.0, 0.0, 0.0, 1.700951507474747E9, 0.0, 2023-11-25 17:31:47.474
162.0, 35926.6294153487, 55605.619323923514, 20176.89736806123, -12019.360008163454, 21117.07879508481, 34629.669443329505, 11651.36088745128, 32049.898153531332, -0.106, 0.978, -0.036000000000000004, 192.0, 0.0, 0.0, 0.0, 0.0, 0.0, 0.0, 0.0, 0.0, 0.0, 1.700951507478785E9, 0.0, 2023-11-25 17:31:47.478
163.0, 35777.20800366497, 55485.27753177614, 20163.866301043785, -12154.476303395784, 20959.968383308456, 34398.44064693936, 11644.096570503303, 32006.938100688232, -0.106, 0.978, -0.036000000000000004, 192.0, 0.0, 0.0, 0.0, 0.0, 0.0, 0.0, 0.0, 0.0, 0.0, 1.700951507481783E9, 0.0, 2023-11-25 17:31:47.481
164.0, 35720.345165770676, 55507.51751750917, 20153.51744336098, -12132.661000807406, 20885.93940567248, 34073.64744825929, 11653.64076538572, 32028.507534087603, -0.106, 0.978, -0.036000000000000004, 192.0, 0.0, 0.0, 0.0, 0.0, 0.0, 0.0, 0.0, 0.0, 0.0, 1.700951507484783E9, 0.0, 2023-11-25 17:31:47.484
165.0, 35764.13223315862, 55584.80984983562, 20146.767216535478, -12107.984674928746, 20826.483765421362, 34168.418844749795, 11648.388105438722, 32025.28888288604, -0.106, 0.978, -0.036000000000000004, 192.0, 0.0, 0.0, 0.0, 0.0, 0.0, 0.0, 0.0, 0.0, 0.0, 1.700951507488841E9, 0.0, 2023-11-25 17:31:47.488
166.0, 35923.142543213675, 55620.59499270857, 20187.156818766216, -12017.773034307127, 21090.815495349827, 34530.6512153925, 11656.859416587284, 32050.92633377628, -0.106, 0.978, -0.036000000000000004, 192.0, 0.0, 0.0, 0.0, 0.0, 0.0, 0.0, 0.0, 0.0, 0.0, 1.7009515074918E9, 0.0, 2023-11-25 17:31:47.491
167.0, 35829.64519615712, 55508.5009942652, 20173.589309881845, -12120.68046577936, 21012.562038011794, 34529.75714561428, 11639.425055912145, 32013.353051346905, -0.108, 0.982, -0.04, 192.0, 252.0, 160.0, 30.0, 176.0, 254.0, 192.0, 0.0, 0.0, 0.0, 1.700951507495154E9, 0.0, 2023-11-25 17:31:47.495
168.0, 35715.40543024605, 55485.366938753956, 20152.735132305042, -12142.540471856651, 20882.56429225973, 34054.42494802773, 11643.224852469546, 32021.824362495467, -0.108, 0.982, -0.04, 192.0, 0.0, 0.0, 0.0, 0.0, 0.0, 0.0, 0.0, 0.0, 0.0, 1.700951507499835E9, 0.0, 2023-11-25 17:31:47.499
169.0, 35747.07785213922, 55562.03342223566, 20131.053940183396, -12114.645494776429, 20814.659692604506, 34180.19821407774, 11633.412436653667, 32025.42299335277, -0.108, 0.982, -0.04, 192.0, 0.0, 0.0, 0.0, 0.0, 0.0, 0.0, 0.0, 0.0, 0.0, 1.700951507507839E9, 0.0, 2023-11-25 17:31:47.507
170.0, 35884.94341193955, 55608.14507104696, 20162.480492887556, -12037.107293260968, 21023.22382011698, 34437.913827647426, 11638.530986133932, 32035.704795802212, -0.108, 0.982, -0.04, 192.0, 0.0, 0.0, 0.0, 0.0, 0.0, 0.0, 0.0, 0.0, 0.0, 1.70095150751085E9, 0.0, 2023-11-25 17:31:47.510
171.0, 35860.93763839456, 55526.87412820746, 20160.021800997474, -12099.468660291275, 21048.347180884743, 34647.9755220384, 11629.858509285274, 32004.30059484251, -0.108, 0.982, -0.04, 192.0, 0.0, 0.0, 0.0, 0.0, 0.0, 0.0, 0.0, 0.0, 0.0, 1.700951507514888E9, 0.0, 2023-11-25 17:31:47.514
172.0, 35702.06143880623, 55470.12304903544, 20141.514556588478, -12159.97483253179, 20875.590547989672, 34069.02063715704, 11640.475587901545, 32007.34043208843, -0.108, 0.982, -0.04, 192.0, 0.0, 0.0, 0.0, 0.0, 0.0, 0.0, 0.0, 0.0, 0.0, 1.700951507517911E9, 0.0, 2023-11-25 17:31:47.517
173.0, 35730.40345077556, 55548.68943079584, 20121.46504181207, -12117.81944248908, 20820.717015351896, 34178.85710941042, 11634.708837832075, 32021.08675492844, -0.108, 0.982, -0.04, 192.0, 0.0, 0.0, 0.0, 0.0, 0.0, 0.0, 0.0, 0.0, 0.0, 1.700951507520985E9, 0.0, 2023-11-25 17:31:47.520
174.0, 35849.27002778888, 55610.53670770368, 20154.255050928004, -12052.351182979488, 20969.825502613246, 34327.33974782703, 11650.489169417522, 32036.15183069132, -0.108, 0.982, -0.04, 192.0, 0.0, 0.0, 0.0, 0.0, 0.0, 0.0, 0.0, 0.0, 0.0, 1.70095150752393E9, 0.0, 2023-11-25 17:31:47.523
175.0, 35895.24756613345, 55554.99262273224, 20166.168530722683, -12061.671860417351, 21102.013719321934, 34710.73922046891, 11639.20153846759, 32033.693138801234, -0.108, 0.982, -0.04, 192.0, 0.0, 0.0, 0.0, 0.0, 0.0, 0.0, 0.0, 0.0, 0.0, 1.700951507527902E9, 0.0, 2023-11-25 17:31:47.527
176.0, 35708.83401737619, 55469.60895891297, 20152.981001494052, -12161.628861621484, 20892.84609470917, 34096.37917237034, 11646.10822750428, 32013.017775180077, -0.108, 0.982, -0.04, 192.0, 0.0, 0.0, 0.0, 0.0, 0.0, 0.0, 0.0, 0.0, 0.0, 1.700951507530907E9, 0.0, 2023-11-25 17:31:47.530
177.0, 35736.907808412056, 55546.92364298387, 20137.111262930783, -12103.603733015507, 20856.166882058013, 34167.83769939395, 11646.197634482103, 32037.53763884755, -0.10200000000000001, 0.98, -0.036000000000000004, 192.0, 252.0, 208.0, 30.0, 160.0, 254.0, 224.0, 0.0, 0.0, 0.0, 1.70095150753495E9, 0.0, 2023-11-25 17:31:47.534
178.0, 35832.7073851475, 55612.83893738258, 20158.859510285798, -12059.704906905283, 20930.642894583096, 34264.91132556335, 11652.25495722949, 32040.644531326838, -0.10200000000000001, 0.98, -0.036000000000000004, 192.0, 0.0, 0.0, 0.0, 0.0, 0.0, 0.0, 0.0, 0.0, 0.0, 1.700951507538893E9, 0.0, 2023-11-25 17:31:47.538
179.0, 35934.98896777499, 55582.552323645636, 20178.931376806664, -12026.75843557816, 21143.923240175634, 34747.86546800917, 11643.001335024994, 32039.549295848527, -0.10200000000000001, 0.98, -0.036000000000000004, 192.0, 0.0, 0.0, 0.0, 0.0, 0.0, 0.0, 0.0, 0.0, 0.0, 1.700951507559088E9, 0.0, 2023-11-25 17:31:47.559
180.0, 35735.61140723365, 55472.35822348097, 20163.41926615468, -12156.756181330227, 20917.187144421, 34189.608298493426, 11645.97411703755, 32006.356955332394, -0.10200000000000001, 0.98, -0.036000000000000004, 192.0, 0.0, 0.0, 0.0, 0.0, 0.0, 0.0, 0.0, 0.0, 0.0, 1.700951507562985E9, 0.0, 2023-11-25 17:31:47.562
181.0, 35738.7853549463, 55540.82161674758, 20144.84496651232, -12100.34037832503, 20877.982184646393, 34150.51509744109, 11648.92454730565, 32035.593037079936, -0.10200000000000001, 0.98, -0.036000000000000004, 192.0, 0.0, 0.0, 0.0, 0.0, 0.0, 0.0, 0.0, 0.0, 0.0, 1.700951507566008E9, 0.0, 2023-11-25 17:31:47.566
182.0, 35802.21960571046, 55609.35206524755, 20150.298792159414, -12076.513418735674, 20882.27371958181, 34217.50327557365, 11652.433771185133, 32031.077984699965, -0.10200000000000001, 0.98, -0.036000000000000004, 192.0, 0.0, 0.0, 0.0, 0.0, 0.0, 0.0, 0.0, 0.0, 0.0, 1.700951507569091E9, 0.0, 2023-11-25 17:31:47.569
183.0, 35943.46027892355, 55608.16742279142, 20183.80405709792, -12005.99366497918, 21152.439254813107, 34704.21251108796, 11658.893425332717, 32044.9137145178, -0.10200000000000001, 0.98, -0.036000000000000004, 192.0, 0.0, 0.0, 0.0, 0.0, 0.0, 0.0, 0.0, 0.0, 0.0, 1.700951507572048E9, 0.0, 2023-11-25 17:31:47.572
184.0, 35758.164317389055, 55482.97530209724, 20166.52615863397, -12151.034134749669, 20946.691447102006, 34306.08323885003, 11656.814713098373, 32002.467751797172, -0.10200000000000001, 0.98, -0.036000000000000004, 192.0, 0.0, 0.0, 0.0, 0.0, 0.0, 0.0, 0.0, 0.0, 0.0, 1.700951507576066E9, 0.0, 2023-11-25 17:31:47.576
185.0, 35730.895189153576, 55525.17539562886, 20147.236603169036, -12108.16348888439, 20892.376708075608, 34124.162390728285, 11660.5027509335, 32032.15086843382, -0.10200000000000001, 0.98, -0.036000000000000004, 192.0, 0.0, 0.0, 0.0, 0.0, 0.0, 0.0, 0.0, 0.0, 0.0, 1.700951507579078E9, 0.0, 2023-11-25 17:31:47.579
186.0, 35783.868823512654, 55602.78065237769, 20143.526213589455, -12090.215038086777, 20851.450663977943, 34199.15249337584, 11653.171378752158, 32025.780621264057, -0.10200000000000001, 0.98, -0.036000000000000004, 192.0, 0.0, 0.0, 0.0, 0.0, 0.0, 0.0, 0.0, 0.0, 0.0, 1.700951507582091E9, 0.0, 2023-11-25 17:31:47.582
187.0, 35949.51760167094, 55633.73781844829, 20185.681603632165, -12002.149164932867, 21139.09526337329, 34622.60629208163, 11658.960480566082, 32044.086699972955, -0.098, 0.974, -0.032, 192.0, 252.0, 240.0, 30.0, 112.0, 255.0, 0.0, 0.0, 0.0, 0.0, 1.700951507585104E9, 0.0, 2023-11-25 17:31:47.585
188.0, 35807.33815519073, 55512.52430826716, 20169.722458091077, -12132.54924208513, 20992.624281957662, 34432.21413281133, 11647.404628682689, 32001.32781282995, -0.098, 0.974, -0.032, 192.0, 0.0, 0.0, 0.0, 0.0, 0.0, 0.0, 0.0, 0.0, 0.0, 1.700951507589046E9, 0.0, 2023-11-25 17:31:47.589
189.0, 35731.90101765407, 55518.8051484591, 20149.94116424813, -12119.317009367587, 20904.714871014938, 34092.19939615719, 11648.030477527438, 32028.507534087603, -0.098, 0.974, -0.032, 192.0, 0.0, 0.0, 0.0, 0.0, 0.0, 0.0, 0.0, 0.0, 0.0, 1.700951507599117E9, 0.0, 2023-11-25 17:31:47.599
190.0, 35765.9427244595, 55592.118870272505, 20133.467928584567, -12097.0546718901, 20838.531355682775, 34203.376973077895, 11633.099512231292, 32023.254874140606, -0.098, 0.974, -0.032, 192.0, 0.0, 0.0, 0.0, 0.0, 0.0, 0.0, 0.0, 0.0, 0.0, 1.700951507610346E9, 0.0, 2023-11-25 17:31:47.610
191.0, 35920.125057712205, 55631.94967889186, 20170.594176124832, -12010.396958636877, 21092.31306222833, 34535.568599172664, 11637.458102400078, 32038.230542925663, -0.098, 0.974, -0.032, 192.0, 0.0, 0.0, 0.0, 0.0, 0.0, 0.0, 0.0, 0.0, 0.0, 1.700951507617112E9, 0.0, 2023-11-25 17:31:47.617
192.0, 35841.29045501834, 55526.11416889598, 20160.602946353312, -12109.079910407056, 21031.382206843165, 34574.48298626936, 11624.449387127088, 31997.438609294728, -0.098, 0.974, -0.032, 192.0, 0.0, 0.0, 0.0, 0.0, 0.0, 0.0, 0.0, 0.0, 0.0, 1.700951507620107E9, 0.0, 2023-11-25 17:31:47.620
193.0, 35720.63573844859, 55498.46506100477, 20148.264783413983, -12131.811634518104, 20898.322272100722, 34069.57943076843, 11640.87791930174, 32015.834094981445, -0.098, 0.974, -0.032, 192.0, 0.0, 0.0, 0.0, 0.0, 0.0, 0.0, 0.0, 0.0, 0.0, 1.700951507624304E9, 0.0, 2023-11-25 17:31:47.624
194.0, 35749.134212629106, 55572.22581770728, 20132.953838462097, -12097.367596312475, 20836.56440217071, 34198.99603116465, 11641.079085001837, 32031.927350989266, -0.098, 0.974, -0.032, 192.0, 0.0, 0.0, 0.0, 0.0, 0.0, 0.0, 0.0, 0.0, 0.0, 1.700951507627158E9, 0.0, 2023-11-25 17:31:47.627
195.0, 35885.613964273216, 55627.836957912084, 20173.09757150383, -12016.81190929555, 21042.669837793095, 34427.073231586604, 11661.106248033793, 32056.82719431248, -0.098, 0.974, -0.032, 192.0, 0.0, 0.0, 0.0, 0.0, 0.0, 0.0, 0.0, 0.0, 0.0, 1.700951507630161E9, 0.0, 2023-11-25 17:31:47.630
196.0, 35875.466272290505, 55546.834236006056, 20171.75646683651, -12067.080982575535, 21091.240178494478, 34677.27865901931, 11653.149027007703, 32032.82142076748, -0.098, 0.974, -0.032, 192.0, 0.0, 0.0, 0.0, 0.0, 0.0, 0.0, 0.0, 0.0, 0.0, 1.700951507634134E9, 0.0, 2023-11-25 17:31:47.634
197.0, 35703.46959870691, 55472.78290662562, 20142.140405433227, -12150.564748116107, 20896.601187777662, 34092.53467232402, 11650.82444558435, 32015.81174323699, -0.10200000000000001, 0.976, -0.03, 192.0, 252.0, 208.0, 30.0, 128.0, 255.0, 16.0, 0.0, 0.0, 0.0, 1.700951507637153E9, 0.0, 2023-11-25 17:31:47.637
198.0, 35733.21977057693, 55556.110209955004, 20120.50391680049, -12103.357863826497, 20840.78888187276, 34192.111693872415, 11643.202500725092, 32032.597903322927, -0.10200000000000001, 0.976, -0.03, 192.0, 0.0, 0.0, 0.0, 0.0, 0.0, 0.0, 0.0, 0.0, 0.0, 1.700951507640149E9, 0.0, 2023-11-25 17:31:47.640
199.0, 35849.247676044426, 55618.94096361887, 20147.281306657947, -12043.186967752812, 20969.91490959107, 34329.284349594636, 11650.176244995147, 32040.510420860104, -0.10200000000000001, 0.976, -0.03, 192.0, 0.0, 0.0, 0.0, 0.0, 0.0, 0.0, 0.0, 0.0, 0.0, 1.700951507643197E9, 0.0, 2023-11-25 17:31:47.643
200.0, 35909.95501398504, 55569.878884539474, 20159.46300738609, -12049.311345733566, 21116.65411194016, 34732.53217131283, 11637.63691635572, 32024.52892357456, -0.10200000000000001, 0.976, -0.03, 192.0, 0.0, 0.0, 0.0, 0.0, 0.0, 0.0, 0.0, 0.0, 0.0, 1.700951507646214E9, 0.0, 2023-11-25 17:31:47.646
201.0, 35714.5784157012, 55472.425278714334, 20141.738074033034, -12160.734791843272, 20897.674071511516, 34118.350937169904, 11645.616489126265, 32004.591167520426, -0.10200000000000001, 0.976, -0.03, 192.0, 0.0, 0.0, 0.0, 0.0, 0.0, 0.0, 0.0, 0.0, 0.0, 1.700951507650221E9, 0.0, 2023-11-25 17:31:47.650
202.0, 35732.81743917673, 55546.20838716131, 20122.359111590282, -12102.799070215115, 20856.83743439167, 34162.830908635966, 11646.778779837941, 32036.822383024977, -0.10200000000000001, 0.976, -0.03, 192.0, 0.0, 0.0, 0.0, 0.0, 0.0, 0.0, 0.0, 0.0, 0.0, 1.700951507653211E9, 0.0, 2023-11-25 17:31:47.653
203.0, 35822.06795478678, 55619.611515952536, 20142.520385088967, -12059.660203416373, 20921.03164446731, 34244.124203219915, 11654.82540784185, 32040.599827837927, -0.10200000000000001, 0.976, -0.03, 192.0, 0.0, 0.0, 0.0, 0.0, 0.0, 0.0, 0.0, 0.0, 0.0, 1.700951507656219E9, 0.0, 2023-11-25 17:31:47.656
204.0, 35934.96661603053, 55599.02555930919, 20165.4085714112, -12018.063606985046, 21150.24878385649, 34735.12497366965, 11645.907061804184, 32040.689234815745, -0.10200000000000001, 0.976, -0.03, 192.0, 0.0, 0.0, 0.0, 0.0, 0.0, 0.0, 0.0, 0.0, 0.0, 1.700951507660234E9, 0.0, 2023-11-25 17:31:47.660
205.0, 35737.533657256805, 55483.42233698635, 20146.230774668547, -12153.984565017769, 20919.355263633166, 34209.54605454756, 11640.520291390454, 32001.23840585213, -0.10200000000000001, 0.976, -0.03, 192.0, 0.0, 0.0, 0.0, 0.0, 0.0, 0.0, 0.0, 0.0, 0.0, 1.700951507663624E9, 0.0, 2023-11-25 17:31:47.663
206.0, 35737.33249155671, 55542.632108048456, 20128.148213404205, -12098.239314346232, 20883.078382382202, 34144.23425724915, 11644.834178070329, 32036.442403369238, -0.1, 0.976, -0.03, 192.0, 252.0, 224.0, 30.0, 128.0, 255.0, 16.0, 0.0, 0.0, 0.0, 1.700951507666205E9, 0.0, 2023-11-25 17:31:47.666
207.0, 35797.68220158604, 55611.45312922635, 20134.965495463075, -12071.193703555311, 20881.737277714885, 34205.0757056565, 11651.807922340384, 32036.19653418023, -0.1, 0.976, -0.03, 192.0, 0.0, 0.0, 0.0, 0.0, 0.0, 0.0, 0.0, 0.0, 0.0, 1.700951507669224E9, 0.0, 2023-11-25 17:31:47.669
208.0, 35939.6828341106, 55615.051760083654, 20168.627222612766, -11998.930513731304, 21156.931955448625, 34679.044446831285, 11655.54066366442, 32047.215944196698, -0.1, 0.976, -0.03, 192.0, 0.0, 0.0, 0.0, 0.0, 0.0, 0.0, 0.0, 0.0, 0.0, 1.700951507672293E9, 0.0, 2023-11-25 17:31:47.672
209.0, 35757.18084063302, 55483.31057826407, 20143.481510100548, -12147.368448658997, 20953.553432649784, 34321.1483146129, 11646.845835071306, 32000.76901921857, -0.1, 0.976, -0.03, 192.0, 0.0, 0.0, 0.0, 0.0, 0.0, 0.0, 0.0, 0.0, 0.0, 1.70095150767672E9, 0.0, 2023-11-25 17:31:47.676
210.0, 35724.659052450545, 55520.9062124379, 20128.863469226777, -12104.989541171735, 20898.299920356265, 34099.21784391616, 11656.077105531349, 32029.24514165463, -0.1, 0.976, -0.03, 192.0, 0.0, 0.0, 0.0, 0.0, 0.0, 0.0, 0.0, 0.0, 0.0, 1.70095150767928E9, 0.0, 2023-11-25 17:31:47.679
211.0, 35767.6414570381, 55595.91866682991, 20122.69438775711, -12089.209209586288, 20847.427349975987, 34181.360504789416, 11649.326878705846, 32022.09258342893, -0.1, 0.976, -0.03, 192.0, 0.0, 0.0, 0.0, 0.0, 0.0, 0.0, 0.0, 0.0, 0.0, 1.700951507682281E9, 0.0, 2023-11-25 17:31:47.682
212.0, 35924.193075203075, 55621.95844912034, 20161.51936787598, -12003.04323471108, 21126.0865481003, 34595.068942912694, 11653.439599685622, 32046.455984885215, -0.1, 0.976, -0.03, 192.0, 0.0, 0.0, 0.0, 0.0, 0.0, 0.0, 0.0, 0.0, 0.0, 1.70095150768531E9, 0.0, 2023-11-25 17:31:47.685
213.0, 35792.49659687241, 55498.442709260315, 20145.09083570133, -12126.424864104374, 20992.91485463558, 34456.95751392335, 11637.100474488792, 31998.578548261947, -0.1, 0.976, -0.03, 192.0, 0.0, 0.0, 0.0, 0.0, 0.0, 0.0, 0.0, 0.0, 0.0, 1.70095150768936E9, 0.0, 2023-11-25 17:31:47.689
214.0, 35710.465694721424, 55500.63318021694, 20129.06463492687, -12119.898154723425, 20897.741126744884, 34069.40061681278, 11639.53681463442, 32016.86227522639, -0.1, 0.976, -0.03, 192.0, 0.0, 0.0, 0.0, 0.0, 0.0, 0.0, 0.0, 0.0, 0.0, 1.700951507692603E9, 0.0, 2023-11-25 17:31:47.692
215.0, 35745.98261666091, 55578.216085221306, 20116.949989432098, -12090.863238675982, 20834.46333819191, 34181.44991176724, 11633.188919209113, 32031.122688188876, -0.1, 0.976, -0.03, 192.0, 0.0, 0.0, 0.0, 0.0, 0.0, 0.0, 0.0, 0.0, 0.0, 1.700951507695636E9, 0.0, 2023-11-25 17:31:47.695
216.0, 35903.80828425983, 55627.076998600605, 20160.51353937549, -11996.427118352309, 21088.200341248554, 34512.00986051677, 11648.432808927633, 32064.002104282634, -0.10400000000000001, 0.978, -0.028, 192.0, 252.0, 192.0, 30.0, 144.0, 255.0, 32.0, 0.0, 0.0, 0.0, 1.700951507699359E9, 0.0, 2023-11-25 17:31:47.699
217.0, 35840.59755094023, 55529.981020686755, 20152.33280090485, -12085.699985706806, 21050.247079163444, 34610.96103322042, 11637.569861122354, 32027.0099672091, -0.10400000000000001, 0.978, -0.028, 192.0, 0.0, 0.0, 0.0, 0.0, 0.0, 0.0, 0.0, 0.0, 0.0, 1.700951507702354E9, 0.0, 2023-11-25 17:31:47.702
218.0, 35712.365593000126, 55495.00054061419, 20135.636047796732, -12119.96520995679, 20904.938388459494, 34087.84080598841, 11646.689372860119, 32031.323853888975, -0.10400000000000001, 0.978, -0.028, 192.0, 0.0, 0.0, 0.0, 0.0, 0.0, 0.0, 0.0, 0.0, 0.0, 1.700951507705331E9, 0.0, 2023-11-25 17:31:47.705
219.0, 35744.26153233785, 55573.07518399658, 20117.55348653239, -12085.655282217895, 20842.487614451366, 34214.128162160894, 11643.001335024994, 32037.29176965854, -0.10400000000000001, 0.978, -0.028, 192.0, 0.0, 0.0, 0.0, 0.0, 0.0, 0.0, 0.0, 0.0, 0.0, 1.70095150770837E9, 0.0, 2023-11-25 17:31:47.708
220.0, 35878.21553685851, 55626.89818464496, 20152.422207882668, -12016.856612784459, 21032.45509057702, 34411.18114127888, 11656.501788676, 32053.943819277745, -0.10400000000000001, 0.978, -0.028, 192.0, 0.0, 0.0, 0.0, 0.0, 0.0, 0.0, 0.0, 0.0, 0.0, 1.700951507712416E9, 0.0, 2023-11-25 17:31:47.712
221.0, 35880.987153170965, 55549.18116917386, 20150.924641004163, -12065.739877908216, 21091.866027339223, 34693.39426677159, 11639.581518123332, 32027.121725931374, -0.10400000000000001, 0.978, -0.028, 192.0, 0.0, 0.0, 0.0, 0.0, 0.0, 0.0, 0.0, 0.0, 0.0, 1.7009515077154E9, 0.0, 2023-11-25 17:31:47.715
222.0, 35710.39863948806, 55482.707081163775, 20138.36296062028, -12144.082742224067, 20901.33975760219, 34079.347143095394, 11651.897329318206, 32016.638757781835, -0.10400000000000001, 0.978, -0.028, 192.0, 0.0, 0.0, 0.0, 0.0, 0.0, 0.0, 0.0, 0.0, 0.0, 1.700951507718418E9, 0.0, 2023-11-25 17:31:47.718
223.0, 35735.700814211465, 55560.35704140151, 20116.860582454276, -12093.67955847735, 20853.12704481209, 34185.18265309127, 11647.292869960413, 32035.548333591025, -0.10400000000000001, 0.978, -0.028, 192.0, 0.0, 0.0, 0.0, 0.0, 0.0, 0.0, 0.0, 0.0, 0.0, 1.700951507721412E9, 0.0, 2023-11-25 17:31:47.721
224.0, 35842.22922828546, 55618.18100430739, 20137.424187353157, -12038.828377584026, 20968.77497062385, 34318.33199481154, 11653.841931085817, 32039.05755747051, -0.10400000000000001, 0.978, -0.028, 192.0, 0.0, 0.0, 0.0, 0.0, 0.0, 0.0, 0.0, 0.0, 0.0, 1.700951507725474E9, 0.0, 2023-11-25 17:31:47.725
225.0, 35913.352479142246, 55572.56109387411, 20150.343495648325, -12030.2900112021, 21137.016551138946, 34736.086098681226, 11642.73311409153, 32032.419089367282, -0.10400000000000001, 0.978, -0.028, 192.0, 0.0, 0.0, 0.0, 0.0, 0.0, 0.0, 0.0, 0.0, 0.0, 1.700951507728423E9, 0.0, 2023-11-25 17:31:47.728
226.0, 35715.383078501596, 55473.18523802581, 20131.769196005964, -12148.754256815226, 20913.364996119144, 34119.46852439267, 11648.008125782982, 32009.687365256235, -0.108, 0.98, -0.03, 192.0, 252.0, 160.0, 30.0, 160.0, 255.0, 16.0, 0.0, 0.0, 0.0, 1.700951507731474E9, 0.0, 2023-11-25 17:31:47.731
227.0, 35729.66584320854, 55541.1121894255, 20108.83630619482, -12098.462831790786, 20870.47199850941, 34161.26628652409, 11642.420189669156, 32033.42491786777, -0.108, 0.98, -0.03, 192.0, 0.0, 0.0, 0.0, 0.0, 0.0, 0.0, 0.0, 0.0, 0.0, 1.700951507734446E9, 0.0, 2023-11-25 17:31:47.734
228.0, 35812.94844304901, 55611.900164115454, 20125.42130058066, -12059.928424349837, 20915.175487420023, 34238.312749661534, 11648.723381605552, 32027.09937418692, -0.108, 0.98, -0.03, 192.0, 0.0, 0.0, 0.0, 0.0, 0.0, 0.0, 0.0, 0.0, 0.0, 1.700951507739478E9, 0.0, 2023-11-25 17:31:47.739
229.0, 35930.07158399482, 55595.18105926288, 20148.04126596943, -12009.122909202923, 21153.53449029142, 34719.3446420842, 11643.984811781027, 32032.86612425639, -0.108, 0.98, -0.03, 192.0, 0.0, 0.0, 0.0, 0.0, 0.0, 0.0, 0.0, 0.0, 0.0, 1.700951507742534E9, 0.0, 2023-11-25 17:31:47.742
230.0, 35722.96031987194, 55468.60313041248, 20120.45921331158, -12153.112846984011, 20920.80812702276, 34229.372051879414, 11639.648573356697, 32002.490103541626, -0.108, 0.98, -0.03, 192.0, 0.0, 0.0, 0.0, 0.0, 0.0, 0.0, 0.0, 0.0, 0.0, 1.700951507746557E9, 0.0, 2023-11-25 17:31:47.746
231.0, 35713.37142150062, 55527.32116309657, 20102.17548634714, -12101.592076014529, 20880.306766069745, 34141.350882214414, 11644.789474581417, 32036.509458602606, -0.108, 0.98, -0.03, 192.0, 0.0, 0.0, 0.0, 0.0, 0.0, 0.0, 0.0, 0.0, 0.0, 1.700951507750519E9, 0.0, 2023-11-25 17:31:47.750
232.0, 35774.861070497165, 55604.85936461203, 20111.272646340447, -12072.62421520045, 20872.03662062128, 34196.939670674765, 11651.87497757375, 32037.559990592003, -0.108, 0.98, -0.03, 192.0, 0.0, 0.0, 0.0, 0.0, 0.0, 0.0, 0.0, 0.0, 0.0, 1.700951507754528E9, 0.0, 2023-11-25 17:31:47.754
233.0, 35921.91319726863, 55609.15089954745, 20145.64962931271, -11995.376586362909, 21154.115635647257, 34672.67419966152, 11654.177207252647, 32049.29465643104, -0.108, 0.98, -0.03, 192.0, 0.0, 0.0, 0.0, 0.0, 0.0, 0.0, 0.0, 0.0, 0.0, 1.700951507760545E9, 0.0, 2023-11-25 17:31:47.760
234.0, 35748.26249459535, 55481.231866029724, 20123.78962323542, -12136.97488748728, 20965.735133377926, 34355.59235281853, 11642.643707113708, 31991.96243190318, -0.108, 0.98, -0.03, 192.0, 0.0, 0.0, 0.0, 0.0, 0.0, 0.0, 0.0, 0.0, 0.0, 1.70095150776363E9, 0.0, 2023-11-25 17:31:47.763
235.0, 35700.85444460565, 55508.098662865006, 20104.500067770492, -12107.403529572908, 20899.395155834576, 34112.40537314479, 11646.242337971013, 32018.404545593807, -0.108, 0.98, -0.03, 192.0, 0.0, 0.0, 0.0, 0.0, 0.0, 0.0, 0.0, 0.0, 0.0, 1.700951507766623E9, 0.0, 2023-11-25 17:31:47.766
236.0, 35745.155602116065, 55584.228704479785, 20102.22018983605, -12087.465773518774, 20850.847166877647, 34186.166129847305, 11643.358962936278, 32033.357862634406, -0.1, 0.98, -0.03, 192.0, 252.0, 224.0, 30.0, 160.0, 255.0, 16.0, 0.0, 0.0, 0.0, 1.700951507770604E9, 0.0, 2023-11-25 17:31:47.770
237.0, 35909.083295951285, 55619.49975723026, 20144.88967000123, -11991.576789805507, 21132.99323713699, 34581.2108613504, 11647.762256593975, 32061.230487970173, -0.1, 0.98, -0.03, 192.0, 0.0, 0.0, 0.0, 0.0, 0.0, 0.0, 0.0, 0.0, 0.0, 1.700951507773656E9, 0.0, 2023-11-25 17:31:47.773
238.0, 35794.48590212892, 55505.9528953973, 20133.13265241774, -12110.39866332992, 21016.920628180582, 34481.27621189073, 11632.898346531194, 32017.219903137673, -0.1, 0.98, -0.03, 192.0, 0.0, 0.0, 0.0, 0.0, 0.0, 0.0, 0.0, 0.0, 0.0, 1.700951507778635E9, 0.0, 2023-11-25 17:31:47.778
239.0, 35709.705735409945, 55504.7011977078, 20120.16864063366, -12108.610523773496, 20917.90240024357, 34073.84861395939, 11635.357038421278, 32038.029377225565, -0.1, 0.98, -0.03, 192.0, 0.0, 0.0, 0.0, 0.0, 0.0, 0.0, 0.0, 0.0, 0.0, 1.700951507782609E9, 0.0, 2023-11-25 17:31:47.782
240.0, 35744.30623582676, 55582.93230330137, 20105.438841037612, -12084.269474061666, 20851.517719211308, 34191.44114153876, 11622.147157448193, 32032.217923667187, -0.1, 0.98, -0.03, 192.0, 0.0, 0.0, 0.0, 0.0, 0.0, 0.0, 0.0, 0.0, 0.0, 1.700951507786644E9, 0.0, 2023-11-25 17:31:47.786
241.0, 35896.29809812285, 55628.37339977901, 20143.7050275451, -12003.803194022561, 21091.17312326111, 34480.5386043237, 11630.931393019127, 32046.38892965185, -0.1, 0.98, -0.03, 192.0, 0.0, 0.0, 0.0, 0.0, 0.0, 0.0, 0.0, 0.0, 0.0, 1.700951507790643E9, 0.0, 2023-11-25 17:31:47.790
242.0, 35843.458574230506, 55530.02572417566, 20136.26189664148, -12086.191724084822, 21072.196492218554, 34605.23898663986, 11621.186032436613, 32007.04985941051, -0.1, 0.98, -0.03, 192.0, 0.0, 0.0, 0.0, 0.0, 0.0, 0.0, 0.0, 0.0, 0.0, 1.700951507801448E9, 0.0, 2023-11-25 17:31:47.801
243.0, 35703.35783998464, 55489.41260450037, 20120.347454589304, -12130.112901939501, 20918.908228744058, 34045.21602931214, 11641.123788490748, 32018.493952571625, -0.1, 0.98, -0.03, 192.0, 0.0, 0.0, 0.0, 0.0, 0.0, 0.0, 0.0, 0.0, 0.0, 1.700951507801482E9, 0.0, 2023-11-25 17:31:47.801
244.0, 35732.34805254317, 55564.156837958915, 20095.53701824391, -12096.54058176763, 20853.819948890203, 34170.095225583944, 11635.625259354742, 32037.38117663636, -0.1, 0.98, -0.03, 192.0, 0.0, 0.0, 0.0, 0.0, 0.0, 0.0, 0.0, 0.0, 0.0, 1.700951507801633E9, 0.0, 2023-11-25 17:31:47.801
245.0, 35859.19420232704, 55620.48323398629, 20129.288152371428, -12029.798272824082, 21026.978913185467, 34359.70507379831, 11644.454198414589, 32049.62993259787, -0.1, 0.98, -0.03, 192.0, 0.0, 0.0, 0.0, 0.0, 0.0, 0.0, 0.0, 0.0, 0.0, 1.700951507806631E9, 0.0, 2023-11-25 17:31:47.806
246.0, 35879.15431012563, 55551.95278548632, 20135.434882096637, -12061.917729606359, 21114.106013072254, 34677.85980437515, 11636.63108785523, 32032.083813200454, -0.1, 0.984, -0.032, 192.0, 252.0, 224.0, 30.0, 192.0, 255.0, 0.0, 0.0, 0.0, 0.0, 1.700951507810702E9, 0.0, 2023-11-25 17:31:47.810
247.0, 35698.172235271006, 55472.20176126978, 20114.804221964387, -12149.760085315715, 20910.839248995693, 34066.80781445597, 11645.169454237159, 32021.08675492844, -0.1, 0.984, -0.032, 192.0, 0.0, 0.0, 0.0, 0.0, 0.0, 0.0, 0.0, 0.0, 0.0, 1.700951507814726E9, 0.0, 2023-11-25 17:31:47.814
248.0, 35721.61921520463, 55550.65638430791, 20094.955872888073, -12100.541544025129, 20862.60418446114, 34147.89994333982, 11639.91679429016, 32042.25385692762, -0.1, 0.984, -0.032, 192.0, 0.0, 0.0, 0.0, 0.0, 0.0, 0.0, 0.0, 0.0, 0.0, 1.700951507818847E9, 0.0, 2023-11-25 17:31:47.818
249.0, 35825.51012343289, 55614.51531821673, 20118.514611543967, -12049.244290500199, 20968.685563646028, 34262.89966856237, 11645.929413548638, 32043.706720317212, -0.1, 0.984, -0.032, 192.0, 0.0, 0.0, 0.0, 0.0, 0.0, 0.0, 0.0, 0.0, 0.0, 1.700951507821652E9, 0.0, 2023-11-25 17:31:47.821
250.0, 35908.27863315089, 55575.4668206533, 20136.865393741777, -12033.195737981288, 21155.054408914377, 34719.165828128556, 11638.73215183403, 32037.180010936263, -0.1, 0.984, -0.032, 192.0, 0.0, 0.0, 0.0, 0.0, 0.0, 0.0, 0.0, 0.0, 0.0, 1.700951507825743E9, 0.0, 2023-11-25 17:31:47.825
251.0, 35709.12459005411, 55469.05016530158, 20118.22403886605, -12156.890291796959, 20929.681769571518, 34140.50151592511, 11645.884710059729, 32012.883664713347, -0.1, 0.984, -0.032, 192.0, 0.0, 0.0, 0.0, 0.0, 0.0, 0.0, 0.0, 0.0, 0.0, 1.700951507829699E9, 0.0, 2023-11-25 17:31:47.829
252.0, 35721.39569776007, 55542.67681153736, 20101.393175291203, -12095.758270711693, 20891.393231319576, 34151.990312575144, 11647.382276938233, 32045.092528473444, -0.1, 0.984, -0.032, 192.0, 0.0, 0.0, 0.0, 0.0, 0.0, 0.0, 0.0, 0.0, 0.0, 1.700951507833783E9, 0.0, 2023-11-25 17:31:47.833
253.0, 35797.70455333049, 55615.610553695034, 20116.257085353984, -12059.459037716275, 20924.09383345769, 34210.88715921488, 11651.83027408484, 32042.991464494644, -0.1, 0.984, -0.032, 192.0, 0.0, 0.0, 0.0, 0.0, 0.0, 0.0, 0.0, 0.0, 0.0, 1.700951507839787E9, 0.0, 2023-11-25 17:31:47.839
254.0, 35925.73534557049, 55601.908934343934, 20141.581611821846, -12004.987836478691, 21175.461551602075, 34701.39619128659, 11646.644669371208, 32047.707682574714, -0.1, 0.984, -0.032, 192.0, 0.0, 0.0, 0.0, 0.0, 0.0, 0.0, 0.0, 0.0, 0.0, 1.700951507842796E9, 0.0, 2023-11-25 17:31:47.842
255.0, 35722.46858149393, 55470.748897880185, 20111.60792250728, -12152.777570817181, 20945.28328720132, 34249.7344910782, 11637.614564611265, 32002.087772141433, -0.1, 0.984, -0.032, 192.0, 0.0, 0.0, 0.0, 0.0, 0.0, 0.0, 0.0, 0.0, 0.0, 1.700951507846753E9, 0.0, 2023-11-25 17:31:47.846
0.0, 35704.78835162978, 55522.09085489403, 20094.955872888073, -12098.932218424347, 20901.295054113278, 34120.8543325489, 11645.169454237159, 32034.944836490733, -0.10200000000000001, 0.984, -0.03, 192.0, 252.0, 208.0, 30.0, 192.0, 255.0, 16.0, 0.0, 0.0, 0.0, 1.700951507849796E9, 0.0, 2023-11-25 17:31:47.849
1.0, 35759.773642989836, 55598.53382093118, 20098.174524089638, -12068.265625031665, 20880.95496665895, 34181.7181327007, 11643.381314680733, 32036.375348135873, -0.10200000000000001, 0.984, -0.03, 192.0, 0.0, 0.0, 0.0, 0.0, 0.0, 0.0, 0.0, 0.0, 0.0, 1.700951507853818E9, 0.0, 2023-11-25 17:31:47.853
2.0, 35915.654708821145, 55613.68830367188, 20132.685617528634, -11988.380490348398, 21167.593737553805, 34655.396301197565, 11644.722419348052, 32062.884517059865, -0.10200000000000001, 0.984, -0.03, 192.0, 0.0, 0.0, 0.0, 0.0, 0.0, 0.0, 0.0, 0.0, 0.0, 1.700951507858022E9, 0.0, 2023-11-25 17:31:47.858
3.0, 35753.69396849799, 55485.70221492079, 20114.31248358637, -12131.386951373453, 20987.19280805502, 34377.27354494018, 11632.428959897634, 32017.488124071137, -0.10200000000000001, 0.984, -0.03, 192.0, 0.0, 0.0, 0.0, 0.0, 0.0, 0.0, 0.0, 0.0, 0.0, 1.700951507861927E9, 0.0, 2023-11-25 17:31:47.861
4.0, 35705.101276052155, 55513.70895072329, 20102.667224725155, -12101.234448103243, 20921.702196800972, 34074.69798024869, 11638.888614045218, 32046.835964540955, -0.10200000000000001, 0.984, -0.03, 192.0, 0.0, 0.0, 0.0, 0.0, 0.0, 0.0, 0.0, 0.0, 0.0, 1.700951507866085E9, 0.0, 2023-11-25 17:31:47.866
5.0, 35738.83005843521, 55579.467782910804, 20086.462209995057, -12085.632930473439, 20859.11731232611, 34159.45579522321, 11627.980962751028, 32036.28594115805, -0.10200000000000001, 0.984, -0.03, 192.0, 0.0, 0.0, 0.0, 0.0, 0.0, 0.0, 0.0, 0.0, 0.0, 1.700951507870891E9, 0.0, 2023-11-25 17:31:47.870
6.0, 35894.01822018841, 55606.26752451272, 20122.761442990475, -12000.741005032183, 21127.405301023162, 34543.59287543212, 11634.172395965148, 32054.21204021121, -0.10200000000000001, 0.984, -0.03, 192.0, 0.0, 0.0, 0.0, 0.0, 0.0, 0.0, 0.0, 0.0, 0.0, 1.700951507874902E9, 0.0, 2023-11-25 17:31:47.874
7.0, 35790.75316080489, 55494.75467142519, 20110.669149240155, -12113.997294187224, 21027.269485863388, 34481.34326712409, 11622.862413270763, 32009.173275133762, -0.10200000000000001, 0.984, -0.03, 192.0, 0.0, 0.0, 0.0, 0.0, 0.0, 0.0, 0.0, 0.0, 0.0, 1.700951507877932E9, 0.0, 2023-11-25 17:31:47.877
8.0, 35689.61151714462, 55485.05401433159, 20094.17356183214, -12121.663942535395, 20914.19201066399, 34036.11886931883, 11629.210308696069, 32028.418127109784, -0.10200000000000001, 0.984, -0.03, 192.0, 0.0, 0.0, 0.0, 0.0, 0.0, 0.0, 0.0, 0.0, 0.0, 1.700951507881928E9, 0.0, 2023-11-25 17:31:47.881
9.0, 35716.05363083525, 55557.92070125588, 20074.504026711467, -12098.641645746427, 20846.287411008765, 34157.69000741124, 11620.20255568058, 32031.413260866793, -0.10200000000000001, 0.984, -0.03, 192.0, 0.0, 0.0, 0.0, 0.0, 0.0, 0.0, 0.0, 0.0, 0.0, 1.700951507885921E9, 0.0, 2023-11-25 17:31:47.885
10.0, 35861.965818639495, 55602.91476284442, 20111.74203297401, -12020.723464575227, 21075.88453005368, 34425.128629818995, 11626.72926506153, 32040.44336562674, -0.094, 0.98, -0.028, 192.0, 253.0, 16.0, 30.0, 160.0, 255.0, 32.0, 0.0, 0.0, 0.0, 1.700951507889907E9, 0.0, 2023-11-25 17:31:47.889
11.0, 35827.72294613397, 55518.24635484772, 20112.256123096482, -12088.24808457471, 21083.41706793512, 34587.22348060888, 11617.654456812676, 32012.14605714632, -0.094, 0.98, -0.028, 192.0, 0.0, 0.0, 0.0, 0.0, 0.0, 0.0, 0.0, 0.0, 0.0, 1.70095150789403E9, 0.0, 2023-11-25 17:31:47.894
12.0, 35682.48131066338, 55476.82857237203, 20097.25810256697, -12137.712495054306, 20921.881010756613, 34029.2792355155, 11631.19961395259, 32018.04691768252, -0.094, 0.98, -0.028, 192.0, 0.0, 0.0, 0.0, 0.0, 0.0, 0.0, 0.0, 0.0, 0.0, 1.700951507898979E9, 0.0, 2023-11-25 17:31:47.898
13.0, 35706.10710455264, 55548.354154629014, 20070.25719526496, -12100.34037832503, 20857.3738762586, 34167.435367993756, 11622.594192337297, 32023.321929373975, -0.094, 0.98, -0.028, 192.0, 0.0, 0.0, 0.0, 0.0, 0.0, 0.0, 0.0, 0.0, 0.0, 1.700951507902988E9, 0.0, 2023-11-25 17:31:47.902
14.0, 35831.38863222464, 55604.59114367857, 20105.371785804247, -12030.088845502001, 21022.53091603886, 34337.12981189845, 11640.095608245803, 32036.509458602606, -0.094, 0.98, -0.028, 192.0, 0.0, 0.0, 0.0, 0.0, 0.0, 0.0, 0.0, 0.0, 0.0, 1.70095150790603E9, 0.0, 2023-11-25 17:31:47.906
15.0, 35866.8161471863, 55541.313355125596, 20115.251256853495, -12049.177235266834, 21133.79789993738, 34692.321383037735, 11634.239451198513, 32025.646510797324, -0.094, 0.98, -0.028, 192.0, 0.0, 0.0, 0.0, 0.0, 0.0, 0.0, 0.0, 0.0, 0.0, 1.700951507910078E9, 0.0, 2023-11-25 17:31:47.910
16.0, 35687.55515665474, 55464.93744432181, 20103.65070148119, -12141.668753822894, 20932.47573762843, 34072.641619758804, 11645.728247848541, 32011.922539701765, -0.094, 0.98, -0.028, 192.0, 0.0, 0.0, 0.0, 0.0, 0.0, 0.0, 0.0, 0.0, 0.0, 1.700951507915031E9, 0.0, 2023-11-25 17:31:47.915
17.0, 35714.176084301005, 55545.33666912755, 20085.67989893912, -12081.721375193762, 20890.588568519186, 34152.30323699752, 11640.833215812829, 32030.318025388486, -0.094, 0.98, -0.028, 192.0, 0.0, 0.0, 0.0, 0.0, 0.0, 0.0, 0.0, 0.0, 0.0, 1.700951507920102E9, 0.0, 2023-11-25 17:31:47.920
18.0, 35813.730754104945, 55606.53574544618, 20104.745936959498, -12034.246269970688, 20978.945014351015, 34259.27868596061, 11643.247204214002, 32033.156696934308, -0.094, 0.98, -0.028, 192.0, 0.0, 0.0, 0.0, 0.0, 0.0, 0.0, 0.0, 0.0, 0.0, 1.700951507923012E9, 0.0, 2023-11-25 17:31:47.923
19.0, 35909.61973781821, 55571.80113456263, 20123.968437191063, -12011.022807481624, 21177.629670814236, 34718.38351707262, 11632.585422108821, 32030.1615631773, -0.094, 0.98, -0.028, 192.0, 0.0, 0.0, 0.0, 0.0, 0.0, 0.0, 0.0, 0.0, 0.0, 1.700951507927147E9, 0.0, 2023-11-25 17:31:47.927
20.0, 35712.097372066666, 55466.703232133776, 20107.383442805225, -12138.315992154598, 20950.603002381686, 34142.24495199263, 11637.97219252255, 31999.405562806794, -0.10200000000000001, 0.984, -0.032, 192.0, 252.0, 208.0, 30.0, 192.0, 255.0, 0.0, 0.0, 0.0, 0.0, 1.700951507931142E9, 0.0, 2023-11-25 17:31:47.931
21.0, 35719.16052331454, 55535.39014284494, 20090.753744930476, -12078.458020503285, 20915.354301375664, 34132.14196349883, 11641.012029768472, 32031.301502144517, -0.10200000000000001, 0.984, -0.032, 192.0, 0.0, 0.0, 0.0, 0.0, 0.0, 0.0, 0.0, 0.0, 0.0, 1.700951507934111E9, 0.0, 2023-11-25 17:31:47.934
22.0, 35785.99223923591, 55601.14897503245, 20099.046242123397, -12052.552348679585, 20933.302752173277, 34207.37793533539, 11638.843910556307, 32030.250970155117, -0.10200000000000001, 0.984, -0.032, 192.0, 0.0, 0.0, 0.0, 0.0, 0.0, 0.0, 0.0, 0.0, 0.0, 1.700951507938099E9, 0.0, 2023-11-25 17:31:47.938
23.0, 35921.91319726863, 55598.15384127544, 20130.852774483297, -11991.017996194125, 21199.444973402617, 34695.808255172764, 11637.659268100175, 32049.138194219853, -0.10200000000000001, 0.984, -0.032, 192.0, 0.0, 0.0, 0.0, 0.0, 0.0, 0.0, 0.0, 0.0, 0.0, 1.700951507942151E9, 0.0, 2023-11-25 17:31:47.942
24.0, 35729.487029252894, 55476.38153748293, 20109.998596906495, -12131.185785673355, 20983.951805109, 34263.54786915158, 11631.847814541796, 32003.898263442312, -0.10200000000000001, 0.984, -0.032, 192.0, 0.0, 0.0, 0.0, 0.0, 0.0, 0.0, 0.0, 0.0, 0.0, 1.70095150794615E9, 0.0, 2023-11-25 17:31:47.946
25.0, 35708.45403772045, 55526.71766599628, 20094.866465910254, -12079.642662959417, 20940.09768248769, 34112.8524080339, 11640.363829179267, 32035.034243468555, -0.10200000000000001, 0.984, -0.032, 192.0, 0.0, 0.0, 0.0, 0.0, 0.0, 0.0, 0.0, 0.0, 0.0, 1.700951507950326E9, 0.0, 2023-11-25 17:31:47.950
26.0, 35755.39270107659, 55599.450242453844, 20092.385422275715, -12057.827360371037, 20907.173562905024, 34190.41296129381, 11639.91679429016, 32033.49197310114, -0.10200000000000001, 0.984, -0.032, 192.0, 0.0, 0.0, 0.0, 0.0, 0.0, 0.0, 0.0, 0.0, 0.0, 1.700951507956176E9, 0.0, 2023-11-25 17:31:47.956
27.0, 35913.73245879799, 55616.035236839685, 20130.450443083104, -11974.768277975116, 21193.56646461087, 34642.745213835864, 11645.661192615175, 32053.049749499532, -0.10200000000000001, 0.984, -0.032, 192.0, 0.0, 0.0, 0.0, 0.0, 0.0, 0.0, 0.0, 0.0, 0.0, 1.700951507959297E9, 0.0, 2023-11-25 17:31:47.959
28.0, 35763.93106745852, 55492.40773825738, 20115.11714638676, -12105.30246559411, 21030.421081831584, 34406.75549587673, 11639.358000678778, 32018.538656060537, -0.10200000000000001, 0.984, -0.032, 192.0, 0.0, 0.0, 0.0, 0.0, 0.0, 0.0, 0.0, 0.0, 0.0, 1.700951507962379E9, 0.0, 2023-11-25 17:31:47.962
29.0, 35702.10614229514, 55508.0539593761, 20097.325157800336, -12080.022642615157, 20951.67588611554, 34102.19062592872, 11648.522215905454, 32054.8155373115, -0.10200000000000001, 0.984, -0.032, 192.0, 0.0, 0.0, 0.0, 0.0, 0.0, 0.0, 0.0, 0.0, 0.0, 1.700951507966252E9, 0.0, 2023-11-25 17:31:47.966
30.0, 35736.058442122754, 55578.79723057714, 20083.6905936826, -12061.068363317057, 20889.247463851865, 34210.79775223706, 11644.87888155924, 32050.72516807618, -0.108, 0.986, -0.03, 192.0, 252.0, 160.0, 30.0, 208.0, 255.0, 16.0, 0.0, 0.0, 0.0, 1.700951507970204E9, 0.0, 2023-11-25 17:31:47.970
31.0, 35891.38071434268, 55615.36468450603, 20123.208477879583, -11973.293062841067, 21158.027190926932, 34577.76869270429, 11656.501788676, 32065.074988016488, -0.108, 0.986, -0.03, 192.0, 0.0, 0.0, 0.0, 0.0, 0.0, 0.0, 0.0, 0.0, 0.0, 1.700951507974194E9, 0.0, 2023-11-25 17:31:47.974
32.0, 35799.87267254265, 55508.52334600966, 20111.272646340447, -12078.905055392392, 21075.37043993121, 34572.068997868184, 11644.25303271449, 32031.279150400063, -0.108, 0.986, -0.03, 192.0, 0.0, 0.0, 0.0, 0.0, 0.0, 0.0, 0.0, 0.0, 0.0, 1.700951507978273E9, 0.0, 2023-11-25 17:31:47.978
33.0, 35692.20431950144, 55493.95000862479, 20099.26975956795, -12095.221828844766, 20953.933412305523, 34094.21105315817, 11653.283137474435, 32051.10514773192, -0.108, 0.986, -0.03, 192.0, 0.0, 0.0, 0.0, 0.0, 0.0, 0.0, 0.0, 0.0, 0.0, 1.700951507982393E9, 0.0, 2023-11-25 17:31:47.982
34.0, 35725.19549431747, 55571.33174792907, 20082.282433781915, -12064.48818021872, 20887.481676039897, 34211.758877248634, 11646.622317626754, 32055.039054756053, -0.108, 0.986, -0.03, 192.0, 0.0, 0.0, 0.0, 0.0, 0.0, 0.0, 0.0, 0.0, 0.0, 1.700951507987294E9, 0.0, 2023-11-25 17:31:47.987
35.0, 35871.37590305518, 55622.181966564895, 20120.28039935594, -11982.032594923092, 21106.729937402004, 34459.371502324524, 11658.200521254603, 32064.136214749364, -0.108, 0.986, -0.03, 192.0, 0.0, 0.0, 0.0, 0.0, 0.0, 0.0, 0.0, 0.0, 0.0, 1.700951507990211E9, 0.0, 2023-11-25 17:31:47.990
36.0, 35849.33708302225, 55537.580613801554, 20117.329969087838, -12045.466845687253, 21127.584114978807, 34653.11642326313, 11642.3978379247, 32026.85350499791, -0.108, 0.986, -0.03, 192.0, 0.0, 0.0, 0.0, 0.0, 0.0, 0.0, 0.0, 0.0, 0.0, 1.700951507994294E9, 0.0, 2023-11-25 17:31:47.994
37.0, 35693.7242381244, 55484.62933118693, 20099.8956084127, -12108.856392962503, 20951.34060994871, 34067.321904578435, 11650.802093839895, 32025.780621264057, -0.108, 0.986, -0.03, 192.0, 0.0, 0.0, 0.0, 0.0, 0.0, 0.0, 0.0, 0.0, 0.0, 1.700951507998266E9, 0.0, 2023-11-25 17:31:47.998
38.0, 35721.954491371456, 55561.74284955774, 20078.48263722451, -12068.846770387503, 20889.56038827424, 34188.17778684828, 11644.431846670133, 32040.86804877139, -0.108, 0.986, -0.03, 192.0, 0.0, 0.0, 0.0, 0.0, 0.0, 0.0, 0.0, 0.0, 0.0, 1.700951508002289E9, 0.0, 2023-11-25 17:31:48.002
39.0, 35845.17965855356, 55623.657181698945, 20111.384405062727, -12001.009225965647, 21038.959448213514, 34342.87421022346, 11656.412381698177, 32049.942857020244, -0.108, 0.986, -0.03, 192.0, 0.0, 0.0, 0.0, 0.0, 0.0, 0.0, 0.0, 0.0, 0.0, 1.700951508006274E9, 0.0, 2023-11-25 17:31:48.006
40.0, 35890.48664456447, 55566.615529849, 20121.532097045434, -12016.342522661987, 21167.303164875888, 34722.67505200804, 11645.616489126265, 32032.62025506738, -0.10200000000000001, 0.988, -0.032, 192.0, 252.0, 208.0, 30.0, 224.0, 255.0, 0.0, 0.0, 0.0, 0.0, 1.700951508010308E9, 0.0, 2023-11-25 17:31:48.010
41.0, 35697.09935153715, 55475.375708982436, 20099.87325666824, -12124.144986169933, 20947.227888968933, 34112.11480046687, 11648.812788583373, 32011.989594935134, -0.10200000000000001, 0.988, -0.032, 192.0, 0.0, 0.0, 0.0, 0.0, 0.0, 0.0, 0.0, 0.0, 0.0, 1.700951508013283E9, 0.0, 2023-11-25 17:31:48.013
42.0, 35714.06432557873, 55552.89155875344, 20078.817913391344, -12067.617424442462, 20900.356280846154, 34170.721074428686, 11644.342439692313, 32032.86612425639, -0.10200000000000001, 0.988, -0.032, 192.0, 0.0, 0.0, 0.0, 0.0, 0.0, 0.0, 0.0, 0.0, 0.0, 1.700951508017292E9, 0.0, 2023-11-25 17:31:48.017
43.0, 35808.54514939131, 55621.1761380644, 20100.007367134975, -12024.344447176987, 20971.546586936307, 34250.47209864522, 11650.712686862074, 32035.168353935285, -0.10200000000000001, 0.988, -0.032, 192.0, 0.0, 0.0, 0.0, 0.0, 0.0, 0.0, 0.0, 0.0, 0.0, 1.700951508021309E9, 0.0, 2023-11-25 17:31:48.021
44.0, 35914.71593555402, 55593.86230634002, 20123.007312179485, -11990.61566479393, 21184.178731939643, 34711.16390361356, 11651.15972175118, 32044.15375520632, -0.10200000000000001, 0.988, -0.032, 192.0, 0.0, 0.0, 0.0, 0.0, 0.0, 0.0, 0.0, 0.0, 0.0, 1.700951508026367E9, 0.0, 2023-11-25 17:31:48.026
45.0, 35710.622156932615, 55476.09096480501, 20098.97918689003, -12126.022532704179, 20949.01602852536, 34172.28569654056, 11653.417247941166, 32012.079001912953, -0.10200000000000001, 0.988, -0.032, 192.0, 0.0, 0.0, 0.0, 0.0, 0.0, 0.0, 0.0, 0.0, 0.0, 1.700951508030325E9, 0.0, 2023-11-25 17:31:48.030
46.0, 35713.751401156354, 55539.77108475818, 20080.337832014302, -12073.451229745297, 20907.017100693836, 34143.09431828193, 11652.769047351963, 32039.459888870704, -0.10200000000000001, 0.988, -0.032, 192.0, 0.0, 0.0, 0.0, 0.0, 0.0, 0.0, 0.0, 0.0, 0.0, 1.700951508034382E9, 0.0, 2023-11-25 17:31:48.034
47.0, 35778.9961432214, 55609.68734141438, 20088.58562571831, -12043.946927064291, 20913.297940885775, 34200.2700805986, 11652.299660718401, 32035.324816146473, -0.10200000000000001, 0.988, -0.032, 192.0, 0.0, 0.0, 0.0, 0.0, 0.0, 0.0, 0.0, 0.0, 0.0, 1.700951508040483E9, 0.0, 2023-11-25 17:31:48.040
48.0, 35920.9297205126, 55606.96042859083, 20118.22403886605, -11973.538932030075, 21183.932862750633, 34695.85295866167, 11650.176244995147, 32050.076967486977, -0.10200000000000001, 0.988, -0.032, 192.0, 0.0, 0.0, 0.0, 0.0, 0.0, 0.0, 0.0, 0.0, 0.0, 1.700951508043557E9, 0.0, 2023-11-25 17:31:48.043
49.0, 35739.41120379105, 55486.43982248782, 20103.337777058816, -12109.973980185268, 20978.185055039532, 34295.712029422764, 11645.705896104086, 32012.14605714632, -0.10200000000000001, 0.988, -0.032, 192.0, 0.0, 0.0, 0.0, 0.0, 0.0, 0.0, 0.0, 0.0, 0.0, 1.700951508046456E9, 0.0, 2023-11-25 17:31:48.046
50.0, 35716.81359014673, 55535.52425331167, 20091.156076330673, -12057.693249904305, 20931.738130061403, 34118.19447495872, 11654.177207252647, 32049.62993259787, -0.10400000000000001, 0.982, -0.032, 192.0, 252.0, 192.0, 30.0, 176.0, 255.0, 0.0, 0.0, 0.0, 0.0, 1.700951508049441E9, 0.0, 2023-11-25 17:31:48.049
51.0, 35765.31687561475, 55610.67081817041, 20091.133724586216, -12035.609726382461, 20892.913149942535, 34189.76476070461, 11651.584404895832, 32049.696987831237, -0.10400000000000001, 0.982, -0.032, 192.0, 0.0, 0.0, 0.0, 0.0, 0.0, 0.0, 0.0, 0.0, 0.0, 1.700951508054474E9, 0.0, 2023-11-25 17:31:48.054
52.0, 35925.40006940366, 55627.412274767434, 20124.638989524723, -11950.740152685661, 21174.120446934754, 34646.52265864881, 11650.802093839895, 32069.67944737428, -0.10400000000000001, 0.982, -0.032, 192.0, 0.0, 0.0, 0.0, 0.0, 0.0, 0.0, 0.0, 0.0, 0.0, 1.700951508058446E9, 0.0, 2023-11-25 17:31:48.058
53.0, 35779.17495717704, 55499.6497034609, 20101.527285757933, -12090.81853518707, 21012.226761844966, 34445.55812425115, 11634.239451198513, 32019.499781072114, -0.10400000000000001, 0.982, -0.032, 192.0, 0.0, 0.0, 0.0, 0.0, 0.0, 0.0, 0.0, 0.0, 0.0, 1.700951508062471E9, 0.0, 2023-11-25 17:31:48.062
54.0, 35708.364630742624, 55513.88776467893, 20088.36210827376, -12073.317119278565, 20926.060786969756, 34080.062398917966, 11648.119884505259, 32045.874839529377, -0.10400000000000001, 0.982, -0.032, 192.0, 0.0, 0.0, 0.0, 0.0, 0.0, 0.0, 0.0, 0.0, 0.0, 1.700951508066419E9, 0.0, 2023-11-25 17:31:48.066
55.0, 35743.56862825974, 55589.21314349332, 20073.699363911077, -12050.026601556136, 20860.391361760067, 34180.19821407774, 11644.029515269938, 32047.77473780808, -0.10400000000000001, 0.982, -0.032, 192.0, 0.0, 0.0, 0.0, 0.0, 0.0, 0.0, 0.0, 0.0, 0.0, 1.700951508069518E9, 0.0, 2023-11-25 17:31:48.069
56.0, 35905.596423816256, 55628.50751024575, 20112.971378919054, -11960.217292334712, 21124.99131262199, 34525.48796242332, 11655.78653285343, 32075.334438721475, -0.10400000000000001, 0.982, -0.032, 192.0, 0.0, 0.0, 0.0, 0.0, 0.0, 0.0, 0.0, 0.0, 0.0, 1.700951508073462E9, 0.0, 2023-11-25 17:31:48.073
57.0, 35828.348794978716, 55525.04128516213, 20104.96945440405, -12060.24134877221, 21059.992439745958, 34553.829974392655, 11644.051867014394, 32036.10712720241, -0.10400000000000001, 0.982, -0.032, 192.0, 0.0, 0.0, 0.0, 0.0, 0.0, 0.0, 0.0, 0.0, 0.0, 1.700951508077523E9, 0.0, 2023-11-25 17:31:48.077
58.0, 35708.00700283134, 55501.90722965089, 20090.59728271929, -12083.084831605534, 20927.75951954836, 34052.8379741714, 11650.422114184155, 32036.263589413596, -0.10400000000000001, 0.982, -0.032, 192.0, 0.0, 0.0, 0.0, 0.0, 0.0, 0.0, 0.0, 0.0, 0.0, 1.700951508083618E9, 0.0, 2023-11-25 17:31:48.083
59.0, 35733.64445372158, 55576.20442822033, 20071.844169121287, -12057.156808037378, 20861.486597238374, 34174.7667401751, 11637.391047166711, 32036.73297604716, -0.10400000000000001, 0.982, -0.032, 192.0, 0.0, 0.0, 0.0, 0.0, 0.0, 0.0, 0.0, 0.0, 0.0, 1.700951508087547E9, 0.0, 2023-11-25 17:31:48.087
60.0, 35872.5158420224, 55620.215013052824, 20104.991806148508, -11983.284292612589, 21064.93217527058, 34422.96051060683, 11644.051867014394, 32052.468604143694, -0.098, 0.982, -0.036000000000000004, 192.0, 252.0, 240.0, 30.0, 176.0, 254.0, 224.0, 0.0, 0.0, 0.0, 1.700951508090602E9, 0.0, 2023-11-25 17:31:48.090
61.0, 35863.351626795724, 55536.954764956805, 20106.46702128256, -12038.738970606206, 21104.78533563439, 34658.23497274339, 11633.211270953569, 32023.76896426308, -0.098, 0.982, -0.036000000000000004, 192.0, 0.0, 0.0, 0.0, 0.0, 0.0, 0.0, 0.0, 0.0, 0.0, 1.700951508094611E9, 0.0, 2023-11-25 17:31:48.094
62.0, 35701.12266553911, 55478.05791831707, 20091.35724203077, -12104.229581860254, 20925.457289869464, 34061.77867195352, 11646.3988001822, 32029.356900376908, -0.098, 0.982, -0.036000000000000004, 192.0, 0.0, 0.0, 0.0, 0.0, 0.0, 0.0, 0.0, 0.0, 0.0, 1.700951508097645E9, 0.0, 2023-11-25 17:31:48.097
63.0, 35725.88839839559, 55555.6631750659, 20072.06768656584, -12057.872063859948, 20873.243614821866, 34175.39258901985, 11643.895404803206, 32046.947723263234, -0.098, 0.982, -0.036000000000000004, 192.0, 0.0, 0.0, 0.0, 0.0, 0.0, 0.0, 0.0, 0.0, 0.0, 1.700951508101576E9, 0.0, 2023-11-25 17:31:48.101
64.0, 35839.032928828354, 55615.63290543949, 20100.096774112793, -11995.84597299647, 21007.35408155371, 34320.9024454239, 11653.21608224107, 32049.942857020244, -0.098, 0.982, -0.036000000000000004, 192.0, 0.0, 0.0, 0.0, 0.0, 0.0, 0.0, 0.0, 0.0, 0.0, 1.700951508107664E9, 0.0, 2023-11-25 17:31:48.107
65.0, 35894.30879286633, 55563.463933880805, 20114.98303592003, -11999.466955598231, 21150.740522234504, 34712.48265653642, 11647.091704260314, 32045.673673829282, -0.098, 0.982, -0.036000000000000004, 192.0, 0.0, 0.0, 0.0, 0.0, 0.0, 0.0, 0.0, 0.0, 0.0, 1.700951508110829E9, 0.0, 2023-11-25 17:31:48.110
66.0, 35693.903052080044, 55462.63521464291, 20089.524398985435, -12115.53956455464, 20926.463118369953, 34122.93304478324, 11650.533872906431, 32024.81949625248, -0.098, 0.982, -0.036000000000000004, 192.0, 0.0, 0.0, 0.0, 0.0, 0.0, 0.0, 0.0, 0.0, 0.0, 1.700951508114683E9, 0.0, 2023-11-25 17:31:48.114
67.0, 35711.91855811102, 55538.18411090185, 20070.950099343074, -12066.276319775143, 20882.832513193192, 34170.63166745087, 11647.851663571795, 32046.947723263234, -0.098, 0.982, -0.036000000000000004, 192.0, 0.0, 0.0, 0.0, 0.0, 0.0, 0.0, 0.0, 0.0, 0.0, 1.70095150811867E9, 0.0, 2023-11-25 17:31:48.118
68.0, 35802.24195745492, 55605.5746204346, 20091.4913524975, -12022.153976220367, 20948.926621547536, 34248.6839590888, 11653.350192707801, 32048.847621541932, -0.098, 0.982, -0.036000000000000004, 192.0, 0.0, 0.0, 0.0, 0.0, 0.0, 0.0, 0.0, 0.0, 0.0, 1.700951508122642E9, 0.0, 2023-11-25 17:31:48.122
69.0, 35917.48755186648, 55582.90995155692, 20115.810050464876, -11983.239589123677, 21176.623842313747, 34728.21828463296, 11646.689372860119, 32051.77570006558, -0.098, 0.982, -0.036000000000000004, 192.0, 0.0, 0.0, 0.0, 0.0, 0.0, 0.0, 0.0, 0.0, 0.0, 1.700951508125763E9, 0.0, 2023-11-25 17:31:48.125
70.0, 35718.445267491974, 55466.636176900414, 20096.945178144597, -12121.418073346385, 20948.233717469422, 34191.93287991678, 11645.772951337452, 32017.44342058223, -0.106, 0.978, -0.032, 192.0, 252.0, 176.0, 30.0, 144.0, 255.0, 0.0, 0.0, 0.0, 0.0, 1.7009515081297E9, 0.0, 2023-11-25 17:31:48.129
71.0, 35719.719316925926, 55529.80220673111, 20077.49916046848, -12064.890511618914, 20908.179391405512, 34130.08560300894, 11648.812788583373, 32046.21011569621, -0.106, 0.978, -0.032, 192.0, 0.0, 0.0, 0.0, 0.0, 0.0, 0.0, 0.0, 0.0, 0.0, 1.700951508133685E9, 0.0, 2023-11-25 17:31:48.133
72.0, 35783.22062292345, 55605.35110299005, 20084.517608227445, -12035.743836849195, 20906.346548360176, 34195.77737996309, 11655.607718897787, 32049.026435497577, -0.106, 0.978, -0.032, 192.0, 0.0, 0.0, 0.0, 0.0, 0.0, 0.0, 0.0, 0.0, 0.0, 1.700951508137718E9, 0.0, 2023-11-25 17:31:48.137
73.0, 35933.11142124074, 55617.13047231799, 20123.253181368495, -11956.551606244042, 21182.70351680559, 34677.79274914179, 11663.676698646153, 32069.925316563287, -0.106, 0.978, -0.032, 192.0, 0.0, 0.0, 0.0, 0.0, 0.0, 0.0, 0.0, 0.0, 0.0, 1.700951508141692E9, 0.0, 2023-11-25 17:31:48.141
74.0, 35753.71632024245, 55489.345549267004, 20100.387346790714, -12101.480317292253, 20982.811866141783, 34319.18136110084, 11655.630070642243, 32024.037185196543, -0.106, 0.978, -0.032, 192.0, 0.0, 0.0, 0.0, 0.0, 0.0, 0.0, 0.0, 0.0, 0.0, 1.700951508146776E9, 0.0, 2023-11-25 17:31:48.146
75.0, 35715.20426454595, 55523.543718283625, 20080.06961108084, -12063.392944740408, 20923.0880049572, 34112.137152211326, 11656.010050297982, 32053.049749499532, -0.106, 0.978, -0.032, 192.0, 0.0, 0.0, 0.0, 0.0, 0.0, 0.0, 0.0, 0.0, 0.0, 1.700951508150859E9, 0.0, 2023-11-25 17:31:48.150
76.0, 35756.77850923282, 55597.81856510861, 20072.291204010395, -12043.455188686276, 20875.121161356114, 34192.603432250435, 11647.06935251586, 32052.33449367696, -0.106, 0.978, -0.032, 192.0, 0.0, 0.0, 0.0, 0.0, 0.0, 0.0, 0.0, 0.0, 0.0, 1.700951508153731E9, 0.0, 2023-11-25 17:31:48.153
77.0, 35916.638185577176, 55621.399655508954, 20110.73620447352, -11957.333917299977, 21156.306106603875, 34610.178722164484, 11649.773913594952, 32076.474377688693, -0.106, 0.978, -0.032, 192.0, 0.0, 0.0, 0.0, 0.0, 0.0, 0.0, 0.0, 0.0, 0.0, 1.700951508157811E9, 0.0, 2023-11-25 17:31:48.157
78.0, 35784.4946723574, 55497.660398204374, 20094.12885834323, -12080.872008904458, 21018.909933437102, 34451.79426095418, 11634.284154687424, 32030.899170744324, -0.106, 0.978, -0.032, 192.0, 0.0, 0.0, 0.0, 0.0, 0.0, 0.0, 0.0, 0.0, 0.0, 1.700951508161791E9, 0.0, 2023-11-25 17:31:48.161
79.0, 35703.290784751276, 55502.24250581772, 20076.046297078883, -12069.584377954528, 20925.658455569563, 34084.48804432011, 11638.240413456013, 32050.747519820634, -0.106, 0.978, -0.032, 192.0, 0.0, 0.0, 0.0, 0.0, 0.0, 0.0, 0.0, 0.0, 0.0, 1.700951508165943E9, 0.0, 2023-11-25 17:31:48.165
80.0, 35735.566703744735, 55579.6689486109, 20066.680916152112, -12045.824473598537, 20863.364143772622, 34193.7210194732, 11633.993582009505, 32054.033226255564, -0.092, 0.982, -0.028, 192.0, 253.0, 32.0, 30.0, 176.0, 255.0, 32.0, 0.0, 0.0, 0.0, 1.700951508169807E9, 0.0, 2023-11-25 17:31:48.169
81.0, 35889.860795719724, 55618.560983963136, 20105.863524182263, -11957.289213811066, 21117.101146829267, 34523.23043623334, 11647.002297282494, 32081.503520191138, -0.092, 0.982, -0.028, 192.0, 0.0, 0.0, 0.0, 0.0, 0.0, 0.0, 0.0, 0.0, 0.0, 1.700951508174811E9, 0.0, 2023-11-25 17:31:48.174
82.0, 35821.33034721975, 55511.76434895568, 20094.866465910254, -12051.904148090382, 21071.45888465153, 34601.908576716014, 11628.986791251516, 32039.728109804168, -0.092, 0.982, -0.028, 192.0, 0.0, 0.0, 0.0, 0.0, 0.0, 0.0, 0.0, 0.0, 0.0, 1.700951508178891E9, 0.0, 2023-11-25 17:31:48.178
83.0, 35699.44628470496, 55489.03262484463, 20085.858712894766, -12083.10718334999, 20937.66134234206, 34070.339390079906, 11642.889576302718, 32047.68533083026, -0.092, 0.982, -0.028, 192.0, 0.0, 0.0, 0.0, 0.0, 0.0, 0.0, 0.0, 0.0, 0.0, 1.700951508181852E9, 0.0, 2023-11-25 17:31:48.181
84.0, 35731.74455544288, 55575.77974507568, 20071.374782487725, -12044.773941609137, 20879.055068380247, 34187.19431009225, 11641.235547213024, 32052.58036286597, -0.092, 0.982, -0.028, 192.0, 0.0, 0.0, 0.0, 0.0, 0.0, 0.0, 0.0, 0.0, 0.0, 1.70095150818585E9, 0.0, 2023-11-25 17:31:48.185
85.0, 35864.826841929775, 55626.47350150031, 20101.102602613282, -11971.124943628902, 21067.79319856086, 34408.45422845533, 11647.672849616152, 32058.458871657716, -0.092, 0.982, -0.028, 192.0, 0.0, 0.0, 0.0, 0.0, 0.0, 0.0, 0.0, 0.0, 0.0, 1.700951508189849E9, 0.0, 2023-11-25 17:31:48.189
86.0, 35867.15142335313, 55548.86824475149, 20099.046242123397, -12020.209374452756, 21122.823193409826, 34673.97060083993, 11631.043151741404, 32027.43465035375, -0.092, 0.982, -0.028, 192.0, 0.0, 0.0, 0.0, 0.0, 0.0, 0.0, 0.0, 0.0, 0.0, 1.700951508193872E9, 0.0, 2023-11-25 17:31:48.193
87.0, 35699.60274691615, 55484.27170327565, 20083.556483215867, -12097.859334690493, 20935.269705685343, 34058.090634118395, 11644.431846670133, 32025.311234630495, -0.092, 0.982, -0.028, 192.0, 0.0, 0.0, 0.0, 0.0, 0.0, 0.0, 0.0, 0.0, 0.0, 1.700951508197884E9, 0.0, 2023-11-25 17:31:48.197
88.0, 35726.71541294044, 55562.681622824864, 20062.165863772138, -12052.798217868592, 20884.21832134942, 34168.95528661672, 11643.895404803206, 32048.48999363065, -0.092, 0.982, -0.028, 192.0, 0.0, 0.0, 0.0, 0.0, 0.0, 0.0, 0.0, 0.0, 0.0, 1.700951508202932E9, 0.0, 2023-11-25 17:31:48.202
89.0, 35835.36724273768, 55624.86417589953, 20089.7926199189, -11996.427118352309, 21004.269540818877, 34304.02687836014, 11656.054753786893, 32060.425825169783, -0.092, 0.982, -0.028, 192.0, 0.0, 0.0, 0.0, 0.0, 0.0, 0.0, 0.0, 0.0, 0.0, 1.700951508206866E9, 0.0, 2023-11-25 17:31:48.206
90.0, 35901.461351092024, 55576.15972473141, 20105.5953032488, -11996.740042774683, 21163.81629274086, 34712.90733968107, 11646.73407634903, 32048.132365719364, -0.092, 0.984, -0.028, 192.0, 253.0, 32.0, 30.0, 192.0, 255.0, 32.0, 0.0, 0.0, 0.0, 1.70095150821012E9, 0.0, 2023-11-25 17:31:48.210
91.0, 35702.19554927296, 55473.69932814829, 20084.808180905366, -12115.293695365632, 20941.99758076639, 34115.75813481309, 11651.047963028905, 32023.05370844051, -0.092, 0.984, -0.028, 192.0, 0.0, 0.0, 0.0, 0.0, 0.0, 0.0, 0.0, 0.0, 0.0, 1.700951508213935E9, 0.0, 2023-11-25 17:31:48.213
92.0, 35713.03614533379, 55543.48147433776, 20063.10463703926, -12058.922595849348, 20903.865504725636, 34169.64819069483, 11650.153893250692, 32051.8651070434, -0.092, 0.984, -0.028, 192.0, 0.0, 0.0, 0.0, 0.0, 0.0, 0.0, 0.0, 0.0, 0.0, 1.700951508218313E9, 0.0, 2023-11-25 17:31:48.218
93.0, 35797.83866379722, 55617.80102465166, 20086.529265228422, -12009.659351069851, 20959.208423996977, 34252.304941690556, 11662.492056190022, 32057.564801879504, -0.092, 0.984, -0.028, 192.0, 0.0, 0.0, 0.0, 0.0, 0.0, 0.0, 0.0, 0.0, 0.0, 1.700951508221938E9, 0.0, 2023-11-25 17:31:48.221
94.0, 35924.70716532555, 55605.418158223416, 20119.22986736654, -11951.3212980415, 21207.91628455118, 34741.62933130614, 11662.760277123485, 32075.289735232564, -0.092, 0.984, -0.028, 192.0, 0.0, 0.0, 0.0, 0.0, 0.0, 0.0, 0.0, 0.0, 0.0, 1.700951508225976E9, 0.0, 2023-11-25 17:31:48.225
95.0, 35722.580340216206, 55481.63419742992, 20094.575893232333, -12092.047881132112, 20982.54364520832, 34250.04741550057, 11656.188864253625, 32038.252894670117, -0.092, 0.984, -0.028, 192.0, 0.0, 0.0, 0.0, 0.0, 0.0, 0.0, 0.0, 0.0, 0.0, 1.700951508229921E9, 0.0, 2023-11-25 17:31:48.229
96.0, 35715.60659594615, 55539.16758765788, 20076.918015112642, -12043.410485197364, 20938.0413219978, 34161.914487113296, 11654.02074504146, 32064.44913917174, -0.092, 0.984, -0.028, 192.0, 0.0, 0.0, 0.0, 0.0, 0.0, 0.0, 0.0, 0.0, 0.0, 1.700951508234045E9, 0.0, 2023-11-25 17:31:48.234
97.0, 35775.26340189736, 55613.19656529386, 20081.522474470436, -12016.27546742862, 20925.90432475857, 34223.11356343193, 11653.126675263247, 32060.20230772523, -0.092, 0.984, -0.028, 192.0, 0.0, 0.0, 0.0, 0.0, 0.0, 0.0, 0.0, 0.0, 0.0, 1.700951508237E9, 0.0, 2023-11-25 17:31:48.237
98.0, 35927.97052001602, 55618.91861187442, 20110.22211435105, -11942.022972348092, 21201.948368781614, 34702.35731629817, 11649.483340917033, 32069.992371796656, -0.092, 0.984, -0.028, 192.0, 0.0, 0.0, 0.0, 0.0, 0.0, 0.0, 0.0, 0.0, 0.0, 1.700951508241085E9, 0.0, 2023-11-25 17:31:48.241
99.0, 35755.37034933214, 55490.37372951195, 20085.188160561105, -12090.036224131134, 21004.649520474617, 34369.89746926993, 11639.514462889965, 32023.120763673876, -0.092, 0.984, -0.028, 192.0, 0.0, 0.0, 0.0, 0.0, 0.0, 0.0, 0.0, 0.0, 0.0, 1.700951508245995E9, 0.0, 2023-11-25 17:31:48.245
100.0, 35709.7280871544, 55520.123901381965, 20064.7363143845, -12058.319098749054, 20941.930525533026, 34134.24302747763, 11648.097532760803, 32059.91173504731, -0.1, 0.984, -0.026000000000000002, 192.0, 252.0, 224.0, 30.0, 192.0, 255.0, 48.0, 0.0, 0.0, 0.0, 1.700951508250462E9, 0.0, 2023-11-25 17:31:48.250
101.0, 35753.045767908785, 55596.00807380773, 20060.15420677116, -12037.554328150074, 20892.935501686992, 34215.759839506136, 11646.711724604575, 32058.861203057913, -0.1, 0.984, -0.026000000000000002, 192.0, 0.0, 0.0, 0.0, 0.0, 0.0, 0.0, 0.0, 0.0, 0.0, 1.700951508254038E9, 0.0, 2023-11-25 17:31:48.254
102.0, 35913.24072041997, 55621.86904214252, 20098.93448340112, -11950.002545118636, 21174.008688212478, 34618.51592284631, 11650.802093839895, 32081.034133557576, -0.1, 0.984, -0.026000000000000002, 192.0, 0.0, 0.0, 0.0, 0.0, 0.0, 0.0, 0.0, 0.0, 0.0, 1.700951508258028E9, 0.0, 2023-11-25 17:31:48.258
103.0, 35792.09426547221, 55500.85669766149, 20081.857750637264, -12073.652395445395, 21051.58818383076, 34509.282947693224, 11635.73701807702, 32036.24123766914, -0.1, 0.984, -0.026000000000000002, 192.0, 0.0, 0.0, 0.0, 0.0, 0.0, 0.0, 0.0, 0.0, 0.0, 1.70095150826115E9, 0.0, 2023-11-25 17:31:48.261
104.0, 35707.671726664514, 55504.65649421889, 20071.06185806535, -12072.400697755898, 20950.42418842604, 34097.385000870825, 11646.130579248736, 32056.67073210129, -0.1, 0.984, -0.026000000000000002, 192.0, 0.0, 0.0, 0.0, 0.0, 0.0, 0.0, 0.0, 0.0, 0.0, 1.700951508265685E9, 0.0, 2023-11-25 17:31:48.265
105.0, 35745.62498874962, 55590.10721327153, 20061.428256205112, -12038.917784561847, 20888.353394073652, 34200.00185966514, 11643.984811781027, 32058.97296178019, -0.1, 0.984, -0.026000000000000002, 192.0, 0.0, 0.0, 0.0, 0.0, 0.0, 0.0, 0.0, 0.0, 0.0, 1.700951508269725E9, 0.0, 2023-11-25 17:31:48.269
106.0, 35900.991964458466, 55635.883585915995, 20103.31542531436, -11951.41070501932, 21130.691007458092, 34501.616299345056, 11652.411419440677, 32078.26251724512, -0.1, 0.984, -0.026000000000000002, 192.0, 0.0, 0.0, 0.0, 0.0, 0.0, 0.0, 0.0, 0.0, 0.0, 1.700951508274151E9, 0.0, 2023-11-25 17:31:48.274
107.0, 35848.08538533275, 55539.59227080253, 20098.6439107232, -12035.43091242682, 21105.254722267953, 34611.25160589834, 11638.910965789672, 32042.656188327815, -0.1, 0.984, -0.026000000000000002, 192.0, 0.0, 0.0, 0.0, 0.0, 0.0, 0.0, 0.0, 0.0, 0.0, 1.700951508278188E9, 0.0, 2023-11-25 17:31:48.278
108.0, 35708.40933423154, 55495.20170631429, 20077.096829068283, -12079.039165859123, 20948.233717469422, 34073.468634303645, 11646.532910648932, 32039.929275504266, -0.1, 0.984, -0.026000000000000002, 192.0, 0.0, 0.0, 0.0, 0.0, 0.0, 0.0, 0.0, 0.0, 0.0, 1.700951508282519E9, 0.0, 2023-11-25 17:31:48.282
109.0, 35731.87866590961, 55571.42115490689, 20056.5332241694, -12044.773941609137, 20884.173617860513, 34189.98827814916, 11639.693276845608, 32050.658112842815, -0.1, 0.984, -0.026000000000000002, 192.0, 0.0, 0.0, 0.0, 0.0, 0.0, 0.0, 0.0, 0.0, 0.0, 1.700951508286172E9, 0.0, 2023-11-25 17:31:48.286
110.0, 35859.41771977159, 55623.70188518785, 20087.53509372891, -11977.808115221038, 21060.730047312984, 34388.04708576764, 11650.533872906431, 32063.510365904614, -0.10400000000000001, 0.984, -0.024, 192.0, 252.0, 192.0, 30.0, 192.0, 255.0, 64.0, 0.0, 0.0, 0.0, 1.700951508290133E9, 0.0, 2023-11-25 17:31:48.290
111.0, 35876.159176368616, 55551.8633785085, 20088.11623908475, -12017.348351162476, 21138.9388011621, 34691.87434814863, 11638.173358222648, 32037.38117663636, -0.10400000000000001, 0.984, -0.024, 192.0, 0.0, 0.0, 0.0, 0.0, 0.0, 0.0, 0.0, 0.0, 0.0, 1.700951508294488E9, 0.0, 2023-11-25 17:31:48.294
112.0, 35697.23346200388, 55477.45442121678, 20070.391305731693, -12102.217924859277, 20942.846947055692, 34079.481253562124, 11646.935242049127, 32024.931254974756, -0.10400000000000001, 0.984, -0.024, 192.0, 0.0, 0.0, 0.0, 0.0, 0.0, 0.0, 0.0, 0.0, 0.0, 1.700951508297149E9, 0.0, 2023-11-25 17:31:48.297
113.0, 35719.54050297028, 55555.841989021545, 20051.705247367056, -12044.617479397952, 20896.444725566475, 34181.204042578225, 11646.778779837941, 32048.69115933075, -0.10400000000000001, 0.984, -0.024, 192.0, 0.0, 0.0, 0.0, 0.0, 0.0, 0.0, 0.0, 0.0, 0.0, 1.700951508302272E9, 0.0, 2023-11-25 17:31:48.302
114.0, 35823.27494898736, 55620.572640964114, 20078.616747691245, -11989.341615359977, 21003.464878018487, 34303.28927079312, 11655.428904942144, 32052.982694266168, -0.10400000000000001, 0.984, -0.024, 192.0, 0.0, 0.0, 0.0, 0.0, 0.0, 0.0, 0.0, 0.0, 0.0, 1.700951508306247E9, 0.0, 2023-11-25 17:31:48.306
115.0, 35911.07260120781, 55584.362814946515, 20100.45440202408, -11970.521446528608, 21189.878426775747, 34743.283360395835, 11651.942032807117, 32053.34032217745, -0.10400000000000001, 0.984, -0.024, 192.0, 0.0, 0.0, 0.0, 0.0, 0.0, 0.0, 0.0, 0.0, 0.0, 1.700951508310205E9, 0.0, 2023-11-25 17:31:48.310
116.0, 35715.76305815733, 55483.46704047526, 20085.366974516746, -12093.143116610423, 20968.70791539048, 34149.531620685055, 11658.602852654798, 32030.183914921752, -0.10400000000000001, 0.984, -0.024, 192.0, 0.0, 0.0, 0.0, 0.0, 0.0, 0.0, 0.0, 0.0, 0.0, 1.700951508314209E9, 0.0, 2023-11-25 17:31:48.314
117.0, 35727.72124144092, 55555.57376808808, 20065.809198118353, -12031.854633313971, 20928.742996304394, 34177.985391376664, 11659.183998010636, 32062.526889148583, -0.10400000000000001, 0.984, -0.024, 192.0, 0.0, 0.0, 0.0, 0.0, 0.0, 0.0, 0.0, 0.0, 0.0, 1.700951508317241E9, 0.0, 2023-11-25 17:31:48.317
118.0, 35801.83962605472, 55624.17127182142, 20077.70032616858, -11994.437813095787, 20961.756522864882, 34260.44097667229, 11665.151913780202, 32065.63378162787, -0.10400000000000001, 0.984, -0.024, 192.0, 0.0, 0.0, 0.0, 0.0, 0.0, 0.0, 0.0, 0.0, 0.0, 1.700951508321213E9, 0.0, 2023-11-25 17:31:48.321
119.0, 35926.6294153487, 55606.625152424, 20102.197838091593, -11941.531233970074, 21210.844363074822, 34754.459232623485, 11660.301585233401, 32076.45202594424, -0.10400000000000001, 0.984, -0.024, 192.0, 0.0, 0.0, 0.0, 0.0, 0.0, 0.0, 0.0, 0.0, 0.0, 1.700951508325223E9, 0.0, 2023-11-25 17:31:48.325
120.0, 35729.710546697446, 55481.63419742992, 20081.656584937165, -12083.442459516818, 20989.763258667383, 34270.11928202144, 11657.68643113213, 32034.810726024, -0.10400000000000001, 0.98, -0.03, 192.0, 252.0, 192.0, 30.0, 160.0, 255.0, 16.0, 0.0, 0.0, 0.0, 1.700951508329224E9, 0.0, 2023-11-25 17:31:48.329
121.0, 35712.76792440032, 55531.21036663179, 20058.522529425925, -12037.822549083538, 20942.42226391104, 34163.38970224735, 11658.289928232423, 32058.235354213164, -0.10400000000000001, 0.98, -0.03, 192.0, 0.0, 0.0, 0.0, 0.0, 0.0, 0.0, 0.0, 0.0, 0.0, 1.70095150833429E9, 0.0, 2023-11-25 17:31:48.334
122.0, 35768.021436693845, 55607.25100126875, 20058.276660236916, -12012.855650526959, 20919.735243288906, 34234.15532519285, 11656.412381698177, 32056.067235001, -0.10400000000000001, 0.98, -0.03, 192.0, 0.0, 0.0, 0.0, 0.0, 0.0, 0.0, 0.0, 0.0, 0.0, 1.700951508338259E9, 0.0, 2023-11-25 17:31:48.338
123.0, 35922.516694368926, 55618.91861187442, 20093.838285665308, -11935.295097267044, 21201.21076121459, 34709.26400533486, 11655.585367153331, 32081.950555080242, -0.10400000000000001, 0.98, -0.03, 192.0, 0.0, 0.0, 0.0, 0.0, 0.0, 0.0, 0.0, 0.0, 0.0, 1.700951508342272E9, 0.0, 2023-11-25 17:31:48.342
124.0, 35761.13709940161, 55496.274590048146, 20080.248425036483, -12070.992537855213, 21026.420119574086, 34401.30167022964, 11648.16458799417, 32036.19653418023, -0.10400000000000001, 0.98, -0.03, 192.0, 0.0, 0.0, 0.0, 0.0, 0.0, 0.0, 0.0, 0.0, 0.0, 1.700951508345379E9, 0.0, 2023-11-25 17:31:48.345
125.0, 35708.811665631736, 55520.45917754879, 20060.02009630443, -12040.482406673718, 20955.63214488413, 34133.19249548823, 11648.209291483081, 32062.146909492843, -0.10400000000000001, 0.98, -0.03, 192.0, 0.0, 0.0, 0.0, 0.0, 0.0, 0.0, 0.0, 0.0, 0.0, 1.700951508349313E9, 0.0, 2023-11-25 17:31:48.349
126.0, 35748.21779110644, 55598.24324825326, 20052.77813110091, -12021.461072142252, 20900.915074457538, 34214.01640343862, 11637.614564611265, 32055.419034411796, -0.10400000000000001, 0.98, -0.03, 192.0, 0.0, 0.0, 0.0, 0.0, 0.0, 0.0, 0.0, 0.0, 0.0, 1.700951508353241E9, 0.0, 2023-11-25 17:31:48.353
127.0, 35908.23392966198, 55627.702847445355, 20094.195913576594, -11933.97634434418, 21176.020345213456, 34593.59372777864, 11642.084913502325, 32071.042903786052, -0.10400000000000001, 0.98, -0.03, 192.0, 0.0, 0.0, 0.0, 0.0, 0.0, 0.0, 0.0, 0.0, 0.0, 1.700951508357283E9, 0.0, 2023-11-25 17:31:48.357
128.0, 35796.22933819644, 55508.12101460946, 20081.522474470436, -12049.490159689209, 21067.659088094126, 34525.13033451204, 11628.293887173402, 32029.33454863245, -0.10400000000000001, 0.98, -0.03, 192.0, 0.0, 0.0, 0.0, 0.0, 0.0, 0.0, 0.0, 0.0, 0.0, 1.700951508362419E9, 0.0, 2023-11-25 17:31:48.362
129.0, 35700.407409716536, 55503.98594188523, 20072.134741799207, -12053.692287646805, 20960.43776994202, 34076.46376806066, 11640.63205011273, 32044.734900562158, -0.10400000000000001, 0.98, -0.03, 192.0, 0.0, 0.0, 0.0, 0.0, 0.0, 0.0, 0.0, 0.0, 0.0, 1.70095150836634E9, 0.0, 2023-11-25 17:31:48.366
130.0, 35732.25864556535, 55579.266617210706, 20057.15907301415, -12028.010133267659, 20895.640062766084, 34190.52472001609, 11638.329820433835, 32045.83013604047, -0.1, 0.986, -0.03, 192.0, 252.0, 224.0, 30.0, 208.0, 255.0, 16.0, 0.0, 0.0, 0.0, 1.700951508370349E9, 0.0, 2023-11-25 17:31:48.370
131.0, 35876.11447287971, 55619.92444037491, 20092.206608320073, -11949.197882318245, 21125.08071959981, 34472.044941430686, 11644.811826325873, 32052.379197165872, -0.1, 0.986, -0.03, 192.0, 0.0, 0.0, 0.0, 0.0, 0.0, 0.0, 0.0, 0.0, 0.0, 1.700951508373359E9, 0.0, 2023-11-25 17:31:48.373
132.0, 35833.37793748116, 55525.60007877351, 20086.797486161886, -12028.390112923398, 21118.777527663413, 34629.17770495149, 11635.602907610288, 32021.690252028737, -0.1, 0.986, -0.03, 192.0, 0.0, 0.0, 0.0, 0.0, 0.0, 0.0, 0.0, 0.0, 0.0, 1.700951508377394E9, 0.0, 2023-11-25 17:31:48.377
133.0, 35687.15282525454, 55480.60601718498, 20070.614823176245, -12080.044994359612, 20961.041267042314, 34073.826262214934, 11656.16651250917, 32044.891362773345, -0.1, 0.986, -0.03, 192.0, 0.0, 0.0, 0.0, 0.0, 0.0, 0.0, 0.0, 0.0, 0.0, 1.700951508381404E9, 0.0, 2023-11-25 17:31:48.381
134.0, 35715.584244201695, 55559.41826813439, 20052.085227022795, -12035.542671149096, 20904.446650081474, 34199.86774919841, 11660.390992211223, 32073.92627882079, -0.1, 0.986, -0.03, 192.0, 0.0, 0.0, 0.0, 0.0, 0.0, 0.0, 0.0, 0.0, 0.0, 1.700951508385377E9, 0.0, 2023-11-25 17:31:48.385
135.0, 35844.59851319772, 55618.20335605185, 20086.842189650797, -11959.546740001053, 21075.325736442297, 34390.52812940218, 11677.288911019436, 32091.047715073553, -0.1, 0.986, -0.03, 192.0, 0.0, 0.0, 0.0, 0.0, 0.0, 0.0, 0.0, 0.0, 0.0, 1.700951508390379E9, 0.0, 2023-11-25 17:31:48.390
136.0, 35879.19901361454, 55560.9158350129, 20097.88395141172, -11975.818809964516, 21181.38476388273, 34737.02487194835, 11671.83508537234, 32077.68137188928, -0.1, 0.986, -0.03, 192.0, 0.0, 0.0, 0.0, 0.0, 0.0, 0.0, 0.0, 0.0, 0.0, 1.700951508394396E9, 0.0, 2023-11-25 17:31:48.394
137.0, 35687.756322354835, 55475.21924677125, 20075.040468578394, -12074.166485567866, 20974.385258482132, 34131.69492860972, 11673.578521439853, 32058.52592689108, -0.1, 0.986, -0.03, 192.0, 0.0, 0.0, 0.0, 0.0, 0.0, 0.0, 0.0, 0.0, 0.0, 1.700951508398455E9, 0.0, 2023-11-25 17:31:48.398
138.0, 35706.487084208384, 55551.081067452564, 20056.332058469303, -12018.488290129697, 20928.832403282217, 34218.84438024097, 11669.912835349183, 32079.022476556598, -0.1, 0.986, -0.03, 192.0, 0.0, 0.0, 0.0, 0.0, 0.0, 0.0, 0.0, 0.0, 0.0, 1.70095150840143E9, 0.0, 2023-11-25 17:31:48.401
139.0, 35805.684126101034, 55616.34816126206, 20082.26008203746, -11965.84993193745, 21024.40846257311, 34325.775125715154, 11673.779687139951, 32080.363581223915, -0.094, 0.98, -0.03, 192.0, 253.0, 16.0, 30.0, 160.0, 255.0, 16.0, 0.0, 0.0, 0.0, 1.700951508405427E9, 0.0, 2023-11-25 17:31:48.405
140.0, 35898.44386559056, 55581.72530910079, 20099.94031190161, -11948.102646839936, 21217.304017222406, 34775.715741600485, 11663.654346901698, 32073.836871842967, -0.094, 0.98, -0.03, 192.0, 0.0, 0.0, 0.0, 0.0, 0.0, 0.0, 0.0, 0.0, 0.0, 1.700951508409468E9, 0.0, 2023-11-25 17:31:48.409
141.0, 35700.18389227198, 55477.677938661334, 20080.941329114597, -12076.356956524487, 20993.071316846766, 34187.39547579235, 11664.190788768625, 32043.840830783945, -0.094, 0.98, -0.03, 192.0, 0.0, 0.0, 0.0, 0.0, 0.0, 0.0, 0.0, 0.0, 0.0, 1.700951508413449E9, 0.0, 2023-11-25 17:31:48.413
142.0, 35705.68242140799, 55544.733172027256, 20058.030791047906, -12016.834261040005, 20950.915926804057, 34184.62385947989, 11656.837064842828, 32069.63474388537, -0.094, 0.98, -0.03, 192.0, 0.0, 0.0, 0.0, 0.0, 0.0, 0.0, 0.0, 0.0, 0.0, 1.700951508417474E9, 0.0, 2023-11-25 17:31:48.417
143.0, 35776.828024009235, 55612.90599261594, 20066.323288240827, -11985.027728680103, 20971.81480786977, 34253.914267291344, 11653.484303174533, 32063.465662415703, -0.094, 0.98, -0.03, 192.0, 0.0, 0.0, 0.0, 0.0, 0.0, 0.0, 0.0, 0.0, 0.0, 1.70095150842246E9, 0.0, 2023-11-25 17:31:48.422
144.0, 35906.57990057229, 55597.52799243069, 20088.339756529305, -11935.02687633358, 21222.1096422803, 34748.938351743025, 11644.633012370232, 32064.650304871837, -0.094, 0.98, -0.03, 192.0, 0.0, 0.0, 0.0, 0.0, 0.0, 0.0, 0.0, 0.0, 0.0, 1.700951508426484E9, 0.0, 2023-11-25 17:31:48.426
145.0, 35714.466656978926, 55470.27951124663, 20066.055067307363, -12081.788430427127, 21001.25205531741, 34291.822825887546, 11639.872090801251, 32027.09937418692, -0.094, 0.98, -0.03, 192.0, 0.0, 0.0, 0.0, 0.0, 0.0, 0.0, 0.0, 0.0, 0.0, 1.700951508429525E9, 0.0, 2023-11-25 17:31:48.429
