%OpenBCI Raw EXG Data
%Number of channels = 8
%Sample Rate = 250 Hz
%Board = OpenBCI_GUI$BoardCytonSerial
Sample Index, EXG Channel 0, EXG Channel 1, EXG Channel 2, EXG Channel 3, EXG Channel 4, EXG Channel 5, EXG Channel 6, EXG Channel 7, Accel Channel 0, Accel Channel 1, Accel Channel 2, Other, Other, Other, Other, Other, Other, Other, Analog Channel 0, Analog Channel 1, Analog Channel 2, Timestamp, Other, Timestamp (Formatted)
125.0, 71476.65428836993, 79324.50822883943, -18686.281882081257, -22707.45011656882, -9057.932681790911, -775.1808494545043, -19066.552110499397, 187500.0, 0.0, 0.0, 0.0, 192.0, 0.0, 0.0, 0.0, 0.0, 0.0, 0.0, 0.0, 0.0, 0.0, 1.700944627592439E9, 0.0, 2023-11-25 15:37:07.592
126.0, 71448.53579384516, 79375.87253759772, -19196.169876595723, -22877.032801751233, -9929.628363803431, -855.0883358822269, -19088.121543898767, 187500.0, 0.0, 0.0, 0.0, 192.0, 0.0, 0.0, 0.0, 0.0, 0.0, 0.0, 0.0, 0.0, 0.0, 1.700944627592464E9, 0.0, 2023-11-25 15:37:07.592
127.0, 71461.94684051834, 79345.02713024941, -18768.692763887975, -22517.281474743068, -9776.45185905121, -632.3979058740027, -19017.24416223099, 187500.0, 0.024, 0.972, 0.17400000000000002, 192.0, 0.0, 192.0, 30.0, 96.0, 5.0, 112.0, 0.0, 0.0, 0.0, 1.700944627592477E9, 0.0, 2023-11-25 15:37:07.592
0.0, 0.0, 0.0, 0.0, 0.0, 0.0, 0.0, 0.0, 0.0, -0.032, 0.978, 0.07200000000000001, 192.0, 255.0, 0.0, 30.0, 144.0, 2.0, 64.0, 0.0, 0.0, 0.0, 1.70094462768812E9, 0.0, 2023-11-25 15:37:07.688
1.0, 70935.40679638468, 81401.7675997934, -17738.478510198416, -19185.485742746085, -8448.869997128248, -3812.2241273193513, -19567.25353804273, 187500.0, -0.032, 0.978, 0.07200000000000001, 192.0, 0.0, 0.0, 0.0, 0.0, 0.0, 0.0, 0.0, 0.0, 0.0, 1.700944627705148E9, 0.0, 2023-11-25 15:37:07.705
2.0, 70927.74014803651, 81404.02512598337, -17969.61789961075, -19470.85046420699, -8474.82037244086, -4019.670667609056, -19624.20578291485, 187500.0, -0.032, 0.978, 0.07200000000000001, 192.0, 0.0, 0.0, 0.0, 0.0, 0.0, 0.0, 0.0, 0.0, 0.0, 1.700944627709161E9, 0.0, 2023-11-25 15:37:07.709
3.0, 70907.0871361598, 81441.39724271266, -18396.55857045157, -19675.592443417605, -9054.132885233508, -4078.925142160075, -19648.770350071234, 187500.0, -0.032, 0.978, 0.07200000000000001, 192.0, 0.0, 0.0, 0.0, 0.0, 0.0, 0.0, 0.0, 0.0, 0.0, 1.70094462771213E9, 0.0, 2023-11-25 15:37:07.712
4.0, 70923.67213054563, 81473.87432740621, -18512.85469685253, -19812.988616584375, -9594.352196973825, -4239.991812705018, -19633.571163841625, 187500.0, -0.032, 0.978, 0.07200000000000001, 192.0, 0.0, 0.0, 0.0, 0.0, 0.0, 0.0, 0.0, 0.0, 0.0, 1.700944627716159E9, 0.0, 2023-11-25 15:37:07.716
5.0, 70945.30861917838, 81428.41087918411, -17777.057621128275, -19234.257249147566, -8586.199115061656, -3848.165732403485, -19552.568441935593, 187500.0, -0.032, 0.978, 0.07200000000000001, 192.0, 0.0, 0.0, 0.0, 0.0, 0.0, 0.0, 0.0, 0.0, 0.0, 1.700944627720163E9, 0.0, 2023-11-25 15:37:07.720
6.0, 70937.66432257465, 81412.87641678768, -17896.237122563973, -19402.364719195928, -8402.646589594673, -3982.164440413051, -19616.941465966876, 187500.0, -0.032, 0.978, 0.07200000000000001, 192.0, 0.0, 0.0, 0.0, 0.0, 0.0, 0.0, 0.0, 0.0, 0.0, 1.700944627723192E9, 0.0, 2023-11-25 15:37:07.723
7.0, 70913.99382519649, 81437.10570777723, -18303.105926883927, -19622.46234684734, -8907.371331139962, -4052.706545914, -19632.140652196485, 187500.0, -0.032, 0.978, 0.07200000000000001, 192.0, 0.0, 0.0, 0.0, 0.0, 0.0, 0.0, 0.0, 0.0, 0.0, 1.700944627728365E9, 0.0, 2023-11-25 15:37:07.728
8.0, 70914.77613625242, 81470.58862097128, -18587.353061122067, -19815.02262532981, -9603.47170871159, -4234.292117868915, -19658.292193209196, 187500.0, -0.066, 0.982, 0.018000000000000002, 192.0, 253.0, 240.0, 30.0, 176.0, 0.0, 144.0, 0.0, 0.0, 0.0, 1.700944627732176E9, 0.0, 2023-11-25 15:37:07.732
9.0, 70943.45342438859, 81438.55857116682, -17885.508285225427, -19311.057843096, -8784.570847102505, -3913.7010471464455, -19559.005744338723, 187500.0, -0.066, 0.982, 0.018000000000000002, 192.0, 0.0, 0.0, 0.0, 0.0, 0.0, 0.0, 0.0, 0.0, 0.0, 1.700944627736233E9, 0.0, 2023-11-25 15:37:07.736
10.0, 70937.75372955248, 81410.30596617532, -17842.123549237676, -19321.406700778807, -8351.03641164737, -3932.9906026113754, -19614.371015354518, 187500.0, -0.066, 0.982, 0.018000000000000002, 192.0, 0.0, 0.0, 0.0, 0.0, 0.0, 0.0, 0.0, 0.0, 0.0, 1.700944627740204E9, 0.0, 2023-11-25 15:37:07.740
11.0, 70907.84709547128, 81424.23110297098, -18233.79316732802, -19595.349680823052, -8794.562076874028, -4051.1642755465837, -19633.995846986276, 187500.0, -0.066, 0.982, 0.018000000000000002, 192.0, 0.0, 0.0, 0.0, 0.0, 0.0, 0.0, 0.0, 0.0, 0.0, 1.700944627744282E9, 0.0, 2023-11-25 15:37:07.744
12.0, 70902.92971169112, 81461.5808679558, -18618.466689403856, -19830.042997603774, -9568.088897238838, -4225.5078822979785, -19667.545815413694, 187500.0, -0.066, 0.982, 0.018000000000000002, 192.0, 0.0, 0.0, 0.0, 0.0, 0.0, 0.0, 0.0, 0.0, 0.0, 1.70094462774821E9, 0.0, 2023-11-25 15:37:07.748
13.0, 70932.54577309439, 81431.0707367743, -18016.33304552234, -19435.89233587889, -9006.747186988257, -3994.7708242858444, -19563.9678316078, 187500.0, -0.066, 0.982, 0.018000000000000002, 192.0, 0.0, 0.0, 0.0, 0.0, 0.0, 0.0, 0.0, 0.0, 0.0, 1.700944627751188E9, 0.0, 2023-11-25 15:37:07.751
14.0, 70938.22311618604, 81399.59948058122, -17791.94388293551, -19271.986993788123, -8334.719638194996, -3891.1928404799514, -19601.16113438143, 187500.0, -0.066, 0.982, 0.018000000000000002, 192.0, 0.0, 0.0, 0.0, 0.0, 0.0, 0.0, 0.0, 0.0, 0.0, 1.700944627755291E9, 0.0, 2023-11-25 15:37:07.755
15.0, 70909.00938618295, 81410.57418710878, -18160.658259470256, -19583.34679405055, -8706.317389764476, -4056.8863221271426, -19618.595495056572, 187500.0, -0.066, 0.982, 0.018000000000000002, 192.0, 0.0, 0.0, 0.0, 0.0, 0.0, 0.0, 0.0, 0.0, 0.0, 1.700944627760914E9, 0.0, 2023-11-25 15:37:07.760
16.0, 70898.79463896688, 81456.64113243118, -18600.182962439416, -19799.555218166737, -9470.814105369343, -4183.397195744181, -19660.013277532253, 187500.0, -0.066, 0.982, 0.018000000000000002, 192.0, 0.0, 0.0, 0.0, 0.0, 0.0, 0.0, 0.0, 0.0, 0.0, 1.700944627764396E9, 0.0, 2023-11-25 15:37:07.764
17.0, 70926.77902302492, 81448.34863523825, -18164.368649049837, -19552.25551751322, -9221.838023881677, -4075.639435725145, -19568.72875317678, 187500.0, -0.066, 0.982, 0.018000000000000002, 192.0, 0.0, 0.0, 0.0, 0.0, 0.0, 0.0, 0.0, 0.0, 0.0, 1.700944627768256E9, 0.0, 2023-11-25 15:37:07.768
18.0, 70943.1404999662, 81416.54210287835, -17743.619411423137, -19209.938551180192, -8335.814873673306, -3840.7896567332336, -19573.623785212494, 187500.0, -0.082, 0.976, -0.01, 192.0, 253.0, 112.0, 30.0, 128.0, 255.0, 176.0, 0.0, 0.0, 0.0, 1.700944627772258E9, 0.0, 2023-11-25 15:37:07.772
19.0, 70922.0404532004, 81421.03480351386, -18080.974290487087, -19552.188462279853, -8617.536260787996, -4050.672537168567, -19604.98328268329, 187500.0, -0.082, 0.976, -0.01, 192.0, 0.0, 0.0, 0.0, 0.0, 0.0, 0.0, 0.0, 0.0, 0.0, 1.700944627775252E9, 0.0, 2023-11-25 15:37:07.775
20.0, 70896.64887149917, 81449.71209165003, -18539.117996587516, -19758.070380457688, -9331.003943801397, -4139.744238822966, -19653.441864662393, 187500.0, -0.082, 0.976, -0.01, 192.0, 0.0, 0.0, 0.0, 0.0, 0.0, 0.0, 0.0, 0.0, 0.0, 1.700944627779277E9, 0.0, 2023-11-25 15:37:07.779
21.0, 70920.9452177221, 81450.0250160724, -18310.169078131807, -19669.915100325954, -9406.217563893506, -4157.1785994981055, -19599.30593959164, 187500.0, -0.082, 0.976, -0.01, 192.0, 0.0, 0.0, 0.0, 0.0, 0.0, 0.0, 0.0, 0.0, 0.0, 1.700944627783318E9, 0.0, 2023-11-25 15:37:07.783
22.0, 70941.48647087652, 81405.29917541733, -17727.593210648683, -19185.84337065737, -8384.452269608053, -3825.4563600368933, -19569.242843299253, 187500.0, -0.082, 0.976, -0.01, 192.0, 0.0, 0.0, 0.0, 0.0, 0.0, 0.0, 0.0, 0.0, 0.0, 1.700944627787303E9, 0.0, 2023-11-25 15:37:07.787
23.0, 70921.57106656684, 81406.39441089563, -18023.127975836753, -19523.77939507716, -8552.179760000678, -4055.031127337352, -19615.935637466388, 187500.0, -0.082, 0.976, -0.01, 192.0, 0.0, 0.0, 0.0, 0.0, 0.0, 0.0, 0.0, 0.0, 0.0, 1.700944627792355E9, 0.0, 2023-11-25 15:37:07.792
24.0, 70897.40883081064, 81448.1251177937, -18456.528300825157, -19706.057871110188, -9179.548523372236, -4104.987276194964, -19641.416626145437, 187500.0, -0.082, 0.976, -0.01, 192.0, 0.0, 0.0, 0.0, 0.0, 0.0, 0.0, 0.0, 0.0, 0.0, 1.700944627796394E9, 0.0, 2023-11-25 15:37:07.796
25.0, 70903.10852564675, 81453.08720506278, -18427.18046035534, -19738.13262440355, -9525.844100218308, -4200.630390719222, -19614.371015354518, 187500.0, -0.082, 0.976, -0.01, 192.0, 0.0, 0.0, 0.0, 0.0, 0.0, 0.0, 0.0, 0.0, 0.0, 1.700944627800374E9, 0.0, 2023-11-25 15:37:07.800
26.0, 70921.32519737782, 81403.466332372, -17737.472681697927, -19160.31767848941, -8459.464724000063, -3797.986066101321, -19562.716133918304, 187500.0, -0.082, 0.976, -0.01, 192.0, 0.0, 0.0, 0.0, 0.0, 0.0, 0.0, 0.0, 0.0, 0.0, 1.700944627803374E9, 0.0, 2023-11-25 15:37:07.803
27.0, 70909.99286293899, 81394.99502122344, -17958.397323894184, -19427.041045074588, -8448.087686072313, -3986.6347893041125, -19632.185355685397, 187500.0, -0.082, 0.976, -0.01, 192.0, 0.0, 0.0, 0.0, 0.0, 0.0, 0.0, 0.0, 0.0, 0.0, 1.700944627807334E9, 0.0, 2023-11-25 15:37:07.807
28.0, 70897.98997616649, 81436.9715973105, -18382.275805744626, -19643.674152335425, -9021.231117395297, -4053.6229674366678, -19654.51474839625, 187500.0, -0.08600000000000001, 0.972, -0.014, 192.0, 253.0, 80.0, 30.0, 96.0, 255.0, 144.0, 0.0, 0.0, 0.0, 1.7009446278114E9, 0.0, 2023-11-25 15:37:07.811
29.0, 70908.62940652721, 81466.05121684686, -18540.90613614394, -19793.67670937499, -9599.336635987358, -4221.730437485032, -19652.59249837309, 187500.0, -0.08600000000000001, 0.972, -0.014, 192.0, 0.0, 0.0, 0.0, 0.0, 0.0, 0.0, 0.0, 0.0, 0.0, 1.700944627815399E9, 0.0, 2023-11-25 15:37:07.815
30.0, 70933.12691845023, 81422.95705353703, -17817.11194719219, -19234.32430438093, -8629.203871393665, -3847.5398835587366, -19569.935747377367, 187500.0, -0.08600000000000001, 0.972, -0.014, 192.0, 0.0, 0.0, 0.0, 0.0, 0.0, 0.0, 0.0, 0.0, 0.0, 1.700944627820446E9, 0.0, 2023-11-25 15:37:07.820
31.0, 70930.24354341549, 81408.78604755236, -17901.378023788693, -19393.334614435986, -8408.703912342062, -3975.973007198931, -19623.803451514657, 187500.0, -0.08600000000000001, 0.972, -0.014, 192.0, 0.0, 0.0, 0.0, 0.0, 0.0, 0.0, 0.0, 0.0, 0.0, 1.70094462782447E9, 0.0, 2023-11-25 15:37:07.824
32.0, 70894.57015926483, 81417.97261452349, -18301.96598791671, -19619.06488169013, -8893.781470511136, -4053.913540114587, -19647.31748668164, 187500.0, -0.08600000000000001, 0.972, -0.014, 192.0, 0.0, 0.0, 0.0, 0.0, 0.0, 0.0, 0.0, 0.0, 0.0, 1.700944627828542E9, 0.0, 2023-11-25 15:37:07.828
33.0, 70898.25819709995, 81451.81315562883, -18608.45310788788, -19822.801032400257, -9608.366740747302, -4234.582690546834, -19672.843178849602, 187500.0, -0.08600000000000001, 0.972, -0.014, 192.0, 0.0, 0.0, 0.0, 0.0, 0.0, 0.0, 0.0, 0.0, 0.0, 1.700944627831447E9, 0.0, 2023-11-25 15:37:07.831
34.0, 70928.72362479253, 81422.0629837588, -17920.466413553528, -19330.59326774994, -8828.760245890648, -3917.165567537018, -19566.20300605333, 187500.0, -0.08600000000000001, 0.972, -0.014, 192.0, 0.0, 0.0, 0.0, 0.0, 0.0, 0.0, 0.0, 0.0, 0.0, 1.700944627835441E9, 0.0, 2023-11-25 15:37:07.835
35.0, 70923.40390961217, 81393.27393690037, -17835.641543345635, -19305.00052034861, -8343.213301088012, -3907.6660761435123, -19606.480849561794, 187500.0, -0.08600000000000001, 0.972, -0.014, 192.0, 0.0, 0.0, 0.0, 0.0, 0.0, 0.0, 0.0, 0.0, 0.0, 1.700944627839419E9, 0.0, 2023-11-25 15:37:07.839
36.0, 70893.60903425326, 81404.58391959476, -18221.18678345523, -19587.21364584132, -8774.423155119795, -4036.2109585059834, -19619.623675301515, 187500.0, -0.08600000000000001, 0.972, -0.014, 192.0, 0.0, 0.0, 0.0, 0.0, 0.0, 0.0, 0.0, 0.0, 0.0, 1.700944627843498E9, 0.0, 2023-11-25 15:37:07.843
37.0, 70895.55363602086, 81450.85203061724, -18616.49973589179, -19806.73012813689, -9538.495187580012, -4191.779099914921, -19648.88210879351, 187500.0, -0.088, 0.974, -0.026000000000000002, 192.0, 253.0, 64.0, 30.0, 112.0, 255.0, 48.0, 0.0, 0.0, 0.0, 1.700944627847478E9, 0.0, 2023-11-25 15:37:07.847
38.0, 70925.52732533542, 81426.4215739276, -18056.119150652787, -19443.871908649435, -9042.331164161107, -3991.194545172995, -19559.810407139114, 187500.0, -0.088, 0.974, -0.026000000000000002, 192.0, 0.0, 0.0, 0.0, 0.0, 0.0, 0.0, 0.0, 0.0, 0.0, 1.700944627852518E9, 0.0, 2023-11-25 15:37:07.852
39.0, 70932.21049692757, 81394.39152412314, -17789.552246278792, -19249.09880746589, -8328.304687536322, -3864.9965959783312, -19590.521704020706, 187500.0, -0.088, 0.974, -0.026000000000000002, 192.0, 0.0, 0.0, 0.0, 0.0, 0.0, 0.0, 0.0, 0.0, 0.0, 1.700944627856534E9, 0.0, 2023-11-25 15:37:07.856
40.0, 70896.73827847699, 81396.64905031312, -18156.187910579196, -19564.414866496907, -8682.66924413076, -4039.4966649409134, -19615.198029899362, 187500.0, -0.088, 0.974, -0.026000000000000002, 192.0, 0.0, 0.0, 0.0, 0.0, 0.0, 0.0, 0.0, 0.0, 0.0, 1.700944627859525E9, 0.0, 2023-11-25 15:37:07.859
41.0, 70893.02788889741, 81447.76748988242, -18598.417174627444, -19787.507627905325, -9445.757799834944, -4168.220361259027, -19654.157120484964, 187500.0, -0.088, 0.974, -0.026000000000000002, 192.0, 0.0, 0.0, 0.0, 0.0, 0.0, 0.0, 0.0, 0.0, 0.0, 1.700944627863753E9, 0.0, 2023-11-25 15:37:07.863
42.0, 70910.55165655038, 81428.70145186204, -18196.041070943007, -19560.212738539307, -9249.464780028437, -4074.2759793133714, -19569.98045086628, 187500.0, -0.088, 0.974, -0.026000000000000002, 192.0, 0.0, 0.0, 0.0, 0.0, 0.0, 0.0, 0.0, 0.0, 0.0, 1.700944627867544E9, 0.0, 2023-11-25 15:37:07.867
43.0, 70917.70421477607, 81384.28853562934, -17745.541661446296, -19184.524617734507, -8333.333830038766, -3814.168729086963, -19572.752067178735, 187500.0, -0.088, 0.974, -0.026000000000000002, 192.0, 0.0, 0.0, 0.0, 0.0, 0.0, 0.0, 0.0, 0.0, 0.0, 1.700944627871651E9, 0.0, 2023-11-25 15:37:07.871
44.0, 70895.15130462067, 81387.03780019734, -18085.48934286706, -19540.476148185273, -8613.110615385845, -4042.447095209014, -19614.326311865607, 187500.0, -0.088, 0.974, -0.026000000000000002, 192.0, 0.0, 0.0, 0.0, 0.0, 0.0, 0.0, 0.0, 0.0, 0.0, 1.700944627876314E9, 0.0, 2023-11-25 15:37:07.876
45.0, 70896.58181626581, 81442.78305086888, -18532.680694184386, -19744.636982040047, -9316.02827501634, -4124.38859038217, -19651.676076850425, 187500.0, -0.088, 0.974, -0.026000000000000002, 192.0, 0.0, 0.0, 0.0, 0.0, 0.0, 0.0, 0.0, 0.0, 0.0, 1.700944627880461E9, 0.0, 2023-11-25 15:37:07.880
46.0, 70923.6944822901, 81452.84133587377, -18330.464462097225, -19692.71387967037, -9448.752933591955, -4167.460401947546, -19589.426468542395, 187500.0, -0.088, 0.974, -0.026000000000000002, 192.0, 0.0, 0.0, 0.0, 0.0, 0.0, 0.0, 0.0, 0.0, 0.0, 1.700944627884527E9, 0.0, 2023-11-25 15:37:07.884
47.0, 70938.73720630852, 81405.56739635079, -17711.097623240665, -19167.93962334867, -8389.727281299505, -3802.456414992382, -19555.00478208122, 187500.0, -0.08600000000000001, 0.98, -0.028, 192.0, 253.0, 80.0, 30.0, 160.0, 255.0, 32.0, 0.0, 0.0, 0.0, 1.700944627887619E9, 0.0, 2023-11-25 15:37:07.887
48.0, 70918.91120897666, 81401.7675997934, -17996.194123768106, -19481.221673634253, -8515.835823516349, -4019.2012809754947, -19611.666454275426, 187500.0, -0.08600000000000001, 0.98, -0.028, 192.0, 0.0, 0.0, 0.0, 0.0, 0.0, 0.0, 0.0, 0.0, 0.0, 1.700944627891577E9, 0.0, 2023-11-25 15:37:07.891
49.0, 70899.17461862262, 81440.90550433463, -18438.758663983186, -19676.620623662548, -9140.991764186832, -4076.421746781081, -19645.864623292044, 187500.0, -0.08600000000000001, 0.98, -0.028, 192.0, 0.0, 0.0, 0.0, 0.0, 0.0, 0.0, 0.0, 0.0, 0.0, 1.700944627895578E9, 0.0, 2023-11-25 15:37:07.895
50.0, 70911.15515365066, 81456.5740771978, -18449.107521665996, -19748.99557220883, -9549.31343189638, -4206.0171611329515, -19625.25631490425, 187500.0, -0.08600000000000001, 0.98, -0.028, 192.0, 0.0, 0.0, 0.0, 0.0, 0.0, 0.0, 0.0, 0.0, 0.0, 1.700944627899646E9, 0.0, 2023-11-25 15:37:07.899
51.0, 70930.19883992658, 81407.2661289294, -17742.166548033543, -19178.444943242663, -8499.340236108332, -3814.593412231614, -19558.357543749516, 187500.0, -0.08600000000000001, 0.98, -0.028, 192.0, 0.0, 0.0, 0.0, 0.0, 0.0, 0.0, 0.0, 0.0, 0.0, 1.700944627903633E9, 0.0, 2023-11-25 15:37:07.903
52.0, 70920.05114794387, 81397.29725090232, -17932.64811428167, -19434.75239691167, -8458.145971077201, -4005.387902902115, -19614.438070587883, 187500.0, -0.08600000000000001, 0.98, -0.028, 192.0, 0.0, 0.0, 0.0, 0.0, 0.0, 0.0, 0.0, 0.0, 0.0, 1.700944627908595E9, 0.0, 2023-11-25 15:37:07.908
53.0, 70906.39423208169, 81438.89384733366, -18341.86385176943, -19649.709123338358, -9009.898782956456, -4067.838676910243, -19627.31267539414, 187500.0, -0.08600000000000001, 0.98, -0.028, 192.0, 0.0, 0.0, 0.0, 0.0, 0.0, 0.0, 0.0, 0.0, 0.0, 1.700944627912669E9, 0.0, 2023-11-25 15:37:07.912
54.0, 70911.57983679531, 81468.55461222585, -18526.37750224799, -19805.947817080953, -9614.401711750235, -4233.174530646149, -19631.89478300748, 187500.0, -0.08600000000000001, 0.98, -0.028, 192.0, 0.0, 0.0, 0.0, 0.0, 0.0, 0.0, 0.0, 0.0, 0.0, 1.700944627915659E9, 0.0, 2023-11-25 15:37:07.915
55.0, 70933.90922950617, 81426.35451869424, -17798.0012056829, -19255.37964765783, -8675.270816716054, -3865.667148311991, -19539.805595851612, 187500.0, -0.08600000000000001, 0.98, -0.028, 192.0, 0.0, 0.0, 0.0, 0.0, 0.0, 0.0, 0.0, 0.0, 0.0, 1.700944627919631E9, 0.0, 2023-11-25 15:37:07.919
56.0, 70926.64491255819, 81412.04940224283, -17853.366476698695, -19376.883730516878, -8403.048920994868, -3965.668853005034, -19596.333157579083, 187500.0, -0.08600000000000001, 0.98, -0.028, 192.0, 0.0, 0.0, 0.0, 0.0, 0.0, 0.0, 0.0, 0.0, 0.0, 1.700944627923696E9, 0.0, 2023-11-25 15:37:07.923
57.0, 70907.10948790425, 81444.9735218255, -18238.732902852644, -19614.035739187686, -8882.51619130566, -4052.1701040470725, -19606.50320130625, 187500.0, -0.084, 0.988, -0.026000000000000002, 192.0, 253.0, 96.0, 30.0, 224.0, 255.0, 48.0, 0.0, 0.0, 0.0, 1.700944627927756E9, 0.0, 2023-11-25 15:37:07.927
58.0, 70905.79073498139, 81478.43408327509, -18554.920679917417, -19805.411375214026, -9600.677740654677, -4212.990905403007, -19626.284495149197, 187500.0, -0.084, 0.988, -0.026000000000000002, 192.0, 0.0, 0.0, 0.0, 0.0, 0.0, 0.0, 0.0, 0.0, 0.0, 1.700944627931739E9, 0.0, 2023-11-25 15:37:07.931
59.0, 70932.12108994974, 81440.21260025652, -17891.140924828163, -19343.624334767384, -8880.9962726827, -3925.547471707758, -19520.024302008667, 187500.0, -0.084, 0.988, -0.026000000000000002, 192.0, 0.0, 0.0, 0.0, 0.0, 0.0, 0.0, 0.0, 0.0, 0.0, 1.700944627935726E9, 0.0, 2023-11-25 15:37:07.935
60.0, 70934.44567137309, 81416.92208253409, -17766.08291460072, -19295.679842910748, -8358.636004762175, -3904.9838668088755, -19552.54609019114, 187500.0, -0.084, 0.988, -0.026000000000000002, 192.0, 0.0, 0.0, 0.0, 0.0, 0.0, 0.0, 0.0, 0.0, 0.0, 1.700944627940694E9, 0.0, 2023-11-25 15:37:07.940
61.0, 70902.482676802, 81422.95705353703, -18140.809910393942, -19556.792921637647, -8756.340593855452, -4016.9884582744194, -19574.763724179713, 187500.0, -0.084, 0.988, -0.026000000000000002, 192.0, 0.0, 0.0, 0.0, 0.0, 0.0, 0.0, 0.0, 0.0, 0.0, 1.700944627943733E9, 0.0, 2023-11-25 15:37:07.943
62.0, 70897.29707208837, 81463.30195227885, -18553.445464783366, -19788.580511639182, -9541.199748659104, -4176.177582285116, -19618.841364245578, 187500.0, -0.084, 0.988, -0.026000000000000002, 192.0, 0.0, 0.0, 0.0, 0.0, 0.0, 0.0, 0.0, 0.0, 0.0, 1.700944627947686E9, 0.0, 2023-11-25 15:37:07.947
63.0, 70927.51663059196, 81445.93464683708, -18015.506030977493, -19463.51909202565, -9113.968505140365, -4002.5268796118357, -19521.23129620925, 187500.0, -0.084, 0.988, -0.026000000000000002, 192.0, 0.0, 0.0, 0.0, 0.0, 0.0, 0.0, 0.0, 0.0, 0.0, 1.700944627952817E9, 0.0, 2023-11-25 15:37:07.952
64.0, 70937.6419708302, 81415.15629472212, -17707.208419705443, -19229.965714212147, -8353.60686225973, -3845.7070405134014, -19538.10686327301, 187500.0, -0.084, 0.988, -0.026000000000000002, 192.0, 0.0, 0.0, 0.0, 0.0, 0.0, 0.0, 0.0, 0.0, 0.0, 1.700944627955802E9, 0.0, 2023-11-25 15:37:07.955
65.0, 70900.42631631212, 81416.00566101143, -18067.764409514002, -19543.940668575844, -8682.378671452841, -4020.31886819826, -19571.38861076696, 187500.0, -0.084, 0.988, -0.026000000000000002, 192.0, 0.0, 0.0, 0.0, 0.0, 0.0, 0.0, 0.0, 0.0, 0.0, 1.700944627959789E9, 0.0, 2023-11-25 15:37:07.959
66.0, 70886.92586266111, 81453.28837076288, -18514.10639454203, -19767.39105789555, -9437.778227064398, -4140.8618260457315, -19611.10766066404, 187500.0, -0.084, 0.988, -0.026000000000000002, 192.0, 0.0, 0.0, 0.0, 0.0, 0.0, 0.0, 0.0, 0.0, 0.0, 1.700944627963768E9, 0.0, 2023-11-25 15:37:07.963
67.0, 70910.55165655038, 81434.98229205397, -18148.431855253202, -19567.92409037639, -9303.690112077013, -4066.4975722429244, -19529.52379340217, 187500.0, -0.084, 0.98, -0.026000000000000002, 192.0, 253.0, 96.0, 30.0, 160.0, 255.0, 48.0, 0.0, 0.0, 0.0, 1.700944627967871E9, 0.0, 2023-11-25 15:37:07.967
68.0, 70929.46123235956, 81394.4138758676, -17670.417448332006, -19166.33029774789, -8358.993632673459, -3788.3301124966283, -19525.05344451111, 187500.0, -0.084, 0.98, -0.026000000000000002, 192.0, 0.0, 0.0, 0.0, 0.0, 0.0, 0.0, 0.0, 0.0, 0.0, 1.700944627971772E9, 0.0, 2023-11-25 15:37:07.971
69.0, 70907.981205938, 81391.17287292158, -18006.386519239728, -19536.944572561333, -8626.923993459224, -4035.383943961137, -19566.001840353234, 187500.0, -0.084, 0.98, -0.026000000000000002, 192.0, 0.0, 0.0, 0.0, 0.0, 0.0, 0.0, 0.0, 0.0, 0.0, 1.700944627975899E9, 0.0, 2023-11-25 15:37:07.975
70.0, 70882.50021725896, 81418.44200115705, -18451.968544956275, -19729.28133359925, -9309.45686214648, -4105.210793639516, -19603.93275069389, 187500.0, -0.084, 0.98, -0.026000000000000002, 192.0, 0.0, 0.0, 0.0, 0.0, 0.0, 0.0, 0.0, 0.0, 0.0, 1.700944627981351E9, 0.0, 2023-11-25 15:37:07.981
71.0, 70903.24263611349, 81419.89486454664, -18301.027214649584, -19694.926702371446, -9497.435033015614, -4161.067803033328, -19565.353639764027, 187500.0, -0.084, 0.98, -0.026000000000000002, 192.0, 0.0, 0.0, 0.0, 0.0, 0.0, 0.0, 0.0, 0.0, 0.0, 1.700944627983893E9, 0.0, 2023-11-25 15:37:07.983
72.0, 70930.84704051579, 81379.30409661582, -17676.631233290584, -19176.880321130793, -8450.546377962397, -3800.7129789248684, -19527.690950356835, 187500.0, -0.084, 0.98, -0.026000000000000002, 192.0, 0.0, 0.0, 0.0, 0.0, 0.0, 0.0, 0.0, 0.0, 0.0, 1.700944627986853E9, 0.0, 2023-11-25 15:37:07.986
73.0, 70913.01034844045, 81372.55386979031, -17948.249631911473, -19503.752232045204, -8560.74047812706, -4028.477254924447, -19573.579081723583, 187500.0, -0.084, 0.98, -0.026000000000000002, 192.0, 0.0, 0.0, 0.0, 0.0, 0.0, 0.0, 0.0, 0.0, 0.0, 1.700944627991872E9, 0.0, 2023-11-25 15:37:07.991
74.0, 70874.36418227723, 81384.5120530739, -18379.973576065728, -19694.345557015607, -9165.802200532222, -4079.327473560271, -19602.9269221934, 187500.0, -0.084, 0.98, -0.026000000000000002, 192.0, 0.0, 0.0, 0.0, 0.0, 0.0, 0.0, 0.0, 0.0, 0.0, 1.700944627996065E9, 0.0, 2023-11-25 15:37:07.996
75.0, 70899.66635700063, 81415.9162540336, -18429.236820845224, -19797.58826465467, -9626.873985156297, -4230.112341655772, -19586.565445252116, 187500.0, -0.084, 0.98, -0.026000000000000002, 192.0, 0.0, 0.0, 0.0, 0.0, 0.0, 0.0, 0.0, 0.0, 0.0, 1.700944627999896E9, 0.0, 2023-11-25 15:37:07.999
76.0, 70927.74014803651, 81373.93967794653, -17715.07623375371, -19230.323342123433, -8587.964902873624, -3847.6069387921025, -19514.77164206167, 187500.0, -0.084, 0.98, -0.026000000000000002, 192.0, 0.0, 0.0, 0.0, 0.0, 0.0, 0.0, 0.0, 0.0, 0.0, 1.700944628003821E9, 0.0, 2023-11-25 15:37:08.003
77.0, 70902.236807613, 81346.40232877759, -17888.34695677125, -19446.66587670635, -8488.834916214337, -4008.025408747841, -19581.0222126272, 187500.0, -0.082, 0.98, -0.022, 192.0, 253.0, 112.0, 30.0, 160.0, 255.0, 80.0, 0.0, 0.0, 0.0, 1.700944628008827E9, 0.0, 2023-11-25 15:37:08.008
78.0, 70877.3816677787, 81377.69477101503, -18300.58017976048, -19658.001620531275, -9023.488643585282, -4069.2691885553827, -19600.15530588094, 187500.0, -0.082, 0.98, -0.022, 192.0, 0.0, 0.0, 0.0, 0.0, 0.0, 0.0, 0.0, 0.0, 0.0, 1.700944628011922E9, 0.0, 2023-11-25 15:37:08.011
79.0, 70887.81993243932, 81411.33414642027, -18510.977150318286, -19827.025512102307, -9657.987613438085, -4245.780914518942, -19602.859866960032, 187500.0, -0.082, 0.98, -0.022, 192.0, 0.0, 0.0, 0.0, 0.0, 0.0, 0.0, 0.0, 0.0, 0.0, 1.700944628014917E9, 0.0, 2023-11-25 15:37:08.014
80.0, 70920.744052022, 81379.81818673828, -17797.37535683815, -19296.52920920005, -8759.425134590285, -3900.58057315118, -19516.58213336255, 187500.0, -0.082, 0.98, -0.022, 192.0, 0.0, 0.0, 0.0, 0.0, 0.0, 0.0, 0.0, 0.0, 0.0, 1.700944628020186E9, 0.0, 2023-11-25 15:37:08.020
81.0, 70916.92190372014, 81361.08742488474, -17820.19648792702, -19385.131524220888, -8433.648459154185, -3976.5541525547687, -19574.31668929061, 187500.0, -0.082, 0.98, -0.022, 192.0, 0.0, 0.0, 0.0, 0.0, 0.0, 0.0, 0.0, 0.0, 0.0, 1.700944628023929E9, 0.0, 2023-11-25 15:37:08.023
82.0, 70887.75287720596, 81382.0086576949, -18211.620236828356, -19619.847192746067, -8887.254761130185, -4062.362499518693, -19595.528494778693, 187500.0, -0.082, 0.98, -0.022, 192.0, 0.0, 0.0, 0.0, 0.0, 0.0, 0.0, 0.0, 0.0, 0.0, 1.700944628027969E9, 0.0, 2023-11-25 15:37:08.027
83.0, 70893.56433076433, 81429.23789372896, -18556.261784584738, -19841.241221575885, -9635.792331193965, -4245.847969752308, -19623.64698930347, 187500.0, -0.082, 0.98, -0.022, 192.0, 0.0, 0.0, 0.0, 0.0, 0.0, 0.0, 0.0, 0.0, 0.0, 1.700944628032033E9, 0.0, 2023-11-25 15:37:08.032
84.0, 70926.71196779156, 81405.83561728426, -17906.340111057772, -19387.88078878889, -8951.471322950283, -3967.7922687282885, -19518.39262466343, 187500.0, -0.082, 0.98, -0.022, 192.0, 0.0, 0.0, 0.0, 0.0, 0.0, 0.0, 0.0, 0.0, 0.0, 1.700944628035965E9, 0.0, 2023-11-25 15:37:08.035
85.0, 70928.25423815897, 81376.51012855889, -17749.45321672597, -19287.923787584758, -8368.98486244498, -3906.8614133431215, -19552.277869257676, 187500.0, -0.082, 0.98, -0.022, 192.0, 0.0, 0.0, 0.0, 0.0, 0.0, 0.0, 0.0, 0.0, 0.0, 1.700944628039928E9, 0.0, 2023-11-25 15:37:08.039
86.0, 70894.0337173979, 81377.13597740364, -18129.052892810454, -19583.16798009491, -8772.299739396542, -4053.6676709255785, -19573.377916023484, 187500.0, -0.082, 0.98, -0.022, 192.0, 0.0, 0.0, 0.0, 0.0, 0.0, 0.0, 0.0, 0.0, 0.0, 1.700944628042944E9, 0.0, 2023-11-25 15:37:08.042
87.0, 70879.41567652414, 81408.47312312998, -18547.231679824792, -19802.617407157115, -9540.88682423673, -4195.824765661331, -19615.198029899362, 187500.0, -0.08600000000000001, 0.976, -0.024, 192.0, 253.0, 80.0, 30.0, 128.0, 255.0, 64.0, 0.0, 0.0, 0.0, 1.700944628047955E9, 0.0, 2023-11-25 15:37:08.047
88.0, 70909.5905315388, 81392.20105316651, -18043.289249335437, -19487.90484522639, -9157.57675857267, -4031.450036937003, -19523.511174143696, 187500.0, -0.08600000000000001, 0.976, -0.024, 192.0, 0.0, 0.0, 0.0, 0.0, 0.0, 0.0, 0.0, 0.0, 0.0, 1.700944628051949E9, 0.0, 2023-11-25 15:37:08.051
89.0, 70928.52245909243, 81365.960105176, -17703.78860280378, -19221.583810041408, -8358.881873951183, -3856.167656918485, -19536.765758605692, 187500.0, -0.08600000000000001, 0.976, -0.024, 192.0, 0.0, 0.0, 0.0, 0.0, 0.0, 0.0, 0.0, 0.0, 0.0, 1.700944628055994E9, 0.0, 2023-11-25 15:37:08.055
90.0, 70899.80046746737, 81361.98149466295, -18055.225080874574, -19556.8152733821, -8684.636197642827, -4055.567569204279, -19568.214663054307, 187500.0, -0.08600000000000001, 0.976, -0.024, 192.0, 0.0, 0.0, 0.0, 0.0, 0.0, 0.0, 0.0, 0.0, 0.0, 1.700944628060197E9, 0.0, 2023-11-25 15:37:08.060
91.0, 70886.74704870547, 81398.54894859182, -18503.735185114765, -19774.029525998776, -9430.044523482862, -4165.001710057462, -19616.6285415445, 187500.0, -0.08600000000000001, 0.976, -0.024, 192.0, 0.0, 0.0, 0.0, 0.0, 0.0, 0.0, 0.0, 0.0, 0.0, 1.700944628063022E9, 0.0, 2023-11-25 15:37:08.063
92.0, 70917.86067698726, 81403.10870446071, -18183.92642544823, -19631.783024285203, -9378.6131594912, -4139.788942311877, -19545.862918599, 187500.0, -0.08600000000000001, 0.976, -0.024, 192.0, 0.0, 0.0, 0.0, 0.0, 0.0, 0.0, 0.0, 0.0, 0.0, 1.700944628067E9, 0.0, 2023-11-25 15:37:08.067
93.0, 70938.82661328634, 81371.65980001209, -17666.930576196977, -19192.973577138615, -8392.275380167412, -3834.1958921189184, -19529.657903868905, 187500.0, -0.08600000000000001, 0.976, -0.024, 192.0, 0.0, 0.0, 0.0, 0.0, 0.0, 0.0, 0.0, 0.0, 0.0, 1.70094462807102E9, 0.0, 2023-11-25 15:37:08.071
94.0, 70906.66245301515, 81363.456709797, -17994.920074334153, -19529.501441657718, -8608.930839172703, -4054.4946854704244, -19580.39636378245, 187500.0, -0.08600000000000001, 0.976, -0.024, 192.0, 0.0, 0.0, 0.0, 0.0, 0.0, 0.0, 0.0, 0.0, 0.0, 1.700944628075078E9, 0.0, 2023-11-25 15:37:08.075
95.0, 70893.45257204206, 81404.36040215021, -18443.273716363157, -19720.877077684054, -9279.080841431718, -4117.705418790033, -19620.763614268733, 187500.0, -0.08600000000000001, 0.976, -0.024, 192.0, 0.0, 0.0, 0.0, 0.0, 0.0, 0.0, 0.0, 0.0, 0.0, 1.700944628080062E9, 0.0, 2023-11-25 15:37:08.080
96.0, 70916.40781359766, 81413.63637609917, -18330.5762208195, -19727.09086264263, -9535.008315444984, -4200.697445952588, -19575.54603523565, 187500.0, -0.08600000000000001, 0.976, -0.024, 192.0, 0.0, 0.0, 0.0, 0.0, 0.0, 0.0, 0.0, 0.0, 0.0, 1.700944628084071E9, 0.0, 2023-11-25 15:37:08.084
97.0, 70940.16771795365, 81371.41393082308, -17673.345526855654, -19178.824922898402, -8468.047793870903, -3817.5438424997146, -19525.746348589226, 187500.0, -0.08600000000000001, 0.98, -0.028, 192.0, 253.0, 80.0, 30.0, 160.0, 255.0, 32.0, 0.0, 0.0, 0.0, 1.700944628088146E9, 0.0, 2023-11-25 15:37:08.088
98.0, 70926.4437468581, 81367.14474763212, -17926.41197757864, -19471.409257818374, -8529.224518445077, -4021.41410367657, -19579.234073070773, 187500.0, -0.08600000000000001, 0.98, -0.028, 192.0, 0.0, 0.0, 0.0, 0.0, 0.0, 0.0, 0.0, 0.0, 0.0, 1.700944628091138E9, 0.0, 2023-11-25 15:37:08.091
99.0, 70910.77517399493, 81409.00956499692, -18357.465369399237, -19678.855798108078, -9130.128816381552, -4081.1379648611505, -19606.234980372785, 187500.0, -0.08600000000000001, 0.98, -0.028, 192.0, 0.0, 0.0, 0.0, 0.0, 0.0, 0.0, 0.0, 0.0, 0.0, 1.700944628095282E9, 0.0, 2023-11-25 15:37:08.095
100.0, 70921.25814214446, 81428.25441697294, -18435.964695926275, -19788.602863383636, -9621.397807764746, -4226.357248587281, -19591.616939499014, 187500.0, -0.08600000000000001, 0.98, -0.028, 192.0, 0.0, 0.0, 0.0, 0.0, 0.0, 0.0, 0.0, 0.0, 0.0, 1.700944628099212E9, 0.0, 2023-11-25 15:37:08.099
101.0, 70941.4417673876, 81383.12624491767, -17723.346379202172, -19228.445795589185, -8605.913353671236, -3845.774095746767, -19520.761909575693, 187500.0, -0.08600000000000001, 0.98, -0.028, 192.0, 0.0, 0.0, 0.0, 0.0, 0.0, 0.0, 0.0, 0.0, 0.0, 1.700944628103163E9, 0.0, 2023-11-25 15:37:08.103
102.0, 70929.64004631521, 81367.27885809886, -17869.213863517507, -19430.41615848734, -8472.451087528598, -3997.9894754874085, -19583.34679405055, 187500.0, -0.08600000000000001, 0.98, -0.028, 192.0, 0.0, 0.0, 0.0, 0.0, 0.0, 0.0, 0.0, 0.0, 0.0, 1.700944628107161E9, 0.0, 2023-11-25 15:37:08.107
103.0, 70900.91805469013, 81393.4080473671, -18284.598682474934, -19648.27861169322, -8995.124279871497, -4064.7541361754106, -19609.520686807715, 187500.0, -0.08600000000000001, 0.98, -0.028, 192.0, 0.0, 0.0, 0.0, 0.0, 0.0, 0.0, 0.0, 0.0, 0.0, 1.700944628112413E9, 0.0, 2023-11-25 15:37:08.112
104.0, 70908.80822048285, 81429.7743355959, -18530.065540083117, -19831.428805760002, -9660.714526261632, -4243.948071473607, -19618.17081191192, 187500.0, -0.08600000000000001, 0.98, -0.028, 192.0, 0.0, 0.0, 0.0, 0.0, 0.0, 0.0, 0.0, 0.0, 0.0, 1.700944628116208E9, 0.0, 2023-11-25 15:37:08.116
105.0, 70931.00350272698, 81384.959087963, -17823.48219436195, -19303.704119170205, -8789.510582627128, -3898.7253783613896, -19525.858107311502, 187500.0, -0.08600000000000001, 0.98, -0.028, 192.0, 0.0, 0.0, 0.0, 0.0, 0.0, 0.0, 0.0, 0.0, 0.0, 1.700944628119248E9, 0.0, 2023-11-25 15:37:08.119
106.0, 70931.49524110499, 81367.0106371654, -17825.315037407283, -19369.440599613263, -8427.725246873528, -3961.1538006250626, -19586.319576063106, 187500.0, -0.08600000000000001, 0.98, -0.028, 192.0, 0.0, 0.0, 0.0, 0.0, 0.0, 0.0, 0.0, 0.0, 0.0, 1.700944628123271E9, 0.0, 2023-11-25 15:37:08.123
107.0, 70904.7849064809, 81388.28949788684, -18210.212076927673, -19613.34283510957, -8869.61923475495, -4054.0252988368634, -19606.525553050706, 187500.0, -0.09, 0.984, -0.032, 192.0, 253.0, 48.0, 30.0, 192.0, 255.0, 0.0, 0.0, 0.0, 0.0, 1.700944628127363E9, 0.0, 2023-11-25 15:37:08.127
108.0, 70910.32813910581, 81435.2728647319, -18575.43958132739, -19838.424901774517, -9628.393903779257, -4227.877167210241, -19639.427320888917, 187500.0, -0.09, 0.984, -0.032, 192.0, 0.0, 0.0, 0.0, 0.0, 0.0, 0.0, 0.0, 0.0, 0.0, 1.70094462813128E9, 0.0, 2023-11-25 15:37:08.131
109.0, 70945.75565406749, 81415.08923948875, -17947.489672599993, -19422.36953048343, -9007.127166643997, -3983.7290625249225, -19523.824098566067, 187500.0, -0.09, 0.984, -0.032, 192.0, 0.0, 0.0, 0.0, 0.0, 0.0, 0.0, 0.0, 0.0, 0.0, 1.700944628135308E9, 0.0, 2023-11-25 15:37:08.135
110.0, 70942.4475958881, 81376.15250064761, -17760.31616453125, -19294.115220798878, -8378.75257477195, -3907.062579043219, -19559.095151316542, 187500.0, -0.09, 0.984, -0.032, 192.0, 0.0, 0.0, 0.0, 0.0, 0.0, 0.0, 0.0, 0.0, 0.0, 1.700944628140304E9, 0.0, 2023-11-25 15:37:08.140
111.0, 70903.75672623595, 81376.91245995909, -18135.512546958034, -19590.856980187535, -8761.459143335718, -4058.3168337722823, -19586.319576063106, 187500.0, -0.09, 0.984, -0.032, 192.0, 0.0, 0.0, 0.0, 0.0, 0.0, 0.0, 0.0, 0.0, 0.0, 1.700944628144366E9, 0.0, 2023-11-25 15:37:08.144
112.0, 70901.54390353488, 81421.54889363634, -18561.469741042823, -19814.128555551597, -9530.850890976297, -4201.54681224189, -19623.959913725845, 187500.0, -0.09, 0.984, -0.032, 192.0, 0.0, 0.0, 0.0, 0.0, 0.0, 0.0, 0.0, 0.0, 0.0, 1.700944628147357E9, 0.0, 2023-11-25 15:37:08.147
113.0, 70921.30284563337, 81398.07956195826, -18089.222084191097, -19517.230333951753, -9197.161698003018, -4051.007813335397, -19538.15156676192, 187500.0, -0.09, 0.984, -0.032, 192.0, 0.0, 0.0, 0.0, 0.0, 0.0, 0.0, 0.0, 0.0, 0.0, 1.700944628151736E9, 0.0, 2023-11-25 15:37:08.151
114.0, 70937.37374989674, 81366.92123018757, -17723.815765835734, -19214.632417515804, -8357.406658817132, -3845.2823573687506, -19555.898851859434, 187500.0, -0.09, 0.984, -0.032, 192.0, 0.0, 0.0, 0.0, 0.0, 0.0, 0.0, 0.0, 0.0, 0.0, 1.700944628155347E9, 0.0, 2023-11-25 15:37:08.155
115.0, 70913.30092111837, 81373.93967794653, -18078.269729407995, -19562.179692051377, -8676.14253474981, -4057.2663017828827, -19587.92890166389, 187500.0, -0.09, 0.984, -0.032, 192.0, 0.0, 0.0, 0.0, 0.0, 0.0, 0.0, 0.0, 0.0, 0.0, 1.700944628159396E9, 0.0, 2023-11-25 15:37:08.159
116.0, 70911.22220888404, 81428.90261756214, -18524.410548735923, -19783.43961041446, -9414.375950619693, -4166.409869958147, -19625.368073626527, 187500.0, -0.09, 0.984, -0.032, 192.0, 0.0, 0.0, 0.0, 0.0, 0.0, 0.0, 0.0, 0.0, 0.0, 1.700944628163404E9, 0.0, 2023-11-25 15:37:08.163
117.0, 70936.12205220724, 81428.63439662867, -18247.159510512294, -19661.689658366402, -9417.795767521355, -4157.379765198203, -19563.45374148533, 187500.0, -0.084, 0.98, -0.032, 192.0, 253.0, 96.0, 30.0, 160.0, 255.0, 0.0, 0.0, 0.0, 0.0, 1.70094462816736E9, 0.0, 2023-11-25 15:37:08.167
118.0, 70956.97622978405, 81391.99988746642, -17699.139439957078, -19198.717975463627, -8411.22965946551, -3834.5535200302033, -19547.069912799587, 187500.0, -0.084, 0.98, -0.032, 192.0, 0.0, 0.0, 0.0, 0.0, 0.0, 0.0, 0.0, 0.0, 0.0, 1.700944628172462E9, 0.0, 2023-11-25 15:37:08.172
119.0, 70932.47871786103, 81397.40900962461, -18008.28641751843, -19532.1612992479, -8602.98527514759, -4056.0816593267514, -19597.49544829076, 187500.0, -0.084, 0.98, -0.032, 192.0, 0.0, 0.0, 0.0, 0.0, 0.0, 0.0, 0.0, 0.0, 0.0, 1.700944628175351E9, 0.0, 2023-11-25 15:37:08.175
120.0, 70905.90249370367, 81435.98812055447, -18451.70032402281, -19729.638961510536, -9262.272329601328, -4122.6228025702, -19633.30294290816, 187500.0, -0.084, 0.98, -0.032, 192.0, 0.0, 0.0, 0.0, 0.0, 0.0, 0.0, 0.0, 0.0, 0.0, 1.700944628179419E9, 0.0, 2023-11-25 15:37:08.179
121.0, 70922.28632238941, 81450.82967887279, -18375.905558574865, -19740.81483373819, -9556.84596977782, -4206.754768699976, -19598.7247942358, 187500.0, -0.084, 0.98, -0.032, 192.0, 0.0, 0.0, 0.0, 0.0, 0.0, 0.0, 0.0, 0.0, 0.0, 1.700944628183445E9, 0.0, 2023-11-25 15:37:08.183
122.0, 70946.13563372321, 81405.1650649506, -17709.331835428697, -19189.26318755903, -8501.955390209603, -3824.1152553695747, -19547.740465133247, 187500.0, -0.084, 0.98, -0.032, 192.0, 0.0, 0.0, 0.0, 0.0, 0.0, 0.0, 0.0, 0.0, 0.0, 1.700944628187464E9, 0.0, 2023-11-25 15:37:08.187
123.0, 70931.47288936054, 81393.47510260047, -17949.948364490076, -19475.164350886866, -8536.153559226223, -4026.1526735010953, -19606.7267187508, 187500.0, -0.084, 0.98, -0.032, 192.0, 0.0, 0.0, 0.0, 0.0, 0.0, 0.0, 0.0, 0.0, 0.0, 1.700944628191786E9, 0.0, 2023-11-25 15:37:08.191
124.0, 70911.80335423986, 81424.83460007126, -18377.5372359201, -19683.90729235498, -9123.557403511692, -4090.056310898818, -19632.8335562746, 187500.0, -0.084, 0.98, -0.032, 192.0, 0.0, 0.0, 0.0, 0.0, 0.0, 0.0, 0.0, 0.0, 0.0, 1.700944628195488E9, 0.0, 2023-11-25 15:37:08.195
125.0, 70923.49331659, 81450.29323700587, -18489.81004831911, -19812.58628518418, -9657.451171571156, -4247.613757564278, -19620.964779968832, 187500.0, -0.084, 0.98, -0.032, 192.0, 0.0, 0.0, 0.0, 0.0, 0.0, 0.0, 0.0, 0.0, 0.0, 1.700944628200477E9, 0.0, 2023-11-25 15:37:08.200
126.0, 70942.87227903274, 81396.87256775767, -17765.434714011517, -19248.249441176587, -8656.80827579597, -3860.0121569647977, -19533.59181089304, 187500.0, -0.084, 0.98, -0.032, 192.0, 0.0, 0.0, 0.0, 0.0, 0.0, 0.0, 0.0, 0.0, 0.0, 1.700944628203479E9, 0.0, 2023-11-25 15:37:08.203
127.0, 70940.95002900959, 81387.55189031981, -17876.277014765386, -19433.36658875544, -8482.799945211405, -3999.8893737661097, -19586.20781734083, 187500.0, -0.08600000000000001, 0.982, -0.03, 192.0, 253.0, 80.0, 30.0, 176.0, 255.0, 16.0, 0.0, 0.0, 0.0, 1.70094462820752E9, 0.0, 2023-11-25 15:37:08.207
128.0, 70921.95104622257, 81417.25735870092, -18269.220682289684, -19648.12214948203, -8981.243846564752, -4066.6540344541118, -19602.68105300439, 187500.0, -0.08600000000000001, 0.982, -0.03, 192.0, 0.0, 0.0, 0.0, 0.0, 0.0, 0.0, 0.0, 0.0, 0.0, 1.700944628211521E9, 0.0, 2023-11-25 15:37:08.211
129.0, 70927.24840965848, 81452.1260800512, -18538.179223320392, -19822.957494611444, -9656.19947388166, -4233.107475412783, -19621.16594566893, 187500.0, -0.08600000000000001, 0.982, -0.03, 192.0, 0.0, 0.0, 0.0, 0.0, 0.0, 0.0, 0.0, 0.0, 0.0, 1.700944628215599E9, 0.0, 2023-11-25 15:37:08.215
130.0, 70953.73522683802, 81417.92791103458, -17848.046761518333, -19313.62829370836, -8831.040123825089, -3904.6038871531355, -19528.115633501486, 187500.0, -0.08600000000000001, 0.982, -0.03, 192.0, 0.0, 0.0, 0.0, 0.0, 0.0, 0.0, 0.0, 0.0, 0.0, 1.700944628219483E9, 0.0, 2023-11-25 15:37:08.219
131.0, 70946.47090989005, 81394.6150415677, -17810.317016877772, -19335.10832012991, -8410.559107131852, -3932.767085166822, -19586.20781734083, 187500.0, -0.08600000000000001, 0.982, -0.03, 192.0, 0.0, 0.0, 0.0, 0.0, 0.0, 0.0, 0.0, 0.0, 0.0, 1.700944628223564E9, 0.0, 2023-11-25 15:37:08.223
132.0, 70919.22413339902, 81415.15629472212, -18199.617350055858, -19609.386576340985, -8857.348127048985, -4054.1147058146844, -19612.15819265344, 187500.0, -0.08600000000000001, 0.982, -0.03, 192.0, 0.0, 0.0, 0.0, 0.0, 0.0, 0.0, 0.0, 0.0, 0.0, 1.700944628228676E9, 0.0, 2023-11-25 15:37:08.228
133.0, 70920.29701713289, 81458.45162373205, -18572.980889437305, -19841.68825646499, -9625.242307811059, -4231.006411433985, -19636.879222021013, 187500.0, -0.08600000000000001, 0.982, -0.03, 192.0, 0.0, 0.0, 0.0, 0.0, 0.0, 0.0, 0.0, 0.0, 0.0, 1.70094462823163E9, 0.0, 2023-11-25 15:37:08.231
134.0, 70942.33583716583, 81420.58776862475, -17970.51196938896, -19434.32771376702, -9047.136789218997, -3990.6581033060675, -19530.999008536222, 187500.0, -0.08600000000000001, 0.982, -0.03, 192.0, 0.0, 0.0, 0.0, 0.0, 0.0, 0.0, 0.0, 0.0, 0.0, 1.700944628234916E9, 0.0, 2023-11-25 15:37:08.234
135.0, 70944.63806684471, 81387.82011125328, -17751.666039427048, -19276.323232212453, -8382.485316095986, -3890.3434741906494, -19565.64421244195, 187500.0, -0.08600000000000001, 0.982, -0.03, 192.0, 0.0, 0.0, 0.0, 0.0, 0.0, 0.0, 0.0, 0.0, 0.0, 1.700944628239581E9, 0.0, 2023-11-25 15:37:08.239
136.0, 70913.05505192936, 81394.07859970076, -18123.39790146326, -19585.15728535143, -8754.440695576752, -4055.4111069930923, -19589.337061564573, 187500.0, -0.08600000000000001, 0.982, -0.03, 192.0, 0.0, 0.0, 0.0, 0.0, 0.0, 0.0, 0.0, 0.0, 0.0, 1.700944628243643E9, 0.0, 2023-11-25 15:37:08.243
137.0, 70907.24359837099, 81440.45846944553, -18558.34049681908, -19805.97016882541, -9518.043341403407, -4184.291265522393, -19629.45844286185, 187500.0, -0.08600000000000001, 0.986, -0.024, 192.0, 253.0, 80.0, 30.0, 208.0, 255.0, 64.0, 0.0, 0.0, 0.0, 1.700944628247616E9, 0.0, 2023-11-25 15:37:08.247
138.0, 70936.63614232972, 81432.970635053, -18124.850764852854, -19567.54411072065, -9270.184847138506, -4082.322607317282, -19548.656886655914, 187500.0, -0.08600000000000001, 0.986, -0.024, 192.0, 0.0, 0.0, 0.0, 0.0, 0.0, 0.0, 0.0, 0.0, 0.0, 1.700944628251676E9, 0.0, 2023-11-25 15:37:08.251
139.0, 70953.37759892675, 81396.22436716847, -17710.114146484633, -19223.304894364464, -8385.011063219436, -3847.651642281013, -19554.066008814098, 187500.0, -0.08600000000000001, 0.986, -0.024, 192.0, 0.0, 0.0, 0.0, 0.0, 0.0, 0.0, 0.0, 0.0, 0.0, 1.700944628256637E9, 0.0, 2023-11-25 15:37:08.256
140.0, 70935.47385161804, 81406.81909404029, -18054.62158377428, -19574.830779413078, -8683.47390693115, -4068.7327466884553, -19588.174770852896, 187500.0, -0.08600000000000001, 0.986, -0.024, 192.0, 0.0, 0.0, 0.0, 0.0, 0.0, 0.0, 0.0, 0.0, 0.0, 1.700944628259733E9, 0.0, 2023-11-25 15:37:08.259
141.0, 70910.66341527265, 81442.93951308007, -18500.248312979737, -19771.25790968632, -9390.727804985978, -4154.161113996639, -19624.65281780396, 187500.0, -0.08600000000000001, 0.986, -0.024, 192.0, 0.0, 0.0, 0.0, 0.0, 0.0, 0.0, 0.0, 0.0, 0.0, 1.700944628262657E9, 0.0, 2023-11-25 15:37:08.262
142.0, 70931.78581378292, 81443.43125145808, -18264.727981654167, -19661.533196155215, -9445.958965535041, -4151.031869772896, -19567.946442120843, 187500.0, -0.08600000000000001, 0.986, -0.024, 192.0, 0.0, 0.0, 0.0, 0.0, 0.0, 0.0, 0.0, 0.0, 0.0, 1.700944628267684E9, 0.0, 2023-11-25 15:37:08.267
143.0, 70948.41551165766, 81397.47606485797, -17697.798335289757, -19175.427457741196, -8426.09356952829, -3810.592449974114, -19550.892061101444, 187500.0, -0.08600000000000001, 0.986, -0.024, 192.0, 0.0, 0.0, 0.0, 0.0, 0.0, 0.0, 0.0, 0.0, 0.0, 1.700944628271647E9, 0.0, 2023-11-25 15:37:08.271
144.0, 70928.85773525927, 81388.60242230921, -17997.51287669097, -19525.38872067794, -8605.600429248861, -4047.4985894559136, -19594.299148833652, 187500.0, -0.08600000000000001, 0.986, -0.024, 192.0, 0.0, 0.0, 0.0, 0.0, 0.0, 0.0, 0.0, 0.0, 0.0, 1.700944628275716E9, 0.0, 2023-11-25 15:37:08.275
145.0, 70894.21253135354, 81408.09314347424, -18436.74700698221, -19716.205563092895, -9239.473550256915, -4102.774453493887, -19625.770405026724, 187500.0, -0.08600000000000001, 0.986, -0.024, 192.0, 0.0, 0.0, 0.0, 0.0, 0.0, 0.0, 0.0, 0.0, 0.0, 1.700944628279735E9, 0.0, 2023-11-25 15:37:08.279
146.0, 70923.71683403455, 81438.44681244456, -18405.253399044683, -19762.093694459643, -9588.98777830455, -4211.940373413608, -19599.7753262252, 187500.0, -0.08600000000000001, 0.986, -0.024, 192.0, 0.0, 0.0, 0.0, 0.0, 0.0, 0.0, 0.0, 0.0, 0.0, 1.700944628283799E9, 0.0, 2023-11-25 15:37:08.283
147.0, 70955.38925592772, 81402.99694573843, -17721.848812323668, -19202.65188248776, -8533.314887680399, -3824.4952350253147, -19550.377970978974, 187500.0, -0.088, 0.98, -0.022, 192.0, 253.0, 64.0, 30.0, 160.0, 255.0, 80.0, 0.0, 0.0, 0.0, 1.700944628288233E9, 0.0, 2023-11-25 15:37:08.288
148.0, 70937.6419708302, 81385.92021297458, -17937.99018120649, -19464.435513548317, -8521.513166607996, -4010.6852663380228, -19614.907457221445, 187500.0, -0.088, 0.98, -0.022, 192.0, 0.0, 0.0, 0.0, 0.0, 0.0, 0.0, 0.0, 0.0, 0.0, 1.700944628290834E9, 0.0, 2023-11-25 15:37:08.290
149.0, 70910.6410635282, 81410.12715221968, -18355.565471120535, -19667.881091580522, -9085.671196659947, -4065.2011710645165, -19628.765538783737, 187500.0, -0.088, 0.98, -0.022, 192.0, 0.0, 0.0, 0.0, 0.0, 0.0, 0.0, 0.0, 0.0, 0.0, 1.700944628294829E9, 0.0, 2023-11-25 15:37:08.294
150.0, 70929.26006665947, 81446.69460614857, -18501.656472880422, -19806.908942092534, -9652.824360468909, -4224.792626475409, -19618.148460167464, 187500.0, -0.088, 0.98, -0.022, 192.0, 0.0, 0.0, 0.0, 0.0, 0.0, 0.0, 0.0, 0.0, 0.0, 1.700944628299855E9, 0.0, 2023-11-25 15:37:08.299
151.0, 70958.98788678502, 81407.73551556296, -17782.913778175567, -19254.66439183526, -8688.90538083379, -3856.3464708741276, -19539.62678189597, 187500.0, -0.088, 0.98, -0.022, 192.0, 0.0, 0.0, 0.0, 0.0, 0.0, 0.0, 0.0, 0.0, 0.0, 1.700944628303808E9, 0.0, 2023-11-25 15:37:08.303
152.0, 70948.70608433559, 81385.65199204112, -17873.706564153024, -19415.84282110248, -8472.92047416216, -3984.489021836403, -19596.31080583463, 187500.0, -0.088, 0.98, -0.022, 192.0, 0.0, 0.0, 0.0, 0.0, 0.0, 0.0, 0.0, 0.0, 0.0, 1.700944628307841E9, 0.0, 2023-11-25 15:37:08.307
153.0, 70914.59732229679, 81396.80551252431, -18269.690068923246, -19640.231983689308, -8961.171980043886, -4058.3168337722823, -19611.800564742156, 187500.0, -0.088, 0.98, -0.022, 192.0, 0.0, 0.0, 0.0, 0.0, 0.0, 0.0, 0.0, 0.0, 0.0, 1.700944628311792E9, 0.0, 2023-11-25 15:37:08.311
154.0, 70923.71683403455, 81437.93272232208, -18565.738924233785, -19837.463776762936, -9665.318985619424, -4234.269766124459, -19637.058035976654, 187500.0, -0.088, 0.98, -0.022, 192.0, 0.0, 0.0, 0.0, 0.0, 0.0, 0.0, 0.0, 0.0, 0.0, 1.700944628315817E9, 0.0, 2023-11-25 15:37:08.315
155.0, 70959.59138388532, 81412.67525108758, -17875.11472405371, -19336.583535263962, -8871.13915337791, -3910.638858156068, -19535.759930105203, 187500.0, -0.088, 0.98, -0.022, 192.0, 0.0, 0.0, 0.0, 0.0, 0.0, 0.0, 0.0, 0.0, 0.0, 1.700944628318822E9, 0.0, 2023-11-25 15:37:08.318
156.0, 70953.4446541601, 81383.4615210845, -17809.08767093273, -19321.45140426772, -8402.735996572495, -3909.0965877886524, -19593.874465689, 187500.0, -0.088, 0.98, -0.022, 192.0, 0.0, 0.0, 0.0, 0.0, 0.0, 0.0, 0.0, 0.0, 0.0, 1.700944628322939E9, 0.0, 2023-11-25 15:37:08.322
157.0, 70928.09777594778, 81401.09704745973, -18192.688309274712, -19596.91430293492, -8834.772865149125, -4033.729914871444, -19611.1300124085, 187500.0, -0.092, 0.984, -0.024, 192.0, 253.0, 32.0, 30.0, 192.0, 255.0, 64.0, 0.0, 0.0, 0.0, 1.700944628327912E9, 0.0, 2023-11-25 15:37:08.327
158.0, 70921.25814214446, 81439.31853047831, -18586.25782564376, -19822.622218444612, -9603.918743600696, -4194.997751116485, -19645.484643636304, 187500.0, -0.092, 0.984, -0.024, 192.0, 0.0, 0.0, 0.0, 0.0, 0.0, 0.0, 0.0, 0.0, 0.0, 1.700944628331902E9, 0.0, 2023-11-25 15:37:08.331
159.0, 70938.58074409733, 81400.5159021039, -18018.501164734505, -19453.751379698682, -9095.729481664835, -3982.946751468987, -19546.712284888305, 187500.0, -0.092, 0.984, -0.024, 192.0, 0.0, 0.0, 0.0, 0.0, 0.0, 0.0, 0.0, 0.0, 0.0, 1.700944628335911E9, 0.0, 2023-11-25 15:37:08.335
160.0, 70938.53604060842, 81363.14378537462, -17760.696144186993, -19242.437987618207, -8372.56114155783, -3838.979165432354, -19581.581006238583, 187500.0, -0.092, 0.984, -0.024, 192.0, 0.0, 0.0, 0.0, 0.0, 0.0, 0.0, 0.0, 0.0, 0.0, 1.700944628338917E9, 0.0, 2023-11-25 15:37:08.338
161.0, 70922.06280494486, 81382.58980305074, -18131.891564356276, -19589.560579009125, -8751.132637397366, -4039.1166852851734, -19609.341872852074, 187500.0, -0.092, 0.984, -0.024, 192.0, 0.0, 0.0, 0.0, 0.0, 0.0, 0.0, 0.0, 0.0, 0.0, 1.700944628342885E9, 0.0, 2023-11-25 15:37:08.342
162.0, 70915.44668858609, 81424.7675448379, -18567.750581234763, -19817.43661373098, -9512.209536100572, -4173.338910739292, -19643.964725013342, 187500.0, -0.092, 0.984, -0.024, 192.0, 0.0, 0.0, 0.0, 0.0, 0.0, 0.0, 0.0, 0.0, 0.0, 1.70094462834709E9, 0.0, 2023-11-25 15:37:08.347
163.0, 70930.15413643768, 81406.12618996217, -18169.800122952478, -19574.31668929061, -9300.627923086635, -4067.7269181879665, -19570.78511366667, 187500.0, -0.092, 0.984, -0.024, 192.0, 0.0, 0.0, 0.0, 0.0, 0.0, 0.0, 0.0, 0.0, 0.0, 1.700944628350944E9, 0.0, 2023-11-25 15:37:08.350
164.0, 70955.52336639445, 81381.85219548372, -17727.190879248486, -19200.886094675792, -8386.419223120121, -3808.5807929731363, -19569.309898532618, 187500.0, -0.092, 0.984, -0.024, 192.0, 0.0, 0.0, 0.0, 0.0, 0.0, 0.0, 0.0, 0.0, 0.0, 1.700944628356935E9, 0.0, 2023-11-25 15:37:08.356
165.0, 70924.72266253503, 81380.1087594162, -18067.38442985826, -19549.126273289476, -8659.445781641696, -4031.9417753150196, -19605.36326233903, 187500.0, -0.092, 0.984, -0.024, 192.0, 0.0, 0.0, 0.0, 0.0, 0.0, 0.0, 0.0, 0.0, 0.0, 1.70094462835999E9, 0.0, 2023-11-25 15:37:08.359
166.0, 70908.60705478275, 81420.7665825804, -18522.689464412866, -19757.28806940175, -9368.37606053067, -4122.086360703273, -19649.060922749155, 187500.0, -0.092, 0.984, -0.024, 192.0, 0.0, 0.0, 0.0, 0.0, 0.0, 0.0, 0.0, 0.0, 0.0, 1.700944628363957E9, 0.0, 2023-11-25 15:37:08.363
167.0, 70932.34460739429, 81422.53237039238, -18318.573334047, -19685.784838889223, -9485.230980543016, -4149.176674983105, -19591.102849376544, 187500.0, -0.088, 0.982, -0.022, 192.0, 253.0, 64.0, 30.0, 176.0, 255.0, 80.0, 0.0, 0.0, 0.0, 1.700944628367944E9, 0.0, 2023-11-25 15:37:08.367
168.0, 70949.55545062489, 81375.88427971414, -17721.17825999001, -19190.671347459716, -8455.687279187117, -3806.367970272061, -19563.297279274142, 187500.0, -0.088, 0.982, -0.022, 192.0, 0.0, 0.0, 0.0, 0.0, 0.0, 0.0, 0.0, 0.0, 0.0, 1.700944628370946E9, 0.0, 2023-11-25 15:37:08.370
169.0, 70929.88591550422, 81371.43628256753, -17999.815106369868, -19512.067080982575, -8589.976559874602, -4026.4432461790143, -19611.375881597505, 187500.0, -0.088, 0.982, -0.022, 192.0, 0.0, 0.0, 0.0, 0.0, 0.0, 0.0, 0.0, 0.0, 0.0, 1.700944628374974E9, 0.0, 2023-11-25 15:37:08.374
170.0, 70908.24942687148, 81405.70150681752, -18437.775187227155, -19696.670138438956, -9212.271477254806, -4075.773546191877, -19645.439940147393, 187500.0, -0.088, 0.982, -0.022, 192.0, 0.0, 0.0, 0.0, 0.0, 0.0, 0.0, 0.0, 0.0, 0.0, 1.70094462837952E9, 0.0, 2023-11-25 15:37:08.379
171.0, 70927.82955501432, 81424.1193442487, -18443.564289041078, -19769.358011407618, -9616.301610028937, -4205.659533221667, -19620.338931124083, 187500.0, -0.088, 0.982, -0.022, 192.0, 0.0, 0.0, 0.0, 0.0, 0.0, 0.0, 0.0, 0.0, 0.0, 1.700944628383009E9, 0.0, 2023-11-25 15:37:08.383
172.0, 70958.11616875126, 81381.76278850589, -17743.93233584551, -19212.57605702592, -8570.575245687396, -3826.1269123705524, -19555.54122394815, 187500.0, -0.088, 0.982, -0.022, 192.0, 0.0, 0.0, 0.0, 0.0, 0.0, 0.0, 0.0, 0.0, 0.0, 1.700944628388002E9, 0.0, 2023-11-25 15:37:08.388
173.0, 70937.26199117447, 81362.67439874106, -17937.677256784114, -19460.076923379533, -8521.200242185621, -4010.6629145935676, -19617.544963067172, 187500.0, -0.088, 0.982, -0.022, 192.0, 0.0, 0.0, 0.0, 0.0, 0.0, 0.0, 0.0, 0.0, 0.0, 1.700944628392084E9, 0.0, 2023-11-25 15:37:08.392
174.0, 70912.22803738451, 81389.2059194095, -18359.58878512249, -19656.660515863958, -9063.565321393648, -4064.016528608385, -19649.73147508281, 187500.0, -0.088, 0.982, -0.022, 192.0, 0.0, 0.0, 0.0, 0.0, 0.0, 0.0, 0.0, 0.0, 0.0, 1.700944628395051E9, 0.0, 2023-11-25 15:37:08.395
175.0, 70923.64977880118, 81420.87834130268, -18546.896403657964, -19824.6785789345, -9673.812648512441, -4244.372754618258, -19650.960821027857, 187500.0, -0.088, 0.982, -0.022, 192.0, 0.0, 0.0, 0.0, 0.0, 0.0, 0.0, 0.0, 0.0, 0.0, 1.700944628399028E9, 0.0, 2023-11-25 15:37:08.399
176.0, 70948.1919942131, 81378.63354428214, -17822.968104239477, -19272.38932518832, -8729.63025923136, -3876.8877240285547, -19561.039753084155, 187500.0, -0.088, 0.982, -0.022, 192.0, 0.0, 0.0, 0.0, 0.0, 0.0, 0.0, 0.0, 0.0, 0.0, 1.700944628403021E9, 0.0, 2023-11-25 15:37:08.403
177.0, 70943.18520345513, 81366.8094714653, -17885.575340458792, -19399.41428892783, -8464.426811269142, -3976.3082833657604, -19618.12610842301, 187500.0, -0.078, 0.99, -0.016, 192.0, 253.0, 144.0, 30.0, 240.0, 255.0, 128.0, 0.0, 0.0, 0.0, 1.700944628407066E9, 0.0, 2023-11-25 15:37:08.407
178.0, 70918.30771187636, 81390.54702407683, -18280.016574861595, -19643.204765701863, -8945.928090325368, -4065.357633275704, -19626.50801259375, 187500.0, -0.078, 0.99, -0.016, 192.0, 0.0, 0.0, 0.0, 0.0, 0.0, 0.0, 0.0, 0.0, 0.0, 1.700944628411068E9, 0.0, 2023-11-25 15:37:08.411
179.0, 70920.85581074427, 81428.09795476175, -18595.2879304037, -19851.97005891443, -9671.465715344633, -4244.864492996275, -19648.345666926583, 187500.0, -0.078, 0.99, -0.016, 192.0, 0.0, 0.0, 0.0, 0.0, 0.0, 0.0, 0.0, 0.0, 0.0, 1.700944628415078E9, 0.0, 2023-11-25 15:37:08.415
180.0, 70948.21434595756, 81394.27976540086, -17926.859012467743, -19375.274404916097, -8933.701686108314, -3945.552282995258, -19550.646191912438, 187500.0, -0.078, 0.99, -0.016, 192.0, 0.0, 0.0, 0.0, 0.0, 0.0, 0.0, 0.0, 0.0, 0.0, 1.700944628420107E9, 0.0, 2023-11-25 15:37:08.420
181.0, 70950.06954074735, 81368.91053544408, -17812.127508178655, -19316.243447809633, -8406.446386152076, -3914.840986113666, -19593.740355222268, 187500.0, -0.078, 0.99, -0.016, 192.0, 0.0, 0.0, 0.0, 0.0, 0.0, 0.0, 0.0, 0.0, 0.0, 1.700944628423145E9, 0.0, 2023-11-25 15:37:08.423
182.0, 70919.42529909912, 81383.01448619539, -18191.16839065175, -19599.529457036195, -8820.959487075745, -4051.5666069467793, -19616.02504444421, 187500.0, -0.078, 0.99, -0.016, 192.0, 0.0, 0.0, 0.0, 0.0, 0.0, 0.0, 0.0, 0.0, 0.0, 1.700944628427181E9, 0.0, 2023-11-25 15:37:08.427
183.0, 70916.81014499786, 81426.35451869424, -18601.92639850693, -19831.49586099337, -9599.873077854285, -4218.534138027923, -19658.35924844256, 187500.0, -0.078, 0.99, -0.016, 192.0, 0.0, 0.0, 0.0, 0.0, 0.0, 0.0, 0.0, 0.0, 0.0, 1.700944628431218E9, 0.0, 2023-11-25 15:37:08.431
184.0, 70943.52047962195, 81396.98432647996, -18058.01904893149, -19475.745496242704, -9138.488368807837, -4019.3353914422264, -19564.951308363834, 187500.0, -0.078, 0.99, -0.016, 192.0, 0.0, 0.0, 0.0, 0.0, 0.0, 0.0, 0.0, 0.0, 0.0, 1.700944628435181E9, 0.0, 2023-11-25 15:37:08.435
185.0, 70953.4446541601, 81365.7589394759, -17769.346269291196, -19250.14933945529, -8391.694234811574, -3864.080174455664, -19599.21653261382, 187500.0, -0.078, 0.99, -0.016, 192.0, 0.0, 0.0, 0.0, 0.0, 0.0, 0.0, 0.0, 0.0, 0.0, 1.700944628439136E9, 0.0, 2023-11-25 15:37:08.439
186.0, 70931.22702017153, 81381.53927106134, -18123.48730844108, -19581.8715789165, -8737.162797112798, -4052.907711614098, -19620.897724735467, 187500.0, -0.082, 0.982, -0.026000000000000002, 192.0, 253.0, 112.0, 30.0, 176.0, 255.0, 48.0, 0.0, 0.0, 0.0, 1.700944628443203E9, 0.0, 2023-11-25 15:37:08.443
187.0, 70924.3426828793, 81429.975501296, -18566.72240098982, -19793.788468097267, -9482.369957252737, -4165.895779835675, -19661.734361855313, 187500.0, -0.082, 0.982, -0.026000000000000002, 192.0, 0.0, 0.0, 0.0, 0.0, 0.0, 0.0, 0.0, 0.0, 0.0, 1.70094462844825E9, 0.0, 2023-11-25 15:37:08.448
188.0, 70945.73330232303, 81417.1679517231, -18204.37827162484, -19600.20000936985, -9347.074848064764, -4100.449872070536, -19583.68207021738, 187500.0, -0.082, 0.982, -0.026000000000000002, 192.0, 0.0, 0.0, 0.0, 0.0, 0.0, 0.0, 0.0, 0.0, 0.0, 1.700944628451293E9, 0.0, 2023-11-25 15:37:08.451
189.0, 70966.09574152181, 81382.67921002855, -17721.379425690106, -19199.94732140867, -8399.785566304394, -3821.5224530127593, -19577.40123002544, 187500.0, -0.082, 0.982, -0.026000000000000002, 192.0, 0.0, 0.0, 0.0, 0.0, 0.0, 0.0, 0.0, 0.0, 0.0, 1.700944628455438E9, 0.0, 2023-11-25 15:37:08.455
190.0, 70942.2911336769, 81380.15346290512, -18048.51955753798, -19552.702552402327, -8651.28739491551, -4048.1467900451175, -19621.076538691108, 187500.0, -0.082, 0.982, -0.026000000000000002, 192.0, 0.0, 0.0, 0.0, 0.0, 0.0, 0.0, 0.0, 0.0, 0.0, 1.700944628459227E9, 0.0, 2023-11-25 15:37:08.459
191.0, 70923.9403514791, 81417.54793137884, -18506.95383631633, -19758.405656624516, -9344.571452685768, -4131.518796863413, -19668.328126469627, 187500.0, -0.082, 0.982, -0.026000000000000002, 192.0, 0.0, 0.0, 0.0, 0.0, 0.0, 0.0, 0.0, 0.0, 0.0, 1.700944628463268E9, 0.0, 2023-11-25 15:37:08.463
192.0, 70943.83340404433, 81425.6169111272, -18352.97266876372, -19715.95969390389, -9522.759559483477, -4182.056091076862, -19615.041567688175, 187500.0, -0.082, 0.982, -0.026000000000000002, 192.0, 0.0, 0.0, 0.0, 0.0, 0.0, 0.0, 0.0, 0.0, 0.0, 1.700944628467256E9, 0.0, 2023-11-25 15:37:08.467
193.0, 70963.97232579856, 81384.66851528508, -17727.8837833266, -19192.057155615945, -8474.976834652047, -3817.521490755259, -19572.39443926745, 187500.0, -0.082, 0.982, -0.026000000000000002, 192.0, 0.0, 0.0, 0.0, 0.0, 0.0, 0.0, 0.0, 0.0, 0.0, 1.700944628471214E9, 0.0, 2023-11-25 15:37:08.471
194.0, 70948.5496221244, 81380.64520128313, -17995.635330156725, -19504.28867391213, -8579.582998702885, -4036.2780137393493, -19619.1319369235, 187500.0, -0.082, 0.982, -0.026000000000000002, 192.0, 0.0, 0.0, 0.0, 0.0, 0.0, 0.0, 0.0, 0.0, 0.0, 1.700944628476288E9, 0.0, 2023-11-25 15:37:08.476
195.0, 70928.72362479253, 81412.94347202104, -18428.812137700574, -19698.45827799538, -9189.830325821678, -4093.7667004783993, -19647.988039015298, 187500.0, -0.082, 0.982, -0.026000000000000002, 192.0, 0.0, 0.0, 0.0, 0.0, 0.0, 0.0, 0.0, 0.0, 0.0, 1.700944628479328E9, 0.0, 2023-11-25 15:37:08.479
196.0, 70941.73234006553, 81432.09891701925, -18467.950042241817, -19787.86525581661, -9636.28406957198, -4233.6662690241665, -19629.749015539768, 187500.0, -0.08, 0.986, -0.026000000000000002, 192.0, 253.0, 128.0, 30.0, 208.0, 255.0, 48.0, 0.0, 0.0, 0.0, 1.700944628482328E9, 0.0, 2023-11-25 15:37:08.482
197.0, 70961.98302054203, 81383.9085559736, -17759.51150173086, -19210.85497270286, -8595.27392331051, -3835.4475898084156, -19567.052372342634, 187500.0, -0.08, 0.986, -0.026000000000000002, 192.0, 0.0, 0.0, 0.0, 0.0, 0.0, 0.0, 0.0, 0.0, 0.0, 1.700944628487288E9, 0.0, 2023-11-25 15:37:08.487
198.0, 70951.45534890359, 81377.06892217028, -17940.44887309657, -19449.638658718904, -8520.172061940679, -4011.8252053052433, -19634.644047575483, 187500.0, -0.08, 0.986, -0.026000000000000002, 192.0, 0.0, 0.0, 0.0, 0.0, 0.0, 0.0, 0.0, 0.0, 0.0, 1.700944628491316E9, 0.0, 2023-11-25 15:37:08.491
199.0, 70929.32712189283, 81410.77535280888, -18351.58686060749, -19662.69548686689, -9055.138713733997, -4077.4275752815697, -19654.492396651793, 187500.0, -0.08, 0.986, -0.026000000000000002, 192.0, 0.0, 0.0, 0.0, 0.0, 0.0, 0.0, 0.0, 0.0, 0.0, 1.700944628495334E9, 0.0, 2023-11-25 15:37:08.495
200.0, 70933.03751147242, 81436.09987927675, -18559.234566597293, -19816.58724744168, -9675.712546791143, -4237.242548137016, -19661.689658366402, 187500.0, -0.08, 0.986, -0.026000000000000002, 192.0, 0.0, 0.0, 0.0, 0.0, 0.0, 0.0, 0.0, 0.0, 0.0, 1.700944628499319E9, 0.0, 2023-11-25 15:37:08.499
201.0, 70954.6963518496, 81385.51788157439, -17842.257659704406, -19273.01517403307, -8767.672928294292, -3876.753613561823, -19571.768590422704, 187500.0, -0.08, 0.986, -0.026000000000000002, 192.0, 0.0, 0.0, 0.0, 0.0, 0.0, 0.0, 0.0, 0.0, 0.0, 1.700944628504949E9, 0.0, 2023-11-25 15:37:08.504
202.0, 70954.8975175497, 81371.72685524546, -17871.605500174224, -19366.98190772318, -8449.831122139827, -3952.548379009769, -19626.351550382562, 187500.0, -0.08, 0.986, -0.026000000000000002, 192.0, 0.0, 0.0, 0.0, 0.0, 0.0, 0.0, 0.0, 0.0, 0.0, 1.700944628507333E9, 0.0, 2023-11-25 15:37:08.507
203.0, 70935.47385161804, 81401.23115792646, -18262.33634499745, -19628.8325940171, -8923.53164238115, -4058.2721302833716, -19639.74024531129, 187500.0, -0.08, 0.986, -0.026000000000000002, 192.0, 0.0, 0.0, 0.0, 0.0, 0.0, 0.0, 0.0, 0.0, 0.0, 1.700944628510407E9, 0.0, 2023-11-25 15:37:08.510
204.0, 70936.52438360744, 81441.68781539057, -18602.216971184847, -19849.287849579796, -9665.475447830611, -4241.511731327979, -19668.059905536164, 187500.0, -0.08, 0.986, -0.026000000000000002, 192.0, 0.0, 0.0, 0.0, 0.0, 0.0, 0.0, 0.0, 0.0, 0.0, 1.700944628515419E9, 0.0, 2023-11-25 15:37:08.515
205.0, 70962.29594496441, 81406.19324519554, -17952.854091269266, -19397.715556349227, -8980.573294231093, -3965.646501260579, -19573.422619512396, 187500.0, -0.08, 0.986, -0.026000000000000002, 192.0, 0.0, 0.0, 0.0, 0.0, 0.0, 0.0, 0.0, 0.0, 0.0, 1.700944628519393E9, 0.0, 2023-11-25 15:37:08.519
206.0, 70957.49031990652, 81372.39740757912, -17813.021577956864, -19304.955816859703, -8411.900211799171, -3915.3327244916827, -19620.49539333527, 187500.0, -0.082, 0.98, -0.026000000000000002, 192.0, 253.0, 112.0, 30.0, 160.0, 255.0, 48.0, 0.0, 0.0, 0.0, 1.700944628523427E9, 0.0, 2023-11-25 15:37:08.523
207.0, 70934.46802311754, 81391.61990781069, -18193.515323819556, -19606.41379432843, -8819.976010319711, -4068.263360054894, -19634.532288853203, 187500.0, -0.082, 0.98, -0.026000000000000002, 192.0, 0.0, 0.0, 0.0, 0.0, 0.0, 0.0, 0.0, 0.0, 0.0, 1.700944628527467E9, 0.0, 2023-11-25 15:37:08.527
208.0, 70928.27658990343, 81436.74807986595, -18609.190715454904, -19818.956532353943, -9582.729289857065, -4211.314524568859, -19672.351440471582, 187500.0, -0.082, 0.98, -0.026000000000000002, 192.0, 0.0, 0.0, 0.0, 0.0, 0.0, 0.0, 0.0, 0.0, 0.0, 1.700944628531433E9, 0.0, 2023-11-25 15:37:08.531
209.0, 70950.42716865864, 81415.42451565558, -18103.840125064868, -19509.273112925664, -9202.01202654982, -4056.171066304573, -19582.855055672535, 187500.0, -0.082, 0.98, -0.026000000000000002, 192.0, 0.0, 0.0, 0.0, 0.0, 0.0, 0.0, 0.0, 0.0, 0.0, 1.700944628535426E9, 0.0, 2023-11-25 15:37:08.535
210.0, 70958.02676177345, 81380.7569600054, -17759.51150173086, -19229.272810134033, -8393.147098201169, -3863.8343052666555, -19601.27289310371, 187500.0, -0.082, 0.98, -0.026000000000000002, 192.0, 0.0, 0.0, 0.0, 0.0, 0.0, 0.0, 0.0, 0.0, 0.0, 1.700944628538431E9, 0.0, 2023-11-25 15:37:08.538
211.0, 70928.54481083689, 81384.17677690707, -18121.140375273273, -19564.168997307897, -8721.382465527353, -4058.6521099391116, -19636.074559220622, 187500.0, -0.082, 0.98, -0.026000000000000002, 192.0, 0.0, 0.0, 0.0, 0.0, 0.0, 0.0, 0.0, 0.0, 0.0, 1.700944628543499E9, 0.0, 2023-11-25 15:37:08.543
212.0, 70918.6876915321, 81425.46044891601, -18574.34434584908, -19780.10920049062, -9461.739297120488, -4170.187314771094, -19677.157065529474, 187500.0, -0.082, 0.98, -0.026000000000000002, 192.0, 0.0, 0.0, 0.0, 0.0, 0.0, 0.0, 0.0, 0.0, 0.0, 1.70094462854751E9, 0.0, 2023-11-25 15:37:08.547
213.0, 70943.83340404433, 81418.84433255724, -18254.401475715815, -19624.943390481876, -9398.282694611871, -4134.849206787254, -19603.08338440459, 187500.0, -0.082, 0.98, -0.026000000000000002, 192.0, 0.0, 0.0, 0.0, 0.0, 0.0, 0.0, 0.0, 0.0, 0.0, 1.700944628551519E9, 0.0, 2023-11-25 15:37:08.551
214.0, 70967.57095665587, 81388.66947754259, -17741.09366429969, -19200.439059786684, -8428.664020140652, -3840.2532148663063, -19591.952215665846, 187500.0, -0.082, 0.98, -0.026000000000000002, 192.0, 0.0, 0.0, 0.0, 0.0, 0.0, 0.0, 0.0, 0.0, 0.0, 1.700944628555604E9, 0.0, 2023-11-25 15:37:08.555
215.0, 70948.21434595756, 81395.2632421569, -18064.702220523624, -19546.712284888305, -8655.62363333984, -4070.856162411709, -19637.817995288133, 187500.0, -0.082, 0.98, -0.026000000000000002, 192.0, 0.0, 0.0, 0.0, 0.0, 0.0, 0.0, 0.0, 0.0, 0.0, 1.700944628559526E9, 0.0, 2023-11-25 15:37:08.559
216.0, 70925.12499393523, 81426.93566405006, -18520.744862645253, -19754.851729256123, -9338.871757849665, -4151.2553872174485, -19678.52052194125, 187500.0, -0.084, 0.98, -0.024, 192.0, 253.0, 96.0, 30.0, 160.0, 255.0, 64.0, 0.0, 0.0, 0.0, 1.700944628562584E9, 0.0, 2023-11-25 15:37:08.562
217.0, 70937.97724699703, 81425.4157454271, -18401.855933887477, -19744.94990646242, -9575.688490353643, -4222.758617729976, -19635.471062120327, 187500.0, -0.084, 0.98, -0.024, 192.0, 0.0, 0.0, 0.0, 0.0, 0.0, 0.0, 0.0, 0.0, 0.0, 1.700944628566517E9, 0.0, 2023-11-25 15:37:08.566
218.0, 70955.79158732791, 81379.14763440462, -17756.65047844058, -19212.263132603544, -8524.798873042926, -3853.597206306125, -19595.170866867407, 187500.0, -0.084, 0.98, -0.024, 192.0, 0.0, 0.0, 0.0, 0.0, 0.0, 0.0, 0.0, 0.0, 0.0, 1.700944628570562E9, 0.0, 2023-11-25 15:37:08.570
219.0, 70935.96558999605, 81369.11170114418, -18012.309731520385, -19511.48593562674, -8594.223391321111, -4061.6919471850333, -19648.12214948203, 187500.0, -0.084, 0.98, -0.024, 192.0, 0.0, 0.0, 0.0, 0.0, 0.0, 0.0, 0.0, 0.0, 0.0, 1.700944628575554E9, 0.0, 2023-11-25 15:37:08.575
220.0, 70915.9384269641, 81403.82396028328, -18443.720751252265, -19697.877132639544, -9183.258912951816, -4107.177747151583, -19672.239681749306, 187500.0, -0.084, 0.98, -0.024, 192.0, 0.0, 0.0, 0.0, 0.0, 0.0, 0.0, 0.0, 0.0, 0.0, 1.700944628579716E9, 0.0, 2023-11-25 15:37:08.579
221.0, 70926.51080209146, 81427.24858847244, -18524.14232780246, -19808.741785137867, -9674.125572934816, -4259.102554214305, -19654.31358269615, 187500.0, -0.084, 0.98, -0.024, 192.0, 0.0, 0.0, 0.0, 0.0, 0.0, 0.0, 0.0, 0.0, 0.0, 1.700944628583558E9, 0.0, 2023-11-25 15:37:08.583
222.0, 70957.02093327296, 81393.8103787673, -17802.51625806287, -19252.13864471181, -8661.748011320593, -3882.7662328203005, -19577.58004398108, 187500.0, -0.084, 0.98, -0.024, 192.0, 0.0, 0.0, 0.0, 0.0, 0.0, 0.0, 0.0, 0.0, 0.0, 1.70094462858659E9, 0.0, 2023-11-25 15:37:08.586
223.0, 70947.18616571261, 81381.82984373925, -17938.705437029057, -19452.18675758681, -8528.30809692241, -4032.366458459671, -19629.257277161752, 187500.0, -0.084, 0.98, -0.024, 192.0, 0.0, 0.0, 0.0, 0.0, 0.0, 0.0, 0.0, 0.0, 0.0, 1.700944628590612E9, 0.0, 2023-11-25 15:37:08.590
224.0, 70917.97243570954, 81399.84534977023, -18347.362380905437, -19661.399085688485, -9042.778199050212, -4092.358540577715, -19646.44576864788, 187500.0, -0.084, 0.98, -0.024, 192.0, 0.0, 0.0, 0.0, 0.0, 0.0, 0.0, 0.0, 0.0, 0.0, 1.700944628594637E9, 0.0, 2023-11-25 15:37:08.594
225.0, 70919.44765084358, 81426.48862916096, -18590.884636746006, -19836.077968606707, -9698.712491835653, -4261.717708315577, -19662.47196942234, 187500.0, -0.084, 0.98, -0.024, 192.0, 0.0, 0.0, 0.0, 0.0, 0.0, 0.0, 0.0, 0.0, 0.0, 1.700944628598682E9, 0.0, 2023-11-25 15:37:08.598
226.0, 70944.90628777818, 81388.93769847605, -17882.893131124154, -19300.753688902103, -8824.491062699684, -3906.8837650875766, -19576.753029436237, 187500.0, -0.09, 0.984, -0.028, 192.0, 253.0, 48.0, 30.0, 192.0, 255.0, 32.0, 0.0, 0.0, 0.0, 1.700944628603629E9, 0.0, 2023-11-25 15:37:08.603
227.0, 70952.68469484862, 81377.22538438147, -17880.993232845456, -19382.40461139734, -8475.289759074421, -3978.699920022478, -19630.687788806892, 187500.0, -0.09, 0.984, -0.028, 192.0, 0.0, 0.0, 0.0, 0.0, 0.0, 0.0, 0.0, 0.0, 0.0, 1.700944628607664E9, 0.0, 2023-11-25 15:37:08.607
228.0, 70926.17552592463, 81394.48093110096, -18266.717286910687, -19653.26305070675, -8938.127331510465, -4098.997008680941, -19651.631373361513, 187500.0, -0.09, 0.984, -0.028, 192.0, 0.0, 0.0, 0.0, 0.0, 0.0, 0.0, 0.0, 0.0, 0.0, 1.700944628611675E9, 0.0, 2023-11-25 15:37:08.611
229.0, 70929.50593584847, 81437.68685313307, -18629.195526742402, -19876.579329559725, -9694.15273596677, -4281.923685303174, -19693.71970817086, 187500.0, -0.09, 0.984, -0.028, 192.0, 0.0, 0.0, 0.0, 0.0, 0.0, 0.0, 0.0, 0.0, 0.0, 1.700944628614639E9, 0.0, 2023-11-25 15:37:08.614
230.0, 70955.32220069435, 81412.00469875392, -17999.122202291754, -19435.646466689883, -9052.165931721442, -4016.072036751752, -19593.78505871118, 187500.0, -0.09, 0.984, -0.028, 192.0, 0.0, 0.0, 0.0, 0.0, 0.0, 0.0, 0.0, 0.0, 0.0, 1.700944628618775E9, 0.0, 2023-11-25 15:37:08.618
231.0, 70945.73330232303, 81373.85027096872, -17817.29076114783, -19305.738127915636, -8432.776741120428, -3932.677678189001, -19634.59934408657, 187500.0, -0.09, 0.984, -0.028, 192.0, 0.0, 0.0, 0.0, 0.0, 0.0, 0.0, 0.0, 0.0, 0.0, 1.700944628622785E9, 0.0, 2023-11-25 15:37:08.622
232.0, 70910.9316362061, 81376.53248030334, -18193.716489519655, -19594.45561104484, -8815.12568177291, -4075.102993858218, -19659.521539154237, 187500.0, -0.09, 0.984, -0.028, 192.0, 0.0, 0.0, 0.0, 0.0, 0.0, 0.0, 0.0, 0.0, 0.0, 1.70094462862678E9, 0.0, 2023-11-25 15:37:08.626
233.0, 70912.22803738451, 81424.49932390444, -18625.26161971827, -19819.940009109978, -9585.27738872497, -4217.528309527434, -19692.915045370468, 187500.0, -0.09, 0.984, -0.028, 192.0, 0.0, 0.0, 0.0, 0.0, 0.0, 0.0, 0.0, 0.0, 0.0, 1.700944628630943E9, 0.0, 2023-11-25 15:37:08.630
234.0, 70939.3407034088, 81411.84823654273, -18146.286087785495, -19535.134081260454, -9254.248053341873, -4078.768679948888, -19598.50127679125, 187500.0, -0.09, 0.984, -0.028, 192.0, 0.0, 0.0, 0.0, 0.0, 0.0, 0.0, 0.0, 0.0, 0.0, 1.700944628635764E9, 0.0, 2023-11-25 15:37:08.635
235.0, 70947.11911047925, 81373.1573668906, -17774.643632727104, -19230.636266545807, -8411.900211799171, -3869.9586832474097, -19617.343797367073, 187500.0, -0.09, 0.984, -0.028, 192.0, 0.0, 0.0, 0.0, 0.0, 0.0, 0.0, 0.0, 0.0, 0.0, 1.700944628639874E9, 0.0, 2023-11-25 15:37:08.639
236.0, 70923.98505496801, 81376.51012855889, -18129.187003277184, -19576.194235824853, -8730.747846454125, -4081.517944516891, -19650.580841372113, 187500.0, -0.09, 0.982, -0.03, 192.0, 253.0, 48.0, 30.0, 176.0, 255.0, 16.0, 0.0, 0.0, 0.0, 1.700944628642752E9, 0.0, 2023-11-25 15:37:08.642
237.0, 70915.46904033054, 81421.5712453808, -18575.506636560756, -19788.49110466136, -9458.721811619022, -4182.8384021327975, -19683.348498743595, 187500.0, -0.09, 0.982, -0.03, 192.0, 0.0, 0.0, 0.0, 0.0, 0.0, 0.0, 0.0, 0.0, 0.0, 1.700944628646817E9, 0.0, 2023-11-25 15:37:08.646
238.0, 70931.58464808282, 81412.94347202104, -18293.673490723788, -19658.828635076123, -9447.031849268897, -4165.9851868134965, -19615.488602577283, 187500.0, -0.09, 0.982, -0.03, 192.0, 0.0, 0.0, 0.0, 0.0, 0.0, 0.0, 0.0, 0.0, 0.0, 1.700944628650815E9, 0.0, 2023-11-25 15:37:08.650
239.0, 70946.91794477915, 81373.91732620208, -17747.55331844727, -19192.973577138615, -8442.276232513932, -3842.197816633918, -19596.824895957103, 187500.0, -0.09, 0.982, -0.03, 192.0, 0.0, 0.0, 0.0, 0.0, 0.0, 0.0, 0.0, 0.0, 0.0, 1.700944628654806E9, 0.0, 2023-11-25 15:37:08.654
240.0, 70932.76929053894, 81377.65006752612, -18063.919909467688, -19540.00676155171, -8647.62170882484, -4075.3041595583154, -19647.138672725996, 187500.0, -0.09, 0.982, -0.03, 192.0, 0.0, 0.0, 0.0, 0.0, 0.0, 0.0, 0.0, 0.0, 0.0, 1.700944628658844E9, 0.0, 2023-11-25 15:37:08.658
241.0, 70911.55748505086, 81408.02608824088, -18510.619522407, -19738.110272659098, -9305.008864999874, -4143.432276658092, -19685.33780400012, 187500.0, -0.09, 0.982, -0.03, 192.0, 0.0, 0.0, 0.0, 0.0, 0.0, 0.0, 0.0, 0.0, 0.0, 1.700944628663172E9, 0.0, 2023-11-25 15:37:08.663
242.0, 70929.01419747046, 81420.3195476913, -18435.472957548256, -19755.34346763414, -9596.341502230347, -4233.576862046345, -19646.22225120333, 187500.0, -0.09, 0.982, -0.03, 192.0, 0.0, 0.0, 0.0, 0.0, 0.0, 0.0, 0.0, 0.0, 0.0, 1.700944628667803E9, 0.0, 2023-11-25 15:37:08.667
243.0, 70949.82367155835, 81379.32644836027, -17762.774856421336, -19211.681987247706, -8539.68513485016, -3855.0277179512645, -19591.16990460991, 187500.0, -0.09, 0.982, -0.03, 192.0, 0.0, 0.0, 0.0, 0.0, 0.0, 0.0, 0.0, 0.0, 0.0, 1.700944628671924E9, 0.0, 2023-11-25 15:37:08.671
244.0, 70930.98115098252, 81368.79877672181, -18002.810240126877, -19498.29840639811, -8577.683100424183, -4059.903807628609, -19654.581803629615, 187500.0, -0.09, 0.982, -0.03, 192.0, 0.0, 0.0, 0.0, 0.0, 0.0, 0.0, 0.0, 0.0, 0.0, 1.700944628674896E9, 0.0, 2023-11-25 15:37:08.674
245.0, 70907.5341710489, 81402.37109689368, -18428.521565022656, -19691.864513381068, -9154.04518294873, -4111.245764642449, -19684.89076911101, 187500.0, -0.09, 0.982, -0.03, 192.0, 0.0, 0.0, 0.0, 0.0, 0.0, 0.0, 0.0, 0.0, 0.0, 1.700944628678868E9, 0.0, 2023-11-25 15:37:08.678
246.0, 70925.52732533542, 81433.44002168656, -18544.14713908996, -19823.002198100352, -9685.256741673558, -4275.151106733216, -19673.98311781682, 187500.0, -0.09, 0.984, -0.03, 192.0, 253.0, 48.0, 30.0, 192.0, 255.0, 16.0, 0.0, 0.0, 0.0, 1.700944628683893E9, 0.0, 2023-11-25 15:37:08.683
247.0, 70950.2930581919, 81390.68113454356, -17815.61438031368, -19254.28441217952, -8684.367976709364, -3889.2929422012503, -19590.097020876055, 187500.0, -0.09, 0.984, -0.03, 192.0, 0.0, 0.0, 0.0, 0.0, 0.0, 0.0, 0.0, 0.0, 0.0, 1.700944628687911E9, 0.0, 2023-11-25 15:37:08.687
248.0, 70932.43401437212, 81370.18458487805, -17936.02322769442, -19426.482251463207, -8506.269276889478, -4020.587089131724, -19653.307754195663, 187500.0, -0.09, 0.984, -0.03, 192.0, 0.0, 0.0, 0.0, 0.0, 0.0, 0.0, 0.0, 0.0, 0.0, 1.700944628690988E9, 0.0, 2023-11-25 15:37:08.690
249.0, 70904.24846461398, 81392.1563496776, -18348.144691961374, -19655.65468736347, -9018.951239460856, -4098.57232553629, -19677.13471378502, 187500.0, -0.09, 0.984, -0.03, 192.0, 0.0, 0.0, 0.0, 0.0, 0.0, 0.0, 0.0, 0.0, 0.0, 1.700944628695901E9, 0.0, 2023-11-25 15:37:08.695
250.0, 70913.74795600749, 81430.71310886301, -18616.231514958326, -19854.585213015704, -9708.30139020698, -4286.058758027406, -19685.22604527784, 187500.0, -0.09, 0.984, -0.03, 192.0, 0.0, 0.0, 0.0, 0.0, 0.0, 0.0, 0.0, 0.0, 0.0, 1.700944628698906E9, 0.0, 2023-11-25 15:37:08.698
251.0, 70937.35139815228, 81391.39639036614, -17916.510154784937, -19341.277401599575, -8879.029319170633, -3955.16353311104, -19592.77923021069, 187500.0, -0.09, 0.984, -0.03, 192.0, 0.0, 0.0, 0.0, 0.0, 0.0, 0.0, 0.0, 0.0, 0.0, 1.700944628702949E9, 0.0, 2023-11-25 15:37:08.702
252.0, 70927.11429919176, 81360.19335510652, -17880.456790978526, -19368.702992046237, -8469.165381093668, -3989.5852195722127, -19644.36705641354, 187500.0, -0.09, 0.984, -0.03, 192.0, 0.0, 0.0, 0.0, 0.0, 0.0, 0.0, 0.0, 0.0, 0.0, 1.700944628706924E9, 0.0, 2023-11-25 15:37:08.706
253.0, 70896.76063022144, 81372.48681455693, -18266.47141772168, -19624.78692827069, -8902.833927015536, -4094.861935956709, -19663.32133571164, 187500.0, -0.09, 0.984, -0.03, 192.0, 0.0, 0.0, 0.0, 0.0, 0.0, 0.0, 0.0, 0.0, 0.0, 1.700944628710972E9, 0.0, 2023-11-25 15:37:08.710
254.0, 70906.2824733594, 81424.74519309345, -18644.573526927656, -19843.58815474369, -9662.05563092895, -4258.767278047476, -19697.675966939445, 187500.0, -0.09, 0.984, -0.03, 192.0, 0.0, 0.0, 0.0, 0.0, 0.0, 0.0, 0.0, 0.0, 0.0, 1.700944628714973E9, 0.0, 2023-11-25 15:37:08.714
255.0, 70936.32321790734, 81397.63252706916, -18047.826653459866, -19449.392789529895, -9096.355330509583, -4032.388810204126, -19604.089212905077, 187500.0, -0.09, 0.984, -0.03, 192.0, 0.0, 0.0, 0.0, 0.0, 0.0, 0.0, 0.0, 0.0, 0.0, 1.700944628719005E9, 0.0, 2023-11-25 15:37:08.719
0.0, 70940.16771795365, 81363.59082026372, -17817.067243703277, -19284.23574974963, -8426.80882535086, -3925.525119963303, -19633.571163841625, 187500.0, -0.082, 0.984, -0.028, 192.0, 253.0, 112.0, 30.0, 192.0, 255.0, 32.0, 0.0, 0.0, 0.0, 1.700944628722998E9, 0.0, 2023-11-25 15:37:08.722
1.0, 70918.50887757646, 81375.57135529177, -18182.048878913985, -19599.931788436388, -8802.049911266555, -4096.024226668385, -19647.496300637282, 187500.0, -0.082, 0.984, -0.028, 192.0, 0.0, 0.0, 0.0, 0.0, 0.0, 0.0, 0.0, 0.0, 0.0, 1.700944628726982E9, 0.0, 2023-11-25 15:37:08.726
2.0, 70909.25525537196, 81418.73257383498, -18615.739776580307, -19815.983750341387, -9559.304661667904, -4227.899518954697, -19690.769277902757, 187500.0, -0.082, 0.984, -0.028, 192.0, 0.0, 0.0, 0.0, 0.0, 0.0, 0.0, 0.0, 0.0, 0.0, 1.70094462872999E9, 0.0, 2023-11-25 15:37:08.729
3.0, 70939.92184876464, 81410.52948361987, -18179.567835279446, -19578.272948059195, -9311.401463914093, -4131.0047067409405, -19606.883180961988, 187500.0, -0.082, 0.984, -0.028, 192.0, 0.0, 0.0, 0.0, 0.0, 0.0, 0.0, 0.0, 0.0, 0.0, 1.700944628735003E9, 0.0, 2023-11-25 15:37:08.735
4.0, 70947.18616571261, 81372.88914595713, -17762.61839421015, -19225.160089154255, -8423.120787515734, -3887.3483404336384, -19611.88997171998, 187500.0, -0.082, 0.984, -0.028, 192.0, 0.0, 0.0, 0.0, 0.0, 0.0, 0.0, 0.0, 0.0, 0.0, 1.700944628738988E9, 0.0, 2023-11-25 15:37:08.738
5.0, 70926.13082243572, 81385.96491646349, -18113.317264713914, -19569.511064232716, -8715.593363713428, -4098.438215069558, -19650.424379160926, 187500.0, -0.082, 0.984, -0.028, 192.0, 0.0, 0.0, 0.0, 0.0, 0.0, 0.0, 0.0, 0.0, 0.0, 1.700944628743087E9, 0.0, 2023-11-25 15:37:08.743
6.0, 70908.56235129385, 81424.3205099488, -18563.079066643604, -19773.738953320855, -9427.451721126046, -4186.749957412477, -19686.053059822687, 187500.0, -0.082, 0.984, -0.028, 192.0, 0.0, 0.0, 0.0, 0.0, 0.0, 0.0, 0.0, 0.0, 0.0, 1.700944628747036E9, 0.0, 2023-11-25 15:37:08.747
7.0, 70932.50106960548, 81422.0629837588, -18323.937752716276, -19679.12401904154, -9486.236809043505, -4195.154213327672, -19622.618809058527, 187500.0, -0.082, 0.984, -0.028, 192.0, 0.0, 0.0, 0.0, 0.0, 0.0, 0.0, 0.0, 0.0, 0.0, 1.700944628752055E9, 0.0, 2023-11-25 15:37:08.752
8.0, 70952.97526752655, 81379.92994546056, -17745.675771913026, -19200.684928975694, -8468.159552593179, -3859.6768807979684, -19591.952215665846, 187500.0, -0.082, 0.984, -0.028, 192.0, 0.0, 0.0, 0.0, 0.0, 0.0, 0.0, 0.0, 0.0, 0.0, 1.700944628755095E9, 0.0, 2023-11-25 15:37:08.755
9.0, 70933.8421742728, 81378.38767509314, -18041.74697896802, -19536.63164813896, -8639.016287209546, -4085.898886430131, -19638.98028599981, 187500.0, -0.082, 0.984, -0.028, 192.0, 0.0, 0.0, 0.0, 0.0, 0.0, 0.0, 0.0, 0.0, 0.0, 1.700944628758058E9, 0.0, 2023-11-25 15:37:08.758
10.0, 70912.40685134016, 81419.0678500018, -18481.47284763728, -19724.743929474822, -9274.945768707486, -4141.9794132684965, -19670.60800440407, 187500.0, -0.092, 0.988, -0.026000000000000002, 192.0, 253.0, 32.0, 30.0, 224.0, 255.0, 48.0, 0.0, 0.0, 0.0, 1.700944628763056E9, 0.0, 2023-11-25 15:37:08.763
11.0, 70926.55550558037, 81434.46820193151, -18442.916088451875, -19762.876005515576, -9615.273429783992, -4240.058867938384, -19635.9851522428, 187500.0, -0.092, 0.988, -0.026000000000000002, 192.0, 0.0, 0.0, 0.0, 0.0, 0.0, 0.0, 0.0, 0.0, 0.0, 1.700944628767329E9, 0.0, 2023-11-25 15:37:08.767
12.0, 70949.01900875795, 81394.50328284541, -17751.12959756012, -19207.546914523475, -8559.30996648192, -3852.077287683164, -19578.00472712573, 187500.0, -0.092, 0.988, -0.026000000000000002, 192.0, 0.0, 0.0, 0.0, 0.0, 0.0, 0.0, 0.0, 0.0, 0.0, 1.70094462877107E9, 0.0, 2023-11-25 15:37:08.771
13.0, 70936.27851441843, 81389.31767813179, -17960.833664039812, -19470.51518804016, -8549.922233810692, -4038.89316784062, -19637.728588310314, 187500.0, -0.092, 0.988, -0.026000000000000002, 192.0, 0.0, 0.0, 0.0, 0.0, 0.0, 0.0, 0.0, 0.0, 0.0, 1.700944628775114E9, 0.0, 2023-11-25 15:37:08.775
14.0, 70912.69742401809, 81412.42938189858, -18381.024108055128, -19657.576937386624, -9103.351426524094, -4082.166145106095, -19666.830559591122, 187500.0, -0.092, 0.988, -0.026000000000000002, 192.0, 0.0, 0.0, 0.0, 0.0, 0.0, 0.0, 0.0, 0.0, 0.0, 1.700944628779166E9, 0.0, 2023-11-25 15:37:08.779
15.0, 70919.7382235215, 81432.74711760845, -18527.38333074848, -19773.738953320855, -9648.376363322302, -4224.367943330758, -19666.763504357757, 187500.0, -0.092, 0.988, -0.026000000000000002, 192.0, 0.0, 0.0, 0.0, 0.0, 0.0, 0.0, 0.0, 0.0, 0.0, 1.700944628783151E9, 0.0, 2023-11-25 15:37:08.783
16.0, 70949.55545062489, 81397.83369276926, -17798.224723127452, -19221.315589107944, -8681.998691797102, -3854.580683062158, -19578.65292771494, 187500.0, -0.092, 0.988, -0.026000000000000002, 192.0, 0.0, 0.0, 0.0, 0.0, 0.0, 0.0, 0.0, 0.0, 0.0, 1.700944628786152E9, 0.0, 2023-11-25 15:37:08.786
17.0, 70941.15119470969, 81379.2593931269, -17883.027241590888, -19377.621338083904, -8463.95742463558, -3975.078937420719, -19630.531326595705, 187500.0, -0.092, 0.988, -0.026000000000000002, 192.0, 0.0, 0.0, 0.0, 0.0, 0.0, 0.0, 0.0, 0.0, 0.0, 1.700944628791253E9, 0.0, 2023-11-25 15:37:08.791
18.0, 70906.39423208169, 81395.8667392572, -18287.683223209766, -19606.30203560615, -8957.998032331232, -4053.846484881221, -19656.70521935287, 187500.0, -0.092, 0.988, -0.026000000000000002, 192.0, 0.0, 0.0, 0.0, 0.0, 0.0, 0.0, 0.0, 0.0, 0.0, 1.700944628795164E9, 0.0, 2023-11-25 15:37:08.795
19.0, 70913.27856937391, 81439.20677175603, -18584.62614829852, -19818.643607931568, -9677.165410180738, -4246.071487196861, -19673.536082927716, 187500.0, -0.092, 0.988, -0.026000000000000002, 192.0, 0.0, 0.0, 0.0, 0.0, 0.0, 0.0, 0.0, 0.0, 0.0, 1.700944628799225E9, 0.0, 2023-11-25 15:37:08.799
20.0, 70934.8927062622, 81399.64418407014, -17890.380965516684, -19322.703101957217, -8892.797993755103, -3929.3025647762497, -19561.687953673358, 187500.0, -0.092, 0.988, -0.026000000000000002, 192.0, 253.0, 32.0, 30.0, 224.0, 255.0, 48.0, 0.0, 0.0, 0.0, 1.70094462880324E9, 0.0, 2023-11-25 15:37:08.803
21.0, 70935.89853476269, 81375.68311401404, -17816.06141520279, -19315.572895475972, -8433.737866132005, -3937.5056549913475, -19603.01632917122, 187500.0, -0.092, 0.988, -0.026000000000000002, 192.0, 0.0, 0.0, 0.0, 0.0, 0.0, 0.0, 0.0, 0.0, 0.0, 1.700944628806215E9, 0.0, 2023-11-25 15:37:08.806
22.0, 70909.92580770563, 81392.5586810778, -18198.79033551101, -19601.228189614798, -8870.714470233259, -4070.0514996113184, -19619.780137512702, 187500.0, -0.092, 0.988, -0.026000000000000002, 192.0, 0.0, 0.0, 0.0, 0.0, 0.0, 0.0, 0.0, 0.0, 0.0, 1.700944628811254E9, 0.0, 2023-11-25 15:37:08.811
23.0, 70899.9345779341, 81430.6684053741, -18587.710689033353, -19817.25779977534, -9632.95365964814, -4226.938393943118, -19650.580841372113, 187500.0, -0.092, 0.988, -0.026000000000000002, 192.0, 0.0, 0.0, 0.0, 0.0, 0.0, 0.0, 0.0, 0.0, 0.0, 1.700944628815317E9, 0.0, 2023-11-25 15:37:08.815
24.0, 70918.86650548775, 81396.85021601322, -18016.601266455804, -19438.954524869267, -9121.210470343885, -4010.864080293665, -19550.735598890256, 187500.0, -0.092, 0.988, -0.026000000000000002, 192.0, 0.0, 0.0, 0.0, 0.0, 0.0, 0.0, 0.0, 0.0, 0.0, 1.700944628818287E9, 0.0, 2023-11-25 15:37:08.818
25.0, 70925.12499393523, 81361.42270105156, -17756.806940651768, -19244.80727253047, -8417.130520001712, -3878.2288286958733, -19579.859921915522, 187500.0, -0.092, 0.988, -0.026000000000000002, 192.0, 0.0, 0.0, 0.0, 0.0, 0.0, 0.0, 0.0, 0.0, 0.0, 1.700944628823358E9, 0.0, 2023-11-25 15:37:08.823
26.0, 70896.31359533234, 81368.97759067746, -18118.748738616556, -19575.30016604664, -8790.427004149795, -4061.1778570625615, -19598.83655295808, 187500.0, -0.092, 0.988, -0.026000000000000002, 192.0, 0.0, 0.0, 0.0, 0.0, 0.0, 0.0, 0.0, 0.0, 0.0, 1.700944628827323E9, 0.0, 2023-11-25 15:37:08.827
27.0, 70894.77132496492, 81421.90652154763, -18554.853624684052, -19808.272398504305, -9559.058792478894, -4196.249448805982, -19624.295189892673, 187500.0, -0.092, 0.988, -0.026000000000000002, 192.0, 0.0, 0.0, 0.0, 0.0, 0.0, 0.0, 0.0, 0.0, 0.0, 1.700944628831316E9, 0.0, 2023-11-25 15:37:08.831
28.0, 70918.26300838745, 81404.53921610586, -18146.01786685203, -19588.599453997547, -9361.067040093785, -4110.7540262644325, -19536.29637197213, 187500.0, -0.092, 0.988, -0.026000000000000002, 192.0, 0.0, 0.0, 0.0, 0.0, 0.0, 0.0, 0.0, 0.0, 0.0, 1.700944628834286E9, 0.0, 2023-11-25 15:37:08.834
29.0, 70935.78677604042, 81366.1612708761, -17699.050032979256, -19212.71016749265, -8446.791284893905, -3853.23957839484, -19544.611220909504, 187500.0, -0.092, 0.988, -0.026000000000000002, 192.0, 0.0, 0.0, 0.0, 0.0, 0.0, 0.0, 0.0, 0.0, 0.0, 1.700944628838314E9, 0.0, 2023-11-25 15:37:08.838
30.0, 70913.54679030739, 81368.1058726437, -18033.32037130837, -19563.431389740872, -8722.34359053893, -4073.6948339575333, -19582.184503338874, 187500.0, -0.092, 0.982, -0.028, 192.0, 253.0, 32.0, 30.0, 176.0, 255.0, 32.0, 0.0, 0.0, 0.0, 1.700944628842364E9, 0.0, 2023-11-25 15:37:08.842
31.0, 70891.32915631881, 81400.49355035945, -18477.538940613143, -19745.374589607072, -9408.989180205963, -4138.581948111289, -19620.584800313092, 187500.0, -0.092, 0.982, -0.028, 192.0, 0.0, 0.0, 0.0, 0.0, 0.0, 0.0, 0.0, 0.0, 0.0, 1.700944628846389E9, 0.0, 2023-11-25 15:37:08.846
32.0, 70919.76057526596, 81409.56835860829, -18277.557882971512, -19676.598271918094, -9529.576841542344, -4165.851076346765, -19564.794846152647, 187500.0, -0.092, 0.982, -0.028, 192.0, 0.0, 0.0, 0.0, 0.0, 0.0, 0.0, 0.0, 0.0, 0.0, 1.700944628851366E9, 0.0, 2023-11-25 15:37:08.851
33.0, 70936.70319756308, 81361.04272139582, -17676.005384445834, -19182.60236771135, -8499.250829130511, -3823.712923969379, -19531.401339936416, 187500.0, -0.092, 0.982, -0.028, 192.0, 0.0, 0.0, 0.0, 0.0, 0.0, 0.0, 0.0, 0.0, 0.0, 1.700944628855372E9, 0.0, 2023-11-25 15:37:08.855
34.0, 70911.75865075095, 81345.93294214403, -17963.918204774644, -19515.621008350972, -8642.391400622297, -4052.7959528918213, -19584.01734638421, 187500.0, -0.092, 0.982, -0.028, 192.0, 0.0, 0.0, 0.0, 0.0, 0.0, 0.0, 0.0, 0.0, 0.0, 1.700944628859447E9, 0.0, 2023-11-25 15:37:08.859
35.0, 70892.20087435257, 81373.82791922426, -18400.291311775603, -19700.447583251906, -9262.473495301425, -4102.126252904684, -19613.36518685403, 187500.0, -0.092, 0.982, -0.028, 192.0, 0.0, 0.0, 0.0, 0.0, 0.0, 0.0, 0.0, 0.0, 0.0, 1.700944628862355E9, 0.0, 2023-11-25 15:37:08.862
36.0, 70915.02200544144, 81391.01641071039, -18399.151372808385, -19766.9663747509, -9663.217921640626, -4225.686696253621, -19585.269044073706, 187500.0, -0.092, 0.982, -0.028, 192.0, 0.0, 0.0, 0.0, 0.0, 0.0, 0.0, 0.0, 0.0, 0.0, 1.700944628866394E9, 0.0, 2023-11-25 15:37:08.866
37.0, 70937.73137780803, 81339.2497705519, -17702.8274777922, -19201.735460965094, -8614.51877528653, -3837.2580811092953, -19526.327493945064, 187500.0, -0.092, 0.982, -0.028, 192.0, 0.0, 0.0, 0.0, 0.0, 0.0, 0.0, 0.0, 0.0, 0.0, 1.700944628870489E9, 0.0, 2023-11-25 15:37:08.870
38.0, 70927.33781663631, 81324.11763955565, -17900.282788310386, -19456.56769950005, -8574.598559689352, -4023.4928159109136, -19584.084401617576, 187500.0, -0.092, 0.982, -0.028, 192.0, 0.0, 0.0, 0.0, 0.0, 0.0, 0.0, 0.0, 0.0, 0.0, 1.700944628874396E9, 0.0, 2023-11-25 15:37:08.874
39.0, 70895.03954589838, 81344.90476189909, -18317.925133457797, -19657.84515832009, -9121.456339532893, -4077.069947370285, -19612.225247886807, 187500.0, -0.092, 0.982, -0.028, 192.0, 0.0, 0.0, 0.0, 0.0, 0.0, 0.0, 0.0, 0.0, 0.0, 1.700944628878517E9, 0.0, 2023-11-25 15:37:08.878
40.0, 70904.96372043654, 81380.35462860522, -18504.830420593076, -19823.605695200647, -9730.11669279536, -4255.280405912448, -19618.819012501124, 187500.0, -0.09, 0.98, -0.03, 192.0, 253.0, 48.0, 30.0, 160.0, 255.0, 16.0, 0.0, 0.0, 0.0, 1.700944628883569E9, 0.0, 2023-11-25 15:37:08.883
41.0, 70945.50978487846, 81354.0466253813, -17772.453161770485, -19272.881063566336, -8784.950826758246, -3887.549506133736, -19519.264342697184, 187500.0, -0.09, 0.98, -0.03, 192.0, 0.0, 0.0, 0.0, 0.0, 0.0, 0.0, 0.0, 0.0, 0.0, 1.70094462888744E9, 0.0, 2023-11-25 15:37:08.887
42.0, 70931.45053761608, 81327.91743611306, -17831.685284577048, -19390.16066672333, -8513.01950371498, -3981.270370634839, -19577.758857936726, 187500.0, -0.09, 0.98, -0.03, 192.0, 0.0, 0.0, 0.0, 0.0, 0.0, 0.0, 0.0, 0.0, 0.0, 1.700944628890541E9, 0.0, 2023-11-25 15:37:08.890
43.0, 70903.35439483577, 81348.68220671204, -18230.820385315466, -19621.21064915784, -8990.341006558063, -4061.4907814849357, -19601.25054135925, 187500.0, -0.09, 0.98, -0.03, 192.0, 0.0, 0.0, 0.0, 0.0, 0.0, 0.0, 0.0, 0.0, 0.0, 1.70094462889447E9, 0.0, 2023-11-25 15:37:08.894
44.0, 70914.55261880787, 81397.63252706916, -18547.678714713897, -19835.96620988443, -9718.516137423056, -4247.390240119725, -19624.295189892673, 187500.0, -0.09, 0.98, -0.03, 192.0, 0.0, 0.0, 0.0, 0.0, 0.0, 0.0, 0.0, 0.0, 0.0, 1.700944628898467E9, 0.0, 2023-11-25 15:37:08.898
45.0, 70935.63031382923, 81358.29345682781, -17882.848427635246, -19350.128692403876, -8972.370204015995, -3941.7524864378556, -19527.758005590204, 187500.0, -0.09, 0.98, -0.03, 192.0, 0.0, 0.0, 0.0, 0.0, 0.0, 0.0, 0.0, 0.0, 0.0, 1.700944628902474E9, 0.0, 2023-11-25 15:37:08.902
46.0, 70931.22702017153, 81326.7998488903, -17781.90794967508, -19306.47573548266, -8463.063354857368, -3925.167492052018, -19577.982375381278, 187500.0, -0.09, 0.98, -0.03, 192.0, 0.0, 0.0, 0.0, 0.0, 0.0, 0.0, 0.0, 0.0, 0.0, 1.700944628906566E9, 0.0, 2023-11-25 15:37:08.906
47.0, 70902.54973203538, 81341.97668337544, -18164.391000794294, -19599.194180869363, -8886.204229140787, -4067.8833803991533, -19603.01632917122, 187500.0, -0.09, 0.98, -0.03, 192.0, 0.0, 0.0, 0.0, 0.0, 0.0, 0.0, 0.0, 0.0, 0.0, 1.700944628912557E9, 0.0, 2023-11-25 15:37:08.912
48.0, 70905.23194137, 81389.89882348763, -18566.141255633982, -19829.864183648133, -9656.71356400413, -4232.056943423384, -19636.946277254377, 187500.0, -0.09, 0.98, -0.03, 192.0, 0.0, 0.0, 0.0, 0.0, 0.0, 0.0, 0.0, 0.0, 0.0, 1.70094462891548E9, 0.0, 2023-11-25 15:37:08.915
49.0, 70930.86939226024, 81367.39061682113, -18024.08910084833, -19484.820304491557, -9201.050901538241, -4046.068077810774, -19539.58207840706, 187500.0, -0.09, 0.98, -0.03, 192.0, 0.0, 0.0, 0.0, 0.0, 0.0, 0.0, 0.0, 0.0, 0.0, 1.700944628918634E9, 0.0, 2023-11-25 15:37:08.918
50.0, 70937.30669466338, 81335.27116003886, -17726.65443738156, -19257.078380236435, -8447.931223861126, -3896.1102242601187, -19565.06306708611, 187500.0, -0.08600000000000001, 0.976, -0.028, 192.0, 253.0, 80.0, 30.0, 128.0, 255.0, 32.0, 0.0, 0.0, 0.0, 1.700944628922517E9, 0.0, 2023-11-25 15:37:08.922
51.0, 70909.8811042167, 81341.21672406397, -18087.18807544566, -19583.235035328275, -8791.388129161374, -4079.61804623819, -19597.093116890566, 187500.0, -0.08600000000000001, 0.976, -0.028, 192.0, 0.0, 0.0, 0.0, 0.0, 0.0, 0.0, 0.0, 0.0, 0.0, 1.700944628926632E9, 0.0, 2023-11-25 15:37:08.926
52.0, 70903.39909832468, 81382.88037572865, -18536.167566319415, -19795.174276253496, -9542.898481237708, -4195.109509838761, -19644.188242457898, 187500.0, -0.08600000000000001, 0.976, -0.028, 192.0, 0.0, 0.0, 0.0, 0.0, 0.0, 0.0, 0.0, 0.0, 0.0, 1.700944628930607E9, 0.0, 2023-11-25 15:37:08.930
53.0, 70935.02681672893, 81380.26522162739, -18175.052782899475, -19617.969646211823, -9423.361351890726, -4144.505160391946, -19563.565500207606, 187500.0, -0.08600000000000001, 0.976, -0.028, 192.0, 0.0, 0.0, 0.0, 0.0, 0.0, 0.0, 0.0, 0.0, 0.0, 1.700944628934574E9, 0.0, 2023-11-25 15:37:08.934
54.0, 70946.0462267454, 81340.03208160783, -17691.159867186532, -19222.768452497538, -8479.223666098556, -3867.4105843795046, -19550.087398301053, 187500.0, -0.08600000000000001, 0.976, -0.028, 192.0, 0.0, 0.0, 0.0, 0.0, 0.0, 0.0, 0.0, 0.0, 0.0, 1.700944628940548E9, 0.0, 2023-11-25 15:37:08.940
55.0, 70920.96756946655, 81342.69193919802, -18017.785908911934, -19575.836607913567, -8728.713837708692, -4097.320627846793, -19589.091192375567, 187500.0, -0.08600000000000001, 0.976, -0.028, 192.0, 0.0, 0.0, 0.0, 0.0, 0.0, 0.0, 0.0, 0.0, 0.0, 1.70094462894412E9, 0.0, 2023-11-25 15:37:08.944
56.0, 70899.9345779341, 81381.94160246153, -18470.07345796507, -19767.614575340103, -9410.062063939818, -4172.2660270054375, -19633.817033030635, 187500.0, -0.08600000000000001, 0.976, -0.028, 192.0, 0.0, 0.0, 0.0, 0.0, 0.0, 0.0, 0.0, 0.0, 0.0, 1.700944628946632E9, 0.0, 2023-11-25 15:37:08.946
57.0, 70928.00836896997, 81398.07956195826, -18311.353720587937, -19732.634095267545, -9593.011092306506, -4229.151216644194, -19573.10969509002, 187500.0, -0.08600000000000001, 0.976, -0.028, 192.0, 0.0, 0.0, 0.0, 0.0, 0.0, 0.0, 0.0, 0.0, 0.0, 1.700944628950617E9, 0.0, 2023-11-25 15:37:08.950
58.0, 70939.11718596425, 81348.81631717877, -17682.93442522698, -19190.60429222635, -8528.0622277334, -3848.9927469483314, -19535.87168882748, 187500.0, -0.08600000000000001, 0.976, -0.028, 192.0, 0.0, 0.0, 0.0, 0.0, 0.0, 0.0, 0.0, 0.0, 0.0, 1.700944628954652E9, 0.0, 2023-11-25 15:37:08.954
59.0, 70916.63133104221, 81336.32169202826, -17965.974565264532, -19504.512191356684, -8637.630479053316, -4062.675423941067, -19601.69757624836, 187500.0, -0.08600000000000001, 0.976, -0.028, 192.0, 0.0, 0.0, 0.0, 0.0, 0.0, 0.0, 0.0, 0.0, 0.0, 1.700944628958633E9, 0.0, 2023-11-25 15:37:08.958
60.0, 70896.67122324363, 81370.0057709224, -18399.732518164223, -19702.414536763972, -9250.850588184667, -4117.079569945285, -19628.094986450076, 187500.0, -0.076, 0.984, -0.034, 192.0, 253.0, 160.0, 30.0, 192.0, 254.0, 240.0, 0.0, 0.0, 0.0, 1.700944628962729E9, 0.0, 2023-11-25 15:37:08.962
61.0, 70910.99869143948, 81389.25062289841, -18436.344675582015, -19772.420200397995, -9681.054613715962, -4234.605042291289, -19609.319521107616, 187500.0, -0.076, 0.984, -0.034, 192.0, 0.0, 0.0, 0.0, 0.0, 0.0, 0.0, 0.0, 0.0, 0.0, 1.700944628967007E9, 0.0, 2023-11-25 15:37:08.967
62.0, 70942.64876158819, 81350.26918056837, -17733.449367695972, -19216.577019283417, -8654.774267050538, -3851.294976627228, -19545.281773243165, 187500.0, -0.076, 0.984, -0.034, 192.0, 0.0, 0.0, 0.0, 0.0, 0.0, 0.0, 0.0, 0.0, 0.0, 1.700944628971724E9, 0.0, 2023-11-25 15:37:08.971
63.0, 70934.33391265082, 81335.60643620568, -17903.38968078967, -19451.717370953247, -8575.179705045188, -4030.153635758595, -19602.54694253766, 187500.0, -0.076, 0.984, -0.034, 192.0, 0.0, 0.0, 0.0, 0.0, 0.0, 0.0, 0.0, 0.0, 0.0, 1.700944628974701E9, 0.0, 2023-11-25 15:37:08.974
64.0, 70908.56235129385, 81361.42270105156, -18307.71038624172, -19654.179472229418, -9102.211487556873, -4088.2458195979384, -19620.271875890718, 187500.0, -0.076, 0.984, -0.034, 192.0, 0.0, 0.0, 0.0, 0.0, 0.0, 0.0, 0.0, 0.0, 0.0, 1.700944628978686E9, 0.0, 2023-11-25 15:37:08.978
65.0, 70920.56523806635, 81399.19714918103, -18516.5203829432, -19817.458965475438, -9726.249841004592, -4259.571940847867, -19624.31754163713, 187500.0, -0.076, 0.984, -0.034, 192.0, 0.0, 0.0, 0.0, 0.0, 0.0, 0.0, 0.0, 0.0, 0.0, 1.700944628982804E9, 0.0, 2023-11-25 15:37:08.982
66.0, 70951.79062507041, 81363.56846851927, -17806.316054620274, -19286.15799977279, -8825.385132477895, -3911.3764657230936, -19537.14573826143, 187500.0, -0.076, 0.984, -0.034, 192.0, 0.0, 0.0, 0.0, 0.0, 0.0, 0.0, 0.0, 0.0, 0.0, 1.700944628986852E9, 0.0, 2023-11-25 15:37:08.986
67.0, 70946.6944273346, 81344.36832003217, -17841.251831203917, -19385.533855621085, -8516.819300272382, -3992.1780219290285, -19597.651910501947, 187500.0, -0.076, 0.984, -0.034, 192.0, 0.0, 0.0, 0.0, 0.0, 0.0, 0.0, 0.0, 0.0, 0.0, 1.700944628990767E9, 0.0, 2023-11-25 15:37:08.990
68.0, 70915.64785428619, 81356.5500207603, -18235.693065606723, -19634.576992342114, -8988.01642513471, -4087.3070463308154, -19616.6285415445, 187500.0, -0.076, 0.984, -0.034, 192.0, 0.0, 0.0, 0.0, 0.0, 0.0, 0.0, 0.0, 0.0, 0.0, 1.700944628994803E9, 0.0, 2023-11-25 15:37:08.994
69.0, 70914.35145310777, 81393.85508225621, -18573.450276070867, -19848.8855181796, -9729.848471861897, -4260.89069377073, -19645.97638201432, 187500.0, -0.076, 0.984, -0.034, 192.0, 0.0, 0.0, 0.0, 0.0, 0.0, 0.0, 0.0, 0.0, 0.0, 1.700944628998828E9, 0.0, 2023-11-25 15:37:08.998
70.0, 70940.9947324985, 81363.12143363016, -17926.41197757864, -19404.197562241265, -9048.74611481978, -3987.6853212935116, -19546.175843021374, 187500.0, -0.078, 0.982, -0.028, 192.0, 253.0, 144.0, 30.0, 176.0, 255.0, 32.0, 0.0, 0.0, 0.0, 1.700944629002781E9, 0.0, 2023-11-25 15:37:09.002
71.0, 70945.17450871164, 81338.98154961843, -17779.628071740637, -19321.004369378614, -8483.537552778429, -3942.6689079605235, -19585.559616751627, 187500.0, -0.078, 0.982, -0.028, 192.0, 0.0, 0.0, 0.0, 0.0, 0.0, 0.0, 0.0, 0.0, 0.0, 1.70094462900579E9, 0.0, 2023-11-25 15:37:09.005
72.0, 70917.86067698726, 81356.66177948259, -18151.047009354475, -19606.749070495258, -8879.252836615186, -4083.350787562226, -19601.11643089252, 187500.0, -0.078, 0.982, -0.028, 192.0, 0.0, 0.0, 0.0, 0.0, 0.0, 0.0, 0.0, 0.0, 0.0, 1.700944629010841E9, 0.0, 2023-11-25 15:37:09.010
73.0, 70909.94815945008, 81399.42066662558, -18564.66604049993, -19825.192669056974, -9642.721371975109, -4228.100684654794, -19641.55073661217, 187500.0, -0.078, 0.982, -0.028, 192.0, 0.0, 0.0, 0.0, 0.0, 0.0, 0.0, 0.0, 0.0, 0.0, 1.700944629014919E9, 0.0, 2023-11-25 15:37:09.014
74.0, 70935.40679638468, 81373.98438143544, -18060.52244431048, -19507.037938480134, -9251.185864351495, -4063.0777553412627, -19555.608279181513, 187500.0, -0.078, 0.982, -0.028, 192.0, 0.0, 0.0, 0.0, 0.0, 0.0, 0.0, 0.0, 0.0, 0.0, 1.700944629018891E9, 0.0, 2023-11-25 15:37:09.018
75.0, 70946.35915116778, 81339.38388101863, -17731.325951972718, -19242.95207774068, -8457.542473976908, -3883.325026431683, -19575.814256169113, 187500.0, -0.078, 0.982, -0.028, 192.0, 0.0, 0.0, 0.0, 0.0, 0.0, 0.0, 0.0, 0.0, 0.0, 1.700944629022853E9, 0.0, 2023-11-25 15:37:09.022
76.0, 70920.81110725536, 81349.30805555679, -18083.38827888826, -19571.902700889434, -8779.631111577883, -4071.571418234279, -19596.757840723734, 187500.0, -0.078, 0.982, -0.028, 192.0, 0.0, 0.0, 0.0, 0.0, 0.0, 0.0, 0.0, 0.0, 0.0, 1.700944629026842E9, 0.0, 2023-11-25 15:37:09.026
77.0, 70902.8850082022, 81387.2613176419, -18533.552412218145, -19774.92359577699, -9511.136652366717, -4167.974492070019, -19638.26503017724, 187500.0, -0.078, 0.982, -0.028, 192.0, 0.0, 0.0, 0.0, 0.0, 0.0, 0.0, 0.0, 0.0, 0.0, 1.700944629030873E9, 0.0, 2023-11-25 15:37:09.030
78.0, 70927.47192710303, 81384.1097216737, -18223.28784743403, -19634.7334545533, -9458.230073241004, -4145.376878425704, -19571.276852044684, 187500.0, -0.078, 0.982, -0.028, 192.0, 0.0, 0.0, 0.0, 0.0, 0.0, 0.0, 0.0, 0.0, 0.0, 1.70094462903387E9, 0.0, 2023-11-25 15:37:09.033
79.0, 70941.48647087652, 81345.39650027711, -17711.991693018877, -19202.495420276573, -8479.87186668776, -3847.718697514379, -19562.76083740721, 187500.0, -0.078, 0.982, -0.028, 192.0, 0.0, 0.0, 0.0, 0.0, 0.0, 0.0, 0.0, 0.0, 0.0, 1.700944629037876E9, 0.0, 2023-11-25 15:37:09.037
80.0, 70920.69934853307, 81348.90572415659, -18040.249412089517, -19554.20011928083, -8708.753729910104, -4080.4003572941256, -19607.30786410664, 187500.0, -0.088, 0.984, -0.03, 192.0, 253.0, 64.0, 30.0, 192.0, 255.0, 16.0, 0.0, 0.0, 0.0, 1.700944629043404E9, 0.0, 2023-11-25 15:37:09.043
81.0, 70905.16488613664, 81391.95518397751, -18480.22114994778, -19765.222938683386, -9388.112650884706, -4163.414736201136, -19634.018198730733, 187500.0, -0.088, 0.984, -0.03, 192.0, 0.0, 0.0, 0.0, 0.0, 0.0, 0.0, 0.0, 0.0, 0.0, 1.700944629046972E9, 0.0, 2023-11-25 15:37:09.046
82.0, 70916.47486883102, 81396.42553286857, -18359.633488611402, -19746.246307640828, -9616.927458873684, -4230.514673055968, -19589.672337731405, 187500.0, -0.088, 0.984, -0.03, 192.0, 0.0, 0.0, 0.0, 0.0, 0.0, 0.0, 0.0, 0.0, 0.0, 1.700944629050997E9, 0.0, 2023-11-25 15:37:09.050
83.0, 70936.85965977427, 81355.18656434854, -17715.32210294272, -19189.442001514675, -8548.938757054659, -3838.912110198988, -19547.20402326632, 187500.0, -0.088, 0.984, -0.03, 192.0, 0.0, 0.0, 0.0, 0.0, 0.0, 0.0, 0.0, 0.0, 0.0, 1.700944629053915E9, 0.0, 2023-11-25 15:37:09.053
84.0, 70930.62352307123, 81356.68413122704, -17967.002745509475, -19492.28578713963, -8623.66063876875, -4050.091391812729, -19597.40604131294, 187500.0, -0.088, 0.984, -0.03, 192.0, 0.0, 0.0, 0.0, 0.0, 0.0, 0.0, 0.0, 0.0, 0.0, 1.700944629057962E9, 0.0, 2023-11-25 15:37:09.057
85.0, 70912.22803738451, 81390.94935547703, -18394.524561706134, -19690.389298247017, -9222.776797148801, -4106.395436095648, -19625.32337013762, 187500.0, -0.088, 0.984, -0.03, 192.0, 0.0, 0.0, 0.0, 0.0, 0.0, 0.0, 0.0, 0.0, 0.0, 1.700944629062003E9, 0.0, 2023-11-25 15:37:09.062
86.0, 70916.25135138647, 81403.80160853882, -18473.64973707792, -19787.68644186097, -9703.831041315918, -4243.769257517964, -19620.294227635175, 187500.0, -0.088, 0.984, -0.03, 192.0, 0.0, 0.0, 0.0, 0.0, 0.0, 0.0, 0.0, 0.0, 0.0, 1.700944629065947E9, 0.0, 2023-11-25 15:37:09.065
87.0, 70944.3921976557, 81366.25067785391, -17760.785551164812, -19217.336978594896, -8687.072537788456, -3853.641909795035, -19553.998953580733, 187500.0, -0.088, 0.984, -0.03, 192.0, 0.0, 0.0, 0.0, 0.0, 0.0, 0.0, 0.0, 0.0, 0.0, 1.700944629070986E9, 0.0, 2023-11-25 15:37:09.070
88.0, 70933.97628473953, 81353.7560527034, -17908.821154692312, -19434.193603300286, -8572.944530599658, -4016.1167402406622, -19615.309788621642, 187500.0, -0.088, 0.984, -0.03, 192.0, 0.0, 0.0, 0.0, 0.0, 0.0, 0.0, 0.0, 0.0, 0.0, 1.70094462907516E9, 0.0, 2023-11-25 15:37:09.075
89.0, 70916.40781359766, 81389.25062289841, -18314.684130511778, -19670.22802474833, -9107.687664948424, -4097.81236622481, -19628.16204168344, 187500.0, -0.088, 0.982, -0.026000000000000002, 192.0, 253.0, 64.0, 30.0, 176.0, 255.0, 48.0, 0.0, 0.0, 0.0, 1.700944629079319E9, 0.0, 2023-11-25 15:37:09.079
90.0, 70923.02392995643, 81421.52654189189, -18549.131578103494, -19851.16539611404, -9760.73858269913, -4274.32409218837, -19634.0852539641, 187500.0, -0.088, 0.982, -0.026000000000000002, 192.0, 0.0, 0.0, 0.0, 0.0, 0.0, 0.0, 0.0, 0.0, 0.0, 1.700944629082078E9, 0.0, 2023-11-25 15:37:09.082
91.0, 70944.50395637799, 81380.04170418283, -17842.034142259854, -19316.86929665438, -8883.074984917044, -3923.8710908736102, -19545.460587198806, 187500.0, -0.088, 0.982, -0.026000000000000002, 192.0, 0.0, 0.0, 0.0, 0.0, 0.0, 0.0, 0.0, 0.0, 0.0, 1.700944629086045E9, 0.0, 2023-11-25 15:37:09.086
92.0, 70936.12205220724, 81352.39259629163, -17841.52005213738, -19367.093666445457, -8515.321733393876, -3974.4977920648807, -19604.223323371807, 187500.0, -0.088, 0.982, -0.026000000000000002, 192.0, 0.0, 0.0, 0.0, 0.0, 0.0, 0.0, 0.0, 0.0, 0.0, 1.70094462909226E9, 0.0, 2023-11-25 15:37:09.092
93.0, 70910.484601317, 81366.34008483173, -18231.379178926847, -19629.905477750955, -8974.605378461525, -4084.893057929642, -19623.065843947632, 187500.0, -0.088, 0.982, -0.026000000000000002, 192.0, 0.0, 0.0, 0.0, 0.0, 0.0, 0.0, 0.0, 0.0, 0.0, 1.70094462909506E9, 0.0, 2023-11-25 15:37:09.095
94.0, 70906.2824733594, 81400.56060559281, -18588.448296600378, -19850.60660250266, -9723.053541547482, -4255.772144290465, -19659.208614731862, 187500.0, -0.088, 0.982, -0.026000000000000002, 192.0, 0.0, 0.0, 0.0, 0.0, 0.0, 0.0, 0.0, 0.0, 0.0, 1.700944629099194E9, 0.0, 2023-11-25 15:37:09.099
95.0, 70932.52342134994, 81369.93871568903, -17967.60624260977, -19426.348140996473, -9096.176516553942, -3999.777615043833, -19565.577157208583, 187500.0, -0.088, 0.982, -0.026000000000000002, 192.0, 0.0, 0.0, 0.0, 0.0, 0.0, 0.0, 0.0, 0.0, 0.0, 1.70094462910307E9, 0.0, 2023-11-25 15:37:09.103
96.0, 70942.80522379938, 81349.68803521253, -17787.786458466824, -19317.62925596586, -8493.104099405302, -3934.711686934434, -19601.0270239147, 187500.0, -0.088, 0.982, -0.026000000000000002, 192.0, 0.0, 0.0, 0.0, 0.0, 0.0, 0.0, 0.0, 0.0, 0.0, 1.700944629107072E9, 0.0, 2023-11-25 15:37:09.107
97.0, 70920.65464504417, 81366.13891913163, -18153.505701244558, -19621.97060846932, -8881.242141871708, -4091.5315260328684, -19609.721852507813, 187500.0, -0.088, 0.982, -0.026000000000000002, 192.0, 0.0, 0.0, 0.0, 0.0, 0.0, 0.0, 0.0, 0.0, 0.0, 1.700944629110181E9, 0.0, 2023-11-25 15:37:09.110
98.0, 70914.57497055232, 81413.39050691015, -18575.73015400531, -19841.017704131333, -9645.29182258747, -4233.465103324068, -19647.45159714837, 187500.0, -0.088, 0.982, -0.026000000000000002, 192.0, 0.0, 0.0, 0.0, 0.0, 0.0, 0.0, 0.0, 0.0, 0.0, 1.700944629114562E9, 0.0, 2023-11-25 15:37:09.114
99.0, 70937.66432257465, 81398.54894859182, -18101.314377941417, -19550.9144128459, -9315.178908727039, -4094.705473745522, -19560.72682866178, 187500.0, -0.094, 0.986, -0.032, 192.0, 253.0, 16.0, 30.0, 208.0, 255.0, 0.0, 0.0, 0.0, 0.0, 1.700944629118143E9, 0.0, 2023-11-25 15:37:09.118
100.0, 70951.38829367021, 81365.02133190887, -17727.0344170373, -19241.990952729102, -8471.355852050287, -3882.073328742186, -19568.751104921237, 187500.0, -0.094, 0.986, -0.032, 192.0, 0.0, 0.0, 0.0, 0.0, 0.0, 0.0, 0.0, 0.0, 0.0, 1.700944629122181E9, 0.0, 2023-11-25 15:37:09.122
101.0, 70925.23675265751, 81371.95037269001, -18079.454371864125, -19586.20781734083, -8788.325940170997, -4088.067005642296, -19601.16113438143, 187500.0, -0.094, 0.986, -0.032, 192.0, 0.0, 0.0, 0.0, 0.0, 0.0, 0.0, 0.0, 0.0, 0.0, 1.70094462912621E9, 0.0, 2023-11-25 15:37:09.126
102.0, 70909.76934549444, 81410.50713187542, -18532.501880228745, -19796.96241580992, -9519.138576881716, -4190.616809203245, -19645.97638201432, 187500.0, -0.094, 0.986, -0.032, 192.0, 0.0, 0.0, 0.0, 0.0, 0.0, 0.0, 0.0, 0.0, 0.0, 1.700944629131272E9, 0.0, 2023-11-25 15:37:09.131
103.0, 70924.92382823513, 81396.7608090354, -18254.177958271262, -19660.61677463255, -9506.666303475655, -4169.829686859809, -19586.654852229938, 187500.0, -0.094, 0.986, -0.032, 192.0, 0.0, 0.0, 0.0, 0.0, 0.0, 0.0, 0.0, 0.0, 0.0, 1.700944629135165E9, 0.0, 2023-11-25 15:37:09.135
104.0, 70935.65266557368, 81348.79396543432, -17721.781757090303, -19208.2845220905, -8512.147785681223, -3854.7818487622562, -19576.194235824853, 187500.0, -0.094, 0.986, -0.032, 192.0, 0.0, 0.0, 0.0, 0.0, 0.0, 0.0, 0.0, 0.0, 0.0, 1.700944629138633E9, 0.0, 2023-11-25 15:37:09.138
105.0, 70917.50304907597, 81347.13993634463, -18034.840289931333, -19546.35465697702, -8708.820785143469, -4074.968883391486, -19619.757785768245, 187500.0, -0.094, 0.986, -0.032, 192.0, 0.0, 0.0, 0.0, 0.0, 0.0, 0.0, 0.0, 0.0, 0.0, 1.700944629142181E9, 0.0, 2023-11-25 15:37:09.142
106.0, 70905.50016230348, 81391.99988746642, -18476.75662955721, -19746.58158380766, -9367.057307607807, -4143.879311547197, -19649.73147508281, 187500.0, -0.094, 0.986, -0.032, 192.0, 0.0, 0.0, 0.0, 0.0, 0.0, 0.0, 0.0, 0.0, 0.0, 1.700944629146356E9, 0.0, 2023-11-25 15:37:09.146
107.0, 70920.27466538842, 81405.58974809526, -18400.380718753426, -19762.317211904196, -9660.848636728364, -4233.733324257532, -19615.130974665997, 187500.0, -0.094, 0.986, -0.032, 192.0, 0.0, 0.0, 0.0, 0.0, 0.0, 0.0, 0.0, 0.0, 0.0, 1.700944629150249E9, 0.0, 2023-11-25 15:37:09.150
108.0, 70951.7459215815, 81374.27495411337, -17724.955704802956, -19215.481783805106, -8604.169917603722, -3855.5418080737363, -19557.30701176012, 187500.0, -0.094, 0.986, -0.032, 192.0, 0.0, 0.0, 0.0, 0.0, 0.0, 0.0, 0.0, 0.0, 0.0, 1.70094462915429E9, 0.0, 2023-11-25 15:37:09.154
109.0, 70928.52245909243, 81354.82893643725, -17961.258347184463, -19494.43155460734, -8633.026019695524, -4054.293519770327, -19615.68976827738, 187500.0, -0.084, 0.986, -0.028, 192.0, 253.0, 96.0, 30.0, 208.0, 255.0, 32.0, 0.0, 0.0, 0.0, 1.700944629160192E9, 0.0, 2023-11-25 15:37:09.160
110.0, 70914.55261880787, 81393.45275085601, -18393.49638146119, -19699.28529254023, -9217.568840690714, -4117.951287979042, -19645.685809336403, 187500.0, -0.084, 0.986, -0.028, 192.0, 0.0, 0.0, 0.0, 0.0, 0.0, 0.0, 0.0, 0.0, 0.0, 1.70094462916335E9, 0.0, 2023-11-25 15:37:09.163
111.0, 70924.83442125731, 81417.4138209121, -18506.32798747158, -19820.655264932546, -9741.449027234201, -4271.485420642545, -19637.952105754866, 187500.0, -0.084, 0.986, -0.028, 192.0, 0.0, 0.0, 0.0, 0.0, 0.0, 0.0, 0.0, 0.0, 0.0, 1.70094462916629E9, 0.0, 2023-11-25 15:37:09.166
112.0, 70948.28140119094, 81374.52082330237, -17789.686356745526, -19256.921918025248, -8744.53887278305, -3892.623352125091, -19567.432351998374, 187500.0, -0.084, 0.986, -0.028, 192.0, 0.0, 0.0, 0.0, 0.0, 0.0, 0.0, 0.0, 0.0, 0.0, 1.700944629170314E9, 0.0, 2023-11-25 15:37:09.170
113.0, 70934.62448532874, 81354.11368061468, -17909.134079114687, -19431.13141430991, -8566.618986918806, -4025.906804312087, -19625.54688758217, 187500.0, -0.084, 0.986, -0.028, 192.0, 0.0, 0.0, 0.0, 0.0, 0.0, 0.0, 0.0, 0.0, 0.0, 1.700944629174322E9, 0.0, 2023-11-25 15:37:09.174
114.0, 70907.5341710489, 81378.96882044898, -18313.700653755743, -19654.64885886298, -9075.165876765952, -4097.47709005798, -19639.293210422184, 187500.0, -0.084, 0.986, -0.028, 192.0, 0.0, 0.0, 0.0, 0.0, 0.0, 0.0, 0.0, 0.0, 0.0, 1.700944629178344E9, 0.0, 2023-11-25 15:37:09.178
115.0, 70906.2824733594, 81409.65776558612, -18584.44733434288, -19834.15571858355, -9755.485922752134, -4265.137525217238, -19660.79558858819, 187500.0, -0.084, 0.986, -0.028, 192.0, 0.0, 0.0, 0.0, 0.0, 0.0, 0.0, 0.0, 0.0, 0.0, 1.70094462918247E9, 0.0, 2023-11-25 15:37:09.182
116.0, 70943.1404999662, 81382.94743096203, -17891.029166105887, -19330.503860772118, -8936.741523354236, -3942.0430591157747, -19569.242843299253, 187500.0, -0.084, 0.986, -0.028, 192.0, 0.0, 0.0, 0.0, 0.0, 0.0, 0.0, 0.0, 0.0, 0.0, 1.700944629186413E9, 0.0, 2023-11-25 15:37:09.186
117.0, 70937.1949359411, 81353.57723874775, -17848.225575473974, -19360.343439619952, -8527.101102721823, -3979.5269345673246, -19615.108622921543, 187500.0, -0.084, 0.986, -0.028, 192.0, 0.0, 0.0, 0.0, 0.0, 0.0, 0.0, 0.0, 0.0, 0.0, 1.700944629191706E9, 0.0, 2023-11-25 15:37:09.191
118.0, 70906.2824733594, 81365.91540168707, -18230.395702170816, -19621.009483457743, -8962.736602155757, -4087.776432964377, -19629.771367284226, 187500.0, -0.084, 0.986, -0.028, 192.0, 0.0, 0.0, 0.0, 0.0, 0.0, 0.0, 0.0, 0.0, 0.0, 1.700944629194865E9, 0.0, 2023-11-25 15:37:09.194
119.0, 70914.79848799689, 81415.08923948875, -18605.905009019974, -19847.902041423564, -9724.662867148265, -4260.086030970339, -19660.862643821554, 187500.0, -0.08600000000000001, 0.984, -0.034, 192.0, 253.0, 80.0, 30.0, 192.0, 254.0, 240.0, 0.0, 0.0, 0.0, 1.700944629198482E9, 0.0, 2023-11-25 15:37:09.198
120.0, 70945.80035755639, 81388.20009090903, -18008.487583218524, -19448.677533707327, -9150.066572435686, -4024.833920578232, -19565.130122319475, 187500.0, -0.08600000000000001, 0.984, -0.034, 192.0, 0.0, 0.0, 0.0, 0.0, 0.0, 0.0, 0.0, 0.0, 0.0, 1.700944629202508E9, 0.0, 2023-11-25 15:37:09.202
121.0, 70953.31054369337, 81366.51889878737, -17789.9992811679, -19286.51562768407, -8483.023462655958, -3917.5455471927585, -19600.177657625398, 187500.0, -0.08600000000000001, 0.984, -0.034, 192.0, 0.0, 0.0, 0.0, 0.0, 0.0, 0.0, 0.0, 0.0, 0.0, 1.700944629206421E9, 0.0, 2023-11-25 15:37:09.206
122.0, 70921.70517703357, 81374.61023028019, -18161.105294359364, -19609.721852507813, -8863.159580607366, -4092.38089232217, -19622.439995102883, 187500.0, -0.08600000000000001, 0.984, -0.034, 192.0, 0.0, 0.0, 0.0, 0.0, 0.0, 0.0, 0.0, 0.0, 0.0, 1.700944629210434E9, 0.0, 2023-11-25 15:37:09.210
123.0, 70905.27664485892, 81412.16116096512, -18594.01388096975, -19816.386081741584, -9613.75351116103, -4213.996733903496, -19670.339783470605, 187500.0, -0.08600000000000001, 0.984, -0.034, 192.0, 0.0, 0.0, 0.0, 0.0, 0.0, 0.0, 0.0, 0.0, 0.0, 1.700944629214469E9, 0.0, 2023-11-25 15:37:09.214
124.0, 70929.88591550422, 81397.29725090232, -18157.037276868497, -19554.177767536374, -9346.85133062021, -4093.4090725671144, -19586.654852229938, 187500.0, -0.08600000000000001, 0.984, -0.034, 192.0, 0.0, 0.0, 0.0, 0.0, 0.0, 0.0, 0.0, 0.0, 0.0, 1.700944629219451E9, 0.0, 2023-11-25 15:37:09.219
125.0, 70946.15798546768, 81358.58402950574, -17750.928431860022, -19221.784975741502, -8476.899084675204, -3868.0587849687086, -19595.908474434433, 187500.0, -0.08600000000000001, 0.984, -0.034, 192.0, 0.0, 0.0, 0.0, 0.0, 0.0, 0.0, 0.0, 0.0, 0.0, 1.700944629222578E9, 0.0, 2023-11-25 15:37:09.222
126.0, 70924.63325555722, 81363.97079991947, -18091.256092936528, -19564.19134905235, -8766.30947188252, -4076.33233980326, -19626.30684689365, 187500.0, -0.08600000000000001, 0.984, -0.034, 192.0, 0.0, 0.0, 0.0, 0.0, 0.0, 0.0, 0.0, 0.0, 0.0, 1.700944629225524E9, 0.0, 2023-11-25 15:37:09.225
127.0, 70910.52930480591, 81407.93668126306, -18544.884746656986, -19770.877930030576, -9480.984149096508, -4164.420564701625, -19671.300908482186, 187500.0, -0.08600000000000001, 0.984, -0.034, 192.0, 0.0, 0.0, 0.0, 0.0, 0.0, 0.0, 0.0, 0.0, 0.0, 1.700944629230566E9, 0.0, 2023-11-25 15:37:09.230
128.0, 70933.23867717251, 81413.27874818788, -18303.6200170064, -19680.822751620144, -9543.569033571368, -4177.473983463524, -19608.112526907033, 187500.0, -0.08600000000000001, 0.984, -0.034, 192.0, 0.0, 0.0, 0.0, 0.0, 0.0, 0.0, 0.0, 0.0, 0.0, 1.700944629234858E9, 0.0, 2023-11-25 15:37:09.234
129.0, 70946.91794477915, 81372.91149770159, -17731.258896739353, -19203.411841799243, -8526.698771321628, -3844.432991079449, -19583.63736672847, 187500.0, -0.08600000000000001, 0.978, -0.026000000000000002, 192.0, 253.0, 80.0, 30.0, 144.0, 255.0, 48.0, 0.0, 0.0, 0.0, 1.700944629238511E9, 0.0, 2023-11-25 15:37:09.238
130.0, 70923.02392995643, 81371.34687558972, -18035.13086260925, -19537.30220047262, -8697.913133849279, -4069.6938717000335, -19637.259201676752, 187500.0, -0.08600000000000001, 0.978, -0.026000000000000002, 192.0, 0.0, 0.0, 0.0, 0.0, 0.0, 0.0, 0.0, 0.0, 0.0, 1.700944629242682E9, 0.0, 2023-11-25 15:37:09.242
131.0, 70899.97928142302, 81408.00373649642, -18479.908225525407, -19730.51067954429, -9336.435417704037, -4130.445913129558, -19672.664364893957, 187500.0, -0.08600000000000001, 0.978, -0.026000000000000002, 192.0, 0.0, 0.0, 0.0, 0.0, 0.0, 0.0, 0.0, 0.0, 0.0, 1.70094462924655E9, 0.0, 2023-11-25 15:37:09.246
132.0, 70915.2902263749, 81418.8666843017, -18448.034637932138, -19763.233633426862, -9676.897189247275, -4229.620603277755, -19642.243640690285, 187500.0, -0.08600000000000001, 0.978, -0.026000000000000002, 192.0, 0.0, 0.0, 0.0, 0.0, 0.0, 0.0, 0.0, 0.0, 0.0, 1.700944629250535E9, 0.0, 2023-11-25 15:37:09.250
133.0, 70949.93543028062, 81384.08736992924, -17763.356001777174, -19216.2864466055, -8634.367124362841, -3855.921787729477, -19581.268081816208, 187500.0, -0.08600000000000001, 0.978, -0.026000000000000002, 192.0, 0.0, 0.0, 0.0, 0.0, 0.0, 0.0, 0.0, 0.0, 0.0, 1.700944629253592E9, 0.0, 2023-11-25 15:37:09.253
134.0, 70941.0394359874, 81385.54023331884, -17974.647042113193, -19495.549141830106, -8638.23397615361, -4060.9766913624635, -19628.854945761555, 187500.0, -0.08600000000000001, 0.978, -0.026000000000000002, 192.0, 0.0, 0.0, 0.0, 0.0, 0.0, 0.0, 0.0, 0.0, 0.0, 1.700944629258888E9, 0.0, 2023-11-25 15:37:09.258
135.0, 70913.3903280962, 81411.11062897572, -18393.87636111693, -19693.98792910432, -9198.43574743697, -4117.995991467952, -19653.79949257368, 187500.0, -0.08600000000000001, 0.978, -0.026000000000000002, 192.0, 0.0, 0.0, 0.0, 0.0, 0.0, 0.0, 0.0, 0.0, 0.0, 1.700944629262604E9, 0.0, 2023-11-25 15:37:09.262
136.0, 70922.10750843376, 81433.30591121982, -18545.421188523913, -19822.041073088774, -9757.296414053013, -4271.932455531652, -19663.611908389557, 187500.0, -0.08600000000000001, 0.978, -0.026000000000000002, 192.0, 0.0, 0.0, 0.0, 0.0, 0.0, 0.0, 0.0, 0.0, 0.0, 1.700944629266604E9, 0.0, 2023-11-25 15:37:09.266
137.0, 70948.10258723529, 81387.59659380873, -17822.319903650274, -19259.84999654889, -8786.0237104921, -3895.618485882102, -19585.805485940637, 187500.0, -0.08600000000000001, 0.978, -0.026000000000000002, 192.0, 0.0, 0.0, 0.0, 0.0, 0.0, 0.0, 0.0, 0.0, 0.0, 1.700944629270595E9, 0.0, 2023-11-25 15:37:09.270
138.0, 70938.35722665278, 81367.12239588767, -17915.951361173557, -19413.048853045566, -8570.418783476209, -4016.6531821075896, -19640.231983689308, 187500.0, -0.08600000000000001, 0.978, -0.026000000000000002, 192.0, 0.0, 0.0, 0.0, 0.0, 0.0, 0.0, 0.0, 0.0, 0.0, 1.700944629274662E9, 0.0, 2023-11-25 15:37:09.274
139.0, 70904.62844426972, 81383.14859666213, -18318.685092769276, -19630.866602762533, -9055.518693389737, -4083.2390288399497, -19662.382562444516, 187500.0, -0.088, 0.978, -0.032, 192.0, 253.0, 64.0, 30.0, 144.0, 255.0, 0.0, 0.0, 0.0, 0.0, 1.700944629277697E9, 0.0, 2023-11-25 15:37:09.277
140.0, 70916.16194440865, 81426.95801579452, -18617.796137070196, -19837.284962807295, -9769.634576992343, -4266.322167673369, -19681.962690587367, 187500.0, -0.088, 0.978, -0.032, 192.0, 0.0, 0.0, 0.0, 0.0, 0.0, 0.0, 0.0, 0.0, 0.0, 1.70094462928185E9, 0.0, 2023-11-25 15:37:09.281
141.0, 70938.0890057193, 81391.12816943266, -17930.50234681396, -19351.961535449213, -8991.59270424756, -3960.4385448024923, -19577.512988747716, 187500.0, -0.088, 0.978, -0.032, 192.0, 0.0, 0.0, 0.0, 0.0, 0.0, 0.0, 0.0, 0.0, 0.0, 1.700944629286681E9, 0.0, 2023-11-25 15:37:09.286
142.0, 70937.6419708302, 81367.9047069436, -17853.277069720873, -19335.19772710773, -8520.037951473947, -3959.0303849018082, -19625.524535837714, 187500.0, -0.088, 0.978, -0.032, 192.0, 0.0, 0.0, 0.0, 0.0, 0.0, 0.0, 0.0, 0.0, 0.0, 1.70094462929079E9, 0.0, 2023-11-25 15:37:09.290
143.0, 70914.39615659669, 81383.19330015103, -18236.02834177355, -19613.700463020858, -8947.269194992685, -4085.4071480521143, -19644.389408157997, 187500.0, -0.088, 0.978, -0.032, 192.0, 0.0, 0.0, 0.0, 0.0, 0.0, 0.0, 0.0, 0.0, 0.0, 1.700944629294684E9, 0.0, 2023-11-25 15:37:09.294
144.0, 70921.45930784456, 81436.65867288812, -18619.696035348898, -19836.077968606707, -9708.30139020698, -4247.524350586456, -19670.60800440407, 187500.0, -0.088, 0.978, -0.032, 192.0, 0.0, 0.0, 0.0, 0.0, 0.0, 0.0, 0.0, 0.0, 0.0, 1.700944629298702E9, 0.0, 2023-11-25 15:37:09.298
145.0, 70954.71870359406, 81418.50905639042, -18040.94231616763, -19455.13718785491, -9189.182125232473, -4031.22651949245, -19568.371125265494, 187500.0, -0.088, 0.978, -0.032, 192.0, 0.0, 0.0, 0.0, 0.0, 0.0, 0.0, 0.0, 0.0, 0.0, 1.700944629302794E9, 0.0, 2023-11-25 15:37:09.302
146.0, 70956.5515466394, 81383.39446585113, -17785.41717355456, -19257.838339547914, -8481.660006244183, -3903.553355163736, -19601.83168671509, 187500.0, -0.088, 0.978, -0.032, 192.0, 0.0, 0.0, 0.0, 0.0, 0.0, 0.0, 0.0, 0.0, 0.0, 1.700944629305764E9, 0.0, 2023-11-25 15:37:09.305
147.0, 70931.13761319371, 81390.63643105465, -18154.60093672287, -19591.460477287827, -8852.497798502183, -4092.962037678008, -19629.011407972743, 187500.0, -0.088, 0.978, -0.032, 192.0, 0.0, 0.0, 0.0, 0.0, 0.0, 0.0, 0.0, 0.0, 0.0, 1.700944629310633E9, 0.0, 2023-11-25 15:37:09.310
148.0, 70923.15804042316, 81431.7189373635, -18591.510485590756, -19814.843811374165, -9609.774900647986, -4221.573975273845, -19669.46806543685, 187500.0, -0.088, 0.978, -0.032, 192.0, 0.0, 0.0, 0.0, 0.0, 0.0, 0.0, 0.0, 0.0, 0.0, 1.700944629313828E9, 0.0, 2023-11-25 15:37:09.313
149.0, 70939.51951736445, 81408.09314347424, -18193.64943428629, -19583.883235917478, -9407.513965071914, -4126.936689250075, -19594.947349422855, 187500.0, -0.084, 0.982, -0.032, 192.0, 253.0, 96.0, 30.0, 176.0, 255.0, 0.0, 0.0, 0.0, 0.0, 1.700944629318745E9, 0.0, 2023-11-25 15:37:09.318
150.0, 70953.33289543782, 81367.34591333222, -17755.823463895736, -19221.069719918934, -8498.692035519129, -3873.825535038178, -19604.625654772004, 187500.0, -0.084, 0.982, -0.032, 192.0, 0.0, 0.0, 0.0, 0.0, 0.0, 0.0, 0.0, 0.0, 0.0, 1.70094462932291E9, 0.0, 2023-11-25 15:37:09.322
151.0, 70934.91505800665, 81373.67145701307, -18088.953863257633, -19584.844360929055, -8777.954730743735, -4102.752101749433, -19635.158137697952, 187500.0, -0.084, 0.982, -0.032, 192.0, 0.0, 0.0, 0.0, 0.0, 0.0, 0.0, 0.0, 0.0, 0.0, 1.700944629326846E9, 0.0, 2023-11-25 15:37:09.326
152.0, 70921.5934183113, 81418.30789069032, -18535.04997909665, -19769.737991063357, -9463.34862272127, -4171.707233394055, -19673.916062583456, 187500.0, -0.084, 0.982, -0.032, 192.0, 0.0, 0.0, 0.0, 0.0, 0.0, 0.0, 0.0, 0.0, 0.0, 1.700944629329854E9, 0.0, 2023-11-25 15:37:09.329
153.0, 70946.76148256796, 81420.1630854801, -18335.49360459967, -19690.23283603583, -9577.23076072106, -4194.595419716289, -19618.103756678553, 187500.0, -0.084, 0.982, -0.032, 192.0, 0.0, 0.0, 0.0, 0.0, 0.0, 0.0, 0.0, 0.0, 0.0, 1.700944629333843E9, 0.0, 2023-11-25 15:37:09.333
154.0, 70962.00537228648, 81367.34591333222, -17742.45712071146, -19192.79476318297, -8548.692887865649, -3853.1278196725634, -19594.656776744938, 187500.0, -0.084, 0.982, -0.032, 192.0, 0.0, 0.0, 0.0, 0.0, 0.0, 0.0, 0.0, 0.0, 0.0, 1.700944629337786E9, 0.0, 2023-11-25 15:37:09.337
