%OpenBCI Raw EXG Data
%Number of channels = 8
%Sample Rate = 250 Hz
%Board = OpenBCI_GUI$BoardCytonSerial
Sample Index, EXG Channel 0, EXG Channel 1, EXG Channel 2, EXG Channel 3, EXG Channel 4, EXG Channel 5, EXG Channel 6, EXG Channel 7, Accel Channel 0, Accel Channel 1, Accel Channel 2, Other, Other, Other, Other, Other, Other, Other, Analog Channel 0, Analog Channel 1, Analog Channel 2, Timestamp, Other, Timestamp (Formatted)
100.0, 38025.07824004629, 57839.31855432017, 18569.695183002375, -7988.3793578600125, 24552.00547599858, 33207.60675759396, 11689.135335580748, 33418.31665257414, 0.0, 0.0, 0.0, 192.0, 0.0, 0.0, 0.0, 0.0, 0.0, 0.0, 0.0, 0.0, 0.0, 1.700951554813508E9, 0.0, 2023-11-25 17:32:34.813
101.0, 38021.63607140018, 57893.23096194637, 18550.85266242655, -7931.3824094989795, 24511.07943190091, 33124.100640308934, 11694.07507110537, 33467.69165607591, -0.12, 0.976, 0.008, 192.0, 252.0, 64.0, 30.0, 128.0, 0.0, 64.0, 0.0, 0.0, 0.0, 1.700951554813534E9, 0.0, 2023-11-25 17:32:34.813
102.0, 38089.78654024441, 57974.92658793052, 18555.099493873062, -7901.475775417778, 24494.360327048344, 33212.412382651855, 11697.07020486238, 33468.00458049829, -0.12, 0.976, 0.008, 192.0, 0.0, 0.0, 0.0, 0.0, 0.0, 0.0, 0.0, 0.0, 0.0, 1.700951554813551E9, 0.0, 2023-11-25 17:32:34.813
0.0, 0.0, 0.0, 0.0, 0.0, 0.0, 0.0, 0.0, 0.0, -0.116, 0.978, 0.004, 192.0, 252.0, 96.0, 30.0, 144.0, 0.0, 32.0, 0.0, 0.0, 0.0, 1.700951554914164E9, 0.0, 2023-11-25 17:32:34.914
1.0, 38159.99336957853, 57849.62270851406, 18399.151372808385, -7485.95684599362, 24621.765270443593, 32906.37229756979, 11632.428959897634, 33644.873934373136, -0.116, 0.978, 0.004, 192.0, 0.0, 0.0, 0.0, 0.0, 0.0, 0.0, 0.0, 0.0, 0.0, 1.700951554931409E9, 0.0, 2023-11-25 17:32:34.931
2.0, 38186.12255884678, 57928.94904958595, 18380.644128399388, -7430.5692232333695, 24583.230863002642, 32978.30021122697, 11624.20351793808, 33667.22567882844, -0.116, 0.978, 0.004, 192.0, 0.0, 0.0, 0.0, 0.0, 0.0, 0.0, 0.0, 0.0, 0.0, 1.700951554934241E9, 0.0, 2023-11-25 17:32:34.934
3.0, 38276.17773725721, 57997.03246319681, 18403.375852510435, -7384.144649999696, 24656.008142949122, 33066.20962216969, 11631.19961395259, 33671.2489928304, -0.116, 0.978, 0.004, 192.0, 0.0, 0.0, 0.0, 0.0, 0.0, 0.0, 0.0, 0.0, 0.0, 1.70095155493728E9, 0.0, 2023-11-25 17:32:34.937
4.0, 38361.06966269847, 57956.93343364399, 18422.352483552993, -7356.652004319669, 24882.16309334792, 33524.263921292295, 11624.15881444917, 33671.919545164055, -0.116, 0.978, 0.004, 192.0, 0.0, 0.0, 0.0, 0.0, 0.0, 0.0, 0.0, 0.0, 0.0, 1.700951554941251E9, 0.0, 2023-11-25 17:32:34.941
5.0, 38171.146890061726, 57841.84430144362, 18401.83358214302, -7494.986950753564, 24641.926543942278, 32982.07765603992, 11620.515480102955, 33627.61838765364, -0.116, 0.978, 0.004, 192.0, 0.0, 0.0, 0.0, 0.0, 0.0, 0.0, 0.0, 0.0, 0.0, 1.700951554945483E9, 0.0, 2023-11-25 17:32:34.945
6.0, 38181.09341634434, 57908.3183894537, 18382.74519237819, -7439.688734971134, 24606.543732469527, 32946.20310618915, 11619.353189391279, 33651.780623409824, -0.116, 0.978, 0.004, 192.0, 0.0, 0.0, 0.0, 0.0, 0.0, 0.0, 0.0, 0.0, 0.0, 1.700951554949294E9, 0.0, 2023-11-25 17:32:34.949
7.0, 38246.80754504294, 57979.598102521675, 18386.947320335785, -7409.759749145478, 24609.136534826343, 33022.86958967085, 11620.381369636223, 33647.444384985494, -0.116, 0.978, 0.004, 192.0, 0.0, 0.0, 0.0, 0.0, 0.0, 0.0, 0.0, 0.0, 0.0, 1.700951554953234E9, 0.0, 2023-11-25 17:32:34.953
8.0, 38371.59733433692, 57967.90814017155, 18419.670274218355, -7344.537358824892, 24889.516817273718, 33483.98607778383, 11629.143253462704, 33672.23246958643, -0.114, 0.976, 0.004, 192.0, 252.0, 112.0, 30.0, 128.0, 0.0, 32.0, 0.0, 0.0, 0.0, 1.700951554957404E9, 0.0, 2023-11-25 17:32:34.957
9.0, 38194.839739184354, 57840.63730724303, 18401.49830597619, -7485.800383782433, 24672.280212912585, 33084.58275611195, 11624.53879410491, 33630.79233536629, -0.114, 0.976, 0.004, 192.0, 0.0, 0.0, 0.0, 0.0, 0.0, 0.0, 0.0, 0.0, 0.0, 1.700951554961315E9, 0.0, 2023-11-25 17:32:34.961
10.0, 38168.15175630472, 57881.27277866278, 18382.588730167, -7442.8403309393325, 24616.512610496597, 32901.05258238943, 11623.421206882145, 33655.87099264515, -0.114, 0.976, 0.004, 192.0, 0.0, 0.0, 0.0, 0.0, 0.0, 0.0, 0.0, 0.0, 0.0, 1.700951554964377E9, 0.0, 2023-11-25 17:32:34.964
11.0, 38212.89994870424, 57954.787666176286, 18373.335107962503, -7428.311697043383, 24571.29503146351, 33000.920176615735, 11614.301695144379, 33646.59501869619, -0.114, 0.976, 0.004, 192.0, 0.0, 0.0, 0.0, 0.0, 0.0, 0.0, 0.0, 0.0, 0.0, 1.700951554968868E9, 0.0, 2023-11-25 17:32:34.968
12.0, 38354.721767273164, 57970.67975648401, 18412.048329359095, -7346.50431233696, 24860.72777041528, 33408.437181524896, 11621.566012092355, 33668.38796954012, -0.114, 0.976, 0.004, 192.0, 0.0, 0.0, 0.0, 0.0, 0.0, 0.0, 0.0, 0.0, 0.0, 1.700951554972349E9, 0.0, 2023-11-25 17:32:34.972
13.0, 38215.76097199452, 57842.53720552173, 18393.943416350296, -7477.418479611693, 24702.499771416162, 33208.277309927624, 11608.87022124174, 33623.528018418314, -0.114, 0.976, 0.004, 192.0, 0.0, 0.0, 0.0, 0.0, 0.0, 0.0, 0.0, 0.0, 0.0, 1.700951554977395E9, 0.0, 2023-11-25 17:32:34.977
14.0, 38149.42099445117, 57852.774304482264, 18377.336070220004, -7463.068659671386, 24606.87900863636, 32855.20915451159, 11621.856584770274, 33648.47256523044, -0.114, 0.976, 0.004, 192.0, 0.0, 0.0, 0.0, 0.0, 0.0, 0.0, 0.0, 0.0, 0.0, 1.700951554982023E9, 0.0, 2023-11-25 17:32:34.982
15.0, 38191.44227402715, 57931.89947985405, 18364.6849828583, -7439.644031482224, 24541.500156104586, 32975.95327805916, 11619.39789288019, 33649.679559431024, -0.114, 0.976, 0.004, 192.0, 0.0, 0.0, 0.0, 0.0, 0.0, 0.0, 0.0, 0.0, 0.0, 1.700951554987466E9, 0.0, 2023-11-25 17:32:34.987
16.0, 38334.046403652006, 57970.791515206285, 18408.807326413076, -7355.3779548857165, 24805.094278466022, 33300.29944185012, 11633.859471542773, 33674.780568454335, -0.114, 0.976, 0.004, 192.0, 0.0, 0.0, 0.0, 0.0, 0.0, 0.0, 0.0, 0.0, 0.0, 1.700951554990429E9, 0.0, 2023-11-25 17:32:34.990
17.0, 38252.1272602233, 57863.79371449873, 18398.659634430365, -7456.005508423509, 24738.396673011386, 33339.012663246715, 11620.984866736517, 33640.537695948806, -0.114, 0.976, 0.004, 192.0, 0.0, 0.0, 0.0, 0.0, 0.0, 0.0, 0.0, 0.0, 0.0, 1.700951554993446E9, 0.0, 2023-11-25 17:32:34.993
18.0, 38138.423936179155, 57836.03284788524, 18382.454619700267, -7489.041386728452, 24589.668165405772, 32847.07311952986, 11631.713704075064, 33649.90307687558, -0.12, 0.976, -0.002, 192.0, 252.0, 64.0, 30.0, 128.0, 255.0, 240.0, 0.0, 0.0, 0.0, 1.700951554996382E9, 0.0, 2023-11-25 17:32:34.996
19.0, 38173.06914008488, 57919.18133725898, 18368.01539278214, -7449.94818567612, 24532.961789722656, 32988.64906890978, 11631.043151741404, 33663.02355087084, -0.12, 0.976, -0.002, 192.0, 0.0, 0.0, 0.0, 0.0, 0.0, 0.0, 0.0, 0.0, 0.0, 1.700951555000437E9, 0.0, 2023-11-25 17:32:35.000
20.0, 38295.087313066404, 57962.16374184653, 18402.50413447668, -7375.673338851135, 24737.122623577434, 33221.01780426715, 11644.454198414589, 33678.40155105609, -0.12, 0.976, -0.002, 192.0, 0.0, 0.0, 0.0, 0.0, 0.0, 0.0, 0.0, 0.0, 0.0, 1.700951555004454E9, 0.0, 2023-11-25 17:32:35.004
21.0, 38280.80454835946, 57877.249464660825, 18405.186343811314, -7424.891880141721, 24784.575377056048, 33448.96089422237, 11631.49018663051, 33651.73591992092, -0.12, 0.976, -0.002, 192.0, 0.0, 0.0, 0.0, 0.0, 0.0, 0.0, 0.0, 0.0, 0.0, 1.700951555009544E9, 0.0, 2023-11-25 17:32:35.009
22.0, 38133.327738443346, 57820.341923277614, 18391.97646283823, -7490.315436162405, 24592.037450318036, 32844.5026689175, 11636.698143088597, 33642.41524248305, -0.12, 0.976, -0.002, 192.0, 0.0, 0.0, 0.0, 0.0, 0.0, 0.0, 0.0, 0.0, 0.0, 1.700951555012451E9, 0.0, 2023-11-25 17:32:35.012
23.0, 38167.74942490452, 57905.94910454144, 18370.652898627868, -7444.0696768843745, 24539.801423525983, 32971.4829291681, 11626.952782506083, 33659.13434733562, -0.12, 0.976, -0.002, 192.0, 0.0, 0.0, 0.0, 0.0, 0.0, 0.0, 0.0, 0.0, 0.0, 1.700951555016738E9, 0.0, 2023-11-25 17:32:35.016
24.0, 38277.16121401325, 57971.10443962866, 18395.865666373455, -7391.118394269753, 24668.815692522014, 33113.50591343712, 11629.456177885078, 33667.13627185062, -0.12, 0.976, -0.002, 192.0, 0.0, 0.0, 0.0, 0.0, 0.0, 0.0, 0.0, 0.0, 0.0, 1.700951555020456E9, 0.0, 2023-11-25 17:32:35.020
25.0, 38326.826790192936, 57918.89076458106, 18409.477878746733, -7396.259295494473, 24824.473240908774, 33492.70325812141, 11617.00625622347, 33659.51432699136, -0.12, 0.976, -0.002, 192.0, 0.0, 0.0, 0.0, 0.0, 0.0, 0.0, 0.0, 0.0, 0.0, 1.700951555024471E9, 0.0, 2023-11-25 17:32:35.024
26.0, 38145.44238393812, 57826.555708236185, 18389.696584903788, -7506.811023570422, 24589.981089828147, 32895.9116811647, 11616.045131211893, 33631.61934991114, -0.12, 0.976, -0.002, 192.0, 0.0, 0.0, 0.0, 0.0, 0.0, 0.0, 0.0, 0.0, 0.0, 1.700951555028562E9, 0.0, 2023-11-25 17:32:35.028
27.0, 38174.47729998556, 57904.78681382976, 18372.128113761915, -7445.209615851595, 24553.950077766192, 32963.50335639755, 11618.72734054653, 33658.88847814661, -0.114, 0.982, 0.002, 192.0, 252.0, 112.0, 30.0, 176.0, 0.0, 16.0, 0.0, 0.0, 0.0, 1.700951555032511E9, 0.0, 2023-11-25 17:32:35.032
28.0, 38260.17388822721, 57969.606872750155, 18391.39531748239, -7401.333141485828, 24615.283264551552, 33055.12315691986, 11623.644724326698, 33659.827251413735, -0.114, 0.982, 0.002, 192.0, 0.0, 0.0, 0.0, 0.0, 0.0, 0.0, 0.0, 0.0, 0.0, 1.70095155503754E9, 0.0, 2023-11-25 17:32:35.037
29.0, 38356.44285159622, 57942.069523581216, 18420.921971907854, -7361.368222399738, 24856.615049435502, 33508.81886587368, 11621.029570225426, 33666.06338811677, -0.114, 0.982, 0.002, 192.0, 0.0, 0.0, 0.0, 0.0, 0.0, 0.0, 0.0, 0.0, 0.0, 1.700951555040582E9, 0.0, 2023-11-25 17:32:35.040
30.0, 38168.37527374927, 57827.62859197004, 18400.715994920254, -7496.439814143159, 24615.819706418482, 32984.1340165298, 11616.961552734561, 33622.29867247328, -0.114, 0.982, 0.002, 192.0, 0.0, 0.0, 0.0, 0.0, 0.0, 0.0, 0.0, 0.0, 0.0, 1.700951555044571E9, 0.0, 2023-11-25 17:32:35.044
31.0, 38176.399550008726, 57892.895685779535, 18383.79572436759, -7441.879205927755, 24576.19006349922, 32927.315882124414, 11614.704026544576, 33642.1917250385, -0.114, 0.982, 0.002, 192.0, 0.0, 0.0, 0.0, 0.0, 0.0, 0.0, 0.0, 0.0, 0.0, 1.700951555048545E9, 0.0, 2023-11-25 17:32:35.048
32.0, 38245.041757230974, 57966.12000061513, 18393.07169831654, -7410.363246245772, 24571.004458785592, 32995.22048177964, 11619.174375435636, 33642.92933260553, -0.114, 0.982, 0.002, 192.0, 0.0, 0.0, 0.0, 0.0, 0.0, 0.0, 0.0, 0.0, 0.0, 1.700951555052818E9, 0.0, 2023-11-25 17:32:35.052
33.0, 38367.84224126843, 57962.6331284801, 18424.185326598326, -7345.6325943032025, 24852.30116275563, 33457.87924026004, 11626.3939888947, 33672.79126319781, -0.114, 0.982, 0.002, 192.0, 0.0, 0.0, 0.0, 0.0, 0.0, 0.0, 0.0, 0.0, 0.0, 1.700951555056582E9, 0.0, 2023-11-25 17:32:35.056
34.0, 38198.14779736374, 57840.43614154293, 18402.191210054305, -7491.991816996553, 24641.03247416407, 33081.677029332765, 11619.643762069198, 33622.11985851763, -0.114, 0.982, 0.002, 192.0, 0.0, 0.0, 0.0, 0.0, 0.0, 0.0, 0.0, 0.0, 0.0, 1.70095155506058E9, 0.0, 2023-11-25 17:32:35.060
35.0, 38175.79605290843, 57885.988996742846, 18391.194151782292, -7445.209615851595, 24586.874197348858, 32880.53368097945, 11631.11020697477, 33659.15669908008, -0.114, 0.982, 0.002, 192.0, 0.0, 0.0, 0.0, 0.0, 0.0, 0.0, 0.0, 0.0, 0.0, 1.700951555065638E9, 0.0, 2023-11-25 17:32:35.065
36.0, 38226.48980933306, 57962.253148824355, 18389.58482618151, -7418.119301571764, 24541.008417726567, 32975.64035363679, 11626.34928540579, 33663.42588227104, -0.114, 0.982, 0.002, 192.0, 0.0, 0.0, 0.0, 0.0, 0.0, 0.0, 0.0, 0.0, 0.0, 1.700951555068602E9, 0.0, 2023-11-25 17:32:35.068
37.0, 38365.11532844488, 57976.24534085338, 18426.465204532768, -7337.250690132462, 24826.37313918747, 33387.739466159284, 11632.11603547526, 33681.486091790925, -0.11800000000000001, 0.978, 0.002, 192.0, 252.0, 80.0, 30.0, 144.0, 0.0, 16.0, 0.0, 0.0, 0.0, 1.700951555072681E9, 0.0, 2023-11-25 17:32:35.072
38.0, 38232.27891114699, 57850.91910969247, 18409.5449339801, -7472.299930131428, 24683.009050251134, 33229.310301460064, 11620.247259169491, 33634.70389064597, -0.11800000000000001, 0.978, 0.002, 192.0, 0.0, 0.0, 0.0, 0.0, 0.0, 0.0, 0.0, 0.0, 0.0, 1.700951555076647E9, 0.0, 2023-11-25 17:32:35.076
39.0, 38168.01764583798, 57865.559502310694, 18398.302006519083, -7458.888883458243, 24592.506836951598, 32860.975904581064, 11632.831291297829, 33663.604696226685, -0.11800000000000001, 0.978, 0.002, 192.0, 0.0, 0.0, 0.0, 0.0, 0.0, 0.0, 0.0, 0.0, 0.0, 1.700951555080726E9, 0.0, 2023-11-25 17:32:35.080
40.0, 38214.17399813819, 57948.88680564008, 18388.40018372538, -7429.026952865953, 24533.408824611764, 32982.10000778437, 11630.417302896656, 33665.70576020548, -0.11800000000000001, 0.978, 0.002, 192.0, 0.0, 0.0, 0.0, 0.0, 0.0, 0.0, 0.0, 0.0, 0.0, 1.700951555084663E9, 0.0, 2023-11-25 17:32:35.084
41.0, 38352.37483410536, 57981.408593822554, 18427.15810861088, -7346.079629192309, 24788.933967224835, 33289.0565143891, 11647.002297282494, 33688.03515291633, -0.11800000000000001, 0.978, 0.002, 192.0, 0.0, 0.0, 0.0, 0.0, 0.0, 0.0, 0.0, 0.0, 0.0, 1.700951555088639E9, 0.0, 2023-11-25 17:32:35.088
42.0, 38277.00475180206, 57875.50602859331, 18418.12800385094, -7434.0337436239415, 24742.285876546608, 33342.67834933738, 11641.414361168667, 33655.491012989405, -0.11800000000000001, 0.978, 0.002, 192.0, 0.0, 0.0, 0.0, 0.0, 0.0, 0.0, 0.0, 0.0, 0.0, 1.700951555093719E9, 0.0, 2023-11-25 17:32:35.093
43.0, 38157.244105010526, 57842.8054264552, 18397.810268141064, -7464.007432938509, 24589.355240983397, 32844.25679972849, 11647.672849616152, 33662.93414389302, -0.11800000000000001, 0.978, 0.002, 192.0, 0.0, 0.0, 0.0, 0.0, 0.0, 0.0, 0.0, 0.0, 0.0, 1.700951555096726E9, 0.0, 2023-11-25 17:32:35.096
44.0, 38195.86791942929, 57920.83536634867, 18377.917215575842, -7434.391371535226, 24521.271827372533, 32985.7880456195, 11635.893480288207, 33669.751425951894, -0.11800000000000001, 0.978, 0.002, 192.0, 0.0, 0.0, 0.0, 0.0, 0.0, 0.0, 0.0, 0.0, 0.0, 1.700951555099668E9, 0.0, 2023-11-25 17:32:35.099
45.0, 38320.85887442337, 57972.44554429597, 18413.143564837406, -7366.21855094654, 24716.335501233996, 33194.24041440969, 11647.02464902695, 33683.20717611399, -0.11800000000000001, 0.978, 0.002, 192.0, 0.0, 0.0, 0.0, 0.0, 0.0, 0.0, 0.0, 0.0, 0.0, 1.700951555104724E9, 0.0, 2023-11-25 17:32:35.104
46.0, 38311.6946591967, 57893.63329334656, 18414.730538693733, -7415.392388748216, 24774.651202517893, 33450.592571567606, 11635.334686676822, 33658.44144325751, -0.11800000000000001, 0.978, 0.002, 192.0, 0.0, 0.0, 0.0, 0.0, 0.0, 0.0, 0.0, 0.0, 0.0, 1.700951555108717E9, 0.0, 2023-11-25 17:32:35.108
47.0, 38158.31698874438, 57831.674257716455, 18401.095974575994, -7492.528258863481, 24575.407752443287, 32847.22958174105, 11636.899308788696, 33646.37150125164, -0.114, 0.982, 0.01, 192.0, 252.0, 112.0, 30.0, 176.0, 0.0, 80.0, 0.0, 0.0, 0.0, 1.700951555112696E9, 0.0, 2023-11-25 17:32:35.112
48.0, 38197.72311421909, 57916.968514557906, 18385.092125545994, -7439.509921015492, 24530.43604259921, 32958.34010342838, 11631.06550348586, 33663.76115843787, -0.114, 0.982, 0.01, 192.0, 0.0, 0.0, 0.0, 0.0, 0.0, 0.0, 0.0, 0.0, 0.0, 1.700951555116739E9, 0.0, 2023-11-25 17:32:35.116
49.0, 38303.98330735962, 57975.64184375309, 18411.10955609197, -7382.244751720996, 24652.476567325186, 33094.17165448328, 11634.462968643067, 33661.88361190362, -0.114, 0.982, 0.01, 192.0, 0.0, 0.0, 0.0, 0.0, 0.0, 0.0, 0.0, 0.0, 0.0, 1.700951555121792E9, 0.0, 2023-11-25 17:32:35.121
50.0, 38354.54295331752, 57923.36111347212, 18424.185326598326, -7381.417737176149, 24814.52671462616, 33501.286327992246, 11623.130634204226, 33653.5911147107, -0.114, 0.982, 0.01, 192.0, 0.0, 0.0, 0.0, 0.0, 0.0, 0.0, 0.0, 0.0, 0.0, 1.700951555124765E9, 0.0, 2023-11-25 17:32:35.124
51.0, 38172.84562264033, 57831.875423416546, 18407.801497912587, -7487.923799505687, 24580.615708901372, 32898.929166666174, 11626.416340639156, 33631.932274333514, -0.114, 0.982, 0.01, 192.0, 0.0, 0.0, 0.0, 0.0, 0.0, 0.0, 0.0, 0.0, 0.0, 1.700951555127774E9, 0.0, 2023-11-25 17:32:35.127
52.0, 38196.29260257394, 57910.26299122131, 18390.83652387101, -7425.987115620032, 24546.216374184656, 32942.17979218719, 11624.069407471348, 33661.928315392535, -0.114, 0.982, 0.01, 192.0, 0.0, 0.0, 0.0, 0.0, 0.0, 0.0, 0.0, 0.0, 0.0, 1.700951555132936E9, 0.0, 2023-11-25 17:32:35.132
53.0, 38276.37890295731, 57979.84397171068, 18405.253399044683, -7386.670397123146, 24596.172523042267, 33031.58677000842, 11627.243355184002, 33658.79907116879, -0.114, 0.982, 0.01, 192.0, 0.0, 0.0, 0.0, 0.0, 0.0, 0.0, 0.0, 0.0, 0.0, 1.700951555136853E9, 0.0, 2023-11-25 17:32:35.136
54.0, 38369.339808146935, 57955.21234932094, 18428.923896422853, -7348.493617593482, 24835.313836969595, 33500.10168553611, 11623.220041182047, 33666.42101602805, -0.114, 0.982, 0.01, 192.0, 0.0, 0.0, 0.0, 0.0, 0.0, 0.0, 0.0, 0.0, 0.0, 1.700951555139872E9, 0.0, 2023-11-25 17:32:35.139
55.0, 38179.34998027682, 57839.63147874254, 18409.477878746733, -7492.684721074667, 24599.68174692175, 32986.12332178633, 11617.274477156936, 33623.70683237396, -0.114, 0.982, 0.01, 192.0, 0.0, 0.0, 0.0, 0.0, 0.0, 0.0, 0.0, 0.0, 0.0, 1.700951555143945E9, 0.0, 2023-11-25 17:32:35.143
56.0, 38187.35190479182, 57906.46319466391, 18396.290349518105, -7434.145502346219, 24569.52924365154, 32915.31299535191, 11626.125767961237, 33658.75436767988, -0.114, 0.982, 0.01, 192.0, 0.0, 0.0, 0.0, 0.0, 0.0, 0.0, 0.0, 0.0, 0.0, 1.7009515551488E9, 0.0, 2023-11-25 17:32:35.148
57.0, 38250.67439683371, 57978.391108321084, 18401.475954231733, -7402.584839175325, 24566.601165127893, 32997.00862133606, 11633.054808742381, 33666.108091605674, -0.10200000000000001, 0.982, 0.002, 192.0, 252.0, 208.0, 30.0, 176.0, 0.0, 16.0, 0.0, 0.0, 0.0, 1.700951555152823E9, 0.0, 2023-11-25 17:32:35.152
58.0, 38370.90443025881, 57970.59034950619, 18431.114367379472, -7333.205024386052, 24846.042674308144, 33471.91613577797, 11635.044113998903, 33688.7504087389, -0.10200000000000001, 0.982, 0.002, 192.0, 0.0, 0.0, 0.0, 0.0, 0.0, 0.0, 0.0, 0.0, 0.0, 1.700951555156857E9, 0.0, 2023-11-25 17:32:35.156
59.0, 38201.478207287575, 57847.16401662398, 18413.702358448787, -7470.33297661936, 24643.938200943256, 33128.63804443336, 11634.038285498416, 33647.444384985494, -0.10200000000000001, 0.982, 0.002, 192.0, 0.0, 0.0, 0.0, 0.0, 0.0, 0.0, 0.0, 0.0, 0.0, 1.700951555161206E9, 0.0, 2023-11-25 17:32:35.161
60.0, 38177.24891629803, 57884.96081649791, 18400.939512364806, -7431.217423822573, 24587.030659560045, 32897.61041374331, 11645.884710059729, 33673.75238820939, -0.10200000000000001, 0.982, 0.002, 192.0, 0.0, 0.0, 0.0, 0.0, 0.0, 0.0, 0.0, 0.0, 0.0, 1.70095155516593E9, 0.0, 2023-11-25 17:32:35.165
61.0, 38233.86588500332, 57965.31533781473, 18396.469163473746, -7406.339932243816, 24541.164879937754, 32985.49747294158, 11644.476550159045, 33671.6960277195, -0.10200000000000001, 0.982, 0.002, 192.0, 0.0, 0.0, 0.0, 0.0, 0.0, 0.0, 0.0, 0.0, 0.0, 1.700951555168895E9, 0.0, 2023-11-25 17:32:35.168
62.0, 38369.31745640248, 57982.79440197878, 18431.606105757488, -7322.744407980968, 24822.461583907796, 33393.84149239558, 11649.416285683667, 33694.71832450847, -0.10200000000000001, 0.982, 0.002, 192.0, 0.0, 0.0, 0.0, 0.0, 0.0, 0.0, 0.0, 0.0, 0.0, 1.700951555172111E9, 0.0, 2023-11-25 17:32:35.172
63.0, 38248.48392587709, 57869.202836656914, 18418.999721884695, -7447.735362975045, 24694.07316375651, 33250.14212729241, 11635.379390165734, 33646.550315207285, -0.10200000000000001, 0.982, 0.002, 192.0, 0.0, 0.0, 0.0, 0.0, 0.0, 0.0, 0.0, 0.0, 0.0, 1.700951555177912E9, 0.0, 2023-11-25 17:32:35.177
64.0, 38181.02636111097, 57878.098830950126, 18405.45456474478, -7442.549758261413, 24594.049107319013, 32858.58426792434, 11640.20736696808, 33662.352998537186, -0.10200000000000001, 0.982, 0.002, 192.0, 0.0, 0.0, 0.0, 0.0, 0.0, 0.0, 0.0, 0.0, 0.0, 1.700951555181139E9, 0.0, 2023-11-25 17:32:35.181
65.0, 38225.260463388026, 57961.5825964907, 18394.12223030594, -7412.509013713481, 24532.0900716889, 32978.25550773806, 11629.63499184072, 33664.96815263846, -0.10200000000000001, 0.982, 0.002, 192.0, 0.0, 0.0, 0.0, 0.0, 0.0, 0.0, 0.0, 0.0, 0.0, 1.700951555185913E9, 0.0, 2023-11-25 17:32:35.185
66.0, 38361.6061045654, 57999.84878299818, 18438.356332582993, -7327.617088272225, 24786.497627079207, 33278.886470661935, 11639.983849523527, 33688.705705249995, -0.10200000000000001, 0.982, 0.002, 192.0, 0.0, 0.0, 0.0, 0.0, 0.0, 0.0, 0.0, 0.0, 0.0, 1.700951555189896E9, 0.0, 2023-11-25 17:32:35.189
67.0, 38296.22725203363, 57897.43308990396, 18434.333018581037, -7412.7995863914, 24758.0438563876, 33370.394512461964, 11630.260840685469, 33659.31316129126, -0.10400000000000001, 0.984, 0.004, 192.0, 252.0, 192.0, 30.0, 192.0, 0.0, 32.0, 0.0, 0.0, 0.0, 1.700951555192914E9, 0.0, 2023-11-25 17:32:35.192
68.0, 38175.349018019326, 57863.88312147655, 18414.596428227, -7451.870435699277, 24600.218188788676, 32857.3549219793, 11634.373561665245, 33661.9953706259, -0.10400000000000001, 0.984, 0.004, 192.0, 0.0, 0.0, 0.0, 0.0, 0.0, 0.0, 0.0, 0.0, 0.0, 1.700951555196097E9, 0.0, 2023-11-25 17:32:35.196
69.0, 38220.99128019706, 57951.54666323026, 18402.101803076483, -7407.6810369111345, 24544.539993350507, 32981.02712405052, 11633.211270953569, 33676.747521966405, -0.10400000000000001, 0.984, 0.004, 192.0, 0.0, 0.0, 0.0, 0.0, 0.0, 0.0, 0.0, 0.0, 0.0, 1.700951555199956E9, 0.0, 2023-11-25 17:32:35.199
70.0, 38343.612950278875, 58000.67579754303, 18436.97052442676, -7334.344963353273, 24738.933114878313, 33188.96540271823, 11645.772951337452, 33691.16439714008, -0.10400000000000001, 0.984, 0.004, 192.0, 0.0, 0.0, 0.0, 0.0, 0.0, 0.0, 0.0, 0.0, 0.0, 1.700951555203955E9, 0.0, 2023-11-25 17:32:35.203
71.0, 38339.65669151029, 57919.76248261482, 18437.26109710468, -7376.276835951428, 24810.883380279945, 33472.609039856085, 11633.300677931391, 33670.08670211872, -0.10400000000000001, 0.984, 0.004, 192.0, 0.0, 0.0, 0.0, 0.0, 0.0, 0.0, 0.0, 0.0, 0.0, 1.700951555209056E9, 0.0, 2023-11-25 17:32:35.209
72.0, 38177.76300642049, 57846.44876080141, 18417.12217535045, -7457.257206113006, 24604.755592913105, 32868.93312560715, 11635.289983187913, 33653.21113505497, -0.10400000000000001, 0.984, 0.004, 192.0, 0.0, 0.0, 0.0, 0.0, 0.0, 0.0, 0.0, 0.0, 0.0, 1.700951555212991E9, 0.0, 2023-11-25 17:32:35.212
73.0, 38211.42473357019, 57924.03166580578, 18395.038651828607, -7408.284534011428, 24556.609935356373, 32981.96589731764, 11629.59028835181, 33671.2489928304, -0.10400000000000001, 0.984, 0.004, 192.0, 0.0, 0.0, 0.0, 0.0, 0.0, 0.0, 0.0, 0.0, 0.0, 1.700951555217009E9, 0.0, 2023-11-25 17:32:35.217
74.0, 38311.47114175215, 57981.76622173384, 18418.35152129549, -7358.060164220353, 24669.463893111217, 33102.68766912075, 11639.82738731234, 33675.8981556771, -0.10400000000000001, 0.984, 0.004, 192.0, 0.0, 0.0, 0.0, 0.0, 0.0, 0.0, 0.0, 0.0, 0.0, 1.700951555219982E9, 0.0, 2023-11-25 17:32:35.219
75.0, 38365.919991245275, 57937.308602012235, 18434.467129047767, -7349.052411204864, 24845.14860452993, 33518.474819478375, 11635.938183777116, 33677.015742899865, -0.10400000000000001, 0.984, 0.004, 192.0, 0.0, 0.0, 0.0, 0.0, 0.0, 0.0, 0.0, 0.0, 0.0, 1.700951555223999E9, 0.0, 2023-11-25 17:32:35.223
76.0, 38181.69691344463, 57844.07947588915, 18416.675140461342, -7465.840275983844, 24608.801258659514, 32924.92424546769, 11635.4464453991, 33651.42299549854, -0.10400000000000001, 0.984, 0.004, 192.0, 0.0, 0.0, 0.0, 0.0, 0.0, 0.0, 0.0, 0.0, 0.0, 1.700951555228051E9, 0.0, 2023-11-25 17:32:35.228
77.0, 38206.46264630111, 57920.589497159664, 18398.324358263537, -7410.139728801219, 24573.261984975576, 32964.933868042695, 11636.25110819949, 33681.28492609083, -0.108, 0.982, 0.002, 192.0, 252.0, 160.0, 30.0, 176.0, 0.0, 16.0, 0.0, 0.0, 0.0, 1.700951555232029E9, 0.0, 2023-11-25 17:32:35.232
78.0, 38292.62862117632, 57996.093689929694, 18419.60321898499, -7374.198123717085, 24624.089851866946, 33032.01145315307, 11644.342439692313, 33686.62699301565, -0.108, 0.982, 0.002, 192.0, 0.0, 0.0, 0.0, 0.0, 0.0, 0.0, 0.0, 0.0, 0.0, 1.700951555237164E9, 0.0, 2023-11-25 17:32:35.237
79.0, 38396.22895672667, 57977.653500754066, 18448.54872805461, -7322.453835303049, 24876.798674678645, 33495.36311571159, 11643.4483699141, 33700.373315855664, -0.108, 0.982, 0.002, 192.0, 0.0, 0.0, 0.0, 0.0, 0.0, 0.0, 0.0, 0.0, 0.0, 1.700951555242103E9, 0.0, 2023-11-25 17:32:35.242
80.0, 38203.6686782442, 57853.86953996057, 18415.959884638774, -7470.265921385994, 24630.97418915918, 33011.403144765274, 11630.30554417438, 33645.32096926224, -0.108, 0.982, 0.002, 192.0, 0.0, 0.0, 0.0, 0.0, 0.0, 0.0, 0.0, 0.0, 0.0, 1.700951555245161E9, 0.0, 2023-11-25 17:32:35.245
81.0, 38205.34505907835, 57913.21342148941, 18396.245646029194, -7417.001714348998, 24586.15894152629, 32921.303262865935, 11630.484358130021, 33681.016705157366, -0.108, 0.982, 0.002, 192.0, 0.0, 0.0, 0.0, 0.0, 0.0, 0.0, 0.0, 0.0, 0.0, 1.700951555248201E9, 0.0, 2023-11-25 17:32:35.248
82.0, 38265.96299004114, 57983.84493396818, 18396.73738440721, -7395.32052222735, 24568.05402851749, 32987.57618517592, 11626.572802850344, 33683.318934836265, -0.108, 0.982, 0.002, 192.0, 0.0, 0.0, 0.0, 0.0, 0.0, 0.0, 0.0, 0.0, 0.0, 1.70095155525216E9, 0.0, 2023-11-25 17:32:35.252
83.0, 38391.7586078356, 57981.073317655726, 18427.918067922365, -7324.867823704222, 24851.429444721874, 33448.02212095525, 11630.149081963193, 33697.48994082093, -0.108, 0.982, 0.002, 192.0, 0.0, 0.0, 0.0, 0.0, 0.0, 0.0, 0.0, 0.0, 0.0, 1.70095155525639E9, 0.0, 2023-11-25 17:32:35.256
84.0, 38226.06512618841, 57854.76360973879, 18410.483707247222, -7469.885941730255, 24651.9177737138, 33131.63317819037, 11620.604887080775, 33647.15381230757, -0.108, 0.982, 0.002, 192.0, 0.0, 0.0, 0.0, 0.0, 0.0, 0.0, 0.0, 0.0, 0.0, 1.700951555262594E9, 0.0, 2023-11-25 17:32:35.262
85.0, 38195.532643262464, 57888.850020033125, 18398.592579197, -7436.201862836107, 24591.09867705091, 32886.4121897712, 11627.511576117466, 33671.71837946396, -0.108, 0.982, 0.002, 192.0, 0.0, 0.0, 0.0, 0.0, 0.0, 0.0, 0.0, 0.0, 0.0, 1.700951555265165E9, 0.0, 2023-11-25 17:32:35.265
86.0, 38247.88042877679, 57971.90910242905, 18397.698509418788, -7410.296191012406, 24542.1930601827, 32966.14086224328, 11629.97026800755, 33672.970077153455, -0.108, 0.982, 0.002, 192.0, 0.0, 0.0, 0.0, 0.0, 0.0, 0.0, 0.0, 0.0, 0.0, 1.700951555270186E9, 0.0, 2023-11-25 17:32:35.270
87.0, 38390.21633746819, 58002.75450977737, 18439.49627155021, -7318.966963168021, 24825.277903709164, 33352.021378519705, 11647.404628682689, 33706.05065894731, -0.11, 0.984, 0.008, 192.0, 252.0, 144.0, 30.0, 192.0, 0.0, 64.0, 0.0, 0.0, 0.0, 1.700951555273218E9, 0.0, 2023-11-25 17:32:35.273
88.0, 38273.24965873357, 57883.93263625296, 18422.03955913062, -7435.218386080073, 24701.60570163795, 33261.563868709076, 11633.725361076042, 33662.64357121511, -0.11, 0.984, 0.008, 192.0, 0.0, 0.0, 0.0, 0.0, 0.0, 0.0, 0.0, 0.0, 0.0, 1.70095155527722E9, 0.0, 2023-11-25 17:32:35.277
89.0, 38195.73380896256, 57885.296092664736, 18408.941436879806, -7430.882147655743, 24594.876121863857, 32849.7553288645, 11641.771989079953, 33679.72030397896, -0.11, 0.984, 0.008, 192.0, 0.0, 0.0, 0.0, 0.0, 0.0, 0.0, 0.0, 0.0, 0.0, 1.700951555280285E9, 0.0, 2023-11-25 17:32:35.280
90.0, 38235.318748392914, 57965.80707619275, 18391.529427949125, -7407.524574699948, 24530.704263532672, 32968.5324989, 11631.356076163778, 33679.36267606767, -0.11, 0.984, 0.008, 192.0, 0.0, 0.0, 0.0, 0.0, 0.0, 0.0, 0.0, 0.0, 0.0, 1.700951555284167E9, 0.0, 2023-11-25 17:32:35.284
91.0, 38366.948171490214, 57997.43479459701, 18423.06773937556, -7336.870710476722, 24769.800873971093, 33266.45890074479, 11638.039247755916, 33699.68041177755, -0.11, 0.984, 0.008, 192.0, 0.0, 0.0, 0.0, 0.0, 0.0, 0.0, 0.0, 0.0, 0.0, 1.700951555288206E9, 0.0, 2023-11-25 17:32:35.288
92.0, 38304.49739748209, 57893.387424157554, 18414.708186949276, -7421.360304517782, 24744.722216692237, 33378.150567787954, 11623.77883479343, 33665.16931833855, -0.11, 0.984, 0.008, 192.0, 0.0, 0.0, 0.0, 0.0, 0.0, 0.0, 0.0, 0.0, 0.0, 1.700951555292205E9, 0.0, 2023-11-25 17:32:35.292
93.0, 38176.801881408916, 57854.11540914958, 18395.217465784248, -7466.510828317503, 24579.185197256233, 32836.009006024484, 11628.15977670667, 33665.16931833855, -0.11, 0.984, 0.008, 192.0, 0.0, 0.0, 0.0, 0.0, 0.0, 0.0, 0.0, 0.0, 0.0, 1.700951555297297E9, 0.0, 2023-11-25 17:32:35.297
94.0, 38215.22453012759, 57935.45340722244, 18372.753962606665, -7430.524519744458, 24516.510905803552, 32966.72200759912, 11617.520346345944, 33669.72907420743, -0.11, 0.984, 0.008, 192.0, 0.0, 0.0, 0.0, 0.0, 0.0, 0.0, 0.0, 0.0, 0.0, 1.700951555301529E9, 0.0, 2023-11-25 17:32:35.301
95.0, 38340.84133396642, 57997.546553319284, 18409.611989213467, -7359.691841565591, 24698.968195792222, 33147.41350977582, 11632.563070364366, 33685.77762672635, -0.11, 0.984, 0.008, 192.0, 0.0, 0.0, 0.0, 0.0, 0.0, 0.0, 0.0, 0.0, 0.0, 1.700951555304634E9, 0.0, 2023-11-25 17:32:35.304
96.0, 38347.368043347364, 57927.876165852096, 18417.233934072727, -7389.754937857979, 24790.2527201477, 33444.82582149814, 11623.689427815609, 33667.53860325082, -0.11, 0.984, 0.008, 192.0, 0.0, 0.0, 0.0, 0.0, 0.0, 0.0, 0.0, 0.0, 0.0, 1.700951555308449E9, 0.0, 2023-11-25 17:32:35.308
97.0, 38186.07785535787, 57857.110542906594, 18405.02988160013, -7469.751831263523, 24587.209473515686, 32839.54058164842, 11635.49114888801, 33662.978847381935, -0.108, 0.978, 0.012, 192.0, 252.0, 160.0, 30.0, 144.0, 0.0, 96.0, 0.0, 0.0, 0.0, 1.70095155531366E9, 0.0, 2023-11-25 17:32:35.313
98.0, 38218.64434702925, 57934.40287523304, 18381.605253410966, -7411.346723001805, 24544.718807306148, 32955.88141153829, 11627.355113906278, 33690.024458172855, -0.108, 0.978, 0.012, 192.0, 0.0, 0.0, 0.0, 0.0, 0.0, 0.0, 0.0, 0.0, 0.0, 1.700951555321445E9, 0.0, 2023-11-25 17:32:35.321
99.0, 38320.85887442337, 57997.412442852554, 18406.505096734178, -7359.423620632127, 24652.722436514192, 33077.139625208336, 11636.385218666222, 33704.32957462425, -0.108, 0.978, 0.012, 192.0, 0.0, 0.0, 0.0, 0.0, 0.0, 0.0, 0.0, 0.0, 0.0, 1.700951555321491E9, 0.0, 2023-11-25 17:32:35.321
100.0, 38389.29991594552, 57955.189997576475, 18427.22516384425, -7343.822103002322, 24844.96979057429, 33506.11430479459, 11639.715628590064, 33706.29652813632, -0.108, 0.978, 0.012, 192.0, 0.0, 0.0, 0.0, 0.0, 0.0, 0.0, 0.0, 0.0, 0.0, 1.700951555325273E9, 0.0, 2023-11-25 17:32:35.325
101.0, 38205.054486400426, 57850.24855735881, 18406.862724645463, -7470.422383597182, 24604.040337090533, 32927.60645480233, 11642.934279791627, 33672.701856219996, -0.108, 0.978, 0.012, 192.0, 0.0, 0.0, 0.0, 0.0, 0.0, 0.0, 0.0, 0.0, 0.0, 1.70095155532824E9, 0.0, 2023-11-25 17:32:35.328
102.0, 38226.936844222175, 57925.01514256182, 18387.416706969347, -7418.4769294830485, 24568.43400817323, 32953.35566441485, 11640.944974535105, 33705.6036240582, -0.108, 0.978, 0.012, 192.0, 0.0, 0.0, 0.0, 0.0, 0.0, 0.0, 0.0, 0.0, 0.0, 1.70095155533223E9, 0.0, 2023-11-25 17:32:35.332
103.0, 38307.604289961375, 58001.63692255461, 18404.649901944387, -7378.266141207951, 24604.040337090533, 33020.27678731403, 11645.884710059729, 33706.92237698107, -0.108, 0.978, 0.012, 192.0, 0.0, 0.0, 0.0, 0.0, 0.0, 0.0, 0.0, 0.0, 0.0, 1.700951555336244E9, 0.0, 2023-11-25 17:32:35.336
104.0, 38414.847959857936, 57986.10246015817, 18432.07549239105, -7325.314858593329, 24862.001819849233, 33503.230929759855, 11646.130579248736, 33720.33342365425, -0.108, 0.978, 0.012, 192.0, 0.0, 0.0, 0.0, 0.0, 0.0, 0.0, 0.0, 0.0, 0.0, 1.700951555340236E9, 0.0, 2023-11-25 17:32:35.340
105.0, 38232.83770475837, 57863.88312147655, 18407.26505604566, -7472.322281875883, 24626.190915845742, 33035.878304943835, 11636.429922155134, 33675.51817602136, -0.108, 0.978, 0.012, 192.0, 0.0, 0.0, 0.0, 0.0, 0.0, 0.0, 0.0, 0.0, 0.0, 1.700951555344316E9, 0.0, 2023-11-25 17:32:35.344
106.0, 38237.53157109399, 57925.01514256182, 18391.26120701566, -7419.035723094431, 24584.214339758677, 32920.76682099901, 11640.654401857186, 33707.011783958886, -0.108, 0.978, 0.012, 192.0, 0.0, 0.0, 0.0, 0.0, 0.0, 0.0, 0.0, 0.0, 0.0, 1.700951555348343E9, 0.0, 2023-11-25 17:32:35.348
107.0, 38304.810321904464, 58002.82156501074, 18390.63535817091, -7396.505164683482, 24563.270755204056, 32989.16315903225, 11633.993582009505, 33697.06525767628, -0.112, 0.98, 0.01, 192.0, 252.0, 128.0, 30.0, 160.0, 0.0, 80.0, 0.0, 0.0, 0.0, 1.700951555353354E9, 0.0, 2023-11-25 17:32:35.353
108.0, 38440.61952121491, 58011.136413948116, 18426.912239421876, -7322.6773527476025, 24851.697665655338, 33446.85983024357, 11634.038285498416, 33711.32567063876, -0.112, 0.98, 0.01, 192.0, 0.0, 0.0, 0.0, 0.0, 0.0, 0.0, 0.0, 0.0, 0.0, 1.70095155535638E9, 0.0, 2023-11-25 17:32:35.356
109.0, 38284.537289683496, 57890.19112470045, 18414.618779971457, -7455.826694467866, 24664.971192475703, 33140.395062016854, 11623.957648749072, 33670.801957941294, -0.112, 0.98, 0.01, 192.0, 0.0, 0.0, 0.0, 0.0, 0.0, 0.0, 0.0, 0.0, 0.0, 1.700951555359362E9, 0.0, 2023-11-25 17:32:35.359
110.0, 38247.36633865432, 57921.10358728214, 18399.151372808385, -7418.61103994978, 24599.01119458809, 32874.78928265444, 11628.852680784785, 33693.19840588551, -0.112, 0.98, 0.01, 192.0, 0.0, 0.0, 0.0, 0.0, 0.0, 0.0, 0.0, 0.0, 0.0, 1.700951555364548E9, 0.0, 2023-11-25 17:32:35.364
111.0, 38294.327353754925, 58000.27346614283, 18389.808343626064, -7398.494469940004, 24542.081301460425, 32974.72393211412, 11617.922677746139, 33685.5988127707, -0.112, 0.98, 0.01, 192.0, 0.0, 0.0, 0.0, 0.0, 0.0, 0.0, 0.0, 0.0, 0.0, 1.70095155536854E9, 0.0, 2023-11-25 17:32:35.368
112.0, 38441.04420435956, 58031.63296361363, 18434.154204625393, -7310.629762486192, 24827.82600257707, 33352.13313724198, 11631.49018663051, 33720.48988586544, -0.112, 0.98, 0.01, 192.0, 0.0, 0.0, 0.0, 0.0, 0.0, 0.0, 0.0, 0.0, 0.0, 1.700951555372409E9, 0.0, 2023-11-25 17:32:35.372
113.0, 38330.58188326143, 57915.24743023484, 18421.480765519234, -7427.194109820618, 24718.637730912895, 33287.31307832159, 11623.644724326698, 33679.63089700114, -0.112, 0.98, 0.01, 192.0, 0.0, 0.0, 0.0, 0.0, 0.0, 0.0, 0.0, 0.0, 0.0, 1.700951555376408E9, 0.0, 2023-11-25 17:32:35.376
114.0, 38243.85711477484, 57905.52442139679, 18405.20869555577, -7434.212557579584, 24605.00146210211, 32861.51234644799, 11634.239451198513, 33692.63961227413, -0.112, 0.98, 0.01, 192.0, 0.0, 0.0, 0.0, 0.0, 0.0, 0.0, 0.0, 0.0, 0.0, 1.700951555381561E9, 0.0, 2023-11-25 17:32:35.381
115.0, 38286.61600191784, 57984.627245024116, 18390.054212815074, -7403.925943842643, 24541.85778401587, 32981.429455450714, 11631.82546279734, 33696.729981509445, -0.112, 0.98, 0.01, 192.0, 0.0, 0.0, 0.0, 0.0, 0.0, 0.0, 0.0, 0.0, 0.0, 1.700951555384513E9, 0.0, 2023-11-25 17:32:35.384
116.0, 38421.151151794336, 58026.60382111119, 18428.566268511568, -7320.419826557616, 24779.456827575785, 33258.18875529632, 11643.761294336475, 33718.52293235337, -0.112, 0.98, 0.01, 192.0, 0.0, 0.0, 0.0, 0.0, 0.0, 0.0, 0.0, 0.0, 0.0, 1.700951555387512E9, 0.0, 2023-11-25 17:32:35.387
117.0, 38369.965656991684, 57930.737189142375, 18423.850050431498, -7398.941504829109, 24773.95829843978, 33398.89298664248, 11631.780759308429, 33696.99820244291, -0.11, 0.98, 0.006, 192.0, 252.0, 144.0, 30.0, 160.0, 0.0, 48.0, 0.0, 0.0, 0.0, 1.700951555392488E9, 0.0, 2023-11-25 17:32:35.392
118.0, 38240.79492578446, 57886.2125141874, 18401.92298912084, -7451.71397348809, 24603.459191734695, 32856.013817311985, 11637.63691635572, 33700.21685364447, -0.11, 0.98, 0.006, 192.0, 0.0, 0.0, 0.0, 0.0, 0.0, 0.0, 0.0, 0.0, 0.0, 1.700951555396497E9, 0.0, 2023-11-25 17:32:35.396
119.0, 38282.74915012707, 57967.90814017155, 18378.744230120687, -7412.129034057741, 24544.830566028424, 32991.73360964461, 11628.87503252924, 33709.55988282679, -0.11, 0.98, 0.006, 192.0, 0.0, 0.0, 0.0, 0.0, 0.0, 0.0, 0.0, 0.0, 0.0, 1.700951555400525E9, 0.0, 2023-11-25 17:32:35.400
120.0, 38403.00153529663, 58029.800120568296, 18414.64113171591, -7344.872634991722, 24720.671739658326, 33163.35030357246, 11640.430884412634, 33722.948577755524, -0.11, 0.98, 0.006, 192.0, 0.0, 0.0, 0.0, 0.0, 0.0, 0.0, 0.0, 0.0, 0.0, 1.700951555404504E9, 0.0, 2023-11-25 17:32:35.404
121.0, 38421.911111105816, 57967.43875353799, 18427.247515588704, -7363.245768933984, 24829.43532817785, 33476.85587130259, 11634.77589306544, 33710.945690983026, -0.11, 0.98, 0.006, 192.0, 0.0, 0.0, 0.0, 0.0, 0.0, 0.0, 0.0, 0.0, 0.0, 1.700951555409475E9, 0.0, 2023-11-25 17:32:35.409
122.0, 38256.26233294753, 57890.660511334005, 18410.50605899168, -7453.770333977978, 24609.53886622654, 32872.59881169782, 11637.413398911167, 33692.32668785175, -0.11, 0.98, 0.006, 192.0, 0.0, 0.0, 0.0, 0.0, 0.0, 0.0, 0.0, 0.0, 0.0, 1.700951555412566E9, 0.0, 2023-11-25 17:32:35.412
123.0, 38290.66166766425, 57969.875093683615, 18391.8423523715, -7394.381748960227, 24568.836339573427, 32975.66270538124, 11634.261802942969, 33718.79115328684, -0.11, 0.98, 0.006, 192.0, 0.0, 0.0, 0.0, 0.0, 0.0, 0.0, 0.0, 0.0, 0.0, 1.700951555415592E9, 0.0, 2023-11-25 17:32:35.415
124.0, 38394.4631689147, 58040.52895790684, 18421.301951563593, -7344.73852452499, 24670.380314633887, 33082.101712477415, 11646.555262393387, 33725.8096010458, -0.11, 0.98, 0.006, 192.0, 0.0, 0.0, 0.0, 0.0, 0.0, 0.0, 0.0, 0.0, 0.0, 1.70095155542049E9, 0.0, 2023-11-25 17:32:35.420
125.0, 38466.435786060785, 58003.11213768866, 18440.94913493981, -7325.02428591541, 24871.68012519838, 33528.42134576099, 11642.867224558262, 33722.2109701885, -0.11, 0.98, 0.006, 192.0, 0.0, 0.0, 0.0, 0.0, 0.0, 0.0, 0.0, 0.0, 0.0, 1.700951555424638E9, 0.0, 2023-11-25 17:32:35.424
126.0, 38275.39542620128, 57894.68382533596, 18414.909352649374, -7459.00064218052, 24624.9615699007, 32966.16321398773, 11637.391047166711, 33679.78735921232, -0.11, 0.98, 0.006, 192.0, 0.0, 0.0, 0.0, 0.0, 0.0, 0.0, 0.0, 0.0, 0.0, 1.700951555428538E9, 0.0, 2023-11-25 17:32:35.428
127.0, 38299.31179276846, 57966.63409073759, 18400.917160620353, -7397.89097283971, 24593.758534641092, 32962.2293069636, 11639.089779745314, 33719.86403702069, -0.112, 0.98, 0.004, 192.0, 252.0, 128.0, 30.0, 160.0, 0.0, 32.0, 0.0, 0.0, 0.0, 1.700951555432561E9, 0.0, 2023-11-25 17:32:35.432
128.0, 38379.889831529836, 58040.3501439512, 18412.942399137308, -7360.898835766177, 24624.380424544863, 33031.22914209714, 11642.978983280538, 33723.2615021779, -0.112, 0.98, 0.004, 192.0, 0.0, 0.0, 0.0, 0.0, 0.0, 0.0, 0.0, 0.0, 0.0, 1.700951555436614E9, 0.0, 2023-11-25 17:32:35.436
129.0, 38492.453216606766, 58027.564946122766, 18438.08811164953, -7307.701683962547, 24886.521683516705, 33517.44663923343, 11645.392971681711, 33741.88050530917, -0.112, 0.98, 0.004, 192.0, 0.0, 0.0, 0.0, 0.0, 0.0, 0.0, 0.0, 0.0, 0.0, 1.70095155544059E9, 0.0, 2023-11-25 17:32:35.440
130.0, 38306.33024052742, 57901.07642425018, 18412.74123343721, -7456.698412501623, 24650.800186491037, 33071.43993037223, 11638.866262300762, 33696.305298364794, -0.112, 0.98, 0.004, 192.0, 0.0, 0.0, 0.0, 0.0, 0.0, 0.0, 0.0, 0.0, 0.0, 1.700951555443573E9, 0.0, 2023-11-25 17:32:35.443
131.0, 38301.74813291409, 57951.99369811937, 18393.764602394655, -7413.090159069319, 24602.654528934305, 32938.357643885334, 11640.520291390454, 33721.54041785484, -0.112, 0.98, 0.004, 192.0, 0.0, 0.0, 0.0, 0.0, 0.0, 0.0, 0.0, 0.0, 0.0, 1.700951555448284E9, 0.0, 2023-11-25 17:32:35.448
132.0, 38369.965656991684, 58031.118873491156, 18399.509000719667, -7383.161173243663, 24578.939328067223, 32998.10385681437, 11642.934279791627, 33715.57250208527, -0.112, 0.98, 0.004, 192.0, 0.0, 0.0, 0.0, 0.0, 0.0, 0.0, 0.0, 0.0, 0.0, 1.700951555452607E9, 0.0, 2023-11-25 17:32:35.452
133.0, 38503.76319930115, 58041.80300734079, 18435.763530226177, -7305.4218060281055, 24868.997915863743, 33453.43124311343, 11647.583442638332, 33735.0632232503, -0.112, 0.98, 0.004, 192.0, 0.0, 0.0, 0.0, 0.0, 0.0, 0.0, 0.0, 0.0, 0.0, 1.700951555456598E9, 0.0, 2023-11-25 17:32:35.456
134.0, 38345.53520030203, 57917.70612212493, 18415.624608471946, -7449.657612998201, 24683.36667816242, 33185.52323407212, 11630.707875574575, 33675.71934172146, -0.112, 0.98, 0.004, 192.0, 0.0, 0.0, 0.0, 0.0, 0.0, 0.0, 0.0, 0.0, 0.0, 1.700951555460627E9, 0.0, 2023-11-25 17:32:35.460
135.0, 38299.40119974628, 57941.75659915884, 18396.335053007013, -7423.059037096386, 24607.2589882921, 32900.538492266955, 11632.607773853277, 33699.14396991062, -0.112, 0.98, 0.004, 192.0, 0.0, 0.0, 0.0, 0.0, 0.0, 0.0, 0.0, 0.0, 0.0, 1.700951555464627E9, 0.0, 2023-11-25 17:32:35.464
136.0, 38352.30777887199, 58027.4978908894, 18393.317567505546, -7397.980379817532, 24553.637153343818, 32982.055304295456, 11630.35024766329, 33707.28000489235, -0.112, 0.98, 0.004, 192.0, 0.0, 0.0, 0.0, 0.0, 0.0, 0.0, 0.0, 0.0, 0.0, 1.700951555468647E9, 0.0, 2023-11-25 17:32:35.468
137.0, 38498.33172539851, 58062.00898432839, 18439.630382016945, -7304.4830327609825, 24838.666598637894, 33340.51023012522, 11644.677715859141, 33734.95146452802, -0.106, 0.974, 0.0, 192.0, 252.0, 176.0, 30.0, 112.0, 0.0, 0.0, 0.0, 0.0, 0.0, 1.7009515554717E9, 0.0, 2023-11-25 17:32:35.471
138.0, 38391.08805550195, 57942.404799748045, 18422.352483552993, -7419.147481816707, 24736.295609032586, 33311.72118326678, 11626.3939888947, 33689.91269945058, -0.106, 0.974, 0.0, 192.0, 0.0, 0.0, 0.0, 0.0, 0.0, 0.0, 0.0, 0.0, 0.0, 1.700951555475679E9, 0.0, 2023-11-25 17:32:35.475
139.0, 38303.80449340397, 57936.459235722934, 18411.221314814247, -7431.664458711679, 24614.791526173536, 32847.52015441897, 11639.402704167689, 33706.8553217477, -0.106, 0.974, 0.0, 192.0, 0.0, 0.0, 0.0, 0.0, 0.0, 0.0, 0.0, 0.0, 0.0, 1.700951555480725E9, 0.0, 2023-11-25 17:32:35.480
140.0, 38346.49632531361, 58014.399768638585, 18393.58578843901, -7400.528478685436, 24552.67602833224, 32971.505280912555, 11636.653439599686, 33714.09728695122, -0.106, 0.974, 0.0, 192.0, 0.0, 0.0, 0.0, 0.0, 0.0, 0.0, 0.0, 0.0, 0.0, 1.700951555484686E9, 0.0, 2023-11-25 17:32:35.484
141.0, 38473.87891696441, 58054.09646679121, 18427.292219077615, -7322.811463214334, 24778.94273745331, 33243.95069407829, 11643.515425147465, 33730.637577848145, -0.106, 0.974, 0.0, 192.0, 0.0, 0.0, 0.0, 0.0, 0.0, 0.0, 0.0, 0.0, 0.0, 1.700951555488695E9, 0.0, 2023-11-25 17:32:35.488
142.0, 38433.48931473366, 57962.29785231327, 18423.291256820114, -7394.091176282308, 24785.022411945156, 33416.61791999554, 11632.473663386543, 33702.18380715654, -0.106, 0.974, 0.0, 192.0, 0.0, 0.0, 0.0, 0.0, 0.0, 0.0, 0.0, 0.0, 0.0, 1.700951555492749E9, 0.0, 2023-11-25 17:32:35.492
143.0, 38296.29430726699, 57915.135671512566, 18400.715994920254, -7449.858778698299, 24604.710889424194, 32853.21984925507, 11642.889576302718, 33706.34123162523, -0.106, 0.974, 0.0, 192.0, 0.0, 0.0, 0.0, 0.0, 0.0, 0.0, 0.0, 0.0, 0.0, 1.700951555495797E9, 0.0, 2023-11-25 17:32:35.495
144.0, 38331.61006350638, 57999.647617298084, 18379.995927810185, -7406.921077599654, 24549.837356786415, 32966.36437968783, 11636.228756455035, 33725.29551092333, -0.106, 0.974, 0.0, 192.0, 0.0, 0.0, 0.0, 0.0, 0.0, 0.0, 0.0, 0.0, 0.0, 1.700951555499773E9, 0.0, 2023-11-25 17:32:35.499
145.0, 38440.73127993719, 58051.034277800834, 18407.39916651239, -7344.067972191331, 24706.903065073857, 33137.2211143042, 11645.795303081906, 33730.995205759435, -0.106, 0.974, 0.0, 192.0, 0.0, 0.0, 0.0, 0.0, 0.0, 0.0, 0.0, 0.0, 0.0, 1.700951555503786E9, 0.0, 2023-11-25 17:32:35.503
146.0, 38462.41247205883, 57987.60002703667, 18419.31264630707, -7361.345870655284, 24826.730767098757, 33482.734380094334, 11642.174320480148, 33722.322728910774, -0.106, 0.974, 0.0, 192.0, 0.0, 0.0, 0.0, 0.0, 0.0, 0.0, 0.0, 0.0, 0.0, 1.700951555507999E9, 0.0, 2023-11-25 17:32:35.507
147.0, 38289.61113567485, 57904.74211034085, 18397.87732337443, -7463.225121882573, 24605.381441757854, 32886.43454151566, 11644.811826325873, 33698.22754838795, -0.1, 0.98, -0.002, 192.0, 252.0, 224.0, 30.0, 160.0, 255.0, 240.0, 0.0, 0.0, 0.0, 1.700951555512774E9, 0.0, 2023-11-25 17:32:35.512
148.0, 38324.524560514044, 57988.270579370335, 18382.34286097799, -7406.451690966093, 24567.606993628382, 32963.34689418637, 11642.263727457968, 33724.40144114512, -0.1, 0.98, -0.002, 192.0, 0.0, 0.0, 0.0, 0.0, 0.0, 0.0, 0.0, 0.0, 0.0, 1.700951555516749E9, 0.0, 2023-11-25 17:32:35.516
149.0, 38425.755611152126, 58055.05759180279, 18411.534239236622, -7353.5004083514705, 24660.634954051373, 33055.23491564213, 11650.690335117619, 33736.381976173165, -0.1, 0.98, -0.002, 192.0, 0.0, 0.0, 0.0, 0.0, 0.0, 0.0, 0.0, 0.0, 0.0, 1.700951555520762E9, 0.0, 2023-11-25 17:32:35.520
150.0, 38504.43375163481, 58019.67478033004, 18434.534184281136, -7323.213794614529, 24873.155340332432, 33502.06863904818, 11642.196672224603, 33736.24786570643, -0.1, 0.98, -0.002, 192.0, 0.0, 0.0, 0.0, 0.0, 0.0, 0.0, 0.0, 0.0, 0.0, 1.70095155552382E9, 0.0, 2023-11-25 17:32:35.523
151.0, 38315.42740052073, 57907.49137490885, 18413.143564837406, -7456.541950290436, 24629.20840134721, 32950.8299172914, 11635.558204121377, 33696.886443720636, -0.1, 0.98, -0.002, 192.0, 0.0, 0.0, 0.0, 0.0, 0.0, 0.0, 0.0, 0.0, 0.0, 1.700951555527874E9, 0.0, 2023-11-25 17:32:35.527
152.0, 38335.45456355269, 57978.21229436545, 18399.151372808385, -7399.9249815851435, 24595.121991052867, 32938.84938226335, 11634.910003532172, 33723.708537067, -0.1, 0.98, -0.002, 192.0, 0.0, 0.0, 0.0, 0.0, 0.0, 0.0, 0.0, 0.0, 0.0, 1.700951555532533E9, 0.0, 2023-11-25 17:32:35.532
153.0, 38414.95971858021, 58051.25779524539, 18417.055120117086, -7365.4138881461495, 24619.284226809054, 32996.49453121359, 11637.793378566907, 33719.595816087225, -0.1, 0.98, -0.002, 192.0, 0.0, 0.0, 0.0, 0.0, 0.0, 0.0, 0.0, 0.0, 0.0, 1.700951555536014E9, 0.0, 2023-11-25 17:32:35.536
154.0, 38532.351080459484, 58037.60087938319, 18448.660486776887, -7300.2585530589295, 24897.608148766536, 33483.04730451671, 11637.59221286681, 33733.38684241615, -0.1, 0.98, -0.002, 192.0, 0.0, 0.0, 0.0, 0.0, 0.0, 0.0, 0.0, 0.0, 0.0, 1.700951555539914E9, 0.0, 2023-11-25 17:32:35.539
155.0, 38350.85491548239, 57916.00738954633, 18427.515736522168, -7438.057057625897, 24677.063486226023, 33064.10855819089, 11630.3949511522, 33688.99627792791, -0.1, 0.98, -0.002, 192.0, 0.0, 0.0, 0.0, 0.0, 0.0, 0.0, 0.0, 0.0, 0.0, 1.700951555544911E9, 0.0, 2023-11-25 17:32:35.544
156.0, 38341.89186595582, 57973.026689651815, 18414.41761427136, -7384.658740122169, 24634.729282227672, 32912.340213339354, 11637.97219252255, 33717.33828989724, -0.1, 0.98, -0.002, 192.0, 0.0, 0.0, 0.0, 0.0, 0.0, 0.0, 0.0, 0.0, 0.0, 1.700951555547914E9, 0.0, 2023-11-25 17:32:35.547
157.0, 38399.58171839496, 58046.854501587695, 18414.730538693733, -7364.69863232358, 24597.692441665225, 32987.777350876015, 11635.871128543751, 33707.10119093671, -0.112, 0.972, -0.004, 192.0, 252.0, 128.0, 30.0, 96.0, 255.0, 224.0, 0.0, 0.0, 0.0, 1.700951555552001E9, 0.0, 2023-11-25 17:32:35.552
158.0, 38539.280121240634, 58060.82434187226, 18453.868443234976, -7280.276093515885, 24895.104753387543, 33438.45557432837, 11645.30356470389, 33729.54234236984, -0.112, 0.972, -0.004, 192.0, 0.0, 0.0, 0.0, 0.0, 0.0, 0.0, 0.0, 0.0, 0.0, 1.700951555555904E9, 0.0, 2023-11-25 17:32:35.555
159.0, 38397.234785227156, 57943.522386970806, 18438.44573956081, -7410.095025312308, 24725.969103094234, 33209.97604250623, 11640.766160579464, 33696.57351929826, -0.112, 0.972, -0.004, 192.0, 0.0, 0.0, 0.0, 0.0, 0.0, 0.0, 0.0, 0.0, 0.0, 1.700951555559981E9, 0.0, 2023-11-25 17:32:35.559
160.0, 38345.557552046484, 57962.253148824355, 18419.871439918454, -7390.738414614012, 24639.467852052196, 32901.723134723085, 11647.11405600477, 33725.94371151253, -0.112, 0.972, -0.004, 192.0, 0.0, 0.0, 0.0, 0.0, 0.0, 0.0, 0.0, 0.0, 0.0, 1.700951555564778E9, 0.0, 2023-11-25 17:32:35.564
161.0, 38391.53509039105, 58039.858405573184, 18409.790803169108, -7370.51008588196, 24574.15605475379, 32986.10097004187, 11642.755465835986, 33720.154609698606, -0.112, 0.972, -0.004, 192.0, 0.0, 0.0, 0.0, 0.0, 0.0, 0.0, 0.0, 0.0, 0.0, 1.700951555568252E9, 0.0, 2023-11-25 17:32:35.568
162.0, 38534.250978738186, 58070.279129776856, 18452.66144903439, -7277.34801499224, 24855.00572383472, 33333.625892832984, 11658.558149165887, 33750.418871691094, -0.112, 0.972, -0.004, 192.0, 0.0, 0.0, 0.0, 0.0, 0.0, 0.0, 0.0, 0.0, 0.0, 1.700951555573E9, 0.0, 2023-11-25 17:32:35.573
163.0, 38438.78667816957, 57958.56511098923, 18436.903469193396, -7382.758841843467, 24770.024391415645, 33340.44317489185, 11642.599003624799, 33718.0088422309, -0.112, 0.972, -0.004, 192.0, 0.0, 0.0, 0.0, 0.0, 0.0, 0.0, 0.0, 0.0, 0.0, 1.700951555575968E9, 0.0, 2023-11-25 17:32:35.575
164.0, 38349.692624770716, 57952.28427079729, 18421.36900679696, -7398.4050629621825, 24638.998465418634, 32876.286849532946, 11650.422114184155, 33732.58217961576, -0.112, 0.972, -0.004, 192.0, 0.0, 0.0, 0.0, 0.0, 0.0, 0.0, 0.0, 0.0, 0.0, 1.700951555580021E9, 0.0, 2023-11-25 17:32:35.580
165.0, 38397.27948871607, 58042.60767014119, 18405.11928857795, -7369.280739936918, 24574.178406498242, 32995.17577829072, 11643.202500725092, 33728.78238305836, -0.112, 0.972, -0.004, 192.0, 0.0, 0.0, 0.0, 0.0, 0.0, 0.0, 0.0, 0.0, 0.0, 1.700951555584031E9, 0.0, 2023-11-25 17:32:35.584
166.0, 38531.457010681275, 58092.22854283197, 18442.089073907027, -7287.875686630689, 24799.90867375239, 33247.16934527986, 11654.11015201928, 33738.751261085425, -0.112, 0.972, -0.004, 192.0, 0.0, 0.0, 0.0, 0.0, 0.0, 0.0, 0.0, 0.0, 0.0, 1.700951555588027E9, 0.0, 2023-11-25 17:32:35.588
167.0, 38501.55037660008, 58005.34731213419, 18440.569155284065, -7353.433353118105, 24823.936799041847, 33456.739301292815, 11638.843910556307, 33713.00205147291, -0.11800000000000001, 0.974, -0.006, 192.0, 252.0, 80.0, 30.0, 112.0, 255.0, 208.0, 0.0, 0.0, 0.0, 1.700951555592061E9, 0.0, 2023-11-25 17:32:35.592
168.0, 38365.070624955966, 57964.30950931425, 18422.777166697644, -7415.392388748216, 24641.479509053173, 32884.02055311448, 11641.68258210213, 33708.73286828195, -0.11800000000000001, 0.974, -0.006, 192.0, 0.0, 0.0, 0.0, 0.0, 0.0, 0.0, 0.0, 0.0, 0.0, 1.700951555596121E9, 0.0, 2023-11-25 17:32:35.596
169.0, 38406.13077952037, 58057.22571101496, 18405.678082189334, -7366.754992813468, 24590.785752628537, 33000.80841789346, 11634.440616898612, 33723.999109744924, -0.11800000000000001, 0.974, -0.006, 192.0, 0.0, 0.0, 0.0, 0.0, 0.0, 0.0, 0.0, 0.0, 0.0, 1.70095155560025E9, 0.0, 2023-11-25 17:32:35.600
170.0, 38520.95169078728, 58118.60360128923, 18435.830585459542, -7296.816384412812, 24744.74456843669, 33160.15400411535, 11645.214157726068, 33737.18663897355, -0.11800000000000001, 0.974, -0.006, 192.0, 0.0, 0.0, 0.0, 0.0, 0.0, 0.0, 0.0, 0.0, 0.0, 1.700951555604262E9, 0.0, 2023-11-25 17:32:35.604
171.0, 38554.47930747024, 58058.74562963792, 18444.88304196394, -7310.026265385898, 24876.463398511816, 33530.433002761965, 11644.275384458946, 33731.93397902656, -0.11800000000000001, 0.974, -0.006, 192.0, 0.0, 0.0, 0.0, 0.0, 0.0, 0.0, 0.0, 0.0, 0.0, 1.700951555607191E9, 0.0, 2023-11-25 17:32:35.607
172.0, 38380.89566003033, 57975.06069839725, 18421.905448663885, -7418.4769294830485, 24644.228773621177, 32923.38197510028, 11650.690335117619, 33711.86211250569, -0.11800000000000001, 0.974, -0.006, 192.0, 0.0, 0.0, 0.0, 0.0, 0.0, 0.0, 0.0, 0.0, 0.0, 1.700951555612303E9, 0.0, 2023-11-25 17:32:35.612
173.0, 38411.65166040083, 58059.706754649495, 18397.92202686334, -7361.748202055479, 24601.91692136728, 32994.88520561281, 11641.459064657578, 33734.43737440555, -0.11800000000000001, 0.974, -0.006, 192.0, 0.0, 0.0, 0.0, 0.0, 0.0, 0.0, 0.0, 0.0, 0.0, 1.700951555616147E9, 0.0, 2023-11-25 17:32:35.616
174.0, 38503.94201325679, 58130.02534270589, 18414.059986360073, -7317.357637567239, 24678.516349615616, 33091.332982937456, 11640.140311734714, 33730.570522614784, -0.11800000000000001, 0.974, -0.006, 192.0, 0.0, 0.0, 0.0, 0.0, 0.0, 0.0, 0.0, 0.0, 0.0, 1.700951555620138E9, 0.0, 2023-11-25 17:32:35.620
175.0, 38586.1070258745, 58099.47050803548, 18433.573059269555, -7287.093375574753, 24898.479866800295, 33559.222049620395, 11631.691352330608, 33731.08461273726, -0.11800000000000001, 0.974, -0.006, 192.0, 0.0, 0.0, 0.0, 0.0, 0.0, 0.0, 0.0, 0.0, 0.0, 1.700951555624196E9, 0.0, 2023-11-25 17:32:35.624
176.0, 38397.77122709408, 57992.182134650015, 18416.809250928076, -7421.963801618076, 24656.857509238424, 33001.5907289494, 11630.462006385565, 33696.48411232044, -0.11800000000000001, 0.974, -0.006, 192.0, 0.0, 0.0, 0.0, 0.0, 0.0, 0.0, 0.0, 0.0, 0.0, 1.700951555628162E9, 0.0, 2023-11-25 17:32:35.628
177.0, 38414.33386973546, 58064.333565751745, 18399.531352464124, -7364.497466623482, 24621.25118032112, 32974.031028036006, 11633.68065758713, 33729.452935392015, -0.108, 0.982, 0.0, 192.0, 252.0, 160.0, 30.0, 176.0, 0.0, 0.0, 0.0, 0.0, 0.0, 1.700951555632216E9, 0.0, 2023-11-25 17:32:35.632
178.0, 38488.541661327086, 58142.274098667396, 18409.142602579905, -7339.888195978188, 24632.91879092679, 33036.61591251086, 11637.502805888987, 33724.17792370056, -0.108, 0.982, 0.0, 192.0, 0.0, 0.0, 0.0, 0.0, 0.0, 0.0, 0.0, 0.0, 0.0, 1.700951555635208E9, 0.0, 2023-11-25 17:32:35.635
179.0, 38612.30327037612, 58143.525796356895, 18445.21831813077, -7271.53656143386, 24917.79177400968, 33513.53508395375, 11644.945936792605, 33743.512182654405, -0.108, 0.982, 0.0, 192.0, 0.0, 0.0, 0.0, 0.0, 0.0, 0.0, 0.0, 0.0, 0.0, 1.700951555640262E9, 0.0, 2023-11-25 17:32:35.640
180.0, 38436.439745001764, 58023.51928037635, 18426.50990802168, -7413.090159069319, 24695.593082379473, 33112.70125063673, 11642.263727457968, 33695.14300765312, -0.108, 0.982, 0.0, 192.0, 0.0, 0.0, 0.0, 0.0, 0.0, 0.0, 0.0, 0.0, 0.0, 1.700951555644202E9, 0.0, 2023-11-25 17:32:35.644
181.0, 38429.91303562082, 58076.40350775761, 18414.507021249177, -7362.642271833691, 24645.324009099488, 32947.4771556231, 11646.331744948835, 33727.9106650246, -0.108, 0.982, 0.0, 192.0, 0.0, 0.0, 0.0, 0.0, 0.0, 0.0, 0.0, 0.0, 0.0, 1.700951555648361E9, 0.0, 2023-11-25 17:32:35.648
182.0, 38491.536795084096, 58163.06122101084, 18419.424405029346, -7333.182672641597, 24611.952854627714, 33011.60431046537, 11651.316183962368, 33731.889275537644, -0.108, 0.982, 0.0, 192.0, 0.0, 0.0, 0.0, 0.0, 0.0, 0.0, 0.0, 0.0, 0.0, 1.700951555652306E9, 0.0, 2023-11-25 17:32:35.652
183.0, 38630.18466594037, 58181.501410186465, 18460.17163517137, -7241.808741308301, 24911.108602417542, 33456.06874895916, 11664.771934124463, 33762.71233114151, -0.108, 0.982, 0.0, 192.0, 0.0, 0.0, 0.0, 0.0, 0.0, 0.0, 0.0, 0.0, 0.0, 1.700951555656665E9, 0.0, 2023-11-25 17:32:35.656
184.0, 38489.167510171836, 58062.9030541066, 18445.08420766404, -7370.979472515521, 24745.348065536986, 33248.421042969356, 11655.741829364519, 33720.512237609895, -0.108, 0.982, 0.0, 192.0, 0.0, 0.0, 0.0, 0.0, 0.0, 0.0, 0.0, 0.0, 0.0, 1.700951555660257E9, 0.0, 2023-11-25 17:32:35.660
185.0, 38431.3211955215, 58083.77958342786, 18430.734387723733, -7353.031021717909, 24657.416302849808, 32908.652175504234, 11663.028498056949, 33740.18177273056, -0.108, 0.982, 0.0, 192.0, 0.0, 0.0, 0.0, 0.0, 0.0, 0.0, 0.0, 0.0, 0.0, 1.700951555663343E9, 0.0, 2023-11-25 17:32:35.663
186.0, 38468.402739572855, 58156.98154651899, 18414.104689848984, -7334.4790738200045, 24586.002479315102, 33015.64997621179, 11654.423076441655, 33733.6103598607, -0.108, 0.982, 0.0, 192.0, 0.0, 0.0, 0.0, 0.0, 0.0, 0.0, 0.0, 0.0, 0.0, 1.700951555667375E9, 0.0, 2023-11-25 17:32:35.667
187.0, 38608.72699126327, 58189.30216900136, 18451.923841467364, -7247.441380911038, 24854.11165405651, 33353.921276798406, 11664.123733535258, 33752.58699090326, -0.10400000000000001, 0.98, 0.004, 192.0, 252.0, 192.0, 30.0, 160.0, 0.0, 32.0, 0.0, 0.0, 0.0, 1.700951555672388E9, 0.0, 2023-11-25 17:32:35.672
188.0, 38521.2422634652, 58081.25383630441, 18438.244573860717, -7350.8852542502, 24780.95439445429, 33379.69283815537, 11647.87401531625, 33714.87959800716, -0.10400000000000001, 0.98, 0.004, 192.0, 0.0, 0.0, 0.0, 0.0, 0.0, 0.0, 0.0, 0.0, 0.0, 1.700951555676324E9, 0.0, 2023-11-25 17:32:35.676
189.0, 38422.00051808364, 58069.228597787456, 18420.206716085282, -7376.813277818356, 24639.82547996348, 32892.46951251859, 11656.278271231446, 33733.67741509407, -0.10400000000000001, 0.98, 0.004, 192.0, 0.0, 0.0, 0.0, 0.0, 0.0, 0.0, 0.0, 0.0, 0.0, 1.700951555680332E9, 0.0, 2023-11-25 17:32:35.680
190.0, 38466.21226861623, 58155.1263517292, 18400.939512364806, -7344.202082658063, 24572.56908089746, 33008.67623194173, 11648.432808927633, 33736.15845872861, -0.10400000000000001, 0.98, 0.004, 192.0, 0.0, 0.0, 0.0, 0.0, 0.0, 0.0, 0.0, 0.0, 0.0, 1.700951555684444E9, 0.0, 2023-11-25 17:32:35.684
191.0, 38592.67843874436, 58199.62867493972, 18432.12019587996, -7270.776602122379, 24781.781408999137, 33243.86128710047, 11657.060582287382, 33751.201182747034, -0.10400000000000001, 0.98, 0.004, 192.0, 0.0, 0.0, 0.0, 0.0, 0.0, 0.0, 0.0, 0.0, 0.0, 1.700951555688384E9, 0.0, 2023-11-25 17:32:35.688
192.0, 38565.364607019976, 58108.47826105097, 18424.185326598326, -7336.647193032169, 24809.832848290545, 33480.76742658227, 11640.810864068373, 33727.418926646584, -0.10400000000000001, 0.98, 0.004, 192.0, 0.0, 0.0, 0.0, 0.0, 0.0, 0.0, 0.0, 0.0, 0.0, 1.700951555691374E9, 0.0, 2023-11-25 17:32:35.691
193.0, 38421.73229715017, 58052.643603401615, 18404.336977522013, -7406.98813283302, 24618.658377964304, 32897.99039339905, 11645.728247848541, 33719.57346434277, -0.10400000000000001, 0.98, 0.004, 192.0, 0.0, 0.0, 0.0, 0.0, 0.0, 0.0, 0.0, 0.0, 0.0, 1.700951555695432E9, 0.0, 2023-11-25 17:32:35.695
194.0, 38462.05484414755, 58136.55205208684, 18385.82973311302, -7363.424582889626, 24565.550633138497, 33006.08342958491, 11635.178224465637, 33730.48111563696, -0.10400000000000001, 0.98, 0.004, 192.0, 0.0, 0.0, 0.0, 0.0, 0.0, 0.0, 0.0, 0.0, 0.0, 1.700951555700445E9, 0.0, 2023-11-25 17:32:35.700
195.0, 38575.82522342506, 58199.00282609497, 18416.429271272336, -7296.704625690535, 24710.166419764333, 33135.23180904768, 11643.493073403011, 33740.15942098611, -0.10400000000000001, 0.98, 0.004, 192.0, 0.0, 0.0, 0.0, 0.0, 0.0, 0.0, 0.0, 0.0, 0.0, 1.700951555704415E9, 0.0, 2023-11-25 17:32:35.704
196.0, 38609.08461917456, 58143.72696205699, 18424.74412020971, -7303.678369960591, 24849.39543597644, 33523.012223602804, 11633.501843631488, 33729.40823190311, -0.10400000000000001, 0.98, 0.004, 192.0, 0.0, 0.0, 0.0, 0.0, 0.0, 0.0, 0.0, 0.0, 0.0, 1.700951555708398E9, 0.0, 2023-11-25 17:32:35.708
197.0, 38431.902340877336, 58059.147961038114, 18405.074585089038, -7417.448749238104, 24613.24925580612, 32911.13321913877, 11633.25597444248, 33696.953498954, -0.108, 0.974, 0.006, 192.0, 252.0, 160.0, 30.0, 112.0, 0.0, 48.0, 0.0, 0.0, 0.0, 1.700951555712469E9, 0.0, 2023-11-25 17:32:35.712
198.0, 38463.59711451496, 58138.921336999105, 18387.528465691623, -7363.491638122993, 24574.33486870943, 32963.14572848627, 11630.05967498537, 33715.84072301874, -0.108, 0.974, 0.006, 192.0, 0.0, 0.0, 0.0, 0.0, 0.0, 0.0, 0.0, 0.0, 0.0, 1.700951555715447E9, 0.0, 2023-11-25 17:32:35.715
199.0, 38546.835010866525, 58196.6335411827, 18402.88411413242, -7320.710399235535, 24642.30652359802, 33050.429290584245, 11633.837119798318, 33712.53266483935, -0.108, 0.974, 0.006, 192.0, 0.0, 0.0, 0.0, 0.0, 0.0, 0.0, 0.0, 0.0, 0.0, 1.700951555719468E9, 0.0, 2023-11-25 17:32:35.719
200.0, 38632.6657095749, 58166.57044489032, 18424.520602765155, -7286.802802896835, 24869.310840286118, 33529.49422949484, 11629.523233118443, 33722.255673677406, -0.108, 0.974, 0.006, 192.0, 0.0, 0.0, 0.0, 0.0, 0.0, 0.0, 0.0, 0.0, 0.0, 1.700951555725503E9, 0.0, 2023-11-25 17:32:35.725
201.0, 38447.36974804041, 58060.91374885008, 18407.421518256848, -7418.700446927602, 24628.02375889108, 32993.946432345685, 11630.953744763583, 33690.42678957305, -0.108, 0.974, 0.006, 192.0, 0.0, 0.0, 0.0, 0.0, 0.0, 0.0, 0.0, 0.0, 0.0, 1.700951555728556E9, 0.0, 2023-11-25 17:32:35.728
202.0, 38465.16173662683, 58131.03117120638, 18394.435154728315, -7359.378917143216, 24590.338717739432, 32953.82505104841, 11637.279288444435, 33723.037984733346, -0.108, 0.974, 0.006, 192.0, 0.0, 0.0, 0.0, 0.0, 0.0, 0.0, 0.0, 0.0, 0.0, 1.700951555732525E9, 0.0, 2023-11-25 17:32:35.732
203.0, 38530.67469962534, 58205.08250058681, 18401.475954231733, -7331.685105763091, 24591.67982240675, 33015.00177562258, 11637.614564611265, 33713.06910670628, -0.108, 0.974, 0.006, 192.0, 0.0, 0.0, 0.0, 0.0, 0.0, 0.0, 0.0, 0.0, 0.0, 1.700951555736501E9, 0.0, 2023-11-25 17:32:35.736
204.0, 38656.13504125298, 58205.127204075725, 18437.21639361577, -7264.138134019153, 24875.68108745588, 33472.407874155986, 11644.54360539241, 33732.22455170447, -0.108, 0.974, 0.006, 192.0, 0.0, 0.0, 0.0, 0.0, 0.0, 0.0, 0.0, 0.0, 0.0, 1.700951555740499E9, 0.0, 2023-11-25 17:32:35.740
205.0, 38482.596097301976, 58077.56579846929, 18410.908390391873, -7409.3797694897385, 24651.224869635687, 33091.958831782205, 11632.026628497439, 33679.407379556586, -0.108, 0.974, 0.006, 192.0, 0.0, 0.0, 0.0, 0.0, 0.0, 0.0, 0.0, 0.0, 0.0, 1.700951555743507E9, 0.0, 2023-11-25 17:32:35.743
206.0, 38464.53588778208, 58117.70953151102, 18392.669366916343, -7367.716117825046, 24591.34454623992, 32903.488922535056, 11632.719532575553, 33708.28583339284, -0.108, 0.974, 0.006, 192.0, 0.0, 0.0, 0.0, 0.0, 0.0, 0.0, 0.0, 0.0, 0.0, 1.700951555747543E9, 0.0, 2023-11-25 17:32:35.747
207.0, 38523.43273442182, 58199.09223307279, 18393.183457038816, -7344.716172780535, 24553.19011845471, 32982.52469092902, 11637.011067510972, 33714.05258346231, -0.112, 0.98, 0.004, 192.0, 252.0, 128.0, 30.0, 160.0, 0.0, 32.0, 0.0, 0.0, 0.0, 1.700951555751605E9, 0.0, 2023-11-25 17:32:35.751
208.0, 38667.445023947366, 58225.98138165253, 18441.351466340002, -7249.140113489642, 24856.34682850204, 33406.7831524352, 11660.413343955677, 33758.6666653951, -0.112, 0.98, 0.004, 192.0, 0.0, 0.0, 0.0, 0.0, 0.0, 0.0, 0.0, 0.0, 0.0, 1.700951555756715E9, 0.0, 2023-11-25 17:32:35.756
209.0, 38530.71940311425, 58107.114804639205, 18426.10757662148, -7370.420678904138, 24705.65136738436, 33244.44243245631, 11652.724343863052, 33719.752278298416, -0.112, 0.98, 0.004, 192.0, 0.0, 0.0, 0.0, 0.0, 0.0, 0.0, 0.0, 0.0, 0.0, 1.700951555761619E9, 0.0, 2023-11-25 17:32:35.761
210.0, 38473.342475097474, 58123.20806064702, 18409.477878746733, -7358.596606087281, 24613.91980813978, 32894.4141142862, 11652.478474674044, 33731.46459239299, -0.112, 0.98, 0.004, 192.0, 0.0, 0.0, 0.0, 0.0, 0.0, 0.0, 0.0, 0.0, 0.0, 1.700951555764665E9, 0.0, 2023-11-25 17:32:35.764
211.0, 38520.86228380946, 58206.78123316541, 18397.698509418788, -7337.8318354883, 24551.178461453732, 32993.1864730342, 11650.332707206335, 33738.48304015196, -0.112, 0.98, 0.004, 192.0, 0.0, 0.0, 0.0, 0.0, 0.0, 0.0, 0.0, 0.0, 0.0, 1.70095155576863E9, 0.0, 2023-11-25 17:32:35.768
212.0, 38661.45475643334, 58245.8967859622, 18434.578887770043, -7250.548273390326, 24815.644301848926, 33320.84069500455, 11658.915777077173, 33760.29834274034, -0.112, 0.98, 0.004, 192.0, 0.0, 0.0, 0.0, 0.0, 0.0, 0.0, 0.0, 0.0, 0.0, 1.700951555771607E9, 0.0, 2023-11-25 17:32:35.771
213.0, 38582.86602292848, 58143.324630656796, 18425.369969054456, -7347.621899559725, 24756.792158698103, 33363.64428563646, 11644.208329225581, 33716.28775790784, -0.112, 0.98, 0.004, 192.0, 0.0, 0.0, 0.0, 0.0, 0.0, 0.0, 0.0, 0.0, 0.0, 1.700951555775622E9, 0.0, 2023-11-25 17:32:35.775
214.0, 38481.746731012674, 58126.85139499324, 18414.305855549082, -7370.443030648593, 24619.19481983123, 32862.11584354828, 11652.701992118597, 33714.991356729435, -0.112, 0.98, 0.004, 192.0, 0.0, 0.0, 0.0, 0.0, 0.0, 0.0, 0.0, 0.0, 0.0, 1.700951555779642E9, 0.0, 2023-11-25 17:32:35.779
215.0, 38527.880731568424, 58214.02319836894, 18401.543009465102, -7326.588908027281, 24562.28727844802, 32982.92702232922, 11648.119884505259, 33731.755165070914, -0.112, 0.98, 0.004, 192.0, 0.0, 0.0, 0.0, 0.0, 0.0, 0.0, 0.0, 0.0, 0.0, 1.700951555783679E9, 0.0, 2023-11-25 17:32:35.783
216.0, 38654.570419141106, 58262.370021625764, 18436.389379070926, -7248.380154178161, 24767.252775103185, 33216.72626933173, 11662.425000956655, 33769.864889367214, -0.106, 0.978, 0.012, 192.0, 252.0, 176.0, 30.0, 144.0, 0.0, 96.0, 0.0, 0.0, 0.0, 1.700951555787679E9, 0.0, 2023-11-25 17:32:35.787
217.0, 38637.717203821805, 58179.44504969657, 18434.22125985876, -7303.320742049306, 24813.47618263676, 33473.97249626786, 11649.885672317228, 33752.385825203164, -0.106, 0.978, 0.012, 192.0, 0.0, 0.0, 0.0, 0.0, 0.0, 0.0, 0.0, 0.0, 0.0, 1.700951555792938E9, 0.0, 2023-11-25 17:32:35.792
218.0, 38482.75255951316, 58120.01176118991, 18412.54006773711, -7382.088289509808, 24616.73612794115, 32884.64640195923, 11653.573710152354, 33741.50052565343, -0.106, 0.978, 0.012, 192.0, 0.0, 0.0, 0.0, 0.0, 0.0, 0.0, 0.0, 0.0, 0.0, 1.700951555795725E9, 0.0, 2023-11-25 17:32:35.795
219.0, 38517.77774307463, 58200.299227273375, 18389.92010234834, -7339.21764364453, 24565.75179883859, 32996.36042074685, 11642.643707113708, 33756.073863038284, -0.106, 0.978, 0.012, 192.0, 0.0, 0.0, 0.0, 0.0, 0.0, 0.0, 0.0, 0.0, 0.0, 1.700951555799673E9, 0.0, 2023-11-25 17:32:35.799
220.0, 38625.133171693466, 58255.753905266996, 18414.484669504724, -7280.924294105089, 24695.011937023635, 33128.995672344645, 11643.090742002814, 33755.29155198235, -0.106, 0.978, 0.012, 192.0, 0.0, 0.0, 0.0, 0.0, 0.0, 0.0, 0.0, 0.0, 0.0, 1.700951555806737E9, 0.0, 2023-11-25 17:32:35.806
221.0, 38667.95911406983, 58195.7841748934, 18421.905448663885, -7292.122518077197, 24842.48874693975, 33523.61572070309, 11622.437730126112, 33731.50929588191, -0.106, 0.978, 0.012, 192.0, 0.0, 0.0, 0.0, 0.0, 0.0, 0.0, 0.0, 0.0, 0.0, 1.700951555809703E9, 0.0, 2023-11-25 17:32:35.809
222.0, 38492.3861613734, 58107.91946743959, 18403.26409378816, -7408.262182266973, 24610.656453449305, 32903.73479172406, 11622.996523737494, 33699.814522244276, -0.106, 0.978, 0.012, 192.0, 0.0, 0.0, 0.0, 0.0, 0.0, 0.0, 0.0, 0.0, 0.0, 1.700951555812759E9, 0.0, 2023-11-25 17:32:35.812
223.0, 38518.56005413056, 58185.30120674387, 18382.231102255715, -7351.9134344951435, 24566.53410989453, 32948.147707956756, 11615.598096322787, 33728.58121735826, -0.106, 0.978, 0.012, 192.0, 0.0, 0.0, 0.0, 0.0, 0.0, 0.0, 0.0, 0.0, 0.0, 1.700951555815751E9, 0.0, 2023-11-25 17:32:35.815
224.0, 38607.05061042913, 58251.551777309396, 18401.163029809362, -7313.222564843008, 24624.939218156247, 33019.65093846928, 11616.2910004009, 33726.591912101736, -0.106, 0.978, 0.012, 192.0, 0.0, 0.0, 0.0, 0.0, 0.0, 0.0, 0.0, 0.0, 0.0, 1.700951555820756E9, 0.0, 2023-11-25 17:32:35.820
225.0, 38704.414809276444, 58225.869622930244, 18428.02982664464, -7276.163372536108, 24863.320572772096, 33493.73143836635, 11611.083043942815, 33727.88831328014, -0.106, 0.978, 0.012, 192.0, 0.0, 0.0, 0.0, 0.0, 0.0, 0.0, 0.0, 0.0, 0.0, 1.700951555824204E9, 0.0, 2023-11-25 17:32:35.824
226.0, 38521.51048439866, 58115.630819276674, 18407.533276979124, -7413.336028258327, 24625.050976878523, 32973.42753093571, 11607.998503207982, 33685.77762672635, -0.106, 0.976, 0.008, 192.0, 252.0, 176.0, 30.0, 128.0, 0.0, 64.0, 0.0, 0.0, 0.0, 1.700951555827759E9, 0.0, 2023-11-25 17:32:35.827
227.0, 38535.033289794126, 58189.14570679018, 18393.27286401664, -7353.880388007211, 24590.67399390626, 32922.152629155236, 11612.647666054687, 33721.898045766124, -0.106, 0.976, 0.008, 192.0, 0.0, 0.0, 0.0, 0.0, 0.0, 0.0, 0.0, 0.0, 0.0, 1.700951555831779E9, 0.0, 2023-11-25 17:32:35.831
228.0, 38604.234290627755, 58268.36028913979, 18407.68973919031, -7323.906698692644, 24595.43491547524, 32982.21176650665, 11632.227794197535, 33731.08461273726, -0.106, 0.976, 0.008, 192.0, 0.0, 0.0, 0.0, 0.0, 0.0, 0.0, 0.0, 0.0, 0.0, 1.700951555835783E9, 0.0, 2023-11-25 17:32:35.835
229.0, 38732.376841590034, 58271.13190545225, 18446.179443142348, -7247.240215210941, 24884.442971282362, 33464.227135685345, 11649.68450661713, 33760.20893576252, -0.106, 0.976, 0.008, 192.0, 0.0, 0.0, 0.0, 0.0, 0.0, 0.0, 0.0, 0.0, 0.0, 1.700951555839808E9, 0.0, 2023-11-25 17:32:35.839
230.0, 38567.5550779766, 58151.39361040516, 18429.102710378495, -7386.402176189683, 24676.080009469988, 33107.5156459231, 11647.002297282494, 33721.09338296573, -0.106, 0.976, 0.008, 192.0, 0.0, 0.0, 0.0, 0.0, 0.0, 0.0, 0.0, 0.0, 0.0, 1.70095155584386E9, 0.0, 2023-11-25 17:32:35.843
231.0, 38549.58427543453, 58195.44889872657, 18413.143564837406, -7343.084495435298, 24619.82066867598, 32906.66287024771, 11655.920643320162, 33754.19631650404, -0.106, 0.976, 0.008, 192.0, 0.0, 0.0, 0.0, 0.0, 0.0, 0.0, 0.0, 0.0, 0.0, 1.700951555848877E9, 0.0, 2023-11-25 17:32:35.848
232.0, 38599.87570045897, 58266.706260050094, 18402.481782732222, -7324.599602770759, 24568.90339480679, 32994.75109514607, 11645.057695514883, 33743.89216231015, -0.106, 0.976, 0.008, 192.0, 0.0, 0.0, 0.0, 0.0, 0.0, 0.0, 0.0, 0.0, 0.0, 1.700951555851831E9, 0.0, 2023-11-25 17:32:35.851
233.0, 38739.395289349, 58284.38648991424, 18440.144472139415, -7242.658107597603, 24862.135930315966, 33405.59850997907, 11653.774875852452, 33765.68511315407, -0.106, 0.976, 0.008, 192.0, 0.0, 0.0, 0.0, 0.0, 0.0, 0.0, 0.0, 0.0, 0.0, 1.700951555856856E9, 0.0, 2023-11-25 17:32:35.856
234.0, 38609.57635755257, 58164.24586346697, 18423.782995198133, -7367.850228291778, 24721.856382114456, 33246.00705456818, 11644.185977481126, 33722.30037716632, -0.106, 0.976, 0.008, 192.0, 0.0, 0.0, 0.0, 0.0, 0.0, 0.0, 0.0, 0.0, 0.0, 1.700951555859876E9, 0.0, 2023-11-25 17:32:35.859
235.0, 38541.96233057527, 58172.270139726425, 18402.705300176778, -7357.210797931051, 24624.1122036114, 32886.09926534883, 11648.119884505259, 33739.22064771898, -0.106, 0.976, 0.008, 192.0, 0.0, 0.0, 0.0, 0.0, 0.0, 0.0, 0.0, 0.0, 0.0, 1.700951555863917E9, 0.0, 2023-11-25 17:32:35.863
236.0, 38586.86698518598, 58255.86566398927, 18392.043518071594, -7333.339134852784, 24563.561327881973, 32985.7880456195, 11647.583442638332, 33741.8134500758, -0.112, 0.978, 0.004, 192.0, 252.0, 128.0, 30.0, 144.0, 0.0, 32.0, 0.0, 0.0, 0.0, 1.700951555868919E9, 0.0, 2023-11-25 17:32:35.868
237.0, 38727.59356827659, 58297.886943565245, 18434.26596334767, -7246.346145432729, 24824.942627542332, 33293.81743595808, 11667.342384736823, 33775.40812199213, -0.112, 0.978, 0.004, 192.0, 0.0, 0.0, 0.0, 0.0, 0.0, 0.0, 0.0, 0.0, 0.0, 1.700951555873959E9, 0.0, 2023-11-25 17:32:35.873
238.0, 38651.66469236192, 58195.56065744885, 18423.291256820114, -7336.446027332071, 24773.891243206413, 33371.802672362646, 11655.406553197688, 33738.50539189642, -0.112, 0.978, 0.004, 192.0, 0.0, 0.0, 0.0, 0.0, 0.0, 0.0, 0.0, 0.0, 0.0, 1.7009515558769E9, 0.0, 2023-11-25 17:32:35.876
239.0, 38534.943882816304, 58171.621939137214, 18407.98031186823, -7369.168981214641, 24624.894514667336, 32857.041997556924, 11665.666003902676, 33742.4169471761, -0.112, 0.978, 0.004, 192.0, 0.0, 0.0, 0.0, 0.0, 0.0, 0.0, 0.0, 0.0, 0.0, 1.700951555880994E9, 0.0, 2023-11-25 17:32:35.880
240.0, 38570.818432667074, 58253.563434310374, 18387.30494824707, -7333.562652297337, 24562.153167981287, 32985.94450783068, 11656.568843909365, 33747.691958867545, -0.112, 0.978, 0.004, 192.0, 0.0, 0.0, 0.0, 0.0, 0.0, 0.0, 0.0, 0.0, 0.0, 1.700951555883975E9, 0.0, 2023-11-25 17:32:35.883
241.0, 38696.21171906134, 58306.53706866945, 18425.012341143174, -7261.321814217784, 24764.32469657954, 33195.78268477711, 11667.275329503456, 33763.44993870854, -0.112, 0.978, 0.004, 192.0, 0.0, 0.0, 0.0, 0.0, 0.0, 0.0, 0.0, 0.0, 0.0, 1.700951555888083E9, 0.0, 2023-11-25 17:32:35.888
242.0, 38690.42261724742, 58233.53627127842, 18429.259172589682, -7304.281867060884, 24830.977598545265, 33473.167833467465, 11652.322012462857, 33742.34989194273, -0.112, 0.978, 0.004, 192.0, 0.0, 0.0, 0.0, 0.0, 0.0, 0.0, 0.0, 0.0, 0.0, 1.700951555892013E9, 0.0, 2023-11-25 17:32:35.892
243.0, 38539.95067357429, 58175.10881127224, 18411.444832258803, -7377.237960963007, 24630.437747292253, 32879.61725945678, 11651.87497757375, 33724.692013823034, -0.112, 0.978, 0.004, 192.0, 0.0, 0.0, 0.0, 0.0, 0.0, 0.0, 0.0, 0.0, 0.0, 1.700951555896021E9, 0.0, 2023-11-25 17:32:35.896
244.0, 38578.06039787059, 58260.67128904716, 18391.6411866714, -7325.761893482434, 24582.739124624626, 32985.85510085286, 11643.090742002814, 33737.96895002949, -0.112, 0.978, 0.004, 192.0, 0.0, 0.0, 0.0, 0.0, 0.0, 0.0, 0.0, 0.0, 0.0, 1.700951555900063E9, 0.0, 2023-11-25 17:32:35.900
245.0, 38685.192309044876, 58324.798443889435, 18419.69262596281, -7270.553084677826, 24709.47351568622, 33111.44955294723, 11646.130579248736, 33744.58506638826, -0.112, 0.978, 0.004, 192.0, 0.0, 0.0, 0.0, 0.0, 0.0, 0.0, 0.0, 0.0, 0.0, 1.700951555906021E9, 0.0, 2023-11-25 17:32:35.906
246.0, 38740.53522831622, 58280.96667301258, 18435.98704767073, -7264.674575886081, 24876.329288045086, 33524.263921292295, 11636.16170122167, 33739.39946167463, -0.106, 0.974, 0.004, 192.0, 252.0, 176.0, 30.0, 112.0, 0.0, 32.0, 0.0, 0.0, 0.0, 1.700951555908987E9, 0.0, 2023-11-25 17:32:35.908
247.0, 38560.402519750896, 58187.84930561177, 18413.434137515324, -7383.004711032476, 24636.897401439837, 32935.58602757288, 11633.16656746466, 33707.41411535908, -0.106, 0.974, 0.004, 192.0, 0.0, 0.0, 0.0, 0.0, 0.0, 0.0, 0.0, 0.0, 0.0, 1.700951555913008E9, 0.0, 2023-11-25 17:32:35.913
248.0, 38589.03510439815, 58269.00848972899, 18396.290349518105, -7327.371219083217, 24601.24636903362, 32966.744359343575, 11632.183090708624, 33736.04670000633, -0.106, 0.974, 0.004, 192.0, 0.0, 0.0, 0.0, 0.0, 0.0, 0.0, 0.0, 0.0, 0.0, 1.700951555916067E9, 0.0, 2023-11-25 17:32:35.916
249.0, 38674.57523042861, 58337.78480741797, 18413.635303215422, -7285.305236018328, 24654.331762114976, 33026.69173797271, 11637.905137289184, 33734.79500231684, -0.106, 0.974, 0.004, 192.0, 0.0, 0.0, 0.0, 0.0, 0.0, 0.0, 0.0, 0.0, 0.0, 1.700951555920129E9, 0.0, 2023-11-25 17:32:35.920
250.0, 38770.93360077543, 58308.0122838035, 18437.88694594943, -7242.769866319879, 24897.228169110796, 33502.51567393728, 11632.63012559773, 33742.77457508738, -0.106, 0.974, 0.004, 192.0, 0.0, 0.0, 0.0, 0.0, 0.0, 0.0, 0.0, 0.0, 0.0, 1.70095155592518E9, 0.0, 2023-11-25 17:32:35.925
251.0, 38580.29557231612, 58185.122392788224, 18414.574076482546, -7384.569333144347, 24654.622334792894, 32998.19326379219, 11623.756483048974, 33696.327650109255, -0.106, 0.974, 0.004, 192.0, 0.0, 0.0, 0.0, 0.0, 0.0, 0.0, 0.0, 0.0, 0.0, 1.700951555929242E9, 0.0, 2023-11-25 17:32:35.929
252.0, 38584.095368873524, 58248.51194006347, 18398.458468730267, -7332.869748219222, 24614.769174429082, 32929.30518738094, 11627.623334839742, 33724.222627189476, -0.106, 0.974, 0.004, 192.0, 0.0, 0.0, 0.0, 0.0, 0.0, 0.0, 0.0, 0.0, 0.0, 1.700951555932187E9, 0.0, 2023-11-25 17:32:35.932
253.0, 38648.73661383827, 58321.311571754406, 18405.633378700422, -7305.824137428301, 24601.33577601144, 32990.236042766104, 11629.567936607355, 33719.34994689822, -0.106, 0.974, 0.004, 192.0, 0.0, 0.0, 0.0, 0.0, 0.0, 0.0, 0.0, 0.0, 0.0, 1.700951555935146E9, 0.0, 2023-11-25 17:32:35.935
254.0, 38779.62842936855, 58323.278525266476, 18443.40782682989, -7226.788369034335, 24891.707288230336, 33456.448728614894, 11639.514462889965, 33747.557848400815, -0.106, 0.974, 0.004, 192.0, 0.0, 0.0, 0.0, 0.0, 0.0, 0.0, 0.0, 0.0, 0.0, 1.700951555941176E9, 0.0, 2023-11-25 17:32:35.941
255.0, 38608.03408718516, 58195.9853405935, 18422.665407975364, -7370.130106226219, 24685.40068690785, 33121.70900365222, 11632.697180831097, 33699.07691467725, -0.106, 0.974, 0.004, 192.0, 0.0, 0.0, 0.0, 0.0, 0.0, 0.0, 0.0, 0.0, 0.0, 1.700951555944156E9, 0.0, 2023-11-25 17:32:35.944
0.0, 38579.93794440484, 58236.97843992453, 18408.516753735155, -7334.322611608817, 24622.63698847735, 32882.433579258155, 11638.441579156111, 33715.10311545171, -0.098, 0.984, -0.004, 192.0, 252.0, 240.0, 30.0, 192.0, 255.0, 224.0, 0.0, 0.0, 0.0, 1.70095155594717E9, 0.0, 2023-11-25 17:32:35.947
1.0, 38630.83286652957, 58315.500118196025, 18401.319492020546, -7315.100111377253, 24567.33877269492, 32955.61319060483, 11633.010105253472, 33711.32567063876, -0.098, 0.984, -0.004, 192.0, 0.0, 0.0, 0.0, 0.0, 0.0, 0.0, 0.0, 0.0, 0.0, 1.700951555952203E9, 0.0, 2023-11-25 17:32:35.952
2.0, 38768.787833307724, 58336.77897891748, 18438.803367472097, -7229.202357435508, 24854.33517150106, 33357.944590800354, 11643.493073403011, 33753.01167404791, -0.098, 0.984, -0.004, 192.0, 0.0, 0.0, 0.0, 0.0, 0.0, 0.0, 0.0, 0.0, 0.0, 1.700951555956267E9, 0.0, 2023-11-25 17:32:35.956
3.0, 38637.51603812171, 58217.15244259268, 18417.815079428565, -7354.9085682521545, 24722.99632108168, 33241.31318823257, 11630.484358130021, 33720.42283063207, -0.098, 0.984, -0.004, 192.0, 0.0, 0.0, 0.0, 0.0, 0.0, 0.0, 0.0, 0.0, 0.0, 1.700951555960515E9, 0.0, 2023-11-25 17:32:35.960
4.0, 38561.27423778465, 58222.71802696205, 18400.715994920254, -7350.393515872182, 24617.96547388619, 32859.74655863602, 11642.755465835986, 33743.646293121135, -0.098, 0.984, -0.004, 192.0, 0.0, 0.0, 0.0, 0.0, 0.0, 0.0, 0.0, 0.0, 0.0, 1.700951555963272E9, 0.0, 2023-11-25 17:32:35.963
5.0, 38607.45294182932, 58304.23483899055, 18388.467238958747, -7324.264326603929, 24553.078359732433, 32972.24288847958, 11638.262765200468, 33743.2663134654, -0.098, 0.984, -0.004, 192.0, 0.0, 0.0, 0.0, 0.0, 0.0, 0.0, 0.0, 0.0, 0.0, 1.700951555967258E9, 0.0, 2023-11-25 17:32:35.967
6.0, 38737.92007421495, 58335.68374343917, 18422.508945764177, -7238.835959295745, 24805.586016844038, 33283.26741257518, 11649.349230450302, 33768.52378469989, -0.098, 0.984, -0.004, 192.0, 0.0, 0.0, 0.0, 0.0, 0.0, 0.0, 0.0, 0.0, 0.0, 1.700951555971251E9, 0.0, 2023-11-25 17:32:35.971
7.0, 38667.33326522509, 58235.23500385702, 18413.79176542661, -7321.7385794804795, 24771.253737360687, 33383.29146901268, 11637.033419255427, 33731.08461273726, -0.098, 0.984, -0.004, 192.0, 0.0, 0.0, 0.0, 0.0, 0.0, 0.0, 0.0, 0.0, 0.0, 1.70095155597526E9, 0.0, 2023-11-25 17:32:35.975
8.0, 38550.098365557, 58208.30115178838, 18399.509000719667, -7355.64617581918, 24618.121936097377, 32850.15766026469, 11649.416285683667, 33744.65212162163, -0.098, 0.984, -0.004, 192.0, 0.0, 0.0, 0.0, 0.0, 0.0, 0.0, 0.0, 0.0, 0.0, 1.700951555980308E9, 0.0, 2023-11-25 17:32:35.980
9.0, 38589.415084053886, 58292.61193187379, 18383.14752377838, -7314.273096832407, 24561.147339480798, 32969.56067914494, 11647.06935251586, 33762.10883404122, -0.098, 0.984, -0.004, 192.0, 0.0, 0.0, 0.0, 0.0, 0.0, 0.0, 0.0, 0.0, 0.0, 1.700951555984352E9, 0.0, 2023-11-25 17:32:35.984
10.0, 38703.27487030922, 58335.66139169472, 18412.227143314736, -7243.753343075913, 24747.538536493605, 33179.28709736909, 11657.507617176489, 33774.51405221392, -0.106, 0.982, -0.006, 192.0, 252.0, 176.0, 30.0, 176.0, 255.0, 208.0, 0.0, 0.0, 0.0, 1.7009515559883E9, 0.0, 2023-11-25 17:32:35.988
11.0, 38703.07370460912, 58262.48178034804, 18418.68679746232, -7284.992311595955, 24827.87070606598, 33459.62267632755, 11651.092666517814, 33759.20310726203, -0.106, 0.982, -0.006, 192.0, 0.0, 0.0, 0.0, 0.0, 0.0, 0.0, 0.0, 0.0, 0.0, 1.700951555991502E9, 0.0, 2023-11-25 17:32:35.991
12.0, 38540.01772880766, 58193.54900044787, 18392.244683771693, -7374.399289417182, 24616.892590152336, 32862.51817494848, 11646.532910648932, 33735.84553430624, -0.106, 0.982, -0.006, 192.0, 0.0, 0.0, 0.0, 0.0, 0.0, 0.0, 0.0, 0.0, 0.0, 1.700951555995825E9, 0.0, 2023-11-25 17:32:35.995
13.0, 38569.36556927748, 58274.886998520735, 18363.4332851688, -7331.707457507546, 24559.113330735367, 32966.29732445447, 11626.68456157262, 33736.225513961974, -0.106, 0.982, -0.006, 192.0, 0.0, 0.0, 0.0, 0.0, 0.0, 0.0, 0.0, 0.0, 0.0, 1.700951555999432E9, 0.0, 2023-11-25 17:32:35.999
14.0, 38672.27300074971, 58336.39899926174, 18390.255378515172, -7280.790183638357, 24673.50955885763, 33074.79269204053, 11628.383294151223, 33731.9116272821, -0.106, 0.982, -0.006, 192.0, 0.0, 0.0, 0.0, 0.0, 0.0, 0.0, 0.0, 0.0, 0.0, 1.700951556003353E9, 0.0, 2023-11-25 17:32:36.003
15.0, 38734.18733289091, 58289.75090858351, 18411.869515403454, -7270.597788166737, 24856.413883735408, 33489.12697900856, 11616.559221334366, 33725.78724930135, -0.106, 0.982, -0.006, 192.0, 0.0, 0.0, 0.0, 0.0, 0.0, 0.0, 0.0, 0.0, 0.0, 1.700951556008372E9, 0.0, 2023-11-25 17:32:36.008
16.0, 38555.12750805944, 58197.10292781627, 18396.91619836285, -7385.329292455828, 24621.96643614369, 32889.83200667286, 11618.325009146334, 33701.6026618007, -0.106, 0.982, -0.006, 192.0, 0.0, 0.0, 0.0, 0.0, 0.0, 0.0, 0.0, 0.0, 0.0, 1.700951556014125E9, 0.0, 2023-11-25 17:32:36.014
17.0, 38577.76982519267, 58273.47883862005, 18377.291366731093, -7329.695800506569, 24583.789656614026, 32922.286739621966, 11617.520346345944, 33732.78334531586, -0.106, 0.982, -0.006, 192.0, 0.0, 0.0, 0.0, 0.0, 0.0, 0.0, 0.0, 0.0, 0.0, 1.700951556017408E9, 0.0, 2023-11-25 17:32:36.017
18.0, 38659.599561643554, 58341.9198801422, 18394.01047158366, -7296.190535568063, 24627.174392601777, 32993.05236256747, 11626.326933661334, 33733.83387730526, -0.106, 0.982, -0.006, 192.0, 0.0, 0.0, 0.0, 0.0, 0.0, 0.0, 0.0, 0.0, 0.0, 1.700951556020434E9, 0.0, 2023-11-25 17:32:36.020
19.0, 38762.12701346004, 58317.958810086115, 18417.792727684107, -7249.453037912016, 24880.196139835854, 33487.16002549649, 11627.958611006572, 33743.48983090995, -0.106, 0.982, -0.006, 192.0, 0.0, 0.0, 0.0, 0.0, 0.0, 0.0, 0.0, 0.0, 0.0, 1.7009515560234E9, 0.0, 2023-11-25 17:32:36.023
20.0, 38575.221726324766, 58200.94742786258, 18396.290349518105, -7390.17962100263, 24641.680674753272, 33001.88130162732, 11624.717608060553, 33704.955423469, -0.116, 0.982, -0.01, 192.0, 252.0, 96.0, 30.0, 176.0, 255.0, 176.0, 0.0, 0.0, 0.0, 1.70095155602743E9, 0.0, 2023-11-25 17:32:36.027
21.0, 38575.26642981368, 58263.219387915065, 18380.30885223256, -7334.791998242378, 24598.698270165714, 32905.589986513856, 11627.77979705093, 33739.57827563027, -0.116, 0.982, -0.01, 192.0, 0.0, 0.0, 0.0, 0.0, 0.0, 0.0, 0.0, 0.0, 0.0, 1.700951556031505E9, 0.0, 2023-11-25 17:32:36.031
22.0, 38638.901846277935, 58339.70705744113, 18389.651881414877, -7308.72986420749, 24585.1531130258, 32953.31096092593, 11630.05967498537, 33735.040871505844, -0.116, 0.982, -0.01, 192.0, 0.0, 0.0, 0.0, 0.0, 0.0, 0.0, 0.0, 0.0, 0.0, 1.700951556035471E9, 0.0, 2023-11-25 17:32:36.035
23.0, 38773.839327554626, 58339.86351965231, 18426.778128955142, -7234.3432586602285, 24878.16213109042, 33428.95608293487, 11636.184052966126, 33757.43731945006, -0.116, 0.982, -0.01, 192.0, 0.0, 0.0, 0.0, 0.0, 0.0, 0.0, 0.0, 0.0, 0.0, 1.700951556040406E9, 0.0, 2023-11-25 17:32:36.040
24.0, 38613.77848551017, 58214.827861169324, 18411.48953574771, -7376.433298162616, 24682.98669850668, 33117.14924778334, 11628.562108106866, 33709.98456597144, -0.116, 0.982, -0.01, 192.0, 0.0, 0.0, 0.0, 0.0, 0.0, 0.0, 0.0, 0.0, 0.0, 1.700951556043425E9, 0.0, 2023-11-25 17:32:36.043
25.0, 38579.78148219365, 58252.75877150998, 18399.82192514204, -7334.568480797825, 24622.48052626616, 32865.78152963895, 11640.475587901545, 33734.63854010565, -0.116, 0.982, -0.01, 192.0, 0.0, 0.0, 0.0, 0.0, 0.0, 0.0, 0.0, 0.0, 0.0, 1.700951556047477E9, 0.0, 2023-11-25 17:32:36.047
26.0, 38627.994194983745, 58336.466054495104, 18395.619797184445, -7309.042788629865, 24574.75955185408, 32952.3274841699, 11639.849739056795, 33729.27412143638, -0.116, 0.982, -0.01, 192.0, 0.0, 0.0, 0.0, 0.0, 0.0, 0.0, 0.0, 0.0, 0.0, 1.700951556051492E9, 0.0, 2023-11-25 17:32:36.051
27.0, 38774.08519674363, 58368.36199383283, 18437.79753897161, -7217.132415429643, 24869.690819941858, 33346.478145894784, 11659.340460221823, 33761.617095663205, -0.116, 0.982, -0.01, 192.0, 0.0, 0.0, 0.0, 0.0, 0.0, 0.0, 0.0, 0.0, 0.0, 1.700951556055437E9, 0.0, 2023-11-25 17:32:36.055
28.0, 38659.21958198781, 58254.32339362185, 18416.630436972435, -7337.608318043747, 24743.403463769373, 33263.77669141015, 11643.336611191824, 33717.785324786346, -0.116, 0.982, -0.01, 192.0, 0.0, 0.0, 0.0, 0.0, 0.0, 0.0, 0.0, 0.0, 0.0, 1.700951556059495E9, 0.0, 2023-11-25 17:32:36.059
29.0, 38581.32375256107, 58255.038649444425, 18396.11153556246, -7339.999954700465, 24629.476622280672, 32855.34326497832, 11647.158759493681, 33729.78821155884, -0.116, 0.982, -0.01, 192.0, 0.0, 0.0, 0.0, 0.0, 0.0, 0.0, 0.0, 0.0, 0.0, 1.700951556064722E9, 0.0, 2023-11-25 17:32:36.064
30.0, 38621.51218909171, 58334.230880049574, 18376.620814397433, -7309.735692707979, 24562.46609240366, 32965.33619944289, 11640.944974535105, 33729.54234236984, -0.114, 0.988, -0.01, 192.0, 252.0, 112.0, 30.0, 224.0, 255.0, 176.0, 0.0, 0.0, 0.0, 1.700951556068565E9, 0.0, 2023-11-25 17:32:36.068
31.0, 38757.72371980235, 58376.14040090328, 18413.389434026412, -7228.308287657295, 24808.91642676788, 33258.65814192988, 11650.958556051082, 33763.80756661982, -0.114, 0.988, -0.01, 192.0, 0.0, 0.0, 0.0, 0.0, 0.0, 0.0, 0.0, 0.0, 0.0, 1.700951556071561E9, 0.0, 2023-11-25 17:32:36.071
32.0, 38705.01830637673, 58282.91127478019, 18411.10955609197, -7311.21090784203, 24792.733763782235, 33385.303126013656, 11634.373561665245, 33743.28866520985, -0.114, 0.988, -0.01, 192.0, 0.0, 0.0, 0.0, 0.0, 0.0, 0.0, 0.0, 0.0, 0.0, 1.70095155607452E9, 0.0, 2023-11-25 17:32:36.074
33.0, 38579.31209556009, 58251.84234998732, 18396.178590795826, -7356.562597341847, 24628.73901471365, 32850.78350910944, 11633.077160486837, 33740.53940064185, -0.114, 0.988, -0.01, 192.0, 0.0, 0.0, 0.0, 0.0, 0.0, 0.0, 0.0, 0.0, 0.0, 1.700951556079553E9, 0.0, 2023-11-25 17:32:36.079
34.0, 38617.801799512126, 58338.27654579598, 18378.63247139841, -7315.681256733091, 24568.43400817323, 32966.69965585466, 11616.626276567731, 33739.242999463444, -0.114, 0.988, -0.01, 192.0, 0.0, 0.0, 0.0, 0.0, 0.0, 0.0, 0.0, 0.0, 0.0, 1.70095155608364E9, 0.0, 2023-11-25 17:32:36.083
35.0, 38739.88702772701, 58389.55144757646, 18410.68487294732, -7248.6036716227145, 24748.767882438646, 33155.10250986845, 11620.783701036418, 33742.14872624263, -0.114, 0.988, -0.01, 192.0, 0.0, 0.0, 0.0, 0.0, 0.0, 0.0, 0.0, 0.0, 0.0, 1.700951556087657E9, 0.0, 2023-11-25 17:32:36.087
36.0, 38745.27379814074, 58315.38835947375, 18416.563381739066, -7286.780451152379, 24842.131119028465, 33464.00361824079, 11613.027645710426, 33729.76585981439, -0.114, 0.988, -0.01, 192.0, 0.0, 0.0, 0.0, 0.0, 0.0, 0.0, 0.0, 0.0, 0.0, 1.700951556091605E9, 0.0, 2023-11-25 17:32:36.091
37.0, 38582.82131943957, 58243.39339058321, 18400.470125731244, -7375.092193495298, 24631.935314170758, 32853.51042193299, 11621.923640003639, 33720.936920754546, -0.114, 0.988, -0.01, 192.0, 0.0, 0.0, 0.0, 0.0, 0.0, 0.0, 0.0, 0.0, 0.0, 1.700951556095656E9, 0.0, 2023-11-25 17:32:36.095
38.0, 38613.93494772136, 58325.75956890101, 18380.130038276915, -7326.4995010494595, 24586.896549093315, 32950.584048102384, 11617.229773668025, 33737.365452929196, -0.114, 0.988, -0.01, 192.0, 0.0, 0.0, 0.0, 0.0, 0.0, 0.0, 0.0, 0.0, 0.0, 1.70095155610056E9, 0.0, 2023-11-25 17:32:36.100
39.0, 38718.51876002774, 58395.22879066811, 18407.622683956943, -7274.062308557309, 24698.31999520302, 33054.407901097286, 11628.405645895678, 33740.718214597495, -0.114, 0.988, -0.01, 192.0, 0.0, 0.0, 0.0, 0.0, 0.0, 0.0, 0.0, 0.0, 0.0, 1.700951556103597E9, 0.0, 2023-11-25 17:32:36.103
40.0, 38780.50014740231, 58350.949984902145, 18420.854916674485, -7264.026375296877, 24883.615956737514, 33492.50209242131, 11617.140366690204, 33734.61618836119, -0.112, 0.984, -0.004, 192.0, 252.0, 128.0, 30.0, 192.0, 255.0, 224.0, 0.0, 0.0, 0.0, 1.70095155610762E9, 0.0, 2023-11-25 17:32:36.107
41.0, 38593.43839805584, 58254.07752443285, 18398.704337919276, -7390.157269258174, 24640.652494508326, 32911.714364494605, 11617.274477156936, 33697.31112686529, -0.112, 0.984, -0.004, 192.0, 0.0, 0.0, 0.0, 0.0, 0.0, 0.0, 0.0, 0.0, 0.0, 1.700951556111687E9, 0.0, 2023-11-25 17:32:36.111
42.0, 38620.88634024696, 58337.7177521846, 18386.746154635686, -7322.632649258691, 24610.63410170485, 32921.50442856603, 11623.130634204226, 33727.709499324505, -0.112, 0.984, -0.004, 192.0, 0.0, 0.0, 0.0, 0.0, 0.0, 0.0, 0.0, 0.0, 0.0, 1.700951556115715E9, 0.0, 2023-11-25 17:32:36.115
43.0, 38703.25251856477, 58411.05382574246, 18403.26409378816, -7282.019529583398, 24650.040227179557, 32996.82980738042, 11629.299715673891, 33728.603569102714, -0.112, 0.984, -0.004, 192.0, 0.0, 0.0, 0.0, 0.0, 0.0, 0.0, 0.0, 0.0, 0.0, 1.70095155612024E9, 0.0, 2023-11-25 17:32:36.120
44.0, 38813.15604605151, 58396.949874991165, 18434.824756959053, -7228.375342890661, 24912.717928018326, 33477.794644569716, 11633.16656746466, 33742.886333809656, -0.112, 0.984, -0.004, 192.0, 0.0, 0.0, 0.0, 0.0, 0.0, 0.0, 0.0, 0.0, 0.0, 1.700951556123688E9, 0.0, 2023-11-25 17:32:36.123
45.0, 38630.13996245146, 58277.0551177329, 18412.852992159485, -7373.7510888279785, 24675.36475364742, 33003.82590339493, 11626.908079017172, 33683.0507139028, -0.112, 0.984, -0.004, 192.0, 0.0, 0.0, 0.0, 0.0, 0.0, 0.0, 0.0, 0.0, 0.0, 1.700951556127633E9, 0.0, 2023-11-25 17:32:36.127
46.0, 38632.10691596352, 58339.93057488568, 18402.392375754403, -7316.172995111107, 24636.562125273005, 32889.004992128015, 11635.848776799296, 33710.43160086055, -0.112, 0.984, -0.004, 192.0, 0.0, 0.0, 0.0, 0.0, 0.0, 0.0, 0.0, 0.0, 0.0, 1.70095155613069E9, 0.0, 2023-11-25 17:32:36.130
47.0, 38693.59656496007, 58418.38519792381, 18405.611026955965, -7291.049634343342, 24619.15011634232, 32963.99509477557, 11634.239451198513, 33705.67067929157, -0.112, 0.984, -0.004, 192.0, 0.0, 0.0, 0.0, 0.0, 0.0, 0.0, 0.0, 0.0, 0.0, 1.700951556135671E9, 0.0, 2023-11-25 17:32:36.135
48.0, 38829.3163572927, 58426.76710209455, 18442.692571007323, -7216.148938673608, 24912.650872784958, 33423.77047822124, 11638.754503578486, 33724.53555161185, -0.112, 0.984, -0.004, 192.0, 0.0, 0.0, 0.0, 0.0, 0.0, 0.0, 0.0, 0.0, 0.0, 1.700951556139659E9, 0.0, 2023-11-25 17:32:36.139
49.0, 38670.17193677091, 58304.54776341293, 18423.782995198133, -7356.473190364027, 24720.336463491498, 33121.373727485385, 11629.210308696069, 33683.54245228082, -0.112, 0.984, -0.004, 192.0, 0.0, 0.0, 0.0, 0.0, 0.0, 0.0, 0.0, 0.0, 0.0, 1.700951556143696E9, 0.0, 2023-11-25 17:32:36.143
50.0, 38631.25754967422, 58337.62834520678, 18405.45456474478, -7324.085512648287, 24650.82253823549, 32854.78447136694, 11635.155872721181, 33713.87376950667, -0.11, 0.982, -0.004, 192.0, 252.0, 144.0, 30.0, 176.0, 255.0, 224.0, 0.0, 0.0, 0.0, 1.700951556147792E9, 0.0, 2023-11-25 17:32:36.147
51.0, 38678.01739907472, 58415.65828510026, 18391.35061399348, -7303.521907749404, 24590.91986309527, 32959.14476622877, 11629.076198229337, 33709.26931014888, -0.11, 0.982, -0.004, 192.0, 0.0, 0.0, 0.0, 0.0, 0.0, 0.0, 0.0, 0.0, 0.0, 1.700951556151775E9, 0.0, 2023-11-25 17:32:36.151
52.0, 38821.24737754433, 58445.14023603681, 18428.722730722755, -7215.813662506779, 24871.434256009372, 33335.48108762277, 11638.083951244826, 33735.80083081732, -0.11, 0.982, -0.004, 192.0, 0.0, 0.0, 0.0, 0.0, 0.0, 0.0, 0.0, 0.0, 0.0, 1.700951556154819E9, 0.0, 2023-11-25 17:32:36.154
53.0, 38711.52266401323, 58332.66625793771, 18409.70139619129, -7336.244861631973, 24753.528804007627, 33252.15378429339, 11625.790491794407, 33693.22075762996, -0.11, 0.982, -0.004, 192.0, 0.0, 0.0, 0.0, 0.0, 0.0, 0.0, 0.0, 0.0, 0.0, 1.700951556158773E9, 0.0, 2023-11-25 17:32:36.158
54.0, 38626.87660776098, 58332.19687130414, 18392.6917186608, -7342.8162745018335, 24635.39983456133, 32817.702927315586, 11632.87599478674, 33716.466571863486, -0.11, 0.982, -0.004, 192.0, 0.0, 0.0, 0.0, 0.0, 0.0, 0.0, 0.0, 0.0, 0.0, 1.700951556162763E9, 0.0, 2023-11-25 17:32:36.162
55.0, 38668.38379721449, 58411.67967458721, 18373.29040447359, -7316.821195700311, 24567.830511072938, 32951.791042302975, 11621.901288259183, 33725.29551092333, -0.11, 0.982, -0.004, 192.0, 0.0, 0.0, 0.0, 0.0, 0.0, 0.0, 0.0, 0.0, 0.0, 1.700951556167832E9, 0.0, 2023-11-25 17:32:36.167
56.0, 38805.04236281423, 58456.919605364754, 18408.963788624264, -7238.746552317924, 24805.653072077403, 33239.83797309852, 11629.67969532963, 33753.72692987048, -0.11, 0.982, -0.004, 192.0, 0.0, 0.0, 0.0, 0.0, 0.0, 0.0, 0.0, 0.0, 0.0, 1.70095155617189E9, 0.0, 2023-11-25 17:32:36.171
57.0, 38754.05803371168, 58366.752668232046, 18403.621721699445, -7311.456777031038, 24796.37709812845, 33371.06506479562, 11613.765253277452, 33728.29064468034, -0.11, 0.982, -0.004, 192.0, 0.0, 0.0, 0.0, 0.0, 0.0, 0.0, 0.0, 0.0, 0.0, 1.700951556176211E9, 0.0, 2023-11-25 17:32:36.176
58.0, 38619.321718135085, 58323.613801433305, 18383.482799945214, -7359.736545054501, 24626.2132675902, 32820.47454362804, 11617.408587623668, 33728.29064468034, -0.11, 0.982, -0.004, 192.0, 0.0, 0.0, 0.0, 0.0, 0.0, 0.0, 0.0, 0.0, 0.0, 1.700951556180147E9, 0.0, 2023-11-25 17:32:36.180
59.0, 38658.213753487325, 58410.00329375307, 18366.562529392544, -7322.453835303049, 24573.597261142408, 32952.19337370317, 11612.58061082132, 33748.20604899002, -0.11, 0.982, -0.004, 192.0, 0.0, 0.0, 0.0, 0.0, 0.0, 0.0, 0.0, 0.0, 0.0, 1.700951556182859E9, 0.0, 2023-11-25 17:32:36.182
60.0, 38778.24262121232, 58466.19557931371, 18399.97838735323, -7261.657090384614, 24748.9913998832, 33144.15015508534, 11624.985828994017, 33763.561697430814, -0.114, 0.97, -0.012, 192.0, 252.0, 112.0, 30.0, 80.0, 255.0, 160.0, 0.0, 0.0, 0.0, 1.700951556186877E9, 0.0, 2023-11-25 17:32:36.186
61.0, 38793.71002837539, 58399.43091862571, 18407.60033221249, -7289.619122698203, 24851.563555188604, 33466.05997873068, 11613.497032343988, 33738.8630198077, -0.114, 0.97, -0.012, 192.0, 0.0, 0.0, 0.0, 0.0, 0.0, 0.0, 0.0, 0.0, 0.0, 1.700951556190833E9, 0.0, 2023-11-25 17:32:36.190
62.0, 38629.35765139552, 58333.69443818265, 18393.49638146119, -7378.243789463496, 24635.31042758351, 32842.73688110553, 11620.336666147312, 33719.5064091094, -0.114, 0.97, -0.012, 192.0, 0.0, 0.0, 0.0, 0.0, 0.0, 0.0, 0.0, 0.0, 0.0, 1.700951556194989E9, 0.0, 2023-11-25 17:32:36.194
63.0, 38660.60539014404, 58424.95661079367, 18378.721878376233, -7319.145777123664, 24597.44657247622, 32941.79981253145, 11620.560183591866, 33753.078729281275, -0.114, 0.97, -0.012, 192.0, 0.0, 0.0, 0.0, 0.0, 0.0, 0.0, 0.0, 0.0, 0.0, 1.7009515561999E9, 0.0, 2023-11-25 17:32:36.199
64.0, 38758.23780992482, 58507.30043736702, 18406.952131623286, -7262.662918885103, 24702.83504758299, 33059.54880232201, 11630.596116852299, 33763.40523521963, -0.114, 0.97, -0.012, 192.0, 0.0, 0.0, 0.0, 0.0, 0.0, 0.0, 0.0, 0.0, 0.0, 1.700951556203894E9, 0.0, 2023-11-25 17:32:36.203
65.0, 38831.81975267169, 58486.513315023585, 18427.493384777714, -7237.986593006443, 24905.74418374827, 33506.784857128245, 11627.288058672913, 33758.91253458411, -0.114, 0.97, -0.012, 192.0, 0.0, 0.0, 0.0, 0.0, 0.0, 0.0, 0.0, 0.0, 0.0, 1.700951556207996E9, 0.0, 2023-11-25 17:32:36.207
66.0, 38648.80366907164, 58395.899343001765, 18410.5954659695, -7366.330309668817, 24662.82542500799, 32924.96894895661, 11626.461044128066, 33716.69008930804, -0.114, 0.97, -0.012, 192.0, 0.0, 0.0, 0.0, 0.0, 0.0, 0.0, 0.0, 0.0, 0.0, 1.700951556210919E9, 0.0, 2023-11-25 17:32:36.210
67.0, 38676.13985254048, 58482.62411148836, 18398.34671000799, -7303.5442594938595, 24630.191878103244, 32923.471382078096, 11628.182128451124, 33744.070976265786, -0.114, 0.97, -0.012, 192.0, 0.0, 0.0, 0.0, 0.0, 0.0, 0.0, 0.0, 0.0, 0.0, 1.700951556215625E9, 0.0, 2023-11-25 17:32:36.215
68.0, 38759.355397147585, 58562.93392931628, 18410.97544562524, -7268.832000354768, 24660.433788351274, 32996.51688295804, 11632.607773853277, 33740.53940064185, -0.114, 0.97, -0.012, 192.0, 0.0, 0.0, 0.0, 0.0, 0.0, 0.0, 0.0, 0.0, 0.0, 1.700951556218992E9, 0.0, 2023-11-25 17:32:36.218
69.0, 38873.08107293619, 58551.311022199516, 18437.283448849135, -7213.66789503907, 24926.75482353626, 33482.64497311652, 11631.467834886054, 33748.541325156846, -0.114, 0.97, -0.012, 192.0, 0.0, 0.0, 0.0, 0.0, 0.0, 0.0, 0.0, 0.0, 0.0, 1.700951556222967E9, 0.0, 2023-11-25 17:32:36.222
70.0, 38692.61308820404, 58440.222852256644, 18414.55172473809, -7361.927016011121, 24691.569768377518, 33017.68398495722, 11623.175337693136, 33699.9039292221, -0.116, 0.974, -0.014, 192.0, 252.0, 96.0, 30.0, 112.0, 255.0, 144.0, 0.0, 0.0, 0.0, 1.700951556227987E9, 0.0, 2023-11-25 17:32:36.227
71.0, 38683.11359681054, 58503.90297220981, 18396.267997773648, -7318.005838156443, 24644.653456765827, 32885.853396159815, 11624.427035382634, 33733.11862148269, -0.116, 0.974, -0.014, 192.0, 0.0, 0.0, 0.0, 0.0, 0.0, 0.0, 0.0, 0.0, 0.0, 1.700951556232059E9, 0.0, 2023-11-25 17:32:36.232
72.0, 38744.20091440689, 58586.02328133861, 18402.347672265492, -7290.401433754138, 24621.809973932504, 32952.26042893653, 11630.417302896656, 33739.35475818572, -0.116, 0.974, -0.014, 192.0, 0.0, 0.0, 0.0, 0.0, 0.0, 0.0, 0.0, 0.0, 0.0, 1.700951556235045E9, 0.0, 2023-11-25 17:32:36.235
73.0, 38879.49602359486, 58597.35561577745, 18436.858765704485, -7210.650409537603, 24914.483715830294, 33419.23307409681, 11634.887651787718, 33755.29155198235, -0.116, 0.974, -0.014, 192.0, 0.0, 0.0, 0.0, 0.0, 0.0, 0.0, 0.0, 0.0, 0.0, 1.70095155623908E9, 0.0, 2023-11-25 17:32:36.239
74.0, 38726.364222331555, 58483.40642254429, 18422.620704486457, -7347.890120493188, 24732.04877758608, 33138.56221897152, 11622.080102214826, 33707.57057757027, -0.116, 0.974, -0.014, 192.0, 0.0, 0.0, 0.0, 0.0, 0.0, 0.0, 0.0, 0.0, 0.0, 1.700951556243099E9, 0.0, 2023-11-25 17:32:36.243
75.0, 38684.94643985587, 58519.32567588397, 18409.991968869206, -7319.011666656932, 24661.3725616184, 32845.50849741799, 11628.96443950706, 33738.81831631879, -0.116, 0.974, -0.014, 192.0, 0.0, 0.0, 0.0, 0.0, 0.0, 0.0, 0.0, 0.0, 0.0, 1.700951556247318E9, 0.0, 2023-11-25 17:32:36.247
76.0, 38733.53913230171, 58600.55191523456, 18397.810268141064, -7299.364483280717, 24601.648700433816, 32963.19043197518, 11616.760387034463, 33731.44224064854, -0.116, 0.974, -0.014, 192.0, 0.0, 0.0, 0.0, 0.0, 0.0, 0.0, 0.0, 0.0, 0.0, 1.7009515562511E9, 0.0, 2023-11-25 17:32:36.251
77.0, 38878.22197416091, 58630.54795629358, 18440.144472139415, -7210.471595581961, 24884.264157326717, 33337.2692271792, 11627.82450053984, 33759.24781075094, -0.116, 0.974, -0.014, 192.0, 0.0, 0.0, 0.0, 0.0, 0.0, 0.0, 0.0, 0.0, 0.0, 1.700951556255199E9, 0.0, 2023-11-25 17:32:36.255
78.0, 38777.03562701173, 58521.739664285145, 18426.93459116633, -7316.530623022392, 24789.917443980867, 33283.66974397537, 11620.873108014239, 33731.03990924834, -0.116, 0.974, -0.014, 192.0, 0.0, 0.0, 0.0, 0.0, 0.0, 0.0, 0.0, 0.0, 0.0, 1.700951556260189E9, 0.0, 2023-11-25 17:32:36.260
79.0, 38684.18648054439, 58519.079806694965, 18405.83454440052, -7327.9076609501435, 24665.418227364808, 32851.63287539874, 11626.72926506153, 33746.82024083379, -0.116, 0.974, -0.014, 192.0, 0.0, 0.0, 0.0, 0.0, 0.0, 0.0, 0.0, 0.0, 0.0, 1.70095155626319E9, 0.0, 2023-11-25 17:32:36.263
80.0, 38721.960928673856, 58602.31770304653, 18385.24858775718, -7297.218715813007, 24604.174447557267, 32985.74334213058, 11619.86727951375, 33756.87852583868, -0.12, 0.988, -0.004, 192.0, 252.0, 64.0, 30.0, 224.0, 255.0, 224.0, 0.0, 0.0, 0.0, 1.700951556267187E9, 0.0, 2023-11-25 17:32:36.267
81.0, 38859.0218256738, 58649.77045652515, 18425.414672543367, -7216.573621818259, 24840.38768296095, 33252.13143254894, 11639.961497779072, 33783.52180522941, -0.12, 0.988, -0.004, 192.0, 0.0, 0.0, 0.0, 0.0, 0.0, 0.0, 0.0, 0.0, 0.0, 1.700951556271155E9, 0.0, 2023-11-25 17:32:36.271
82.0, 38813.401915240516, 58556.02724027959, 18419.53616375162, -7291.429613999083, 24843.69574114034, 33418.09313512959, 11628.226831940035, 33754.6657031376, -0.12, 0.988, -0.004, 192.0, 0.0, 0.0, 0.0, 0.0, 0.0, 0.0, 0.0, 0.0, 0.0, 1.700951556275143E9, 0.0, 2023-11-25 17:32:36.275
83.0, 38675.69281765137, 58513.000132203124, 18407.98031186823, -7346.370201870228, 24667.94397448826, 32842.82628808335, 11642.375486180244, 33749.8153745908, -0.12, 0.988, -0.004, 192.0, 0.0, 0.0, 0.0, 0.0, 0.0, 0.0, 0.0, 0.0, 0.0, 1.70095155628149E9, 0.0, 2023-11-25 17:32:36.281
84.0, 38713.73548671431, 58596.57330472152, 18390.188323281804, -7298.470413502505, 24616.57966572996, 32964.643295364775, 11640.654401857186, 33755.045682793345, -0.12, 0.988, -0.004, 192.0, 0.0, 0.0, 0.0, 0.0, 0.0, 0.0, 0.0, 0.0, 0.0, 1.700951556285206E9, 0.0, 2023-11-25 17:32:36.285
85.0, 38826.768258424796, 58650.50806409217, 18417.971541639752, -7236.600784850215, 24778.76392349767, 33146.31827429751, 11648.87984381674, 33763.82991836428, -0.12, 0.988, -0.004, 192.0, 0.0, 0.0, 0.0, 0.0, 0.0, 0.0, 0.0, 0.0, 0.0, 1.700951556288215E9, 0.0, 2023-11-25 17:32:36.288
86.0, 38847.89065693506, 58586.000929594156, 18425.07939637654, -7265.903921831122, 24888.846264940057, 33481.16975798247, 11635.155872721181, 33746.82024083379, -0.12, 0.988, -0.004, 192.0, 0.0, 0.0, 0.0, 0.0, 0.0, 0.0, 0.0, 0.0, 0.0, 1.700951556292235E9, 0.0, 2023-11-25 17:32:36.292
87.0, 38682.84537587707, 58513.693036281235, 18411.78010842563, -7362.776382300423, 24669.39683787785, 32853.53277367744, 11640.028553012438, 33721.42865913256, -0.12, 0.988, -0.004, 192.0, 0.0, 0.0, 0.0, 0.0, 0.0, 0.0, 0.0, 0.0, 0.0, 1.70095155629529E9, 0.0, 2023-11-25 17:32:36.295
88.0, 38714.36133555905, 58595.6792349433, 18388.91427384785, -7308.662808974124, 24628.359035057907, 32952.10396672535, 11630.037323240915, 33737.365452929196, -0.12, 0.988, -0.004, 192.0, 0.0, 0.0, 0.0, 0.0, 0.0, 0.0, 0.0, 0.0, 0.0, 1.700951556299258E9, 0.0, 2023-11-25 17:32:36.299
89.0, 38806.53992969274, 58660.231072930226, 18407.533276979124, -7267.893227087645, 24711.46282094274, 33058.14064242133, 11629.478529629532, 33731.48694413745, -0.12, 0.988, -0.004, 192.0, 0.0, 0.0, 0.0, 0.0, 0.0, 0.0, 0.0, 0.0, 0.0, 1.700951556303306E9, 0.0, 2023-11-25 17:32:36.303
90.0, 38887.27443066531, 58626.47993880272, 18431.114367379472, -7246.569662877281, 24921.904494989456, 33492.21151974339, 11628.092721473304, 33740.13706924165, -0.122, 0.978, -0.002, 192.0, 252.0, 48.0, 30.0, 144.0, 255.0, 240.0, 0.0, 0.0, 0.0, 1.70095155630724E9, 0.0, 2023-11-25 17:32:36.307
91.0, 38702.738428442295, 58525.561812587, 18413.232971815225, -7374.086364994809, 24679.388067649375, 32918.66575702021, 11630.05967498537, 33713.00205147291, -0.122, 0.978, -0.002, 192.0, 0.0, 0.0, 0.0, 0.0, 0.0, 0.0, 0.0, 0.0, 0.0, 1.700951556311513E9, 0.0, 2023-11-25 17:32:36.311
92.0, 38717.40117280497, 58597.19915356626, 18393.16110529436, -7316.798843955857, 24639.646666007837, 32934.11081243883, 11625.25404992748, 33742.61811287619, -0.122, 0.978, -0.002, 192.0, 0.0, 0.0, 0.0, 0.0, 0.0, 0.0, 0.0, 0.0, 0.0, 1.700951556316488E9, 0.0, 2023-11-25 17:32:36.316
93.0, 38791.27368822976, 58671.47400039125, 18403.174686810336, -7286.512230218916, 24657.30454412753, 33006.10578132937, 11625.991657494505, 33734.95146452802, -0.122, 0.978, -0.002, 192.0, 0.0, 0.0, 0.0, 0.0, 0.0, 0.0, 0.0, 0.0, 0.0, 1.700951556319333E9, 0.0, 2023-11-25 17:32:36.319
94.0, 38902.94300352848, 58660.18636944132, 18430.3991115569, -7230.163482447087, 24922.664454300935, 33479.58278412614, 11625.365808649756, 33748.07193852329, -0.122, 0.978, -0.002, 192.0, 0.0, 0.0, 0.0, 0.0, 0.0, 0.0, 0.0, 0.0, 0.0, 1.700951556322327E9, 0.0, 2023-11-25 17:32:36.322
95.0, 38721.960928673856, 58541.63271685037, 18409.164954324362, -7376.656815607169, 24690.094553243467, 33025.194171094205, 11619.733169047018, 33704.44133334653, -0.122, 0.978, -0.002, 192.0, 0.0, 0.0, 0.0, 0.0, 0.0, 0.0, 0.0, 0.0, 0.0, 1.700951556327471E9, 0.0, 2023-11-25 17:32:36.327
96.0, 38708.683992467406, 58594.15931632034, 18390.098916303985, -7330.455759818049, 24639.82547996348, 32882.858262402806, 11622.124805703737, 33733.90093253862, -0.122, 0.978, -0.002, 192.0, 0.0, 0.0, 0.0, 0.0, 0.0, 0.0, 0.0, 0.0, 0.0, 1.700951556331355E9, 0.0, 2023-11-25 17:32:36.331
97.0, 38761.322350659655, 58667.33892766702, 18386.276768002124, -7307.277000817896, 24601.224017289165, 32964.66564710923, 11619.643762069198, 33730.90579878161, -0.122, 0.978, -0.002, 192.0, 0.0, 0.0, 0.0, 0.0, 0.0, 0.0, 0.0, 0.0, 0.0, 1.700951556335284E9, 0.0, 2023-11-25 17:32:36.335
98.0, 38898.58441335969, 58681.26406446267, 18424.542954509612, -7230.074075469265, 24892.623709753003, 33397.887158141995, 11631.646648841697, 33763.40523521963, -0.122, 0.978, -0.002, 192.0, 0.0, 0.0, 0.0, 0.0, 0.0, 0.0, 0.0, 0.0, 0.0, 1.700951556339289E9, 0.0, 2023-11-25 17:32:36.339
99.0, 38745.96670221886, 58557.68126936928, 18401.520657720645, -7366.151495713174, 24713.899161088368, 33154.61077149043, 11620.515480102955, 33725.407269645606, -0.122, 0.978, -0.002, 192.0, 0.0, 0.0, 0.0, 0.0, 0.0, 0.0, 0.0, 0.0, 0.0, 1.700951556343305E9, 0.0, 2023-11-25 17:32:36.343
100.0, 38690.1320445695, 58577.01552832312, 18382.700488889277, -7342.190425657085, 24629.92365716978, 32849.084776530835, 11621.074273714337, 33744.406252432615, -0.116, 0.976, -0.008, 192.0, 252.0, 96.0, 30.0, 128.0, 255.0, 192.0, 0.0, 0.0, 0.0, 1.70095155634739E9, 0.0, 2023-11-25 17:32:36.347
101.0, 38735.41667883595, 58659.56052059657, 18374.855026585465, -7314.764835210423, 24571.47384541915, 32946.56073410043, 11615.77691027843, 33740.80762157531, -0.116, 0.976, -0.008, 192.0, 0.0, 0.0, 0.0, 0.0, 0.0, 0.0, 0.0, 0.0, 0.0, 1.700951556350435E9, 0.0, 2023-11-25 17:32:36.350
102.0, 38874.10925318113, 58691.14353551192, 18413.009454370673, -7228.5318051018485, 24845.30506674112, 33313.6657850344, 11626.371637150245, 33763.852270108735, -0.116, 0.976, -0.008, 192.0, 0.0, 0.0, 0.0, 0.0, 0.0, 0.0, 0.0, 0.0, 0.0, 1.700951556355685E9, 0.0, 2023-11-25 17:32:36.355
103.0, 38777.259144456286, 58581.7764498921, 18401.364195509457, -7337.116579665731, 24754.42287378584, 33277.23244157225, 11616.2910004009, 33723.08268822225, -0.116, 0.976, -0.008, 192.0, 0.0, 0.0, 0.0, 0.0, 0.0, 0.0, 0.0, 0.0, 0.0, 1.700951556360431E9, 0.0, 2023-11-25 17:32:36.360
104.0, 38682.44304447687, 58572.433420709785, 18385.963843579753, -7354.126257196219, 24624.872162922882, 32812.8973022577, 11628.45034938459, 33741.567580886796, -0.116, 0.976, -0.008, 192.0, 0.0, 0.0, 0.0, 0.0, 0.0, 0.0, 0.0, 0.0, 0.0, 1.700951556364504E9, 0.0, 2023-11-25 17:32:36.364
105.0, 38722.89970194098, 58656.65479381738, 18368.842407326985, -7327.97471618351, 24557.056970245478, 32948.013597490026, 11617.453291112577, 33739.48886865245, -0.116, 0.976, -0.008, 192.0, 0.0, 0.0, 0.0, 0.0, 0.0, 0.0, 0.0, 0.0, 0.0, 1.700951556367363E9, 0.0, 2023-11-25 17:32:36.367
106.0, 38858.485383806874, 58705.91803859688, 18409.187306068816, -7249.207168723008, 24784.351859611495, 33196.96732723324, 11627.578631350832, 33757.19145026105, -0.116, 0.976, -0.008, 192.0, 0.0, 0.0, 0.0, 0.0, 0.0, 0.0, 0.0, 0.0, 0.0, 1.700951556372964E9, 0.0, 2023-11-25 17:32:36.372
107.0, 38823.750772923326, 58617.56159276505, 18407.510925234667, -7314.094282876764, 24801.607406330993, 33374.35077123055, 11616.000427722982, 33729.14001096964, -0.116, 0.976, -0.008, 192.0, 0.0, 0.0, 0.0, 0.0, 0.0, 0.0, 0.0, 0.0, 0.0, 1.700951556375428E9, 0.0, 2023-11-25 17:32:36.375
108.0, 38680.90077410946, 58572.09814454296, 18390.456544215267, -7376.142725484697, 24616.15498258531, 32796.513473571955, 11619.889631258206, 33720.69105156554, -0.116, 0.976, -0.008, 192.0, 0.0, 0.0, 0.0, 0.0, 0.0, 0.0, 0.0, 0.0, 0.0, 1.700951556378837E9, 0.0, 2023-11-25 17:32:36.378
109.0, 38718.04937339418, 58666.13193346643, 18371.25639572816, -7329.382876084194, 24558.912165035268, 32927.740565269065, 11611.530078831922, 33729.78821155884, -0.116, 0.976, -0.008, 192.0, 0.0, 0.0, 0.0, 0.0, 0.0, 0.0, 0.0, 0.0, 0.0, 1.700951556383464E9, 0.0, 2023-11-25 17:32:36.383
110.0, 38833.339671294656, 58765.12780965899, 18403.398204254892, -7263.9146165746, 24713.65329189936, 33094.685744605755, 11622.080102214826, 33745.56854314429, -0.112, 0.976, -0.006, 192.0, 252.0, 128.0, 30.0, 128.0, 255.0, 208.0, 0.0, 0.0, 0.0, 1.700951556387456E9, 0.0, 2023-11-25 17:32:36.387
111.0, 38859.31239835172, 58727.59923071852, 18413.076509604038, -7279.9184656046, 24839.180688760363, 33454.39236812501, 11611.552430576377, 33734.8620575502, -0.112, 0.976, -0.006, 192.0, 0.0, 0.0, 0.0, 0.0, 0.0, 0.0, 0.0, 0.0, 0.0, 1.700951556391504E9, 0.0, 2023-11-25 17:32:36.391
112.0, 38687.04750383467, 58649.23401465822, 18392.78112563862, -7382.647083121191, 24614.702119195717, 32841.9992735385, 11609.697235786585, 33704.7542577689, -0.112, 0.976, -0.006, 192.0, 0.0, 0.0, 0.0, 0.0, 0.0, 0.0, 0.0, 0.0, 0.0, 1.700951556395498E9, 0.0, 2023-11-25 17:32:36.395
113.0, 38719.32342282813, 58731.37667553147, 18373.35745970696, -7322.006800413943, 24575.161883254277, 32924.387803600766, 11606.389177607201, 33731.710461582006, -0.112, 0.976, -0.006, 192.0, 0.0, 0.0, 0.0, 0.0, 0.0, 0.0, 0.0, 0.0, 0.0, 1.7009515563997E9, 0.0, 2023-11-25 17:32:36.399
114.0, 38811.993755339834, 58798.05192924165, 18395.172762295337, -7271.8494858562335, 24658.44448309475, 33025.14946760529, 11615.620448067242, 33746.19439198904, -0.112, 0.976, -0.006, 192.0, 0.0, 0.0, 0.0, 0.0, 0.0, 0.0, 0.0, 0.0, 0.0, 1.700951556403459E9, 0.0, 2023-11-25 17:32:36.403
115.0, 38892.057703978746, 58765.44073408136, 18418.08330036203, -7242.211072708496, 24875.54697698915, 33470.016237499265, 11611.39596836519, 33751.35764495822, -0.112, 0.976, -0.006, 192.0, 0.0, 0.0, 0.0, 0.0, 0.0, 0.0, 0.0, 0.0, 0.0, 1.700951556406489E9, 0.0, 2023-11-25 17:32:36.406
116.0, 38696.50229173926, 58654.41961937185, 18395.373927995435, -7375.248655706484, 24632.896439182336, 32905.25471034702, 11609.138442175203, 33709.872807249165, -0.112, 0.976, -0.006, 192.0, 0.0, 0.0, 0.0, 0.0, 0.0, 0.0, 0.0, 0.0, 0.0, 1.700951556411503E9, 0.0, 2023-11-25 17:32:36.411
117.0, 38701.553785986165, 58718.680884680856, 18375.39146845239, -7313.803710198845, 24596.172523042267, 32893.8106171859, 11608.57964856382, 33735.48790639495, -0.112, 0.976, -0.006, 192.0, 0.0, 0.0, 0.0, 0.0, 0.0, 0.0, 0.0, 0.0, 0.0, 1.700951556415671E9, 0.0, 2023-11-25 17:32:36.415
118.0, 38767.04439724021, 58785.04321396867, 18381.895826088887, -7286.221657540997, 24610.0082528601, 32979.23898449409, 11608.557296819365, 33728.24594119143, -0.112, 0.976, -0.006, 192.0, 0.0, 0.0, 0.0, 0.0, 0.0, 0.0, 0.0, 0.0, 0.0, 1.700951556419633E9, 0.0, 2023-11-25 17:32:36.419
119.0, 38881.21710791792, 58771.25218763974, 18411.377777025435, -7224.776712033357, 24881.649003225448, 33457.32044664866, 11614.05582595537, 33741.969912286986, -0.112, 0.976, -0.006, 192.0, 0.0, 0.0, 0.0, 0.0, 0.0, 0.0, 0.0, 0.0, 0.0, 1.700951556425546E9, 0.0, 2023-11-25 17:32:36.425
120.0, 38698.044562106676, 58644.763665767154, 18390.21067502626, -7365.480943379515, 24656.231660393678, 33030.8938659303, 11610.34543637579, 33701.93793796753, -0.114, 0.972, -0.008, 192.0, 252.0, 112.0, 30.0, 96.0, 255.0, 192.0, 0.0, 0.0, 0.0, 1.700951556428601E9, 0.0, 2023-11-25 17:32:36.428
121.0, 38679.112634553036, 58693.28930297963, 18375.72674461922, -7313.736654965479, 24607.97424411467, 32869.44721572962, 11620.627238825231, 33739.15359248562, -0.114, 0.972, -0.008, 192.0, 0.0, 0.0, 0.0, 0.0, 0.0, 0.0, 0.0, 0.0, 0.0, 1.700951556431648E9, 0.0, 2023-11-25 17:32:36.431
122.0, 38730.767515989246, 58771.83333299558, 18376.330241719515, -7287.607465697225, 24573.32904020894, 32954.96499001563, 11616.894497501195, 33735.84553430624, -0.114, 0.972, -0.008, 192.0, 0.0, 0.0, 0.0, 0.0, 0.0, 0.0, 0.0, 0.0, 0.0, 1.700951556434721E9, 0.0, 2023-11-25 17:32:36.434
123.0, 38869.70595952344, 58783.09861220105, 18416.004588127686, -7208.594049047715, 24864.30404952813, 33390.42167549392, 11624.15881444917, 33758.93488632856, -0.114, 0.972, -0.008, 192.0, 0.0, 0.0, 0.0, 0.0, 0.0, 0.0, 0.0, 0.0, 0.0, 1.70095155643857E9, 0.0, 2023-11-25 17:32:36.438
124.0, 38723.74906823028, 58657.772381040144, 18394.166933794848, -7349.186521671596, 24692.79911432256, 33173.18507113279, 11611.597134065287, 33713.22556891746, -0.114, 0.972, -0.008, 192.0, 0.0, 0.0, 0.0, 0.0, 0.0, 0.0, 0.0, 0.0, 0.0, 1.700951556443797E9, 0.0, 2023-11-25 17:32:36.443
125.0, 38672.72003563881, 58682.71692785227, 18381.940529577798, -7322.789111469879, 24610.276473793565, 32845.44144218462, 11620.806052780874, 33747.02140653389, -0.114, 0.972, -0.008, 192.0, 0.0, 0.0, 0.0, 0.0, 0.0, 0.0, 0.0, 0.0, 0.0, 1.700951556449598E9, 0.0, 2023-11-25 17:32:36.449
126.0, 38714.964832659345, 58759.070486911594, 18368.753000349167, -7300.012683869921, 24548.496252119097, 32950.96402775813, 11611.86535499875, 33743.28866520985, -0.114, 0.972, -0.008, 192.0, 0.0, 0.0, 0.0, 0.0, 0.0, 0.0, 0.0, 0.0, 0.0, 1.700951556451618E9, 0.0, 2023-11-25 17:32:36.451
127.0, 38853.34448258215, 58789.40180413745, 18407.667387445854, -7216.707732284991, 24820.092298995532, 33286.97780215476, 11622.191860937102, 33760.58891541826, -0.114, 0.972, -0.008, 192.0, 0.0, 0.0, 0.0, 0.0, 0.0, 0.0, 0.0, 0.0, 0.0, 1.700951556454643E9, 0.0, 2023-11-25 17:32:36.454
128.0, 38757.56725759116, 58678.13482023893, 18395.172762295337, -7321.6268207582025, 24742.643504457894, 33281.07694161856, 11605.875087484728, 33716.77949628586, -0.114, 0.972, -0.008, 192.0, 0.0, 0.0, 0.0, 0.0, 0.0, 0.0, 0.0, 0.0, 0.0, 1.700951556458603E9, 0.0, 2023-11-25 17:32:36.458
129.0, 38656.64913137545, 58661.907453764376, 18380.889997588398, -7336.155454654152, 24610.25412204911, 32800.67089804064, 11618.302657401879, 33728.469458635984, -0.114, 0.972, -0.008, 192.0, 0.0, 0.0, 0.0, 0.0, 0.0, 0.0, 0.0, 0.0, 0.0, 1.700951556462793E9, 0.0, 2023-11-25 17:32:36.462
130.0, 38690.623782947514, 58741.36790530299, 18360.6840206008, -7308.483995018482, 24542.975371238634, 32945.53255385549, 11605.673921784632, 33731.44224064854, -0.114, 0.978, -0.01, 192.0, 252.0, 112.0, 30.0, 144.0, 255.0, 176.0, 0.0, 0.0, 0.0, 1.700951556466734E9, 0.0, 2023-11-25 17:32:36.466
131.0, 38816.24058678634, 58789.22299018181, 18398.279654774626, -7232.175139448063, 24761.776597711636, 33189.99358296318, 11615.531041089422, 33753.436357192564, -0.114, 0.978, -0.01, 192.0, 0.0, 0.0, 0.0, 0.0, 0.0, 0.0, 0.0, 0.0, 0.0, 1.7009515564707E9, 0.0, 2023-11-25 17:32:36.470
132.0, 38786.66922887197, 58699.95012282731, 18397.11736406295, -7297.4422332575605, 24792.309080637584, 33401.91047214394, 11599.415433337144, 33725.51902836788, -0.114, 0.978, -0.01, 192.0, 0.0, 0.0, 0.0, 0.0, 0.0, 0.0, 0.0, 0.0, 0.0, 1.700951556475701E9, 0.0, 2023-11-25 17:32:36.475
133.0, 38646.07675624809, 58648.630517557925, 18382.611081911455, -7357.50137060897, 24611.416412760784, 32814.3948691362, 11610.859526498261, 33717.02536547487, -0.114, 0.978, -0.01, 192.0, 0.0, 0.0, 0.0, 0.0, 0.0, 0.0, 0.0, 0.0, 0.0, 1.700951556479722E9, 0.0, 2023-11-25 17:32:36.479
134.0, 38684.92408811142, 58731.98017263177, 18362.919195046332, -7309.467471774516, 24563.47192090415, 32938.648216563255, 11607.886744485706, 33732.98451101596, -0.114, 0.978, -0.01, 192.0, 0.0, 0.0, 0.0, 0.0, 0.0, 0.0, 0.0, 0.0, 0.0, 1.700951556483102E9, 0.0, 2023-11-25 17:32:36.483
135.0, 38795.96755456538, 58785.1773244354, 18389.16014303686, -7250.794142579334, 24707.506562174152, 33098.19496848524, 11616.53686958991, 33743.73570009896, -0.114, 0.978, -0.01, 192.0, 0.0, 0.0, 0.0, 0.0, 0.0, 0.0, 0.0, 0.0, 0.0, 1.700951556486994E9, 0.0, 2023-11-25 17:32:36.486
136.0, 38832.57971198317, 58729.05209410812, 18400.984215853718, -7265.747459619935, 24846.266191752697, 33460.74026355032, 11606.322122373835, 33741.76874658689, -0.114, 0.978, -0.01, 192.0, 0.0, 0.0, 0.0, 0.0, 0.0, 0.0, 0.0, 0.0, 0.0, 1.700951556490742E9, 0.0, 2023-11-25 17:32:36.490
137.0, 38658.616084887515, 58649.681049547326, 18386.12030579094, -7370.7559550709675, 24620.58062798746, 32842.669825872166, 11608.445538097089, 33718.81350503129, -0.114, 0.978, -0.01, 192.0, 0.0, 0.0, 0.0, 0.0, 0.0, 0.0, 0.0, 0.0, 0.0, 1.700951556494744E9, 0.0, 2023-11-25 17:32:36.494
138.0, 38689.2826782802, 58729.45442550832, 18368.864759071443, -7312.306143320339, 24584.035525803036, 32910.17209412719, 11604.355168861768, 33738.684205852056, -0.114, 0.978, -0.01, 192.0, 0.0, 0.0, 0.0, 0.0, 0.0, 0.0, 0.0, 0.0, 0.0, 1.700951556498743E9, 0.0, 2023-11-25 17:32:36.498
139.0, 38780.07546425766, 58794.252132684254, 18388.422535469836, -7264.227540996974, 24659.87499473989, 33015.046479111494, 11611.418320109644, 33743.10985125421, -0.114, 0.982, -0.008, 192.0, 252.0, 112.0, 30.0, 176.0, 255.0, 192.0, 0.0, 0.0, 0.0, 1.700951556503744E9, 0.0, 2023-11-25 17:32:36.503
140.0, 38860.11706115211, 58758.802265978135, 18410.97544562524, -7227.637735323637, 24885.381744549482, 33478.688714347925, 11608.780814263919, 33749.32363621279, -0.114, 0.982, -0.008, 192.0, 0.0, 0.0, 0.0, 0.0, 0.0, 0.0, 0.0, 0.0, 0.0, 1.700951556507765E9, 0.0, 2023-11-25 17:32:36.507
141.0, 38663.26524773422, 58643.28845063311, 18391.14944829338, -7364.162190456652, 24643.02177942059, 32927.2711786355, 11611.083043942815, 33710.096324693724, -0.114, 0.982, -0.008, 192.0, 0.0, 0.0, 0.0, 0.0, 0.0, 0.0, 0.0, 0.0, 0.0, 1.700951556510783E9, 0.0, 2023-11-25 17:32:36.510
142.0, 38672.049483305156, 58707.639122919936, 18374.899730074376, -7304.930067650088, 24611.77404067207, 32897.27513757648, 11619.353189391279, 33746.70848211151, -0.114, 0.982, -0.008, 192.0, 0.0, 0.0, 0.0, 0.0, 0.0, 0.0, 0.0, 0.0, 0.0, 1.700951556515314E9, 0.0, 2023-11-25 17:32:36.515
143.0, 38736.89189397, 58779.61174006602, 18379.571244665534, -7281.77366039439, 24615.037395362546, 32983.19524326268, 11619.844927769296, 33741.76874658689, -0.114, 0.982, -0.008, 192.0, 0.0, 0.0, 0.0, 0.0, 0.0, 0.0, 0.0, 0.0, 0.0, 1.700951556518887E9, 0.0, 2023-11-25 17:32:36.518
144.0, 38854.171497127, 58777.22010340931, 18412.98710262622, -7216.841842751724, 24895.104753387543, 33452.38071112403, 11627.690390073109, 33766.35566548773, -0.114, 0.982, -0.008, 192.0, 0.0, 0.0, 0.0, 0.0, 0.0, 0.0, 0.0, 0.0, 0.0, 1.70095155652285E9, 0.0, 2023-11-25 17:32:36.522
145.0, 38676.40807347394, 58658.66645081836, 18393.474029716734, -7362.619920089236, 24675.655326325337, 33048.57409579445, 11622.25891617047, 33726.100173723724, -0.114, 0.982, -0.008, 192.0, 0.0, 0.0, 0.0, 0.0, 0.0, 0.0, 0.0, 0.0, 0.0, 1.700951556526876E9, 0.0, 2023-11-25 17:32:36.526
146.0, 38658.66078837643, 58706.454480463806, 18376.710221375255, -7315.837718944278, 24623.44165127774, 32875.81746289939, 11626.326933661334, 33757.86200259471, -0.114, 0.982, -0.008, 192.0, 0.0, 0.0, 0.0, 0.0, 0.0, 0.0, 0.0, 0.0, 0.0, 1.700951556530895E9, 0.0, 2023-11-25 17:32:36.530
147.0, 38710.74035295729, 58785.69141455787, 18372.73161086221, -7289.708529676024, 24586.605976415394, 32969.1806994892, 11618.213250424058, 33747.87077282319, -0.114, 0.982, -0.008, 192.0, 0.0, 0.0, 0.0, 0.0, 0.0, 0.0, 0.0, 0.0, 0.0, 1.700951556535964E9, 0.0, 2023-11-25 17:32:36.535
148.0, 38850.818735458706, 58802.61168511053, 18411.91421889236, -7204.123700156653, 24878.564462490616, 33397.663640697436, 11626.326933661334, 33772.3235812573, -0.114, 0.982, -0.008, 192.0, 0.0, 0.0, 0.0, 0.0, 0.0, 0.0, 0.0, 0.0, 0.0, 1.700951556538906E9, 0.0, 2023-11-25 17:32:36.538
149.0, 38712.90847216946, 58679.65473886189, 18394.63632042841, -7341.11754192323, 24720.247056513675, 33193.14517893138, 11616.11218644526, 33724.71436556749, -0.11800000000000001, 0.978, -0.012, 192.0, 252.0, 80.0, 30.0, 144.0, 255.0, 160.0, 0.0, 0.0, 0.0, 1.70095155654293E9, 0.0, 2023-11-25 17:32:36.542
150.0, 38652.55876214013, 58693.46811693527, 18378.45365744277, -7324.644306259669, 24631.577686259472, 32838.4006426812, 11617.989732979506, 33740.94173204205, -0.11800000000000001, 0.978, -0.012, 192.0, 0.0, 0.0, 0.0, 0.0, 0.0, 0.0, 0.0, 0.0, 0.0, 1.700951556546928E9, 0.0, 2023-11-25 17:32:36.546
151.0, 38696.56934697263, 58772.28036788468, 18366.987212537195, -7300.996160625954, 24570.62447912985, 32954.361492915334, 11606.590343307298, 33734.88440929465, -0.11800000000000001, 0.978, -0.012, 192.0, 0.0, 0.0, 0.0, 0.0, 0.0, 0.0, 0.0, 0.0, 0.0, 1.70095155655093E9, 0.0, 2023-11-25 17:32:36.550
152.0, 38837.45239227443, 58807.05968225714, 18409.857858402476, -7212.9526392165, 24838.554839915614, 33287.760113210694, 11619.688465558109, 33761.10300554073, -0.11800000000000001, 0.978, -0.012, 192.0, 0.0, 0.0, 0.0, 0.0, 0.0, 0.0, 0.0, 0.0, 0.0, 1.70095155655495E9, 0.0, 2023-11-25 17:32:36.554
153.0, 38752.649873810995, 58704.37576822946, 18402.772355410143, -7305.175936839097, 24774.76296124017, 33310.93887221085, 11611.708892787563, 33728.20123770252, -0.11800000000000001, 0.978, -0.012, 192.0, 0.0, 0.0, 0.0, 0.0, 0.0, 0.0, 0.0, 0.0, 0.0, 1.700951556558976E9, 0.0, 2023-11-25 17:32:36.558
154.0, 38641.71816607931, 58685.19797148681, 18381.269977244137, -7334.367315097727, 24630.191878103244, 32822.15092446219, 11617.855622512774, 33733.43154590506, -0.11800000000000001, 0.978, -0.012, 192.0, 0.0, 0.0, 0.0, 0.0, 0.0, 0.0, 0.0, 0.0, 0.0, 1.700951556563972E9, 0.0, 2023-11-25 17:32:36.563
