%OpenBCI Raw EXG Data
%Number of channels = 8
%Sample Rate = 250 Hz
%Board = OpenBCI_GUI$BoardCytonSerial
Sample Index, EXG Channel 0, EXG Channel 1, EXG Channel 2, EXG Channel 3, EXG Channel 4, EXG Channel 5, EXG Channel 6, EXG Channel 7, Accel Channel 0, Accel Channel 1, Accel Channel 2, Other, Other, Other, Other, Other, Other, Other, Analog Channel 0, Analog Channel 1, Analog Channel 2, Timestamp, Other, Timestamp (Formatted)
192.0, 9117.522432508758, 14862.32308892287, -58221.131053105724, -57210.94396244812, -68623.699977839, 2338.528911892046, -32773.178252360616, 23978.817341186685, 0.0, 0.0, 0.0, 192.0, 0.0, 0.0, 0.0, 0.0, 0.0, 0.0, 0.0, 0.0, 0.0, 1.700950124913171E9, 0.0, 2023-11-25 17:08:44.913
193.0, 9122.819795944666, 14823.766329737466, -58271.534236852436, -57262.57649213988, -68578.46004706145, 2404.2877440795596, -32770.920726170625, 23943.21101226938, 0.0, 0.0, 0.0, 192.0, 0.0, 0.0, 0.0, 0.0, 0.0, 0.0, 0.0, 0.0, 0.0, 1.700950124913196E9, 0.0, 2023-11-25 17:08:44.913
194.0, 9025.097969186065, 14690.482877550468, -58299.8091935884, -57315.81834743242, -68652.13139678615, 2268.992634891586, -32822.08386922882, 23892.226683166824, 0.0, 0.0, 0.0, 192.0, 0.0, 0.0, 0.0, 0.0, 0.0, 0.0, 0.0, 0.0, 0.0, 1.700950124913209E9, 0.0, 2023-11-25 17:08:44.913
0.0, 0.0, 0.0, 0.0, 0.0, 0.0, 0.0, 0.0, 0.0, -0.214, 0.9400000000000001, 0.17, 192.0, 249.0, 80.0, 29.0, 96.0, 5.0, 80.0, 0.0, 0.0, 0.0, 1.700950124979724E9, 0.0, 2023-11-25 17:08:44.979
1.0, 9245.508521259848, 15395.836877326594, -57546.95773684475, -56609.927905789365, -68331.78619525269, 277.36279694590536, -33069.0035902266, 24025.823059776194, -0.214, 0.9400000000000001, 0.17, 192.0, 0.0, 0.0, 0.0, 0.0, 0.0, 0.0, 0.0, 0.0, 0.0, 1.700950124996835E9, 0.0, 2023-11-25 17:08:44.996
2.0, 9328.7017141225, 15497.760832042793, -57493.69352980775, -56545.688992224816, -68280.6677556834, 332.5716057505138, -33015.471162256144, 24089.503179729367, -0.214, 0.9400000000000001, 0.17, 192.0, 0.0, 0.0, 0.0, 0.0, 0.0, 0.0, 0.0, 0.0, 0.0, 1.700950124999835E9, 0.0, 2023-11-25 17:08:44.999
3.0, 9325.103083265196, 15452.990287898814, -57549.505835712655, -56603.53530687515, -68249.12944425696, 389.76971981164456, -33014.93472038922, 24045.827871063695, -0.214, 0.9400000000000001, 0.17, 192.0, 0.0, 0.0, 0.0, 0.0, 0.0, 0.0, 0.0, 0.0, 0.0, 1.700950125002834E9, 0.0, 2023-11-25 17:08:45.002
4.0, 9225.436654738982, 15336.202423119836, -57575.43385928081, -56654.54198772216, -68328.20991613984, 241.68941279523526, -33064.466186102174, 23992.07192564868, -0.214, 0.9400000000000001, 0.17, 192.0, 0.0, 0.0, 0.0, 0.0, 0.0, 0.0, 0.0, 0.0, 0.0, 1.700950125006821E9, 0.0, 2023-11-25 17:08:45.006
5.0, 9243.206291580951, 15391.724156346818, -57548.52235895662, -56614.04062676914, -68330.13216616299, 275.2840847115618, -33043.83552596993, 24042.89979254005, -0.214, 0.9400000000000001, 0.17, 192.0, 0.0, 0.0, 0.0, 0.0, 0.0, 0.0, 0.0, 0.0, 0.0, 1.700950125009847E9, 0.0, 2023-11-25 17:08:45.009
6.0, 9314.709522093479, 15490.854143006105, -57499.5720385995, -56555.00966966268, -68297.67743321389, 308.5211287166034, -33021.37202279235, 24076.270947011824, -0.214, 0.9400000000000001, 0.17, 192.0, 0.0, 0.0, 0.0, 0.0, 0.0, 0.0, 0.0, 0.0, 0.0, 1.700950125012879E9, 0.0, 2023-11-25 17:08:45.012
7.0, 9340.36932472817, 15474.939700953926, -57533.8819663384, -56590.01250147969, -68242.13334824245, 386.21579244325073, -33014.8900169003, 24042.072777995203, -0.214, 0.9400000000000001, 0.17, 192.0, 0.0, 0.0, 0.0, 0.0, 0.0, 0.0, 0.0, 0.0, 0.0, 1.7009501250179E9, 0.0, 2023-11-25 17:08:45.017
8.0, 9242.938070647488, 15344.003181934737, -57575.34445230299, -56663.415630270916, -68317.34696833456, 245.3327471414503, -33074.16684319578, 23960.913593877984, -0.216, 0.9440000000000001, 0.17400000000000002, 192.0, 249.0, 64.0, 29.0, 128.0, 5.0, 112.0, 0.0, 0.0, 0.0, 1.700950125021834E9, 0.0, 2023-11-25 17:08:45.021
9.0, 9243.474512514415, 15379.073068985113, -57550.5340159576, -56632.95020257834, -68334.51310807624, 243.87988375185537, -33064.86851750237, 23992.89894019353, -0.216, 0.9440000000000001, 0.17400000000000002, 192.0, 0.0, 0.0, 0.0, 0.0, 0.0, 0.0, 0.0, 0.0, 0.0, 1.700950125025878E9, 0.0, 2023-11-25 17:08:45.025
10.0, 9320.27510646285, 15489.73655578334, -57494.073509463495, -56566.54316980162, -68306.41696529591, 276.826355078978, -33040.52746779054, 24023.342016141658, -0.216, 0.9440000000000001, 0.17400000000000002, 192.0, 0.0, 0.0, 0.0, 0.0, 0.0, 0.0, 0.0, 0.0, 0.0, 1.700950125029925E9, 0.0, 2023-11-25 17:08:45.029
11.0, 9360.530598226858, 15497.11263145359, -57521.32028595451, -56587.64321656743, -68250.42584543537, 357.13617290689626, -33025.55179900549, 24001.817286231195, -0.216, 0.9440000000000001, 0.17400000000000002, 192.0, 0.0, 0.0, 0.0, 0.0, 0.0, 0.0, 0.0, 0.0, 0.0, 1.70095012503395E9, 0.0, 2023-11-25 17:08:45.033
12.0, 9269.022556426831, 15365.57261533411, -57573.89158891339, -56660.24168255826, -68306.64048274046, 258.1850002032519, -33072.445758872724, 23957.225556042857, -0.216, 0.9440000000000001, 0.17400000000000002, 192.0, 0.0, 0.0, 0.0, 0.0, 0.0, 0.0, 0.0, 0.0, 0.0, 1.700950125037969E9, 0.0, 2023-11-25 17:08:45.037
13.0, 9242.647497969569, 15365.684374056385, -57559.40765850636, -56642.33793524956, -68337.79881451116, 227.36194459938343, -33073.11631120638, 23999.492704807843, -0.216, 0.9440000000000001, 0.17400000000000002, 192.0, 0.0, 0.0, 0.0, 0.0, 0.0, 0.0, 0.0, 0.0, 0.0, 1.700950125040998E9, 0.0, 2023-11-25 17:08:45.040
14.0, 9300.851440531187, 15468.502398550798, -57512.08901549447, -56582.36820487597, -68319.82801196909, 264.8011165620228, -33052.798575496505, 24044.240897207368, -0.216, 0.9440000000000001, 0.17400000000000002, 192.0, 0.0, 0.0, 0.0, 0.0, 0.0, 0.0, 0.0, 0.0, 0.0, 1.700950125045984E9, 0.0, 2023-11-25 17:08:45.045
15.0, 9365.157409329106, 15515.999855518325, -57506.99281775866, -56568.823047736056, -68248.72711285677, 355.7503647506672, -33019.8968076583, 24050.700551354952, -0.216, 0.9440000000000001, 0.17400000000000002, 192.0, 0.0, 0.0, 0.0, 0.0, 0.0, 0.0, 0.0, 0.0, 0.0, 1.700950125050035E9, 0.0, 2023-11-25 17:08:45.050
16.0, 9290.189658426007, 15392.528819147208, -57572.4387255238, -56652.418571998904, -68287.46268599782, 288.96335231820973, -33073.18336643975, 23967.306192792203, -0.216, 0.9440000000000001, 0.17400000000000002, 192.0, 0.0, 0.0, 0.0, 0.0, 0.0, 0.0, 0.0, 0.0, 0.0, 1.700950125053998E9, 0.0, 2023-11-25 17:08:45.053
17.0, 9248.481303272403, 15360.007030964736, -57557.127780571915, -56640.21451952631, -68328.36637835103, 218.06361890597572, -33081.52056712157, 23965.54040498023, -0.216, 0.9440000000000001, 0.17400000000000002, 192.0, 0.0, 0.0, 0.0, 0.0, 0.0, 0.0, 0.0, 0.0, 0.0, 1.700950125057017E9, 0.0, 2023-11-25 17:08:45.057
18.0, 9283.372376367137, 15444.496625005797, -57530.9315360703, -56594.99694049322, -68329.68513127389, 255.63690133534686, -33062.029845956546, 24001.102030408627, -0.218, 0.9460000000000001, 0.18, 192.0, 249.0, 48.0, 29.0, 144.0, 5.0, 160.0, 0.0, 0.0, 0.0, 1.700950125060997E9, 0.0, 2023-11-25 17:08:45.060
19.0, 9360.105915082208, 15520.805480576217, -57504.40001540184, -56555.0990766405, -68261.9146420854, 339.0536116425528, -33016.56639773445, 24044.5761733742, -0.218, 0.9460000000000001, 0.18, 192.0, 0.0, 0.0, 0.0, 0.0, 0.0, 0.0, 0.0, 0.0, 0.0, 1.70095012506605E9, 0.0, 2023-11-25 17:08:45.066
20.0, 9306.484080133925, 15420.490851460798, -57570.29295805609, -56633.10666478952, -68272.44231372385, 328.436533026282, -33044.416671325765, 23978.437361530945, -0.218, 0.9460000000000001, 0.18, 192.0, 0.0, 0.0, 0.0, 0.0, 0.0, 0.0, 0.0, 0.0, 0.0, 1.700950125070048E9, 0.0, 2023-11-25 17:08:45.070
21.0, 9236.724285688912, 15351.491016327265, -57565.509684742654, -56642.092066060555, -68330.80271849665, 226.66904052126893, -33065.69553204722, 23986.349879068122, -0.218, 0.9460000000000001, 0.18, 192.0, 0.0, 0.0, 0.0, 0.0, 0.0, 0.0, 0.0, 0.0, 0.0, 1.700950125074059E9, 0.0, 2023-11-25 17:08:45.074
22.0, 9273.582312295714, 15439.422779014443, -57528.4281406913, -56587.73262354525, -68320.31975034712, 278.27921846857294, -33045.71307250417, 24040.75402507234, -0.218, 0.9460000000000001, 0.18, 192.0, 0.0, 0.0, 0.0, 0.0, 0.0, 0.0, 0.0, 0.0, 0.0, 1.70095012507715E9, 0.0, 2023-11-25 17:08:45.077
23.0, 9349.7570573994, 15524.247649222334, -57492.06185246252, -56543.23030033473, -68265.04388630914, 340.014736654131, -33002.4400952387, 24069.788941119783, -0.218, 0.9460000000000001, 0.18, 192.0, 0.0, 0.0, 0.0, 0.0, 0.0, 0.0, 0.0, 0.0, 0.0, 1.70095012508123E9, 0.0, 2023-11-25 17:08:45.081
24.0, 9326.153615254596, 15450.06220937517, -57546.845978122474, -56607.73743483275, -68246.38017968896, 373.85527775946593, -33008.43036275272, 24020.23512366237, -0.218, 0.9460000000000001, 0.18, 192.0, 0.0, 0.0, 0.0, 0.0, 0.0, 0.0, 0.0, 0.0, 0.0, 1.7009501250852E9, 0.0, 2023-11-25 17:08:45.085
25.0, 9245.061486370741, 15347.17712964739, -57550.46696072423, -56636.19120552435, -68315.96116017833, 243.54460758502574, -33040.46041255718, 23983.04182088874, -0.218, 0.9460000000000001, 0.18, 192.0, 0.0, 0.0, 0.0, 0.0, 0.0, 0.0, 0.0, 0.0, 0.0, 1.700950125089143E9, 0.0, 2023-11-25 17:08:45.089
26.0, 9261.244149356384, 15408.577371666119, -57528.91987906932, -56601.255428940705, -68323.00195968174, 274.83704982245564, -33027.51875251756, 24014.915408482007, -0.218, 0.9460000000000001, 0.18, 192.0, 0.0, 0.0, 0.0, 0.0, 0.0, 0.0, 0.0, 0.0, 0.0, 1.700950125094172E9, 0.0, 2023-11-25 17:08:45.094
27.0, 9344.124417796662, 15516.335131685155, -57477.443811588746, -56541.17393984484, -68277.78438064866, 314.2878787860726, -32997.14273180279, 24048.04069376477, -0.222, 0.9460000000000001, 0.178, 192.0, 249.0, 16.0, 29.0, 144.0, 5.0, 144.0, 0.0, 0.0, 0.0, 1.7009501250981E9, 0.0, 2023-11-25 17:08:45.098
28.0, 9345.08554280824, 15476.146695154512, -57529.724541869706, -56596.941542260836, -68241.55220288661, 373.58705682600225, -32996.025144580024, 24015.250684648836, -0.222, 0.9460000000000001, 0.178, 192.0, 0.0, 0.0, 0.0, 0.0, 0.0, 0.0, 0.0, 0.0, 0.0, 1.700950125102162E9, 0.0, 2023-11-25 17:08:45.102
29.0, 9247.520178260826, 15351.200443649346, -57559.161789317346, -56654.49728423325, -68322.15259339244, 226.02083993206503, -33045.28838935952, 23960.51126247779, -0.222, 0.9460000000000001, 0.178, 192.0, 0.0, 0.0, 0.0, 0.0, 0.0, 0.0, 0.0, 0.0, 0.0, 1.700950125105143E9, 0.0, 2023-11-25 17:08:45.105
30.0, 9249.509483517348, 15393.579351136608, -57545.39311473288, -56630.17858626587, -68340.90570699045, 236.86143599288894, -33048.48468881663, 23979.085562120148, -0.222, 0.9460000000000001, 0.178, 192.0, 0.0, 0.0, 0.0, 0.0, 0.0, 0.0, 0.0, 0.0, 0.0, 1.700950125109529E9, 0.0, 2023-11-25 17:08:45.109
31.0, 9317.771711083855, 15496.218561675378, -57494.364082141416, -56571.7511262597, -68310.99907290925, 268.57856137496964, -33018.51099950207, 24022.04561496325, -0.222, 0.9460000000000001, 0.178, 192.0, 0.0, 0.0, 0.0, 0.0, 0.0, 0.0, 0.0, 0.0, 0.0, 1.700950125113665E9, 0.0, 2023-11-25 17:08:45.113
32.0, 9354.070944079274, 15494.944512241425, -57518.34750394196, -56593.34291140353, -68245.88844131093, 358.43257408530405, -32991.59949917788, 24012.23319914737, -0.222, 0.9460000000000001, 0.178, 192.0, 0.0, 0.0, 0.0, 0.0, 0.0, 0.0, 0.0, 0.0, 0.0, 1.700950125117235E9, 0.0, 2023-11-25 17:08:45.117
33.0, 9266.49680930338, 15371.764048548228, -57551.137513057896, -56651.055115587136, -68305.7240612178, 234.71566852517947, -33042.56147653598, 23936.3490267216, -0.222, 0.9460000000000001, 0.178, 192.0, 0.0, 0.0, 0.0, 0.0, 0.0, 0.0, 0.0, 0.0, 0.0, 1.700950125121263E9, 0.0, 2023-11-25 17:08:45.121
34.0, 9261.422963312027, 15397.982644794303, -57530.41744594782, -56620.32146696108, -68321.45968931433, 230.22296788966275, -33039.87926720134, 23964.042838101726, -0.222, 0.9460000000000001, 0.178, 192.0, 0.0, 0.0, 0.0, 0.0, 0.0, 0.0, 0.0, 0.0, 0.0, 1.700950125126217E9, 0.0, 2023-11-25 17:08:45.126
35.0, 9323.113778008674, 15496.553837842208, -57484.03757620306, -56559.97175693176, -68300.29258731515, 266.94688402973225, -33022.176685592734, 24017.57526607219, -0.222, 0.9460000000000001, 0.178, 192.0, 0.0, 0.0, 0.0, 0.0, 0.0, 0.0, 0.0, 0.0, 0.0, 1.700950125130204E9, 0.0, 2023-11-25 17:08:45.130
36.0, 9367.303176796815, 15512.982370016858, -57501.628399089386, -56569.53830355863, -68237.32772318456, 354.1857426387957, -33005.412877251256, 24005.348861855135, -0.222, 0.9460000000000001, 0.178, 192.0, 0.0, 0.0, 0.0, 0.0, 0.0, 0.0, 0.0, 0.0, 0.0, 1.700950125133217E9, 0.0, 2023-11-25 17:08:45.133
37.0, 9279.46082108746, 15386.247978955267, -57557.57481546102, -56647.72470566329, -68292.58123547808, 257.1344682138525, -33054.407901097286, 23930.001131296296, -0.224, 0.9420000000000001, 0.17200000000000001, 192.0, 249.0, 0.0, 29.0, 112.0, 5.0, 96.0, 0.0, 0.0, 0.0, 1.700950125137253E9, 0.0, 2023-11-25 17:08:45.137
38.0, 9256.237358598395, 15387.790249322683, -57539.73812338569, -56628.74807462074, -68325.55005854965, 217.54952878350363, -33054.49730807511, 23949.73772165033, -0.224, 0.9420000000000001, 0.17200000000000001, 192.0, 0.0, 0.0, 0.0, 0.0, 0.0, 0.0, 0.0, 0.0, 0.0, 1.700950125141289E9, 0.0, 2023-11-25 17:08:45.141
39.0, 9308.786309812822, 15483.813343502683, -57498.45445137673, -56573.53926581613, -68312.80956421013, 252.68647106724634, -33042.181496880235, 23987.80274245772, -0.224, 0.9420000000000001, 0.17200000000000001, 192.0, 0.0, 0.0, 0.0, 0.0, 0.0, 0.0, 0.0, 0.0, 0.0, 1.700950125145298E9, 0.0, 2023-11-25 17:08:45.145
40.0, 9373.941644900042, 15530.126158014078, -57489.37964312788, -56557.44600980831, -68242.26745870918, 339.2994808315612, -33013.235987810614, 23990.03791690325, -0.224, 0.9420000000000001, 0.17200000000000001, 192.0, 0.0, 0.0, 0.0, 0.0, 0.0, 0.0, 0.0, 0.0, 0.0, 1.700950125149309E9, 0.0, 2023-11-25 17:08:45.149
41.0, 9293.385957883114, 15398.42967968341, -57559.586472462, -56644.72957190628, -68280.82421789458, 282.39193944834943, -33057.80536625449, 23920.144011991502, -0.224, 0.9420000000000001, 0.17200000000000001, 192.0, 0.0, 0.0, 0.0, 0.0, 0.0, 0.0, 0.0, 0.0, 0.0, 1.700950125154355E9, 0.0, 2023-11-25 17:08:45.154
42.0, 9251.051753884763, 15362.04103971017, -57542.10740829795, -56632.994906067244, -68322.26435211473, 212.3639240698724, -33060.152299422305, 23941.825204113153, -0.224, 0.9420000000000001, 0.17200000000000001, 192.0, 0.0, 0.0, 0.0, 0.0, 0.0, 0.0, 0.0, 0.0, 0.0, 1.700950125158742E9, 0.0, 2023-11-25 17:08:45.158
43.0, 9283.730004278423, 15442.976706382837, -57518.43691091978, -56592.515896858684, -68325.79592773867, 248.17141868727433, -33050.96573245117, 23974.279937062256, -0.224, 0.9420000000000001, 0.17200000000000001, 192.0, 0.0, 0.0, 0.0, 0.0, 0.0, 0.0, 0.0, 0.0, 0.0, 1.700950125161409E9, 0.0, 2023-11-25 17:08:45.161
44.0, 9349.913519610587, 15511.194230460434, -57501.11430896691, -56565.80556223459, -68273.17992129087, 313.0138293521201, -33017.01343262356, 23992.22838785987, -0.224, 0.9420000000000001, 0.17200000000000001, 192.0, 0.0, 0.0, 0.0, 0.0, 0.0, 0.0, 0.0, 0.0, 0.0, 1.700950125165376E9, 0.0, 2023-11-25 17:08:45.165
45.0, 9304.628885344135, 15424.849441629583, -57564.14622833088, -56641.30975500462, -68276.4656277258, 308.2976112720503, -33041.64505501331, 23929.285875473724, -0.224, 0.9420000000000001, 0.17200000000000001, 192.0, 0.0, 0.0, 0.0, 0.0, 0.0, 0.0, 0.0, 0.0, 0.0, 1.700950125169377E9, 0.0, 2023-11-25 17:08:45.169
46.0, 9249.889463173087, 15368.433638624389, -57547.829454878505, -56643.008487583225, -68325.81827948312, 205.81486294446742, -33060.353465122396, 23923.45207017089, -0.224, 0.9420000000000001, 0.17200000000000001, 192.0, 0.0, 0.0, 0.0, 0.0, 0.0, 0.0, 0.0, 0.0, 0.0, 1.70095012517338E9, 0.0, 2023-11-25 17:08:45.173
47.0, 9276.555094308269, 15439.713351692362, -57521.00736153214, -56602.730644074756, -68326.60059053905, 250.69716581072402, -33042.315607346965, 23977.900919664018, -0.224, 0.9460000000000001, 0.17200000000000001, 192.0, 249.0, 0.0, 29.0, 144.0, 5.0, 96.0, 0.0, 0.0, 0.0, 1.700950125177375E9, 0.0, 2023-11-25 17:08:45.177
48.0, 9354.652089435112, 15525.655809123018, -57481.71299477971, -56556.015498163164, -68275.92918585887, 302.2626402691174, -33002.753019661075, 24008.925140967982, -0.224, 0.9460000000000001, 0.17200000000000001, 192.0, 0.0, 0.0, 0.0, 0.0, 0.0, 0.0, 0.0, 0.0, 0.0, 1.70095012518145E9, 0.0, 2023-11-25 17:08:45.181
49.0, 9322.040894274818, 15445.927136650937, -57554.11029507045, -56635.43124621287, -68270.5647671896, 320.4793120001927, -33027.563456006465, 23933.823279598153, -0.224, 0.9460000000000001, 0.17200000000000001, 192.0, 0.0, 0.0, 0.0, 0.0, 0.0, 0.0, 0.0, 0.0, 0.0, 1.700950125186417E9, 0.0, 2023-11-25 17:08:45.186
50.0, 9247.229605582907, 15358.956498975338, -57554.423219492826, -56658.095915090555, -68334.40134935395, 187.0170458575542, -33064.30972389099, 23898.10519195857, -0.224, 0.9460000000000001, 0.17200000000000001, 192.0, 0.0, 0.0, 0.0, 0.0, 0.0, 0.0, 0.0, 0.0, 0.0, 1.700950125189447E9, 0.0, 2023-11-25 17:08:45.189
51.0, 9264.753373235866, 15420.781424138717, -57533.25611749365, -56618.62273438248, -68339.85517500105, 224.63503177583598, -33054.96669470867, 23938.4500907004, -0.224, 0.9460000000000001, 0.17200000000000001, 192.0, 0.0, 0.0, 0.0, 0.0, 0.0, 0.0, 0.0, 0.0, 0.0, 1.700950125193487E9, 0.0, 2023-11-25 17:08:45.193
52.0, 9359.636528448646, 15540.45266395243, -57465.8656079609, -56537.95528864328, -68278.5666917046, 279.5085644136148, -33006.55281621848, 23989.255605847313, -0.224, 0.9460000000000001, 0.17200000000000001, 192.0, 0.0, 0.0, 0.0, 0.0, 0.0, 0.0, 0.0, 0.0, 0.0, 1.700950125197533E9, 0.0, 2023-11-25 17:08:45.197
53.0, 9350.651127177613, 15489.177762171956, -57531.400922703855, -56602.0600917411, -68251.09639776903, 341.1099721324411, -33015.538217489506, 23937.108986033083, -0.224, 0.9460000000000001, 0.17200000000000001, 192.0, 0.0, 0.0, 0.0, 0.0, 0.0, 0.0, 0.0, 0.0, 0.0, 1.700950125201433E9, 0.0, 2023-11-25 17:08:45.201
54.0, 9250.649422484568, 15360.498769342754, -57564.66031845335, -56661.046345358656, -68333.17200340891, 189.40868251427204, -33081.0064769991, 23864.28700259769, -0.224, 0.9460000000000001, 0.17200000000000001, 192.0, 0.0, 0.0, 0.0, 0.0, 0.0, 0.0, 0.0, 0.0, 0.0, 1.700950125205458E9, 0.0, 2023-11-25 17:08:45.205
55.0, 9270.765992494344, 15416.735758392306, -57531.758550615144, -56616.231097725766, -68332.43439584189, 219.85175846240026, -33060.06289244448, 23910.510410131268, -0.224, 0.9460000000000001, 0.17200000000000001, 192.0, 0.0, 0.0, 0.0, 0.0, 0.0, 0.0, 0.0, 0.0, 0.0, 1.700950125209483E9, 0.0, 2023-11-25 17:08:45.209
56.0, 9329.41696994507, 15510.411919404498, -57495.3699106419, -56568.331309358044, -68313.50246828825, 249.17724718776313, -33041.421537568756, 23949.17892803895, -0.224, 0.9460000000000001, 0.17200000000000001, 192.0, 0.0, 0.0, 0.0, 0.0, 0.0, 0.0, 0.0, 0.0, 0.0, 1.700950125214635E9, 0.0, 2023-11-25 17:08:45.214
57.0, 9358.653051692612, 15503.773451301271, -57529.2775069806, -56595.600437593515, -68256.61727864949, 336.30434707455004, -33025.70826121667, 23945.69205590392, -0.224, 0.9520000000000001, 0.17200000000000001, 192.0, 249.0, 0.0, 29.0, 192.0, 5.0, 96.0, 0.0, 0.0, 0.0, 1.700950125217493E9, 0.0, 2023-11-25 17:08:45.217
58.0, 9268.530818048814, 15381.420002152921, -57569.085963855505, -56659.638185457974, -68320.18563988038, 215.537871782526, -33081.72173282167, 23879.10620917156, -0.224, 0.9520000000000001, 0.17200000000000001, 192.0, 0.0, 0.0, 0.0, 0.0, 0.0, 0.0, 0.0, 0.0, 0.0, 1.700950125221564E9, 0.0, 2023-11-25 17:08:45.221
59.0, 9260.417134811538, 15406.275141987222, -57548.52235895662, -56631.65380139992, -68341.88918374649, 208.8547001903892, -33079.866538031885, 23898.999261736783, -0.224, 0.9520000000000001, 0.17200000000000001, 192.0, 0.0, 0.0, 0.0, 0.0, 0.0, 0.0, 0.0, 0.0, 0.0, 1.700950125225583E9, 0.0, 2023-11-25 17:08:45.225
60.0, 9321.07976926324, 15507.483840880854, -57499.50498336613, -56571.3040913706, -68320.72208174731, 243.3657936293833, -33053.089148174426, 23948.463672216378, -0.224, 0.9520000000000001, 0.17200000000000001, 192.0, 0.0, 0.0, 0.0, 0.0, 0.0, 0.0, 0.0, 0.0, 0.0, 1.700950125229579E9, 0.0, 2023-11-25 17:08:45.229
61.0, 9367.347880285726, 15528.405073691021, -57511.91020153883, -56578.56840831857, -68256.19259550484, 335.70084997425676, -33024.25539782708, 23959.304268277203, -0.224, 0.9520000000000001, 0.17200000000000001, 192.0, 0.0, 0.0, 0.0, 0.0, 0.0, 0.0, 0.0, 0.0, 0.0, 1.700950125233528E9, 0.0, 2023-11-25 17:08:45.233
62.0, 9286.143992679596, 15402.587104152097, -57563.05099285257, -56653.491455732765, -68302.8183344386, 243.9692907296766, -33075.46324437419, 23873.071238168628, -0.224, 0.9520000000000001, 0.17200000000000001, 192.0, 0.0, 0.0, 0.0, 0.0, 0.0, 0.0, 0.0, 0.0, 0.0, 1.700950125237563E9, 0.0, 2023-11-25 17:08:45.237
63.0, 9268.240245370895, 15399.524915161719, -57536.69828613976, -56627.1163972755, -68328.85811672904, 204.16083385477472, -33070.568212338476, 23891.422020366434, -0.224, 0.9520000000000001, 0.17200000000000001, 192.0, 0.0, 0.0, 0.0, 0.0, 0.0, 0.0, 0.0, 0.0, 0.0, 1.700950125242621E9, 0.0, 2023-11-25 17:08:45.242
64.0, 9319.962182040475, 15495.860933764094, -57493.782936785574, -56566.83374247954, -68313.7259857328, 248.55139834301454, -33049.378758594845, 23956.197375797914, -0.224, 0.9520000000000001, 0.17200000000000001, 192.0, 0.0, 0.0, 0.0, 0.0, 0.0, 0.0, 0.0, 0.0, 0.0, 1.70095012524561E9, 0.0, 2023-11-25 17:08:45.245
65.0, 9384.402261305126, 15548.119312300601, -57486.18334367077, -56546.53835851412, -68247.8106913341, 331.3869632943825, -33018.399240779785, 23971.59772772762, -0.224, 0.9520000000000001, 0.17200000000000001, 192.0, 0.0, 0.0, 0.0, 0.0, 0.0, 0.0, 0.0, 0.0, 0.0, 1.700950125249681E9, 0.0, 2023-11-25 17:08:45.249
66.0, 9312.876679048142, 15428.872755631539, -57562.358088774454, -56636.012391568715, -68286.63567145297, 273.7865178330562, -33074.99385774063, 23870.38902883399, -0.224, 0.9520000000000001, 0.17200000000000001, 192.0, 0.0, 0.0, 0.0, 0.0, 0.0, 0.0, 0.0, 0.0, 0.0, 1.700950125253609E9, 0.0, 2023-11-25 17:08:45.253
67.0, 9267.055602914763, 15382.761106820239, -57547.49417871168, -56631.07265604409, -68334.53545982069, 187.41937725774972, -33087.55553812451, 23862.96824967483, -0.22, 0.9460000000000001, 0.17, 192.0, 249.0, 32.0, 29.0, 144.0, 5.0, 80.0, 0.0, 0.0, 0.0, 1.700950125257613E9, 0.0, 2023-11-25 17:08:45.257
68.0, 9295.710539306467, 15453.884357677027, -57511.686684094275, -56581.6529490534, -68326.75705275024, 234.8721307363666, -33057.38068310984, 23924.05556727118, -0.22, 0.9460000000000001, 0.17, 192.0, 0.0, 0.0, 0.0, 0.0, 0.0, 0.0, 0.0, 0.0, 0.0, 1.700950125261832E9, 0.0, 2023-11-25 17:08:45.261
69.0, 9370.700641954023, 15529.50030916933, -57472.79464874204, -56535.697762453296, -68255.09736002653, 310.93511711777654, -33001.702487671675, 23975.46457951839, -0.22, 0.9460000000000001, 0.17, 192.0, 0.0, 0.0, 0.0, 0.0, 0.0, 0.0, 0.0, 0.0, 0.0, 1.700950125265895E9, 0.0, 2023-11-25 17:08:45.265
70.0, 9326.175966999052, 15437.09819759109, -57547.04714382257, -56620.50028091673, -68263.6580781529, 304.87779437038836, -33036.61591251086, 23896.428811124424, -0.22, 0.9460000000000001, 0.17, 192.0, 0.0, 0.0, 0.0, 0.0, 0.0, 0.0, 0.0, 0.0, 0.0, 1.700950125269625E9, 0.0, 2023-11-25 17:08:45.269
71.0, 9257.511408032347, 15362.331612388089, -57546.376591488915, -56637.80053112513, -68327.76288125073, 180.60209519888107, -33074.479767618155, 23851.05476988015, -0.22, 0.9460000000000001, 0.17, 192.0, 0.0, 0.0, 0.0, 0.0, 0.0, 0.0, 0.0, 0.0, 0.0, 1.700950125274658E9, 0.0, 2023-11-25 17:08:45.274
72.0, 9282.634768800113, 15438.707523191873, -57520.13564349838, -56599.802565551116, -68330.51214581874, 223.36098234188347, -33056.59837205391, 23889.633880810008, -0.22, 0.9460000000000001, 0.17, 192.0, 0.0, 0.0, 0.0, 0.0, 0.0, 0.0, 0.0, 0.0, 0.0, 1.700950125277656E9, 0.0, 2023-11-25 17:08:45.277
73.0, 9365.112705840196, 15536.78697786176, -57465.08329690496, -56536.65888746487, -68267.0108398212, 297.792291378056, -32996.56158644695, 23970.860120160596, -0.22, 0.9460000000000001, 0.17, 192.0, 0.0, 0.0, 0.0, 0.0, 0.0, 0.0, 0.0, 0.0, 0.0, 1.700950125281688E9, 0.0, 2023-11-25 17:08:45.281
74.0, 9338.357667727192, 15462.109799636579, -57525.56711740102, -56599.60139985102, -68242.5580313871, 356.1526961508627, -32997.12038005834, 23978.415009786488, -0.22, 0.9460000000000001, 0.17, 192.0, 0.0, 0.0, 0.0, 0.0, 0.0, 0.0, 0.0, 0.0, 0.0, 1.700950125285789E9, 0.0, 2023-11-25 17:08:45.285
75.0, 9262.138219134597, 15358.889443741971, -57525.14243425637, -56623.54011816265, -68304.04768038365, 226.46787482117116, -33036.41474681077, 23947.144919293514, -0.22, 0.9460000000000001, 0.17, 192.0, 0.0, 0.0, 0.0, 0.0, 0.0, 0.0, 0.0, 0.0, 0.0, 1.700950125289742E9, 0.0, 2023-11-25 17:08:45.289
76.0, 9280.064318187753, 15421.496679961287, -57503.170669456806, -56588.49258285673, -68309.63561649747, 255.27927342406196, -33029.664519985265, 23966.345067780625, -0.22, 0.9460000000000001, 0.17, 192.0, 0.0, 0.0, 0.0, 0.0, 0.0, 0.0, 0.0, 0.0, 0.0, 1.700950125294211E9, 0.0, 2023-11-25 17:08:45.294
77.0, 9355.859083635698, 15523.040655021747, -57458.42247705728, -56536.77064618715, -68275.4150957364, 286.1023290279304, -33006.306947029465, 23995.067059405694, -0.226, 0.9480000000000001, 0.17400000000000002, 192.0, 248.0, 240.0, 29.0, 160.0, 5.0, 112.0, 0.0, 0.0, 0.0, 1.700950125297885E9, 0.0, 2023-11-25 17:08:45.297
78.0, 9363.793952917333, 15489.40127961651, -57506.43402414728, -56590.66070206889, -68236.72422608426, 350.49770480367005, -33009.10091508638, 23956.7561694093, -0.226, 0.9480000000000001, 0.17400000000000002, 192.0, 0.0, 0.0, 0.0, 0.0, 0.0, 0.0, 0.0, 0.0, 0.0, 1.700950125302049E9, 0.0, 2023-11-25 17:08:45.302
79.0, 9267.033251170309, 15361.057562954136, -57531.93736457078, -56645.98126959578, -68307.55690426313, 208.5194240235596, -33058.49827033261, 23896.67468031343, -0.226, 0.9480000000000001, 0.17400000000000002, 192.0, 0.0, 0.0, 0.0, 0.0, 0.0, 0.0, 0.0, 0.0, 0.0, 1.700950125304819E9, 0.0, 2023-11-25 17:08:45.304
80.0, 9268.486114559902, 15399.547266906175, -57511.396111416354, -56615.56054539211, -68320.4762125583, 218.08597065043102, -33051.23395338463, 23928.83884058462, -0.226, 0.9480000000000001, 0.17400000000000002, 192.0, 0.0, 0.0, 0.0, 0.0, 0.0, 0.0, 0.0, 0.0, 0.0, 1.700950125308839E9, 0.0, 2023-11-25 17:08:45.308
81.0, 9345.107894552695, 15511.730672327361, -57461.507017792115, -56553.020364406155, -68293.94469188985, 246.74090704213467, -33028.613987995865, 23968.31202129269, -0.226, 0.9480000000000001, 0.17400000000000002, 192.0, 0.0, 0.0, 0.0, 0.0, 0.0, 0.0, 0.0, 0.0, 0.0, 1.700950125313844E9, 0.0, 2023-11-25 17:08:45.313
82.0, 9374.85806642271, 15514.703454339917, -57502.05308223404, -56588.045547967624, -68247.38600818945, 320.8816434003882, -33022.06492687046, 23940.104119790092, -0.226, 0.9480000000000001, 0.17400000000000002, 192.0, 0.0, 0.0, 0.0, 0.0, 0.0, 0.0, 0.0, 0.0, 0.0, 1.700950125317823E9, 0.0, 2023-11-25 17:08:45.317
83.0, 9285.160515923562, 15385.845647555072, -57543.67203040982, -56653.759676666225, -68307.98158740778, 195.46600526166026, -33082.861671788894, 23864.041133408682, -0.226, 0.9480000000000001, 0.17400000000000002, 192.0, 0.0, 0.0, 0.0, 0.0, 0.0, 0.0, 0.0, 0.0, 0.0, 1.700950125321835E9, 0.0, 2023-11-25 17:08:45.321
84.0, 9282.74652752239, 15410.879601345016, -57509.11623348192, -56610.844327312036, -68315.17884912239, 187.3523220243838, -33072.57986933945, 23897.233473924814, -0.226, 0.9480000000000001, 0.17400000000000002, 192.0, 0.0, 0.0, 0.0, 0.0, 0.0, 0.0, 0.0, 0.0, 0.0, 1.700950125324956E9, 0.0, 2023-11-25 17:08:45.324
85.0, 9344.504397452403, 15517.966809030391, -57464.926834693775, -56549.041753893114, -68298.30328205864, 223.58449978643654, -33051.34571210691, 23935.901991832496, -0.226, 0.9480000000000001, 0.17400000000000002, 192.0, 0.0, 0.0, 0.0, 0.0, 0.0, 0.0, 0.0, 0.0, 0.0, 1.700950125328902E9, 0.0, 2023-11-25 17:08:45.328
86.0, 9393.208848620516, 15542.531376186775, -57480.014262201104, -56555.72492548525, -68238.73588308525, 306.46476822671514, -33024.277749571535, 23938.673608144953, -0.226, 0.9480000000000001, 0.17400000000000002, 192.0, 0.0, 0.0, 0.0, 0.0, 0.0, 0.0, 0.0, 0.0, 0.0, 1.700950125332876E9, 0.0, 2023-11-25 17:08:45.332
87.0, 9306.394673156105, 15411.28193274521, -57539.447550707766, -56633.2184235118, -68283.90875862942, 224.97030794266558, -33074.81504378498, 23868.220909621825, -0.224, 0.9560000000000001, 0.182, 192.0, 249.0, 0.0, 29.0, 224.0, 5.0, 176.0, 0.0, 0.0, 0.0, 1.700950125336982E9, 0.0, 2023-11-25 17:08:45.336
88.0, 9279.572579809736, 15402.028310540714, -57511.88784979437, -56604.474080142274, -68309.25563684174, 180.44563298769393, -33078.950116509215, 23897.501694858278, -0.224, 0.9560000000000001, 0.182, 192.0, 0.0, 0.0, 0.0, 0.0, 0.0, 0.0, 0.0, 0.0, 0.0, 1.700950125342695E9, 0.0, 2023-11-25 17:08:45.342
89.0, 9326.46653967697, 15496.844410520127, -57475.18628539876, -56551.835721950025, -68300.82902918209, 217.16954912776342, -33060.59933431141, 23940.618209912565, -0.224, 0.9560000000000001, 0.182, 192.0, 0.0, 0.0, 0.0, 0.0, 0.0, 0.0, 0.0, 0.0, 0.0, 1.700950125345935E9, 0.0, 2023-11-25 17:08:45.345
90.0, 9400.674331268589, 15560.010440350825, -57455.13677062235, -56521.772625657635, -68230.57749635905, 296.49589019964816, -33021.99787163709, 23962.522919478764, -0.224, 0.9560000000000001, 0.182, 192.0, 0.0, 0.0, 0.0, 0.0, 0.0, 0.0, 0.0, 0.0, 0.0, 1.700950125349927E9, 0.0, 2023-11-25 17:08:45.349
91.0, 9330.311039723283, 15441.76971218225, -57526.28237322359, -56607.24569645473, -68259.4112467064, 263.3706049168831, -33059.70526453319, 23897.322880902637, -0.224, 0.9560000000000001, 0.182, 192.0, 0.0, 0.0, 0.0, 0.0, 0.0, 0.0, 0.0, 0.0, 0.0, 1.700950125352971E9, 0.0, 2023-11-25 17:08:45.352
92.0, 9272.509428561858, 15387.298510944667, -57515.106500995935, -56605.6140191095, -68311.75903222073, 171.99667358358784, -33080.492386876635, 23883.263633640247, -0.224, 0.9560000000000001, 0.182, 192.0, 0.0, 0.0, 0.0, 0.0, 0.0, 0.0, 0.0, 0.0, 0.0, 1.700950125356975E9, 0.0, 2023-11-25 17:08:45.356
93.0, 9306.662894089568, 15471.519884052264, -57484.484611092164, -56558.407134819885, -68309.36739556401, 212.60979325888079, -33066.924877992264, 23910.845686298097, -0.224, 0.9560000000000001, 0.182, 192.0, 0.0, 0.0, 0.0, 0.0, 0.0, 0.0, 0.0, 0.0, 0.0, 1.700950125360955E9, 0.0, 2023-11-25 17:08:45.360
94.0, 9391.018377663897, 15556.680030426984, -57446.59840424042, -56511.66963716384, -68244.83790932153, 281.47551792568186, -33018.91333090226, 23939.411215711978, -0.224, 0.9560000000000001, 0.182, 192.0, 0.0, 0.0, 0.0, 0.0, 0.0, 0.0, 0.0, 0.0, 0.0, 1.700950125364984E9, 0.0, 2023-11-25 17:08:45.364
95.0, 9344.772618385867, 15459.651107746497, -57517.229916719196, -56589.56546659058, -68244.52498489917, 300.4074454793269, -33034.425441554245, 23918.467631157357, -0.224, 0.9560000000000001, 0.182, 192.0, 0.0, 0.0, 0.0, 0.0, 0.0, 0.0, 0.0, 0.0, 0.0, 1.700950125369966E9, 0.0, 2023-11-25 17:08:45.369
96.0, 9266.005070925365, 15376.390859650477, -57521.409692932335, -56611.894859301436, -68313.16719212141, 182.32317952193972, -33066.701360547704, 23913.662006099465, -0.224, 0.9560000000000001, 0.182, 192.0, 0.0, 0.0, 0.0, 0.0, 0.0, 0.0, 0.0, 0.0, 0.0, 1.700950125375035E9, 0.0, 2023-11-25 17:08:45.375
97.0, 9293.967103238952, 15455.180758855435, -57499.66144557732, -56577.02613795116, -68320.61032302503, 213.59327001491428, -33060.48757558913, 23934.15855576498, -0.224, 0.9520000000000001, 0.184, 192.0, 249.0, 0.0, 29.0, 192.0, 5.0, 192.0, 0.0, 0.0, 0.0, 1.700950125377994E9, 0.0, 2023-11-25 17:08:45.377
98.0, 9375.908598412108, 15549.862748368116, -57452.18634035425, -56523.873689636435, -68270.18478753386, 261.7389275716457, -33023.96482514916, 23976.671573718977, -0.224, 0.9520000000000001, 0.184, 192.0, 0.0, 0.0, 0.0, 0.0, 0.0, 0.0, 0.0, 0.0, 0.0, 1.700950125382018E9, 0.0, 2023-11-25 17:08:45.382
99.0, 9362.497551738925, 15488.462506349386, -57510.926724782796, -56589.2078386793, -68244.10030175452, 308.3423147609609, -33031.72088047515, 23939.25475350079, -0.224, 0.9520000000000001, 0.184, 192.0, 0.0, 0.0, 0.0, 0.0, 0.0, 0.0, 0.0, 0.0, 0.0, 1.700950125386069E9, 0.0, 2023-11-25 17:08:45.386
100.0, 9281.293664132794, 15385.733888832796, -57517.34167544147, -56619.785025094156, -68308.31686357461, 172.39900498378339, -33068.82477627096, 23894.73007854582, -0.224, 0.9520000000000001, 0.184, 192.0, 0.0, 0.0, 0.0, 0.0, 0.0, 0.0, 0.0, 0.0, 0.0, 1.700950125389027E9, 0.0, 2023-11-25 17:08:45.389
101.0, 9290.860210759665, 15439.646296458995, -57499.393224643856, -56589.163135190385, -68319.53743929118, 196.8741651623446, -33066.88017450335, 23919.11583174656, -0.224, 0.9520000000000001, 0.184, 192.0, 0.0, 0.0, 0.0, 0.0, 0.0, 0.0, 0.0, 0.0, 0.0, 1.700950125393167E9, 0.0, 2023-11-25 17:08:45.393
102.0, 9374.455735022513, 15551.98616409137, -57442.03864837154, -56523.22548904723, -68275.59390969205, 238.73898252713474, -33028.52458101804, 23963.774617168263, -0.224, 0.9520000000000001, 0.184, 192.0, 0.0, 0.0, 0.0, 0.0, 0.0, 0.0, 0.0, 0.0, 0.0, 1.700950125397084E9, 0.0, 2023-11-25 17:08:45.397
103.0, 9372.622891977178, 15509.719015326384, -57504.86940203541, -56584.20104792131, -68246.02255177767, 297.4123117223158, -33035.20775261018, 23919.92049454695, -0.224, 0.9520000000000001, 0.184, 192.0, 0.0, 0.0, 0.0, 0.0, 0.0, 0.0, 0.0, 0.0, 0.0, 1.700950125402024E9, 0.0, 2023-11-25 17:08:45.402
104.0, 9280.019614698842, 15383.185789964891, -57532.67497213781, -56637.57701368058, -68313.27895084368, 158.20564725466338, -33089.45543640321, 23858.05086589466, -0.224, 0.9520000000000001, 0.184, 192.0, 0.0, 0.0, 0.0, 0.0, 0.0, 0.0, 0.0, 0.0, 0.0, 1.700950125406068E9, 0.0, 2023-11-25 17:08:45.406
105.0, 9270.698937260979, 15407.839764099093, -57514.88298355138, -56610.0620162561, -68329.66277952943, 164.93352233571082, -33084.29218343403, 23878.77093300473, -0.224, 0.9520000000000001, 0.184, 192.0, 0.0, 0.0, 0.0, 0.0, 0.0, 0.0, 0.0, 0.0, 0.0, 1.700950125409102E9, 0.0, 2023-11-25 17:08:45.409
106.0, 9343.632679418646, 15517.698588096928, -57454.019183399585, -56539.34109679951, -68294.12350584549, 201.47862452013786, -33051.68098827374, 23921.77568933674, -0.224, 0.9520000000000001, 0.184, 192.0, 0.0, 0.0, 0.0, 0.0, 0.0, 0.0, 0.0, 0.0, 0.0, 1.70095012541417E9, 0.0, 2023-11-25 17:08:45.414
107.0, 9379.887208925153, 15523.085358510658, -57479.50017207863, -56560.66466100987, -68233.52792662715, 290.8632505969108, -33028.882208929324, 23917.551209634687, -0.226, 0.9480000000000001, 0.178, 192.0, 248.0, 240.0, 29.0, 160.0, 5.0, 144.0, 0.0, 0.0, 0.0, 1.70095012541823E9, 0.0, 2023-11-25 17:08:45.418
108.0, 9284.132335678618, 15388.66196735644, -57532.876137837906, -56637.37584798048, -68299.6220349815, 174.83534512941185, -33084.403942156314, 23841.48822325328, -0.226, 0.9480000000000001, 0.178, 192.0, 0.0, 0.0, 0.0, 0.0, 0.0, 0.0, 0.0, 0.0, 0.0, 1.700950125421169E9, 0.0, 2023-11-25 17:08:45.421
109.0, 9256.952614420965, 15395.747470348773, -57520.068588265014, -56620.23205998327, -68331.2274016413, 145.50985640404897, -33090.59537537043, 23853.491110025778, -0.226, 0.9480000000000001, 0.178, 192.0, 0.0, 0.0, 0.0, 0.0, 0.0, 0.0, 0.0, 0.0, 0.0, 1.700950125425168E9, 0.0, 2023-11-25 17:08:45.425
110.0, 9312.161423225572, 15494.11749769658, -57472.50407606412, -56559.39061157592, -68312.78721246567, 179.4621562316604, -33072.1551861948, 23896.764087291253, -0.226, 0.9480000000000001, 0.178, 192.0, 0.0, 0.0, 0.0, 0.0, 0.0, 0.0, 0.0, 0.0, 0.0, 1.700950125430152E9, 0.0, 2023-11-25 17:08:45.430
111.0, 9377.361461801704, 15530.193213247445, -57466.64791901683, -56544.79492244661, -68237.79710981812, 276.7816515900674, -33032.749060720096, 23917.64061661251, -0.226, 0.9480000000000001, 0.178, 192.0, 0.0, 0.0, 0.0, 0.0, 0.0, 0.0, 0.0, 0.0, 0.0, 1.700950125434799E9, 0.0, 2023-11-25 17:08:45.434
112.0, 9292.693053805, 15394.831048826105, -57532.317344226525, -56627.608135653514, -68284.66871794089, 202.73032220963506, -33079.17363395377, 23848.841947179073, -0.226, 0.9480000000000001, 0.178, 192.0, 0.0, 0.0, 0.0, 0.0, 0.0, 0.0, 0.0, 0.0, 0.0, 1.700950125437168E9, 0.0, 2023-11-25 17:08:45.437
113.0, 9252.63872774109, 15374.3792026495, -57521.49909991016, -56615.046455269636, -68326.01944518322, 143.27468195851827, -33091.22122421518, 23861.180110118403, -0.226, 0.9480000000000001, 0.178, 192.0, 0.0, 0.0, 0.0, 0.0, 0.0, 0.0, 0.0, 0.0, 0.0, 1.700950125441226E9, 0.0, 2023-11-25 17:08:45.441
114.0, 9286.278103146327, 15460.34401182461, -57497.42627113179, -56572.1534576599, -68327.09232891708, 177.11522306385316, -33082.81696829999, 23897.322880902637, -0.226, 0.9480000000000001, 0.178, 192.0, 0.0, 0.0, 0.0, 0.0, 0.0, 0.0, 0.0, 0.0, 0.0, 1.700950125445239E9, 0.0, 2023-11-25 17:08:45.445
115.0, 9350.785237644344, 15518.749120086328, -57483.724651780685, -56550.85224519399, -68267.88255785496, 248.30552915400617, -33048.73055800564, 23905.280101928725, -0.226, 0.9480000000000001, 0.178, 192.0, 0.0, 0.0, 0.0, 0.0, 0.0, 0.0, 0.0, 0.0, 0.0, 1.700950125449263E9, 0.0, 2023-11-25 17:08:45.449
116.0, 9294.54824859479, 15410.946656578382, -57548.120027556426, -56630.33504847706, -68287.73090693128, 219.09179915091983, -33075.86557577438, 23836.34732202856, -0.226, 0.9480000000000001, 0.178, 192.0, 0.0, 0.0, 0.0, 0.0, 0.0, 0.0, 0.0, 0.0, 0.0, 1.700950125453226E9, 0.0, 2023-11-25 17:08:45.453
117.0, 9241.507559002348, 15355.290812884667, -57537.23472800669, -56630.64797289944, -68339.6316575565, 126.15324570575306, -33089.76836082558, 23838.783662174184, -0.218, 0.9400000000000001, 0.182, 192.0, 249.0, 48.0, 29.0, 96.0, 5.0, 176.0, 0.0, 0.0, 0.0, 1.700950125459291E9, 0.0, 2023-11-25 17:08:45.459
118.0, 9277.493867575391, 15441.590898226608, -57507.66337009232, -56584.849248510516, -68340.2351546568, 169.9850165826102, -33079.3077444205, 23894.752430290275, -0.218, 0.9400000000000001, 0.182, 192.0, 0.0, 0.0, 0.0, 0.0, 0.0, 0.0, 0.0, 0.0, 0.0, 1.700950125462264E9, 0.0, 2023-11-25 17:08:45.462
119.0, 9354.786199901844, 15526.393416690044, -57477.577922055476, -56544.61610849096, -68287.10505808653, 235.00624120309845, -33042.449717813695, 23932.236305741826, -0.218, 0.9400000000000001, 0.182, 192.0, 0.0, 0.0, 0.0, 0.0, 0.0, 0.0, 0.0, 0.0, 0.0, 1.700950125466335E9, 0.0, 2023-11-25 17:08:45.466
120.0, 9325.728932109945, 15441.881470904527, -57534.30664948305, -56613.705350602315, -68274.34221200255, 256.8438955359335, -33056.46426158718, 23883.57655806262, -0.218, 0.9400000000000001, 0.182, 192.0, 0.0, 0.0, 0.0, 0.0, 0.0, 0.0, 0.0, 0.0, 0.0, 1.700950125469286E9, 0.0, 2023-11-25 17:08:45.469
121.0, 9258.673698744024, 15355.000240206748, -57520.29210570957, -56624.50124317423, -68327.31584636163, 145.50985640404897, -33076.82670078596, 23865.091665398082, -0.218, 0.9400000000000001, 0.182, 192.0, 0.0, 0.0, 0.0, 0.0, 0.0, 0.0, 0.0, 0.0, 0.0, 1.700950125476481E9, 0.0, 2023-11-25 17:08:45.476
122.0, 9268.64257677109, 15407.862115843549, -57511.977256772196, -56603.7588243197, -68346.09131170408, 172.84603987288952, -33079.93359326525, 23890.662061054954, -0.218, 0.9400000000000001, 0.182, 192.0, 0.0, 0.0, 0.0, 0.0, 0.0, 0.0, 0.0, 0.0, 0.0, 1.700950125479398E9, 0.0, 2023-11-25 17:08:45.479
123.0, 9352.23810103394, 15508.176744958968, -57466.402049827826, -56552.461570794774, -68300.00201463724, 217.7730462280567, -33045.958941693185, 23937.77953836674, -0.218, 0.9400000000000001, 0.182, 192.0, 0.0, 0.0, 0.0, 0.0, 0.0, 0.0, 0.0, 0.0, 0.0, 1.700950125482367E9, 0.0, 2023-11-25 17:08:45.482
124.0, 9339.028220060853, 15448.207014585378, -57530.26098373664, -56620.92496406138, -68276.4656277258, 264.44348865073783, -33060.01818895557, 23889.142142431992, -0.218, 0.9400000000000001, 0.182, 192.0, 0.0, 0.0, 0.0, 0.0, 0.0, 0.0, 0.0, 0.0, 0.0, 1.700950125485381E9, 0.0, 2023-11-25 17:08:45.485
125.0, 9251.297623073771, 15336.22477486429, -57542.308573998045, -56659.39231626896, -68343.92319249191, 128.2319579400966, -33100.631308630866, 23846.606772733543, -0.218, 0.9400000000000001, 0.182, 192.0, 0.0, 0.0, 0.0, 0.0, 0.0, 0.0, 0.0, 0.0, 0.0, 1.700950125490388E9, 0.0, 2023-11-25 17:08:45.490
126.0, 9260.417134811538, 15394.51812440373, -57522.460224921735, -56627.02699029768, -68353.84736703007, 157.19981875417457, -33093.210529471704, 23894.126581445526, -0.218, 0.9400000000000001, 0.182, 192.0, 0.0, 0.0, 0.0, 0.0, 0.0, 0.0, 0.0, 0.0, 0.0, 1.700950125493844E9, 0.0, 2023-11-25 17:08:45.493
127.0, 9331.383923457137, 15491.927026739959, -57478.3155296225, -56574.09805942751, -68325.61711378302, 184.4465952451939, -33074.904450762806, 23927.095404517106, -0.222, 0.9440000000000001, 0.178, 192.0, 249.0, 16.0, 29.0, 128.0, 5.0, 144.0, 0.0, 0.0, 0.0, 1.70095012549739E9, 0.0, 2023-11-25 17:08:45.497
128.0, 9349.868816121676, 15467.340107839122, -57518.682780108786, -56614.04062676914, -68275.95153760332, 255.83806703544465, -33078.324267664466, 23886.951671475374, -0.222, 0.9440000000000001, 0.178, 192.0, 0.0, 0.0, 0.0, 0.0, 0.0, 0.0, 0.0, 0.0, 0.0, 1.700950125501405E9, 0.0, 2023-11-25 17:08:45.501
129.0, 9264.820428469233, 15354.262632639722, -57540.18515827479, -56661.82865641459, -68333.59668655356, 126.46617012812736, -33125.59820718744, 23819.00236833124, -0.222, 0.9440000000000001, 0.178, 192.0, 0.0, 0.0, 0.0, 0.0, 0.0, 0.0, 0.0, 0.0, 0.0, 1.700950125505388E9, 0.0, 2023-11-25 17:08:45.505
130.0, 9272.464725072949, 15396.395670937976, -57508.02099800361, -56620.34381870554, -68338.02233195571, 142.4029639247613, -33108.253253490126, 23871.19369163438, -0.222, 0.9440000000000001, 0.178, 192.0, 0.0, 0.0, 0.0, 0.0, 0.0, 0.0, 0.0, 0.0, 0.0, 1.700950125509433E9, 0.0, 2023-11-25 17:08:45.509
131.0, 9343.051534062808, 15508.623779848074, -57451.69460197623, -56550.0475823936, -68304.49471527275, 185.184202812219, -33074.122139706866, 23935.96904706586, -0.222, 0.9440000000000001, 0.178, 192.0, 0.0, 0.0, 0.0, 0.0, 0.0, 0.0, 0.0, 0.0, 0.0, 1.700950125515486E9, 0.0, 2023-11-25 17:08:45.515
132.0, 9377.204999590516, 15513.518811883785, -57479.7683930121, -56569.69476576982, -68248.4588919233, 271.75250908762325, -33058.14064242133, 23917.662968356966, -0.222, 0.9440000000000001, 0.178, 192.0, 0.0, 0.0, 0.0, 0.0, 0.0, 0.0, 0.0, 0.0, 0.0, 1.700950125518465E9, 0.0, 2023-11-25 17:08:45.518
133.0, 9289.384995625614, 15386.583255122097, -57528.65165813585, -56637.77817938068, -68304.2264943393, 164.03945255749852, -33114.534093682065, 23838.560144729632, -0.222, 0.9440000000000001, 0.178, 192.0, 0.0, 0.0, 0.0, 0.0, 0.0, 0.0, 0.0, 0.0, 0.0, 1.700950125521512E9, 0.0, 2023-11-25 17:08:45.521
134.0, 9267.234416870406, 15393.154667991957, -57510.94907652725, -56611.80545232361, -68331.76384350823, 136.25623419955184, -33122.0666315635, 23851.568860002622, -0.222, 0.9440000000000001, 0.178, 192.0, 0.0, 0.0, 0.0, 0.0, 0.0, 0.0, 0.0, 0.0, 0.0, 1.7009501255246E9, 0.0, 2023-11-25 17:08:45.524
135.0, 9317.548193639303, 15492.239951162333, -57473.28638712006, -56555.90373944089, -68322.35375909254, 174.1424410512973, -33100.94423305324, 23885.476456341323, -0.222, 0.9440000000000001, 0.178, 192.0, 0.0, 0.0, 0.0, 0.0, 0.0, 0.0, 0.0, 0.0, 0.0, 1.700950125529521E9, 0.0, 2023-11-25 17:08:45.529
136.0, 9379.32841531377, 15531.400207448032, -57472.66053827531, -56541.777436945136, -68253.55508965912, 266.05281425152, -33056.95599996519, 23897.278177413726, -0.222, 0.9440000000000001, 0.178, 192.0, 0.0, 0.0, 0.0, 0.0, 0.0, 0.0, 0.0, 0.0, 0.0, 1.700950125533555E9, 0.0, 2023-11-25 17:08:45.533
137.0, 9310.7979668138, 15414.165307779946, -57524.04719877806, -56609.503222644715, -68281.49477022824, 211.84983394740033, -33091.400038170825, 23828.65832193593, -0.224, 0.9500000000000001, 0.18, 192.0, 249.0, 0.0, 29.0, 176.0, 5.0, 160.0, 0.0, 0.0, 0.0, 1.700950125537523E9, 0.0, 2023-11-25 17:08:45.537
138.0, 9272.308262861761, 15389.488981901288, -57507.43985264777, -56595.667492826884, -68322.80079398165, 148.7061558611579, -33098.70905860771, 23833.374540016, -0.224, 0.9500000000000001, 0.18, 192.0, 0.0, 0.0, 0.0, 0.0, 0.0, 0.0, 0.0, 0.0, 0.0, 1.700950125541581E9, 0.0, 2023-11-25 17:08:45.541
139.0, 9308.898068535098, 15474.067982920169, -57484.484611092164, -56555.32259408505, -68328.54519230667, 184.69246443420226, -33079.93359326525, 23869.96434568934, -0.224, 0.9500000000000001, 0.18, 192.0, 0.0, 0.0, 0.0, 0.0, 0.0, 0.0, 0.0, 0.0, 0.0, 1.70095012554468E9, 0.0, 2023-11-25 17:08:45.544
140.0, 9373.963996644497, 15533.948306315937, -57471.766468497095, -56531.76385542916, -68273.60460443552, 256.28510192455076, -33029.64216824081, 23902.173209449436, -0.224, 0.9500000000000001, 0.18, 192.0, 0.0, 0.0, 0.0, 0.0, 0.0, 0.0, 0.0, 0.0, 0.0, 1.700950125549423E9, 0.0, 2023-11-25 17:08:45.549
141.0, 9315.715350593968, 15426.525822463731, -57543.493216454175, -56614.64412386944, -68292.9165116449, 235.20740690319622, -33063.75093027961, 23838.314275540626, -0.224, 0.9500000000000001, 0.18, 192.0, 0.0, 0.0, 0.0, 0.0, 0.0, 0.0, 0.0, 0.0, 0.0, 1.700950125552632E9, 0.0, 2023-11-25 17:08:45.552
142.0, 9262.026460412319, 15370.08766771408, -57536.497120439664, -56619.33799020505, -68351.45573037336, 132.47878938660497, -33088.1590352248, 23833.843926649562, -0.224, 0.9500000000000001, 0.18, 192.0, 0.0, 0.0, 0.0, 0.0, 0.0, 0.0, 0.0, 0.0, 0.0, 1.700950125558644E9, 0.0, 2023-11-25 17:08:45.558
143.0, 9298.45980387447, 15448.363476796565, -57510.010303260126, -56577.562579818084, -68353.17681469642, 174.0753858179314, -33075.93263100775, 23871.953650945863, -0.224, 0.9500000000000001, 0.18, 192.0, 0.0, 0.0, 0.0, 0.0, 0.0, 0.0, 0.0, 0.0, 0.0, 1.700950125561629E9, 0.0, 2023-11-25 17:08:45.561
144.0, 9375.305101311815, 15528.695646368938, -57471.922930708286, -56532.836739163016, -68295.17403783489, 231.78759000153423, -33037.30881658898, 23904.78836355071, -0.224, 0.9500000000000001, 0.18, 192.0, 0.0, 0.0, 0.0, 0.0, 0.0, 0.0, 0.0, 0.0, 0.0, 1.700950125565654E9, 0.0, 2023-11-25 17:08:45.565
145.0, 9342.47038870697, 15448.855215174583, -57534.5301669276, -56604.831708053556, -68282.34413651754, 255.52514261307033, -33057.96182846568, 23848.283153567692, -0.224, 0.9500000000000001, 0.18, 192.0, 0.0, 0.0, 0.0, 0.0, 0.0, 0.0, 0.0, 0.0, 0.0, 1.700950125569689E9, 0.0, 2023-11-25 17:08:45.569
146.0, 9271.101268661174, 15363.270385655213, -57535.69245763928, -56629.35157172103, -68347.99120998278, 123.96277474913298, -33093.92578529427, 23812.788583372665, -0.224, 0.9500000000000001, 0.18, 192.0, 0.0, 0.0, 0.0, 0.0, 0.0, 0.0, 0.0, 0.0, 0.0, 1.700950125572682E9, 0.0, 2023-11-25 17:08:45.572
147.0, 9297.006940484875, 15437.81345341366, -57515.86646030742, -56595.466327126785, -68354.96495425284, 156.46221118714945, -33088.941346280735, 23845.891516910975, -0.222, 0.9420000000000001, 0.18, 192.0, 249.0, 16.0, 29.0, 112.0, 5.0, 160.0, 0.0, 0.0, 0.0, 1.700950125576717E9, 0.0, 2023-11-25 17:08:45.576
148.0, 9388.313816584805, 15555.204815292933, -57453.32627932147, -56524.298372781086, -68293.89998840094, 216.0966653939087, -33042.49442130261, 23906.665910084954, -0.222, 0.9420000000000001, 0.18, 192.0, 0.0, 0.0, 0.0, 0.0, 0.0, 0.0, 0.0, 0.0, 0.0, 1.700950125580759E9, 0.0, 2023-11-25 17:08:45.580
149.0, 9365.582092473756, 15489.982424972348, -57521.74496909916, -56595.28751317114, -68271.63765092345, 270.3443491869389, -33055.68195053124, 23861.00129616276, -0.222, 0.9420000000000001, 0.18, 192.0, 0.0, 0.0, 0.0, 0.0, 0.0, 0.0, 0.0, 0.0, 0.0, 1.700950125584696E9, 0.0, 2023-11-25 17:08:45.584
150.0, 9273.78347799581, 15370.132371202992, -57544.119065298924, -56642.986135838764, -68347.8347477716, 123.47103637111621, -33111.42720120278, 23804.38432745747, -0.222, 0.9420000000000001, 0.18, 192.0, 0.0, 0.0, 0.0, 0.0, 0.0, 0.0, 0.0, 0.0, 0.0, 1.700950125589737E9, 0.0, 2023-11-25 17:08:45.589
151.0, 9289.116774692151, 15426.883450375015, -57522.70609411074, -56605.658722598404, -68355.09906471957, 148.03560352749867, -33102.732372609666, 23831.407586503934, -0.222, 0.9420000000000001, 0.18, 192.0, 0.0, 0.0, 0.0, 0.0, 0.0, 0.0, 0.0, 0.0, 0.0, 1.700950125593772E9, 0.0, 2023-11-25 17:08:45.593
152.0, 9366.409107018604, 15541.190271519456, -57464.90448294932, -56537.307088054076, -68313.77068922171, 183.48547023361567, -33069.47297686017, 23861.96242117434, -0.222, 0.9420000000000001, 0.18, 192.0, 0.0, 0.0, 0.0, 0.0, 0.0, 0.0, 0.0, 0.0, 0.0, 1.700950125597792E9, 0.0, 2023-11-25 17:08:45.597
153.0, 9389.476107296481, 15528.896812069037, -57496.599256586946, -56563.27981511114, -68252.41515069189, 277.4522039237266, -33048.618799283366, 23852.082950125096, -0.222, 0.9420000000000001, 0.18, 192.0, 0.0, 0.0, 0.0, 0.0, 0.0, 0.0, 0.0, 0.0, 0.0, 1.700950125601888E9, 0.0, 2023-11-25 17:08:45.601
154.0, 9297.476327118437, 15406.945694320882, -57536.8323966065, -56622.57899315107, -68320.61032302503, 154.6964233751802, -33104.185235999255, 23812.945045583852, -0.222, 0.9420000000000001, 0.18, 192.0, 0.0, 0.0, 0.0, 0.0, 0.0, 0.0, 0.0, 0.0, 0.0, 1.700950125604823E9, 0.0, 2023-11-25 17:08:45.604
155.0, 9294.45884161697, 15436.449997001888, -57518.95100104225, -56595.175754448865, -68339.09521568957, 148.05795527195397, -33103.73820111015, 23844.840984921575, -0.222, 0.9420000000000001, 0.18, 192.0, 0.0, 0.0, 0.0, 0.0, 0.0, 0.0, 0.0, 0.0, 0.0, 1.700950125609018E9, 0.0, 2023-11-25 17:08:45.609
156.0, 9353.66861267908, 15530.528489414275, -57466.536160294556, -56530.445102506295, -68311.46845954281, 180.24446728759617, -33078.14545370882, 23883.800075507173, -0.222, 0.9420000000000001, 0.18, 192.0, 0.0, 0.0, 0.0, 0.0, 0.0, 0.0, 0.0, 0.0, 0.0, 1.700950125612825E9, 0.0, 2023-11-25 17:08:45.612
157.0, 9404.362369103716, 15553.014344336314, -57471.72176500819, -56526.600602459985, -68234.7572725722, 276.826355078978, -33045.22133412616, 23883.57655806262, -0.224, 0.934, 0.186, 192.0, 249.0, 0.0, 29.0, 48.0, 5.0, 208.0, 0.0, 0.0, 0.0, 1.700950125616848E9, 0.0, 2023-11-25 17:08:45.616
158.0, 9321.482100663436, 15428.984514353815, -57525.92474531231, -56600.070786484575, -68290.59193022155, 177.2046300416744, -33094.395171927834, 23808.653510648433, -0.224, 0.934, 0.186, 192.0, 0.0, 0.0, 0.0, 0.0, 0.0, 0.0, 0.0, 0.0, 0.0, 1.700950125621852E9, 0.0, 2023-11-25 17:08:45.621
159.0, 9292.625998571635, 15423.351874751077, -57517.60989637493, -56587.553809589604, -68329.68513127389, 130.6459463412698, -33098.61965162989, 23820.991673587763, -0.224, 0.934, 0.186, 192.0, 0.0, 0.0, 0.0, 0.0, 0.0, 0.0, 0.0, 0.0, 0.0, 1.700950125626174E9, 0.0, 2023-11-25 17:08:45.626
160.0, 9333.484987435935, 15509.674311837472, -57483.18820991376, -56539.00582063268, -68322.33140734809, 156.57396990942598, -33078.2572124311, 23867.796226477174, -0.224, 0.934, 0.186, 192.0, 0.0, 0.0, 0.0, 0.0, 0.0, 0.0, 0.0, 0.0, 0.0, 1.700950125629022E9, 0.0, 2023-11-25 17:08:45.629
161.0, 9392.426537564581, 15549.750989645838, -57472.749945253134, -56522.890212880404, -68249.01768553468, 242.65053780681347, -33037.88996194481, 23898.440468125402, -0.224, 0.934, 0.186, 192.0, 0.0, 0.0, 0.0, 0.0, 0.0, 0.0, 0.0, 0.0, 0.0, 1.700950125632993E9, 0.0, 2023-11-25 17:08:45.632
162.0, 9318.486966906425, 15429.923287620937, -57534.261945994134, -56602.462423141296, -68281.18184580587, 185.67594119023576, -33082.92872702226, 23824.366787000512, -0.224, 0.934, 0.186, 192.0, 0.0, 0.0, 0.0, 0.0, 0.0, 0.0, 0.0, 0.0, 0.0, 1.700950125637001E9, 0.0, 2023-11-25 17:08:45.637
163.0, 9279.661986787556, 15399.681377372906, -57518.59337313096, -56593.54407710363, -68324.74539574927, 106.88604198527837, -33097.25619521811, 23824.90322886744, -0.224, 0.934, 0.186, 192.0, 0.0, 0.0, 0.0, 0.0, 0.0, 0.0, 0.0, 0.0, 0.0, 1.700950125641012E9, 0.0, 2023-11-25 17:08:45.641
164.0, 9323.56081289778, 15492.463468606886, -57484.28344539207, -56544.347887557495, -68320.87854395849, 149.28730121699587, -33077.45254963071, 23874.211177135847, -0.224, 0.934, 0.186, 192.0, 0.0, 0.0, 0.0, 0.0, 0.0, 0.0, 0.0, 0.0, 0.0, 1.700950125645937E9, 0.0, 2023-11-25 17:08:45.645
165.0, 9399.422633579092, 15568.817027666215, -57456.18730261175, -56507.35575048396, -68255.27617398217, 232.81577024647837, -33030.13390661882, 23910.35394792008, -0.224, 0.934, 0.186, 192.0, 0.0, 0.0, 0.0, 0.0, 0.0, 0.0, 0.0, 0.0, 0.0, 1.700950125649991E9, 0.0, 2023-11-25 17:08:45.649
166.0, 9330.914536823575, 15453.146750110001, -57538.10644604045, -56602.35066441902, -68280.71245917231, 210.68754323572438, -33071.328171649955, 23837.978999373794, -0.224, 0.934, 0.186, 192.0, 0.0, 0.0, 0.0, 0.0, 0.0, 0.0, 0.0, 0.0, 0.0, 1.700950125654017E9, 0.0, 2023-11-25 17:08:45.654
167.0, 9259.523065033325, 15375.630900338996, -57538.28525999609, -56619.53915590515, -68348.41589312743, 94.57023079040418, -33100.78777084205, 23823.96445560032, -0.226, 0.9420000000000001, 0.182, 192.0, 248.0, 240.0, 29.0, 112.0, 5.0, 176.0, 0.0, 0.0, 0.0, 1.700950125657064E9, 0.0, 2023-11-25 17:08:45.657
168.0, 9292.022501471341, 15456.030125144736, -57507.95394277024, -56578.30018738511, -68347.76769253823, 136.3679929218284, -33084.046314245024, 23870.59019453409, -0.226, 0.9420000000000001, 0.182, 192.0, 0.0, 0.0, 0.0, 0.0, 0.0, 0.0, 0.0, 0.0, 0.0, 1.700950125660996E9, 0.0, 2023-11-25 17:08:45.660
169.0, 9372.734650699455, 15544.36421923211, -57468.88309346236, -56534.915451397355, -68295.621072724, 188.46990924714916, -33056.77718600955, 23889.902101743475, -0.226, 0.9420000000000001, 0.182, 192.0, 0.0, 0.0, 0.0, 0.0, 0.0, 0.0, 0.0, 0.0, 0.0, 1.70095012566498E9, 0.0, 2023-11-25 17:08:45.664
170.0, 9340.123455539162, 15463.517959537265, -57540.05104780806, -56614.04062676914, -68289.40728776543, 215.96255492717685, -33079.62066884287, 23832.413415004423, -0.226, 0.9420000000000001, 0.182, 192.0, 0.0, 0.0, 0.0, 0.0, 0.0, 0.0, 0.0, 0.0, 0.0, 1.700950125669016E9, 0.0, 2023-11-25 17:08:45.669
171.0, 9254.270405086329, 15367.047830468158, -57543.04618156507, -56639.63337417047, -68354.07088447463, 93.18442263417515, -33096.80916032901, 23835.989694117274, -0.226, 0.9420000000000001, 0.182, 192.0, 0.0, 0.0, 0.0, 0.0, 0.0, 0.0, 0.0, 0.0, 0.0, 1.700950125673026E9, 0.0, 2023-11-25 17:08:45.673
172.0, 9268.284948859806, 15427.598706197585, -57521.4767481657, -56607.40215866592, -68359.74822756628, 128.14255096227538, -33083.353410166914, 23868.48913055529, -0.226, 0.9420000000000001, 0.182, 192.0, 0.0, 0.0, 0.0, 0.0, 0.0, 0.0, 0.0, 0.0, 0.0, 1.700950125678327E9, 0.0, 2023-11-25 17:08:45.678
173.0, 9350.38290624415, 15532.048408037235, -57465.75384923862, -56544.86197767997, -68309.43445079737, 169.40387122677222, -33054.58671505293, 23890.72911628832, -0.226, 0.9420000000000001, 0.182, 192.0, 0.0, 0.0, 0.0, 0.0, 0.0, 0.0, 0.0, 0.0, 0.0, 1.700950125682055E9, 0.0, 2023-11-25 17:08:45.682
174.0, 9347.633641676146, 15487.881360993548, -57522.41552143282, -56599.60139985102, -68270.7659328897, 237.88961623783308, -33054.36319760838, 23860.10722638455, -0.226, 0.9420000000000001, 0.182, 192.0, 0.0, 0.0, 0.0, 0.0, 0.0, 0.0, 0.0, 0.0, 0.0, 1.700950125685081E9, 0.0, 2023-11-25 17:08:45.685
175.0, 9256.25971034285, 15371.384068892488, -57547.22595777822, -56646.51771146271, -68343.16323318044, 99.95700120413318, -33099.223148730176, 23827.652493435442, -0.226, 0.9420000000000001, 0.182, 192.0, 0.0, 0.0, 0.0, 0.0, 0.0, 0.0, 0.0, 0.0, 0.0, 1.700950125689141E9, 0.0, 2023-11-25 17:08:45.689
176.0, 9275.437507085504, 15429.140976565002, -57516.313495196526, -56600.67428358487, -68343.8337855141, 128.03079223999885, -33081.72173282167, 23879.6873545274, -0.22, 0.9440000000000001, 0.182, 192.0, 249.0, 32.0, 29.0, 128.0, 5.0, 176.0, 0.0, 0.0, 0.0, 1.700950125693576E9, 0.0, 2023-11-25 17:08:45.693
177.0, 9347.18660678704, 15528.382721946566, -57458.780104968566, -56531.89796589589, -68305.9699304068, 163.52536243502647, -33051.77039525156, 23921.574523636642, -0.22, 0.9440000000000001, 0.182, 192.0, 0.0, 0.0, 0.0, 0.0, 0.0, 0.0, 0.0, 0.0, 0.0, 1.700950125697098E9, 0.0, 2023-11-25 17:08:45.697
178.0, 9380.423650792081, 15521.07370150968, -57478.7178610227, -56546.6948207253, -68237.10420574, 255.0557559795089, -33030.02214789655, 23904.140162961503, -0.22, 0.9440000000000001, 0.182, 192.0, 0.0, 0.0, 0.0, 0.0, 0.0, 0.0, 0.0, 0.0, 0.0, 1.700950125701123E9, 0.0, 2023-11-25 17:08:45.701
179.0, 9284.087632189707, 15388.885484800994, -57522.97431504421, -56612.74422559074, -68306.46166878482, 126.48852187258267, -33088.1590352248, 23829.61944694751, -0.22, 0.9440000000000001, 0.182, 192.0, 0.0, 0.0, 0.0, 0.0, 0.0, 0.0, 0.0, 0.0, 0.0, 1.700950125705139E9, 0.0, 2023-11-25 17:08:45.705
180.0, 9277.35975710866, 15411.036063556203, -57510.27852419359, -56589.0066729792, -68331.11564291903, 113.18923392167497, -33092.69643934923, 23857.335610072092, -0.22, 0.9440000000000001, 0.182, 192.0, 0.0, 0.0, 0.0, 0.0, 0.0, 0.0, 0.0, 0.0, 0.0, 1.700950125709222E9, 0.0, 2023-11-25 17:08:45.709
181.0, 9333.32852522475, 15510.456622893409, -57473.64401503134, -56535.76481768666, -68317.74929973476, 136.61386211083678, -33084.38159041185, 23884.358869118558, -0.22, 0.9440000000000001, 0.182, 192.0, 0.0, 0.0, 0.0, 0.0, 0.0, 0.0, 0.0, 0.0, 0.0, 1.70095012571228E9, 0.0, 2023-11-25 17:08:45.712
182.0, 9380.088374625251, 15534.440044693953, -57488.552628583035, -56540.39162878891, -68253.73390361475, 224.81384573147844, -33060.33111337794, 23883.44244759589, -0.22, 0.9440000000000001, 0.182, 192.0, 0.0, 0.0, 0.0, 0.0, 0.0, 0.0, 0.0, 0.0, 0.0, 1.700950125717202E9, 0.0, 2023-11-25 17:08:45.717
183.0, 9293.922399750043, 15408.733833877306, -57540.11810304143, -56612.85598431301, -68301.05254662664, 137.86555980033395, -33110.063744791005, 23825.685539923375, -0.22, 0.9440000000000001, 0.182, 192.0, 0.0, 0.0, 0.0, 0.0, 0.0, 0.0, 0.0, 0.0, 0.0, 1.700950125721272E9, 0.0, 2023-11-25 17:08:45.721
184.0, 9266.83208547021, 15400.508391917754, -57517.31932369701, -56590.66070206889, -68327.65112252845, 99.75583550403542, -33112.27656749208, 23853.066426881127, -0.22, 0.9440000000000001, 0.182, 192.0, 0.0, 0.0, 0.0, 0.0, 0.0, 0.0, 0.0, 0.0, 0.0, 1.70095012572527E9, 0.0, 2023-11-25 17:08:45.725
185.0, 9334.93785082553, 15507.930875769958, -57458.84716020193, -56520.67739017933, -68298.90677915893, 142.60412962485907, -33079.374799653866, 23909.21400895286, -0.22, 0.9440000000000001, 0.182, 192.0, 0.0, 0.0, 0.0, 0.0, 0.0, 0.0, 0.0, 0.0, 0.0, 1.700950125730274E9, 0.0, 2023-11-25 17:08:45.730
186.0, 9403.580058047779, 15562.871463641104, -57445.81609318448, -56501.23137250321, -68226.93416201284, 231.7428865126236, -33036.235932855125, 23931.87867783054, -0.228, 0.9480000000000001, 0.176, 192.0, 248.0, 224.0, 29.0, 160.0, 5.0, 128.0, 0.0, 0.0, 0.0, 1.700950125734259E9, 0.0, 2023-11-25 17:08:45.734
187.0, 9315.22361221595, 15430.52678472123, -57533.59139366048, -56609.32440868908, -68281.45006673933, 164.44178395769407, -33094.70809635021, 23850.183051846394, -0.228, 0.9480000000000001, 0.176, 192.0, 0.0, 0.0, 0.0, 0.0, 0.0, 0.0, 0.0, 0.0, 0.0, 1.700950125737309E9, 0.0, 2023-11-25 17:08:45.737
188.0, 9268.128486648618, 15392.953502291859, -57524.24836447816, -56610.95608603431, -68337.15061392196, 74.96775090309988, -33114.109410537414, 23854.67575248191, -0.228, 0.9480000000000001, 0.176, 192.0, 0.0, 0.0, 0.0, 0.0, 0.0, 0.0, 0.0, 0.0, 0.0, 1.700950125740304E9, 0.0, 2023-11-25 17:08:45.740
189.0, 9316.765882583366, 15489.49068659433, -57483.14350642485, -56556.1496086299, -68326.91351496143, 119.71594330262462, -33093.05406726051, 23897.859322769564, -0.228, 0.9480000000000001, 0.176, 192.0, 0.0, 0.0, 0.0, 0.0, 0.0, 0.0, 0.0, 0.0, 0.0, 1.700950125744443E9, 0.0, 2023-11-25 17:08:45.744
190.0, 9393.678235254078, 15567.162998576523, -57453.54979676602, -56518.33045701152, -68263.63572640845, 188.0452261024983, -33051.323360362454, 23915.561904378166, -0.228, 0.9480000000000001, 0.176, 192.0, 0.0, 0.0, 0.0, 0.0, 0.0, 0.0, 0.0, 0.0, 0.0, 1.700950125749542E9, 0.0, 2023-11-25 17:08:45.749
191.0, 9340.726952639456, 15468.033011917236, -57527.422312190814, -56603.26708594168, -68273.5151974577, 182.41258649976095, -33080.894718276824, 23848.730188456797, -0.228, 0.9480000000000001, 0.176, 192.0, 0.0, 0.0, 0.0, 0.0, 0.0, 0.0, 0.0, 0.0, 0.0, 1.700950125753391E9, 0.0, 2023-11-25 17:08:45.753
192.0, 9280.556056565769, 15404.755223364262, -57514.63711436238, -56608.25152495522, -68325.84063122758, 77.8511259378345, -33101.34656445343, 23843.701045954353, -0.228, 0.9480000000000001, 0.176, 192.0, 0.0, 0.0, 0.0, 0.0, 0.0, 0.0, 0.0, 0.0, 0.0, 1.700950125757418E9, 0.0, 2023-11-25 17:08:45.757
193.0, 9302.997207998897, 15476.750192254805, -57493.71588155221, -56573.852190238504, -68332.45674758634, 116.8102165234347, -33084.895680534326, 23883.59890980708, -0.228, 0.9480000000000001, 0.176, 192.0, 0.0, 0.0, 0.0, 0.0, 0.0, 0.0, 0.0, 0.0, 0.0, 1.700950125762842E9, 0.0, 2023-11-25 17:08:45.762
194.0, 9385.81042120581, 15572.058030612236, -57446.86662517388, -56519.91743086785, -68278.52198821568, 174.54477245149286, -33039.588694523416, 23936.103157532594, -0.228, 0.9480000000000001, 0.176, 192.0, 0.0, 0.0, 0.0, 0.0, 0.0, 0.0, 0.0, 0.0, 0.0, 1.700950125764553E9, 0.0, 2023-11-25 17:08:45.764
195.0, 9357.647223192123, 15497.425555875965, -57517.45343416375, -56596.49450737173, -68268.0166683217, 211.0675228914646, -33059.77231976656, 23880.134389416504, -0.228, 0.9480000000000001, 0.176, 192.0, 0.0, 0.0, 0.0, 0.0, 0.0, 0.0, 0.0, 0.0, 0.0, 1.700950125770433E9, 0.0, 2023-11-25 17:08:45.770
196.0, 9268.97785293792, 15390.114830746035, -57529.85865233644, -56629.373923465486, -68341.95623897985, 72.12907935727588, -33110.66724189129, 23837.889592395975, -0.218, 0.9500000000000001, 0.17200000000000001, 192.0, 249.0, 48.0, 29.0, 176.0, 5.0, 96.0, 0.0, 0.0, 0.0, 1.70095012577745E9, 0.0, 2023-11-25 17:08:45.777
197.0, 9298.07982421873, 15462.690944992417, -57493.40295712984, -56573.092230927025, -68332.99318945328, 119.49242585807156, -33090.21539571469, 23893.00899422276, -0.218, 0.9500000000000001, 0.17200000000000001, 192.0, 0.0, 0.0, 0.0, 0.0, 0.0, 0.0, 0.0, 0.0, 0.0, 1.700950125780445E9, 0.0, 2023-11-25 17:08:45.780
198.0, 9372.66759546609, 15562.245614796355, -57444.69850596172, -56510.95438134127, -68289.40728776543, 164.64294965779183, -33049.78108999504, 23937.757186622286, -0.218, 0.9500000000000001, 0.17200000000000001, 192.0, 0.0, 0.0, 0.0, 0.0, 0.0, 0.0, 0.0, 0.0, 0.0, 1.70095012578444E9, 0.0, 2023-11-25 17:08:45.784
199.0, 9366.699679696523, 15512.423576405476, -57506.81400380302, -56571.415850092875, -68258.00308680572, 220.09762765140866, -33055.3019708755, 23883.91183422945, -0.218, 0.9500000000000001, 0.17200000000000001, 192.0, 0.0, 0.0, 0.0, 0.0, 0.0, 0.0, 0.0, 0.0, 0.0, 1.700950125787497E9, 0.0, 2023-11-25 17:08:45.787
200.0, 9282.03127169982, 15396.507429660252, -57532.026771548604, -56619.58385939406, -68328.14286090648, 72.7772799464798, -33113.39415471484, 23806.88772283646, -0.218, 0.9500000000000001, 0.17200000000000001, 192.0, 0.0, 0.0, 0.0, 0.0, 0.0, 0.0, 0.0, 0.0, 0.0, 1.700950125790497E9, 0.0, 2023-11-25 17:08:45.790
201.0, 9299.778556797333, 15452.00681114278, -57504.981160757685, -56576.91437922888, -68331.00388419675, 97.00657093603265, -33102.6653173763, 23845.399778532956, -0.218, 0.9500000000000001, 0.17200000000000001, 192.0, 0.0, 0.0, 0.0, 0.0, 0.0, 0.0, 0.0, 0.0, 0.0, 1.700950125793475E9, 0.0, 2023-11-25 17:08:45.793
202.0, 9377.227351334972, 15560.636289195572, -57448.38654379685, -56507.53456443961, -68293.85528491203, 141.1065627463535, -33071.954020494704, 23904.050755983684, -0.218, 0.9500000000000001, 0.17200000000000001, 192.0, 0.0, 0.0, 0.0, 0.0, 0.0, 0.0, 0.0, 0.0, 0.0, 1.700950125797491E9, 0.0, 2023-11-25 17:08:45.797
203.0, 9403.513002814414, 15556.210643793422, -57481.71299477971, -56533.440236263305, -68236.16543247289, 232.5922528019253, -33053.67029353026, 23896.227645424326, -0.218, 0.9500000000000001, 0.17200000000000001, 192.0, 0.0, 0.0, 0.0, 0.0, 0.0, 0.0, 0.0, 0.0, 0.0, 1.700950125801492E9, 0.0, 2023-11-25 17:08:45.801
204.0, 9314.955391282487, 15435.287706290212, -57512.35723642794, -56590.280722413154, -68288.42381100939, 119.87240551381177, -33095.803331828516, 23833.24042954927, -0.218, 0.9500000000000001, 0.17200000000000001, 192.0, 0.0, 0.0, 0.0, 0.0, 0.0, 0.0, 0.0, 0.0, 0.0, 1.700950125806488E9, 0.0, 2023-11-25 17:08:45.806
205.0, 9310.730911580433, 15457.304174578689, -57486.026881459584, -56557.4013063194, -68303.93592166137, 112.58573682138167, -33089.65660210331, 23851.322990813613, -0.218, 0.9500000000000001, 0.17200000000000001, 192.0, 0.0, 0.0, 0.0, 0.0, 0.0, 0.0, 0.0, 0.0, 0.0, 1.70095012580977E9, 0.0, 2023-11-25 17:08:45.809
206.0, 9361.37996451616, 15550.466245468408, -57451.94047116524, -56507.26634350614, -68295.57636923509, 141.28537670199594, -33077.58666009744, 23875.90990971445, -0.218, 0.9480000000000001, 0.176, 192.0, 249.0, 48.0, 29.0, 160.0, 5.0, 128.0, 0.0, 0.0, 0.0, 1.700950125813544E9, 0.0, 2023-11-25 17:08:45.813
207.0, 9407.536316816368, 15573.019155623813, -57465.6644422608, -56511.96020984176, -68234.04201674963, 232.05581093499794, -33050.16106965078, 23888.605700565065, -0.218, 0.9480000000000001, 0.176, 192.0, 0.0, 0.0, 0.0, 0.0, 0.0, 0.0, 0.0, 0.0, 0.0, 1.70095012581757E9, 0.0, 2023-11-25 17:08:45.817
208.0, 9335.697810137011, 15459.67345949095, -57512.64780910585, -56579.462478096786, -68272.24114802375, 159.43499319970527, -33094.17165448328, 23834.179202816395, -0.218, 0.9480000000000001, 0.176, 192.0, 0.0, 0.0, 0.0, 0.0, 0.0, 0.0, 0.0, 0.0, 0.0, 1.700950125820556E9, 0.0, 2023-11-25 17:08:45.820
209.0, 9307.400501656593, 15448.38582854102, -57495.52637285309, -56563.302166855596, -68306.64048274046, 115.11148394483138, -33095.42335217278, 23862.454159552355, -0.218, 0.9480000000000001, 0.176, 192.0, 0.0, 0.0, 0.0, 0.0, 0.0, 0.0, 0.0, 0.0, 0.0, 1.70095012582458E9, 0.0, 2023-11-25 17:08:45.824
210.0, 9354.51797896838, 15541.234975008367, -57454.75679096661, -56511.624933674924, -68297.9233024029, 151.2319029846076, -33075.57500309646, 23901.100325715583, -0.218, 0.9480000000000001, 0.176, 192.0, 0.0, 0.0, 0.0, 0.0, 0.0, 0.0, 0.0, 0.0, 0.0, 1.700950125828547E9, 0.0, 2023-11-25 17:08:45.828
211.0, 9422.020247223407, 15592.219304110922, -57437.99298262513, -56490.591942142484, -68229.23639169174, 237.77785751555652, -33034.11251713187, 23916.612436367566, -0.218, 0.9480000000000001, 0.176, 192.0, 0.0, 0.0, 0.0, 0.0, 0.0, 0.0, 0.0, 0.0, 0.0, 1.700950125832546E9, 0.0, 2023-11-25 17:08:45.832
212.0, 9348.483007965448, 15471.050497418702, -57508.78095731509, -56579.90951298589, -68259.8582815955, 191.4650430041603, -33077.273735675066, 23835.967342372816, -0.218, 0.9480000000000001, 0.176, 192.0, 0.0, 0.0, 0.0, 0.0, 0.0, 0.0, 0.0, 0.0, 0.0, 1.700950125837665E9, 0.0, 2023-11-25 17:08:45.837
213.0, 9298.638617830113, 15431.219688799345, -57495.52637285309, -56578.0543181961, -68308.9203606749, 100.42638783769463, -33091.73531433765, 23831.18406905938, -0.218, 0.9480000000000001, 0.176, 192.0, 0.0, 0.0, 0.0, 0.0, 0.0, 0.0, 0.0, 0.0, 0.0, 1.700950125843016E9, 0.0, 2023-11-25 17:08:45.843
214.0, 9325.617173387667, 15508.176744958968, -57479.72368952318, -56542.80561719008, -68317.03404391218, 136.63621385529208, -33082.16876771078, 23872.758313746253, -0.218, 0.9480000000000001, 0.176, 192.0, 0.0, 0.0, 0.0, 0.0, 0.0, 0.0, 0.0, 0.0, 0.0, 1.700950125845605E9, 0.0, 2023-11-25 17:08:45.845
215.0, 9398.305046356327, 15584.731469718394, -57455.04736364453, -56508.24982026218, -68261.9593455743, 199.53402275252614, -33047.63532252733, 23904.36368040606, -0.218, 0.9480000000000001, 0.176, 192.0, 0.0, 0.0, 0.0, 0.0, 0.0, 0.0, 0.0, 0.0, 0.0, 1.700950125849131E9, 0.0, 2023-11-25 17:08:45.849
216.0, 9359.413011004091, 15497.000872731314, -57516.00057077415, -56581.2059141643, -68258.47247343928, 208.8994036792998, -33067.66248555928, 23848.61842973452, -0.22, 0.9480000000000001, 0.17400000000000002, 192.0, 249.0, 32.0, 29.0, 160.0, 5.0, 112.0, 0.0, 0.0, 0.0, 1.700950125852629E9, 0.0, 2023-11-25 17:08:45.852
217.0, 9284.445260100993, 15414.433528713409, -57512.58075387249, -56598.57321960607, -68320.23034336929, 90.25634411052992, -33089.16486372529, 23829.99942660325, -0.22, 0.9480000000000001, 0.17400000000000002, 192.0, 0.0, 0.0, 0.0, 0.0, 0.0, 0.0, 0.0, 0.0, 0.0, 1.700950125856674E9, 0.0, 2023-11-25 17:08:45.856
218.0, 9310.08271099123, 15490.720032539373, -57487.70326229373, -56560.68701275433, -68322.5772765371, 129.7295248186022, -33077.83252928645, 23867.997392177273, -0.22, 0.9480000000000001, 0.17400000000000002, 192.0, 0.0, 0.0, 0.0, 0.0, 0.0, 0.0, 0.0, 0.0, 0.0, 1.700950125860809E9, 0.0, 2023-11-25 17:08:45.860
219.0, 9385.653958994622, 15578.048298126258, -57446.263128073595, -56513.56953544254, -68276.0185928367, 180.24446728759617, -33041.265075357565, 23905.92830251793, -0.22, 0.9480000000000001, 0.17400000000000002, 192.0, 0.0, 0.0, 0.0, 0.0, 0.0, 0.0, 0.0, 0.0, 0.0, 1.70095012586471E9, 0.0, 2023-11-25 17:08:45.864
220.0, 9360.172970315572, 15502.812326289693, -57512.71486433922, -56588.179658434354, -68260.9088135849, 215.06848514896456, -33055.41372959778, 23847.970229145318, -0.22, 0.9480000000000001, 0.17400000000000002, 192.0, 0.0, 0.0, 0.0, 0.0, 0.0, 0.0, 0.0, 0.0, 0.0, 1.700950125869669E9, 0.0, 2023-11-25 17:08:45.869
221.0, 9275.705728018967, 15402.810621596649, -57521.63321037689, -56624.59065015205, -68331.51797431923, 67.94930314413347, -33101.190102242246, 23789.207492972317, -0.22, 0.9480000000000001, 0.17400000000000002, 192.0, 0.0, 0.0, 0.0, 0.0, 0.0, 0.0, 0.0, 0.0, 0.0, 1.700950125873719E9, 0.0, 2023-11-25 17:08:45.873
222.0, 9304.450071388492, 15473.844465475615, -57488.30675939402, -56576.310882128586, -68328.14286090648, 109.79176876446829, -33083.39811365582, 23840.102415097048, -0.22, 0.9480000000000001, 0.17400000000000002, 192.0, 0.0, 0.0, 0.0, 0.0, 0.0, 0.0, 0.0, 0.0, 0.0, 1.700950125876747E9, 0.0, 2023-11-25 17:08:45.876
223.0, 9385.318682827794, 15574.337908546677, -57437.00950586909, -56511.11084355246, -68287.50738948672, 152.99769079657685, -33057.09011043193, 23898.52987510322, -0.22, 0.9480000000000001, 0.17400000000000002, 192.0, 0.0, 0.0, 0.0, 0.0, 0.0, 0.0, 0.0, 0.0, 0.0, 1.700950125881116E9, 0.0, 2023-11-25 17:08:45.881
224.0, 9390.973674174986, 15537.79280636225, -57486.47391634869, -56559.07768715354, -68244.2120604768, 224.12094165336393, -33061.202831411705, 23871.19369163438, -0.22, 0.9480000000000001, 0.17400000000000002, 192.0, 0.0, 0.0, 0.0, 0.0, 0.0, 0.0, 0.0, 0.0, 0.0, 1.700950125884796E9, 0.0, 2023-11-25 17:08:45.884
225.0, 9296.112870706662, 15414.85821185806, -57513.228954461694, -56611.42547266787, -68311.98254966528, 88.2670388540076, -33110.041393046544, 23818.734147397776, -0.22, 0.9480000000000001, 0.17400000000000002, 192.0, 0.0, 0.0, 0.0, 0.0, 0.0, 0.0, 0.0, 0.0, 0.0, 1.700950125888739E9, 0.0, 2023-11-25 17:08:45.888
226.0, 9301.209068442473, 15458.421761801454, -57490.07254720599, -56576.75791701769, -68322.04083467017, 106.03667569597671, -33093.29993644952, 23861.068351396127, -0.232, 0.9520000000000001, 0.17400000000000002, 192.0, 248.0, 192.0, 29.0, 192.0, 5.0, 112.0, 0.0, 0.0, 0.0, 1.700950125892843E9, 0.0, 2023-11-25 17:08:45.892
227.0, 9366.789086674344, 15560.680992684483, -57446.687811218246, -56521.43734949081, -68300.65021522644, 131.3612021638396, -33070.769378038574, 23897.389936136, -0.232, 0.9520000000000001, 0.17400000000000002, 192.0, 0.0, 0.0, 0.0, 0.0, 0.0, 0.0, 0.0, 0.0, 0.0, 1.700950125897803E9, 0.0, 2023-11-25 17:08:45.897
228.0, 9405.837584237765, 15569.956966633436, -57471.67706151928, -56540.05635262208, -68239.18291797435, 213.99560141510983, -33053.62559004135, 23873.04888642417, -0.232, 0.9520000000000001, 0.17400000000000002, 192.0, 0.0, 0.0, 0.0, 0.0, 0.0, 0.0, 0.0, 0.0, 0.0, 1.700950125901803E9, 0.0, 2023-11-25 17:08:45.901
229.0, 9320.878603563144, 15444.049590116692, -57505.271733435606, -56596.96389400529, -68287.06035459762, 105.81315825142363, -33102.75472435412, 23806.686557136367, -0.232, 0.9520000000000001, 0.17400000000000002, 192.0, 0.0, 0.0, 0.0, 0.0, 0.0, 0.0, 0.0, 0.0, 0.0, 1.700950125904789E9, 0.0, 2023-11-25 17:08:45.904
230.0, 9311.423815658549, 15465.082581649136, -57474.53808480956, -56559.07768715354, -68296.53749424666, 105.34377161786219, -33088.248442202625, 23848.283153567692, -0.232, 0.9520000000000001, 0.17400000000000002, 192.0, 0.0, 0.0, 0.0, 0.0, 0.0, 0.0, 0.0, 0.0, 0.0, 1.700950125908875E9, 0.0, 2023-11-25 17:08:45.908
231.0, 9355.52380746887, 15552.835530380671, -57446.7101629627, -56517.77166340013, -68295.12933434598, 129.03662074048768, -33081.76643631059, 23882.52602607322, -0.232, 0.9520000000000001, 0.17400000000000002, 192.0, 0.0, 0.0, 0.0, 0.0, 0.0, 0.0, 0.0, 0.0, 0.0, 1.700950125913171E9, 0.0, 2023-11-25 17:08:45.913
232.0, 9408.05040693884, 15582.093963872669, -57456.58963401194, -56519.090416323, -68233.93025802735, 214.8449677044115, -33058.945305221714, 23891.176151177428, -0.232, 0.9520000000000001, 0.17400000000000002, 192.0, 0.0, 0.0, 0.0, 0.0, 0.0, 0.0, 0.0, 0.0, 0.0, 1.700950125916879E9, 0.0, 2023-11-25 17:08:45.916
233.0, 9334.401408958603, 15465.149636882501, -57508.57979161499, -56590.504239857706, -68270.45300846732, 141.62065286882554, -33106.80039010053, 23817.39304273046, -0.232, 0.9520000000000001, 0.17400000000000002, 192.0, 0.0, 0.0, 0.0, 0.0, 0.0, 0.0, 0.0, 0.0, 0.0, 1.700950125920836E9, 0.0, 2023-11-25 17:08:45.920
234.0, 9306.238210944917, 15454.174930354946, -57486.56332332651, -56570.231207636745, -68300.2255320818, 91.15041388874221, -33107.828570345475, 23835.967342372816, -0.232, 0.9520000000000001, 0.17400000000000002, 192.0, 0.0, 0.0, 0.0, 0.0, 0.0, 0.0, 0.0, 0.0, 0.0, 1.70095012592589E9, 0.0, 2023-11-25 17:08:45.925
235.0, 9341.84453986222, 15539.73740812986, -57459.3612503244, -56525.125387325934, -68301.20900883783, 130.0648009854318, -33086.862634046396, 23893.657194811964, -0.232, 0.9520000000000001, 0.17400000000000002, 192.0, 0.0, 0.0, 0.0, 0.0, 0.0, 0.0, 0.0, 0.0, 0.0, 1.700950125929929E9, 0.0, 2023-11-25 17:08:45.929
236.0, 9411.671389540601, 15603.149307149568, -57439.57995648146, -56497.69979687927, -68232.6562085934, 213.74973222610143, -33048.194116138715, 23922.915628303963, -0.234, 0.9560000000000001, 0.17200000000000001, 192.0, 248.0, 176.0, 29.0, 224.0, 5.0, 96.0, 0.0, 0.0, 0.0, 1.70095012593289E9, 0.0, 2023-11-25 17:08:45.932
237.0, 9342.22451951796, 15483.29925338021, -57512.64780910585, -56590.32542590206, -68261.19938626283, 175.59530444089228, -33098.21732022969, 23829.395929502956, -0.234, 0.9560000000000001, 0.17200000000000001, 192.0, 0.0, 0.0, 0.0, 0.0, 0.0, 0.0, 0.0, 0.0, 0.0, 1.700950125936894E9, 0.0, 2023-11-25 17:08:45.936
238.0, 9295.50937360637, 15439.825110414638, -57489.49140185016, -56582.97170197627, -68303.37712805, 82.47793704008306, -33113.66237564831, 23821.438708476868, -0.234, 0.9560000000000001, 0.17200000000000001, 192.0, 0.0, 0.0, 0.0, 0.0, 0.0, 0.0, 0.0, 0.0, 0.0, 1.700950125940928E9, 0.0, 2023-11-25 17:08:45.940
239.0, 9331.89801357961, 15526.639285879051, -57460.52354103608, -56540.436332277815, -68303.55594200564, 129.1483794627642, -33095.579814383964, 23868.75735148875, -0.234, 0.9560000000000001, 0.17200000000000001, 192.0, 0.0, 0.0, 0.0, 0.0, 0.0, 0.0, 0.0, 0.0, 0.0, 1.70095012594506E9, 0.0, 2023-11-25 17:08:45.945
240.0, 9399.936723701563, 15602.255237371355, -57437.858872158395, -56510.95438134127, -68258.7630461172, 181.74203416610172, -33070.34469489392, 23890.17032267694, -0.234, 0.9560000000000001, 0.17200000000000001, 192.0, 0.0, 0.0, 0.0, 0.0, 0.0, 0.0, 0.0, 0.0, 0.0, 1.70095012594905E9, 0.0, 2023-11-25 17:08:45.949
241.0, 9373.986348388953, 15530.729655114372, -57489.98314022817, -56571.86288498198, -68241.9098307979, 211.20163335819643, -33074.2562501736, 23857.156796116447, -0.234, 0.9560000000000001, 0.17200000000000001, 192.0, 0.0, 0.0, 0.0, 0.0, 0.0, 0.0, 0.0, 0.0, 0.0, 1.700950125952993E9, 0.0, 2023-11-25 17:08:45.952
242.0, 9294.972931739441, 15443.96018313887, -57495.99575948665, -56595.175754448865, -68311.84843919855, 88.49055629856066, -33100.45249467522, 23840.795319175162, -0.234, 0.9560000000000001, 0.17200000000000001, 192.0, 0.0, 0.0, 0.0, 0.0, 0.0, 0.0, 0.0, 0.0, 0.0, 1.700950125958889E9, 0.0, 2023-11-25 17:08:45.958
243.0, 9319.8504233182, 15515.441061906942, -57472.07939291947, -56555.72492548525, -68317.79400322367, 122.800484037457, -33087.332020679954, 23878.927395215916, -0.234, 0.9560000000000001, 0.17200000000000001, 192.0, 0.0, 0.0, 0.0, 0.0, 0.0, 0.0, 0.0, 0.0, 0.0, 1.700950125960012E9, 0.0, 2023-11-25 17:08:45.960
244.0, 9397.7686044894, 15608.759595007848, -57429.2534505431, -56503.265381248646, -68273.35873524651, 172.37665323932808, -33054.51965981956, 23918.35587243508, -0.234, 0.9560000000000001, 0.17200000000000001, 192.0, 0.0, 0.0, 0.0, 0.0, 0.0, 0.0, 0.0, 0.0, 0.0, 1.700950125965008E9, 0.0, 2023-11-25 17:08:45.965
245.0, 9385.408089805615, 15551.717943157906, -57489.4690501057, -56565.24676862321, -68248.6600576234, 225.6408602763248, -33061.046369200514, 23877.094552170583, -0.234, 0.9560000000000001, 0.17200000000000001, 192.0, 0.0, 0.0, 0.0, 0.0, 0.0, 0.0, 0.0, 0.0, 0.0, 1.700950125969038E9, 0.0, 2023-11-25 17:08:45.969
246.0, 9288.51327759186, 15433.186642311412, -57513.85480330644, -56613.8618128135, -68328.76870975122, 75.57124800339318, -33111.65071864733, 23820.65639742093, -0.232, 0.9520000000000001, 0.17, 192.0, 248.0, 192.0, 29.0, 192.0, 5.0, 80.0, 0.0, 0.0, 0.0, 1.700950125973055E9, 0.0, 2023-11-25 17:08:45.973
247.0, 9300.40440564208, 15482.15931441299, -57494.87817226389, -56582.97170197627, -68339.09521568957, 100.53814655997117, -33108.74499186814, 23850.138348357483, -0.232, 0.9520000000000001, 0.17, 192.0, 0.0, 0.0, 0.0, 0.0, 0.0, 0.0, 0.0, 0.0, 0.0, 1.700950125977189E9, 0.0, 2023-11-25 17:08:45.977
248.0, 9388.626741007178, 15596.019100668324, -57434.863738401385, -56512.45194821977, -68293.94469188985, 144.48167615910486, -33077.609011841894, 23891.39966862198, -0.232, 0.9520000000000001, 0.17, 192.0, 0.0, 0.0, 0.0, 0.0, 0.0, 0.0, 0.0, 0.0, 0.0, 1.700950125981069E9, 0.0, 2023-11-25 17:08:45.981
249.0, 9407.268095882904, 15572.482713756886, -57478.87432323388, -56551.61220450547, -68246.44723492232, 227.04902017700914, -33065.62847681385, 23867.505653799257, -0.232, 0.9520000000000001, 0.17, 192.0, 0.0, 0.0, 0.0, 0.0, 0.0, 0.0, 0.0, 0.0, 0.0, 1.700950125985082E9, 0.0, 2023-11-25 17:08:45.985
250.0, 9309.188641213017, 15444.742494194807, -57514.50300389565, -56610.17377497838, -68317.23520961228, 91.01630342201035, -33118.95973908422, 23813.459135706322, -0.232, 0.9520000000000001, 0.17, 192.0, 0.0, 0.0, 0.0, 0.0, 0.0, 0.0, 0.0, 0.0, 0.0, 1.700950125988357E9, 0.0, 2023-11-25 17:08:45.988
251.0, 9318.464615161969, 15493.469297107375, -57477.55557031102, -56560.798771476606, -68312.60839851003, 106.93074547418898, -33100.65366037532, 23860.442502551377, -0.232, 0.9520000000000001, 0.17, 192.0, 0.0, 0.0, 0.0, 0.0, 0.0, 0.0, 0.0, 0.0, 0.0, 1.700950125993085E9, 0.0, 2023-11-25 17:08:45.993
252.0, 9386.033938650364, 15600.89178095958, -57424.716046418675, -56494.83877358899, -68279.79603764963, 145.82278082642327, -33071.55168909451, 23908.63286359702, -0.232, 0.9520000000000001, 0.17, 192.0, 0.0, 0.0, 0.0, 0.0, 0.0, 0.0, 0.0, 0.0, 0.0, 1.700950125997102E9, 0.0, 2023-11-25 17:08:45.997
253.0, 9421.684971056578, 15603.551638549763, -57450.46525603119, -56511.9378580973, -68218.73107179774, 235.90031098131075, -33053.46912783017, 23896.87584601353, -0.232, 0.9520000000000001, 0.17, 192.0, 0.0, 0.0, 0.0, 0.0, 0.0, 0.0, 0.0, 0.0, 0.0, 1.700950126001169E9, 0.0, 2023-11-25 17:08:46.001
254.0, 9331.383923457137, 15469.999965429302, -57497.31451240952, -56580.62476880846, -68274.38691549146, 124.29805091596258, -33108.54382616804, 23828.881839380487, -0.232, 0.9520000000000001, 0.17, 192.0, 0.0, 0.0, 0.0, 0.0, 0.0, 0.0, 0.0, 0.0, 0.0, 1.700950126005155E9, 0.0, 2023-11-25 17:08:46.005
255.0, 9326.175966999052, 15489.445983105421, -57467.20671262821, -56545.15255035789, -68289.76491567671, 106.70722802963591, -33106.912148822805, 23856.754464716254, -0.232, 0.9520000000000001, 0.17, 192.0, 0.0, 0.0, 0.0, 0.0, 0.0, 0.0, 0.0, 0.0, 0.0, 1.700950126009662E9, 0.0, 2023-11-25 17:08:46.009
0.0, 9371.728822198966, 15586.586664508184, -57438.95410763671, -56503.46654694874, -68289.92137788789, 127.82962653990108, -33097.747933596125, 23879.329726616113, -0.23, 0.9540000000000001, 0.17200000000000001, 192.0, 248.0, 208.0, 29.0, 208.0, 5.0, 96.0, 0.0, 0.0, 0.0, 1.700950126013336E9, 0.0, 2023-11-25 17:08:46.013
1.0, 9423.450758868546, 15622.260048658854, -57442.9103664053, -56501.85722134796, -68227.8505835355, 202.95383965418813, -33070.635267571844, 23874.635860280498, -0.23, 0.9540000000000001, 0.17200000000000001, 192.0, 0.0, 0.0, 0.0, 0.0, 0.0, 0.0, 0.0, 0.0, 0.0, 1.700950126017256E9, 0.0, 2023-11-25 17:08:46.017
2.0, 9348.080676565252, 15499.101936710113, -57487.83737276046, -56567.59370179102, -68251.07404602457, 149.55552215045955, -33102.82177958748, 23821.371653243503, -0.23, 0.9540000000000001, 0.17200000000000001, 192.0, 0.0, 0.0, 0.0, 0.0, 0.0, 0.0, 0.0, 0.0, 0.0, 1.700950126020322E9, 0.0, 2023-11-25 17:08:46.020
3.0, 9318.062283761774, 15482.136962668535, -57464.12217189338, -56544.72786721324, -68280.91362487241, 98.32532385889577, -33106.44276218925, 23843.410473276435, -0.23, 0.9540000000000001, 0.17200000000000001, 192.0, 0.0, 0.0, 0.0, 0.0, 0.0, 0.0, 0.0, 0.0, 0.0, 1.700950126025366E9, 0.0, 2023-11-25 17:08:46.025
4.0, 9361.223502304972, 15575.097867858156, -57433.41087501179, -56500.04673004708, -68280.0195550942, 130.80240855245694, -33102.68766912075, 23865.382238076003, -0.23, 0.9540000000000001, 0.17200000000000001, 192.0, 0.0, 0.0, 0.0, 0.0, 0.0, 0.0, 0.0, 0.0, 0.0, 1.700950126029297E9, 0.0, 2023-11-25 17:08:46.029
5.0, 9432.838491539776, 15643.829482058227, -57411.729682890145, -56469.335433165485, -68214.77481302916, 212.27451709205118, -33060.979313967146, 23894.551264590176, -0.23, 0.9540000000000001, 0.17200000000000001, 192.0, 0.0, 0.0, 0.0, 0.0, 0.0, 0.0, 0.0, 0.0, 0.0, 1.700950126033273E9, 0.0, 2023-11-25 17:08:46.033
6.0, 9367.884322152653, 15530.461434180908, -57484.26109364761, -56554.0485446511, -68236.9030400399, 193.61081047186977, -33102.441799931745, 23837.53196448469, -0.23, 0.9540000000000001, 0.17200000000000001, 192.0, 0.0, 0.0, 0.0, 0.0, 0.0, 0.0, 0.0, 0.0, 0.0, 1.700950126037288E9, 0.0, 2023-11-25 17:08:46.037
7.0, 9311.13324298063, 15470.447000318409, -57473.576959797974, -56558.47419005325, -68292.33536628907, 94.6149342793148, -33121.865465863404, 23838.224868562804, -0.23, 0.9540000000000001, 0.17200000000000001, 192.0, 0.0, 0.0, 0.0, 0.0, 0.0, 0.0, 0.0, 0.0, 0.0, 1.700950126040317E9, 0.0, 2023-11-25 17:08:46.040
8.0, 9347.56658644278, 15548.342829745154, -57441.926889649265, -56513.48012846472, -68290.5695784771, 144.10169650336462, -33087.26496544659, 23903.67077632794, -0.23, 0.9540000000000001, 0.17200000000000001, 192.0, 0.0, 0.0, 0.0, 0.0, 0.0, 0.0, 0.0, 0.0, 0.0, 1.700950126044407E9, 0.0, 2023-11-25 17:08:46.044
9.0, 9425.976505991997, 15632.1395197081, -57403.70540663069, -56471.168276210825, -68237.10420574, 203.8255576879451, -33047.25534287159, 23943.21101226938, -0.23, 0.9540000000000001, 0.17200000000000001, 192.0, 0.0, 0.0, 0.0, 0.0, 0.0, 0.0, 0.0, 0.0, 0.0, 1.700950126048385E9, 0.0, 2023-11-25 17:08:46.048
10.0, 9388.582037518268, 15546.2194140219, -57469.79951498503, -56550.18169286033, -68233.88555453844, 220.70112475170194, -33073.697456562215, 23873.87590096902, -0.222, 0.9480000000000001, 0.17400000000000002, 192.0, 249.0, 16.0, 29.0, 160.0, 5.0, 112.0, 0.0, 0.0, 0.0, 1.700950126053416E9, 0.0, 2023-11-25 17:08:46.053
11.0, 9306.618190600657, 15449.592822741608, -57475.342747609946, -56577.54022807363, -68304.15943910592, 91.19511737765282, -33108.92380582378, 23838.33662728508, -0.222, 0.9480000000000001, 0.17400000000000002, 192.0, 0.0, 0.0, 0.0, 0.0, 0.0, 0.0, 0.0, 0.0, 0.0, 1.70095012605739E9, 0.0, 2023-11-25 17:08:46.057
12.0, 9328.746417611412, 15515.530468884763, -57451.47108453168, -56540.10105611099, -68307.66866298541, 130.6682980857251, -33092.18234922676, 23887.26459589775, -0.222, 0.9480000000000001, 0.17400000000000002, 192.0, 0.0, 0.0, 0.0, 0.0, 0.0, 0.0, 0.0, 0.0, 0.0, 1.700950126061463E9, 0.0, 2023-11-25 17:08:46.061
13.0, 9403.334188858771, 15608.066690929734, -57409.29334274452, -56492.04480553208, -68268.75427588871, 172.19783928368562, -33059.03471219954, 23925.195506238404, -0.222, 0.9480000000000001, 0.17400000000000002, 192.0, 0.0, 0.0, 0.0, 0.0, 0.0, 0.0, 0.0, 0.0, 0.0, 1.700950126065439E9, 0.0, 2023-11-25 17:08:46.065
14.0, 9392.00185441993, 15548.007553578325, -57468.36900333989, -56556.1496086299, -68241.57455463106, 225.81967423196724, -33064.913220991286, 23882.324860373123, -0.222, 0.9480000000000001, 0.17400000000000002, 192.0, 0.0, 0.0, 0.0, 0.0, 0.0, 0.0, 0.0, 0.0, 0.0, 1.700950126068464E9, 0.0, 2023-11-25 17:08:46.068
15.0, 9305.142975466606, 15437.232308057823, -57480.84127674595, -56592.09121371403, -68309.41209905292, 87.37296907579531, -33104.945195310735, 23836.839060406575, -0.222, 0.9480000000000001, 0.17400000000000002, 192.0, 0.0, 0.0, 0.0, 0.0, 0.0, 0.0, 0.0, 0.0, 0.0, 1.700950126072513E9, 0.0, 2023-11-25 17:08:46.072
16.0, 9318.911650051075, 15494.475125607863, -57457.81897995699, -56553.445047550806, -68316.11762238952, 109.94823097565543, -33097.613823129395, 23867.617412521533, -0.222, 0.9480000000000001, 0.17400000000000002, 192.0, 0.0, 0.0, 0.0, 0.0, 0.0, 0.0, 0.0, 0.0, 0.0, 1.700950126076435E9, 0.0, 2023-11-25 17:08:46.076
17.0, 9404.518831314901, 15607.083214173701, -57397.42456643875, -56482.6794246053, -68271.615299179, 153.04239428548746, -33068.48950010413, 23911.2927211872, -0.222, 0.9480000000000001, 0.17400000000000002, 192.0, 0.0, 0.0, 0.0, 0.0, 0.0, 0.0, 0.0, 0.0, 0.0, 1.700950126080494E9, 0.0, 2023-11-25 17:08:46.080
18.0, 9427.541128103869, 15588.911245931537, -57432.94148837823, -56516.1399860549, -68217.72524329726, 233.84395049142248, -33061.627514556356, 23881.67665978392, -0.222, 0.9480000000000001, 0.17400000000000002, 192.0, 0.0, 0.0, 0.0, 0.0, 0.0, 0.0, 0.0, 0.0, 0.0, 1.700950126085519E9, 0.0, 2023-11-25 17:08:46.085
19.0, 9333.954374069497, 15460.232253102335, -57468.92779695128, -56575.260350139186, -68284.93693887437, 104.89673672875604, -33112.03069830307, 23824.679711422887, -0.222, 0.9480000000000001, 0.17400000000000002, 192.0, 0.0, 0.0, 0.0, 0.0, 0.0, 0.0, 0.0, 0.0, 0.0, 1.700950126089605E9, 0.0, 2023-11-25 17:08:46.089
20.0, 9327.98645829993, 15485.646186548018, -57452.18634035425, -56546.38189630293, -68302.50541001624, 105.92491697370016, -33112.94711982574, 23861.694200240876, -0.222, 0.9440000000000001, 0.176, 192.0, 249.0, 16.0, 29.0, 128.0, 5.0, 128.0, 0.0, 0.0, 0.0, 1.700950126094512E9, 0.0, 2023-11-25 17:08:46.094
21.0, 9391.152488130629, 15585.446725540964, -57404.13008977534, -56484.80284032856, -68278.67845042687, 140.99480402407696, -33091.534148637555, 23897.836971025106, -0.222, 0.9440000000000001, 0.176, 192.0, 0.0, 0.0, 0.0, 0.0, 0.0, 0.0, 0.0, 0.0, 0.0, 1.700950126096504E9, 0.0, 2023-11-25 17:08:46.096
22.0, 9424.322476902304, 15587.547789519764, -57427.26414528658, -56498.66092189085, -68217.54642934162, 230.84881673441134, -33065.22614541365, 23885.923491230427, -0.222, 0.9440000000000001, 0.176, 192.0, 0.0, 0.0, 0.0, 0.0, 0.0, 0.0, 0.0, 0.0, 0.0, 1.700950126100548E9, 0.0, 2023-11-25 17:08:46.100
23.0, 9335.18372001454, 15455.136055366524, -57474.918064465295, -56567.92897795785, -68270.40830497841, 126.80144629495696, -33122.156038541325, 23800.875103577986, -0.222, 0.9440000000000001, 0.176, 192.0, 0.0, 0.0, 0.0, 0.0, 0.0, 0.0, 0.0, 0.0, 0.0, 1.700950126105562E9, 0.0, 2023-11-25 17:08:46.105
24.0, 9321.213879729972, 15465.44020956042, -57453.527445021566, -56542.403285789886, -68294.21291282332, 94.9725621905997, -33122.75953564162, 23817.415394474912, -0.222, 0.9440000000000001, 0.176, 192.0, 0.0, 0.0, 0.0, 0.0, 0.0, 0.0, 0.0, 0.0, 0.0, 1.700950126109589E9, 0.0, 2023-11-25 17:08:46.109
25.0, 9380.110726369707, 15568.615861966118, -57413.51782244657, -56486.16629674033, -68281.67358418388, 131.13768471928654, -33106.8674453339, 23864.555223531155, -0.222, 0.9440000000000001, 0.176, 192.0, 0.0, 0.0, 0.0, 0.0, 0.0, 0.0, 0.0, 0.0, 0.0, 1.700950126112795E9, 0.0, 2023-11-25 17:08:46.112
26.0, 9439.901642787652, 15610.793603753282, -57415.417720725265, -56480.75717458215, -68220.72037705427, 213.6826769927355, -33083.44281714473, 23861.738903729787, -0.222, 0.9440000000000001, 0.176, 192.0, 0.0, 0.0, 0.0, 0.0, 0.0, 0.0, 0.0, 0.0, 0.0, 1.70095012611767E9, 0.0, 2023-11-25 17:08:46.117
27.0, 9357.066077836285, 15487.166105170978, -57483.85876224742, -56569.69476576982, -68263.23339500825, 147.476809916116, -33130.24737003414, 23779.439780645345, -0.222, 0.9440000000000001, 0.176, 192.0, 0.0, 0.0, 0.0, 0.0, 0.0, 0.0, 0.0, 0.0, 0.0, 1.700950126121664E9, 0.0, 2023-11-25 17:08:46.121
28.0, 9316.788234327822, 15458.757037968284, -57463.876302704375, -56557.490713297215, -68301.65604372694, 78.36521606030657, -33138.22694280469, 23803.020871045694, -0.222, 0.9440000000000001, 0.176, 192.0, 0.0, 0.0, 0.0, 0.0, 0.0, 0.0, 0.0, 0.0, 0.0, 1.700950126124665E9, 0.0, 2023-11-25 17:08:46.124
29.0, 9355.970842357974, 15545.258289010322, -57435.40018026831, -56516.65407617737, -68301.38782279346, 112.38457112128391, -33133.57777995799, 23842.985790131785, -0.222, 0.9440000000000001, 0.176, 192.0, 0.0, 0.0, 0.0, 0.0, 0.0, 0.0, 0.0, 0.0, 0.0, 1.700950126128648E9, 0.0, 2023-11-25 17:08:46.128
30.0, 9427.541128103869, 15615.912153233547, -57413.69663640221, -56488.26736071913, -68241.03811276414, 182.16671731075257, -33103.87231157688, 23852.641743736476, -0.228, 0.9480000000000001, 0.178, 192.0, 248.0, 224.0, 29.0, 160.0, 5.0, 144.0, 0.0, 0.0, 0.0, 1.700950126132653E9, 0.0, 2023-11-25 17:08:46.132
31.0, 9374.053403622318, 15512.781204316761, -57478.829619744974, -56568.44306808032, -68252.52690941417, 171.862563116856, -33123.206570530725, 23791.28620520666, -0.228, 0.9480000000000001, 0.178, 192.0, 0.0, 0.0, 0.0, 0.0, 0.0, 0.0, 0.0, 0.0, 0.0, 1.700950126136652E9, 0.0, 2023-11-25 17:08:46.136
32.0, 9311.647333103101, 15450.576299497641, -57473.12992490887, -56578.85898099649, -68312.38488106547, 60.26030305150784, -33143.03256786258, 23772.264870675193, -0.228, 0.9480000000000001, 0.178, 192.0, 0.0, 0.0, 0.0, 0.0, 0.0, 0.0, 0.0, 0.0, 0.0, 1.700950126140967E9, 0.0, 2023-11-25 17:08:46.140
33.0, 9344.303231752305, 15531.556669659218, -57446.687811218246, -56538.60348923248, -68313.65893049943, 97.8112337364237, -33128.45923047772, 23807.29005423666, -0.228, 0.9480000000000001, 0.178, 192.0, 0.0, 0.0, 0.0, 0.0, 0.0, 0.0, 0.0, 0.0, 0.0, 1.700950126144718E9, 0.0, 2023-11-25 17:08:46.144
34.0, 9424.34482864676, 15619.175507924023, -57405.158270020285, -56489.049671775065, -68257.84662459453, 155.32227221992878, -33092.584680626955, 23847.679656467397, -0.228, 0.9480000000000001, 0.178, 192.0, 0.0, 0.0, 0.0, 0.0, 0.0, 0.0, 0.0, 0.0, 0.0, 1.700950126148751E9, 0.0, 2023-11-25 17:08:46.148
35.0, 9389.85608695222, 15534.909431327515, -57473.12992490887, -56560.82112322106, -68246.5589936446, 185.1394993233084, -33112.857712847916, 23789.721583094786, -0.228, 0.9480000000000001, 0.178, 192.0, 0.0, 0.0, 0.0, 0.0, 0.0, 0.0, 0.0, 0.0, 0.0, 1.700950126151759E9, 0.0, 2023-11-25 17:08:46.151
36.0, 9304.137146966117, 15429.655066687474, -57484.23874190316, -56592.62765558096, -68319.85036371356, 45.5528551999158, -33152.73322495618, 23743.766396494677, -0.228, 0.9480000000000001, 0.178, 192.0, 0.0, 0.0, 0.0, 0.0, 0.0, 0.0, 0.0, 0.0, 0.0, 1.70095012615675E9, 0.0, 2023-11-25 17:08:46.156
37.0, 9313.70369359299, 15489.624797061062, -57467.027898672575, -56563.52568430015, -68331.98736095279, 75.28067532547419, -33147.882896409385, 23771.527263108168, -0.228, 0.9480000000000001, 0.178, 192.0, 0.0, 0.0, 0.0, 0.0, 0.0, 0.0, 0.0, 0.0, 0.0, 1.700950126160742E9, 0.0, 2023-11-25 17:08:46.160
38.0, 9397.634494022668, 15594.275664600811, -57413.74133989112, -56500.00202655817, -68283.32761327358, 129.21543469613013, -33104.07347727698, 23831.854621393042, -0.228, 0.9480000000000001, 0.178, 192.0, 0.0, 0.0, 0.0, 0.0, 0.0, 0.0, 0.0, 0.0, 0.0, 1.700950126164863E9, 0.0, 2023-11-25 17:08:46.164
39.0, 9386.123345628184, 15541.279678497278, -57476.259169132616, -56562.251634866196, -68256.99725830523, 196.67299946224685, -33104.542863910545, 23801.09862102254, -0.228, 0.9480000000000001, 0.178, 192.0, 0.0, 0.0, 0.0, 0.0, 0.0, 0.0, 0.0, 0.0, 0.0, 1.700950126168836E9, 0.0, 2023-11-25 17:08:46.168
40.0, 9286.859248502165, 15415.126432791523, -57498.29798916555, -56612.096025001534, -68333.84255574258, 55.09705008233191, -33149.46987026571, 23749.7566640087, -0.232, 0.9460000000000001, 0.176, 192.0, 248.0, 192.0, 29.0, 144.0, 5.0, 128.0, 0.0, 0.0, 0.0, 1.700950126172859E9, 0.0, 2023-11-25 17:08:46.172
41.0, 9295.129393950629, 15459.628756002041, -57470.648881274334, -56572.91341697138, -68338.379959867, 82.74615797354674, -33130.62734968989, 23787.441705160345, -0.232, 0.9460000000000001, 0.176, 192.0, 0.0, 0.0, 0.0, 0.0, 0.0, 0.0, 0.0, 0.0, 0.0, 1.700950126177222E9, 0.0, 2023-11-25 17:08:46.177
42.0, 9370.968862887486, 15565.576024720196, -57414.94833409171, -56505.1876312718, -68300.65021522644, 119.24655666906318, -33097.323250451474, 23829.10535682504, -0.232, 0.9460000000000001, 0.176, 192.0, 0.0, 0.0, 0.0, 0.0, 0.0, 0.0, 0.0, 0.0, 0.0, 1.700950126179955E9, 0.0, 2023-11-25 17:08:46.179
43.0, 9400.897848713143, 15562.692649685461, -57446.28547981805, -56528.1428728274, -68238.22179296277, 218.3094880949841, -33076.26790717458, 23826.19963004585, -0.232, 0.9460000000000001, 0.176, 192.0, 0.0, 0.0, 0.0, 0.0, 0.0, 0.0, 0.0, 0.0, 0.0, 1.70095012618483E9, 0.0, 2023-11-25 17:08:46.184
44.0, 9302.438414387514, 15429.163328309456, -57492.01714897361, -56594.03581548164, -68309.45680254183, 92.737387745069, -33131.253198534636, 23770.767303796685, -0.232, 0.9460000000000001, 0.176, 192.0, 0.0, 0.0, 0.0, 0.0, 0.0, 0.0, 0.0, 0.0, 0.0, 1.700950126189024E9, 0.0, 2023-11-25 17:08:46.189
45.0, 9300.806737042278, 15460.67928799144, -57471.43119233027, -56560.798771476606, -68324.49952656025, 87.9988179205439, -33130.403832245334, 23805.99365305825, -0.232, 0.9460000000000001, 0.176, 192.0, 0.0, 0.0, 0.0, 0.0, 0.0, 0.0, 0.0, 0.0, 0.0, 1.700950126192872E9, 0.0, 2023-11-25 17:08:46.192
46.0, 9367.571397730278, 15568.951138132947, -57428.09115983143, -56501.65605564786, -68305.74641296225, 113.6139170663258, -33120.74787864064, 23832.793394660162, -0.232, 0.9460000000000001, 0.176, 192.0, 0.0, 0.0, 0.0, 0.0, 0.0, 0.0, 0.0, 0.0, 0.0, 1.700950126198902E9, 0.0, 2023-11-25 17:08:46.198
47.0, 9415.582944820278, 15590.341757576676, -57446.665459473785, -56512.340189497496, -68243.76502558768, 198.7293599521351, -33103.73820111015, 23815.269627007205, -0.232, 0.9460000000000001, 0.176, 192.0, 0.0, 0.0, 0.0, 0.0, 0.0, 0.0, 0.0, 0.0, 0.0, 1.700950126201867E9, 0.0, 2023-11-25 17:08:46.201
48.0, 9326.444187932515, 15455.091351877612, -57499.92966651078, -56586.77149853367, -68295.50931400173, 104.67321928420297, -33154.32019881251, 23748.192041896826, -0.232, 0.9460000000000001, 0.176, 192.0, 0.0, 0.0, 0.0, 0.0, 0.0, 0.0, 0.0, 0.0, 0.0, 1.700950126205956E9, 0.0, 2023-11-25 17:08:46.205
49.0, 9306.282914433827, 15454.085523377124, -57472.95111095323, -56559.61412902047, -68317.34696833456, 70.31858805639602, -33152.353245300445, 23775.84114978804, -0.232, 0.9460000000000001, 0.176, 192.0, 0.0, 0.0, 0.0, 0.0, 0.0, 0.0, 0.0, 0.0, 0.0, 1.70095012620792E9, 0.0, 2023-11-25 17:08:46.207
50.0, 9364.688022695545, 15557.46234148292, -57427.398255753316, -56502.32660798152, -68300.65021522644, 102.5498035609488, -33136.908189881826, 23810.709871138322, -0.224, 0.9460000000000001, 0.178, 192.0, 249.0, 0.0, 29.0, 144.0, 5.0, 144.0, 0.0, 0.0, 0.0, 1.700950126213172E9, 0.0, 2023-11-25 17:08:46.213
51.0, 9423.562517590824, 15601.271760615322, -57424.69369467422, -56492.78241309911, -68236.76892957317, 185.07244408994248, -33107.09096277845, 23824.925580611896, -0.224, 0.9460000000000001, 0.178, 192.0, 0.0, 0.0, 0.0, 0.0, 0.0, 0.0, 0.0, 0.0, 0.0, 1.700950126217009E9, 0.0, 2023-11-25 17:08:46.217
52.0, 9347.074848064764, 15480.795858001216, -57488.44086986076, -56576.176771661856, -68270.07302881159, 124.7003823161581, -33156.84594593596, 23745.912163962385, -0.224, 0.9460000000000001, 0.178, 192.0, 0.0, 0.0, 0.0, 0.0, 0.0, 0.0, 0.0, 0.0, 0.0, 1.700950126220986E9, 0.0, 2023-11-25 17:08:46.220
53.0, 9306.864059789665, 15445.860081417572, -57466.603215527924, -56566.36435584597, -68311.624921754, 40.07667780836557, -33170.86048970944, 23748.907297719397, -0.224, 0.9460000000000001, 0.178, 192.0, 0.0, 0.0, 0.0, 0.0, 0.0, 0.0, 0.0, 0.0, 0.0, 1.700950126224938E9, 0.0, 2023-11-25 17:08:46.224
54.0, 9351.969880100474, 15537.681047639973, -57433.56733722298, -56520.3421140125, -68308.0262908967, 74.45366078062783, -33156.44361453576, 23791.263853462202, -0.224, 0.9460000000000001, 0.178, 192.0, 0.0, 0.0, 0.0, 0.0, 0.0, 0.0, 0.0, 0.0, 0.0, 1.700950126229004E9, 0.0, 2023-11-25 17:08:46.229
55.0, 9423.450758868546, 15611.933542720502, -57415.50712770309, -56493.96705555524, -68254.31504897059, 136.41269641073902, -33127.118125810404, 23804.518437924202, -0.224, 0.9460000000000001, 0.178, 192.0, 0.0, 0.0, 0.0, 0.0, 0.0, 0.0, 0.0, 0.0, 0.0, 1.700950126232118E9, 0.0, 2023-11-25 17:08:46.232
56.0, 9374.969825144986, 15518.212678219401, -57485.60219831493, -56577.361414117986, -68267.2120055213, 121.23586192558551, -33162.702102983254, 23725.281503830138, -0.224, 0.9460000000000001, 0.178, 192.0, 0.0, 0.0, 0.0, 0.0, 0.0, 0.0, 0.0, 0.0, 0.0, 1.700950126236016E9, 0.0, 2023-11-25 17:08:46.236
57.0, 9310.038007502319, 15443.177872082935, -57476.4156313438, -56582.614074064986, -68322.71138700383, 12.047590261410507, -33182.14812065937, 23719.514753760668, -0.224, 0.9460000000000001, 0.178, 192.0, 0.0, 0.0, 0.0, 0.0, 0.0, 0.0, 0.0, 0.0, 0.0, 1.700950126240112E9, 0.0, 2023-11-25 17:08:46.240
58.0, 9336.748342126411, 15509.271980437277, -57443.33504954995, -56533.3955327744, -68318.62101776851, 63.6130647198039, -33158.634085492384, 23777.13755096645, -0.224, 0.9460000000000001, 0.178, 192.0, 0.0, 0.0, 0.0, 0.0, 0.0, 0.0, 0.0, 0.0, 0.0, 1.700950126245433E9, 0.0, 2023-11-25 17:08:46.245
59.0, 9424.456587369035, 15607.418490340531, -57395.859944326876, -56475.16923846832, -68260.88646184045, 129.59541435187035, -33115.89755009384, 23832.5251737267, -0.224, 0.9460000000000001, 0.178, 192.0, 0.0, 0.0, 0.0, 0.0, 0.0, 0.0, 0.0, 0.0, 0.0, 1.700950126249086E9, 0.0, 2023-11-25 17:08:46.249
60.0, 9404.250610381438, 15540.877347097081, -57463.67513700428, -56546.27013758065, -68247.8106913341, 176.6011329413811, -33129.50976246712, 23792.180274984872, -0.222, 0.9440000000000001, 0.178, 192.0, 249.0, 16.0, 29.0, 128.0, 5.0, 144.0, 0.0, 0.0, 0.0, 1.700950126253058E9, 0.0, 2023-11-25 17:08:46.253
61.0, 9316.184737227528, 15433.29840103369, -57480.39424185685, -56582.41290836489, -68326.53353530569, 34.5110934389941, -33169.407626319844, 23749.823719242064, -0.222, 0.9440000000000001, 0.178, 192.0, 0.0, 0.0, 0.0, 0.0, 0.0, 0.0, 0.0, 0.0, 0.0, 1.70095012625712E9, 0.0, 2023-11-25 17:08:46.257
62.0, 9332.36740021317, 15491.457640106397, -57454.24270084414, -56540.61514623346, -68329.08163417359, 77.8511259378345, -33141.84792540645, 23794.79542908614, -0.222, 0.9440000000000001, 0.178, 192.0, 0.0, 0.0, 0.0, 0.0, 0.0, 0.0, 0.0, 0.0, 0.0, 1.70095012626012E9, 0.0, 2023-11-25 17:08:46.260
63.0, 9398.66267426761, 15578.338870804177, -57408.086348543926, -56486.45686941825, -68291.93303488888, 121.16880669221959, -33107.56034941201, 23835.185031316883, -0.222, 0.9440000000000001, 0.178, 192.0, 0.0, 0.0, 0.0, 0.0, 0.0, 0.0, 0.0, 0.0, 0.0, 1.700950126264185E9, 0.0, 2023-11-25 17:08:46.264
64.0, 9402.820098736298, 15536.876384839581, -57447.872453674376, -56528.85812864997, -68245.3072959551, 205.47958677763782, -33093.25523296061, 23814.979054329284, -0.222, 0.9440000000000001, 0.178, 192.0, 0.0, 0.0, 0.0, 0.0, 0.0, 0.0, 0.0, 0.0, 0.0, 1.700950126268174E9, 0.0, 2023-11-25 17:08:46.268
65.0, 9309.7474348244, 15412.891258345993, -57468.23489287316, -56577.16024841789, -68315.73764273377, 71.5032305125273, -33134.33773926947, 23765.402885127412, -0.222, 0.9440000000000001, 0.178, 192.0, 0.0, 0.0, 0.0, 0.0, 0.0, 0.0, 0.0, 0.0, 0.0, 1.700950126272213E9, 0.0, 2023-11-25 17:08:46.272
66.0, 9311.692036592012, 15457.281822834233, -57448.18537809675, -56547.47713178124, -68330.75801500774, 89.02699816548802, -33125.88877986536, 23807.804144359132, -0.222, 0.9440000000000001, 0.178, 192.0, 0.0, 0.0, 0.0, 0.0, 0.0, 0.0, 0.0, 0.0, 0.0, 1.700950126277197E9, 0.0, 2023-11-25 17:08:46.277
67.0, 9385.162220616607, 15559.429294994987, -57393.78123209253, -56482.6794246053, -68297.5209710027, 123.96277474913298, -33090.52832013706, 23873.562976546644, -0.222, 0.9440000000000001, 0.178, 192.0, 0.0, 0.0, 0.0, 0.0, 0.0, 0.0, 0.0, 0.0, 0.0, 1.700950126281236E9, 0.0, 2023-11-25 17:08:46.281
68.0, 9415.6723517981, 15552.813178636216, -57424.00079059611, -56506.64049466139, -68238.13238598495, 216.54370028301483, -33070.568212338476, 23872.132464901504, -0.222, 0.9440000000000001, 0.178, 192.0, 0.0, 0.0, 0.0, 0.0, 0.0, 0.0, 0.0, 0.0, 0.0, 1.700950126285203E9, 0.0, 2023-11-25 17:08:46.285
69.0, 9321.571507641258, 15424.223592784834, -57470.67123301879, -56577.76374551818, -68305.9699304068, 85.4507190526389, -33133.26485553561, 23795.62244363099, -0.228, 0.9420000000000001, 0.18, 192.0, 248.0, 224.0, 29.0, 112.0, 5.0, 160.0, 0.0, 0.0, 0.0, 1.700950126288193E9, 0.0, 2023-11-25 17:08:46.288
70.0, 9308.94277202401, 15444.273107561245, -57459.31654683549, -56558.98828017573, -68332.76967200871, 58.82979140636819, -33143.92663764079, 23805.457211191322, -0.228, 0.9420000000000001, 0.18, 192.0, 0.0, 0.0, 0.0, 0.0, 0.0, 0.0, 0.0, 0.0, 0.0, 1.700950126292604E9, 0.0, 2023-11-25 17:08:46.292
71.0, 9368.75604018641, 15541.972582575392, -57415.50712770309, -56505.29938999408, -68317.30226484564, 74.78893694745743, -33136.23763754817, 23829.418281247414, -0.228, 0.9420000000000001, 0.18, 192.0, 0.0, 0.0, 0.0, 0.0, 0.0, 0.0, 0.0, 0.0, 0.0, 1.700950126296441E9, 0.0, 2023-11-25 17:08:46.296
72.0, 9413.48188084148, 15564.726658430895, -57428.53819472053, -56513.256611020166, -68253.82331059258, 160.35141472237288, -33115.53992218255, 23817.19187703036, -0.228, 0.9420000000000001, 0.18, 192.0, 0.0, 0.0, 0.0, 0.0, 0.0, 0.0, 0.0, 0.0, 0.0, 1.700950126300272E9, 0.0, 2023-11-25 17:08:46.300
73.0, 9330.981592056942, 15443.133168594024, -57482.89763723584, -56591.06303346909, -68301.70074721584, 68.82102117789044, -33173.14036764388, 23725.862649185976, -0.228, 0.9420000000000001, 0.18, 192.0, 0.0, 0.0, 0.0, 0.0, 0.0, 0.0, 0.0, 0.0, 0.0, 1.700950126305277E9, 0.0, 2023-11-25 17:08:46.305
74.0, 9306.640542345112, 15435.086540590113, -57466.62556727238, -56573.96394896078, -68335.1836604099, 17.7249333530585, -33182.01401019264, 23746.6050680405, -0.228, 0.9420000000000001, 0.18, 192.0, 0.0, 0.0, 0.0, 0.0, 0.0, 0.0, 0.0, 0.0, 0.0, 1.700950126309318E9, 0.0, 2023-11-25 17:08:46.309
75.0, 9363.27986279486, 15535.758797616816, -57418.47990971564, -56514.39654998739, -68317.79400322367, 52.99598610353305, -33166.94893442976, 23799.109315766018, -0.228, 0.9420000000000001, 0.18, 192.0, 0.0, 0.0, 0.0, 0.0, 0.0, 0.0, 0.0, 0.0, 0.0, 1.700950126313299E9, 0.0, 2023-11-25 17:08:46.313
76.0, 9429.329267660292, 15586.51960927482, -57400.48675542913, -56491.62012238743, -68243.98854303223, 145.64396687078082, -33127.14047755486, 23818.264760764214, -0.228, 0.9420000000000001, 0.18, 192.0, 0.0, 0.0, 0.0, 0.0, 0.0, 0.0, 0.0, 0.0, 0.0, 1.700950126316344E9, 0.0, 2023-11-25 17:08:46.316
77.0, 9342.93977534053, 15455.136055366524, -57476.92972146627, -56585.49744909972, -68282.72411617328, 93.81027147892374, -33172.93920194378, 23738.759605736686, -0.228, 0.9420000000000001, 0.18, 192.0, 0.0, 0.0, 0.0, 0.0, 0.0, 0.0, 0.0, 0.0, 0.0, 1.700950126320353E9, 0.0, 2023-11-25 17:08:46.320
78.0, 9298.45980387447, 15410.14199377799, -57459.674174746775, -56577.361414117986, -68328.12050916202, 4.984439013533475, -33190.70883878575, 23735.831527213042, -0.228, 0.9420000000000001, 0.18, 192.0, 0.0, 0.0, 0.0, 0.0, 0.0, 0.0, 0.0, 0.0, 0.0, 1.700950126324498E9, 0.0, 2023-11-25 17:08:46.324
79.0, 9344.437342219037, 15504.980445501858, -57421.94443010622, -56523.13608206941, -68319.40332882444, 48.57034070138225, -33172.71568449923, 23779.260966689704, -0.226, 0.9540000000000001, 0.176, 192.0, 248.0, 240.0, 29.0, 208.0, 5.0, 128.0, 0.0, 0.0, 0.0, 1.700950126328417E9, 0.0, 2023-11-25 17:08:46.328
80.0, 9427.786997292877, 15584.954987162948, -57387.813316322965, -56480.31013969304, -68252.43750243634, 117.88310025728944, -33131.61082644592, 23802.23855998976, -0.226, 0.9540000000000001, 0.176, 192.0, 0.0, 0.0, 0.0, 0.0, 0.0, 0.0, 0.0, 0.0, 0.0, 1.700950126332342E9, 0.0, 2023-11-25 17:08:46.332
81.0, 9376.154467601118, 15486.2049801594, -57464.72566899368, -56566.36435584597, -68265.28975549815, 115.8490915118565, -33166.50189954065, 23731.40588181089, -0.226, 0.9540000000000001, 0.176, 192.0, 0.0, 0.0, 0.0, 0.0, 0.0, 0.0, 0.0, 0.0, 0.0, 1.70095012633765E9, 0.0, 2023-11-25 17:08:46.337
82.0, 9312.764920325866, 15418.05451131517, -57464.52450329358, -56577.003786206704, -68330.7803667522, -1.363456411773731, -33190.99941146367, 23719.447698527303, -0.226, 0.9540000000000001, 0.176, 192.0, 0.0, 0.0, 0.0, 0.0, 0.0, 0.0, 0.0, 0.0, 0.0, 1.700950126341438E9, 0.0, 2023-11-25 17:08:46.341
83.0, 9345.80079863081, 15499.2583989213, -57437.21067156919, -56525.483015237216, -68330.15451790745, 45.95518660011132, -33166.50189954065, 23773.874196275974, -0.226, 0.9540000000000001, 0.176, 192.0, 0.0, 0.0, 0.0, 0.0, 0.0, 0.0, 0.0, 0.0, 0.0, 1.700950126344481E9, 0.0, 2023-11-25 17:08:46.344
84.0, 9425.529471102891, 15595.683824501495, -57394.36237744837, -56465.1780086968, -68276.75620040372, 112.026943209999, -33122.62542517488, 23821.505763710233, -0.226, 0.9540000000000001, 0.176, 192.0, 0.0, 0.0, 0.0, 0.0, 0.0, 0.0, 0.0, 0.0, 0.0, 1.700950126348451E9, 0.0, 2023-11-25 17:08:46.348
85.0, 9395.935761444063, 15523.532393399764, -57468.92779695128, -56543.297355568095, -68269.80480787811, 152.39419369628357, -33139.36688177191, 23756.976277467762, -0.226, 0.9540000000000001, 0.176, 192.0, 0.0, 0.0, 0.0, 0.0, 0.0, 0.0, 0.0, 0.0, 0.0, 1.700950126352441E9, 0.0, 2023-11-25 17:08:46.352
86.0, 9312.116719736663, 15416.355778736566, -57481.690643035254, -56577.71904202927, -68342.06799770212, 15.288593207430031, -33179.24239388018, 23708.808268166576, -0.226, 0.9540000000000001, 0.176, 192.0, 0.0, 0.0, 0.0, 0.0, 0.0, 0.0, 0.0, 0.0, 0.0, 1.700950126356513E9, 0.0, 2023-11-25 17:08:46.356
87.0, 9325.527766409847, 15474.2020933869, -57459.92004393579, -56537.75412294318, -68346.62775357101, 54.538256470949236, -33160.46692853772, 23753.556460566102, -0.226, 0.9540000000000001, 0.176, 192.0, 0.0, 0.0, 0.0, 0.0, 0.0, 0.0, 0.0, 0.0, 0.0, 1.700950126360483E9, 0.0, 2023-11-25 17:08:46.360
88.0, 9401.05431092433, 15577.310690559232, -57411.05913055648, -56475.012776257136, -68306.55107576265, 101.76749250501305, -33128.05689907753, 23797.52234190969, -0.226, 0.9540000000000001, 0.176, 192.0, 0.0, 0.0, 0.0, 0.0, 0.0, 0.0, 0.0, 0.0, 0.0, 1.700950126365491E9, 0.0, 2023-11-25 17:08:46.365
89.0, 9401.993084191452, 15542.799597120238, -57468.03372717306, -56527.293506538095, -68271.54824394564, 180.9820748546213, -33124.50297170913, 23764.79938802712, -0.226, 0.9460000000000001, 0.17400000000000002, 192.0, 248.0, 240.0, 29.0, 144.0, 5.0, 112.0, 0.0, 0.0, 0.0, 1.700950126369499E9, 0.0, 2023-11-25 17:08:46.369
90.0, 9313.435472659525, 15424.357703251566, -57487.61385531591, -56574.29922512761, -68337.1282621775, 52.39248900323975, -33153.49318426767, 23717.07841361504, -0.226, 0.9460000000000001, 0.17400000000000002, 192.0, 0.0, 0.0, 0.0, 0.0, 0.0, 0.0, 0.0, 0.0, 0.0, 1.700950126372522E9, 0.0, 2023-11-25 17:08:46.372
91.0, 9318.442263417515, 15466.133113638534, -57456.03084040056, -56534.53547174162, -68340.41396861244, 76.84529743734568, -33123.43008797528, 23765.693457805333, -0.226, 0.9460000000000001, 0.17400000000000002, 192.0, 0.0, 0.0, 0.0, 0.0, 0.0, 0.0, 0.0, 0.0, 0.0, 1.700950126376521E9, 0.0, 2023-11-25 17:08:46.376
92.0, 9392.739461986956, 15578.584739993184, -57396.53049666053, -56464.68627031878, -68302.55011350515, 115.58087057839282, -33088.516663136084, 23818.980016586785, -0.226, 0.9460000000000001, 0.17400000000000002, 192.0, 0.0, 0.0, 0.0, 0.0, 0.0, 0.0, 0.0, 0.0, 0.0, 1.700950126380594E9, 0.0, 2023-11-25 17:08:46.380
93.0, 9427.585831592778, 15576.774248692305, -57426.750055164106, -56488.69204386378, -68241.79807207562, 207.75946471207914, -33068.89183150433, 23811.693347894354, -0.226, 0.9460000000000001, 0.17400000000000002, 192.0, 0.0, 0.0, 0.0, 0.0, 0.0, 0.0, 0.0, 0.0, 0.0, 1.700950126384811E9, 0.0, 2023-11-25 17:08:46.384
94.0, 9334.46846419197, 15443.803720927683, -57476.169762154794, -56562.69866975531, -68310.06029964212, 77.38173930427305, -33140.14919282785, 23730.444756799312, -0.226, 0.9460000000000001, 0.17400000000000002, 192.0, 0.0, 0.0, 0.0, 0.0, 0.0, 0.0, 0.0, 0.0, 0.0, 1.700950126388558E9, 0.0, 2023-11-25 17:08:46.388
95.0, 9329.573432156258, 15464.032049659736, -57454.82384619997, -56536.77064618715, -68331.98736095279, 50.98432910255541, -33140.86444865041, 23744.41459708388, -0.226, 0.9460000000000001, 0.17400000000000002, 192.0, 0.0, 0.0, 0.0, 0.0, 0.0, 0.0, 0.0, 0.0, 0.0, 1.70095012639279E9, 0.0, 2023-11-25 17:08:46.392
96.0, 9392.38183407567, 15567.297109043255, -57410.99207532312, -56478.0302617586, -68316.6764160009, 72.28554156846305, -33127.3192915105, 23776.690516077342, -0.226, 0.9460000000000001, 0.17400000000000002, 192.0, 0.0, 0.0, 0.0, 0.0, 0.0, 0.0, 0.0, 0.0, 0.0, 1.700950126396623E9, 0.0, 2023-11-25 17:08:46.396
97.0, 9443.097942244762, 15596.46613555743, -57422.43616848424, -56477.35970942494, -68251.54343265813, 158.40681295476116, -33111.27073899159, 23776.08701897705, -0.226, 0.9460000000000001, 0.17400000000000002, 192.0, 0.0, 0.0, 0.0, 0.0, 0.0, 0.0, 0.0, 0.0, 0.0, 1.700950126399589E9, 0.0, 2023-11-25 17:08:46.399
98.0, 9358.653051692612, 15468.256529361788, -57480.97538721268, -56551.79101846112, -68293.38589827847, 76.84529743734568, -33166.546603029565, 23714.21739032476, -0.226, 0.9460000000000001, 0.17400000000000002, 192.0, 0.0, 0.0, 0.0, 0.0, 0.0, 0.0, 0.0, 0.0, 0.0, 1.700950126404588E9, 0.0, 2023-11-25 17:08:46.404
99.0, 9330.199281001005, 15456.857139689582, -57463.3622125819, -56533.32847754103, -68325.21478238283, 22.575261899860134, -33174.66028626684, 23733.395187067414, -0.212, 0.9420000000000001, 0.176, 192.0, 249.0, 96.0, 29.0, 112.0, 5.0, 128.0, 0.0, 0.0, 0.0, 1.700950126408662E9, 0.0, 2023-11-25 17:08:46.408
100.0, 9382.43530779306, 15559.36223976162, -57422.838499884434, -56476.30917743554, -68311.98254966528, 57.01930010548832, -33158.74584421466, 23765.42523687187, -0.212, 0.9420000000000001, 0.176, 192.0, 0.0, 0.0, 0.0, 0.0, 0.0, 0.0, 0.0, 0.0, 0.0, 1.700950126412671E9, 0.0, 2023-11-25 17:08:46.412
101.0, 9457.671279629621, 15629.770234795838, -57397.46926992766, -56444.27912763109, -68236.0089702617, 144.70519360365793, -33117.99861407264, 23783.999536514228, -0.212, 0.9420000000000001, 0.176, 192.0, 0.0, 0.0, 0.0, 0.0, 0.0, 0.0, 0.0, 0.0, 0.0, 1.700950126416659E9, 0.0, 2023-11-25 17:08:46.416
102.0, 9395.332264343771, 15519.2632102088, -57459.74122998014, -56521.772625657635, -68256.41611294939, 115.98320197858835, -33151.235658077676, 23725.907352674887, -0.212, 0.9420000000000001, 0.176, 192.0, 0.0, 0.0, 0.0, 0.0, 0.0, 0.0, 0.0, 0.0, 0.0, 1.700950126420711E9, 0.0, 2023-11-25 17:08:46.420
103.0, 9350.360554499694, 15476.97370969936, -57444.787912939544, -56517.637552933404, -68303.4218315389, 22.016468288477455, -33170.03347516459, 23726.197925352804, -0.212, 0.9420000000000001, 0.176, 192.0, 0.0, 0.0, 0.0, 0.0, 0.0, 0.0, 0.0, 0.0, 0.0, 1.700950126424723E9, 0.0, 2023-11-25 17:08:46.424
104.0, 9389.230238107471, 15565.665431698017, -57414.00956082458, -56472.44232564478, -68300.80667743763, 60.483820496060915, -33160.84690819346, 23762.675972303867, -0.212, 0.9420000000000001, 0.176, 192.0, 0.0, 0.0, 0.0, 0.0, 0.0, 0.0, 0.0, 0.0, 0.0, 1.700950126427782E9, 0.0, 2023-11-25 17:08:46.427
105.0, 9456.643099384679, 15638.867394789148, -57390.182601235225, -56437.97593569469, -68246.53664190014, 124.94625150516649, -33125.151172298334, 23787.62051911599, -0.212, 0.9420000000000001, 0.176, 192.0, 0.0, 0.0, 0.0, 0.0, 0.0, 0.0, 0.0, 0.0, 0.0, 1.700950126432759E9, 0.0, 2023-11-25 17:08:46.432
106.0, 9406.23991563796, 15542.754893631327, -57464.47979980467, -56519.98448610121, -68251.65519138041, 134.37868766530607, -33150.9227336553, 23715.26792231416, -0.212, 0.9420000000000001, 0.176, 192.0, 0.0, 0.0, 0.0, 0.0, 0.0, 0.0, 0.0, 0.0, 0.0, 1.700950126436717E9, 0.0, 2023-11-25 17:08:46.436
107.0, 9343.945603841019, 15466.602500272096, -57453.57214851048, -56529.86395715046, -68309.76972696421, 17.166139741675824, -33174.727341500206, 23694.83842788201, -0.212, 0.9420000000000001, 0.176, 192.0, 0.0, 0.0, 0.0, 0.0, 0.0, 0.0, 0.0, 0.0, 0.0, 1.700950126440767E9, 0.0, 2023-11-25 17:08:46.440
108.0, 9360.172970315572, 15529.1650330025, -57443.111532105395, -56504.3382649825, -68326.19825913885, 56.728727427569325, -33159.37169305941, 23744.79457673962, -0.212, 0.9420000000000001, 0.176, 192.0, 0.0, 0.0, 0.0, 0.0, 0.0, 0.0, 0.0, 0.0, 0.0, 1.700950126444757E9, 0.0, 2023-11-25 17:08:46.444
109.0, 9429.284564171383, 15616.359188122653, -57407.1475752768, -56459.36655513842, -68284.91458712991, 103.28741112797394, -33121.08315480747, 23788.693402849844, -0.212, 0.936, 0.178, 192.0, 249.0, 96.0, 29.0, 64.0, 5.0, 144.0, 0.0, 0.0, 0.0, 1.700950126449066E9, 0.0, 2023-11-25 17:08:46.449
110.0, 9408.05040693884, 15551.069742568701, -57467.452581817226, -56523.2925442806, -68258.69599088383, 158.78679261050138, -33126.89460836585, 23740.994780182216, -0.212, 0.936, 0.178, 192.0, 0.0, 0.0, 0.0, 0.0, 0.0, 0.0, 0.0, 0.0, 0.0, 1.700950126451761E9, 0.0, 2023-11-25 17:08:46.451
111.0, 9319.381036684637, 15441.121511593046, -57482.741175024654, -56565.2020651343, -68331.18269815239, 22.44115143312829, -33167.3289140855, 23699.68875642881, -0.212, 0.936, 0.178, 192.0, 0.0, 0.0, 0.0, 0.0, 0.0, 0.0, 0.0, 0.0, 0.0, 1.700950126455696E9, 0.0, 2023-11-25 17:08:46.455
112.0, 9333.216766502472, 15496.77735528676, -57462.24462535913, -56534.42371301934, -68340.34691337906, 53.28655878145204, -33153.91786741232, 23741.08418716004, -0.212, 0.936, 0.178, 192.0, 0.0, 0.0, 0.0, 0.0, 0.0, 0.0, 0.0, 0.0, 0.0, 1.700950126459783E9, 0.0, 2023-11-25 17:08:46.459
113.0, 9418.421616366102, 15604.043376927779, -57396.64225538281, -56464.48510461868, -68289.45199125433, 101.32045761590692, -33108.1638465123, 23801.724469867288, -0.212, 0.936, 0.178, 192.0, 0.0, 0.0, 0.0, 0.0, 0.0, 0.0, 0.0, 0.0, 0.0, 1.700950126464868E9, 0.0, 2023-11-25 17:08:46.464
114.0, 9427.138796703674, 15575.790771936272, -57440.42932277076, -56510.50734645216, -68241.9098307979, 180.22211554314086, -33092.04823876003, 23780.110332979006, -0.212, 0.936, 0.178, 192.0, 0.0, 0.0, 0.0, 0.0, 0.0, 0.0, 0.0, 0.0, 0.0, 1.70095012646884E9, 0.0, 2023-11-25 17:08:46.468
115.0, 9340.61519391718, 15458.332354823633, -57464.72566899368, -56565.04560292311, -68308.54038101916, 46.558683700404615, -33138.0704805935, 23724.096861374004, -0.212, 0.936, 0.178, 192.0, 0.0, 0.0, 0.0, 0.0, 0.0, 0.0, 0.0, 0.0, 0.0, 1.700950126472826E9, 0.0, 2023-11-25 17:08:46.472
116.0, 9336.636583404133, 15487.657843548996, -57453.54979676602, -56547.27596608114, -68333.88725923149, 45.35168949981803, -33138.025777104594, 23747.90146921891, -0.212, 0.936, 0.178, 192.0, 0.0, 0.0, 0.0, 0.0, 0.0, 0.0, 0.0, 0.0, 0.0, 1.700950126476867E9, 0.0, 2023-11-25 17:08:46.476
117.0, 9403.513002814414, 15588.620673253617, -57402.65487464129, -56487.9320845523, -68308.18275310787, 68.37398628878431, -33117.59628267244, 23784.245405703237, -0.212, 0.936, 0.178, 192.0, 0.0, 0.0, 0.0, 0.0, 0.0, 0.0, 0.0, 0.0, 0.0, 1.700950126479877E9, 0.0, 2023-11-25 17:08:46.479
118.0, 9454.363221450236, 15604.602170539161, -57407.77342412155, -56488.87085781943, -68228.02939749115, 173.33777825090627, -33084.69451483423, 23785.362992926002, -0.212, 0.936, 0.178, 192.0, 0.0, 0.0, 0.0, 0.0, 0.0, 0.0, 0.0, 0.0, 0.0, 1.700950126483901E9, 0.0, 2023-11-25 17:08:46.483
119.0, 9367.906673897109, 15477.241930632823, -57447.42541878527, -56550.40521030489, -68279.52781671617, 68.57515198888207, -33132.907227624324, 23725.46031778578, -0.22, 0.9440000000000001, 0.178, 192.0, 249.0, 32.0, 29.0, 128.0, 5.0, 144.0, 0.0, 0.0, 0.0, 1.700950126487898E9, 0.0, 2023-11-25 17:08:46.487
120.0, 9350.025278332863, 15489.915369738981, -57433.70144768971, -56529.03694260561, -68308.80860195262, 38.15442778520916, -33143.14432658486, 23753.04237044363, -0.22, 0.9440000000000001, 0.178, 192.0, 0.0, 0.0, 0.0, 0.0, 0.0, 0.0, 0.0, 0.0, 0.0, 1.700950126493044E9, 0.0, 2023-11-25 17:08:46.493
121.0, 9409.726787772988, 15592.867504700125, -57393.98239779263, -56473.62696810091, -68297.16334309141, 59.701509440125164, -33137.77990791558, 23783.574853369577, -0.22, 0.9440000000000001, 0.178, 192.0, 0.0, 0.0, 0.0, 0.0, 0.0, 0.0, 0.0, 0.0, 0.0, 1.700950126496954E9, 0.0, 2023-11-25 17:08:46.496
122.0, 9471.931692592108, 15632.966534252946, -57399.19035425071, -56465.625043585904, -68228.4540806358, 153.64589138578074, -33108.14149476785, 23792.5155511517, -0.22, 0.9440000000000001, 0.178, 192.0, 0.0, 0.0, 0.0, 0.0, 0.0, 0.0, 0.0, 0.0, 0.0, 1.700950126500956E9, 0.0, 2023-11-25 17:08:46.500
123.0, 9387.598560762235, 15503.326416412167, -57471.341785352444, -56553.780323717634, -68281.18184580587, 73.51488751350493, -33168.96059143074, 23706.103707087485, -0.22, 0.9440000000000001, 0.178, 192.0, 0.0, 0.0, 0.0, 0.0, 0.0, 0.0, 0.0, 0.0, 0.0, 1.700950126505056E9, 0.0, 2023-11-25 17:08:46.505
124.0, 9355.61321444669, 15486.696718537418, -57454.17564561077, -56537.150625842885, -68319.71625324682, 7.510186136983173, -33182.79632124857, 23710.68581470082, -0.22, 0.9440000000000001, 0.178, 192.0, 0.0, 0.0, 0.0, 0.0, 0.0, 0.0, 0.0, 0.0, 0.0, 1.700950126508033E9, 0.0, 2023-11-25 17:08:46.508
125.0, 9397.47803181148, 15572.75093469035, -57418.68107541574, -56487.37329094092, -68313.68128224388, 39.42847721916166, -33170.256992609146, 23737.731425491744, -0.22, 0.9440000000000001, 0.178, 192.0, 0.0, 0.0, 0.0, 0.0, 0.0, 0.0, 0.0, 0.0, 0.0, 1.700950126511995E9, 0.0, 2023-11-25 17:08:46.511
126.0, 9464.689727388588, 15634.218231942445, -57392.775403592044, -56454.04683995806, -68240.83694706405, 126.08619047238714, -33121.84311411895, 23764.55351883811, -0.22, 0.9440000000000001, 0.178, 192.0, 0.0, 0.0, 0.0, 0.0, 0.0, 0.0, 0.0, 0.0, 0.0, 1.700950126516012E9, 0.0, 2023-11-25 17:08:46.516
127.0, 9393.499421298435, 15515.910448540504, -57458.37777356837, -56536.27890780913, -68258.87480483948, 101.34280936036222, -33155.54954475755, 23703.399146008393, -0.22, 0.9440000000000001, 0.178, 192.0, 0.0, 0.0, 0.0, 0.0, 0.0, 0.0, 0.0, 0.0, 0.0, 1.70095012652133E9, 0.0, 2023-11-25 17:08:46.521
128.0, 9342.626850918157, 15466.177817127445, -57441.4575030157, -56532.09913159599, -68305.34408156206, 6.191433214120057, -33170.63697226488, 23712.40689902388, -0.22, 0.9440000000000001, 0.178, 192.0, 0.0, 0.0, 0.0, 0.0, 0.0, 0.0, 0.0, 0.0, 0.0, 1.700950126525049E9, 0.0, 2023-11-25 17:08:46.525
129.0, 9374.90276991162, 15545.548861688241, -57419.977476594155, -56494.12351776642, -68311.379052565, 43.585901687848775, -33161.49510878266, 23753.22118439927, -0.222, 0.9420000000000001, 0.178, 192.0, 249.0, 16.0, 29.0, 112.0, 5.0, 144.0, 0.0, 0.0, 0.0, 1.700950126529142E9, 0.0, 2023-11-25 17:08:46.529
130.0, 9455.033773783896, 15633.525327864329, -57384.14763023229, -56447.63188929938, -68251.96811580278, 112.60808856583698, -33116.65750940532, 23793.81195233011, -0.222, 0.9420000000000001, 0.178, 192.0, 0.0, 0.0, 0.0, 0.0, 0.0, 0.0, 0.0, 0.0, 0.0, 1.700950126533112E9, 0.0, 2023-11-25 17:08:46.533
131.0, 9413.683046541577, 15541.50319594183, -57454.84619794443, -56528.25463154967, -68250.96228730229, 134.4233911542167, -33137.73520442667, 23742.045312171616, -0.222, 0.9420000000000001, 0.178, 192.0, 0.0, 0.0, 0.0, 0.0, 0.0, 0.0, 0.0, 0.0, 0.0, 1.700950126536128E9, 0.0, 2023-11-25 17:08:46.536
