%OpenBCI Raw EXG Data
%Number of channels = 8
%Sample Rate = 250 Hz
%Board = OpenBCI_GUI$BoardCytonSerial
Sample Index, EXG Channel 0, EXG Channel 1, EXG Channel 2, EXG Channel 3, EXG Channel 4, EXG Channel 5, EXG Channel 6, EXG Channel 7, Accel Channel 0, Accel Channel 1, Accel Channel 2, Other, Other, Other, Other, Other, Other, Other, Analog Channel 0, Analog Channel 1, Analog Channel 2, Timestamp, Other, Timestamp (Formatted)
82.0, 29651.734787432528, 39206.23382404254, -46499.58568806478, -41537.923102131266, -59558.34651688892, -17765.03238261132, -6351.896387564706, -25570.77563652702, 0.0, 0.0, 0.0, 192.0, 0.0, 0.0, 0.0, 0.0, 0.0, 0.0, 0.0, 0.0, 0.0, 1.700950541847933E9, 0.0, 2023-11-25 17:15:41.847
83.0, 29721.136953966256, 39292.33274368438, -46439.61595769119, -41472.20897343266, -59502.82478366194, -17712.68459709699, -6446.578377077387, -25509.129525319284, 0.0, 0.0, 0.0, 192.0, 0.0, 0.0, 0.0, 0.0, 0.0, 0.0, 0.0, 0.0, 0.0, 1.700950541847962E9, 0.0, 2023-11-25 17:15:41.847
84.0, 29722.03102374447, 39245.19291462814, -46465.70044347054, -41505.37896220433, -59487.64794917679, -17688.947044485456, -6190.919123997584, -25555.375284597314, 0.0, 0.0, 0.0, 192.0, 0.0, 0.0, 0.0, 0.0, 0.0, 0.0, 0.0, 0.0, 0.0, 1.700950541847975E9, 0.0, 2023-11-25 17:15:41.847
85.0, 29654.86403165627, 39161.28446594292, -46507.65466781315, -41572.54595429253, -59553.63029880885, -17782.08676363072, -6209.560478873311, -25606.40431718878, 0.0, 0.0, 0.0, 192.0, 0.0, 0.0, 0.0, 0.0, 0.0, 0.0, 0.0, 0.0, 0.0, 1.700950541847987E9, 0.0, 2023-11-25 17:15:41.847
0.0, 0.0, 0.0, 0.0, 0.0, 0.0, 0.0, 0.0, 0.0, -0.196, 0.932, 0.302, 192.0, 249.0, 224.0, 29.0, 32.0, 9.0, 112.0, 0.0, 0.0, 0.0, 1.7009505419316E9, 0.0, 2023-11-25 17:15:41.931
1.0, 29904.57772071096, 39523.114505185426, -46430.652908164615, -41390.33453349287, -59407.60635228233, -17883.340166013262, -6213.13675798616, -25484.699068629634, -0.196, 0.932, 0.302, 192.0, 0.0, 0.0, 0.0, 0.0, 0.0, 0.0, 0.0, 0.0, 0.0, 1.700950541944648E9, 0.0, 2023-11-25 17:15:41.944
2.0, 29963.273401650596, 39613.3484975515, -46380.98733198492, -41325.84975073931, -59362.07584882687, -17840.514223636892, -6323.8673000177505, -25432.954780215598, -0.196, 0.932, 0.302, 192.0, 0.0, 0.0, 0.0, 0.0, 0.0, 0.0, 0.0, 0.0, 0.0, 1.700950541948657E9, 0.0, 2023-11-25 17:15:41.948
3.0, 29974.046942478057, 39573.048302298586, -46395.56066936978, -41343.82055328137, -59336.259583980995, -17808.28300813234, -6090.671550115532, -25473.366734190793, -0.196, 0.932, 0.302, 192.0, 0.0, 0.0, 0.0, 0.0, 0.0, 0.0, 0.0, 0.0, 0.0, 1.700950541952703E9, 0.0, 2023-11-25 17:15:41.952
4.0, 29899.146246808323, 39475.32647553998, -46444.10865832671, -41415.30143204945, -59402.93483769117, -17896.527695241894, -6068.856247527153, -25518.874885901798, -0.196, 0.932, 0.302, 192.0, 0.0, 0.0, 0.0, 0.0, 0.0, 0.0, 0.0, 0.0, 0.0, 1.700950541956688E9, 0.0, 2023-11-25 17:15:41.956
5.0, 29900.576758453462, 39512.89975796935, -46436.77728614536, -41382.39966421123, -59404.1194801473, -17874.712392653513, -6191.075586208772, -25484.94493781864, -0.196, 0.932, 0.302, 192.0, 0.0, 0.0, 0.0, 0.0, 0.0, 0.0, 0.0, 0.0, 0.0, 1.700950541960767E9, 0.0, 2023-11-25 17:15:41.960
6.0, 29947.448366576242, 39593.723665919744, -46392.52083212386, -41324.01690769397, -59369.5636832194, -17841.1624242261, -6322.190919183603, -25436.598114561813, -0.196, 0.932, 0.302, 192.0, 0.0, 0.0, 0.0, 0.0, 0.0, 0.0, 0.0, 0.0, 0.0, 1.70095054196571E9, 0.0, 2023-11-25 17:15:41.965
7.0, 29971.632954076882, 39572.06482554255, -46394.53248912484, -41331.34827987532, -59334.24792698002, -17803.991473196922, -6131.865815146663, -25477.501806915025, -0.196, 0.932, 0.302, 192.0, 0.0, 0.0, 0.0, 0.0, 0.0, 0.0, 0.0, 0.0, 0.0, 1.700950541968695E9, 0.0, 2023-11-25 17:15:41.968
8.0, 29893.87123511687, 39461.311931766504, -46452.57996947527, -41416.754295439045, -59400.25262835654, -17896.30417779734, -6050.751334518353, -25539.639656500778, -0.196, 0.922, 0.306, 192.0, 249.0, 224.0, 28.0, 208.0, 9.0, 144.0, 0.0, 0.0, 0.0, 1.700950541973749E9, 0.0, 2023-11-25 17:15:41.973
9.0, 29888.328002491955, 39481.36144654291, -46446.36618451669, -41393.396722483245, -59407.65105577124, -17884.9718433585, -6176.189324401537, -25487.67185064219, -0.196, 0.922, 0.306, 192.0, 0.0, 0.0, 0.0, 0.0, 0.0, 0.0, 0.0, 0.0, 0.0, 1.700950541977758E9, 0.0, 2023-11-25 17:15:41.977
10.0, 29936.004273415125, 39568.95793306326, -46408.32351545376, -41338.29967240091, -59382.37123279229, -17859.267337234895, -6320.492186604999, -25454.434806637146, -0.196, 0.922, 0.306, 192.0, 0.0, 0.0, 0.0, 0.0, 0.0, 0.0, 0.0, 0.0, 0.0, 1.70095054198178E9, 0.0, 2023-11-25 17:15:41.981
11.0, 29977.913794268825, 39579.12797679043, -46388.631628588635, -41322.63109953774, -59333.57737464635, -17810.696996533516, -6197.3117229118025, -25461.542661373933, -0.196, 0.922, 0.306, 192.0, 0.0, 0.0, 0.0, 0.0, 0.0, 0.0, 0.0, 0.0, 0.0, 1.700950541985832E9, 0.0, 2023-11-25 17:15:41.985
12.0, 29918.368747039887, 39479.6180104754, -46438.967757101986, -41403.0750278324, -59381.901846158726, -17880.59090144526, -6041.050677424751, -25519.008996368528, -0.196, 0.922, 0.306, 192.0, 0.0, 0.0, 0.0, 0.0, 0.0, 0.0, 0.0, 0.0, 0.0, 1.700950541989785E9, 0.0, 2023-11-25 17:15:41.989
13.0, 29894.742953150628, 39479.282734308574, -46440.778248402865, -41404.52789122199, -59406.26524761501, -17901.35567204424, -6156.944472425517, -25506.827295640385, -0.196, 0.922, 0.306, 192.0, 0.0, 0.0, 0.0, 0.0, 0.0, 0.0, 0.0, 0.0, 0.0, 1.70095054199289E9, 0.0, 2023-11-25 17:15:41.992
14.0, 29935.69134899275, 39566.7898138511, -46404.94840204101, -41350.32491091787, -59382.72886070357, -17869.325622239783, -6287.47866004451, -25458.726341572565, -0.196, 0.922, 0.306, 192.0, 0.0, 0.0, 0.0, 0.0, 0.0, 0.0, 0.0, 0.0, 0.0, 1.700950541995904E9, 0.0, 2023-11-25 17:15:41.995
15.0, 29993.716477598726, 39609.48164576074, -46366.950436466985, -41313.288070355426, -59325.46369140908, -17814.519144835373, -6236.181406519581, -25443.437748365137, -0.196, 0.922, 0.306, 192.0, 0.0, 0.0, 0.0, 0.0, 0.0, 0.0, 0.0, 0.0, 0.0, 1.700950541999826E9, 0.0, 2023-11-25 17:15:41.999
16.0, 29948.297732865543, 39512.497426569156, -46415.409018446095, -41386.11005379082, -59358.45486622511, -17857.903880823123, -6025.449159794946, -25515.99151086706, -0.196, 0.922, 0.306, 192.0, 0.0, 0.0, 0.0, 0.0, 0.0, 0.0, 0.0, 0.0, 0.0, 1.700950542004795E9, 0.0, 2023-11-25 17:15:42.004
17.0, 29896.888720618335, 39471.77254817159, -46437.7607629014, -41416.3743157833, -59406.89109645976, -17908.888209925677, -6130.077675590239, -25511.007071853528, -0.196, 0.922, 0.306, 192.0, 0.0, 0.0, 0.0, 0.0, 0.0, 0.0, 0.0, 0.0, 0.0, 1.700950542008843E9, 0.0, 2023-11-25 17:15:42.008
18.0, 29926.661244232804, 39556.172735234824, -46412.190367244526, -41365.54644889193, -59392.13894511926, -17874.667689164602, -6262.9364446325835, -25448.84687052332, -0.196, 0.918, 0.308, 192.0, 249.0, 224.0, 28.0, 176.0, 9.0, 160.0, 0.0, 0.0, 0.0, 1.700950542013389E9, 0.0, 2023-11-25 17:15:42.013
19.0, 29985.893367039367, 39621.57393951106, -46368.40329985658, -41311.812855221375, -59336.41604619218, -17816.46374660298, -6272.435936026089, -25406.31150082487, -0.196, 0.918, 0.308, 192.0, 0.0, 0.0, 0.0, 0.0, 0.0, 0.0, 0.0, 0.0, 0.0, 1.700950542016176E9, 0.0, 2023-11-25 17:15:42.016
20.0, 29961.485262094175, 39539.967720504734, -46410.513986410384, -41368.63098962677, -59348.82126436487, -17834.680418334057, -6019.704761469932, -25462.459082896603, -0.196, 0.918, 0.308, 192.0, 0.0, 0.0, 0.0, 0.0, 0.0, 0.0, 0.0, 0.0, 0.0, 1.700950542019893E9, 0.0, 2023-11-25 17:15:42.019
21.0, 29905.047107344522, 39481.76377794311, -46439.8618268802, -41411.926318636695, -59404.3206458474, -17912.777413460903, -6101.892125832096, -25488.700030887132, -0.196, 0.918, 0.308, 192.0, 0.0, 0.0, 0.0, 0.0, 0.0, 0.0, 0.0, 0.0, 0.0, 1.700950542023895E9, 0.0, 2023-11-25 17:15:42.023
22.0, 29927.331796566465, 39554.04931951157, -46424.66264065059, -41370.37442569428, -59397.27984634398, -17893.264340551417, -6237.8130838648185, -25473.679658613168, -0.196, 0.918, 0.308, 192.0, 0.0, 0.0, 0.0, 0.0, 0.0, 0.0, 0.0, 0.0, 0.0, 1.700950542027949E9, 0.0, 2023-11-25 17:15:42.027
23.0, 29984.105227482945, 39621.350422066505, -46381.009683729375, -41318.13839890223, -59351.95050858862, -17853.232366231965, -6310.8362330003065, -25432.41833834867, -0.196, 0.918, 0.308, 192.0, 0.0, 0.0, 0.0, 0.0, 0.0, 0.0, 0.0, 0.0, 0.0, 1.700950542032891E9, 0.0, 2023-11-25 17:15:42.032
24.0, 29974.046942478057, 39556.463307912745, -46411.698628866514, -41359.82440231137, -59345.915537585686, -17843.107025993708, -6055.176979920505, -25474.75254234702, -0.196, 0.918, 0.308, 192.0, 0.0, 0.0, 0.0, 0.0, 0.0, 0.0, 0.0, 0.0, 0.0, 1.700950542036922E9, 0.0, 2023-11-25 17:15:42.036
25.0, 29900.86733113138, 39471.39256851585, -46451.79765841933, -41423.63863273128, -59412.881363973785, -17936.51496607244, -6091.386805938102, -25522.76408943702, -0.196, 0.918, 0.308, 192.0, 0.0, 0.0, 0.0, 0.0, 0.0, 0.0, 0.0, 0.0, 0.0, 1.700950542041E9, 0.0, 2023-11-25 17:15:42.041
26.0, 29912.40083127032, 39530.5799878335, -46439.034812335354, -41384.7689491235, -59409.863878472315, -17910.296369826363, -6215.953077787528, -25488.364754720304, -0.196, 0.918, 0.308, 192.0, 0.0, 0.0, 0.0, 0.0, 0.0, 0.0, 0.0, 0.0, 0.0, 1.700950542044991E9, 0.0, 2023-11-25 17:15:42.044
27.0, 29969.464834864717, 39613.3484975515, -46392.58788735722, -41326.006212950495, -59369.69779368613, -17873.415991475107, -6333.120922222248, -25445.449405366115, -0.19, 0.922, 0.304, 192.0, 250.0, 16.0, 28.0, 208.0, 9.0, 128.0, 0.0, 0.0, 0.0, 1.700950542048982E9, 0.0, 2023-11-25 17:15:42.048
28.0, 29982.831178048993, 39578.52447969013, -46406.244803219415, -41344.84873352632, -59344.93206082965, -17839.30722943631, -6104.529631677822, -25478.23941448205, -0.19, 0.922, 0.304, 192.0, 0.0, 0.0, 0.0, 0.0, 0.0, 0.0, 0.0, 0.0, 0.0, 1.700950542052963E9, 0.0, 2023-11-25 17:15:42.052
29.0, 29909.91978763578, 39482.03199887658, -46452.62467296418, -41417.00016462805, -59409.305084860935, -17923.238029865985, -6070.644387083577, -25507.05081308494, -0.19, 0.922, 0.304, 192.0, 0.0, 0.0, 0.0, 0.0, 0.0, 0.0, 0.0, 0.0, 0.0, 1.700950542057968E9, 0.0, 2023-11-25 17:15:42.057
30.0, 29906.969357367678, 39519.35941211694, -46449.67424269608, -41392.65911491622, -59415.34005586387, -17908.01649189192, -6187.946341985028, -25481.592176150345, -0.19, 0.922, 0.304, 192.0, 0.0, 0.0, 0.0, 0.0, 0.0, 0.0, 0.0, 0.0, 0.0, 1.700950542060995E9, 0.0, 2023-11-25 17:15:42.060
31.0, 29949.504727066127, 39600.563299723064, -46412.32447771126, -41341.47362011357, -59385.43342178267, -17883.094296824253, -6326.34834365229, -25444.689446054632, -0.19, 0.922, 0.304, 192.0, 0.0, 0.0, 0.0, 0.0, 0.0, 0.0, 0.0, 0.0, 0.0, 1.70095054206502E9, 0.0, 2023-11-25 17:15:42.065
32.0, 29985.26751819462, 39595.958840365274, -46395.89594553661, -41328.867236240774, -59332.39273219022, -17821.314075149785, -6145.187454842026, -25437.961570973584, -0.19, 0.922, 0.304, 192.0, 0.0, 0.0, 0.0, 0.0, 0.0, 0.0, 0.0, 0.0, 0.0, 1.700950542070045E9, 0.0, 2023-11-25 17:15:42.070
33.0, 29920.223941829678, 39495.711266483224, -46441.91818737009, -41405.13138832228, -59386.48395377207, -17899.58988423227, -6039.374296590602, -25492.09749604434, -0.19, 0.922, 0.304, 192.0, 0.0, 0.0, 0.0, 0.0, 0.0, 0.0, 0.0, 0.0, 0.0, 1.700950542074272E9, 0.0, 2023-11-25 17:15:42.074
34.0, 29907.282281790052, 39511.60335679095, -46442.253463536916, -41394.4696062171, -59402.599561524345, -17904.06023312333, -6158.084411392738, -25481.569824405888, -0.19, 0.922, 0.304, 192.0, 0.0, 0.0, 0.0, 0.0, 0.0, 0.0, 0.0, 0.0, 0.0, 1.700950542077055E9, 0.0, 2023-11-25 17:15:42.077
35.0, 29953.21511664571, 39602.48554974623, -46402.892041551124, -41340.37838463526, -59376.22450306708, -17879.62977643368, -6303.996599196983, -25456.267649682482, -0.19, 0.922, 0.304, 192.0, 0.0, 0.0, 0.0, 0.0, 0.0, 0.0, 0.0, 0.0, 0.0, 1.700950542080101E9, 0.0, 2023-11-25 17:15:42.080
36.0, 30000.109076512945, 39622.26684358917, -46376.13700343812, -41315.7020587566, -59319.763996572976, -17825.784424040845, -6199.122214212682, -25476.205405736615, -0.19, 0.922, 0.304, 192.0, 0.0, 0.0, 0.0, 0.0, 0.0, 0.0, 0.0, 0.0, 0.0, 1.700950542084062E9, 0.0, 2023-11-25 17:15:42.084
37.0, 29940.854601961924, 39518.845321994464, -46429.58002443076, -41396.14598705125, -59367.59672970733, -17893.756078929437, -6035.060409910729, -25548.356836838346, -0.2, 0.928, 0.302, 192.0, 249.0, 192.0, 29.0, 0.0, 9.0, 112.0, 0.0, 0.0, 0.0, 1.700950542088095E9, 0.0, 2023-11-25 17:15:42.088
38.0, 29916.53590399455, 39514.598490547956, -46428.395381974624, -41392.03326607147, -59387.17685785018, -17903.50143951195, -6151.580053756244, -25497.394859480246, -0.2, 0.928, 0.302, 192.0, 0.0, 0.0, 0.0, 0.0, 0.0, 0.0, 0.0, 0.0, 0.0, 1.700950542092096E9, 0.0, 2023-11-25 17:15:42.092
39.0, 29951.762253256114, 39599.51276773367, -46396.812367059276, -41338.92552124566, -59366.47914248457, -17859.82613084628, -6271.608921481243, -25417.062689907874, -0.2, 0.928, 0.302, 192.0, 0.0, 0.0, 0.0, 0.0, 0.0, 0.0, 0.0, 0.0, 0.0, 1.700950542108122E9, 0.0, 2023-11-25 17:15:42.108
40.0, 30003.88652132589, 39634.068564661575, -46357.83092472922, -41299.228823093035, -59309.191621445614, -17799.0517376723, -6223.329153457779, -25389.257119805472, -0.2, 0.928, 0.302, 192.0, 0.0, 0.0, 0.0, 0.0, 0.0, 0.0, 0.0, 0.0, 0.0, 1.700950542108204E9, 0.0, 2023-11-25 17:15:42.108
41.0, 29960.92646848279, 39539.29716817107, -46407.04946601981, -41371.156736750214, -59340.26054623849, -17837.943773024534, -5994.871973380086, -25459.732170073054, -0.2, 0.928, 0.302, 192.0, 0.0, 0.0, 0.0, 0.0, 0.0, 0.0, 0.0, 0.0, 0.0, 1.700950542108234E9, 0.0, 2023-11-25 17:15:42.108
42.0, 29911.39500276983, 39495.73361822768, -46430.719963397976, -41405.46666448911, -59391.91542767471, -17900.260436565928, -6107.211841012459, -25478.6640976267, -0.2, 0.928, 0.302, 192.0, 0.0, 0.0, 0.0, 0.0, 0.0, 0.0, 0.0, 0.0, 0.0, 1.700950542108263E9, 0.0, 2023-11-25 17:15:42.108
43.0, 29943.2685903631, 39575.194069766294, -46408.971716042965, -41363.691254102145, -59382.57239849239, -17878.087506066266, -6250.978261348994, -25454.74773105952, -0.2, 0.928, 0.302, 192.0, 0.0, 0.0, 0.0, 0.0, 0.0, 0.0, 0.0, 0.0, 0.0, 1.700950542112772E9, 0.0, 2023-11-25 17:15:42.112
44.0, 30001.36077420244, 39632.92862569435, -46364.089413176705, -41316.08203841234, -59332.86211882379, -17832.15467121061, -6281.466040786033, -25425.690463267623, -0.2, 0.928, 0.302, 192.0, 0.0, 0.0, 0.0, 0.0, 0.0, 0.0, 0.0, 0.0, 0.0, 1.700950542117509E9, 0.0, 2023-11-25 17:15:42.117
45.0, 29971.990581988168, 39550.16011597635, -46408.56938464277, -41373.01193154001, -59346.943717830625, -17844.49283414994, -6032.422904065002, -25479.46876042709, -0.2, 0.928, 0.302, 192.0, 0.0, 0.0, 0.0, 0.0, 0.0, 0.0, 0.0, 0.0, 0.0, 1.70095054212026E9, 0.0, 2023-11-25 17:15:42.120
46.0, 29903.43778174374, 39475.46058600672, -46444.5109897269, -41424.71151646513, -59409.84152672786, -17926.59079153428, -6116.621925428143, -25507.676661929687, -0.2, 0.928, 0.302, 192.0, 0.0, 0.0, 0.0, 0.0, 0.0, 0.0, 0.0, 0.0, 0.0, 1.700950542125203E9, 0.0, 2023-11-25 17:15:42.125
47.0, 29916.98293888366, 39539.52068561562, -46436.017326833884, -41388.658152658725, -59409.886230216776, -17905.73661395748, -6246.753781646941, -25483.46972268459, -0.20400000000000001, 0.924, 0.302, 192.0, 249.0, 160.0, 28.0, 224.0, 9.0, 112.0, 0.0, 0.0, 0.0, 1.700950542129251E9, 0.0, 2023-11-25 17:15:42.129
48.0, 29971.141215698866, 39617.19299759781, -46390.06214023378, -41333.784620020946, -59364.9592238616, -17866.732819882967, -6330.550471609888, -25446.32112339987, -0.20400000000000001, 0.924, 0.302, 192.0, 0.0, 0.0, 0.0, 0.0, 0.0, 0.0, 0.0, 0.0, 0.0, 1.700950542132304E9, 0.0, 2023-11-25 17:15:42.132
49.0, 29967.900212752847, 39562.341816704495, -46413.21854748947, -41367.401643681726, -59349.29065099844, -17848.58320338526, -6073.684224329499, -25479.513463916002, -0.20400000000000001, 0.924, 0.302, 192.0, 0.0, 0.0, 0.0, 0.0, 0.0, 0.0, 0.0, 0.0, 0.0, 1.700950542136392E9, 0.0, 2023-11-25 17:15:42.136
50.0, 29892.66424091628, 39469.358559770415, -46457.363242788706, -41436.334423581895, -59417.30700937594, -17940.7841492634, -6092.68320711651, -25510.314167775414, -0.20400000000000001, 0.924, 0.302, 192.0, 0.0, 0.0, 0.0, 0.0, 0.0, 0.0, 0.0, 0.0, 0.0, 1.700950542140213E9, 0.0, 2023-11-25 17:15:42.140
51.0, 29905.20356955571, 39519.38176386139, -46446.165018816595, -41403.5220627215, -59417.66463728722, -17926.50138455646, -6230.1240837721925, -25492.85745535582, -0.20400000000000001, 0.924, 0.302, 192.0, 0.0, 0.0, 0.0, 0.0, 0.0, 0.0, 0.0, 0.0, 0.0, 1.700950542144216E9, 0.0, 2023-11-25 17:15:42.144
52.0, 29964.346285384454, 39606.46416025927, -46396.0524077478, -41342.926483503164, -59375.263378055504, -17888.123439326697, -6343.738000838519, -25440.733187286045, -0.20400000000000001, 0.924, 0.302, 192.0, 0.0, 0.0, 0.0, 0.0, 0.0, 0.0, 0.0, 0.0, 0.0, 1.700950542150291E9, 0.0, 2023-11-25 17:15:42.150
53.0, 29987.88267229589, 39582.01135182516, -46398.53345138234, -41349.94493126213, -59335.52197641397, -17845.208089972508, -6119.661762674065, -25468.158777732704, -0.20400000000000001, 0.924, 0.302, 192.0, 0.0, 0.0, 0.0, 0.0, 0.0, 0.0, 0.0, 0.0, 0.0, 1.700950542153327E9, 0.0, 2023-11-25 17:15:42.153
54.0, 29914.07721210447, 39485.228298333685, -46449.160152573604, -41425.89615892126, -59399.246799856046, -17934.45860558255, -6075.606474352655, -25519.813659168918, -0.20400000000000001, 0.924, 0.302, 192.0, 0.0, 0.0, 0.0, 0.0, 0.0, 0.0, 0.0, 0.0, 0.0, 1.700950542156241E9, 0.0, 2023-11-25 17:15:42.156
55.0, 29913.987805126646, 39520.83462725099, -46443.99689960443, -41400.30341151993, -59404.275942358494, -17924.512079299937, -6203.637266592654, -25499.674737414687, -0.20400000000000001, 0.924, 0.302, 192.0, 0.0, 0.0, 0.0, 0.0, 0.0, 0.0, 0.0, 0.0, 0.0, 1.700950542159278E9, 0.0, 2023-11-25 17:15:42.159
56.0, 29960.25591614913, 39605.257166058684, -46401.05919850578, -41341.49597185802, -59373.31877628789, -17891.25268355044, -6334.417323400656, -25446.49993735551, -0.20400000000000001, 0.924, 0.302, 192.0, 0.0, 0.0, 0.0, 0.0, 0.0, 0.0, 0.0, 0.0, 0.0, 1.700950542164264E9, 0.0, 2023-11-25 17:15:42.164
57.0, 29995.549320644062, 39604.67602070284, -46384.4965558644, -41327.86140774029, -59321.5521361294, -17831.685284577048, -6156.8103619587855, -25439.235620407537, -0.20400000000000001, 0.924, 0.3, 192.0, 249.0, 160.0, 28.0, 224.0, 9.0, 96.0, 0.0, 0.0, 0.0, 1.700950542168337E9, 0.0, 2023-11-25 17:15:42.168
58.0, 29930.438689045754, 39505.05429566554, -46431.077591309266, -41407.09834183435, -59376.76094493401, -17913.40326230565, -6047.979718205896, -25509.174228808195, -0.20400000000000001, 0.924, 0.3, 192.0, 0.0, 0.0, 0.0, 0.0, 0.0, 0.0, 0.0, 0.0, 0.0, 1.700950542173267E9, 0.0, 2023-11-25 17:15:42.173
59.0, 29912.177313825767, 39515.224339392706, -46432.86573086569, -41400.1693010532, -59396.653997499234, -17925.45085256706, -6173.46241157799, -25504.212141539116, -0.20400000000000001, 0.924, 0.3, 192.0, 0.0, 0.0, 0.0, 0.0, 0.0, 0.0, 0.0, 0.0, 0.0, 1.700950542176359E9, 0.0, 2023-11-25 17:15:42.176
60.0, 29949.281209621575, 39595.80237815409, -46398.488747893425, -41346.636873082745, -59376.62683446728, -17893.06317485132, -6313.116110934748, -25442.163698931185, -0.20400000000000001, 0.924, 0.3, 192.0, 0.0, 0.0, 0.0, 0.0, 0.0, 0.0, 0.0, 0.0, 0.0, 1.700950542179525E9, 0.0, 2023-11-25 17:15:42.179
61.0, 29982.630012348895, 39603.78195092463, -46381.300256407296, -41328.3531461183, -59331.96804904557, -17837.899069535622, -6200.731539813464, -25428.059748179883, -0.20400000000000001, 0.924, 0.3, 192.0, 0.0, 0.0, 0.0, 0.0, 0.0, 0.0, 0.0, 0.0, 0.0, 1.700950542183574E9, 0.0, 2023-11-25 17:15:42.183
62.0, 29925.700119221226, 39504.69666775426, -46427.94834708552, -41400.34811500885, -59371.12830533127, -17890.31391028332, -6024.510386527823, -25471.891519056742, -0.20400000000000001, 0.924, 0.3, 192.0, 0.0, 0.0, 0.0, 0.0, 0.0, 0.0, 0.0, 0.0, 0.0, 1.700950542187339E9, 0.0, 2023-11-25 17:15:42.187
63.0, 29894.228863028155, 39492.40320830384, -46433.446876221526, -41407.21010055663, -59400.87847720129, -17918.477108297004, -6143.041687374317, -25470.79628357843, -0.20400000000000001, 0.924, 0.3, 192.0, 0.0, 0.0, 0.0, 0.0, 0.0, 0.0, 0.0, 0.0, 0.0, 1.70095054219245E9, 0.0, 2023-11-25 17:15:42.192
64.0, 29928.02470064458, 39573.02595055413, -46404.81429157428, -41362.41720466819, -59388.45090728413, -17897.935855142576, -6285.399947810167, -25453.69719907012, -0.20400000000000001, 0.924, 0.3, 192.0, 0.0, 0.0, 0.0, 0.0, 0.0, 0.0, 0.0, 0.0, 0.0, 1.70095054219639E9, 0.0, 2023-11-25 17:15:42.196
65.0, 29990.520178141618, 39623.295023834115, -46359.194381140995, -41314.78563723393, -59326.55892688739, -17831.0594357323, -6242.842226367263, -25419.499030053503, -0.20400000000000001, 0.924, 0.3, 192.0, 0.0, 0.0, 0.0, 0.0, 0.0, 0.0, 0.0, 0.0, 0.0, 1.700950542200411E9, 0.0, 2023-11-25 17:15:42.200
66.0, 29936.339549581953, 39520.07466793951, -46420.706381882, -41395.40837948422, -59366.30032852892, -17875.785276387367, -6007.388950275058, -25489.415286709704, -0.20400000000000001, 0.924, 0.3, 192.0, 0.0, 0.0, 0.0, 0.0, 0.0, 0.0, 0.0, 0.0, 0.0, 1.700950542204369E9, 0.0, 2023-11-25 17:15:42.204
67.0, 29892.954813594202, 39481.98729538766, -46433.04454482133, -41415.413190771724, -59404.81238422542, -17921.382835076194, -6111.235155014415, -25462.056751496406, -0.196, 0.924, 0.298, 192.0, 249.0, 224.0, 28.0, 224.0, 9.0, 80.0, 0.0, 0.0, 0.0, 1.700950542208421E9, 0.0, 2023-11-25 17:15:42.208
68.0, 29929.410508800807, 39565.64987488388, -46403.98727702943, -41360.60671336731, -59384.13702060426, -17886.73763117047, -6241.724639144497, -25421.577742287845, -0.196, 0.924, 0.298, 192.0, 0.0, 0.0, 0.0, 0.0, 0.0, 0.0, 0.0, 0.0, 0.0, 1.700950542211443E9, 0.0, 2023-11-25 17:15:42.211
69.0, 29989.380239174396, 39631.27459660466, -46359.59671254119, -41310.51645404297, -59331.923345556665, -17839.262525947397, -6274.000558137961, -25391.715811695554, -0.196, 0.924, 0.298, 192.0, 0.0, 0.0, 0.0, 0.0, 0.0, 0.0, 0.0, 0.0, 0.0, 1.70095054221681E9, 0.0, 2023-11-25 17:15:42.216
70.0, 29962.580497572482, 39553.75874683366, -46405.395436930114, -41367.49105065955, -59345.58026141886, -17849.901956308124, -6028.198424362949, -25449.964457746086, -0.196, 0.924, 0.298, 192.0, 0.0, 0.0, 0.0, 0.0, 0.0, 0.0, 0.0, 0.0, 0.0, 1.700950542220448E9, 0.0, 2023-11-25 17:15:42.220
71.0, 29898.0063078411, 39482.52373725459, -46437.51489371239, -41417.648365217254, -59403.158355135725, -17930.83762298079, -6107.949448579485, -25481.972155806085, -0.196, 0.924, 0.298, 192.0, 0.0, 0.0, 0.0, 0.0, 0.0, 0.0, 0.0, 0.0, 0.0, 1.70095054222546E9, 0.0, 2023-11-25 17:15:42.225
72.0, 29927.130630866366, 39553.736395089196, -46414.649059134616, -41369.68152161616, -59388.964997406605, -17900.886285410677, -6239.847092610252, -25455.664152582187, -0.196, 0.924, 0.298, 192.0, 0.0, 0.0, 0.0, 0.0, 0.0, 0.0, 0.0, 0.0, 0.0, 1.700950542228468E9, 0.0, 2023-11-25 17:15:42.228
73.0, 29989.13436998539, 39630.76050648219, -46368.6938725345, -41313.153959888696, -59344.775598618464, -17860.586090157758, -6324.649611073686, -25409.708965982078, -0.196, 0.924, 0.298, 192.0, 0.0, 0.0, 0.0, 0.0, 0.0, 0.0, 0.0, 0.0, 0.0, 1.700950542232494E9, 0.0, 2023-11-25 17:15:42.232
74.0, 29983.36761991592, 39576.19989826679, -46402.93674504003, -41354.23646619755, -59338.159482259696, -17848.449092918527, -6076.858172042153, -25464.582498619857, -0.196, 0.924, 0.298, 192.0, 0.0, 0.0, 0.0, 0.0, 0.0, 0.0, 0.0, 0.0, 0.0, 1.700950542238473E9, 0.0, 2023-11-25 17:15:42.238
75.0, 29924.269607576087, 39498.84051070696, -46432.753972143415, -41413.55799598194, -59394.08354688687, -17935.822061994324, -6099.276971730826, -25498.57950193638, -0.196, 0.924, 0.298, 192.0, 0.0, 0.0, 0.0, 0.0, 0.0, 0.0, 0.0, 0.0, 0.0, 1.700950542241465E9, 0.0, 2023-11-25 17:15:42.241
76.0, 29932.427994302274, 39548.81901130903, -46421.44398944903, -41381.48324268857, -59393.41299455321, -17910.810459948832, -6209.806348062319, -25457.876975283263, -0.196, 0.924, 0.298, 192.0, 0.0, 0.0, 0.0, 0.0, 0.0, 0.0, 0.0, 0.0, 0.0, 1.700950542244527E9, 0.0, 2023-11-25 17:15:42.244
77.0, 29990.27430895261, 39637.53308505214, -46368.8950382346, -41320.15005590321, -59351.212901021594, -17876.612290932215, -6337.211291457569, -25410.11129738227, -0.2, 0.92, 0.298, 192.0, 249.0, 192.0, 28.0, 192.0, 9.0, 80.0, 0.0, 0.0, 0.0, 1.700950542247471E9, 0.0, 2023-11-25 17:15:42.247
78.0, 29997.225701478208, 39600.11626483396, -46383.04369247481, -41338.21026542309, -59326.15659548719, -17839.9107265366, -6114.029123071328, -25451.573783346867, -0.2, 0.92, 0.298, 192.0, 0.0, 0.0, 0.0, 0.0, 0.0, 0.0, 0.0, 0.0, 0.0, 1.700950542252586E9, 0.0, 2023-11-25 17:15:42.252
79.0, 29916.35709003891, 39493.744312971154, -46436.77728614536, -41421.090533863375, -59396.83281145487, -17934.816233493835, -6069.415041138535, -25499.58533043687, -0.2, 0.92, 0.298, 192.0, 0.0, 0.0, 0.0, 0.0, 0.0, 0.0, 0.0, 0.0, 0.0, 1.700950542256516E9, 0.0, 2023-11-25 17:15:42.256
80.0, 29915.150095838322, 39529.685918055286, -46427.94834708552, -41393.6202399278, -59401.057291156925, -17916.845430951766, -6192.7296152984645, -25458.61458285029, -0.2, 0.92, 0.298, 192.0, 0.0, 0.0, 0.0, 0.0, 0.0, 0.0, 0.0, 0.0, 0.0, 1.700950542260536E9, 0.0, 2023-11-25 17:15:42.260
81.0, 29964.860375506923, 39619.04819238761, -46382.820175030254, -41334.61163456579, -59369.675441941676, -17879.070982822297, -6323.2190994285465, -25401.058840877875, -0.2, 0.92, 0.298, 192.0, 0.0, 0.0, 0.0, 0.0, 0.0, 0.0, 0.0, 0.0, 0.0, 1.700950542263721E9, 0.0, 2023-11-25 17:15:42.263
82.0, 29996.756314844646, 39613.63907022942, -46372.87364874764, -41328.12962867375, -59325.486043153534, -17822.208144927998, -6155.178684613548, -25407.473791536548, -0.2, 0.92, 0.298, 192.0, 0.0, 0.0, 0.0, 0.0, 0.0, 0.0, 0.0, 0.0, 0.0, 1.700950542267622E9, 0.0, 2023-11-25 17:15:42.267
83.0, 29922.816744186493, 39504.383743331884, -46430.51879769788, -41415.346135538355, -59387.6685962282, -17905.133116857185, -6032.6017180206445, -25482.642708139745, -0.2, 0.92, 0.298, 192.0, 0.0, 0.0, 0.0, 0.0, 0.0, 0.0, 0.0, 0.0, 0.0, 1.700950542271562E9, 0.0, 2023-11-25 17:15:42.271
84.0, 29903.504836977107, 39508.18353988928, -46429.468265708485, -41408.014763357016, -59406.309951103925, -17915.727843729, -6159.067888148772, -25472.249146968028, -0.2, 0.92, 0.298, 192.0, 0.0, 0.0, 0.0, 0.0, 0.0, 0.0, 0.0, 0.0, 0.0, 1.700950542275686E9, 0.0, 2023-11-25 17:15:42.275
85.0, 29937.07715714898, 39583.866546614954, -46397.48291939294, -41358.036262754955, -59384.360538048815, -17887.9222736266, -6304.287171874902, -25423.298826610902, -0.2, 0.92, 0.298, 192.0, 0.0, 0.0, 0.0, 0.0, 0.0, 0.0, 0.0, 0.0, 0.0, 1.70095054228055E9, 0.0, 2023-11-25 17:15:42.280
86.0, 29986.78743681758, 39606.97825038174, -46363.687081776516, -41322.96637570457, -59323.49673789701, -17822.275200161363, -6206.61004860521, -25406.244445591503, -0.2, 0.92, 0.298, 192.0, 0.0, 0.0, 0.0, 0.0, 0.0, 0.0, 0.0, 0.0, 0.0, 1.70095054228465E9, 0.0, 2023-11-25 17:15:42.284
87.0, 29937.05480540452, 39511.53630155758, -46411.43040793305, -41394.804882383934, -59361.47235172658, -17879.294500266853, -6022.029342893284, -25480.51929241649, -0.198, 0.92, 0.298, 192.0, 249.0, 208.0, 28.0, 192.0, 9.0, 80.0, 0.0, 0.0, 0.0, 1.700950542288598E9, 0.0, 2023-11-25 17:15:42.288
88.0, 29911.19383706973, 39502.640307264366, -46413.62087888967, -41396.03422832897, -59384.69581421564, -17902.607369733738, -6128.468349989456, -25450.187975190638, -0.198, 0.92, 0.298, 192.0, 0.0, 0.0, 0.0, 0.0, 0.0, 0.0, 0.0, 0.0, 0.0, 1.700950542292595E9, 0.0, 2023-11-25 17:15:42.292
89.0, 29941.569857784496, 39581.78783438061, -46391.20207920099, -41349.90022777322, -59373.095258843336, -17878.802761888834, -6261.193008565069, -25409.664262493166, -0.198, 0.92, 0.298, 192.0, 0.0, 0.0, 0.0, 0.0, 0.0, 0.0, 0.0, 0.0, 0.0, 1.700950542296592E9, 0.0, 2023-11-25 17:15:42.296
90.0, 29999.013841034634, 39627.09482039152, -46350.43249731451, -41302.49217778351, -59315.293647681916, -17821.58229608325, -6240.383534477179, -25374.8402446318, -0.198, 0.92, 0.298, 192.0, 0.0, 0.0, 0.0, 0.0, 0.0, 0.0, 0.0, 0.0, 0.0, 1.700950542301595E9, 0.0, 2023-11-25 17:15:42.301
91.0, 29956.45611959173, 39533.753935546156, -46403.89787005161, -41371.29084721695, -59343.658011395695, -17857.43449418956, -6010.80876717672, -25449.42801587916, -0.198, 0.92, 0.298, 192.0, 0.0, 0.0, 0.0, 0.0, 0.0, 0.0, 0.0, 0.0, 0.0, 1.700950542304613E9, 0.0, 2023-11-25 17:15:42.304
92.0, 29911.283244047554, 39494.884251938376, -46420.12523652616, -41399.990487097566, -59386.90863691672, -17921.78516647639, -6121.6510679305875, -25478.820559837888, -0.198, 0.92, 0.298, 192.0, 0.0, 0.0, 0.0, 0.0, 0.0, 0.0, 0.0, 0.0, 0.0, 1.700950542308583E9, 0.0, 2023-11-25 17:15:42.308
93.0, 29946.822517731493, 39578.36801747895, -46388.98925649992, -41346.10043121582, -59365.38390700625, -17883.697793924548, -6245.56913919081, -25425.690463267623, -0.198, 0.92, 0.298, 192.0, 0.0, 0.0, 0.0, 0.0, 0.0, 0.0, 0.0, 0.0, 0.0, 1.700950542312648E9, 0.0, 2023-11-25 17:15:42.312
94.0, 30008.80390510606, 39644.64093978894, -46343.10112513317, -41292.56800324536, -59311.225630191046, -17831.886450277147, -6284.952912921061, -25382.35043076878, -0.198, 0.92, 0.298, 192.0, 0.0, 0.0, 0.0, 0.0, 0.0, 0.0, 0.0, 0.0, 0.0, 1.700950542316656E9, 0.0, 2023-11-25 17:15:42.316
95.0, 29985.513387383628, 39566.36513070645, -46387.62580008815, -41348.04503298343, -59319.763996572976, -17835.686246834546, -6028.5560522742335, -25433.17829766015, -0.198, 0.92, 0.298, 192.0, 0.0, 0.0, 0.0, 0.0, 0.0, 0.0, 0.0, 0.0, 0.0, 1.700950542319649E9, 0.0, 2023-11-25 17:15:42.319
96.0, 29914.54659873803, 39490.90564142533, -46425.84728310672, -41406.539548222965, -59388.22738983958, -17926.16610838963, -6103.792024110798, -25466.348286431825, -0.198, 0.92, 0.298, 192.0, 0.0, 0.0, 0.0, 0.0, 0.0, 0.0, 0.0, 0.0, 0.0, 1.700950542323673E9, 0.0, 2023-11-25 17:15:42.323
97.0, 29939.468793805696, 39562.92296206033, -46402.84733806221, -41357.879800543764, -59375.330433288866, -17893.867837651713, -6235.37674371919, -25421.354224843293, -0.19, 0.92, 0.304, 192.0, 250.0, 16.0, 28.0, 192.0, 9.0, 128.0, 0.0, 0.0, 0.0, 1.700950542327712E9, 0.0, 2023-11-25 17:15:42.327
98.0, 29994.856416565948, 39642.29400662112, -46353.807610727265, -41300.18994810462, -59329.956392044594, -17854.215842987996, -6330.103436720781, -25376.02488708793, -0.19, 0.92, 0.304, 192.0, 0.0, 0.0, 0.0, 0.0, 0.0, 0.0, 0.0, 0.0, 0.0, 1.700950542331912E9, 0.0, 2023-11-25 17:15:42.331
99.0, 29993.78353283209, 39595.13182582043, -46376.382872627124, -41332.68938454263, -59315.18188895964, -17832.825223544267, -6082.91549478954, -25430.09375692532, -0.19, 0.92, 0.304, 192.0, 0.0, 0.0, 0.0, 0.0, 0.0, 0.0, 0.0, 0.0, 0.0, 1.700950542335673E9, 0.0, 2023-11-25 17:15:42.335
100.0, 29914.25602606011, 39497.63351650638, -46421.9580795715, -41405.44431274466, -59386.03691888296, -17924.288561855385, -6086.87175355813, -25468.426998666167, -0.19, 0.92, 0.304, 192.0, 0.0, 0.0, 0.0, 0.0, 0.0, 0.0, 0.0, 0.0, 0.0, 1.700950542340819E9, 0.0, 2023-11-25 17:15:42.340
101.0, 29925.76717445459, 39547.34379617498, -46409.08347476524, -41371.62612338378, -59384.360538048815, -17903.38968078967, -6216.288353954358, -25443.013065220486, -0.19, 0.92, 0.304, 192.0, 0.0, 0.0, 0.0, 0.0, 0.0, 0.0, 0.0, 0.0, 0.0, 1.700950542344332E9, 0.0, 2023-11-25 17:15:42.344
102.0, 29977.13148321289, 39624.99375641272, -46364.26822713235, -41318.22780588005, -59350.8105696214, -17873.997136830945, -6342.374544426745, -25403.56223625687, -0.19, 0.92, 0.304, 192.0, 0.0, 0.0, 0.0, 0.0, 0.0, 0.0, 0.0, 0.0, 0.0, 1.700950542348447E9, 0.0, 2023-11-25 17:15:42.348
103.0, 29990.31901244152, 39590.32620076254, -46372.53837258081, -41331.59414906432, -59320.233383206534, -17829.450110131518, -6121.561660952766, -25411.094774138306, -0.19, 0.92, 0.304, 192.0, 0.0, 0.0, 0.0, 0.0, 0.0, 0.0, 0.0, 0.0, 0.0, 1.700950542351731E9, 0.0, 2023-11-25 17:15:42.351
104.0, 29914.770116182583, 39481.24968782064, -46425.266137750885, -41414.183844826686, -59389.27792182898, -17921.718111243023, -6061.4801718569015, -25460.626239851266, -0.19, 0.92, 0.304, 192.0, 0.0, 0.0, 0.0, 0.0, 0.0, 0.0, 0.0, 0.0, 0.0, 1.700950542355776E9, 0.0, 2023-11-25 17:15:42.355
105.0, 29912.87021790388, 39513.43619983628, -46417.06304753578, -41392.03326607147, -59396.49753528804, -17914.11851812822, -6187.253437906914, -25441.56020183089, -0.19, 0.92, 0.304, 192.0, 0.0, 0.0, 0.0, 0.0, 0.0, 0.0, 0.0, 0.0, 0.0, 1.700950542360074E9, 0.0, 2023-11-25 17:15:42.360
106.0, 29959.9206399823, 39602.396142768404, -46375.30998889327, -41337.24914041151, -59370.39069776425, -17885.664747436615, -6330.863396032262, -25401.014137388964, -0.19, 0.92, 0.304, 192.0, 0.0, 0.0, 0.0, 0.0, 0.0, 0.0, 0.0, 0.0, 0.0, 1.700950542363768E9, 0.0, 2023-11-25 17:15:42.363
107.0, 29988.50852114064, 39596.60704095448, -46367.77745101183, -41331.59414906432, -59329.93404030014, -17832.24407818843, -6171.920141210573, -25408.591378759313, -0.194, 0.924, 0.296, 192.0, 249.0, 240.0, 28.0, 224.0, 9.0, 64.0, 0.0, 0.0, 0.0, 1.700950542368749E9, 0.0, 2023-11-25 17:15:42.368
108.0, 29920.1121831074, 39489.60924024692, -46419.23116674795, -41413.33447853738, -59384.561703748914, -17907.010663391433, -6036.7144390004205, -25466.772969576476, -0.194, 0.924, 0.296, 192.0, 0.0, 0.0, 0.0, 0.0, 0.0, 0.0, 0.0, 0.0, 0.0, 1.700950542372796E9, 0.0, 2023-11-25 17:15:42.372
109.0, 29894.2065112837, 39490.682123980776, -46424.57323367277, -41410.22758605809, -59407.38283483778, -17923.014512421432, -6163.515885295378, -25463.12963523026, -0.194, 0.924, 0.296, 192.0, 0.0, 0.0, 0.0, 0.0, 0.0, 0.0, 0.0, 0.0, 0.0, 1.700950542375801E9, 0.0, 2023-11-25 17:15:42.375
110.0, 29934.81963095899, 39577.853927356475, -46389.65980883358, -41357.119841232285, -59382.4159362812, -17897.600578975747, -6304.488337575, -25429.64672203621, -0.194, 0.924, 0.296, 192.0, 0.0, 0.0, 0.0, 0.0, 0.0, 0.0, 0.0, 0.0, 0.0, 1.700950542379759E9, 0.0, 2023-11-25 17:15:42.379
111.0, 29983.054695493545, 39606.17358758135, -46355.41693632805, -41325.67093678367, -59322.8038338189, -17836.066226490286, -6212.220336463492, -25412.681747994633, -0.194, 0.924, 0.296, 192.0, 0.0, 0.0, 0.0, 0.0, 0.0, 0.0, 0.0, 0.0, 0.0, 1.700950542383783E9, 0.0, 2023-11-25 17:15:42.383
112.0, 29930.416337301296, 39507.33417359998, -46405.50719565239, -41399.36463825282, -59359.21482553659, -17885.284767780875, -6018.09543586915, -25456.871146782774, -0.194, 0.924, 0.296, 192.0, 0.0, 0.0, 0.0, 0.0, 0.0, 0.0, 0.0, 0.0, 0.0, 1.700950542387837E9, 0.0, 2023-11-25 17:15:42.387
113.0, 29899.325060763964, 39493.63255424888, -46409.50815790989, -41405.511367978026, -59386.50630551652, -17917.22541060751, -6130.4576552459785, -25440.241448908026, -0.194, 0.924, 0.296, 192.0, 0.0, 0.0, 0.0, 0.0, 0.0, 0.0, 0.0, 0.0, 0.0, 1.700950542391841E9, 0.0, 2023-11-25 17:15:42.391
114.0, 29940.1169943949, 39579.820880868545, -46378.97567498394, -41350.92840801816, -59368.17787506317, -17888.145791071154, -6265.305729544846, -25396.5437884979, -0.194, 0.924, 0.296, 192.0, 0.0, 0.0, 0.0, 0.0, 0.0, 0.0, 0.0, 0.0, 0.0, 1.700950542396875E9, 0.0, 2023-11-25 17:15:42.396
115.0, 30005.27232948212, 39634.11326815048, -46333.35576455066, -41299.6982097266, -59305.36947314376, -17826.90201126361, -6250.464171226522, -25364.267869504438, -0.194, 0.924, 0.296, 192.0, 0.0, 0.0, 0.0, 0.0, 0.0, 0.0, 0.0, 0.0, 0.0, 1.700950542399847E9, 0.0, 2023-11-25 17:15:42.399
116.0, 29965.50857609613, 39541.91232227234, -46385.5470878538, -41367.468698915094, -59331.16338624518, -17856.026334288876, -6014.832081178675, -25437.358073873293, -0.194, 0.924, 0.296, 192.0, 0.0, 0.0, 0.0, 0.0, 0.0, 0.0, 0.0, 0.0, 0.0, 1.700950542402826E9, 0.0, 2023-11-25 17:15:42.402
117.0, 29910.97031962518, 39489.25161233564, -46410.37987594365, -41404.05850458843, -59383.42176478169, -17920.26524785343, -6120.935812108018, -25449.338608901337, -0.198, 0.922, 0.302, 192.0, 249.0, 208.0, 28.0, 208.0, 9.0, 112.0, 0.0, 0.0, 0.0, 1.700950542407888E9, 0.0, 2023-11-25 17:15:42.407
118.0, 29944.788508986057, 39570.589610408504, -46385.770605298356, -41354.61644585329, -59367.48497098505, -17891.0738695948, -6265.551598733855, -25432.239524393026, -0.198, 0.922, 0.302, 192.0, 0.0, 0.0, 0.0, 0.0, 0.0, 0.0, 0.0, 0.0, 0.0, 1.700950542412135E9, 0.0, 2023-11-25 17:15:42.412
119.0, 30001.78545734709, 39637.30956760759, -46343.30229083327, -41303.83328245083, -59317.32765642735, -17846.6609533621, -6311.5961923117875, -25407.764364214465, -0.198, 0.922, 0.302, 192.0, 0.0, 0.0, 0.0, 0.0, 0.0, 0.0, 0.0, 0.0, 0.0, 1.700950542415869E9, 0.0, 2023-11-25 17:15:42.415
120.0, 29980.797169303558, 39563.459403927256, -46384.76477679787, -41354.728204575564, -59320.79217681792, -17844.537537638847, -6051.980680463395, -25447.394007133724, -0.198, 0.922, 0.302, 192.0, 0.0, 0.0, 0.0, 0.0, 0.0, 0.0, 0.0, 0.0, 0.0, 1.700950542419992E9, 0.0, 2023-11-25 17:15:42.419
121.0, 29919.68749996275, 39491.866766436906, -46410.35752419919, -41398.04588532995, -59372.02237510948, -17913.336207072283, -6108.4411869575015, -25440.666132052676, -0.198, 0.922, 0.302, 192.0, 0.0, 0.0, 0.0, 0.0, 0.0, 0.0, 0.0, 0.0, 0.0, 1.70095054242492E9, 0.0, 2023-11-25 17:15:42.424
122.0, 29939.245276361144, 39555.07749975652, -46392.207907701486, -41354.50468713101, -59362.58993894934, -17881.104991567732, -6232.314554728813, -25388.251291304983, -0.198, 0.922, 0.302, 192.0, 0.0, 0.0, 0.0, 0.0, 0.0, 0.0, 0.0, 0.0, 0.0, 1.700950542427944E9, 0.0, 2023-11-25 17:15:42.427
123.0, 29989.961384530234, 39628.83825645903, -46351.05834615926, -41306.38138131874, -59326.35776118729, -17853.366476698695, -6331.466893132555, -25360.19985201357, -0.198, 0.922, 0.302, 192.0, 0.0, 0.0, 0.0, 0.0, 0.0, 0.0, 0.0, 0.0, 0.0, 1.700950542431007E9, 0.0, 2023-11-25 17:15:42.431
124.0, 29995.191692732777, 39582.614848925456, -46368.73857602341, -41334.27635839896, -59306.86704002226, -17836.42385440157, -6094.5384019063, -25417.017986418963, -0.198, 0.922, 0.302, 192.0, 0.0, 0.0, 0.0, 0.0, 0.0, 0.0, 0.0, 0.0, 0.0, 1.700950542436037E9, 0.0, 2023-11-25 17:15:42.436
125.0, 29921.989729641646, 39491.10680712543, -46408.770550342866, -41403.45500748813, -59372.245892554034, -17927.529564801403, -6096.594762396188, -25455.08300722635, -0.198, 0.922, 0.302, 192.0, 0.0, 0.0, 0.0, 0.0, 0.0, 0.0, 0.0, 0.0, 0.0, 1.70095054243996E9, 0.0, 2023-11-25 17:15:42.439
126.0, 29915.53007549406, 39528.30010989906, -46411.27394572186, -41385.86418460181, -59385.254607827024, -17915.861954195734, -6218.27765921088, -25433.98296046054, -0.198, 0.922, 0.302, 192.0, 0.0, 0.0, 0.0, 0.0, 0.0, 0.0, 0.0, 0.0, 0.0, 1.700950542443988E9, 0.0, 2023-11-25 17:15:42.443
127.0, 29965.26270690712, 39608.67698296034, -46369.7444045239, -41333.002308965006, -59357.002002835514, -17885.217712547506, -6352.768105598463, -25387.960718627062, -0.196, 0.924, 0.302, 192.0, 249.0, 224.0, 28.0, 224.0, 9.0, 112.0, 0.0, 0.0, 0.0, 1.700950542448816E9, 0.0, 2023-11-25 17:15:42.448
128.0, 29993.671774109815, 39591.68965717431, -46365.67638703303, -41332.68938454263, -59318.31113318338, -17833.652238089115, -6145.187454842026, -25404.858637435274, -0.196, 0.924, 0.302, 192.0, 0.0, 0.0, 0.0, 0.0, 0.0, 0.0, 0.0, 0.0, 0.0, 1.700950542452099E9, 0.0, 2023-11-25 17:15:42.452
129.0, 29915.86535166089, 39484.98242914467, -46418.627669647656, -41413.37918202629, -59384.60640723782, -17918.49946004146, -6068.252750426859, -25453.13840545874, -0.196, 0.924, 0.302, 192.0, 0.0, 0.0, 0.0, 0.0, 0.0, 0.0, 0.0, 0.0, 0.0, 1.7009505424561E9, 0.0, 2023-11-25 17:15:42.456
130.0, 29904.331851521954, 39508.13883640037, -46418.538262669834, -41395.67660041769, -59398.35273007784, -17911.905695427144, -6188.728653040964, -25420.773079487455, -0.196, 0.924, 0.302, 192.0, 0.0, 0.0, 0.0, 0.0, 0.0, 0.0, 0.0, 0.0, 0.0, 1.700950542461068E9, 0.0, 2023-11-25 17:15:42.461
131.0, 29943.87208746339, 39586.235831527214, -46381.41201512957, -41347.329777160856, -59376.716241445094, -17888.68223293808, -6329.656401831675, -25382.573948213336, -0.196, 0.924, 0.302, 192.0, 0.0, 0.0, 0.0, 0.0, 0.0, 0.0, 0.0, 0.0, 0.0, 1.700950542466077E9, 0.0, 2023-11-25 17:15:42.466
132.0, 29983.278212938098, 39589.87916587343, -46359.350843352186, -41330.02952695245, -59323.47438615256, -17830.67945607656, -6185.085318694749, -25384.362087769758, -0.196, 0.924, 0.302, 192.0, 0.0, 0.0, 0.0, 0.0, 0.0, 0.0, 0.0, 0.0, 0.0, 1.700950542469262E9, 0.0, 2023-11-25 17:15:42.469
133.0, 29913.518418493084, 39478.790995930554, -46413.66558237858, -41414.586176226876, -59376.42566876718, -17906.764794202423, -6043.15174140355, -25449.964457746086, -0.196, 0.924, 0.302, 192.0, 0.0, 0.0, 0.0, 0.0, 0.0, 0.0, 0.0, 0.0, 0.0, 1.700950542472064E9, 0.0, 2023-11-25 17:15:42.472
134.0, 29885.645793157317, 39476.89109765185, -46424.39441971713, -41417.49190300607, -59403.8736109583, -17932.715169515035, -6161.571283527766, -25439.392082618724, -0.196, 0.924, 0.302, 192.0, 0.0, 0.0, 0.0, 0.0, 0.0, 0.0, 0.0, 0.0, 0.0, 1.700950542476107E9, 0.0, 2023-11-25 17:15:42.476
135.0, 29923.01790988659, 39561.335988204, -46396.18651821453, -41368.13925124875, -59385.72399446058, -17911.905695427144, -6302.320218362835, -25394.17450358564, -0.196, 0.924, 0.302, 192.0, 0.0, 0.0, 0.0, 0.0, 0.0, 0.0, 0.0, 0.0, 0.0, 1.700950542480143E9, 0.0, 2023-11-25 17:15:42.480
136.0, 29973.823425033504, 39594.3942182534, -46365.58698005522, -41335.08102119935, -59332.41508393468, -17856.853348833723, -6231.353429717235, -25377.03071558842, -0.196, 0.924, 0.302, 192.0, 0.0, 0.0, 0.0, 0.0, 0.0, 0.0, 0.0, 0.0, 0.0, 1.700950542484166E9, 0.0, 2023-11-25 17:15:42.484
137.0, 29929.723433223182, 39504.11552239842, -46411.74333235542, -41405.17609181119, -59365.38390700625, -17908.418823292115, -6037.876729712097, -25451.439672880137, -0.194, 0.92, 0.308, 192.0, 249.0, 240.0, 28.0, 192.0, 9.0, 160.0, 0.0, 0.0, 0.0, 1.700950542488192E9, 0.0, 2023-11-25 17:15:42.488
138.0, 29887.880967602847, 39478.70158895273, -46428.57419593027, -41428.10898162234, -59405.818212725906, -17964.231129197018, -6158.330280581747, -25484.162626762703, -0.194, 0.92, 0.308, 192.0, 0.0, 0.0, 0.0, 0.0, 0.0, 0.0, 0.0, 0.0, 0.0, 1.700950542492115E9, 0.0, 2023-11-25 17:15:42.492
139.0, 29924.761345954103, 39563.88408707191, -46400.00866651638, -41376.43174844167, -59386.70747121662, -17935.285620127397, -6294.5194595479325, -25450.389140890737, -0.194, 0.92, 0.308, 192.0, 0.0, 0.0, 0.0, 0.0, 0.0, 0.0, 0.0, 0.0, 0.0, 1.700950542495196E9, 0.0, 2023-11-25 17:15:42.495
140.0, 29989.201425218755, 39622.535064522635, -46347.727936235424, -41316.573776790356, -59319.38401691723, -17864.72116288199, -6283.8353256982955, -25384.809122658866, -0.194, 0.92, 0.308, 192.0, 0.0, 0.0, 0.0, 0.0, 0.0, 0.0, 0.0, 0.0, 0.0, 1.700950542499296E9, 0.0, 2023-11-25 17:15:42.499
141.0, 29961.820538261003, 39541.62174959442, -46389.816271044765, -41374.91182981871, -59331.38690368974, -17878.95922410002, -6037.586157034178, -25427.21038189058, -0.194, 0.92, 0.308, 192.0, 0.0, 0.0, 0.0, 0.0, 0.0, 0.0, 0.0, 0.0, 0.0, 1.700950542503153E9, 0.0, 2023-11-25 17:15:42.503
142.0, 29911.283244047554, 39495.510100783125, -46407.51885265337, -41405.53371972248, -59373.855218154815, -17934.480957327003, -6119.929983607529, -25414.46988755106, -0.194, 0.92, 0.308, 192.0, 0.0, 0.0, 0.0, 0.0, 0.0, 0.0, 0.0, 0.0, 0.0, 1.700950542507155E9, 0.0, 2023-11-25 17:15:42.507
143.0, 29939.289979850055, 39572.22128775374, -46388.29635242181, -41358.41624241069, -59362.813456393895, -17902.093279611265, -6248.43016248109, -25384.07151509184, -0.194, 0.92, 0.308, 192.0, 0.0, 0.0, 0.0, 0.0, 0.0, 0.0, 0.0, 0.0, 0.0, 1.700950542512207E9, 0.0, 2023-11-25 17:15:42.512
144.0, 29997.449218922764, 39643.21042814379, -46346.65505250157, -41307.40956156368, -59316.25477269349, -17858.753247112425, -6317.675866803631, -25365.228994516016, -0.194, 0.92, 0.308, 192.0, 0.0, 0.0, 0.0, 0.0, 0.0, 0.0, 0.0, 0.0, 0.0, 1.700950542517203E9, 0.0, 2023-11-25 17:15:42.517
145.0, 29982.898233282358, 39573.11535753195, -46382.86487851917, -41355.13053597576, -59317.21589770507, -17856.62983138917, -6070.040889983284, -25424.036434177928, -0.194, 0.92, 0.308, 192.0, 0.0, 0.0, 0.0, 0.0, 0.0, 0.0, 0.0, 0.0, 0.0, 1.700950542521269E9, 0.0, 2023-11-25 17:15:42.521
146.0, 29915.44066851624, 39495.8230252055, -46415.677239379555, -41410.65226920274, -59379.08552635736, -17936.716131772537, -6123.081579575727, -25445.807033277397, -0.194, 0.92, 0.308, 192.0, 0.0, 0.0, 0.0, 0.0, 0.0, 0.0, 0.0, 0.0, 0.0, 1.700950542524241E9, 0.0, 2023-11-25 17:15:42.524
147.0, 29930.572799512483, 39553.669339855835, -46402.78028282885, -41373.548373406935, -59375.77746817798, -17912.06215763833, -6241.456418211033, -25424.639931278223, -0.192, 0.924, 0.314, 192.0, 250.0, 0.0, 28.0, 224.0, 9.0, 208.0, 0.0, 0.0, 0.0, 1.700950542528251E9, 0.0, 2023-11-25 17:15:42.528
148.0, 29987.949727529256, 39632.57099778307, -46357.093317162195, -41318.116047157775, -59334.918479313674, -17877.461657221516, -6345.682602606131, -25382.126913324228, -0.192, 0.924, 0.314, 192.0, 0.0, 0.0, 0.0, 0.0, 0.0, 0.0, 0.0, 0.0, 0.0, 1.700950542532245E9, 0.0, 2023-11-25 17:15:42.532
149.0, 30002.947748058767, 39591.01910484065, -46367.82215450075, -41334.49987584351, -59306.71057781108, -17840.067188747787, -6103.546154921789, -25401.30471006688, -0.192, 0.924, 0.314, 192.0, 0.0, 0.0, 0.0, 0.0, 0.0, 0.0, 0.0, 0.0, 0.0, 1.700950542537252E9, 0.0, 2023-11-25 17:15:42.537
150.0, 29921.967377897192, 39492.984353659675, -46418.135931269644, -41410.76402792502, -59379.867837413294, -17937.431387595105, -6089.710425103954, -25454.14423395923, -0.192, 0.924, 0.314, 192.0, 0.0, 0.0, 0.0, 0.0, 0.0, 0.0, 0.0, 0.0, 0.0, 1.700950542540231E9, 0.0, 2023-11-25 17:15:42.540
151.0, 29921.07330811898, 39537.08434546999, -46413.28560272284, -41384.00898981202, -59388.5179625175, -17920.93580018709, -6218.121196999693, -25432.12776567075, -0.192, 0.924, 0.314, 192.0, 0.0, 0.0, 0.0, 0.0, 0.0, 0.0, 0.0, 0.0, 0.0, 1.700950542544247E9, 0.0, 2023-11-25 17:15:42.544
152.0, 29974.65043957835, 39624.41261105688, -46366.07871843323, -41325.76034376149, -59351.97286033307, -17882.647261935148, -6345.5261403949435, -25365.7877881274, -0.192, 0.924, 0.314, 192.0, 0.0, 0.0, 0.0, 0.0, 0.0, 0.0, 0.0, 0.0, 0.0, 1.700950542548656E9, 0.0, 2023-11-25 17:15:42.548
153.0, 29996.577500889005, 39603.93841313582, -46367.46452658946, -41331.63885255323, -59317.104138982795, -17837.04970324632, -6143.868701919163, -25388.318346538348, -0.192, 0.924, 0.314, 192.0, 0.0, 0.0, 0.0, 0.0, 0.0, 0.0, 0.0, 0.0, 0.0, 1.700950542551328E9, 0.0, 2023-11-25 17:15:42.551
154.0, 29917.608787728404, 39495.152472871836, -46421.64515514913, -41416.93310939468, -59386.103974116326, -17929.87649796921, -6066.86694227063, -25471.24331846754, -0.192, 0.924, 0.314, 192.0, 0.0, 0.0, 0.0, 0.0, 0.0, 0.0, 0.0, 0.0, 0.0, 1.700950542555303E9, 0.0, 2023-11-25 17:15:42.555
155.0, 29901.604938698405, 39512.96681320272, -46422.047486549316, -41402.78445515448, -59402.107823146325, -17928.803614235356, -6193.422519376579, -25459.016914250486, -0.192, 0.924, 0.314, 192.0, 0.0, 0.0, 0.0, 0.0, 0.0, 0.0, 0.0, 0.0, 0.0, 1.7009505425593E9, 0.0, 2023-11-25 17:15:42.559
156.0, 29949.348264854943, 39605.03364861413, -46375.064119704264, -41334.58928282133, -59363.52871221647, -17874.57828218678, -6314.948953980083, -25350.141567008683, -0.192, 0.924, 0.314, 192.0, 0.0, 0.0, 0.0, 0.0, 0.0, 0.0, 0.0, 0.0, 0.0, 1.700950542563325E9, 0.0, 2023-11-25 17:15:42.563
157.0, 29993.35884968744, 39613.7508289517, -46349.67253800303, -41309.19770112011, -59305.30241791039, -17809.199429655007, -6166.198094630015, -25328.326264420306, -0.192, 0.922, 0.306, 192.0, 250.0, 0.0, 28.0, 208.0, 9.0, 144.0, 0.0, 0.0, 0.0, 1.70095054256733E9, 0.0, 2023-11-25 17:15:42.567
158.0, 29923.35318605342, 39500.38278107438, -46409.686971865536, -41398.31410626342, -59364.26631978349, -17891.140924828163, -6017.33547655767, -25411.921788683154, -0.192, 0.922, 0.306, 192.0, 0.0, 0.0, 0.0, 0.0, 0.0, 0.0, 0.0, 0.0, 0.0, 1.700950542572354E9, 0.0, 2023-11-25 17:15:42.572
159.0, 29894.29591826152, 39493.02905714858, -46416.258384735396, -41403.96909761061, -59392.63068349728, -17920.35465483125, -6148.9425479105175, -25420.46015506508, -0.192, 0.922, 0.306, 192.0, 0.0, 0.0, 0.0, 0.0, 0.0, 0.0, 0.0, 0.0, 0.0, 1.700950542576399E9, 0.0, 2023-11-25 17:15:42.576
160.0, 29935.02079665909, 39579.93263959082, -46382.52960235233, -41353.52121037498, -59373.9669768771, -17897.421765020106, -6294.228886870013, -25391.44759076209, -0.192, 0.922, 0.306, 192.0, 0.0, 0.0, 0.0, 0.0, 0.0, 0.0, 0.0, 0.0, 0.0, 1.700950542579494E9, 0.0, 2023-11-25 17:15:42.579
161.0, 29984.641669349872, 39609.92868064984, -46350.052517658776, -41322.094657670816, -59320.88158379574, -17843.174081227076, -6226.257231981424, -25368.425293973127, -0.192, 0.922, 0.306, 192.0, 0.0, 0.0, 0.0, 0.0, 0.0, 0.0, 0.0, 0.0, 0.0, 1.700950542583447E9, 0.0, 2023-11-25 17:15:42.583
162.0, 29936.20543911522, 39509.88227246789, -46402.24384096192, -41399.275231274994, -59358.16429354719, -17898.24877956495, -6027.997258662851, -25438.676826796156, -0.192, 0.922, 0.306, 192.0, 0.0, 0.0, 0.0, 0.0, 0.0, 0.0, 0.0, 0.0, 0.0, 1.700950542587418E9, 0.0, 2023-11-25 17:15:42.587
163.0, 29902.856636387904, 39490.01157164712, -46409.50815790989, -41413.55799598194, -59391.334282318865, -17945.142739432187, -6145.634489731132, -25459.240431695038, -0.192, 0.922, 0.306, 192.0, 0.0, 0.0, 0.0, 0.0, 0.0, 0.0, 0.0, 0.0, 0.0, 1.700950542591383E9, 0.0, 2023-11-25 17:15:42.591
164.0, 29940.45227056173, 39572.28834298711, -46381.38966338512, -41361.23256221206, -59373.430535010164, -17908.038843636376, -6267.853828412751, -25407.6973089811, -0.192, 0.922, 0.306, 192.0, 0.0, 0.0, 0.0, 0.0, 0.0, 0.0, 0.0, 0.0, 0.0, 1.700950542596521E9, 0.0, 2023-11-25 17:15:42.596
165.0, 29999.282061968097, 39624.92670117935, -46342.31881407724, -41318.384268091235, -59320.45690065109, -17858.842654090244, -6276.995691894972, -25378.327116766824, -0.192, 0.922, 0.306, 192.0, 0.0, 0.0, 0.0, 0.0, 0.0, 0.0, 0.0, 0.0, 0.0, 1.700950542600446E9, 0.0, 2023-11-25 17:15:42.600
166.0, 29978.85256753595, 39543.8345722955, -46383.08839596372, -41375.582382152366, -59332.325676956854, -17875.29353800935, -6038.86020646813, -25422.89649521071, -0.192, 0.922, 0.306, 192.0, 0.0, 0.0, 0.0, 0.0, 0.0, 0.0, 0.0, 0.0, 0.0, 1.700950542604486E9, 0.0, 2023-11-25 17:15:42.604
167.0, 29932.673863491284, 39492.425560048294, -46404.99310552992, -41408.26063254603, -59378.99611937954, -17937.476091084016, -6126.50139647739, -25424.036434177928, -0.194, 0.922, 0.312, 192.0, 249.0, 240.0, 28.0, 208.0, 9.0, 192.0, 0.0, 0.0, 0.0, 1.700950542607388E9, 0.0, 2023-11-25 17:15:42.607
168.0, 29958.378369614886, 39564.82286033903, -46389.50334662239, -41364.13828899125, -59369.58603496385, -17909.692872726067, -6255.225092795503, -25405.685651980122, -0.194, 0.922, 0.312, 192.0, 0.0, 0.0, 0.0, 0.0, 0.0, 0.0, 0.0, 0.0, 0.0, 1.700950542611934E9, 0.0, 2023-11-25 17:15:42.611
169.0, 30017.878713354912, 39638.42715483036, -46341.69296523249, -41308.63890750872, -59318.98168551704, -17862.240119247454, -6317.96643948155, -25360.87040434723, -0.194, 0.922, 0.312, 192.0, 0.0, 0.0, 0.0, 0.0, 0.0, 0.0, 0.0, 0.0, 0.0, 1.700950542616509E9, 0.0, 2023-11-25 17:15:42.616
170.0, 30002.053678280558, 39574.45646219927, -46373.119517936655, -41351.107221973805, -59313.57256335885, -17854.037029032355, -6064.385898636091, -25394.75564894148, -0.194, 0.922, 0.312, 192.0, 0.0, 0.0, 0.0, 0.0, 0.0, 0.0, 0.0, 0.0, 0.0, 1.700950542621519E9, 0.0, 2023-11-25 17:15:42.621
171.0, 29933.702043736226, 39493.140815870865, -46404.03198051834, -41406.76306566752, -59370.8153809089, -17939.97948646301, -6105.513108433856, -25428.551486557903, -0.194, 0.922, 0.312, 192.0, 0.0, 0.0, 0.0, 0.0, 0.0, 0.0, 0.0, 0.0, 0.0, 1.700950542624564E9, 0.0, 2023-11-25 17:15:42.624
172.0, 29949.728244510683, 39554.228133467215, -46389.01160824438, -41364.27239945798, -59363.90869187221, -17910.721052971014, -6224.826720336285, -25401.818800189354, -0.194, 0.922, 0.312, 192.0, 0.0, 0.0, 0.0, 0.0, 0.0, 0.0, 0.0, 0.0, 0.0, 1.700950542629526E9, 0.0, 2023-11-25 17:15:42.629
173.0, 30001.249015480164, 39636.03551817364, -46347.70558449097, -41308.63890750872, -59328.32471469936, -17875.941738598554, -6327.398875641689, -25355.751854866965, -0.194, 0.922, 0.312, 192.0, 0.0, 0.0, 0.0, 0.0, 0.0, 0.0, 0.0, 0.0, 0.0, 1.700950542633535E9, 0.0, 2023-11-25 17:15:42.633
174.0, 30011.910797585348, 39599.42336075585, -46360.33432010822, -41326.52030307297, -59303.02253997595, -17845.319848694784, -6100.4616141869565, -25382.104561579774, -0.194, 0.922, 0.312, 192.0, 0.0, 0.0, 0.0, 0.0, 0.0, 0.0, 0.0, 0.0, 0.0, 1.700950542637555E9, 0.0, 2023-11-25 17:15:42.637
175.0, 29934.998444914636, 39502.997935175656, -46407.787073586835, -41399.00701034153, -59369.29546228593, -17935.665599783137, -6083.071957000728, -25435.03349244994, -0.194, 0.922, 0.312, 192.0, 0.0, 0.0, 0.0, 0.0, 0.0, 0.0, 0.0, 0.0, 0.0, 1.700950542640541E9, 0.0, 2023-11-25 17:15:42.640
176.0, 29935.378424570376, 39542.64992983937, -46404.501367151905, -41373.95070480713, -59376.49272400054, -17924.377968833207, -6209.560478873311, -25431.524268570458, -0.194, 0.922, 0.312, 192.0, 0.0, 0.0, 0.0, 0.0, 0.0, 0.0, 0.0, 0.0, 0.0, 1.700950542643543E9, 0.0, 2023-11-25 17:15:42.643
177.0, 29982.8758815379, 39629.06177390358, -46361.83188698672, -41316.149093645705, -59343.814473606886, -17887.229369548484, -6336.54073912391, -25374.862596376253, -0.194, 0.92, 0.314, 192.0, 249.0, 240.0, 28.0, 192.0, 9.0, 208.0, 0.0, 0.0, 0.0, 1.700950542647542E9, 0.0, 2023-11-25 17:15:42.647
178.0, 30011.441410951786, 39614.30962256308, -46350.43249731451, -41308.08011389734, -59296.607589317275, -17827.01376998589, -6144.919233908562, -25358.97050606853, -0.194, 0.92, 0.314, 192.0, 0.0, 0.0, 0.0, 0.0, 0.0, 0.0, 0.0, 0.0, 0.0, 1.700950542651626E9, 0.0, 2023-11-25 17:15:42.651
179.0, 29935.713700737204, 39501.25449910814, -46404.434311918536, -41393.46377771661, -59360.578281948365, -17916.331340829296, -6056.7863055212865, -25430.07140518086, -0.194, 0.92, 0.314, 192.0, 0.0, 0.0, 0.0, 0.0, 0.0, 0.0, 0.0, 0.0, 0.0, 1.700950542655606E9, 0.0, 2023-11-25 17:15:42.655
180.0, 29918.189933084243, 39507.736505000175, -46409.57521314326, -41388.1217107918, -59381.343052547345, -17932.625762537213, -6190.494440852934, -25451.573783346867, -0.194, 0.92, 0.314, 192.0, 0.0, 0.0, 0.0, 0.0, 0.0, 0.0, 0.0, 0.0, 0.0, 1.700950542660611E9, 0.0, 2023-11-25 17:15:42.660
181.0, 29960.479433593686, 39592.31550601906, -46367.82215450075, -41330.16363741918, -59353.29161325593, -17896.527695241894, -6322.615602328254, -25381.523416223936, -0.194, 0.92, 0.314, 192.0, 0.0, 0.0, 0.0, 0.0, 0.0, 0.0, 0.0, 0.0, 0.0, 1.700950542663655E9, 0.0, 2023-11-25 17:15:42.663
182.0, 29996.666907866827, 39593.00841009717, -46345.17983736752, -41309.62238426476, -59302.553153342385, -17832.08761597724, -6189.108632696704, -25343.994837283473, -0.194, 0.92, 0.314, 192.0, 0.0, 0.0, 0.0, 0.0, 0.0, 0.0, 0.0, 0.0, 0.0, 1.700950542667586E9, 0.0, 2023-11-25 17:15:42.667
183.0, 29933.009139658112, 39484.64715297784, -46399.09224499372, -41395.18486203967, -59356.532616201956, -17912.419785549617, -6041.832988480686, -25429.490259825023, -0.194, 0.92, 0.314, 192.0, 0.0, 0.0, 0.0, 0.0, 0.0, 0.0, 0.0, 0.0, 0.0, 1.700950542671615E9, 0.0, 2023-11-25 17:15:42.671
184.0, 29908.332813779452, 39485.854147178434, -46402.44500666201, -41394.06727481691, -59378.10204960133, -17929.205945635553, -6156.586844514232, -25403.629291490233, -0.194, 0.92, 0.314, 192.0, 0.0, 0.0, 0.0, 0.0, 0.0, 0.0, 0.0, 0.0, 0.0, 1.700950542675624E9, 0.0, 2023-11-25 17:15:42.675
185.0, 29943.045072918547, 39566.7898138511, -46376.13700343812, -41345.67574807117, -59362.56758720489, -17900.886285410677, -6286.67399724412, -25348.44283443008, -0.194, 0.92, 0.314, 192.0, 0.0, 0.0, 0.0, 0.0, 0.0, 0.0, 0.0, 0.0, 0.0, 1.700950542679669E9, 0.0, 2023-11-25 17:15:42.679
186.0, 30001.919567813824, 39603.245509057706, -46337.98257565291, -41307.7001342416, -59307.20231618909, -17849.454921419016, -6244.250386267947, -25331.723729577512, -0.194, 0.932, 0.306, 192.0, 249.0, 240.0, 29.0, 32.0, 9.0, 144.0, 0.0, 0.0, 0.0, 1.700950542683727E9, 0.0, 2023-11-25 17:15:42.683
187.0, 29951.538735811562, 39503.892004953865, -46393.68312283554, -41387.47351020259, -59348.55304343141, -17908.93291341459, -6051.108962429638, -25425.13166965624, -0.194, 0.932, 0.306, 192.0, 0.0, 0.0, 0.0, 0.0, 0.0, 0.0, 0.0, 0.0, 0.0, 1.700950542688695E9, 0.0, 2023-11-25 17:15:42.688
188.0, 29915.395965027332, 39477.606353474424, -46401.61799211717, -41403.00797259903, -59380.62779672477, -17952.74233254699, -6163.180609128548, -25421.89066671022, -0.194, 0.932, 0.306, 192.0, 0.0, 0.0, 0.0, 0.0, 0.0, 0.0, 0.0, 0.0, 0.0, 1.700950542692706E9, 0.0, 2023-11-25 17:15:42.692
189.0, 29954.2209451462, 39565.80633709506, -46367.48687833391, -41344.42405038167, -59354.923290601175, -17910.475183782004, -6282.829497197807, -25366.79361662789, -0.194, 0.932, 0.306, 192.0, 0.0, 0.0, 0.0, 0.0, 0.0, 0.0, 0.0, 0.0, 0.0, 1.700950542696661E9, 0.0, 2023-11-25 17:15:42.696
190.0, 30005.831123093503, 39622.803285456095, -46327.052572614266, -41299.295878326404, -59303.89425800971, -17858.44032269005, -6287.813936211341, -25325.10761321874, -0.194, 0.932, 0.306, 192.0, 0.0, 0.0, 0.0, 0.0, 0.0, 0.0, 0.0, 0.0, 0.0, 1.700950542700742E9, 0.0, 2023-11-25 17:15:42.700
191.0, 29973.823425033504, 39541.1300112164, -46374.19240167051, -41363.73595759105, -59321.440377407125, -17883.9213113691, -6055.825180509709, -25393.16867508515, -0.194, 0.932, 0.306, 192.0, 0.0, 0.0, 0.0, 0.0, 0.0, 0.0, 0.0, 0.0, 0.0, 1.700950542704756E9, 0.0, 2023-11-25 17:15:42.704
192.0, 29918.2122848287, 39483.21664133271, -46397.48291939294, -41407.29950753445, -59372.58116872086, -17959.671373328136, -6140.560643739777, -25429.669073780668, -0.194, 0.932, 0.306, 192.0, 0.0, 0.0, 0.0, 0.0, 0.0, 0.0, 0.0, 0.0, 0.0, 1.700950542709738E9, 0.0, 2023-11-25 17:15:42.709
193.0, 29943.82738397448, 39554.94338928979, -46380.16031744007, -41363.981826780066, -59362.254662782514, -17930.72586425851, -6264.679880700098, -25396.812009431364, -0.194, 0.932, 0.306, 192.0, 0.0, 0.0, 0.0, 0.0, 0.0, 0.0, 0.0, 0.0, 0.0, 1.700950542712818E9, 0.0, 2023-11-25 17:15:42.712
194.0, 30010.614396406938, 39638.09187866353, -46326.04674411377, -41301.01696264946, -59308.923400512154, -17879.58507294477, -6336.093704234803, -25340.999703526464, -0.194, 0.932, 0.306, 192.0, 0.0, 0.0, 0.0, 0.0, 0.0, 0.0, 0.0, 0.0, 0.0, 1.700950542715753E9, 0.0, 2023-11-25 17:15:42.715
195.0, 29998.11977125642, 39571.37192146444, -46360.535485808316, -41346.770983549475, -59309.057510978884, -17872.7677908859, -6093.152593750071, -25393.347489040792, -0.194, 0.932, 0.306, 192.0, 0.0, 0.0, 0.0, 0.0, 0.0, 0.0, 0.0, 0.0, 0.0, 1.700950542718774E9, 0.0, 2023-11-25 17:15:42.718
196.0, 29923.129668608868, 39482.9707721437, -46405.395436930114, -41416.597833227854, -59380.024299624485, -17967.382725165215, -6130.256489545881, -25426.6515882792, -0.19, 0.93, 0.308, 192.0, 250.0, 16.0, 29.0, 16.0, 9.0, 160.0, 0.0, 0.0, 0.0, 1.700950542722805E9, 0.0, 2023-11-25 17:15:42.722
197.0, 29938.93235193877, 39539.16305770434, -46398.82402406025, -41384.90305959023, -59381.99125313655, -17949.367219134238, -6250.3747642487015, -25404.009271145973, -0.19, 0.93, 0.308, 192.0, 0.0, 0.0, 0.0, 0.0, 0.0, 0.0, 0.0, 0.0, 0.0, 1.700950542727853E9, 0.0, 2023-11-25 17:15:42.727
198.0, 29993.828236321002, 39625.239625601724, -46355.81926772824, -41329.157808918695, -59346.36257247479, -17917.06894839632, -6359.11600102377, -25374.30380276487, -0.19, 0.93, 0.308, 192.0, 0.0, 0.0, 0.0, 0.0, 0.0, 0.0, 0.0, 0.0, 0.0, 1.700950542731849E9, 0.0, 2023-11-25 17:15:42.731
199.0, 30007.12752427191, 39593.16487230836, -46365.98931145541, -41344.93814050414, -59319.31696168387, -17877.819285132802, -6134.145693081105, -25397.616672231758, -0.19, 0.93, 0.308, 192.0, 0.0, 0.0, 0.0, 0.0, 0.0, 0.0, 0.0, 0.0, 0.0, 1.700950542735821E9, 0.0, 2023-11-25 17:15:42.735
200.0, 29933.433822802763, 39493.99018216017, -46413.21854748947, -41419.77178094051, -59385.47812527158, -17963.001783251977, -6100.506317675868, -25439.883820996743, -0.19, 0.93, 0.308, 192.0, 0.0, 0.0, 0.0, 0.0, 0.0, 0.0, 0.0, 0.0, 0.0, 1.700950542739861E9, 0.0, 2023-11-25 17:15:42.739
201.0, 29940.854601961924, 39533.48571461269, -46407.161224742085, -41392.48030096058, -59389.00970089552, -17945.232146410006, -6218.635287122165, -25427.83623073533, -0.19, 0.93, 0.308, 192.0, 0.0, 0.0, 0.0, 0.0, 0.0, 0.0, 0.0, 0.0, 0.0, 1.70095054274294E9, 0.0, 2023-11-25 17:15:42.742
202.0, 30002.27719572511, 39624.39025931242, -46359.23908462991, -41328.397849607216, -59350.63175566575, -17903.724956956503, -6345.794361328407, -25388.11718083825, -0.19, 0.93, 0.308, 192.0, 0.0, 0.0, 0.0, 0.0, 0.0, 0.0, 0.0, 0.0, 0.0, 1.70095054274701E9, 0.0, 2023-11-25 17:15:42.747
203.0, 30034.70957692976, 39609.1463695939, -46356.758040995366, -41324.93332921664, -59311.78442380243, -17849.58903188575, -6161.146600383116, -25395.470904764046, -0.19, 0.93, 0.308, 192.0, 0.0, 0.0, 0.0, 0.0, 0.0, 0.0, 0.0, 0.0, 0.0, 1.700950542750898E9, 0.0, 2023-11-25 17:15:42.750
204.0, 29962.848718505946, 39503.556728787036, -46416.23603299094, -41408.48414999058, -59376.582130978364, -17932.111672414743, -6063.737698046887, -25460.46977764008, -0.19, 0.93, 0.308, 192.0, 0.0, 0.0, 0.0, 0.0, 0.0, 0.0, 0.0, 0.0, 0.0, 1.700950542754974E9, 0.0, 2023-11-25 17:15:42.754
205.0, 29949.41532008831, 39517.7277347717, -46420.371105715174, -41397.35298125184, -59394.552933520434, -17936.51496607244, -6189.063929207794, -25456.111187471295, -0.19, 0.93, 0.308, 192.0, 0.0, 0.0, 0.0, 0.0, 0.0, 0.0, 0.0, 0.0, 0.0, 1.700950542760067E9, 0.0, 2023-11-25 17:15:42.760
206.0, 29989.581404874494, 39597.47875898823, -46388.22929718844, -41345.38517539325, -59374.95045363313, -17904.68608196808, -6314.993657468994, -25405.305672324383, -0.196, 0.918, 0.308, 192.0, 249.0, 224.0, 28.0, 176.0, 9.0, 160.0, 0.0, 0.0, 0.0, 1.700950542764019E9, 0.0, 2023-11-25 17:15:42.764
207.0, 30028.51814371564, 39606.71002944828, -46370.90669523558, -41327.57083506237, -59328.95056354411, -17849.700790608025, -6198.026978734372, -25397.951948398586, -0.196, 0.918, 0.308, 192.0, 0.0, 0.0, 0.0, 0.0, 0.0, 0.0, 0.0, 0.0, 0.0, 1.700950542767999E9, 0.0, 2023-11-25 17:15:42.767
208.0, 29960.904116738337, 39497.70057173975, -46434.8103326333, -41416.50842625003, -59384.3158345599, -17924.556782788848, -6036.379162833591, -25478.284117970958, -0.196, 0.918, 0.308, 192.0, 0.0, 0.0, 0.0, 0.0, 0.0, 0.0, 0.0, 0.0, 0.0, 1.700950542771993E9, 0.0, 2023-11-25 17:15:42.771
209.0, 29934.484354792163, 39490.48095828068, -46443.48280948196, -41422.409286786235, -59412.322570362405, -17954.64223082569, -6162.9123881950845, -25488.968251820595, -0.196, 0.918, 0.308, 192.0, 0.0, 0.0, 0.0, 0.0, 0.0, 0.0, 0.0, 0.0, 0.0, 1.700950542776013E9, 0.0, 2023-11-25 17:15:42.776
210.0, 29969.464834864717, 39577.92098258984, -46416.23603299094, -41370.262666972005, -59393.88238118678, -17921.852221709756, -6297.469889816033, -25444.197707676616, -0.196, 0.918, 0.308, 192.0, 0.0, 0.0, 0.0, 0.0, 0.0, 0.0, 0.0, 0.0, 0.0, 1.700950542779303E9, 0.0, 2023-11-25 17:15:42.779
211.0, 30026.193562292287, 39626.312509335585, -46373.32068363675, -41325.112143172286, -59331.61042113429, -17860.07200003529, -6255.940348618073, -25405.953872913586, -0.196, 0.918, 0.308, 192.0, 0.0, 0.0, 0.0, 0.0, 0.0, 0.0, 0.0, 0.0, 0.0, 1.700950542785003E9, 0.0, 2023-11-25 17:15:42.785
212.0, 29979.478416380694, 39529.685918055286, -46424.19325401703, -41395.25191727304, -59361.24883428202, -17897.175895831097, -6038.301412856747, -25454.054826981406, -0.196, 0.918, 0.308, 192.0, 0.0, 0.0, 0.0, 0.0, 0.0, 0.0, 0.0, 0.0, 0.0, 1.700950542789031E9, 0.0, 2023-11-25 17:15:42.789
213.0, 29934.193782114242, 39492.24674609265, -46440.934710614056, -41420.82231292991, -59402.264285357516, -17952.49646335798, -6144.40514378609, -25467.868205054787, -0.196, 0.918, 0.308, 192.0, 0.0, 0.0, 0.0, 0.0, 0.0, 0.0, 0.0, 0.0, 0.0, 1.70095054279301E9, 0.0, 2023-11-25 17:15:42.793
214.0, 29959.473605093197, 39570.34374121949, -46422.42746620506, -41374.77771935198, -59390.59667475184, -17921.047558909366, -6267.786773179385, -25429.669073780668, -0.196, 0.918, 0.308, 192.0, 0.0, 0.0, 0.0, 0.0, 0.0, 0.0, 0.0, 0.0, 0.0, 1.700950542797001E9, 0.0, 2023-11-25 17:15:42.797
215.0, 30025.41125123635, 39638.36009959699, -46371.97957896943, -41317.31138435738, -59331.38690368974, -17864.38588671516, -6293.267761858436, -25389.950023883586, -0.196, 0.918, 0.308, 192.0, 0.0, 0.0, 0.0, 0.0, 0.0, 0.0, 0.0, 0.0, 0.0, 1.700950542802039E9, 0.0, 2023-11-25 17:15:42.802
216.0, 30006.50167542716, 39561.64891262638, -46409.821082332266, -41370.57559139438, -59339.969973560575, -17882.848427635246, -6060.586102078689, -25464.694257342133, -0.194, 0.918, 0.304, 192.0, 249.0, 240.0, 28.0, 176.0, 9.0, 128.0, 0.0, 0.0, 0.0, 1.700950542805323E9, 0.0, 2023-11-25 17:15:42.805
217.0, 29947.82834623198, 39502.95323168674, -46438.45366697951, -41415.9272808942, -59396.34107307686, -17962.867672785243, -6141.566472240266, -25512.035252098474, -0.194, 0.918, 0.304, 192.0, 0.0, 0.0, 0.0, 0.0, 0.0, 0.0, 0.0, 0.0, 0.0, 1.700950542808E9, 0.0, 2023-11-25 17:15:42.808
218.0, 29969.464834864717, 39574.3894069659, -46424.66264065059, -41373.95070480713, -59387.288616572456, -17933.6315910377, -6253.61576719472, -25468.13642598825, -0.194, 0.918, 0.304, 192.0, 0.0, 0.0, 0.0, 0.0, 0.0, 0.0, 0.0, 0.0, 0.0, 1.700950542812098E9, 0.0, 2023-11-25 17:15:42.812
219.0, 30032.51910597314, 39660.063643463094, -46373.05246270329, -41312.48340755504, -59334.02440953546, -17883.16135205762, -6325.521329107443, -25398.086058865316, -0.194, 0.918, 0.304, 192.0, 0.0, 0.0, 0.0, 0.0, 0.0, 0.0, 0.0, 0.0, 0.0, 1.700950542815062E9, 0.0, 2023-11-25 17:15:42.815
220.0, 30029.74748966068, 39609.50399750519, -46395.94064902552, -41344.84873352632, -59319.607534361785, -17864.877625093177, -6076.902875531063, -25430.51844006997, -0.194, 0.918, 0.304, 192.0, 0.0, 0.0, 0.0, 0.0, 0.0, 0.0, 0.0, 0.0, 0.0, 1.700950542820032E9, 0.0, 2023-11-25 17:15:42.820
221.0, 29956.724340525194, 39522.86863599642, -46436.82198963428, -41409.04294360196, -59382.23712232556, -17954.55282384787, -6103.5685066662445, -25469.678696355666, -0.194, 0.918, 0.304, 192.0, 0.0, 0.0, 0.0, 0.0, 0.0, 0.0, 0.0, 0.0, 0.0, 1.700950542824074E9, 0.0, 2023-11-25 17:15:42.824
222.0, 29971.476491865695, 39581.78783438061, -46424.26030925039, -41367.93808554865, -59374.57047397739, -17926.83666072329, -6220.445778423045, -25441.582553575347, -0.194, 0.918, 0.304, 192.0, 0.0, 0.0, 0.0, 0.0, 0.0, 0.0, 0.0, 0.0, 0.0, 1.700950542827139E9, 0.0, 2023-11-25 17:15:42.827
223.0, 30026.864114625947, 39665.9645039993, -46379.28859940632, -41310.40469532069, -59336.527804914454, -17893.800782418344, -6330.326954165334, -25398.086058865316, -0.194, 0.918, 0.304, 192.0, 0.0, 0.0, 0.0, 0.0, 0.0, 0.0, 0.0, 0.0, 0.0, 1.700950542831142E9, 0.0, 2023-11-25 17:15:42.831
224.0, 30039.47049849874, 39631.542817538124, -46387.938724510524, -41326.565006561876, -59308.67753132314, -17861.92719482508, -6119.326486507236, -25434.005312204998, -0.194, 0.918, 0.304, 192.0, 0.0, 0.0, 0.0, 0.0, 0.0, 0.0, 0.0, 0.0, 0.0, 1.700950542835166E9, 0.0, 2023-11-25 17:15:42.835
225.0, 29962.245221405654, 39530.7811535336, -46434.43035297756, -41399.699914419645, -59373.3634797768, -17950.194233679085, -6078.355738920658, -25482.128618017272, -0.194, 0.918, 0.304, 192.0, 0.0, 0.0, 0.0, 0.0, 0.0, 0.0, 0.0, 0.0, 0.0, 1.700950542839082E9, 0.0, 2023-11-25 17:15:42.839
226.0, 29960.032398704578, 39561.40304343737, -46430.2058732755, -41376.72232111959, -59383.019433381494, -17940.113596929743, -6199.457490379512, -25463.777835819466, -0.192, 0.926, 0.302, 192.0, 250.0, 0.0, 28.0, 240.0, 9.0, 112.0, 0.0, 0.0, 0.0, 1.700950542843125E9, 0.0, 2023-11-25 17:15:42.843
227.0, 30011.597873162973, 39650.69826253632, -46384.98829424242, -41320.5523873034, -59351.19054927714, -17913.380910561194, -6335.82548330134, -25439.682655296645, -0.192, 0.926, 0.302, 192.0, 0.0, 0.0, 0.0, 0.0, 0.0, 0.0, 0.0, 0.0, 0.0, 1.700950542848164E9, 0.0, 2023-11-25 17:15:42.848
228.0, 30045.527821246127, 39645.28914037814, -46369.833811501725, -41310.60586102079, -59303.02253997595, -17857.881529078666, -6169.282635364847, -25431.904248226198, -0.192, 0.926, 0.302, 192.0, 0.0, 0.0, 0.0, 0.0, 0.0, 0.0, 0.0, 0.0, 0.0, 1.700950542852215E9, 0.0, 2023-11-25 17:15:42.852
229.0, 29980.864224536923, 39539.766554804635, -46415.76664635738, -41383.830175856376, -59354.923290601175, -17922.321608343318, -6047.018593194318, -25460.000391006517, -0.192, 0.926, 0.302, 192.0, 0.0, 0.0, 0.0, 0.0, 0.0, 0.0, 0.0, 0.0, 0.0, 1.700950542856125E9, 0.0, 2023-11-25 17:15:42.856
230.0, 29963.65338130634, 39546.29326418558, -46417.353620213704, -41373.682483873665, -59373.34112803235, -17924.802651977858, -6155.357498569191, -25442.02958846445, -0.192, 0.926, 0.302, 192.0, 0.0, 0.0, 0.0, 0.0, 0.0, 0.0, 0.0, 0.0, 0.0, 1.700950542860598E9, 0.0, 2023-11-25 17:15:42.860
231.0, 30007.328689972008, 39632.97332918326, -46380.093262206705, -41316.97610819055, -59346.78725561944, -17892.05734635083, -6285.24348559898, -25402.332890311827, -0.192, 0.926, 0.302, 192.0, 0.0, 0.0, 0.0, 0.0, 0.0, 0.0, 0.0, 0.0, 0.0, 1.700950542864139E9, 0.0, 2023-11-25 17:15:42.864
232.0, 30051.85336492698, 39653.7604515267, -46352.757078737865, -41289.01407587696, -59292.38310961522, -17831.797043299324, -6185.219429161481, -25393.97333788554, -0.192, 0.926, 0.302, 192.0, 0.0, 0.0, 0.0, 0.0, 0.0, 0.0, 0.0, 0.0, 0.0, 1.700950542871075E9, 0.0, 2023-11-25 17:15:42.871
233.0, 29986.340401928475, 39547.54496187508, -46408.27881196485, -41368.3627686933, -59341.06520903888, -17891.811477161824, -6007.4783572528795, -25453.09370196983, -0.192, 0.926, 0.302, 192.0, 0.0, 0.0, 0.0, 0.0, 0.0, 0.0, 0.0, 0.0, 0.0, 1.700950542872156E9, 0.0, 2023-11-25 17:15:42.872
234.0, 29956.277305636086, 39544.01338625114, -46411.13983525513, -41368.27336171548, -59366.8144186514, -17915.101994884255, -6123.752131909387, -25439.79441401892, -0.192, 0.926, 0.302, 192.0, 0.0, 0.0, 0.0, 0.0, 0.0, 0.0, 0.0, 0.0, 0.0, 1.700950542880066E9, 0.0, 2023-11-25 17:15:42.880
235.0, 29987.70385834025, 39626.75954422469, -46390.55387861179, -41324.79921874991, -59355.43738072365, -17893.577264973792, -6250.352412504246, -25421.398928332204, -0.192, 0.926, 0.302, 192.0, 0.0, 0.0, 0.0, 0.0, 0.0, 0.0, 0.0, 0.0, 0.0, 1.700950542880433E9, 0.0, 2023-11-25 17:15:42.880
236.0, 30038.75524267617, 39666.88092552196, -46355.55104679478, -41288.611744476766, -59304.34129289881, -17847.9126510516, -6227.285412226369, -25404.948044413097, -0.198, 0.932, 0.304, 192.0, 249.0, 208.0, 29.0, 32.0, 9.0, 128.0, 0.0, 0.0, 0.0, 1.700950542884188E9, 0.0, 2023-11-25 17:15:42.884
237.0, 30002.925396314313, 39575.10466278847, -46398.488747893425, -41351.9118847742, -59327.31888619887, -17880.16621830061, -6015.100302112139, -25448.84687052332, -0.198, 0.932, 0.304, 192.0, 0.0, 0.0, 0.0, 0.0, 0.0, 0.0, 0.0, 0.0, 0.0, 1.700950542887171E9, 0.0, 2023-11-25 17:15:42.887
238.0, 29958.93716322627, 39537.71019431474, -46417.46537893598, -41379.87391708779, -59371.620043709285, -17936.73848351699, -6117.918326606551, -25458.32401017237, -0.198, 0.932, 0.304, 192.0, 0.0, 0.0, 0.0, 0.0, 0.0, 0.0, 0.0, 0.0, 0.0, 1.700950542891221E9, 0.0, 2023-11-25 17:15:42.891
239.0, 29988.93320428529, 39620.07637263255, -46398.86872754917, -41336.24331191103, -59362.187607549145, -17911.101032626753, -6245.166807790614, -25418.068518408363, -0.198, 0.932, 0.304, 192.0, 0.0, 0.0, 0.0, 0.0, 0.0, 0.0, 0.0, 0.0, 0.0, 1.700950542895236E9, 0.0, 2023-11-25 17:15:42.895
240.0, 30050.266391070654, 39686.37164668699, -46351.863008959655, -41285.86247990876, -59308.431662134135, -17862.620098903193, -6278.180334351103, -25369.095846306784, -0.198, 0.932, 0.304, 192.0, 0.0, 0.0, 0.0, 0.0, 0.0, 0.0, 0.0, 0.0, 0.0, 1.700950542899254E9, 0.0, 2023-11-25 17:15:42.899
241.0, 30030.105117571966, 39612.186206839826, -46386.93289601003, -41339.39490787923, -59314.75720581499, -17871.873721107688, -6031.998220920351, -25422.963550444074, -0.198, 0.932, 0.304, 192.0, 0.0, 0.0, 0.0, 0.0, 0.0, 0.0, 0.0, 0.0, 0.0, 1.700950542906261E9, 0.0, 2023-11-25 17:15:42.906
242.0, 29967.184956930276, 39539.4312786378, -46418.627669647656, -41392.10032130484, -59376.22450306708, -17952.92114650263, -6104.015541555351, -25464.269574197482, -0.198, 0.932, 0.304, 192.0, 0.0, 0.0, 0.0, 0.0, 0.0, 0.0, 0.0, 0.0, 0.0, 1.700950542910296E9, 0.0, 2023-11-25 17:15:42.910
243.0, 29989.335535685485, 39599.98215436723, -46410.42457943256, -41357.27630344347, -59376.112744344806, -17937.297277128375, -6242.61870892271, -25478.932318560164, -0.198, 0.932, 0.304, 192.0, 0.0, 0.0, 0.0, 0.0, 0.0, 0.0, 0.0, 0.0, 0.0, 1.700950542913288E9, 0.0, 2023-11-25 17:15:42.913
244.0, 30048.880582914426, 39674.59227735904, -46363.70943352097, -41297.84301493681, -59331.31984845637, -17894.761907429925, -6331.06456173236, -25439.459137852093, -0.198, 0.932, 0.304, 192.0, 0.0, 0.0, 0.0, 0.0, 0.0, 0.0, 0.0, 0.0, 0.0, 1.700950542916309E9, 0.0, 2023-11-25 17:15:42.916
245.0, 30049.595838736994, 39622.06567788907, -46382.686064563524, -41323.72633501606, -59313.393749403214, -17864.519997181895, -6082.826087811719, -25432.79831800441, -0.198, 0.932, 0.304, 192.0, 0.0, 0.0, 0.0, 0.0, 0.0, 0.0, 0.0, 0.0, 0.0, 1.700950542919341E9, 0.0, 2023-11-25 17:15:42.919
246.0, 29983.948765271758, 39537.35256640346, -46420.23699524844, -41384.00898981202, -59375.01750886649, -17946.59560282178, -6095.320712962236, -25454.725379315067, -0.192, 0.926, 0.302, 192.0, 250.0, 0.0, 28.0, 240.0, 9.0, 112.0, 0.0, 0.0, 0.0, 1.700950542923282E9, 0.0, 2023-11-25 17:15:42.923
247.0, 29991.615413619926, 39591.51084321867, -46417.71124812499, -41354.6611493422, -59378.817305423894, -17930.99408519198, -6215.595449876243, -25450.545603101924, -0.192, 0.926, 0.302, 192.0, 0.0, 0.0, 0.0, 0.0, 0.0, 0.0, 0.0, 0.0, 0.0, 1.700950542927306E9, 0.0, 2023-11-25 17:15:42.927
248.0, 30039.51520198765, 39674.882850036964, -46376.539334838315, -41298.58062250383, -59342.69688638412, -17898.8746284097, -6338.530044380432, -25408.25610259248, -0.192, 0.926, 0.302, 192.0, 0.0, 0.0, 0.0, 0.0, 0.0, 0.0, 0.0, 0.0, 0.0, 1.700950542931508E9, 0.0, 2023-11-25 17:15:42.931
249.0, 30051.339274804508, 39639.96942519777, -46383.55778259728, -41310.203529620594, -59310.55507785739, -17860.742552368945, -6133.184568069526, -25431.636027292734, -0.192, 0.926, 0.302, 192.0, 0.0, 0.0, 0.0, 0.0, 0.0, 0.0, 0.0, 0.0, 0.0, 1.700950542936345E9, 0.0, 2023-11-25 17:15:42.936
250.0, 29971.945878499257, 39530.42352562231, -46433.20100703252, -41388.88167010328, -59374.704584444116, -17948.60725982276, -6080.769727321831, -25473.143216746237, -0.192, 0.926, 0.302, 192.0, 0.0, 0.0, 0.0, 0.0, 0.0, 0.0, 0.0, 0.0, 0.0, 1.700950542940368E9, 0.0, 2023-11-25 17:15:42.940
251.0, 29976.21506169022, 39567.14744176238, -46420.013477803885, -41361.90311454572, -59373.63170071026, -17931.374064847718, -6195.389472888645, -25447.93044900065, -0.192, 0.926, 0.302, 192.0, 0.0, 0.0, 0.0, 0.0, 0.0, 0.0, 0.0, 0.0, 0.0, 1.70095054294441E9, 0.0, 2023-11-25 17:15:42.944
252.0, 30022.61728317944, 39653.648692804425, -46374.55002958179, -41306.582547018836, -59341.40048520571, -17895.275997552395, -6318.860509259762, -25405.864465935763, -0.192, 0.926, 0.302, 192.0, 0.0, 0.0, 0.0, 0.0, 0.0, 0.0, 0.0, 0.0, 0.0, 1.700950542948632E9, 0.0, 2023-11-25 17:15:42.948
253.0, 30059.318847575054, 39657.04615796163, -46354.07583166073, -41293.640886979214, -59290.192638658606, -17840.29070619234, -6159.8054957157965, -25411.854733449785, -0.192, 0.926, 0.302, 192.0, 0.0, 0.0, 0.0, 0.0, 0.0, 0.0, 0.0, 0.0, 0.0, 1.700950542952419E9, 0.0, 2023-11-25 17:15:42.952
254.0, 30001.249015480164, 39562.610037637955, -46392.27496293485, -41362.37250117928, -59332.9515258016, -17900.752174943947, -6034.81454072172, -25446.097605955318, -0.192, 0.926, 0.302, 192.0, 0.0, 0.0, 0.0, 0.0, 0.0, 0.0, 0.0, 0.0, 0.0, 1.700950542956639E9, 0.0, 2023-11-25 17:15:42.956
255.0, 29974.829253533993, 39565.761633606155, -46397.77349207085, -41360.964341278595, -59357.426685980165, -17908.865858181223, -6142.706411207487, -25426.696291768112, -0.192, 0.926, 0.302, 192.0, 0.0, 0.0, 0.0, 0.0, 0.0, 0.0, 0.0, 0.0, 0.0, 1.700950542960476E9, 0.0, 2023-11-25 17:15:42.960
0.0, 30008.17805626131, 39643.34453861052, -46367.88920973411, -41313.82451222235, -59339.679400882655, -17881.529674712383, -6271.318348803324, -25378.170654555637, -0.196, 0.926, 0.306, 192.0, 249.0, 224.0, 28.0, 240.0, 9.0, 144.0, 0.0, 0.0, 0.0, 1.700950542963419E9, 0.0, 2023-11-25 17:15:42.963
1.0, 30052.65802772737, 39663.79638478713, -46341.514151276846, -41286.04129386441, -59288.650368291186, -17825.449147874016, -6185.778222772864, -25368.045314317384, -0.196, 0.926, 0.306, 192.0, 0.0, 0.0, 0.0, 0.0, 0.0, 0.0, 0.0, 0.0, 0.0, 1.700950542966441E9, 0.0, 2023-11-25 17:15:42.966
2.0, 29998.477399167707, 39563.526459160625, -46393.37019841316, -41358.304483688415, -59326.201298976106, -17880.032107833875, -6013.71449395591, -25422.762384743975, -0.196, 0.926, 0.306, 192.0, 0.0, 0.0, 0.0, 0.0, 0.0, 0.0, 0.0, 0.0, 0.0, 1.700950542970465E9, 0.0, 2023-11-25 17:15:42.970
3.0, 29967.274363908098, 39548.97547352022, -46402.6014688732, -41362.68542560165, -59353.98451733405, -17908.79880294786, -6123.550966209289, -25412.614692761268, -0.196, 0.926, 0.306, 192.0, 0.0, 0.0, 0.0, 0.0, 0.0, 0.0, 0.0, 0.0, 0.0, 1.700950542975474E9, 0.0, 2023-11-25 17:15:42.975
4.0, 29992.196558975764, 39624.99375641272, -46390.240954189416, -41324.57570130536, -59349.49181669853, -17895.857142908233, -6256.610900951731, -25404.41160254617, -0.196, 0.926, 0.306, 192.0, 0.0, 0.0, 0.0, 0.0, 0.0, 0.0, 0.0, 0.0, 0.0, 1.700950542979496E9, 0.0, 2023-11-25 17:15:42.979
5.0, 30045.505469501673, 39668.5126028672, -46352.93589269351, -41285.48250025303, -59298.5968945738, -17846.05745626181, -6240.6294036661875, -25373.007401586463, -0.196, 0.926, 0.306, 192.0, 0.0, 0.0, 0.0, 0.0, 0.0, 0.0, 0.0, 0.0, 0.0, 1.700950542983499E9, 0.0, 2023-11-25 17:15:42.983
6.0, 30003.21596899223, 39570.857831341964, -46403.584945629234, -41358.729166833065, -59329.039970521924, -17884.34599451375, -6018.117787613605, -25431.837192992833, -0.196, 0.926, 0.306, 192.0, 0.0, 0.0, 0.0, 0.0, 0.0, 0.0, 0.0, 0.0, 0.0, 1.700950542990618E9, 0.0, 2023-11-25 17:15:42.990
7.0, 29956.16554691381, 39527.2272261652, -46419.18646325904, -41386.62414391329, -59373.11761058779, -17945.813291765844, -6122.098102819694, -25443.393044876226, -0.196, 0.926, 0.306, 192.0, 0.0, 0.0, 0.0, 0.0, 0.0, 0.0, 0.0, 0.0, 0.0, 1.700950542993532E9, 0.0, 2023-11-25 17:15:42.993
8.0, 29983.613489104926, 39605.90536664789, -46401.215660716975, -41346.0557277269, -59365.13803781725, -17926.970771190023, -6250.307709015336, -25433.044187193416, -0.196, 0.926, 0.306, 192.0, 0.0, 0.0, 0.0, 0.0, 0.0, 0.0, 0.0, 0.0, 0.0, 1.700950542997544E9, 0.0, 2023-11-25 17:15:42.997
9.0, 30045.013731123658, 39677.676818093874, -46357.27213111784, -41298.71473297057, -59317.19354596062, -17889.755116671935, -6299.079215416815, -25394.912111152666, -0.196, 0.926, 0.306, 192.0, 0.0, 0.0, 0.0, 0.0, 0.0, 0.0, 0.0, 0.0, 0.0, 1.700950543000842E9, 0.0, 2023-11-25 17:15:43.000
10.0, 30034.195486807286, 39616.522445264156, -46385.68119832053, -41341.6077305803, -59312.16440345817, -17885.73180266998, -6052.606529308144, -25420.102527153795, -0.192, 0.93, 0.306, 192.0, 250.0, 0.0, 29.0, 16.0, 9.0, 144.0, 0.0, 0.0, 0.0, 1.700950543003509E9, 0.0, 2023-11-25 17:15:43.003
11.0, 29968.74957904215, 39546.06974674103, -46421.46634119348, -41396.682428918175, -59373.92227338818, -17971.629556611726, -6110.095216047194, -25451.84200428033, -0.192, 0.93, 0.306, 192.0, 0.0, 0.0, 0.0, 0.0, 0.0, 0.0, 0.0, 0.0, 0.0, 1.700950543007538E9, 0.0, 2023-11-25 17:15:43.007
12.0, 29986.474512395205, 39606.44180851481, -46409.686971865536, -41358.61740811079, -59370.45775299761, -17949.6354400677, -6235.510854185922, -25441.448443108613, -0.192, 0.93, 0.306, 192.0, 0.0, 0.0, 0.0, 0.0, 0.0, 0.0, 0.0, 0.0, 0.0, 1.700950543012017E9, 0.0, 2023-11-25 17:15:43.012
13.0, 30035.827164152524, 39676.06749249309, -46371.59959931369, -41310.73997148752, -59334.784368846944, -17919.0806053973, -6335.736076323518, -25418.716718997566, -0.192, 0.93, 0.306, 192.0, 0.0, 0.0, 0.0, 0.0, 0.0, 0.0, 0.0, 0.0, 0.0, 1.70095054301553E9, 0.0, 2023-11-25 17:15:43.015
14.0, 30036.36360601945, 39627.765372725175, -46392.76670131287, -41341.09364045783, -59319.0040372615, -17898.31583479832, -6101.959181065462, -25453.451329881114, -0.192, 0.93, 0.306, 192.0, 0.0, 0.0, 0.0, 0.0, 0.0, 0.0, 0.0, 0.0, 0.0, 1.700950543018596E9, 0.0, 2023-11-25 17:15:43.018
15.0, 29965.88855575187, 39534.938578002286, -46433.7598006439, -41409.53468197998, -59383.35470954832, -17986.828742841335, -6113.11270154866, -25489.392934965246, -0.192, 0.93, 0.306, 192.0, 0.0, 0.0, 0.0, 0.0, 0.0, 0.0, 0.0, 0.0, 0.0, 1.700950543022685E9, 0.0, 2023-11-25 17:15:43.022
16.0, 29982.07121873751, 39585.49822396019, -46420.304050481805, -41374.93418156316, -59378.817305423894, -17960.476036128526, -6230.191139005558, -25464.202518964117, -0.192, 0.93, 0.306, 192.0, 0.0, 0.0, 0.0, 0.0, 0.0, 0.0, 0.0, 0.0, 0.0, 1.700950543026618E9, 0.0, 2023-11-25 17:15:43.026
17.0, 30037.79411766459, 39676.96156227131, -46374.52767783734, -41317.08786691283, -59341.020505549975, -17920.64522750917, -6337.390105413211, -25412.16765787216, -0.192, 0.93, 0.306, 192.0, 0.0, 0.0, 0.0, 0.0, 0.0, 0.0, 0.0, 0.0, 0.0, 1.700950543032686E9, 0.0, 2023-11-25 17:15:43.032
18.0, 30047.919457902844, 39648.820716002076, -46382.75311979689, -41328.57666356285, -59311.06916797986, -17875.427648476085, -6130.636469201621, -25406.535018269424, -0.192, 0.93, 0.306, 192.0, 0.0, 0.0, 0.0, 0.0, 0.0, 0.0, 0.0, 0.0, 0.0, 1.700950543036683E9, 0.0, 2023-11-25 17:15:43.036
19.0, 29978.114959968923, 39551.65768285486, -46427.03192556286, -41402.4715307321, -59370.77067741998, -17959.11257971675, -6076.835820297697, -25459.7098183286, -0.192, 0.93, 0.306, 192.0, 0.0, 0.0, 0.0, 0.0, 0.0, 0.0, 0.0, 0.0, 0.0, 1.700950543040687E9, 0.0, 2023-11-25 17:15:43.040
20.0, 29981.288907681574, 39591.66730542986, -46416.79482660232, -41373.77189085149, -59370.54715997543, -17940.381817863206, -6188.594542574232, -25440.822594263864, -0.2, 0.928, 0.314, 192.0, 249.0, 192.0, 29.0, 0.0, 9.0, 208.0, 0.0, 0.0, 0.0, 1.700950543044658E9, 0.0, 2023-11-25 17:15:43.044
21.0, 30016.02351856512, 39670.79248080164, -46386.9999512434, -41326.922634473165, -59349.469464954076, -17912.777413460903, -6309.875107988729, -25403.40577404568, -0.2, 0.928, 0.314, 192.0, 0.0, 0.0, 0.0, 0.0, 0.0, 0.0, 0.0, 0.0, 0.0, 1.700950543047796E9, 0.0, 2023-11-25 17:15:43.047
22.0, 30044.700806701283, 39665.27159992118, -46374.81825051526, -41318.093695413314, -59305.79415628841, -17861.703677380523, -6164.141734140127, -25408.233750848027, -0.2, 0.928, 0.314, 192.0, 0.0, 0.0, 0.0, 0.0, 0.0, 0.0, 0.0, 0.0, 0.0, 1.700950543050706E9, 0.0, 2023-11-25 17:15:43.050
23.0, 29984.1275792274, 39570.14257551939, -46415.76664635738, -41386.64649565775, -59350.05061030992, -17928.64715202417, -6035.663907011021, -25458.793396805933, -0.2, 0.928, 0.314, 192.0, 0.0, 0.0, 0.0, 0.0, 0.0, 0.0, 0.0, 0.0, 0.0, 1.700950543054763E9, 0.0, 2023-11-25 17:15:43.054
24.0, 29973.912832011323, 39582.21251752526, -46410.871614321666, -41372.38608269526, -59363.863988383295, -17930.34588460277, -6154.083449135238, -25440.152041930207, -0.2, 0.928, 0.314, 192.0, 0.0, 0.0, 0.0, 0.0, 0.0, 0.0, 0.0, 0.0, 0.0, 1.700950543058708E9, 0.0, 2023-11-25 17:15:43.058
25.0, 30025.27714076962, 39677.87798379397, -46372.87364874764, -41313.221015122064, -59337.53363341495, -17893.465506251516, -6284.975264665516, -25393.012212873964, -0.2, 0.928, 0.314, 192.0, 0.0, 0.0, 0.0, 0.0, 0.0, 0.0, 0.0, 0.0, 0.0, 1.700950543063734E9, 0.0, 2023-11-25 17:15:43.063
26.0, 30074.115702404466, 39702.39784746145, -46346.25272110137, -41283.60495371878, -59287.532781068425, -17839.262525947397, -6206.252420693925, -25391.000555872986, -0.2, 0.928, 0.314, 192.0, 0.0, 0.0, 0.0, 0.0, 0.0, 0.0, 0.0, 0.0, 0.0, 1.700950543067782E9, 0.0, 2023-11-25 17:15:43.067
27.0, 30017.632844165906, 39598.1493113219, -46400.47805314995, -41359.7126435891, -59330.85046182281, -17891.565607972814, -6019.794168447754, -25446.410530377692, -0.2, 0.928, 0.314, 192.0, 0.0, 0.0, 0.0, 0.0, 0.0, 0.0, 0.0, 0.0, 0.0, 1.700950543072022E9, 0.0, 2023-11-25 17:15:43.072
28.0, 29972.88465176638, 39573.49533718769, -46421.26517549338, -41379.002199054026, -59372.961148376606, -17932.536355559394, -6134.324507036747, -25441.00140821951, -0.2, 0.928, 0.314, 192.0, 0.0, 0.0, 0.0, 0.0, 0.0, 0.0, 0.0, 0.0, 0.0, 1.700950543074971E9, 0.0, 2023-11-25 17:15:43.074
29.0, 29994.677602610303, 39646.83141074555, -46407.89883230911, -41340.64660556872, -59367.574377962876, -17913.626779750204, -6269.261988313436, -25415.766288729465, -0.2, 0.928, 0.314, 192.0, 0.0, 0.0, 0.0, 0.0, 0.0, 0.0, 0.0, 0.0, 0.0, 1.700950543078877E9, 0.0, 2023-11-25 17:15:43.078
30.0, 30053.23917308321, 39695.49115842476, -46365.16229691057, -41294.98199164653, -59311.89618252471, -17859.848482590733, -6269.418450524623, -25378.282413277917, -0.198, 0.922, 0.31, 192.0, 249.0, 208.0, 28.0, 208.0, 9.0, 176.0, 0.0, 0.0, 0.0, 1.700950543082776E9, 0.0, 2023-11-25 17:15:43.082
31.0, 30021.14206804539, 39607.96172713777, -46408.345867198215, -41357.09748948783, -59332.057456023394, -17888.324605026795, -6043.419962337013, -25438.430957607146, -0.198, 0.922, 0.31, 192.0, 0.0, 0.0, 0.0, 0.0, 0.0, 0.0, 0.0, 0.0, 0.0, 1.700950543086814E9, 0.0, 2023-11-25 17:15:43.086
32.0, 29969.755407542638, 39558.989055036196, -46428.77536163037, -41391.22860327108, -59380.448982769136, -17954.21754768104, -6133.251623302892, -25459.396893906225, -0.198, 0.922, 0.31, 192.0, 0.0, 0.0, 0.0, 0.0, 0.0, 0.0, 0.0, 0.0, 0.0, 1.700950543090785E9, 0.0, 2023-11-25 17:15:43.090
33.0, 29992.084800253488, 39637.46602981878, -46411.206890488495, -41350.90605627371, -59372.87174139878, -17933.430425337607, -6259.270758541913, -25443.057768709394, -0.198, 0.922, 0.31, 192.0, 0.0, 0.0, 0.0, 0.0, 0.0, 0.0, 0.0, 0.0, 0.0, 1.700950543095837E9, 0.0, 2023-11-25 17:15:43.095
34.0, 30047.42771952483, 39707.85167310854, -46366.056366688776, -41303.25213709499, -59326.08954025383, -17891.47620099499, -6312.557317323365, -25396.432029775624, -0.198, 0.922, 0.31, 192.0, 0.0, 0.0, 0.0, 0.0, 0.0, 0.0, 0.0, 0.0, 0.0, 1.700950543098777E9, 0.0, 2023-11-25 17:15:43.098
35.0, 30037.972931620236, 39643.299835121616, -46393.14668096861, -41347.195666694126, -59322.73677858553, -17891.275035294897, -6075.092384230183, -25436.151079672705, -0.198, 0.922, 0.31, 192.0, 0.0, 0.0, 0.0, 0.0, 0.0, 0.0, 0.0, 0.0, 0.0, 1.70095054310348E9, 0.0, 2023-11-25 17:15:43.103
36.0, 29970.82829127649, 39565.31459871705, -46426.76370462939, -41403.36560051031, -59383.019433381494, -17977.66452761466, -6121.427550486034, -25473.389085935247, -0.198, 0.922, 0.31, 192.0, 0.0, 0.0, 0.0, 0.0, 0.0, 0.0, 0.0, 0.0, 0.0, 1.700950543107912E9, 0.0, 2023-11-25 17:15:43.107
37.0, 29986.943899028767, 39629.866436703975, -46412.9056230671, -41365.32293144738, -59378.43732576816, -17954.93280350361, -6241.8587496112295, -25441.35903613079, -0.198, 0.922, 0.31, 192.0, 0.0, 0.0, 0.0, 0.0, 0.0, 0.0, 0.0, 0.0, 0.0, 1.700950543113896E9, 0.0, 2023-11-25 17:15:43.113
38.0, 30050.176984092832, 39713.66312666692, -46364.75996551037, -41303.78857896192, -59329.956392044594, -17909.8269831928, -6327.890614019706, -25378.103599322272, -0.198, 0.922, 0.31, 192.0, 0.0, 0.0, 0.0, 0.0, 0.0, 0.0, 0.0, 0.0, 0.0, 1.700950543117392E9, 0.0, 2023-11-25 17:15:43.117
39.0, 30054.066187628054, 39662.298817908624, -46387.156413454584, -41332.17529442016, -59311.426795891144, -17891.87853239519, -6102.048588043283, -25419.78960273142, -0.198, 0.922, 0.31, 192.0, 0.0, 0.0, 0.0, 0.0, 0.0, 0.0, 0.0, 0.0, 0.0, 1.70095054311991E9, 0.0, 2023-11-25 17:15:43.119
40.0, 29988.46381765173, 39575.01525581065, -46421.04165804883, -41391.787396882464, -59365.02627909497, -17978.312728203862, -6104.306114233269, -25467.26470795449, -0.198, 0.922, 0.304, 192.0, 249.0, 208.0, 28.0, 208.0, 9.0, 128.0, 0.0, 0.0, 0.0, 1.700950543123893E9, 0.0, 2023-11-25 17:15:43.123
41.0, 29996.21987297772, 39625.79841921311, -46408.72584685396, -41357.14219297674, -59361.85233138232, -17956.765646548945, -6215.483691153967, -25447.595172833822, -0.198, 0.922, 0.304, 192.0, 0.0, 0.0, 0.0, 0.0, 0.0, 0.0, 0.0, 0.0, 0.0, 1.700950543126922E9, 0.0, 2023-11-25 17:15:43.126
42.0, 30048.366492791953, 39710.623289421, -46361.20603814197, -41297.328924814334, -59323.250868708004, -17919.43823330858, -6328.762332053463, -25401.639986233713, -0.198, 0.922, 0.304, 192.0, 0.0, 0.0, 0.0, 0.0, 0.0, 0.0, 0.0, 0.0, 0.0, 1.700950543130885E9, 0.0, 2023-11-25 17:15:43.130
43.0, 30062.80571971008, 39680.962524528804, -46363.15063990959, -41303.81093070638, -59288.985644458015, -17870.376154229183, -6124.422684243046, -25394.26391056346, -0.198, 0.922, 0.304, 192.0, 0.0, 0.0, 0.0, 0.0, 0.0, 0.0, 0.0, 0.0, 0.0, 1.700950543135032E9, 0.0, 2023-11-25 17:15:43.135
44.0, 29992.9788700317, 39585.23000302673, -46407.585907886736, -41377.07994903087, -59346.92136608617, -17953.16701569164, -6062.508352101845, -25446.61169607779, -0.198, 0.922, 0.304, 192.0, 0.0, 0.0, 0.0, 0.0, 0.0, 0.0, 0.0, 0.0, 0.0, 1.70095054313899E9, 0.0, 2023-11-25 17:15:43.138
45.0, 29989.22377696321, 39620.90338717739, -46399.22635546045, -41350.88370452925, -59351.10114229932, -17938.459567840047, -6175.585827301244, -25414.201666617595, -0.198, 0.922, 0.304, 192.0, 0.0, 0.0, 0.0, 0.0, 0.0, 0.0, 0.0, 0.0, 0.0, 1.700950543142982E9, 0.0, 2023-11-25 17:15:43.142
46.0, 30035.536591474607, 39712.81376037762, -46356.825096228735, -41291.78569218942, -59318.02056050546, -17900.260436565928, -6300.286209617402, -25354.030770543908, -0.198, 0.922, 0.304, 192.0, 0.0, 0.0, 0.0, 0.0, 0.0, 0.0, 0.0, 0.0, 0.0, 1.700950543147009E9, 0.0, 2023-11-25 17:15:43.147
47.0, 30071.47819655874, 39712.210263277324, -46339.50249427587, -41277.25705829347, -59268.19852211458, -17846.973877784476, -6160.766620727375, -25360.669238647133, -0.198, 0.922, 0.304, 192.0, 0.0, 0.0, 0.0, 0.0, 0.0, 0.0, 0.0, 0.0, 0.0, 1.700950543152034E9, 0.0, 2023-11-25 17:15:43.152
48.0, 30006.054640538056, 39603.73724743572, -46392.92316352406, -41357.90215228822, -59321.015694262474, -17924.668541511124, -6027.6172790071105, -25434.139422671728, -0.198, 0.922, 0.304, 192.0, 0.0, 0.0, 0.0, 0.0, 0.0, 0.0, 0.0, 0.0, 0.0, 1.700950543155066E9, 0.0, 2023-11-25 17:15:43.155
49.0, 29984.41815190532, 39605.681849203334, -46394.711303080476, -41353.968245264085, -59342.22749975056, -17945.299201643375, -6160.073716649261, -25439.54854482991, -0.198, 0.922, 0.304, 192.0, 0.0, 0.0, 0.0, 0.0, 0.0, 0.0, 0.0, 0.0, 0.0, 1.700950543157988E9, 0.0, 2023-11-25 17:15:43.157
50.0, 30018.817486622036, 39689.23266997727, -46369.38677661261, -41308.661259253175, -59330.00109553351, -17925.897887456165, -6296.553468293366, -25416.995634674506, -0.188, 0.924, 0.304, 192.0, 250.0, 32.0, 28.0, 224.0, 9.0, 128.0, 0.0, 0.0, 0.0, 1.700950543163066E9, 0.0, 2023-11-25 17:15:43.163
51.0, 30074.18275763783, 39724.79429540566, -46336.70852621896, -41271.11032856826, -59273.62999601722, -17864.229424503974, -6229.967621561006, -25382.484541235513, -0.188, 0.924, 0.304, 192.0, 0.0, 0.0, 0.0, 0.0, 0.0, 0.0, 0.0, 0.0, 0.0, 1.700950543167077E9, 0.0, 2023-11-25 17:15:43.167
52.0, 30023.17607679082, 39622.71387847828, -46389.391587900114, -41348.3579574058, -59315.137185470725, -17918.41005306364, -6040.089552413172, -25449.495071112524, -0.188, 0.924, 0.304, 192.0, 0.0, 0.0, 0.0, 0.0, 0.0, 0.0, 0.0, 0.0, 0.0, 1.700950543171041E9, 0.0, 2023-11-25 17:15:43.171
53.0, 29982.808826304536, 39595.15417756488, -46400.67921885005, -41367.80397508192, -59354.18568303415, -17961.504216373472, -6154.441077046523, -25448.93627750114, -0.188, 0.924, 0.304, 192.0, 0.0, 0.0, 0.0, 0.0, 0.0, 0.0, 0.0, 0.0, 0.0, 1.700950543175055E9, 0.0, 2023-11-25 17:15:43.175
54.0, 30000.42200093532, 39661.33769289705, -46388.94455301101, -41332.89055024273, -59353.738648145045, -17939.55480331836, -6285.891686188184, -25418.493201553014, -0.188, 0.924, 0.304, 192.0, 0.0, 0.0, 0.0, 0.0, 0.0, 0.0, 0.0, 0.0, 0.0, 1.700950543179174E9, 0.0, 2023-11-25 17:15:43.179
55.0, 30052.94860040529, 39709.43864696487, -46349.51607579185, -41291.51747125596, -59304.14012719871, -17888.21284630452, -6287.858639700251, -25375.98018359902, -0.188, 0.924, 0.304, 192.0, 0.0, 0.0, 0.0, 0.0, 0.0, 0.0, 0.0, 0.0, 0.0, 1.70095054318413E9, 0.0, 2023-11-25 17:15:43.184
56.0, 30025.500658214172, 39627.4524483028, -46386.01647448736, -41348.939102761644, -59316.187717460125, -17904.574323245804, -6053.612357808633, -25417.330910841338, -0.188, 0.924, 0.304, 192.0, 0.0, 0.0, 0.0, 0.0, 0.0, 0.0, 0.0, 0.0, 0.0, 1.700950543188098E9, 0.0, 2023-11-25 17:15:43.188
57.0, 29961.418206860806, 39560.19604923678, -46420.304050481805, -41398.44821673015, -59378.50438100152, -17979.340908448805, -6132.514015735867, -25446.56699258888, -0.188, 0.924, 0.304, 192.0, 0.0, 0.0, 0.0, 0.0, 0.0, 0.0, 0.0, 0.0, 0.0, 1.700950543192081E9, 0.0, 2023-11-25 17:15:43.192
58.0, 29980.70776232574, 39627.02776515815, -46408.703495109505, -41361.18785872315, -59374.12343908828, -17956.07274247083, -6251.425296238101, -25421.13070739874, -0.188, 0.924, 0.304, 192.0, 0.0, 0.0, 0.0, 0.0, 0.0, 0.0, 0.0, 0.0, 0.0, 1.700950543195118E9, 0.0, 2023-11-25 17:15:43.195
59.0, 30031.021539094632, 39690.19379498885, -46369.811459757264, -41315.81381747888, -59332.973877546065, -17918.0300734079, -6310.210384155558, -25384.07151509184, -0.188, 0.924, 0.304, 192.0, 0.0, 0.0, 0.0, 0.0, 0.0, 0.0, 0.0, 0.0, 0.0, 1.700950543200081E9, 0.0, 2023-11-25 17:15:43.200
60.0, 30023.868980868934, 39626.4019163134, -46396.27592519235, -41355.46581214259, -59326.31305769838, -17908.575285503302, -6070.823201039219, -25414.715756740065, -0.192, 0.92, 0.306, 192.0, 250.0, 0.0, 28.0, 192.0, 9.0, 144.0, 0.0, 0.0, 0.0, 1.700950543205362E9, 0.0, 2023-11-25 17:15:43.205
61.0, 29957.573706814495, 39550.07070899853, -46428.5071406969, -41411.12165583631, -59385.79104969395, -17989.80152485389, -6115.034951571817, -25442.8566030093, -0.192, 0.92, 0.306, 192.0, 0.0, 0.0, 0.0, 0.0, 0.0, 0.0, 0.0, 0.0, 0.0, 1.700950543209187E9, 0.0, 2023-11-25 17:15:43.209
62.0, 29965.955610985235, 39601.05503810108, -46423.925033083564, -41382.69023688915, -59389.74730846254, -17974.021193268443, -6229.677048883087, -25445.829385021854, -0.192, 0.92, 0.306, 192.0, 0.0, 0.0, 0.0, 0.0, 0.0, 0.0, 0.0, 0.0, 0.0, 1.700950543212248E9, 0.0, 2023-11-25 17:15:43.212
63.0, 30026.797059392582, 39687.37747518748, -46368.850334745686, -41321.02177393696, -59340.372304960765, -17935.956172461054, -6336.294869934902, -25404.36689905726, -0.192, 0.92, 0.306, 192.0, 0.0, 0.0, 0.0, 0.0, 0.0, 0.0, 0.0, 0.0, 0.0, 1.700950543215215E9, 0.0, 2023-11-25 17:15:43.215
64.0, 30041.213934566254, 39651.815849759085, -46373.186573170016, -41334.388117121234, -59307.26937142246, -17895.16423883012, -6104.417872955546, -25410.334814826827, -0.192, 0.92, 0.306, 192.0, 0.0, 0.0, 0.0, 0.0, 0.0, 0.0, 0.0, 0.0, 0.0, 1.700950543219244E9, 0.0, 2023-11-25 17:15:43.219
65.0, 29969.040151720066, 39554.60811312296, -46413.84439633422, -41403.7232284216, -59370.4130495087, -17981.039641027408, -6087.028215769317, -25450.4561961241, -0.192, 0.92, 0.306, 192.0, 0.0, 0.0, 0.0, 0.0, 0.0, 0.0, 0.0, 0.0, 0.0, 1.700950543223193E9, 0.0, 2023-11-25 17:15:43.223
66.0, 29973.64461107786, 39597.03172409913, -46404.009628773885, -41372.38608269526, -59369.49662798603, -17955.424541881628, -6192.103766453715, -25412.949968928096, -0.192, 0.92, 0.306, 192.0, 0.0, 0.0, 0.0, 0.0, 0.0, 0.0, 0.0, 0.0, 0.0, 1.700950543227215E9, 0.0, 2023-11-25 17:15:43.227
67.0, 30023.55605644656, 39681.454262906824, -46362.68125327602, -41315.76911398997, -59335.67843862515, -17919.88526819769, -6311.685599289608, -25357.74116012349, -0.192, 0.92, 0.306, 192.0, 0.0, 0.0, 0.0, 0.0, 0.0, 0.0, 0.0, 0.0, 0.0, 1.700950543231262E9, 0.0, 2023-11-25 17:15:43.231
68.0, 30050.780481193124, 39662.56703884209, -46357.585055540214, -41314.807988978384, -59295.6464643057, -17872.186645530062, -6128.043666844806, -25369.319363751336, -0.192, 0.92, 0.306, 192.0, 0.0, 0.0, 0.0, 0.0, 0.0, 0.0, 0.0, 0.0, 0.0, 1.700950543235257E9, 0.0, 2023-11-25 17:15:43.235
69.0, 29980.797169303558, 39559.52549690312, -46404.38960842963, -41392.54735619394, -59353.40337197821, -17952.809387780355, -6045.073991426706, -25415.252198606995, -0.192, 0.92, 0.306, 192.0, 0.0, 0.0, 0.0, 0.0, 0.0, 0.0, 0.0, 0.0, 0.0, 1.700950543239267E9, 0.0, 2023-11-25 17:15:43.239
70.0, 29973.555204100037, 39583.4418634703, -46398.75696882689, -41373.973056551586, -59360.66768892619, -17947.89200400019, -6160.341937582724, -25398.086058865316, -0.194, 0.92, 0.318, 192.0, 249.0, 240.0, 28.0, 192.0, 9.0, 240.0, 0.0, 0.0, 0.0, 1.700950543242311E9, 0.0, 2023-11-25 17:15:43.242
71.0, 30017.47638195472, 39664.9139720099, -46361.429555586525, -41319.88183496974, -59334.47144442457, -17918.54416353037, -6292.552506035866, -25366.92772709462, -0.194, 0.92, 0.318, 192.0, 0.0, 0.0, 0.0, 0.0, 0.0, 0.0, 0.0, 0.0, 0.0, 1.700950543246632E9, 0.0, 2023-11-25 17:15:43.246
72.0, 30060.056455142076, 39675.82162330409, -46337.960223908456, -41297.3959800477, -59280.20140888708, -17862.82126460329, -6168.589731286733, -25361.540956680892, -0.194, 0.92, 0.318, 192.0, 0.0, 0.0, 0.0, 0.0, 0.0, 0.0, 0.0, 0.0, 0.0, 1.700950543250323E9, 0.0, 2023-11-25 17:15:43.250
73.0, 30000.37729744641, 39573.45063369878, -46391.06796873426, -41374.77771935198, -59329.93404030014, -17933.22925963751, -6025.516215028312, -25425.086966167328, -0.194, 0.92, 0.318, 192.0, 0.0, 0.0, 0.0, 0.0, 0.0, 0.0, 0.0, 0.0, 0.0, 1.700950543255321E9, 0.0, 2023-11-25 17:15:43.255
74.0, 29976.282116923587, 39572.60126740948, -46397.013532759374, -41372.58724839536, -59352.86693011128, -17955.737466304003, -6148.182588599037, -25415.252198606995, -0.194, 0.92, 0.318, 192.0, 0.0, 0.0, 0.0, 0.0, 0.0, 0.0, 0.0, 0.0, 0.0, 1.700950543259306E9, 0.0, 2023-11-25 17:15:43.259
75.0, 30022.41611747934, 39663.148184197926, -46364.8940759771, -41317.64666052421, -59331.02927577845, -17930.36823634723, -6284.997616409972, -25384.11621858075, -0.194, 0.92, 0.318, 192.0, 0.0, 0.0, 0.0, 0.0, 0.0, 0.0, 0.0, 0.0, 0.0, 1.700950543263342E9, 0.0, 2023-11-25 17:15:43.263
76.0, 30081.447074585805, 39701.50377768323, -46330.204168582466, -41281.03450310642, -59276.51337105196, -17879.696831667046, -6232.426313451089, -25371.532186452412, -0.194, 0.92, 0.318, 192.0, 0.0, 0.0, 0.0, 0.0, 0.0, 0.0, 0.0, 0.0, 0.0, 1.700950543267425E9, 0.0, 2023-11-25 17:15:43.267
77.0, 30030.0380623386, 39599.825692156046, -46384.87653552015, -41356.67280634318, -59318.33348492783, -17931.150547403162, -6035.373334333102, -25432.239524393026, -0.194, 0.92, 0.318, 192.0, 0.0, 0.0, 0.0, 0.0, 0.0, 0.0, 0.0, 0.0, 0.0, 1.700950543271384E9, 0.0, 2023-11-25 17:15:43.271
78.0, 29984.038172249577, 39563.99584579418, -46401.953268284, -41379.628047898776, -59360.712392415095, -17984.45945792907, -6155.849236947208, -25447.93044900065, -0.194, 0.92, 0.318, 192.0, 0.0, 0.0, 0.0, 0.0, 0.0, 0.0, 0.0, 0.0, 0.0, 1.700950543276365E9, 0.0, 2023-11-25 17:15:43.276
79.0, 30009.742678373183, 39639.12005890847, -46383.82600353075, -41338.54554158993, -59351.771694632975, -17960.274870428428, -6285.981093166005, -25422.09183241032, -0.194, 0.92, 0.318, 192.0, 0.0, 0.0, 0.0, 0.0, 0.0, 0.0, 0.0, 0.0, 0.0, 1.700950543280458E9, 0.0, 2023-11-25 17:15:43.280
80.0, 30071.14292039191, 39699.6709346379, -46334.11572386214, -41283.80611941888, -59293.70186253809, -17899.9251603991, -6294.117128147737, -25370.951041096574, -0.194, 0.926, 0.308, 192.0, 249.0, 240.0, 28.0, 240.0, 9.0, 160.0, 0.0, 0.0, 0.0, 1.700950543283378E9, 0.0, 2023-11-25 17:15:43.283
81.0, 30033.23436179571, 39606.82178817056, -46382.484898863426, -41348.71558531709, -59317.03708374943, -17923.953285688556, -6054.86405549813, -25434.631161049743, -0.194, 0.926, 0.308, 192.0, 0.0, 0.0, 0.0, 0.0, 0.0, 0.0, 0.0, 0.0, 0.0, 1.70095054328849E9, 0.0, 2023-11-25 17:15:43.288
82.0, 29975.052770978546, 39549.69072934279, -46402.46735840647, -41385.19363226815, -59366.14386631774, -17984.5935683958, -6134.413914014568, -25434.877030238753, -0.194, 0.926, 0.308, 192.0, 0.0, 0.0, 0.0, 0.0, 0.0, 0.0, 0.0, 0.0, 0.0, 1.700950543293478E9, 0.0, 2023-11-25 17:15:43.293
83.0, 29988.977907774202, 39611.15802659488, -46388.072834977254, -41345.04989922642, -59359.50539821451, -17951.423579624126, -6241.769342633408, -25400.567102499856, -0.194, 0.926, 0.308, 192.0, 0.0, 0.0, 0.0, 0.0, 0.0, 0.0, 0.0, 0.0, 0.0, 1.70095054329643E9, 0.0, 2023-11-25 17:15:43.296
84.0, 30040.923361888334, 39677.542707627144, -46341.46944778794, -41293.26090732347, -59314.06430173687, -17909.245837836963, -6309.450424844078, -25360.088093291295, -0.194, 0.926, 0.308, 192.0, 0.0, 0.0, 0.0, 0.0, 0.0, 0.0, 0.0, 0.0, 0.0, 1.700950543299436E9, 0.0, 2023-11-25 17:15:43.299
85.0, 30026.37237624793, 39609.1463695939, -46370.97375046894, -41337.338547389336, -59310.376263901744, -17903.16616334512, -6067.291625415281, -25409.328986326338, -0.194, 0.926, 0.308, 192.0, 0.0, 0.0, 0.0, 0.0, 0.0, 0.0, 0.0, 0.0, 0.0, 1.700950543303694E9, 0.0, 2023-11-25 17:15:43.303
86.0, 29963.988657473168, 39531.04937446706, -46397.169994970565, -41389.70868464812, -59364.489837228044, -17982.000766038986, -6107.345951479191, -25431.45721333709, -0.194, 0.926, 0.308, 192.0, 0.0, 0.0, 0.0, 0.0, 0.0, 0.0, 0.0, 0.0, 0.0, 1.700950543306433E9, 0.0, 2023-11-25 17:15:43.306
87.0, 29985.066352494523, 39597.143482821404, -46379.825041273245, -41345.74280330453, -59351.771694632975, -17946.439140610593, -6215.595449876243, -25389.391230272202, -0.194, 0.926, 0.308, 192.0, 0.0, 0.0, 0.0, 0.0, 0.0, 0.0, 0.0, 0.0, 0.0, 1.700950543310705E9, 0.0, 2023-11-25 17:15:43.310
88.0, 30039.403443265375, 39677.90033553843, -46338.094334375186, -41291.42806427814, -59315.22659244855, -17911.50336402695, -6319.776930782429, -25350.007456541953, -0.194, 0.926, 0.308, 192.0, 0.0, 0.0, 0.0, 0.0, 0.0, 0.0, 0.0, 0.0, 0.0, 1.700950543315446E9, 0.0, 2023-11-25 17:15:43.315
89.0, 30049.640542225905, 39637.197808885314, -46348.51024729136, -41309.868253453766, -59288.426850846634, -17877.886340366167, -6098.829936841719, -25374.952003354076, -0.192, 0.922, 0.306, 192.0, 250.0, 0.0, 28.0, 208.0, 9.0, 144.0, 0.0, 0.0, 0.0, 1.700950543319528E9, 0.0, 2023-11-25 17:15:43.319
90.0, 29975.611564589926, 39535.698537313765, -46392.409073401584, -41382.95845782262, -59350.654107410206, -17969.774361821936, -6072.209009195449, -25426.80805049039, -0.192, 0.922, 0.306, 192.0, 0.0, 0.0, 0.0, 0.0, 0.0, 0.0, 0.0, 0.0, 0.0, 1.700950543322489E9, 0.0, 2023-11-25 17:15:43.322
91.0, 29973.197576188755, 39568.980284807716, -46388.497518121905, -41361.54548663444, -59359.21482553659, -17964.87932978622, -6190.337978641746, -25441.090815197327, -0.192, 0.922, 0.306, 192.0, 0.0, 0.0, 0.0, 0.0, 0.0, 0.0, 0.0, 0.0, 0.0, 1.700950543326558E9, 0.0, 2023-11-25 17:15:43.326
92.0, 30022.729041901715, 39655.57094282758, -46343.01171815535, -41306.47078829656, -59326.603630376296, -17936.179689905606, -6323.397913384189, -25415.140439884715, -0.192, 0.922, 0.306, 192.0, 0.0, 0.0, 0.0, 0.0, 0.0, 0.0, 0.0, 0.0, 0.0, 1.700950543330528E9, 0.0, 2023-11-25 17:15:43.330
93.0, 30048.27708581413, 39639.522390308666, -46334.093372117684, -41302.17925336114, -59281.788382743405, -17879.138038055666, -6133.206919813982, -25393.414544274157, -0.192, 0.922, 0.306, 192.0, 0.0, 0.0, 0.0, 0.0, 0.0, 0.0, 0.0, 0.0, 0.0, 1.700950543334545E9, 0.0, 2023-11-25 17:15:43.334
94.0, 29975.969192501212, 39530.89291225588, -46384.161279697575, -41381.05855954392, -59340.238194494035, -17955.312783159352, -6035.283927355281, -25409.016061903963, -0.192, 0.922, 0.306, 192.0, 0.0, 0.0, 0.0, 0.0, 0.0, 0.0, 0.0, 0.0, 0.0, 1.700950543338561E9, 0.0, 2023-11-25 17:15:43.338
95.0, 29964.368637128908, 39550.808316565555, -46385.43532913153, -41371.04497802794, -59358.276052269466, -17958.397323894184, -6153.256434590392, -25384.138570325205, -0.192, 0.922, 0.306, 192.0, 0.0, 0.0, 0.0, 0.0, 0.0, 0.0, 0.0, 0.0, 0.0, 1.700950543343578E9, 0.0, 2023-11-25 17:15:43.343
96.0, 30010.972024318224, 39642.27165487667, -46350.16427638105, -41316.26085236798, -59333.91265081318, -17935.97852420551, -6299.906229961662, -25365.676029405124, -0.192, 0.922, 0.306, 192.0, 0.0, 0.0, 0.0, 0.0, 0.0, 0.0, 0.0, 0.0, 0.0, 1.700950543347827E9, 0.0, 2023-11-25 17:15:43.347
97.0, 30043.627922967426, 39645.19973340032, -46341.13417162111, -41302.69334348361, -59291.712557281564, -17889.375137016195, -6189.13098444116, -25374.080285320317, -0.192, 0.922, 0.306, 192.0, 0.0, 0.0, 0.0, 0.0, 0.0, 0.0, 0.0, 0.0, 0.0, 1.700950543351595E9, 0.0, 2023-11-25 17:15:43.351
98.0, 29986.45216065075, 39544.95215951827, -46390.240954189416, -41376.342341463846, -59336.17017700317, -17955.513948859447, -6041.318898358214, -25428.059748179883, -0.192, 0.922, 0.306, 192.0, 0.0, 0.0, 0.0, 0.0, 0.0, 0.0, 0.0, 0.0, 0.0, 1.700950543354579E9, 0.0, 2023-11-25 17:15:43.354
99.0, 29970.247145920654, 39546.24856069667, -46386.48586112093, -41370.061501271906, -59350.96703183258, -17976.16696073615, -6167.338033597235, -25424.41641383367, -0.196, 0.918, 0.308, 192.0, 249.0, 224.0, 28.0, 176.0, 9.0, 160.0, 0.0, 0.0, 0.0, 1.700950543359656E9, 0.0, 2023-11-25 17:15:43.359
100.0, 30011.26259699614, 39630.425230315355, -46357.518000306845, -41319.36774484727, -59331.722179856566, -17947.98141097801, -6294.251238614469, -25386.93253838212, -0.196, 0.918, 0.308, 192.0, 0.0, 0.0, 0.0, 0.0, 0.0, 0.0, 0.0, 0.0, 0.0, 1.700950543363976E9, 0.0, 2023-11-25 17:15:43.363
101.0, 30068.684228501825, 39670.79248080164, -46319.74355217738, -41280.9450961286, -59275.95457744057, -17889.419840505107, -6248.743086903463, -25354.790729855387, -0.196, 0.918, 0.308, 192.0, 0.0, 0.0, 0.0, 0.0, 0.0, 0.0, 0.0, 0.0, 0.0, 1.700950543368657E9, 0.0, 2023-11-25 17:15:43.368
102.0, 30021.857323867956, 39573.33887497651, -46370.727881279934, -41354.08000398636, -59311.33738891332, -17931.97756194801, -6042.168264647516, -25417.085041652328, -0.196, 0.918, 0.308, 192.0, 0.0, 0.0, 0.0, 0.0, 0.0, 0.0, 0.0, 0.0, 0.0, 1.700950543372656E9, 0.0, 2023-11-25 17:15:43.372
103.0, 29979.009029747132, 39539.99007224919, -46384.720073308956, -41375.291809474445, -59350.83292136585, -17982.291338716906, -6152.205902600993, -25428.551486557903, -0.196, 0.918, 0.308, 192.0, 0.0, 0.0, 0.0, 0.0, 0.0, 0.0, 0.0, 0.0, 0.0, 1.700950543375712E9, 0.0, 2023-11-25 17:15:43.375
104.0, 30002.523064914116, 39615.09193361902, -46367.77745101183, -41332.42116360917, -59341.51224392799, -17955.290431414895, -6280.214343096536, -25400.07536412184, -0.196, 0.918, 0.308, 192.0, 0.0, 0.0, 0.0, 0.0, 0.0, 0.0, 0.0, 0.0, 0.0, 1.700950543378713E9, 0.0, 2023-11-25 17:15:43.378
105.0, 30050.71342595976, 39664.7128063098, -46331.00883138285, -41289.05877936587, -59294.30535963838, -17908.418823292115, -6299.325084605824, -25365.11723579374, -0.196, 0.918, 0.308, 192.0, 0.0, 0.0, 0.0, 0.0, 0.0, 0.0, 0.0, 0.0, 0.0, 1.700950543382708E9, 0.0, 2023-11-25 17:15:43.382
106.0, 30022.2373035237, 39583.26304951466, -46370.951398724486, -41346.0557277269, -59307.26937142246, -17923.34978858826, -6061.6589858125435, -25426.584533045832, -0.196, 0.918, 0.308, 192.0, 0.0, 0.0, 0.0, 0.0, 0.0, 0.0, 0.0, 0.0, 0.0, 1.700950543386694E9, 0.0, 2023-11-25 17:15:43.386
107.0, 29959.183032415276, 39516.274871382106, -46397.70643683749, -41389.03813231446, -59362.254662782514, -17991.544960921405, -6135.710315192976, -25449.629181579257, -0.196, 0.918, 0.308, 192.0, 0.0, 0.0, 0.0, 0.0, 0.0, 0.0, 0.0, 0.0, 0.0, 1.700950543390643E9, 0.0, 2023-11-25 17:15:43.390
108.0, 29968.25784066413, 39570.50020343068, -46389.21277394448, -41355.37640516477, -59361.80762789341, -17962.957079763066, -6255.940348618073, -25411.40769856068, -0.196, 0.918, 0.308, 192.0, 0.0, 0.0, 0.0, 0.0, 0.0, 0.0, 0.0, 0.0, 0.0, 1.700950543394719E9, 0.0, 2023-11-25 17:15:43.394
109.0, 30026.52883845912, 39644.01509094419, -46338.295500075285, -41299.228823093035, -59312.11969996926, -17914.632608250693, -6329.544643109399, -25356.087131033797, -0.198, 0.916, 0.306, 192.0, 249.0, 208.0, 28.0, 160.0, 9.0, 144.0, 0.0, 0.0, 0.0, 1.700950543398731E9, 0.0, 2023-11-25 17:15:43.398
110.0, 30018.973948833223, 39580.714950646754, -46366.72691902243, -41340.22192242407, -59307.62699933374, -17901.8250586778, -6079.20510520996, -25396.476733264535, -0.198, 0.916, 0.306, 192.0, 0.0, 0.0, 0.0, 0.0, 0.0, 0.0, 0.0, 0.0, 0.0, 1.700950543402742E9, 0.0, 2023-11-25 17:15:43.402
111.0, 29949.616485788407, 39498.95226942924, -46400.9027362946, -41399.94578360865, -59367.88730238525, -17979.340908448805, -6097.980570552418, -25413.46405905057, -0.198, 0.916, 0.306, 192.0, 0.0, 0.0, 0.0, 0.0, 0.0, 0.0, 0.0, 0.0, 0.0, 1.7009505434058E9, 0.0, 2023-11-25 17:15:43.405
112.0, 29957.21607890321, 39548.26021769765, -46390.799747800804, -41367.111071003805, -59366.92617737367, -17953.59169883629, -6208.241725950447, -25377.589509199803, -0.198, 0.916, 0.306, 192.0, 0.0, 0.0, 0.0, 0.0, 0.0, 0.0, 0.0, 0.0, 0.0, 1.700950543410743E9, 0.0, 2023-11-25 17:15:43.410
113.0, 30011.977852818713, 39629.26293960368, -46342.51997977734, -41309.10829414229, -59329.08467401084, -17920.242896108975, -6324.068465717848, -25341.87142156022, -0.198, 0.916, 0.306, 192.0, 0.0, 0.0, 0.0, 0.0, 0.0, 0.0, 0.0, 0.0, 0.0, 1.700950543414825E9, 0.0, 2023-11-25 17:15:43.414
114.0, 30030.59685594998, 39600.719761934255, -46346.36447982365, -41319.859483225286, -59297.1440311842, -17882.11082006822, -6104.619038655644, -25372.716828908546, -0.198, 0.916, 0.306, 192.0, 0.0, 0.0, 0.0, 0.0, 0.0, 0.0, 0.0, 0.0, 0.0, 1.700950543418755E9, 0.0, 2023-11-25 17:15:43.418
115.0, 29953.21511664571, 39501.098036896954, -46393.30314317979, -41394.11197830582, -59359.952433103615, -17968.209739710062, -6061.033136967795, -25409.574855515344, -0.198, 0.916, 0.306, 192.0, 0.0, 0.0, 0.0, 0.0, 0.0, 0.0, 0.0, 0.0, 0.0, 1.700950543422763E9, 0.0, 2023-11-25 17:15:43.422
116.0, 29957.59605855895, 39542.29230192808, -46380.33913139572, -41362.95364653512, -59358.09723831383, -17950.55186159037, -6178.178629658059, -25387.11135233776, -0.198, 0.916, 0.306, 192.0, 0.0, 0.0, 0.0, 0.0, 0.0, 0.0, 0.0, 0.0, 0.0, 1.700950543426774E9, 0.0, 2023-11-25 17:15:43.426
117.0, 30005.227625993208, 39625.59725351301, -46341.245930343386, -41311.7010964991, -59328.97291528856, -17927.574268290315, -6305.449462586577, -25344.307761705848, -0.198, 0.916, 0.306, 192.0, 0.0, 0.0, 0.0, 0.0, 0.0, 0.0, 0.0, 0.0, 0.0, 1.700950543431825E9, 0.0, 2023-11-25 17:15:43.431
118.0, 30035.737757174702, 39615.6507272304, -46333.825151184225, -41308.191872619616, -59286.81752524585, -17880.322680511796, -6134.570376225755, -25348.599296641267, -0.198, 0.916, 0.306, 192.0, 0.0, 0.0, 0.0, 0.0, 0.0, 0.0, 0.0, 0.0, 0.0, 1.700950543435862E9, 0.0, 2023-11-25 17:15:43.435
119.0, 29964.949782484746, 39509.9269759568, -46388.788090799826, -41392.52500444949, -59349.69298239863, -17971.338983933805, -6032.735828487376, -25417.576780030344, -0.192, 0.918, 0.308, 192.0, 250.0, 0.0, 28.0, 176.0, 9.0, 160.0, 0.0, 0.0, 0.0, 1.700950543439837E9, 0.0, 2023-11-25 17:15:43.439
120.0, 29956.16554691381, 39531.92109250082, -46385.14475645361, -41376.09647227484, -59360.33241275936, -17976.74810609199, -6156.877417192151, -25407.138515369716, -0.192, 0.918, 0.308, 192.0, 0.0, 0.0, 0.0, 0.0, 0.0, 0.0, 0.0, 0.0, 0.0, 1.700950543442865E9, 0.0, 2023-11-25 17:15:43.442
121.0, 30003.439486436786, 39628.3018145921, -46344.442229800494, -41312.863387210775, -59327.90003155471, -17937.096111428276, -6289.24444785648, -25337.02109301342, -0.192, 0.918, 0.308, 192.0, 0.0, 0.0, 0.0, 0.0, 0.0, 0.0, 0.0, 0.0, 0.0, 1.700950543447957E9, 0.0, 2023-11-25 17:15:43.447
122.0, 30047.584181736016, 39645.69147177833, -46324.90680514656, -41290.95867764457, -59277.76506874145, -17885.128305569688, -6182.827792504763, -25330.941418521576, -0.192, 0.918, 0.308, 192.0, 0.0, 0.0, 0.0, 0.0, 0.0, 0.0, 0.0, 0.0, 0.0, 1.70095054345187E9, 0.0, 2023-11-25 17:15:43.451
123.0, 29994.342326443475, 39543.745165317676, -46379.42270987305, -41371.447309428135, -59324.77078733096, -17959.447855883584, -6033.5404912877675, -25420.281341109436, -0.192, 0.918, 0.308, 192.0, 0.0, 0.0, 0.0, 0.0, 0.0, 0.0, 0.0, 0.0, 0.0, 1.700950543456868E9, 0.0, 2023-11-25 17:15:43.456
124.0, 29970.627125576393, 39538.291339670584, -46386.687026821026, -41376.36469320831, -59352.73281964455, -17993.534266177925, -6164.812286473785, -25437.492184340023, -0.192, 0.918, 0.308, 192.0, 0.0, 0.0, 0.0, 0.0, 0.0, 0.0, 0.0, 0.0, 0.0, 1.700950543459978E9, 0.0, 2023-11-25 17:15:43.459
125.0, 30005.98758530469, 39619.852855188, -46362.345977109195, -41329.2025124076, -59339.23236599355, -17963.292355929894, -6294.564163036843, -25380.98697435701, -0.192, 0.918, 0.308, 192.0, 0.0, 0.0, 0.0, 0.0, 0.0, 0.0, 0.0, 0.0, 0.0, 1.700950543462892E9, 0.0, 2023-11-25 17:15:43.462
126.0, 30067.23136511223, 39671.463033135304, -46314.20031955246, -41281.01215136196, -59276.93805419661, -17897.466468509017, -6256.85677014074, -25335.188249968083, -0.192, 0.918, 0.308, 192.0, 0.0, 0.0, 0.0, 0.0, 0.0, 0.0, 0.0, 0.0, 0.0, 1.700950543465922E9, 0.0, 2023-11-25 17:15:43.465
127.0, 30021.36558548994, 39575.57404942204, -46364.42468934354, -41353.32004467488, -59309.482194123535, -17936.962000961543, -6036.848549467153, -25406.870294436252, -0.192, 0.918, 0.308, 192.0, 0.0, 0.0, 0.0, 0.0, 0.0, 0.0, 0.0, 0.0, 0.0, 1.700950543470937E9, 0.0, 2023-11-25 17:15:43.470
128.0, 29980.327782669996, 39544.05808974005, -46373.76771852586, -41370.262666972005, -59344.12739802926, -17977.530417147926, -6138.571338483255, -25401.572931000344, -0.192, 0.918, 0.308, 192.0, 0.0, 0.0, 0.0, 0.0, 0.0, 0.0, 0.0, 0.0, 0.0, 1.700950543474954E9, 0.0, 2023-11-25 17:15:43.474
129.0, 30012.804867363557, 39623.98792791223, -46349.98546242541, -41319.83713148083, -59328.72704609955, -17940.20300390756, -6261.483581242988, -25360.57983166931, -0.192, 0.918, 0.312, 192.0, 250.0, 0.0, 28.0, 176.0, 9.0, 192.0, 0.0, 0.0, 0.0, 1.700950543479039E9, 0.0, 2023-11-25 17:15:43.479
130.0, 30068.952449435288, 39679.35319892802, -46306.488967715384, -41270.97621810153, -59280.73785075401, -17887.698756182046, -6287.47866004451, -25328.77329930941, -0.192, 0.918, 0.312, 192.0, 0.0, 0.0, 0.0, 0.0, 0.0, 0.0, 0.0, 0.0, 0.0, 1.70095054348308E9, 0.0, 2023-11-25 17:15:43.483
131.0, 30040.47632699923, 39593.7460176642, -46350.76777348135, -41330.16363741918, -59295.087670694316, -17898.628759220694, -6038.010840178828, -25389.88296865022, -0.192, 0.918, 0.312, 192.0, 0.0, 0.0, 0.0, 0.0, 0.0, 0.0, 0.0, 0.0, 0.0, 1.700950543486262E9, 0.0, 2023-11-25 17:15:43.486
132.0, 29970.135387198377, 39518.75591501664, -46386.70937856548, -41384.38896946776, -59359.77361914798, -17980.570254393846, -6111.883355603619, -25433.625332549254, -0.192, 0.918, 0.312, 192.0, 0.0, 0.0, 0.0, 0.0, 0.0, 0.0, 0.0, 0.0, 0.0, 1.700950543490001E9, 0.0, 2023-11-25 17:15:43.490
133.0, 29992.151855486856, 39589.07450307304, -46367.75509926738, -41340.08781195734, -59349.31300274289, -17944.002800464965, -6230.928746572584, -25392.49812275149, -0.192, 0.918, 0.312, 192.0, 0.0, 0.0, 0.0, 0.0, 0.0, 0.0, 0.0, 0.0, 0.0, 1.700950543494082E9, 0.0, 2023-11-25 17:15:43.494
134.0, 30052.9933038942, 39667.50677436671, -46314.44618874147, -41277.03354084892, -59296.22760966154, -17879.741535155958, -6300.442671828589, -25305.28161588688, -0.192, 0.918, 0.312, 192.0, 0.0, 0.0, 0.0, 0.0, 0.0, 0.0, 0.0, 0.0, 0.0, 1.700950543499022E9, 0.0, 2023-11-25 17:15:43.499
135.0, 30047.60653348047, 39608.36405853797, -46339.39073555359, -41314.71858200057, -59285.02938568943, -17863.20124425903, -6055.62401480961, -25348.331075707803, -0.192, 0.918, 0.312, 192.0, 0.0, 0.0, 0.0, 0.0, 0.0, 0.0, 0.0, 0.0, 0.0, 1.700950543503037E9, 0.0, 2023-11-25 17:15:43.503
136.0, 29975.253936678644, 39523.606243563445, -46377.47810810544, -41381.2150217551, -59348.55304343141, -17948.02611446692, -6070.5773318502115, -25380.11525632325, -0.192, 0.918, 0.312, 192.0, 0.0, 0.0, 0.0, 0.0, 0.0, 0.0, 0.0, 0.0, 0.0, 1.700950543507021E9, 0.0, 2023-11-25 17:15:43.507
137.0, 29982.250032693155, 39570.88018308642, -46369.31972137925, -41352.04599524093, -59349.17889227616, -17925.853183967254, -6181.777260515364, -25346.118253006727, -0.192, 0.918, 0.312, 192.0, 0.0, 0.0, 0.0, 0.0, 0.0, 0.0, 0.0, 0.0, 0.0, 1.70095054351111E9, 0.0, 2023-11-25 17:15:43.511
138.0, 30037.704710686772, 39654.02867246016, -46322.80574116776, -41297.03835213642, -59312.18675520262, -17901.73565169998, -6306.3882358537, -25323.8782672737, -0.192, 0.918, 0.312, 192.0, 0.0, 0.0, 0.0, 0.0, 0.0, 0.0, 0.0, 0.0, 0.0, 1.700950543515055E9, 0.0, 2023-11-25 17:15:43.515
139.0, 30055.563754506562, 39625.261977346185, -46326.94081389199, -41310.71761974307, -59280.98371994302, -17872.052535063332, -6093.174945494527, -25368.090017806295, -0.198, 0.922, 0.308, 192.0, 249.0, 208.0, 28.0, 208.0, 9.0, 160.0, 0.0, 0.0, 0.0, 1.700950543519174E9, 0.0, 2023-11-25 17:15:43.519
140.0, 29979.925451269803, 39525.841418008975, -46375.30998889327, -41386.981771824576, -59346.519034685974, -17963.784094307914, -6045.252805382348, -25399.06953562135, -0.198, 0.922, 0.308, 192.0, 0.0, 0.0, 0.0, 0.0, 0.0, 0.0, 0.0, 0.0, 0.0, 1.700950543523027E9, 0.0, 2023-11-25 17:15:43.523
141.0, 29976.08095122349, 39555.6362933679, -46370.727881279934, -41364.1606407357, -59352.97868883356, -17954.41871338114, -6161.236007360936, -25362.859709603752, -0.198, 0.922, 0.308, 192.0, 0.0, 0.0, 0.0, 0.0, 0.0, 0.0, 0.0, 0.0, 0.0, 1.700950543527093E9, 0.0, 2023-11-25 17:15:43.527
142.0, 30017.252864510163, 39638.337747852536, -46336.194436096484, -41313.53393954443, -59329.21878447757, -17933.6315910377, -6294.452404314567, -25323.565342851325, -0.198, 0.922, 0.308, 192.0, 0.0, 0.0, 0.0, 0.0, 0.0, 0.0, 0.0, 0.0, 0.0, 1.700950543532394E9, 0.0, 2023-11-25 17:15:43.532
143.0, 30055.2955335731, 39644.77505025567, -46319.34122077718, -41298.26769808146, -59278.54737979739, -17882.379041001685, -6136.134998337627, -25333.847145300766, -0.198, 0.922, 0.308, 192.0, 0.0, 0.0, 0.0, 0.0, 0.0, 0.0, 0.0, 0.0, 0.0, 1.700950543536075E9, 0.0, 2023-11-25 17:15:43.536
144.0, 29984.93224202779, 39537.173752447816, -46376.78520402732, -41380.92444907719, -59339.21001424909, -17967.852111798777, -6027.058485395728, -25407.607902003278, -0.198, 0.922, 0.308, 192.0, 0.0, 0.0, 0.0, 0.0, 0.0, 0.0, 0.0, 0.0, 0.0, 1.700950543544391E9, 0.0, 2023-11-25 17:15:43.544
145.0, 29969.621297075904, 39546.94146477478, -46378.03690171682, -41372.05080652843, -59355.6608981682, -17978.93857704861, -6151.98238515644, -25397.527265253935, -0.198, 0.922, 0.308, 192.0, 0.0, 0.0, 0.0, 0.0, 0.0, 0.0, 0.0, 0.0, 0.0, 1.700950543547202E9, 0.0, 2023-11-25 17:15:43.547
146.0, 30018.146934288376, 39638.89654146392, -46340.62008149864, -41315.14326514522, -59328.16825248817, -17946.193271421584, -6289.713834490041, -25341.49144190448, -0.198, 0.922, 0.308, 192.0, 0.0, 0.0, 0.0, 0.0, 0.0, 0.0, 0.0, 0.0, 0.0, 1.700950543551153E9, 0.0, 2023-11-25 17:15:43.551
147.0, 30074.942716949314, 39667.64088483345, -46309.17117705002, -41280.565116472855, -59268.55615002587, -17881.77554390139, -6200.1280427131705, -25332.751909822455, -0.198, 0.922, 0.308, 192.0, 0.0, 0.0, 0.0, 0.0, 0.0, 0.0, 0.0, 0.0, 0.0, 1.700950543554247E9, 0.0, 2023-11-25 17:15:43.554
148.0, 30025.120678558433, 39565.694578372786, -46358.88145671862, -41353.38709990825, -59308.02933073394, -17935.822061994324, -6028.176072618494, -25399.382460043726, -0.198, 0.922, 0.308, 192.0, 0.0, 0.0, 0.0, 0.0, 0.0, 0.0, 0.0, 0.0, 0.0, 1.700950543557107E9, 0.0, 2023-11-25 17:15:43.557
149.0, 29991.74952408666, 39544.6839385848, -46366.70456727798, -41360.65141685622, -59338.02537179296, -17962.778265807425, -6139.733629194931, -25389.41358201666, -0.192, 0.92, 0.308, 192.0, 250.0, 0.0, 28.0, 192.0, 9.0, 160.0, 0.0, 0.0, 0.0, 1.700950543560178E9, 0.0, 2023-11-25 17:15:43.560
