%OpenBCI Raw EXG Data
%Number of channels = 8
%Sample Rate = 250 Hz
%Board = OpenBCI_GUI$BoardCytonSerial
Sample Index, EXG Channel 0, EXG Channel 1, EXG Channel 2, EXG Channel 3, EXG Channel 4, EXG Channel 5, EXG Channel 6, EXG Channel 7, Accel Channel 0, Accel Channel 1, Accel Channel 2, Other, Other, Other, Other, Other, Other, Other, Analog Channel 0, Analog Channel 1, Analog Channel 2, Timestamp, Other, Timestamp (Formatted)
36.0, 25378.68474467811, 34975.42857830865, -47861.58923644892, -43586.34872273788, -61131.596402120165, -15281.194780015325, -6936.126284137522, -26282.879863128648, 0.0, 0.0, 0.0, 192.0, 0.0, 0.0, 0.0, 0.0, 0.0, 0.0, 0.0, 0.0, 0.0, 1.70095047010959E9, 0.0, 2023-11-25 17:14:30.109
37.0, 25317.843296270767, 34887.40740864365, -47896.368550821375, -43640.417592575264, -61191.7449464494, -15371.227606681301, -6946.18456914241, -26331.9642939525, 0.0, 0.0, 0.0, 192.0, 0.0, 0.0, 0.0, 0.0, 0.0, 0.0, 0.0, 0.0, 0.0, 1.700950470109615E9, 0.0, 2023-11-25 17:14:30.109
38.0, 25335.25530520145, 34942.43740349262, -47884.45507102669, -43604.11835957985, -61190.78382143782, -15351.200443649346, -7106.133652464588, -26324.096479904234, -0.178, 0.9460000000000001, 0.254, 192.0, 250.0, 112.0, 29.0, 144.0, 7.0, 240.0, 0.0, 0.0, 0.0, 1.700950470109643E9, 0.0, 2023-11-25 17:14:30.109
0.0, 0.0, 0.0, 0.0, 0.0, 0.0, 0.0, 0.0, 0.0, -0.178, 0.9460000000000001, 0.254, 192.0, 0.0, 0.0, 0.0, 0.0, 0.0, 0.0, 0.0, 0.0, 0.0, 1.700950470200178E9, 0.0, 2023-11-25 17:14:30.200
1.0, 25824.40088086139, 35240.56497103751, -47700.0084757815, -43325.906196344644, -61030.03007531525, -15575.611957980629, -6866.1206205035, -26081.468293841877, -0.18, 0.9460000000000001, 0.258, 192.0, 250.0, 96.0, 29.0, 144.0, 8.0, 16.0, 0.0, 0.0, 0.0, 1.700950470217213E9, 0.0, 2023-11-25 17:14:30.217
2.0, 25757.2785922621, 35164.7478538451, -47728.41754298419, -43374.47653704602, -61089.70923301092, -15655.519444408352, -6913.595725726572, -26100.959015006905, -0.18, 0.9460000000000001, 0.258, 192.0, 0.0, 0.0, 0.0, 0.0, 0.0, 0.0, 0.0, 0.0, 0.0, 1.700950470220215E9, 0.0, 2023-11-25 17:14:30.220
3.0, 25771.650763946865, 35217.22974982617, -47716.548766678425, -43343.85464714225, -61090.58095104468, -15633.368865653143, -7055.685765228959, -26075.58978505013, -0.18, 0.9460000000000001, 0.258, 192.0, 0.0, 0.0, 0.0, 0.0, 0.0, 0.0, 0.0, 0.0, 0.0, 1.700950470224249E9, 0.0, 2023-11-25 17:14:30.224
4.0, 25834.995607733206, 35290.677582106306, -47660.17766716214, -43283.50493711292, -61037.51790970778, -15581.98220515039, -7176.139316098609, -26010.97089182984, -0.18, 0.9460000000000001, 0.258, 192.0, 0.0, 0.0, 0.0, 0.0, 0.0, 0.0, 0.0, 0.0, 0.0, 1.70095047022818E9, 0.0, 2023-11-25 17:14:30.228
5.0, 25829.07239545255, 35230.8643139439, -47690.263115198984, -43321.88288234269, -61026.05146480221, -15559.898681628549, -6886.5501149356505, -26056.859023196583, -0.18, 0.9460000000000001, 0.258, 192.0, 0.0, 0.0, 0.0, 0.0, 0.0, 0.0, 0.0, 0.0, 0.0, 1.700950470232313E9, 0.0, 2023-11-25 17:14:30.232
6.0, 25758.95497309625, 35132.80721101847, -47722.516682448, -43381.22676387153, -61084.09894515264, -15647.271650704342, -6873.586103151572, -26093.873512014572, -0.18, 0.9460000000000001, 0.258, 192.0, 0.0, 0.0, 0.0, 0.0, 0.0, 0.0, 0.0, 0.0, 0.0, 1.700950470235211E9, 0.0, 2023-11-25 17:14:30.235
7.0, 25769.99673485717, 35181.98104882015, -47704.121196761276, -43344.659309942646, -61078.51100903881, -15622.37180738113, -7012.993933319322, -26076.372096106064, -0.18, 0.9460000000000001, 0.258, 192.0, 0.0, 0.0, 0.0, 0.0, 0.0, 0.0, 0.0, 0.0, 0.0, 1.700950470240299E9, 0.0, 2023-11-25 17:14:30.240
8.0, 25827.865401251962, 35267.96820973971, -47649.06885016785, -43280.17452718908, -61035.260383517794, -15581.646928983562, -7170.014938117855, -26013.831915120118, -0.184, 0.936, 0.254, 192.0, 250.0, 64.0, 29.0, 64.0, 7.0, 240.0, 0.0, 0.0, 0.0, 1.700950470244303E9, 0.0, 2023-11-25 17:14:30.244
9.0, 25851.804119563596, 35246.82345948499, -47654.23210313703, -43287.863527281705, -60997.46358364387, -15534.663562138507, -6933.42172305843, -26037.368302031555, -0.184, 0.936, 0.254, 192.0, 0.0, 0.0, 0.0, 0.0, 0.0, 0.0, 0.0, 0.0, 0.0, 1.70095047024729E9, 0.0, 2023-11-25 17:14:30.247
10.0, 25785.03945887559, 35148.58754260392, -47695.76164433499, -43355.72342344802, -61055.48871224985, -15620.1366329356, -6851.279062185176, -26073.667535026972, -0.184, 0.936, 0.254, 192.0, 0.0, 0.0, 0.0, 0.0, 0.0, 0.0, 0.0, 0.0, 0.0, 1.700950470253313E9, 0.0, 2023-11-25 17:14:30.253
11.0, 25785.933528653804, 35180.61759240837, -47686.48567038604, -43328.208426023535, -61058.34973554013, -15607.530249062807, -6992.989122031823, -26030.886296139517, -0.184, 0.936, 0.254, 192.0, 0.0, 0.0, 0.0, 0.0, 0.0, 0.0, 0.0, 0.0, 0.0, 1.700950470256328E9, 0.0, 2023-11-25 17:14:30.256
12.0, 25831.508735598178, 35265.06248296052, -47647.19130363361, -43276.64295156515, -61032.667581160975, -15586.51960927482, -7168.070336350243, -25994.27413872172, -0.184, 0.936, 0.254, 192.0, 0.0, 0.0, 0.0, 0.0, 0.0, 0.0, 0.0, 0.0, 0.0, 1.700950470259265E9, 0.0, 2023-11-25 17:14:30.259
13.0, 25858.174366733358, 35257.954628223735, -47650.9463967021, -43284.13078595767, -60999.51994413375, -15548.923975100992, -7006.4672239383735, -26031.73566242882, -0.184, 0.936, 0.254, 192.0, 0.0, 0.0, 0.0, 0.0, 0.0, 0.0, 0.0, 0.0, 0.0, 1.700950470263272E9, 0.0, 2023-11-25 17:14:30.263
14.0, 25790.80620894506, 35153.504926384085, -47703.428292683166, -43365.80406019736, -61057.18744482845, -15632.452444130475, -6854.140085475456, -26096.39925913802, -0.184, 0.936, 0.254, 192.0, 0.0, 0.0, 0.0, 0.0, 0.0, 0.0, 0.0, 0.0, 0.0, 1.70095047026728E9, 0.0, 2023-11-25 17:14:30.267
15.0, 25765.638144688386, 35152.67791183924, -47705.39524619523, -43357.60096998227, -61077.01344216031, -15641.460197145963, -6987.468241151362, -26069.800683236204, -0.184, 0.936, 0.254, 192.0, 0.0, 0.0, 0.0, 0.0, 0.0, 0.0, 0.0, 0.0, 0.0, 1.700950470271318E9, 0.0, 2023-11-25 17:14:30.271
16.0, 25801.445639305788, 35232.63010175587, -47672.26996091246, -43306.63899262417, -61057.634479717555, -15618.393196868086, -7160.940129869, -26028.606418205076, -0.184, 0.936, 0.254, 192.0, 0.0, 0.0, 0.0, 0.0, 0.0, 0.0, 0.0, 0.0, 0.0, 1.700950470275369E9, 0.0, 2023-11-25 17:14:30.275
17.0, 25846.05972123858, 35260.614485813916, -47646.923082700145, -43280.889783011655, -61004.638493614024, -15563.117332830112, -7075.176486393987, -26031.86977289555, -0.184, 0.936, 0.254, 192.0, 0.0, 0.0, 0.0, 0.0, 0.0, 0.0, 0.0, 0.0, 0.0, 1.700950470279323E9, 0.0, 2023-11-25 17:14:30.279
18.0, 25786.46997052073, 35163.0491212665, -47699.717903103585, -43356.43867927059, -61047.218566801384, -15622.595324825685, -6845.042925482146, -26098.96970975038, -0.188, 0.9400000000000001, 0.252, 192.0, 250.0, 32.0, 29.0, 96.0, 7.0, 224.0, 0.0, 0.0, 0.0, 1.700950470284425E9, 0.0, 2023-11-25 17:14:30.284
19.0, 25756.09394980597, 35149.83924029341, -47700.477862415064, -43357.019824626426, -61071.693726979945, -15644.81295881426, -6961.137886183011, -26077.042648439725, -0.188, 0.9400000000000001, 0.252, 192.0, 0.0, 0.0, 0.0, 0.0, 0.0, 0.0, 0.0, 0.0, 0.0, 1.700950470288388E9, 0.0, 2023-11-25 17:14:30.288
20.0, 25791.186188600805, 35232.74186047815, -47669.87832425575, -43306.30371645734, -61056.69570645043, -15611.397100853575, -7123.433902672995, -26027.600589704587, -0.188, 0.9400000000000001, 0.252, 192.0, 0.0, 0.0, 0.0, 0.0, 0.0, 0.0, 0.0, 0.0, 0.0, 1.700950470291355E9, 0.0, 2023-11-25 17:14:30.291
21.0, 25845.59033460502, 35277.735922066684, -47639.07762039633, -43269.04335845034, -61007.588923882126, -15553.327268758687, -7114.090873490677, -26006.90287433897, -0.188, 0.9400000000000001, 0.252, 192.0, 0.0, 0.0, 0.0, 0.0, 0.0, 0.0, 0.0, 0.0, 0.0, 1.700950470295397E9, 0.0, 2023-11-25 17:14:30.295
22.0, 25796.841179947995, 35185.13264478835, -47703.271830471975, -43346.022766354414, -61045.117502822584, -15589.112411631635, -6831.788341020148, -26071.745285003817, -0.188, 0.9400000000000001, 0.252, 192.0, 0.0, 0.0, 0.0, 0.0, 0.0, 0.0, 0.0, 0.0, 0.0, 1.700950470299405E9, 0.0, 2023-11-25 17:14:30.299
23.0, 25750.014275314126, 35140.74208030011, -47719.23097601307, -43369.89442943269, -61089.46336382191, -15646.578746626228, -6934.874586448024, -26077.646145540017, -0.188, 0.9400000000000001, 0.252, 192.0, 0.0, 0.0, 0.0, 0.0, 0.0, 0.0, 0.0, 0.0, 0.0, 1.700950470303447E9, 0.0, 2023-11-25 17:14:30.303
24.0, 25775.04822910407, 35212.580586979464, -47688.810251809395, -43314.35034446124, -61069.50325602332, -15604.356301350153, -7079.177448651487, -26019.173982044937, -0.188, 0.9400000000000001, 0.252, 192.0, 0.0, 0.0, 0.0, 0.0, 0.0, 0.0, 0.0, 0.0, 0.0, 1.700950470307748E9, 0.0, 2023-11-25 17:14:30.307
25.0, 25831.642846064908, 35271.34332315246, -47644.91142569917, -43262.04726243583, -61017.87072633157, -15556.50121647134, -7136.621431901626, -25980.438408903887, -0.188, 0.9400000000000001, 0.252, 192.0, 0.0, 0.0, 0.0, 0.0, 0.0, 0.0, 0.0, 0.0, 0.0, 1.700950470312477E9, 0.0, 2023-11-25 17:14:30.312
26.0, 25814.767279001153, 35207.59614796593, -47694.44289141213, -43321.68171664259, -61032.64522941652, -15573.13091434609, -6852.866036041503, -26062.11168314358, -0.188, 0.9400000000000001, 0.252, 192.0, 0.0, 0.0, 0.0, 0.0, 0.0, 0.0, 0.0, 0.0, 0.0, 1.700950470315498E9, 0.0, 2023-11-25 17:14:30.315
27.0, 25758.418531229323, 35147.849935036895, -47721.510853947504, -43367.68160673161, -61091.542076056256, -15650.110322250168, -6901.905763376447, -26084.128151432058, -0.188, 0.9400000000000001, 0.252, 192.0, 0.0, 0.0, 0.0, 0.0, 0.0, 0.0, 0.0, 0.0, 0.0, 1.700950470319615E9, 0.0, 2023-11-25 17:14:30.319
28.0, 25775.562319226545, 35207.551444477016, -47711.184348009156, -43335.65155692716, -61094.62661679109, -15628.94322025099, -7038.050238853722, -26064.458616311385, -0.186, 0.932, 0.25, 192.0, 250.0, 48.0, 29.0, 32.0, 7.0, 208.0, 0.0, 0.0, 0.0, 1.700950470324577E9, 0.0, 2023-11-25 17:14:30.324
29.0, 25826.278427395635, 35274.65138133185, -47662.74811777451, -43283.750806301934, -61050.83954940314, -15586.072574385713, -7153.094667565188, -26022.929075113425, -0.186, 0.932, 0.25, 192.0, 0.0, 0.0, 0.0, 0.0, 0.0, 0.0, 0.0, 0.0, 0.0, 1.700950470327522E9, 0.0, 2023-11-25 17:14:30.327
30.0, 25825.83139250653, 35227.15392436432, -47684.742234318524, -43315.356172961736, -61028.73367413684, -15561.865635140615, -6877.676472386894, -26085.335145632645, -0.186, 0.932, 0.25, 192.0, 0.0, 0.0, 0.0, 0.0, 0.0, 0.0, 0.0, 0.0, 0.0, 1.700950470333511E9, 0.0, 2023-11-25 17:14:30.333
31.0, 25760.072560319015, 35142.99960649009, -47720.57208068038, -43375.79528996888, -61087.58581728767, -15650.087970505712, -6864.287777458165, -26139.515774192307, -0.186, 0.932, 0.25, 192.0, 0.0, 0.0, 0.0, 0.0, 0.0, 0.0, 0.0, 0.0, 0.0, 1.700950470337617E9, 0.0, 2023-11-25 17:14:30.337
32.0, 25764.833481887996, 35193.62630768136, -47713.73244687706, -43342.51354247493, -61090.71506151141, -15621.969475980935, -7001.415729691474, -26091.280709657756, -0.186, 0.932, 0.25, 192.0, 0.0, 0.0, 0.0, 0.0, 0.0, 0.0, 0.0, 0.0, 0.0, 1.700950470341523E9, 0.0, 2023-11-25 17:14:30.341
33.0, 25822.411575604867, 35285.156701225846, -47664.8491817533, -43277.82759402128, -61049.23022380236, -15579.814085938227, -7158.280272278818, -26025.432470492422, -0.186, 0.932, 0.25, 192.0, 0.0, 0.0, 0.0, 0.0, 0.0, 0.0, 0.0, 0.0, 0.0, 1.700950470344611E9, 0.0, 2023-11-25 17:14:30.344
34.0, 25852.094692241513, 35274.65138133185, -47669.27482715545, -43281.04624522284, -61008.058310515684, -15527.22043123489, -6925.12922586551, -26056.993133663316, -0.186, 0.932, 0.25, 192.0, 0.0, 0.0, 0.0, 0.0, 0.0, 0.0, 0.0, 0.0, 0.0, 1.700950470347612E9, 0.0, 2023-11-25 17:14:30.347
35.0, 25780.926737895817, 35181.82458660896, -47716.32524923387, -43352.43771701309, -61066.23990133285, -15615.018083455336, -6834.537605588152, -26120.74030884985, -0.186, 0.932, 0.25, 192.0, 0.0, 0.0, 0.0, 0.0, 0.0, 0.0, 0.0, 0.0, 0.0, 1.700950470351676E9, 0.0, 2023-11-25 17:14:30.351
36.0, 25784.704182708763, 35222.12478186188, -47707.42925494066, -43324.25216725495, -61068.251558333825, -15599.058937914246, -6974.325415411641, -26091.794799780226, -0.186, 0.932, 0.25, 192.0, 0.0, 0.0, 0.0, 0.0, 0.0, 0.0, 0.0, 0.0, 0.0, 1.700950470355745E9, 0.0, 2023-11-25 17:14:30.355
37.0, 25824.40088086139, 35305.02740204661, -47674.21456268008, -43275.86064050921, -61047.44208424594, -15577.1765800925, -7147.439676217995, -26043.604438734586, -0.186, 0.932, 0.25, 192.0, 0.0, 0.0, 0.0, 0.0, 0.0, 0.0, 0.0, 0.0, 0.0, 1.700950470359592E9, 0.0, 2023-11-25 17:14:30.359
38.0, 25856.766206832675, 35308.20134975926, -47668.49251609952, -43270.1609456731, -61005.197287225405, -15524.538221900253, -6987.691758595915, -26068.48193031334, -0.188, 0.932, 0.252, 192.0, 250.0, 32.0, 29.0, 32.0, 7.0, 224.0, 0.0, 0.0, 0.0, 1.700950470363624E9, 0.0, 2023-11-25 17:14:30.363
39.0, 25787.006412387662, 35203.93046187526, -47722.62844117027, -43350.47076350102, -61060.629613474564, -15603.864562972138, -6821.081855426056, -26135.98419856837, -0.188, 0.932, 0.252, 192.0, 0.0, 0.0, 0.0, 0.0, 0.0, 0.0, 0.0, 0.0, 0.0, 1.700950470366752E9, 0.0, 2023-11-25 17:14:30.366
40.0, 25779.25035706167, 35223.66705222929, -47709.93265031966, -43327.89550160116, -61066.597529244136, -15600.265932114833, -6949.582034299617, -26095.862817271092, -0.188, 0.932, 0.252, 192.0, 0.0, 0.0, 0.0, 0.0, 0.0, 0.0, 0.0, 0.0, 0.0, 1.700950470370692E9, 0.0, 2023-11-25 17:14:30.370
41.0, 25818.58942730301, 35304.9826985577, -47674.97452199156, -43274.63129456417, -61046.27979353426, -15575.187274835978, -7120.6399346160815, -26047.404235291986, -0.188, 0.932, 0.252, 192.0, 0.0, 0.0, 0.0, 0.0, 0.0, 0.0, 0.0, 0.0, 0.0, 1.700950470375734E9, 0.0, 2023-11-25 17:14:30.375
42.0, 25861.88475631294, 35334.017614605145, -47652.734536258526, -43246.17752387256, -60994.20022895339, -15514.88226829556, -7039.994840621333, -26037.50241249829, -0.188, 0.932, 0.252, 192.0, 0.0, 0.0, 0.0, 0.0, 0.0, 0.0, 0.0, 0.0, 0.0, 1.700950470378661E9, 0.0, 2023-11-25 17:14:30.378
43.0, 25810.609854532464, 35245.370596095396, -47706.15520550671, -43317.74780961846, -61032.84639511662, -15567.721792187906, -6801.211154605288, -26104.334128419654, -0.188, 0.932, 0.252, 192.0, 0.0, 0.0, 0.0, 0.0, 0.0, 0.0, 0.0, 0.0, 0.0, 1.700950470383655E9, 0.0, 2023-11-25 17:14:30.383
44.0, 25781.86551116294, 35228.942063920746, -47714.91708933319, -43320.944109075564, -61063.714154209396, -15601.696443759973, -6919.0719031181225, -26099.439096383943, -0.188, 0.932, 0.252, 192.0, 0.0, 0.0, 0.0, 0.0, 0.0, 0.0, 0.0, 0.0, 0.0, 1.700950470387692E9, 0.0, 2023-11-25 17:14:30.387
45.0, 25815.169610401346, 35310.14595152688, -47688.27380994247, -43272.57493407428, -61049.0067063578, -15574.94140564697, -7082.68667253097, -26059.094197642113, -0.188, 0.932, 0.252, 192.0, 0.0, 0.0, 0.0, 0.0, 0.0, 0.0, 0.0, 0.0, 0.0, 1.700950470391724E9, 0.0, 2023-11-25 17:14:30.391
46.0, 25860.767169090173, 35348.72506245674, -47660.31177762888, -43241.01427090338, -61002.87270580205, -15525.946381800937, -7082.776079508792, -26041.21280207787, -0.188, 0.932, 0.252, 192.0, 0.0, 0.0, 0.0, 0.0, 0.0, 0.0, 0.0, 0.0, 0.0, 1.700950470394737E9, 0.0, 2023-11-25 17:14:30.394
47.0, 25820.69049128181, 35259.60865731343, -47714.20183351062, -43311.98105954898, -61029.180709025946, -15555.897719371049, -6801.546430772118, -26110.436154655952, -0.18, 0.9380000000000001, 0.254, 192.0, 250.0, 96.0, 29.0, 80.0, 7.0, 240.0, 0.0, 0.0, 0.0, 1.700950470399754E9, 0.0, 2023-11-25 17:14:30.399
48.0, 25774.087104092494, 35216.7603631926, -47729.60218544033, -43337.1267720612, -61070.37497405708, -15613.028778198814, -6889.634655670483, -26119.175686737977, -0.18, 0.9380000000000001, 0.254, 192.0, 0.0, 0.0, 0.0, 0.0, 0.0, 0.0, 0.0, 0.0, 0.0, 1.700950470403703E9, 0.0, 2023-11-25 17:14:30.403
49.0, 25792.147313612382, 35286.98954427118, -47717.264022500996, -43298.32414368679, -61067.692764722444, -15591.459344799441, -7040.196006321431, -26090.476046857366, -0.18, 0.9380000000000001, 0.254, 192.0, 0.0, 0.0, 0.0, 0.0, 0.0, 0.0, 0.0, 0.0, 0.0, 1.700950470408716E9, 0.0, 2023-11-25 17:14:30.408
50.0, 25847.669046839364, 35353.95537065928, -47668.71603354407, -43241.48365753695, -61012.483955917836, -15540.810291863716, -7114.470853146417, -26030.52866822823, -0.18, 0.9380000000000001, 0.254, 192.0, 0.0, 0.0, 0.0, 0.0, 0.0, 0.0, 0.0, 0.0, 0.0, 1.700950470412796E9, 0.0, 2023-11-25 17:14:30.412
51.0, 25833.565096088067, 35284.88848029238, -47706.53518516245, -43289.67401858259, -61012.752176851296, -15545.83943436616, -6819.137253658445, -26100.02024173978, -0.18, 0.9380000000000001, 0.254, 192.0, 0.0, 0.0, 0.0, 0.0, 0.0, 0.0, 0.0, 0.0, 0.0, 1.700950470417258E9, 0.0, 2023-11-25 17:14:30.417
52.0, 25770.577880213008, 35212.91586314629, -47737.76057216652, -43341.775934907906, -61072.85601769162, -15635.179356954022, -6858.386916921963, -26137.571172424698, -0.18, 0.9380000000000001, 0.254, 192.0, 0.0, 0.0, 0.0, 0.0, 0.0, 0.0, 0.0, 0.0, 0.0, 1.700950470419755E9, 0.0, 2023-11-25 17:14:30.419
53.0, 25791.85674093446, 35279.077026734, -47719.32038299089, -43302.79449257785, -61066.865750177596, -15613.878144488115, -7012.122215285566, -26102.45658188541, -0.18, 0.9380000000000001, 0.254, 192.0, 0.0, 0.0, 0.0, 0.0, 0.0, 0.0, 0.0, 0.0, 0.0, 1.700950470423829E9, 0.0, 2023-11-25 17:14:30.423
54.0, 25848.20548870629, 35357.17402186085, -47669.83362076683, -43247.42922156206, -61024.151566523506, -15575.075516113702, -7139.124827280621, -26043.783252690228, -0.18, 0.9380000000000001, 0.254, 192.0, 0.0, 0.0, 0.0, 0.0, 0.0, 0.0, 0.0, 0.0, 0.0, 1.70095047042677E9, 0.0, 2023-11-25 17:14:30.426
55.0, 25845.411520649377, 35308.69308813728, -47697.885060058245, -43284.95780050252, -61012.528659406744, -15558.825797894693, -6865.606530381028, -26106.323433676178, -0.18, 0.9380000000000001, 0.254, 192.0, 0.0, 0.0, 0.0, 0.0, 0.0, 0.0, 0.0, 0.0, 0.0, 1.700950470430771E9, 0.0, 2023-11-25 17:14:30.430
56.0, 25766.666324933332, 35211.21713056769, -47739.88398788977, -43354.31526354734, -61080.58972127316, -15655.877072319636, -6845.333498160065, -26156.145472067055, -0.18, 0.9380000000000001, 0.254, 192.0, 0.0, 0.0, 0.0, 0.0, 0.0, 0.0, 0.0, 0.0, 0.0, 1.700950470437811E9, 0.0, 2023-11-25 17:14:30.437
57.0, 25779.853854161964, 35257.77581426809, -47726.3164790054, -43317.54664391836, -61078.71217473891, -15632.810072041759, -6991.5586103866835, -26109.855009300114, -0.178, 0.9380000000000001, 0.252, 192.0, 250.0, 112.0, 29.0, 80.0, 7.0, 224.0, 0.0, 0.0, 0.0, 1.700950470441927E9, 0.0, 2023-11-25 17:14:30.441
58.0, 25843.511622370675, 35350.82612643554, -47671.465298112074, -43248.457401807, -61034.16514803948, -15587.145458119567, -7155.3298420107185, -26038.619999721053, -0.178, 0.9380000000000001, 0.252, 192.0, 0.0, 0.0, 0.0, 0.0, 0.0, 0.0, 0.0, 0.0, 0.0, 1.70095047044587E9, 0.0, 2023-11-25 17:14:30.445
59.0, 25865.125759258957, 35331.71538492625, -47678.48374587104, -43254.112393154195, -60997.06125224367, -15541.704361641929, -6927.297345077675, -26072.102912915103, -0.178, 0.9380000000000001, 0.252, 192.0, 0.0, 0.0, 0.0, 0.0, 0.0, 0.0, 0.0, 0.0, 0.0, 1.700950470448873E9, 0.0, 2023-11-25 17:14:30.448
60.0, 25800.708031738763, 35233.45711630072, -47719.32038299089, -43320.72059163101, -61049.118465080086, -15623.62350507063, -6828.413227607397, -26121.99200653935, -0.178, 0.9380000000000001, 0.252, 192.0, 0.0, 0.0, 0.0, 0.0, 0.0, 0.0, 0.0, 0.0, 0.0, 1.700950470451834E9, 0.0, 2023-11-25 17:14:30.451
61.0, 25796.841179947995, 35264.235468415674, -47715.14060677774, -43298.88293729817, -61059.08734310715, -15615.129842177612, -6969.899770009491, -26102.45658188541, -0.178, 0.9380000000000001, 0.252, 192.0, 0.0, 0.0, 0.0, 0.0, 0.0, 0.0, 0.0, 0.0, 0.0, 1.700950470459634E9, 0.0, 2023-11-25 17:14:30.459
62.0, 25840.874116524952, 35348.702710712285, -47677.07558597036, -43248.03271866235, -61037.96494459688, -15598.209571624944, -7156.22391178893, -26072.125264659557, -0.178, 0.9380000000000001, 0.252, 192.0, 0.0, 0.0, 0.0, 0.0, 0.0, 0.0, 0.0, 0.0, 0.0, 1.700950470459704E9, 0.0, 2023-11-25 17:14:30.459
63.0, 25884.012983323693, 35359.99034166221, -47659.1494869172, -43230.39719228711, -60982.39850788099, -15527.958038801915, -6993.704377854393, -26046.510165513777, -0.178, 0.9380000000000001, 0.252, 192.0, 0.0, 0.0, 0.0, 0.0, 0.0, 0.0, 0.0, 0.0, 0.0, 1.700950470462872E9, 0.0, 2023-11-25 17:14:30.462
64.0, 25812.06271792206, 35248.18691589677, -47719.94623183564, -43319.960632319526, -61044.29048827774, -15605.697406017473, -6804.832137207048, -26097.82977078316, -0.178, 0.9380000000000001, 0.252, 192.0, 0.0, 0.0, 0.0, 0.0, 0.0, 0.0, 0.0, 0.0, 0.0, 1.700950470466939E9, 0.0, 2023-11-25 17:14:30.466
65.0, 25790.82856068952, 35246.73405250717, -47717.755760879016, -43315.75850436193, -61063.75885769831, -15621.880069003115, -6942.921214451935, -26088.64320381203, -0.178, 0.9380000000000001, 0.252, 192.0, 0.0, 0.0, 0.0, 0.0, 0.0, 0.0, 0.0, 0.0, 0.0, 1.700950470471918E9, 0.0, 2023-11-25 17:14:30.471
66.0, 25828.804174519086, 35328.362623257955, -47679.13194646024, -43263.52247756988, -61042.07766557666, -15596.063804157235, -7116.773082825313, -26049.21472659287, -0.178, 0.9380000000000001, 0.252, 192.0, 0.0, 0.0, 0.0, 0.0, 0.0, 0.0, 0.0, 0.0, 0.0, 1.700950470475907E9, 0.0, 2023-11-25 17:14:30.475
67.0, 25877.150997775912, 35357.41989104985, -47650.11938215725, -43230.86657892067, -60985.52775210473, -15531.690780125951, -7046.812122680202, -26042.419796278453, -0.176, 0.9420000000000001, 0.252, 192.0, 250.0, 128.0, 29.0, 112.0, 7.0, 224.0, 0.0, 0.0, 0.0, 1.700950470479915E9, 0.0, 2023-11-25 17:14:30.479
68.0, 25823.998549461194, 35262.60379107044, -47702.28835371594, -43302.01218152192, -61022.78811011173, -15576.170751592012, -6796.494936525219, -26097.159218449502, -0.176, 0.9420000000000001, 0.252, 192.0, 0.0, 0.0, 0.0, 0.0, 0.0, 0.0, 0.0, 0.0, 0.0, 1.700950470485936E9, 0.0, 2023-11-25 17:14:30.485
69.0, 25787.34168855449, 35232.63010175587, -47711.22905149806, -43311.936356060076, -61057.075686106175, -15614.302827632766, -6911.628772214505, -26087.235043911343, -0.176, 0.9420000000000001, 0.252, 192.0, 0.0, 0.0, 0.0, 0.0, 0.0, 0.0, 0.0, 0.0, 0.0, 1.70095047049293E9, 0.0, 2023-11-25 17:14:30.492
70.0, 25823.238590149715, 35310.592986415984, -47677.410862137185, -43258.91801821208, -61039.82013938668, -15579.65762372704, -7071.622559025594, -26028.695825182895, -0.176, 0.9420000000000001, 0.252, 192.0, 0.0, 0.0, 0.0, 0.0, 0.0, 0.0, 0.0, 0.0, 0.0, 1.700950470495964E9, 0.0, 2023-11-25 17:14:30.495
71.0, 25878.02271580967, 35357.30813232758, -47634.89784418319, -43213.767494412365, -60982.73378404782, -15521.274867209777, -7076.182314894476, -25999.415039946445, -0.176, 0.9420000000000001, 0.252, 192.0, 0.0, 0.0, 0.0, 0.0, 0.0, 0.0, 0.0, 0.0, 0.0, 1.700950470499134E9, 0.0, 2023-11-25 17:14:30.499
72.0, 25842.25992468118, 35268.79522428456, -47686.46331864158, -43282.23088767897, -61004.66084535848, -15547.35935298912, -6781.496915995707, -26072.59465129312, -0.176, 0.9420000000000001, 0.252, 192.0, 0.0, 0.0, 0.0, 0.0, 0.0, 0.0, 0.0, 0.0, 0.0, 1.700950470501984E9, 0.0, 2023-11-25 17:14:30.501
73.0, 25793.019031646138, 35218.2132265822, -47705.931688062155, -43312.85277758274, -61050.079590091664, -15611.2853421313, -6870.389803694464, -26083.12232293157, -0.176, 0.9420000000000001, 0.252, 192.0, 0.0, 0.0, 0.0, 0.0, 0.0, 0.0, 0.0, 0.0, 0.0, 1.70095047050603E9, 0.0, 2023-11-25 17:14:30.506
74.0, 25818.455316836276, 35292.15279724036, -47687.71501633108, -43270.63033230667, -61043.97756385536, -15594.901513445559, -7028.684857926948, -26073.354610604598, -0.176, 0.9420000000000001, 0.252, 192.0, 0.0, 0.0, 0.0, 0.0, 0.0, 0.0, 0.0, 0.0, 0.0, 1.700950470509074E9, 0.0, 2023-11-25 17:14:30.509
75.0, 25879.252061754712, 35359.05156839509, -47638.20590236258, -43213.67808743454, -60992.30033067469, -15546.621745422095, -7109.821690299713, -26024.11371756956, -0.176, 0.9420000000000001, 0.252, 192.0, 0.0, 0.0, 0.0, 0.0, 0.0, 0.0, 0.0, 0.0, 0.0, 1.700950470512092E9, 0.0, 2023-11-25 17:14:30.512
76.0, 25861.057741768094, 35292.1304454959, -47672.96286499058, -43258.47098332298, -60987.897037017, -15532.495442926342, -6791.935180656336, -26045.884316669028, -0.176, 0.9420000000000001, 0.252, 192.0, 0.0, 0.0, 0.0, 0.0, 0.0, 0.0, 0.0, 0.0, 0.0, 1.700950470516044E9, 0.0, 2023-11-25 17:14:30.516
77.0, 25795.455371791766, 35216.58154923696, -47700.0084757815, -43310.01410603692, -61044.64811618902, -15616.917981734035, -6824.591079305539, -26070.78415999224, -0.17400000000000002, 0.9400000000000001, 0.25, 192.0, 250.0, 144.0, 29.0, 96.0, 7.0, 208.0, 0.0, 0.0, 0.0, 1.70095047051901E9, 0.0, 2023-11-25 17:14:30.519
78.0, 25810.028709176626, 35276.93125926629, -47684.608123851795, -43275.74888178693, -61042.100017321114, -15596.756708235349, -6971.397336887996, -26045.549040502196, -0.17400000000000002, 0.9400000000000001, 0.25, 192.0, 0.0, 0.0, 0.0, 0.0, 0.0, 0.0, 0.0, 0.0, 0.0, 1.700950470523061E9, 0.0, 2023-11-25 17:14:30.523
79.0, 25867.807968593595, 35355.72115847125, -47637.624757006735, -43221.098866593704, -61002.045691257204, -15563.050277596747, -7117.287172947786, -26006.835819105607, -0.17400000000000002, 0.9400000000000001, 0.25, 192.0, 0.0, 0.0, 0.0, 0.0, 0.0, 0.0, 0.0, 0.0, 0.0, 1.700950470527024E9, 0.0, 2023-11-25 17:14:30.527
80.0, 25872.88181458495, 35311.55411142756, -47665.09505094231, -43253.57595128727, -60986.22065618285, -15536.585812161662, -6849.893254028947, -26064.39156107802, -0.17400000000000002, 0.9400000000000001, 0.25, 192.0, 0.0, 0.0, 0.0, 0.0, 0.0, 0.0, 0.0, 0.0, 0.0, 1.700950470532055E9, 0.0, 2023-11-25 17:14:30.532
81.0, 25794.49424678019, 35207.97612762167, -47715.654696900216, -43331.20355978055, -61059.735543696355, -15637.012199999357, -6822.624125793473, -26118.728651848873, -0.17400000000000002, 0.9400000000000001, 0.25, 192.0, 0.0, 0.0, 0.0, 0.0, 0.0, 0.0, 0.0, 0.0, 0.0, 1.700950470535104E9, 0.0, 2023-11-25 17:14:30.535
82.0, 25791.34265081199, 35242.73309024967, -47713.86655734379, -43308.33772520277, -61068.92211066748, -15622.885897503604, -6974.794802045203, -26089.179645678956, -0.17400000000000002, 0.9400000000000001, 0.25, 192.0, 0.0, 0.0, 0.0, 0.0, 0.0, 0.0, 0.0, 0.0, 0.0, 1.700950470539128E9, 0.0, 2023-11-25 17:14:30.539
83.0, 25842.192869447812, 35321.34417549898, -47668.09018469932, -43246.80337271731, -61033.584002683645, -15584.619710996118, -7151.820618131235, -26025.253656536777, -0.17400000000000002, 0.9400000000000001, 0.25, 192.0, 0.0, 0.0, 0.0, 0.0, 0.0, 0.0, 0.0, 0.0, 0.0, 1.70095047054318E9, 0.0, 2023-11-25 17:14:30.543
84.0, 25870.31136397259, 35313.72223063972, -47667.73255678804, -43243.71883198248, -60988.50053411729, -15523.822966077681, -6922.312906064142, -26034.95431363038, -0.17400000000000002, 0.9400000000000001, 0.25, 192.0, 0.0, 0.0, 0.0, 0.0, 0.0, 0.0, 0.0, 0.0, 0.0, 1.700950470547299E9, 0.0, 2023-11-25 17:14:30.547
85.0, 25799.05400264907, 35211.954738134715, -47719.25332775752, -43318.641879396666, -61051.1077703366, -15611.37474910912, -6800.428843549353, -26087.2573956558, -0.17400000000000002, 0.9400000000000001, 0.25, 192.0, 0.0, 0.0, 0.0, 0.0, 0.0, 0.0, 0.0, 0.0, 0.0, 1.700950470551122E9, 0.0, 2023-11-25 17:14:30.551
86.0, 25794.650708991376, 35241.526096049085, -47713.620688154784, -43301.38633267717, -61064.16118909851, -15616.403891611564, -6946.497493564784, -26084.59753806562, -0.17400000000000002, 0.9400000000000001, 0.25, 192.0, 0.0, 0.0, 0.0, 0.0, 0.0, 0.0, 0.0, 0.0, 0.0, 1.70095047055517E9, 0.0, 2023-11-25 17:14:30.555
87.0, 25851.088863741024, 35340.23139956372, -47659.663577039675, -43237.817971446275, -61029.00189507031, -15585.714946474427, -7134.162740011542, -26033.657912451974, -0.17400000000000002, 0.9440000000000001, 0.248, 192.0, 250.0, 144.0, 29.0, 128.0, 7.0, 192.0, 0.0, 0.0, 0.0, 1.700950470560158E9, 0.0, 2023-11-25 17:14:30.560
88.0, 25888.103352559014, 35344.81350717706, -47647.43717282262, -43227.759686441386, -60979.87276075754, -15528.919163813493, -6979.935703269924, -26041.77159568925, -0.17400000000000002, 0.9440000000000001, 0.248, 192.0, 0.0, 0.0, 0.0, 0.0, 0.0, 0.0, 0.0, 0.0, 0.0, 1.70095047056419E9, 0.0, 2023-11-25 17:14:30.564
89.0, 25826.278427395635, 35240.78848848206, -47697.81800482488, -43307.309544957825, -61030.61122067109, -15599.930655948003, -6779.529962483641, -26099.2602824283, -0.17400000000000002, 0.9440000000000001, 0.248, 192.0, 0.0, 0.0, 0.0, 0.0, 0.0, 0.0, 0.0, 0.0, 0.0, 1.700950470568177E9, 0.0, 2023-11-25 17:14:30.568
90.0, 25800.886845694407, 35239.000348925634, -47706.37872295126, -43311.914004315615, -61061.09900010813, -15623.869374259637, -6905.549097722662, -26096.48866611584, -0.17400000000000002, 0.9440000000000001, 0.248, 192.0, 0.0, 0.0, 0.0, 0.0, 0.0, 0.0, 0.0, 0.0, 0.0, 1.700950470572213E9, 0.0, 2023-11-25 17:14:30.572
91.0, 25840.58354384703, 35326.12744881242, -47672.024091723455, -43260.84026823524, -61041.87649987656, -15605.384481595098, -7091.2920941462635, -26066.470273312363, -0.17400000000000002, 0.9440000000000001, 0.248, 192.0, 0.0, 0.0, 0.0, 0.0, 0.0, 0.0, 0.0, 0.0, 0.0, 1.700950470576189E9, 0.0, 2023-11-25 17:14:30.576
92.0, 25890.87496887147, 35361.10792888498, -47641.78218147543, -43228.13966609713, -60984.1419439485, -15540.653829652529, -7022.269907268275, -26051.025217893748, -0.17400000000000002, 0.9440000000000001, 0.248, 192.0, 0.0, 0.0, 0.0, 0.0, 0.0, 0.0, 0.0, 0.0, 0.0, 1.700950470580206E9, 0.0, 2023-11-25 17:14:30.580
93.0, 25835.464994366765, 35263.87784050439, -47693.0570832559, -43300.96164953252, -61016.88724957553, -15581.646928983562, -6754.00427031568, -26093.11355270309, -0.17400000000000002, 0.9440000000000001, 0.248, 192.0, 0.0, 0.0, 0.0, 0.0, 0.0, 0.0, 0.0, 0.0, 0.0, 1.700950470585774E9, 0.0, 2023-11-25 17:14:30.585
94.0, 25797.511732281655, 35235.80404946853, -47700.05317927041, -43309.723533359, -61046.995049356825, -15621.85771725866, -6866.478248414785, -26085.60336656611, -0.17400000000000002, 0.9440000000000001, 0.248, 192.0, 0.0, 0.0, 0.0, 0.0, 0.0, 0.0, 0.0, 0.0, 0.0, 1.700950470588233E9, 0.0, 2023-11-25 17:14:30.588
95.0, 25828.357139629978, 35315.26450100714, -47672.784051034934, -43262.67311128058, -61033.18167128345, -15597.449612313463, -7027.321401515174, -26044.543212001707, -0.17400000000000002, 0.9440000000000001, 0.248, 192.0, 0.0, 0.0, 0.0, 0.0, 0.0, 0.0, 0.0, 0.0, 0.0, 1.700950470591223E9, 0.0, 2023-11-25 17:14:30.591
96.0, 25886.874006613973, 35373.35668484648, -47630.96393715906, -43216.22618630245, -60977.03408921172, -15542.352562231132, -7046.3874395355515, -26018.81635413365, -0.17400000000000002, 0.9440000000000001, 0.248, 192.0, 0.0, 0.0, 0.0, 0.0, 0.0, 0.0, 0.0, 0.0, 0.0, 1.700950470595277E9, 0.0, 2023-11-25 17:14:30.595
97.0, 25851.82647130805, 35294.20915773024, -47682.61881859527, -43282.29794291234, -60998.894095289004, -15569.241710810866, -6748.595148157496, -26099.997889995324, -0.178, 0.9400000000000001, 0.25, 192.0, 250.0, 112.0, 29.0, 96.0, 7.0, 208.0, 0.0, 0.0, 0.0, 1.700950470600055E9, 0.0, 2023-11-25 17:14:30.600
98.0, 25797.757601470665, 35242.39781408284, -47701.72956010456, -43318.284251485384, -61046.68212493446, -15636.028723243324, -6826.82625375107, -26112.201942467924, -0.178, 0.9400000000000001, 0.25, 192.0, 0.0, 0.0, 0.0, 0.0, 0.0, 0.0, 0.0, 0.0, 0.0, 1.700950470603259E9, 0.0, 2023-11-25 17:14:30.603
99.0, 25819.01411044766, 35309.810675360044, -47682.59646685082, -43277.89464925464, -61038.63549693055, -15608.51372581884, -6977.85699103558, -26063.005752921792, -0.178, 0.9400000000000001, 0.25, 192.0, 0.0, 0.0, 0.0, 0.0, 0.0, 0.0, 0.0, 0.0, 0.0, 1.700950470607293E9, 0.0, 2023-11-25 17:14:30.607
100.0, 25877.195701264824, 35378.475234326754, -47637.848274451295, -43229.436067275536, -60991.138039963014, -15574.404963780042, -7082.910189975523, -26050.399369049, -0.178, 0.9400000000000001, 0.25, 192.0, 0.0, 0.0, 0.0, 0.0, 0.0, 0.0, 0.0, 0.0, 0.0, 1.700950470611251E9, 0.0, 2023-11-25 17:14:30.611
101.0, 25868.478520927256, 35321.008899332155, -47674.03574872443, -43274.07250095278, -60985.93008350493, -15566.2242253094, -6785.5872852310285, -26105.228198197867, -0.178, 0.9400000000000001, 0.25, 192.0, 0.0, 0.0, 0.0, 0.0, 0.0, 0.0, 0.0, 0.0, 0.0, 1.70095047061424E9, 0.0, 2023-11-25 17:14:30.614
102.0, 25811.14629639939, 35254.4230525998, -47697.63919086924, -43316.406704951136, -61036.33326725165, -15642.443673901997, -6814.868070467481, -26106.278730187267, -0.178, 0.9400000000000001, 0.25, 192.0, 0.0, 0.0, 0.0, 0.0, 0.0, 0.0, 0.0, 0.0, 0.0, 1.700950470618313E9, 0.0, 2023-11-25 17:14:30.618
103.0, 25835.666160066863, 35325.903931367866, -47676.87442027026, -43269.87037299519, -61027.5043281918, -15608.111394418645, -6964.177723428932, -26060.390598820522, -0.178, 0.9400000000000001, 0.25, 192.0, 0.0, 0.0, 0.0, 0.0, 0.0, 0.0, 0.0, 0.0, 0.0, 1.700950470622285E9, 0.0, 2023-11-25 17:14:30.622
104.0, 25885.42114322438, 35405.69965907332, -47637.71416398456, -43218.93074738154, -60996.3459964211, -15576.1260481031, -7113.867356046124, -26023.398461746987, -0.178, 0.9400000000000001, 0.25, 192.0, 0.0, 0.0, 0.0, 0.0, 0.0, 0.0, 0.0, 0.0, 0.0, 1.700950470628513E9, 0.0, 2023-11-25 17:14:30.628
105.0, 25888.349221748023, 35367.83580396602, -47662.12226892976, -43244.61290176069, -60977.90580724547, -15544.721847143395, -6850.295585429142, -26068.191357635424, -0.178, 0.9400000000000001, 0.25, 192.0, 0.0, 0.0, 0.0, 0.0, 0.0, 0.0, 0.0, 0.0, 0.0, 1.700950470631411E9, 0.0, 2023-11-25 17:14:30.631
106.0, 25809.514619054156, 35266.11301494992, -47710.200871253124, -43316.92079507361, -61046.726828423365, -15635.38052265412, -6804.988599418235, -26109.005643010812, -0.178, 0.9400000000000001, 0.25, 192.0, 0.0, 0.0, 0.0, 0.0, 0.0, 0.0, 0.0, 0.0, 0.0, 1.700950470635298E9, 0.0, 2023-11-25 17:14:30.635
107.0, 25806.25126436368, 35307.91077708135, -47709.39620845273, -43294.5690506183, -61058.685011706955, -15620.114281191145, -6951.727801767326, -26080.037782196738, -0.178, 0.934, 0.246, 192.0, 250.0, 112.0, 29.0, 48.0, 7.0, 176.0, 0.0, 0.0, 0.0, 1.700950470639511E9, 0.0, 2023-11-25 17:14:30.639
108.0, 25858.084959755535, 35393.093275200525, -47661.16114391818, -43236.007480145396, -61025.71618863538, -15585.871408685614, -7128.284231219796, -26026.10302282608, -0.178, 0.934, 0.246, 192.0, 0.0, 0.0, 0.0, 0.0, 0.0, 0.0, 0.0, 0.0, 0.0, 1.700950470643509E9, 0.0, 2023-11-25 17:14:30.643
109.0, 25877.866253598484, 35373.46844356876, -47669.07366145535, -43244.07645989376, -60989.618121340056, -15535.535280172264, -6903.760958166237, -26055.652028995995, -0.178, 0.934, 0.246, 192.0, 0.0, 0.0, 0.0, 0.0, 0.0, 0.0, 0.0, 0.0, 0.0, 1.700950470647413E9, 0.0, 2023-11-25 17:14:30.647
110.0, 25802.09383989499, 35267.34236089497, -47717.0628568009, -43319.24537649696, -61048.49261623534, -15616.80622301176, -6775.730165926238, -26104.758811564305, -0.178, 0.934, 0.246, 192.0, 0.0, 0.0, 0.0, 0.0, 0.0, 0.0, 0.0, 0.0, 0.0, 1.700950470652411E9, 0.0, 2023-11-25 17:14:30.652
111.0, 25792.080258379014, 35288.576518127506, -47710.06676078639, -43301.34162918826, -61060.54020649674, -15614.906324733058, -6918.2448885732765, -26094.700526559416, -0.178, 0.934, 0.246, 192.0, 0.0, 0.0, 0.0, 0.0, 0.0, 0.0, 0.0, 0.0, 0.0, 1.700950470656381E9, 0.0, 2023-11-25 17:14:30.656
112.0, 25842.371683403457, 35380.33042911654, -47659.3506526173, -43239.02496564686, -61028.08547354764, -15582.161019106034, -7100.83628902868, -26037.68122645393, -0.178, 0.934, 0.246, 192.0, 0.0, 0.0, 0.0, 0.0, 0.0, 0.0, 0.0, 0.0, 0.0, 1.700950470660374E9, 0.0, 2023-11-25 17:14:30.660
113.0, 25877.150997775912, 35384.93488847434, -47651.01345193547, -43230.128971353646, -60984.61133058207, -15527.399245190532, -6960.467333849351, -26046.644275980507, -0.178, 0.934, 0.246, 192.0, 0.0, 0.0, 0.0, 0.0, 0.0, 0.0, 0.0, 0.0, 0.0, 1.700950470678434E9, 0.0, 2023-11-25 17:14:30.678
114.0, 25813.806153989575, 35284.35203842545, -47704.2106037391, -43312.65161188264, -61035.327438751156, -15604.222190883422, -6770.589264701518, -26110.950244778425, -0.178, 0.934, 0.246, 192.0, 0.0, 0.0, 0.0, 0.0, 0.0, 0.0, 0.0, 0.0, 0.0, 1.70095047068246E9, 0.0, 2023-11-25 17:14:30.682
115.0, 25785.508845509154, 35281.714532579725, -47702.713036860594, -43311.779893848885, -61056.69570645043, -15624.674037060027, -6898.620056941517, -26098.053288227715, -0.178, 0.934, 0.246, 192.0, 0.0, 0.0, 0.0, 0.0, 0.0, 0.0, 0.0, 0.0, 0.0, 1.700950470685457E9, 0.0, 2023-11-25 17:14:30.685
116.0, 25828.20067741879, 35372.03793192362, -47659.9988532065, -43257.42045133358, -61033.04756081672, -15600.757670492849, -7081.747899263847, -26055.40615980699, -0.178, 0.934, 0.246, 192.0, 0.0, 0.0, 0.0, 0.0, 0.0, 0.0, 0.0, 0.0, 0.0, 1.700950470688442E9, 0.0, 2023-11-25 17:14:30.688
117.0, 25883.565948434585, 35413.634528354945, -47627.23119583502, -43223.24463406141, -60973.5919205656, -15541.771416875294, -7025.354448003108, -26046.264296324767, -0.182, 0.9420000000000001, 0.252, 192.0, 250.0, 80.0, 29.0, 112.0, 7.0, 224.0, 0.0, 0.0, 0.0, 1.70095047069153E9, 0.0, 2023-11-25 17:14:30.691
118.0, 25823.86443899446, 35310.81650386054, -47693.16884197818, -43310.32703045929, -61017.53545016473, -15597.42726056901, -6748.2598719906655, -26117.678119859473, -0.182, 0.9420000000000001, 0.252, 192.0, 0.0, 0.0, 0.0, 0.0, 0.0, 0.0, 0.0, 0.0, 0.0, 1.70095047069545E9, 0.0, 2023-11-25 17:14:30.695
119.0, 25781.083200107005, 35280.84281454597, -47706.065798528885, -43330.06362081333, -61054.70640119391, -15648.38923792711, -6858.006937266224, -26115.64411111404, -0.182, 0.9420000000000001, 0.252, 192.0, 0.0, 0.0, 0.0, 0.0, 0.0, 0.0, 0.0, 0.0, 0.0, 1.700950470698525E9, 0.0, 2023-11-25 17:14:30.698
120.0, 25819.796421503597, 35371.18856563432, -47665.56443757587, -43270.607980562214, -61027.996066569816, -15613.833440999204, -7027.3661050040855, -26062.87164245506, -0.182, 0.9420000000000001, 0.252, 192.0, 0.0, 0.0, 0.0, 0.0, 0.0, 0.0, 0.0, 0.0, 0.0, 1.7009504707023E9, 0.0, 2023-11-25 17:14:30.702
121.0, 25879.140303032436, 35431.91825531939, -47622.02323937693, -43220.31655553777, -60970.529731575225, -15558.356411261131, -7055.864579184602, -26032.048586851193, -0.182, 0.9420000000000001, 0.252, 192.0, 0.0, 0.0, 0.0, 0.0, 0.0, 0.0, 0.0, 0.0, 0.0, 1.700950470705508E9, 0.0, 2023-11-25 17:14:30.705
122.0, 25839.130680457438, 35347.60747523397, -47681.14360346122, -43291.4174546501, -60995.04959524269, -15586.251388341356, -6749.802142358082, -26101.562512107197, -0.182, 0.9420000000000001, 0.252, 192.0, 0.0, 0.0, 0.0, 0.0, 0.0, 0.0, 0.0, 0.0, 0.0, 1.700950470709612E9, 0.0, 2023-11-25 17:14:30.709
123.0, 25784.4359617753, 35292.15279724036, -47707.51866191848, -43330.08597255778, -61049.18552031345, -15663.610775901172, -6839.097361457034, -26119.44390767144, -0.182, 0.9420000000000001, 0.252, 192.0, 0.0, 0.0, 0.0, 0.0, 0.0, 0.0, 0.0, 0.0, 0.0, 1.700950470711539E9, 0.0, 2023-11-25 17:14:30.711
124.0, 25813.62734003393, 35368.46165281077, -47686.44096689713, -43282.74497780144, -61039.529566708756, -15637.325124421732, -7013.038636808234, -26084.97751772136, -0.182, 0.9420000000000001, 0.252, 192.0, 0.0, 0.0, 0.0, 0.0, 0.0, 0.0, 0.0, 0.0, 0.0, 1.70095047071469E9, 0.0, 2023-11-25 17:14:30.714
125.0, 25880.950794333316, 35447.16214503791, -47632.70737322657, -43221.16592182707, -60983.98548173732, -15587.70425173095, -7118.225946214909, -26036.697749697894, -0.182, 0.9420000000000001, 0.252, 192.0, 0.0, 0.0, 0.0, 0.0, 0.0, 0.0, 0.0, 0.0, 0.0, 1.700950470717518E9, 0.0, 2023-11-25 17:14:30.717
126.0, 25870.11019827249, 35392.668592055874, -47668.80544052189, -43262.11431766919, -60977.54817933419, -15574.337908546677, -6813.661076266894, -26094.141732948035, -0.182, 0.9420000000000001, 0.252, 192.0, 0.0, 0.0, 0.0, 0.0, 0.0, 0.0, 0.0, 0.0, 0.0, 1.7009504707216E9, 0.0, 2023-11-25 17:14:30.721
127.0, 25806.027746919128, 35315.89034985189, -47703.405940938705, -43316.80903635133, -61039.82013938668, -15660.10155202169, -6833.531777087663, -26128.3175502202, -0.18, 0.9420000000000001, 0.246, 192.0, 250.0, 96.0, 29.0, 112.0, 7.0, 176.0, 0.0, 0.0, 0.0, 1.700950470724546E9, 0.0, 2023-11-25 17:14:30.724
128.0, 25818.052985436083, 35376.016542436664, -47698.89088855874, -43287.528251114876, -61045.89981387852, -15643.538909380308, -6987.155316728988, -26109.720898833384, -0.18, 0.9420000000000001, 0.246, 192.0, 0.0, 0.0, 0.0, 0.0, 0.0, 0.0, 0.0, 0.0, 0.0, 1.700950470740643E9, 0.0, 2023-11-25 17:14:30.740
129.0, 25874.40173320791, 35461.0202266002, -47646.788972233415, -43226.709154451986, -61002.202153468395, -15602.74697574937, -7143.528120938316, -26050.86875568256, -0.18, 0.9420000000000001, 0.246, 192.0, 0.0, 0.0, 0.0, 0.0, 0.0, 0.0, 0.0, 0.0, 0.0, 1.700950470743641E9, 0.0, 2023-11-25 17:14:30.743
130.0, 25881.06255305559, 35425.190380238346, -47664.536257330925, -43247.98801517344, -60975.93885373341, -15559.026963594792, -6865.74064084776, -26077.06500018418, -0.18, 0.9420000000000001, 0.246, 192.0, 0.0, 0.0, 0.0, 0.0, 0.0, 0.0, 0.0, 0.0, 0.0, 1.700950470747697E9, 0.0, 2023-11-25 17:14:30.747
131.0, 25799.411630560357, 35315.95740508525, -47713.08424628786, -43321.5252544314, -61046.570366212174, -15646.601098370684, -6804.96624767378, -26116.98521578136, -0.18, 0.9420000000000001, 0.246, 192.0, 0.0, 0.0, 0.0, 0.0, 0.0, 0.0, 0.0, 0.0, 0.0, 1.700950470750627E9, 0.0, 2023-11-25 17:14:30.750
132.0, 25799.568092771544, 35350.26733282415, -47705.41759793968, -43295.39606516315, -61054.907566894006, -15626.305714405265, -6952.510112823262, -26080.082485685645, -0.18, 0.9420000000000001, 0.246, 192.0, 0.0, 0.0, 0.0, 0.0, 0.0, 0.0, 0.0, 0.0, 0.0, 1.700950470755174E9, 0.0, 2023-11-25 17:14:30.755
133.0, 25850.485366640733, 35433.30406347562, -47657.137829916224, -43241.57306451477, -61023.97275256786, -15599.595379781173, -7138.968365069433, -26043.805604434685, -0.18, 0.9420000000000001, 0.246, 192.0, 0.0, 0.0, 0.0, 0.0, 0.0, 0.0, 0.0, 0.0, 0.0, 1.700950470757636E9, 0.0, 2023-11-25 17:14:30.757
134.0, 25868.858500582995, 35415.9591097783, -47662.032861951935, -43249.93261694105, -60987.36059515007, -15547.046428566746, -6918.17783333991, -26067.185529134935, -0.18, 0.9420000000000001, 0.246, 192.0, 0.0, 0.0, 0.0, 0.0, 0.0, 0.0, 0.0, 0.0, 0.0, 1.700950470760654E9, 0.0, 2023-11-25 17:14:30.760
135.0, 25791.074429878525, 35306.79318985858, -47717.15226377872, -43336.00918483844, -61053.90173839352, -15636.252240687876, -6776.288959537621, -26115.688814602952, -0.18, 0.9420000000000001, 0.246, 192.0, 0.0, 0.0, 0.0, 0.0, 0.0, 0.0, 0.0, 0.0, 0.0, 1.700950470763685E9, 0.0, 2023-11-25 17:14:30.763
136.0, 25784.10068560847, 35328.72025116924, -47713.978316066066, -43322.28521374288, -61069.235035089856, -15640.834348301214, -6917.507281006251, -26091.437171868944, -0.18, 0.9420000000000001, 0.246, 192.0, 0.0, 0.0, 0.0, 0.0, 0.0, 0.0, 0.0, 0.0, 0.0, 1.700950470767623E9, 0.0, 2023-11-25 17:14:30.767
137.0, 25831.3969768759, 35414.416839410886, -47671.28648415643, -43268.95395147252, -61044.491653977835, -15620.51661259134, -7110.64870484456, -26051.762825460773, -0.184, 0.9400000000000001, 0.248, 192.0, 250.0, 64.0, 29.0, 96.0, 7.0, 192.0, 0.0, 0.0, 0.0, 1.700950470770774E9, 0.0, 2023-11-25 17:14:30.770
138.0, 25878.447398954322, 35426.53148490566, -47651.10285891329, -43248.52445704037, -60989.953397506884, -15559.473998483898, -6980.270979436753, -26057.931906930437, -0.184, 0.9400000000000001, 0.248, 192.0, 0.0, 0.0, 0.0, 0.0, 0.0, 0.0, 0.0, 0.0, 0.0, 1.700950470774717E9, 0.0, 2023-11-25 17:14:30.774
139.0, 25815.90721796837, 35322.77468714413, -47706.15520550671, -43330.89063535818, -61042.256479532305, -15638.018028499846, -6770.410450745875, -26153.08328307668, -0.184, 0.9400000000000001, 0.248, 192.0, 0.0, 0.0, 0.0, 0.0, 0.0, 0.0, 0.0, 0.0, 0.0, 1.700950470777735E9, 0.0, 2023-11-25 17:14:30.777
140.0, 25782.80428443006, 35309.38599221539, -47713.285411987956, -43337.81967613932, -61073.28070083627, -15668.282290492332, -6899.491774975273, -26142.533259693773, -0.184, 0.9400000000000001, 0.248, 192.0, 0.0, 0.0, 0.0, 0.0, 0.0, 0.0, 0.0, 0.0, 0.0, 1.700950470780762E9, 0.0, 2023-11-25 17:14:30.780
141.0, 25820.69049128181, 35388.31000188708, -47672.56053359038, -43280.17452718908, -61047.5091394793, -15634.777025553827, -7073.969492193401, -26058.378941819545, -0.184, 0.9400000000000001, 0.248, 192.0, 0.0, 0.0, 0.0, 0.0, 0.0, 0.0, 0.0, 0.0, 0.0, 1.700950470784875E9, 0.0, 2023-11-25 17:14:30.784
142.0, 25880.03437281065, 35432.030014041666, -47632.170931359644, -43234.01817488887, -60979.00104272379, -15566.783018920783, -7028.573099204672, -26035.356645030577, -0.184, 0.9400000000000001, 0.248, 192.0, 0.0, 0.0, 0.0, 0.0, 0.0, 0.0, 0.0, 0.0, 0.0, 1.700950470787807E9, 0.0, 2023-11-25 17:14:30.787
143.0, 25841.052930480593, 35350.75907120217, -47676.919123759166, -43297.85475705323, -61001.151621478995, -15606.680882773506, -6748.148113268389, -26106.524599376276, -0.184, 0.9400000000000001, 0.248, 192.0, 0.0, 0.0, 0.0, 0.0, 0.0, 0.0, 0.0, 0.0, 0.0, 1.700950470790769E9, 0.0, 2023-11-25 17:14:30.790
144.0, 25802.138543383902, 35318.17022778633, -47684.51871687397, -43311.10934151523, -61032.51111894979, -15650.62441237264, -6851.569634863095, -26101.517808618286, -0.184, 0.9400000000000001, 0.248, 192.0, 0.0, 0.0, 0.0, 0.0, 0.0, 0.0, 0.0, 0.0, 0.0, 1.700950470793801E9, 0.0, 2023-11-25 17:14:30.793
145.0, 25832.246343165203, 35389.96403097678, -47658.72480377255, -43266.11527992669, -61018.74244436532, -15634.486452875908, -7026.025000336766, -26073.756942004795, -0.184, 0.9400000000000001, 0.248, 192.0, 0.0, 0.0, 0.0, 0.0, 0.0, 0.0, 0.0, 0.0, 0.0, 1.700950470798154E9, 0.0, 2023-11-25 17:14:30.798
146.0, 25907.03528011266, 35461.78018591168, -47602.241945533984, -43200.87053786165, -60947.61919350853, -15565.441914253464, -7067.599245023638, -26013.943673842394, -0.184, 0.9400000000000001, 0.248, 192.0, 0.0, 0.0, 0.0, 0.0, 0.0, 0.0, 0.0, 0.0, 0.0, 1.700950470800805E9, 0.0, 2023-11-25 17:14:30.800
147.0, 25882.5601199341, 35387.9523739758, -47650.38760309072, -43258.448631578525, -60961.05259192617, -15578.048298126258, -6762.117953552956, -26089.31375614569, -0.186, 0.934, 0.244, 192.0, 250.0, 48.0, 29.0, 48.0, 7.0, 160.0, 0.0, 0.0, 0.0, 1.700950470803853E9, 0.0, 2023-11-25 17:14:30.803
148.0, 25819.081165681026, 35324.27225402263, -47685.07751048535, -43305.78962633487, -61024.30802873469, -15662.023802044845, -6844.595890593039, -26136.16301252401, -0.186, 0.934, 0.244, 192.0, 0.0, 0.0, 0.0, 0.0, 0.0, 0.0, 0.0, 0.0, 0.0, 1.700950470807874E9, 0.0, 2023-11-25 17:14:30.807
149.0, 25836.314360656066, 35392.13215018894, -47671.10767020079, -43264.95298921502, -61020.999970555305, -15635.805205798772, -7014.536203686739, -26084.999869465813, -0.186, 0.934, 0.244, 192.0, 0.0, 0.0, 0.0, 0.0, 0.0, 0.0, 0.0, 0.0, 0.0, 1.700950470811024E9, 0.0, 2023-11-25 17:14:30.811
150.0, 25903.369594021988, 35468.373950525995, -47618.826939919825, -43201.76460763987, -60966.4393623399, -15582.98803365088, -7134.542719667283, -26027.62294144904, -0.186, 0.934, 0.244, 192.0, 0.0, 0.0, 0.0, 0.0, 0.0, 0.0, 0.0, 0.0, 0.0, 1.700950470813805E9, 0.0, 2023-11-25 17:14:30.813
151.0, 25894.183027050858, 35414.17097022188, -47655.43909733762, -43241.64011974813, -60958.79506573619, -15556.724733915895, -6820.545413559129, -26071.4547123259, -0.186, 0.934, 0.244, 192.0, 0.0, 0.0, 0.0, 0.0, 0.0, 0.0, 0.0, 0.0, 0.0, 1.700950470817886E9, 0.0, 2023-11-25 17:14:30.817
152.0, 25815.43783133481, 35324.76399240065, -47698.33209494735, -43306.32606820179, -61029.49363344832, -15644.56708962525, -6820.567765303585, -26101.160180707, -0.186, 0.934, 0.244, 192.0, 0.0, 0.0, 0.0, 0.0, 0.0, 0.0, 0.0, 0.0, 0.0, 1.700950470820842E9, 0.0, 2023-11-25 17:14:30.820
153.0, 25819.885828481416, 35368.86398421097, -47691.64892335521, -43277.246448665435, -61036.82500562966, -15626.126900449623, -6978.885171280524, -26078.4061048515, -0.186, 0.934, 0.244, 192.0, 0.0, 0.0, 0.0, 0.0, 0.0, 0.0, 0.0, 0.0, 0.0, 1.70095047082385E9, 0.0, 2023-11-25 17:14:30.823
154.0, 25874.245270996726, 35442.04359555765, -47641.17868437513, -43219.86952064867, -61000.12344123405, -15586.452554041452, -7144.869225605635, -26024.53840071421, -0.186, 0.934, 0.244, 192.0, 0.0, 0.0, 0.0, 0.0, 0.0, 0.0, 0.0, 0.0, 0.0, 1.700950470828829E9, 0.0, 2023-11-25 17:14:30.828
155.0, 25883.141265289934, 35402.950394505315, -47660.28942588442, -43241.729526725954, -60976.45294385588, -15539.513890685308, -6864.824219325093, -26049.505299270786, -0.186, 0.934, 0.244, 192.0, 0.0, 0.0, 0.0, 0.0, 0.0, 0.0, 0.0, 0.0, 0.0, 1.700950470832039E9, 0.0, 2023-11-25 17:14:30.832
156.0, 25805.513656796655, 35296.22081473122, -47706.356371206806, -43317.05490554034, -61044.26813653328, -15631.267801674343, -6794.505631268697, -26091.392468380032, -0.186, 0.934, 0.244, 192.0, 0.0, 0.0, 0.0, 0.0, 0.0, 0.0, 0.0, 0.0, 0.0, 1.700950470835897E9, 0.0, 2023-11-25 17:14:30.835
157.0, 25805.02191841864, 35328.25086453568, -47697.08039725786, -43292.37857966168, -61050.97365986987, -15620.226039913421, -6943.725877252326, -26068.169005890966, -0.178, 0.932, 0.246, 192.0, 250.0, 112.0, 29.0, 32.0, 7.0, 176.0, 0.0, 0.0, 0.0, 1.700950470838872E9, 0.0, 2023-11-25 17:14:30.838
158.0, 25851.960581774783, 35407.264281185184, -47652.48866706952, -43241.036622647836, -61022.92222057846, -15601.94231294898, -7128.284231219796, -26031.33333102862, -0.178, 0.932, 0.246, 192.0, 0.0, 0.0, 0.0, 0.0, 0.0, 0.0, 0.0, 0.0, 0.0, 1.700950470843531E9, 0.0, 2023-11-25 17:14:30.843
159.0, 25884.392962979433, 35400.82697878206, -47650.9463967021, -43241.662471492586, -60979.82805726863, -15555.942422859958, -6917.9543158953575, -26061.217613365367, -0.178, 0.932, 0.246, 192.0, 0.0, 0.0, 0.0, 0.0, 0.0, 0.0, 0.0, 0.0, 0.0, 1.700950470846925E9, 0.0, 2023-11-25 17:14:30.846
160.0, 25812.330938855524, 35291.81752107353, -47705.75287410652, -43330.7788766359, -61045.00574410031, -15657.799322342793, -6768.264683278166, -26136.54299217975, -0.178, 0.932, 0.246, 192.0, 0.0, 0.0, 0.0, 0.0, 0.0, 0.0, 0.0, 0.0, 0.0, 1.700950470851128E9, 0.0, 2023-11-25 17:14:30.851
161.0, 25798.517560782144, 35306.34615496948, -47701.21546998209, -43316.98785030697, -61060.87548266357, -15669.556339926285, -6910.354722780553, -26119.376852438076, -0.178, 0.932, 0.246, 192.0, 0.0, 0.0, 0.0, 0.0, 0.0, 0.0, 0.0, 0.0, 0.0, 1.700950470854948E9, 0.0, 2023-11-25 17:14:30.854
162.0, 25846.842032294517, 35395.97665023526, -47654.2991583704, -43253.955930943004, -61029.806557870696, -15641.61665935715, -7100.232791928386, -26047.29247656971, -0.178, 0.932, 0.246, 192.0, 0.0, 0.0, 0.0, 0.0, 0.0, 0.0, 0.0, 0.0, 0.0, 1.700950470859948E9, 0.0, 2023-11-25 17:14:30.859
163.0, 25896.194684051836, 35418.64131911294, -47633.512036026965, -43229.41371553108, -60974.575397321634, -15573.220321323912, -6965.876456007535, -26025.678339681428, -0.178, 0.932, 0.246, 192.0, 0.0, 0.0, 0.0, 0.0, 0.0, 0.0, 0.0, 0.0, 0.0, 1.700950470862955E9, 0.0, 2023-11-25 17:14:30.862
164.0, 25831.218162920257, 35310.257710249156, -47695.649885612715, -43313.79155084986, -61029.56068868169, -15646.645801859595, -6739.252118975177, -26098.947358005928, -0.178, 0.932, 0.246, 192.0, 0.0, 0.0, 0.0, 0.0, 0.0, 0.0, 0.0, 0.0, 0.0, 1.700950470865959E9, 0.0, 2023-11-25 17:14:30.865
165.0, 25799.81396196055, 35293.91858505232, -47705.32819096187, -43322.419324209615, -61061.59073848614, -15683.794401144314, -6874.1225450185, -26116.202904725422, -0.178, 0.932, 0.246, 192.0, 0.0, 0.0, 0.0, 0.0, 0.0, 0.0, 0.0, 0.0, 0.0, 1.700950470870402E9, 0.0, 2023-11-25 17:14:30.870
166.0, 25842.550497359098, 35374.4519203248, -47669.163068433176, -43271.27853289587, -61043.46347373289, -15664.90717707958, -7068.269797357297, -26089.224349167867, -0.178, 0.932, 0.246, 192.0, 0.0, 0.0, 0.0, 0.0, 0.0, 0.0, 0.0, 0.0, 0.0, 1.700950470875156E9, 0.0, 2023-11-25 17:14:30.875
167.0, 25900.039184098147, 35410.48293238675, -47632.6403179932, -43228.40788703059, -60981.23621716932, -15586.60901625264, -7022.269907268275, -26037.63652296502, -0.178, 0.9380000000000001, 0.248, 192.0, 250.0, 112.0, 29.0, 80.0, 7.0, 192.0, 0.0, 0.0, 0.0, 1.70095047087901E9, 0.0, 2023-11-25 17:14:30.879
168.0, 25857.794387077618, 35316.69501265228, -47681.09889997231, -43293.69733258455, -61004.079700002636, -15614.548696821774, -6739.185063741811, -26080.574224063665, -0.178, 0.9380000000000001, 0.248, 192.0, 0.0, 0.0, 0.0, 0.0, 0.0, 0.0, 0.0, 0.0, 0.0, 1.700950470883077E9, 0.0, 2023-11-25 17:14:30.883
169.0, 25822.813907005064, 35281.245145946166, -47683.065853484375, -43302.30275419984, -61032.1534910385, -15652.457255417974, -6849.602681351028, -26063.40808432199, -0.178, 0.9380000000000001, 0.248, 192.0, 0.0, 0.0, 0.0, 0.0, 0.0, 0.0, 0.0, 0.0, 0.0, 1.700950470887013E9, 0.0, 2023-11-25 17:14:30.887
170.0, 25852.67583759735, 35353.15070785889, -47658.43423109463, -43256.36991934418, -61021.759929866785, -15631.446615629986, -7028.886023627046, -26040.16227008847, -0.178, 0.9380000000000001, 0.248, 192.0, 0.0, 0.0, 0.0, 0.0, 0.0, 0.0, 0.0, 0.0, 0.0, 1.700950470891014E9, 0.0, 2023-11-25 17:14:30.891
171.0, 25913.472582515788, 35413.90274928841, -47616.52471024093, -43208.35837225418, -60967.42283909593, -15582.69746097296, -7090.219210412409, -26028.114679827057, -0.178, 0.9380000000000001, 0.248, 192.0, 0.0, 0.0, 0.0, 0.0, 0.0, 0.0, 0.0, 0.0, 0.0, 1.700950470896038E9, 0.0, 2023-11-25 17:14:30.896
172.0, 25884.214149023792, 35336.61041696196, -47669.0513097109, -43270.22800090647, -60980.5433130912, -15596.354376835154, -6785.1178985974675, -26106.323433676178, -0.178, 0.9380000000000001, 0.248, 192.0, 0.0, 0.0, 0.0, 0.0, 0.0, 0.0, 0.0, 0.0, 0.0, 1.70095047090116E9, 0.0, 2023-11-25 17:14:30.901
173.0, 25821.048119193092, 35269.04109347357, -47697.616839124785, -43312.696315371555, -61038.52373820827, -15671.456238204986, -6857.336384932564, -26119.51096290481, -0.178, 0.9380000000000001, 0.248, 192.0, 0.0, 0.0, 0.0, 0.0, 0.0, 0.0, 0.0, 0.0, 0.0, 1.700950470904518E9, 0.0, 2023-11-25 17:14:30.904
174.0, 25847.445529394812, 35334.8893326389, -47671.957036490094, -43267.05405319382, -61028.57721192566, -15643.091874491201, -7028.81896839368, -26083.74817177632, -0.178, 0.9380000000000001, 0.248, 192.0, 0.0, 0.0, 0.0, 0.0, 0.0, 0.0, 0.0, 0.0, 0.0, 1.700950470907224E9, 0.0, 2023-11-25 17:14:30.907
175.0, 25907.951701635327, 35398.99413573672, -47619.76571318695, -43211.68878217802, -60978.73282179032, -15593.158077378044, -7139.348344725174, -26038.30707529868, -0.178, 0.9380000000000001, 0.248, 192.0, 0.0, 0.0, 0.0, 0.0, 0.0, 0.0, 0.0, 0.0, 0.0, 1.700950470910171E9, 0.0, 2023-11-25 17:14:30.910
176.0, 25900.93325387636, 35338.353853029475, -47655.19322814861, -43254.33591059875, -60971.64731879799, -15570.672222456005, -6829.597870063529, -26091.571282335673, -0.178, 0.9380000000000001, 0.248, 192.0, 0.0, 0.0, 0.0, 0.0, 0.0, 0.0, 0.0, 0.0, 0.0, 1.700950470914211E9, 0.0, 2023-11-25 17:14:30.914
177.0, 25824.937322728318, 35248.164564152314, -47698.22033622507, -43320.318260230815, -61042.74821791032, -15660.213310743966, -6834.805826521615, -26109.720898833384, -0.18, 0.9440000000000001, 0.248, 192.0, 250.0, 96.0, 29.0, 128.0, 7.0, 192.0, 0.0, 0.0, 0.0, 1.700950470919126E9, 0.0, 2023-11-25 17:14:30.919
178.0, 25837.722520556752, 35306.45791369175, -47685.256324441, -43284.53311735787, -61044.44695048892, -15631.983057496913, -6990.016340019267, -26057.462520296875, -0.18, 0.9440000000000001, 0.248, 192.0, 0.0, 0.0, 0.0, 0.0, 0.0, 0.0, 0.0, 0.0, 0.0, 1.700950470923132E9, 0.0, 2023-11-25 17:14:30.923
179.0, 25897.13345731896, 35391.39454262192, -47628.48289352452, -43220.71888693797, -61000.235199956325, -15589.693556987473, -7146.903234351067, -26006.23232200531, -0.18, 0.9440000000000001, 0.248, 192.0, 0.0, 0.0, 0.0, 0.0, 0.0, 0.0, 0.0, 0.0, 0.0, 1.700950470927208E9, 0.0, 2023-11-25 17:14:30.927
180.0, 25903.66016669991, 35353.12835611443, -47648.30889085637, -43243.36120407119, -60976.944682233894, -15549.661582668017, -6866.701765859338, -26056.121415629557, -0.18, 0.9440000000000001, 0.248, 192.0, 0.0, 0.0, 0.0, 0.0, 0.0, 0.0, 0.0, 0.0, 0.0, 1.700950470930185E9, 0.0, 2023-11-25 17:14:30.930
181.0, 25812.040366177604, 35233.07713664498, -47708.39037995224, -43330.91298710263, -61056.874520406076, -15652.077275762234, -6784.022663119157, -26105.29525343123, -0.18, 0.9440000000000001, 0.248, 192.0, 0.0, 0.0, 0.0, 0.0, 0.0, 0.0, 0.0, 0.0, 0.0, 1.700950470934235E9, 0.0, 2023-11-25 17:14:30.934
182.0, 25804.4407730628, 35258.04403520156, -47699.717903103585, -43311.39991419315, -61066.61988098859, -15645.90819429257, -6934.584013770105, -26071.655878025995, -0.18, 0.9440000000000001, 0.248, 192.0, 0.0, 0.0, 0.0, 0.0, 0.0, 0.0, 0.0, 0.0, 0.0, 1.700950470938231E9, 0.0, 2023-11-25 17:14:30.938
183.0, 25855.268639954167, 35342.15364958688, -47647.414821078164, -43255.297035610325, -61034.56747943968, -15623.578801581718, -7123.858585817646, -26025.186601303412, -0.18, 0.9440000000000001, 0.248, 192.0, 0.0, 0.0, 0.0, 0.0, 0.0, 0.0, 0.0, 0.0, 0.0, 1.70095047094227E9, 0.0, 2023-11-25 17:14:30.942
184.0, 25883.387134478944, 35333.101193082475, -47644.91142569917, -43254.33591059875, -60991.428612640935, -15568.302937543744, -6918.356647295553, -26042.218630578358, -0.18, 0.9440000000000001, 0.248, 192.0, 0.0, 0.0, 0.0, 0.0, 0.0, 0.0, 0.0, 0.0, 0.0, 1.700950470946277E9, 0.0, 2023-11-25 17:14:30.946
185.0, 25803.30083409558, 35213.51936024659, -47704.34471420583, -43342.29002503038, -61056.159264583504, -15659.319240965753, -6756.284148250121, -26098.92500626147, -0.18, 0.9440000000000001, 0.248, 192.0, 0.0, 0.0, 0.0, 0.0, 0.0, 0.0, 0.0, 0.0, 0.0, 1.700950470951248E9, 0.0, 2023-11-25 17:14:30.951
186.0, 25789.710973466754, 35223.22001734019, -47700.94724904862, -43328.05196381235, -61070.57613975718, -15668.952842825991, -6902.308094776642, -26078.093180429125, -0.18, 0.9440000000000001, 0.248, 192.0, 0.0, 0.0, 0.0, 0.0, 0.0, 0.0, 0.0, 0.0, 0.0, 1.700950470955295E9, 0.0, 2023-11-25 17:14:30.955
187.0, 25836.381415889435, 35317.56673068604, -47656.33316711583, -43266.696425282535, -61041.09418882063, -15643.583612869217, -7097.058844215732, -26031.2439240508, -0.184, 0.9400000000000001, 0.244, 192.0, 250.0, 64.0, 29.0, 96.0, 7.0, 160.0, 0.0, 0.0, 0.0, 1.700950470959259E9, 0.0, 2023-11-25 17:14:30.959
188.0, 25891.657279927407, 35345.059376366065, -47629.84634993629, -43234.040526633325, -60976.14001943351, -15575.075516113702, -6978.438136391418, -26030.126336828034, -0.184, 0.9400000000000001, 0.244, 192.0, 0.0, 0.0, 0.0, 0.0, 0.0, 0.0, 0.0, 0.0, 0.0, 1.700950470962317E9, 0.0, 2023-11-25 17:14:30.962
189.0, 25827.843049507508, 35237.65924425831, -47698.15328099171, -43322.79930386535, -61031.52764219375, -15655.094761263701, -6746.583491156518, -26135.380701468075, -0.184, 0.9400000000000001, 0.244, 192.0, 0.0, 0.0, 0.0, 0.0, 0.0, 0.0, 0.0, 0.0, 0.0, 1.70095047096634E9, 0.0, 2023-11-25 17:14:30.966
190.0, 25802.92085443984, 35227.10922087541, -47699.89671705922, -43319.4241904526, -61055.3098982942, -15683.146200555111, -6888.002978325246, -26120.963826294403, -0.184, 0.9400000000000001, 0.244, 192.0, 0.0, 0.0, 0.0, 0.0, 0.0, 0.0, 0.0, 0.0, 0.0, 1.700950470970752E9, 0.0, 2023-11-25 17:14:30.970
191.0, 25835.174421688847, 35307.41903870333, -47667.978425977046, -43266.696425282535, -61038.14375855253, -15650.400894928087, -7062.458343798918, -26038.262371809768, -0.184, 0.9400000000000001, 0.244, 192.0, 0.0, 0.0, 0.0, 0.0, 0.0, 0.0, 0.0, 0.0, 0.0, 1.700950470976342E9, 0.0, 2023-11-25 17:14:30.976
192.0, 25901.939082376848, 35359.92328642884, -47623.43139927762, -43218.26019504788, -60969.92623447493, -15580.506990016342, -7040.5759859771715, -26004.53358942671, -0.184, 0.9400000000000001, 0.244, 192.0, 0.0, 0.0, 0.0, 0.0, 0.0, 0.0, 0.0, 0.0, 0.0, 1.700950470979576E9, 0.0, 2023-11-25 17:14:30.979
193.0, 25862.063570268583, 35273.42203538681, -47673.16403069068, -43287.37178890369, -60994.13317372003, -15617.65558930106, -6754.8312848605265, -26086.4080293665, -0.184, 0.9400000000000001, 0.244, 192.0, 0.0, 0.0, 0.0, 0.0, 0.0, 0.0, 0.0, 0.0, 0.0, 1.70095047098466E9, 0.0, 2023-11-25 17:14:30.984
194.0, 25812.554456300077, 35230.909017432816, -47686.68683608614, -43310.23762348147, -61034.83570037314, -15673.020860316858, -6867.573483893095, -26097.338032405143, -0.184, 0.9400000000000001, 0.244, 192.0, 0.0, 0.0, 0.0, 0.0, 0.0, 0.0, 0.0, 0.0, 0.0, 1.70095047098841E9, 0.0, 2023-11-25 17:14:30.988
195.0, 25839.823584535552, 35299.99825954417, -47663.88805674172, -43268.68573053905, -61028.28663924774, -15657.396990942598, -7054.478771028373, -26086.296270644223, -0.184, 0.9400000000000001, 0.244, 192.0, 0.0, 0.0, 0.0, 0.0, 0.0, 0.0, 0.0, 0.0, 0.0, 1.70095047099134E9, 0.0, 2023-11-25 17:14:30.991
196.0, 25903.168428321893, 35355.43058579333, -47621.6432597212, -43218.37195377016, -60975.71533628886, -15602.165830393533, -7116.147233980565, -26046.085482369126, -0.178, 0.9380000000000001, 0.23800000000000002, 192.0, 250.0, 112.0, 29.0, 80.0, 7.0, 112.0, 0.0, 0.0, 0.0, 1.70095047099434E9, 0.0, 2023-11-25 17:14:30.994
197.0, 25873.84293959653, 35277.959439511236, -47669.72186204456, -43276.03945446485, -60984.87955151553, -15605.809164739749, -6801.34526507202, -26101.07077372918, -0.178, 0.9380000000000001, 0.23800000000000002, 192.0, 0.0, 0.0, 0.0, 0.0, 0.0, 0.0, 0.0, 0.0, 0.0, 1.700950470998361E9, 0.0, 2023-11-25 17:14:30.998
198.0, 25810.498095810188, 35208.669031699785, -47692.163013477686, -43316.09378052876, -61037.07087481867, -15673.043212061313, -6854.989451764757, -26089.045535212226, -0.178, 0.9380000000000001, 0.23800000000000002, 192.0, 0.0, 0.0, 0.0, 0.0, 0.0, 0.0, 0.0, 0.0, 0.0, 1.700950471002412E9, 0.0, 2023-11-25 17:14:31.002
199.0, 25832.894543754406, 35276.39481739936, -47672.515830101474, -43271.83732650725, -61031.415883471476, -15638.599173855684, -7011.183442018443, -26038.35177878759, -0.178, 0.9380000000000001, 0.23800000000000002, 192.0, 0.0, 0.0, 0.0, 0.0, 0.0, 0.0, 0.0, 0.0, 0.0, 1.700950471007402E9, 0.0, 2023-11-25 17:14:31.007
200.0, 25893.020736339182, 35349.23915257921, -47624.92896615613, -43216.583814213736, -60985.88538001602, -15594.901513445559, -7137.3143359797405, -25999.325632968623, -0.178, 0.9380000000000001, 0.23800000000000002, 192.0, 0.0, 0.0, 0.0, 0.0, 0.0, 0.0, 0.0, 0.0, 0.0, 1.700950471011414E9, 0.0, 2023-11-25 17:14:31.011
201.0, 25885.3093845021, 35294.76795134162, -47661.675234040646, -43260.77321300188, -60978.95633923487, -15573.175617835, -6830.737809030749, -26057.06018889668, -0.178, 0.9380000000000001, 0.23800000000000002, 192.0, 0.0, 0.0, 0.0, 0.0, 0.0, 0.0, 0.0, 0.0, 0.0, 1.700950471014441E9, 0.0, 2023-11-25 17:14:31.014
202.0, 25801.87032245044, 35192.88870011434, -47708.47978693006, -43335.4280394826, -61055.33225003866, -15673.445543461508, -6824.747541516726, -26101.048421984724, -0.178, 0.9380000000000001, 0.23800000000000002, 192.0, 0.0, 0.0, 0.0, 0.0, 0.0, 0.0, 0.0, 0.0, 0.0, 1.700950471018388E9, 0.0, 2023-11-25 17:14:31.018
203.0, 25822.143354671403, 35250.623256042396, -47685.68100758565, -43294.23377445147, -61049.67725869147, -15649.171548983044, -6983.511982382773, -26061.262316854278, -0.178, 0.9380000000000001, 0.23800000000000002, 192.0, 0.0, 0.0, 0.0, 0.0, 0.0, 0.0, 0.0, 0.0, 0.0, 1.700950471022445E9, 0.0, 2023-11-25 17:14:31.022
204.0, 25883.185968778846, 35336.94569312879, -47633.66849823815, -43235.091058622726, -61010.96403729487, -15612.894667732082, -7150.300699508274, -26006.031156305213, -0.178, 0.9380000000000001, 0.23800000000000002, 192.0, 0.0, 0.0, 0.0, 0.0, 0.0, 0.0, 0.0, 0.0, 0.0, 1.700950471026435E9, 0.0, 2023-11-25 17:14:31.026
205.0, 25895.88175962946, 35309.11777128193, -47654.07564092585, -43256.056994921804, -60986.533580605224, -15574.829646924692, -6882.996187567257, -26050.86875568256, -0.178, 0.9380000000000001, 0.23800000000000002, 192.0, 0.0, 0.0, 0.0, 0.0, 0.0, 0.0, 0.0, 0.0, 0.0, 1.700950471030481E9, 0.0, 2023-11-25 17:14:31.030
206.0, 25811.079241166026, 35200.22007229568, -47709.79853985293, -43340.85951338524, -61059.78024718526, -15677.357098741186, -6791.689311467328, -26110.816134311695, -0.182, 0.9420000000000001, 0.246, 192.0, 250.0, 80.0, 29.0, 112.0, 7.0, 176.0, 0.0, 0.0, 0.0, 1.700950471034516E9, 0.0, 2023-11-25 17:14:31.034
207.0, 25809.045232420594, 35226.17044760829, -47699.717903103585, -43317.36782996271, -61066.37401179958, -15672.685584150027, -6943.569415041139, -26082.563529320185, -0.182, 0.9420000000000001, 0.246, 192.0, 0.0, 0.0, 0.0, 0.0, 0.0, 0.0, 0.0, 0.0, 0.0, 1.700950471039463E9, 0.0, 2023-11-25 17:14:31.039
208.0, 25861.661238868386, 35310.70474513826, -47647.19130363361, -43257.19693388903, -61031.08060730465, -15643.360095424665, -7133.827463844713, -26024.828973392126, -0.182, 0.9420000000000001, 0.246, 192.0, 0.0, 0.0, 0.0, 0.0, 0.0, 0.0, 0.0, 0.0, 0.0, 1.700950471042527E9, 0.0, 2023-11-25 17:14:31.042
209.0, 25888.304518259112, 35300.95938455575, -47648.77827748994, -43260.21441939049, -60991.11568821856, -15592.174600622011, -6922.715237464337, -26050.86875568256, -0.182, 0.9420000000000001, 0.246, 192.0, 0.0, 0.0, 0.0, 0.0, 0.0, 0.0, 0.0, 0.0, 0.0, 1.700950471046552E9, 0.0, 2023-11-25 17:14:31.046
210.0, 25820.2434563927, 35194.45332222621, -47703.24947872752, -43342.401783752655, -61051.130122081064, -15679.569921442262, -6756.440610461308, -26109.251512199822, -0.182, 0.9420000000000001, 0.246, 192.0, 0.0, 0.0, 0.0, 0.0, 0.0, 0.0, 0.0, 0.0, 0.0, 1.700950471050516E9, 0.0, 2023-11-25 17:14:31.050
211.0, 25810.475744065734, 35207.59614796593, -47697.86270831379, -43327.224949267504, -61065.63640423255, -15683.369717999663, -6900.072920331111, -26080.954203719404, -0.182, 0.9420000000000001, 0.246, 192.0, 0.0, 0.0, 0.0, 0.0, 0.0, 0.0, 0.0, 0.0, 0.0, 1.700950471054517E9, 0.0, 2023-11-25 17:14:31.054
212.0, 25851.334732930034, 35293.605660629946, -47656.55668456038, -43271.99378871844, -61043.150549310514, -15660.660345633072, -7088.989864467367, -26033.09911884059, -0.182, 0.9420000000000001, 0.246, 192.0, 0.0, 0.0, 0.0, 0.0, 0.0, 0.0, 0.0, 0.0, 0.0, 1.70095047105854E9, 0.0, 2023-11-25 17:14:31.058
213.0, 25892.88662587245, 35312.09055329449, -47639.77052447445, -43249.95496868551, -60991.562723107665, -15600.757670492849, -6978.61695034706, -26034.61903746355, -0.182, 0.9420000000000001, 0.246, 192.0, 0.0, 0.0, 0.0, 0.0, 0.0, 0.0, 0.0, 0.0, 0.0, 1.700950471062584E9, 0.0, 2023-11-25 17:14:31.062
214.0, 25837.588410090022, 35214.256967813606, -47696.141623990734, -43327.783742878884, -61033.91927885047, -15665.465970690962, -6742.314307965554, -26112.827791312673, -0.182, 0.9420000000000001, 0.246, 192.0, 0.0, 0.0, 0.0, 0.0, 0.0, 0.0, 0.0, 0.0, 0.0, 1.700950471067525E9, 0.0, 2023-11-25 17:14:31.067
215.0, 25804.619587018442, 35196.88966237184, -47700.43315892615, -43331.494132458465, -61060.85313091912, -15694.970273371968, -6872.960254306824, -26102.300119674223, -0.182, 0.9420000000000001, 0.246, 192.0, 0.0, 0.0, 0.0, 0.0, 0.0, 0.0, 0.0, 0.0, 0.0, 1.700950471070591E9, 0.0, 2023-11-25 17:14:31.070
216.0, 25844.07041598206, 35282.69800933576, -47660.356481117786, -43274.5642393308, -61036.60148818511, -15666.38239221363, -7060.5360937757605, -26062.849290710605, -0.178, 0.9420000000000001, 0.248, 192.0, 250.0, 112.0, 29.0, 112.0, 7.0, 192.0, 0.0, 0.0, 0.0, 1.70095047107463E9, 0.0, 2023-11-25 17:14:31.074
217.0, 25900.709736431807, 35330.307225025565, -47619.251623064476, -43229.21254983098, -60971.64731879799, -15601.338815848687, -7050.120180859588, -26043.783252690228, -0.178, 0.9420000000000001, 0.248, 192.0, 0.0, 0.0, 0.0, 0.0, 0.0, 0.0, 0.0, 0.0, 0.0, 1.700950471078571E9, 0.0, 2023-11-25 17:14:31.078
218.0, 25853.994590520215, 35231.75838372212, -47674.3039696579, -43300.15698673212, -60997.88826678852, -15627.915040006048, -6756.082982550023, -26083.412895609486, -0.178, 0.9420000000000001, 0.248, 192.0, 0.0, 0.0, 0.0, 0.0, 0.0, 0.0, 0.0, 0.0, 0.0, 1.700950471082595E9, 0.0, 2023-11-25 17:14:31.082
219.0, 25804.21725561825, 35182.56219417598, -47692.45358615561, -43325.705030644545, -61042.30118302121, -15683.906159866592, -6861.2479402122435, -26075.835654239138, -0.178, 0.9420000000000001, 0.248, 192.0, 0.0, 0.0, 0.0, 0.0, 0.0, 0.0, 0.0, 0.0, 0.0, 1.700950471086579E9, 0.0, 2023-11-25 17:14:31.086
220.0, 25839.711825813276, 35261.575610825494, -47660.73646077353, -43275.68182655356, -61028.01841831427, -15655.340630452709, -7036.195044063931, -26031.57920021763, -0.178, 0.9420000000000001, 0.248, 192.0, 0.0, 0.0, 0.0, 0.0, 0.0, 0.0, 0.0, 0.0, 0.0, 1.700950471090914E9, 0.0, 2023-11-25 17:14:31.090
221.0, 25911.32681504808, 35335.44812625028, -47602.97955310101, -43213.99101185692, -60964.9417954614, -15590.98995816588, -7102.669132074015, -25991.949557298372, -0.178, 0.9420000000000001, 0.248, 192.0, 0.0, 0.0, 0.0, 0.0, 0.0, 0.0, 0.0, 0.0, 0.0, 1.700950471095597E9, 0.0, 2023-11-25 17:14:31.095
222.0, 25880.704925144306, 35257.820517757005, -47653.33803335882, -43276.91117249861, -60978.554007834675, -15600.824725726216, -6781.765136929172, -26079.63545079654, -0.178, 0.9420000000000001, 0.248, 192.0, 0.0, 0.0, 0.0, 0.0, 0.0, 0.0, 0.0, 0.0, 0.0, 1.700950471098648E9, 0.0, 2023-11-25 17:14:31.098
223.0, 25810.96748244375, 35177.711865629186, -47688.54203087593, -43332.745830147964, -61045.542185967235, -15689.404689002597, -6842.025439980679, -26118.661596615508, -0.178, 0.9420000000000001, 0.248, 192.0, 0.0, 0.0, 0.0, 0.0, 0.0, 0.0, 0.0, 0.0, 0.0, 1.700950471102667E9, 0.0, 2023-11-25 17:14:31.102
224.0, 25836.560229845076, 35246.93521820727, -47663.88805674172, -43285.494242369445, -61033.27107826127, -15654.983002541425, -7006.24370649382, -26058.513052286275, -0.178, 0.9420000000000001, 0.248, 192.0, 0.0, 0.0, 0.0, 0.0, 0.0, 0.0, 0.0, 0.0, 0.0, 1.70095047110672E9, 0.0, 2023-11-25 17:14:31.106
225.0, 25893.73599216175, 35323.44523947778, -47615.5859369738, -43227.08913410773, -60985.25953117127, -15601.60703678215, -7129.893556820579, -25978.29264143618, -0.178, 0.9420000000000001, 0.248, 192.0, 0.0, 0.0, 0.0, 0.0, 0.0, 0.0, 0.0, 0.0, 0.0, 1.700950471110667E9, 0.0, 2023-11-25 17:14:31.110
226.0, 25888.617442681487, 35270.605715585436, -47647.92891120064, -43265.444727593036, -60973.48016184333, -15576.282510314288, -6825.641611294939, -26035.82603166414, -0.17400000000000002, 0.9440000000000001, 0.244, 192.0, 250.0, 144.0, 29.0, 128.0, 7.0, 160.0, 0.0, 0.0, 0.0, 1.700950471114723E9, 0.0, 2023-11-25 17:14:31.114
227.0, 25808.35232834248, 35169.59818239191, -47693.079435000356, -43338.1773040506, -61045.63159294506, -15676.194808029511, -6814.532794300651, -26095.63929982654, -0.17400000000000002, 0.9440000000000001, 0.244, 192.0, 0.0, 0.0, 0.0, 0.0, 0.0, 0.0, 0.0, 0.0, 0.0, 1.700950471118658E9, 0.0, 2023-11-25 17:14:31.118
228.0, 25807.279444608623, 35209.384287522356, -47686.19509770812, -43313.389219449666, -61054.14760758253, -15664.236624745921, -6967.977519986334, -26072.460540826385, -0.17400000000000002, 0.9440000000000001, 0.244, 192.0, 0.0, 0.0, 0.0, 0.0, 0.0, 0.0, 0.0, 0.0, 0.0, 1.70095047112369E9, 0.0, 2023-11-25 17:14:31.123
229.0, 25863.44937842481, 35290.63287861739, -47630.11457086976, -43249.86556170769, -61014.160336751986, -15622.66238005905, -7133.60394640016, -25997.58219690111, -0.17400000000000002, 0.9440000000000001, 0.244, 192.0, 0.0, 0.0, 0.0, 0.0, 0.0, 0.0, 0.0, 0.0, 0.0, 1.700950471126703E9, 0.0, 2023-11-25 17:14:31.126
230.0, 25881.88956760044, 35264.14606143785, -47643.10093439829, -43264.75182351492, -60983.40433638148, -15574.449667268953, -6870.389803694464, -26028.114679827057, -0.17400000000000002, 0.9440000000000001, 0.244, 192.0, 0.0, 0.0, 0.0, 0.0, 0.0, 0.0, 0.0, 0.0, 0.0, 1.700950471131741E9, 0.0, 2023-11-25 17:14:31.131
231.0, 25800.149238127382, 35154.398996162294, -47694.55465013441, -43344.212275053535, -61051.554805225715, -15666.695316636005, -6774.836096148026, -26070.046552425214, -0.17400000000000002, 0.9440000000000001, 0.244, 192.0, 0.0, 0.0, 0.0, 0.0, 0.0, 0.0, 0.0, 0.0, 0.0, 1.700950471134776E9, 0.0, 2023-11-25 17:14:31.134
232.0, 25803.30083409558, 35190.65352566881, -47680.51775461647, -43313.456274683034, -61054.661697705, -15655.072409519245, -6926.917365421935, -26036.67539795344, -0.17400000000000002, 0.9440000000000001, 0.244, 192.0, 0.0, 0.0, 0.0, 0.0, 0.0, 0.0, 0.0, 0.0, 0.0, 1.700950471139054E9, 0.0, 2023-11-25 17:14:31.139
233.0, 25852.92170678636, 35281.1780907128, -47631.81330344836, -43253.128916398164, -61024.017456056776, -15631.42426388553, -7114.157928724043, -25990.921377053426, -0.17400000000000002, 0.9440000000000001, 0.244, 192.0, 0.0, 0.0, 0.0, 0.0, 0.0, 0.0, 0.0, 0.0, 0.0, 1.700950471142855E9, 0.0, 2023-11-25 17:14:31.142
234.0, 25889.779733393163, 35283.815596558525, -47618.983402131016, -43240.43312554755, -60969.613310052555, -15571.745106189861, -6929.912499178947, -26008.758069128762, -0.17400000000000002, 0.9440000000000001, 0.244, 192.0, 0.0, 0.0, 0.0, 0.0, 0.0, 0.0, 0.0, 0.0, 0.0, 1.700950471148775E9, 0.0, 2023-11-25 17:14:31.148
235.0, 25809.469915565245, 35165.28429571203, -47684.742234318524, -43333.5281412039, -61035.953287595905, -15665.823598602248, -6745.890587078404, -26097.31568066069, -0.17400000000000002, 0.9440000000000001, 0.244, 192.0, 0.0, 0.0, 0.0, 0.0, 0.0, 0.0, 0.0, 0.0, 0.0, 1.700950471151804E9, 0.0, 2023-11-25 17:14:31.151
236.0, 25784.86064491995, 35166.357179445884, -47686.977408764054, -43329.393068479665, -61058.75206694032, -15687.370680257165, -6897.904801118947, -26088.039706711737, -0.18, 0.9440000000000001, 0.246, 192.0, 250.0, 96.0, 29.0, 128.0, 7.0, 176.0, 0.0, 0.0, 0.0, 1.700950471154844E9, 0.0, 2023-11-25 17:14:31.154
237.0, 25827.105441940483, 35254.937142722265, -47644.53144604343, -43269.490393339445, -61030.231241015346, -15659.878034577136, -7099.092852961166, -26034.99901711929, -0.18, 0.9440000000000001, 0.246, 192.0, 0.0, 0.0, 0.0, 0.0, 0.0, 0.0, 0.0, 0.0, 0.0, 1.700950471158846E9, 0.0, 2023-11-25 17:14:31.158
238.0, 25878.581509421052, 35283.59207911397, -47620.70448645407, -43238.01913714637, -60971.11087693106, -15588.955949420448, -6994.509040654784, -26012.088479052603, -0.18, 0.9440000000000001, 0.246, 192.0, 0.0, 0.0, 0.0, 0.0, 0.0, 0.0, 0.0, 0.0, 0.0, 1.700950471163162E9, 0.0, 2023-11-25 17:14:31.163
239.0, 25822.05394769358, 35185.49027269963, -47682.55176336191, -43322.35226897625, -61018.630685643046, -15655.430037430531, -6744.683592877816, -26088.419686367477, -0.18, 0.9440000000000001, 0.246, 192.0, 0.0, 0.0, 0.0, 0.0, 0.0, 0.0, 0.0, 0.0, 0.0, 1.700950471166915E9, 0.0, 2023-11-25 17:14:31.166
240.0, 25793.86839793544, 35173.91206907178, -47684.317551173874, -43324.855664355244, -61045.251613289314, -15685.090802322722, -6879.21874275431, -26072.84052048213, -0.18, 0.9440000000000001, 0.246, 192.0, 0.0, 0.0, 0.0, 0.0, 0.0, 0.0, 0.0, 0.0, 0.0, 1.700950471171039E9, 0.0, 2023-11-25 17:14:31.171
241.0, 25836.02378797815, 35260.56978232501, -47645.96195768857, -43268.81984100579, -61022.69870313391, -15657.821674087249, -7064.693518244448, -26038.44118576541, -0.18, 0.9440000000000001, 0.246, 192.0, 0.0, 0.0, 0.0, 0.0, 0.0, 0.0, 0.0, 0.0, 0.0, 1.700950471174855E9, 0.0, 2023-11-25 17:14:31.174
242.0, 25899.458038742312, 35316.44914346327, -47602.2866490229, -43223.31168929478, -60958.862120969556, -15600.198876881466, -7063.307710088219, -26026.930037370927, -0.18, 0.9440000000000001, 0.246, 192.0, 0.0, 0.0, 0.0, 0.0, 0.0, 0.0, 0.0, 0.0, 0.0, 1.700950471177916E9, 0.0, 2023-11-25 17:14:31.177
243.0, 25863.918765058374, 35229.65731974332, -47651.125210657745, -43289.495204626946, -60977.32466188964, -15623.891726004093, -6759.9945378297025, -26077.936718217938, -0.18, 0.9440000000000001, 0.246, 192.0, 0.0, 0.0, 0.0, 0.0, 0.0, 0.0, 0.0, 0.0, 0.0, 1.700950471181844E9, 0.0, 2023-11-25 17:14:31.181
244.0, 25811.526276055134, 35177.689513884725, -47667.53139108794, -43316.65257414014, -61022.40813045599, -15681.96155809898, -6853.782457564171, -26067.654915768497, -0.18, 0.9440000000000001, 0.246, 192.0, 0.0, 0.0, 0.0, 0.0, 0.0, 0.0, 0.0, 0.0, 0.0, 1.700950471185853E9, 0.0, 2023-11-25 17:14:31.185
245.0, 25842.39403514791, 35258.40166311284, -47639.74817273, -43266.405852604614, -61011.58988613962, -15650.199729227988, -7027.589622448639, -26014.793040131695, -0.18, 0.9440000000000001, 0.246, 192.0, 0.0, 0.0, 0.0, 0.0, 0.0, 0.0, 0.0, 0.0, 0.0, 1.700950471189913E9, 0.0, 2023-11-25 17:14:31.189
246.0, 25911.103297603524, 35333.99526286069, -47590.84255586178, -43207.196081542505, -60957.47631281332, -15590.520571532319, -7104.367864652618, -25967.161472697437, -0.184, 0.9460000000000001, 0.246, 192.0, 250.0, 64.0, 29.0, 144.0, 7.0, 176.0, 0.0, 0.0, 0.0, 1.700950471194964E9, 0.0, 2023-11-25 17:14:31.194
247.0, 25886.02464032467, 35262.33557013697, -47644.64320476571, -43270.31740788429, -60972.831961254116, -15599.416565825532, -6783.8885526524255, -26053.327447572643, -0.184, 0.9460000000000001, 0.246, 192.0, 0.0, 0.0, 0.0, 0.0, 0.0, 0.0, 0.0, 0.0, 0.0, 1.700950471198953E9, 0.0, 2023-11-25 17:14:31.198
248.0, 25821.02576744864, 35188.68657215674, -47676.67325457016, -43323.06752479882, -61037.47320621887, -15690.075241336257, -6841.69016381385, -26106.323433676178, -0.184, 0.9460000000000001, 0.246, 192.0, 0.0, 0.0, 0.0, 0.0, 0.0, 0.0, 0.0, 0.0, 0.0, 1.700950471203008E9, 0.0, 2023-11-25 17:14:31.203
249.0, 25833.34157864351, 35250.71266302022, -47661.38466136273, -43283.99667549094, -61036.08739806264, -15661.57676715574, -7001.4827849248395, -26063.63160176654, -0.184, 0.9460000000000001, 0.246, 192.0, 0.0, 0.0, 0.0, 0.0, 0.0, 0.0, 0.0, 0.0, 0.0, 1.700950471205939E9, 0.0, 2023-11-25 17:14:31.205
250.0, 25890.293823515636, 35325.12162031193, -47606.578183958314, -43220.56242472678, -60986.08654571612, -15607.79846999627, -7131.257013232353, -25996.688127122896, -0.184, 0.9460000000000001, 0.246, 192.0, 0.0, 0.0, 0.0, 0.0, 0.0, 0.0, 0.0, 0.0, 0.0, 1.700950471209933E9, 0.0, 2023-11-25 17:14:31.209
251.0, 25886.874006613973, 35273.15381445334, -47637.96003317357, -43255.34173909923, -60971.714374031355, -15575.209626580434, -6825.932183972858, -26041.503374755786, -0.184, 0.9460000000000001, 0.246, 192.0, 0.0, 0.0, 0.0, 0.0, 0.0, 0.0, 0.0, 0.0, 0.0, 1.700950471214127E9, 0.0, 2023-11-25 17:14:31.214
252.0, 25811.928607455327, 35181.42225520877, -47680.18247844964, -43323.15693177664, -61040.73656090934, -15663.253147989888, -6800.093567382523, -26076.68502052844, -0.184, 0.9460000000000001, 0.246, 192.0, 0.0, 0.0, 0.0, 0.0, 0.0, 0.0, 0.0, 0.0, 0.0, 1.700950471217942E9, 0.0, 2023-11-25 17:14:31.217
253.0, 25812.308587111067, 35224.62817724087, -47675.1533359472, -43297.385370419666, -61051.3089360367, -15648.344534438198, -6945.581072042117, -26060.144729631513, -0.184, 0.9460000000000001, 0.246, 192.0, 0.0, 0.0, 0.0, 0.0, 0.0, 0.0, 0.0, 0.0, 0.0, 1.700950471221976E9, 0.0, 2023-11-25 17:14:31.221
254.0, 25858.68845685583, 35303.06044853455, -47631.679192981625, -43241.57306451477, -61019.323589721156, -15612.715853776439, -7118.181242725997, -26011.99907207478, -0.184, 0.9460000000000001, 0.246, 192.0, 0.0, 0.0, 0.0, 0.0, 0.0, 0.0, 0.0, 0.0, 0.0, 1.700950471227001E9, 0.0, 2023-11-25 17:14:31.227
255.0, 25871.54070991763, 35281.513366879626, -47650.0970304128, -43258.00159668942, -60991.47331612984, -15558.199949049944, -6857.537550632662, -26034.462575252364, -0.184, 0.9460000000000001, 0.246, 192.0, 0.0, 0.0, 0.0, 0.0, 0.0, 0.0, 0.0, 0.0, 0.0, 1.700950471231057E9, 0.0, 2023-11-25 17:14:31.231
0.0, 25801.15506662787, 35183.16569127628, -47698.53326064745, -43331.67294641411, -61054.840511660645, -15641.52725237933, -6746.9634708122585, -26080.21659615238, -0.184, 0.934, 0.252, 192.0, 250.0, 64.0, 29.0, 48.0, 7.0, 224.0, 0.0, 0.0, 0.0, 1.700950471234022E9, 0.0, 2023-11-25 17:14:31.234
1.0, 25790.82856068952, 35212.088848601445, -47698.309743202895, -43313.41157119413, -61067.22337808888, -15641.124920979133, -6898.798870897159, -26074.11456991608, -0.184, 0.934, 0.252, 192.0, 0.0, 0.0, 0.0, 0.0, 0.0, 0.0, 0.0, 0.0, 0.0, 1.70095047123805E9, 0.0, 2023-11-25 17:14:31.238
2.0, 25844.2492299377, 35305.94382356928, -47645.537274543916, -43248.39034657364, -61030.34299973762, -15610.346568864175, -7084.810088254224, -26020.783307645717, -0.184, 0.934, 0.252, 192.0, 0.0, 0.0, 0.0, 0.0, 0.0, 0.0, 0.0, 0.0, 0.0, 1.700950471242055E9, 0.0, 2023-11-25 17:14:31.242
3.0, 25883.16361703439, 35317.25380626367, -47633.936719171616, -43235.73925921193, -60976.49764734479, -15548.07460881169, -6899.22355404181, -26032.741490929307, -0.184, 0.934, 0.252, 192.0, 0.0, 0.0, 0.0, 0.0, 0.0, 0.0, 0.0, 0.0, 0.0, 1.700950471246081E9, 0.0, 2023-11-25 17:14:31.246
4.0, 25810.229874876724, 35213.58641547995, -47696.007513524004, -43322.19580676506, -61033.159319538994, -15635.961668009957, -6710.574830839018, -26115.062965758203, -0.184, 0.934, 0.252, 192.0, 0.0, 0.0, 0.0, 0.0, 0.0, 0.0, 0.0, 0.0, 0.0, 1.700950471250072E9, 0.0, 2023-11-25 17:14:31.250
5.0, 25792.192017101293, 35222.30359581752, -47699.695551359124, -43315.199710750545, -61053.924090137974, -15658.715743865461, -6860.733850089771, -26111.374927923076, -0.184, 0.934, 0.252, 192.0, 0.0, 0.0, 0.0, 0.0, 0.0, 0.0, 0.0, 0.0, 0.0, 1.700950471255151E9, 0.0, 2023-11-25 17:14:31.255
6.0, 25844.226878193247, 35318.97489058672, -47662.99398696351, -43260.884971724154, -61033.718113150375, -15641.661362846062, -7063.39711706604, -26078.696677529417, -0.184, 0.934, 0.252, 192.0, 0.0, 0.0, 0.0, 0.0, 0.0, 0.0, 0.0, 0.0, 0.0, 1.700950471259149E9, 0.0, 2023-11-25 17:14:31.259
7.0, 25906.767059179194, 35361.64437075191, -47632.01446914846, -43221.3000322938, -60969.21097865236, -15567.677088698994, -6976.962921257368, -26050.600534749097, -0.184, 0.934, 0.252, 192.0, 0.0, 0.0, 0.0, 0.0, 0.0, 0.0, 0.0, 0.0, 0.0, 1.700950471262217E9, 0.0, 2023-11-25 17:14:31.262
8.0, 25855.335695187536, 35261.46385210322, -47688.653789598204, -43294.792568062854, -61007.45481341539, -15617.253257900866, -6719.560232110051, -26106.30108193172, -0.184, 0.934, 0.252, 192.0, 0.0, 0.0, 0.0, 0.0, 0.0, 0.0, 0.0, 0.0, 0.0, 1.700950471266163E9, 0.0, 2023-11-25 17:14:31.266
9.0, 25811.660386521864, 35232.294825589044, -47705.73052236206, -43309.052981025336, -61046.39155225654, -15664.258976490377, -6850.250881940232, -26119.801535582727, -0.184, 0.934, 0.252, 192.0, 0.0, 0.0, 0.0, 0.0, 0.0, 0.0, 0.0, 0.0, 0.0, 1.700950471270161E9, 0.0, 2023-11-25 17:14:31.270
10.0, 25851.82647130805, 35323.75816390016, -47668.42546086615, -43251.452535564014, -61024.66565664598, -15637.861566288659, -7047.3262128026745, -26088.553796834207, -0.184, 0.936, 0.252, 192.0, 250.0, 64.0, 29.0, 64.0, 7.0, 224.0, 0.0, 0.0, 0.0, 1.700950471274249E9, 0.0, 2023-11-25 17:14:31.274
11.0, 25914.925445905385, 35377.96114420428, -47627.45471327957, -43202.949250096, -60964.96414720585, -15581.334004561188, -7056.646890240538, -26079.076657185156, -0.184, 0.936, 0.252, 192.0, 0.0, 0.0, 0.0, 0.0, 0.0, 0.0, 0.0, 0.0, 0.0, 1.700950471278197E9, 0.0, 2023-11-25 17:14:31.278
12.0, 25881.241367011236, 35294.231509474695, -47682.57411510636, -43268.81984100579, -60987.382946894526, -15605.630350784106, -6752.283185992621, -26134.397224712044, -0.184, 0.936, 0.252, 192.0, 0.0, 0.0, 0.0, 0.0, 0.0, 0.0, 0.0, 0.0, 0.0, 1.70095047128222E9, 0.0, 2023-11-25 17:14:31.282
13.0, 25829.11709894146, 35244.36476759491, -47703.204775238606, -43300.40285592114, -61037.85318587461, -15672.685584150027, -6844.528835359673, -26141.058044559726, -0.184, 0.936, 0.252, 192.0, 0.0, 0.0, 0.0, 0.0, 0.0, 0.0, 0.0, 0.0, 0.0, 1.700950471287181E9, 0.0, 2023-11-25 17:14:31.287
14.0, 25853.234631208736, 35321.500637710174, -47678.41669063768, -43252.905398953604, -61028.44310145892, -15648.56805188275, -7022.940459601934, -26115.577055880673, -0.184, 0.936, 0.252, 192.0, 0.0, 0.0, 0.0, 0.0, 0.0, 0.0, 0.0, 0.0, 0.0, 1.700950471290461E9, 0.0, 2023-11-25 17:14:31.290
15.0, 25918.725242462784, 35392.82505426706, -47625.823035934336, -43191.1475290236, -60969.613310052555, -15586.2290365969, -7105.105472219643, -26058.401293564, -0.184, 0.936, 0.252, 192.0, 0.0, 0.0, 0.0, 0.0, 0.0, 0.0, 0.0, 0.0, 0.0, 1.700950471295226E9, 0.0, 2023-11-25 17:14:31.295
16.0, 25896.306442774112, 35321.65709992136, -47672.42642312365, -43244.523494782865, -60974.68715604391, -15578.920016160015, -6773.159715313878, -26110.369099422587, -0.184, 0.936, 0.252, 192.0, 0.0, 0.0, 0.0, 0.0, 0.0, 0.0, 0.0, 0.0, 0.0, 1.700950471298255E9, 0.0, 2023-11-25 17:14:31.298
17.0, 25834.21329667727, 35252.50080257664, -47702.91420256069, -43292.42328315059, -61034.478072461854, -15660.794456099804, -6812.141157643933, -26131.17857351048, -0.184, 0.936, 0.252, 192.0, 0.0, 0.0, 0.0, 0.0, 0.0, 0.0, 0.0, 0.0, 0.0, 1.700950471302306E9, 0.0, 2023-11-25 17:14:31.302
18.0, 25849.77011081816, 35314.504541695664, -47690.710150088096, -43255.8111257328, -61033.94163059493, -15637.705104077471, -6972.269054921753, -26108.893884288536, -0.184, 0.936, 0.252, 192.0, 0.0, 0.0, 0.0, 0.0, 0.0, 0.0, 0.0, 0.0, 0.0, 1.700950471306266E9, 0.0, 2023-11-25 17:14:31.306
19.0, 25906.275320801178, 35388.600574565, -47640.1952076191, -43197.003686070886, -60990.31102541817, -15590.65468199905, -7106.960667009434, -26041.72689220034, -0.184, 0.936, 0.252, 192.0, 0.0, 0.0, 0.0, 0.0, 0.0, 0.0, 0.0, 0.0, 0.0, 1.700950471310323E9, 0.0, 2023-11-25 17:14:31.310
20.0, 25902.900207388426, 35335.492829739196, -47671.97938823455, -43231.98416614344, -60976.58705432261, -15558.356411261131, -6805.972076174268, -26081.535349075242, -0.186, 0.934, 0.25, 192.0, 250.0, 48.0, 29.0, 48.0, 7.0, 208.0, 0.0, 0.0, 0.0, 1.70095047131634E9, 0.0, 2023-11-25 17:14:31.316
21.0, 25815.750755757184, 35230.93136917727, -47718.71688589059, -43303.263879211416, -61046.235090045346, -15646.869319304147, -6768.219979789255, -26103.21654119689, -0.186, 0.934, 0.25, 192.0, 0.0, 0.0, 0.0, 0.0, 0.0, 0.0, 0.0, 0.0, 0.0, 1.700950471319291E9, 0.0, 2023-11-25 17:14:31.319
22.0, 25823.886790738918, 35284.106169236446, -47700.2096414816, -43265.26591363739, -61043.46347373289, -15618.035568956802, -6913.640429215483, -26058.960087175383, -0.186, 0.934, 0.25, 192.0, 0.0, 0.0, 0.0, 0.0, 0.0, 0.0, 0.0, 0.0, 0.0, 1.700950471323316E9, 0.0, 2023-11-25 17:14:31.323
23.0, 25875.161692519392, 35368.685170255325, -47654.07564092585, -43211.71113392248, -61012.12632800655, -15591.638158755084, -7087.201724910942, -26020.269217523244, -0.186, 0.934, 0.25, 192.0, 0.0, 0.0, 0.0, 0.0, 0.0, 0.0, 0.0, 0.0, 0.0, 1.700950471326343E9, 0.0, 2023-11-25 17:14:31.326
24.0, 25899.614500953496, 35355.00590264868, -47658.99302470601, -43221.27768054935, -60972.630795554025, -15544.230108765378, -6843.299489414631, -26055.227345851345, -0.186, 0.934, 0.25, 192.0, 0.0, 0.0, 0.0, 0.0, 0.0, 0.0, 0.0, 0.0, 0.0, 1.700950471330358E9, 0.0, 2023-11-25 17:14:31.330
25.0, 25834.21329667727, 35257.88757299037, -47701.036656026445, -43293.56322211781, -61029.538336937236, -15634.531156364817, -6730.043200259591, -26109.318567433187, -0.186, 0.934, 0.25, 192.0, 0.0, 0.0, 0.0, 0.0, 0.0, 0.0, 0.0, 0.0, 0.0, 1.700950471334722E9, 0.0, 2023-11-25 17:14:31.334
26.0, 25825.183191917324, 35285.20140471475, -47699.87436531477, -43277.49231785445, -61044.98339235585, -15639.090912233702, -6868.758126349227, -26096.756887049305, -0.186, 0.934, 0.25, 192.0, 0.0, 0.0, 0.0, 0.0, 0.0, 0.0, 0.0, 0.0, 0.0, 1.70095047133856E9, 0.0, 2023-11-25 17:14:31.338
27.0, 25864.58931739203, 35366.36058883197, -47661.71993752956, -43227.13383759664, -61023.39160721203, -15626.015141727346, -7059.262044341808, -26060.43530230943, -0.186, 0.934, 0.25, 192.0, 0.0, 0.0, 0.0, 0.0, 0.0, 0.0, 0.0, 0.0, 0.0, 1.700950471342355E9, 0.0, 2023-11-25 17:14:31.342
28.0, 25911.170352836893, 35374.67543776935, -47646.81132397787, -43210.32532576625, -60967.91457747395, -15569.800504422248, -6902.755129665748, -26084.329317132157, -0.186, 0.934, 0.25, 192.0, 0.0, 0.0, 0.0, 0.0, 0.0, 0.0, 0.0, 0.0, 0.0, 1.700950471345409E9, 0.0, 2023-11-25 17:14:31.345
29.0, 25846.082072983038, 35266.98473298368, -47703.897679316724, -43291.88684128366, -61022.69870313391, -15648.433941416019, -6704.383397624898, -26137.74998638034, -0.186, 0.934, 0.25, 192.0, 0.0, 0.0, 0.0, 0.0, 0.0, 0.0, 0.0, 0.0, 0.0, 1.700950471349417E9, 0.0, 2023-11-25 17:14:31.349
30.0, 25827.507773340676, 35275.45604413224, -47703.897679316724, -43283.393178390645, -61042.524700465765, -15662.448485189498, -6845.221739437788, -26100.3108144177, -0.186, 0.9440000000000001, 0.252, 192.0, 250.0, 48.0, 29.0, 128.0, 7.0, 224.0, 0.0, 0.0, 0.0, 1.70095047135445E9, 0.0, 2023-11-25 17:14:31.354
31.0, 25875.45226519731, 35373.8484232245, -47661.02703345144, -43223.46815150597, -61014.87559257455, -15637.861566288659, -7042.900567400524, -26055.652028995995, -0.186, 0.9440000000000001, 0.252, 192.0, 0.0, 0.0, 0.0, 0.0, 0.0, 0.0, 0.0, 0.0, 0.0, 1.700950471358523E9, 0.0, 2023-11-25 17:14:31.358
32.0, 25919.574608752086, 35402.033972982645, -47644.77731523244, -43203.776264640845, -60967.668708284946, -15586.206684852445, -6967.396374630496, -26066.2020523789, -0.186, 0.9440000000000001, 0.252, 192.0, 0.0, 0.0, 0.0, 0.0, 0.0, 0.0, 0.0, 0.0, 0.0, 1.700950471362446E9, 0.0, 2023-11-25 17:14:31.362
33.0, 25866.846843582018, 35301.1829020003, -47701.43898742664, -43284.801338291334, -61009.041787271715, -15649.57388038324, -6721.124854221923, -26154.98318135538, -0.186, 0.9440000000000001, 0.252, 192.0, 0.0, 0.0, 0.0, 0.0, 0.0, 0.0, 0.0, 0.0, 0.0, 1.700950471366506E9, 0.0, 2023-11-25 17:14:31.366
34.0, 25835.330883900035, 35281.40160815735, -47701.260173471, -43290.52338487189, -61034.18749978394, -15685.157857556089, -6854.475361642285, -26142.64501841605, -0.186, 0.9440000000000001, 0.252, 192.0, 0.0, 0.0, 0.0, 0.0, 0.0, 0.0, 0.0, 0.0, 0.0, 1.700950471369501E9, 0.0, 2023-11-25 17:14:31.369
35.0, 25872.613593651487, 35366.159423131874, -47669.788917277925, -43238.712041224484, -61016.104938519595, -15659.788627599315, -7041.20183482192, -26107.195151709933, -0.186, 0.9440000000000001, 0.252, 192.0, 0.0, 0.0, 0.0, 0.0, 0.0, 0.0, 0.0, 0.0, 0.0, 1.700950471375513E9, 0.0, 2023-11-25 17:14:31.375
36.0, 25926.481297788778, 35414.30508068861, -47638.742344229504, -43198.99299132741, -60966.14878966198, -15608.245504885377, -7061.20664610942, -26091.34776489112, -0.186, 0.9440000000000001, 0.252, 192.0, 0.0, 0.0, 0.0, 0.0, 0.0, 0.0, 0.0, 0.0, 0.0, 1.700950471378518E9, 0.0, 2023-11-25 17:14:31.378
37.0, 25893.378364250468, 35328.832009891514, -47690.710150088096, -43263.16484965859, -60986.667691071954, -15626.752749294372, -6757.379383728431, -26152.144509809557, -0.186, 0.9440000000000001, 0.252, 192.0, 0.0, 0.0, 0.0, 0.0, 0.0, 0.0, 0.0, 0.0, 0.0, 1.700950471383522E9, 0.0, 2023-11-25 17:14:31.383
38.0, 25837.856631023486, 35269.1752039403, -47711.743141620536, -43297.34066693076, -61038.94842135292, -15691.125773325655, -6842.897158014436, -26162.314553536722, -0.186, 0.9440000000000001, 0.252, 192.0, 0.0, 0.0, 0.0, 0.0, 0.0, 0.0, 0.0, 0.0, 0.0, 1.700950471387493E9, 0.0, 2023-11-25 17:14:31.387
39.0, 25859.44841616731, 35342.064242609056, -47687.02211225297, -43250.15613438561, -61031.46058696039, -15663.744886367904, -7015.564383931683, -26131.98323631087, -0.186, 0.9440000000000001, 0.252, 192.0, 0.0, 0.0, 0.0, 0.0, 0.0, 0.0, 0.0, 0.0, 0.0, 1.700950471390598E9, 0.0, 2023-11-25 17:14:31.390
40.0, 25918.054690129127, 35407.085467229546, -47636.61892850625, -43192.68979939101, -60979.179856679424, -15602.836382727193, -7093.59432382516, -26072.01350593728, -0.186, 0.9480000000000001, 0.252, 192.0, 250.0, 48.0, 29.0, 160.0, 7.0, 224.0, 0.0, 0.0, 0.0, 1.700950471396556E9, 0.0, 2023-11-25 17:14:31.396
41.0, 25905.850637656527, 35339.31497804105, -47678.21552493758, -43242.08715463724, -60978.129324690024, -15586.564312763729, -6764.062555320568, -26096.578073093664, -0.186, 0.9480000000000001, 0.252, 192.0, 0.0, 0.0, 0.0, 0.0, 0.0, 0.0, 0.0, 0.0, 0.0, 1.700950471400616E9, 0.0, 2023-11-25 17:14:31.400
42.0, 25841.701131069796, 35260.07804394699, -47709.642077641736, -43292.982076761975, -61038.27786901926, -15662.135560767123, -6793.4550992792965, -26110.704375589416, -0.186, 0.9480000000000001, 0.252, 192.0, 0.0, 0.0, 0.0, 0.0, 0.0, 0.0, 0.0, 0.0, 0.0, 1.700950471403641E9, 0.0, 2023-11-25 17:14:31.403
43.0, 25856.341523688025, 35321.500637710174, -47690.710150088096, -43250.15613438561, -61031.9523253384, -15631.625429585629, -6948.687964521404, -26070.247718125313, -0.186, 0.9480000000000001, 0.252, 192.0, 0.0, 0.0, 0.0, 0.0, 0.0, 0.0, 0.0, 0.0, 0.0, 1.700950471408628E9, 0.0, 2023-11-25 17:14:31.408
44.0, 25914.925445905385, 35404.58207185055, -47634.78608546092, -43187.16891851055, -60982.21969392535, -15583.345661562165, -7090.800355768247, -26021.498563468285, -0.186, 0.9480000000000001, 0.252, 192.0, 0.0, 0.0, 0.0, 0.0, 0.0, 0.0, 0.0, 0.0, 0.0, 1.700950471412054E9, 0.0, 2023-11-25 17:14:31.412
45.0, 25917.160620350915, 35365.01948416466, -47661.02703345144, -43217.83551190323, -60962.99719369379, -15546.621745422095, -6794.416224290875, -26073.354610604598, -0.186, 0.9480000000000001, 0.252, 192.0, 0.0, 0.0, 0.0, 0.0, 0.0, 0.0, 0.0, 0.0, 0.0, 1.70095047141607E9, 0.0, 2023-11-25 17:14:31.416
46.0, 25836.716692056263, 35261.84383175896, -47710.51379567549, -43294.18907096256, -61036.154453296, -15643.85183380268, -6750.919729580847, -26121.142640250047, -0.186, 0.9480000000000001, 0.252, 192.0, 0.0, 0.0, 0.0, 0.0, 0.0, 0.0, 0.0, 0.0, 0.0, 1.700950471418672E9, 0.0, 2023-11-25 17:14:31.418
47.0, 25835.107366455482, 35298.567747899026, -47701.77426359347, -43267.90341948312, -61041.8094446432, -15628.09385396169, -6907.493699490274, -26090.766619535283, -0.186, 0.9480000000000001, 0.252, 192.0, 0.0, 0.0, 0.0, 0.0, 0.0, 0.0, 0.0, 0.0, 0.0, 1.700950471422829E9, 0.0, 2023-11-25 17:14:31.422
48.0, 25885.510550202198, 35381.49271982822, -47648.37594608974, -43210.52649146634, -61004.146755236005, -15600.847077470671, -7087.916980733512, -26039.938752643917, -0.186, 0.9480000000000001, 0.252, 192.0, 0.0, 0.0, 0.0, 0.0, 0.0, 0.0, 0.0, 0.0, 0.0, 1.700950471425688E9, 0.0, 2023-11-25 17:14:31.425
49.0, 25912.578512737575, 35364.01365566417, -47646.90073095569, -43214.88508163513, -60959.97970819232, -15546.398227977543, -6844.282966170665, -26052.768653961262, -0.186, 0.9480000000000001, 0.252, 192.0, 0.0, 0.0, 0.0, 0.0, 0.0, 0.0, 0.0, 0.0, 0.0, 1.7009504714297E9, 0.0, 2023-11-25 17:14:31.429
50.0, 25837.901334512393, 35253.79720375505, -47699.33792344784, -43296.35719017473, -61026.453796202404, -15641.460197145963, -6715.045179730079, -26104.177666208467, -0.182, 0.9400000000000001, 0.25, 192.0, 250.0, 80.0, 29.0, 96.0, 7.0, 208.0, 0.0, 0.0, 0.0, 1.700950471433669E9, 0.0, 2023-11-25 17:14:31.433
51.0, 25830.994645475705, 35282.85447154695, -47692.96767627808, -43278.453442866026, -61039.596621942124, -15645.304697192276, -6864.2430739692545, -26089.31375614569, -0.182, 0.9400000000000001, 0.25, 192.0, 0.0, 0.0, 0.0, 0.0, 0.0, 0.0, 0.0, 0.0, 0.0, 1.700950471437808E9, 0.0, 2023-11-25 17:14:31.437
52.0, 25877.754494876208, 35370.51801330066, -47647.52657980044, -43220.60712821569, -61010.94168555042, -15625.456348115964, -7059.507913530817, -26039.58112473263, -0.182, 0.9400000000000001, 0.25, 192.0, 0.0, 0.0, 0.0, 0.0, 0.0, 0.0, 0.0, 0.0, 0.0, 1.700950471442755E9, 0.0, 2023-11-25 17:14:31.442
53.0, 25922.502687275733, 35384.845481496515, -47632.93089067112, -43201.31757275076, -60955.59876627908, -15562.156207818534, -6901.0787488316, -26040.654008466485, -0.182, 0.9400000000000001, 0.25, 192.0, 0.0, 0.0, 0.0, 0.0, 0.0, 0.0, 0.0, 0.0, 0.0, 1.70095047144673E9, 0.0, 2023-11-25 17:14:31.446
54.0, 25848.40665440639, 35273.332628408985, -47702.80244383842, -43293.250297695435, -61019.681217632446, -15650.736171094915, -6698.683702788795, -26121.679082116974, -0.182, 0.9400000000000001, 0.25, 192.0, 0.0, 0.0, 0.0, 0.0, 0.0, 0.0, 0.0, 0.0, 0.0, 1.700950471450729E9, 0.0, 2023-11-25 17:14:31.450
55.0, 25829.00534021918, 35274.517270865115, -47704.52352816147, -43285.58364934727, -61039.95424985341, -15672.640880661116, -6847.59102435005, -26110.749079078327, -0.182, 0.9400000000000001, 0.25, 192.0, 0.0, 0.0, 0.0, 0.0, 0.0, 0.0, 0.0, 0.0, 0.0, 1.700950471453731E9, 0.0, 2023-11-25 17:14:31.453
56.0, 25867.852672082507, 35357.06226313856, -47664.62566430875, -43227.15618934109, -61015.27792397475, -15646.511691392863, -7045.58277673516, -26067.096122157112, -0.182, 0.9400000000000001, 0.25, 192.0, 0.0, 0.0, 0.0, 0.0, 0.0, 0.0, 0.0, 0.0, 0.0, 1.700950471457798E9, 0.0, 2023-11-25 17:14:31.457
57.0, 25927.151850122435, 35401.29636541562, -47625.733628956514, -43182.92208706404, -60945.80870220765, -15572.706231201439, -6984.450755649896, -26042.263334067266, -0.182, 0.9400000000000001, 0.25, 192.0, 0.0, 0.0, 0.0, 0.0, 0.0, 0.0, 0.0, 0.0, 0.0, 1.700950471461783E9, 0.0, 2023-11-25 17:14:31.461
58.0, 25883.16361703439, 35313.14108528389, -47680.003664494, -43255.09586991023, -60979.82805726863, -15620.226039913421, -6718.241479187189, -26114.146544235533, -0.182, 0.9400000000000001, 0.25, 192.0, 0.0, 0.0, 0.0, 0.0, 0.0, 0.0, 0.0, 0.0, 0.0, 1.700950471465783E9, 0.0, 2023-11-25 17:14:31.465
59.0, 25843.533974115133, 35287.83891056048, -47699.87436531477, -43277.93935274355, -61026.78907236923, -15674.563130684273, -6843.321841159087, -26132.922009577993, -0.182, 0.9400000000000001, 0.25, 192.0, 0.0, 0.0, 0.0, 0.0, 0.0, 0.0, 0.0, 0.0, 0.0, 1.700950471471941E9, 0.0, 2023-11-25 17:14:31.471
60.0, 25873.798236107617, 35366.65116150989, -47677.0532342259, -43235.158113856094, -61021.625819400055, -15661.509711922374, -7030.227128294365, -26105.02703249777, -0.18, 0.9380000000000001, 0.25, 192.0, 250.0, 96.0, 29.0, 80.0, 7.0, 208.0, 0.0, 0.0, 0.0, 1.700950471474804E9, 0.0, 2023-11-25 17:14:31.474
61.0, 25943.692141019364, 35425.48095291626, -47628.125265613235, -43179.77049109584, -60956.98457443531, -15593.672167500517, -7059.463210041906, -26067.72197100186, -0.18, 0.9380000000000001, 0.25, 192.0, 0.0, 0.0, 0.0, 0.0, 0.0, 0.0, 0.0, 0.0, 0.0, 1.700950471479884E9, 0.0, 2023-11-25 17:14:31.479
62.0, 25907.32585279058, 35339.0914605965, -47678.953132504605, -43244.97052967198, -60976.07296420014, -15614.749862521872, -6748.014002801658, -26138.59935266964, -0.18, 0.9380000000000001, 0.25, 192.0, 0.0, 0.0, 0.0, 0.0, 0.0, 0.0, 0.0, 0.0, 0.0, 1.700950471483841E9, 0.0, 2023-11-25 17:14:31.483
63.0, 25850.172442218358, 35280.5745936125, -47693.66058035619, -43274.5642393308, -61023.168089767474, -15671.344479482708, -6823.249974638221, -26124.540105407254, -0.18, 0.9380000000000001, 0.25, 192.0, 0.0, 0.0, 0.0, 0.0, 0.0, 0.0, 0.0, 0.0, 0.0, 1.700950471487039E9, 0.0, 2023-11-25 17:14:31.487
64.0, 25871.607765151, 35349.57442874604, -47677.544972603915, -43237.9073784241, -61025.045636301715, -15648.366886182654, -6990.821002819658, -26092.890035258537, -0.18, 0.9380000000000001, 0.25, 192.0, 0.0, 0.0, 0.0, 0.0, 0.0, 0.0, 0.0, 0.0, 0.0, 1.700950471489862E9, 0.0, 2023-11-25 17:14:31.489
65.0, 25934.192649625857, 35427.93964480634, -47630.82982669232, -43186.25249698788, -60978.50930434577, -15601.763498993338, -7092.901419747045, -26061.262316854278, -0.18, 0.9380000000000001, 0.25, 192.0, 0.0, 0.0, 0.0, 0.0, 0.0, 0.0, 0.0, 0.0, 0.0, 1.70095047149389E9, 0.0, 2023-11-25 17:14:31.493
66.0, 25919.50755351872, 35366.8970306989, -47672.381719634745, -43237.974433657466, -60979.26926365725, -15591.280530843798, -6772.667976935862, -26123.042538528745, -0.18, 0.9380000000000001, 0.25, 192.0, 0.0, 0.0, 0.0, 0.0, 0.0, 0.0, 0.0, 0.0, 0.0, 1.700950471497871E9, 0.0, 2023-11-25 17:14:31.497
67.0, 25839.801232791095, 35268.012913228624, -47710.71496137559, -43301.00635302143, -61045.76570341179, -15678.809962130781, -6789.431785277341, -26141.795652126748, -0.18, 0.9380000000000001, 0.25, 192.0, 0.0, 0.0, 0.0, 0.0, 0.0, 0.0, 0.0, 0.0, 0.0, 1.700950471501904E9, 0.0, 2023-11-25 17:14:31.501
68.0, 25849.725407329253, 35318.013765575146, -47696.856879813306, -43266.89759098263, -61044.759874911295, -15652.077275762234, -6941.42364757343, -26091.951261991413, -0.18, 0.9380000000000001, 0.25, 192.0, 0.0, 0.0, 0.0, 0.0, 0.0, 0.0, 0.0, 0.0, 0.0, 1.700950471507129E9, 0.0, 2023-11-25 17:14:31.507
69.0, 25914.07607961608, 35407.04076374063, -47640.23991110801, -43201.608145428676, -60996.50245863229, -15603.261065871844, -7095.851850015146, -26022.05735707967, -0.18, 0.9380000000000001, 0.25, 192.0, 0.0, 0.0, 0.0, 0.0, 0.0, 0.0, 0.0, 0.0, 0.0, 1.700950471509931E9, 0.0, 2023-11-25 17:14:31.509
70.0, 25917.920579662394, 35364.23717310872, -47667.687853299125, -43234.42050628907, -60979.4927811018, -15574.002632379847, -6808.386064575442, -26078.428456595953, -0.188, 0.9420000000000001, 0.25, 192.0, 250.0, 32.0, 29.0, 112.0, 7.0, 208.0, 0.0, 0.0, 0.0, 1.700950471513879E9, 0.0, 2023-11-25 17:14:31.513
71.0, 25841.656427580885, 35266.492994605665, -47711.76549336499, -43304.76144608992, -61045.117502822584, -15666.58355791373, -6754.294842993599, -26125.25536122982, -0.188, 0.9420000000000001, 0.25, 192.0, 0.0, 0.0, 0.0, 0.0, 0.0, 0.0, 0.0, 0.0, 0.0, 1.700950471517867E9, 0.0, 2023-11-25 17:14:31.517
72.0, 25833.386282132422, 35297.22664323171, -47709.642077641736, -43282.99084699045, -61056.94157563944, -15655.81001708627, -6899.715292419826, -26091.191302679934, -0.188, 0.9420000000000001, 0.25, 192.0, 0.0, 0.0, 0.0, 0.0, 0.0, 0.0, 0.0, 0.0, 0.0, 1.700950471521901E9, 0.0, 2023-11-25 17:14:31.521
73.0, 25885.264681013192, 35379.34695236051, -47658.21071365008, -43222.238805560926, -61020.77645311075, -15628.026798728324, -7087.112317933121, -26039.134089843523, -0.188, 0.9420000000000001, 0.25, 192.0, 0.0, 0.0, 0.0, 0.0, 0.0, 0.0, 0.0, 0.0, 0.0, 1.700950471525986E9, 0.0, 2023-11-25 17:14:31.525
74.0, 25913.159658093413, 35367.634638265925, -47658.814210750366, -43225.725677695955, -60978.33049039012, -15578.651795226551, -6859.951539033836, -26078.674325784963, -0.188, 0.9420000000000001, 0.25, 192.0, 0.0, 0.0, 0.0, 0.0, 0.0, 0.0, 0.0, 0.0, 0.0, 1.700950471530001E9, 0.0, 2023-11-25 17:14:31.530
75.0, 25838.750700801695, 35265.24129691617, -47709.48561543055, -43301.632201866174, -61038.07670331916, -15660.369772955153, -6718.0850169760015, -26121.12028850559, -0.188, 0.9420000000000001, 0.25, 192.0, 0.0, 0.0, 0.0, 0.0, 0.0, 0.0, 0.0, 0.0, 0.0, 1.700950471534968E9, 0.0, 2023-11-25 17:14:31.534
76.0, 25828.312436141066, 35288.017724516125, -47705.0599700284, -43280.80037603383, -61049.92312788047, -15660.347421210698, -6868.333443204576, -26099.282634172756, -0.188, 0.9420000000000001, 0.25, 192.0, 0.0, 0.0, 0.0, 0.0, 0.0, 0.0, 0.0, 0.0, 0.0, 1.700950471538966E9, 0.0, 2023-11-25 17:14:31.538
77.0, 25872.568890162576, 35373.73666450223, -47662.43519335213, -43222.68584045003, -61022.8551653451, -15639.00150525588, -7066.504009545328, -26052.075749883148, -0.188, 0.9420000000000001, 0.25, 192.0, 0.0, 0.0, 0.0, 0.0, 0.0, 0.0, 0.0, 0.0, 0.0, 1.700950471541995E9, 0.0, 2023-11-25 17:14:31.541
78.0, 25914.970149394292, 35385.046647196614, -47650.0970304128, -43208.872462376654, -60972.407278109466, -15582.98803365088, -6922.581126997606, -26069.443055324922, -0.188, 0.9420000000000001, 0.25, 192.0, 0.0, 0.0, 0.0, 0.0, 0.0, 0.0, 0.0, 0.0, 0.0, 1.700950471547016E9, 0.0, 2023-11-25 17:14:31.547
79.0, 25853.614610864475, 35282.072160491014, -47710.84907184233, -43294.07731224028, -61026.654961902495, -15661.509711922374, -6717.99560999818, -26138.77816662528, -0.188, 0.9420000000000001, 0.25, 192.0, 0.0, 0.0, 0.0, 0.0, 0.0, 0.0, 0.0, 0.0, 0.0, 1.700950471549934E9, 0.0, 2023-11-25 17:14:31.549
80.0, 25832.022825720647, 35278.62999184489, -47710.625554397775, -43288.24350693745, -61047.75500866831, -15683.995566844413, -6857.828123310581, -26122.416689684, -0.182, 0.936, 0.248, 192.0, 250.0, 80.0, 29.0, 64.0, 7.0, 192.0, 0.0, 0.0, 0.0, 1.700950471556092E9, 0.0, 2023-11-25 17:14:31.556
81.0, 25878.02271580967, 35368.1487283884, -47666.05617595389, -43227.960852141485, -61020.64234264402, -15659.319240965753, -7063.128896132576, -26079.478988585353, -0.182, 0.936, 0.248, 192.0, 0.0, 0.0, 0.0, 0.0, 0.0, 0.0, 0.0, 0.0, 0.0, 1.700950471559983E9, 0.0, 2023-11-25 17:14:31.559
82.0, 25939.37825433949, 35415.802647567114, -47632.50620752647, -43189.13587202262, -60960.605557037066, -15591.839324455183, -7011.2281455073535, -26060.12237788706, -0.182, 0.936, 0.248, 192.0, 0.0, 0.0, 0.0, 0.0, 0.0, 0.0, 0.0, 0.0, 0.0, 1.700950471563048E9, 0.0, 2023-11-25 17:14:31.563
83.0, 25885.39879147992, 35317.00793707465, -47698.62266762527, -43276.0171027204, -61008.415938426966, -15650.289136205809, -6735.675839862328, -26150.959867353424, -0.182, 0.936, 0.248, 192.0, 0.0, 0.0, 0.0, 0.0, 0.0, 0.0, 0.0, 0.0, 0.0, 1.700950471566067E9, 0.0, 2023-11-25 17:14:31.566
84.0, 25839.68947406882, 35280.328724423496, -47714.15713002171, -43298.97234427599, -61052.94061338194, -15704.179192087555, -6859.348041933542, -26154.200870299446, -0.182, 0.936, 0.248, 192.0, 0.0, 0.0, 0.0, 0.0, 0.0, 0.0, 0.0, 0.0, 0.0, 1.700950471570027E9, 0.0, 2023-11-25 17:14:31.570
85.0, 25871.36189596199, 35357.576353261036, -47682.1047284728, -43249.150305885116, -61036.713246907384, -15675.144276040111, -7041.782980177758, -26103.708279574905, -0.182, 0.936, 0.248, 192.0, 0.0, 0.0, 0.0, 0.0, 0.0, 0.0, 0.0, 0.0, 0.0, 1.700950471574155E9, 0.0, 2023-11-25 17:14:31.574
86.0, 25932.18099262488, 35420.65297611392, -47641.37985007523, -43206.078494319736, -60983.20317068138, -15622.37180738113, -7077.366957350607, -26084.93281423245, -0.182, 0.936, 0.248, 192.0, 0.0, 0.0, 0.0, 0.0, 0.0, 0.0, 0.0, 0.0, 0.0, 1.700950471578058E9, 0.0, 2023-11-25 17:14:31.578
87.0, 25902.967262621794, 35342.08659435351, -47691.02307451047, -43271.099718940226, -60998.8493918001, -15640.409665156563, -6768.532904211629, -26146.333056251176, -0.182, 0.936, 0.248, 192.0, 0.0, 0.0, 0.0, 0.0, 0.0, 0.0, 0.0, 0.0, 0.0, 1.700950471582146E9, 0.0, 2023-11-25 17:14:31.582
88.0, 25841.097633969504, 35276.66303833283, -47714.42535095517, -43311.46696942651, -61052.60533721511, -15711.309398568797, -6842.695992314339, -26148.210602785424, -0.182, 0.936, 0.248, 192.0, 0.0, 0.0, 0.0, 0.0, 0.0, 0.0, 0.0, 0.0, 0.0, 1.700950471586123E9, 0.0, 2023-11-25 17:14:31.586
89.0, 25868.74674186072, 35347.24984732269, -47684.29519942942, -43262.40489034711, -61037.71907540788, -15684.420249989063, -7020.548822945217, -26117.544009392743, -0.182, 0.936, 0.248, 192.0, 0.0, 0.0, 0.0, 0.0, 0.0, 0.0, 0.0, 0.0, 0.0, 1.700950471590129E9, 0.0, 2023-11-25 17:14:31.590
90.0, 25936.31606534911, 35424.78804883815, -47629.39931504719, -43199.730598894435, -60981.34797589159, -15631.826595285725, -7127.121940508121, -26076.77442750626, -0.18, 0.9400000000000001, 0.258, 192.0, 250.0, 96.0, 29.0, 96.0, 8.0, 16.0, 0.0, 0.0, 0.0, 1.700950471593161E9, 0.0, 2023-11-25 17:14:31.593
91.0, 25925.5201727772, 35369.08750165552, -47668.112536443776, -43244.79171571633, -60977.83875201211, -15615.0851386887, -6807.491994797229, -26129.390433954053, -0.18, 0.9400000000000001, 0.258, 192.0, 0.0, 0.0, 0.0, 0.0, 0.0, 0.0, 0.0, 0.0, 0.0, 1.700950471597148E9, 0.0, 2023-11-25 17:14:31.597
92.0, 25853.055817253095, 35279.635820345386, -47703.003609538515, -43301.40868442162, -61039.395456242026, -15697.92070364007, -6814.845718723026, -26142.421500971497, -0.18, 0.9400000000000001, 0.258, 192.0, 0.0, 0.0, 0.0, 0.0, 0.0, 0.0, 0.0, 0.0, 0.0, 1.700950471602134E9, 0.0, 2023-11-25 17:14:31.602
93.0, 25864.343448203024, 35338.26444605165, -47684.317551173874, -43259.633274034655, -61031.03590381574, -15664.19192125701, -6966.278787407731, -26082.183549664445, -0.18, 0.9400000000000001, 0.258, 192.0, 0.0, 0.0, 0.0, 0.0, 0.0, 0.0, 0.0, 0.0, 0.0, 1.700950471606185E9, 0.0, 2023-11-25 17:14:31.606
94.0, 25912.84673367104, 35413.67923184386, -47637.15537037318, -43204.71503790797, -60992.36738590806, -15626.439824871997, -7117.443635158973, -26030.886296139517, -0.18, 0.9400000000000001, 0.258, 192.0, 0.0, 0.0, 0.0, 0.0, 0.0, 0.0, 0.0, 0.0, 0.0, 1.700950471610217E9, 0.0, 2023-11-25 17:14:31.610
95.0, 25916.713585461806, 35372.37320809045, -47660.848219495805, -43231.09009636523, -60969.03216469672, -15589.358280820643, -6828.122654929478, -26084.038744454236, -0.18, 0.9400000000000001, 0.258, 192.0, 0.0, 0.0, 0.0, 0.0, 0.0, 0.0, 0.0, 0.0, 0.0, 1.700950471614251E9, 0.0, 2023-11-25 17:14:31.614
96.0, 25836.135546700425, 35271.96917199721, -47706.53518516245, -43302.481568155476, -61035.99799108482, -15677.535912696829, -6763.2802442646325, -26110.88318954506, -0.18, 0.9400000000000001, 0.258, 192.0, 0.0, 0.0, 0.0, 0.0, 0.0, 0.0, 0.0, 0.0, 0.0, 1.700950471618322E9, 0.0, 2023-11-25 17:14:31.618
97.0, 25844.182174704336, 35312.67169865032, -47693.63822861174, -43270.63033230667, -61037.495557963324, -15658.96161305447, -6911.584068725595, -26075.455674583398, -0.18, 0.9400000000000001, 0.258, 192.0, 0.0, 0.0, 0.0, 0.0, 0.0, 0.0, 0.0, 0.0, 0.0, 1.700950471623251E9, 0.0, 2023-11-25 17:14:31.623
98.0, 25895.814704396096, 35396.96012699129, -47651.616949035764, -43218.64017470362, -61010.27113321676, -15643.67301984704, -7100.724530306403, -26047.404235291986, -0.18, 0.9400000000000001, 0.258, 192.0, 0.0, 0.0, 0.0, 0.0, 0.0, 0.0, 0.0, 0.0, 0.0, 1.700950471626206E9, 0.0, 2023-11-25 17:14:31.626
99.0, 25933.678559503387, 35398.547100847616, -47644.66555651016, -43210.99587809991, -60957.453961068866, -15582.205722594945, -6882.012710811224, -26058.26718309727, -0.18, 0.9440000000000001, 0.254, 192.0, 250.0, 96.0, 29.0, 128.0, 7.0, 240.0, 0.0, 0.0, 0.0, 1.700950471630274E9, 0.0, 2023-11-25 17:14:31.630
100.0, 25860.990686534726, 35289.93997453928, -47699.092054258836, -43293.85379479573, -61020.12825252155, -15672.305604494288, -6737.486331163208, -26117.141677992546, -0.18, 0.9440000000000001, 0.254, 192.0, 0.0, 0.0, 0.0, 0.0, 0.0, 0.0, 0.0, 0.0, 0.0, 1.700950471634233E9, 0.0, 2023-11-25 17:14:31.634
101.0, 25850.97710501875, 35311.710573638746, -47695.381664679255, -43283.192012690546, -61037.67437191896, -15684.77787790035, -6889.612303926027, -26112.134887234555, -0.18, 0.9440000000000001, 0.254, 192.0, 0.0, 0.0, 0.0, 0.0, 0.0, 0.0, 0.0, 0.0, 0.0, 1.70095047163829E9, 0.0, 2023-11-25 17:14:31.638
102.0, 25894.183027050858, 35396.06605721308, -47656.69079502711, -43231.76064869889, -61018.18365075394, -15671.590348671718, -7088.5875330671715, -26077.132055417547, -0.18, 0.9440000000000001, 0.254, 192.0, 0.0, 0.0, 0.0, 0.0, 0.0, 0.0, 0.0, 0.0, 0.0, 1.70095047164431E9, 0.0, 2023-11-25 17:14:31.644
103.0, 25935.779623482184, 35405.96788000678, -47639.792876218904, -43212.292279278314, -60963.332469860616, -15606.904400218058, -6955.795819258192, -26070.44888382541, -0.18, 0.9440000000000001, 0.254, 192.0, 0.0, 0.0, 0.0, 0.0, 0.0, 0.0, 0.0, 0.0, 0.0, 1.700950471647304E9, 0.0, 2023-11-25 17:14:31.647
104.0, 25871.428951195354, 35295.706724608746, -47695.314609445886, -43293.42911165108, -61014.18268849644, -15679.77108714236, -6742.671935876839, -26135.425404956986, -0.18, 0.9440000000000001, 0.254, 192.0, 0.0, 0.0, 0.0, 0.0, 0.0, 0.0, 0.0, 0.0, 0.0, 1.700950471650238E9, 0.0, 2023-11-25 17:14:31.650
105.0, 25858.46493941128, 35303.75335261266, -47685.50219363, -43282.16383244561, -61027.95136308091, -15696.445488506019, -6887.421832969408, -26117.231084970368, -0.18, 0.9440000000000001, 0.254, 192.0, 0.0, 0.0, 0.0, 0.0, 0.0, 0.0, 0.0, 0.0, 0.0, 1.7009504716533E9, 0.0, 2023-11-25 17:14:31.653
106.0, 25891.053782827115, 35378.72110351576, -47656.37787060474, -43236.81214294579, -61015.344979208116, -15676.23951151842, -7073.5671607932045, -26075.34391586112, -0.18, 0.9440000000000001, 0.254, 192.0, 0.0, 0.0, 0.0, 0.0, 0.0, 0.0, 0.0, 0.0, 0.0, 1.700950471658275E9, 0.0, 2023-11-25 17:14:31.658
107.0, 25946.150832909447, 35415.08739174454, -47624.10195161128, -43202.1445872956, -60960.69496401489, -15618.795528268281, -7031.277660283764, -26069.755979747293, -0.18, 0.9440000000000001, 0.254, 192.0, 0.0, 0.0, 0.0, 0.0, 0.0, 0.0, 0.0, 0.0, 0.0, 1.700950471662337E9, 0.0, 2023-11-25 17:14:31.662
108.0, 25894.473599728775, 35313.252844006165, -47687.04446399742, -43282.52146035689, -61004.30321744719, -15669.086953292723, -6755.233616260722, -26143.49438470535, -0.18, 0.9440000000000001, 0.254, 192.0, 0.0, 0.0, 0.0, 0.0, 0.0, 0.0, 0.0, 0.0, 0.0, 1.700950471666322E9, 0.0, 2023-11-25 17:14:31.666
109.0, 25845.478575882742, 35273.533794109084, -47705.216432239584, -43306.21430947952, -61051.130122081064, -15723.781671974859, -6873.586103151572, -26148.970562096903, -0.186, 0.9440000000000001, 0.252, 192.0, 250.0, 48.0, 29.0, 128.0, 7.0, 224.0, 0.0, 0.0, 0.0, 1.700950471670397E9, 0.0, 2023-11-25 17:14:31.670
110.0, 25874.960526819294, 35350.08851886851, -47678.26022842649, -43259.99090194594, -61040.3565812536, -15697.451317006507, -7056.3116140737075, -26104.848218542127, -0.186, 0.9440000000000001, 0.252, 192.0, 0.0, 0.0, 0.0, 0.0, 0.0, 0.0, 0.0, 0.0, 0.0, 1.700950471673654E9, 0.0, 2023-11-25 17:14:31.673
111.0, 25935.354940337533, 35406.638432340435, -47634.22729184953, -43212.76166591188, -60986.13124920503, -15643.471854146941, -7099.673998317004, -26079.81426475218, -0.186, 0.9440000000000001, 0.252, 192.0, 0.0, 0.0, 0.0, 0.0, 0.0, 0.0, 0.0, 0.0, 0.0, 1.700950471677365E9, 0.0, 2023-11-25 17:14:31.677
112.0, 25909.717489447296, 35329.63667269191, -47679.19900169361, -43272.8655067522, -60997.55299062169, -15657.419342687053, -6786.034320120135, -26149.70816966393, -0.186, 0.9440000000000001, 0.252, 192.0, 0.0, 0.0, 0.0, 0.0, 0.0, 0.0, 0.0, 0.0, 0.0, 1.700950471681406E9, 0.0, 2023-11-25 17:14:31.681
113.0, 25846.573811361053, 35263.207288170735, -47705.35054270632, -43313.746847360955, -61053.38764827105, -15726.01684642039, -6846.942823760846, -26148.635285930075, -0.186, 0.9440000000000001, 0.252, 192.0, 0.0, 0.0, 0.0, 0.0, 0.0, 0.0, 0.0, 0.0, 0.0, 1.700950471685467E9, 0.0, 2023-11-25 17:14:31.685
114.0, 25861.88475631294, 35327.60266394647, -47686.82094655287, -43272.44082360755, -61049.587851713644, -15695.43966000553, -7008.612991406083, -26089.44786661242, -0.186, 0.9440000000000001, 0.252, 192.0, 0.0, 0.0, 0.0, 0.0, 0.0, 0.0, 0.0, 0.0, 0.0, 1.700950471690414E9, 0.0, 2023-11-25 17:14:31.690
115.0, 25922.12270761999, 35399.41881888137, -47635.72485872804, -43212.716962422965, -60997.21771445486, -15644.18710996951, -7118.31535319273, -26039.648179965996, -0.186, 0.9440000000000001, 0.252, 192.0, 0.0, 0.0, 0.0, 0.0, 0.0, 0.0, 0.0, 0.0, 0.0, 1.700950471694373E9, 0.0, 2023-11-25 17:14:31.694
116.0, 25914.18783833836, 35338.86794315195, -47673.81223127988, -43256.32521585527, -60992.16622020796, -15630.843118529692, -6799.937105171336, -26110.12323023358, -0.186, 0.9440000000000001, 0.252, 192.0, 0.0, 0.0, 0.0, 0.0, 0.0, 0.0, 0.0, 0.0, 0.0, 1.700950471698427E9, 0.0, 2023-11-25 17:14:31.698
117.0, 25842.84107003702, 35248.3210263635, -47713.21835675459, -43319.334783474784, -61059.5120262518, -15728.229669121465, -6817.706742013305, -26165.75672218284, -0.186, 0.9440000000000001, 0.252, 192.0, 0.0, 0.0, 0.0, 0.0, 0.0, 0.0, 0.0, 0.0, 0.0, 1.700950471701439E9, 0.0, 2023-11-25 17:14:31.701
118.0, 25851.2006224633, 35297.517215909626, -47702.780092093955, -43283.124957457185, -61059.62378497408, -15698.43479376254, -6972.179647943932, -26112.246645956835, -0.186, 0.9440000000000001, 0.252, 192.0, 0.0, 0.0, 0.0, 0.0, 0.0, 0.0, 0.0, 0.0, 0.0, 1.700950471706535E9, 0.0, 2023-11-25 17:14:31.706
119.0, 25908.04110861315, 35378.58699304903, -47647.12424840024, -43216.02502060235, -61011.05344427269, -15648.1433687381, -7126.183167240998, -26029.43343274992, -0.182, 0.9420000000000001, 0.248, 192.0, 250.0, 80.0, 29.0, 112.0, 7.0, 192.0, 0.0, 0.0, 0.0, 1.700950471711501E9, 0.0, 2023-11-25 17:14:31.711
120.0, 25926.50364953323, 35349.105042112475, -47657.02607119395, -43226.50798875189, -60973.14488567649, -15598.008405924846, -6842.874806269981, -26060.144729631513, -0.182, 0.9420000000000001, 0.248, 192.0, 0.0, 0.0, 0.0, 0.0, 0.0, 0.0, 0.0, 0.0, 0.0, 1.700950471714666E9, 0.0, 2023-11-25 17:14:31.714
121.0, 25856.386227176932, 35251.18204965378, -47700.38845543724, -43294.94903027404, -61035.08156956215, -15690.187000058533, -6771.259817035177, -26111.665500600997, -0.182, 0.9420000000000001, 0.248, 192.0, 0.0, 0.0, 0.0, 0.0, 0.0, 0.0, 0.0, 0.0, 0.0, 1.700950471719529E9, 0.0, 2023-11-25 17:14:31.719
122.0, 25854.665142853875, 35290.2305472172, -47695.1581472347, -43273.3125416413, -61045.43042724496, -15686.253093034398, -6921.463539774841, -26101.048421984724, -0.182, 0.9420000000000001, 0.248, 192.0, 0.0, 0.0, 0.0, 0.0, 0.0, 0.0, 0.0, 0.0, 0.0, 1.700950471722622E9, 0.0, 2023-11-25 17:14:31.722
123.0, 25908.93517839136, 35378.698751771306, -47644.062059409865, -43209.230090287936, -61010.159374494484, -15655.742961852904, -7116.16958572502, -26032.652083951485, -0.182, 0.9420000000000001, 0.248, 192.0, 0.0, 0.0, 0.0, 0.0, 0.0, 0.0, 0.0, 0.0, 0.0, 1.700950471727504E9, 0.0, 2023-11-25 17:14:31.727
124.0, 25943.51332706372, 35371.970876690255, -47641.759829730974, -43206.011439086375, -60965.52294081723, -15596.80141172426, -6903.135109321489, -26051.159328360478, -0.182, 0.9420000000000001, 0.248, 192.0, 0.0, 0.0, 0.0, 0.0, 0.0, 0.0, 0.0, 0.0, 0.0, 1.700950471731541E9, 0.0, 2023-11-25 17:14:31.731
125.0, 25870.713695372786, 35260.346264880456, -47703.405940938705, -43297.43007390858, -61033.0028573278, -15698.166572829077, -6761.782677386127, -26135.425404956986, -0.182, 0.9420000000000001, 0.248, 192.0, 0.0, 0.0, 0.0, 0.0, 0.0, 0.0, 0.0, 0.0, 0.0, 1.70095047173454E9, 0.0, 2023-11-25 17:14:31.734
126.0, 25859.73898884523, 35273.24322143116, -47701.193118237636, -43285.360131902715, -61050.03488660275, -15704.022729876368, -6910.108853591544, -26103.4624103859, -0.182, 0.9420000000000001, 0.248, 192.0, 0.0, 0.0, 0.0, 0.0, 0.0, 0.0, 0.0, 0.0, 0.0, 1.700950471737521E9, 0.0, 2023-11-25 17:14:31.737
127.0, 25900.59797770953, 35355.58704800452, -47659.21654215056, -43231.49242776542, -61027.996066569816, -15683.637938933129, -7109.754635066347, -26046.197241091402, -0.182, 0.9420000000000001, 0.248, 192.0, 0.0, 0.0, 0.0, 0.0, 0.0, 0.0, 0.0, 0.0, 0.0, 1.700950471741512E9, 0.0, 2023-11-25 17:14:31.741
128.0, 25945.480280575786, 35374.8989552139, -47638.831751207326, -43211.465264733466, -60972.340222876104, -15625.90338300507, -6988.4517179073955, -26053.126281872548, -0.182, 0.9420000000000001, 0.248, 192.0, 0.0, 0.0, 0.0, 0.0, 0.0, 0.0, 0.0, 0.0, 0.0, 1.700950471746565E9, 0.0, 2023-11-25 17:14:31.746
129.0, 25879.050896054614, 35269.80105278505, -47695.381664679255, -43294.792568062854, -61022.07285428916, -15695.663177450084, -6762.654395419883, -26126.68587287496, -0.178, 0.9420000000000001, 0.248, 192.0, 250.0, 112.0, 29.0, 112.0, 7.0, 192.0, 0.0, 0.0, 0.0, 1.700950471750545E9, 0.0, 2023-11-25 17:14:31.750
130.0, 25853.055817253095, 35256.613523556414, -47692.073606499864, -43290.322219171794, -61043.284659777244, -15720.92064868458, -6896.004902840245, -26123.73544260686, -0.178, 0.9420000000000001, 0.248, 192.0, 0.0, 0.0, 0.0, 0.0, 0.0, 0.0, 0.0, 0.0, 0.0, 1.700950471753549E9, 0.0, 2023-11-25 17:14:31.753
131.0, 25888.237463025747, 35332.81062040456, -47653.51684731446, -43236.58862550123, -61022.36342696708, -15697.116040839677, -7080.630312041082, -26085.78218052175, -0.178, 0.9420000000000001, 0.248, 192.0, 0.0, 0.0, 0.0, 0.0, 0.0, 0.0, 0.0, 0.0, 0.0, 1.700950471759066E9, 0.0, 2023-11-25 17:14:31.759
132.0, 25957.885498748485, 35388.31000188708, -47601.81726238933, -43185.0902062762, -60947.39567606398, -15622.729435292416, -7050.902491915524, -26048.857098681583, -0.178, 0.9420000000000001, 0.248, 192.0, 0.0, 0.0, 0.0, 0.0, 0.0, 0.0, 0.0, 0.0, 0.0, 1.700950471762254E9, 0.0, 2023-11-25 17:14:31.762
133.0, 25913.5172860047, 35292.80099782956, -47657.406050849684, -43261.935503713554, -60981.638548569514, -15663.141389267612, -6758.541674440107, -26117.991044281847, -0.178, 0.9420000000000001, 0.248, 192.0, 0.0, 0.0, 0.0, 0.0, 0.0, 0.0, 0.0, 0.0, 0.0, 1.700950471765822E9, 0.0, 2023-11-25 17:14:31.765
134.0, 25864.63402088094, 35247.65047402984, -47674.46043186908, -43290.18810870506, -61028.44310145892, -15721.814718462792, -6864.108963502523, -26126.50705891932, -0.178, 0.9420000000000001, 0.248, 192.0, 0.0, 0.0, 0.0, 0.0, 0.0, 0.0, 0.0, 0.0, 0.0, 1.700950471769625E9, 0.0, 2023-11-25 17:14:31.769
135.0, 25898.183989308356, 35325.769820901136, -47641.22338786404, -43238.13089586865, -61011.52283090626, -15691.952787870503, -7038.318459787186, -26081.714163030883, -0.178, 0.9420000000000001, 0.248, 192.0, 0.0, 0.0, 0.0, 0.0, 0.0, 0.0, 0.0, 0.0, 0.0, 1.700950471773606E9, 0.0, 2023-11-25 17:14:31.773
