%OpenBCI Raw EXG Data
%Number of channels = 8
%Sample Rate = 250 Hz
%Board = OpenBCI_GUI$BoardCytonSerial
Sample Index, EXG Channel 0, EXG Channel 1, EXG Channel 2, EXG Channel 3, EXG Channel 4, EXG Channel 5, EXG Channel 6, EXG Channel 7, Accel Channel 0, Accel Channel 1, Accel Channel 2, Other, Other, Other, Other, Other, Other, Other, Analog Channel 0, Analog Channel 1, Analog Channel 2, Timestamp, Other, Timestamp (Formatted)
199.0, 36060.49401289153, 49259.84731433956, 23217.382814572196, -26604.83439026289, 13510.847212177183, 53624.8077302942, 13666.996498941959, 30682.35137252228, -0.076, 0.984, 0.048, 192.0, 253.0, 160.0, 30.0, 192.0, 1.0, 128.0, 0.0, 0.0, 0.0, 1.700951383808318E9, 0.0, 2023-11-25 17:29:43.808
200.0, 36200.52769190403, 49307.09890211808, 23257.861823780757, -26504.966796036577, 13674.730202523495, 53875.57195133829, 13682.016871215925, 30700.858616931277, -0.076, 0.984, 0.048, 192.0, 0.0, 0.0, 0.0, 0.0, 0.0, 0.0, 0.0, 0.0, 0.0, 1.70095138380835E9, 0.0, 2023-11-25 17:29:43.808
201.0, 36159.62399955082, 49207.164252658404, 23256.677181324623, -26560.622639730293, 13695.919656267126, 54189.99394059109, 13667.84586523126, 30686.195872568594, -0.076, 0.984, 0.048, 192.0, 0.0, 0.0, 0.0, 0.0, 0.0, 0.0, 0.0, 0.0, 0.0, 1.700951383808368E9, 0.0, 2023-11-25 17:29:43.808
202.0, 35982.93345963162, 49146.52396995115, 23233.856050235754, -26670.1461875613, 13546.855872494683, 53570.94002615691, 13665.65539427464, 30682.530186477925, -0.076, 0.984, 0.048, 192.0, 0.0, 0.0, 0.0, 0.0, 0.0, 0.0, 0.0, 0.0, 0.0, 1.700951383808381E9, 0.0, 2023-11-25 17:29:43.808
0.0, 0.0, 0.0, 0.0, 0.0, 0.0, 0.0, 0.0, 0.0, -0.076, 0.984, 0.048, 192.0, 0.0, 0.0, 0.0, 0.0, 0.0, 0.0, 0.0, 0.0, 0.0, 1.700951383848918E9, 0.0, 2023-11-25 17:29:43.848
1.0, 35983.08992184281, 50042.62775690887, 22321.79311773695, -26230.48737412541, 12771.227988151073, 51868.206485296076, 13778.710517729583, 30828.263560326526, -0.074, 0.984, 0.042, 192.0, 253.0, 176.0, 30.0, 192.0, 1.0, 80.0, 0.0, 0.0, 0.0, 1.700951383861964E9, 0.0, 2023-11-25 17:29:43.861
2.0, 36077.011952044006, 50115.717961277725, 22338.065187700413, -26177.781960699795, 12809.315360702916, 51921.00130569951, 13787.427698067153, 30840.177040121205, -0.074, 0.984, 0.042, 192.0, 0.0, 0.0, 0.0, 0.0, 0.0, 0.0, 0.0, 0.0, 0.0, 1.700951383865053E9, 0.0, 2023-11-25 17:29:43.865
3.0, 36184.12151147384, 50082.7714899506, 22368.418856670723, -26100.199055695422, 12998.120546116896, 52456.683213315395, 13784.097288143312, 30845.474403557113, -0.074, 0.984, 0.042, 192.0, 0.0, 0.0, 0.0, 0.0, 0.0, 0.0, 0.0, 0.0, 0.0, 1.700951383868034E9, 0.0, 2023-11-25 17:29:43.868
4.0, 35961.98987507699, 49951.23147383112, 22338.020484211505, -26294.748639434416, 12807.862497313321, 51994.06915832391, 13779.96221541908, 30805.308318770927, -0.074, 0.984, 0.042, 192.0, 0.0, 0.0, 0.0, 0.0, 0.0, 0.0, 0.0, 0.0, 0.0, 1.70095138387106E9, 0.0, 2023-11-25 17:29:43.871
5.0, 35968.11425305775, 50018.465521152684, 22324.385920093766, -26234.264818938354, 12778.782877776966, 51839.57390064882, 13782.487962542531, 30814.15960957523, -0.074, 0.984, 0.042, 192.0, 0.0, 0.0, 0.0, 0.0, 0.0, 0.0, 0.0, 0.0, 0.0, 1.70095138387569E9, 0.0, 2023-11-25 17:29:43.875
6.0, 36044.445460372626, 50097.23306861318, 22325.65996952772, -26200.04429817728, 12768.38931660525, 51872.78859290941, 13779.53753227443, 30802.648461180743, -0.074, 0.984, 0.042, 192.0, 0.0, 0.0, 0.0, 0.0, 0.0, 0.0, 0.0, 0.0, 0.0, 1.700951383878086E9, 0.0, 2023-11-25 17:29:43.878
7.0, 36188.34599117589, 50096.04842615705, 22370.586975882885, -26091.459523613397, 12989.179848334772, 52388.48804098226, 13783.672604998661, 30818.652310210742, -0.074, 0.984, 0.042, 192.0, 0.0, 0.0, 0.0, 0.0, 0.0, 0.0, 0.0, 0.0, 0.0, 1.700951383883345E9, 0.0, 2023-11-25 17:29:43.883
8.0, 35992.03061962493, 49956.32767156693, 22341.440301113165, -26277.694258415017, 12826.459148700136, 52105.13497652233, 13763.220758822055, 30773.881766066763, -0.068, 0.976, 0.04, 192.0, 253.0, 224.0, 30.0, 128.0, 1.0, 64.0, 0.0, 0.0, 0.0, 1.70095138388711E9, 0.0, 2023-11-25 17:29:43.887
9.0, 35951.663369138645, 49994.16917492976, 22326.598742794842, -26248.413473178563, 12779.319319643893, 51783.82864997729, 13762.72902044404, 30791.271423252994, -0.068, 0.976, 0.04, 192.0, 0.0, 0.0, 0.0, 0.0, 0.0, 0.0, 0.0, 0.0, 0.0, 1.700951383890126E9, 0.0, 2023-11-25 17:29:43.890
10.0, 36016.5504832924, 50075.931856147276, 22317.792155479452, -26217.3892518746, 12743.020086648476, 51826.78870282039, 13756.470531996552, 30789.03624880746, -0.068, 0.976, 0.04, 192.0, 0.0, 0.0, 0.0, 0.0, 0.0, 0.0, 0.0, 0.0, 0.0, 1.700951383894156E9, 0.0, 2023-11-25 17:29:43.894
11.0, 36165.48015659811, 50090.95222842124, 22360.260469944536, -26096.73453530485, 12959.206159020205, 52262.78183016561, 13767.020555379459, 30811.790324662965, -0.068, 0.976, 0.04, 192.0, 0.0, 0.0, 0.0, 0.0, 0.0, 0.0, 0.0, 0.0, 0.0, 1.700951383898247E9, 0.0, 2023-11-25 17:29:43.898
12.0, 36024.21713164057, 49960.35098556888, 22335.964123721616, -26243.38433067612, 12854.01884961353, 52228.76247510463, 13749.25091853749, 30768.360885186303, -0.068, 0.976, 0.04, 192.0, 0.0, 0.0, 0.0, 0.0, 0.0, 0.0, 0.0, 0.0, 0.0, 1.700951383902307E9, 0.0, 2023-11-25 17:29:43.902
13.0, 35933.290235196386, 49965.201314115686, 22321.18962063666, -26267.457159454487, 12773.664328296702, 51759.37584154318, 13754.570633717853, 30771.42307417668, -0.068, 0.976, 0.04, 192.0, 0.0, 0.0, 0.0, 0.0, 0.0, 0.0, 0.0, 0.0, 0.0, 1.70095138390617E9, 0.0, 2023-11-25 17:29:43.906
14.0, 35991.78475043592, 50052.84250412494, 22307.398594307735, -26227.80516479077, 12727.731493441046, 51834.50005465747, 13754.838854651316, 30785.19174876115, -0.068, 0.976, 0.04, 192.0, 0.0, 0.0, 0.0, 0.0, 0.0, 0.0, 0.0, 0.0, 0.0, 1.700951383911138E9, 0.0, 2023-11-25 17:29:43.911
15.0, 36134.679452738696, 50084.62668474039, 22351.878565773794, -26119.421555926987, 12917.006065488586, 52154.97936665766, 13774.262520582977, 30815.366603775812, -0.068, 0.976, 0.04, 192.0, 0.0, 0.0, 0.0, 0.0, 0.0, 0.0, 0.0, 0.0, 0.0, 1.700951383915175E9, 0.0, 2023-11-25 17:29:43.915
16.0, 36065.56785888289, 49974.544343298, 22344.05545521444, -26214.260007650853, 12892.8438297324, 52343.44927590481, 13761.030287865435, 30789.729152885575, -0.068, 0.976, 0.04, 192.0, 0.0, 0.0, 0.0, 0.0, 0.0, 0.0, 0.0, 0.0, 0.0, 1.700951383918276E9, 0.0, 2023-11-25 17:29:43.918
17.0, 35919.18628444508, 49938.893310891784, 22319.55794329142, -26292.20054056651, 12767.04821193793, 51760.40402178813, 13771.937939159625, 30797.015821578007, -0.068, 0.976, 0.04, 192.0, 0.0, 0.0, 0.0, 0.0, 0.0, 0.0, 0.0, 0.0, 0.0, 1.700951383922246E9, 0.0, 2023-11-25 17:29:43.922
18.0, 35981.19002356411, 50036.81630335049, 22301.94476866064, -26232.253161937377, 12729.027894619454, 51822.4301126516, 13770.19450309211, 30807.58819670537, -0.06, 0.972, 0.028, 192.0, 254.0, 32.0, 30.0, 96.0, 0.0, 224.0, 0.0, 0.0, 0.0, 1.700951383926235E9, 0.0, 2023-11-25 17:29:43.926
19.0, 36114.33936528437, 50089.90169643184, 22332.36549286431, -26143.024998071793, 12867.005213142063, 52022.701742971156, 13780.476305541553, 30814.427830508692, -0.06, 0.972, 0.028, 192.0, 0.0, 0.0, 0.0, 0.0, 0.0, 0.0, 0.0, 0.0, 0.0, 1.700951383930211E9, 0.0, 2023-11-25 17:29:43.930
20.0, 36111.23247280508, 50002.41696863377, 22333.170155664702, -26173.222204830912, 12924.672713836755, 52414.05843663913, 13764.405401278187, 30795.875882610788, -0.06, 0.972, 0.028, 192.0, 0.0, 0.0, 0.0, 0.0, 0.0, 0.0, 0.0, 0.0, 0.0, 1.700951383934347E9, 0.0, 2023-11-25 17:29:43.934
21.0, 35911.743153541465, 49917.94972633717, 22306.23630359606, -26307.82440994077, 12759.292156611938, 51782.50989705443, 13769.188674591624, 30799.206292534625, -0.06, 0.972, 0.028, 192.0, 0.0, 0.0, 0.0, 0.0, 0.0, 0.0, 0.0, 0.0, 0.0, 1.700951383939359E9, 0.0, 2023-11-25 17:29:43.939
22.0, 35961.587543676804, 50007.64727683631, 22287.036155108948, -26243.04905450929, 12728.156176585697, 51820.48551088399, 13769.926282158647, 30820.127525344793, -0.06, 0.972, 0.028, 192.0, 0.0, 0.0, 0.0, 0.0, 0.0, 0.0, 0.0, 0.0, 0.0, 1.70095138394222E9, 0.0, 2023-11-25 17:29:43.942
23.0, 36080.52117592349, 50076.62476022539, 22319.89321945825, -26172.909280408538, 12817.898430573754, 51909.33369509384, 13785.751317233005, 30836.779574964, -0.06, 0.972, 0.028, 192.0, 0.0, 0.0, 0.0, 0.0, 0.0, 0.0, 0.0, 0.0, 0.0, 1.700951383945204E9, 0.0, 2023-11-25 17:29:43.945
24.0, 36144.35775808785, 50018.30905894149, 22337.171117922204, -26135.335997979164, 12955.13814152934, 52440.03116369619, 13774.463686283076, 30829.38114754929, -0.06, 0.972, 0.028, 192.0, 0.0, 0.0, 0.0, 0.0, 0.0, 0.0, 0.0, 0.0, 0.0, 1.700951383950367E9, 0.0, 2023-11-25 17:29:43.950
25.0, 35924.126019969706, 49907.511461676535, 22308.44912629713, -26316.094555389234, 12765.640052037246, 51866.15012480618, 13773.480209527042, 30800.43563847967, -0.06, 0.972, 0.028, 192.0, 0.0, 0.0, 0.0, 0.0, 0.0, 0.0, 0.0, 0.0, 0.0, 1.700951383954272E9, 0.0, 2023-11-25 17:29:43.954
26.0, 35962.079282054816, 49991.53166908403, 22292.557035989408, -26245.46304291046, 12739.175586602163, 51827.705124343054, 13770.663889725673, 30813.690222941666, -0.06, 0.972, 0.028, 192.0, 0.0, 0.0, 0.0, 0.0, 0.0, 0.0, 0.0, 0.0, 0.0, 1.700951383958337E9, 0.0, 2023-11-25 17:29:43.958
27.0, 36059.532887879956, 50072.4673357567, 22313.388861821757, -26196.80329523126, 12773.418459107694, 51868.22883704053, 13777.548227017907, 30811.7232694296, -0.06, 0.972, 0.028, 192.0, 0.0, 0.0, 0.0, 0.0, 0.0, 0.0, 0.0, 0.0, 0.0, 1.700951383962289E9, 0.0, 2023-11-25 17:29:43.962
28.0, 36176.3878078923, 50048.52861744507, 22350.671571573206, -26108.424497654974, 12973.690089427244, 52414.90780292843, 13770.887407170227, 30813.690222941666, -0.064, 0.982, 0.032, 192.0, 254.0, 0.0, 30.0, 176.0, 1.0, 0.0, 0.0, 0.0, 0.0, 1.700951383966303E9, 0.0, 2023-11-25 17:29:43.966
29.0, 35958.994741319984, 49911.579479167405, 22319.93792294716, -26298.92841564756, 12788.975273248587, 51971.89622782424, 13752.782494161427, 30771.825405576874, -0.064, 0.982, 0.032, 192.0, 0.0, 0.0, 0.0, 0.0, 0.0, 0.0, 0.0, 0.0, 0.0, 1.700951383970366E9, 0.0, 2023-11-25 17:29:43.970
30.0, 35962.079282054816, 49974.7455089981, 22300.89423667124, -26244.90424929908, 12756.967575188586, 51805.10751069874, 13751.217872049556, 30786.532853428467, -0.064, 0.982, 0.032, 192.0, 0.0, 0.0, 0.0, 0.0, 0.0, 0.0, 0.0, 0.0, 0.0, 1.700951383973334E9, 0.0, 2023-11-25 17:29:43.973
31.0, 36036.17531492416, 50063.57134146349, 22302.816486694395, -26213.768269272838, 12743.735342471045, 51835.684697113604, 13750.726133671538, 30780.27436498098, -0.064, 0.982, 0.032, 192.0, 0.0, 0.0, 0.0, 0.0, 0.0, 0.0, 0.0, 0.0, 0.0, 1.700951383978355E9, 0.0, 2023-11-25 17:29:43.978
32.0, 36183.38390390681, 50068.42167001029, 22349.308115161435, -26097.427439382966, 12966.291662012538, 52335.02266824516, 13756.001145362992, 30805.688298426667, -0.064, 0.982, 0.032, 192.0, 0.0, 0.0, 0.0, 0.0, 0.0, 0.0, 0.0, 0.0, 0.0, 1.700951383982348E9, 0.0, 2023-11-25 17:29:43.982
33.0, 35994.01992488145, 49928.85737763136, 22319.267370613503, -26275.68260141404, 12810.455299670137, 52095.43431942872, 13742.925374856637, 30766.975077030074, -0.064, 0.982, 0.032, 192.0, 0.0, 0.0, 0.0, 0.0, 0.0, 0.0, 0.0, 0.0, 0.0, 1.700951383986394E9, 0.0, 2023-11-25 17:29:43.986
34.0, 35946.94715105857, 49958.048755889984, 22296.960329647107, -26260.48341518443, 12754.866511209788, 51764.382632301174, 13743.372409745743, 30771.713646854598, -0.064, 0.982, 0.032, 192.0, 0.0, 0.0, 0.0, 0.0, 0.0, 0.0, 0.0, 0.0, 0.0, 1.700951383990431E9, 0.0, 2023-11-25 17:29:43.990
35.0, 36011.25311985649, 50046.74047788864, 22286.65617545321, -26231.04616773679, 12716.689731680124, 51808.86260376723, 13733.045903807391, 30755.08394897985, -0.064, 0.982, 0.032, 192.0, 0.0, 0.0, 0.0, 0.0, 0.0, 0.0, 0.0, 0.0, 0.0, 1.700951383994467E9, 0.0, 2023-11-25 17:29:43.994
36.0, 36162.6861885412, 50070.567437478, 22337.84167025586, -26108.893884288536, 12937.74848434311, 52206.3213236715, 13744.378238246232, 30781.99544930404, -0.064, 0.982, 0.032, 192.0, 0.0, 0.0, 0.0, 0.0, 0.0, 0.0, 0.0, 0.0, 0.0, 1.700951383997469E9, 0.0, 2023-11-25 17:29:43.997
37.0, 36031.906131733194, 49938.82625565842, 22316.495754301042, -26243.116109742656, 12846.06162858744, 52220.08999825597, 13734.610525919263, 30761.789472316443, -0.064, 0.982, 0.032, 192.0, 0.0, 0.0, 0.0, 0.0, 0.0, 0.0, 0.0, 0.0, 0.0, 1.700951384001945E9, 0.0, 2023-11-25 17:29:44.001
38.0, 35927.6799473381, 49932.27719453302, 22297.519123258488, -26276.599022936705, 12757.168740888685, 51738.029925588366, 13749.139159815213, 30784.18592026066, -0.066, 0.984, 0.032, 192.0, 253.0, 240.0, 30.0, 192.0, 1.0, 0.0, 0.0, 0.0, 0.0, 1.700951384005423E9, 0.0, 2023-11-25 17:29:44.005
39.0, 35986.8450149113, 50027.205053234706, 22286.83498940885, -26233.013121248856, 12714.32044676786, 51802.29119089737, 13750.994354605004, 30797.395801233746, -0.066, 0.984, 0.032, 192.0, 0.0, 0.0, 0.0, 0.0, 0.0, 0.0, 0.0, 0.0, 0.0, 1.700951384009651E9, 0.0, 2023-11-25 17:29:44.009
40.0, 36134.14301087177, 50073.271998557095, 22333.393673109254, -26121.50026816133, 12902.455079848181, 52095.21080198417, 13769.658061225184, 30824.307301557936, -0.066, 0.984, 0.032, 192.0, 0.0, 0.0, 0.0, 0.0, 0.0, 0.0, 0.0, 0.0, 0.0, 1.700951384014491E9, 0.0, 2023-11-25 17:29:44.014
41.0, 36069.68057986267, 49963.61434025936, 22320.474364814087, -26200.401926088565, 12890.318082608948, 52345.058601505596, 13758.72805818654, 30798.33457450087, -0.066, 0.984, 0.032, 192.0, 0.0, 0.0, 0.0, 0.0, 0.0, 0.0, 0.0, 0.0, 0.0, 1.700951384018559E9, 0.0, 2023-11-25 17:29:44.018
42.0, 35908.032763961884, 49917.05565655895, 22298.010861636503, -26290.2559387989, 12757.079333910864, 51754.324347296286, 13770.082744369834, 30806.560016460422, -0.066, 0.984, 0.032, 192.0, 0.0, 0.0, 0.0, 0.0, 0.0, 0.0, 0.0, 0.0, 0.0, 1.700951384022479E9, 0.0, 2023-11-25 17:29:44.022
43.0, 35959.95586633156, 50005.747378557615, 22277.626070693266, -26232.47667938193, 12714.32044676786, 51817.020990493416, 13762.281985554933, 30815.00897586453, -0.066, 0.984, 0.032, 192.0, 0.0, 0.0, 0.0, 0.0, 0.0, 0.0, 0.0, 0.0, 0.0, 1.70095138402549E9, 0.0, 2023-11-25 17:29:44.025
44.0, 36080.655286390225, 50050.78614363506, 22310.12550713128, -26150.69164641996, 12844.698172175667, 51978.40058546074, 13768.316956557866, 30824.463763769123, -0.066, 0.984, 0.032, 192.0, 0.0, 0.0, 0.0, 0.0, 0.0, 0.0, 0.0, 0.0, 0.0, 1.700951384029491E9, 0.0, 2023-11-25 17:29:44.029
45.0, 36088.053713804926, 49969.20227637319, 22322.262504370512, -26161.24166980287, 12922.66105683578, 52385.64936943643, 13758.191616319611, 30812.125600829793, -0.066, 0.984, 0.032, 192.0, 0.0, 0.0, 0.0, 0.0, 0.0, 0.0, 0.0, 0.0, 0.0, 1.700951384033491E9, 0.0, 2023-11-25 17:29:44.033
46.0, 35886.083350906774, 49884.377406165295, 22295.775687190973, -26306.863284929193, 12751.401990819215, 51763.24269333395, 13760.315032042865, 30792.81369362041, -0.066, 0.984, 0.032, 192.0, 0.0, 0.0, 0.0, 0.0, 0.0, 0.0, 0.0, 0.0, 0.0, 1.700951384038487E9, 0.0, 2023-11-25 17:29:44.038
47.0, 35941.22510447801, 49976.66775902126, 22277.335498015345, -26242.356150431177, 12720.064845092875, 51783.940408699564, 13756.738752930016, 30797.66402216721, -0.064, 0.982, 0.036000000000000004, 192.0, 254.0, 0.0, 30.0, 176.0, 1.0, 32.0, 0.0, 0.0, 0.0, 1.700951384042528E9, 0.0, 2023-11-25 17:29:44.042
48.0, 36052.670902332175, 50045.84640811043, 22298.74846920353, -26184.532187525296, 12795.613741351814, 51863.40086023818, 13761.76789543246, 30804.458952481626, -0.064, 0.982, 0.036000000000000004, 192.0, 0.0, 0.0, 0.0, 0.0, 0.0, 0.0, 0.0, 0.0, 0.0, 1.700951384046565E9, 0.0, 2023-11-25 17:29:44.046
49.0, 36125.40347878975, 49995.1526516858, 22317.836858968363, -26139.04638755875, 12943.761103601588, 52402.03319812217, 13755.554110473886, 30810.00218510654, -0.064, 0.982, 0.036000000000000004, 192.0, 0.0, 0.0, 0.0, 0.0, 0.0, 0.0, 0.0, 0.0, 0.0, 1.700951384050605E9, 0.0, 2023-11-25 17:29:44.050
50.0, 35898.71208652402, 49877.53777236197, 22287.50554174251, -26322.889485703647, 12749.435037307148, 51847.93345307511, 13758.035154108424, 30782.4648359376, -0.064, 0.982, 0.036000000000000004, 192.0, 0.0, 0.0, 0.0, 0.0, 0.0, 0.0, 0.0, 0.0, 0.0, 1.700951384053539E9, 0.0, 2023-11-25 17:29:44.053
51.0, 35937.15708698715, 49969.47049730665, 22279.302451527412, -26250.58159239073, 12733.297077810417, 51768.495353280945, 13758.593947719806, 30802.04496408045, -0.064, 0.982, 0.036000000000000004, 192.0, 0.0, 0.0, 0.0, 0.0, 0.0, 0.0, 0.0, 0.0, 0.0, 1.700951384058646E9, 0.0, 2023-11-25 17:29:44.058
52.0, 36035.28124514595, 50054.876512870374, 22293.07112611188, -26205.073440679724, 12759.962708945599, 51805.487490354484, 13758.415133764165, 30795.652365166232, -0.064, 0.982, 0.036000000000000004, 192.0, 0.0, 0.0, 0.0, 0.0, 0.0, 0.0, 0.0, 0.0, 0.0, 1.700951384062615E9, 0.0, 2023-11-25 17:29:44.062
53.0, 36158.595819305876, 50040.16906501878, 22333.3713213648, -26110.88318954506, 12968.236263780149, 52351.540607397634, 13758.415133764165, 30803.67664142569, -0.064, 0.982, 0.036000000000000004, 192.0, 0.0, 0.0, 0.0, 0.0, 0.0, 0.0, 0.0, 0.0, 0.0, 1.700951384066638E9, 0.0, 2023-11-25 17:29:44.066
54.0, 35947.66240688114, 49907.667923887726, 22310.103155386827, -26292.73698243344, 12791.523372116491, 51939.86617801979, 13750.659078438173, 30777.18982424615, -0.064, 0.982, 0.036000000000000004, 192.0, 0.0, 0.0, 0.0, 0.0, 0.0, 0.0, 0.0, 0.0, 0.0, 1.700951384070815E9, 0.0, 2023-11-25 17:29:44.070
55.0, 35949.562305159845, 49967.928226939235, 22296.155666846713, -26235.941199772504, 12761.594386290835, 51747.37295477068, 13747.239261536512, 30788.879786596273, -0.064, 0.982, 0.036000000000000004, 192.0, 0.0, 0.0, 0.0, 0.0, 0.0, 0.0, 0.0, 0.0, 0.0, 1.700951384074679E9, 0.0, 2023-11-25 17:29:44.074
56.0, 36021.37846009475, 50052.90955935831, 22296.826219180373, -26206.727469769416, 12739.533214513447, 51776.34081558476, 13739.952592844082, 30771.825405576874, -0.064, 0.982, 0.036000000000000004, 192.0, 0.0, 0.0, 0.0, 0.0, 0.0, 0.0, 0.0, 0.0, 0.0, 1.700951384078597E9, 0.0, 2023-11-25 17:29:44.078
57.0, 36164.742549031085, 50058.922178616784, 22341.99909472455, -26094.097029459124, 12963.587100933446, 52273.0859843595, 13746.121674313747, 30797.306394255927, -0.064, 0.986, 0.032, 192.0, 254.0, 0.0, 30.0, 208.0, 1.0, 0.0, 0.0, 0.0, 0.0, 1.700951384081608E9, 0.0, 2023-11-25 17:29:44.081
58.0, 35986.59914572229, 49917.81561587044, 22314.70761474462, -26265.512557686874, 12820.379474208294, 52085.77836582403, 13739.125578299234, 30770.14902474273, -0.064, 0.986, 0.032, 192.0, 0.0, 0.0, 0.0, 0.0, 0.0, 0.0, 0.0, 0.0, 0.0, 1.700951384085648E9, 0.0, 2023-11-25 17:29:44.085
59.0, 35933.7819735744, 49945.35296503937, 22300.067222126392, -26253.24144998091, 12765.036554936953, 51733.201948786016, 13748.759180159472, 30789.438580207658, -0.064, 0.986, 0.032, 192.0, 0.0, 0.0, 0.0, 0.0, 0.0, 0.0, 0.0, 0.0, 0.0, 1.700951384089675E9, 0.0, 2023-11-25 17:29:44.089
60.0, 35997.48444527202, 50036.637489394845, 22293.69697495663, -26217.679824552517, 12725.60807771779, 51773.457440550024, 13745.831101635828, 30794.355963987826, -0.064, 0.986, 0.032, 192.0, 0.0, 0.0, 0.0, 0.0, 0.0, 0.0, 0.0, 0.0, 0.0, 1.700951384093676E9, 0.0, 2023-11-25 17:29:44.093
61.0, 36145.318883099426, 50059.838600139454, 22337.975780722594, -26097.91917776098, 12939.134292499339, 52174.246570378134, 13766.528817001441, 30834.54440051847, -0.064, 0.986, 0.032, 192.0, 0.0, 0.0, 0.0, 0.0, 0.0, 0.0, 0.0, 0.0, 0.0, 1.700951384098694E9, 0.0, 2023-11-25 17:29:44.098
62.0, 36020.37263159426, 49930.578461954414, 22316.629864767776, -26229.258028180368, 12858.377439782314, 52223.19689073526, 13756.135255829724, 30806.58236820488, -0.064, 0.986, 0.032, 192.0, 0.0, 0.0, 0.0, 0.0, 0.0, 0.0, 0.0, 0.0, 0.0, 1.700951384102949E9, 0.0, 2023-11-25 17:29:44.102
63.0, 35912.659575064135, 49919.35788623785, 22297.854399425316, -26268.083008299236, 12760.074467667875, 51718.82977710126, 13759.800941920394, 30811.566807218413, -0.064, 0.986, 0.032, 192.0, 0.0, 0.0, 0.0, 0.0, 0.0, 0.0, 0.0, 0.0, 0.0, 1.700951384106689E9, 0.0, 2023-11-25 17:29:44.106
64.0, 35978.507814229466, 50011.71529432718, 22283.750448674018, -26224.228885677923, 12715.058054334886, 51777.793678974354, 13758.281023297433, 30807.968176361108, -0.064, 0.986, 0.032, 192.0, 0.0, 0.0, 0.0, 0.0, 0.0, 0.0, 0.0, 0.0, 0.0, 1.700951384109756E9, 0.0, 2023-11-25 17:29:44.109
65.0, 36123.570635744414, 50052.52957970257, 22325.682321272176, -26119.108631504612, 12892.732071010121, 52047.69099327219, 13776.117715372768, 30822.362699790327, -0.064, 0.986, 0.032, 192.0, 0.0, 0.0, 0.0, 0.0, 0.0, 0.0, 0.0, 0.0, 0.0, 1.7009513841138E9, 0.0, 2023-11-25 17:29:44.113
66.0, 36071.625181630276, 49950.98560464211, 22318.663873513207, -26184.59924275866, 12895.41428034476, 52331.200519943304, 13769.00986063598, 30805.822408893397, -0.064, 0.986, 0.032, 192.0, 0.0, 0.0, 0.0, 0.0, 0.0, 0.0, 0.0, 0.0, 0.0, 1.700951384117771E9, 0.0, 2023-11-25 17:29:44.117
67.0, 35903.89769123765, 49900.29184821747, 22298.54730350343, -26279.81767413827, 12757.548720544424, 51723.18836727004, 13785.572503277363, 30817.110039843326, -0.06, 0.988, 0.03, 192.0, 254.0, 32.0, 30.0, 224.0, 0.0, 240.0, 0.0, 0.0, 0.0, 1.700951384121765E9, 0.0, 2023-11-25 17:29:44.121
68.0, 35957.72069188603, 49995.21970691916, 22279.07893408286, -26223.42422287753, 12716.287400279929, 51775.223228361996, 13780.453953797098, 30823.301473057447, -0.06, 0.988, 0.03, 192.0, 0.0, 0.0, 0.0, 0.0, 0.0, 0.0, 0.0, 0.0, 0.0, 1.700951384126697E9, 0.0, 2023-11-25 17:29:44.126
69.0, 36076.81078634391, 50054.98827159265, 22308.918512930693, -26146.020131828802, 12835.310439504437, 51925.47165459057, 13790.1546108907, 30827.660063226234, -0.06, 0.988, 0.03, 192.0, 0.0, 0.0, 0.0, 0.0, 0.0, 0.0, 0.0, 0.0, 0.0, 1.700951384130748E9, 0.0, 2023-11-25 17:29:44.130
70.0, 36091.22766151758, 49976.82422123245, 22311.824239709884, -26155.877251133592, 12916.916658510765, 52373.13239254146, 13777.794096206915, 30819.032289866485, -0.06, 0.988, 0.03, 192.0, 0.0, 0.0, 0.0, 0.0, 0.0, 0.0, 0.0, 0.0, 0.0, 1.700951384134806E9, 0.0, 2023-11-25 17:29:44.134
71.0, 35878.19318511405, 49874.095603715854, 22279.235396294047, -26315.78163096686, 12733.028856876954, 51764.382632301174, 13779.448125296609, 30807.610548449822, -0.06, 0.988, 0.03, 192.0, 0.0, 0.0, 0.0, 0.0, 0.0, 0.0, 0.0, 0.0, 0.0, 1.700951384137748E9, 0.0, 2023-11-25 17:29:44.137
72.0, 35926.11532522623, 49960.12746812433, 22261.77868387445, -26250.80510983528, 12702.339911739817, 51773.92682718359, 13776.542398517418, 30810.739792673565, -0.06, 0.988, 0.03, 192.0, 0.0, 0.0, 0.0, 0.0, 0.0, 0.0, 0.0, 0.0, 0.0, 1.700951384142144E9, 0.0, 2023-11-25 17:29:44.142
73.0, 36035.37065212377, 50034.08939052694, 22288.511370243, -26190.902434695057, 12773.105534685319, 51837.07050526983, 13781.504485786498, 30800.32387975739, -0.06, 0.988, 0.03, 192.0, 0.0, 0.0, 0.0, 0.0, 0.0, 0.0, 0.0, 0.0, 0.0, 1.700951384145768E9, 0.0, 2023-11-25 17:29:44.145
74.0, 36115.322842040405, 49987.977741715644, 22312.897123443738, -26134.06194854521, 12934.46277790818, 52397.115814342, 13767.422886779654, 30799.96625184611, -0.06, 0.988, 0.03, 192.0, 0.0, 0.0, 0.0, 0.0, 0.0, 0.0, 0.0, 0.0, 0.0, 1.700951384149782E9, 0.0, 2023-11-25 17:29:44.149
75.0, 35898.600327801745, 49874.40852813823, 22293.428754023167, -26306.9079884181, 12753.48070305356, 51861.25509277047, 13764.763029189471, 30795.47355121059, -0.06, 0.988, 0.03, 192.0, 0.0, 0.0, 0.0, 0.0, 0.0, 0.0, 0.0, 0.0, 0.0, 1.700951384153948E9, 0.0, 2023-11-25 17:29:44.153
76.0, 35938.69935735457, 49961.60268325838, 22287.662003953697, -26226.57581884573, 12741.18724360314, 51771.021100404396, 13761.745543688005, 30824.217894580117, -0.06, 0.988, 0.03, 192.0, 0.0, 0.0, 0.0, 0.0, 0.0, 0.0, 0.0, 0.0, 0.0, 1.700951384158822E9, 0.0, 2023-11-25 17:29:44.158
77.0, 36029.402736354205, 50043.58888192045, 22299.687242470653, -26183.682821235994, 12757.99575543353, 51801.48652809698, 13765.232415823033, 30824.06143236893, -0.056, 0.99, 0.032, 192.0, 254.0, 64.0, 30.0, 240.0, 1.0, 0.0, 0.0, 0.0, 0.0, 1.700951384162862E9, 0.0, 2023-11-25 17:29:44.162
78.0, 36155.69009252669, 50031.92127131478, 22336.679379544184, -26085.73747703284, 12970.069106825484, 52364.862247093, 13766.238244323522, 30834.85732494084, -0.056, 0.99, 0.032, 192.0, 0.0, 0.0, 0.0, 0.0, 0.0, 0.0, 0.0, 0.0, 0.0, 1.70095138416601E9, 0.0, 2023-11-25 17:29:44.166
79.0, 35945.91897081363, 49896.38029293779, 22309.209085608614, -26278.856549126693, 12791.165744205207, 51989.88938211076, 13758.929223886636, 30797.351097744835, -0.056, 0.99, 0.032, 192.0, 0.0, 0.0, 0.0, 0.0, 0.0, 0.0, 0.0, 0.0, 0.0, 1.700951384169921E9, 0.0, 2023-11-25 17:29:44.169
80.0, 35936.978273031506, 49950.20329358617, 22295.17219009068, -26235.00242650538, 12756.47583681057, 51748.89287339364, 13762.952537888592, 30816.52889448749, -0.056, 0.99, 0.032, 192.0, 0.0, 0.0, 0.0, 0.0, 0.0, 0.0, 0.0, 0.0, 0.0, 1.700951384173972E9, 0.0, 2023-11-25 17:29:44.173
81.0, 36010.515512289465, 50036.27986148356, 22292.93701564515, -26204.894626724083, 12730.883089409244, 51756.60422523072, 13763.600738477797, 30811.700917685142, -0.056, 0.99, 0.032, 192.0, 0.0, 0.0, 0.0, 0.0, 0.0, 0.0, 0.0, 0.0, 0.0, 1.700951384177858E9, 0.0, 2023-11-25 17:29:44.177
82.0, 36153.54432505898, 50045.28761449905, 22333.036045197972, -26087.659727055994, 12953.126484528362, 52240.07245779902, 13769.72511645855, 30827.503601015047, -0.056, 0.99, 0.032, 192.0, 0.0, 0.0, 0.0, 0.0, 0.0, 0.0, 0.0, 0.0, 0.0, 1.70095138418195E9, 0.0, 2023-11-25 17:29:44.181
83.0, 35975.73619791701, 49907.55616516545, 22304.671681484186, -26258.695275628004, 12813.91982006071, 52087.11947049135, 13754.190654062111, 30785.75054237253, -0.056, 0.99, 0.032, 192.0, 0.0, 0.0, 0.0, 0.0, 0.0, 0.0, 0.0, 0.0, 0.0, 1.700951384187754E9, 0.0, 2023-11-25 17:29:44.187
84.0, 35916.03468847689, 49927.60567994186, 22286.142085330735, -26256.303638971287, 12749.010354162498, 51698.53439313584, 13761.05263960989, 30801.95555710263, -0.056, 0.99, 0.032, 192.0, 0.0, 0.0, 0.0, 0.0, 0.0, 0.0, 0.0, 0.0, 0.0, 1.700951384189912E9, 0.0, 2023-11-25 17:29:44.189
85.0, 35978.91014562966, 50017.01265776309, 22272.239300279536, -26226.79933629028, 12703.23398151803, 51739.683954678054, 13757.722229686051, 30800.726211157587, -0.056, 0.99, 0.032, 192.0, 0.0, 0.0, 0.0, 0.0, 0.0, 0.0, 0.0, 0.0, 0.0, 1.700951384193961E9, 0.0, 2023-11-25 17:29:44.193
86.0, 36129.06916488042, 50048.75213488962, 22318.730928746572, -26106.97163426538, 12914.010931731575, 52120.44592147421, 13770.373317047754, 30828.777650449, -0.056, 0.99, 0.032, 192.0, 0.0, 0.0, 0.0, 0.0, 0.0, 0.0, 0.0, 0.0, 0.0, 1.700951384197974E9, 0.0, 2023-11-25 17:29:44.197
87.0, 36023.3007101179, 49927.225700286115, 22305.1634198622, -26226.776984545828, 12849.615555955836, 52209.495271384156, 13758.281023297433, 30796.077048310883, -0.06, 0.986, 0.038, 192.0, 254.0, 32.0, 30.0, 208.0, 1.0, 48.0, 0.0, 0.0, 0.0, 1.700951384202034E9, 0.0, 2023-11-25 17:29:44.202
88.0, 35910.08912445178, 49906.7291506206, 22288.489018498545, -26276.800188636804, 12747.490435539537, 51674.9980062244, 13768.540474002419, 30801.86615012481, -0.06, 0.986, 0.038, 192.0, 0.0, 0.0, 0.0, 0.0, 0.0, 0.0, 0.0, 0.0, 0.0, 1.700951384206139E9, 0.0, 2023-11-25 17:29:44.206
89.0, 35967.64486642419, 49992.78336677353, 22266.718419399076, -26235.67297883904, 12696.37199597025, 51741.62855644567, 13756.895215141203, 30797.70872565612, -0.06, 0.986, 0.038, 192.0, 0.0, 0.0, 0.0, 0.0, 0.0, 0.0, 0.0, 0.0, 0.0, 1.700951384210042E9, 0.0, 2023-11-25 17:29:44.210
90.0, 36104.52694946849, 50038.22446325117, 22304.537571017456, -26135.64892240154, 12865.39588754128, 51993.71153041262, 13764.561863489374, 30814.96427237562, -0.06, 0.986, 0.038, 192.0, 0.0, 0.0, 0.0, 0.0, 0.0, 0.0, 0.0, 0.0, 0.0, 1.700951384214044E9, 0.0, 2023-11-25 17:29:44.214
91.0, 36060.53871638045, 49938.04394460248, 22300.246036082037, -26192.131780640102, 12885.64656801779, 52303.506708563174, 13745.24995627999, 30793.23837676506, -0.06, 0.986, 0.038, 192.0, 0.0, 0.0, 0.0, 0.0, 0.0, 0.0, 0.0, 0.0, 0.0, 1.700951384218036E9, 0.0, 2023-11-25 17:29:44.218
92.0, 35885.5692607843, 49876.598999094844, 22277.000221848517, -26303.510523260895, 12736.828653434355, 51690.73363432093, 13753.318936028354, 30784.029458049474, -0.06, 0.986, 0.038, 192.0, 0.0, 0.0, 0.0, 0.0, 0.0, 0.0, 0.0, 0.0, 0.0, 1.700951384221142E9, 0.0, 2023-11-25 17:29:44.221
93.0, 35941.9850637895, 49970.02929091803, 22260.258765251492, -26246.67003711105, 12700.060033805375, 51738.4099052441, 13760.15856983168, 30799.362754745813, -0.06, 0.986, 0.038, 192.0, 0.0, 0.0, 0.0, 0.0, 0.0, 0.0, 0.0, 0.0, 0.0, 1.700951384226142E9, 0.0, 2023-11-25 17:29:44.226
94.0, 36066.461928661105, 50032.167140503785, 22293.674623212173, -26165.287335549277, 12818.747796863056, 51873.52620047644, 13775.670680483661, 30820.619263722812, -0.06, 0.986, 0.038, 192.0, 0.0, 0.0, 0.0, 0.0, 0.0, 0.0, 0.0, 0.0, 0.0, 1.700951384230162E9, 0.0, 2023-11-25 17:29:44.230
95.0, 36097.19557728715, 49962.02736640303, 22307.108021629814, -26152.41273074302, 12920.358827156882, 52353.149932998414, 13768.741639702517, 30816.595949720857, -0.06, 0.986, 0.038, 192.0, 0.0, 0.0, 0.0, 0.0, 0.0, 0.0, 0.0, 0.0, 0.0, 1.700951384234153E9, 0.0, 2023-11-25 17:29:44.234
96.0, 35883.11056889422, 49864.39494662225, 22282.4093440067, -26305.63393898415, 12743.467121537582, 51737.448780232524, 13767.62405247975, 30803.47547572559, -0.06, 0.986, 0.038, 192.0, 0.0, 0.0, 0.0, 0.0, 0.0, 0.0, 0.0, 0.0, 0.0, 1.700951384238084E9, 0.0, 2023-11-25 17:29:44.238
97.0, 35925.95886301504, 49954.0924971214, 22267.97011708857, -26234.57774336073, 12718.164946814173, 51732.57609994127, 13759.040982608913, 30817.780592176987, -0.062, 0.982, 0.036000000000000004, 192.0, 254.0, 16.0, 30.0, 176.0, 1.0, 32.0, 0.0, 0.0, 0.0, 1.700951384243107E9, 0.0, 2023-11-25 17:29:44.243
98.0, 36030.49797183251, 50025.08163751145, 22292.378222033767, -26178.27369907781, 12779.945168488643, 51785.03564417787, 13774.910721172182, 30826.162496347726, -0.062, 0.982, 0.036000000000000004, 192.0, 0.0, 0.0, 0.0, 0.0, 0.0, 0.0, 0.0, 0.0, 0.0, 1.700951384246136E9, 0.0, 2023-11-25 17:29:44.246
99.0, 36124.30824331144, 49989.67647429425, 22326.17405965019, -26109.676195344473, 12960.010821820597, 52334.352115911504, 13781.325671830855, 30838.791231964977, -0.062, 0.982, 0.036000000000000004, 192.0, 0.0, 0.0, 0.0, 0.0, 0.0, 0.0, 0.0, 0.0, 0.0, 1.700951384249126E9, 0.0, 2023-11-25 17:29:44.249
100.0, 35895.98517370047, 49863.45617335512, 22290.143047588237, -26303.890502916638, 12762.24258688004, 51828.24156620998, 13762.81842742186, 30792.210196520115, -0.062, 0.982, 0.036000000000000004, 192.0, 0.0, 0.0, 0.0, 0.0, 0.0, 0.0, 0.0, 0.0, 0.0, 1.700951384254195E9, 0.0, 2023-11-25 17:29:44.254
101.0, 35923.96955775852, 49943.27425280503, 22276.284966025945, -26244.926601043535, 12735.152272600208, 51712.928916565055, 13756.202311063089, 30802.00026059154, -0.062, 0.982, 0.036000000000000004, 192.0, 0.0, 0.0, 0.0, 0.0, 0.0, 0.0, 0.0, 0.0, 0.0, 1.700951384259513E9, 0.0, 2023-11-25 17:29:44.259
102.0, 36017.08692515933, 50032.36830620388, 22289.517198743488, -26204.827571490714, 12746.417551805682, 51718.36039046769, 13758.929223886636, 30796.166455288705, -0.062, 0.982, 0.036000000000000004, 192.0, 0.0, 0.0, 0.0, 0.0, 0.0, 0.0, 0.0, 0.0, 0.0, 1.700951384262237E9, 0.0, 2023-11-25 17:29:44.262
103.0, 36144.84949646586, 50021.99709677662, 22323.625960782287, -26105.608177853606, 12955.85339735191, 52269.6885192023, 13755.218834307056, 30802.29083326946, -0.062, 0.982, 0.036000000000000004, 192.0, 0.0, 0.0, 0.0, 0.0, 0.0, 0.0, 0.0, 0.0, 0.0, 1.700951384265203E9, 0.0, 2023-11-25 17:29:44.265
104.0, 35937.15708698715, 49886.88080154429, 22292.60173947832, -26298.12375284717, 12778.849933010333, 51911.948849195105, 13743.618278934751, 30771.66894336569, -0.062, 0.982, 0.036000000000000004, 192.0, 0.0, 0.0, 0.0, 0.0, 0.0, 0.0, 0.0, 0.0, 0.0, 1.700951384271163E9, 0.0, 2023-11-25 17:29:44.271
105.0, 35924.260130436436, 49936.72519167962, 22278.27427128247, -26252.548545902795, 12742.148368614718, 51657.16131414906, 13752.089590083313, 30801.888501869264, -0.062, 0.982, 0.036000000000000004, 192.0, 0.0, 0.0, 0.0, 0.0, 0.0, 0.0, 0.0, 0.0, 0.0, 1.700951384274224E9, 0.0, 2023-11-25 17:29:44.274
106.0, 35996.053933626885, 50017.45969265219, 22271.166416545682, -26221.032586220812, 12709.850097876799, 51679.75892779338, 13750.793188904905, 30796.881711111273, -0.062, 0.982, 0.036000000000000004, 192.0, 0.0, 0.0, 0.0, 0.0, 0.0, 0.0, 0.0, 0.0, 0.0, 1.700951384278219E9, 0.0, 2023-11-25 17:29:44.278
107.0, 36137.29460683997, 50025.9086520563, 22309.90198968673, -26107.30691043221, 12931.780568573544, 52161.72959348316, 13756.135255829724, 30812.974967119095, -0.068, 0.976, 0.032, 192.0, 253.0, 224.0, 30.0, 128.0, 1.0, 0.0, 0.0, 0.0, 0.0, 1.700951384282314E9, 0.0, 2023-11-25 17:29:44.282
108.0, 35970.97527634803, 49890.881763801786, 22288.667832454186, -26270.027610066845, 12805.604971123335, 52051.17786540722, 13747.418075492154, 30780.27436498098, -0.068, 0.976, 0.032, 192.0, 0.0, 0.0, 0.0, 0.0, 0.0, 0.0, 0.0, 0.0, 0.0, 1.700951384285262E9, 0.0, 2023-11-25 17:29:44.285
109.0, 35903.696525537554, 49905.72332212011, 22272.55222470191, -26271.1004938007, 12739.28734532444, 51633.62492723762, 13758.683354697629, 30797.440504722657, -0.068, 0.976, 0.032, 192.0, 0.0, 0.0, 0.0, 0.0, 0.0, 0.0, 0.0, 0.0, 0.0, 1.700951384289269E9, 0.0, 2023-11-25 17:29:44.289
110.0, 35965.87907861222, 49990.302323138996, 22258.180053017146, -26239.808051563272, 12690.448783689593, 51670.86293350017, 13759.577424475841, 30800.279176268483, -0.068, 0.976, 0.032, 192.0, 0.0, 0.0, 0.0, 0.0, 0.0, 0.0, 0.0, 0.0, 0.0, 1.700951384293344E9, 0.0, 2023-11-25 17:29:44.293
111.0, 36115.68046995169, 50023.53936714403, 22303.93407391716, -26126.797631597237, 12897.26947513455, 52032.60356576485, 13777.280006084444, 30829.805830693942, -0.068, 0.976, 0.032, 192.0, 0.0, 0.0, 0.0, 0.0, 0.0, 0.0, 0.0, 0.0, 0.0, 1.70095138429728E9, 0.0, 2023-11-25 17:29:44.297
112.0, 36010.515512289465, 49905.49980467556, 22287.12556208677, -26241.484432397418, 12840.8313203849, 52167.92102669729, 13759.085686097824, 30793.350135487337, -0.068, 0.976, 0.032, 192.0, 0.0, 0.0, 0.0, 0.0, 0.0, 0.0, 0.0, 0.0, 0.0, 1.700951384302358E9, 0.0, 2023-11-25 17:29:44.302
113.0, 35878.43905430306, 49878.565952606914, 22262.628050163752, -26301.051831370813, 12727.485624252036, 51621.15265383157, 13769.278081569444, 30793.707763398623, -0.068, 0.976, 0.032, 192.0, 0.0, 0.0, 0.0, 0.0, 0.0, 0.0, 0.0, 0.0, 0.0, 1.700951384306278E9, 0.0, 2023-11-25 17:29:44.306
114.0, 35934.51958114142, 49971.638616518816, 22243.562012143375, -26253.062636025268, 12679.541132395403, 51682.10586096119, 13766.685279212628, 30803.341365258857, -0.068, 0.976, 0.032, 192.0, 0.0, 0.0, 0.0, 0.0, 0.0, 0.0, 0.0, 0.0, 0.0, 1.700951384310283E9, 0.0, 2023-11-25 17:29:44.310
115.0, 36075.22381248758, 50025.19339623373, 22284.376297518767, -26152.211565042922, 12844.362896008837, 51914.74281725202, 13782.130334631245, 30827.794173692964, -0.068, 0.976, 0.032, 192.0, 0.0, 0.0, 0.0, 0.0, 0.0, 0.0, 0.0, 0.0, 0.0, 1.700951384313322E9, 0.0, 2023-11-25 17:29:44.313
116.0, 36046.63593132924, 49925.95165085216, 22280.576500961364, -26201.47480982242, 12872.190817855695, 52264.05587959956, 13766.931148401636, 30803.698993170143, -0.068, 0.976, 0.032, 192.0, 0.0, 0.0, 0.0, 0.0, 0.0, 0.0, 0.0, 0.0, 0.0, 1.700951384317662E9, 0.0, 2023-11-25 17:29:44.317
117.0, 35868.20195534253, 49856.30361512943, 22260.16935827367, -26316.988625167447, 12722.165909071675, 51639.77165696283, 13776.96708166207, 30801.553225702435, -0.066, 0.98, 0.032, 192.0, 253.0, 240.0, 30.0, 160.0, 1.0, 0.0, 0.0, 0.0, 0.0, 1.700951384321409E9, 0.0, 2023-11-25 17:29:44.321
118.0, 35926.47295313751, 49952.952558154175, 22247.562974400877, -26256.281287226833, 12688.168905755152, 51673.18751492352, 13773.055526382392, 30814.62899620879, -0.066, 0.98, 0.032, 192.0, 0.0, 0.0, 0.0, 0.0, 0.0, 0.0, 0.0, 0.0, 0.0, 1.700951384325373E9, 0.0, 2023-11-25 17:29:44.325
119.0, 36054.347283166324, 50021.14773048732, 22284.488056241044, -26173.356315297642, 12804.107404244829, 51793.618714048716, 13780.610416008285, 30826.363662047825, -0.066, 0.98, 0.032, 192.0, 0.0, 0.0, 0.0, 0.0, 0.0, 0.0, 0.0, 0.0, 0.0, 1.700951384330436E9, 0.0, 2023-11-25 17:29:44.330
120.0, 36096.68148716468, 49959.70278497968, 22299.910759915205, -26155.296105777754, 12919.777681801044, 52305.004275441686, 13764.204235578089, 30821.91566490122, -0.066, 0.98, 0.032, 192.0, 0.0, 0.0, 0.0, 0.0, 0.0, 0.0, 0.0, 0.0, 0.0, 1.700951384334398E9, 0.0, 2023-11-25 17:29:44.334
121.0, 35884.78694972837, 49864.797278022445, 22274.586233447342, -26319.089689146243, 12736.538080756436, 51701.12719549265, 13763.086648355324, 30802.84962688084, -0.066, 0.98, 0.032, 192.0, 0.0, 0.0, 0.0, 0.0, 0.0, 0.0, 0.0, 0.0, 0.0, 1.700951384338427E9, 0.0, 2023-11-25 17:29:44.338
122.0, 35931.07741249531, 49958.339328567905, 22260.526986184956, -26250.827461579738, 12710.677112421647, 51667.13019217613, 13757.2975465414, 30809.108115328327, -0.066, 0.98, 0.032, 192.0, 0.0, 0.0, 0.0, 0.0, 0.0, 0.0, 0.0, 0.0, 0.0, 1.700951384341434E9, 0.0, 2023-11-25 17:29:44.341
123.0, 36028.26279738698, 50039.4091057073, 22280.397687005723, -26194.858693463648, 12763.807208991911, 51703.340018193725, 13761.276157054444, 30815.18778982017, -0.066, 0.98, 0.032, 192.0, 0.0, 0.0, 0.0, 0.0, 0.0, 0.0, 0.0, 0.0, 0.0, 1.700951384345429E9, 0.0, 2023-11-25 17:29:44.345
124.0, 36122.162475843725, 50005.590916346424, 22306.75039371853, -26121.07558501668, 12942.531757656547, 52274.47179251573, 13750.592023204807, 30824.463763769123, -0.066, 0.98, 0.032, 192.0, 0.0, 0.0, 0.0, 0.0, 0.0, 0.0, 0.0, 0.0, 0.0, 1.700951384349465E9, 0.0, 2023-11-25 17:29:44.349
125.0, 35900.74609526945, 49879.25885668503, 22275.61441369229, -26311.713613475993, 12747.959822173098, 51772.09398413825, 13742.500691711986, 30788.298641240435, -0.066, 0.98, 0.032, 192.0, 0.0, 0.0, 0.0, 0.0, 0.0, 0.0, 0.0, 0.0, 0.0, 1.700951384353424E9, 0.0, 2023-11-25 17:29:44.353
126.0, 35922.91902576912, 49953.53370351002, 22257.576555916854, -26248.748749345395, 12721.003618359999, 51632.93202315951, 13738.522081198942, 30799.273347767994, -0.066, 0.98, 0.032, 192.0, 0.0, 0.0, 0.0, 0.0, 0.0, 0.0, 0.0, 0.0, 0.0, 1.700951384357452E9, 0.0, 2023-11-25 17:29:44.357
127.0, 36008.16857912166, 50033.083562026455, 22261.041076307425, -26214.394118117587, 12722.188260816129, 51649.449962311985, 13740.109055055269, 30797.552263444933, -0.064, 0.984, 0.032, 192.0, 254.0, 0.0, 30.0, 192.0, 1.0, 0.0, 0.0, 0.0, 0.0, 1.700951384362457E9, 0.0, 2023-11-25 17:29:44.362
128.0, 36139.44037430768, 50022.64529736582, 22299.4637250261, -26108.200980210422, 12942.129426256352, 52187.63526530687, 13743.975906846037, 30815.00897586453, -0.064, 0.984, 0.032, 192.0, 0.0, 0.0, 0.0, 0.0, 0.0, 0.0, 0.0, 0.0, 0.0, 1.700951384366579E9, 0.0, 2023-11-25 17:29:44.366
129.0, 35931.792668317874, 49880.24233344106, 22271.099361312314, -26295.709764445994, 12770.132752672764, 51867.424174240135, 13738.67854341013, 30776.94395505714, -0.064, 0.984, 0.032, 192.0, 0.0, 0.0, 0.0, 0.0, 0.0, 0.0, 0.0, 0.0, 0.0, 1.700951384369513E9, 0.0, 2023-11-25 17:29:44.369
130.0, 35897.259223134424, 49914.239336757586, 22245.886593566727, -26268.10536004369, 12715.862717135278, 51604.54530770127, 13736.57747943133, 30778.910908569207, -0.064, 0.984, 0.032, 192.0, 0.0, 0.0, 0.0, 0.0, 0.0, 0.0, 0.0, 0.0, 0.0, 1.700951384373541E9, 0.0, 2023-11-25 17:29:44.373
131.0, 35960.760529131956, 49998.90774475429, 22240.768044086464, -26246.692388855507, 12678.93763529511, 51623.857214910655, 13730.251935750477, 30765.365751429294, -0.064, 0.984, 0.032, 192.0, 0.0, 0.0, 0.0, 0.0, 0.0, 0.0, 0.0, 0.0, 0.0, 1.700951384377527E9, 0.0, 2023-11-25 17:29:44.377
132.0, 36108.3714495148, 50015.02335250656, 22287.349079531323, -26124.137774007057, 12909.98761772962, 52081.59858961089, 13740.824310877839, 30792.679583153677, -0.064, 0.984, 0.032, 192.0, 0.0, 0.0, 0.0, 0.0, 0.0, 0.0, 0.0, 0.0, 0.0, 1.70095138438362E9, 0.0, 2023-11-25 17:29:44.383
133.0, 35954.658502895654, 49879.59413285186, 22266.49490195452, -26274.900290358102, 12796.44075589666, 52010.69885619866, 13733.984677074513, 30772.719475355087, -0.064, 0.984, 0.032, 192.0, 0.0, 0.0, 0.0, 0.0, 0.0, 0.0, 0.0, 0.0, 0.0, 1.700951384387004E9, 0.0, 2023-11-25 17:29:44.387
134.0, 35875.57803101278, 49889.473603901104, 22251.29571572491, -26284.3550782627, 12723.37290327226, 51578.61728413311, 13752.2460522945, 30792.00903082002, -0.064, 0.984, 0.032, 192.0, 0.0, 0.0, 0.0, 0.0, 0.0, 0.0, 0.0, 0.0, 0.0, 1.700951384390597E9, 0.0, 2023-11-25 17:29:44.390
135.0, 35940.84512482228, 49983.06035793547, 22241.86327956477, -26248.81580457876, 12677.574178883337, 51617.50931948535, 13756.716401185562, 30796.47937971108, -0.064, 0.984, 0.032, 192.0, 0.0, 0.0, 0.0, 0.0, 0.0, 0.0, 0.0, 0.0, 0.0, 1.700951384394653E9, 0.0, 2023-11-25 17:29:44.394
136.0, 36090.154777783726, 50017.66085835229, 22283.97396611857, -26129.681006631974, 12879.276320848026, 51968.319948711396, 13775.402459550198, 30834.209124351637, -0.064, 0.984, 0.032, 192.0, 0.0, 0.0, 0.0, 0.0, 0.0, 0.0, 0.0, 0.0, 0.0, 1.700951384398236E9, 0.0, 2023-11-25 17:29:44.398
137.0, 36003.050029641396, 49904.06929303042, 22272.775742146463, -26230.152097958577, 12839.803140139955, 52144.406991530304, 13764.718325700562, 30809.353984517336, -0.064, 0.986, 0.03, 192.0, 254.0, 0.0, 30.0, 208.0, 0.0, 240.0, 0.0, 0.0, 0.0, 1.700951384401633E9, 0.0, 2023-11-25 17:29:44.401
138.0, 35866.57027799729, 49871.525153103496, 22253.1509105147, -26296.000337123915, 12720.89185963772, 51591.06720579472, 13774.396631049709, 30806.38120250478, -0.064, 0.986, 0.03, 192.0, 0.0, 0.0, 0.0, 0.0, 0.0, 0.0, 0.0, 0.0, 0.0, 1.70095138440564E9, 0.0, 2023-11-25 17:29:44.405
139.0, 35917.91223501113, 49962.943787925695, 22231.35795967078, -26248.52523190084, 12670.667489846646, 51659.66470952806, 13765.187712334122, 30816.43948750967, -0.064, 0.986, 0.03, 192.0, 0.0, 0.0, 0.0, 0.0, 0.0, 0.0, 0.0, 0.0, 0.0, 1.700951384409671E9, 0.0, 2023-11-25 17:29:44.409
140.0, 36051.73212906506, 50017.683210096744, 22270.965250845584, -26152.636248187573, 12828.068474300919, 51872.11804057575, 13778.487000285031, 30844.20035412316, -0.064, 0.986, 0.03, 192.0, 0.0, 0.0, 0.0, 0.0, 0.0, 0.0, 0.0, 0.0, 0.0, 1.70095138441366E9, 0.0, 2023-11-25 17:29:44.413
141.0, 36041.919713249175, 49932.65717418876, 22275.569710203377, -26187.929652682502, 12879.16456212575, 52243.469922956225, 13764.763029189471, 30817.44531601016, -0.064, 0.986, 0.03, 192.0, 0.0, 0.0, 0.0, 0.0, 0.0, 0.0, 0.0, 0.0, 0.0, 1.700951384418677E9, 0.0, 2023-11-25 17:29:44.418
142.0, 35859.23890581595, 49863.70204254414, 22253.910869826184, -26311.579503009263, 12722.188260816129, 51620.25858405335, 13766.774686190449, 30803.363717003314, -0.064, 0.986, 0.03, 192.0, 0.0, 0.0, 0.0, 0.0, 0.0, 0.0, 0.0, 0.0, 0.0, 1.700951384422704E9, 0.0, 2023-11-25 17:29:44.422
143.0, 35918.672194322615, 49958.36168031236, 22240.388064430725, -26245.798319077294, 12692.303978479384, 51651.10399140167, 13762.706668699584, 30813.75727817503, -0.064, 0.986, 0.03, 192.0, 0.0, 0.0, 0.0, 0.0, 0.0, 0.0, 0.0, 0.0, 0.0, 1.700951384425675E9, 0.0, 2023-11-25 17:29:44.425
144.0, 36042.88083826075, 50021.7065240987, 22273.088666568838, -26166.427274516496, 12796.10547972983, 51757.27477756438, 13774.910721172182, 30827.838877181875, -0.064, 0.986, 0.03, 192.0, 0.0, 0.0, 0.0, 0.0, 0.0, 0.0, 0.0, 0.0, 0.0, 1.700951384430123E9, 0.0, 2023-11-25 17:29:44.430
145.0, 36097.15087379824, 49962.76497397006, 22292.02059412248, -26140.163974781513, 12925.790301059522, 52264.83819065549, 13769.76981994746, 30829.045871382463, -0.064, 0.986, 0.03, 192.0, 0.0, 0.0, 0.0, 0.0, 0.0, 0.0, 0.0, 0.0, 0.0, 1.700951384434028E9, 0.0, 2023-11-25 17:29:44.434
146.0, 35875.466272290505, 49857.62236805229, 22260.437579207133, -26315.714575733495, 12734.369961544271, 51664.13505841912, 13767.400535035198, 30803.22960653658, -0.064, 0.986, 0.03, 192.0, 0.0, 0.0, 0.0, 0.0, 0.0, 0.0, 0.0, 0.0, 0.0, 1.700951384437772E9, 0.0, 2023-11-25 17:29:44.437
147.0, 35915.40883963214, 49945.688241206204, 22240.902154553194, -26252.593249391706, 12700.84234486131, 51619.47627299742, 13755.10707558478, 30802.916682114206, -0.062, 0.984, 0.038, 192.0, 254.0, 16.0, 30.0, 192.0, 1.0, 48.0, 0.0, 0.0, 0.0, 1.700951384441739E9, 0.0, 2023-11-25 17:29:44.441
148.0, 36014.80704722489, 50023.74053284413, 22259.185881517635, -26206.526304069317, 12743.601232004314, 51651.46161931296, 13757.364601774765, 30802.581405947378, -0.062, 0.984, 0.038, 192.0, 0.0, 0.0, 0.0, 0.0, 0.0, 0.0, 0.0, 0.0, 0.0, 1.700951384445812E9, 0.0, 2023-11-25 17:29:44.445
149.0, 36116.798057174456, 49990.97287547265, 22285.22566380807, -26129.211619998412, 12931.579402873445, 52213.76445457512, 13747.015744091957, 30801.150894302238, -0.062, 0.984, 0.038, 192.0, 0.0, 0.0, 0.0, 0.0, 0.0, 0.0, 0.0, 0.0, 0.0, 1.700951384452011E9, 0.0, 2023-11-25 17:29:44.452
150.0, 35892.76652249891, 49862.60680706582, 22252.41330294768, -26323.53768629285, 12737.275688323462, 51732.17376854108, 13739.930241099626, 30768.874975308776, -0.062, 0.984, 0.038, 192.0, 0.0, 0.0, 0.0, 0.0, 0.0, 0.0, 0.0, 0.0, 0.0, 1.700951384453844E9, 0.0, 2023-11-25 17:29:44.453
151.0, 35904.5235400824, 49930.13142706531, 22234.30838993888, -26258.20353724999, 12709.783042643434, 51573.87871430859, 13745.67463942464, 30800.100362312838, -0.062, 0.984, 0.038, 192.0, 0.0, 0.0, 0.0, 0.0, 0.0, 0.0, 0.0, 0.0, 0.0, 1.700951384457798E9, 0.0, 2023-11-25 17:29:44.457
152.0, 35978.68662818511, 50006.97672450265, 22231.804994559883, -26226.352301401177, 12699.165964027163, 51602.332485000195, 13747.507482469975, 30798.446333223146, -0.062, 0.984, 0.038, 192.0, 0.0, 0.0, 0.0, 0.0, 0.0, 0.0, 0.0, 0.0, 0.0, 1.700951384462211E9, 0.0, 2023-11-25 17:29:44.462
153.0, 36112.55122572795, 49999.153613943294, 22271.054657823403, -26115.2641314583, 12920.381178901336, 52137.0085641156, 13756.53758722992, 30814.80781016443, -0.062, 0.984, 0.038, 192.0, 0.0, 0.0, 0.0, 0.0, 0.0, 0.0, 0.0, 0.0, 0.0, 1.700951384465907E9, 0.0, 2023-11-25 17:29:44.465
154.0, 35915.185322187586, 49858.158809919216, 22241.63976212022, -26297.07322085777, 12753.860682709299, 51866.39599399519, 13753.229529050534, 30789.729152885575, -0.062, 0.984, 0.038, 192.0, 0.0, 0.0, 0.0, 0.0, 0.0, 0.0, 0.0, 0.0, 0.0, 1.700951384469775E9, 0.0, 2023-11-25 17:29:44.469
155.0, 35885.5692607843, 49902.63878138528, 22225.68061657913, -26266.987772820925, 12703.993940829509, 51563.70867058142, 13766.506465256985, 30819.635786966777, -0.062, 0.984, 0.038, 192.0, 0.0, 0.0, 0.0, 0.0, 0.0, 0.0, 0.0, 0.0, 0.0, 1.700951384473788E9, 0.0, 2023-11-25 17:29:44.473
156.0, 35953.51856392843, 49994.45974760768, 22219.511535109465, -26234.063653238256, 12667.806466556367, 51587.222705748405, 13768.406363535687, 30822.228589323593, -0.062, 0.984, 0.038, 192.0, 0.0, 0.0, 0.0, 0.0, 0.0, 0.0, 0.0, 0.0, 0.0, 1.700951384478813E9, 0.0, 2023-11-25 17:29:44.478
157.0, 36098.80490288793, 50011.87175653836, 22260.79520711842, -26115.532352391765, 12886.160658140261, 52039.197330379175, 13771.759125203984, 30841.33933083288, -0.058, 0.982, 0.036000000000000004, 192.0, 254.0, 48.0, 30.0, 176.0, 1.0, 32.0, 0.0, 0.0, 0.0, 1.700951384481882E9, 0.0, 2023-11-25 17:29:44.481
158.0, 35950.746947615975, 49880.19762995215, 22239.181070230137, -26267.546566432306, 12774.938377730654, 51999.835908393376, 13757.074029096846, 30803.29666176995, -0.058, 0.982, 0.036000000000000004, 192.0, 0.0, 0.0, 0.0, 0.0, 0.0, 0.0, 0.0, 0.0, 0.0, 1.700951384485882E9, 0.0, 2023-11-25 17:29:44.485
159.0, 35866.235001830464, 49886.411414910726, 22227.4464043911, -26283.05867708429, 12700.305902994383, 51535.992507456845, 13770.239206581022, 30822.362699790327, -0.058, 0.982, 0.036000000000000004, 192.0, 0.0, 0.0, 0.0, 0.0, 0.0, 0.0, 0.0, 0.0, 0.0, 1.700951384489851E9, 0.0, 2023-11-25 17:29:44.489
160.0, 35925.511828125935, 49976.28777936551, 22211.86723850575, -26242.66907485355, 12653.344887893783, 51600.49964195486, 13765.835912923327, 30821.96036839013, -0.058, 0.982, 0.036000000000000004, 192.0, 0.0, 0.0, 0.0, 0.0, 0.0, 0.0, 0.0, 0.0, 0.0, 1.700951384493993E9, 0.0, 2023-11-25 17:29:44.493
161.0, 36068.38417868426, 50012.6540675943, 22253.486186681534, -26131.64796014404, 12847.73800942159, 51928.13151218075, 13775.402459550198, 30833.806792951444, -0.058, 0.982, 0.036000000000000004, 192.0, 0.0, 0.0, 0.0, 0.0, 0.0, 0.0, 0.0, 0.0, 0.0, 1.700951384497951E9, 0.0, 2023-11-25 17:29:44.497
162.0, 35993.43877952561, 49902.45996742964, 22244.456081921588, -26225.055900222767, 12820.468881186114, 52124.35747675389, 13761.209101821078, 30804.52600771499, -0.058, 0.982, 0.036000000000000004, 192.0, 0.0, 0.0, 0.0, 0.0, 0.0, 0.0, 0.0, 0.0, 0.0, 1.700951384501905E9, 0.0, 2023-11-25 17:29:44.501
163.0, 35853.785080168855, 49871.01106298102, 22226.999369501995, -26304.04696512782, 12699.277722749439, 51540.35109762563, 13767.86992166876, 30811.946786874152, -0.058, 0.982, 0.036000000000000004, 192.0, 0.0, 0.0, 0.0, 0.0, 0.0, 0.0, 0.0, 0.0, 0.0, 1.700951384506935E9, 0.0, 2023-11-25 17:29:44.506
164.0, 35910.893787252164, 49963.74845072609, 22207.374537870233, -26255.923659315547, 12652.584928582302, 51609.932078115, 13755.352944773787, 30806.15768506023, -0.058, 0.982, 0.036000000000000004, 192.0, 0.0, 0.0, 0.0, 0.0, 0.0, 0.0, 0.0, 0.0, 0.0, 1.700951384509966E9, 0.0, 2023-11-25 17:29:44.509
165.0, 36045.38423363975, 50020.208957220195, 22249.574631401854, -26162.51571923682, 12804.286218200472, 51800.01131296293, 13769.747468203006, 30822.362699790327, -0.058, 0.982, 0.036000000000000004, 192.0, 0.0, 0.0, 0.0, 0.0, 0.0, 0.0, 0.0, 0.0, 0.0, 1.700951384513052E9, 0.0, 2023-11-25 17:29:44.513
166.0, 36049.76517555299, 49939.519159736534, 22258.91766058417, -26187.66143174904, 12867.653413731268, 52182.583771059966, 13754.123598828746, 30805.308318770927, -0.058, 0.982, 0.036000000000000004, 192.0, 0.0, 0.0, 0.0, 0.0, 0.0, 0.0, 0.0, 0.0, 0.0, 1.700951384518019E9, 0.0, 2023-11-25 17:29:44.518
167.0, 35867.0173128864, 49861.511571587514, 22235.67184635065, -26318.44148855704, 12703.524554195948, 51550.811714030715, 13756.67169769665, 30796.591138433356, -0.06, 0.984, 0.038, 192.0, 254.0, 32.0, 30.0, 192.0, 1.0, 48.0, 0.0, 0.0, 0.0, 1.700951384521994E9, 0.0, 2023-11-25 17:29:44.521
168.0, 35920.30387166785, 49953.77957269902, 22217.365767641757, -26250.492185412906, 12670.287510190907, 51576.046833520755, 13757.856340152783, 30817.557074732435, -0.06, 0.984, 0.038, 192.0, 0.0, 0.0, 0.0, 0.0, 0.0, 0.0, 0.0, 0.0, 0.0, 1.700951384526163E9, 0.0, 2023-11-25 17:29:44.526
169.0, 36030.92265497716, 50018.77844557506, 22240.611581875277, -26184.018097402826, 12756.945223444132, 51662.659843285066, 13764.472456511552, 30818.607606721835, -0.06, 0.984, 0.038, 192.0, 0.0, 0.0, 0.0, 0.0, 0.0, 0.0, 0.0, 0.0, 0.0, 1.700951384530114E9, 0.0, 2023-11-25 17:29:44.530
170.0, 36092.1664347847, 49961.87090419184, 22256.25780299399, -26148.165899296513, 12896.084832678418, 52188.03759670706, 13751.866072638759, 30809.66690893971, -0.06, 0.984, 0.038, 192.0, 0.0, 0.0, 0.0, 0.0, 0.0, 0.0, 0.0, 0.0, 0.0, 1.700951384533072E9, 0.0, 2023-11-25 17:29:44.533
171.0, 35872.024103644384, 49851.095658671344, 22228.340474169312, -26318.419136812587, 12709.827746132345, 51613.64246769458, 13757.029325607935, 30800.927376857686, -0.06, 0.984, 0.038, 192.0, 0.0, 0.0, 0.0, 0.0, 0.0, 0.0, 0.0, 0.0, 0.0, 1.70095138453704E9, 0.0, 2023-11-25 17:29:44.537
172.0, 35901.68486853658, 49929.84085438739, 22210.570837327345, -26250.693351113005, 12684.100888264285, 51570.25773170683, 13759.689183198117, 30827.30243531495, -0.06, 0.984, 0.038, 192.0, 0.0, 0.0, 0.0, 0.0, 0.0, 0.0, 0.0, 0.0, 0.0, 1.700951384541216E9, 0.0, 2023-11-25 17:29:44.541
173.0, 35992.902337658685, 50003.37809364535, 22223.512497366966, -26206.928635469514, 12716.488565980026, 51603.53947920078, 13767.355831546287, 30828.15180160425, -0.06, 0.984, 0.038, 192.0, 0.0, 0.0, 0.0, 0.0, 0.0, 0.0, 0.0, 0.0, 0.0, 1.700951384545105E9, 0.0, 2023-11-25 17:29:44.545
174.0, 36105.64453669125, 49975.28195086503, 22253.083855281337, -26123.78014609577, 12912.848641019898, 52164.680023751265, 13764.852436167293, 30832.219819095117, -0.06, 0.984, 0.038, 192.0, 0.0, 0.0, 0.0, 0.0, 0.0, 0.0, 0.0, 0.0, 0.0, 1.70095138455011E9, 0.0, 2023-11-25 17:29:44.550
175.0, 35887.35740034073, 49838.24340560954, 22220.383253143224, -26315.915741433593, 12716.645028191213, 51719.567384668284, 13757.699877941595, 30803.989565848064, -0.06, 0.984, 0.038, 192.0, 0.0, 0.0, 0.0, 0.0, 0.0, 0.0, 0.0, 0.0, 0.0, 1.700951384554159E9, 0.0, 2023-11-25 17:29:44.554
176.0, 35895.20286264454, 49906.70679887615, 22209.140325682205, -26256.638915138115, 12689.957045311576, 51540.08287669216, 13761.432619265632, 30827.190676592672, -0.06, 0.984, 0.038, 192.0, 0.0, 0.0, 0.0, 0.0, 0.0, 0.0, 0.0, 0.0, 0.0, 1.700951384558152E9, 0.0, 2023-11-25 17:29:44.558
177.0, 35970.17061354764, 49989.65412254979, 22212.20251467258, -26225.77115604534, 12677.618882372248, 51547.68246980697, 13761.991412877014, 30825.760164947533, -0.064, 0.986, 0.03, 192.0, 254.0, 0.0, 30.0, 208.0, 0.0, 240.0, 0.0, 0.0, 0.0, 1.700951384562145E9, 0.0, 2023-11-25 17:29:44.562
178.0, 36113.80292341744, 49992.26927665106, 22254.916698326673, -26107.77629706577, 12902.879762992832, 52067.986377237605, 13764.383049533732, 30840.802888965954, -0.064, 0.986, 0.03, 192.0, 0.0, 0.0, 0.0, 0.0, 0.0, 0.0, 0.0, 0.0, 0.0, 1.700951384566166E9, 0.0, 2023-11-25 17:29:44.566
179.0, 35923.92485426961, 49852.25794938302, 22221.009101987973, -26290.50180798791, 12738.460330779593, 51840.42326693812, 13747.328668514332, 30790.71262964161, -0.064, 0.986, 0.03, 192.0, 0.0, 0.0, 0.0, 0.0, 0.0, 0.0, 0.0, 0.0, 0.0, 1.700951384569124E9, 0.0, 2023-11-25 17:29:44.569
180.0, 35882.663534005114, 49890.457080657136, 22202.144229667694, -26271.59223217872, 12681.8433620743, 51504.6553617305, 13759.018630864459, 30799.854493123832, -0.064, 0.986, 0.03, 192.0, 0.0, 0.0, 0.0, 0.0, 0.0, 0.0, 0.0, 0.0, 0.0, 1.700951384573171E9, 0.0, 2023-11-25 17:29:44.573
181.0, 35943.92966555711, 49976.48894506561, 22188.308499849856, -26246.96060978897, 12635.843471985278, 51532.43858008845, 13757.118732585757, 30804.034269336975, -0.064, 0.986, 0.03, 192.0, 0.0, 0.0, 0.0, 0.0, 0.0, 0.0, 0.0, 0.0, 0.0, 1.700951384577157E9, 0.0, 2023-11-25 17:29:44.577
182.0, 36099.34134475486, 50002.61813433387, 22239.58340163033, -26124.78597459626, 12862.512512506548, 51953.076058992876, 13773.279043826944, 30841.071109899418, -0.064, 0.986, 0.03, 192.0, 0.0, 0.0, 0.0, 0.0, 0.0, 0.0, 0.0, 0.0, 0.0, 1.70095138458283E9, 0.0, 2023-11-25 17:29:44.582
183.0, 35969.94709610309, 49876.420185139206, 22224.317160167357, -26262.00333380739, 12768.970461961087, 51952.09258223684, 13765.05360186739, 30809.018708350508, -0.064, 0.986, 0.03, 192.0, 0.0, 0.0, 0.0, 0.0, 0.0, 0.0, 0.0, 0.0, 0.0, 1.700951384586173E9, 0.0, 2023-11-25 17:29:44.586
184.0, 35869.81128094331, 49871.301635658936, 22199.260854632957, -26291.887616144137, 12672.477981147525, 51502.3084285627, 13770.641537981217, 30813.422002008203, -0.064, 0.986, 0.03, 192.0, 0.0, 0.0, 0.0, 0.0, 0.0, 0.0, 0.0, 0.0, 0.0, 1.700951384589206E9, 0.0, 2023-11-25 17:29:44.589
185.0, 35926.80822930434, 49966.05068040499, 22185.15690388166, -26254.426092437043, 12625.360503835738, 51552.555150098226, 13764.047773366901, 30810.538626973466, -0.064, 0.986, 0.03, 192.0, 0.0, 0.0, 0.0, 0.0, 0.0, 0.0, 0.0, 0.0, 0.0, 1.700951384593229E9, 0.0, 2023-11-25 17:29:44.593
186.0, 36071.960457797104, 50005.389750646325, 22230.039206747915, -26141.907410849028, 12816.400863695248, 51839.328031459816, 13775.737735717028, 30831.05752838344, -0.064, 0.986, 0.03, 192.0, 0.0, 0.0, 0.0, 0.0, 0.0, 0.0, 0.0, 0.0, 0.0, 1.700951384597265E9, 0.0, 2023-11-25 17:29:44.597
187.0, 36008.86148319978, 49899.39777843926, 22221.523192110442, -26220.518496098342, 12802.922761788699, 52073.01551974005, 13758.079857597335, 30801.01678383551, -0.058, 0.984, 0.036000000000000004, 192.0, 254.0, 48.0, 30.0, 192.0, 1.0, 32.0, 0.0, 0.0, 0.0, 1.700951384601242E9, 0.0, 2023-11-25 17:29:44.601
188.0, 35854.72385343598, 49857.55531281893, 22199.4396685886, -26306.259787828898, 12668.119390978742, 51489.12089933406, 13762.281985554933, 30795.25003376604, -0.058, 0.984, 0.036000000000000004, 192.0, 0.0, 0.0, 0.0, 0.0, 0.0, 0.0, 0.0, 0.0, 0.0, 1.700951384606278E9, 0.0, 2023-11-25 17:29:44.606
189.0, 35914.69358380957, 49952.326709309425, 22180.507741034955, -26252.883822069627, 12623.460605557038, 51542.988603471356, 13753.609508706273, 30795.60766167732, -0.058, 0.984, 0.036000000000000004, 192.0, 0.0, 0.0, 0.0, 0.0, 0.0, 0.0, 0.0, 0.0, 0.0, 1.700951384610266E9, 0.0, 2023-11-25 17:29:44.610
190.0, 36045.8089167844, 50007.84844253641, 22213.789488528906, -26163.90152739305, 12759.00158393402, 51710.827852586255, 13754.861206395772, 30790.33264998587, -0.058, 0.984, 0.036000000000000004, 192.0, 0.0, 0.0, 0.0, 0.0, 0.0, 0.0, 0.0, 0.0, 0.0, 1.700951384614861E9, 0.0, 2023-11-25 17:29:44.614
191.0, 36053.83319304385, 49923.180034539706, 22219.73505255402, -26179.681858978496, 12829.476634201603, 52133.633450702844, 13735.48224395302, 30778.75444635802, -0.058, 0.984, 0.036000000000000004, 192.0, 0.0, 0.0, 0.0, 0.0, 0.0, 0.0, 0.0, 0.0, 0.0, 1.70095138461728E9, 0.0, 2023-11-25 17:29:44.617
192.0, 35857.964856382, 49837.37168757578, 22197.62917728772, -26317.726232734472, 12662.21853044254, 51508.790434454735, 13747.507482469975, 30791.606699419823, -0.058, 0.984, 0.036000000000000004, 192.0, 0.0, 0.0, 0.0, 0.0, 0.0, 0.0, 0.0, 0.0, 0.0, 1.70095138462136E9, 0.0, 2023-11-25 17:29:44.621
193.0, 35910.96084248553, 49931.15960731025, 22183.72639223652, -26246.871202811148, 12633.07185567282, 51523.274364861776, 13745.67463942464, 30808.43756299467, -0.058, 0.984, 0.036000000000000004, 192.0, 0.0, 0.0, 0.0, 0.0, 0.0, 0.0, 0.0, 0.0, 0.0, 1.700951384625364E9, 0.0, 2023-11-25 17:29:44.625
194.0, 36023.0548409289, 50003.53455585654, 22212.649549561687, -26178.45251303345, 12715.750958413, 51601.23724952189, 13759.018630864459, 30826.989510892574, -0.058, 0.984, 0.036000000000000004, 192.0, 0.0, 0.0, 0.0, 0.0, 0.0, 0.0, 0.0, 0.0, 0.0, 1.700951384629328E9, 0.0, 2023-11-25 17:29:44.629
195.0, 36095.96623134211, 49952.97490989863, 22233.369616671756, -26131.111518277114, 12864.613576485346, 52150.196093344224, 13753.76597091746, 30827.391842292767, -0.058, 0.984, 0.036000000000000004, 192.0, 0.0, 0.0, 0.0, 0.0, 0.0, 0.0, 0.0, 0.0, 0.0, 1.700951384633313E9, 0.0, 2023-11-25 17:29:44.633
196.0, 35873.856946689724, 49837.14817013123, 22201.808953500862, -26315.759279222406, 12668.521722378937, 51587.513278426326, 13754.05654359538, 30801.75439140253, -0.058, 0.984, 0.036000000000000004, 192.0, 0.0, 0.0, 0.0, 0.0, 0.0, 0.0, 0.0, 0.0, 0.0, 1.700951384638342E9, 0.0, 2023-11-25 17:29:44.638
197.0, 35903.40595285963, 49916.49686294757, 22181.178293368615, -26248.726397600938, 12638.659791786647, 51511.025608900265, 13750.010877848968, 30814.025499108495, -0.056, 0.978, 0.036000000000000004, 192.0, 254.0, 64.0, 30.0, 144.0, 1.0, 32.0, 0.0, 0.0, 0.0, 1.700951384642336E9, 0.0, 2023-11-25 17:29:44.642
198.0, 35987.56027073387, 49992.78336677353, 22188.330851594314, -26208.783830259305, 12657.725829807023, 51528.30350736422, 13752.603680205784, 30801.061487324416, -0.056, 0.978, 0.036000000000000004, 192.0, 0.0, 0.0, 0.0, 0.0, 0.0, 0.0, 0.0, 0.0, 0.0, 1.700951384645331E9, 0.0, 2023-11-25 17:29:44.645
199.0, 36105.84570239135, 49972.97972118613, 22220.11503220976, -26120.98617803886, 12860.366745038837, 52086.448918157694, 13754.548281973397, 30804.70482167063, -0.056, 0.978, 0.036000000000000004, 192.0, 0.0, 0.0, 0.0, 0.0, 0.0, 0.0, 0.0, 0.0, 0.0, 1.700951384649491E9, 0.0, 2023-11-25 17:29:44.649
200.0, 35890.57605154229, 49841.23853936655, 22191.460095818056, -26314.73109897746, 12675.718984093546, 51672.33814863422, 13757.252843052489, 30788.388048218258, -0.056, 0.978, 0.036000000000000004, 192.0, 0.0, 0.0, 0.0, 0.0, 0.0, 0.0, 0.0, 0.0, 0.0, 1.700951384653543E9, 0.0, 2023-11-25 17:29:44.653
201.0, 35888.49733930795, 49904.76219710853, 22177.311441577847, -26262.897403585604, 12640.760855765446, 51474.16758229346, 13765.433581523132, 30822.13918234577, -0.056, 0.978, 0.036000000000000004, 192.0, 0.0, 0.0, 0.0, 0.0, 0.0, 0.0, 0.0, 0.0, 0.0, 1.700951384657384E9, 0.0, 2023-11-25 17:29:44.657
202.0, 35961.386377976705, 49988.91651498277, 22178.876063689717, -26230.129746214123, 12621.73952123398, 51488.11507083358, 13769.903930414193, 30825.49194401407, -0.056, 0.978, 0.036000000000000004, 192.0, 0.0, 0.0, 0.0, 0.0, 0.0, 0.0, 0.0, 0.0, 0.0, 1.700951384661384E9, 0.0, 2023-11-25 17:29:44.661
203.0, 36105.6221849468, 49991.77753827305, 22224.473622378544, -26112.179590723466, 12847.760361166045, 52005.222678807106, 13776.810619450882, 30845.027368668005, -0.056, 0.978, 0.036000000000000004, 192.0, 0.0, 0.0, 0.0, 0.0, 0.0, 0.0, 0.0, 0.0, 0.0, 1.700951384665432E9, 0.0, 2023-11-25 17:29:44.665
204.0, 35920.281519923396, 49854.738993017556, 22199.05968893286, -26289.607738209696, 12698.920094838155, 51811.36599914623, 13764.226587322544, 30803.90015887024, -0.056, 0.978, 0.036000000000000004, 192.0, 0.0, 0.0, 0.0, 0.0, 0.0, 0.0, 0.0, 0.0, 0.0, 1.700951384670404E9, 0.0, 2023-11-25 17:29:44.670
205.0, 35866.167946597096, 49882.701025331146, 22181.178293368615, -26275.973174091956, 12640.537338320892, 51460.77888736474, 13768.67458446915, 30817.400612521247, -0.056, 0.978, 0.036000000000000004, 192.0, 0.0, 0.0, 0.0, 0.0, 0.0, 0.0, 0.0, 0.0, 0.0, 1.700951384673392E9, 0.0, 2023-11-25 17:29:44.673
206.0, 35925.15420021465, 49967.61530251686, 22171.611746741743, -26248.81580457876, 12596.526753488393, 51494.12769009206, 13763.91366290017, 30808.39285950576, -0.056, 0.978, 0.036000000000000004, 192.0, 0.0, 0.0, 0.0, 0.0, 0.0, 0.0, 0.0, 0.0, 0.0, 1.700951384677384E9, 0.0, 2023-11-25 17:29:44.677
207.0, 36077.57074565539, 49993.61038131838, 22221.67965432163, -26129.83746884316, 12817.63020964029, 51880.58935172431, 13772.049697881903, 30822.072127112406, -0.054, 0.98, 0.034, 192.0, 254.0, 80.0, 30.0, 160.0, 1.0, 16.0, 0.0, 0.0, 0.0, 1.700951384681401E9, 0.0, 2023-11-25 17:29:44.681
208.0, 35951.43985169409, 49866.20543792313, 22202.144229667694, -26263.97028731946, 12732.648877221212, 51915.167500396674, 13753.855377895283, 30784.878824338775, -0.054, 0.98, 0.034, 192.0, 0.0, 0.0, 0.0, 0.0, 0.0, 0.0, 0.0, 0.0, 0.0, 1.700951384686181E9, 0.0, 2023-11-25 17:29:44.686
209.0, 35847.459536488, 49861.48921984306, 22186.833284715805, -26302.0576598713, 12638.860957486744, 51398.484575567796, 13766.662927468173, 30802.112019313816, -0.054, 0.98, 0.034, 192.0, 0.0, 0.0, 0.0, 0.0, 0.0, 0.0, 0.0, 0.0, 0.0, 1.700951384689484E9, 0.0, 2023-11-25 17:29:44.689
210.0, 35906.11051393873, 49950.78443894201, 22166.04616237237, -26263.232679752433, 12585.909674872122, 51450.832361082124, 13754.592985462306, 30795.38414423277, -0.054, 0.98, 0.034, 192.0, 0.0, 0.0, 0.0, 0.0, 0.0, 0.0, 0.0, 0.0, 0.0, 1.700951384693524E9, 0.0, 2023-11-25 17:29:44.693
211.0, 36056.180126211664, 49999.42183487676, 22211.39785187219, -26149.663466175018, 12771.250339895529, 51722.94249808103, 13762.19257857711, 30814.29372004196, -0.054, 0.98, 0.034, 192.0, 0.0, 0.0, 0.0, 0.0, 0.0, 0.0, 0.0, 0.0, 0.0, 1.700951384698505E9, 0.0, 2023-11-25 17:29:44.698
212.0, 36011.297823345405, 49901.297676717964, 22211.241389661, -26212.784792516806, 12779.67694755518, 51995.700835669144, 13750.524967971442, 30799.34040300136, -0.054, 0.98, 0.034, 192.0, 0.0, 0.0, 0.0, 0.0, 0.0, 0.0, 0.0, 0.0, 0.0, 1.700951384701514E9, 0.0, 2023-11-25 17:29:44.701
213.0, 35851.63931270115, 49852.146190660744, 22191.30363360687, -26301.856494171203, 12646.952288979566, 51407.93936347239, 13763.690145455617, 30810.829199651387, -0.054, 0.98, 0.034, 192.0, 0.0, 0.0, 0.0, 0.0, 0.0, 0.0, 0.0, 0.0, 0.0, 1.700951384705516E9, 0.0, 2023-11-25 17:29:44.705
214.0, 35910.08912445178, 49948.616319729845, 22176.931461922108, -26240.456252152475, 12610.720111217513, 51469.38430898003, 13758.996279120003, 30824.709632958133, -0.054, 0.98, 0.034, 192.0, 0.0, 0.0, 0.0, 0.0, 0.0, 0.0, 0.0, 0.0, 0.0, 1.700951384710524E9, 0.0, 2023-11-25 17:29:44.710
215.0, 36036.48823934654, 50008.31782916997, 22214.705910051576, -26151.585716198173, 12741.656630236701, 51638.31879357324, 13767.735811202028, 30839.350025576357, -0.054, 0.98, 0.034, 192.0, 0.0, 0.0, 0.0, 0.0, 0.0, 0.0, 0.0, 0.0, 0.0, 1.700951384713604E9, 0.0, 2023-11-25 17:29:44.713
216.0, 36053.252047688016, 49926.89042411929, 22219.48918336501, -26159.073550590703, 12822.882869587287, 52110.141767280315, 13750.234395293523, 30829.38114754929, -0.05, 0.982, 0.036000000000000004, 192.0, 254.0, 112.0, 30.0, 176.0, 1.0, 32.0, 0.0, 0.0, 0.0, 1.700951384718096E9, 0.0, 2023-11-25 17:29:44.718
217.0, 35849.78411791135, 49833.75070497402, 22193.069421418837, -26311.624206498174, 12646.50525409046, 51479.911980618475, 13757.029325607935, 30822.742679446066, -0.05, 0.982, 0.036000000000000004, 192.0, 0.0, 0.0, 0.0, 0.0, 0.0, 0.0, 0.0, 0.0, 0.0, 1.700951384722008E9, 0.0, 2023-11-25 17:29:44.722
218.0, 35897.92977546809, 49922.30831650595, 22175.05391538786, -26243.898420798592, 12614.11757637472, 51472.513553203775, 13754.905909884681, 30836.086670885885, -0.05, 0.982, 0.036000000000000004, 192.0, 0.0, 0.0, 0.0, 0.0, 0.0, 0.0, 0.0, 0.0, 0.0, 1.700951384726621E9, 0.0, 2023-11-25 17:29:44.726
219.0, 36005.46401804257, 49989.8999917388, 22197.24919763198, -26183.302841580255, 12684.682033620124, 51545.64846106154, 13763.53368324443, 30842.032234910996, -0.05, 0.982, 0.036000000000000004, 192.0, 0.0, 0.0, 0.0, 0.0, 0.0, 0.0, 0.0, 0.0, 0.0, 1.700951384729581E9, 0.0, 2023-11-25 17:29:44.729
220.0, 36087.517271938, 49945.55413073947, 22217.656340319674, -26129.949227565437, 12839.646677928768, 52097.51303166307, 13755.241186051511, 30833.583275506888, -0.05, 0.982, 0.036000000000000004, 192.0, 0.0, 0.0, 0.0, 0.0, 0.0, 0.0, 0.0, 0.0, 0.0, 1.700951384732591E9, 0.0, 2023-11-25 17:29:44.732
221.0, 35860.87058316119, 49828.587452004846, 22184.374592825723, -26317.63682575665, 12642.25842264395, 51546.43077211747, 13746.009915591469, 30795.47355121059, -0.05, 0.982, 0.036000000000000004, 192.0, 0.0, 0.0, 0.0, 0.0, 0.0, 0.0, 0.0, 0.0, 0.0, 1.70095138473761E9, 0.0, 2023-11-25 17:29:44.737
222.0, 35878.99784791444, 49905.276287231005, 22164.19096758258, -26252.459138924976, 12613.089396129775, 51467.77498337925, 13744.266479523956, 30822.295644556958, -0.05, 0.982, 0.036000000000000004, 192.0, 0.0, 0.0, 0.0, 0.0, 0.0, 0.0, 0.0, 0.0, 0.0, 1.700951384741703E9, 0.0, 2023-11-25 17:29:44.741
223.0, 35965.007360578464, 49988.536535327024, 22177.311441577847, -26212.650682050073, 12631.9319167056, 51482.370672508565, 13752.581328461329, 30826.38601379228, -0.05, 0.982, 0.036000000000000004, 192.0, 0.0, 0.0, 0.0, 0.0, 0.0, 0.0, 0.0, 0.0, 0.0, 1.700951384745657E9, 0.0, 2023-11-25 17:29:44.745
224.0, 36093.19461502965, 49970.588084529416, 22212.962473984062, -26118.25926521531, 12838.35027675036, 52045.746391504574, 13752.044886594402, 30835.505525530047, -0.05, 0.982, 0.036000000000000004, 192.0, 0.0, 0.0, 0.0, 0.0, 0.0, 0.0, 0.0, 0.0, 0.0, 1.700951384749648E9, 0.0, 2023-11-25 17:29:44.749
225.0, 35881.72476073799, 49829.16859736069, 22180.99947941297, -26314.59698851073, 12651.959079737555, 51664.626796797136, 13741.67367716714, 30793.86422560981, -0.05, 0.982, 0.036000000000000004, 192.0, 0.0, 0.0, 0.0, 0.0, 0.0, 0.0, 0.0, 0.0, 0.0, 1.700951384753709E9, 0.0, 2023-11-25 17:29:44.753
226.0, 35872.2699728334, 49884.75738582103, 22166.29203156138, -26267.65832515458, 12616.240992097974, 51435.90139578598, 13752.871901139248, 30812.550283974444, -0.06, 0.98, 0.03, 192.0, 254.0, 32.0, 30.0, 160.0, 0.0, 240.0, 0.0, 0.0, 0.0, 1.700951384756644E9, 0.0, 2023-11-25 17:29:44.756
227.0, 35946.99185454749, 49973.873790964346, 22170.51651126343, -26229.57095260274, 12599.745404689957, 51444.193892978896, 13763.15370358869, 30827.593007992866, -0.06, 0.98, 0.03, 192.0, 0.0, 0.0, 0.0, 0.0, 0.0, 0.0, 0.0, 0.0, 0.0, 1.70095138476076E9, 0.0, 2023-11-25 17:29:44.760
228.0, 36099.36369649931, 49981.696901523705, 22212.358976883766, -26108.379794166067, 12826.7273696336, 51947.48812287905, 13768.29460481341, 30850.01180768154, -0.06, 0.98, 0.03, 192.0, 0.0, 0.0, 0.0, 0.0, 0.0, 0.0, 0.0, 0.0, 0.0, 1.700951384765693E9, 0.0, 2023-11-25 17:29:44.765
229.0, 35932.06088925134, 49847.9664144476, 22188.57672078332, -26279.750618904905, 12687.721870866046, 51777.88308595218, 13756.112904085268, 30813.91374038622, -0.06, 0.98, 0.03, 192.0, 0.0, 0.0, 0.0, 0.0, 0.0, 0.0, 0.0, 0.0, 0.0, 1.700951384769709E9, 0.0, 2023-11-25 17:29:44.769
230.0, 35874.32633332328, 49870.63108332528, 22172.885796175695, -26270.698162400506, 12625.561669535837, 51393.50013655426, 13763.488979755519, 30828.10709811534, -0.06, 0.98, 0.03, 192.0, 0.0, 0.0, 0.0, 0.0, 0.0, 0.0, 0.0, 0.0, 0.0, 1.700951384773698E9, 0.0, 2023-11-25 17:29:44.773
231.0, 35926.02591824841, 49951.29852906449, 22154.691476189077, -26247.184127233522, 12573.839732866256, 51437.2425004533, 13753.006011605981, 30823.81556317992, -0.06, 0.98, 0.03, 192.0, 0.0, 0.0, 0.0, 0.0, 0.0, 0.0, 0.0, 0.0, 0.0, 1.700951384777699E9, 0.0, 2023-11-25 17:29:44.777
232.0, 36075.08970202085, 49980.69107302321, 22200.266683133446, -26129.725710120885, 12788.52823835948, 51818.04917073836, 13765.05360186739, 30848.67070301422, -0.06, 0.98, 0.03, 192.0, 0.0, 0.0, 0.0, 0.0, 0.0, 0.0, 0.0, 0.0, 0.0, 1.700951384781754E9, 0.0, 2023-11-25 17:29:44.781
233.0, 35968.62834318022, 49860.77396402049, 22182.25117710247, -26252.950877302992, 12719.70721718159, 51900.50475603399, 13747.395723747699, 30816.417135765212, -0.06, 0.98, 0.03, 192.0, 0.0, 0.0, 0.0, 0.0, 0.0, 0.0, 0.0, 0.0, 0.0, 1.700951384785563E9, 0.0, 2023-11-25 17:29:44.785
234.0, 35853.718024935486, 49851.98972844955, 22165.844996672273, -26302.59410173823, 12619.571402021815, 51369.56141824263, 13759.130389586735, 30820.14987708925, -0.06, 0.98, 0.03, 192.0, 0.0, 0.0, 0.0, 0.0, 0.0, 0.0, 0.0, 0.0, 0.0, 1.7009513847888E9, 0.0, 2023-11-25 17:29:44.788
235.0, 35910.31264189633, 49951.142066853296, 22152.00926685444, -26256.750673860395, 12572.92331134359, 51405.90535472696, 13758.236319808522, 30815.746583431555, -0.06, 0.98, 0.03, 192.0, 0.0, 0.0, 0.0, 0.0, 0.0, 0.0, 0.0, 0.0, 0.0, 1.700951384793028E9, 0.0, 2023-11-25 17:29:44.793
236.0, 36055.01783549999, 49996.35964588638, 22192.667090018644, -26153.59737319915, 12747.512787283993, 51656.80368623778, 13768.987508891525, 30823.301473057447, -0.062, 0.98, 0.032, 192.0, 254.0, 16.0, 30.0, 160.0, 1.0, 0.0, 0.0, 0.0, 0.0, 1.700951384797812E9, 0.0, 2023-11-25 17:29:44.797
237.0, 36020.21616938307, 49891.507612646536, 22188.174389383126, -26214.99761521788, 12761.259110124007, 51971.67271037969, 13751.441389494108, 30800.793266390952, -0.062, 0.98, 0.032, 192.0, 0.0, 0.0, 0.0, 0.0, 0.0, 0.0, 0.0, 0.0, 0.0, 1.700951384802108E9, 0.0, 2023-11-25 17:29:44.802
238.0, 35853.18158306856, 49837.23757710905, 22169.890662418686, -26316.25101760042, 12619.102015388253, 51353.55756921263, 13755.062372095868, 30804.011917592517, -0.062, 0.98, 0.032, 192.0, 0.0, 0.0, 0.0, 0.0, 0.0, 0.0, 0.0, 0.0, 0.0, 1.700951384805971E9, 0.0, 2023-11-25 17:29:44.805
239.0, 35902.75775227043, 49927.60567994186, 22147.404807496645, -26257.555336660786, 12575.292596255851, 51404.899526226465, 13748.759180159472, 30807.94582461665, -0.062, 0.98, 0.032, 192.0, 0.0, 0.0, 0.0, 0.0, 0.0, 0.0, 0.0, 0.0, 0.0, 1.700951384808958E9, 0.0, 2023-11-25 17:29:44.808
240.0, 36027.83811424233, 49990.03410220553, 22183.39111606969, -26173.602184486652, 12701.535248939426, 51546.14019943956, 13769.3004333139, 30829.15763010474, -0.062, 0.98, 0.032, 192.0, 0.0, 0.0, 0.0, 0.0, 0.0, 0.0, 0.0, 0.0, 0.0, 1.700951384812838E9, 0.0, 2023-11-25 17:29:44.812
241.0, 36063.48914664855, 49924.87876711831, 22200.35609011127, -26162.314553536722, 12807.840145568865, 52016.19738533466, 13761.924357643647, 30835.30435982995, -0.062, 0.98, 0.032, 192.0, 0.0, 0.0, 0.0, 0.0, 0.0, 0.0, 0.0, 0.0, 0.0, 1.700951384816822E9, 0.0, 2023-11-25 17:29:44.816
242.0, 35851.32638827877, 49826.39698104823, 22171.321174063825, -26319.223799612977, 12623.304143345851, 51410.88979374049, 13762.952537888592, 30811.29858628495, -0.062, 0.98, 0.032, 192.0, 0.0, 0.0, 0.0, 0.0, 0.0, 0.0, 0.0, 0.0, 0.0, 1.700951384820902E9, 0.0, 2023-11-25 17:29:44.820
243.0, 35896.29809812285, 49919.402589726764, 22155.920822134118, -26247.00531327788, 12595.722090688001, 51397.94813370087, 13765.902968156692, 30827.10126961485, -0.062, 0.98, 0.032, 192.0, 0.0, 0.0, 0.0, 0.0, 0.0, 0.0, 0.0, 0.0, 0.0, 1.700951384825902E9, 0.0, 2023-11-25 17:29:44.825
244.0, 35998.33381156133, 49993.23040166264, 22177.35614506676, -26186.99087941538, 12660.7880187974, 51463.95283507739, 13777.123543873256, 30836.377243563802, -0.062, 0.98, 0.032, 192.0, 0.0, 0.0, 0.0, 0.0, 0.0, 0.0, 0.0, 0.0, 0.0, 1.700951384829868E9, 0.0, 2023-11-25 17:29:44.829
245.0, 36090.89238535075, 49948.01282262956, 22198.992633699494, -26129.636303143063, 12827.844956856366, 52034.77168497702, 13761.499674498997, 30831.705728972644, -0.062, 0.98, 0.032, 192.0, 0.0, 0.0, 0.0, 0.0, 0.0, 0.0, 0.0, 0.0, 0.0, 1.700951384833947E9, 0.0, 2023-11-25 17:29:44.833
246.0, 35867.82197568679, 49824.72060021408, 22168.258985073448, -26321.704843247517, 12629.182652137597, 51500.52028900627, 13755.576462218341, 30796.30056575544, -0.064, 0.98, 0.038, 192.0, 254.0, 0.0, 30.0, 160.0, 1.0, 48.0, 0.0, 0.0, 0.0, 1.700951384836877E9, 0.0, 2023-11-25 17:29:44.836
247.0, 35887.0221241739, 49901.96822905162, 22151.741045920975, -26252.928525558535, 12601.645302968658, 51390.773223730714, 13759.1974448201, 30820.86513291182, -0.064, 0.98, 0.038, 192.0, 0.0, 0.0, 0.0, 0.0, 0.0, 0.0, 0.0, 0.0, 0.0, 1.700951384840969E9, 0.0, 2023-11-25 17:29:44.840
248.0, 35960.51465994295, 49976.35483459888, 22154.15503432215, -26218.886818753104, 12603.679311714091, 51417.483558354805, 13760.493845998508, 30823.61439747982, -0.064, 0.98, 0.038, 192.0, 0.0, 0.0, 0.0, 0.0, 0.0, 0.0, 0.0, 0.0, 0.0, 1.700951384844947E9, 0.0, 2023-11-25 17:29:44.844
249.0, 36094.89334760825, 49967.88352345032, 22198.277377876926, -26117.901637304025, 12823.240497498573, 51957.90403579522, 13772.407325793187, 30846.301418101957, -0.064, 0.98, 0.038, 192.0, 0.0, 0.0, 0.0, 0.0, 0.0, 0.0, 0.0, 0.0, 0.0, 1.700951384848908E9, 0.0, 2023-11-25 17:29:44.848
250.0, 35882.01533341591, 49824.89941416972, 22165.040333871882, -26309.947825664025, 12641.923146477122, 51609.14976705906, 13765.67945071214, 30809.398688006248, -0.064, 0.98, 0.038, 192.0, 0.0, 0.0, 0.0, 0.0, 0.0, 0.0, 0.0, 0.0, 0.0, 1.700951384854033E9, 0.0, 2023-11-25 17:29:44.854
251.0, 35860.155327338616, 49870.273455414, 22146.868365629718, -26274.274441513353, 12599.432480267584, 51358.698470437346, 13764.852436167293, 30823.927321902196, -0.064, 0.98, 0.038, 192.0, 0.0, 0.0, 0.0, 0.0, 0.0, 0.0, 0.0, 0.0, 0.0, 1.70095138485796E9, 0.0, 2023-11-25 17:29:44.857
252.0, 35924.14837171416, 49957.422907045235, 22145.05787432884, -26241.037397508313, 12573.258587510418, 51376.71397646832, 13762.125523343746, 30821.178057334193, -0.064, 0.98, 0.038, 192.0, 0.0, 0.0, 0.0, 0.0, 0.0, 0.0, 0.0, 0.0, 0.0, 1.700951384861963E9, 0.0, 2023-11-25 17:29:44.861
253.0, 36080.297658478936, 49973.38205258633, 22193.069421418837, -26117.678119859473, 12805.470860656604, 51859.75752589197, 13772.228511837544, 30842.166345377726, -0.064, 0.98, 0.038, 192.0, 0.0, 0.0, 0.0, 0.0, 0.0, 0.0, 0.0, 0.0, 0.0, 1.700951384864945E9, 0.0, 2023-11-25 17:29:44.864
254.0, 35923.142543213675, 49840.34446958834, 22171.6340984862, -26282.231662539445, 12677.149495738686, 51739.43808548905, 13763.645441966706, 30816.774763676498, -0.064, 0.98, 0.038, 192.0, 0.0, 0.0, 0.0, 0.0, 0.0, 0.0, 0.0, 0.0, 0.0, 1.700951384869025E9, 0.0, 2023-11-25 17:29:44.869
255.0, 35855.819088914286, 49858.29292038595, 22152.90333663265, -26284.265671284877, 12606.249762326452, 51341.53233069567, 13768.495770513508, 30831.43750803918, -0.064, 0.98, 0.038, 192.0, 0.0, 0.0, 0.0, 0.0, 0.0, 0.0, 0.0, 0.0, 0.0, 1.700951384872998E9, 0.0, 2023-11-25 17:29:44.872
0.0, 35918.672194322615, 49951.74556395359, 22141.81687138282, -26249.24048772341, 12560.473389681983, 51376.26694157922, 13765.858264667782, 30826.117792858815, -0.066, 0.98, 0.032, 192.0, 253.0, 240.0, 30.0, 160.0, 1.0, 0.0, 0.0, 0.0, 0.0, 1.700951384877057E9, 0.0, 2023-11-25 17:29:44.877
1.0, 36078.8671468338, 49990.212916161174, 22193.672918519133, -26125.322416463187, 12779.229912666073, 51736.28648952085, 13781.772706719961, 30855.30917111745, -0.066, 0.98, 0.032, 192.0, 0.0, 0.0, 0.0, 0.0, 0.0, 0.0, 0.0, 0.0, 0.0, 1.700951384881044E9, 0.0, 2023-11-25 17:29:44.881
2.0, 35990.30953530187, 49875.704929316635, 22182.273528846923, -26234.510688127364, 12726.502147496003, 51854.54956943388, 13770.19450309211, 30832.957426662142, -0.066, 0.98, 0.032, 192.0, 0.0, 0.0, 0.0, 0.0, 0.0, 0.0, 0.0, 0.0, 0.0, 1.700951384887227E9, 0.0, 2023-11-25 17:29:44.887
3.0, 35863.798661684836, 49852.72733601658, 22159.698266947064, -26291.999374866413, 12613.379968807694, 51318.77825484017, 13781.705651486594, 30836.868981941818, -0.066, 0.98, 0.032, 192.0, 0.0, 0.0, 0.0, 0.0, 0.0, 0.0, 0.0, 0.0, 0.0, 1.700951384890112E9, 0.0, 2023-11-25 17:29:44.890
4.0, 35909.95501398504, 49944.39184002779, 22138.575868436797, -26250.827461579738, 12558.059401280809, 51377.80921194664, 13770.976814148047, 30829.112926615828, -0.066, 0.98, 0.032, 192.0, 0.0, 0.0, 0.0, 0.0, 0.0, 0.0, 0.0, 0.0, 0.0, 1.700951384893131E9, 0.0, 2023-11-25 17:29:44.893
5.0, 36048.87110577478, 49994.66091330778, 22179.926595679117, -26149.26113477482, 12725.652781206702, 51619.45392125296, 13778.487000285031, 30843.552153533958, -0.066, 0.98, 0.032, 192.0, 0.0, 0.0, 0.0, 0.0, 0.0, 0.0, 0.0, 0.0, 0.0, 1.700951384897118E9, 0.0, 2023-11-25 17:29:44.897
6.0, 36023.23365488454, 49897.788452838475, 22177.57966251131, -26203.2853011233, 12751.580804774858, 51957.36759392829, 13756.492883741008, 30815.724231687098, -0.066, 0.98, 0.032, 192.0, 0.0, 0.0, 0.0, 0.0, 0.0, 0.0, 0.0, 0.0, 0.0, 1.700951384901581E9, 0.0, 2023-11-25 17:29:44.901
7.0, 35847.347777765724, 49841.75262948903, 22158.178348324105, -26316.742755978437, 12604.34986404775, 51328.45656018932, 13764.763029189471, 30811.29858628495, -0.066, 0.98, 0.032, 192.0, 0.0, 0.0, 0.0, 0.0, 0.0, 0.0, 0.0, 0.0, 0.0, 1.70095138490517E9, 0.0, 2023-11-25 17:29:44.905
8.0, 35900.81315050282, 49937.105171335366, 22139.738159148474, -26248.413473178563, 12567.53654092986, 51375.57403750111, 13762.259633810478, 30835.930208674697, -0.066, 0.98, 0.032, 192.0, 0.0, 0.0, 0.0, 0.0, 0.0, 0.0, 0.0, 0.0, 0.0, 1.700951384909213E9, 0.0, 2023-11-25 17:29:44.909
9.0, 36024.03831768493, 49997.924267998256, 22172.215243842038, -26165.443797760465, 12682.290396963406, 51507.69519897643, 13772.943767660114, 30858.52782231901, -0.066, 0.98, 0.032, 192.0, 0.0, 0.0, 0.0, 0.0, 0.0, 0.0, 0.0, 0.0, 0.0, 1.700951384914148E9, 0.0, 2023-11-25 17:29:44.914
10.0, 36068.18301298416, 49925.906947363255, 22184.15107538117, -26150.579887697684, 12795.032595995975, 52011.5258707435, 13760.426790765143, 30844.15565063425, -0.06, 0.978, 0.038, 192.0, 254.0, 32.0, 30.0, 144.0, 1.0, 48.0, 0.0, 0.0, 0.0, 1.700951384918603E9, 0.0, 2023-11-25 17:29:44.918
11.0, 35844.28558877535, 49821.34548680133, 22149.684685431086, -26318.88852344615, 12606.562686748826, 51407.58173556111, 13755.174130818144, 30813.846685152854, -0.06, 0.978, 0.038, 192.0, 0.0, 0.0, 0.0, 0.0, 0.0, 0.0, 0.0, 0.0, 0.0, 1.700951384921121E9, 0.0, 2023-11-25 17:29:44.921
12.0, 35880.87539444869, 49909.2325459996, 22132.116214289217, -26253.442615681008, 12577.125439301186, 51379.86557243652, 13756.403476763187, 30826.944807403663, -0.06, 0.978, 0.038, 192.0, 0.0, 0.0, 0.0, 0.0, 0.0, 0.0, 0.0, 0.0, 0.0, 1.700951384925187E9, 0.0, 2023-11-25 17:29:44.925
13.0, 35978.68662818511, 49982.814488746466, 22152.456301743547, -26198.99376618788, 12631.730751005502, 51423.51852935774, 13769.658061225184, 30834.164420862726, -0.06, 0.978, 0.038, 192.0, 0.0, 0.0, 0.0, 0.0, 0.0, 0.0, 0.0, 0.0, 0.0, 1.700951384929224E9, 0.0, 2023-11-25 17:29:44.929
14.0, 36080.632934645764, 49942.71545919365, 22182.809970713854, -26133.816079356206, 12814.545668905457, 51982.8709343518, 13769.38984029172, 30844.043891911973, -0.06, 0.978, 0.038, 192.0, 0.0, 0.0, 0.0, 0.0, 0.0, 0.0, 0.0, 0.0, 0.0, 1.700951384934177E9, 0.0, 2023-11-25 17:29:44.934
15.0, 35860.04356861634, 49816.65162046572, 22153.23861279948, -26320.900180447126, 12623.438253812583, 51473.09469855961, 13775.044831638914, 30819.09934509985, -0.06, 0.978, 0.038, 192.0, 0.0, 0.0, 0.0, 0.0, 0.0, 0.0, 0.0, 0.0, 0.0, 1.700951384938207E9, 0.0, 2023-11-25 17:29:44.938
16.0, 35870.8171094438, 49887.663112600225, 22134.105519545737, -26255.186051748522, 12593.419861009104, 51356.105668080534, 13776.810619450882, 30840.28879884348, -0.06, 0.978, 0.038, 192.0, 0.0, 0.0, 0.0, 0.0, 0.0, 0.0, 0.0, 0.0, 0.0, 1.700951384941188E9, 0.0, 2023-11-25 17:29:44.941
17.0, 35952.06570053884, 49970.40927057377, 22142.62153418321, -26219.356205386666, 12595.073890098798, 51377.07160437961, 13774.10605837179, 30836.82427845291, -0.06, 0.978, 0.038, 192.0, 0.0, 0.0, 0.0, 0.0, 0.0, 0.0, 0.0, 0.0, 0.0, 1.700951384946223E9, 0.0, 2023-11-25 17:29:44.946
18.0, 36099.587213943865, 49966.67652924974, 22184.620462014733, -26112.716032590393, 12817.853727084843, 51920.487215577035, 13772.720250215561, 30844.937961690186, -0.06, 0.978, 0.038, 192.0, 0.0, 0.0, 0.0, 0.0, 0.0, 0.0, 0.0, 0.0, 0.0, 1.700951384949205E9, 0.0, 2023-11-25 17:29:44.949
19.0, 35901.84133074777, 49828.85567293831, 22153.842109899775, -26295.732116190447, 12644.538300578393, 51597.705673897945, 13765.746505945506, 30808.884597883774, -0.06, 0.978, 0.038, 192.0, 0.0, 0.0, 0.0, 0.0, 0.0, 0.0, 0.0, 0.0, 0.0, 1.700951384953225E9, 0.0, 2023-11-25 17:29:44.953
20.0, 35875.8686036907, 49876.35312990584, 22138.48646145898, -26259.92462157305, 12600.304198301339, 51323.673286875885, 13771.557959503885, 30838.657121498243, -0.064, 0.984, 0.032, 192.0, 254.0, 0.0, 30.0, 192.0, 1.0, 0.0, 0.0, 0.0, 0.0, 1.700951384957251E9, 0.0, 2023-11-25 17:29:44.957
21.0, 35939.280502710404, 49963.435526303714, 22136.60891492473, -26229.03451073581, 12567.0671542963, 51349.64601393295, 13772.206160093088, 30834.320883073913, -0.064, 0.984, 0.032, 192.0, 0.0, 0.0, 0.0, 0.0, 0.0, 0.0, 0.0, 0.0, 0.0, 1.700951384961354E9, 0.0, 2023-11-25 17:29:44.961
22.0, 36090.53475743947, 49977.785346244025, 22180.99947941297, -26108.513904632797, 12791.7692413055, 51830.40968542215, 13777.503523528996, 30848.91657220323, -0.064, 0.984, 0.032, 192.0, 0.0, 0.0, 0.0, 0.0, 0.0, 0.0, 0.0, 0.0, 0.0, 1.700951384965335E9, 0.0, 2023-11-25 17:29:44.965
23.0, 35935.8830375532, 49843.63017602327, 22158.3795140242, -26268.373580977153, 12671.89683579169, 51737.33702151025, 13768.361660046776, 30817.24415031006, -0.064, 0.984, 0.032, 192.0, 0.0, 0.0, 0.0, 0.0, 0.0, 0.0, 0.0, 0.0, 0.0, 1.700951384969329E9, 0.0, 2023-11-25 17:29:44.969
24.0, 35859.39536802714, 49856.05774594042, 22144.566135950823, -26277.493092714918, 12599.052500611842, 51289.49746960372, 13778.710517729583, 30837.561886019932, -0.064, 0.984, 0.032, 192.0, 0.0, 0.0, 0.0, 0.0, 0.0, 0.0, 0.0, 0.0, 0.0, 1.700951384974294E9, 0.0, 2023-11-25 17:29:44.974
25.0, 35914.98415648749, 49946.78347668451, 22128.584638665277, -26243.138461487113, 12546.794122075335, 51328.05422878912, 13774.664851983172, 30839.551191276456, -0.064, 0.984, 0.032, 192.0, 0.0, 0.0, 0.0, 0.0, 0.0, 0.0, 0.0, 0.0, 0.0, 1.700951384977366E9, 0.0, 2023-11-25 17:29:44.977
26.0, 36069.8146903294, 49983.149764913294, 22173.690458976085, -26127.08820427516, 12753.167778631185, 51671.75700327838, 13781.280968341944, 30860.5841828089, -0.064, 0.984, 0.032, 192.0, 0.0, 0.0, 0.0, 0.0, 0.0, 0.0, 0.0, 0.0, 0.0, 1.700951384981275E9, 0.0, 2023-11-25 17:29:44.981
27.0, 35987.8955469007, 49867.54654259045, 22161.06172335884, -26233.437804393507, 12709.425414732148, 51829.336801688296, 13760.091514598313, 30825.179019591695, -0.064, 0.984, 0.032, 192.0, 0.0, 0.0, 0.0, 0.0, 0.0, 0.0, 0.0, 0.0, 0.0, 1.700951384985363E9, 0.0, 2023-11-25 17:29:44.985
28.0, 35847.2583707879, 49834.62242300778, 22135.357217235236, -26294.860398156692, 12589.038919095865, 51287.01642596918, 13764.494808256008, 30830.76695570552, -0.064, 0.984, 0.032, 192.0, 0.0, 0.0, 0.0, 0.0, 0.0, 0.0, 0.0, 0.0, 0.0, 1.700951384989414E9, 0.0, 2023-11-25 17:29:44.989
29.0, 35897.32627836779, 49927.04688633048, 22117.118193759703, -26244.323103943243, 12541.206185961508, 51348.46137147682, 13757.185787819122, 30840.847592454862, -0.064, 0.984, 0.032, 192.0, 0.0, 0.0, 0.0, 0.0, 0.0, 0.0, 0.0, 0.0, 0.0, 1.700951384993376E9, 0.0, 2023-11-25 17:29:44.993
30.0, 36035.214189912585, 49977.58418054393, 22154.132682577692, -26147.65180917404, 12699.23301926053, 51573.16345848602, 13762.952537888592, 30844.692092501176, -0.064, 0.984, 0.036000000000000004, 192.0, 254.0, 0.0, 30.0, 192.0, 1.0, 32.0, 0.0, 0.0, 0.0, 1.700951384997346E9, 0.0, 2023-11-25 17:29:44.997
31.0, 36030.69913753261, 49890.0771010014, 22157.664258201632, -26184.487484036385, 12745.702295983112, 51929.293802892425, 13748.53566271492, 30832.01865339502, -0.064, 0.984, 0.036000000000000004, 192.0, 0.0, 0.0, 0.0, 0.0, 0.0, 0.0, 0.0, 0.0, 0.0, 1.700951385001387E9, 0.0, 2023-11-25 17:29:45.001
32.0, 35843.235056785954, 49820.29495481193, 22135.67014165761, -26307.086802373746, 12586.982558605976, 51309.68109484686, 13756.783456418927, 30842.076938399907, -0.064, 0.984, 0.036000000000000004, 192.0, 0.0, 0.0, 0.0, 0.0, 0.0, 0.0, 0.0, 0.0, 0.0, 1.700951385005382E9, 0.0, 2023-11-25 17:29:45.005
33.0, 35885.34574333975, 49915.44633095817, 22116.71586235951, -26243.71960684295, 12549.118703498687, 51348.23785403226, 13757.34225003031, 30848.849516969865, -0.064, 0.984, 0.036000000000000004, 192.0, 0.0, 0.0, 0.0, 0.0, 0.0, 0.0, 0.0, 0.0, 0.0, 1.700951385008432E9, 0.0, 2023-11-25 17:29:45.008
34.0, 35999.22788133954, 49978.679416022234, 22144.499080717454, -26172.909280408538, 12648.829835513812, 51468.04320431271, 13768.853398424793, 30853.34221760538, -0.064, 0.984, 0.036000000000000004, 192.0, 0.0, 0.0, 0.0, 0.0, 0.0, 0.0, 0.0, 0.0, 0.0, 1.700951385013545E9, 0.0, 2023-11-25 17:29:45.013
35.0, 36062.05863500341, 49922.15185429476, 22168.90718566265, -26147.60710568513, 12781.643901067246, 51963.5143236535, 13768.182846091135, 30849.430662325703, -0.064, 0.984, 0.036000000000000004, 192.0, 0.0, 0.0, 0.0, 0.0, 0.0, 0.0, 0.0, 0.0, 0.0, 1.70095138501748E9, 0.0, 2023-11-25 17:29:45.017
36.0, 35843.57033295278, 49813.8576524088, 22136.161880035626, -26318.463840301498, 12591.9222941306, 51372.042461877165, 13769.076915869346, 30827.05656612594, -0.064, 0.984, 0.036000000000000004, 192.0, 0.0, 0.0, 0.0, 0.0, 0.0, 0.0, 0.0, 0.0, 0.0, 1.700951385021521E9, 0.0, 2023-11-25 17:29:45.021
37.0, 35874.79571995684, 49899.889516817275, 22113.653673369132, -26252.012104035868, 12557.433552436061, 51338.917176594405, 13765.634747223228, 30840.95935117714, -0.064, 0.984, 0.036000000000000004, 192.0, 0.0, 0.0, 0.0, 0.0, 0.0, 0.0, 0.0, 0.0, 0.0, 1.700951385025488E9, 0.0, 2023-11-25 17:29:45.025
38.0, 35966.72844490152, 49973.158535141774, 22128.62934215419, -26203.50881856785, 12599.58894247877, 51375.886961923476, 13772.96611940457, 30844.423871567713, -0.064, 0.984, 0.036000000000000004, 192.0, 0.0, 0.0, 0.0, 0.0, 0.0, 0.0, 0.0, 0.0, 0.0, 1.700951385028486E9, 0.0, 2023-11-25 17:29:45.028
39.0, 36083.449254447136, 49946.738773195604, 22164.414485027133, -26125.63534088556, 12794.496154129047, 51931.23840466004, 13779.671642741161, 30857.92432521872, -0.064, 0.984, 0.036000000000000004, 192.0, 0.0, 0.0, 0.0, 0.0, 0.0, 0.0, 0.0, 0.0, 0.0, 1.700951385032586E9, 0.0, 2023-11-25 17:29:45.032
40.0, 35859.99886512743, 49818.37270478877, 22133.502022445446, -26314.30641583281, 12600.930047146088, 51454.810971595165, 13773.882540927238, 30832.06335688393, -0.066, 0.984, 0.038, 192.0, 253.0, 240.0, 30.0, 192.0, 1.0, 48.0, 0.0, 0.0, 0.0, 1.700951385038554E9, 0.0, 2023-11-25 17:29:45.038
41.0, 35865.184469841064, 49887.104318988844, 22113.85483906923, -26254.403740692585, 12568.967052574999, 51301.74622556523, 13772.988471149025, 30853.87865947231, -0.066, 0.984, 0.038, 192.0, 0.0, 0.0, 0.0, 0.0, 0.0, 0.0, 0.0, 0.0, 0.0, 1.700951385041686E9, 0.0, 2023-11-25 17:29:45.041
42.0, 35936.86651430923, 49967.23532286112, 22117.587580393265, -26217.94804548598, 12561.836846093756, 51313.12326349298, 13775.625976994752, 30856.605572295855, -0.066, 0.984, 0.038, 192.0, 0.0, 0.0, 0.0, 0.0, 0.0, 0.0, 0.0, 0.0, 0.0, 1.700951385045515E9, 0.0, 2023-11-25 17:29:45.045
43.0, 36079.314181722904, 49964.59781701539, 22161.620516970223, -26110.4138029115, 12787.835334281366, 51838.053982025864, 13777.436468295631, 30869.39077012429, -0.066, 0.984, 0.038, 192.0, 0.0, 0.0, 0.0, 0.0, 0.0, 0.0, 0.0, 0.0, 0.0, 1.700951385049541E9, 0.0, 2023-11-25 17:29:45.049
44.0, 35881.32242933779, 49813.544727986424, 22129.23283925448, -26298.324918547263, 12618.900849688156, 51549.58236808567, 13761.142046587713, 30824.553170746945, -0.066, 0.984, 0.038, 192.0, 0.0, 0.0, 0.0, 0.0, 0.0, 0.0, 0.0, 0.0, 0.0, 1.700951385053602E9, 0.0, 2023-11-25 17:29:45.053
45.0, 35840.55284745131, 49858.42703085268, 22107.90927504412, -26271.77104613436, 12569.123514786186, 51248.97375690625, 13762.72902044404, 30843.753319234052, -0.066, 0.984, 0.038, 192.0, 0.0, 0.0, 0.0, 0.0, 0.0, 0.0, 0.0, 0.0, 0.0, 1.700951385056598E9, 0.0, 2023-11-25 17:29:45.056
46.0, 35901.5731098143, 49945.57648248393, 22102.27663544138, -26237.841098051205, 12533.76305505789, 51270.9008182169, 13759.286851797922, 30846.05554891295, -0.066, 0.984, 0.038, 192.0, 0.0, 0.0, 0.0, 0.0, 0.0, 0.0, 0.0, 0.0, 0.0, 1.700951385060751E9, 0.0, 2023-11-25 17:29:45.060
47.0, 36065.813728071895, 49972.242113619104, 22156.81489191233, -26109.117401733092, 12767.517598571492, 51711.83368108675, 13776.29652932841, 30875.939831249696, -0.066, 0.984, 0.038, 192.0, 0.0, 0.0, 0.0, 0.0, 0.0, 0.0, 0.0, 0.0, 0.0, 1.700951385064562E9, 0.0, 2023-11-25 17:29:45.064
48.0, 35927.09880198226, 49843.63017602327, 22135.893659102163, -26259.276420983842, 12660.832722286312, 51670.55000907779, 13761.700840199095, 30835.594932507865, -0.066, 0.984, 0.038, 192.0, 0.0, 0.0, 0.0, 0.0, 0.0, 0.0, 0.0, 0.0, 0.0, 1.700951385068581E9, 0.0, 2023-11-25 17:29:45.068
49.0, 35837.46830671648, 49845.15009464623, 22113.47485941349, -26277.470740970464, 12574.890264855656, 51227.31491652905, 13761.05263960989, 30830.118755116317, -0.066, 0.984, 0.038, 192.0, 0.0, 0.0, 0.0, 0.0, 0.0, 0.0, 0.0, 0.0, 0.0, 1.70095138507366E9, 0.0, 2023-11-25 17:29:45.073
50.0, 35894.37584809969, 49944.95063363918, 22100.868475540698, -26243.518441142853, 12524.084749708743, 51262.51891404616, 13753.67656393964, 30825.38018529179, -0.066, 0.986, 0.038, 192.0, 253.0, 240.0, 30.0, 208.0, 1.0, 48.0, 0.0, 0.0, 0.0, 1.700951385077692E9, 0.0, 2023-11-25 17:29:45.077
51.0, 36048.692291819134, 49976.89127646581, 22148.701208675055, -26125.858858330117, 12725.876298651256, 51595.336388985685, 13765.031250122936, 30852.135223404795, -0.066, 0.986, 0.038, 192.0, 0.0, 0.0, 0.0, 0.0, 0.0, 0.0, 0.0, 0.0, 0.0, 1.700951385081737E9, 0.0, 2023-11-25 17:29:45.081
52.0, 35977.88196538472, 49861.444516354146, 22135.960714335528, -26222.887781010602, 12693.17569651314, 51794.75865301593, 13740.846662622293, 30824.173191091206, -0.066, 0.986, 0.038, 192.0, 0.0, 0.0, 0.0, 0.0, 0.0, 0.0, 0.0, 0.0, 0.0, 1.700951385084675E9, 0.0, 2023-11-25 17:29:45.084
53.0, 35836.5071817049, 49828.49804502702, 22117.989911793462, -26295.598005723718, 12572.38686947666, 51206.304276741066, 13744.95938360207, 30836.19842960816, -0.066, 0.986, 0.038, 192.0, 0.0, 0.0, 0.0, 0.0, 0.0, 0.0, 0.0, 0.0, 0.0, 1.700951385088623E9, 0.0, 2023-11-25 17:29:45.088
54.0, 35881.680057249076, 49926.44338923018, 22101.248455196437, -26242.937295787015, 12528.443339877527, 51266.966911192765, 13739.57261318834, 30840.5793715214, -0.066, 0.986, 0.038, 192.0, 0.0, 0.0, 0.0, 0.0, 0.0, 0.0, 0.0, 0.0, 0.0, 1.700951385092679E9, 0.0, 2023-11-25 17:29:45.092
55.0, 36018.71860250457, 49984.46851783616, 22143.38149349469, -26146.109538806624, 12683.855019075278, 51471.82064912566, 13756.917566885659, 30860.561831064446, -0.066, 0.986, 0.038, 192.0, 0.0, 0.0, 0.0, 0.0, 0.0, 0.0, 0.0, 0.0, 0.0, 1.700951385096659E9, 0.0, 2023-11-25 17:29:45.096
56.0, 36026.72052701956, 49900.29184821747, 22151.204604054048, -26172.909280408538, 12745.47877853856, 51857.20942702406, 13745.115845813258, 30831.99630165056, -0.066, 0.986, 0.038, 192.0, 0.0, 0.0, 0.0, 0.0, 0.0, 0.0, 0.0, 0.0, 0.0, 1.700951385102244E9, 0.0, 2023-11-25 17:29:45.102
57.0, 35831.92507409157, 49824.40767579171, 22125.030711296884, -26302.527046504863, 12579.874703869189, 51251.56655926306, 13750.972002860548, 30819.85930441133, -0.066, 0.986, 0.038, 192.0, 0.0, 0.0, 0.0, 0.0, 0.0, 0.0, 0.0, 0.0, 0.0, 1.700951385105686E9, 0.0, 2023-11-25 17:29:45.105
58.0, 35878.01437115841, 49917.301525747964, 22108.691586100053, -26236.298827683786, 12547.62113662018, 51292.20203068281, 13752.380162761232, 30845.16147913474, -0.066, 0.986, 0.038, 192.0, 0.0, 0.0, 0.0, 0.0, 0.0, 0.0, 0.0, 0.0, 0.0, 1.700951385109825E9, 0.0, 2023-11-25 17:29:45.109
59.0, 35994.26579407046, 49987.12837542634, 22143.71676966152, -26162.0239808588, 12645.208852912052, 51386.97342717331, 13765.366526289765, 30857.365531607335, -0.066, 0.986, 0.038, 192.0, 0.0, 0.0, 0.0, 0.0, 0.0, 0.0, 0.0, 0.0, 0.0, 1.700951385112831E9, 0.0, 2023-11-25 17:29:45.112
60.0, 36064.11499549329, 49932.21013929965, 22166.29203156138, -26125.25536122982, 12784.728441802079, 51903.164613624176, 13756.224662807545, 30848.11190940284, -0.064, 0.988, 0.032, 192.0, 254.0, 0.0, 30.0, 224.0, 1.0, 0.0, 0.0, 0.0, 0.0, 1.700951385116762E9, 0.0, 2023-11-25 17:29:45.116
61.0, 35842.05041432982, 49817.18806233264, 22133.5243741899, -26300.58244473725, 12589.485953984971, 51315.15727223841, 13756.895215141203, 30826.587179492377, -0.064, 0.988, 0.032, 192.0, 0.0, 0.0, 0.0, 0.0, 0.0, 0.0, 0.0, 0.0, 0.0, 1.700951385120757E9, 0.0, 2023-11-25 17:29:45.120
62.0, 35869.61011524321, 49899.10720576134, 22114.793612336354, -26229.168621202545, 12559.95929955951, 51266.87750421495, 13756.470531996552, 30847.419005324726, -0.064, 0.988, 0.032, 192.0, 0.0, 0.0, 0.0, 0.0, 0.0, 0.0, 0.0, 0.0, 0.0, 1.700951385124812E9, 0.0, 2023-11-25 17:29:45.124
63.0, 35959.575886675826, 49973.40440433078, 22128.361121220725, -26180.151245612058, 12595.498573243449, 51302.282667432155, 13762.326689043843, 30852.694017016176, -0.064, 0.988, 0.032, 192.0, 0.0, 0.0, 0.0, 0.0, 0.0, 0.0, 0.0, 0.0, 0.0, 1.700951385128762E9, 0.0, 2023-11-25 17:29:45.128
64.0, 36077.771911355485, 49946.49290400659, 22159.318287291324, -26096.01927948228, 12792.86447678381, 51873.21327605406, 13761.879654154738, 30867.647334056775, -0.064, 0.988, 0.032, 192.0, 0.0, 0.0, 0.0, 0.0, 0.0, 0.0, 0.0, 0.0, 0.0, 1.700951385134077E9, 0.0, 2023-11-25 17:29:45.134
65.0, 35856.646103459134, 49814.17057683117, 22125.790670608363, -26291.3064707883, 12599.9242186456, 51425.597241592084, 13758.258671552978, 30830.945769661164, -0.064, 0.988, 0.032, 192.0, 0.0, 0.0, 0.0, 0.0, 0.0, 0.0, 0.0, 0.0, 0.0, 1.70095138513782E9, 0.0, 2023-11-25 17:29:45.137
66.0, 35850.94640862303, 49878.722414818105, 22104.62356860919, -26238.131670729123, 12563.58028216127, 51262.76478323517, 13761.611433221273, 30846.547287290967, -0.064, 0.988, 0.032, 192.0, 0.0, 0.0, 0.0, 0.0, 0.0, 0.0, 0.0, 0.0, 0.0, 1.700951385140882E9, 0.0, 2023-11-25 17:29:45.140
67.0, 35919.700374567554, 49961.42386930274, 22109.47389715599, -26203.777039501318, 12555.667764624091, 51265.491696058714, 13766.171189090157, 30846.703749502154, -0.064, 0.988, 0.032, 192.0, 0.0, 0.0, 0.0, 0.0, 0.0, 0.0, 0.0, 0.0, 0.0, 1.700951385144865E9, 0.0, 2023-11-25 17:29:45.144
68.0, 36069.30060020692, 49959.814543701956, 22154.04327559987, -26089.224349167867, 12785.57780809138, 51786.600266289744, 13771.088572870323, 30870.195432924684, -0.064, 0.988, 0.032, 192.0, 0.0, 0.0, 0.0, 0.0, 0.0, 0.0, 0.0, 0.0, 0.0, 1.700951385148853E9, 0.0, 2023-11-25 17:29:45.148
69.0, 35881.545946782346, 49818.596222233326, 22124.069586285306, -26276.3531537477, 12622.83475671229, 51543.97208022739, 13756.62699420774, 30833.33740631788, -0.064, 0.988, 0.032, 192.0, 0.0, 0.0, 0.0, 0.0, 0.0, 0.0, 0.0, 0.0, 0.0, 1.700951385152942E9, 0.0, 2023-11-25 17:29:45.152
70.0, 35843.011539341394, 49856.124801173784, 22106.970501776996, -26255.56603140426, 12569.123514786186, 51228.030172351624, 13759.845645409305, 30849.05068266996, -0.068, 0.98, 0.03, 192.0, 253.0, 224.0, 30.0, 160.0, 0.0, 240.0, 0.0, 0.0, 0.0, 1.700951385156899E9, 0.0, 2023-11-25 17:29:45.156
71.0, 35902.53423482588, 49948.23634007411, 22095.794629549342, -26230.86735378115, 12524.665895064581, 51250.76189646267, 13752.134293572224, 30838.366548820326, -0.068, 0.98, 0.03, 192.0, 0.0, 0.0, 0.0, 0.0, 0.0, 0.0, 0.0, 0.0, 0.0, 1.700951385160868E9, 0.0, 2023-11-25 17:29:45.160
72.0, 36066.57368738338, 49979.46172707817, 22143.515603961423, -26110.63732035605, 12751.469046052582, 51665.34205261971, 13757.521063985952, 30854.236287383592, -0.068, 0.98, 0.03, 192.0, 0.0, 0.0, 0.0, 0.0, 0.0, 0.0, 0.0, 0.0, 0.0, 1.700951385166273E9, 0.0, 2023-11-25 17:29:45.166
73.0, 35938.60995037675, 49852.01208019401, 22121.09680427275, -26254.38138894813, 12649.209815169552, 51657.921273460546, 13740.53373819992, 30815.970100876108, -0.068, 0.98, 0.03, 192.0, 0.0, 0.0, 0.0, 0.0, 0.0, 0.0, 0.0, 0.0, 0.0, 1.700951385168946E9, 0.0, 2023-11-25 17:29:45.168
74.0, 35836.61894042718, 49848.502856314524, 22097.00162374993, -26284.82446489626, 12553.432590178561, 51197.207116747755, 13746.85928188077, 30829.78347894949, -0.068, 0.98, 0.03, 192.0, 0.0, 0.0, 0.0, 0.0, 0.0, 0.0, 0.0, 0.0, 0.0, 1.700951385172899E9, 0.0, 2023-11-25 17:29:45.172
75.0, 35890.44194107556, 49939.5862149699, 22085.065792210793, -26244.636028365618, 12504.57167679926, 51237.8425881675, 13745.384066746721, 30830.81165919443, -0.068, 0.98, 0.03, 192.0, 0.0, 0.0, 0.0, 0.0, 0.0, 0.0, 0.0, 0.0, 0.0, 1.700951385176965E9, 0.0, 2023-11-25 17:29:45.176
76.0, 36047.865277274286, 49981.763956757066, 22134.75372013494, -26123.064890273203, 12706.430280975137, 51532.81855974419, 13767.177017590646, 30870.284839902502, -0.068, 0.98, 0.03, 192.0, 0.0, 0.0, 0.0, 0.0, 0.0, 0.0, 0.0, 0.0, 0.0, 1.700951385180922E9, 0.0, 2023-11-25 17:29:45.180
77.0, 35989.95190739058, 49870.38521413627, 22124.561324663322, -26206.0345656913, 12689.331196466828, 51779.73828074196, 13750.323802271343, 30846.39082507978, -0.068, 0.98, 0.03, 192.0, 0.0, 0.0, 0.0, 0.0, 0.0, 0.0, 0.0, 0.0, 0.0, 1.700951385184994E9, 0.0, 2023-11-25 17:29:45.184
78.0, 35834.02613807037, 49830.37559156127, 22104.243588953446, -26293.63105221165, 12558.864064081201, 51189.652227121864, 13756.448180252097, 30842.613380266834, -0.068, 0.98, 0.03, 192.0, 0.0, 0.0, 0.0, 0.0, 0.0, 0.0, 0.0, 0.0, 0.0, 1.70095138518899E9, 0.0, 2023-11-25 17:29:45.188
79.0, 35880.227193859486, 49925.8845956188, 22083.881149754663, -26239.629237607627, 12513.400615859106, 51248.88434992843, 13750.256747037978, 30850.39178733728, -0.068, 0.98, 0.03, 192.0, 0.0, 0.0, 0.0, 0.0, 0.0, 0.0, 0.0, 0.0, 0.0, 1.700951385193978E9, 0.0, 2023-11-25 17:29:45.193
80.0, 36013.48829430203, 49985.8990294813, 22124.449565941046, -26147.718864407405, 12658.441085629593, 51431.72161957284, 13767.132314101735, 30871.469482358636, -0.064, 0.98, 0.036000000000000004, 192.0, 254.0, 0.0, 30.0, 160.0, 1.0, 32.0, 0.0, 0.0, 0.0, 1.700951385197026E9, 0.0, 2023-11-25 17:29:45.197
81.0, 36029.42508809866, 49905.768025609024, 22134.79842362385, -26163.633306459586, 12733.542946999425, 51859.42224972514, 13758.929223886636, 30859.980685708608, -0.064, 0.98, 0.036000000000000004, 192.0, 0.0, 0.0, 0.0, 0.0, 0.0, 0.0, 0.0, 0.0, 0.0, 1.70095138520003E9, 0.0, 2023-11-25 17:29:45.200
82.0, 35826.78417286684, 49819.780864689455, 22107.104612243726, -26306.34919480672, 12562.44034319405, 51238.78136143462, 13762.661965210673, 30846.547287290967, -0.064, 0.98, 0.036000000000000004, 192.0, 0.0, 0.0, 0.0, 0.0, 0.0, 0.0, 0.0, 0.0, 0.0, 1.700951385205013E9, 0.0, 2023-11-25 17:29:45.205
83.0, 35866.637333230654, 49905.209231997644, 22082.718859042987, -26243.25022020939, 12523.056569463799, 51262.205989623784, 13752.022534849946, 30856.806737995954, -0.064, 0.98, 0.036000000000000004, 192.0, 0.0, 0.0, 0.0, 0.0, 0.0, 0.0, 0.0, 0.0, 0.0, 1.700951385209314E9, 0.0, 2023-11-25 17:29:45.209
84.0, 35979.08895958531, 49973.8961427088, 22109.026862266885, -26179.99478340087, 12609.982503650488, 51339.02893531668, 13760.113866342768, 30863.601668310366, -0.064, 0.98, 0.036000000000000004, 192.0, 0.0, 0.0, 0.0, 0.0, 0.0, 0.0, 0.0, 0.0, 0.0, 1.700951385213132E9, 0.0, 2023-11-25 17:29:45.213
85.0, 36061.1645652252, 49930.04202008749, 22135.13369979068, -26135.11248053461, 12763.986022947553, 51864.40668873867, 13761.410267521176, 30860.226554897614, -0.064, 0.98, 0.036000000000000004, 192.0, 0.0, 0.0, 0.0, 0.0, 0.0, 0.0, 0.0, 0.0, 0.0, 1.700951385217142E9, 0.0, 2023-11-25 17:29:45.217
86.0, 35840.7093096625, 49818.43976002214, 22109.429193667078, -26308.897293674625, 12572.811552621311, 51292.76082429419, 13769.970985647558, 30838.34419707587, -0.064, 0.98, 0.036000000000000004, 192.0, 0.0, 0.0, 0.0, 0.0, 0.0, 0.0, 0.0, 0.0, 0.0, 1.700951385221129E9, 0.0, 2023-11-25 17:29:45.221
87.0, 35862.725777950975, 49893.25104871405, 22085.80339977782, -26243.160813231567, 12542.413180162095, 51250.71719297376, 13768.607529235785, 30863.19933691017, -0.064, 0.98, 0.036000000000000004, 192.0, 0.0, 0.0, 0.0, 0.0, 0.0, 0.0, 0.0, 0.0, 0.0, 1.700951385225169E9, 0.0, 2023-11-25 17:29:45.225
88.0, 35951.05987203835, 49976.26542762106, 22103.036594752863, -26196.62448127562, 12571.939834587554, 51274.43239384084, 13775.424811294653, 30868.273182901525, -0.064, 0.98, 0.036000000000000004, 192.0, 0.0, 0.0, 0.0, 0.0, 0.0, 0.0, 0.0, 0.0, 0.0, 1.700951385228133E9, 0.0, 2023-11-25 17:29:45.228
89.0, 36080.498824179034, 49958.965177412654, 22142.599182438753, -26103.864741786092, 12780.950996989131, 51827.72747608751, 13781.1021543863, 30880.454883629667, -0.064, 0.98, 0.036000000000000004, 192.0, 0.0, 0.0, 0.0, 0.0, 0.0, 0.0, 0.0, 0.0, 0.0, 1.700951385233166E9, 0.0, 2023-11-25 17:29:45.233
90.0, 35869.520708265394, 49823.625364735766, 22109.540952389354, -26300.001299381413, 12589.195381307052, 51409.235764650795, 13772.809657193382, 30842.412214566735, -0.064, 0.976, 0.034, 192.0, 254.0, 0.0, 30.0, 128.0, 1.0, 16.0, 0.0, 0.0, 0.0, 1.700951385237132E9, 0.0, 2023-11-25 17:29:45.237
91.0, 35860.26708606089, 49883.10335673134, 22094.431173137567, -26245.977133032935, 12556.67359312458, 51217.547204202085, 13769.881578669738, 30858.550174063468, -0.064, 0.976, 0.034, 192.0, 0.0, 0.0, 0.0, 0.0, 0.0, 0.0, 0.0, 0.0, 0.0, 1.700951385241209E9, 0.0, 2023-11-25 17:29:45.241
92.0, 35918.98511874499, 49966.721232738644, 22094.408821393114, -26212.538923327797, 12540.803854561313, 51235.83093116652, 13766.841741423816, 30859.623057797322, -0.064, 0.976, 0.034, 192.0, 0.0, 0.0, 0.0, 0.0, 0.0, 0.0, 0.0, 0.0, 0.0, 1.700951385245161E9, 0.0, 2023-11-25 17:29:45.245
93.0, 36073.27921071997, 49969.58225602892, 22144.29791501736, -26092.73357304735, 12777.397069620738, 51741.06976283428, 13775.894197928215, 30886.042819743496, -0.064, 0.976, 0.034, 192.0, 0.0, 0.0, 0.0, 0.0, 0.0, 0.0, 0.0, 0.0, 0.0, 1.700951385249189E9, 0.0, 2023-11-25 17:29:45.249
94.0, 35892.654763776634, 49826.24051883704, 22114.301873958335, -26269.222947266455, 12621.940686934076, 51532.19271089944, 13761.902005899192, 30842.4792698001, -0.064, 0.976, 0.034, 192.0, 0.0, 0.0, 0.0, 0.0, 0.0, 0.0, 0.0, 0.0, 0.0, 1.70095138525322E9, 0.0, 2023-11-25 17:29:45.253
95.0, 35835.411946226595, 49856.52713257398, 22094.60998709321, -26254.426092437043, 12561.590976904748, 51180.9797502732, 13762.863130910771, 30844.15565063425, -0.064, 0.976, 0.034, 192.0, 0.0, 0.0, 0.0, 0.0, 0.0, 0.0, 0.0, 0.0, 0.0, 1.70095138525623E9, 0.0, 2023-11-25 17:29:45.256
96.0, 35892.095970165254, 49947.63284297381, 22083.545873587835, -26221.457269365463, 12518.496813594917, 51217.90483211337, 13758.504540741986, 30843.596857022865, -0.064, 0.976, 0.034, 192.0, 0.0, 0.0, 0.0, 0.0, 0.0, 0.0, 0.0, 0.0, 0.0, 1.700951385261197E9, 0.0, 2023-11-25 17:29:45.261
97.0, 36051.82153604287, 49971.3927473298, 22129.5234119324, -26102.88126503006, 12741.008429647498, 51635.41306679405, 13769.926282158647, 30875.425741127223, -0.064, 0.976, 0.034, 192.0, 0.0, 0.0, 0.0, 0.0, 0.0, 0.0, 0.0, 0.0, 0.0, 1.700951385265212E9, 0.0, 2023-11-25 17:29:45.265
98.0, 35937.84999106527, 49843.272548111985, 22112.55843789082, -26238.802223062783, 12654.618937327736, 51655.30611935927, 13758.951575631092, 30842.836897711386, -0.064, 0.976, 0.034, 192.0, 0.0, 0.0, 0.0, 0.0, 0.0, 0.0, 0.0, 0.0, 0.0, 1.700951385269264E9, 0.0, 2023-11-25 17:29:45.269
99.0, 35826.51595193338, 49827.76043746, 22087.680946312066, -26276.129636303143, 12553.633755878658, 51169.110973967436, 13762.952537888592, 30848.5812960364, -0.064, 0.976, 0.034, 192.0, 0.0, 0.0, 0.0, 0.0, 0.0, 0.0, 0.0, 0.0, 0.0, 1.700951385273269E9, 0.0, 2023-11-25 17:29:45.273
100.0, 35879.8695659482, 49926.801017141464, 22073.3087746273, -26234.309522427266, 12505.823374488757, 51213.16626228885, 13757.901043641692, 30853.990418194586, -0.068, 0.982, 0.028, 192.0, 253.0, 224.0, 30.0, 176.0, 0.0, 224.0, 0.0, 0.0, 0.0, 1.700951385277455E9, 0.0, 2023-11-25 17:29:45.277
101.0, 36029.84977124331, 49976.243075876606, 22120.716824617008, -26121.12028850559, 12697.735452382023, 51497.0557686157, 13770.127447858746, 30874.97870623812, -0.068, 0.982, 0.028, 192.0, 0.0, 0.0, 0.0, 0.0, 0.0, 0.0, 0.0, 0.0, 0.0, 1.700951385281299E9, 0.0, 2023-11-25 17:29:45.281
102.0, 35979.51364272996, 49870.34051064736, 22114.391280936157, -26196.959757442448, 12694.717966880557, 51768.070670136294, 13751.083761582824, 30844.647389012265, -0.068, 0.982, 0.028, 192.0, 0.0, 0.0, 0.0, 0.0, 0.0, 0.0, 0.0, 0.0, 0.0, 1.700951385284332E9, 0.0, 2023-11-25 17:29:45.284
103.0, 35817.32938496225, 49825.52526301447, 22096.08520222726, -26287.57372946426, 12560.853369337723, 51168.619235589416, 13767.758162946482, 30854.929191461706, -0.068, 0.982, 0.028, 192.0, 0.0, 0.0, 0.0, 0.0, 0.0, 0.0, 0.0, 0.0, 0.0, 1.700951385288305E9, 0.0, 2023-11-25 17:29:45.288
104.0, 35865.81031868581, 49922.39772348377, 22074.292251383336, -26233.482507882418, 12515.009941459888, 51235.36154453296, 13761.499674498997, 30865.68038054471, -0.068, 0.982, 0.028, 192.0, 0.0, 0.0, 0.0, 0.0, 0.0, 0.0, 0.0, 0.0, 0.0, 1.700951385293282E9, 0.0, 2023-11-25 17:29:45.293
105.0, 35997.68561097212, 49985.20612540319, 22113.765432091408, -26144.634323672573, 12651.444989615082, 51397.12111915602, 13781.34802357531, 30882.310078419458, -0.068, 0.982, 0.028, 192.0, 0.0, 0.0, 0.0, 0.0, 0.0, 0.0, 0.0, 0.0, 0.0, 1.700951385297286E9, 0.0, 2023-11-25 17:29:45.297
106.0, 36022.11606766177, 49906.21506049813, 22122.102632773236, -26154.759663910827, 12736.359266800793, 51838.25514772596, 13773.211988593577, 30870.038970713496, -0.068, 0.982, 0.028, 192.0, 0.0, 0.0, 0.0, 0.0, 0.0, 0.0, 0.0, 0.0, 0.0, 1.700951385301298E9, 0.0, 2023-11-25 17:29:45.301
107.0, 35818.29050997383, 49813.61178321979, 22089.80436203532, -26307.623244240673, 12556.9641658025, 51219.67061992534, 13774.44133453862, 30857.72315951862, -0.068, 0.982, 0.028, 192.0, 0.0, 0.0, 0.0, 0.0, 0.0, 0.0, 0.0, 0.0, 0.0, 1.700951385304356E9, 0.0, 2023-11-25 17:29:45.304
108.0, 35861.98817038396, 49906.10330177585, 22070.872434481673, -26238.355188173675, 12523.995342730921, 51231.04765785309, 13774.798962449904, 30873.16821493724, -0.068, 0.982, 0.028, 192.0, 0.0, 0.0, 0.0, 0.0, 0.0, 0.0, 0.0, 0.0, 0.0, 1.700951385308402E9, 0.0, 2023-11-25 17:29:45.308
109.0, 35966.482575712515, 49976.17602064324, 22095.347594660234, -26176.731428710395, 12597.130250588687, 51296.404158640406, 13788.478230056553, 30879.806683040464, -0.068, 0.982, 0.028, 192.0, 0.0, 0.0, 0.0, 0.0, 0.0, 0.0, 0.0, 0.0, 0.0, 1.700951385312337E9, 0.0, 2023-11-25 17:29:45.312
110.0, 36054.90607677771, 49932.25484278856, 22120.98504555047, -26125.63534088556, 12758.755714745012, 51833.53892964589, 13782.599721264807, 30880.49958711858, -0.066, 0.984, 0.03, 192.0, 253.0, 240.0, 30.0, 192.0, 0.0, 240.0, 0.0, 0.0, 0.0, 1.70095138531633E9, 0.0, 2023-11-25 17:29:45.316
111.0, 35834.54022819283, 49815.9587163876, 22091.547798102834, -26305.92451166207, 12562.686212383058, 51289.67628355936, 13785.125468388256, 30861.05356944246, -0.066, 0.984, 0.03, 192.0, 0.0, 0.0, 0.0, 0.0, 0.0, 0.0, 0.0, 0.0, 0.0, 1.70095138532138E9, 0.0, 2023-11-25 17:29:45.321
112.0, 35863.91042040711, 49897.31906620492, 22074.649879294622, -26233.482507882418, 12535.48413938095, 51221.77168390414, 13785.371337577266, 30880.09725571838, -0.066, 0.984, 0.03, 192.0, 0.0, 0.0, 0.0, 0.0, 0.0, 0.0, 0.0, 0.0, 0.0, 1.700951385325338E9, 0.0, 2023-11-25 17:29:45.325
113.0, 35951.797479605375, 49979.21585788916, 22087.680946312066, -26192.265891106832, 12554.952508801522, 51251.38774530742, 13792.523895802964, 30881.930098763718, -0.066, 0.984, 0.03, 192.0, 0.0, 0.0, 0.0, 0.0, 0.0, 0.0, 0.0, 0.0, 0.0, 1.700951385329343E9, 0.0, 2023-11-25 17:29:45.329
114.0, 36085.52796668148, 49964.59781701539, 22127.24353399796, -26097.53919810524, 12770.28921488395, 51799.85485075174, 13794.915532459681, 30897.57631988243, -0.066, 0.984, 0.03, 192.0, 0.0, 0.0, 0.0, 0.0, 0.0, 0.0, 0.0, 0.0, 0.0, 1.700951385332385E9, 0.0, 2023-11-25 17:29:45.332
115.0, 35875.24275484595, 49826.687553726144, 22095.928740016072, -26292.11113358869, 12582.243988781453, 51397.925781956415, 13785.63955851073, 30857.499642074068, -0.066, 0.984, 0.03, 192.0, 0.0, 0.0, 0.0, 0.0, 0.0, 0.0, 0.0, 0.0, 0.0, 1.700951385337474E9, 0.0, 2023-11-25 17:29:45.337
116.0, 35864.424510529585, 49882.03047299749, 22077.354440373714, -26247.51940340035, 12540.446226650027, 51186.90296255386, 13789.551113790407, 30872.09533120338, -0.066, 0.984, 0.03, 192.0, 0.0, 0.0, 0.0, 0.0, 0.0, 0.0, 0.0, 0.0, 0.0, 1.700951385340398E9, 0.0, 2023-11-25 17:29:45.340
117.0, 35931.30092993986, 49966.9447501832, 22075.23102465046, -26216.159905929555, 12516.105176938197, 51210.75227388767, 13792.032157424946, 30869.077845701915, -0.066, 0.984, 0.03, 192.0, 0.0, 0.0, 0.0, 0.0, 0.0, 0.0, 0.0, 0.0, 0.0, 1.70095138534475E9, 0.0, 2023-11-25 17:29:45.344
118.0, 36087.40551321572, 49981.09340442341, 22123.4213856961, -26092.800628280715, 12749.90442394071, 51712.34777120921, 13800.54817206242, 30895.229386714625, -0.066, 0.984, 0.03, 192.0, 0.0, 0.0, 0.0, 0.0, 0.0, 0.0, 0.0, 0.0, 0.0, 1.700951385348456E9, 0.0, 2023-11-25 17:29:45.348
119.0, 35916.12409545471, 49844.83717022386, 22095.70522257152, -26262.71858962996, 12604.662788470125, 51540.61931855909, 13778.576407262852, 30851.77759549351, -0.066, 0.984, 0.03, 192.0, 0.0, 0.0, 0.0, 0.0, 0.0, 0.0, 0.0, 0.0, 0.0, 1.700951385353497E9, 0.0, 2023-11-25 17:29:45.353
120.0, 35853.74037667995, 49870.116993202806, 22076.013335706393, -26254.739016859417, 12540.312116183295, 51159.03033721809, 13779.939863674625, 30859.064264185938, -0.064, 0.978, 0.034, 192.0, 254.0, 0.0, 30.0, 144.0, 1.0, 16.0, 0.0, 0.0, 0.0, 1.700951385358155E9, 0.0, 2023-11-25 17:29:45.358
121.0, 35912.234891919485, 49960.79802045799, 22066.111512912692, -26223.156001944066, 12495.206295872485, 51190.38983468889, 13779.135200874234, 30856.11383391784, -0.064, 0.978, 0.034, 192.0, 0.0, 0.0, 0.0, 0.0, 0.0, 0.0, 0.0, 0.0, 0.0, 1.700951385360467E9, 0.0, 2023-11-25 17:29:45.360
122.0, 36074.061521775904, 49991.03993070602, 22117.3193594598, -26102.16600920749, 12715.99682760201, 51577.90202831054, 13798.11183191679, 30884.321735420435, -0.064, 0.978, 0.034, 192.0, 0.0, 0.0, 0.0, 0.0, 0.0, 0.0, 0.0, 0.0, 0.0, 1.700951385364433E9, 0.0, 2023-11-25 17:29:45.364
123.0, 35965.83437512331, 49867.166562934704, 22095.884036527164, -26229.66035958056, 12638.682143531101, 51655.440229826, 13780.431602052642, 30849.073034414418, -0.064, 0.978, 0.034, 192.0, 0.0, 0.0, 0.0, 0.0, 0.0, 0.0, 0.0, 0.0, 0.0, 1.700951385368822E9, 0.0, 2023-11-25 17:29:45.368
124.0, 35850.633484200654, 49856.8177052519, 22078.717896785485, -26274.207386279988, 12537.316982426284, 51137.706773007725, 13788.232360867545, 30865.412159611245, -0.064, 0.978, 0.034, 192.0, 0.0, 0.0, 0.0, 0.0, 0.0, 0.0, 0.0, 0.0, 0.0, 1.700951385372604E9, 0.0, 2023-11-25 17:29:45.372
125.0, 35908.189226173075, 49951.633805231315, 22068.74901875842, -26225.61469383415, 12493.485211549427, 51187.9311427988, 13789.528762045951, 30881.326601663426, -0.064, 0.978, 0.034, 192.0, 0.0, 0.0, 0.0, 0.0, 0.0, 0.0, 0.0, 0.0, 0.0, 1.700951385376917E9, 0.0, 2023-11-25 17:29:45.376
126.0, 36054.10141397732, 49997.074901708955, 22111.977292534983, -26115.97938728087, 12674.959024782065, 51448.865407570054, 13805.085576186846, 30896.682250104222, -0.064, 0.978, 0.034, 192.0, 0.0, 0.0, 0.0, 0.0, 0.0, 0.0, 0.0, 0.0, 0.0, 1.700951385381489E9, 0.0, 2023-11-25 17:29:45.381
127.0, 36013.77886697994, 49891.39585392426, 22101.94135927455, -26180.821797945715, 12684.03383303092, 51751.373917028184, 13784.030232909947, 30853.96806645013, -0.064, 0.978, 0.034, 192.0, 0.0, 0.0, 0.0, 0.0, 0.0, 0.0, 0.0, 0.0, 0.0, 1.700951385385546E9, 0.0, 2023-11-25 17:29:45.385
128.0, 35847.12426032117, 49839.830379465864, 22081.46716135349, -26281.717572416972, 12540.133302227654, 51137.90793870782, 13788.545285289918, 30842.97100817812, -0.064, 0.978, 0.034, 192.0, 0.0, 0.0, 0.0, 0.0, 0.0, 0.0, 0.0, 0.0, 0.0, 1.700951385388502E9, 0.0, 2023-11-25 17:29:45.388
129.0, 35894.93464171108, 49933.70770617816, 22060.03183842085, -26222.53015309932, 12494.826316216746, 51187.03707302059, 13779.716346230072, 30862.662895043242, -0.064, 0.978, 0.034, 192.0, 0.0, 0.0, 0.0, 0.0, 0.0, 0.0, 0.0, 0.0, 0.0, 1.700951385392509E9, 0.0, 2023-11-25 17:29:45.392
130.0, 36022.496047317516, 49997.633695320335, 22099.505019128923, -26141.974466082393, 12620.867803200223, 51322.265126975195, 13796.569561549373, 30886.82513079943, -0.068, 0.976, 0.036000000000000004, 192.0, 253.0, 224.0, 30.0, 128.0, 1.0, 32.0, 0.0, 0.0, 0.0, 1.7009513853965E9, 0.0, 2023-11-25 17:29:45.396
131.0, 36058.348245423826, 49924.34232525138, 22110.457373912024, -26139.940457336957, 12718.94725787011, 51788.276647123894, 13786.645387011218, 30882.086560974905, -0.068, 0.976, 0.036000000000000004, 192.0, 0.0, 0.0, 0.0, 0.0, 0.0, 0.0, 0.0, 0.0, 0.0, 1.700951385400874E9, 0.0, 2023-11-25 17:29:45.400
132.0, 35848.3089027773, 49828.028658393465, 22079.567263074787, -26296.469723757473, 12535.394732403129, 51174.29657868107, 13796.30134061591, 30867.490871845588, -0.068, 0.976, 0.036000000000000004, 192.0, 0.0, 0.0, 0.0, 0.0, 0.0, 0.0, 0.0, 0.0, 0.0, 1.700951385404576E9, 0.0, 2023-11-25 17:29:45.404
133.0, 35888.318525352304, 49917.659153659246, 22057.975477930962, -26230.219153191945, 12500.168383141565, 51173.89424728087, 13797.485983072042, 30880.432531885213, -0.068, 0.976, 0.036000000000000004, 192.0, 0.0, 0.0, 0.0, 0.0, 0.0, 0.0, 0.0, 0.0, 0.0, 1.70095138540961E9, 0.0, 2023-11-25 17:29:45.409
134.0, 35986.73325618902, 49990.1011574389, 22077.332088629257, -26175.2785653208, 12561.30040422683, 51249.33138481753, 13807.946599477125, 30885.01463949855, -0.068, 0.976, 0.036000000000000004, 192.0, 0.0, 0.0, 0.0, 0.0, 0.0, 0.0, 0.0, 0.0, 0.0, 1.700951385413558E9, 0.0, 2023-11-25 17:29:45.413
135.0, 36082.91281258021, 49951.36558429785, 22110.50207740093, -26113.028957012768, 12735.241679578028, 51787.315522112316, 13810.248829156022, 30893.128322735825, -0.068, 0.976, 0.036000000000000004, 192.0, 0.0, 0.0, 0.0, 0.0, 0.0, 0.0, 0.0, 0.0, 0.0, 1.700951385416594E9, 0.0, 2023-11-25 17:29:45.416
136.0, 35856.42258601458, 49822.48542576855, 22081.601271820222, -26294.01103186739, 12542.10025573972, 51256.88627444342, 13806.717253532082, 30867.714389290144, -0.068, 0.976, 0.036000000000000004, 192.0, 0.0, 0.0, 0.0, 0.0, 0.0, 0.0, 0.0, 0.0, 0.0, 1.700951385420588E9, 0.0, 2023-11-25 17:29:45.420
137.0, 35877.88026069168, 49903.48814767458, 22070.067771681282, -26220.42908912052, 12521.871927007667, 51167.09931696646, 13809.891201244736, 30903.611290885365, -0.068, 0.976, 0.036000000000000004, 192.0, 0.0, 0.0, 0.0, 0.0, 0.0, 0.0, 0.0, 0.0, 0.0, 1.700951385424621E9, 0.0, 2023-11-25 17:29:45.424
138.0, 35957.20660176356, 49984.490869580615, 22076.99681246243, -26182.36406831313, 12532.377246901662, 51196.916544069834, 13815.143861191735, 30905.488837419613, -0.068, 0.976, 0.036000000000000004, 192.0, 0.0, 0.0, 0.0, 0.0, 0.0, 0.0, 0.0, 0.0, 0.0, 1.700951385428589E9, 0.0, 2023-11-25 17:29:45.428
139.0, 36091.965269084605, 49970.789250229514, 22113.117231502205, -26085.245738654823, 12743.154197115207, 51743.14847506863, 13814.361550135798, 30912.149657267295, -0.066, 0.982, 0.034, 192.0, 253.0, 240.0, 30.0, 176.0, 1.0, 16.0, 0.0, 0.0, 0.0, 1.700951385432781E9, 0.0, 2023-11-25 17:29:45.432
140.0, 35883.75876948342, 49833.52718752947, 22081.154236931114, -26277.71661015947, 12560.96512806, 51378.0774328801, 13800.659930784695, 30866.35093287837, -0.066, 0.982, 0.034, 192.0, 0.0, 0.0, 0.0, 0.0, 0.0, 0.0, 0.0, 0.0, 0.0, 1.70095138543734E9, 0.0, 2023-11-25 17:29:45.437
141.0, 35861.7646529394, 49882.47750788659, 22062.669344266575, -26234.37657766063, 12519.122662439664, 51142.08771492097, 13803.230381397056, 30882.757113308566, -0.066, 0.982, 0.034, 192.0, 0.0, 0.0, 0.0, 0.0, 0.0, 0.0, 0.0, 0.0, 0.0, 1.700951385441677E9, 0.0, 2023-11-25 17:29:45.441
142.0, 35923.0307844914, 49966.29654959399, 22055.248565107413, -26206.57100755823, 12487.51729577986, 51171.9272937688, 13796.100174915813, 30880.96897375214, -0.066, 0.982, 0.034, 192.0, 0.0, 0.0, 0.0, 0.0, 0.0, 0.0, 0.0, 0.0, 0.0, 1.700951385444685E9, 0.0, 2023-11-25 17:29:45.444
143.0, 36081.72817012408, 49980.914590467764, 22101.606083107723, -26087.749134033817, 12716.555621213392, 51647.23713961091, 13804.169154664178, 30904.058325774473, -0.066, 0.982, 0.034, 192.0, 0.0, 0.0, 0.0, 0.0, 0.0, 0.0, 0.0, 0.0, 0.0, 1.700951385448705E9, 0.0, 2023-11-25 17:29:45.448
144.0, 35926.67411883761, 49848.927539459175, 22082.495341598435, -26248.972266789948, 12589.553009218336, 51502.9566291519, 13792.188619636134, 30871.24596491408, -0.066, 0.982, 0.034, 192.0, 0.0, 0.0, 0.0, 0.0, 0.0, 0.0, 0.0, 0.0, 0.0, 1.700951385452696E9, 0.0, 2023-11-25 17:29:45.452
145.0, 35861.51878375039, 49864.70787104462, 22063.384600089146, -26250.42513017954, 12519.86027000669, 51102.45807200171, 13791.49571555802, 30880.074903973928, -0.066, 0.982, 0.034, 192.0, 0.0, 0.0, 0.0, 0.0, 0.0, 0.0, 0.0, 0.0, 0.0, 1.700951385457679E9, 0.0, 2023-11-25 17:29:45.457
146.0, 35918.2251594335, 49950.82914243092, 22049.057131893296, -26218.52919084182, 12471.401688027585, 51137.41620032981, 13785.72896548855, 30873.279973659515, -0.066, 0.982, 0.034, 192.0, 0.0, 0.0, 0.0, 0.0, 0.0, 0.0, 0.0, 0.0, 0.0, 1.700951385461711E9, 0.0, 2023-11-25 17:29:45.461
147.0, 36073.435672931155, 49983.03800619102, 22093.112420214704, -26101.182532451458, 12680.770478340446, 51510.08683563314, 13791.339253346832, 30892.43541865771, -0.066, 0.982, 0.034, 192.0, 0.0, 0.0, 0.0, 0.0, 0.0, 0.0, 0.0, 0.0, 0.0, 1.700951385464723E9, 0.0, 2023-11-25 17:29:45.464
148.0, 35973.12104381574, 49856.99651920754, 22077.64501305163, -26215.89168499609, 12621.49365204497, 51632.105008614664, 13769.278081569444, 30859.466595586135, -0.066, 0.982, 0.034, 192.0, 0.0, 0.0, 0.0, 0.0, 0.0, 0.0, 0.0, 0.0, 0.0, 1.700951385470722E9, 0.0, 2023-11-25 17:29:45.470
149.0, 35850.633484200654, 49838.48927479855, 22064.926870456562, -26262.115092529668, 12521.402540374105, 51092.757414908105, 13786.935959689137, 30871.402427125267, -0.068, 0.98, 0.042, 192.0, 253.0, 224.0, 30.0, 160.0, 1.0, 80.0, 0.0, 0.0, 0.0, 1.700951385473773E9, 0.0, 2023-11-25 17:29:45.473
150.0, 35900.835502247275, 49938.15570332477, 22048.721855726464, -26212.695385538984, 12474.12860085113, 51145.10520042243, 13786.935959689137, 30867.490871845588, -0.068, 0.98, 0.042, 192.0, 0.0, 0.0, 0.0, 0.0, 0.0, 0.0, 0.0, 0.0, 0.0, 1.700951385476788E9, 0.0, 2023-11-25 17:29:45.476
