%OpenBCI Raw EEG Data
%Number of channels = 8
%Sample Rate = 250 Hz
%Board = OpenBCI_GUI$BoardCytonSerial
Sample Index, EXG Channel 0, EXG Channel 1, EXG Channel 2, EXG Channel 3, EXG Channel 4, EXG Channel 5, EXG Channel 6, EXG Channel 7, Accel Channel 0, Accel Channel 1, Accel Channel 2, Other, Other, Other, Other, Other, Other, Other, Analog Channel 0, Analog Channel 1, Analog Channel 2, Timestamp, Other, Timestamp (Formatted)
42.0, 25020.498039781814, 35148.676949581735, -187500.02235174447, 67180.06785870407, 4684.791527365628, -5312.003828526, 6701.187098167789, 32121.580197999505, 0.02, 1.016, 0.08600000000000001, 192.0, 0.0, 0.0, 0.0, 0.0, 0.0, 0.0, 0.0, 0.0, 0.0, 1.6909309929096289E9, 0.0, 2023-08-01 19:03:12.909
43.0, 25012.652577478002, 35135.109440697364, -187500.02235174447, 67119.51698297464, 4675.560256905586, -5286.008749724478, 6705.903316247859, 32122.563674755536, 0.02, 1.016, 0.08600000000000001, 192.0, 0.0, 0.0, 0.0, 0.0, 0.0, 0.0, 0.0, 0.0, 0.0, 1.6909309929097297E9, 0.0, 2023-08-01 19:03:12.909
44.0, 25007.154048341996, 35125.16291441476, -187500.02235174447, 67212.94727479783, 4667.133649245936, -5240.724115458026, 6721.61659259994, 32163.780291531122, 0.02, 1.016, 0.08600000000000001, 192.0, 0.0, 0.0, 0.0, 0.0, 0.0, 0.0, 0.0, 0.0, 0.0, 1.6909309929098227E9, 0.0, 2023-08-01 19:03:12.909
45.0, 25014.686586223437, 35137.501077354085, -187500.02235174447, 67286.37275533352, 4681.148193019413, -5250.51417952945, 6725.28227869061, 32180.499396383693, 0.02, 1.016, 0.08600000000000001, 192.0, 0.0, 0.0, 0.0, 0.0, 0.0, 0.0, 0.0, 0.0, 0.0, 1.6909309929099157E9, 0.0, 2023-08-01 19:03:12.909
46.0, 25034.132603899554, 35149.727481571135, -187500.02235174447, 67217.55173415563, 4693.173431536368, -5289.80854628188, 6718.800272798571, 32157.499451339183, 0.02, 1.016, 0.08600000000000001, 192.0, 0.0, 0.0, 0.0, 0.0, 0.0, 0.0, 0.0, 0.0, 0.0, 1.6909309929100096E9, 0.0, 2023-08-01 19:03:12.910
47.0, 25012.98785364483, 35150.979179260634, -187500.02235174447, 67148.46249204427, 4689.418338467877, -5281.694863044603, 6722.667124589339, 32151.822108247532, 0.02, 1.016, 0.08600000000000001, 192.0, 0.0, 0.0, 0.0, 0.0, 0.0, 0.0, 0.0, 0.0, 0.0, 1.690930992910103E9, 0.0, 2023-08-01 19:03:12.910
48.0, 25011.356176299596, 35147.02292049205, -187500.02235174447, 67213.34960619803, 4684.612713409986, -5245.082705626811, 6732.814816572049, 32168.809434033567, 0.02, 1.016, 0.08600000000000001, 192.0, 0.0, 0.0, 0.0, 0.0, 0.0, 0.0, 0.0, 0.0, 0.0, 1.690930992910196E9, 0.0, 2023-08-01 19:03:12.910
49.0, 25009.009243131786, 35139.98212098862, -187500.02235174447, 67296.07341242713, 4675.560256905586, -5246.580272505316, 6733.261851461155, 32184.52271038565, 0.02, 1.016, 0.08600000000000001, 192.0, 0.0, 0.0, 0.0, 0.0, 0.0, 0.0, 0.0, 0.0, 0.0, 1.6909309929102948E9, 0.0, 2023-08-01 19:03:12.910
50.0, 25023.180249116453, 35158.690531097716, -187500.02235174447, 67254.00742936223, 4693.2181350252795, -5295.463537629073, 6713.704075062761, 32160.382826373916, 0.02, 1.016, 0.08600000000000001, 192.0, 0.0, 0.0, 0.0, 0.0, 0.0, 0.0, 0.0, 0.0, 0.0, 1.690930992910442E9, 0.0, 2023-08-01 19:03:12.910
51.0, 25030.24340036433, 35162.49032765512, -187500.02235174447, 67132.48099475873, 4697.68848391634, -5287.841592769813, 6715.671028574829, 32136.98054992921, 0.018000000000000002, 1.02, 0.09, 192.0, 0.0, 144.0, 31.0, 224.0, 2.0, 208.0, 0.0, 0.0, 0.0, 1.69093099291054E9, 0.0, 2023-08-01 19:03:12.910
52.0, 25017.838182191634, 35154.66721709576, -187500.02235174447, 67195.24469318923, 4677.840134840028, -5231.515196742439, 6732.658354360861, 32168.429454377827, 0.018000000000000002, 1.02, 0.09, 192.0, 0.0, 0.0, 0.0, 0.0, 0.0, 0.0, 0.0, 0.0, 0.0, 1.6909309929106388E9, 0.0, 2023-08-01 19:03:12.910
53.0, 25020.408632803996, 35155.404824662786, -187500.02235174447, 67282.77412447621, 4677.3707482064665, -5237.41605727864, 6732.099560749479, 32177.727780071236, 0.018000000000000002, 1.02, 0.09, 192.0, 0.0, 0.0, 0.0, 0.0, 0.0, 0.0, 0.0, 0.0, 0.0, 1.690930992910733E9, 0.0, 2023-08-01 19:03:12.910
54.0, 25015.08891762363, 35140.13858319981, -187500.02235174447, 67267.23966207978, 4678.845963340516, -5278.476211843039, 6720.789578055093, 32156.583029816513, 0.018000000000000002, 1.02, 0.09, 192.0, 0.0, 0.0, 0.0, 0.0, 0.0, 0.0, 0.0, 0.0, 0.0, 1.6909309929108248E9, 0.0, 2023-08-01 19:03:12.910
55.0, 25015.357138557094, 35143.044309979, -187500.02235174447, 67173.38468711195, 4683.852754098506, -5290.076767215343, 6719.113197220945, 32138.992206930187, 0.018000000000000002, 1.02, 0.09, 192.0, 0.0, 0.0, 0.0, 0.0, 0.0, 0.0, 0.0, 0.0, 0.0, 1.6909309929109168E9, 0.0, 2023-08-01 19:03:12.910
56.0, 25011.110307110586, 35138.819830276945, -187500.02235174447, 67203.24661770424, 4675.269684227667, -5244.434505037607, 6732.613650871951, 32159.242887406697, 0.018000000000000002, 1.02, 0.09, 192.0, 0.0, 0.0, 0.0, 0.0, 0.0, 0.0, 0.0, 0.0, 0.0, 1.6909309929117124E9, 0.0, 2023-08-01 19:03:12.911
57.0, 25007.645786720015, 35132.673100551736, -187500.02235174447, 67287.75856348974, 4673.883876071439, -5243.361621303752, 6733.351258438976, 32173.190375946808, 0.018000000000000002, 1.02, 0.09, 192.0, 0.0, 0.0, 0.0, 0.0, 0.0, 0.0, 0.0, 0.0, 0.0, 1.6909309929118092E9, 0.0, 2023-08-01 19:03:12.911
58.0, 25006.70701345289, 35132.740155785104, -187500.02235174447, 67292.07245016962, 4677.25898948419, -5254.939824931601, 6733.686534605806, 32164.249678164684, 0.018000000000000002, 1.02, 0.09, 192.0, 0.0, 0.0, 0.0, 0.0, 0.0, 0.0, 0.0, 0.0, 0.0, 1.6909309929119256E9, 0.0, 2023-08-01 19:03:12.911
59.0, 25010.19388558792, 35134.30477789698, -187500.02235174447, 67183.39826862792, 4684.746823876718, -5292.602514338793, 6718.241479187189, 32129.135087625396, 0.018000000000000002, 1.02, 0.09, 192.0, 0.0, 0.0, 0.0, 0.0, 0.0, 0.0, 0.0, 0.0, 0.0, 1.6909309929120903E9, 0.0, 2023-08-01 19:03:12.912
60.0, 25016.005339146297, 35133.12013544085, -187500.02235174447, 67181.81129477159, 4685.9985215662155, -5240.634708480205, 6741.308479465066, 32149.206954146262, 0.018000000000000002, 1.02, 0.09, 192.0, 0.0, 0.0, 0.0, 0.0, 0.0, 0.0, 0.0, 0.0, 0.0, 1.6909309929122283E9, 0.0, 2023-08-01 19:03:12.912
61.0, 25008.450449520406, 35123.50888532506, -187500.02235174447, 67287.87032221202, 4681.796393608617, -5218.46177798054, 6744.102447521979, 32179.98530626122, 0.018000000000000002, 1.02, 0.08600000000000001, 192.0, 0.0, 144.0, 31.0, 224.0, 2.0, 176.0, 0.0, 0.0, 0.0, 1.690930992912361E9, 0.0, 2023-08-01 19:03:12.912
62.0, 25004.516542496272, 35137.47872560963, -187500.02235174447, 67303.62830205301, 4690.5135739461875, -5250.760048718459, 6729.171482225834, 32170.37405614544, 0.018000000000000002, 1.02, 0.08600000000000001, 192.0, 0.0, 0.0, 0.0, 0.0, 0.0, 0.0, 0.0, 0.0, 0.0, 1.6909309929125116E9, 0.0, 2023-08-01 19:03:12.912
63.0, 25013.94897865641, 35144.89950476879, -187500.02235174447, 67201.27966419216, 4694.559239692598, -5282.365415378263, 6722.71182807825, 32144.110756410453, 0.018000000000000002, 1.02, 0.08600000000000001, 192.0, 0.0, 0.0, 0.0, 0.0, 0.0, 0.0, 0.0, 0.0, 0.0, 1.6909309929126492E9, 0.0, 2023-08-01 19:03:12.912
64.0, 25017.927589169456, 35137.12109769834, -187500.02235174447, 67188.11448670799, 4690.2230012682685, -5246.222644594031, 6742.359011454465, 32158.907611239865, 0.018000000000000002, 1.02, 0.08600000000000001, 192.0, 0.0, 0.0, 0.0, 0.0, 0.0, 0.0, 0.0, 0.0, 0.0, 1.6909309929127898E9, 0.0, 2023-08-01 19:03:12.912
65.0, 25000.180304071942, 35123.06185043596, -187500.02235174447, 67287.98208093431, 4683.986864565238, -5225.234356550498, 6741.8002178430825, 32183.181605718328, 0.018000000000000002, 1.02, 0.08600000000000001, 192.0, 0.0, 0.0, 0.0, 0.0, 0.0, 0.0, 0.0, 0.0, 0.0, 1.690930992912965E9, 0.0, 2023-08-01 19:03:12.912
66.0, 24993.56418771317, 35122.883036480314, -187500.02235174447, 67311.31730214565, 4681.706986630797, -5261.75710699047, 6719.582583854507, 32162.349779885983, 0.018000000000000002, 1.02, 0.08600000000000001, 192.0, 0.0, 0.0, 0.0, 0.0, 0.0, 0.0, 0.0, 0.0, 0.0, 1.6909309929131093E9, 0.0, 2023-08-01 19:03:12.913
67.0, 25017.681719980446, 35147.62641759234, -187500.02235174447, 67205.95117878332, 4714.072312602081, -5294.9494475066, 6714.821662285526, 32128.799811458568, 0.018000000000000002, 1.02, 0.08600000000000001, 192.0, 0.0, 0.0, 0.0, 0.0, 0.0, 0.0, 0.0, 0.0, 0.0, 1.6909309929132192E9, 0.0, 2023-08-01 19:03:12.913
68.0, 25012.8537431781, 35143.84897277939, -187500.02235174447, 67144.48388153123, 4710.160757322402, -5260.751278489981, 6731.138435737901, 32135.281817350606, 0.018000000000000002, 1.02, 0.08600000000000001, 192.0, 0.0, 0.0, 0.0, 0.0, 0.0, 0.0, 0.0, 0.0, 0.0, 1.6909309929133403E9, 0.0, 2023-08-01 19:03:12.913
69.0, 25010.551513499202, 35154.91308628477, -187500.02235174447, 67246.81016764762, 4706.584478209553, -5216.316010512831, 6745.421200444842, 32178.577146360538, 0.018000000000000002, 1.02, 0.08600000000000001, 192.0, 0.0, 0.0, 0.0, 0.0, 0.0, 0.0, 0.0, 0.0, 0.0, 1.6909309929134376E9, 0.0, 2023-08-01 19:03:12.913
70.0, 25012.406708288992, 35147.11232746987, -187500.02235174447, 67307.89748524399, 4705.332780520056, -5236.544339244883, 6736.771075340638, 32183.60628886298, 0.018000000000000002, 1.02, 0.08600000000000001, 192.0, 0.0, 0.0, 0.0, 0.0, 0.0, 0.0, 0.0, 0.0, 0.0, 1.6909309929135313E9, 0.0, 2023-08-01 19:03:12.913
71.0, 25012.80903968919, 35128.44862084969, -187500.02235174447, 67243.23388853477, 4707.344437521033, -5281.180772922132, 6718.107368720457, 32153.297323381583, 0.016, 1.02, 0.08600000000000001, 192.0, 0.0, 128.0, 31.0, 224.0, 2.0, 176.0, 0.0, 0.0, 0.0, 1.690930992913835E9, 0.0, 2023-08-01 19:03:12.913
72.0, 25022.397938060516, 35141.72555705614, -187500.02235174447, 67162.61114628449, 4711.83713815655, -5269.669624527648, 6724.969354268236, 32144.60249478847, 0.016, 1.02, 0.08600000000000001, 192.0, 0.0, 0.0, 0.0, 0.0, 0.0, 0.0, 0.0, 0.0, 0.0, 1.690930992914044E9, 0.0, 2023-08-01 19:03:12.914
73.0, 25027.42708056296, 35147.31349316997, -187500.02235174447, 67215.58478064356, 4709.199632310824, -5218.104150069255, 6740.302650964577, 32167.803605533078, 0.016, 1.02, 0.08600000000000001, 192.0, 0.0, 0.0, 0.0, 0.0, 0.0, 0.0, 0.0, 0.0, 0.0, 1.6909309929141855E9, 0.0, 2023-08-01 19:03:12.914
74.0, 25015.29008332373, 35125.20761790367, -187500.02235174447, 67312.56899983514, 4693.441652469833, -5217.657115180149, 6740.883796320414, 32190.624736621947, 0.016, 1.02, 0.08600000000000001, 192.0, 0.0, 0.0, 0.0, 0.0, 0.0, 0.0, 0.0, 0.0, 0.0, 1.6909309929142823E9, 0.0, 2023-08-01 19:03:12.914
75.0, 24989.8985016225, 35122.05602193547, -187500.02235174447, 67285.67985125541, 4689.105414045503, -5273.42471759614, 6712.295915162077, 32164.56260258706, 0.016, 1.02, 0.08600000000000001, 192.0, 0.0, 0.0, 0.0, 0.0, 0.0, 0.0, 0.0, 0.0, 0.0, 1.6909309929143767E9, 0.0, 2023-08-01 19:03:12.914
76.0, 25000.537931983225, 35127.06281269345, -187500.02235174447, 67194.28356817765, 4695.855640871006, -5275.928112975134, 6706.484461603697, 32144.133108154907, 0.016, 1.02, 0.08600000000000001, 192.0, 0.0, 0.0, 0.0, 0.0, 0.0, 0.0, 0.0, 0.0, 0.0, 1.69093099291447E9, 0.0, 2023-08-01 19:03:12.914
77.0, 25004.941225640923, 35122.05602193547, -187500.02235174447, 67237.69065590986, 4691.966437335782, -5230.84464440878, 6717.436816386798, 32161.343951385494, 0.016, 1.02, 0.08600000000000001, 192.0, 0.0, 0.0, 0.0, 0.0, 0.0, 0.0, 0.0, 0.0, 0.0, 1.6909309929145625E9, 0.0, 2023-08-01 19:03:12.914
78.0, 24988.535045210727, 35109.31552759594, -187500.02235174447, 67351.39397995401, 4681.081137786047, -5204.737806884981, 6725.774017068627, 32191.56350988907, 0.016, 1.02, 0.08600000000000001, 192.0, 0.0, 0.0, 0.0, 0.0, 0.0, 0.0, 0.0, 0.0, 0.0, 1.6909309929146557E9, 0.0, 2023-08-01 19:03:12.914
79.0, 24998.258054048783, 35116.177513143724, -187500.02235174447, 67339.3910931815, 4691.318236746578, -5262.092383157299, 6703.914010991337, 32161.94744848579, 0.016, 1.02, 0.08600000000000001, 192.0, 0.0, 0.0, 0.0, 0.0, 0.0, 0.0, 0.0, 0.0, 0.0, 1.6909309929147499E9, 0.0, 2023-08-01 19:03:12.914
80.0, 25005.254150063294, 35121.58663530191, -187500.02235174447, 67204.90064679392, 4696.749710649217, -5291.909610260679, 6693.855725986448, 32120.082631120997, 0.016, 1.02, 0.08600000000000001, 192.0, 0.0, 0.0, 0.0, 0.0, 0.0, 0.0, 0.0, 0.0, 0.0, 1.690930992914844E9, 0.0, 2023-08-01 19:03:12.914
81.0, 24998.593330215615, 35122.92773996922, -187500.02235174447, 67239.14351929945, 4692.614637924986, -5223.490920482984, 6723.874118789926, 32157.65591355037, 0.014, 1.016, 0.094, 192.0, 0.0, 112.0, 31.0, 192.0, 2.0, 240.0, 0.0, 0.0, 0.0, 1.6909309929149363E9, 0.0, 2023-08-01 19:03:12.914
82.0, 25001.677870950447, 35128.87330399434, -187500.02235174447, 67316.77112779273, 4701.64474268493, -5213.36558024473, 6732.5242438941295, 32176.923117270842, 0.014, 1.016, 0.094, 192.0, 0.0, 0.0, 0.0, 0.0, 0.0, 0.0, 0.0, 0.0, 0.0, 1.6909309929150496E9, 0.0, 2023-08-01 19:03:12.915
83.0, 24996.715783681368, 35120.69256552369, -187500.02235174447, 67326.33767441961, 4696.794414138129, -5236.499635755973, 6729.506758392663, 32172.85509977998, 0.014, 1.016, 0.094, 192.0, 0.0, 0.0, 0.0, 0.0, 0.0, 0.0, 0.0, 0.0, 0.0, 1.6909309929151912E9, 0.0, 2023-08-01 19:03:12.915
84.0, 24994.301795280197, 35120.312585867956, -187500.02235174447, 67226.58183891558, 4694.6262949259635, -5278.900894987691, 6704.025769713613, 32142.568486043037, 0.014, 1.016, 0.094, 192.0, 0.0, 0.0, 0.0, 0.0, 0.0, 0.0, 0.0, 0.0, 0.0, 1.6909309929153144E9, 0.0, 2023-08-01 19:03:12.915
85.0, 25006.52819949725, 35134.416536619254, -187500.02235174447, 67214.33308295406, 4701.108300818003, -5235.449103766573, 6724.455264145764, 32160.002846718176, 0.014, 1.016, 0.094, 192.0, 0.0, 0.0, 0.0, 0.0, 0.0, 0.0, 0.0, 0.0, 0.0, 1.6909309929154077E9, 0.0, 2023-08-01 19:03:12.915
86.0, 25007.51167625328, 35134.10361219688, -187500.02235174447, 67306.95871197685, 4692.726396647263, -5211.532737199394, 6731.04902876008, 32186.98140227573, 0.014, 1.016, 0.094, 192.0, 0.0, 0.0, 0.0, 0.0, 0.0, 0.0, 0.0, 0.0, 0.0, 1.690930992915502E9, 0.0, 2023-08-01 19:03:12.915
87.0, 24995.531141225238, 35129.320338883444, -187500.02235174447, 67337.4464914139, 4689.820669868072, -5247.429638794618, 6714.262868674144, 32175.157329458874, 0.014, 1.016, 0.094, 192.0, 0.0, 0.0, 0.0, 0.0, 0.0, 0.0, 0.0, 0.0, 0.0, 1.6909309929157338E9, 0.0, 2023-08-01 19:03:12.915
88.0, 24998.302757537695, 35127.73336502712, -187500.02235174447, 67240.90930711142, 4699.946010106327, -5292.758976549981, 6705.322170892021, 32142.03204417611, 0.014, 1.016, 0.094, 192.0, 0.0, 0.0, 0.0, 0.0, 0.0, 0.0, 0.0, 0.0, 0.0, 1.6909309929158275E9, 0.0, 2023-08-01 19:03:12.915
89.0, 25010.350347799107, 35124.58176905892, -187500.02235174447, 67195.9599490118, 4702.158832807402, -5251.005917907467, 6723.315325178543, 32149.60928554646, 0.014, 1.016, 0.094, 192.0, 0.0, 0.0, 0.0, 0.0, 0.0, 0.0, 0.0, 0.0, 0.0, 1.6909309929159217E9, 0.0, 2023-08-01 19:03:12.915
90.0, 25004.740059940825, 35118.16681840024, -187500.02235174447, 67275.82273195061, 4689.686559401341, -5213.812615133836, 6733.261851461155, 32174.66559108086, 0.014, 1.016, 0.094, 192.0, 0.0, 0.0, 0.0, 0.0, 0.0, 0.0, 0.0, 0.0, 0.0, 1.6909309929160237E9, 0.0, 2023-08-01 19:03:12.916
91.0, 24999.66621394947, 35115.126981154324, -187500.02235174447, 67324.37072090754, 4687.093757044525, -5246.312051571853, 6719.895508276882, 32171.73751255721, 0.012, 1.02, 0.096, 192.0, 0.0, 96.0, 31.0, 224.0, 3.0, 0.0, 0.0, 0.0, 0.0, 1.6909309929161189E9, 0.0, 2023-08-01 19:03:12.916
92.0, 25004.0024523738, 35121.31841436844, -187500.02235174447, 67236.01427507571, 4697.59907693852, -5296.156441707188, 6699.220144655722, 32136.511163295647, 0.012, 1.02, 0.096, 192.0, 0.0, 0.0, 0.0, 0.0, 0.0, 0.0, 0.0, 0.0, 0.0, 1.690930992916216E9, 0.0, 2023-08-01 19:03:12.916
93.0, 24997.498094737304, 35116.84806547738, -187500.02235174447, 67164.46634107428, 4680.343530219023, -5273.8046972518805, 6699.533069078097, 32126.78815445759, 0.012, 1.02, 0.096, 192.0, 0.0, 0.0, 0.0, 0.0, 0.0, 0.0, 0.0, 0.0, 0.0, 1.690930992916309E9, 0.0, 2023-08-01 19:03:12.916
94.0, 24997.386336015028, 35117.47391432213, -187500.02235174447, 67259.7741794317, 4671.134611503436, -5228.721228685526, 6714.75460705216, 32161.768634530144, 0.012, 1.02, 0.096, 192.0, 0.0, 0.0, 0.0, 0.0, 0.0, 0.0, 0.0, 0.0, 0.0, 1.690930992916402E9, 0.0, 2023-08-01 19:03:12.916
95.0, 25010.551513499202, 35128.7391935276, -187500.02235174447, 67323.23078194032, 4685.015044810181, -5238.287775312398, 6717.28035417561, 32171.111663712465, 0.012, 1.02, 0.096, 192.0, 0.0, 0.0, 0.0, 0.0, 0.0, 0.0, 0.0, 0.0, 0.0, 1.6909309929164977E9, 0.0, 2023-08-01 19:03:12.916
96.0, 25013.61370248958, 35137.59048433191, -187500.02235174447, 67260.91411839893, 4693.173431536368, -5270.071955927844, 6707.646752315373, 32150.45865183576, 0.012, 1.02, 0.096, 192.0, 0.0, 0.0, 0.0, 0.0, 0.0, 0.0, 0.0, 0.0, 0.0, 1.69093099291659E9, 0.0, 2023-08-01 19:03:12.916
97.0, 24997.94512962641, 35132.38252787382, -187500.02235174447, 67182.86182676099, 4682.623408153464, -5262.382955835218, 6702.259981901644, 32139.50629705266, 0.012, 1.02, 0.096, 192.0, 0.0, 0.0, 0.0, 0.0, 0.0, 0.0, 0.0, 0.0, 0.0, 1.6909309929166842E9, 0.0, 2023-08-01 19:03:12.916
98.0, 25017.99464440282, 35128.38156561632, -187500.02235174447, 67247.57012695911, 4676.856658083994, -5220.719304170526, 6713.704075062761, 32165.859003765465, 0.012, 1.02, 0.096, 192.0, 0.0, 0.0, 0.0, 0.0, 0.0, 0.0, 0.0, 0.0, 0.0, 1.6909309929167776E9, 0.0, 2023-08-01 19:03:12.916
99.0, 24998.83919940462, 35119.887902723305, -187500.02235174447, 67332.81968031164, 4673.772117349162, -5225.1449495726765, 6711.133624450401, 32182.622812106947, 0.012, 1.02, 0.096, 192.0, 0.0, 0.0, 0.0, 0.0, 0.0, 0.0, 0.0, 0.0, 0.0, 1.69093099291687E9, 0.0, 2023-08-01 19:03:12.916
100.0, 24994.972347613853, 35131.15318192878, -187500.02235174447, 67284.1822843769, 4683.986864565238, -5272.821220495846, 6697.677874288306, 32153.967875715243, 0.012, 1.02, 0.096, 192.0, 0.0, 0.0, 0.0, 0.0, 0.0, 0.0, 0.0, 0.0, 0.0, 1.690930992916962E9, 0.0, 2023-08-01 19:03:12.916
101.0, 24987.663327176968, 35129.47680109463, -187500.02235174447, 67193.47890537727, 4678.510687173687, -5273.938807718612, 6704.271638902622, 32137.539343540593, 0.012, 1.02, 0.096, 192.0, 0.0, 0.0, 0.0, 0.0, 0.0, 0.0, 0.0, 0.0, 0.0, 1.6909309929170575E9, 0.0, 2023-08-01 19:03:12.917
102.0, 24990.323184767152, 35124.626472547825, -187500.02235174447, 67251.16875781641, 4677.97424530676, -5233.683315954604, 6720.789578055093, 32158.54998332858, 0.016, 1.022, 0.092, 192.0, 0.0, 128.0, 31.0, 240.0, 2.0, 224.0, 0.0, 0.0, 0.0, 1.6909309929171581E9, 0.0, 2023-08-01 19:03:12.917
103.0, 24988.08801032162, 35119.79849574548, -187500.02235174447, 67347.12479676305, 4676.968416806271, -5211.018647076923, 6726.221051957733, 32182.756922573677, 0.016, 1.022, 0.092, 192.0, 0.0, 0.0, 0.0, 0.0, 0.0, 0.0, 0.0, 0.0, 0.0, 1.6909309929173722E9, 0.0, 2023-08-01 19:03:12.917
104.0, 24991.48547547883, 35122.23483589111, -187500.02235174447, 67329.2881046877, 4675.672015627863, -5260.9524441900785, 6705.970371481225, 32161.32159964104, 0.016, 1.022, 0.092, 192.0, 0.0, 0.0, 0.0, 0.0, 0.0, 0.0, 0.0, 0.0, 0.0, 1.6909309929174669E9, 0.0, 2023-08-01 19:03:12.917
105.0, 24994.637071447025, 35122.07837367992, -187500.02235174447, 67202.95604502631, 4679.516515674176, -5291.797851538402, 6698.057853944047, 32125.49175327918, 0.016, 1.022, 0.092, 192.0, 0.0, 0.0, 0.0, 0.0, 0.0, 0.0, 0.0, 0.0, 0.0, 1.6909309929175847E9, 0.0, 2023-08-01 19:03:12.917
106.0, 24996.38050751454, 35124.291196381, -187500.02235174447, 67225.12897552598, 4673.794469093617, -5241.573481747328, 6717.95090650927, 32146.144765155885, 0.016, 1.022, 0.092, 192.0, 0.0, 0.0, 0.0, 0.0, 0.0, 0.0, 0.0, 0.0, 0.0, 1.6909309929176776E9, 0.0, 2023-08-01 19:03:12.917
107.0, 25002.504885495295, 35123.48653358061, -187500.02235174447, 67317.77695629322, 4670.374652191956, -5233.1245223432215, 6720.834281544004, 32162.260372908164, 0.016, 1.022, 0.092, 192.0, 0.0, 0.0, 0.0, 0.0, 0.0, 0.0, 0.0, 0.0, 0.0, 1.6909309929177723E9, 0.0, 2023-08-01 19:03:12.917
108.0, 25001.074373850155, 35114.70229800967, -187500.02235174447, 67328.68460758742, 4671.11225975898, -5262.427659324129, 6714.844014029982, 32153.11850942594, 0.016, 1.022, 0.092, 192.0, 0.0, 0.0, 0.0, 0.0, 0.0, 0.0, 0.0, 0.0, 0.0, 1.6909309929178655E9, 0.0, 2023-08-01 19:03:12.917
109.0, 25007.064641364177, 35118.837370733905, -187500.02235174447, 67234.36024598601, 4673.079213271048, -5297.922229519157, 6695.9567899652475, 32126.519933524127, 0.016, 1.022, 0.092, 192.0, 0.0, 0.0, 0.0, 0.0, 0.0, 0.0, 0.0, 0.0, 0.0, 1.6909309929179585E9, 0.0, 2023-08-01 19:03:12.917
110.0, 25007.265807064272, 35136.40584187578, -187500.02235174447, 67219.80926034562, 4686.780832622151, -5251.408249307662, 6713.078226218013, 32142.568486043037, 0.016, 1.022, 0.092, 192.0, 0.0, 0.0, 0.0, 0.0, 0.0, 0.0, 0.0, 0.0, 0.0, 1.6909309929180508E9, 0.0, 2023-08-01 19:03:12.918
111.0, 25002.460182006384, 35134.90827499727, -187500.02235174447, 67309.50681084476, 4677.25898948419, -5226.754275173459, 6719.157900709856, 32165.501375854183, 0.016, 1.022, 0.092, 192.0, 0.0, 0.0, 0.0, 0.0, 0.0, 0.0, 0.0, 0.0, 0.0, 1.6909309929181528E9, 0.0, 2023-08-01 19:03:12.918
112.0, 25009.27746406525, 35144.85480127988, -187500.02235174447, 67319.63215108302, 4684.903286087905, -5253.643423753193, 6713.2123366847445, 32153.677303037322, 0.008, 1.024, 0.088, 192.0, 0.0, 64.0, 32.0, 0.0, 2.0, 192.0, 0.0, 0.0, 0.0, 1.690930992918246E9, 0.0, 2023-08-01 19:03:12.918
113.0, 24997.587501715127, 35143.67015882375, -187500.02235174447, 67235.41077797541, 4677.571913906564, -5281.627807811237, 6700.293028389577, 32133.06899464953, 0.008, 1.024, 0.088, 192.0, 0.0, 0.0, 0.0, 0.0, 0.0, 0.0, 0.0, 0.0, 0.0, 1.690930992918345E9, 0.0, 2023-08-01 19:03:12.918
114.0, 25005.254150063294, 35154.01901650656, -187500.02235174447, 67196.09405947854, 4686.154983777402, -5260.170133134143, 6706.775034281616, 32135.371224328428, 0.008, 1.024, 0.088, 192.0, 0.0, 0.0, 0.0, 0.0, 0.0, 0.0, 0.0, 0.0, 0.0, 1.6909309929184384E9, 0.0, 2023-08-01 19:03:12.918
115.0, 25003.220141317863, 35138.52925759903, -187500.02235174447, 67291.53600830269, 4680.835268597039, -5216.673638424116, 6724.276450190121, 32170.619925334446, 0.008, 1.024, 0.088, 192.0, 0.0, 0.0, 0.0, 0.0, 0.0, 0.0, 0.0, 0.0, 0.0, 1.6909309929185317E9, 0.0, 2023-08-01 19:03:12.918
116.0, 24994.70412668039, 35125.609949303864, -187500.02235174447, 67336.32890419113, 4673.325082460056, -5249.575406262327, 6713.771130296127, 32165.74724504319, 0.008, 1.024, 0.088, 192.0, 0.0, 0.0, 0.0, 0.0, 0.0, 0.0, 0.0, 0.0, 0.0, 1.6909309929186244E9, 0.0, 2023-08-01 19:03:12.918
117.0, 25000.42617326095, 35126.660481293264, -187500.02235174447, 67245.91609786941, 4680.030605796648, -5299.308037675386, 6697.94609522177, 32130.096212636974, 0.008, 1.024, 0.088, 192.0, 0.0, 0.0, 0.0, 0.0, 0.0, 0.0, 0.0, 0.0, 0.0, 1.6909309929187157E9, 0.0, 2023-08-01 19:03:12.918
118.0, 24999.554455227193, 35127.57690281593, -187500.02235174447, 67202.48665839275, 4675.850829583505, -5264.841647725302, 6715.46986287473, 32140.713291253247, 0.008, 1.024, 0.088, 192.0, 0.0, 0.0, 0.0, 0.0, 0.0, 0.0, 0.0, 0.0, 0.0, 1.690930992918914E9, 0.0, 2023-08-01 19:03:12.918
119.0, 24997.162818570476, 35133.67892905223, -187500.02235174447, 67290.12784840201, 4669.838210325028, -5234.0632956103445, 6721.817758300038, 32167.758902044166, 0.008, 1.024, 0.088, 192.0, 0.0, 0.0, 0.0, 0.0, 0.0, 0.0, 0.0, 0.0, 0.0, 1.6909309929190104E9, 0.0, 2023-08-01 19:03:12.919
120.0, 25003.242493062316, 35132.20371391818, -187500.02235174447, 67348.62236364155, 4676.4319749393435, -5236.030249122411, 6718.129720464912, 32170.17289044534, 0.008, 1.024, 0.088, 192.0, 0.0, 0.0, 0.0, 0.0, 0.0, 0.0, 0.0, 0.0, 0.0, 1.6909309929191113E9, 0.0, 2023-08-01 19:03:12.919
121.0, 24998.392164515517, 35125.58759755941, -187500.02235174447, 67291.73717400279, 4681.863448841983, -5271.278950128431, 6701.924705734815, 32147.26235237865, 0.008, 1.024, 0.088, 192.0, 0.0, 0.0, 0.0, 0.0, 0.0, 0.0, 0.0, 0.0, 0.0, 1.690930992919236E9, 0.0, 2023-08-01 19:03:12.919
122.0, 25014.41836528997, 35129.92383598373, -187500.02235174447, 67203.5595421266, 4686.02087331067, -5273.715290274059, 6698.996627211169, 32132.51020103815, 0.01, 1.024, 0.08600000000000001, 192.0, 0.0, 80.0, 32.0, 0.0, 2.0, 176.0, 0.0, 0.0, 0.0, 1.6909309929194193E9, 0.0, 2023-08-01 19:03:12.919
123.0, 25011.400879788507, 35138.685719810215, -187500.02235174447, 67266.3232405571, 4686.02087331067, -5218.439426236085, 6723.985877512202, 32166.954239243776, 0.01, 1.024, 0.08600000000000001, 192.0, 0.0, 0.0, 0.0, 0.0, 0.0, 0.0, 0.0, 0.0, 0.0, 1.6909309929195673E9, 0.0, 2023-08-01 19:03:12.919
124.0, 24998.99566161581, 35130.013242961555, -187500.02235174447, 67363.95566033789, 4678.913018573883, -5215.913679112635, 6727.04806650258, 32191.451751166795, 0.01, 1.024, 0.08600000000000001, 192.0, 0.0, 0.0, 0.0, 0.0, 0.0, 0.0, 0.0, 0.0, 0.0, 1.6909309929196765E9, 0.0, 2023-08-01 19:03:12.919
125.0, 25009.56803674317, 35132.606045318375, -187500.02235174447, 67311.51846784574, 4688.792489623129, -5274.9222844746455, 6707.04325521508, 32154.16904141534, 0.01, 1.024, 0.08600000000000001, 192.0, 0.0, 0.0, 0.0, 0.0, 0.0, 0.0, 0.0, 0.0, 0.0, 1.69093099291977E9, 0.0, 2023-08-01 19:03:12.919
126.0, 25006.41644077497, 35125.18526615921, -187500.02235174447, 67200.05031824713, 4679.583570907542, -5286.031101468933, 6703.690493546784, 32125.827029446013, 0.01, 1.024, 0.08600000000000001, 192.0, 0.0, 0.0, 0.0, 0.0, 0.0, 0.0, 0.0, 0.0, 0.0, 1.6909309929198623E9, 0.0, 2023-08-01 19:03:12.919
127.0, 24999.934434882933, 35134.79651627499, -187500.02235174447, 67258.63424046448, 4674.710890616285, -5233.817426421336, 6720.767226310638, 32159.22053566224, 0.01, 1.024, 0.08600000000000001, 192.0, 0.0, 0.0, 0.0, 0.0, 0.0, 0.0, 0.0, 0.0, 0.0, 1.6909309929199548E9, 0.0, 2023-08-01 19:03:12.919
128.0, 24992.379545257038, 35141.345577400396, -187500.02235174447, 67336.93240129143, 4681.572876164064, -5231.738714186992, 6717.95090650927, 32166.931887499322, 0.01, 1.024, 0.08600000000000001, 192.0, 0.0, 0.0, 0.0, 0.0, 0.0, 0.0, 0.0, 0.0, 0.0, 1.6909309929200692E9, 0.0, 2023-08-01 19:03:12.920
129.0, 24988.311527766175, 35118.680908522714, -187500.02235174447, 67321.57675285063, 4676.320216217067, -5267.725022760037, 6703.42227261332, 32148.156422156862, 0.01, 1.024, 0.08600000000000001, 192.0, 0.0, 0.0, 0.0, 0.0, 0.0, 0.0, 0.0, 0.0, 0.0, 1.690930992920163E9, 0.0, 2023-08-01 19:03:12.920
130.0, 24994.413554002473, 35111.26012936355, -187500.02235174447, 67201.70434733681, 4673.325082460056, -5301.47615688755, 6683.3951095813645, 32111.96894788372, 0.01, 1.024, 0.08600000000000001, 192.0, 0.0, 0.0, 0.0, 0.0, 0.0, 0.0, 0.0, 0.0, 0.0, 1.6909309929202552E9, 0.0, 2023-08-01 19:03:12.920
131.0, 25006.03646111923, 35117.40685908876, -187500.02235174447, 67210.19801022983, 4676.007291794693, -5251.2070836075645, 6708.89845000487, 32132.51020103815, 0.01, 1.024, 0.08600000000000001, 192.0, 0.0, 0.0, 0.0, 0.0, 0.0, 0.0, 0.0, 0.0, 0.0, 1.6909309929203475E9, 0.0, 2023-08-01 19:03:12.920
132.0, 24995.75465866979, 35117.160989899756, -187500.02235174447, 67311.83139226811, 4673.816820838073, -5226.240185050987, 6723.404732156365, 32166.820128777046, 0.014, 1.022, 0.088, 192.0, 0.0, 112.0, 31.0, 240.0, 2.0, 192.0, 0.0, 0.0, 0.0, 1.6909309929204416E9, 0.0, 2023-08-01 19:03:12.920
133.0, 24995.888769136523, 35120.26788237904, -187500.02235174447, 67338.51937514775, 4679.203591251801, -5254.045755153389, 6712.497080862175, 32160.382826373916, 0.014, 1.022, 0.088, 192.0, 0.0, 0.0, 0.0, 0.0, 0.0, 0.0, 0.0, 0.0, 0.0, 1.690930992920542E9, 0.0, 2023-08-01 19:03:12.920
134.0, 24991.88780687902, 35122.50305682457, -187500.02235174447, 67215.5177254102, 4688.859544856495, -5290.367339893262, 6699.555420822552, 32122.340157310984, 0.014, 1.022, 0.088, 192.0, 0.0, 0.0, 0.0, 0.0, 0.0, 0.0, 0.0, 0.0, 0.0, 1.6909309929207938E9, 0.0, 2023-08-01 19:03:12.920
135.0, 24986.590443443114, 35119.97730970113, -187500.02235174447, 67207.87342880647, 4680.075309285558, -5243.898063170679, 6715.671028574829, 32141.227381375717, 0.014, 1.022, 0.088, 192.0, 0.0, 0.0, 0.0, 0.0, 0.0, 0.0, 0.0, 0.0, 0.0, 1.6909309929208896E9, 0.0, 2023-08-01 19:03:12.920
136.0, 24985.65167017599, 35117.87624572233, -187500.02235174447, 67311.31730214565, 4666.060765512081, -5223.133292571699, 6715.648676830373, 32166.909535754865, 0.014, 1.022, 0.088, 192.0, 0.0, 0.0, 0.0, 0.0, 0.0, 0.0, 0.0, 0.0, 0.0, 1.6909309929209833E9, 0.0, 2023-08-01 19:03:12.920
137.0, 24995.12880982504, 35122.14542891329, -187500.02235174447, 67337.17827048044, 4666.2172277232685, -5264.796944236391, 6696.046196943069, 32150.995093702688, 0.014, 1.022, 0.088, 192.0, 0.0, 0.0, 0.0, 0.0, 0.0, 0.0, 0.0, 0.0, 0.0, 1.6909309929210832E9, 0.0, 2023-08-01 19:03:12.921
138.0, 24997.363984270574, 35125.90052198178, -187500.02235174447, 67222.02208304669, 4676.92371331736, -5306.550002878905, 6679.863533957427, 32109.778476927102, 0.014, 1.022, 0.088, 192.0, 0.0, 0.0, 0.0, 0.0, 0.0, 0.0, 0.0, 0.0, 0.0, 1.690930992921176E9, 0.0, 2023-08-01 19:03:12.921
139.0, 24981.404838729482, 35114.344670098384, -187500.02235174447, 67174.4575708458, 4659.869332297961, -5272.5753513068385, 6686.837278227482, 32109.197331571264, 0.014, 1.022, 0.088, 192.0, 0.0, 0.0, 0.0, 0.0, 0.0, 0.0, 0.0, 0.0, 0.0, 1.69093099292127E9, 0.0, 2023-08-01 19:03:12.921
140.0, 24982.209501529873, 35121.67604227973, -187500.02235174447, 67292.58654029209, 4652.11327697197, -5233.0127636209445, 6700.404787111854, 32152.44795709228, 0.014, 1.022, 0.088, 192.0, 0.0, 0.0, 0.0, 0.0, 0.0, 0.0, 0.0, 0.0, 0.0, 1.6909309929213626E9, 0.0, 2023-08-01 19:03:12.921
141.0, 24998.325109282152, 35127.73336502712, -187500.02235174447, 67342.6991513609, 4677.214285995279, -5245.149760860177, 6707.490290104186, 32157.767672272646, 0.014, 1.022, 0.088, 192.0, 0.0, 0.0, 0.0, 0.0, 0.0, 0.0, 0.0, 0.0, 0.0, 1.6909309929214551E9, 0.0, 2023-08-01 19:03:12.921
142.0, 24996.961652870377, 35130.70614703967, -187500.02235174447, 67247.61483044802, 4689.887725101438, -5284.6676450571595, 6693.319284119521, 32123.055413133552, 0.02, 1.02, 0.088, 192.0, 0.0, 160.0, 31.0, 224.0, 2.0, 192.0, 0.0, 0.0, 0.0, 1.6909309929215708E9, 0.0, 2023-08-01 19:03:12.921
143.0, 24995.441734247415, 35129.76737377255, -187500.02235174447, 67162.47703581775, 4683.3610157204885, -5270.407232094673, 6697.119080676924, 32113.555921740048, 0.02, 1.02, 0.088, 192.0, 0.0, 0.0, 0.0, 0.0, 0.0, 0.0, 0.0, 0.0, 0.0, 1.69093099292167E9, 0.0, 2023-08-01 19:03:12.921
144.0, 25001.968443628364, 35124.67117603674, -187500.02235174447, 67263.68573471138, 4675.873181327961, -5217.880632624702, 6720.186080954801, 32157.387692616907, 0.02, 1.02, 0.088, 192.0, 0.0, 0.0, 0.0, 0.0, 0.0, 0.0, 0.0, 0.0, 0.0, 1.6909309933849409E9, 0.0, 2023-08-01 19:03:13.384
145.0, 24999.24153080482, 35125.22996964812, -187500.02235174447, 67326.18121220842, 4679.471812185266, -5238.421885779129, 6716.810967542049, 32157.96883797274, 0.02, 1.02, 0.088, 192.0, 0.0, 0.0, 0.0, 0.0, 0.0, 0.0, 0.0, 0.0, 0.0, 1.6909309933852906E9, 0.0, 2023-08-01 19:03:13.385
146.0, 24998.41451625997, 35137.97046398764, -187500.02235174447, 67258.76835093122, 4691.318236746578, -5283.61711306776, 6705.478633103208, 32129.02332890312, 0.02, 1.02, 0.088, 192.0, 0.0, 0.0, 0.0, 0.0, 0.0, 0.0, 0.0, 0.0, 0.0, 1.6909309933855855E9, 0.0, 2023-08-01 19:03:13.385
147.0, 24992.13367606803, 35135.02003371955, -187500.02235174447, 67159.16897763837, 4683.271608742668, -5282.410118867174, 6706.2832959035995, 32111.58896822798, 0.02, 1.02, 0.088, 192.0, 0.0, 0.0, 0.0, 0.0, 0.0, 0.0, 0.0, 0.0, 0.0, 1.6909309933867106E9, 0.0, 2023-08-01 19:03:13.386
148.0, 24993.27361503525, 35127.53219932702, -187500.02235174447, 67236.4166064759, 4676.588437150531, -5230.732885686503, 6721.884813533404, 32147.038834934097, 0.02, 1.02, 0.088, 192.0, 0.0, 0.0, 0.0, 0.0, 0.0, 0.0, 0.0, 0.0, 0.0, 1.6909309933868108E9, 0.0, 2023-08-01 19:03:13.386
149.0, 24992.357193512584, 35120.71491726815, -187500.02235174447, 67330.36098842157, 4667.915960301872, -5236.9466706450785, 6717.481519875708, 32163.109739197465, 0.02, 1.02, 0.088, 192.0, 0.0, 0.0, 0.0, 0.0, 0.0, 0.0, 0.0, 0.0, 0.0, 1.6909309933869054E9, 0.0, 2023-08-01 19:03:13.386
150.0, 25002.057850606187, 35129.40974586127, -187500.02235174447, 67300.90138922948, 4678.756556362696, -5290.568505593361, 6696.783804510093, 32137.628750518415, 0.02, 1.02, 0.088, 192.0, 0.0, 0.0, 0.0, 0.0, 0.0, 0.0, 0.0, 0.0, 0.0, 1.6909309933872607E9, 0.0, 2023-08-01 19:03:13.387
151.0, 25004.62830121855, 35141.03265297802, -187500.02235174447, 67196.07170773408, 4694.179260036857, -5282.432470611629, 6701.9470574792695, 32123.815372445035, 0.02, 1.02, 0.088, 192.0, 0.0, 0.0, 0.0, 0.0, 0.0, 0.0, 0.0, 0.0, 0.0, 1.690930993387356E9, 0.0, 2023-08-01 19:03:13.387
152.0, 24997.498094737304, 35129.23093190562, -187500.02235174447, 67244.7761589022, 4678.3542249625, -5228.676525196615, 6720.789578055093, 32154.727835026722, 0.018000000000000002, 1.018, 0.082, 192.0, 0.0, 144.0, 31.0, 208.0, 2.0, 144.0, 0.0, 0.0, 0.0, 1.6909309933874488E9, 0.0, 2023-08-01 19:03:13.387
153.0, 25001.722574439358, 35131.37669937333, -187500.02235174447, 67333.02084601174, 4684.702120387808, -5225.770798417425, 6727.271583947133, 32171.22342243474, 0.018000000000000002, 1.018, 0.082, 192.0, 0.0, 0.0, 0.0, 0.0, 0.0, 0.0, 0.0, 0.0, 0.0, 1.6909309933875492E9, 0.0, 2023-08-01 19:03:13.387
154.0, 25008.226932075853, 35137.836353520914, -187500.02235174447, 67311.7419852903, 4697.979056594259, -5261.488886057006, 6716.319229164033, 32152.291494881094, 0.018000000000000002, 1.018, 0.082, 192.0, 0.0, 0.0, 0.0, 0.0, 0.0, 0.0, 0.0, 0.0, 0.0, 1.6909309933876426E9, 0.0, 2023-08-01 19:03:13.387
155.0, 25002.7507546843, 35136.36113838686, -187500.02235174447, 67209.37099568499, 4691.78762338014, -5277.828011253835, 6705.076301703013, 32130.587951014993, 0.018000000000000002, 1.018, 0.082, 192.0, 0.0, 0.0, 0.0, 0.0, 0.0, 0.0, 0.0, 0.0, 0.0, 1.6909309933877366E9, 0.0, 2023-08-01 19:03:13.387
156.0, 24997.274577292752, 35134.282426152524, -187500.02235174447, 67238.58472568807, 4677.884838328939, -5235.985545633501, 6712.988819240191, 32153.27497163713, 0.018000000000000002, 1.018, 0.082, 192.0, 0.0, 0.0, 0.0, 0.0, 0.0, 0.0, 0.0, 0.0, 0.0, 1.6909309933878288E9, 0.0, 2023-08-01 19:03:13.387
157.0, 25002.61664421757, 35138.64101632131, -187500.02235174447, 67337.82647106964, 4675.3143877165785, -5229.7270571860145, 6709.904278505359, 32170.284649167617, 0.018000000000000002, 1.018, 0.082, 192.0, 0.0, 0.0, 0.0, 0.0, 0.0, 0.0, 0.0, 0.0, 0.0, 1.6909309933879209E9, 0.0, 2023-08-01 19:03:13.387
158.0, 25007.601083231104, 35132.98602497411, -187500.02235174447, 67348.13062526353, 4682.489297686732, -5273.670586785149, 6697.633170799395, 32153.185564659307, 0.018000000000000002, 1.018, 0.082, 192.0, 0.0, 0.0, 0.0, 0.0, 0.0, 0.0, 0.0, 0.0, 0.0, 1.6909309933880153E9, 0.0, 2023-08-01 19:03:13.388
159.0, 25010.19388558792, 35123.48653358061, -187500.02235174447, 67213.23784747576, 4685.104451788003, -5316.742398350525, 6676.555475778041, 32107.275081548105, 0.018000000000000002, 1.018, 0.082, 192.0, 0.0, 0.0, 0.0, 0.0, 0.0, 0.0, 0.0, 0.0, 0.0, 1.6909309933881211E9, 0.0, 2023-08-01 19:03:13.388
160.0, 24999.174475571454, 35121.363117857356, -187500.02235174447, 67225.6654173929, 4673.392137693422, -5254.8504179537795, 6700.047159200569, 32137.628750518415, 0.018000000000000002, 1.018, 0.082, 192.0, 0.0, 0.0, 0.0, 0.0, 0.0, 0.0, 0.0, 0.0, 0.0, 1.6909309933882155E9, 0.0, 2023-08-01 19:03:13.388
161.0, 25004.270673307263, 35133.12013544085, -187500.02235174447, 67316.72642430382, 4685.417376210377, -5233.526853743417, 6703.981066224703, 32159.376997873427, 0.018000000000000002, 1.018, 0.082, 192.0, 0.0, 0.0, 0.0, 0.0, 0.0, 0.0, 0.0, 0.0, 0.0, 1.6909309933883092E9, 0.0, 2023-08-01 19:03:13.388
162.0, 24998.883902893533, 35130.10264993938, -187500.02235174447, 67341.22393622684, 4681.97520756426, -5255.498618542983, 6700.650656300862, 32154.236096648707, 0.016, 1.022, 0.084, 192.0, 0.0, 128.0, 31.0, 240.0, 2.0, 160.0, 0.0, 0.0, 0.0, 1.6909309933884025E9, 0.0, 2023-08-01 19:03:13.388
163.0, 25006.774068686256, 35131.689623795704, -187500.02235174447, 67249.04534209316, 4686.110280288492, -5297.452842885595, 6690.525316062608, 32127.190485857784, 0.016, 1.022, 0.084, 192.0, 0.0, 0.0, 0.0, 0.0, 0.0, 0.0, 0.0, 0.0, 0.0, 1.6909309933885012E9, 0.0, 2023-08-01 19:03:13.388
164.0, 25004.18126632944, 35133.47776335213, -187500.02235174447, 67208.99101602925, 4683.428070953854, -5272.7541652624805, 6703.1764034243115, 32131.034985904098, 0.016, 1.022, 0.084, 192.0, 0.0, 0.0, 0.0, 0.0, 0.0, 0.0, 0.0, 0.0, 0.0, 1.690930993388592E9, 0.0, 2023-08-01 19:03:13.388
165.0, 24993.810056902177, 35133.12013544085, -187500.02235174447, 67302.77893576371, 4678.264817984679, -5240.634708480205, 6711.603011083962, 32158.79585251759, 0.016, 1.022, 0.084, 192.0, 0.0, 0.0, 0.0, 0.0, 0.0, 0.0, 0.0, 0.0, 0.0, 1.690930993388813E9, 0.0, 2023-08-01 19:03:13.388
166.0, 24994.301795280197, 35125.609949303864, -187500.02235174447, 67359.97704982484, 4674.487373171732, -5267.56856054885, 6704.159880180345, 32155.957180971767, 0.016, 1.022, 0.084, 192.0, 0.0, 0.0, 0.0, 0.0, 0.0, 0.0, 0.0, 0.0, 0.0, 1.6909309933889089E9, 0.0, 2023-08-01 19:03:13.388
167.0, 25007.265807064272, 35131.71197554016, -187500.02235174447, 67266.70322021285, 4688.412509967388, -5310.461558158584, 6688.804231739549, 32116.9310351528, 0.016, 1.022, 0.084, 192.0, 0.0, 0.0, 0.0, 0.0, 0.0, 0.0, 0.0, 0.0, 0.0, 1.6909309933890004E9, 0.0, 2023-08-01 19:03:13.389
168.0, 25011.914969910977, 35139.15510644378, -187500.02235174447, 67189.09796346402, 4690.133594290447, -5283.61711306776, 6700.51654583413, 32115.232302574197, 0.016, 1.022, 0.084, 192.0, 0.0, 0.0, 0.0, 0.0, 0.0, 0.0, 0.0, 0.0, 0.0, 1.6909309933891025E9, 0.0, 2023-08-01 19:03:13.389
169.0, 24998.638033704527, 35135.19884767519, -187500.02235174447, 67256.15319682994, 4676.7225476172625, -5245.932071916112, 6710.731293050206, 32138.947503441275, 0.016, 1.022, 0.084, 192.0, 0.0, 0.0, 0.0, 0.0, 0.0, 0.0, 0.0, 0.0, 0.0, 1.6909309933891957E9, 0.0, 2023-08-01 19:03:13.389
170.0, 24999.37564127155, 35131.130830184324, -187500.02235174447, 67333.02084601174, 4674.599131894009, -5254.313976086853, 6709.501947105164, 32153.07380593703, 0.016, 1.022, 0.084, 192.0, 0.0, 0.0, 0.0, 0.0, 0.0, 0.0, 0.0, 0.0, 0.0, 1.6909309933892882E9, 0.0, 2023-08-01 19:03:13.389
171.0, 25016.31826356867, 35148.22991469263, -187500.02235174447, 67274.8839586835, 4693.061672814092, -5296.33525566283, 6698.549592322063, 32129.02332890312, 0.016, 1.022, 0.084, 192.0, 0.0, 0.0, 0.0, 0.0, 0.0, 0.0, 0.0, 0.0, 0.0, 1.6909309933893795E9, 0.0, 2023-08-01 19:03:13.389
172.0, 24997.0510598482, 35139.78095528853, -187500.02235174447, 67187.19806518532, 4684.813879110084, -5283.974740979045, 6704.361045880443, 32119.769706698622, 0.016, 1.018, 0.088, 192.0, 0.0, 128.0, 31.0, 208.0, 2.0, 192.0, 0.0, 0.0, 0.0, 1.6909309933894734E9, 0.0, 2023-08-01 19:03:13.389
173.0, 24994.033574346733, 35131.46610635115, -187500.02235174447, 67271.374734804, 4676.946065061816, -5234.935013644102, 6719.001438498669, 32155.398387360383, 0.016, 1.018, 0.088, 192.0, 0.0, 0.0, 0.0, 0.0, 0.0, 0.0, 0.0, 0.0, 0.0, 1.6909309933895793E9, 0.0, 2023-08-01 19:03:13.389
174.0, 25003.845990162612, 35138.86453376586, -187500.02235174447, 67341.13452924902, 4679.583570907542, -5246.13323761621, 6718.509700120652, 32155.711311782758, 0.016, 1.018, 0.088, 192.0, 0.0, 0.0, 0.0, 0.0, 0.0, 0.0, 0.0, 0.0, 0.0, 1.6909309933896744E9, 0.0, 2023-08-01 19:03:13.389
175.0, 25007.95871114239, 35140.87619076684, -187500.02235174447, 67309.75268003377, 4684.076271543058, -5285.718177046559, 6706.953848237258, 32133.650140005368, 0.016, 1.018, 0.088, 192.0, 0.0, 0.0, 0.0, 0.0, 0.0, 0.0, 0.0, 0.0, 0.0, 1.690930993389877E9, 0.0, 2023-08-01 19:03:13.389
176.0, 25005.701184952402, 35138.48455411012, -187500.02235174447, 67195.71407982279, 4686.400852966411, -5298.324560919352, 6705.165708680834, 32104.905796635845, 0.016, 1.018, 0.088, 192.0, 0.0, 0.0, 0.0, 0.0, 0.0, 0.0, 0.0, 0.0, 0.0, 1.6909309933899703E9, 0.0, 2023-08-01 19:03:13.389
177.0, 25002.70605119539, 35130.75085052858, -187500.02235174447, 67225.19603075934, 4678.823611596062, -5246.580272505316, 6723.494139134185, 32124.396517800873, 0.016, 1.018, 0.088, 192.0, 0.0, 0.0, 0.0, 0.0, 0.0, 0.0, 0.0, 0.0, 0.0, 1.6909309933900692E9, 0.0, 2023-08-01 19:03:13.390
178.0, 24986.433981231927, 35115.4399055767, -187500.02235174447, 67316.92759000392, 4658.394117163911, -5242.534606758905, 6716.386284397398, 32142.45672732076, 0.016, 1.018, 0.088, 192.0, 0.0, 0.0, 0.0, 0.0, 0.0, 0.0, 0.0, 0.0, 0.0, 1.6909309933901951E9, 0.0, 2023-08-01 19:03:13.390
179.0, 25003.957748884888, 35126.28050163752, -187500.02235174447, 67315.38531963651, 4670.933445803338, -5279.504392087983, 6707.46793835973, 32136.01942491763, 0.016, 1.018, 0.088, 192.0, 0.0, 0.0, 0.0, 0.0, 0.0, 0.0, 0.0, 0.0, 0.0, 1.690930993390326E9, 0.0, 2023-08-01 19:03:13.390
180.0, 25006.550551241704, 35133.9918534746, -187500.02235174447, 67203.87246654899, 4680.075309285558, -5308.628715113248, 6700.673008045317, 32111.20898857224, 0.016, 1.018, 0.088, 192.0, 0.0, 0.0, 0.0, 0.0, 0.0, 0.0, 0.0, 0.0, 0.0, 1.69093099339042E9, 0.0, 2023-08-01 19:03:13.390
181.0, 24995.039402847222, 35133.90244649678, -187500.02235174447, 67231.05218780664, 4682.377538964455, -5238.84656892378, 6725.930479279814, 32140.847401719977, 0.016, 1.018, 0.088, 192.0, 0.0, 0.0, 0.0, 0.0, 0.0, 0.0, 0.0, 0.0, 0.0, 1.6909309933906431E9, 0.0, 2023-08-01 19:03:13.390
182.0, 24999.777972671745, 35122.79362950249, -187500.02235174447, 67341.6933228604, 4671.358128947989, -5218.171205302621, 6728.411522914354, 32165.344913642995, 0.014, 1.022, 0.084, 192.0, 0.0, 112.0, 31.0, 240.0, 2.0, 160.0, 0.0, 0.0, 0.0, 1.6909309933907394E9, 0.0, 2023-08-01 19:03:13.390
183.0, 24989.65263243349, 35128.35921387187, -187500.02235174447, 67372.58343369764, 4679.874143585461, -5255.386859820707, 6720.007266999158, 32156.56067807206, 0.014, 1.022, 0.084, 192.0, 0.0, 0.0, 0.0, 0.0, 0.0, 0.0, 0.0, 0.0, 0.0, 1.6909309933908384E9, 0.0, 2023-08-01 19:03:13.390
184.0, 24988.55739695518, 35133.924798241234, -187500.02235174447, 67257.31548754162, 4687.630198911453, -5300.850308042802, 6702.639961557385, 32116.774572941613, 0.014, 1.022, 0.084, 192.0, 0.0, 0.0, 0.0, 0.0, 0.0, 0.0, 0.0, 0.0, 0.0, 1.6909309933909304E9, 0.0, 2023-08-01 19:03:13.390
185.0, 24992.379545257038, 35130.10264993938, -187500.02235174447, 67251.43697874987, 4680.298826730112, -5254.917473187145, 6723.04710424508, 32134.8347824615, 0.014, 1.022, 0.084, 192.0, 0.0, 0.0, 0.0, 0.0, 0.0, 0.0, 0.0, 0.0, 0.0, 1.6909309933910217E9, 0.0, 2023-08-01 19:03:13.391
186.0, 24995.7993621587, 35134.86357150836, -187500.02235174447, 67332.79732856719, 4679.874143585461, -5237.7066299565595, 6722.600069355974, 32150.682169280313, 0.014, 1.022, 0.084, 192.0, 0.0, 0.0, 0.0, 0.0, 0.0, 0.0, 0.0, 0.0, 0.0, 1.6909309933911524E9, 0.0, 2023-08-01 19:03:13.391
187.0, 24998.392164515517, 35143.781917546024, -187500.02235174447, 67348.46590143036, 4676.744899361718, -5263.500543057984, 6705.769205781127, 32136.98054992921, 0.014, 1.022, 0.084, 192.0, 0.0, 0.0, 0.0, 0.0, 0.0, 0.0, 0.0, 0.0, 0.0, 1.690930993391255E9, 0.0, 2023-08-01 19:03:13.391
188.0, 24986.925719609942, 35126.86164699336, -187500.02235174447, 67231.72274014029, 4661.076326498548, -5320.229270485553, 6675.214371110723, 32088.812540628023, 0.014, 1.022, 0.084, 192.0, 0.0, 0.0, 0.0, 0.0, 0.0, 0.0, 0.0, 0.0, 0.0, 1.690930993391346E9, 0.0, 2023-08-01 19:03:13.391
189.0, 24981.315431751664, 35119.127943411826, -187500.02235174447, 67186.79573378513, 4661.121029987458, -5287.729834047536, 6691.195868396267, 32096.903872120845, 0.014, 1.022, 0.084, 192.0, 0.0, 0.0, 0.0, 0.0, 0.0, 0.0, 0.0, 0.0, 0.0, 1.6909309933914385E9, 0.0, 2023-08-01 19:03:13.391
190.0, 24988.669155677457, 35127.26397839355, -187500.02235174447, 67293.63707228149, 4671.738108603729, -5237.483112512006, 6717.705037320261, 32143.350797098974, 0.014, 1.022, 0.084, 192.0, 0.0, 0.0, 0.0, 0.0, 0.0, 0.0, 0.0, 0.0, 0.0, 1.6909309933915312E9, 0.0, 2023-08-01 19:03:13.391
191.0, 24996.55932147018, 35128.78389701652, -187500.02235174447, 67361.67578240344, 4670.1511347474025, -5249.687164984603, 6717.637982086895, 32154.30315188207, 0.014, 1.022, 0.084, 192.0, 0.0, 0.0, 0.0, 0.0, 0.0, 0.0, 0.0, 0.0, 0.0, 1.6909309933916235E9, 0.0, 2023-08-01 19:03:13.391
192.0, 25006.48349600834, 35132.51663834055, -187500.02235174447, 67282.30473784266, 4680.701158130308, -5304.337180177829, 6699.018978955624, 32118.98739564269, 0.012, 1.016, 0.09, 192.0, 0.0, 96.0, 31.0, 192.0, 2.0, 208.0, 0.0, 0.0, 0.0, 1.690930993391716E9, 0.0, 2023-08-01 19:03:13.391
193.0, 25009.121001854062, 35137.702243054184, -187500.02235174447, 67205.88412354996, 4686.4679081997765, -5284.131203190232, 6713.055874473557, 32116.50635200815, 0.012, 1.016, 0.09, 192.0, 0.0, 0.0, 0.0, 0.0, 0.0, 0.0, 0.0, 0.0, 0.0, 1.6909309933918147E9, 0.0, 2023-08-01 19:03:13.391
194.0, 25003.443658762415, 35143.06666172346, -187500.02235174447, 67300.2308368958, 4678.533038918143, -5228.005972862956, 6730.847863059982, 32156.80654726107, 0.012, 1.016, 0.09, 192.0, 0.0, 0.0, 0.0, 0.0, 0.0, 0.0, 0.0, 0.0, 0.0, 1.6909309933919077E9, 0.0, 2023-08-01 19:03:13.391
195.0, 25010.886789666034, 35143.37958614583, -187500.02235174447, 67356.60193641209, 4680.321178474567, -5245.954423660568, 6721.214261199744, 32155.17486991583, 0.012, 1.016, 0.09, 192.0, 0.0, 0.0, 0.0, 0.0, 0.0, 0.0, 0.0, 0.0, 0.0, 1.6909309933920004E9, 0.0, 2023-08-01 19:03:13.392
196.0, 25015.84887693511, 35145.07831872444, -187500.02235174447, 67296.47574382732, 4682.198725008813, -5283.103022945288, 6707.266772659633, 32132.443145804784, 0.012, 1.016, 0.09, 192.0, 0.0, 0.0, 0.0, 0.0, 0.0, 0.0, 0.0, 0.0, 0.0, 1.6909309933921E9, 0.0, 2023-08-01 19:03:13.392
197.0, 24984.489379464314, 35140.362100644365, -187500.02235174447, 67205.52649563867, 4677.907190073394, -5287.66277881417, 6702.2376301571885, 32116.68516596379, 0.012, 1.016, 0.09, 192.0, 0.0, 0.0, 0.0, 0.0, 0.0, 0.0, 0.0, 0.0, 0.0, 1.6909309933923123E9, 0.0, 2023-08-01 19:03:13.392
198.0, 24983.349440497095, 35137.076394209435, -187500.02235174447, 67277.09678138456, 4669.569989391564, -5236.700801456071, 6718.800272798571, 32147.374111100926, 0.012, 1.016, 0.09, 192.0, 0.0, 0.0, 0.0, 0.0, 0.0, 0.0, 0.0, 0.0, 0.0, 1.6909309933924048E9, 0.0, 2023-08-01 19:03:13.392
199.0, 25006.192923330418, 35136.89758025379, -187500.02235174447, 67355.88668058952, 4675.336739461033, -5239.137141601699, 6722.689476333795, 32155.532497827116, 0.012, 1.016, 0.09, 192.0, 0.0, 0.0, 0.0, 0.0, 0.0, 0.0, 0.0, 0.0, 0.0, 1.6909309933924973E9, 0.0, 2023-08-01 19:03:13.392
200.0, 25009.32216755416, 35137.836353520914, -187500.02235174447, 67328.68460758742, 4680.835268597039, -5274.207028652076, 6718.2638309316435, 32138.41106157435, 0.012, 1.016, 0.09, 192.0, 0.0, 0.0, 0.0, 0.0, 0.0, 0.0, 0.0, 0.0, 0.0, 1.6909309933925898E9, 0.0, 2023-08-01 19:03:13.392
201.0, 25004.60594947409, 35141.1444117003, -187500.02235174447, 67233.95791458583, 4687.4066814668995, -5289.517973603961, 6717.548575109074, 32123.614206744936, 0.012, 1.016, 0.09, 192.0, 0.0, 0.0, 0.0, 0.0, 0.0, 0.0, 0.0, 0.0, 0.0, 1.6909309933926847E9, 0.0, 2023-08-01 19:03:13.392
202.0, 25000.023841860755, 35149.593371104405, -187500.02235174447, 67267.10555161304, 4680.3658819634775, -5243.60749049276, 6732.099560749479, 32146.815317489545, 0.012, 1.016, 0.09, 192.0, 0.0, 0.0, 0.0, 0.0, 0.0, 0.0, 0.0, 0.0, 0.0, 1.6909309933927777E9, 0.0, 2023-08-01 19:03:13.392
203.0, 24995.240568547317, 35155.449528151694, -187500.02235174447, 67353.74091312182, 4678.801259851606, -5230.576423475316, 6730.512586893152, 32164.003808975674, 0.012, 1.016, 0.092, 192.0, 0.0, 96.0, 31.0, 192.0, 2.0, 224.0, 0.0, 0.0, 0.0, 1.6909309933928733E9, 0.0, 2023-08-01 19:03:13.392
204.0, 24988.535045210727, 35135.958806986666, -187500.02235174447, 67347.03538978522, 4674.912056316382, -5274.721118774548, 6713.547612851574, 32143.239038376694, 0.012, 1.016, 0.092, 192.0, 0.0, 0.0, 0.0, 0.0, 0.0, 0.0, 0.0, 0.0, 0.0, 1.6909309933929725E9, 0.0, 2023-08-01 19:03:13.392
205.0, 24993.13950456852, 35130.52733308403, -187500.02235174447, 67225.39719645944, 4680.54469591912, -5318.284668717942, 6697.096728932468, 32106.671584447813, 0.012, 1.016, 0.092, 192.0, 0.0, 0.0, 0.0, 0.0, 0.0, 0.0, 0.0, 0.0, 0.0, 1.6909309933931456E9, 0.0, 2023-08-01 19:03:13.393
206.0, 24998.05688834869, 35130.773202273034, -187500.02235174447, 67231.45451920683, 4675.828477839051, -5260.28189185642, 6722.510662378152, 32132.59960801597, 0.012, 1.016, 0.092, 192.0, 0.0, 0.0, 0.0, 0.0, 0.0, 0.0, 0.0, 0.0, 0.0, 1.690930993393244E9, 0.0, 2023-08-01 19:03:13.393
207.0, 24994.234740046828, 35119.19499864519, -187500.02235174447, 67337.37943618053, 4658.461172397277, -5243.406324792662, 6724.723485079227, 32156.448919349783, 0.012, 1.016, 0.092, 192.0, 0.0, 0.0, 0.0, 0.0, 0.0, 0.0, 0.0, 0.0, 0.0, 1.6909309933933363E9, 0.0, 2023-08-01 19:03:13.393
208.0, 25004.404783773993, 35115.01522243205, -187500.02235174447, 67351.75160786528, 4657.768268319162, -5282.298360144897, 6707.2220691707225, 32138.74633774118, 0.012, 1.016, 0.092, 192.0, 0.0, 0.0, 0.0, 0.0, 0.0, 0.0, 0.0, 0.0, 0.0, 1.6909309933934295E9, 0.0, 2023-08-01 19:03:13.393
209.0, 25003.220141317863, 35132.6954522962, -187500.02235174447, 67256.60023171904, 4671.156963247891, -5318.57524139586, 6695.576810309507, 32112.25952056164, 0.012, 1.016, 0.092, 192.0, 0.0, 0.0, 0.0, 0.0, 0.0, 0.0, 0.0, 0.0, 0.0, 1.6909309933935225E9, 0.0, 2023-08-01 19:03:13.393
210.0, 24994.19003655792, 35144.11719371285, -187500.02235174447, 67241.0210658337, 4677.571913906564, -5275.972816464045, 6719.403769898864, 32129.716232981234, 0.012, 1.016, 0.092, 192.0, 0.0, 0.0, 0.0, 0.0, 0.0, 0.0, 0.0, 0.0, 0.0, 1.6909309933936143E9, 0.0, 2023-08-01 19:03:13.393
211.0, 24994.36885051356, 35139.177458188235, -187500.02235174447, 67323.05196798468, 4677.415451695377, -5250.491827784995, 6728.925613036825, 32151.84445999199, 0.012, 1.016, 0.092, 192.0, 0.0, 0.0, 0.0, 0.0, 0.0, 0.0, 0.0, 0.0, 0.0, 1.6909309933937085E9, 0.0, 2023-08-01 19:03:13.393
212.0, 24987.864492877066, 35129.745022028095, -187500.02235174447, 67357.00426781228, 4675.06851852757, -5275.101098430288, 6718.464996631742, 32145.40715758886, 0.012, 1.016, 0.092, 192.0, 0.0, 0.0, 0.0, 0.0, 0.0, 0.0, 0.0, 0.0, 0.0, 1.6909309933939164E9, 0.0, 2023-08-01 19:03:13.393
213.0, 24999.219179060365, 35136.53995234251, -187500.02235174447, 67268.379601047, 4687.272571000168, -5300.671494087159, 6712.474729117719, 32121.22257008822, 0.01, 1.018, 0.092, 192.0, 0.0, 80.0, 31.0, 208.0, 2.0, 224.0, 0.0, 0.0, 0.0, 1.6909309933940103E9, 0.0, 2023-08-01 19:03:13.394
214.0, 24991.7983999012, 35129.36504237235, -187500.02235174447, 67222.60322840253, 4679.091832529525, -5271.23424663952, 6724.768188568139, 32129.157439369854, 0.01, 1.018, 0.092, 192.0, 0.0, 0.0, 0.0, 0.0, 0.0, 0.0, 0.0, 0.0, 0.0, 1.6909309933941188E9, 0.0, 2023-08-01 19:03:13.394
215.0, 24991.530178967736, 35125.56524581495, -187500.02235174447, 67324.19190695189, 4671.02285278116, -5229.436484508095, 6736.391095684898, 32166.03781772111, 0.01, 1.018, 0.092, 192.0, 0.0, 0.0, 0.0, 0.0, 0.0, 0.0, 0.0, 0.0, 0.0, 1.690930993394212E9, 0.0, 2023-08-01 19:03:13.394
216.0, 25000.493228494317, 35137.16580118726, -187500.02235174447, 67377.36670701107, 4681.528172675154, -5257.689089499604, 6727.025714758124, 32162.88622175291, 0.01, 1.018, 0.092, 192.0, 0.0, 0.0, 0.0, 0.0, 0.0, 0.0, 0.0, 0.0, 0.0, 1.6909309933943107E9, 0.0, 2023-08-01 19:03:13.394
217.0, 25008.96453964288, 35146.26296118057, -187500.02235174447, 67281.85770295355, 4687.049053555615, -5302.437281899129, 6705.880964503403, 32120.037927632085, 0.01, 1.018, 0.092, 192.0, 0.0, 0.0, 0.0, 0.0, 0.0, 0.0, 0.0, 0.0, 0.0, 1.6909309933944027E9, 0.0, 2023-08-01 19:03:13.394
218.0, 24999.66621394947, 35134.52829534153, -187500.02235174447, 67228.97347557229, 4673.034509782137, -5268.6414442827045, 6712.385322139898, 32127.101078879965, 0.01, 1.018, 0.092, 192.0, 0.0, 0.0, 0.0, 0.0, 0.0, 0.0, 0.0, 0.0, 0.0, 1.690930993394536E9, 0.0, 2023-08-01 19:03:13.394
219.0, 24987.775085899244, 35129.1415249278, -187500.02235174447, 67333.37847392303, 4653.700250828297, -5239.807693935358, 6711.871232017426, 32153.967875715243, 0.01, 1.018, 0.092, 192.0, 0.0, 0.0, 0.0, 0.0, 0.0, 0.0, 0.0, 0.0, 0.0, 1.6909309933946292E9, 0.0, 2023-08-01 19:03:13.394
220.0, 24991.753696412292, 35136.785821531514, -187500.02235174447, 67396.79037294273, 4670.598169636509, -5257.376165077229, 6707.825566271015, 32151.79975650308, 0.01, 1.018, 0.092, 192.0, 0.0, 0.0, 0.0, 0.0, 0.0, 0.0, 0.0, 0.0, 0.0, 1.6909309933947213E9, 0.0, 2023-08-01 19:03:13.394
221.0, 24990.18907430042, 35128.67213829424, -187500.02235174447, 67323.25313368478, 4671.469887670265, -5301.252639442997, 6693.27458063061, 32118.138029353388, 0.01, 1.018, 0.092, 192.0, 0.0, 0.0, 0.0, 0.0, 0.0, 0.0, 0.0, 0.0, 0.0, 1.690930993394814E9, 0.0, 2023-08-01 19:03:13.394
222.0, 24995.262920291774, 35124.291196381, -187500.02235174447, 67244.9773246023, 4665.434916667333, -5289.696787559604, 6699.980103967203, 32117.623939230914, 0.01, 1.018, 0.092, 192.0, 0.0, 0.0, 0.0, 0.0, 0.0, 0.0, 0.0, 0.0, 0.0, 1.6909309933949091E9, 0.0, 2023-08-01 19:03:13.394
223.0, 24988.646803933003, 35117.96565270015, -187500.02235174447, 67338.51937514775, 4654.884893284428, -5238.533644501405, 6717.593278597985, 32159.913439740354, 0.014, 1.016, 0.08600000000000001, 192.0, 0.0, 112.0, 31.0, 192.0, 2.0, 176.0, 0.0, 0.0, 0.0, 1.6909309933950064E9, 0.0, 2023-08-01 19:03:13.395
224.0, 24987.95389985489, 35127.80042026048, -187500.02235174447, 67424.43948083396, 4669.011195780182, -5246.3344033163075, 6725.148168223878, 32168.854137522478, 0.014, 1.016, 0.08600000000000001, 192.0, 0.0, 0.0, 0.0, 0.0, 0.0, 0.0, 0.0, 0.0, 0.0, 1.6909309933951108E9, 0.0, 2023-08-01 19:03:13.395
225.0, 24992.915987123968, 35140.80913553347, -187500.02235174447, 67380.11597157907, 4680.6564546413965, -5290.099118959799, 6715.358104152454, 32139.953331941764, 0.014, 1.016, 0.08600000000000001, 192.0, 0.0, 0.0, 0.0, 0.0, 0.0, 0.0, 0.0, 0.0, 0.0, 1.6909309933952248E9, 0.0, 2023-08-01 19:03:13.395
226.0, 24991.66428943447, 35142.887847767815, -187500.02235174447, 67265.51857775672, 4676.767251106173, -5297.452842885595, 6708.026731971113, 32120.060279376543, 0.014, 1.016, 0.08600000000000001, 192.0, 0.0, 0.0, 0.0, 0.0, 0.0, 0.0, 0.0, 0.0, 0.0, 1.6909309933953652E9, 0.0, 2023-08-01 19:03:13.395
227.0, 24999.88973139402, 35144.34071115741, -187500.02235174447, 67275.24158659477, 4681.237599997235, -5258.493752299995, 6719.582583854507, 32133.73954698319, 0.014, 1.016, 0.08600000000000001, 192.0, 0.0, 0.0, 0.0, 0.0, 0.0, 0.0, 0.0, 0.0, 0.0, 1.6909309933954763E9, 0.0, 2023-08-01 19:03:13.395
228.0, 25006.818772175167, 35135.66823430875, -187500.02235174447, 67356.62428815654, 4673.056861526592, -5239.673583468626, 6731.205490971267, 32158.773500773135, 0.014, 1.016, 0.08600000000000001, 192.0, 0.0, 0.0, 0.0, 0.0, 0.0, 0.0, 0.0, 0.0, 0.0, 1.6909309933956933E9, 0.0, 2023-08-01 19:03:13.395
229.0, 24994.57001621366, 35129.588559816904, -187500.02235174447, 67391.40360252901, 4656.605977607486, -5276.263389141964, 6711.46890061723, 32160.002846718176, 0.014, 1.016, 0.08600000000000001, 192.0, 0.0, 0.0, 0.0, 0.0, 0.0, 0.0, 0.0, 0.0, 0.0, 1.6909309933957877E9, 0.0, 2023-08-01 19:03:13.395
230.0, 24979.92962359543, 35129.02976620552, -187500.02235174447, 67292.1842088919, 4660.182256720335, -5324.677267632159, 6690.70413001825, 32125.335291067993, 0.014, 1.016, 0.08600000000000001, 192.0, 0.0, 0.0, 0.0, 0.0, 0.0, 0.0, 0.0, 0.0, 0.0, 1.6909309933958805E9, 0.0, 2023-08-01 19:03:13.395
231.0, 24982.81299863017, 35120.87137947934, -187500.02235174447, 67283.86935995452, 4661.612768365475, -5289.920305004157, 6698.795461511071, 32129.87269519242, 0.014, 1.016, 0.08600000000000001, 192.0, 0.0, 0.0, 0.0, 0.0, 0.0, 0.0, 0.0, 0.0, 0.0, 1.690930993395972E9, 0.0, 2023-08-01 19:03:13.395
232.0, 24981.091914307108, 35116.75865849956, -187500.02235174447, 67365.16265453848, 4655.510742129176, -5259.968967434045, 6707.020903470624, 32149.31871286854, 0.014, 1.016, 0.08600000000000001, 192.0, 0.0, 0.0, 0.0, 0.0, 0.0, 0.0, 0.0, 0.0, 0.0, 1.690930993396073E9, 0.0, 2023-08-01 19:03:13.396
233.0, 24985.919891109454, 35125.94522547069, -187500.02235174447, 67387.42499201596, 4657.723564830251, -5291.484927116028, 6697.0743771880125, 32140.065090664044, 0.018000000000000002, 1.02, 0.082, 192.0, 0.0, 144.0, 31.0, 224.0, 2.0, 144.0, 0.0, 0.0, 0.0, 1.6909309933961675E9, 0.0, 2023-08-01 19:03:13.396
234.0, 24996.13463832553, 35139.35627214387, -187500.02235174447, 67296.87807522752, 4667.960663790782, -5319.67047687417, 6693.542801564075, 32115.746392696667, 0.018000000000000002, 1.02, 0.082, 192.0, 0.0, 0.0, 0.0, 0.0, 0.0, 0.0, 0.0, 0.0, 0.0, 1.6909309933962653E9, 0.0, 2023-08-01 19:03:13.396
235.0, 24997.028708103742, 35140.853839022384, -187500.02235174447, 67273.78872320519, 4672.87804757095, -5287.595723580805, 6710.954810494758, 32122.02723288861, 0.018000000000000002, 1.02, 0.082, 192.0, 0.0, 0.0, 0.0, 0.0, 0.0, 0.0, 0.0, 0.0, 0.0, 1.6909309933963568E9, 0.0, 2023-08-01 19:03:13.396
236.0, 24995.017051102765, 35135.57882733093, -187500.02235174447, 67350.58931715362, 4675.4037946944, -5252.369374319241, 6725.394037412887, 32146.860020978456, 0.018000000000000002, 1.02, 0.082, 192.0, 0.0, 0.0, 0.0, 0.0, 0.0, 0.0, 0.0, 0.0, 0.0, 1.6909309933964524E9, 0.0, 2023-08-01 19:03:13.396
237.0, 24990.457295233882, 35120.37964110132, -187500.02235174447, 67410.24612310484, 4677.415451695377, -5262.807638979869, 6728.277412447622, 32158.66174205086, 0.018000000000000002, 1.02, 0.082, 192.0, 0.0, 0.0, 0.0, 0.0, 0.0, 0.0, 0.0, 0.0, 0.0, 1.6909309933965464E9, 0.0, 2023-08-01 19:03:13.396
238.0, 25004.8518186631, 35128.068641193946, -187500.02235174447, 67334.87604080154, 4680.768213363674, -5317.390598939729, 6702.796423768571, 32126.49758177967, 0.018000000000000002, 1.02, 0.082, 192.0, 0.0, 0.0, 0.0, 0.0, 0.0, 0.0, 0.0, 0.0, 0.0, 1.690930993396638E9, 0.0, 2023-08-01 19:03:13.396
239.0, 24997.118115081565, 35136.785821531514, -187500.02235174447, 67269.76540920323, 4676.230809239246, -5290.52380210445, 6700.248324900666, 32114.338232795984, 0.018000000000000002, 1.02, 0.082, 192.0, 0.0, 0.0, 0.0, 0.0, 0.0, 0.0, 0.0, 0.0, 0.0, 1.6909309933967297E9, 0.0, 2023-08-01 19:03:13.396
240.0, 24988.713859166368, 35132.38252787382, -187500.02235174447, 67375.62327094356, 4662.372727676956, -5235.516158999939, 6723.2482699451775, 32155.30898038256, 0.018000000000000002, 1.02, 0.082, 192.0, 0.0, 0.0, 0.0, 0.0, 0.0, 0.0, 0.0, 0.0, 0.0, 1.690930993396824E9, 0.0, 2023-08-01 19:03:13.396
241.0, 24990.099667322596, 35135.690586053206, -187500.02235174447, 67441.76208278681, 4664.138515488925, -5265.780420992425, 6716.051008230568, 32156.56067807206, 0.018000000000000002, 1.02, 0.082, 192.0, 0.0, 0.0, 0.0, 0.0, 0.0, 0.0, 0.0, 0.0, 0.0, 1.6909309933969164E9, 0.0, 2023-08-01 19:03:13.396
242.0, 25000.94026338342, 35147.358196658875, -187500.02235174447, 67350.52226192025, 4677.102527273003, -5311.556793636893, 6701.410615612343, 32119.36737529843, 0.018000000000000002, 1.02, 0.082, 192.0, 0.0, 0.0, 0.0, 0.0, 0.0, 0.0, 0.0, 0.0, 0.0, 1.6909309933970087E9, 0.0, 2023-08-01 19:03:13.397
243.0, 24994.9499958694, 35140.18328668872, -187500.02235174447, 67270.19009234788, 4672.431012681844, -5289.674435815148, 6709.233726171699, 32113.82414267351, 0.02, 1.02, 0.078, 192.0, 0.0, 160.0, 31.0, 224.0, 2.0, 112.0, 0.0, 0.0, 0.0, 1.6909309933971355E9, 0.0, 2023-08-01 19:03:13.397
244.0, 24985.919891109454, 35136.13762094231, -187500.02235174447, 67349.8517095866, 4664.943178289316, -5246.267348082942, 6722.868290289437, 32147.619980289935, 0.02, 1.02, 0.078, 192.0, 0.0, 0.0, 0.0, 0.0, 0.0, 0.0, 0.0, 0.0, 0.0, 1.6909309933973615E9, 0.0, 2023-08-01 19:03:13.397
245.0, 24994.413554002473, 35139.803307032984, -187500.02235174447, 67421.37729184357, 4670.173486491858, -5249.128371373221, 6725.215223457244, 32159.55581182907, 0.02, 1.02, 0.078, 192.0, 0.0, 0.0, 0.0, 0.0, 0.0, 0.0, 0.0, 0.0, 0.0, 1.6909309933974557E9, 0.0, 2023-08-01 19:03:13.397
246.0, 25007.71284195338, 35134.95297848618, -187500.02235174447, 67357.27248874576, 4678.6000941515085, -5299.643313842215, 6709.479595360708, 32128.01750040263, 0.02, 1.02, 0.078, 192.0, 0.0, 0.0, 0.0, 0.0, 0.0, 0.0, 0.0, 0.0, 0.0, 1.690930993397548E9, 0.0, 2023-08-01 19:03:13.397
247.0, 25000.068545349666, 35127.97923421612, -187500.02235174447, 67263.64103122248, 4673.056861526592, -5292.311941660874, 6711.759473295149, 32120.21674158773, 0.02, 1.02, 0.078, 192.0, 0.0, 0.0, 0.0, 0.0, 0.0, 0.0, 0.0, 0.0, 0.0, 1.6909309933976424E9, 0.0, 2023-08-01 19:03:13.397
248.0, 24975.056943304175, 35118.65855677826, -187500.02235174447, 67338.7428925923, 4658.617634608464, -5243.831007937313, 6717.99560999818, 32156.13599492741, 0.02, 1.02, 0.078, 192.0, 0.0, 0.0, 0.0, 0.0, 0.0, 0.0, 0.0, 0.0, 0.0, 1.6909309933977349E9, 0.0, 2023-08-01 19:03:13.397
249.0, 24968.776103112235, 35112.19890263068, -187500.02235174447, 67417.82336447517, 4659.511704386676, -5259.790153478402, 6709.1666709383335, 32161.50041359668, 0.02, 1.02, 0.078, 192.0, 0.0, 0.0, 0.0, 0.0, 0.0, 0.0, 0.0, 0.0, 0.0, 1.690930993397828E9, 0.0, 2023-08-01 19:03:13.397
250.0, 24992.357193512584, 35124.51471382555, -187500.02235174447, 67405.3063875802, 4683.785698865139, -5285.360549135274, 6712.810005284549, 32152.671474536834, 0.02, 1.02, 0.078, 192.0, 0.0, 0.0, 0.0, 0.0, 0.0, 0.0, 0.0, 0.0, 0.0, 1.6909309933979192E9, 0.0, 2023-08-01 19:03:13.397
251.0, 24987.9986033438, 35125.7887632595, -187500.02235174447, 67316.391148137, 4681.863448841983, -5300.313866175874, 6707.132662192901, 32132.286683593597, 0.02, 1.02, 0.078, 192.0, 0.0, 0.0, 0.0, 0.0, 0.0, 0.0, 0.0, 0.0, 0.0, 1.6909309933980472E9, 0.0, 2023-08-01 19:03:13.398
252.0, 24994.36885051356, 35141.43498437822, -187500.02235174447, 67352.8468433436, 4678.756556362696, -5262.025327923933, 6717.772092553627, 32149.430471590815, 0.02, 1.02, 0.078, 192.0, 0.0, 0.0, 0.0, 0.0, 0.0, 0.0, 0.0, 0.0, 0.0, 1.6909309933981888E9, 0.0, 2023-08-01 19:03:13.398
253.0, 24995.352327269597, 35138.95394074368, -187500.02235174447, 67432.15083267103, 4681.684634886341, -5248.2119498505535, 6721.147205966378, 32158.751149028678, 0.016, 1.014, 0.078, 192.0, 0.0, 128.0, 31.0, 176.0, 2.0, 112.0, 0.0, 0.0, 0.0, 1.690930993398283E9, 0.0, 2023-08-01 19:03:13.398
254.0, 24990.83727488962, 35132.4942865961, -187500.02235174447, 67434.09543443864, 4692.92756234736, -5272.038909439911, 6722.71182807825, 32151.93386696981, 0.016, 1.014, 0.078, 192.0, 0.0, 0.0, 0.0, 0.0, 0.0, 0.0, 0.0, 0.0, 0.0, 1.690930993398383E9, 0.0, 2023-08-01 19:03:13.398
255.0, 24992.156027812485, 35134.72946104163, -187500.02235174447, 67320.07918597212, 4695.721530404274, -5303.532517377439, 6711.066569217035, 32121.44608753277, 0.016, 1.014, 0.078, 192.0, 0.0, 0.0, 0.0, 0.0, 0.0, 0.0, 0.0, 0.0, 0.0, 1.6909309933984752E9, 0.0, 2023-08-01 19:03:13.398
0.0, 24999.84502790511, 35133.924798241234, -187500.02235174447, 67315.67589231442, 4694.648646670419, -5254.224569109031, 6728.143301980889, 32138.433413318806, 0.016, 1.014, 0.078, 192.0, 0.0, 0.0, 0.0, 0.0, 0.0, 0.0, 0.0, 0.0, 0.0, 1.690930993398567E9, 0.0, 2023-08-01 19:03:13.398
1.0, 24984.981117842333, 35117.295100366486, -187500.02235174447, 67408.36857657059, 4687.719605889274, -5233.0127636209445, 6734.37943868392, 32162.238021163706, 0.016, 1.014, 0.078, 192.0, 0.0, 0.0, 0.0, 0.0, 0.0, 0.0, 0.0, 0.0, 0.0, 1.690930993398658E9, 0.0, 2023-08-01 19:03:13.398
2.0, 24996.872245892555, 35128.403917360774, -187500.02235174447, 67448.13232995657, 4697.532021705154, -5249.284833584408, 6732.9936305276915, 32166.350742143484, 0.016, 1.014, 0.078, 192.0, 0.0, 0.0, 0.0, 0.0, 0.0, 0.0, 0.0, 0.0, 0.0, 1.690930993398752E9, 0.0, 2023-08-01 19:03:13.398
3.0, 25001.499056994806, 35134.66240580826, -187500.02235174447, 67357.13837827902, 4692.324065247067, -5294.278895172942, 6708.071435460024, 32132.26433184914, 0.016, 1.014, 0.078, 192.0, 0.0, 0.0, 0.0, 0.0, 0.0, 0.0, 0.0, 0.0, 0.0, 1.6909309933989656E9, 0.0, 2023-08-01 19:03:13.398
4.0, 24996.581673214638, 35130.1920569172, -187500.02235174447, 67333.62434311204, 4692.815803625083, -5257.0408889104, 6717.079188475513, 32141.9873406872, 0.016, 1.014, 0.078, 192.0, 0.0, 0.0, 0.0, 0.0, 0.0, 0.0, 0.0, 0.0, 0.0, 1.690930993399068E9, 0.0, 2023-08-01 19:03:13.399
5.0, 24994.70412668039, 35132.82956276293, -187500.02235174447, 67413.9118091955, 4699.856603128505, -5228.810635663347, 6727.405694413865, 32166.686018310313, 0.016, 1.014, 0.078, 192.0, 0.0, 0.0, 0.0, 0.0, 0.0, 0.0, 0.0, 0.0, 0.0, 1.6909309933991628E9, 0.0, 2023-08-01 19:03:13.399
6.0, 24984.42232423095, 35125.609949303864, -187500.02235174447, 67439.72807404138, 4692.4581757137985, -5242.84753118128, 6724.656429845862, 32165.41196887636, 0.016, 1.014, 0.078, 192.0, 0.0, 0.0, 0.0, 0.0, 0.0, 0.0, 0.0, 0.0, 0.0, 1.6909309933992553E9, 0.0, 2023-08-01 19:03:13.399
7.0, 24989.540873711216, 35131.488458095606, -187500.02235174447, 67365.0955993051, 4689.26187625669, -5282.700691545092, 6707.356179637454, 32142.16615464284, 0.016, 1.018, 0.08, 192.0, 0.0, 128.0, 31.0, 208.0, 2.0, 128.0, 0.0, 0.0, 0.0, 1.6909309933993464E9, 0.0, 2023-08-01 19:03:13.399
8.0, 24999.777972671745, 35151.91795252776, -187500.02235174447, 67311.25024691227, 4695.386254237444, -5262.092383157299, 6714.061702974046, 32137.092308651485, 0.016, 1.018, 0.08, 192.0, 0.0, 0.0, 0.0, 0.0, 0.0, 0.0, 0.0, 0.0, 0.0, 1.6909309938657372E9, 0.0, 2023-08-01 19:03:13.865
9.0, 24998.258054048783, 35155.36012117388, -187500.02235174447, 67375.71267792139, 4691.8099751245945, -5229.190615319088, 6724.790540312593, 32152.22443964773, 0.016, 1.018, 0.08, 192.0, 0.0, 0.0, 0.0, 0.0, 0.0, 0.0, 0.0, 0.0, 0.0, 1.6909309938661997E9, 0.0, 2023-08-01 19:03:13.866
10.0, 25009.836257676634, 35128.51567608305, -187500.02235174447, 67438.67754205198, 4691.78762338014, -5230.062333352845, 6729.573813626029, 32166.238983421208, 0.016, 1.018, 0.08, 192.0, 0.0, 0.0, 0.0, 0.0, 0.0, 0.0, 0.0, 0.0, 0.0, 1.6909309938675764E9, 0.0, 2023-08-01 19:03:13.867
11.0, 24993.631242946536, 35119.597330045384, -187500.02235174447, 67374.17040755396, 4689.060710556592, -5281.739566533514, 6701.388263867887, 32137.74050924069, 0.016, 1.018, 0.08, 192.0, 0.0, 0.0, 0.0, 0.0, 0.0, 0.0, 0.0, 0.0, 0.0, 1.690930993867751E9, 0.0, 2023-08-01 19:03:13.867
12.0, 24985.584614942625, 35127.643958049295, -187500.02235174447, 67302.01897645224, 4699.588382195042, -5266.51802855945, 6712.0947494619795, 32131.370262070926, 0.016, 1.018, 0.08, 192.0, 0.0, 0.0, 0.0, 0.0, 0.0, 0.0, 0.0, 0.0, 0.0, 1.69093099386794E9, 0.0, 2023-08-01 19:03:13.867
13.0, 24988.08801032162, 35120.46904807914, -187500.02235174447, 67374.12570406505, 4695.296847259623, -5222.50744372695, 6730.937270037803, 32157.96883797274, 0.016, 1.018, 0.08, 192.0, 0.0, 0.0, 0.0, 0.0, 0.0, 0.0, 0.0, 0.0, 0.0, 1.6909309938681126E9, 0.0, 2023-08-01 19:03:13.868
14.0, 24982.723591652346, 35112.42242007523, -187500.02235174447, 67465.45493190944, 4685.462079699288, -5230.241147308487, 6725.461092646253, 32175.537309114614, 0.016, 1.018, 0.08, 192.0, 0.0, 0.0, 0.0, 0.0, 0.0, 0.0, 0.0, 0.0, 0.0, 1.6909309938682823E9, 0.0, 2023-08-01 19:03:13.868
15.0, 25000.984966872333, 35134.349481385885, -187500.02235174447, 67400.03137588875, 4706.517422976187, -5288.0651102143665, 6703.75754878015, 32139.8862767084, 0.016, 1.018, 0.08, 192.0, 0.0, 0.0, 0.0, 0.0, 0.0, 0.0, 0.0, 0.0, 0.0, 1.6909309938684328E9, 0.0, 2023-08-01 19:03:13.868
16.0, 24987.57392019915, 35127.86747549385, -187500.02235174447, 67289.50199955727, 4698.31433276109, -5281.985435722522, 6705.836261014493, 32122.384860799895, 0.016, 1.018, 0.08, 192.0, 0.0, 0.0, 0.0, 0.0, 0.0, 0.0, 0.0, 0.0, 0.0, 1.6909309938685975E9, 0.0, 2023-08-01 19:03:13.868
17.0, 24974.900481092987, 35122.07837367992, -187500.02235174447, 67350.14228226451, 4682.265780242179, -5237.393705534185, 6714.553441352063, 32152.157384414364, 0.014, 1.014, 0.082, 192.0, 0.0, 112.0, 31.0, 176.0, 2.0, 144.0, 0.0, 0.0, 0.0, 1.6909309938687603E9, 0.0, 2023-08-01 19:03:13.868
18.0, 24972.55354792518, 35119.28440562301, -187500.02235174447, 67461.94570802996, 4671.224018481257, -5233.258632809953, 6717.548575109074, 32176.833710293024, 0.014, 1.014, 0.082, 192.0, 0.0, 0.0, 0.0, 0.0, 0.0, 0.0, 0.0, 0.0, 0.0, 1.69093099386893E9, 0.0, 2023-08-01 19:03:13.868
19.0, 24972.79941711419, 35114.925815454226, -187500.02235174447, 67440.33157114168, 4674.286207471634, -5296.983456252034, 6688.2677898726215, 32138.522820296625, 0.014, 1.014, 0.082, 192.0, 0.0, 0.0, 0.0, 0.0, 0.0, 0.0, 0.0, 0.0, 0.0, 1.690930993869383E9, 0.0, 2023-08-01 19:03:13.869
20.0, 24985.070524820152, 35130.68379529522, -187500.02235174447, 67336.30655244668, 4691.5194024466755, -5297.81047079688, 6693.94513296427, 32117.91451190883, 0.014, 1.014, 0.082, 192.0, 0.0, 0.0, 0.0, 0.0, 0.0, 0.0, 0.0, 0.0, 0.0, 1.6909309938695006E9, 0.0, 2023-08-01 19:03:13.869
21.0, 24985.405800986984, 35130.81790576195, -187500.02235174447, 67352.71273287687, 4695.386254237444, -5233.415095021141, 6721.035447244102, 32142.769651743136, 0.014, 1.014, 0.082, 192.0, 0.0, 0.0, 0.0, 0.0, 0.0, 0.0, 0.0, 0.0, 0.0, 1.6909309938695948E9, 0.0, 2023-08-01 19:03:13.869
22.0, 24965.110417021566, 35110.61192877435, -187500.02235174447, 67453.63085909258, 4678.73420461824, -5213.857318622747, 6730.110255492957, 32172.631582335423, 0.014, 1.014, 0.082, 192.0, 0.0, 0.0, 0.0, 0.0, 0.0, 0.0, 0.0, 0.0, 0.0, 1.690930993869687E9, 0.0, 2023-08-01 19:03:13.869
23.0, 24970.89951883549, 35115.059925920956, -187500.02235174447, 67465.23141446488, 4681.818745353073, -5257.577330777327, 6714.75460705216, 32161.768634530144, 0.014, 1.014, 0.082, 192.0, 0.0, 0.0, 0.0, 0.0, 0.0, 0.0, 0.0, 0.0, 0.0, 1.6909309938697808E9, 0.0, 2023-08-01 19:03:13.869
24.0, 24975.638088660013, 35114.45642882066, -187500.02235174447, 67368.26954701776, 4687.45138495581, -5281.225476411042, 6704.048121458069, 32135.46063130625, 0.014, 1.014, 0.082, 192.0, 0.0, 0.0, 0.0, 0.0, 0.0, 0.0, 0.0, 0.0, 0.0, 1.6909309938698747E9, 0.0, 2023-08-01 19:03:13.869
25.0, 24990.345536511606, 35122.61481554685, -187500.02235174447, 67376.58439595514, 4684.88093434345, -5242.959289903556, 6710.798348283572, 32146.03300643361, 0.014, 1.014, 0.082, 192.0, 0.0, 0.0, 0.0, 0.0, 0.0, 0.0, 0.0, 0.0, 0.0, 1.6909309938699672E9, 0.0, 2023-08-01 19:03:13.869
26.0, 24990.300833022695, 35123.0394986915, -187500.02235174447, 67448.95934450142, 4679.181239507347, -5231.694010698082, 6711.580659339507, 32156.18069841632, 0.014, 1.014, 0.082, 192.0, 0.0, 0.0, 0.0, 0.0, 0.0, 0.0, 0.0, 0.0, 0.0, 1.6909309938700612E9, 0.0, 2023-08-01 19:03:13.870
27.0, 24975.772199126746, 35112.19890263068, -187500.02235174447, 67458.14591147256, 4674.062690027081, -5256.526798787928, 6705.970371481225, 32149.005788446164, 0.02, 1.012, 0.09, 192.0, 0.0, 160.0, 31.0, 160.0, 2.0, 208.0, 0.0, 0.0, 0.0, 1.690930993870166E9, 0.0, 2023-08-01 19:03:13.870
28.0, 24974.386390970518, 35113.76352474255, -187500.02235174447, 67350.7010758759, 4675.672015627863, -5294.614171339771, 6689.564191051029, 32120.17203809882, 0.02, 1.012, 0.09, 192.0, 0.0, 0.0, 0.0, 0.0, 0.0, 0.0, 0.0, 0.0, 0.0, 1.6909309938702748E9, 0.0, 2023-08-01 19:03:13.870
29.0, 24968.306716478673, 35106.05217290547, -187500.02235174447, 67344.08495951712, 4660.8751607984495, -5250.9165109296455, 6704.092824946979, 32140.869753464434, 0.02, 1.012, 0.09, 192.0, 0.0, 0.0, 0.0, 0.0, 0.0, 0.0, 0.0, 0.0, 0.0, 1.6909309938703685E9, 0.0, 2023-08-01 19:03:13.870
30.0, 24970.9442223244, 35107.52738803952, -187500.02235174447, 67446.88063226707, 4660.5845881205305, -5234.376220032718, 6704.919839491826, 32162.32742814153, 0.02, 1.012, 0.09, 192.0, 0.0, 0.0, 0.0, 0.0, 0.0, 0.0, 0.0, 0.0, 0.0, 1.6909309938704624E9, 0.0, 2023-08-01 19:03:13.870
31.0, 24986.23281553183, 35128.67213829424, -187500.02235174447, 67490.95827233294, 4675.649663883408, -5246.736734716504, 6715.38045589691, 32162.79681477509, 0.02, 1.012, 0.09, 192.0, 0.0, 0.0, 0.0, 0.0, 0.0, 0.0, 0.0, 0.0, 0.0, 1.6909309938705552E9, 0.0, 2023-08-01 19:03:13.870
32.0, 24998.772144171257, 35144.206600690675, -187500.02235174447, 67401.59599800063, 4671.671053370364, -5292.982493994534, 6691.75466200765, 32124.016538145133, 0.02, 1.012, 0.09, 192.0, 0.0, 0.0, 0.0, 0.0, 0.0, 0.0, 0.0, 0.0, 0.0, 1.690930993870648E9, 0.0, 2023-08-01 19:03:13.870
33.0, 24988.445638232904, 35129.67796679473, -187500.02235174447, 67351.97512530985, 4676.007291794693, -5263.858170969269, 6705.456281358753, 32125.35764281245, 0.02, 1.012, 0.09, 192.0, 0.0, 0.0, 0.0, 0.0, 0.0, 0.0, 0.0, 0.0, 0.0, 1.690930993870741E9, 0.0, 2023-08-01 19:03:13.870
34.0, 24979.616699173057, 35099.61487050234, -187500.02235174447, 67435.8612222506, 4666.910131801383, -5235.247938066475, 6714.486386118697, 32149.698692524278, 0.02, 1.012, 0.09, 192.0, 0.0, 0.0, 0.0, 0.0, 0.0, 0.0, 0.0, 0.0, 0.0, 1.6909309938708358E9, 0.0, 2023-08-01 19:03:13.870
35.0, 24973.961707825867, 35102.90057693727, -187500.02235174447, 67490.7794583773, 4674.532076660643, -5251.005917907467, 6707.780862782105, 32151.66564603635, 0.02, 1.012, 0.09, 192.0, 0.0, 0.0, 0.0, 0.0, 0.0, 0.0, 0.0, 0.0, 0.0, 1.6909309938710756E9, 0.0, 2023-08-01 19:03:13.871
36.0, 24975.258109004273, 35103.54877752648, -187500.02235174447, 67408.59209401514, 4682.288131986634, -5287.0145782249665, 6698.057853944047, 32124.955311412254, 0.02, 1.012, 0.09, 192.0, 0.0, 0.0, 0.0, 0.0, 0.0, 0.0, 0.0, 0.0, 0.0, 1.690930993871178E9, 0.0, 2023-08-01 19:03:13.871
37.0, 24980.957803840378, 35103.101742637366, -187500.02235174447, 67334.25019195679, 4676.297864472612, -5286.142860191209, 6699.018978955624, 32121.535494510594, 0.016, 1.016, 0.09, 192.0, 0.0, 128.0, 31.0, 192.0, 2.0, 208.0, 0.0, 0.0, 0.0, 1.6909309938712728E9, 0.0, 2023-08-01 19:03:13.871
38.0, 24978.0967805501, 35108.01912641754, -187500.02235174447, 67410.40258531601, 4674.6661871273745, -5239.360659046252, 6713.078226218013, 32152.89499198139, 0.016, 1.016, 0.09, 192.0, 0.0, 0.0, 0.0, 0.0, 0.0, 0.0, 0.0, 0.0, 0.0, 1.690930993871372E9, 0.0, 2023-08-01 19:03:13.871
39.0, 24973.872300848045, 35109.96372818515, -187500.02235174447, 67472.51808315731, 4675.046166783115, -5256.862074954757, 6706.819737770526, 32152.246791392183, 0.016, 1.016, 0.09, 192.0, 0.0, 0.0, 0.0, 0.0, 0.0, 0.0, 0.0, 0.0, 0.0, 1.6909309938714645E9, 0.0, 2023-08-01 19:03:13.871
40.0, 24992.737173168323, 35117.026879433026, -187500.02235174447, 67422.58428604416, 4682.109318030992, -5297.743415563514, 6698.147260921867, 32130.297378337073, 0.016, 1.016, 0.09, 192.0, 0.0, 0.0, 0.0, 0.0, 0.0, 0.0, 0.0, 0.0, 0.0, 1.6909309938715572E9, 0.0, 2023-08-01 19:03:13.871
41.0, 24988.155065554987, 35110.6342805188, -187500.02235174447, 67338.58643038111, 4682.131669775447, -5304.337180177829, 6698.057853944047, 32119.099154364965, 0.016, 1.016, 0.09, 192.0, 0.0, 0.0, 0.0, 0.0, 0.0, 0.0, 0.0, 0.0, 0.0, 1.6909309938716507E9, 0.0, 2023-08-01 19:03:13.871
42.0, 24971.27949849123, 35117.026879433026, -187500.02235174447, 67373.27633777575, 4679.2482947407125, -5258.225531366531, 6711.37949363941, 32136.086480150996, 0.016, 1.016, 0.09, 192.0, 0.0, 0.0, 0.0, 0.0, 0.0, 0.0, 0.0, 0.0, 0.0, 1.6909309938717504E9, 0.0, 2023-08-01 19:03:13.871
43.0, 24970.65364964648, 35114.94816719868, -187500.02235174447, 67471.89223431257, 4674.442669682821, -5242.0875718698, 6717.3250576645205, 32164.026160720132, 0.016, 1.016, 0.09, 192.0, 0.0, 0.0, 0.0, 0.0, 0.0, 0.0, 0.0, 0.0, 0.0, 1.690930993871878E9, 0.0, 2023-08-01 19:03:13.871
44.0, 24976.6439171605, 35120.35728935686, -187500.02235174447, 67441.15858568651, 4683.673940142863, -5292.870735272257, 6691.888772474382, 32138.25459936316, 0.016, 1.016, 0.09, 192.0, 0.0, 0.0, 0.0, 0.0, 0.0, 0.0, 0.0, 0.0, 0.0, 1.6909309938719747E9, 0.0, 2023-08-01 19:03:13.871
45.0, 24982.388315485518, 35144.541876857504, -187500.02235174447, 67310.51263934525, 4689.4630419567875, -5306.1476714787095, 6687.127850905401, 32108.59383447097, 0.016, 1.016, 0.09, 192.0, 0.0, 0.0, 0.0, 0.0, 0.0, 0.0, 0.0, 0.0, 0.0, 1.6909309938720677E9, 0.0, 2023-08-01 19:03:13.872
46.0, 24983.483550963825, 35131.421402862245, -187500.02235174447, 67343.92849730594, 4681.483469186243, -5248.793095206392, 6709.792519783083, 32141.383843586904, 0.016, 1.016, 0.09, 192.0, 0.0, 0.0, 0.0, 0.0, 0.0, 0.0, 0.0, 0.0, 0.0, 1.6909309938721676E9, 0.0, 2023-08-01 19:03:13.872
47.0, 24985.204635286886, 35116.46808582164, -187500.02235174447, 67431.70379778193, 4665.792544578618, -5238.153664845666, 6710.284258161099, 32161.053378707576, 0.016, 1.016, 0.09, 192.0, 0.0, 0.0, 0.0, 0.0, 0.0, 0.0, 0.0, 0.0, 0.0, 1.6909309938722613E9, 0.0, 2023-08-01 19:03:13.872
48.0, 24978.52146369475, 35097.75967571255, -187500.02235174447, 67433.35782687162, 4649.63223333743, -5292.133127705232, 6688.044272428068, 32140.7356429977, 0.01, 1.018, 0.1, 192.0, 0.0, 80.0, 31.0, 208.0, 3.0, 32.0, 0.0, 0.0, 0.0, 1.6909309938723557E9, 0.0, 2023-08-01 19:03:13.872
49.0, 24991.21725454536, 35107.39327757279, -187500.02235174447, 67354.32205847766, 4667.401870179399, -5311.400331425707, 6687.41842358332, 32127.97279691372, 0.01, 1.018, 0.1, 192.0, 0.0, 0.0, 0.0, 0.0, 0.0, 0.0, 0.0, 0.0, 0.0, 1.690930993872456E9, 0.0, 2023-08-01 19:03:13.872
50.0, 24977.985021827822, 35122.21248414666, -187500.02235174447, 67344.77786359524, 4671.5592946480865, -5270.85426698378, 6698.236667899689, 32137.584047029504, 0.01, 1.018, 0.1, 192.0, 0.0, 0.0, 0.0, 0.0, 0.0, 0.0, 0.0, 0.0, 0.0, 1.6909309938737357E9, 0.0, 2023-08-01 19:03:13.873
51.0, 24953.688675604903, 35110.299004351975, -187500.02235174447, 67450.94864975795, 4658.707041586285, -5239.383010790707, 6708.585525582496, 32171.268125923652, 0.01, 1.018, 0.1, 192.0, 0.0, 0.0, 0.0, 0.0, 0.0, 0.0, 0.0, 0.0, 0.0, 1.6909309938738632E9, 0.0, 2023-08-01 19:03:13.873
52.0, 24962.718780364845, 35106.23098686111, -187500.02235174447, 67458.72705682839, 4662.439782910322, -5287.1263369472435, 6686.502002060653, 32146.480041322717, 0.01, 1.018, 0.1, 192.0, 0.0, 0.0, 0.0, 0.0, 0.0, 0.0, 0.0, 0.0, 0.0, 1.6909309938739583E9, 0.0, 2023-08-01 19:03:13.873
53.0, 24979.7955131287, 35117.25039687758, -187500.02235174447, 67356.93721257892, 4674.330910960545, -5317.524709406461, 6683.260999114633, 32123.30128232256, 0.01, 1.018, 0.1, 192.0, 0.0, 0.0, 0.0, 0.0, 0.0, 0.0, 0.0, 0.0, 0.0, 1.6909309938740523E9, 0.0, 2023-08-01 19:03:13.874
54.0, 24986.590443443114, 35128.985062716616, -187500.02235174447, 67324.88481103002, 4672.274550470656, -5281.583104322327, 6694.302760875555, 32134.298340594574, 0.01, 1.018, 0.1, 192.0, 0.0, 0.0, 0.0, 0.0, 0.0, 0.0, 0.0, 0.0, 0.0, 1.690930993874175E9, 0.0, 2023-08-01 19:03:13.874
55.0, 24977.381524727527, 35120.04436493449, -187500.02235174447, 67419.11976565358, 4661.456306154288, -5236.32082180033, 6705.56804008103, 32167.08834971051, 0.01, 1.018, 0.1, 192.0, 0.0, 0.0, 0.0, 0.0, 0.0, 0.0, 0.0, 0.0, 0.0, 1.6909309938743093E9, 0.0, 2023-08-01 19:03:13.874
56.0, 24963.94812630989, 35117.69743176668, -187500.02235174447, 67460.51519638482, 4658.63998635292, -5274.966987963556, 6695.152127164856, 32157.9911897172, 0.01, 1.018, 0.1, 192.0, 0.0, 0.0, 0.0, 0.0, 0.0, 0.0, 0.0, 0.0, 0.0, 1.6909309938744464E9, 0.0, 2023-08-01 19:03:13.874
57.0, 24980.93545209592, 35127.39808886029, -187500.02235174447, 67367.68840166193, 4670.240541725224, -5313.14376749322, 6685.652635771351, 32126.698747479768, 0.01, 1.018, 0.1, 192.0, 0.0, 0.0, 0.0, 0.0, 0.0, 0.0, 0.0, 0.0, 0.0, 1.6909309938745415E9, 0.0, 2023-08-01 19:03:13.874
58.0, 24976.80037937169, 35114.23291137611, -187500.02235174447, 67322.80609879567, 4665.300806200601, -5281.314883388864, 6695.710920776239, 32133.7842504721, 0.01, 1.02, 0.096, 192.0, 0.0, 80.0, 31.0, 224.0, 3.0, 0.0, 0.0, 0.0, 0.0, 1.690930993874635E9, 0.0, 2023-08-01 19:03:13.874
59.0, 24971.45831244687, 35114.56818754294, -187500.02235174447, 67404.99346315784, 4674.442669682821, -5244.859188182258, 6714.776958796616, 32161.94744848579, 0.01, 1.02, 0.096, 192.0, 0.0, 0.0, 0.0, 0.0, 0.0, 0.0, 0.0, 0.0, 0.0, 1.6909309938747425E9, 0.0, 2023-08-01 19:03:13.874
60.0, 24977.247414260797, 35113.785876487, -187500.02235174447, 67472.36162094613, 4678.644797640419, -5250.201255107076, 6722.287144933599, 32172.072788724043, 0.01, 1.02, 0.096, 192.0, 0.0, 0.0, 0.0, 0.0, 0.0, 0.0, 0.0, 0.0, 0.0, 1.6909309938748355E9, 0.0, 2023-08-01 19:03:13.874
61.0, 24978.543815439203, 35117.27274862203, -187500.02235174447, 67406.3122160807, 4681.170544763869, -5303.9795522665445, 6696.4261765988085, 32138.545172041082, 0.01, 1.02, 0.096, 192.0, 0.0, 0.0, 0.0, 0.0, 0.0, 0.0, 0.0, 0.0, 0.0, 1.690930993874941E9, 0.0, 2023-08-01 19:03:13.874
62.0, 24986.7469056543, 35128.985062716616, -187500.02235174447, 67324.92951451892, 4682.265780242179, -5287.103985202788, 6706.350351136965, 32128.956273669755, 0.01, 1.02, 0.096, 192.0, 0.0, 0.0, 0.0, 0.0, 0.0, 0.0, 0.0, 0.0, 0.0, 1.6909309938750348E9, 0.0, 2023-08-01 19:03:13.875
63.0, 24990.27848127824, 35121.81015274646, -187500.02235174447, 67407.22863760336, 4678.6000941515085, -5236.030249122411, 6727.316287436043, 32164.003808975674, 0.01, 1.02, 0.096, 192.0, 0.0, 0.0, 0.0, 0.0, 0.0, 0.0, 0.0, 0.0, 0.0, 1.690930993875131E9, 0.0, 2023-08-01 19:03:13.875
64.0, 24973.246452003295, 35101.87239669233, -187500.02235174447, 67467.04190576577, 4673.749765604707, -5247.94372891709, 6716.386284397398, 32165.03198922062, 0.01, 1.02, 0.096, 192.0, 0.0, 0.0, 0.0, 0.0, 0.0, 0.0, 0.0, 0.0, 0.0, 1.690930993875224E9, 0.0, 2023-08-01 19:03:13.875
65.0, 24951.94523953739, 35104.353440326864, -187500.02235174447, 67416.88459120806, 4676.655492383897, -5296.648180085204, 6693.162821908334, 32135.728852239714, 0.01, 1.02, 0.096, 192.0, 0.0, 0.0, 0.0, 0.0, 0.0, 0.0, 0.0, 0.0, 0.0, 1.6909309938753188E9, 0.0, 2023-08-01 19:03:13.875
66.0, 24972.978231069832, 35118.45739107816, -187500.02235174447, 67315.56413359215, 4691.161774535391, -5301.543212120916, 6691.41938584082, 32117.9815671422, 0.01, 1.02, 0.096, 192.0, 0.0, 0.0, 0.0, 0.0, 0.0, 0.0, 0.0, 0.0, 0.0, 1.690930993875968E9, 0.0, 2023-08-01 19:03:13.875
67.0, 24975.079295048632, 35119.262053878556, -187500.02235174447, 67367.12960805054, 4682.846925598017, -5241.618185236238, 6713.972295996225, 32151.330369869516, 0.01, 1.02, 0.096, 192.0, 0.0, 0.0, 0.0, 0.0, 0.0, 0.0, 0.0, 0.0, 0.0, 1.6909309938760908E9, 0.0, 2023-08-01 19:03:13.876
68.0, 24969.893690335, 35116.04340267699, -187500.02235174447, 67470.8193505787, 4673.995634793715, -5233.616260721238, 6712.85470877346, 32175.112625969963, 0.016, 1.016, 0.094, 192.0, 0.0, 128.0, 31.0, 192.0, 2.0, 240.0, 0.0, 0.0, 0.0, 1.690930993876186E9, 0.0, 2023-08-01 19:03:13.876
69.0, 24973.402914214483, 35119.37381260083, -187500.02235174447, 67460.80576906273, 4670.106431258492, -5282.030139211433, 6692.291103874577, 32154.012579204154, 0.016, 1.016, 0.094, 192.0, 0.0, 0.0, 0.0, 0.0, 0.0, 0.0, 0.0, 0.0, 0.0, 1.6909309938762856E9, 0.0, 2023-08-01 19:03:13.876
70.0, 24975.258109004273, 35135.601179075384, -187500.02235174447, 67365.38617198303, 4674.397966193911, -5302.19141271012, 6685.94320844927, 32135.97472142872, 0.016, 1.016, 0.094, 192.0, 0.0, 0.0, 0.0, 0.0, 0.0, 0.0, 0.0, 0.0, 0.0, 1.6909309938763776E9, 0.0, 2023-08-01 19:03:13.876
71.0, 24984.33291725313, 35138.30574015448, -187500.02235174447, 67384.38515477005, 4680.254123241201, -5249.284833584408, 6706.439758114786, 32155.778367016123, 0.016, 1.016, 0.094, 192.0, 0.0, 0.0, 0.0, 0.0, 0.0, 0.0, 0.0, 0.0, 0.0, 1.6909309938765435E9, 0.0, 2023-08-01 19:03:13.876
72.0, 24986.344574254104, 35132.71780404065, -187500.02235174447, 67456.62599284959, 4682.5340011756425, -5239.405362535163, 6714.307572163055, 32167.93771599981, 0.016, 1.016, 0.094, 192.0, 0.0, 0.0, 0.0, 0.0, 0.0, 0.0, 0.0, 0.0, 0.0, 1.690930993876638E9, 0.0, 2023-08-01 19:03:13.876
73.0, 24974.967536326356, 35120.06671667894, -187500.02235174447, 67452.46856838091, 4672.229846981746, -5274.475249585539, 6695.42034809832, 32151.97857045872, 0.016, 1.016, 0.094, 192.0, 0.0, 0.0, 0.0, 0.0, 0.0, 0.0, 0.0, 0.0, 0.0, 1.6909309938767505E9, 0.0, 2023-08-01 19:03:13.876
74.0, 24982.23185327433, 35114.16585614275, -187500.02235174447, 67343.48146241682, 4676.11905051697, -5306.259430200986, 6683.37275783691, 32126.698747479768, 0.016, 1.016, 0.094, 192.0, 0.0, 0.0, 0.0, 0.0, 0.0, 0.0, 0.0, 0.0, 0.0, 1.6909309938768456E9, 0.0, 2023-08-01 19:03:13.876
75.0, 24979.1473125395, 35117.51861781104, -187500.02235174447, 67342.85561357209, 4669.547637647109, -5264.595778536293, 6700.89652548987, 32144.46838432174, 0.016, 1.016, 0.094, 192.0, 0.0, 0.0, 0.0, 0.0, 0.0, 0.0, 0.0, 0.0, 0.0, 1.69093099387694E9, 0.0, 2023-08-01 19:03:13.876
76.0, 24974.632260159524, 35119.70908876766, -187500.02235174447, 67444.04196072125, 4666.261931212179, -5241.37231604723, 6710.619534327929, 32173.726817813735, 0.016, 1.016, 0.094, 192.0, 0.0, 0.0, 0.0, 0.0, 0.0, 0.0, 0.0, 0.0, 0.0, 1.6909309938770325E9, 0.0, 2023-08-01 19:03:13.877
77.0, 24971.838292102613, 35110.1872456297, -187500.02235174447, 67500.39070849308, 4664.652605611397, -5265.534551803416, 6705.679798803306, 32178.778312060633, 0.016, 1.016, 0.094, 192.0, 0.0, 0.0, 0.0, 0.0, 0.0, 0.0, 0.0, 0.0, 0.0, 1.6909309938771248E9, 0.0, 2023-08-01 19:03:13.877
78.0, 24975.36986772655, 35114.925815454226, -187500.02235174447, 67403.04886139023, 4671.224018481257, -5315.714218105581, 6679.908237446337, 32140.26625636414, 0.018000000000000002, 1.016, 0.094, 192.0, 0.0, 144.0, 31.0, 192.0, 2.0, 240.0, 0.0, 0.0, 0.0, 1.690930993877218E9, 0.0, 2023-08-01 19:03:13.877
79.0, 24973.715838636857, 35112.24360611959, -187500.02235174447, 67358.92651783544, 4671.693405114818, -5286.679302058137, 6690.502964318152, 32139.238076119196, 0.018000000000000002, 1.016, 0.094, 192.0, 0.0, 0.0, 0.0, 0.0, 0.0, 0.0, 0.0, 0.0, 0.0, 1.6909309938773174E9, 0.0, 2023-08-01 19:03:13.877
80.0, 24972.37473396954, 35110.433114818705, -187500.02235174447, 67443.2149461764, 4667.804201579595, -5250.447124296084, 6706.37270288142, 32166.41779737685, 0.018000000000000002, 1.016, 0.094, 192.0, 0.0, 0.0, 0.0, 0.0, 0.0, 0.0, 0.0, 0.0, 0.0, 1.690930993877411E9, 0.0, 2023-08-01 19:03:13.877
81.0, 24979.1473125395, 35112.98121368662, -187500.02235174447, 67495.47332471292, 4672.363957448478, -5267.725022760037, 6706.506813348153, 32169.569393345046, 0.018000000000000002, 1.016, 0.094, 192.0, 0.0, 0.0, 0.0, 0.0, 0.0, 0.0, 0.0, 0.0, 0.0, 1.6909309938775036E9, 0.0, 2023-08-01 19:03:13.877
82.0, 24987.37275449905, 35142.306702411974, -187500.02235174447, 67401.64070148954, 4689.172469278868, -5314.842500071824, 6694.168650408823, 32138.098137151974, 0.018000000000000002, 1.016, 0.094, 192.0, 0.0, 0.0, 0.0, 0.0, 0.0, 0.0, 0.0, 0.0, 0.0, 1.6909309938780243E9, 0.0, 2023-08-01 19:03:13.878
83.0, 24982.81299863017, 35145.86062978037, -187500.02235174447, 67324.25896218527, 4680.097661030014, -5292.133127705232, 6700.538897578585, 32131.951407426764, 0.018000000000000002, 1.016, 0.094, 192.0, 0.0, 0.0, 0.0, 0.0, 0.0, 0.0, 0.0, 0.0, 0.0, 1.6909309938781197E9, 0.0, 2023-08-01 19:03:13.878
84.0, 24999.554455227193, 35141.278522167035, -187500.02235174447, 67404.4570212909, 4676.297864472612, -5246.423810294129, 6717.839147786993, 32167.423625877338, 0.018000000000000002, 1.016, 0.094, 192.0, 0.0, 0.0, 0.0, 0.0, 0.0, 0.0, 0.0, 0.0, 0.0, 1.690930993878214E9, 0.0, 2023-08-01 19:03:13.878
85.0, 24988.445638232904, 35126.79459175999, -187500.02235174447, 67480.45295243895, 4674.643835382919, -5248.65898473966, 6722.823586800527, 32185.37207667495, 0.018000000000000002, 1.016, 0.094, 192.0, 0.0, 0.0, 0.0, 0.0, 0.0, 0.0, 0.0, 0.0, 0.0, 1.690930993878308E9, 0.0, 2023-08-01 19:03:13.878
86.0, 24978.387353228016, 35114.29996660948, -187500.02235174447, 67425.17708840097, 4674.934408060838, -5300.269162686964, 6697.342598121477, 32154.772538515634, 0.018000000000000002, 1.016, 0.094, 192.0, 0.0, 0.0, 0.0, 0.0, 0.0, 0.0, 0.0, 0.0, 0.0, 1.6909309938784008E9, 0.0, 2023-08-01 19:03:13.878
87.0, 24972.844120603102, 35116.55749279946, -187500.02235174447, 67329.01988375424, 4678.242466240224, -5300.358569664785, 6693.654560286351, 32135.12535513942, 0.018000000000000002, 1.016, 0.094, 192.0, 0.0, 0.0, 0.0, 0.0, 0.0, 0.0, 0.0, 0.0, 0.0, 1.6909309938785255E9, 0.0, 2023-08-01 19:03:13.878
88.0, 24971.65947814697, 35116.110457910356, -187500.02235174447, 67401.908922423, 4675.269684227667, -5237.281946811909, 6711.580659339507, 32170.50816661217, 0.018000000000000002, 1.014, 0.09, 192.0, 0.0, 144.0, 31.0, 176.0, 2.0, 208.0, 0.0, 0.0, 0.0, 1.6909309938786736E9, 0.0, 2023-08-01 19:03:13.878
89.0, 24972.95587932538, 35117.27274862203, -187500.02235174447, 67474.19446399146, 4674.107393515992, -5238.086609612299, 6711.938287250792, 32182.376942917937, 0.018000000000000002, 1.014, 0.09, 192.0, 0.0, 0.0, 0.0, 0.0, 0.0, 0.0, 0.0, 0.0, 0.0, 1.6909309938788471E9, 0.0, 2023-08-01 19:03:13.878
90.0, 24960.148329752486, 35110.32135609643, -187500.02235174447, 67453.04971373675, 4665.613730622975, -5279.772613021447, 6693.095766674968, 32167.311867155062, 0.018000000000000002, 1.014, 0.09, 192.0, 0.0, 0.0, 0.0, 0.0, 0.0, 0.0, 0.0, 0.0, 0.0, 1.6909309938789995E9, 0.0, 2023-08-01 19:03:13.878
91.0, 24957.37671344003, 35106.78978047249, -187500.02235174447, 67365.00619232729, 4660.651643353897, -5298.8162992973685, 6680.735251991183, 32144.155459899364, 0.018000000000000002, 1.014, 0.09, 192.0, 0.0, 0.0, 0.0, 0.0, 0.0, 0.0, 0.0, 0.0, 0.0, 1.6909309938791509E9, 0.0, 2023-08-01 19:03:13.879
92.0, 24967.882033334023, 35113.89763520928, -187500.02235174447, 67416.6163702746, 4661.232788709734, -5250.111848129255, 6702.148223179367, 32167.8930125109, 0.018000000000000002, 1.014, 0.09, 192.0, 0.0, 0.0, 0.0, 0.0, 0.0, 0.0, 0.0, 0.0, 0.0, 1.6909309938793032E9, 0.0, 2023-08-01 19:03:13.879
93.0, 24964.015181543255, 35112.265957864045, -187500.02235174447, 67486.28675774178, 4653.3649746614665, -5256.8397232103025, 6693.654560286351, 32169.211765433764, 0.018000000000000002, 1.014, 0.09, 192.0, 0.0, 0.0, 0.0, 0.0, 0.0, 0.0, 0.0, 0.0, 0.0, 1.6909309938794653E9, 0.0, 2023-08-01 19:03:13.879
94.0, 24993.027745846244, 35123.35242311387, -187500.02235174447, 67465.924318543, 4671.671053370364, -5288.758014292481, 6688.603066039452, 32157.74532052819, 0.018000000000000002, 1.014, 0.09, 192.0, 0.0, 0.0, 0.0, 0.0, 0.0, 0.0, 0.0, 0.0, 0.0, 1.6909309938796182E9, 0.0, 2023-08-01 19:03:13.879
95.0, 24997.699260437403, 35149.41455714876, -187500.02235174447, 67355.86432884507, 4677.728376117751, -5305.544174378416, 6681.182286880289, 32137.87461970742, 0.018000000000000002, 1.014, 0.09, 192.0, 0.0, 0.0, 0.0, 0.0, 0.0, 0.0, 0.0, 0.0, 0.0, 1.6909309938797789E9, 0.0, 2023-08-01 19:03:13.879
96.0, 24986.07635332064, 35150.018054249056, -187500.02235174447, 67381.74764892431, 4663.2220939662575, -5254.269272597941, 6699.689531289284, 32164.36143688696, 0.018000000000000002, 1.014, 0.09, 192.0, 0.0, 0.0, 0.0, 0.0, 0.0, 0.0, 0.0, 0.0, 0.0, 1.6909309938799274E9, 0.0, 2023-08-01 19:03:13.879
97.0, 24982.164798040965, 35132.96367322966, -187500.02235174447, 67483.67160364051, 4668.87708531345, -5244.434505037607, 6704.5845633249955, 32189.88712905492, 0.018000000000000002, 1.014, 0.09, 192.0, 0.0, 0.0, 0.0, 0.0, 0.0, 0.0, 0.0, 0.0, 0.0, 1.690930993880082E9, 0.0, 2023-08-01 19:03:13.880
98.0, 24972.911175836467, 35121.05019343498, -187500.02235174447, 67502.9835108499, 4670.30759695859, -5278.096232187299, 6696.046196943069, 32179.65003009439, 0.016, 1.022, 0.08600000000000001, 192.0, 0.0, 128.0, 31.0, 240.0, 2.0, 176.0, 0.0, 0.0, 0.0, 1.6909309938807416E9, 0.0, 2023-08-01 19:03:13.880
99.0, 24978.610870672568, 35130.25911215057, -187500.02235174447, 67369.83416912964, 4682.645759897919, -5333.81913111438, 6676.331958333488, 32126.229360846206, 0.016, 1.022, 0.08600000000000001, 192.0, 0.0, 0.0, 0.0, 0.0, 0.0, 0.0, 0.0, 0.0, 0.0, 1.6909309938808992E9, 0.0, 2023-08-01 19:03:13.880
100.0, 24967.725571122835, 35118.16681840024, -187500.02235174447, 67354.0985410331, 4664.384384677933, -5286.008749724478, 6696.336769620988, 32135.751203984168, 0.016, 1.022, 0.08600000000000001, 192.0, 0.0, 0.0, 0.0, 0.0, 0.0, 0.0, 0.0, 0.0, 0.0, 1.6909309938810492E9, 0.0, 2023-08-01 19:03:13.881
101.0, 24969.670172890448, 35116.02105093253, -187500.02235174447, 67461.67748709649, 4657.567102619065, -5261.913569201657, 6701.701188290262, 32165.769596787646, 0.016, 1.022, 0.08600000000000001, 192.0, 0.0, 0.0, 0.0, 0.0, 0.0, 0.0, 0.0, 0.0, 0.0, 1.6909309938811803E9, 0.0, 2023-08-01 19:03:13.881
102.0, 24974.252280503784, 35114.8364084764, -187500.02235174447, 67498.49081021438, 4663.311500944078, -5276.531610075428, 6699.398958611365, 32168.720027055744, 0.016, 1.022, 0.08600000000000001, 192.0, 0.0, 0.0, 0.0, 0.0, 0.0, 0.0, 0.0, 0.0, 0.0, 1.6909309938812745E9, 0.0, 2023-08-01 19:03:13.881
103.0, 24981.829521874133, 35122.30189112448, -187500.02235174447, 67399.24906483282, 4673.794469093617, -5320.542194907927, 6682.366929336421, 32136.578218529015, 0.016, 1.022, 0.08600000000000001, 192.0, 0.0, 0.0, 0.0, 0.0, 0.0, 0.0, 0.0, 0.0, 0.0, 1.6909309938813696E9, 0.0, 2023-08-01 19:03:13.881
104.0, 25000.33676628313, 35144.363062901866, -187500.02235174447, 67349.91876481996, 4679.896495329916, -5283.170078178654, 6700.85182200096, 32140.825049975523, 0.016, 1.022, 0.08600000000000001, 192.0, 0.0, 0.0, 0.0, 0.0, 0.0, 0.0, 0.0, 0.0, 0.0, 1.690930993881464E9, 0.0, 2023-08-01 19:03:13.881
105.0, 24997.207522059387, 35134.058908707964, -187500.02235174447, 67437.20232691793, 4672.363957448478, -5238.354830545763, 6720.230784443711, 32174.21855619175, 0.016, 1.022, 0.08600000000000001, 192.0, 0.0, 0.0, 0.0, 0.0, 0.0, 0.0, 0.0, 0.0, 0.0, 1.6909309938815565E9, 0.0, 2023-08-01 19:03:13.881
106.0, 24974.65461190398, 35120.916082968244, -187500.02235174447, 67498.9825485924, 4670.709928358785, -5256.482095299018, 6713.547612851574, 32188.210748220772, 0.016, 1.022, 0.08600000000000001, 192.0, 0.0, 0.0, 0.0, 0.0, 0.0, 0.0, 0.0, 0.0, 0.0, 1.6909309938816483E9, 0.0, 2023-08-01 19:03:13.881
107.0, 24987.57392019915, 35133.56717032995, -187500.02235174447, 67412.34718708362, 4681.818745353073, -5305.343008678318, 6694.481574831197, 32158.08059669502, 0.016, 1.022, 0.08600000000000001, 192.0, 0.0, 0.0, 0.0, 0.0, 0.0, 0.0, 0.0, 0.0, 0.0, 1.6909309938817513E9, 0.0, 2023-08-01 19:03:13.881
108.0, 24988.579748699638, 35135.757641286575, -187500.02235174447, 67353.38328521053, 4672.4980679152095, -5276.1516304196875, 6702.170574923823, 32157.097119938986, 0.014, 1.018, 0.08600000000000001, 192.0, 0.0, 112.0, 31.0, 208.0, 2.0, 176.0, 0.0, 0.0, 0.0, 1.6909309938818457E9, 0.0, 2023-08-01 19:03:13.881
109.0, 24977.89561485, 35123.441830091695, -187500.02235174447, 67453.63085909258, 4654.482561884232, -5233.504501998961, 6712.362970395443, 32187.316678442563, 0.014, 1.018, 0.08600000000000001, 192.0, 0.0, 0.0, 0.0, 0.0, 0.0, 0.0, 0.0, 0.0, 0.0, 1.6909309938819442E9, 0.0, 2023-08-01 19:03:13.881
110.0, 24970.22896650183, 35126.1910946597, -187500.02235174447, 67506.85036264066, 4655.287224684623, -5261.645348268193, 6696.8955632323705, 32179.85119579449, 0.014, 1.018, 0.08600000000000001, 192.0, 0.0, 0.0, 0.0, 0.0, 0.0, 0.0, 0.0, 0.0, 0.0, 1.6909309938820372E9, 0.0, 2023-08-01 19:03:13.882
111.0, 24975.258109004273, 35126.48166733762, -187500.02235174447, 67444.13136769907, 4667.535980646131, -5304.940677278123, 6686.300836360555, 32155.93482922731, 0.014, 1.018, 0.08600000000000001, 192.0, 0.0, 0.0, 0.0, 0.0, 0.0, 0.0, 0.0, 0.0, 0.0, 1.690930993882131E9, 0.0, 2023-08-01 19:03:13.882
112.0, 24977.001545071787, 35114.12115265383, -187500.02235174447, 67356.49017768982, 4667.848905068506, -5299.710369075581, 6692.0228829411135, 32142.680244765314, 0.014, 1.018, 0.08600000000000001, 192.0, 0.0, 0.0, 0.0, 0.0, 0.0, 0.0, 0.0, 0.0, 0.0, 1.690930993882224E9, 0.0, 2023-08-01 19:03:13.882
113.0, 24976.107475293575, 35111.66246076375, -187500.02235174447, 67453.49674862585, 4669.100602758003, -5240.679411969115, 6720.744874566183, 32189.75301858819, 0.014, 1.018, 0.08600000000000001, 192.0, 0.0, 0.0, 0.0, 0.0, 0.0, 0.0, 0.0, 0.0, 0.0, 1.69093099388271E9, 0.0, 2023-08-01 19:03:13.882
114.0, 24977.22506251634, 35116.244568377086, -187500.02235174447, 67528.53155476232, 4670.754631847695, -5248.368412061741, 6716.743912308683, 32196.45854192478, 0.014, 1.018, 0.08600000000000001, 192.0, 0.0, 0.0, 0.0, 0.0, 0.0, 0.0, 0.0, 0.0, 0.0, 1.6909309938828075E9, 0.0, 2023-08-01 19:03:13.882
115.0, 24987.260995776775, 35126.07933593742, -187500.02235174447, 67493.12639154511, 4675.582608650042, -5292.423700383151, 6700.985932467692, 32167.13305319942, 0.014, 1.018, 0.08600000000000001, 192.0, 0.0, 0.0, 0.0, 0.0, 0.0, 0.0, 0.0, 0.0, 0.0, 1.6909309938829017E9, 0.0, 2023-08-01 19:03:13.882
116.0, 24989.876149878044, 35124.26884463654, -187500.02235174447, 67390.71069845089, 4672.341605704022, -5300.246810942508, 6694.772147509116, 32139.819221475034, 0.014, 1.018, 0.08600000000000001, 192.0, 0.0, 0.0, 0.0, 0.0, 0.0, 0.0, 0.0, 0.0, 0.0, 1.6909309938829942E9, 0.0, 2023-08-01 19:03:13.882
117.0, 24972.911175836467, 35118.03270793351, -187500.02235174447, 67431.01089370382, 4661.702175343296, -5259.23135986702, 6703.489327846686, 32158.438224606303, 0.014, 1.018, 0.08600000000000001, 192.0, 0.0, 0.0, 0.0, 0.0, 0.0, 0.0, 0.0, 0.0, 0.0, 1.6909309938830888E9, 0.0, 2023-08-01 19:03:13.883
118.0, 24985.31639400916, 35122.70422252467, -187500.02235174447, 67528.19627859548, 4662.2833206991345, -5250.178903362621, 6709.032560471602, 32181.862852795468, 0.018000000000000002, 1.014, 0.088, 192.0, 0.0, 144.0, 31.0, 176.0, 2.0, 192.0, 0.0, 0.0, 0.0, 1.6909309938831823E9, 0.0, 2023-08-01 19:03:13.883
119.0, 24979.70610615088, 35119.038536434, -187500.02235174447, 67519.36733953565, 4657.343585174512, -5301.207935954087, 6689.318321862022, 32156.471271094237, 0.018000000000000002, 1.014, 0.088, 192.0, 0.0, 0.0, 0.0, 0.0, 0.0, 0.0, 0.0, 0.0, 0.0, 1.6909309938832808E9, 0.0, 2023-08-01 19:03:13.883
120.0, 24972.285326991718, 35121.22900739062, -187500.02235174447, 67426.65230353503, 4661.21043696528, -5323.559680409394, 6685.250304371155, 32134.186581872298, 0.018000000000000002, 1.014, 0.088, 192.0, 0.0, 0.0, 0.0, 0.0, 0.0, 0.0, 0.0, 0.0, 0.0, 1.690930993883374E9, 0.0, 2023-08-01 19:03:13.883
121.0, 24977.113303794064, 35121.38546960181, -187500.02235174447, 67453.96613525941, 4659.556407875587, -5283.393595623207, 6703.869307502426, 32151.956218714266, 0.018000000000000002, 1.014, 0.088, 192.0, 0.0, 0.0, 0.0, 0.0, 0.0, 0.0, 0.0, 0.0, 0.0, 1.6909309938834677E9, 0.0, 2023-08-01 19:03:13.883
122.0, 24983.03651607472, 35125.36408011485, -187500.02235174447, 67550.43626432851, 4659.578759620043, -5259.141952889198, 6709.300781405066, 32169.50233811168, 0.018000000000000002, 1.014, 0.088, 192.0, 0.0, 0.0, 0.0, 0.0, 0.0, 0.0, 0.0, 0.0, 0.0, 1.690930993883608E9, 0.0, 2023-08-01 19:03:13.883
123.0, 24985.629318431536, 35133.90244649678, -187500.02235174447, 67549.51984280585, 4663.870294555461, -5296.7599388074805, 6695.442699842775, 32149.65398903537, 0.018000000000000002, 1.014, 0.088, 192.0, 0.0, 0.0, 0.0, 0.0, 0.0, 0.0, 0.0, 0.0, 0.0, 1.6909309938837104E9, 0.0, 2023-08-01 19:03:13.883
124.0, 24977.359172983073, 35141.94907450069, -187500.02235174447, 67421.48905056585, 4675.046166783115, -5325.973668810567, 6690.078281173502, 32118.048622375565, 0.018000000000000002, 1.014, 0.088, 192.0, 0.0, 0.0, 0.0, 0.0, 0.0, 0.0, 0.0, 0.0, 0.0, 1.6909309938838177E9, 0.0, 2023-08-01 19:03:13.883
125.0, 24970.9442223244, 35124.71587952565, -187500.02235174447, 67424.99827444533, 4668.854733568995, -5266.450973326084, 6714.732255307706, 32149.251657635174, 0.018000000000000002, 1.014, 0.088, 192.0, 0.0, 0.0, 0.0, 0.0, 0.0, 0.0, 0.0, 0.0, 0.0, 1.690930993883918E9, 0.0, 2023-08-01 19:03:13.883
126.0, 24968.66434438996, 35117.25039687758, -187500.02235174447, 67514.09232784419, 4658.908207286383, -5254.805714464869, 6717.168595453334, 32170.88814626791, 0.018000000000000002, 1.014, 0.088, 192.0, 0.0, 0.0, 0.0, 0.0, 0.0, 0.0, 0.0, 0.0, 0.0, 1.6909309938840115E9, 0.0, 2023-08-01 19:03:13.884
127.0, 24982.90240560799, 35118.94912945618, -187500.02235174447, 67543.32840959173, 4664.697309100307, -5280.309054888375, 6712.631191328906, 32169.614096833957, 0.018000000000000002, 1.014, 0.088, 192.0, 0.0, 0.0, 0.0, 0.0, 0.0, 0.0, 0.0, 0.0, 0.0, 1.6909309938841052E9, 0.0, 2023-08-01 19:03:13.884
128.0, 24985.606966687083, 35113.07062066443, -187500.02235174447, 67447.5735363452, 4665.144343989414, -5316.0047907835, 6699.75658652265, 32145.116584910942, 0.014, 1.014, 0.09, 192.0, 0.0, 112.0, 31.0, 176.0, 2.0, 208.0, 0.0, 0.0, 0.0, 1.6909309938841996E9, 0.0, 2023-08-01 19:03:13.884
129.0, 24971.88299559152, 35128.269806894044, -187500.02235174447, 67396.92448340947, 4669.860562069483, -5287.886296258724, 6705.2327639141995, 32148.245829134685, 0.014, 1.014, 0.09, 192.0, 0.0, 0.0, 0.0, 0.0, 0.0, 0.0, 0.0, 0.0, 0.0, 1.690930994346459E9, 0.0, 2023-08-01 19:03:14.346
130.0, 24972.33003048063, 35132.874266251834, -187500.02235174447, 67497.21676078043, 4662.015099765671, -5232.230452565009, 6725.28227869061, 32189.931832543833, 0.014, 1.014, 0.09, 192.0, 0.0, 0.0, 0.0, 0.0, 0.0, 0.0, 0.0, 0.0, 0.0, 1.6909309943469734E9, 0.0, 2023-08-01 19:03:14.346
131.0, 24970.27366999074, 35125.408783603765, -187500.02235174447, 67540.64620025709, 4664.004405022193, -5262.651176768682, 6710.731293050206, 32182.71221908477, 0.014, 1.014, 0.09, 192.0, 0.0, 0.0, 0.0, 0.0, 0.0, 0.0, 0.0, 0.0, 0.0, 1.6909309943475294E9, 0.0, 2023-08-01 19:03:14.347
132.0, 24966.093893777597, 35122.65951903576, -187500.02235174447, 67441.65032406454, 4669.145306246914, -5310.238040714031, 6696.850859743459, 32147.709387267758, 0.014, 1.014, 0.09, 192.0, 0.0, 0.0, 0.0, 0.0, 0.0, 0.0, 0.0, 0.0, 0.0, 1.6909309943479583E9, 0.0, 2023-08-01 19:03:14.347
133.0, 24964.79749259919, 35117.67508002223, -187500.02235174447, 67397.46092527639, 4659.77992532014, -5283.907685745679, 6707.4008831263645, 32155.443090849294, 0.014, 1.014, 0.09, 192.0, 0.0, 0.0, 0.0, 0.0, 0.0, 0.0, 0.0, 0.0, 0.0, 1.6909309943480535E9, 0.0, 2023-08-01 19:03:14.348
134.0, 24984.444675975406, 35131.421402862245, -187500.02235174447, 67487.24788275336, 4668.340643446522, -5239.494769512984, 6721.683647833306, 32186.60142261999, 0.014, 1.014, 0.09, 192.0, 0.0, 0.0, 0.0, 0.0, 0.0, 0.0, 0.0, 0.0, 0.0, 1.690930994348147E9, 0.0, 2023-08-01 19:03:14.348
135.0, 24990.457295233882, 35135.19884767519, -187500.02235174447, 67545.31771484825, 4674.6661871273745, -5254.716307487048, 6721.013095499647, 32189.41774242136, 0.014, 1.014, 0.09, 192.0, 0.0, 0.0, 0.0, 0.0, 0.0, 0.0, 0.0, 0.0, 0.0, 1.6909309943482416E9, 0.0, 2023-08-01 19:03:14.348
136.0, 24992.67011793496, 35140.27269366654, -187500.02235174447, 67463.6220888641, 4682.489297686732, -5286.209915424575, 6711.267734917133, 32156.672436794335, 0.014, 1.014, 0.09, 192.0, 0.0, 0.0, 0.0, 0.0, 0.0, 0.0, 0.0, 0.0, 0.0, 1.6909309943483353E9, 0.0, 2023-08-01 19:03:14.348
137.0, 25003.443658762415, 35155.13660372932, -187500.02235174447, 67372.47167497536, 4684.858582598994, -5279.6161508102605, 6710.351313394465, 32146.03300643361, 0.014, 1.014, 0.09, 192.0, 0.0, 0.0, 0.0, 0.0, 0.0, 0.0, 0.0, 0.0, 0.0, 1.6909309943484273E9, 0.0, 2023-08-01 19:03:14.348
138.0, 25005.209446574387, 35162.95971428868, -187500.02235174447, 67442.07500720919, 4676.409623194888, -5222.909775127146, 6732.256022960666, 32183.85215805199, 0.014, 1.014, 0.09, 192.0, 0.0, 0.0, 0.0, 0.0, 0.0, 0.0, 0.0, 0.0, 0.0, 1.6909309943485208E9, 0.0, 2023-08-01 19:03:14.348
139.0, 24989.742039411314, 35161.618609621364, -187500.02235174447, 67550.52567130634, 4668.474753913254, -5227.827158907314, 6733.083037505512, 32206.27095774066, 0.02, 1.022, 0.094, 192.0, 0.0, 160.0, 31.0, 240.0, 2.0, 240.0, 0.0, 0.0, 0.0, 1.6909309943486156E9, 0.0, 2023-08-01 19:03:14.348
140.0, 24983.572957941647, 35141.23381867812, -187500.02235174447, 67498.31199625874, 4675.917884816871, -5292.870735272257, 6704.741025536183, 32161.187489174306, 0.02, 1.022, 0.094, 192.0, 0.0, 0.0, 0.0, 0.0, 0.0, 0.0, 0.0, 0.0, 0.0, 1.6909309943487244E9, 0.0, 2023-08-01 19:03:14.348
141.0, 24980.93545209592, 35124.626472547825, -187500.02235174447, 67394.82341943067, 4676.275512728156, -5305.834747056335, 6701.455319101253, 32135.192410372787, 0.02, 1.022, 0.094, 192.0, 0.0, 0.0, 0.0, 0.0, 0.0, 0.0, 0.0, 0.0, 0.0, 1.6909309943488185E9, 0.0, 2023-08-01 19:03:14.348
142.0, 24989.65263243349, 35127.643958049295, -187500.02235174447, 67456.31306842722, 4665.904303300894, -5249.463647540051, 6722.980049011713, 32170.597573589992, 0.02, 1.022, 0.094, 192.0, 0.0, 0.0, 0.0, 0.0, 0.0, 0.0, 0.0, 0.0, 0.0, 1.6909309943489125E9, 0.0, 2023-08-01 19:03:14.348
143.0, 24974.967536326356, 35125.967577215146, -187500.02235174447, 67562.19328191201, 4666.172524234357, -5250.983566163011, 6725.081112990512, 32194.17866399034, 0.02, 1.022, 0.094, 192.0, 0.0, 0.0, 0.0, 0.0, 0.0, 0.0, 0.0, 0.0, 0.0, 1.6909309943490064E9, 0.0, 2023-08-01 19:03:14.349
144.0, 24966.071542033143, 35123.66534753625, -187500.02235174447, 67537.62871475563, 4672.2074952372905, -5302.549040621405, 6704.919839491826, 32163.98145723122, 0.02, 1.022, 0.094, 192.0, 0.0, 0.0, 0.0, 0.0, 0.0, 0.0, 0.0, 0.0, 0.0, 1.6909309943490994E9, 0.0, 2023-08-01 19:03:14.349
145.0, 24979.28142300623, 35128.91800748325, -187500.02235174447, 67418.06923366418, 4678.063652284581, -5319.692828618626, 6698.638999299884, 32131.92905568231, 0.02, 1.022, 0.094, 192.0, 0.0, 0.0, 0.0, 0.0, 0.0, 0.0, 0.0, 0.0, 0.0, 1.6909309943494363E9, 0.0, 2023-08-01 19:03:14.349
146.0, 24987.70803066588, 35134.3941848748, -187500.02235174447, 67423.18778314446, 4677.616617395475, -5273.156496662677, 6714.508737863152, 32148.491698323694, 0.02, 1.022, 0.094, 192.0, 0.0, 0.0, 0.0, 0.0, 0.0, 0.0, 0.0, 0.0, 0.0, 1.6909309943495305E9, 0.0, 2023-08-01 19:03:14.349
147.0, 24990.524350467247, 35138.059870965466, -187500.02235174447, 67500.2789497708, 4683.539829676131, -5252.391726063696, 6725.036409501602, 32175.93964051481, 0.02, 1.022, 0.094, 192.0, 0.0, 0.0, 0.0, 0.0, 0.0, 0.0, 0.0, 0.0, 0.0, 1.6909309943496232E9, 0.0, 2023-08-01 19:03:14.349
148.0, 24978.07442880564, 35125.85581849287, -187500.02235174447, 67508.77261266383, 4679.002425551704, -5281.247828155498, 6717.347409408976, 32170.97755324573, 0.02, 1.022, 0.094, 192.0, 0.0, 0.0, 0.0, 0.0, 0.0, 0.0, 0.0, 0.0, 0.0, 1.6909309943497171E9, 0.0, 2023-08-01 19:03:14.349
149.0, 24988.1997690439, 35126.07933593742, -187500.02235174447, 67403.33943406814, 4679.583570907542, -5317.3011919619075, 6703.6457900578735, 32143.574314543526, 0.016, 1.02, 0.088, 192.0, 0.0, 128.0, 31.0, 224.0, 2.0, 192.0, 0.0, 0.0, 0.0, 1.6909309943498564E9, 0.0, 2023-08-01 19:03:14.349
150.0, 24982.701239907892, 35127.39808886029, -187500.02235174447, 67399.58434099965, 4668.184181235335, -5273.759993762969, 6717.190947197789, 32165.188451431808, 0.016, 1.02, 0.088, 192.0, 0.0, 0.0, 0.0, 0.0, 0.0, 0.0, 0.0, 0.0, 0.0, 1.6909309943499784E9, 0.0, 2023-08-01 19:03:14.349
151.0, 24976.576861927137, 35130.41557436175, -187500.02235174447, 67502.91645561653, 4669.63704462493, -5235.583214233305, 6726.735142080205, 32199.6995448708, 0.016, 1.02, 0.088, 192.0, 0.0, 0.0, 0.0, 0.0, 0.0, 0.0, 0.0, 0.0, 0.0, 1.6909309943500729E9, 0.0, 2023-08-01 19:03:14.350
152.0, 24957.689637862404, 35118.03270793351, -187500.02235174447, 67546.10002590419, 4654.996652006705, -5258.627862766727, 6712.1841564398, 32198.984289048232, 0.016, 1.02, 0.088, 192.0, 0.0, 0.0, 0.0, 0.0, 0.0, 0.0, 0.0, 0.0, 0.0, 1.6909309943501663E9, 0.0, 2023-08-01 19:03:14.350
153.0, 24960.908289063966, 35120.938434712705, -187500.02235174447, 67463.68914409747, 4658.036489252626, -5307.578183123849, 6688.491307317175, 32166.775425288135, 0.016, 1.02, 0.088, 192.0, 0.0, 0.0, 0.0, 0.0, 0.0, 0.0, 0.0, 0.0, 0.0, 1.6909309943502605E9, 0.0, 2023-08-01 19:03:14.350
154.0, 24976.778027627235, 35134.14831568579, -187500.02235174447, 67442.58909733166, 4665.881951556439, -5265.534551803416, 6708.89845000487, 32177.92894577133, 0.016, 1.02, 0.088, 192.0, 0.0, 0.0, 0.0, 0.0, 0.0, 0.0, 0.0, 0.0, 0.0, 1.690930994350354E9, 0.0, 2023-08-01 19:03:14.350
155.0, 24985.629318431536, 35133.63422556331, -187500.02235174447, 67539.17098512304, 4654.750782817696, -5239.025382879422, 6712.474729117719, 32200.481855926737, 0.016, 1.02, 0.088, 192.0, 0.0, 0.0, 0.0, 0.0, 0.0, 0.0, 0.0, 0.0, 0.0, 1.6909309943504465E9, 0.0, 2023-08-01 19:03:14.350
156.0, 24994.90529238049, 35132.00254821808, -187500.02235174447, 67570.61988957165, 4670.039376025125, -5258.426697066629, 6715.939249508292, 32192.546986645102, 0.016, 1.02, 0.088, 192.0, 0.0, 0.0, 0.0, 0.0, 0.0, 0.0, 0.0, 0.0, 0.0, 1.6909309943505387E9, 0.0, 2023-08-01 19:03:14.350
157.0, 24971.234795002318, 35126.95105397118, -187500.02235174447, 67488.05254555376, 4669.122954502458, -5297.341084163319, 6708.429063371309, 32164.473195609236, 0.016, 1.02, 0.088, 192.0, 0.0, 0.0, 0.0, 0.0, 0.0, 0.0, 0.0, 0.0, 0.0, 1.6909309943506331E9, 0.0, 2023-08-01 19:03:14.350
158.0, 24973.693486892404, 35137.18815293171, -187500.02235174447, 67402.84769569013, 4667.267759712668, -5291.261409671475, 6711.625362828418, 32149.206954146262, 0.016, 1.02, 0.088, 192.0, 0.0, 0.0, 0.0, 0.0, 0.0, 0.0, 0.0, 0.0, 0.0, 1.6909309943507328E9, 0.0, 2023-08-01 19:03:14.350
159.0, 24982.701239907892, 35129.454449350174, -187500.02235174447, 67487.69491764247, 4664.093812000014, -5240.612356735749, 6729.909089792859, 32186.020277264153, 0.016, 1.018, 0.09, 192.0, 0.0, 128.0, 31.0, 208.0, 2.0, 208.0, 0.0, 0.0, 0.0, 1.6909309943508272E9, 0.0, 2023-08-01 19:03:14.350
160.0, 24975.168702026454, 35122.92773996922, -187500.02235174447, 67557.52176732085, 4655.264872940168, -5256.415040065652, 6723.158862967356, 32189.954184288286, 0.016, 1.018, 0.09, 192.0, 0.0, 0.0, 0.0, 0.0, 0.0, 0.0, 0.0, 0.0, 0.0, 1.6909309943510528E9, 0.0, 2023-08-01 19:03:14.351
161.0, 24966.026838544232, 35116.66925152174, -187500.02235174447, 67502.82704863872, 4658.2376549527235, -5306.7958720679135, 6701.835298756993, 32163.333256642018, 0.016, 1.018, 0.09, 192.0, 0.0, 0.0, 0.0, 0.0, 0.0, 0.0, 0.0, 0.0, 0.0, 1.6909309943511477E9, 0.0, 2023-08-01 19:03:14.351
162.0, 24989.317356266663, 35128.15804817177, -187500.02235174447, 67425.37825410107, 4669.860562069483, -5293.720101561559, 6715.42515938582, 32163.266201408653, 0.016, 1.018, 0.09, 192.0, 0.0, 0.0, 0.0, 0.0, 0.0, 0.0, 0.0, 0.0, 0.0, 1.6909309943512402E9, 0.0, 2023-08-01 19:03:14.351
163.0, 24996.492266236815, 35131.66727205125, -187500.02235174447, 67483.80571410725, 4670.575817892053, -5252.302319085875, 6730.669049104339, 32187.964879031766, 0.016, 1.018, 0.09, 192.0, 0.0, 0.0, 0.0, 0.0, 0.0, 0.0, 0.0, 0.0, 0.0, 1.6909309943513322E9, 0.0, 2023-08-01 19:03:14.351
164.0, 24989.94320511141, 35126.07933593742, -187500.02235174447, 67559.198148155, 4665.680785856341, -5257.934958688612, 6730.914918293348, 32199.61013789298, 0.016, 1.018, 0.09, 192.0, 0.0, 0.0, 0.0, 0.0, 0.0, 0.0, 0.0, 0.0, 0.0, 1.690930994351425E9, 0.0, 2023-08-01 19:03:14.351
165.0, 24987.19394054341, 35133.83539126341, -187500.02235174447, 67532.53251701982, 4680.388233707933, -5283.818278767858, 6724.969354268236, 32183.762751074166, 0.016, 1.018, 0.09, 192.0, 0.0, 0.0, 0.0, 0.0, 0.0, 0.0, 0.0, 0.0, 0.0, 1.6909309943515184E9, 0.0, 2023-08-01 19:03:14.351
166.0, 24985.71872540936, 35131.71197554016, -187500.02235174447, 67431.45792859292, 4675.7837743501395, -5293.876563772746, 6717.258002431155, 32160.248715907186, 0.016, 1.018, 0.09, 192.0, 0.0, 0.0, 0.0, 0.0, 0.0, 0.0, 0.0, 0.0, 0.0, 1.6909309943516107E9, 0.0, 2023-08-01 19:03:14.351
167.0, 24981.069562562654, 35122.48070508012, -187500.02235174447, 67481.50348442835, 4661.188085220824, -5255.208045865064, 6725.170519968334, 32183.114550484963, 0.016, 1.018, 0.09, 192.0, 0.0, 0.0, 0.0, 0.0, 0.0, 0.0, 0.0, 0.0, 0.0, 1.6909309943517034E9, 0.0, 2023-08-01 19:03:14.351
168.0, 24986.70220216539, 35133.25424590758, -187500.02235174447, 67566.44011335852, 4662.305672443589, -5255.94565343209, 6724.768188568139, 32194.51394015717, 0.016, 1.018, 0.09, 192.0, 0.0, 0.0, 0.0, 0.0, 0.0, 0.0, 0.0, 0.0, 0.0, 1.690930994351807E9, 0.0, 2023-08-01 19:03:14.351
169.0, 24995.70995518088, 35135.28825465301, -187500.02235174447, 67538.16515662255, 4665.2784544561455, -5296.71523531857, 6706.238592414688, 32167.356570643973, 0.018000000000000002, 1.016, 0.094, 192.0, 0.0, 144.0, 31.0, 192.0, 2.0, 240.0, 0.0, 0.0, 0.0, 1.6909309943519E9, 0.0, 2023-08-01 19:03:14.351
170.0, 24978.432056716927, 35121.51958006854, -187500.02235174447, 67411.83309696116, 4665.300806200601, -5323.604383898304, 6689.608894539941, 32134.186581872298, 0.018000000000000002, 1.016, 0.094, 192.0, 0.0, 0.0, 0.0, 0.0, 0.0, 0.0, 0.0, 0.0, 0.0, 1.690930994351998E9, 0.0, 2023-08-01 19:03:14.351
171.0, 24979.9966788288, 35124.291196381, -187500.02235174447, 67435.72711178388, 4665.703137600796, -5267.725022760037, 6710.507775605653, 32162.908573497367, 0.018000000000000002, 1.016, 0.094, 192.0, 0.0, 0.0, 0.0, 0.0, 0.0, 0.0, 0.0, 0.0, 0.0, 1.6909309943520904E9, 0.0, 2023-08-01 19:03:14.352
172.0, 24985.405800986984, 35136.20467617568, -187500.02235174447, 67520.90960990306, 4668.005367279693, -5244.70272597107, 6724.231746701211, 32184.70152434129, 0.018000000000000002, 1.016, 0.094, 192.0, 0.0, 0.0, 0.0, 0.0, 0.0, 0.0, 0.0, 0.0, 0.0, 1.6909309943521852E9, 0.0, 2023-08-01 19:03:14.352
173.0, 24981.203673029384, 35133.90244649678, -187500.02235174447, 67529.26916232934, 4666.574855634553, -5273.357662362774, 6712.385322139898, 32176.99017250421, 0.018000000000000002, 1.016, 0.094, 192.0, 0.0, 0.0, 0.0, 0.0, 0.0, 0.0, 0.0, 0.0, 0.0, 1.6909309943522787E9, 0.0, 2023-08-01 19:03:14.352
174.0, 24989.00443184429, 35144.47482162414, -187500.02235174447, 67417.64455051953, 4676.454326683799, -5299.956238264589, 6698.214316155233, 32147.30705586756, 0.018000000000000002, 1.016, 0.094, 192.0, 0.0, 0.0, 0.0, 0.0, 0.0, 0.0, 0.0, 0.0, 0.0, 1.6909309943523705E9, 0.0, 2023-08-01 19:03:14.352
175.0, 24991.686641178923, 35156.70122584119, -187500.02235174447, 67420.8632017211, 4666.016062023171, -5248.994260906489, 6713.637019829395, 32171.759864301668, 0.018000000000000002, 1.016, 0.094, 192.0, 0.0, 0.0, 0.0, 0.0, 0.0, 0.0, 0.0, 0.0, 0.0, 1.6909309943524632E9, 0.0, 2023-08-01 19:03:14.352
176.0, 24989.585577200127, 35146.307664669475, -187500.02235174447, 67529.31386581826, 4651.755649060685, -5226.418999006629, 6717.6156303424395, 32200.481855926737, 0.018000000000000002, 1.016, 0.094, 192.0, 0.0, 0.0, 0.0, 0.0, 0.0, 0.0, 0.0, 0.0, 0.0, 1.6909309943526707E9, 0.0, 2023-08-01 19:03:14.352
177.0, 24961.869414075543, 35110.6342805188, -187500.02235174447, 67576.4983983634, 4637.651698309386, -5272.217723395554, 6697.655522543851, 32188.18839647632, 0.018000000000000002, 1.016, 0.094, 192.0, 0.0, 0.0, 0.0, 0.0, 0.0, 0.0, 0.0, 0.0, 0.0, 1.690930994352774E9, 0.0, 2023-08-01 19:03:14.352
178.0, 24975.45927470437, 35106.29804209447, -187500.02235174447, 67472.2722139683, 4642.926710000838, -5326.510110677495, 6674.096783887957, 32139.372186585926, 0.018000000000000002, 1.016, 0.094, 192.0, 0.0, 0.0, 0.0, 0.0, 0.0, 0.0, 0.0, 0.0, 0.0, 1.690930994352867E9, 0.0, 2023-08-01 19:03:14.352
179.0, 24995.017051102765, 35111.52835029702, -187500.02235174447, 67437.15762342903, 4645.899492013395, -5281.739566533514, 6689.452432328753, 32147.50822156766, 0.022, 1.018, 0.082, 192.0, 0.0, 176.0, 31.0, 208.0, 2.0, 144.0, 0.0, 0.0, 0.0, 1.6909309943529606E9, 0.0, 2023-08-01 19:03:14.352
180.0, 24996.8498941481, 35126.34755687089, -187500.02235174447, 67506.15745856255, 4659.623463108953, -5245.0380021379, 6706.775034281616, 32166.41779737685, 0.022, 1.018, 0.082, 192.0, 0.0, 0.0, 0.0, 0.0, 0.0, 0.0, 0.0, 0.0, 0.0, 1.690930994353059E9, 0.0, 2023-08-01 19:03:14.353
181.0, 24980.42136197345, 35126.79459175999, -187500.02235174447, 67538.187508367, 4662.2833206991345, -5255.655080754171, 6708.071435460024, 32163.8920502534, 0.022, 1.018, 0.082, 192.0, 0.0, 0.0, 0.0, 0.0, 0.0, 0.0, 0.0, 0.0, 0.0, 1.6909309943531508E9, 0.0, 2023-08-01 19:03:14.353
182.0, 24969.26784149025, 35129.3426906279, -187500.02235174447, 67467.44423716597, 4665.233750967235, -5296.491717874017, 6696.1356039208895, 32145.45186107777, 0.022, 1.018, 0.082, 192.0, 0.0, 0.0, 0.0, 0.0, 0.0, 0.0, 0.0, 0.0, 0.0, 1.6909309943532434E9, 0.0, 2023-08-01 19:03:14.353
183.0, 24983.304737008184, 35135.66823430875, -187500.02235174447, 67403.07121313468, 4676.051995283603, -5272.5753513068385, 6709.121967449423, 32149.050491935075, 0.022, 1.018, 0.082, 192.0, 0.0, 0.0, 0.0, 0.0, 0.0, 0.0, 0.0, 0.0, 0.0, 1.6909309943533375E9, 0.0, 2023-08-01 19:03:14.353
184.0, 24988.266824277263, 35132.42723136273, -187500.02235174447, 67496.25563576884, 4678.577742407053, -5218.372371002719, 6733.775941583627, 32192.167006989363, 0.022, 1.018, 0.082, 192.0, 0.0, 0.0, 0.0, 0.0, 0.0, 0.0, 0.0, 0.0, 0.0, 1.6909309943534307E9, 0.0, 2023-08-01 19:03:14.353
185.0, 24982.924757352444, 35133.88009475233, -187500.02235174447, 67582.26514843287, 4675.850829583505, -5231.448141509073, 6731.5854706270065, 32203.85696933949, 0.022, 1.018, 0.082, 192.0, 0.0, 0.0, 0.0, 0.0, 0.0, 0.0, 0.0, 0.0, 0.0, 1.690930994353523E9, 0.0, 2023-08-01 19:03:14.353
186.0, 24980.153141039988, 35134.75181278608, -187500.02235174447, 67531.45963328597, 4678.175411006858, -5280.0855374438215, 6710.75364479466, 32174.66559108086, 0.022, 1.018, 0.082, 192.0, 0.0, 0.0, 0.0, 0.0, 0.0, 0.0, 0.0, 0.0, 0.0, 1.6909309943536155E9, 0.0, 2023-08-01 19:03:14.353
187.0, 24978.052077061187, 35128.068641193946, -187500.02235174447, 67439.50455659683, 4676.275512728156, -5291.730796305036, 6700.628304556407, 32150.257486135662, 0.022, 1.018, 0.082, 192.0, 0.0, 0.0, 0.0, 0.0, 0.0, 0.0, 0.0, 0.0, 0.0, 1.6909309943537145E9, 0.0, 2023-08-01 19:03:14.353
188.0, 24978.9461468394, 35119.15029515628, -187500.02235174447, 67494.46749621243, 4672.989806293226, -5242.199330592076, 6711.692418061783, 32171.670457323846, 0.022, 1.018, 0.082, 192.0, 0.0, 0.0, 0.0, 0.0, 0.0, 0.0, 0.0, 0.0, 0.0, 1.6909309943538308E9, 0.0, 2023-08-01 19:03:14.353
189.0, 24990.56905395616, 35118.077411422426, -187500.02235174447, 67581.23696818794, 4677.102527273003, -5226.754275173459, 6717.570926853529, 32187.27197495365, 0.02, 1.014, 0.082, 192.0, 0.0, 160.0, 31.0, 176.0, 2.0, 144.0, 0.0, 0.0, 0.0, 1.6909309943539228E9, 0.0, 2023-08-01 19:03:14.353
190.0, 24985.584614942625, 35128.87330399434, -187500.02235174447, 67547.6422962716, 4680.991730808226, -5277.671549042649, 6699.510717333641, 32156.56067807206, 0.02, 1.014, 0.082, 192.0, 0.0, 0.0, 0.0, 0.0, 0.0, 0.0, 0.0, 0.0, 0.0, 1.6909309943540223E9, 0.0, 2023-08-01 19:03:14.354
191.0, 24969.536062423715, 35134.349481385885, -187500.02235174447, 67435.30242863923, 4683.919809331872, -5291.484927116028, 6691.665255029829, 32130.386785314895, 0.02, 1.014, 0.082, 192.0, 0.0, 0.0, 0.0, 0.0, 0.0, 0.0, 0.0, 0.0, 0.0, 1.6909309943541148E9, 0.0, 2023-08-01 19:03:14.354
192.0, 24973.537024681216, 35118.055059677965, -187500.02235174447, 67484.29745248526, 4690.424166968366, -5232.789246176391, 6715.894546019381, 32162.975628730732, 0.02, 1.014, 0.082, 192.0, 0.0, 0.0, 0.0, 0.0, 0.0, 0.0, 0.0, 0.0, 0.0, 1.6909309943543136E9, 0.0, 2023-08-01 19:03:14.354
193.0, 24988.04330683271, 35126.07933593742, -187500.02235174447, 67564.47315984644, 4701.868260129483, -5220.65224893716, 6725.058761246057, 32181.84050105101, 0.02, 1.014, 0.082, 192.0, 0.0, 0.0, 0.0, 0.0, 0.0, 0.0, 0.0, 0.0, 0.0, 1.6909309943544073E9, 0.0, 2023-08-01 19:03:14.354
