%OpenBCI Raw EEG Data
%Number of channels = 8
%Sample Rate = 250 Hz
%Board = OpenBCI_GUI$BoardCytonSerial
Sample Index, EXG Channel 0, EXG Channel 1, EXG Channel 2, EXG Channel 3, EXG Channel 4, EXG Channel 5, EXG Channel 6, EXG Channel 7, Accel Channel 0, Accel Channel 1, Accel Channel 2, Other, Other, Other, Other, Other, Other, Other, Analog Channel 0, Analog Channel 1, Analog Channel 2, Timestamp, Other, Timestamp (Formatted)
43.0, 21010.036290888347, 32128.866866691933, -187500.02235174447, -187500.02235174447, 1498.930334917347, -10385.939226858525, -2699.3754743785234, 34100.8495212614, 0.014, 1.018, 0.10200000000000001, 192.0, 0.0, 0.0, 0.0, 0.0, 0.0, 0.0, 0.0, 0.0, 0.0, 1.6909307379171872E9, 0.0, 2023-08-01 18:58:57.917
44.0, 21000.469744261474, 32118.003918886654, -187500.02235174447, -187500.02235174447, 1486.346302789009, -10354.937357299013, -2706.036294226205, 34131.51611465408, 0.014, 1.018, 0.10200000000000001, 192.0, 0.0, 0.0, 0.0, 0.0, 0.0, 0.0, 0.0, 0.0, 0.0, 1.6909307379172783E9, 0.0, 2023-08-01 18:58:57.917
45.0, 21000.380337283652, 32114.20412232925, -187500.02235174447, -187500.02235174447, 1489.8778784129477, -10386.878000125647, -2713.926460018928, 34134.48889666663, 0.014, 1.018, 0.10200000000000001, 192.0, 0.0, 0.0, 0.0, 0.0, 0.0, 0.0, 0.0, 0.0, 0.0, 1.6909307379173703E9, 0.0, 2023-08-01 18:58:57.917
46.0, 21000.58150298375, 32117.758049697644, -187500.02235174447, -187500.02235174447, 1496.315180816076, -10433.928422204068, -2720.3414106776013, 34098.010849715574, 0.014, 1.018, 0.10200000000000001, 192.0, 0.0, 0.0, 0.0, 0.0, 0.0, 0.0, 0.0, 0.0, 0.0, 1.6909307379176104E9, 0.0, 2023-08-01 18:58:57.917
47.0, 20994.18890406953, 32107.40919201484, -187500.02235174447, -187500.02235174447, 1483.3958725209086, -10394.879924640647, -2715.133454219515, 34107.75621029809, 0.014, 1.018, 0.10200000000000001, 192.0, 0.0, 0.0, 0.0, 0.0, 0.0, 0.0, 0.0, 0.0, 0.0, 1.6909307379177804E9, 0.0, 2023-08-01 18:58:57.917
48.0, 20991.260825545887, 32093.551110452547, -187500.02235174447, -187500.02235174447, 1478.5902474630175, -10365.979119059935, -2715.200509452881, 34135.04769027802, 0.014, 1.018, 0.10200000000000001, 192.0, 0.0, 0.0, 0.0, 0.0, 0.0, 0.0, 0.0, 0.0, 0.0, 1.6909307379178758E9, 0.0, 2023-08-01 18:58:57.917
49.0, 20996.893465148623, 32101.843607645467, -187500.02235174447, -187500.02235174447, 1492.7836051921374, -10385.983930347435, -2711.6912855733976, 34123.961225028186, 0.014, 1.018, 0.10200000000000001, 192.0, 0.0, 0.0, 0.0, 0.0, 0.0, 0.0, 0.0, 0.0, 0.0, 1.6909307379179692E9, 0.0, 2023-08-01 18:58:57.917
50.0, 20997.653424460106, 32102.558863468035, -187500.02235174447, -187500.02235174447, 1491.1072243579895, -10415.175308606065, -2716.0051722532717, 34098.994326471606, 0.014, 1.018, 0.106, 192.0, 0.0, 112.0, 31.0, 208.0, 3.0, 80.0, 0.0, 0.0, 0.0, 1.6909307379180608E9, 0.0, 2023-08-01 18:58:57.918
51.0, 21000.894427406125, 32100.524854722604, -187500.02235174447, -187500.02235174447, 1486.9721516337577, -10400.57961947675, -2713.837053041107, 34095.06041944747, 0.014, 1.018, 0.106, 192.0, 0.0, 0.0, 0.0, 0.0, 0.0, 0.0, 0.0, 0.0, 0.0, 1.690930737918158E9, 0.0, 2023-08-01 18:58:57.918
52.0, 20998.703956449506, 32096.76976165411, -187500.02235174447, -187500.02235174447, 1476.0645003395678, -10365.219159748454, -2711.1324919620147, 34125.011757017586, 0.014, 1.018, 0.106, 192.0, 0.0, 0.0, 0.0, 0.0, 0.0, 0.0, 0.0, 0.0, 0.0, 1.6909307379182515E9, 0.0, 2023-08-01 18:58:57.918
53.0, 20984.510598720386, 32087.002049327144, -187500.02235174447, -187500.02235174447, 1467.9508171022912, -10387.1015175702, -2723.9176897904504, 34130.599693131415, 0.014, 1.018, 0.106, 192.0, 0.0, 0.0, 0.0, 0.0, 0.0, 0.0, 0.0, 0.0, 0.0, 1.6909307379183455E9, 0.0, 2023-08-01 18:58:57.918
54.0, 20981.53781670783, 32093.037020330077, -187500.02235174447, -187500.02235174447, 1481.4512707532967, -10429.793349479836, -2729.6173846265538, 34105.25281491909, 0.014, 1.018, 0.106, 192.0, 0.0, 0.0, 0.0, 0.0, 0.0, 0.0, 0.0, 0.0, 0.0, 1.69093073791844E9, 0.0, 2023-08-01 18:58:57.918
55.0, 20986.365793510176, 32100.323689022505, -187500.02235174447, -187500.02235174447, 1483.0829480985342, -10420.852651697714, -2724.744704335297, 34089.04780018899, 0.014, 1.018, 0.106, 192.0, 0.0, 0.0, 0.0, 0.0, 0.0, 0.0, 0.0, 0.0, 0.0, 1.690930737918533E9, 0.0, 2023-08-01 18:58:57.918
56.0, 21016.473593291474, 32110.136104838384, -187500.02235174447, -187500.02235174447, 1483.5299829876403, -10368.90719758358, -2713.255907685269, 34116.115762724374, 0.014, 1.018, 0.106, 192.0, 0.0, 0.0, 0.0, 0.0, 0.0, 0.0, 0.0, 0.0, 0.0, 1.6909307379186652E9, 0.0, 2023-08-01 18:58:57.918
57.0, 21002.168476840077, 32098.11086632143, -187500.02235174447, -187500.02235174447, 1478.3443782740092, -10379.144296544111, -2717.770960065241, 34124.721184339665, 0.014, 1.018, 0.106, 192.0, 0.0, 0.0, 0.0, 0.0, 0.0, 0.0, 0.0, 0.0, 0.0, 1.6909307379187677E9, 0.0, 2023-08-01 18:58:57.918
58.0, 20985.62818594315, 32090.15364529534, -187500.02235174447, -187500.02235174447, 1479.0149306076682, -10411.308456815297, -2724.990573524305, 34119.98261451514, 0.014, 1.018, 0.106, 192.0, 0.0, 0.0, 0.0, 0.0, 0.0, 0.0, 0.0, 0.0, 0.0, 1.6909307379188602E9, 0.0, 2023-08-01 18:58:57.918
59.0, 20980.86726437417, 32090.39951448435, -187500.02235174447, -187500.02235174447, 1477.5844189625286, -10428.96633493499, -2728.857425315073, 34100.06721020546, 0.014, 1.018, 0.106, 192.0, 0.0, 0.0, 0.0, 0.0, 0.0, 0.0, 0.0, 0.0, 0.0, 1.690930737918954E9, 0.0, 2023-08-01 18:58:57.918
60.0, 20991.618453457173, 32109.465552504727, -187500.02235174447, -187500.02235174447, 1482.8817823984364, -10382.63116867914, -2714.9769920083277, 34116.0040040021, 0.012, 1.014, 0.106, 192.0, 0.0, 96.0, 31.0, 176.0, 3.0, 80.0, 0.0, 0.0, 0.0, 1.690930737919048E9, 0.0, 2023-08-01 18:58:57.919
61.0, 21005.387128041642, 32109.86788390492, -187500.02235174447, -187500.02235174447, 1492.4036255363972, -10362.849874836193, -2708.226765182825, 34138.489858924135, 0.012, 1.014, 0.106, 192.0, 0.0, 0.0, 0.0, 0.0, 0.0, 0.0, 0.0, 0.0, 0.0, 1.6909307379191456E9, 0.0, 2023-08-01 18:58:57.919
62.0, 21009.052814132312, 32104.235244302185, -187500.02235174447, -187500.02235174447, 1497.633933738939, -10407.620418980172, -2723.224785712336, 34110.50547486609, 0.012, 1.014, 0.106, 192.0, 0.0, 0.0, 0.0, 0.0, 0.0, 0.0, 0.0, 0.0, 0.0, 1.690930737919361E9, 0.0, 2023-08-01 18:58:57.919
63.0, 21001.989662884436, 32101.083648333988, -187500.02235174447, -187500.02235174447, 1486.3015993000984, -10435.269526871387, -2735.8982248184952, 34077.20137562769, 0.012, 1.014, 0.106, 192.0, 0.0, 0.0, 0.0, 0.0, 0.0, 0.0, 0.0, 0.0, 0.0, 1.690930737919458E9, 0.0, 2023-08-01 18:58:57.919
64.0, 21003.06254661829, 32110.650194960857, -187500.02235174447, -187500.02235174447, 1476.288017784121, -10386.609779192184, -2725.7728845802408, 34100.55894858348, 0.012, 1.014, 0.106, 192.0, 0.0, 0.0, 0.0, 0.0, 0.0, 0.0, 0.0, 0.0, 0.0, 1.6909307379195647E9, 0.0, 2023-08-01 18:58:57.919
65.0, 21008.650482732115, 32117.802753186555, -187500.02235174447, -187500.02235174447, 1489.3861400349308, -10363.542778914307, -2716.2733931867356, 34138.69102462423, 0.012, 1.014, 0.106, 192.0, 0.0, 0.0, 0.0, 0.0, 0.0, 0.0, 0.0, 0.0, 0.0, 1.6909307379196832E9, 0.0, 2023-08-01 18:58:57.919
66.0, 21001.38616578414, 32113.913549651334, -187500.02235174447, -187500.02235174447, 1489.8108231795816, -10385.38043324714, -2718.9556025213724, 34142.982559559656, 0.012, 1.014, 0.106, 192.0, 0.0, 0.0, 0.0, 0.0, 0.0, 0.0, 0.0, 0.0, 0.0, 1.6909307379197772E9, 0.0, 2023-08-01 18:58:57.919
67.0, 20997.988700626935, 32109.823180416013, -187500.02235174447, -187500.02235174447, 1488.7826429346376, -10429.97216343548, -2731.6290416275315, 34111.444248133215, 0.012, 1.014, 0.106, 192.0, 0.0, 0.0, 0.0, 0.0, 0.0, 0.0, 0.0, 0.0, 0.0, 1.69093073791987E9, 0.0, 2023-08-01 18:58:57.919
68.0, 21010.617436244185, 32115.321709552016, -187500.02235174447, -187500.02235174447, 1487.799166178604, -10389.91783737157, -2716.2733931867356, 34120.07202149296, 0.012, 1.014, 0.106, 192.0, 0.0, 0.0, 0.0, 0.0, 0.0, 0.0, 0.0, 0.0, 0.0, 1.690930737919962E9, 0.0, 2023-08-01 18:58:57.919
69.0, 21014.841915946236, 32117.333366552994, -187500.02235174447, -187500.02235174447, 1486.2792475556432, -10357.999546289391, -2708.96437274985, 34147.56466717299, 0.012, 1.014, 0.106, 192.0, 0.0, 0.0, 0.0, 0.0, 0.0, 0.0, 0.0, 0.0, 0.0, 1.690930737920054E9, 0.0, 2023-08-01 18:58:57.920
70.0, 21001.497924506417, 32110.136104838384, -187500.02235174447, -187500.02235174447, 1478.3890817629197, -10392.555343217295, -2718.799140310185, 34142.982559559656, 0.01, 1.014, 0.108, 192.0, 0.0, 80.0, 31.0, 176.0, 3.0, 96.0, 0.0, 0.0, 0.0, 1.690930737920147E9, 0.0, 2023-08-01 18:58:57.920
71.0, 21002.660215218093, 32109.599662971457, -187500.02235174447, -187500.02235174447, 1481.4289190088416, -10432.140282647644, -2728.924480548439, 34115.55696911299, 0.01, 1.014, 0.108, 192.0, 0.0, 0.0, 0.0, 0.0, 0.0, 0.0, 0.0, 0.0, 0.0, 1.690930737920246E9, 0.0, 2023-08-01 18:58:57.920
72.0, 21009.924532166067, 32110.381974027394, -187500.02235174447, -187500.02235174447, 1478.545543974107, -10407.329846302253, -2726.666954358453, 34110.728992310644, 0.01, 1.014, 0.108, 192.0, 0.0, 0.0, 0.0, 0.0, 0.0, 0.0, 0.0, 0.0, 0.0, 1.6909307379203389E9, 0.0, 2023-08-01 18:58:57.920
73.0, 21012.271465333877, 32114.15941884034, -187500.02235174447, -187500.02235174447, 1476.1986108062997, -10360.167665501556, -2721.481349644822, 34153.57728643147, 0.01, 1.014, 0.108, 192.0, 0.0, 0.0, 0.0, 0.0, 0.0, 0.0, 0.0, 0.0, 0.0, 1.690930737920432E9, 0.0, 2023-08-01 18:58:57.920
74.0, 21015.40070955762, 32123.010709644645, -187500.02235174447, -187500.02235174447, 1482.5018027426963, -10389.023767593357, -2726.1081607470705, 34138.5569141575, 0.01, 1.014, 0.108, 192.0, 0.0, 0.0, 0.0, 0.0, 0.0, 0.0, 0.0, 0.0, 0.0, 1.6909307379205258E9, 0.0, 2023-08-01 18:58:57.920
75.0, 21006.370604797674, 32119.523837509616, -187500.02235174447, -187500.02235174447, 1479.5290207301405, -10432.028523925368, -2732.165483494459, 34101.14009393932, 0.01, 1.014, 0.108, 192.0, 0.0, 0.0, 0.0, 0.0, 0.0, 0.0, 0.0, 0.0, 0.0, 1.6909307379206817E9, 0.0, 2023-08-01 18:58:57.920
76.0, 21007.01880538688, 32110.203160071753, -187500.02235174447, -187500.02235174447, 1466.028567079135, -10405.049968367812, -2734.9594515513722, 34108.650280076305, 0.01, 1.014, 0.108, 192.0, 0.0, 0.0, 0.0, 0.0, 0.0, 0.0, 0.0, 0.0, 0.0, 1.6909307379208243E9, 0.0, 2023-08-01 18:58:57.920
77.0, 21009.96923565498, 32107.230378059197, -187500.02235174447, -187500.02235174447, 1465.6485874233947, -10367.767258616359, -2738.356916708579, 34136.47820192316, 0.01, 1.014, 0.108, 192.0, 0.0, 0.0, 0.0, 0.0, 0.0, 0.0, 0.0, 0.0, 0.0, 1.690930737921144E9, 0.0, 2023-08-01 18:58:57.921
78.0, 21015.19954385752, 32120.708479965746, -187500.02235174447, -187500.02235174447, 1483.4629277542745, -10386.229799536444, -2732.5231114057437, 34129.75032684211, 0.01, 1.014, 0.108, 192.0, 0.0, 0.0, 0.0, 0.0, 0.0, 0.0, 0.0, 0.0, 0.0, 1.690930737921257E9, 0.0, 2023-08-01 18:58:57.921
79.0, 21010.662139733093, 32122.049584633063, -187500.02235174447, -187500.02235174447, 1486.189840577822, -10428.675762257071, -2737.5075504192773, 34097.18383517073, 0.01, 1.014, 0.108, 192.0, 0.0, 0.0, 0.0, 0.0, 0.0, 0.0, 0.0, 0.0, 0.0, 1.69093073792135E9, 0.0, 2023-08-01 18:58:57.921
80.0, 21009.43279378805, 32118.853285175956, -187500.02235174447, -187500.02235174447, 1481.8088986645816, -10424.1607098771, -2731.7184486053525, 34081.381151840826, 0.014, 1.01, 0.112, 192.0, 0.0, 112.0, 31.0, 144.0, 3.0, 128.0, 0.0, 0.0, 0.0, 1.6909307379214425E9, 0.0, 2023-08-01 18:58:57.921
81.0, 21009.656311232604, 32114.517046751625, -187500.02235174447, -187500.02235174447, 1476.511535228674, -10369.24247375041, -2720.073189744138, 34119.71439358168, 0.014, 1.01, 0.112, 192.0, 0.0, 0.0, 0.0, 0.0, 0.0, 0.0, 0.0, 0.0, 0.0, 1.69093073792156E9, 0.0, 2023-08-01 18:58:57.921
82.0, 20997.988700626935, 32108.347965281962, -187500.02235174447, -187500.02235174447, 1468.666072924861, -10370.516523184362, -2732.5901666391096, 34142.08848978144, 0.014, 1.01, 0.112, 192.0, 0.0, 0.0, 0.0, 0.0, 0.0, 0.0, 0.0, 0.0, 0.0, 1.690930737921693E9, 0.0, 2023-08-01 18:58:57.921
83.0, 20999.48626750544, 32111.812485672534, -187500.02235174447, -187500.02235174447, 1479.0372823521236, -10420.383265064153, -2744.3248324781457, 34116.38398365784, 0.014, 1.01, 0.112, 192.0, 0.0, 0.0, 0.0, 0.0, 0.0, 0.0, 0.0, 0.0, 0.0, 1.690930737921787E9, 0.0, 2023-08-01 18:58:57.921
84.0, 20987.930415622046, 32098.64730818836, -187500.02235174447, -187500.02235174447, 1471.281227026132, -10438.801102495325, -2750.06923080316, 34083.1469396528, 0.014, 1.01, 0.112, 192.0, 0.0, 0.0, 0.0, 0.0, 0.0, 0.0, 0.0, 0.0, 0.0, 1.6909307379218814E9, 0.0, 2023-08-01 18:58:57.921
85.0, 20992.043136601824, 32097.529720965595, -187500.02235174447, -187500.02235174447, 1464.9109798563695, -10385.2016192915, -2740.927367320939, 34111.10897196639, 0.014, 1.01, 0.112, 192.0, 0.0, 0.0, 0.0, 0.0, 0.0, 0.0, 0.0, 0.0, 0.0, 1.6909307379219747E9, 0.0, 2023-08-01 18:58:57.921
86.0, 21004.426003030065, 32106.537473981083, -187500.02235174447, -187500.02235174447, 1471.1471165594003, -10375.81388662027, -2733.752457350786, 34133.103088510405, 0.014, 1.01, 0.112, 192.0, 0.0, 0.0, 0.0, 0.0, 0.0, 0.0, 0.0, 0.0, 0.0, 1.6909307379220667E9, 0.0, 2023-08-01 18:58:57.922
87.0, 21002.526104751363, 32110.73960193868, -187500.02235174447, -187500.02235174447, 1470.4542124812858, -10419.01980865238, -2748.348146480101, 34114.39467840132, 0.014, 1.01, 0.112, 192.0, 0.0, 0.0, 0.0, 0.0, 0.0, 0.0, 0.0, 0.0, 0.0, 1.6909307379221723E9, 0.0, 2023-08-01 18:58:57.922
88.0, 21011.757375211404, 32117.31101480854, -187500.02235174447, -187500.02235174447, 1480.8254219085482, -10439.06932342879, -2741.195588254403, 34090.63477404532, 0.014, 1.01, 0.112, 192.0, 0.0, 0.0, 0.0, 0.0, 0.0, 0.0, 0.0, 0.0, 0.0, 1.6909307379223387E9, 0.0, 2023-08-01 18:58:57.922
89.0, 20994.323014536265, 32100.144875066864, -187500.02235174447, -187500.02235174447, 1466.2297327792328, -10380.597159933706, -2736.099390518593, 34126.44226866272, 0.014, 1.01, 0.112, 192.0, 0.0, 0.0, 0.0, 0.0, 0.0, 0.0, 0.0, 0.0, 0.0, 1.690930737922484E9, 0.0, 2023-08-01 18:58:57.922
90.0, 20987.952767366503, 32093.707572663734, -187500.02235174447, -187500.02235174447, 1456.4620204522635, -10381.24536052291, -2747.2976144907016, 34139.85331533591, 0.014, 1.01, 0.112, 192.0, 0.0, 0.0, 0.0, 0.0, 0.0, 0.0, 0.0, 0.0, 0.0, 1.6909307379226358E9, 0.0, 2023-08-01 18:58:57.922
91.0, 20987.081049332744, 32096.881520376388, -187500.02235174447, -187500.02235174447, 1463.927503100336, -10418.34925631872, -2750.963300581372, 34126.71048959619, 0.014, 1.008, 0.116, 192.0, 0.0, 112.0, 31.0, 128.0, 3.0, 160.0, 0.0, 0.0, 0.0, 1.6909307379227495E9, 0.0, 2023-08-01 18:58:57.922
92.0, 21017.747642725426, 32114.897026407365, -187500.02235174447, -187500.02235174447, 1493.767081948171, -10438.175253650577, -2738.356916708579, 34103.86700676286, 0.014, 1.008, 0.116, 192.0, 0.0, 0.0, 0.0, 0.0, 0.0, 0.0, 0.0, 0.0, 0.0, 1.6909307379228578E9, 0.0, 2023-08-01 18:58:57.922
93.0, 21019.625189259674, 32121.580197999505, -187500.02235174447, -187500.02235174447, 1492.9624191477799, -10392.57769496175, -2723.314192690157, 34122.26249244958, 0.014, 1.008, 0.116, 192.0, 0.0, 0.0, 0.0, 0.0, 0.0, 0.0, 0.0, 0.0, 0.0, 1.6909307379230886E9, 0.0, 2023-08-01 18:58:57.923
94.0, 21007.82346818727, 32116.774572941613, -187500.02235174447, -187500.02235174447, 1479.4172620078639, -10368.974252816946, -2729.0362392707157, 34152.92908584226, 0.014, 1.008, 0.116, 192.0, 0.0, 0.0, 0.0, 0.0, 0.0, 0.0, 0.0, 0.0, 0.0, 1.6909307379231842E9, 0.0, 2023-08-01 18:58:57.923
95.0, 20994.278311047354, 32104.324651280007, -187500.02235174447, -187500.02235174447, 1469.5154392141628, -10400.870192154669, -2745.9565098233834, 34148.212867762195, 0.014, 1.008, 0.116, 192.0, 0.0, 0.0, 0.0, 0.0, 0.0, 0.0, 0.0, 0.0, 0.0, 1.69093073792328E9, 0.0, 2023-08-01 18:58:57.923
96.0, 21000.492096005928, 32115.388764785384, -187500.02235174447, -187500.02235174447, 1484.736977188227, -10450.692230545548, -2756.3277192506457, 34098.301422393495, 0.014, 1.008, 0.116, 192.0, 0.0, 0.0, 0.0, 0.0, 0.0, 0.0, 0.0, 0.0, 0.0, 1.6909307379233723E9, 0.0, 2023-08-01 18:58:57.923
97.0, 21008.87400017667, 32120.127334609908, -187500.02235174447, -187500.02235174447, 1477.1597358178778, -10402.904200900102, -2738.312213219668, 34107.55504459799, 0.014, 1.008, 0.116, 192.0, 0.0, 0.0, 0.0, 0.0, 0.0, 0.0, 0.0, 0.0, 0.0, 1.690930737923464E9, 0.0, 2023-08-01 18:58:57.923
98.0, 21008.270503076375, 32109.51025599364, -187500.02235174447, -187500.02235174447, 1462.8546193664813, -10365.710898126472, -2745.73299237883, 34149.24104800714, 0.014, 1.008, 0.116, 192.0, 0.0, 0.0, 0.0, 0.0, 0.0, 0.0, 0.0, 0.0, 0.0, 1.6909307379235656E9, 0.0, 2023-08-01 18:58:57.923
99.0, 21008.44931703202, 32105.7775146696, -187500.02235174447, -187500.02235174447, 1466.7885263906153, -10378.652558166094, -2745.3306609786346, 34163.724978414175, 0.014, 1.008, 0.116, 192.0, 0.0, 0.0, 0.0, 0.0, 0.0, 0.0, 0.0, 0.0, 0.0, 1.6909307379236586E9, 0.0, 2023-08-01 18:58:57.923
100.0, 21008.91870366558, 32112.460686261737, -187500.02235174447, -187500.02235174447, 1476.9809218622354, -10424.361875577197, -2751.5220941927546, 34140.12153626938, 0.014, 1.008, 0.116, 192.0, 0.0, 0.0, 0.0, 0.0, 0.0, 0.0, 0.0, 0.0, 0.0, 1.690930737923751E9, 0.0, 2023-08-01 18:58:57.923
101.0, 21022.687378250048, 32134.41009931685, -187500.02235174447, -187500.02235174447, 1488.3579597899866, -10411.129642859656, -2737.619309141554, 34123.08950699443, 0.018000000000000002, 1.01, 0.11, 192.0, 0.0, 144.0, 31.0, 144.0, 3.0, 112.0, 0.0, 0.0, 0.0, 1.690930737923843E9, 0.0, 2023-08-01 18:58:57.923
102.0, 21031.136337654156, 32132.51020103815, -187500.02235174447, -187500.02235174447, 1480.736014930727, -10368.326052227743, -2735.2276724848357, 34139.85331533591, 0.018000000000000002, 1.01, 0.11, 192.0, 0.0, 0.0, 0.0, 0.0, 0.0, 0.0, 0.0, 0.0, 0.0, 1.6909307379239426E9, 0.0, 2023-08-01 18:58:57.923
103.0, 21009.075165876766, 32116.68516596379, -187500.02235174447, -187500.02235174447, 1470.409508992375, -10378.205523276989, -2744.3918877115116, 34149.956303829706, 0.018000000000000002, 1.01, 0.11, 192.0, 0.0, 0.0, 0.0, 0.0, 0.0, 0.0, 0.0, 0.0, 0.0, 1.6909307379240344E9, 0.0, 2023-08-01 18:58:57.924
104.0, 20991.3055290348, 32109.823180416013, -187500.02235174447, -187500.02235174447, 1461.7146803992607, -10425.993552922435, -2767.1012600781037, 34126.44226866272, 0.018000000000000002, 1.01, 0.11, 192.0, 0.0, 0.0, 0.0, 0.0, 0.0, 0.0, 0.0, 0.0, 0.0, 1.6909307379241257E9, 0.0, 2023-08-01 18:58:57.924
105.0, 21006.080032119757, 32117.93686365329, -187500.02235174447, -187500.02235174447, 1474.1646020608666, -10424.96537267749, -2755.567759939165, 34100.670707305755, 0.018000000000000002, 1.01, 0.11, 192.0, 0.0, 0.0, 0.0, 0.0, 0.0, 0.0, 0.0, 0.0, 0.0, 1.690930737924218E9, 0.0, 2023-08-01 18:58:57.924
106.0, 20998.52514249386, 32104.34700302446, -187500.02235174447, -187500.02235174447, 1456.283206496621, -10379.34546224421, -2755.634815172531, 34122.821286060964, 0.018000000000000002, 1.01, 0.11, 192.0, 0.0, 0.0, 0.0, 0.0, 0.0, 0.0, 0.0, 0.0, 0.0, 1.690930737924312E9, 0.0, 2023-08-01 18:58:57.924
107.0, 21000.737965194938, 32098.64730818836, -187500.02235174447, -187500.02235174447, 1457.8478286084926, -10392.242418794922, -2759.792239641218, 34131.359652442894, 0.018000000000000002, 1.01, 0.11, 192.0, 0.0, 0.0, 0.0, 0.0, 0.0, 0.0, 0.0, 0.0, 0.0, 1.6909307379244046E9, 0.0, 2023-08-01 18:58:57.924
108.0, 21005.454183275007, 32101.86595938992, -187500.02235174447, -187500.02235174447, 1463.122840299945, -10438.063494928301, -2764.5084577212883, 34107.55504459799, 0.018000000000000002, 1.01, 0.11, 192.0, 0.0, 0.0, 0.0, 0.0, 0.0, 0.0, 0.0, 0.0, 0.0, 1.6909307379247189E9, 0.0, 2023-08-01 18:58:57.924
109.0, 21001.654386717604, 32109.242035060175, -187500.02235174447, -187500.02235174447, 1466.9673403462577, -10444.88077698717, -2762.474448975855, 34086.25383213208, 0.018000000000000002, 1.01, 0.11, 192.0, 0.0, 0.0, 0.0, 0.0, 0.0, 0.0, 0.0, 0.0, 0.0, 1.690930737924862E9, 0.0, 2023-08-01 18:58:57.924
110.0, 21008.53872400984, 32112.661851961835, -187500.02235174447, -187500.02235174447, 1460.1500582873891, -10384.218142535467, -2747.54348367971, 34117.0545359915, 0.018000000000000002, 1.01, 0.11, 192.0, 0.0, 0.0, 0.0, 0.0, 0.0, 0.0, 0.0, 0.0, 0.0, 1.6909307379249835E9, 0.0, 2023-08-01 18:58:57.924
111.0, 21013.277293834366, 32107.297433292562, -187500.02235174447, -187500.02235174447, 1458.6301396644283, -10378.71961339946, -2747.3646697240674, 34144.927161327265, 0.014, 1.016, 0.114, 192.0, 0.0, 112.0, 31.0, 192.0, 3.0, 144.0, 0.0, 0.0, 0.0, 1.690930737925225E9, 0.0, 2023-08-01 18:58:57.925
112.0, 21016.652407247115, 32108.862055404432, -187500.02235174447, -187500.02235174447, 1474.4104712498752, -10433.391980337141, -2756.886512862028, 34121.68134709375, 0.014, 1.016, 0.114, 192.0, 0.0, 0.0, 0.0, 0.0, 0.0, 0.0, 0.0, 0.0, 0.0, 1.690930737925377E9, 0.0, 2023-08-01 18:58:57.925
113.0, 21011.623264744674, 32118.40625028685, -187500.02235174447, -187500.02235174447, 1480.4901457417186, -10446.668916543595, -2749.3316232361344, 34091.41708510126, 0.014, 1.016, 0.114, 192.0, 0.0, 0.0, 0.0, 0.0, 0.0, 0.0, 0.0, 0.0, 0.0, 1.6909307379254887E9, 0.0, 2023-08-01 18:58:57.925
114.0, 21013.411404301096, 32125.69291897928, -187500.02235174447, -187500.02235174447, 1473.2258287937439, -10390.521334471863, -2738.7815998532296, 34118.68621333673, 0.014, 1.016, 0.114, 192.0, 0.0, 0.0, 0.0, 0.0, 0.0, 0.0, 0.0, 0.0, 0.0, 1.6909307379256356E9, 0.0, 2023-08-01 18:58:57.925
115.0, 21017.367663069686, 32126.676395735314, -187500.02235174447, -187500.02235174447, 1477.450308495797, -10377.467915709964, -2735.5629486516655, 34140.41210894729, 0.014, 1.016, 0.114, 192.0, 0.0, 0.0, 0.0, 0.0, 0.0, 0.0, 0.0, 0.0, 0.0, 1.6909307379257698E9, 0.0, 2023-08-01 18:58:57.925
116.0, 21008.24815133192, 32111.432506016794, -187500.02235174447, -187500.02235174447, 1473.0470148381014, -10417.723407473972, -2749.1751610249476, 34121.144905226814, 0.014, 1.016, 0.114, 192.0, 0.0, 0.0, 0.0, 0.0, 0.0, 0.0, 0.0, 0.0, 0.0, 1.6909307379259045E9, 0.0, 2023-08-01 18:58:57.925
117.0, 21005.811811186293, 32104.883444891388, -187500.02235174447, -187500.02235174447, 1472.8234973935482, -10450.871044501191, -2759.456963474389, 34086.56675655446, 0.014, 1.016, 0.114, 192.0, 0.0, 0.0, 0.0, 0.0, 0.0, 0.0, 0.0, 0.0, 0.0, 1.690930737926008E9, 0.0, 2023-08-01 18:58:57.926
118.0, 21008.315206565287, 32107.92328213731, -187500.02235174447, -187500.02235174447, 1468.3755002469422, -10403.06066311129, -2747.4317249574337, 34111.17602719975, 0.014, 1.016, 0.114, 192.0, 0.0, 0.0, 0.0, 0.0, 0.0, 0.0, 0.0, 0.0, 0.0, 1.6909307379260993E9, 0.0, 2023-08-01 18:58:57.926
119.0, 21007.130564109157, 32108.59383447097, -187500.02235174447, -187500.02235174447, 1458.1384012864116, -10387.77206990386, -2755.5007047057993, 34135.27120772257, 0.014, 1.016, 0.114, 192.0, 0.0, 0.0, 0.0, 0.0, 0.0, 0.0, 0.0, 0.0, 0.0, 1.6909307379261918E9, 0.0, 2023-08-01 18:58:57.926
120.0, 21017.747642725426, 32118.294491564575, -187500.02235174447, -187500.02235174447, 1465.0674420675568, -10423.333695332252, -2758.2946727627127, 34121.994271516116, 0.014, 1.016, 0.114, 192.0, 0.0, 0.0, 0.0, 0.0, 0.0, 0.0, 0.0, 0.0, 0.0, 1.6909307379263048E9, 0.0, 2023-08-01 18:58:57.926
121.0, 21016.764165969395, 32114.338232795984, -187500.02235174447, -187500.02235174447, 1469.2025147917886, -10467.299576675841, -2766.050728088704, 34071.099349391385, 0.01, 1.006, 0.114, 192.0, 0.0, 80.0, 31.0, 112.0, 3.0, 144.0, 0.0, 0.0, 0.0, 1.690930737926483E9, 0.0, 2023-08-01 18:58:57.926
122.0, 21017.63588400315, 32113.488866506683, -187500.02235174447, -187500.02235174447, 1463.2345990222216, -10422.77490172087, -2759.769887896763, 34080.08475066242, 0.01, 1.006, 0.114, 192.0, 0.0, 0.0, 0.0, 0.0, 0.0, 0.0, 0.0, 0.0, 0.0, 1.6909307379265845E9, 0.0, 2023-08-01 18:58:57.926
123.0, 21011.82443044477, 32118.719174709226, -187500.02235174447, -187500.02235174447, 1457.8031251195819, -10379.747793644405, -2757.73587915133, 34118.97678601465, 0.01, 1.006, 0.114, 192.0, 0.0, 0.0, 0.0, 0.0, 0.0, 0.0, 0.0, 0.0, 0.0, 1.6909307379266772E9, 0.0, 2023-08-01 18:58:57.926
124.0, 21024.274352106375, 32127.34694806897, -187500.02235174447, -187500.02235174447, 1464.8886281119144, -10406.212259079488, -2761.2003995419027, 34122.30719593849, 0.01, 1.006, 0.114, 192.0, 0.0, 0.0, 0.0, 0.0, 0.0, 0.0, 0.0, 0.0, 0.0, 1.6909307379269242E9, 0.0, 2023-08-01 18:58:57.926
125.0, 21032.58920104375, 32130.051509148063, -187500.02235174447, -187500.02235174447, 1479.3055032855873, -10444.344335120242, -2761.9827105978384, 34080.464730318155, 0.01, 1.006, 0.114, 192.0, 0.0, 0.0, 0.0, 0.0, 0.0, 0.0, 0.0, 0.0, 0.0, 1.6909307379270163E9, 0.0, 2023-08-01 18:58:57.927
126.0, 21021.10040439372, 32123.994186400676, -187500.02235174447, -187500.02235174447, 1473.6952154273054, -10418.997456907924, -2755.3442424946124, 34075.81556747146, 0.01, 1.006, 0.114, 192.0, 0.0, 0.0, 0.0, 0.0, 0.0, 0.0, 0.0, 0.0, 0.0, 1.6909307379271092E9, 0.0, 2023-08-01 18:58:57.927
127.0, 21013.433756045553, 32117.51218050864, -187500.02235174447, -187500.02235174447, 1461.312348999065, -10378.965482588468, -2756.3277192506457, 34109.67846032124, 0.01, 1.006, 0.114, 192.0, 0.0, 0.0, 0.0, 0.0, 0.0, 0.0, 0.0, 0.0, 0.0, 1.6909307379272015E9, 0.0, 2023-08-01 18:58:57.927
128.0, 21001.743793695427, 32111.36545078343, -187500.02235174447, -187500.02235174447, 1456.5067239411742, -10402.323055544264, -2771.7504229248075, 34105.565739341466, 0.01, 1.006, 0.114, 192.0, 0.0, 0.0, 0.0, 0.0, 0.0, 0.0, 0.0, 0.0, 0.0, 1.6909307379272935E9, 0.0, 2023-08-01 18:58:57.927
129.0, 21004.336596052242, 32115.50052350766, -187500.02235174447, -187500.02235174447, 1463.5475234445958, -10449.194663667044, -2778.4335945169446, 34069.51237553506, 0.01, 1.006, 0.114, 192.0, 0.0, 0.0, 0.0, 0.0, 0.0, 0.0, 0.0, 0.0, 0.0, 1.690930737927386E9, 0.0, 2023-08-01 18:58:57.927
130.0, 21015.043081646334, 32121.669604977324, -187500.02235174447, -187500.02235174447, 1469.2025147917886, -10442.533843819361, -2762.317986764668, 34054.31318930545, 0.01, 1.006, 0.114, 192.0, 0.0, 0.0, 0.0, 0.0, 0.0, 0.0, 0.0, 0.0, 0.0, 1.6909307379274793E9, 0.0, 2023-08-01 18:58:57.927
131.0, 21020.653369504616, 32120.41790728783, -187500.02235174447, -187500.02235174447, 1468.509610713674, -10382.608816934684, -2740.63679464302, 34098.52493983805, 0.014, 1.014, 0.112, 192.0, 0.0, 112.0, 31.0, 176.0, 3.0, 128.0, 0.0, 0.0, 0.0, 1.6909307379275718E9, 0.0, 2023-08-01 18:58:57.927
132.0, 21027.269485863388, 32118.49565726467, -187500.02235174447, -187500.02235174447, 1470.9906543482132, -10385.939226858525, -2738.4910271753106, 34112.964166756174, 0.014, 1.014, 0.112, 192.0, 0.0, 0.0, 0.0, 0.0, 0.0, 0.0, 0.0, 0.0, 0.0, 1.6909307383918345E9, 0.0, 2023-08-01 18:58:58.391
133.0, 21015.87009619118, 32113.39945952886, -187500.02235174447, -187500.02235174447, 1469.7613084031711, -10426.82056746728, -2749.3986784695007, 34087.86315773286, 0.014, 1.014, 0.112, 192.0, 0.0, 0.0, 0.0, 0.0, 0.0, 0.0, 0.0, 0.0, 0.0, 1.6909307383935535E9, 0.0, 2023-08-01 18:58:58.393
134.0, 21017.032386902858, 32119.479134020705, -187500.02235174447, -187500.02235174447, 1467.7496514021936, -10435.358933849207, -2754.964262838872, 34067.9924569121, 0.014, 1.014, 0.112, 192.0, 0.0, 0.0, 0.0, 0.0, 0.0, 0.0, 0.0, 0.0, 0.0, 1.6909307383937116E9, 0.0, 2023-08-01 18:58:58.393
135.0, 21025.526049795873, 32128.151610869365, -187500.02235174447, -187500.02235174447, 1468.9789973472355, -10396.176325819055, -2754.964262838872, 34081.515262307556, 0.014, 1.014, 0.112, 192.0, 0.0, 0.0, 0.0, 0.0, 0.0, 0.0, 0.0, 0.0, 0.0, 1.69093073839381E9, 0.0, 2023-08-01 18:58:58.393
136.0, 21006.191790842033, 32112.237168817184, -187500.02235174447, -187500.02235174447, 1452.6175204059507, -10388.353215259698, -2759.188742540925, 34103.08469570693, 0.014, 1.014, 0.112, 192.0, 0.0, 0.0, 0.0, 0.0, 0.0, 0.0, 0.0, 0.0, 0.0, 1.6909307383939056E9, 0.0, 2023-08-01 18:58:58.393
137.0, 21023.87202070618, 32118.808581687044, -187500.02235174447, -187500.02235174447, 1469.381328747431, -10432.922593703579, -2761.468620475366, 34084.8456722314, 0.014, 1.014, 0.112, 192.0, 0.0, 0.0, 0.0, 0.0, 0.0, 0.0, 0.0, 0.0, 0.0, 1.6909307383940005E9, 0.0, 2023-08-01 18:58:58.394
138.0, 21036.031369689867, 32125.871732934924, -187500.02235174447, -187500.02235174447, 1477.6961776848052, -10454.268509658397, -2756.1042018060925, 34051.92155264873, 0.014, 1.014, 0.112, 192.0, 0.0, 0.0, 0.0, 0.0, 0.0, 0.0, 0.0, 0.0, 0.0, 1.6909307383943448E9, 0.0, 2023-08-01 18:58:58.394
139.0, 21021.569791027283, 32130.364433570438, -187500.02235174447, -187500.02235174447, 1463.6592821668723, -10398.0538723533, -2743.0284312997383, 34085.38211409833, 0.014, 1.014, 0.112, 192.0, 0.0, 0.0, 0.0, 0.0, 0.0, 0.0, 0.0, 0.0, 0.0, 1.6909307383947978E9, 0.0, 2023-08-01 18:58:58.394
140.0, 21014.95367466851, 32126.36347131294, -187500.02235174447, -187500.02235174447, 1454.830343107026, -10388.688491426527, -2752.036184315227, 34114.238216190126, 0.014, 1.014, 0.112, 192.0, 0.0, 0.0, 0.0, 0.0, 0.0, 0.0, 0.0, 0.0, 0.0, 1.69093073839494E9, 0.0, 2023-08-01 18:58:58.394
141.0, 21026.665988763096, 32127.54811376907, -187500.02235174447, -187500.02235174447, 1466.0062153346796, -10427.602878523217, -2754.584283183132, 34093.76401826907, 0.016, 1.018, 0.11, 192.0, 0.0, 128.0, 31.0, 208.0, 3.0, 112.0, 0.0, 0.0, 0.0, 1.6909307383950846E9, 0.0, 2023-08-01 18:58:58.395
142.0, 21036.903087723626, 32129.045680647574, -187500.02235174447, -187500.02235174447, 1483.6864451988274, -10447.1159514327, -2741.575567910143, 34075.70380874918, 0.016, 1.018, 0.11, 192.0, 0.0, 0.0, 0.0, 0.0, 0.0, 0.0, 0.0, 0.0, 0.0, 1.6909307383952389E9, 0.0, 2023-08-01 18:58:58.395
143.0, 21029.97404694248, 32120.149686354365, -187500.02235174447, -187500.02235174447, 1473.2481805381992, -10400.53491598784, -2731.785503838719, 34098.994326471606, 0.016, 1.018, 0.11, 192.0, 0.0, 0.0, 0.0, 0.0, 0.0, 0.0, 0.0, 0.0, 0.0, 1.6909307383954008E9, 0.0, 2023-08-01 18:58:58.395
144.0, 21027.984741685956, 32119.188561342784, -187500.02235174447, -187500.02235174447, 1470.3201020145539, -10373.042270307813, -2726.6222508695428, 34131.13613499834, 0.016, 1.018, 0.11, 192.0, 0.0, 0.0, 0.0, 0.0, 0.0, 0.0, 0.0, 0.0, 0.0, 1.6909307383956375E9, 0.0, 2023-08-01 18:58:58.395
145.0, 21022.687378250048, 32110.761953683133, -187500.02235174447, -187500.02235174447, 1470.5883229480175, -10406.34636954622, -2731.137303249515, 34120.89903603781, 0.016, 1.018, 0.11, 192.0, 0.0, 0.0, 0.0, 0.0, 0.0, 0.0, 0.0, 0.0, 0.0, 1.6909307383957915E9, 0.0, 2023-08-01 18:58:58.395
146.0, 21021.905067194115, 32109.35379378245, -187500.02235174447, -187500.02235174447, 1476.8915148844142, -10454.268509658397, -2743.453114444389, 34080.12945415133, 0.016, 1.018, 0.11, 192.0, 0.0, 0.0, 0.0, 0.0, 0.0, 0.0, 0.0, 0.0, 0.0, 1.6909307383959255E9, 0.0, 2023-08-01 18:58:58.395
147.0, 21034.086767922257, 32120.127334609908, -187500.02235174447, -187500.02235174447, 1479.9537038747912, -10420.115044130689, -2727.0692857586487, 34079.05657041747, 0.016, 1.018, 0.11, 192.0, 0.0, 0.0, 0.0, 0.0, 0.0, 0.0, 0.0, 0.0, 0.0, 1.6909307383960843E9, 0.0, 2023-08-01 18:58:58.396
148.0, 21041.88752673716, 32125.961139912743, -187500.02235174447, -187500.02235174447, 1478.702006185294, -10374.137505786122, -2719.3355821771124, 34115.422858646256, 0.016, 1.018, 0.11, 192.0, 0.0, 0.0, 0.0, 0.0, 0.0, 0.0, 0.0, 0.0, 0.0, 1.690930738396227E9, 0.0, 2023-08-01 18:58:58.396
149.0, 21033.572677799784, 32114.829971174, -187500.02235174447, -187500.02235174447, 1478.2102678072772, -10384.799287891305, -2726.3763816805345, 34118.46269589218, 0.016, 1.018, 0.11, 192.0, 0.0, 0.0, 0.0, 0.0, 0.0, 0.0, 0.0, 0.0, 0.0, 1.6909307383963773E9, 0.0, 2023-08-01 18:58:58.396
150.0, 21029.012921930902, 32109.532607738092, -187500.02235174447, -187500.02235174447, 1482.4347475093302, -10434.911898960103, -2742.0226027992494, 34090.83593974542, 0.016, 1.018, 0.11, 192.0, 0.0, 0.0, 0.0, 0.0, 0.0, 0.0, 0.0, 0.0, 0.0, 1.690930738396554E9, 0.0, 2023-08-01 18:58:58.396
151.0, 21024.900200951124, 32113.935901395787, -187500.02235174447, -187500.02235174447, 1487.7544626896934, -10418.505718529907, -2727.9186520479507, 34074.20624187067, 0.012, 1.012, 0.116, 192.0, 0.0, 96.0, 31.0, 160.0, 3.0, 160.0, 0.0, 0.0, 0.0, 1.6909307383967476E9, 0.0, 2023-08-01 18:58:58.396
152.0, 21016.02655840237, 32103.72115417971, -187500.02235174447, -187500.02235174447, 1466.699119412794, -10369.95772957298, -2733.9759747953385, 34100.961279983676, 0.012, 1.012, 0.116, 192.0, 0.0, 0.0, 0.0, 0.0, 0.0, 0.0, 0.0, 0.0, 0.0, 1.690930738396918E9, 0.0, 2023-08-01 18:58:58.396
153.0, 21021.078052649267, 32110.717250194222, -187500.02235174447, -187500.02235174447, 1477.606770706984, -10381.91591285657, -2738.1557510084813, 34111.46659987767, 0.012, 1.012, 0.116, 192.0, 0.0, 0.0, 0.0, 0.0, 0.0, 0.0, 0.0, 0.0, 0.0, 1.690930738397069E9, 0.0, 2023-08-01 18:58:58.397
154.0, 21027.090671907747, 32114.78526768509, -187500.02235174447, -187500.02235174447, 1493.700026714805, -10421.098520886722, -2739.4074486979785, 34078.20720412817, 0.012, 1.012, 0.116, 192.0, 0.0, 0.0, 0.0, 0.0, 0.0, 0.0, 0.0, 0.0, 0.0, 1.6909307383972585E9, 0.0, 2023-08-01 18:58:58.397
155.0, 21032.902125466124, 32119.300320065064, -187500.02235174447, -187500.02235174447, 1492.2024598362996, -10413.029541138356, -2734.512416662266, 34063.29859057648, 0.012, 1.012, 0.116, 192.0, 0.0, 0.0, 0.0, 0.0, 0.0, 0.0, 0.0, 0.0, 0.0, 1.6909307383977003E9, 0.0, 2023-08-01 18:58:58.397
156.0, 21031.82924173227, 32125.245884090175, -187500.02235174447, -187500.02235174447, 1481.8983056424029, -10354.937357299013, -2730.198529982392, 34101.9000532508, 0.012, 1.012, 0.116, 192.0, 0.0, 0.0, 0.0, 0.0, 0.0, 0.0, 0.0, 0.0, 0.0, 1.6909307383977964E9, 0.0, 2023-08-01 18:58:58.397
157.0, 21017.479421791963, 32111.54426473907, -187500.02235174447, -187500.02235174447, 1464.1957240337997, -10369.331880728232, -2752.863198860073, 34111.511303366584, 0.012, 1.012, 0.116, 192.0, 0.0, 0.0, 0.0, 0.0, 0.0, 0.0, 0.0, 0.0, 0.0, 1.6909307383978891E9, 0.0, 2023-08-01 18:58:58.397
158.0, 21016.40653805811, 32104.324651280007, -187500.02235174447, -187500.02235174447, 1471.5941514485064, -10421.053817397811, -2761.8933036200174, 34075.97202968264, 0.012, 1.012, 0.116, 192.0, 0.0, 0.0, 0.0, 0.0, 0.0, 0.0, 0.0, 0.0, 0.0, 1.6909307383979812E9, 0.0, 2023-08-01 18:58:58.397
159.0, 21025.235477117956, 32106.22454955871, -187500.02235174447, -187500.02235174447, 1481.5630294755733, -10435.403637338119, -2758.2723210182576, 34046.02069211253, 0.012, 1.012, 0.116, 192.0, 0.0, 0.0, 0.0, 0.0, 0.0, 0.0, 0.0, 0.0, 0.0, 1.6909307383980749E9, 0.0, 2023-08-01 18:58:58.398
160.0, 21037.484233079464, 32118.428602031305, -187500.02235174447, -187500.02235174447, 1483.6864451988274, -10363.498075425396, -2732.791332339207, 34086.45499783218, 0.012, 1.012, 0.116, 192.0, 0.0, 0.0, 0.0, 0.0, 0.0, 0.0, 0.0, 0.0, 0.0, 1.6909307383981683E9, 0.0, 2023-08-01 18:58:58.398
161.0, 21032.611552788207, 32119.657947976346, -187500.02235174447, -187500.02235174447, 1475.058671839079, -10357.552511400285, -2742.201416754892, 34110.103143465894, 0.012, 1.016, 0.106, 192.0, 0.0, 96.0, 31.0, 192.0, 3.0, 80.0, 0.0, 0.0, 0.0, 1.6909307383982613E9, 0.0, 2023-08-01 18:58:58.398
162.0, 21042.2675063929, 32125.827029446013, -187500.02235174447, -187500.02235174447, 1490.0790441130453, -10395.39401476312, -2749.286919747224, 34094.63573630282, 0.012, 1.016, 0.106, 192.0, 0.0, 0.0, 0.0, 0.0, 0.0, 0.0, 0.0, 0.0, 0.0, 1.690930738398361E9, 0.0, 2023-08-01 18:58:58.398
163.0, 21049.710637296517, 32128.442183547282, -187500.02235174447, -187500.02235174447, 1502.998352408213, -10418.282201085354, -2745.1741987674477, 34069.02063715704, 0.012, 1.016, 0.106, 192.0, 0.0, 0.0, 0.0, 0.0, 0.0, 0.0, 0.0, 0.0, 0.0, 1.6909307383984833E9, 0.0, 2023-08-01 18:58:58.398
164.0, 21041.954581970524, 32119.92616890981, -187500.02235174447, -187500.02235174447, 1487.4862417562297, -10380.172476789056, -2740.9497190653947, 34086.209128643175, 0.012, 1.016, 0.106, 192.0, 0.0, 0.0, 0.0, 0.0, 0.0, 0.0, 0.0, 0.0, 0.0, 1.6909307383985767E9, 0.0, 2023-08-01 18:58:58.398
165.0, 21040.099387180733, 32118.294491564575, -187500.02235174447, -187500.02235174447, 1486.413358022375, -10353.61860437615, -2739.295689975702, 34115.4005069018, 0.012, 1.016, 0.106, 192.0, 0.0, 0.0, 0.0, 0.0, 0.0, 0.0, 0.0, 0.0, 0.0, 1.6909307383986692E9, 0.0, 2023-08-01 18:58:58.398
166.0, 21034.198526644534, 32118.11567760893, -187500.02235174447, -187500.02235174447, 1494.5270412596515, -10386.743889658916, -2747.185855768425, 34104.98459398563, 0.012, 1.016, 0.106, 192.0, 0.0, 0.0, 0.0, 0.0, 0.0, 0.0, 0.0, 0.0, 0.0, 1.6909307383987615E9, 0.0, 2023-08-01 18:58:58.398
167.0, 21039.428834847073, 32123.6812619783, -187500.02235174447, -187500.02235174447, 1500.9419919183247, -10425.121834888678, -2756.573588439654, 34063.9914946546, 0.012, 1.016, 0.106, 192.0, 0.0, 0.0, 0.0, 0.0, 0.0, 0.0, 0.0, 0.0, 0.0, 1.6909307383988552E9, 0.0, 2023-08-01 18:58:58.398
168.0, 21032.276276621375, 32116.528703752603, -187500.02235174447, -187500.02235174447, 1489.0955673570118, -10378.33963374372, -2753.600806427098, 34072.79808196999, 0.012, 1.016, 0.106, 192.0, 0.0, 0.0, 0.0, 0.0, 0.0, 0.0, 0.0, 0.0, 0.0, 1.6909307383989482E9, 0.0, 2023-08-01 18:58:58.398
169.0, 21017.658235747604, 32103.96702336872, -187500.02235174447, -187500.02235174447, 1477.9867503627243, -10360.458238179473, -2762.9214838649614, 34100.31307939447, 0.012, 1.016, 0.106, 192.0, 0.0, 0.0, 0.0, 0.0, 0.0, 0.0, 0.0, 0.0, 0.0, 1.6909307383990388E9, 0.0, 2023-08-01 18:58:58.399
170.0, 21035.584334800762, 32113.377107784407, -187500.02235174447, -187500.02235174447, 1489.8108231795816, -10381.96061634548, -2757.1770855399473, 34100.35778288338, 0.012, 1.016, 0.106, 192.0, 0.0, 0.0, 0.0, 0.0, 0.0, 0.0, 0.0, 0.0, 0.0, 1.6909307383992493E9, 0.0, 2023-08-01 18:58:58.399
171.0, 21044.54738432734, 32123.45774453375, -187500.02235174447, -187500.02235174447, 1502.998352408213, -10415.44352953953, -2754.584283183132, 34073.98272442612, 0.012, 1.014, 0.11, 192.0, 0.0, 96.0, 31.0, 176.0, 3.0, 112.0, 0.0, 0.0, 0.0, 1.6909307383993447E9, 0.0, 2023-08-01 18:58:58.399
172.0, 21042.44632034854, 32120.373203798918, -187500.02235174447, -187500.02235174447, 1490.3249133020538, -10375.210389519976, -2741.0838295321264, 34084.6445065313, 0.012, 1.014, 0.11, 192.0, 0.0, 0.0, 0.0, 0.0, 0.0, 0.0, 0.0, 0.0, 0.0, 1.6909307383994827E9, 0.0, 2023-08-01 18:58:58.399
173.0, 21041.909878481612, 32121.26727357713, -187500.02235174447, -187500.02235174447, 1485.2734190551544, -10345.571976372239, -2743.16254176647, 34113.59001560092, 0.012, 1.014, 0.11, 192.0, 0.0, 0.0, 0.0, 0.0, 0.0, 0.0, 0.0, 0.0, 0.0, 1.6909307383996153E9, 0.0, 2023-08-01 18:58:58.399
174.0, 21035.1149481672, 32113.108886850943, -187500.02235174447, -187500.02235174447, 1480.221924808255, -10366.001470804391, -2754.584283183132, 34119.11089648138, 0.012, 1.014, 0.11, 192.0, 0.0, 0.0, 0.0, 0.0, 0.0, 0.0, 0.0, 0.0, 0.0, 1.690930738399711E9, 0.0, 2023-08-01 18:58:58.399
175.0, 21040.658180792117, 32119.21091308724, -187500.02235174447, -187500.02235174447, 1492.9177156588694, -10416.427006295564, -2761.9603588533832, 34081.47055881865, 0.012, 1.014, 0.11, 192.0, 0.0, 0.0, 0.0, 0.0, 0.0, 0.0, 0.0, 0.0, 0.0, 1.6909307383998036E9, 0.0, 2023-08-01 18:58:58.399
176.0, 21043.58625931576, 32125.000014901165, -187500.02235174447, -187500.02235174447, 1491.9789423917464, -10399.953770632002, -2755.3442424946124, 34062.02454114253, 0.012, 1.014, 0.11, 192.0, 0.0, 0.0, 0.0, 0.0, 0.0, 0.0, 0.0, 0.0, 0.0, 1.690930738399896E9, 0.0, 2023-08-01 18:58:58.399
177.0, 21042.513375581908, 32123.92713116731, -187500.02235174447, -187500.02235174447, 1479.216096307766, -10346.2425287059, -2749.2645680027686, 34098.860216004876, 0.012, 1.014, 0.11, 192.0, 0.0, 0.0, 0.0, 0.0, 0.0, 0.0, 0.0, 0.0, 0.0, 1.6909307383999884E9, 0.0, 2023-08-01 18:58:58.399
178.0, 21052.951640242536, 32127.525762024616, -187500.02235174447, -187500.02235174447, 1492.5153842586737, -10353.61860437615, -2742.9166725774617, 34108.87379752086, 0.012, 1.014, 0.11, 192.0, 0.0, 0.0, 0.0, 0.0, 0.0, 0.0, 0.0, 0.0, 0.0, 1.6909307384000823E9, 0.0, 2023-08-01 18:58:58.400
179.0, 21042.803948259825, 32120.999052643667, -187500.02235174447, -187500.02235174447, 1494.0800063705453, -10396.712767685982, -2753.1090680490815, 34084.800968742486, 0.012, 1.014, 0.11, 192.0, 0.0, 0.0, 0.0, 0.0, 0.0, 0.0, 0.0, 0.0, 0.0, 1.6909307384001799E9, 0.0, 2023-08-01 18:58:58.400
180.0, 21040.00998020291, 32122.004881144156, -187500.02235174447, -187500.02235174447, 1493.0741778700565, -10403.641808467128, -2759.3228530076567, 34064.8408609439, 0.012, 1.014, 0.11, 192.0, 0.0, 0.0, 0.0, 0.0, 0.0, 0.0, 0.0, 0.0, 0.0, 1.690930738400273E9, 0.0, 2023-08-01 18:58:58.400
181.0, 21035.696093523038, 32116.841628174978, -187500.02235174447, -187500.02235174447, 1477.2938462846098, -10374.137505786122, -2770.0963938351147, 34071.032294158016, 0.014, 1.016, 0.108, 192.0, 0.0, 112.0, 31.0, 192.0, 3.0, 96.0, 0.0, 0.0, 0.0, 1.6909307384003673E9, 0.0, 2023-08-01 18:58:58.400
182.0, 21037.126605168178, 32118.093325864476, -187500.02235174447, -187500.02235174447, 1481.5630294755733, -10377.91495059907, -2766.944797866917, 34074.78738722651, 0.014, 1.016, 0.108, 192.0, 0.0, 0.0, 0.0, 0.0, 0.0, 0.0, 0.0, 0.0, 0.0, 1.6909307384004655E9, 0.0, 2023-08-01 18:58:58.400
183.0, 21047.45311110653, 32133.381919071904, -187500.02235174447, -187500.02235174447, 1500.3161430735759, -10396.712767685982, -2756.506533206288, 34065.422006299734, 0.014, 1.016, 0.108, 192.0, 0.0, 0.0, 0.0, 0.0, 0.0, 0.0, 0.0, 0.0, 0.0, 1.6909307384005575E9, 0.0, 2023-08-01 18:58:58.400
184.0, 21047.050779706333, 32126.341119568482, -187500.02235174447, -187500.02235174447, 1493.3871022924309, -10401.049006110312, -2756.931216350939, 34063.008017898566, 0.014, 1.016, 0.108, 192.0, 0.0, 0.0, 0.0, 0.0, 0.0, 0.0, 0.0, 0.0, 0.0, 1.6909307384006753E9, 0.0, 2023-08-01 18:58:58.400
185.0, 21046.536689583863, 32117.199256086264, -187500.02235174447, -187500.02235174447, 1490.9060586578917, -10351.696354352995, -2748.683422646931, 34096.31211713697, 0.014, 1.016, 0.108, 192.0, 0.0, 0.0, 0.0, 0.0, 0.0, 0.0, 0.0, 0.0, 0.0, 1.690930738400908E9, 0.0, 2023-08-01 18:58:58.400
186.0, 21056.46086412202, 32122.094288121974, -187500.02235174447, -187500.02235174447, 1498.7068174727938, -10343.359153671165, -2750.4268587144447, 34113.14298071182, 0.014, 1.016, 0.108, 192.0, 0.0, 0.0, 0.0, 0.0, 0.0, 0.0, 0.0, 0.0, 0.0, 1.6909307384010036E9, 0.0, 2023-08-01 18:58:58.401
187.0, 21043.452148849028, 32118.138029353388, -187500.02235174447, -187500.02235174447, 1498.7291692172491, -10387.257979781387, -2764.2625885322796, 34096.6473933038, 0.014, 1.016, 0.108, 192.0, 0.0, 0.0, 0.0, 0.0, 0.0, 0.0, 0.0, 0.0, 0.0, 1.6909307384010954E9, 0.0, 2023-08-01 18:58:58.401
188.0, 21045.083826194266, 32126.631692246403, -187500.02235174447, -187500.02235174447, 1515.9400124478357, -10424.831262210759, -2759.1440390520143, 34048.92641889172, 0.014, 1.016, 0.108, 192.0, 0.0, 0.0, 0.0, 0.0, 0.0, 0.0, 0.0, 0.0, 0.0, 1.6909307384011872E9, 0.0, 2023-08-01 18:58:58.401
189.0, 21030.845764976235, 32111.276043805607, -187500.02235174447, -187500.02235174447, 1488.8496981680034, -10363.453371936486, -2751.54444593721, 34084.30923036447, 0.014, 1.016, 0.108, 192.0, 0.0, 0.0, 0.0, 0.0, 0.0, 0.0, 0.0, 0.0, 0.0, 1.6909307384012794E9, 0.0, 2023-08-01 18:58:58.401
190.0, 21032.432738832562, 32109.711421693733, -187500.02235174447, -187500.02235174447, 1483.284113798632, -10356.43492417752, -2756.1042018060925, 34113.47825687865, 0.014, 1.016, 0.108, 192.0, 0.0, 0.0, 0.0, 0.0, 0.0, 0.0, 0.0, 0.0, 0.0, 1.690930738401373E9, 0.0, 2023-08-01 18:58:58.401
191.0, 21037.484233079464, 32110.091401349477, -187500.02235174447, -187500.02235174447, 1493.990599392724, -10394.544648473817, -2763.323815265157, 34095.37334386985, 0.014, 1.016, 0.108, 192.0, 0.0, 0.0, 0.0, 0.0, 0.0, 0.0, 0.0, 0.0, 0.0, 1.6909307384014966E9, 0.0, 2023-08-01 18:58:58.401
192.0, 21047.87779425118, 32125.894084679378, -187500.02235174447, -187500.02235174447, 1508.8098059665926, -10428.116968645689, -2760.127515808048, 34053.82145092743, 0.016, 1.018, 0.10400000000000001, 192.0, 0.0, 128.0, 31.0, 208.0, 3.0, 64.0, 0.0, 0.0, 0.0, 1.6909307384015892E9, 0.0, 2023-08-01 18:58:58.401
193.0, 21041.44049184805, 32121.311977066038, -187500.02235174447, -187500.02235174447, 1492.7612534476823, -10386.900351870103, -2758.3393762516234, 34065.042026644, 0.016, 1.018, 0.10400000000000001, 192.0, 0.0, 0.0, 0.0, 0.0, 0.0, 0.0, 0.0, 0.0, 0.0, 1.6909307384017031E9, 0.0, 2023-08-01 18:58:58.401
194.0, 21041.93223022607, 32120.127334609908, -187500.02235174447, -187500.02235174447, 1490.1013958575006, -10344.052057749279, -2752.572626182154, 34117.9039022808, 0.016, 1.018, 0.10400000000000001, 192.0, 0.0, 0.0, 0.0, 0.0, 0.0, 0.0, 0.0, 0.0, 0.0, 1.6909307384017954E9, 0.0, 2023-08-01 18:58:58.401
195.0, 21050.582355330273, 32129.492715536682, -187500.02235174447, -187500.02235174447, 1499.3103145730872, -10365.66619463756, -2758.674652418453, 34127.78337333004, 0.016, 1.018, 0.10400000000000001, 192.0, 0.0, 0.0, 0.0, 0.0, 0.0, 0.0, 0.0, 0.0, 0.0, 1.690930738401888E9, 0.0, 2023-08-01 18:58:58.401
196.0, 21043.83212850477, 32126.16230561284, -187500.02235174447, -187500.02235174447, 1494.0800063705453, -10411.643732982127, -2770.766946168774, 34101.40831487278, 0.016, 1.018, 0.10400000000000001, 192.0, 0.0, 0.0, 0.0, 0.0, 0.0, 0.0, 0.0, 0.0, 0.0, 1.6909307384019804E9, 0.0, 2023-08-01 18:58:58.401
197.0, 21056.706733311028, 32134.8347824615, -187500.02235174447, -187500.02235174447, 1488.9838086347354, -10401.741910188426, -2771.772774669263, 34093.98753571362, 0.016, 1.018, 0.10400000000000001, 192.0, 0.0, 0.0, 0.0, 0.0, 0.0, 0.0, 0.0, 0.0, 0.0, 1.6909307384020743E9, 0.0, 2023-08-01 18:58:58.402
198.0, 21052.63871582016, 32129.671529492323, -187500.02235174447, -187500.02235174447, 1479.9313521303359, -10361.86639808016, -2770.7445944243186, 34112.98651850063, 0.016, 1.018, 0.10400000000000001, 192.0, 0.0, 0.0, 0.0, 0.0, 0.0, 0.0, 0.0, 0.0, 0.0, 1.690930738402167E9, 0.0, 2023-08-01 18:58:58.402
199.0, 21034.51145106691, 32117.73569795319, -187500.02235174447, -187500.02235174447, 1484.2899422991209, -10372.572883674251, -2777.2936555497236, 34116.0040040021, 0.016, 1.018, 0.10400000000000001, 192.0, 0.0, 0.0, 0.0, 0.0, 0.0, 0.0, 0.0, 0.0, 0.0, 1.690930738402259E9, 0.0, 2023-08-01 18:58:58.402
200.0, 21025.59310502924, 32110.650194960857, -187500.02235174447, -187500.02235174447, 1483.954666132291, -10426.552346533817, -2795.063292391693, 34070.58525926891, 0.016, 1.018, 0.10400000000000001, 192.0, 0.0, 0.0, 0.0, 0.0, 0.0, 0.0, 0.0, 0.0, 0.0, 1.6909307384023516E9, 0.0, 2023-08-01 18:58:58.402
201.0, 21038.78063425787, 32121.088459621486, -187500.02235174447, -187500.02235174447, 1492.0683493695676, -10409.408558536597, -2781.4063765295004, 34059.25292483007, 0.016, 1.018, 0.10400000000000001, 192.0, 0.0, 0.0, 0.0, 0.0, 0.0, 0.0, 0.0, 0.0, 0.0, 1.6909307384025543E9, 0.0, 2023-08-01 18:58:58.402
202.0, 21041.8651749927, 32125.73762246819, -187500.02235174447, -187500.02235174447, 1490.995465635713, -10352.255147964377, -2769.3587862680897, 34099.95545148318, 0.01, 1.016, 0.10400000000000001, 192.0, 0.0, 80.0, 31.0, 192.0, 3.0, 64.0, 0.0, 0.0, 0.0, 1.6909307384026723E9, 0.0, 2023-08-01 18:58:58.402
203.0, 21035.45022433403, 32117.534532253092, -187500.02235174447, -187500.02235174447, 1478.0761573405455, -10360.011203290369, -2774.6561497039975, 34123.08950699443, 0.01, 1.016, 0.10400000000000001, 192.0, 0.0, 0.0, 0.0, 0.0, 0.0, 0.0, 0.0, 0.0, 0.0, 1.6909307384028015E9, 0.0, 2023-08-01 18:58:58.402
204.0, 21029.68347426456, 32110.69489844977, -187500.02235174447, -187500.02235174447, 1479.5960759635063, -10413.25305858291, -2787.9107341659947, 34101.229500917136, 0.01, 1.016, 0.10400000000000001, 192.0, 0.0, 0.0, 0.0, 0.0, 0.0, 0.0, 0.0, 0.0, 0.0, 1.6909307384028957E9, 0.0, 2023-08-01 18:58:58.402
205.0, 21030.73400625396, 32116.50635200815, -187500.02235174447, -187500.02235174447, 1487.8215179230592, -10412.53780276034, -2781.316969551679, 34077.402541327785, 0.01, 1.016, 0.10400000000000001, 192.0, 0.0, 0.0, 0.0, 0.0, 0.0, 0.0, 0.0, 0.0, 0.0, 1.6909307384029877E9, 0.0, 2023-08-01 18:58:58.402
206.0, 21031.62807603217, 32117.579235742003, -187500.02235174447, -187500.02235174447, 1472.0411863376125, -10357.910139311569, -2779.9088096509945, 34108.73968705412, 0.01, 1.016, 0.10400000000000001, 192.0, 0.0, 0.0, 0.0, 0.0, 0.0, 0.0, 0.0, 0.0, 0.0, 1.6909307384030807E9, 0.0, 2023-08-01 18:58:58.403
207.0, 21027.29183760784, 32112.885369406387, -187500.02235174447, -187500.02235174447, 1465.894456612403, -10372.639938907616, -2789.900039422517, 34114.61819584587, 0.01, 1.016, 0.10400000000000001, 192.0, 0.0, 0.0, 0.0, 0.0, 0.0, 0.0, 0.0, 0.0, 0.0, 1.6909307384031737E9, 0.0, 2023-08-01 18:58:58.403
208.0, 21014.95367466851, 32096.12156106491, -187500.02235174447, -187500.02235174447, 1468.1966862912998, -10420.740892975438, -2800.9418011834387, 34092.57937581294, 0.01, 1.016, 0.10400000000000001, 192.0, 0.0, 0.0, 0.0, 0.0, 0.0, 0.0, 0.0, 0.0, 0.0, 1.6909307384032664E9, 0.0, 2023-08-01 18:58:58.403
209.0, 21023.87202070618, 32103.78820941308, -187500.02235174447, -187500.02235174447, 1483.7535004321935, -10434.10723615971, -2792.761062712796, 34069.2441546016, 0.01, 1.016, 0.10400000000000001, 192.0, 0.0, 0.0, 0.0, 0.0, 0.0, 0.0, 0.0, 0.0, 0.0, 1.6909307384033577E9, 0.0, 2023-08-01 18:58:58.403
210.0, 21031.62807603217, 32111.566616483527, -187500.02235174447, -187500.02235174447, 1479.3725585189532, -10377.043232565313, -2778.8582776615954, 34100.670707305755, 0.01, 1.016, 0.10400000000000001, 192.0, 0.0, 0.0, 0.0, 0.0, 0.0, 0.0, 0.0, 0.0, 0.0, 1.6909307384034498E9, 0.0, 2023-08-01 18:58:58.403
211.0, 21036.254887134422, 32109.845532160467, -187500.02235174447, -187500.02235174447, 1478.8808201409365, -10368.840142350215, -2776.5336962382435, 34122.15073372731, 0.01, 1.016, 0.10400000000000001, 192.0, 0.0, 0.0, 0.0, 0.0, 0.0, 0.0, 0.0, 0.0, 0.0, 1.6909307384035428E9, 0.0, 2023-08-01 18:58:58.403
212.0, 21022.285046849855, 32096.948575609757, -187500.02235174447, -187500.02235174447, 1473.0693665825568, -10403.373587533664, -2790.727053967363, 34110.08079172144, 0.012, 1.012, 0.1, 192.0, 0.0, 96.0, 31.0, 160.0, 3.0, 32.0, 0.0, 0.0, 0.0, 1.6909307384036453E9, 0.0, 2023-08-01 18:58:58.403
213.0, 21021.97212242748, 32101.88831113438, -187500.02235174447, -187500.02235174447, 1481.2948085421096, -10427.692285501038, -2792.403434801511, 34080.397675084794, 0.012, 1.012, 0.1, 192.0, 0.0, 0.0, 0.0, 0.0, 0.0, 0.0, 0.0, 0.0, 0.0, 1.6909307384037435E9, 0.0, 2023-08-01 18:58:58.403
214.0, 21038.311247624308, 32109.376145526905, -187500.02235174447, -187500.02235174447, 1479.0149306076682, -10376.327976742743, -2782.546315496721, 34094.97101246965, 0.012, 1.012, 0.1, 192.0, 0.0, 0.0, 0.0, 0.0, 0.0, 0.0, 0.0, 0.0, 0.0, 1.6909307384038367E9, 0.0, 2023-08-01 18:58:58.403
215.0, 21031.181041143067, 32108.191503070775, -187500.02235174447, -187500.02235174447, 1468.95664560278, -10356.278461966333, -2782.4122050299893, 34117.07688773595, 0.012, 1.012, 0.1, 192.0, 0.0, 0.0, 0.0, 0.0, 0.0, 0.0, 0.0, 0.0, 0.0, 1.6909307384039302E9, 0.0, 2023-08-01 18:58:58.403
216.0, 21035.047892933835, 32116.88633166389, -187500.02235174447, -187500.02235174447, 1485.1169568439673, -10387.570904203762, -2778.053614861204, 34107.89032076482, 0.012, 1.012, 0.1, 192.0, 0.0, 0.0, 0.0, 0.0, 0.0, 0.0, 0.0, 0.0, 0.0, 1.6909307384041293E9, 0.0, 2023-08-01 18:58:58.404
217.0, 21051.521128597396, 32127.726927724714, -187500.02235174447, -187500.02235174447, 1507.021666410168, -10423.646619754627, -2772.1751060694583, 34067.679532489725, 0.012, 1.012, 0.1, 192.0, 0.0, 0.0, 0.0, 0.0, 0.0, 0.0, 0.0, 0.0, 0.0, 1.6909307384042225E9, 0.0, 2023-08-01 18:58:58.404
218.0, 21050.761169285914, 32114.852322918458, -187500.02235174447, -187500.02235174447, 1486.189840577822, -10378.898427355103, -2764.8437338881176, 34084.91272746476, 0.012, 1.012, 0.1, 192.0, 0.0, 0.0, 0.0, 0.0, 0.0, 0.0, 0.0, 0.0, 0.0, 1.6909307384043157E9, 0.0, 2023-08-01 18:58:58.404
219.0, 21027.135375396654, 32097.037982587575, -187500.02235174447, -187500.02235174447, 1459.3006919980876, -10360.279424223832, -2783.485088763844, 34122.41895466077, 0.012, 1.012, 0.1, 192.0, 0.0, 0.0, 0.0, 0.0, 0.0, 0.0, 0.0, 0.0, 0.0, 1.6909307384044085E9, 0.0, 2023-08-01 18:58:58.404
220.0, 21028.87881146417, 32101.217758800718, -187500.02235174447, -187500.02235174447, 1468.151982802389, -10391.683625183538, -2791.1964406009247, 34125.41408841778, 0.012, 1.012, 0.1, 192.0, 0.0, 0.0, 0.0, 0.0, 0.0, 0.0, 0.0, 0.0, 0.0, 1.6909307384045E9, 0.0, 2023-08-01 18:58:58.404
221.0, 21041.798119759336, 32118.249788075664, -187500.02235174447, -187500.02235174447, 1479.4843172412297, -10442.802064752826, -2797.611391259598, 34078.095445405896, 0.012, 1.012, 0.1, 192.0, 0.0, 0.0, 0.0, 0.0, 0.0, 0.0, 0.0, 0.0, 0.0, 1.6909307384046235E9, 0.0, 2023-08-01 18:58:58.404
222.0, 21038.57946855777, 32112.036003117086, -187500.02235174447, -187500.02235174447, 1467.5484857020958, -10405.653465468105, -2787.0837196211482, 34086.52205306555, 0.01, 1.014, 0.10200000000000001, 192.0, 0.0, 80.0, 31.0, 176.0, 3.0, 48.0, 0.0, 0.0, 0.0, 1.690930738404719E9, 0.0, 2023-08-01 18:58:58.404
223.0, 21045.463805850006, 32105.73281118069, -187500.02235174447, -187500.02235174447, 1464.419241478353, -10360.19001724601, -2780.1323270955477, 34130.33147219795, 0.01, 1.014, 0.10200000000000001, 192.0, 0.0, 0.0, 0.0, 0.0, 0.0, 0.0, 0.0, 0.0, 0.0, 1.6909307384048195E9, 0.0, 2023-08-01 18:58:58.404
224.0, 21044.077997693777, 32104.436410002283, -187500.02235174447, -187500.02235174447, 1467.8167066355595, -10380.463049466975, -2786.6366847320423, 34132.14196349883, 0.01, 1.014, 0.10200000000000001, 192.0, 0.0, 0.0, 0.0, 0.0, 0.0, 0.0, 0.0, 0.0, 0.0, 1.6909307384049125E9, 0.0, 2023-08-01 18:58:58.404
225.0, 21051.36466638621, 32113.44416301777, -187500.02235174447, -187500.02235174447, 1486.569820233562, -10428.832224468259, -2787.418995787978, 34087.21495714366, 0.01, 1.014, 0.10200000000000001, 192.0, 0.0, 0.0, 0.0, 0.0, 0.0, 0.0, 0.0, 0.0, 0.0, 1.690930738405005E9, 0.0, 2023-08-01 18:58:58.405
226.0, 21052.236384419964, 32119.076802620508, -187500.02235174447, -187500.02235174447, 1488.089738856523, -10408.29097131383, -2783.798013186218, 34068.998285412585, 0.01, 1.014, 0.10200000000000001, 192.0, 0.0, 0.0, 0.0, 0.0, 0.0, 0.0, 0.0, 0.0, 0.0, 1.6909307384050965E9, 0.0, 2023-08-01 18:58:58.405
227.0, 21039.227669146978, 32107.92328213731, -187500.02235174447, -187500.02235174447, 1473.2705322826544, -10352.299851453286, -2778.478298005855, 34109.633756832336, 0.01, 1.014, 0.10200000000000001, 192.0, 0.0, 0.0, 0.0, 0.0, 0.0, 0.0, 0.0, 0.0, 0.0, 1.6909307384051883E9, 0.0, 2023-08-01 18:58:58.405
228.0, 21041.35108487023, 32110.963119383232, -187500.02235174447, -187500.02235174447, 1473.2928840271097, -10367.297871982799, -2783.3733300415674, 34120.02731800405, 0.01, 1.014, 0.10200000000000001, 192.0, 0.0, 0.0, 0.0, 0.0, 0.0, 0.0, 0.0, 0.0, 0.0, 1.69093073840528E9, 0.0, 2023-08-01 18:58:58.405
229.0, 21042.178099415076, 32113.712383951235, -187500.02235174447, -187500.02235174447, 1478.187916062822, -10414.594163250227, -2792.8951731795282, 34092.6464310463, 0.01, 1.014, 0.10200000000000001, 192.0, 0.0, 0.0, 0.0, 0.0, 0.0, 0.0, 0.0, 0.0, 0.0, 1.6909307384053726E9, 0.0, 2023-08-01 18:58:58.405
230.0, 21038.534765068864, 32109.06322110453, -187500.02235174447, -187500.02235174447, 1474.7457474167047, -10417.34342781823, -2788.2683620772796, 34079.771826240045, 0.01, 1.014, 0.10200000000000001, 192.0, 0.0, 0.0, 0.0, 0.0, 0.0, 0.0, 0.0, 0.0, 0.0, 1.6909307384054854E9, 0.0, 2023-08-01 18:58:58.405
231.0, 21046.82726226178, 32111.20898857224, -187500.02235174447, -187500.02235174447, 1471.281227026132, -10375.411555220075, -2778.768870683774, 34098.32377413795, 0.01, 1.014, 0.10200000000000001, 192.0, 0.0, 0.0, 0.0, 0.0, 0.0, 0.0, 0.0, 0.0, 0.0, 1.690930738405578E9, 0.0, 2023-08-01 18:58:58.405
232.0, 21048.168366929098, 32114.852322918458, -187500.02235174447, -187500.02235174447, 1464.9556833452802, -10378.160819788078, -2783.1051091081035, 34100.78246602803, 0.012, 1.018, 0.10400000000000001, 192.0, 0.0, 96.0, 31.0, 208.0, 3.0, 64.0, 0.0, 0.0, 0.0, 1.690930738405804E9, 0.0, 2023-08-01 18:58:58.405
233.0, 21042.44632034854, 32110.247863560664, -187500.02235174447, -187500.02235174447, 1468.8448868805037, -10417.611648751694, -2793.8339464466508, 34074.92149769324, 0.012, 1.018, 0.10400000000000001, 192.0, 0.0, 0.0, 0.0, 0.0, 0.0, 0.0, 0.0, 0.0, 0.0, 1.6909307384059043E9, 0.0, 2023-08-01 18:58:58.405
234.0, 21049.35300938523, 32105.7775146696, -187500.02235174447, -187500.02235174447, 1474.9245613723472, -10436.409465838608, -2796.896135437028, 34047.607665968855, 0.012, 1.018, 0.10400000000000001, 192.0, 0.0, 0.0, 0.0, 0.0, 0.0, 0.0, 0.0, 0.0, 0.0, 1.690930738405998E9, 0.0, 2023-08-01 18:58:58.405
235.0, 21046.559041328317, 32098.40143899935, -187500.02235174447, -187500.02235174447, 1458.0713460530455, -10384.754584402393, -2797.7455017263296, 34081.82818672993, 0.012, 1.018, 0.10400000000000001, 192.0, 0.0, 0.0, 0.0, 0.0, 0.0, 0.0, 0.0, 0.0, 0.0, 1.6909307384060915E9, 0.0, 2023-08-01 18:58:58.406
236.0, 21041.619305803695, 32102.715325679223, -187500.02235174447, -187500.02235174447, 1456.7525931301825, -10389.157878060088, -2809.1001879096257, 34095.75332352559, 0.012, 1.018, 0.10400000000000001, 192.0, 0.0, 0.0, 0.0, 0.0, 0.0, 0.0, 0.0, 0.0, 0.0, 1.6909307384061835E9, 0.0, 2023-08-01 18:58:58.406
237.0, 21030.175212642578, 32096.859168631934, -187500.02235174447, -187500.02235174447, 1457.6019594194843, -10421.992590664935, -2816.1409874130472, 34084.55509955348, 0.012, 1.018, 0.10400000000000001, 192.0, 0.0, 0.0, 0.0, 0.0, 0.0, 0.0, 0.0, 0.0, 0.0, 1.6909307384062755E9, 0.0, 2023-08-01 18:58:58.406
238.0, 21037.059549934813, 32103.989375113175, -187500.02235174447, -187500.02235174447, 1476.1986108062997, -10464.371498152197, -2816.5880223021536, 34039.04694784248, 0.012, 1.018, 0.10400000000000001, 192.0, 0.0, 0.0, 0.0, 0.0, 0.0, 0.0, 0.0, 0.0, 0.0, 1.6909307384063687E9, 0.0, 2023-08-01 18:58:58.406
239.0, 21059.768922301402, 32120.999052643667, -187500.02235174447, -187500.02235174447, 1483.7311486877381, -10392.801212406304, -2787.4636992768883, 34059.23057308562, 0.012, 1.018, 0.10400000000000001, 192.0, 0.0, 0.0, 0.0, 0.0, 0.0, 0.0, 0.0, 0.0, 0.0, 1.690930738406461E9, 0.0, 2023-08-01 18:58:58.406
240.0, 21062.339372913764, 32123.435392789295, -187500.02235174447, -187500.02235174447, 1479.1490410744002, -10363.408668447575, -2790.682350478453, 34094.725143280644, 0.012, 1.018, 0.10400000000000001, 192.0, 0.0, 0.0, 0.0, 0.0, 0.0, 0.0, 0.0, 0.0, 0.0, 1.6909307384065535E9, 0.0, 2023-08-01 18:58:58.406
241.0, 21066.139169471167, 32127.59281725798, -187500.02235174447, -187500.02235174447, 1483.284113798632, -10394.34348277372, -2795.5326790252543, 34086.03031468753, 0.012, 1.018, 0.10400000000000001, 192.0, 0.0, 0.0, 0.0, 0.0, 0.0, 0.0, 0.0, 0.0, 0.0, 1.690930738406678E9, 0.0, 2023-08-01 18:58:58.406
242.0, 21070.341297428764, 32126.296416079575, -187500.02235174447, -187500.02235174447, 1487.9779801342465, -10424.674799999571, -2800.159490127503, 34061.041064386496, 0.006, 1.018, 0.098, 192.0, 0.0, 48.0, 31.0, 208.0, 3.0, 16.0, 0.0, 0.0, 0.0, 1.690930738406794E9, 0.0, 2023-08-01 18:58:58.406
243.0, 21060.730047312984, 32121.26727357713, -187500.02235174447, -187500.02235174447, 1473.4940497272075, -10387.369738503665, -2797.2090598594023, 34074.85444245988, 0.006, 1.018, 0.098, 192.0, 0.0, 0.0, 0.0, 0.0, 0.0, 0.0, 0.0, 0.0, 0.0, 1.6909307384068947E9, 0.0, 2023-08-01 18:58:58.406
244.0, 21041.172270914587, 32109.86788390492, -187500.02235174447, -187500.02235174447, 1457.7807733751267, -10365.375621959642, -2808.407283831511, 34103.01764047356, 0.006, 1.018, 0.098, 192.0, 0.0, 0.0, 0.0, 0.0, 0.0, 0.0, 0.0, 0.0, 0.0, 1.6909307384069877E9, 0.0, 2023-08-01 18:58:58.406
245.0, 21039.138262169155, 32102.93884312378, -187500.02235174447, -187500.02235174447, 1457.4678489527523, -10393.58352346224, -2816.543318813243, 34104.67166956326, 0.006, 1.018, 0.098, 192.0, 0.0, 0.0, 0.0, 0.0, 0.0, 0.0, 0.0, 0.0, 0.0, 1.6909307384070807E9, 0.0, 2023-08-01 18:58:58.407
246.0, 21054.963297243514, 32105.486941991683, -187500.02235174447, -187500.02235174447, 1469.5377909586182, -10440.142207162644, -2817.8844234805615, 34072.93219243672, 0.006, 1.018, 0.098, 192.0, 0.0, 0.0, 0.0, 0.0, 0.0, 0.0, 0.0, 0.0, 0.0, 1.6909307384071727E9, 0.0, 2023-08-01 18:58:58.407
247.0, 21046.69315179505, 32104.458761746737, -187500.02235174447, -187500.02235174447, 1465.022738578646, -10414.482404527951, -2810.955382699416, 34068.32773307893, 0.006, 1.018, 0.098, 192.0, 0.0, 0.0, 0.0, 0.0, 0.0, 0.0, 0.0, 0.0, 0.0, 1.690930738408726E9, 0.0, 2023-08-01 18:58:58.408
248.0, 21038.64652379114, 32107.25272980365, -187500.02235174447, -187500.02235174447, 1459.993596076202, -10373.28813949682, -2807.9155454534944, 34096.15565492579, 0.006, 1.018, 0.098, 192.0, 0.0, 0.0, 0.0, 0.0, 0.0, 0.0, 0.0, 0.0, 0.0, 1.6909307384088883E9, 0.0, 2023-08-01 18:58:58.408
249.0, 21047.319000639796, 32110.605491471946, -187500.02235174447, -187500.02235174447, 1471.8400206375147, -10387.906180370592, -2798.5278127822653, 34102.19062592872, 0.006, 1.018, 0.098, 192.0, 0.0, 0.0, 0.0, 0.0, 0.0, 0.0, 0.0, 0.0, 0.0, 1.6909307384090838E9, 0.0, 2023-08-01 18:58:58.409
250.0, 21045.217936661, 32108.63853795988, -187500.02235174447, -187500.02235174447, 1485.6981021998051, -10428.742817490438, -2798.572516271176, 34072.59691626989, 0.006, 1.018, 0.098, 192.0, 0.0, 0.0, 0.0, 0.0, 0.0, 0.0, 0.0, 0.0, 0.0, 1.6909307384092464E9, 0.0, 2023-08-01 18:58:58.409
251.0, 21038.758282513416, 32099.63078494439, -187500.02235174447, -187500.02235174447, 1470.3424537590092, -10419.288029585843, -2801.3217808391787, 34054.961389894655, 0.006, 1.018, 0.098, 192.0, 0.0, 0.0, 0.0, 0.0, 0.0, 0.0, 0.0, 0.0, 0.0, 1.6909307384094083E9, 0.0, 2023-08-01 18:58:58.409
252.0, 21036.321942367787, 32092.142950551864, -187500.02235174447, -187500.02235174447, 1456.640834407906, -10376.819715120759, -2806.1944611304357, 34086.36559085436, 0.006, 1.02, 0.096, 192.0, 0.0, 48.0, 31.0, 224.0, 3.0, 0.0, 0.0, 0.0, 0.0, 1.6909307388733892E9, 0.0, 2023-08-01 18:58:58.873
253.0, 21036.187831901054, 32096.34507850946, -187500.02235174447, -187500.02235174447, 1456.2385030077105, -10401.71955844397, -2815.805711246218, 34080.80000648499, 0.006, 1.02, 0.096, 192.0, 0.0, 0.0, 0.0, 0.0, 0.0, 0.0, 0.0, 0.0, 0.0, 1.690930738875312E9, 0.0, 2023-08-01 18:58:58.875
254.0, 21044.659143049616, 32101.575386712004, -187500.02235174447, -187500.02235174447, 1471.2588752816769, -10432.050875669824, -2810.0836646656594, 34069.847651701886, 0.006, 1.02, 0.096, 192.0, 0.0, 0.0, 0.0, 0.0, 0.0, 0.0, 0.0, 0.0, 0.0, 1.6909307388755376E9, 0.0, 2023-08-01 18:58:58.875
255.0, 21059.79127404586, 32120.127334609908, -187500.02235174447, -187500.02235174447, 1487.374483033953, -10431.156805891611, -2798.7066267379078, 34057.55419225147, 0.006, 1.02, 0.096, 192.0, 0.0, 0.0, 0.0, 0.0, 0.0, 0.0, 0.0, 0.0, 0.0, 1.690930738875714E9, 0.0, 2023-08-01 18:58:58.875
0.0, 21058.092541467257, 32123.12246836692, -187500.02235174447, -187500.02235174447, 1475.1704305613555, -10375.366851731163, -2793.2080976019024, 34092.40056185729, 0.006, 1.02, 0.096, 192.0, 0.0, 0.0, 0.0, 0.0, 0.0, 0.0, 0.0, 0.0, 0.0, 1.6909307388759117E9, 0.0, 2023-08-01 18:58:58.875
1.0, 21057.13141645568, 32127.816334702533, -187500.02235174447, -187500.02235174447, 1473.091718327012, -10379.948959344501, -2800.383007572056, 34112.4500766337, 0.006, 1.02, 0.096, 192.0, 0.0, 0.0, 0.0, 0.0, 0.0, 0.0, 0.0, 0.0, 0.0, 1.69093073887607E9, 0.0, 2023-08-01 18:58:58.876
2.0, 21053.242212920453, 32127.50341028016, -187500.02235174447, -187500.02235174447, 1471.7282619152381, -10415.01884639488, -2811.1118449106034, 34095.52980608104, 0.006, 1.02, 0.096, 192.0, 0.0, 0.0, 0.0, 0.0, 0.0, 0.0, 0.0, 0.0, 0.0, 1.690930738876254E9, 0.0, 2023-08-01 18:58:58.876
3.0, 21055.49973911044, 32127.637520746892, -187500.02235174447, -187500.02235174447, 1475.125727072445, -10436.20830013851, -2815.3363246126564, 34066.69605573369, 0.006, 1.02, 0.096, 192.0, 0.0, 0.0, 0.0, 0.0, 0.0, 0.0, 0.0, 0.0, 0.0, 1.6909307388763947E9, 0.0, 2023-08-01 18:58:58.876
4.0, 21063.479311880983, 32125.469401534727, -187500.02235174447, -187500.02235174447, 1466.252084523688, -10386.34155825872, -2807.5355657977543, 34080.4423785737, 0.006, 1.02, 0.096, 192.0, 0.0, 0.0, 0.0, 0.0, 0.0, 0.0, 0.0, 0.0, 0.0, 1.6909307388764887E9, 0.0, 2023-08-01 18:58:58.876
5.0, 21046.15670992812, 32110.91841589432, -187500.02235174447, -187500.02235174447, 1448.4600959372635, -10379.680738411038, -2822.7124002829078, 34107.21976843116, 0.006, 1.02, 0.096, 192.0, 0.0, 0.0, 0.0, 0.0, 0.0, 0.0, 0.0, 0.0, 0.0, 1.69093073887661E9, 0.0, 2023-08-01 18:58:58.876
6.0, 21051.230555919476, 32120.529666010105, -187500.02235174447, -187500.02235174447, 1465.1792007898332, -10422.081997642756, -2826.959231729416, 34092.33350662392, 0.004, 1.016, 0.10400000000000001, 192.0, 0.0, 32.0, 31.0, 192.0, 3.0, 64.0, 0.0, 0.0, 0.0, 1.6909307388767037E9, 0.0, 2023-08-01 18:58:58.876
7.0, 21061.333544413275, 32124.709442223248, -187500.02235174447, -187500.02235174447, 1475.3939480059087, -10440.701000774026, -2816.498615324332, 34059.34233180789, 0.004, 1.016, 0.10400000000000001, 192.0, 0.0, 0.0, 0.0, 0.0, 0.0, 0.0, 0.0, 0.0, 0.0, 1.690930738877418E9, 0.0, 2023-08-01 18:58:58.877
8.0, 21066.943832271558, 32131.414965559838, -187500.02235174447, -187500.02235174447, 1474.9022096278918, -10387.995587348412, -2802.2382023618466, 34077.4919483056, 0.004, 1.016, 0.10400000000000001, 192.0, 0.0, 0.0, 0.0, 0.0, 0.0, 0.0, 0.0, 0.0, 0.0, 1.6909307388775144E9, 0.0, 2023-08-01 18:58:58.877
9.0, 21055.343276899253, 32125.93878816829, -187500.02235174447, -187500.02235174447, 1465.9168083568584, -10358.75950560087, -2801.1429668835362, 34104.515207352066, 0.004, 1.016, 0.10400000000000001, 192.0, 0.0, 0.0, 0.0, 0.0, 0.0, 0.0, 0.0, 0.0, 0.0, 1.6909307388776128E9, 0.0, 2023-08-01 18:58:58.877
10.0, 21035.629038289673, 32102.35769776794, -187500.02235174447, -187500.02235174447, 1452.5951686614953, -10397.875058397658, -2819.60550780362, 34100.58130032793, 0.004, 1.016, 0.10400000000000001, 192.0, 0.0, 0.0, 0.0, 0.0, 0.0, 0.0, 0.0, 0.0, 0.0, 1.6909307388777387E9, 0.0, 2023-08-01 18:58:58.877
11.0, 21052.817529775803, 32115.656985718848, -187500.02235174447, -187500.02235174447, 1475.48335498373, -10447.25006189943, -2817.4597403359107, 34057.71065446266, 0.004, 1.016, 0.10400000000000001, 192.0, 0.0, 0.0, 0.0, 0.0, 0.0, 0.0, 0.0, 0.0, 0.0, 1.690930738877844E9, 0.0, 2023-08-01 18:58:58.877
12.0, 21060.819454290802, 32125.022366645622, -187500.02235174447, -187500.02235174447, 1471.2141717927661, -10400.11023284319, -2801.5900017726426, 34064.50558477707, 0.004, 1.016, 0.10400000000000001, 192.0, 0.0, 0.0, 0.0, 0.0, 0.0, 0.0, 0.0, 0.0, 0.0, 1.6909307388779387E9, 0.0, 2023-08-01 18:58:58.877
13.0, 21054.02452397639, 32121.759011955146, -187500.02235174447, -187500.02235174447, 1463.1451920444003, -10364.079220781234, -2806.8426617196396, 34104.55991084098, 0.004, 1.016, 0.10400000000000001, 192.0, 0.0, 0.0, 0.0, 0.0, 0.0, 0.0, 0.0, 0.0, 0.0, 1.690930738878032E9, 0.0, 2023-08-01 18:58:58.878
14.0, 21063.83693979227, 32126.16230561284, -187500.02235174447, -187500.02235174447, 1473.0470148381014, -10397.428023508552, -2809.3013536097233, 34096.02154445905, 0.004, 1.016, 0.10400000000000001, 192.0, 0.0, 0.0, 0.0, 0.0, 0.0, 0.0, 0.0, 0.0, 0.0, 1.6909307388781245E9, 0.0, 2023-08-01 18:58:58.878
15.0, 21064.015753747914, 32120.686128221292, -187500.02235174447, -187500.02235174447, 1473.963436360769, -10435.403637338119, -2814.3528478566227, 34064.97497141063, 0.004, 1.016, 0.10400000000000001, 192.0, 0.0, 0.0, 0.0, 0.0, 0.0, 0.0, 0.0, 0.0, 0.0, 1.6909307388782177E9, 0.0, 2023-08-01 18:58:58.878
16.0, 21057.377285644685, 32122.02723288861, -187500.02235174447, -187500.02235174447, 1471.057709581579, -10407.620418980172, -2812.3858943445557, 34068.797119712486, 0.008, 1.02, 0.106, 192.0, 0.0, 64.0, 31.0, 224.0, 3.0, 80.0, 0.0, 0.0, 0.0, 1.6909307388783119E9, 0.0, 2023-08-01 18:58:58.878
17.0, 21051.74464604195, 32123.83772418949, -187500.02235174447, -187500.02235174447, 1467.4590787242746, -10376.43973546502, -2813.5928885451426, 34088.48900657761, 0.008, 1.02, 0.106, 192.0, 0.0, 0.0, 0.0, 0.0, 0.0, 0.0, 0.0, 0.0, 0.0, 1.6909307388784115E9, 0.0, 2023-08-01 18:58:58.878
18.0, 21051.74464604195, 32118.87563692041, -187500.02235174447, -187500.02235174447, 1468.800183391593, -10375.925645342546, -2802.998161673327, 34108.51616960957, 0.008, 1.02, 0.106, 192.0, 0.0, 0.0, 0.0, 0.0, 0.0, 0.0, 0.0, 0.0, 0.0, 1.690930738878504E9, 0.0, 2023-08-01 18:58:58.878
19.0, 21047.27429715089, 32112.036003117086, -187500.02235174447, -187500.02235174447, 1466.699119412794, -10425.881794200159, -2819.5161008257987, 34089.96422171166, 0.008, 1.02, 0.106, 192.0, 0.0, 0.0, 0.0, 0.0, 0.0, 0.0, 0.0, 0.0, 0.0, 1.6909307388785963E9, 0.0, 2023-08-01 18:58:58.878
20.0, 21051.856404764225, 32125.424698045816, -187500.02235174447, -187500.02235174447, 1473.8516776384924, -10424.563041277295, -2814.732827512363, 34075.5920500269, 0.008, 1.02, 0.106, 192.0, 0.0, 0.0, 0.0, 0.0, 0.0, 0.0, 0.0, 0.0, 0.0, 1.690930738878691E9, 0.0, 2023-08-01 18:58:58.878
21.0, 21042.714541282003, 32115.858151418946, -187500.02235174447, -187500.02235174447, 1456.1714477743444, -10382.63116867914, -2821.5948130601423, 34092.71348627967, 0.008, 1.02, 0.106, 192.0, 0.0, 0.0, 0.0, 0.0, 0.0, 0.0, 0.0, 0.0, 0.0, 1.6909307388788333E9, 0.0, 2023-08-01 18:58:58.878
22.0, 21041.172270914587, 32108.12444783741, -187500.02235174447, -187500.02235174447, 1452.8857413394144, -10396.846878152714, -2828.926185241483, 34085.27035537605, 0.008, 1.02, 0.106, 192.0, 0.0, 0.0, 0.0, 0.0, 0.0, 0.0, 0.0, 0.0, 0.0, 1.690930738879322E9, 0.0, 2023-08-01 18:58:58.879
23.0, 21039.182965658067, 32102.849436145956, -187500.02235174447, -187500.02235174447, 1456.126744285434, -10436.700038516527, -2835.1846736889693, 34065.10908187737, 0.008, 1.02, 0.106, 192.0, 0.0, 0.0, 0.0, 0.0, 0.0, 0.0, 0.0, 0.0, 0.0, 1.690930738879419E9, 0.0, 2023-08-01 18:58:58.879
24.0, 21047.967201229003, 32113.913549651334, -187500.02235174447, -187500.02235174447, 1464.7545176451824, -10435.962430949501, -2826.869824751595, 34053.6873404607, 0.008, 1.02, 0.106, 192.0, 0.0, 0.0, 0.0, 0.0, 0.0, 0.0, 0.0, 0.0, 0.0, 1.6909307388795123E9, 0.0, 2023-08-01 18:58:58.879
25.0, 21058.830149034282, 32120.59672124347, -187500.02235174447, -187500.02235174447, 1466.6544159238836, -10376.707956398483, -2806.8426617196396, 34091.595899056905, 0.008, 1.02, 0.106, 192.0, 0.0, 0.0, 0.0, 0.0, 0.0, 0.0, 0.0, 0.0, 0.0, 1.690930738879605E9, 0.0, 2023-08-01 18:58:58.879
26.0, 21063.971050259002, 32125.178828856806, -187500.02235174447, -187500.02235174447, 1465.1344973009227, -10374.830409864237, -2804.0039901738155, 34109.969032999164, 0.01, 1.018, 0.106, 192.0, 0.0, 80.0, 31.0, 208.0, 3.0, 80.0, 0.0, 0.0, 0.0, 1.6909307388796968E9, 0.0, 2023-08-01 18:58:58.879
27.0, 21060.685343824072, 32121.69195672178, -187500.02235174447, -187500.02235174447, 1473.2928840271097, -10412.135471360145, -2807.2002896309245, 34097.6979252932, 0.01, 1.018, 0.106, 192.0, 0.0, 0.0, 0.0, 0.0, 0.0, 0.0, 0.0, 0.0, 0.0, 1.6909307388798172E9, 0.0, 2023-08-01 18:58:58.879
28.0, 21056.013829232914, 32117.802753186555, -187500.02235174447, -187500.02235174447, 1469.6271979364394, -10433.771959992882, -2815.6492490350306, 34070.607611013365, 0.01, 1.018, 0.106, 192.0, 0.0, 0.0, 0.0, 0.0, 0.0, 0.0, 0.0, 0.0, 0.0, 1.690930738879912E9, 0.0, 2023-08-01 18:58:58.879
29.0, 21051.275259408387, 32116.372241541416, -187500.02235174447, -187500.02235174447, 1454.606825662473, -10376.171514531556, -2811.3353623551566, 34095.19452991421, 0.01, 1.018, 0.106, 192.0, 0.0, 0.0, 0.0, 0.0, 0.0, 0.0, 0.0, 0.0, 0.0, 1.6909307388800037E9, 0.0, 2023-08-01 18:58:58.880
30.0, 21041.574602314784, 32100.703668678245, -187500.02235174447, -187500.02235174447, 1436.2113399757552, -10374.517485441862, -2829.6190893195976, 34111.8018760445, 0.01, 1.018, 0.106, 192.0, 0.0, 0.0, 0.0, 0.0, 0.0, 0.0, 0.0, 0.0, 0.0, 1.6909307388800983E9, 0.0, 2023-08-01 18:58:58.880
31.0, 21051.49877685294, 32109.800828671556, -187500.02235174447, -187500.02235174447, 1450.3152907270542, -10417.566945262784, -2830.9825457313714, 34101.56477708397, 0.01, 1.018, 0.106, 192.0, 0.0, 0.0, 0.0, 0.0, 0.0, 0.0, 0.0, 0.0, 0.0, 1.690930738880191E9, 0.0, 2023-08-01 18:58:58.880
32.0, 21065.535672370872, 32119.859113676444, -187500.02235174447, -187500.02235174447, 1474.4551747387857, -10434.39780883763, -2817.4597403359107, 34073.28982034801, 0.01, 1.018, 0.106, 192.0, 0.0, 0.0, 0.0, 0.0, 0.0, 0.0, 0.0, 0.0, 0.0, 1.6909307388802836E9, 0.0, 2023-08-01 18:58:58.880
33.0, 21054.806835032326, 32110.761953683133, -187500.02235174447, -187500.02235174447, 1463.3910612334087, -10383.81581113527, -2811.000086188327, 34092.020582201556, 0.01, 1.018, 0.106, 192.0, 0.0, 0.0, 0.0, 0.0, 0.0, 0.0, 0.0, 0.0, 0.0, 1.6909307388804238E9, 0.0, 2023-08-01 18:58:58.880
34.0, 21047.609573317717, 32112.55009323956, -187500.02235174447, -187500.02235174447, 1453.0422035506015, -10357.753677100382, -2816.900946724528, 34126.64343436282, 0.01, 1.018, 0.106, 192.0, 0.0, 0.0, 0.0, 0.0, 0.0, 0.0, 0.0, 0.0, 0.0, 1.690930738880518E9, 0.0, 2023-08-01 18:58:58.880
35.0, 21050.0682652078, 32111.074878105508, -187500.02235174447, -187500.02235174447, 1457.8478286084926, -10388.263808281876, -2827.1156939406033, 34118.06036449198, 0.01, 1.018, 0.106, 192.0, 0.0, 0.0, 0.0, 0.0, 0.0, 0.0, 0.0, 0.0, 0.0, 1.6909307388806112E9, 0.0, 2023-08-01 18:58:58.880
36.0, 21060.35006765724, 32110.136104838384, -187500.02235174447, -187500.02235174447, 1469.8730671254477, -10439.181082151066, -2829.820255019695, 34065.53376502202, 0.01, 1.018, 0.106, 192.0, 0.0, 0.0, 0.0, 0.0, 0.0, 0.0, 0.0, 0.0, 0.0, 1.6909307388807037E9, 0.0, 2023-08-01 18:58:58.880
37.0, 21069.044896250358, 32117.467477019727, -187500.02235174447, -187500.02235174447, 1470.0295293366348, -10395.505773485396, -2812.7435222558406, 34072.55221278098, 0.012, 1.014, 0.11, 192.0, 0.0, 96.0, 31.0, 176.0, 3.0, 112.0, 0.0, 0.0, 0.0, 1.6909307388808272E9, 0.0, 2023-08-01 18:58:58.880
38.0, 21048.101311695733, 32111.812485672534, -187500.02235174447, -187500.02235174447, 1452.639872150406, -10359.00537478988, -2816.252746135324, 34106.10218120839, 0.012, 1.014, 0.11, 192.0, 0.0, 0.0, 0.0, 0.0, 0.0, 0.0, 0.0, 0.0, 0.0, 1.6909307388813171E9, 0.0, 2023-08-01 18:58:58.881
39.0, 21046.87196575069, 32113.041831617575, -187500.02235174447, -187500.02235174447, 1457.9595873307692, -10389.068471082268, -2820.6560397930193, 34104.29168990751, 0.012, 1.014, 0.11, 192.0, 0.0, 0.0, 0.0, 0.0, 0.0, 0.0, 0.0, 0.0, 0.0, 1.6909307388814132E9, 0.0, 2023-08-01 18:58:58.881
40.0, 21050.850576263736, 32118.048622375565, -187500.02235174447, -187500.02235174447, 1475.8409828950148, -10436.744742005438, -2819.2031764034245, 34057.55419225147, 0.012, 1.014, 0.11, 192.0, 0.0, 0.0, 0.0, 0.0, 0.0, 0.0, 0.0, 0.0, 0.0, 1.6909307388815084E9, 0.0, 2023-08-01 18:58:58.881
41.0, 21058.651335078637, 32127.481058535705, -187500.02235174447, -187500.02235174447, 1478.5008404851962, -10410.861421926193, -2807.8037867312178, 34048.05470085797, 0.012, 1.014, 0.11, 192.0, 0.0, 0.0, 0.0, 0.0, 0.0, 0.0, 0.0, 0.0, 0.0, 1.6909307388816016E9, 0.0, 2023-08-01 18:58:58.881
42.0, 21047.855442506727, 32117.288663064086, -187500.02235174447, -187500.02235174447, 1451.4328779498194, -10360.19001724601, -2818.4879205808547, 34085.8962042208, 0.012, 1.014, 0.11, 192.0, 0.0, 0.0, 0.0, 0.0, 0.0, 0.0, 0.0, 0.0, 0.0, 1.6909307388816936E9, 0.0, 2023-08-01 18:58:58.881
43.0, 21061.914689769113, 32129.246846347673, -187500.02235174447, -187500.02235174447, 1466.0732705680455, -10387.570904203762, -2825.7745892732846, 34083.348105352896, 0.012, 1.014, 0.11, 192.0, 0.0, 0.0, 0.0, 0.0, 0.0, 0.0, 0.0, 0.0, 0.0, 1.6909307388818169E9, 0.0, 2023-08-01 18:58:58.881
44.0, 21061.937041513567, 32128.35277656946, -187500.02235174447, -187500.02235174447, 1474.0751950830454, -10429.97216343548, -2828.926185241483, 34051.74273869309, 0.012, 1.014, 0.11, 192.0, 0.0, 0.0, 0.0, 0.0, 0.0, 0.0, 0.0, 0.0, 0.0, 1.6909307388819222E9, 0.0, 2023-08-01 18:58:58.881
45.0, 21062.89816652515, 32125.53645676809, -187500.02235174447, -187500.02235174447, 1468.8448868805037, -10425.658276755605, -2826.534548584765, 34038.08582283089, 0.012, 1.014, 0.11, 192.0, 0.0, 0.0, 0.0, 0.0, 0.0, 0.0, 0.0, 0.0, 0.0, 1.6909307388820152E9, 0.0, 2023-08-01 18:58:58.882
46.0, 21053.97982048748, 32124.955311412254, -187500.02235174447, -187500.02235174447, 1453.1763140173334, -10373.042270307813, -2821.952440971427, 34074.27329710404, 0.012, 1.014, 0.11, 192.0, 0.0, 0.0, 0.0, 0.0, 0.0, 0.0, 0.0, 0.0, 0.0, 1.6909307388821087E9, 0.0, 2023-08-01 18:58:58.882
47.0, 21064.194567703555, 32136.421756317828, -187500.02235174447, -187500.02235174447, 1459.85948560947, -10387.749718159404, -2829.9096619975167, 34082.67755301923, 0.012, 1.014, 0.112, 192.0, 0.0, 96.0, 31.0, 176.0, 3.0, 128.0, 0.0, 0.0, 0.0, 1.690930738882202E9, 0.0, 2023-08-01 18:58:58.882
48.0, 21074.923405042104, 32143.0378726766, -187500.02235174447, -187500.02235174447, 1478.1655643183667, -10431.693247758538, -2823.315897383201, 34043.18202056671, 0.012, 1.014, 0.112, 192.0, 0.0, 0.0, 0.0, 0.0, 0.0, 0.0, 0.0, 0.0, 0.0, 1.690930738882301E9, 0.0, 2023-08-01 18:58:58.882
49.0, 21064.619250848205, 32125.91643642383, -187500.02235174447, -187500.02235174447, 1464.3521862449868, -10427.982858178957, -2823.1147316831034, 34028.56397969294, 0.012, 1.014, 0.112, 192.0, 0.0, 0.0, 0.0, 0.0, 0.0, 0.0, 0.0, 0.0, 0.0, 1.6909307388823934E9, 0.0, 2023-08-01 18:58:58.882
50.0, 21058.338410656263, 32110.15845658284, -187500.02235174447, -187500.02235174447, 1451.3658227164535, -10376.909122098581, -2820.2313566483685, 34057.59889574038, 0.012, 1.014, 0.112, 192.0, 0.0, 0.0, 0.0, 0.0, 0.0, 0.0, 0.0, 0.0, 0.0, 1.6909307388824868E9, 0.0, 2023-08-01 18:58:58.882
51.0, 21058.450169378542, 32114.740564196178, -187500.02235174447, -187500.02235174447, 1459.3230437425427, -10372.259959251876, -2813.1682054004914, 34088.80193099999, 0.012, 1.014, 0.112, 192.0, 0.0, 0.0, 0.0, 0.0, 0.0, 0.0, 0.0, 0.0, 0.0, 1.6909307388825805E9, 0.0, 2023-08-01 18:58:58.882
52.0, 21052.79517803135, 32111.611319972435, -187500.02235174447, -187500.02235174447, 1462.8769711109367, -10421.009113908902, -2820.6560397930193, 34065.287895833004, 0.012, 1.014, 0.112, 192.0, 0.0, 0.0, 0.0, 0.0, 0.0, 0.0, 0.0, 0.0, 0.0, 1.6909307388826728E9, 0.0, 2023-08-01 18:58:58.882
53.0, 21043.78742501586, 32106.112790836432, -187500.02235174447, -187500.02235174447, 1454.159790773367, -10439.605765295717, -2829.5967375751425, 34042.444412999685, 0.012, 1.014, 0.112, 192.0, 0.0, 0.0, 0.0, 0.0, 0.0, 0.0, 0.0, 0.0, 0.0, 1.690930738883124E9, 0.0, 2023-08-01 18:58:58.883
54.0, 21072.12943698519, 32132.286683593597, -187500.02235174447, -187500.02235174447, 1467.928465357836, -10387.705014670493, -2817.5938508026425, 34068.439491801204, 0.012, 1.014, 0.112, 192.0, 0.0, 0.0, 0.0, 0.0, 0.0, 0.0, 0.0, 0.0, 0.0, 1.6909307388832185E9, 0.0, 2023-08-01 18:58:58.883
55.0, 21081.94185280107, 32144.803660488567, -187500.02235174447, -187500.02235174447, 1486.3686545334645, -10364.325089970242, -2804.6298390185643, 34085.98561119862, 0.012, 1.014, 0.112, 192.0, 0.0, 0.0, 0.0, 0.0, 0.0, 0.0, 0.0, 0.0, 0.0, 1.690930738883312E9, 0.0, 2023-08-01 18:58:58.883
56.0, 21073.78346607488, 32134.566561528038, -187500.02235174447, -187500.02235174447, 1478.2102678072772, -10381.826505878747, -2816.096283924137, 34092.624079301844, 0.012, 1.014, 0.112, 192.0, 0.0, 0.0, 0.0, 0.0, 0.0, 0.0, 0.0, 0.0, 0.0, 1.690930738883406E9, 0.0, 2023-08-01 18:58:58.883
57.0, 21089.78731510488, 32137.74050924069, -187500.02235174447, -187500.02235174447, 1491.8224801805593, -10420.897355186624, -2820.32076362619, 34061.30928531996, 0.012, 1.012, 0.106, 192.0, 0.0, 96.0, 31.0, 160.0, 3.0, 80.0, 0.0, 0.0, 0.0, 1.6909307388834996E9, 0.0, 2023-08-01 18:58:58.883
58.0, 21100.002062320957, 32144.110756410453, -187500.02235174447, -187500.02235174447, 1488.3579597899866, -10371.298834240299, -2803.0205134177822, 34077.58135528342, 0.012, 1.012, 0.106, 192.0, 0.0, 0.0, 0.0, 0.0, 0.0, 0.0, 0.0, 0.0, 0.0, 1.6909307388835983E9, 0.0, 2023-08-01 18:58:58.883
59.0, 21089.16146626013, 32149.9892652022, -187500.02235174447, -187500.02235174447, 1481.67478819785, -10347.47187465094, -2812.162376900003, 34103.688192807225, 0.012, 1.012, 0.106, 192.0, 0.0, 0.0, 0.0, 0.0, 0.0, 0.0, 0.0, 0.0, 0.0, 1.6909307388836913E9, 0.0, 2023-08-01 18:58:58.883
60.0, 21078.9243672996, 32139.998035430675, -187500.02235174447, -187500.02235174447, 1488.4473667678078, -10378.898427355103, -2811.4918245663434, 34095.283936892025, 0.012, 1.012, 0.106, 192.0, 0.0, 0.0, 0.0, 0.0, 0.0, 0.0, 0.0, 0.0, 0.0, 1.690930738883802E9, 0.0, 2023-08-01 18:58:58.883
61.0, 21072.64352710766, 32132.286683593597, -187500.02235174447, -187500.02235174447, 1490.6601894688833, -10422.48432904295, -2819.314935125701, 34059.74466320809, 0.012, 1.012, 0.106, 192.0, 0.0, 0.0, 0.0, 0.0, 0.0, 0.0, 0.0, 0.0, 0.0, 1.6909307388838956E9, 0.0, 2023-08-01 18:58:58.883
62.0, 21065.893300282158, 32125.178828856806, -187500.02235174447, -187500.02235174447, 1474.7457474167047, -10390.34252051622, -2818.8455484921396, 34069.780596468525, 0.012, 1.012, 0.106, 192.0, 0.0, 0.0, 0.0, 0.0, 0.0, 0.0, 0.0, 0.0, 0.0, 1.6909307388839889E9, 0.0, 2023-08-01 18:58:58.883
63.0, 21057.55609960033, 32117.467477019727, -187500.02235174447, -187500.02235174447, 1464.7768693896378, -10368.773087116848, -2823.382952616567, 34102.212977673174, 0.012, 1.012, 0.106, 192.0, 0.0, 0.0, 0.0, 0.0, 0.0, 0.0, 0.0, 0.0, 0.0, 1.690930738884081E9, 0.0, 2023-08-01 18:58:58.884
64.0, 21061.042971735355, 32115.858151418946, -187500.02235174447, -187500.02235174447, 1463.279302511132, -10400.311398543286, -2832.5695195876983, 34096.89326249281, 0.012, 1.012, 0.106, 192.0, 0.0, 0.0, 0.0, 0.0, 0.0, 0.0, 0.0, 0.0, 0.0, 1.6909307388841755E9, 0.0, 2023-08-01 18:58:58.884
65.0, 21060.327715912787, 32123.21187534474, -187500.02235174447, -187500.02235174447, 1465.1344973009227, -10441.080980429768, -2837.4645516234104, 34073.53568953701, 0.012, 1.012, 0.106, 192.0, 0.0, 0.0, 0.0, 0.0, 0.0, 0.0, 0.0, 0.0, 0.0, 1.6909307388842695E9, 0.0, 2023-08-01 18:58:58.884
66.0, 21080.80191383385, 32140.221552875228, -187500.02235174447, -187500.02235174447, 1474.6786921833389, -10425.457111055508, -2830.9154904980055, 34060.14699460829, 0.012, 1.012, 0.106, 192.0, 0.0, 0.0, 0.0, 0.0, 0.0, 0.0, 0.0, 0.0, 0.0, 1.6909307388843625E9, 0.0, 2023-08-01 18:58:58.884
67.0, 21087.820361592814, 32132.957235927253, -187500.02235174447, -187500.02235174447, 1467.5708374465512, -10379.34546224421, -2822.89121423855, 34080.55413729598, 0.01, 1.012, 0.108, 192.0, 0.0, 80.0, 31.0, 160.0, 3.0, 96.0, 0.0, 0.0, 0.0, 1.690930738884455E9, 0.0, 2023-08-01 18:58:58.884
68.0, 21068.01671600541, 32124.418869545327, -187500.02235174447, -187500.02235174447, 1462.8546193664813, -10397.0033403639, -2828.6132608191087, 34083.325753608435, 0.01, 1.012, 0.108, 192.0, 0.0, 0.0, 0.0, 0.0, 0.0, 0.0, 0.0, 0.0, 0.0, 1.6909307388845532E9, 0.0, 2023-08-01 18:58:58.884
69.0, 21047.65427680663, 32109.219683315718, -187500.02235174447, -187500.02235174447, 1455.5679506740512, -10449.462884600507, -2846.7181738279073, 34049.50756424756, 0.01, 1.012, 0.108, 192.0, 0.0, 0.0, 0.0, 0.0, 0.0, 0.0, 0.0, 0.0, 0.0, 1.690930738884982E9, 0.0, 2023-08-01 18:58:58.884
70.0, 21062.74170431396, 32125.49175327918, -187500.02235174447, -187500.02235174447, 1475.349244516998, -10437.616460039195, -2832.9047957545276, 34045.70776769015, 0.01, 1.012, 0.108, 192.0, 0.0, 0.0, 0.0, 0.0, 0.0, 0.0, 0.0, 0.0, 0.0, 1.6909307388850763E9, 0.0, 2023-08-01 18:58:58.885
71.0, 21079.058477766335, 32137.338177840495, -187500.02235174447, -187500.02235174447, 1474.8575061389813, -10373.57871217474, -2816.811539746707, 34082.007000685575, 0.01, 1.012, 0.108, 192.0, 0.0, 0.0, 0.0, 0.0, 0.0, 0.0, 0.0, 0.0, 0.0, 1.6909307388851948E9, 0.0, 2023-08-01 18:58:58.885
72.0, 21082.59005339027, 32136.377052828917, -187500.02235174447, -187500.02235174447, 1475.3045410280874, -10376.663252909571, -2822.153606671525, 34099.46371310517, 0.01, 1.012, 0.108, 192.0, 0.0, 0.0, 0.0, 0.0, 0.0, 0.0, 0.0, 0.0, 0.0, 1.6909307388852885E9, 0.0, 2023-08-01 18:58:58.885
73.0, 21073.202320719043, 32133.60543651646, -187500.02235174447, -187500.02235174447, 1479.216096307766, -10426.552346533817, -2834.380010888578, 34068.03716040101, 0.01, 1.012, 0.108, 192.0, 0.0, 0.0, 0.0, 0.0, 0.0, 0.0, 0.0, 0.0, 0.0, 1.6909307388853805E9, 0.0, 2023-08-01 18:58:58.885
74.0, 21069.380172417186, 32134.566561528038, -187500.02235174447, -187500.02235174447, 1478.4337852518304, -10428.228727367965, -2829.574385830687, 34050.9380758927, 0.01, 1.012, 0.108, 192.0, 0.0, 0.0, 0.0, 0.0, 0.0, 0.0, 0.0, 0.0, 0.0, 1.690930738885476E9, 0.0, 2023-08-01 18:58:58.885
75.0, 21051.096445452746, 32121.423735788318, -187500.02235174447, -187500.02235174447, 1453.1092587839676, -10381.178305289544, -2835.922281255994, 34082.07405591894, 0.01, 1.012, 0.108, 192.0, 0.0, 0.0, 0.0, 0.0, 0.0, 0.0, 0.0, 0.0, 0.0, 1.690930738885569E9, 0.0, 2023-08-01 18:58:58.885
76.0, 21074.476370152996, 32135.728852239714, -187500.02235174447, -187500.02235174447, 1467.2355612797214, -10386.319206514265, -2831.9883742318602, 34097.943794482206, 0.01, 1.012, 0.108, 192.0, 0.0, 0.0, 0.0, 0.0, 0.0, 0.0, 0.0, 0.0, 0.0, 1.690930738885661E9, 0.0, 2023-08-01 18:58:58.885
77.0, 21069.64839335065, 32133.627788260914, -187500.02235174447, -187500.02235174447, 1470.9459508593025, -10416.270544084377, -2835.7434673003518, 34078.76599773955, 0.012, 1.014, 0.112, 192.0, 0.0, 96.0, 31.0, 176.0, 3.0, 128.0, 0.0, 0.0, 0.0, 1.6909307388857791E9, 0.0, 2023-08-01 18:58:58.885
78.0, 21066.9214805271, 32134.387747572393, -187500.02235174447, -187500.02235174447, 1472.7564421601824, -10437.527053061372, -2841.867845281106, 34044.254904300564, 0.012, 1.014, 0.112, 192.0, 0.0, 0.0, 0.0, 0.0, 0.0, 0.0, 0.0, 0.0, 0.0, 1.6909307388858793E9, 0.0, 2023-08-01 18:58:58.885
79.0, 21084.355841202243, 32147.955256456764, -187500.02235174447, -187500.02235174447, 1479.9760556192466, -10392.980026361945, -2827.0486387072374, 34052.03331137101, 0.012, 1.014, 0.112, 192.0, 0.0, 0.0, 0.0, 0.0, 0.0, 0.0, 0.0, 0.0, 0.0, 1.690930738885972E9, 0.0, 2023-08-01 18:58:58.885
80.0, 21086.88158832569, 32143.104927909964, -187500.02235174447, -187500.02235174447, 1471.124764814945, -10372.1482005296, -2832.793037032251, 34074.63092501532, 0.012, 1.014, 0.112, 192.0, 0.0, 0.0, 0.0, 0.0, 0.0, 0.0, 0.0, 0.0, 0.0, 1.6909307388860643E9, 0.0, 2023-08-01 18:58:58.886
81.0, 21089.832018593792, 32131.593779515482, -187500.02235174447, -187500.02235174447, 1462.094660055001, -10406.77105269087, -2851.0097087633267, 34067.612477256356, 0.012, 1.014, 0.112, 192.0, 0.0, 0.0, 0.0, 0.0, 0.0, 0.0, 0.0, 0.0, 0.0, 1.6909307388861585E9, 0.0, 2023-08-01 18:58:58.886
82.0, 21061.333544413275, 32121.110811365943, -187500.02235174447, -187500.02235174447, 1458.093697797501, -10441.148035663133, -2857.737583844374, 34049.39580552528, 0.012, 1.014, 0.112, 192.0, 0.0, 0.0, 0.0, 0.0, 0.0, 0.0, 0.0, 0.0, 0.0, 1.6909307388862524E9, 0.0, 2023-08-01 18:58:58.886
83.0, 21055.142111199155, 32130.45384054826, -187500.02235174447, -187500.02235174447, 1456.3279099855317, -10403.641808467128, -2854.3401186871674, 34069.40061681278, 0.012, 1.014, 0.112, 192.0, 0.0, 0.0, 0.0, 0.0, 0.0, 0.0, 0.0, 0.0, 0.0, 1.6909307388863456E9, 0.0, 2023-08-01 18:58:58.886
84.0, 21073.805817819335, 32142.680244765314, -187500.02235174447, -187500.02235174447, 1467.1461543019002, -10382.407651234586, -2850.2721011963013, 34079.45890181767, 0.012, 1.014, 0.112, 192.0, 0.0, 0.0, 0.0, 0.0, 0.0, 0.0, 0.0, 0.0, 0.0, 1.6909307388867886E9, 0.0, 2023-08-01 18:58:58.886
85.0, 21067.726143327494, 32132.51020103815, -187500.02235174447, -187500.02235174447, 1462.4299362218305, -10399.86436365418, -2853.893083798061, 34080.10710240687, 0.012, 1.014, 0.112, 192.0, 0.0, 0.0, 0.0, 0.0, 0.0, 0.0, 0.0, 0.0, 0.0, 1.6909307388868864E9, 0.0, 2023-08-01 18:58:58.886
86.0, 21078.991422532967, 32145.988302944697, -187500.02235174447, -187500.02235174447, 1482.1665265758666, -10453.329736391275, -2854.56363613172, 34029.703918660154, 0.012, 1.014, 0.112, 192.0, 0.0, 0.0, 0.0, 0.0, 0.0, 0.0, 0.0, 0.0, 0.0, 1.690930738887002E9, 0.0, 2023-08-01 18:58:58.887
87.0, 21080.10900975573, 32146.45768957826, -187500.02235174447, -187500.02235174447, 1478.2102678072772, -10412.426044038064, -2835.8105225337176, 34036.007110596554, 0.012, 1.02, 0.10200000000000001, 192.0, 0.0, 96.0, 31.0, 224.0, 3.0, 48.0, 0.0, 0.0, 0.0, 1.6909307388870957E9, 0.0, 2023-08-01 18:58:58.887
88.0, 21061.132378713177, 32121.580197999505, -187500.02235174447, -187500.02235174447, 1455.187971018311, -10381.848857623203, -2835.98933648936, 34069.2441546016, 0.012, 1.02, 0.10200000000000001, 192.0, 0.0, 0.0, 0.0, 0.0, 0.0, 0.0, 0.0, 0.0, 0.0, 1.6909307388871949E9, 0.0, 2023-08-01 18:58:58.887
89.0, 21072.64352710766, 32131.392613815384, -187500.02235174447, -187500.02235174447, 1472.9799596047355, -10399.77495667636, -2829.0155922193044, 34084.1974716422, 0.012, 1.02, 0.10200000000000001, 192.0, 0.0, 0.0, 0.0, 0.0, 0.0, 0.0, 0.0, 0.0, 0.0, 1.690930738887288E9, 0.0, 2023-08-01 18:58:58.887
90.0, 21082.03125977889, 32137.919323196333, -187500.02235174447, -187500.02235174447, 1479.3725585189532, -10442.77971300837, -2834.4247143774887, 34048.25586655806, 0.012, 1.02, 0.10200000000000001, 192.0, 0.0, 0.0, 0.0, 0.0, 0.0, 0.0, 0.0, 0.0, 0.0, 1.6909307388873813E9, 0.0, 2023-08-01 18:58:58.887
91.0, 21085.473428425008, 32139.46159356375, -187500.02235174447, -187500.02235174447, 1472.5999799489953, -10421.143224375634, -2831.0048974758265, 34039.561037964944, 0.012, 1.02, 0.10200000000000001, 192.0, 0.0, 0.0, 0.0, 0.0, 0.0, 0.0, 0.0, 0.0, 0.0, 1.6909307388874743E9, 0.0, 2023-08-01 18:58:58.887
92.0, 21082.567701645818, 32138.92515169682, -187500.02235174447, -187500.02235174447, 1471.1024130704895, -10371.656462151583, -2825.7298857843743, 34080.889413462806, 0.012, 1.02, 0.10200000000000001, 192.0, 0.0, 0.0, 0.0, 0.0, 0.0, 0.0, 0.0, 0.0, 0.0, 1.6909307388875685E9, 0.0, 2023-08-01 18:58:58.887
93.0, 21076.622137620707, 32134.052471405565, -187500.02235174447, -187500.02235174447, 1477.383253262431, -10384.016976835368, -2825.908699740017, 34094.523977580546, 0.012, 1.02, 0.10200000000000001, 192.0, 0.0, 0.0, 0.0, 0.0, 0.0, 0.0, 0.0, 0.0, 0.0, 1.6909307388876607E9, 0.0, 2023-08-01 18:58:58.887
94.0, 21074.878701553193, 32134.61126501695, -187500.02235174447, -187500.02235174447, 1484.155831832389, -10446.288936887853, -2835.966984744905, 34046.24420955708, 0.012, 1.02, 0.10200000000000001, 192.0, 0.0, 0.0, 0.0, 0.0, 0.0, 0.0, 0.0, 0.0, 0.0, 1.6909307388877723E9, 0.0, 2023-08-01 18:58:58.887
95.0, 21076.376268431697, 32125.089421878987, -187500.02235174447, -187500.02235174447, 1468.5319624581293, -10424.697151744027, -2833.1730166879915, 34038.532857720005, 0.012, 1.02, 0.10200000000000001, 192.0, 0.0, 0.0, 0.0, 0.0, 0.0, 0.0, 0.0, 0.0, 0.0, 1.6909307388878703E9, 0.0, 2023-08-01 18:58:58.887
96.0, 21073.761114330428, 32125.894084679378, -187500.02235174447, -187500.02235174447, 1457.8254768640372, -10379.189000033022, -2835.8552260226284, 34077.15667213877, 0.012, 1.02, 0.10200000000000001, 192.0, 0.0, 0.0, 0.0, 0.0, 0.0, 0.0, 0.0, 0.0, 0.0, 1.6909307388879633E9, 0.0, 2023-08-01 18:58:58.887
97.0, 21060.618288590704, 32129.000977158667, -187500.02235174447, -187500.02235174447, 1461.9829013327244, -10391.236590294433, -2833.754162043829, 34082.297573363496, 0.012, 1.022, 0.108, 192.0, 0.0, 96.0, 31.0, 240.0, 3.0, 96.0, 0.0, 0.0, 0.0, 1.690930738888056E9, 0.0, 2023-08-01 18:58:58.888
98.0, 21076.666841109614, 32144.177811643818, -187500.02235174447, -187500.02235174447, 1478.76906141866, -10429.569832035284, -2829.6414410640527, 34060.951657408674, 0.012, 1.022, 0.108, 192.0, 0.0, 0.0, 0.0, 0.0, 0.0, 0.0, 0.0, 0.0, 0.0, 1.6909307388881528E9, 0.0, 2023-08-01 18:58:58.888
99.0, 21084.46759992452, 32146.144765155885, -187500.02235174447, -187500.02235174447, 1484.4687562547633, -10427.848747712225, -2822.9135659830054, 34038.89048563129, 0.012, 1.022, 0.108, 192.0, 0.0, 0.0, 0.0, 0.0, 0.0, 0.0, 0.0, 0.0, 0.0, 1.6909307388882456E9, 0.0, 2023-08-01 18:58:58.888
100.0, 21074.878701553193, 32135.63944526189, -187500.02235174447, -187500.02235174447, 1474.3881195054198, -10387.81677339277, -2820.030190948271, 34053.754395694064, 0.012, 1.022, 0.108, 192.0, 0.0, 0.0, 0.0, 0.0, 0.0, 0.0, 0.0, 0.0, 0.0, 1.6909307388887537E9, 0.0, 2023-08-01 18:58:58.888
101.0, 21072.107085240732, 32129.60447425896, -187500.02235174447, -187500.02235174447, 1473.315235771565, -10388.219104792966, -2814.218737389891, 34062.60568649837, 0.012, 1.022, 0.108, 192.0, 0.0, 0.0, 0.0, 0.0, 0.0, 0.0, 0.0, 0.0, 0.0, 1.6909307388888516E9, 0.0, 2023-08-01 18:58:58.888
102.0, 21075.705716098037, 32132.331387082508, -187500.02235174447, -187500.02235174447, 1480.4677939972632, -10416.806985951303, -2808.9437256984384, 34056.414253284245, 0.012, 1.022, 0.108, 192.0, 0.0, 0.0, 0.0, 0.0, 0.0, 0.0, 0.0, 0.0, 0.0, 1.6909307388889554E9, 0.0, 2023-08-01 18:58:58.888
103.0, 21069.514282883916, 32125.804677701555, -187500.02235174447, -187500.02235174447, 1480.4677939972632, -10444.187872909055, -2813.123501911581, 34033.63782568429, 0.012, 1.022, 0.108, 192.0, 0.0, 0.0, 0.0, 0.0, 0.0, 0.0, 0.0, 0.0, 0.0, 1.6909307388890483E9, 0.0, 2023-08-01 18:58:58.889
104.0, 21097.18574251959, 32138.433413318806, -187500.02235174447, -187500.02235174447, 1483.127651587445, -10381.133601800633, -2798.5948680156316, 34069.33356157941, 0.012, 1.022, 0.108, 192.0, 0.0, 0.0, 0.0, 0.0, 0.0, 0.0, 0.0, 0.0, 0.0, 1.6909307388891406E9, 0.0, 2023-08-01 18:58:58.889
105.0, 21107.46754496903, 32152.202087903275, -187500.02235174447, -187500.02235174447, 1483.574686476551, -10364.638014392616, -2799.0642546491927, 34095.88743399232, 0.012, 1.022, 0.108, 192.0, 0.0, 0.0, 0.0, 0.0, 0.0, 0.0, 0.0, 0.0, 0.0, 1.6909307388892348E9, 0.0, 2023-08-01 18:58:58.889
106.0, 21085.89811156966, 32147.776442501123, -187500.02235174447, -187500.02235174447, 1489.2073260792884, -10411.576677748762, -2802.931106439961, 34064.8408609439, 0.012, 1.022, 0.108, 192.0, 0.0, 0.0, 0.0, 0.0, 0.0, 0.0, 0.0, 0.0, 0.0, 1.6909307388893287E9, 0.0, 2023-08-01 18:58:58.889
107.0, 21068.150826472145, 32124.016538145133, -187500.02235174447, -187500.02235174447, 1481.4512707532967, -10434.889547215647, -2807.692028008941, 34037.79525015298, 0.004, 1.018, 0.108, 192.0, 0.0, 32.0, 31.0, 208.0, 3.0, 96.0, 0.0, 0.0, 0.0, 1.6909307388894217E9, 0.0, 2023-08-01 18:58:58.889
108.0, 21068.329640427786, 32126.07289863502, -187500.02235174447, -187500.02235174447, 1476.444479995308, -10401.697206699517, -2809.1448913985364, 34052.07801485992, 0.004, 1.018, 0.108, 192.0, 0.0, 0.0, 0.0, 0.0, 0.0, 0.0, 0.0, 0.0, 0.0, 1.6909307388895192E9, 0.0, 2023-08-01 18:58:58.889
109.0, 21073.649355608148, 32131.370262070926, -187500.02235174447, -187500.02235174447, 1475.7739276616487, -10372.1482005296, -2804.9427634409385, 34076.486119805115, 0.004, 1.018, 0.108, 192.0, 0.0, 0.0, 0.0, 0.0, 0.0, 0.0, 0.0, 0.0, 0.0, 1.690930738889614E9, 0.0, 2023-08-01 18:58:58.889
110.0, 21077.94089054357, 32127.615169002434, -187500.02235174447, -187500.02235174447, 1480.3336835305315, -10392.801212406304, -2809.7707402432848, 34078.587183783915, 0.004, 1.018, 0.108, 192.0, 0.0, 0.0, 0.0, 0.0, 0.0, 0.0, 0.0, 0.0, 0.0, 1.6909307388897412E9, 0.0, 2023-08-01 18:58:58.889
111.0, 21086.2780912254, 32134.96889292823, -187500.02235174447, -187500.02235174447, 1491.3977970359085, -10430.888584958147, -2816.185690901958, 34051.69803520418, 0.004, 1.018, 0.108, 192.0, 0.0, 0.0, 0.0, 0.0, 0.0, 0.0, 0.0, 0.0, 0.0, 1.690930738889835E9, 0.0, 2023-08-01 18:58:58.889
112.0, 21100.918483843623, 32154.481965837716, -187500.02235174447, -187500.02235174447, 1505.0100094091904, -10396.623360708161, -2799.243068604835, 34050.66985495923, 0.004, 1.018, 0.108, 192.0, 0.0, 0.0, 0.0, 0.0, 0.0, 0.0, 0.0, 0.0, 0.0, 1.6909307388899283E9, 0.0, 2023-08-01 18:58:58.889
113.0, 21094.145905273665, 32146.50239306717, -187500.02235174447, -187500.02235174447, 1488.313256301076, -10360.704107368483, -2798.483109293355, 34076.86609946085, 0.004, 1.018, 0.108, 192.0, 0.0, 0.0, 0.0, 0.0, 0.0, 0.0, 0.0, 0.0, 0.0, 1.6909307388900228E9, 0.0, 2023-08-01 18:58:58.890
114.0, 21100.717318143525, 32150.36924485794, -187500.02235174447, -187500.02235174447, 1498.0809686280452, -10380.843029122714, -2801.2994290947236, 34072.39575056979, 0.004, 1.018, 0.108, 192.0, 0.0, 0.0, 0.0, 0.0, 0.0, 0.0, 0.0, 0.0, 0.0, 1.6909307388901155E9, 0.0, 2023-08-01 18:58:58.890
115.0, 21081.137190000678, 32129.06803239203, -187500.02235174447, -187500.02235174447, 1490.1013958575006, -10420.696189486527, -2816.476263579877, 34045.305436289964, 0.004, 1.018, 0.108, 192.0, 0.0, 0.0, 0.0, 0.0, 0.0, 0.0, 0.0, 0.0, 0.0, 1.690930738890508E9, 0.0, 2023-08-01 18:58:58.890
116.0, 21080.80191383385, 32133.627788260914, -187500.02235174447, -187500.02235174447, 1492.4483290253079, -10410.704959715005, -2817.5267955692766, 34033.39195649528, 0.004, 1.018, 0.108, 192.0, 0.0, 0.0, 0.0, 0.0, 0.0, 0.0, 0.0, 0.0, 0.0, 1.6909307388906045E9, 0.0, 2023-08-01 18:58:58.890
117.0, 21084.04291677987, 32133.53838128309, -187500.02235174447, -187500.02235174447, 1488.6932359568164, -10353.86447356516, -2804.5180802962877, 34073.133358136816, -0.002, 1.016, 0.11, 192.0, 255.0, 240.0, 31.0, 192.0, 3.0, 112.0, 0.0, 0.0, 0.0, 1.6909307393540828E9, 0.0, 2023-08-01 18:58:59.354
118.0, 21095.442306452074, 32129.179791114308, -187500.02235174447, -187500.02235174447, 1488.9838086347354, -10365.509732426373, -2809.1448913985364, 34085.292707120505, -0.002, 1.016, 0.11, 192.0, 0.0, 0.0, 0.0, 0.0, 0.0, 0.0, 0.0, 0.0, 0.0, 1.6909307393552675E9, 0.0, 2023-08-01 18:58:59.355
119.0, 21090.79314360537, 32145.36245409995, -187500.02235174447, -187500.02235174447, 1509.703875744805, -10416.337599317741, -2813.190557144947, 34051.63097997081, -0.002, 1.016, 0.11, 192.0, 0.0, 0.0, 0.0, 0.0, 0.0, 0.0, 0.0, 0.0, 0.0, 1.6909307393554597E9, 0.0, 2023-08-01 18:58:59.355
120.0, 21071.16831197361, 32139.6851110083, -187500.02235174447, -187500.02235174447, 1498.3715413059642, -10415.622343495172, -2813.347019356134, 34018.37158422131, -0.002, 1.016, 0.11, 192.0, 0.0, 0.0, 0.0, 0.0, 0.0, 0.0, 0.0, 0.0, 0.0, 1.690930739355889E9, 0.0, 2023-08-01 18:58:59.355
121.0, 21058.874852523193, 32122.65308173336, -187500.02235174447, -187500.02235174447, 1473.4046427493863, -10369.57774991724, -2820.8125020042066, 34047.674721202224, -0.002, 1.016, 0.11, 192.0, 0.0, 0.0, 0.0, 0.0, 0.0, 0.0, 0.0, 0.0, 0.0, 1.6909307393560505E9, 0.0, 2023-08-01 18:58:59.356
122.0, 21078.231463221488, 32136.488811551193, -187500.02235174447, -187500.02235174447, 1488.6485324679056, -10371.969386573957, -2815.5598420572096, 34062.38216905382, -0.002, 1.016, 0.11, 192.0, 0.0, 0.0, 0.0, 0.0, 0.0, 0.0, 0.0, 0.0, 0.0, 1.6909307393562205E9, 0.0, 2023-08-01 18:58:59.356
123.0, 21074.45401840854, 32137.137012140396, -187500.02235174447, -187500.02235174447, 1491.2636865691766, -10405.765224190382, -2823.1817869164693, 34046.46772700164, -0.002, 1.016, 0.11, 192.0, 0.0, 0.0, 0.0, 0.0, 0.0, 0.0, 0.0, 0.0, 0.0, 1.6909307393563173E9, 0.0, 2023-08-01 18:58:59.356
124.0, 21077.44915216555, 32133.717195238736, -187500.02235174447, -187500.02235174447, 1492.5153842586737, -10419.936230175046, -2822.2653653938014, 34015.935244075685, -0.002, 1.016, 0.11, 192.0, 0.0, 0.0, 0.0, 0.0, 0.0, 0.0, 0.0, 0.0, 0.0, 1.6909307393564112E9, 0.0, 2023-08-01 18:58:59.356
125.0, 21070.631870106685, 32122.675433477812, -187500.02235174447, -187500.02235174447, 1477.316198029065, -10368.393107461108, -2820.2760601372793, 34042.9361513777, -0.002, 1.016, 0.11, 192.0, 0.0, 0.0, 0.0, 0.0, 0.0, 0.0, 0.0, 0.0, 0.0, 1.6909307393565047E9, 0.0, 2023-08-01 18:58:59.356
126.0, 21062.473483380498, 32118.74152645368, -187500.02235174447, -187500.02235174447, 1468.8672386249589, -10359.832389334726, -2828.4344468634663, 34070.473500546635, -0.002, 1.016, 0.11, 192.0, 0.0, 0.0, 0.0, 0.0, 0.0, 0.0, 0.0, 0.0, 0.0, 1.690930739356598E9, 0.0, 2023-08-01 18:58:59.356
127.0, 21069.491931139462, 32120.060279376543, -187500.02235174447, -187500.02235174447, 1482.188878320322, -10415.220012094976, -2842.828970292684, 34040.72332867662, 0.006, 1.01, 0.11800000000000001, 192.0, 0.0, 48.0, 31.0, 144.0, 3.0, 176.0, 0.0, 0.0, 0.0, 1.6909307393566902E9, 0.0, 2023-08-01 18:58:59.356
128.0, 21075.146922486656, 32121.870770677422, -187500.02235174447, -187500.02235174447, 1487.374483033953, -10436.789445494347, -2836.0787434671815, 33997.60681362233, 0.006, 1.01, 0.11800000000000001, 192.0, 0.0, 0.0, 0.0, 0.0, 0.0, 0.0, 0.0, 0.0, 0.0, 1.6909307393567913E9, 0.0, 2023-08-01 18:58:59.356
129.0, 21078.186759732576, 32118.763878198133, -187500.02235174447, -187500.02235174447, 1475.7068724282828, -10379.412517477575, -2823.0700281941927, 34029.41334598224, 0.006, 1.01, 0.11800000000000001, 192.0, 0.0, 0.0, 0.0, 0.0, 0.0, 0.0, 0.0, 0.0, 0.0, 1.6909307393568854E9, 0.0, 2023-08-01 18:58:59.356
130.0, 21073.17996897459, 32115.00878512964, -187500.02235174447, -187500.02235174447, 1465.1121455564673, -10372.639938907616, -2833.9106242550165, 34047.607665968855, 0.006, 1.01, 0.11800000000000001, 192.0, 0.0, 0.0, 0.0, 0.0, 0.0, 0.0, 0.0, 0.0, 0.0, 1.690930739357633E9, 0.0, 2023-08-01 18:58:59.357
131.0, 21066.60855610473, 32122.49661952217, -187500.02235174447, -187500.02235174447, 1483.8652591544699, -10401.764261932882, -2836.3693161451, 34042.48911648859, 0.006, 1.01, 0.11800000000000001, 192.0, 0.0, 0.0, 0.0, 0.0, 0.0, 0.0, 0.0, 0.0, 0.0, 1.6909307393577294E9, 0.0, 2023-08-01 18:58:59.357
132.0, 21067.92730902759, 32126.698747479768, -187500.02235174447, -187500.02235174447, 1500.673770984861, -10429.145148890633, -2833.2400719213574, 34010.36965970632, 0.006, 1.01, 0.11800000000000001, 192.0, 0.0, 0.0, 0.0, 0.0, 0.0, 0.0, 0.0, 0.0, 0.0, 1.6909307393578775E9, 0.0, 2023-08-01 18:58:59.357
133.0, 21063.188739203066, 32117.288663064086, -187500.02235174447, -187500.02235174447, 1486.122785344456, -10382.765279145871, -2832.2789469097793, 34024.92064534672, 0.006, 1.01, 0.11800000000000001, 192.0, 0.0, 0.0, 0.0, 0.0, 0.0, 0.0, 0.0, 0.0, 0.0, 1.6909307393579729E9, 0.0, 2023-08-01 18:58:59.357
134.0, 21065.49096888196, 32118.96504389823, -187500.02235174447, -187500.02235174447, 1478.5902474630175, -10360.972328301947, -2840.213816191413, 34055.63194222831, 0.006, 1.01, 0.11800000000000001, 192.0, 0.0, 0.0, 0.0, 0.0, 0.0, 0.0, 0.0, 0.0, 0.0, 1.6909307393580968E9, 0.0, 2023-08-01 18:58:59.358
135.0, 21079.438457422075, 32125.044718390076, -187500.02235174447, -187500.02235174447, 1478.8137649075707, -10394.924628129558, -2844.728868571385, 34038.108174575354, 0.006, 1.01, 0.11800000000000001, 192.0, 0.0, 0.0, 0.0, 0.0, 0.0, 0.0, 0.0, 0.0, 0.0, 1.6909307393582385E9, 0.0, 2023-08-01 18:58:59.358
136.0, 21082.813570834824, 32131.392613815384, -187500.02235174447, -187500.02235174447, 1495.666980226872, -10428.20637562351, -2840.482037124877, 34011.174322506704, 0.006, 1.01, 0.11800000000000001, 192.0, 0.0, 0.0, 0.0, 0.0, 0.0, 0.0, 0.0, 0.0, 0.0, 1.6909307393583505E9, 0.0, 2023-08-01 18:58:59.358
137.0, 21084.08762026878, 32133.650140005368, -187500.02235174447, -187500.02235174447, 1496.829270938548, -10394.991683362923, -2822.6229933050863, 34013.40949695224, 0.006, 1.01, 0.11800000000000001, 192.0, 0.0, 0.0, 0.0, 0.0, 0.0, 0.0, 0.0, 0.0, 0.0, 1.6909307393584952E9, 0.0, 2023-08-01 18:58:59.358
138.0, 21070.0730764953, 32111.767782183622, -187500.02235174447, -187500.02235174447, 1471.7729654041489, -10353.216272975955, -2827.22745266288, 34050.15576483676, 0.006, 1.018, 0.114, 192.0, 0.0, 48.0, 31.0, 208.0, 3.0, 144.0, 0.0, 0.0, 0.0, 1.6909307393586447E9, 0.0, 2023-08-01 18:58:59.358
139.0, 21088.155637759643, 32125.044718390076, -187500.02235174447, -187500.02235174447, 1480.512497486174, -10374.070450552756, -2824.947574728438, 34068.439491801204, 0.006, 1.018, 0.114, 192.0, 0.0, 0.0, 0.0, 0.0, 0.0, 0.0, 0.0, 0.0, 0.0, 1.690930739358855E9, 0.0, 2023-08-01 18:58:59.358
140.0, 21117.436422996096, 32143.440204076793, -187500.02235174447, -187500.02235174447, 1498.8185761950704, -10420.182099364054, -2818.3314583696674, 34031.31324426094, 0.006, 1.018, 0.114, 192.0, 0.0, 0.0, 0.0, 0.0, 0.0, 0.0, 0.0, 0.0, 0.0, 1.690930739359022E9, 0.0, 2023-08-01 18:58:59.359
141.0, 21097.878646597703, 32147.955256456764, -187500.02235174447, -187500.02235174447, 1498.1703756058664, -10392.53299147284, -2813.861109478606, 34028.13929654829, 0.006, 1.018, 0.114, 192.0, 0.0, 0.0, 0.0, 0.0, 0.0, 0.0, 0.0, 0.0, 0.0, 1.6909307393592186E9, 0.0, 2023-08-01 18:58:59.359
142.0, 21083.193550490567, 32140.780346486612, -187500.02235174447, -187500.02235174447, 1481.317160286565, -10353.417438676053, -2825.4840165953656, 34062.3374655649, 0.006, 1.018, 0.114, 192.0, 0.0, 0.0, 0.0, 0.0, 0.0, 0.0, 0.0, 0.0, 0.0, 1.6909307393593743E9, 0.0, 2023-08-01 18:58:59.359
143.0, 21086.591015647773, 32139.93098019731, -187500.02235174447, -187500.02235174447, 1485.1616603328778, -10372.818752863259, -2828.9708887303937, 34072.46280580316, 0.006, 1.018, 0.114, 192.0, 0.0, 0.0, 0.0, 0.0, 0.0, 0.0, 0.0, 0.0, 0.0, 1.690930739359531E9, 0.0, 2023-08-01 18:58:59.359
144.0, 21082.99238479047, 32127.54811376907, -187500.02235174447, -187500.02235174447, 1485.027549866146, -10425.501814544417, -2844.505351126832, 34037.907008875256, 0.006, 1.018, 0.114, 192.0, 0.0, 0.0, 0.0, 0.0, 0.0, 0.0, 0.0, 0.0, 0.0, 1.690930739359707E9, 0.0, 2023-08-01 18:58:59.359
145.0, 21111.22263803752, 32151.576239058526, -187500.02235174447, -187500.02235174447, 1501.6795994853496, -10418.125738874167, -2829.484978852866, 34022.506656945545, 0.006, 1.018, 0.114, 192.0, 0.0, 0.0, 0.0, 0.0, 0.0, 0.0, 0.0, 0.0, 0.0, 1.690930739359862E9, 0.0, 2023-08-01 18:58:59.359
146.0, 21108.27220776942, 32155.644256549393, -187500.02235174447, -187500.02235174447, 1493.9235441593582, -10346.868377550647, -2815.1128071681032, 34067.21014585616, 0.006, 1.018, 0.114, 192.0, 0.0, 0.0, 0.0, 0.0, 0.0, 0.0, 0.0, 0.0, 0.0, 1.69093073936078E9, 0.0, 2023-08-01 18:58:59.360
147.0, 21092.737745372982, 32141.74147149819, -187500.02235174447, -187500.02235174447, 1482.3900440204197, -10358.357174200675, -2830.826083520184, 34089.38307635583, 0.006, 1.018, 0.114, 192.0, 0.0, 0.0, 0.0, 0.0, 0.0, 0.0, 0.0, 0.0, 0.0, 1.6909307393608763E9, 0.0, 2023-08-01 18:58:59.360
148.0, 21084.378192946697, 32134.655968505856, -187500.02235174447, -187500.02235174447, 1485.407529521886, -10413.409520794097, -2847.321670928201, 34052.145070093284, 0.008, 1.02, 0.112, 192.0, 0.0, 64.0, 31.0, 224.0, 3.0, 128.0, 0.0, 0.0, 0.0, 1.6909307393609712E9, 0.0, 2023-08-01 18:58:59.360
149.0, 21086.546312158862, 32135.41592781734, -187500.02235174447, -187500.02235174447, 1490.3919685354197, -10418.975105163468, -2838.537435357265, 34026.17234303622, 0.008, 1.02, 0.112, 192.0, 0.0, 0.0, 0.0, 0.0, 0.0, 0.0, 0.0, 0.0, 0.0, 1.690930739361074E9, 0.0, 2023-08-01 18:58:59.361
150.0, 21096.671652397115, 32141.652064520367, -187500.02235174447, -187500.02235174447, 1489.766119690671, -10365.822656848748, -2826.8474730071393, 34061.376340553325, 0.008, 1.02, 0.112, 192.0, 0.0, 0.0, 0.0, 0.0, 0.0, 0.0, 0.0, 0.0, 0.0, 1.6909307393613915E9, 0.0, 2023-08-01 18:58:59.361
151.0, 21095.107030285246, 32137.628750518415, -187500.02235174447, -187500.02235174447, 1485.9216196443583, -10361.754639357881, -2825.0146299618045, 34074.876794204334, 0.008, 1.02, 0.112, 192.0, 0.0, 0.0, 0.0, 0.0, 0.0, 0.0, 0.0, 0.0, 0.0, 1.690930739361529E9, 0.0, 2023-08-01 18:58:59.361
152.0, 21086.099277269757, 32128.64334924738, -187500.02235174447, -187500.02235174447, 1475.7515759171936, -10392.622398450661, -2835.4528946224327, 34073.692151748204, 0.008, 1.02, 0.112, 192.0, 0.0, 0.0, 0.0, 0.0, 0.0, 0.0, 0.0, 0.0, 0.0, 1.6909307393616655E9, 0.0, 2023-08-01 18:58:59.361
153.0, 21101.589036177284, 32139.394538330384, -187500.02235174447, -187500.02235174447, 1487.7768144341487, -10427.73698898995, -2839.252691179835, 34032.47553497261, 0.008, 1.02, 0.112, 192.0, 0.0, 0.0, 0.0, 0.0, 0.0, 0.0, 0.0, 0.0, 0.0, 1.6909307393618069E9, 0.0, 2023-08-01 18:58:59.361
154.0, 21094.101201784757, 32136.533515040104, -187500.02235174447, -187500.02235174447, 1478.992578863213, -10369.778915617337, -2826.825121262684, 34053.26265731605, 0.008, 1.02, 0.112, 192.0, 0.0, 0.0, 0.0, 0.0, 0.0, 0.0, 0.0, 0.0, 0.0, 1.690930739361944E9, 0.0, 2023-08-01 18:58:59.361
155.0, 21104.092431556277, 32146.524744811624, -187500.02235174447, -187500.02235174447, 1494.2364685817324, -10373.690470897016, -2829.149702686036, 34059.632904485814, 0.008, 1.02, 0.112, 192.0, 0.0, 0.0, 0.0, 0.0, 0.0, 0.0, 0.0, 0.0, 0.0, 1.6909307393621023E9, 0.0, 2023-08-01 18:58:59.362
156.0, 21109.79212639238, 32150.12337566893, -187500.02235174447, -187500.02235174447, 1508.2733640996653, -10389.873133882658, -2817.727961269374, 34047.5853142244, 0.008, 1.02, 0.112, 192.0, 0.0, 0.0, 0.0, 0.0, 0.0, 0.0, 0.0, 0.0, 0.0, 1.6909307393622959E9, 0.0, 2023-08-01 18:58:59.362
157.0, 21092.22365525051, 32132.152573126863, -187500.02235174447, -187500.02235174447, 1496.3375325605314, -10416.53876501784, -2833.061257965715, 34035.96240710764, 0.008, 1.02, 0.112, 192.0, 0.0, 0.0, 0.0, 0.0, 0.0, 0.0, 0.0, 0.0, 0.0, 1.690930739362449E9, 0.0, 2023-08-01 18:58:59.362
158.0, 21094.235312251487, 32132.51020103815, -187500.02235174447, -187500.02235174447, 1490.6601894688833, -10387.570904203762, -2831.8766155095836, 34057.44243352919, 0.004, 1.02, 0.108, 192.0, 0.0, 32.0, 31.0, 224.0, 3.0, 96.0, 0.0, 0.0, 0.0, 1.6909307393625994E9, 0.0, 2023-08-01 18:58:59.362
159.0, 21101.32081524382, 32138.70163425227, -187500.02235174447, -187500.02235174447, 1488.0450353676124, -10372.550531929795, -2831.2060631759246, 34064.036198143505, 0.004, 1.02, 0.108, 192.0, 0.0, 0.0, 0.0, 0.0, 0.0, 0.0, 0.0, 0.0, 0.0, 1.6909307393627656E9, 0.0, 2023-08-01 18:58:59.362
160.0, 21098.549198931363, 32132.89018069389, -187500.02235174447, -187500.02235174447, 1483.0158928651683, -10393.24824729541, -2835.6540603225303, 34056.36954979534, 0.004, 1.02, 0.108, 192.0, 0.0, 0.0, 0.0, 0.0, 0.0, 0.0, 0.0, 0.0, 0.0, 1.6909307393629775E9, 0.0, 2023-08-01 18:58:59.362
161.0, 21088.98265230449, 32123.569503256025, -187500.02235174447, -187500.02235174447, 1487.1286138449448, -10438.979916450968, -2845.5782348606867, 34025.92647384721, 0.004, 1.02, 0.108, 192.0, 0.0, 0.0, 0.0, 0.0, 0.0, 0.0, 0.0, 0.0, 0.0, 1.6909307393633308E9, 0.0, 2023-08-01 18:58:59.363
162.0, 21097.386908219687, 32132.331387082508, -187500.02235174447, -187500.02235174447, 1481.1383463309226, -10407.285142813344, -2838.872711524095, 34034.0848605734, 0.004, 1.02, 0.108, 192.0, 0.0, 0.0, 0.0, 0.0, 0.0, 0.0, 0.0, 0.0, 0.0, 1.690930739363428E9, 0.0, 2023-08-01 18:58:59.363
163.0, 21100.359690232242, 32133.270160349628, -187500.02235174447, -187500.02235174447, 1474.8575061389813, -10364.705069625983, -2835.2293771778795, 34080.35297159588, 0.004, 1.02, 0.108, 192.0, 0.0, 0.0, 0.0, 0.0, 0.0, 0.0, 0.0, 0.0, 0.0, 1.690930739363521E9, 0.0, 2023-08-01 18:58:59.363
164.0, 21097.878646597703, 32130.20797135925, -187500.02235174447, -187500.02235174447, 1483.0158928651683, -10392.91297112858, -2839.27504292429, 34076.17319538274, 0.004, 1.02, 0.108, 192.0, 0.0, 0.0, 0.0, 0.0, 0.0, 0.0, 0.0, 0.0, 0.0, 1.6909307393636136E9, 0.0, 2023-08-01 18:58:59.363
165.0, 21091.59780640576, 32126.207009101752, -187500.02235174447, -187500.02235174447, 1486.2568958111879, -10436.007134438412, -2849.08745874017, 34047.540610735494, 0.004, 1.02, 0.108, 192.0, 0.0, 0.0, 0.0, 0.0, 0.0, 0.0, 0.0, 0.0, 0.0, 1.6909307393637068E9, 0.0, 2023-08-01 18:58:59.363
166.0, 21090.860198838735, 32135.281817350606, -187500.02235174447, -187500.02235174447, 1486.1004336000008, -10433.704904759516, -2851.568502374709, 34026.7311366476, 0.004, 1.02, 0.108, 192.0, 0.0, 0.0, 0.0, 0.0, 0.0, 0.0, 0.0, 0.0, 0.0, 1.6909307393638012E9, 0.0, 2023-08-01 18:58:59.363
167.0, 21093.207132006544, 32134.231285361206, -187500.02235174447, -187500.02235174447, 1473.4046427493863, -10383.189962290522, -2844.2371301933686, 34054.76022419456, 0.004, 1.02, 0.108, 192.0, 0.0, 0.0, 0.0, 0.0, 0.0, 0.0, 0.0, 0.0, 0.0, 1.6909307393638957E9, 0.0, 2023-08-01 18:58:59.363
168.0, 21078.186759732576, 32113.511218251137, -187500.02235174447, -187500.02235174447, 1463.2122472777662, -10403.552401489307, -2856.7094035994296, 34063.70092197668, 0.002, 1.02, 0.112, 192.0, 0.0, 16.0, 31.0, 224.0, 3.0, 128.0, 0.0, 0.0, 0.0, 1.6909307393639884E9, 0.0, 2023-08-01 18:58:59.363
169.0, 21079.617271377716, 32115.187599085286, -187500.02235174447, -187500.02235174447, 1483.8205556655594, -10450.35695437872, -2846.539359872265, 34037.8846571308, 0.002, 1.02, 0.112, 192.0, 0.0, 0.0, 0.0, 0.0, 0.0, 0.0, 0.0, 0.0, 0.0, 1.6909307393641026E9, 0.0, 2023-08-01 18:58:59.364
170.0, 21093.52005642892, 32125.55880851255, -187500.02235174447, -187500.02235174447, 1495.1752418488554, -10426.77586397837, -2822.734752027363, 34033.61547393983, 0.002, 1.02, 0.112, 192.0, 0.0, 0.0, 0.0, 0.0, 0.0, 0.0, 0.0, 0.0, 0.0, 1.6909307393643343E9, 0.0, 2023-08-01 18:58:59.364
171.0, 21102.594864677772, 32128.732756225203, -187500.02235174447, -187500.02235174447, 1489.6543609683945, -10366.448505693497, -2817.6609060360083, 34074.76503548206, 0.002, 1.02, 0.112, 192.0, 0.0, 0.0, 0.0, 0.0, 0.0, 0.0, 0.0, 0.0, 0.0, 1.690930739364474E9, 0.0, 2023-08-01 18:58:59.364
172.0, 21092.178951761598, 32127.235189346695, -187500.02235174447, -187500.02235174447, 1480.8254219085482, -10378.071412810257, -2828.3226881411897, 34084.59980304239, 0.002, 1.02, 0.112, 192.0, 0.0, 0.0, 0.0, 0.0, 0.0, 0.0, 0.0, 0.0, 0.0, 1.690930739364576E9, 0.0, 2023-08-01 18:58:59.364
173.0, 21090.03318429389, 32134.477154550215, -187500.02235174447, -187500.02235174447, 1486.2345440667325, -10427.848747712225, -2843.164246459514, 34059.007055641065, 0.002, 1.02, 0.112, 192.0, 0.0, 0.0, 0.0, 0.0, 0.0, 0.0, 0.0, 0.0, 0.0, 1.6909307393647258E9, 0.0, 2023-08-01 18:58:59.364
174.0, 21078.902015555148, 32129.06803239203, -187500.02235174447, -187500.02235174447, 1480.8924771419142, -10448.077076444279, -2849.758011073829, 34025.524142447015, 0.002, 1.02, 0.112, 192.0, 0.0, 0.0, 0.0, 0.0, 0.0, 0.0, 0.0, 0.0, 0.0, 1.690930739364878E9, 0.0, 2023-08-01 18:58:59.364
175.0, 21093.788277362382, 32141.428547075815, -187500.02235174447, -187500.02235174447, 1489.8108231795816, -10382.899389612603, -2825.506368339821, 34059.767014952544, 0.002, 1.02, 0.112, 192.0, 0.0, 0.0, 0.0, 0.0, 0.0, 0.0, 0.0, 0.0, 0.0, 1.6909307393650298E9, 0.0, 2023-08-01 18:58:59.365
176.0, 21091.9777860615, 32129.805639959057, -187500.02235174447, -187500.02235174447, 1473.4269944938417, -10367.320223727254, -2831.407228876022, 34091.26062289007, 0.002, 1.02, 0.112, 192.0, 0.0, 0.0, 0.0, 0.0, 0.0, 0.0, 0.0, 0.0, 0.0, 1.690930739365215E9, 0.0, 2023-08-01 18:58:59.365
177.0, 21093.36359421773, 32130.766764970635, -187500.02235174447, -187500.02235174447, 1483.0605963540788, -10422.238459853943, -2850.093287240659, 34072.574564525436, 0.002, 1.02, 0.112, 192.0, 0.0, 0.0, 0.0, 0.0, 0.0, 0.0, 0.0, 0.0, 0.0, 1.69093073936557E9, 0.0, 2023-08-01 18:58:59.365
178.0, 21087.105105770246, 32130.74441322618, -187500.02235174447, -187500.02235174447, 1489.5873057350286, -10447.45122759953, -2846.0476214942482, 34033.906046617754, 0.012, 1.018, 0.114, 192.0, 0.0, 96.0, 31.0, 208.0, 3.0, 144.0, 0.0, 0.0, 0.0, 1.690930739365718E9, 0.0, 2023-08-01 18:58:59.365
179.0, 21094.88351284069, 32141.093270908987, -187500.02235174447, -187500.02235174447, 1485.2957707996097, -10387.012110592379, -2835.8105225337176, 34063.477404532125, 0.012, 1.018, 0.114, 192.0, 0.0, 0.0, 0.0, 0.0, 0.0, 0.0, 0.0, 0.0, 0.0, 1.6909307393659985E9, 0.0, 2023-08-01 18:58:59.365
180.0, 21105.254722267953, 32152.492660581192, -187500.02235174447, -187500.02235174447, 1485.8098609220817, -10362.514598669362, -2833.441237621455, 34089.40542810028, 0.012, 1.018, 0.114, 192.0, 0.0, 0.0, 0.0, 0.0, 0.0, 0.0, 0.0, 0.0, 0.0, 1.6909307393661342E9, 0.0, 2023-08-01 18:58:59.366
181.0, 21115.380062506207, 32152.738529770202, -187500.02235174447, -187500.02235174447, 1502.1042826300006, -10392.1530118171, -2826.1098654401144, 34084.376285597835, 0.012, 1.018, 0.114, 192.0, 0.0, 0.0, 0.0, 0.0, 0.0, 0.0, 0.0, 0.0, 0.0, 1.6909307393662293E9, 0.0, 2023-08-01 18:58:59.366
182.0, 21118.464603241042, 32150.950390213777, -187500.02235174447, -187500.02235174447, 1503.4230355528637, -10422.640791254138, -2826.4004381180334, 34059.61055274136, 0.012, 1.018, 0.114, 192.0, 0.0, 0.0, 0.0, 0.0, 0.0, 0.0, 0.0, 0.0, 0.0, 1.690930739366394E9, 0.0, 2023-08-01 18:58:59.366
183.0, 21121.0350538534, 32158.013541461652, -187500.02235174447, -187500.02235174447, 1496.3375325605314, -10387.369738503665, -2821.281888637768, 34069.57943076843, 0.012, 1.018, 0.114, 192.0, 0.0, 0.0, 0.0, 0.0, 0.0, 0.0, 0.0, 0.0, 0.0, 1.690930739366532E9, 0.0, 2023-08-01 18:58:59.366
184.0, 21112.56374270484, 32152.559715814557, -187500.02235174447, -187500.02235174447, 1486.4357097668303, -10370.181247017534, -2827.875653252084, 34084.68921002021, 0.012, 1.018, 0.114, 192.0, 0.0, 0.0, 0.0, 0.0, 0.0, 0.0, 0.0, 0.0, 0.0, 1.6909307393666666E9, 0.0, 2023-08-01 18:58:59.366
185.0, 21096.403431463652, 32135.147706883876, -187500.02235174447, -187500.02235174447, 1470.7000816702941, -10407.1063288577, -2848.9757000178934, 34068.14891912328, 0.012, 1.018, 0.114, 192.0, 0.0, 0.0, 0.0, 0.0, 0.0, 0.0, 0.0, 0.0, 0.0, 1.6909307393667617E9, 0.0, 2023-08-01 18:58:59.366
186.0, 21119.917466630635, 32154.973704215732, -187500.02235174447, -187500.02235174447, 1493.2082883367884, -10437.571756550284, -2839.27504292429, 34045.730119434615, 0.012, 1.018, 0.114, 192.0, 0.0, 0.0, 0.0, 0.0, 0.0, 0.0, 0.0, 0.0, 0.0, 1.6909307393668551E9, 0.0, 2023-08-01 18:58:59.366
187.0, 21120.073928841823, 32167.155404943875, -187500.02235174447, -187500.02235174447, 1500.7631779626822, -10406.212259079488, -2824.3887811170557, 34038.48815423109, 0.012, 1.018, 0.114, 192.0, 0.0, 0.0, 0.0, 0.0, 0.0, 0.0, 0.0, 0.0, 0.0, 1.6909307393669486E9, 0.0, 2023-08-01 18:58:59.366
188.0, 21106.21584727953, 32156.761843772158, -187500.02235174447, -187500.02235174447, 1485.6757504553498, -10356.09964801069, -2815.671600779486, 34077.22372737214, 0.012, 1.016, 0.11800000000000001, 192.0, 0.0, 96.0, 31.0, 192.0, 3.0, 176.0, 0.0, 0.0, 0.0, 1.690930739367041E9, 0.0, 2023-08-01 18:58:59.367
189.0, 21098.549198931363, 32147.105890167462, -187500.02235174447, -187500.02235174447, 1485.3628260329756, -10379.926607600048, -2824.545243328243, 34093.6969630357, 0.012, 1.016, 0.11800000000000001, 192.0, 0.0, 0.0, 0.0, 0.0, 0.0, 0.0, 0.0, 0.0, 0.0, 1.6909307393671768E9, 0.0, 2023-08-01 18:58:59.367
190.0, 21106.975806591014, 32148.067015179044, -187500.02235174447, -187500.02235174447, 1488.8944016569142, -10435.82832048277, -2841.219644691902, 34056.07897711742, 0.012, 1.016, 0.11800000000000001, 192.0, 0.0, 0.0, 0.0, 0.0, 0.0, 0.0, 0.0, 0.0, 0.0, 1.690930739367273E9, 0.0, 2023-08-01 18:58:59.367
